##NAMES=Afmite
##RRUFFID=R130082
##IDEAL CHEMISTRY=Al_3_(OH)_4_(H_2_O)_3_(PO_4_)(PO_3_OH)&#183;H_2_O
##LOCALITY=Fumade (hamlet), Castelnau-de-Brassac (village), Tarn, France
##OWNER=Anthony R. Kampf
##SOURCE=Anthony R. Kampf and George R. Rossman
##DESCRIPTION=Dull white to cream to yellowish surface. Data from Kampf et al (2011)
##STATUS=The identification of this mineral has been confirmed by X-ray diffraction and chemical analysis
##URL=rruff.info/R130082
4000.1, 54551.8
3999.03, 54119.1
3997.95, 54340.7
3996.88, 54462.2
3995.8, 54711.6
3994.73, 54407.5
3993.65, 54394.1
3992.57, 54266.8
3991.5, 54423.1
3990.42, 54577
3989.35, 54335.9
3988.27, 53816.2
3987.19, 54093.2
3986.12, 54414.2
3985.04, 54414.8
3983.96, 54125.1
3982.89, 54490.1
3981.81, 54337.5
3980.73, 54024.8
3979.65, 54190.1
3978.58, 54346
3977.5, 54221.3
3976.42, 54370.3
3975.34, 54417.2
3974.26, 53930.9
3973.18, 54320.9
3972.11, 54034.1
3971.03, 54203.8
3969.95, 53796.6
3968.87, 54362.4
3967.79, 54580.6
3966.71, 54039.2
3965.63, 54069.9
3964.55, 54332
3963.47, 54425.1
3962.39, 53951.2
3961.31, 54083.7
3960.23, 53996.3
3959.15, 53781.8
3958.06, 54298
3956.98, 54238.4
3955.9, 54225.1
3954.82, 54507.6
3953.74, 54011.2
3952.66, 53766.8
3951.57, 53490.2
3950.49, 54181.4
3949.41, 54461.4
3948.33, 53889.2
3947.24, 53478.8
3946.16, 53795.6
3945.08, 53851.6
3943.99, 54011.4
3942.91, 53575.8
3941.83, 54051.6
3940.74, 54239
3939.66, 54013.5
3938.57, 53725.8
3937.49, 54081.4
3936.41, 53671.6
3935.32, 53870.3
3934.24, 54571.4
3933.15, 53972.8
3932.07, 53625.4
3930.98, 53978.4
3929.89, 53536.8
3928.81, 53617.9
3927.72, 53917.8
3926.64, 53766.4
3925.55, 53911.9
3924.46, 54275.9
3923.38, 53862.3
3922.29, 53697.2
3921.2, 53575.8
3920.12, 53608.6
3919.03, 53931
3917.94, 53828
3916.85, 53653.9
3915.77, 53753.2
3914.68, 53739.9
3913.59, 53618.7
3912.5, 53706.5
3911.41, 53649.6
3910.32, 53620.3
3909.23, 53905.5
3908.14, 53878.4
3907.06, 54030.4
3905.97, 53753.2
3904.88, 53861.5
3903.79, 53761.1
3902.7, 53805.1
3901.61, 53961.6
3900.52, 53689.2
3899.43, 53481.1
3898.33, 53706.2
3897.24, 54016.1
3896.15, 53553.7
3895.06, 53671
3893.97, 53625.7
3892.88, 53994.9
3891.79, 53748.1
3890.69, 54101.1
3889.6, 53364.4
3888.51, 53593.8
3887.42, 53720.2
3886.32, 53869.4
3885.23, 53874.4
3884.14, 54046.4
3883.05, 53797.5
3881.95, 53900.9
3880.86, 53688.7
3879.76, 53394.3
3878.67, 53694.2
3877.58, 53244.5
3876.48, 53651.7
3875.39, 53487.7
3874.29, 53689.1
3873.2, 53248.9
3872.1, 53406.9
3871.01, 53450.8
3869.91, 53570
3868.82, 53659.4
3867.72, 53554.9
3866.63, 53623.8
3865.53, 53382.5
3864.43, 53946.3
3863.34, 54202
3862.24, 53267.7
3861.14, 53359.3
3860.05, 53232.2
3858.95, 53522.1
3857.85, 53217.2
3856.75, 53677.9
3855.66, 53307.1
3854.56, 53633.2
3853.46, 53615.4
3852.36, 53486.1
3851.26, 52931.1
3850.17, 53848.8
3849.07, 53407.7
3847.97, 53371.8
3846.87, 53483.7
3845.77, 53340.9
3844.67, 53345.9
3843.57, 53398.6
3842.47, 53771.9
3841.37, 54031.3
3840.27, 53275
3839.17, 53607.1
3838.07, 53389.5
3836.97, 53269.5
3835.87, 53256.3
3834.77, 53638.2
3833.67, 53309.4
3832.57, 53505.1
3831.46, 52976.7
3830.36, 53785
3829.26, 53197.8
3828.16, 53345.7
3827.06, 53393.7
3825.95, 53573.3
3824.85, 53181.4
3823.75, 53111.6
3822.64, 53363.6
3821.54, 53166.9
3820.44, 53296.5
3819.33, 53496.2
3818.23, 52984.7
3817.13, 52942.1
3816.02, 53230.2
3814.92, 53524.9
3813.81, 53000.1
3812.71, 53220.1
3811.61, 52994.3
3810.5, 53218.7
3809.39, 53069.8
3808.29, 53049.9
3807.18, 53030
3806.08, 53539.1
3804.97, 53030.8
3803.87, 53187.2
3802.76, 53135.7
3801.65, 53287.5
3800.55, 53190.7
3799.44, 53252.1
3798.33, 53146.3
3797.23, 53020.3
3796.12, 53214.9
3795.01, 52779.6
3793.9, 53199.8
3792.8, 53484.6
3791.69, 53412.7
3790.58, 52833.3
3789.47, 53108.9
3788.36, 53086.7
3787.25, 53170.6
3786.15, 53053.7
3785.04, 52975.2
3783.93, 53068
3782.82, 53555.1
3781.71, 53228.8
3780.6, 53290
3779.49, 52848.9
3778.38, 52799.7
3777.27, 53178.4
3776.16, 53199
3775.05, 53062.1
3773.94, 53055.7
3772.82, 52921.1
3771.71, 52935
3770.6, 52804.9
3769.49, 53095.4
3768.38, 52841.7
3767.27, 53161.3
3766.15, 53215.6
3765.04, 52710.3
3763.93, 53295
3762.82, 53180.7
3761.7, 52848.6
3760.59, 52718.7
3759.48, 52420.4
3758.36, 53226.9
3757.25, 52749.1
3756.14, 53184.9
3755.02, 53293
3753.91, 53066.6
3752.79, 53268.9
3751.68, 52932.7
3750.56, 52648.2
3749.45, 53287.7
3748.33, 52720.8
3747.22, 53418.3
3746.1, 53320
3744.99, 52950.5
3743.87, 52652.9
3742.76, 52935.5
3741.64, 53180
3740.52, 53290
3739.41, 53447
3738.29, 52939.1
3737.17, 52525.3
3736.06, 53085.2
3734.94, 52973.6
3733.82, 52598.1
3732.7, 52649.9
3731.59, 53137.9
3730.47, 53055.4
3729.35, 52908.1
3728.23, 53080.6
3727.11, 53221.7
3725.99, 53313.6
3724.88, 53112.7
3723.76, 53238.1
3722.64, 52691.1
3721.52, 52993
3720.4, 53401.9
3719.28, 53299.4
3718.16, 53243.8
3717.04, 53121.3
3715.92, 52909.6
3714.8, 53119.6
3713.68, 53088.7
3712.56, 53280.7
3711.43, 53434.8
3710.31, 53196.5
3709.19, 53236.8
3708.07, 53533.5
3706.95, 53221.7
3705.83, 53148.4
3704.7, 53293.4
3703.58, 53068.7
3702.46, 52946.4
3701.34, 53169.4
3700.21, 53490.2
3699.09, 53022.9
3697.97, 53495
3696.84, 53448.4
3695.72, 53884.7
3694.6, 53241.9
3693.47, 53397.8
3692.35, 53953.9
3691.22, 53153.6
3690.1, 53327.2
3688.97, 53454.1
3687.85, 53449.8
3686.72, 53954.3
3685.6, 54023.3
3684.47, 53696.8
3683.35, 53816.8
3682.22, 53586
3681.1, 53799.3
3679.97, 53548.5
3678.84, 53586.4
3677.72, 53269.2
3676.59, 53895
3675.46, 53881.8
3674.34, 53972.8
3673.21, 53673.5
3672.08, 53746.7
3670.95, 54423
3669.83, 53831.1
3668.7, 53970.8
3667.57, 54075
3666.44, 54374.1
3665.31, 54126
3664.18, 54542.3
3663.05, 54416.1
3661.93, 54190.2
3660.8, 54336.3
3659.67, 54225.6
3658.54, 54604
3657.41, 54663.6
3656.28, 54376
3655.15, 54280.8
3654.02, 54785
3652.89, 54826.9
3651.75, 54656.5
3650.62, 55100.7
3649.49, 55009.9
3648.36, 55051.7
3647.23, 55173.1
3646.1, 55161.8
3644.97, 55157.2
3643.83, 55099.6
3642.7, 55722.1
3641.57, 55741.6
3640.44, 56169.5
3639.3, 55955.1
3638.17, 55906.2
3637.04, 56108.8
3635.9, 55857
3634.77, 56291.2
3633.64, 56304
3632.5, 56127.2
3631.37, 56547.9
3630.23, 56952.9
3629.1, 57007.5
3627.96, 57097.3
3626.83, 56993.2
3625.69, 57113.8
3624.56, 56840.2
3623.42, 57357.1
3622.29, 57308.1
3621.15, 57820.3
3620.02, 57870.3
3618.88, 57893.8
3617.74, 57970.1
3616.61, 58160.8
3615.47, 58386.6
3614.33, 58445.1
3613.2, 58743.4
3612.06, 58931.6
3610.92, 58862.6
3609.78, 58819.9
3608.65, 59265.1
3607.51, 59560.7
3606.37, 59544.3
3605.23, 59271.1
3604.09, 60038.6
3602.95, 60046.3
3601.81, 60212
3600.68, 60770.5
3599.54, 60795.7
3598.4, 61489.9
3597.26, 61826.4
3596.12, 61704.4
3594.98, 62005.6
3593.84, 62374.7
3592.7, 62895
3591.55, 64151.4
3590.41, 64092.7
3589.27, 64938.8
3588.13, 65602.8
3586.99, 66363
3585.85, 66853.6
3584.71, 67403.1
3583.56, 67777.3
3582.42, 68418.4
3581.28, 69197.2
3580.14, 69376.2
3578.99, 69874.6
3577.85, 70342.1
3576.71, 70170.9
3575.57, 70561.7
3574.42, 71116.4
3573.28, 70881.7
3572.13, 71648.1
3570.99, 71354.5
3569.85, 71548.1
3568.7, 71905.5
3567.56, 71697.1
3566.41, 72615.6
3565.27, 72832.9
3564.12, 73633.1
3562.98, 74136.1
3561.83, 75005.5
3560.68, 75527.8
3559.54, 76455.6
3558.39, 76248.9
3557.25, 77472.9
3556.1, 77948.6
3554.95, 78060.1
3553.81, 77567.7
3552.66, 77936.3
3551.51, 77775.3
3550.36, 76897.6
3549.22, 76015.8
3548.07, 75611.2
3546.92, 74788.7
3545.77, 73703
3544.62, 72837.5
3543.48, 72183.5
3542.33, 71993.1
3541.18, 70778
3540.03, 70481.4
3538.88, 69993.5
3537.73, 69549.2
3536.58, 68948.4
3535.43, 68591.4
3534.28, 68410.6
3533.13, 67825.6
3531.98, 67838.3
3530.83, 67496.9
3529.68, 67585.7
3528.53, 67843.9
3527.38, 67307.2
3526.22, 67142
3525.07, 67183
3523.92, 66980.9
3522.77, 66926.5
3521.62, 66876.4
3520.46, 67130.1
3519.31, 67049.6
3518.16, 66819.5
3517.01, 66750
3515.85, 66908.1
3514.7, 66942.6
3513.55, 66916.3
3512.39, 67447
3511.24, 67357.9
3510.08, 67890.5
3508.93, 68176.1
3507.78, 68610.9
3506.62, 68902.7
3505.47, 69114.3
3504.31, 69888.6
3503.16, 70082.7
3502, 71116.2
3500.84, 72402.5
3499.69, 72704.2
3498.53, 74541.2
3497.38, 74256.5
3496.22, 75310
3495.06, 76013.1
3493.91, 76013.5
3492.75, 76003.1
3491.59, 76236.9
3490.43, 75546
3489.28, 75358.6
3488.12, 75255.5
3486.96, 75219.3
3485.8, 74552.8
3484.65, 74240.5
3483.49, 73585.2
3482.33, 73922.6
3481.17, 74026.9
3480.01, 74312.3
3478.85, 74181.4
3477.69, 74046.3
3476.53, 74555.8
3475.37, 74972.4
3474.21, 74617.3
3473.05, 75163.1
3471.89, 75902.6
3470.73, 75842.7
3469.57, 76336.3
3468.41, 76284.9
3467.25, 76705
3466.09, 77062.6
3464.93, 77480.4
3463.76, 77695.7
3462.6, 77760.3
3461.44, 77988.4
3460.28, 78967
3459.11, 78468
3457.95, 78934.5
3456.79, 79658.8
3455.63, 79996
3454.46, 79591.6
3453.3, 79750.4
3452.14, 80169
3450.97, 80656.3
3449.81, 79803.2
3448.64, 80919.5
3447.48, 80968.4
3446.31, 80145.7
3445.15, 80503.7
3443.98, 80187.9
3442.82, 80502.9
3441.65, 80326.5
3440.49, 79421
3439.32, 79075.4
3438.16, 79589.8
3436.99, 79445.9
3435.82, 78727.5
3434.66, 78333.1
3433.49, 78050.1
3432.32, 77561.6
3431.16, 77533.8
3429.99, 76953.4
3428.82, 77131.2
3427.65, 76716
3426.49, 76230.2
3425.32, 76104.2
3424.15, 75988.8
3422.98, 75090.5
3421.81, 75061
3420.64, 75249.6
3419.47, 75074.6
3418.31, 74576.8
3417.14, 74278
3415.97, 74079.7
3414.8, 73772.6
3413.63, 73850.1
3412.46, 73748.1
3411.29, 73686.8
3410.11, 73495.2
3408.94, 73596.2
3407.77, 73300
3406.6, 73272.9
3405.43, 73341.9
3404.26, 72954.2
3403.09, 72705.3
3401.92, 73358.8
3400.74, 73150.4
3399.57, 72850.4
3398.4, 72663.5
3397.23, 72557.6
3396.05, 72722.5
3394.88, 72559.1
3393.71, 72257.3
3392.53, 72786.5
3391.36, 71956.5
3390.18, 72340.6
3389.01, 72122.1
3387.84, 71767.4
3386.66, 72317.4
3385.49, 71488.2
3384.31, 71099.7
3383.14, 71502.8
3381.96, 71280.3
3380.79, 71481.2
3379.61, 71341.7
3378.43, 70898.3
3377.26, 71033.2
3376.08, 70356.2
3374.91, 70816.3
3373.73, 70549.5
3372.55, 70461.3
3371.38, 70383.8
3370.2, 70251.1
3369.02, 70256.4
3367.84, 70616.2
3366.67, 69982.6
3365.49, 69801.2
3364.31, 69827.8
3363.13, 69763.2
3361.95, 69683.7
3360.77, 69460.1
3359.59, 69404
3358.41, 69841.9
3357.24, 69592.9
3356.06, 69475.4
3354.88, 68806.9
3353.7, 68626
3352.52, 69095.5
3351.34, 68929.4
3350.15, 68962.4
3348.97, 68881
3347.79, 69123.6
3346.61, 69057.1
3345.43, 68980
3344.25, 69023.6
3343.07, 68688.4
3341.89, 69152.9
3340.7, 69099.1
3339.52, 69034.8
3338.34, 68471.5
3337.16, 69007.6
3335.97, 68820.7
3334.79, 69143.1
3333.61, 69091.4
3332.42, 69215.1
3331.24, 69133.9
3330.06, 69128.8
3328.87, 69144.7
3327.69, 69145.9
3326.5, 69727.4
3325.32, 70192.8
3324.13, 69444.7
3322.95, 69511.2
3321.76, 69799.1
3320.58, 69857.1
3319.39, 70284.1
3318.21, 69939.3
3317.02, 70199.5
3315.83, 70811.6
3314.65, 70344.7
3313.46, 70828.1
3312.27, 71031.1
3311.09, 71147.8
3309.9, 71468.6
3308.71, 70650.4
3307.52, 71417.5
3306.34, 71729.7
3305.15, 72252.2
3303.96, 71766.8
3302.77, 72120.9
3301.58, 72983.8
3300.39, 72971.6
3299.2, 72957.4
3298.01, 73334.1
3296.83, 72977.2
3295.64, 73175.2
3294.45, 73810.1
3293.26, 73690.7
3292.07, 73930.4
3290.88, 73943.3
3289.68, 74651.2
3288.49, 74176.9
3287.3, 74754.3
3286.11, 75021
3284.92, 75237.2
3283.73, 74832.3
3282.54, 75321.2
3281.34, 74920.6
3280.15, 75287.7
3278.96, 75254.1
3277.77, 75989.9
3276.57, 75076
3275.38, 75553.8
3274.19, 75258.4
3272.99, 75048.9
3271.8, 75216.5
3270.61, 74986.2
3269.41, 75306.6
3268.22, 74764.4
3267.02, 74701.7
3265.83, 74339.7
3264.64, 73969.5
3263.44, 73747.9
3262.25, 73507.6
3261.05, 72920.3
3259.85, 72964.5
3258.66, 73107.1
3257.46, 72570.2
3256.27, 72006.3
3255.07, 71645.3
3253.87, 71668.9
3252.68, 71468.9
3251.48, 70830.4
3250.28, 70787.3
3249.08, 70639.7
3247.89, 69939.1
3246.69, 69480.7
3245.49, 69834.3
3244.29, 69167.5
3243.09, 69089.2
3241.9, 68228.7
3240.7, 68223.6
3239.5, 68107.9
3238.3, 68173.7
3237.1, 67989.3
3235.9, 67977.9
3234.7, 67343.5
3233.5, 67284.4
3232.3, 67087.7
3231.1, 66408
3229.9, 66426
3228.7, 66662.7
3227.5, 66322.6
3226.3, 66282.4
3225.09, 65944.6
3223.89, 65579.9
3222.69, 65776.9
3221.49, 65458.1
3220.29, 65555.3
3219.08, 65326
3217.88, 65327.6
3216.68, 65210.6
3215.48, 65289.1
3214.27, 64827.3
3213.07, 65153
3211.87, 65000.8
3210.66, 64954.6
3209.46, 64682.1
3208.25, 65018
3207.05, 65148.3
3205.84, 64890.4
3204.64, 64250.8
3203.43, 64449.6
3202.23, 64169.1
3201.02, 64054.7
3199.82, 64149.7
3198.61, 64203.2
3197.41, 64285.8
3196.2, 63800.4
3194.99, 64063.2
3193.79, 63868.1
3192.58, 63677.2
3191.37, 64037.2
3190.17, 63589.6
3188.96, 63260.1
3187.75, 63874.6
3186.54, 63866
3185.33, 63437.3
3184.13, 63583.9
3182.92, 63391.2
3181.71, 63603.9
3180.5, 63293.4
3179.29, 62952
3178.08, 63164.7
3176.87, 63336
3175.66, 63362.6
3174.45, 62949
3173.24, 62942.6
3172.03, 63194.4
3170.82, 63565.8
3169.61, 62875.8
3168.4, 62830.2
3167.19, 62883.6
3165.98, 62767.8
3164.77, 63052.4
3163.55, 63017
3162.34, 62969.3
3161.13, 62797.9
3159.92, 62917.2
3158.7, 63294.3
3157.49, 62687.9
3156.28, 62289.9
3155.07, 63052.2
3153.85, 63148.8
3152.64, 62514
3151.43, 62281
3150.21, 62388
3149, 62515.4
3147.78, 62570.8
3146.57, 62741.4
3145.35, 62173.2
3144.14, 62454.9
3142.92, 61860.2
3141.71, 61934.1
3140.49, 61890.8
3139.28, 61954.4
3138.06, 61849.5
3136.84, 61869.9
3135.63, 61440.2
3134.41, 61785.4
3133.19, 61532.6
3131.98, 61740
3130.76, 61403
3129.54, 61442
3128.32, 61294.1
3127.11, 60932.8
3125.89, 60748.1
3124.67, 60643.5
3123.45, 60910.3
3122.23, 61170.8
3121.01, 60660.1
3119.8, 60703.2
3118.58, 61060
3117.36, 60393.7
3116.14, 60438.9
3114.92, 60352.9
3113.7, 60639.8
3112.48, 60082.6
3111.26, 60590.7
3110.04, 60199.6
3108.81, 60253
3107.59, 59903
3106.37, 59841.7
3105.15, 59911.5
3103.93, 59590.4
3102.71, 59365.5
3101.48, 59733.9
3100.26, 59425.3
3099.04, 59814
3097.82, 59270.3
3096.59, 59197
3095.37, 59595.8
3094.15, 59177.1
3092.92, 59136.4
3091.7, 58944.7
3090.48, 59016.4
3089.25, 59061.6
3088.03, 58594.3
3086.8, 59090.7
3085.58, 59044
3084.35, 59070.8
3083.13, 58836.4
3081.9, 58394
3080.68, 58883.9
3079.45, 58545.6
3078.22, 58682.6
3077, 58407.7
3075.77, 57884.2
3074.54, 58353.3
3073.32, 58302.7
3072.09, 57653.2
3070.86, 58120.1
3069.64, 57961.6
3068.41, 58481.3
3067.18, 57921.7
3065.95, 58294.7
3064.72, 58067.1
3063.49, 57859.9
3062.27, 58008.8
3061.04, 57736.6
3059.81, 57826.5
3058.58, 57566.7
3057.35, 57530.5
3056.12, 57323.6
3054.89, 57352.6
3053.66, 57700.5
3052.43, 57420.6
3051.2, 56809.6
3049.97, 57405.2
3048.74, 57389.5
3047.5, 56886.4
3046.27, 56891
3045.04, 56725.1
3043.81, 56407
3042.58, 57083.3
3041.35, 57035.2
3040.11, 56792.3
3038.88, 56547.4
3037.65, 56651.4
3036.41, 56564.8
3035.18, 56520.8
3033.95, 56525.4
3032.71, 56262.6
3031.48, 56767.7
3030.25, 56267.9
3029.01, 56525.7
3027.78, 56074.7
3026.54, 56304.2
3025.31, 56092.2
3024.07, 55924.9
3022.84, 56334.3
3021.6, 56160.9
3020.36, 56199.9
3019.13, 55777.8
3017.89, 55986.8
3016.66, 55854
3015.42, 55711.1
3014.18, 55655.2
3012.94, 55655.9
3011.71, 55816.2
3010.47, 55667.4
3009.23, 55619.6
3007.99, 55711.2
3006.76, 55386.8
3005.52, 55484.4
3004.28, 55347.8
3003.04, 55719.9
3001.8, 55355.3
3000.56, 55029.2
2999.32, 54860.6
2998.08, 55508.7
2996.84, 54991.2
2995.6, 55338.7
2994.36, 54541.2
2993.12, 55314
2991.88, 54909.7
2990.64, 54813.7
2989.4, 54655.4
2988.16, 54936.1
2986.92, 55102
2985.68, 54833
2984.43, 54803.6
2983.19, 54699.7
2981.95, 54112.9
2980.71, 54610.7
2979.46, 54692
2978.22, 54680.7
2976.98, 54124.5
2975.73, 54322.4
2974.49, 54608.7
2973.25, 54587.4
2972, 54439.5
2970.76, 54524.7
2969.51, 54547.6
2968.27, 54156.7
2967.02, 54227.9
2965.78, 54112.3
2964.53, 54295.8
2963.29, 54204.3
2962.04, 53944.3
2960.8, 54181.9
2959.55, 54160.7
2958.3, 53786.4
2957.06, 54320.8
2955.81, 54135.1
2954.56, 53907.4
2953.32, 54126.8
2952.07, 53736.8
2950.82, 54230.7
2949.57, 53981
2948.33, 53773.6
2947.08, 53984.7
2945.83, 53745.3
2944.58, 54064.5
2943.33, 53791.1
2942.08, 53988.1
2940.83, 53636.8
2939.58, 54195.9
2938.33, 53770.6
2937.08, 53653.5
2935.83, 53940.3
2934.58, 53619.3
2933.33, 53676.1
2932.08, 53663
2930.83, 53715.8
2929.58, 53962.5
2928.33, 53569.7
2927.08, 53514.7
2925.82, 53323.9
2924.57, 53490.5
2923.32, 53695.1
2922.07, 53616.1
2920.81, 53399.4
2919.56, 53264.6
2918.31, 53656.6
2917.05, 53019.1
2915.8, 53606.4
2914.55, 53509.6
2913.29, 53556.3
2912.04, 53439.6
2910.78, 53101.6
2909.53, 53417.4
2908.28, 53360.5
2907.02, 53421.1
2905.76, 53097.4
2904.51, 53397
2903.25, 53411.8
2902, 53323.1
2900.74, 52941.9
2899.49, 53466.1
2898.23, 53166.6
2896.97, 53219.2
2895.71, 52927.7
2894.46, 53032.1
2893.2, 53361
2891.94, 52483.3
2890.68, 53042.8
2889.43, 52829
2888.17, 52661.1
2886.91, 52566.7
2885.65, 52625.3
2884.39, 52548.8
2883.13, 52069.3
2881.87, 52969.7
2880.61, 52645
2879.35, 52546.8
2878.09, 52783.9
2876.83, 52880
2875.57, 52912.7
2874.31, 52546.7
2873.05, 52196.7
2871.79, 52231.4
2870.53, 52353.3
2869.27, 51936.2
2868.01, 52501.9
2866.74, 52316.7
2865.48, 52454.3
2864.22, 52065.2
2862.96, 52424.6
2861.7, 52087
2860.43, 52339.4
2859.17, 51542.8
2857.91, 52458.1
2856.64, 52609.4
2855.38, 52189
2854.11, 52037.7
2852.85, 52206.8
2851.58, 52267.1
2850.32, 52252.2
2849.06, 52221.6
2847.79, 51963.7
2846.52, 51956.8
2845.26, 51693.1
2843.99, 51737.6
2842.73, 51588.6
2841.46, 51392.2
2840.19, 51565.1
2838.93, 51378.7
2837.66, 51306.7
2836.39, 50915.2
2835.13, 51105.8
2833.86, 51290.3
2832.59, 51323
2831.32, 51203.8
2830.06, 50656.9
2828.79, 50447.2
2827.52, 50696.8
2826.25, 50745.2
2824.98, 50614.4
2823.71, 50792.9
2822.44, 50396.3
2821.17, 50856.3
2819.9, 50520.8
2818.63, 50966.9
2817.36, 50218.2
2816.09, 50250.9
2814.82, 50885.7
2813.55, 50373.4
2812.28, 50899.7
2811.01, 50458.5
2809.73, 50601.2
2808.46, 50551.3
2807.19, 50460.1
2805.92, 50347.3
2804.65, 50130.5
2803.37, 50581.5
2802.1, 50527.7
2800.83, 50116.6
2799.55, 50404.4
2798.28, 50391.9
2797.01, 50581.5
2795.73, 50413.9
2794.46, 50452.4
2793.18, 50218.2
2791.91, 50325.3
2790.63, 50179.4
2789.36, 50184.5
2788.08, 50030.9
2786.81, 50059.6
2785.53, 50060.8
2784.26, 49707.4
2782.98, 49787.1
2781.7, 50021.4
2780.43, 50089.2
2779.15, 50511.4
2777.87, 49909.6
2776.6, 50302.3
2775.32, 50131.2
2774.04, 50036.6
2772.76, 49863.7
2771.48, 49688.9
2770.21, 50163.4
2768.93, 49795.1
2767.65, 49997.6
2766.37, 49959.8
2765.09, 49837.9
2763.81, 50169.3
2762.53, 50203.7
2761.25, 49950.9
2759.97, 50063.5
2758.69, 49806.9
2757.41, 49650
2756.13, 49766.4
2754.85, 49902.3
2753.57, 49665.5
2752.28, 49549.6
2751, 49517.7
2749.72, 49961.7
2748.44, 49680.2
2747.16, 49644.3
2745.87, 49468.2
2744.59, 49711.1
2743.31, 49659.7
2742.02, 49914.2
2740.74, 49771.3
2739.46, 49766.6
2738.17, 49779.5
2736.89, 49825.5
2735.6, 49476.3
2734.32, 49971.9
2733.04, 49432.1
2731.75, 49520.9
2730.47, 49611.6
2729.18, 49686.7
2727.89, 49423.4
2726.61, 49490.8
2725.32, 49385.1
2724.04, 49887.7
2722.75, 49525.5
2721.46, 49489.8
2720.18, 49588.2
2718.89, 49303.9
2717.6, 49470.2
2716.31, 49485
2715.03, 49460.9
2713.74, 49860
2712.45, 49020.9
2711.16, 49460.7
2709.87, 49392
2708.58, 49697.8
2707.29, 49243.2
2706, 49510.1
2704.71, 49705.1
2703.42, 49555.1
2702.13, 49538.8
2700.84, 49867.4
2699.55, 49023.9
2698.26, 49309.9
2696.97, 48933.5
2695.68, 49076.1
2694.39, 49594.2
2693.1, 48867.6
2691.81, 48969.5
2690.51, 49210.7
2689.22, 49254.5
2687.93, 49501.3
2686.64, 49276.2
2685.34, 49329.6
2684.05, 48915.1
2682.76, 49015
2681.46, 48925.4
2680.17, 49258.9
2678.87, 49059.2
2677.58, 49031.5
2676.29, 49380.3
2674.99, 48962.5
2673.7, 48981.1
2672.4, 49235.1
2671.11, 49269.1
2669.81, 49052.2
2668.51, 49190.4
2667.22, 49120.2
2665.92, 48778.1
2664.62, 49290.3
2663.33, 48959.9
2662.03, 48810.8
2660.73, 48852.5
2659.44, 48838.3
2658.14, 48754.7
2656.84, 48775.2
2655.54, 48645.5
2654.24, 48619.8
2652.95, 48892.5
2651.65, 48751.2
2650.35, 48902.6
2649.05, 48603.6
2647.75, 48524
2646.45, 48471.4
2645.15, 48647.7
2643.85, 48808.5
2642.55, 48936.6
2641.25, 48687.9
2639.95, 48641.1
2638.65, 48888.3
2637.35, 48272.7
2636.04, 48898.3
2634.74, 48261.8
2633.44, 48712.5
2632.14, 48337.4
2630.84, 48355.9
2629.53, 48466.5
2628.23, 48358.4
2626.93, 48823.9
2625.62, 48493.3
2624.32, 48408.2
2623.02, 48357.6
2621.71, 48495
2620.41, 48413.8
2619.1, 48338.4
2617.8, 48464.2
2616.49, 48494.1
2615.19, 48386.1
2613.88, 48358.6
2612.58, 48166.4
2611.27, 48026
2609.97, 48425.5
2608.66, 48133.8
2607.35, 48426
2606.05, 48509.4
2604.74, 48296.4
2603.43, 48156.1
2602.13, 48038.7
2600.82, 48043.8
2599.51, 47909.4
2598.2, 47943.1
2596.89, 47976.8
2595.59, 48010.5
2594.28, 48044.3
2592.97, 48078
2591.66, 48111.8
2590.35, 47851.4
2589.04, 48192.5
2587.73, 47909.3
2586.42, 48145.3
2585.11, 48091.2
2583.8, 47848.3
2582.49, 48156.6
2581.18, 48331.3
2579.87, 47939.7
2578.56, 47914.3
2577.24, 47749.7
2575.93, 47947.3
2574.62, 47822.8
2573.31, 47751.6
2572, 47651.9
2570.68, 47426.6
2569.37, 47669.7
2568.06, 47530.1
2566.74, 47687.5
2565.43, 47776.3
2564.12, 47448.4
2562.8, 47630.4
2561.49, 47517.5
2560.17, 47722.3
2558.86, 47824.3
2557.54, 47764.7
2556.23, 47520.7
2554.91, 47449.8
2553.6, 47677.2
2552.28, 47342.2
2550.96, 47195.3
2549.65, 47671.4
2548.33, 47737.2
2547.01, 47402.4
2545.7, 47063.9
2544.38, 47262.6
2543.06, 47186.1
2541.74, 47418.9
2540.43, 47664.9
2539.11, 47379.7
2537.79, 47045.4
2536.47, 47410.7
2535.15, 47556
2533.83, 47056.9
2532.51, 47196.6
2531.19, 47230.1
2529.87, 47280.6
2528.55, 47194.7
2527.23, 46963.1
2525.91, 47061
2524.59, 47064.2
2523.27, 46772.2
2521.95, 46924.9
2520.63, 47119.2
2519.31, 47128
2517.99, 47227.7
2516.66, 47438.8
2515.34, 47012.8
2514.02, 47320.3
2512.7, 46743.2
2511.37, 46965.6
2510.05, 46636.3
2508.73, 46626.3
2507.4, 46705.1
2506.08, 46933
2504.75, 46788.9
2503.43, 46593.9
2502.1, 46529.2
2500.78, 46798.5
2499.45, 46973.4
2498.13, 46889.8
2496.8, 46825.1
2495.48, 46813.2
2494.15, 46550.5
2492.83, 46736.6
2491.5, 46449.6
2490.17, 46856
2488.85, 46868.6
2487.52, 46738
2486.19, 46737.5
2484.86, 46665.3
2483.54, 46352.2
2482.21, 46432.6
2480.88, 46383.1
2479.55, 46691.2
2478.22, 46562.7
2476.89, 46274.3
2475.56, 46734.6
2474.23, 46419.9
2472.9, 46517.2
2471.57, 46700.8
2470.24, 46331.8
2468.91, 46295.6
2467.58, 46062.1
2466.25, 46566.9
2464.92, 46324
2463.59, 46505.6
2462.26, 46461.9
2460.93, 46149.7
2459.59, 46473.9
2458.26, 46148.6
2456.93, 45988.6
2455.6, 46068.8
2454.26, 46087
2452.93, 46227.2
2451.6, 46213.5
2450.26, 45894.3
2448.93, 45891.9
2447.6, 46095.7
2446.26, 45995.8
2444.93, 46193.9
2443.59, 46199
2442.26, 45930.6
2440.92, 46055.5
2439.59, 45719.9
2438.25, 46151.8
2436.91, 46070.8
2435.58, 45929.9
2434.24, 46022.9
2432.9, 45631.5
2431.57, 46113.5
2430.23, 45716.6
2428.89, 45858.1
2427.56, 45878.2
2426.22, 45930
2424.88, 45783.7
2423.54, 46007.4
2422.2, 45756.6
2420.86, 45952.1
2419.52, 45809.7
2418.19, 45538.5
2416.85, 45696.7
2415.51, 45642
2414.17, 45512.8
2412.83, 45400.4
2411.49, 45750.6
2410.15, 45423.7
2408.8, 45770.1
2407.46, 45454.5
2406.12, 45537.9
2404.78, 45658.5
2403.44, 45408.4
2402.1, 45689.2
2400.75, 45750.1
2399.41, 45379
2398.07, 45702.5
2396.73, 45320.3
2395.38, 45429.7
2394.04, 45103.6
2392.7, 45557.1
2391.35, 45428.2
2390.01, 45604.4
2388.66, 45185.5
2387.32, 44908
2385.97, 45192
2384.63, 44866.3
2383.28, 45572
2381.94, 45173.9
2380.59, 45595.1
2379.25, 45187.9
2377.9, 45072.3
2376.55, 45168.4
2375.21, 45078.8
2373.86, 45154.4
2372.51, 45076
2371.16, 45023.6
2369.82, 44987.9
2368.47, 45458.6
2367.12, 44940.7
2365.77, 45218.3
2364.42, 44947.2
2363.07, 44783.7
2361.73, 45181.7
2360.38, 44927.3
2359.03, 44593.5
2357.68, 44769
2356.33, 44987.1
2354.98, 45138.5
2353.63, 44608.5
2352.27, 44980.2
2350.92, 44846.5
2349.57, 44879.3
2348.22, 45065.7
2346.87, 44760
2345.52, 44937.1
2344.17, 44642.7
2342.81, 44912.2
2341.46, 44499.5
2340.11, 44671
2338.75, 44454.4
2337.4, 44995.2
2336.05, 44608.7
2334.69, 44798.5
2333.34, 44774.1
2331.99, 44904.7
2330.63, 45260.4
2329.28, 45128.8
2327.92, 45204
2326.57, 45273.5
2325.21, 44693.8
2323.85, 44674.9
2322.5, 44729.8
2321.14, 44449.1
2319.79, 44575.9
2318.43, 44380.1
2317.07, 44492.1
2315.71, 44371.9
2314.36, 44393.6
2313, 44684.2
2311.64, 44635.8
2310.28, 44478.9
2308.93, 44147.2
2307.57, 44513
2306.21, 44659.7
2304.85, 44488.2
2303.49, 44305.7
2302.13, 44141.6
2300.77, 44347.1
2299.41, 44416.5
2298.05, 44193.7
2296.69, 44336.6
2295.33, 44121.3
2293.97, 44242.1
2292.61, 44326.2
2291.25, 44235.8
2289.88, 44119.7
2288.52, 44088.1
2287.16, 43849.1
2285.8, 44243.3
2284.43, 43787.8
2283.07, 43985.6
2281.71, 44229.1
2280.34, 44067.3
2278.98, 44310.8
2277.62, 44167.3
2276.25, 43945.2
2274.89, 44216
2273.52, 43995.7
2272.16, 43962.3
2270.79, 43690.9
2269.43, 43939.5
2268.06, 44006.9
2266.7, 44174.9
2265.33, 43969.5
2263.97, 43855.6
2262.6, 43972.3
2261.23, 43741.4
2259.87, 43607.5
2258.5, 43758.9
2257.13, 43786.9
2255.76, 43814.8
2254.4, 43842.7
2253.03, 43870.6
2251.66, 43898.6
2250.29, 43926.5
2248.92, 43851.2
2247.55, 43821.6
2246.18, 44106
2244.81, 43557.9
2243.44, 43493.7
2242.07, 43692.3
2240.7, 43606.1
2239.33, 43344.9
2237.96, 43510.5
2236.59, 43309.6
2235.22, 43480.6
2233.85, 43525.8
2232.48, 43507.2
2231.1, 43607.1
2229.73, 43657.7
2228.36, 43551.7
2226.99, 43595
2225.61, 43540
2224.24, 43293.8
2222.87, 43481
2221.49, 43120.3
2220.12, 43181.8
2218.74, 43521.7
2217.37, 42757.3
2216, 43564.5
2214.62, 43016.8
2213.25, 43445.6
2211.87, 43192.5
2210.49, 43079.5
2209.12, 42892
2207.74, 42966.2
2206.37, 43245.7
2204.99, 42992.9
2203.61, 43250.4
2202.24, 42821.6
2200.86, 43233.3
2199.48, 42764.8
2198.1, 43201.7
2196.72, 42800.5
2195.35, 42939.8
2193.97, 42756.4
2192.59, 42825
2191.21, 43036.8
2189.83, 42982.1
2188.45, 42673.7
2187.07, 42646.2
2185.69, 42870.6
2184.31, 42594.9
2182.93, 42882.6
2181.55, 42627
2180.17, 42606.8
2178.79, 42347.7
2177.41, 42745.6
2176.02, 42656.6
2174.64, 42289.1
2173.26, 42820.6
2171.88, 42959.5
2170.49, 42386
2169.11, 42170.6
2167.73, 42703.6
2166.35, 42421.4
2164.96, 42323.6
2163.58, 42301.6
2162.19, 42568.7
2160.81, 42803.2
2159.42, 42214.2
2158.04, 42380.1
2156.65, 42116.3
2155.27, 42289.3
2153.88, 42545.2
2152.5, 42229.3
2151.11, 42063.1
2149.72, 42138.6
2148.34, 42434
2146.95, 42302.2
2145.56, 42410
2144.18, 42198.9
2142.79, 42049.1
2141.4, 41921
2140.01, 42263
2138.62, 42160.1
2137.24, 41925.8
2135.85, 42159.6
2134.46, 42038.7
2133.07, 42085.3
2131.68, 41761.2
2130.29, 42021.8
2128.9, 42131.3
2127.51, 42163.4
2126.12, 41803.6
2124.73, 41909.4
2123.34, 41884
2121.95, 42006
2120.55, 41806.3
2119.16, 42186.9
2117.77, 42069.9
2116.38, 42033.7
2114.99, 41999.3
2113.59, 41562.9
2112.2, 41851.7
2110.81, 41713.3
2109.41, 41748.9
2108.02, 41662.6
2106.63, 41667.8
2105.23, 41848.7
2103.84, 42004.4
2102.44, 41487.9
2101.05, 41971.6
2099.65, 41596.8
2098.26, 41405
2096.86, 41213.1
2095.46, 41608.8
2094.07, 41637.2
2092.67, 41398.9
2091.27, 41429.1
2089.88, 41382.4
2088.48, 41294.6
2087.08, 41596.7
2085.69, 41229.8
2084.29, 40904.2
2082.89, 41018.5
2081.49, 41322.3
2080.09, 41018.3
2078.69, 41189.7
2077.29, 41361.1
2075.89, 41101.9
2074.49, 41462.5
2073.09, 41203.4
2071.69, 41060.4
2070.29, 40724.6
2068.89, 41135
2067.49, 40945.7
2066.09, 40942
2064.69, 40815.2
2063.29, 41257.4
2061.89, 41337.5
2060.48, 40659.8
2059.08, 41085.7
2057.68, 40766.5
2056.28, 40912.6
2054.87, 40866.1
2053.47, 40698.5
2052.07, 40842.7
2050.66, 40851.4
2049.26, 40630.5
2047.85, 40666
2046.45, 40719.3
2045.04, 40831.3
2043.64, 40669.3
2042.23, 40637.2
2040.83, 40268.9
2039.42, 40750.7
2038.02, 40594.2
2036.61, 40450.1
2035.2, 40883.6
2033.8, 40366.4
2032.39, 40263.3
2030.98, 40435.5
2029.57, 40385.7
2028.17, 40106.9
2026.76, 40520.5
2025.35, 40236.4
2023.94, 40388.9
2022.53, 40010.9
2021.12, 39955.9
2019.71, 40300
2018.3, 40135
2016.89, 39835.3
2015.48, 40239.5
2014.07, 40166.7
2012.66, 39753.8
2011.25, 39844.1
2009.84, 40035.5
2008.43, 40003.5
2007.02, 40092.1
2005.6, 39870.7
2004.19, 39927.3
2002.78, 39913.1
2001.37, 39904.2
1999.95, 39897.1
1998.54, 40029.8
1997.13, 39999.7
1995.71, 40199.4
1994.3, 39950.1
1992.89, 40057.8
1991.47, 39817.4
1990.06, 39866.9
1988.64, 39665.4
1987.23, 39690.1
1985.81, 39683.1
1984.39, 39732.5
1982.98, 39755.4
1981.56, 39751.9
1980.15, 39748.3
1978.73, 39744.8
1977.31, 39174.9
1975.9, 39376
1974.48, 39651.2
1973.06, 39730.5
1971.64, 39418.4
1970.22, 39212.2
1968.81, 39291.6
1967.39, 39612.3
1965.97, 39231.8
1964.55, 39416.8
1963.13, 39128
1961.71, 38923.8
1960.29, 38901
1958.87, 39246.1
1957.45, 39427.4
1956.03, 39186.3
1954.61, 39295.4
1953.19, 39245.1
1951.76, 39194.7
1950.34, 39144.3
1948.92, 38954.5
1947.5, 39056.5
1946.07, 39167.3
1944.65, 38961.7
1943.23, 38974.1
1941.81, 38814.3
1940.38, 38946.1
1938.96, 38893.5
1937.53, 39307.9
1936.11, 38635.6
1934.69, 38679.6
1933.26, 38713.1
1931.84, 38779.8
1930.41, 38951.8
1928.98, 38776.5
1927.56, 38410.1
1926.13, 39097.5
1924.71, 38876.7
1923.28, 38722.5
1921.85, 38614
1920.43, 38608.8
1919, 38589.6
1917.57, 38752.6
1916.14, 38451.5
1914.71, 38266.1
1913.29, 38408
1911.86, 38304.9
1910.43, 38704
1909, 38196.8
1907.57, 38354.3
1906.14, 38473.4
1904.71, 38573.1
1903.28, 38274.3
1901.85, 38302.4
1900.42, 38493
1898.99, 38218.8
1897.56, 38266.1
1896.13, 38196.4
1894.69, 38138.9
1893.26, 38231.6
1891.83, 38175.9
1890.4, 38270.3
1888.96, 38036.6
1887.53, 38260.1
1886.1, 37930.5
1884.66, 37827.8
1883.23, 37822.8
1881.8, 38028.7
1880.36, 38180.5
1878.93, 37889.6
1877.49, 37999.6
1876.06, 37440.5
1874.62, 37806.6
1873.19, 37495
1871.75, 37894
1870.31, 37551.2
1868.88, 37831.7
1867.44, 37828.4
1866, 37353.6
1864.57, 37510.4
1863.13, 37825.4
1861.69, 37688.2
1860.25, 37803.2
1858.82, 37834.6
1857.38, 37725.3
1855.94, 37440.5
1854.5, 37703.1
1853.06, 37430.6
1851.62, 37210.2
1850.18, 37608.1
1848.74, 37394.8
1847.3, 37582.5
1845.86, 36956.2
1844.42, 37218.5
1842.98, 37329.8
1841.54, 37406.3
1840.1, 37293.8
1838.65, 37318.4
1837.21, 37166
1835.77, 37372.6
1834.33, 37482
1832.89, 36965.8
1831.44, 37075.3
1830, 37176
1828.56, 36937.2
1827.11, 36953.1
1825.67, 36946.5
1824.22, 36957.2
1822.78, 36789.6
1821.33, 36615.1
1819.89, 36520.3
1818.44, 36806.1
1817, 36809.8
1815.55, 37147.3
1814.1, 36846.7
1812.66, 36696.7
1811.21, 36871.5
1809.76, 36870.1
1808.32, 36904.9
1806.87, 36834.4
1805.42, 36698.2
1803.97, 36677.8
1802.53, 36826.6
1801.08, 36369.5
1799.63, 36520
1798.18, 36539.3
1796.73, 36380.9
1795.28, 36514.1
1793.83, 36478.2
1792.38, 36495.8
1790.93, 36306.5
1789.48, 36467.1
1788.03, 36669.1
1786.58, 36202.5
1785.13, 36116.7
1783.67, 36139.5
1782.22, 36434.3
1780.77, 36352
1779.32, 36331.7
1777.87, 35960.3
1776.41, 36267
1774.96, 35993.8
1773.51, 36026.9
1772.05, 36182.1
1770.6, 35969.2
1769.14, 36208.6
1767.69, 36239.9
1766.23, 35922.3
1764.78, 36206.2
1763.32, 36010.7
1761.87, 35760.3
1760.41, 36361.8
1758.96, 35783.5
1757.5, 35797.7
1756.04, 35964.5
1754.59, 35729.8
1753.13, 35888.1
1751.67, 35969.1
1750.21, 35717.4
1748.76, 35698.9
1747.3, 35983.9
1745.84, 35848.9
1744.38, 35789.3
1742.92, 35546.4
1741.46, 35510.9
1740, 35391.4
1738.54, 35491.2
1737.08, 35496.8
1735.62, 35606.8
1734.16, 35612.3
1732.7, 35272.2
1731.24, 35423.3
1729.78, 35348.4
1728.32, 35624.3
1726.86, 35645.2
1725.39, 35269.5
1723.93, 35387.9
1722.47, 35154.2
1721, 35325.5
1719.54, 35115.9
1718.08, 35283.8
1716.61, 35137.3
1715.15, 34943.1
1713.69, 35332.9
1712.22, 35248
1710.76, 35303.1
1709.29, 35076.6
1707.83, 35196.5
1706.36, 34768.8
1704.89, 35035.4
1703.43, 34894.4
1701.96, 35101.2
1700.5, 34997.7
1699.03, 35354.4
1697.56, 34969.7
1696.09, 35125.2
1694.63, 34844.6
1693.16, 35042.7
1691.69, 34721.4
1690.22, 34505.7
1688.75, 35006.7
1687.28, 35042.9
1685.81, 34697.9
1684.34, 35037
1682.87, 35110.6
1681.4, 34782.9
1679.93, 34916
1678.46, 34671.7
1676.99, 34733.4
1675.52, 34740.7
1674.05, 34649.5
1672.58, 34840.2
1671.11, 34850.9
1669.63, 34562.7
1668.16, 34812.8
1666.69, 34713.2
1665.22, 34902.1
1663.74, 34855
1662.27, 35091.3
1660.8, 34752.5
1659.32, 34503.7
1657.85, 34841.6
1656.37, 34823.5
1654.9, 35005.3
1653.42, 34765.1
1651.95, 34919.8
1650.47, 34784.7
1648.99, 34817.3
1647.52, 34499.4
1646.04, 34774.2
1644.57, 34876.3
1643.09, 34812.4
1641.61, 34515
1640.13, 34769.3
1638.66, 34949.1
1637.18, 34518.3
1635.7, 34613.5
1634.22, 34837.1
1632.74, 34820.7
1631.26, 34662.2
1629.78, 35010.8
1628.3, 34906.5
1626.82, 35028.5
1625.34, 34746.9
1623.86, 35019.2
1622.38, 34872.7
1620.9, 35408.2
1619.42, 34870.2
1617.94, 35041
1616.46, 34798.5
1614.97, 35072.2
1613.49, 34838.1
1612.01, 34934.7
1610.52, 34849.1
1609.04, 34635.4
1607.56, 34654.4
1606.07, 34590.8
1604.59, 34433
1603.11, 34546.3
1601.62, 34511.4
1600.14, 34262.7
1598.65, 34219.4
1597.17, 34857.8
1595.68, 35041.6
1594.19, 34623.1
1592.71, 34640.3
1591.22, 34444
1589.74, 34674.8
1588.25, 34794.6
1586.76, 33799.9
1585.27, 33647.5
1583.79, 33559.1
1582.3, 33553
1580.81, 33266.4
1579.32, 33310.7
1577.83, 33299.6
1576.34, 32944.4
1574.85, 33465.4
1573.36, 32964.3
1571.87, 32907.9
1570.38, 32942.2
1568.89, 32958
1567.4, 32739.1
1565.91, 32781.7
1564.42, 33216.6
1562.93, 32825.1
1561.44, 32939.8
1559.94, 32823.2
1558.45, 32663.1
1556.96, 32848.1
1555.47, 32949.3
1553.97, 32866.3
1552.48, 32554
1550.98, 32574.8
1549.49, 32691.1
1548, 32594.8
1546.5, 32122.1
1545.01, 32076.2
1543.51, 32351.2
1542.02, 32328.6
1540.52, 32175.6
1539.02, 32303.5
1537.53, 31836.4
1536.03, 32026.1
1534.54, 32340.9
1533.04, 31824
1531.54, 32055.3
1530.04, 31917.6
1528.55, 31786.6
1527.05, 31705.7
1525.55, 31865.1
1524.05, 31882.7
1522.55, 31660
1521.05, 31450.8
1519.55, 31558.5
1518.05, 31699.4
1516.55, 31581.9
1515.05, 31452.9
1513.55, 31553.8
1512.05, 31588
1510.55, 31728.8
1509.05, 31356.7
1507.55, 31127.9
1506.04, 31310.3
1504.54, 31550.9
1503.04, 31273.9
1501.54, 31427.9
1500.03, 31525.3
1498.53, 31404.8
1497.03, 31379.1
1495.52, 31217.1
1494.02, 31030.2
1492.51, 31230.6
1491.01, 30804.6
1489.5, 31136.2
1488, 31123.8
1486.49, 31189.6
1484.99, 31208.8
1483.48, 30979
1481.98, 30872.1
1480.47, 30849.8
1478.96, 30933.8
1477.45, 30903.3
1475.95, 30987.2
1474.44, 30392.9
1472.93, 30825
1471.42, 30555.8
1469.91, 30638
1468.41, 30788.2
1466.9, 30592.1
1465.39, 30593.1
1463.88, 30753.1
1462.37, 30485.9
1460.86, 30627.6
1459.35, 30542.6
1457.84, 30518.8
1456.32, 30425.5
1454.81, 30590.3
1453.3, 30655.9
1451.79, 30519.6
1450.28, 30489.2
1448.77, 30321.7
1447.25, 30497.9
1445.74, 30338.7
1444.23, 30243.9
1442.71, 30385.4
1441.2, 30222.9
1439.68, 30225.6
1438.17, 30056.7
1436.66, 29942.2
1435.14, 30106.7
1433.63, 29921.4
1432.11, 29858.2
1430.59, 29933.5
1429.08, 29949.5
1427.56, 29906.1
1426.05, 29900.6
1424.53, 29674.2
1423.01, 29537
1421.49, 29773.8
1419.98, 29592.1
1418.46, 29733.2
1416.94, 29510.4
1415.42, 29457.2
1413.9, 29343.2
1412.38, 29671.9
1410.86, 29477.3
1409.34, 29493.2
1407.82, 29584.9
1406.3, 29260.4
1404.78, 29238.6
1403.26, 29348.3
1401.74, 29195
1400.22, 29419.7
1398.7, 29353.5
1397.18, 29224.9
1395.65, 29063.6
1394.13, 29380.1
1392.61, 28913.3
1391.09, 29116.5
1389.56, 29102.9
1388.04, 29179.7
1386.52, 28982.3
1384.99, 28854
1383.47, 28909.4
1381.94, 28810.6
1380.42, 29038.1
1378.89, 28854.1
1377.37, 29027.5
1375.84, 28755.1
1374.31, 28902.1
1372.79, 28826.4
1371.26, 28899.7
1369.73, 28668.4
1368.21, 28537.1
1366.68, 28563
1365.15, 28255
1363.62, 28626.1
1362.1, 28537.4
1360.57, 28568.2
1359.04, 28742.8
1357.51, 28392.5
1355.98, 28523
1354.45, 28414.8
1352.92, 28362.2
1351.39, 28672.3
1349.86, 28422
1348.33, 28245.3
1346.8, 28210.7
1345.27, 28298.6
1343.73, 28171
1342.2, 28115.2
1340.67, 28020.3
1339.14, 27746
1337.6, 28143.7
1336.07, 28117.3
1334.54, 28210
1333, 27945.6
1331.47, 28087.1
1329.94, 28178.1
1328.4, 27954.6
1326.87, 28035.8
1325.33, 27828.7
1323.8, 27781.2
1322.26, 27704.5
1320.72, 27720.6
1319.19, 27736.6
1317.65, 27629
1316.11, 27558.8
1314.58, 27843.3
1313.04, 27613.7
1311.5, 27600.5
1309.96, 27745
1308.43, 27380.7
1306.89, 27786.7
1305.35, 27762.1
1303.81, 27467.9
1302.27, 27587.9
1300.73, 27607.1
1299.19, 27533.9
1297.65, 27366.5
1296.11, 27442.6
1294.57, 27599.8
1293.03, 27520.1
1291.49, 27409.6
1289.95, 27425.6
1288.4, 27178.9
1286.86, 27353.9
1285.32, 27201.3
1283.78, 27021.3
1282.23, 26838.1
1280.69, 27134.4
1279.15, 27348.1
1277.6, 26947.9
1276.06, 27244.1
1274.51, 26853.8
1272.97, 26709.7
1271.42, 27094.7
1269.88, 27012
1268.33, 26968.2
1266.79, 26973
1265.24, 26783.7
1263.69, 26722.1
1262.15, 26883.7
1260.6, 26712.3
1259.05, 26666.9
1257.51, 26723.4
1255.96, 26597.3
1254.41, 26852.4
1252.86, 26803.8
1251.31, 26826.3
1249.76, 26451.8
1248.21, 26458.2
1246.66, 26734
1245.11, 26480.7
1243.56, 26579
1242.01, 26533.8
1240.46, 26295.1
1238.91, 26506.2
1237.36, 26554.5
1235.81, 26296.6
1234.26, 26614
1232.7, 26438.3
1231.15, 26652.4
1229.6, 26507.4
1228.05, 26426.9
1226.49, 26497.6
1224.94, 26837.1
1223.39, 26586
1221.83, 26523.1
1220.28, 26436.2
1218.72, 26571.2
1217.17, 26632.2
1215.61, 26693.2
1214.06, 26869.8
1212.5, 26868.1
1210.94, 26866.3
1209.39, 27200.2
1207.83, 27320.5
1206.27, 27111.5
1204.72, 27259
1203.16, 27367.9
1201.6, 27419
1200.04, 27410.7
1198.48, 27601.3
1196.92, 27692.4
1195.37, 27716.1
1193.81, 27499.4
1192.25, 27696.3
1190.69, 27603
1189.13, 27732.5
1187.57, 28145.4
1186, 27827.9
1184.44, 28095
1182.88, 28291.5
1181.32, 28499.2
1179.76, 28644.3
1178.2, 28714.2
1176.63, 28804.9
1175.07, 29197.9
1173.51, 29525.1
1171.94, 29302.2
1170.38, 29453.4
1168.82, 29548.6
1167.25, 29573.5
1165.69, 29585.6
1164.12, 29850.1
1162.56, 29879.7
1160.99, 30185.6
1159.43, 30433.8
1157.86, 30399.5
1156.29, 30519.9
1154.73, 30329.1
1153.16, 30337.9
1151.59, 30506.1
1150.03, 30451
1148.46, 30491.6
1146.89, 30801.6
1145.32, 30883.5
1143.75, 30804.5
1142.18, 30841.8
1140.61, 31070.2
1139.04, 31238.1
1137.47, 31382
1135.9, 31322
1134.33, 31438.8
1132.76, 31536.4
1131.19, 31734.2
1129.62, 31903.3
1128.05, 31760.6
1126.48, 31958.3
1124.91, 32116.1
1123.33, 32310.5
1121.76, 32612.8
1120.19, 32861
1118.61, 33276
1117.04, 33805.2
1115.47, 33872
1113.89, 34829.6
1112.32, 35528.1
1110.74, 35686.6
1109.17, 36137.1
1107.59, 36324
1106.02, 36168.1
1104.44, 36156.6
1102.86, 35996
1101.29, 35369.3
1099.71, 35242.2
1098.13, 35124.7
1096.56, 35103.9
1094.98, 34618.8
1093.4, 34867.4
1091.82, 34713.7
1090.24, 34974.8
1088.66, 35490.8
1087.09, 35751.7
1085.51, 36416.2
1083.93, 36901.5
1082.35, 37402.5
1080.77, 38254.5
1079.18, 38220.5
1077.6, 37802.3
1076.02, 37556.5
1074.44, 37121.1
1072.86, 36711.2
1071.28, 36124.5
1069.69, 36285.2
1068.11, 36344.8
1066.53, 36533.8
1064.95, 37052.8
1063.36, 38349.8
1061.78, 39431.7
1060.19, 40099.8
1058.61, 41453.9
1057.02, 42291.7
1055.44, 43327.9
1053.85, 43982.1
1052.27, 44363.3
1050.68, 45244
1049.1, 45579.2
1047.51, 45430.4
1045.92, 44906.8
1044.33, 43989.6
1042.75, 42666.4
1041.16, 40066.8
1039.57, 38533.9
1037.98, 36992.1
1036.39, 35740.4
1034.81, 34558.5
1033.22, 34043.9
1031.63, 33702.6
1030.04, 33515.4
1028.45, 33298.5
1026.86, 33535.9
1025.27, 34057.7
1023.67, 34866.9
1022.08, 35636.4
1020.49, 37081.1
1018.9, 38855
1017.31, 40185.5
1015.71, 41427.5
1014.12, 41628.5
1012.53, 40883.2
1010.93, 39700.4
1009.34, 38155.8
1007.75, 36158.4
1006.15, 34197.8
1004.56, 32993.6
1002.96, 31562.6
1001.37, 30514.6
999.773, 29825.7
998.177, 29368.9
996.581, 28990.7
994.984, 28332.2
993.388, 28391.1
991.791, 28223
990.193, 27740.3
988.596, 27733.6
986.998, 27589.2
985.399, 27660.6
983.801, 27108.1
982.202, 26784
980.603, 26993.2
979.004, 26864.6
977.404, 26551.7
975.804, 26617.1
974.204, 26363.7
972.603, 26037
971.002, 25835.4
969.401, 25949.2
967.799, 25722.7
966.198, 25502.5
964.596, 25544.5
962.993, 25666.1
961.39, 25416.4
959.787, 25274.4
958.184, 25275.9
956.58, 25327.3
954.977, 25099.6
953.372, 25054.4
951.768, 25112
950.163, 25317.6
948.558, 25007.6
946.953, 25110.4
945.347, 25032.5
943.741, 24858.1
942.134, 24915.7
940.528, 25231.6
938.921, 24979.5
937.314, 25194.1
935.706, 24968.6
934.098, 25344.8
932.49, 25478.4
930.882, 25381.9
929.273, 25610.3
927.664, 26262.7
926.055, 26625.9
924.445, 27323
922.835, 28027.5
921.225, 28632.4
919.614, 28665.8
918.004, 28474.2
916.392, 27643.3
914.781, 27033.1
913.169, 26244.7
911.557, 25588.5
909.945, 24851.8
908.332, 24323.2
906.719, 24197.7
905.106, 24047.5
903.492, 23364.3
901.878, 23844.8
900.264, 23529
898.65, 23171.5
897.035, 23162.5
895.42, 23147.4
893.805, 22968.1
892.189, 23372.3
890.573, 23050.8
888.957, 23034.1
887.34, 23331.3
885.723, 23212.5
884.106, 23107.6
882.488, 23084.7
880.87, 23298.3
879.252, 23120.9
877.634, 23328.1
876.015, 23177
874.396, 23047.6
872.777, 23287.2
871.157, 23103.7
869.537, 23077.8
867.917, 23084.2
866.296, 23001.2
864.675, 23197.4
863.054, 23085.1
861.433, 22948.1
859.811, 23081
858.189, 22942.6
856.567, 22717.9
854.944, 22972.5
853.321, 22774.1
851.697, 22917.6
850.074, 22600.7
848.45, 22905.9
846.826, 22844.6
845.201, 22821.9
843.576, 23048.3
841.951, 22824
840.326, 22896.6
838.7, 23043
837.074, 23090.9
835.448, 22943.6
833.821, 22957.7
832.194, 23173.1
830.567, 23075.1
828.939, 23228.9
827.311, 23152.4
825.683, 23257
824.054, 23054.6
822.425, 23288.1
820.796, 23211.6
819.167, 23253.3
817.537, 23273.4
815.907, 23140.2
814.277, 23046.9
812.646, 23198.9
811.015, 22995.3
809.384, 23318.9
807.752, 23116.8
806.12, 23176.8
804.488, 23180.1
802.855, 23097.6
801.223, 23270.9
799.589, 23098.1
797.956, 23141.2
796.322, 22905.7
794.688, 23062.1
793.054, 22785.4
791.419, 22931
789.784, 22798.2
788.149, 22723.6
786.513, 23051
784.877, 22817.4
783.241, 22959.8
781.605, 22805.7
779.968, 22833.5
778.33, 22652
776.693, 22565.3
775.055, 22733.5
773.417, 22596.4
771.779, 22796.6
770.14, 22488.7
768.501, 22466.2
766.862, 22411.6
765.222, 22376.9
763.582, 22362
761.942, 22333.4
760.301, 22207.2
758.66, 22267
757.019, 22278
755.378, 22196.1
753.736, 22123.4
752.094, 21977.6
750.451, 22040.5
748.809, 21835.4
747.166, 21948.4
745.522, 21732.8
743.878, 21845.8
742.234, 21926.8
740.59, 21825.4
738.946, 21634.3
737.301, 21935.7
735.655, 21734
734.01, 21951.7
732.364, 21680.2
730.718, 21814.3
729.071, 22030.3
727.425, 21924.4
725.777, 21815.5
724.13, 21922.2
722.482, 21972.6
720.834, 21953.3
719.186, 21940
717.537, 22211.8
715.888, 22098.5
714.239, 22026.1
712.589, 22173.5
710.939, 22235.9
709.289, 21963.6
707.639, 22324.4
705.988, 22046.1
704.337, 22161.5
702.685, 22260.3
701.033, 22433.1
699.381, 22401.6
697.729, 22589.5
696.076, 22311.4
694.423, 22641.4
692.77, 22762.6
691.116, 22687.3
689.462, 22648.2
687.808, 22811.6
686.153, 22928.2
684.498, 22784.8
682.843, 22816.8
681.187, 23094.8
679.531, 23208.2
677.875, 23336.6
676.219, 23388
674.562, 23412.2
672.905, 23916.2
671.247, 23699
669.589, 23842.3
667.931, 23991.5
666.273, 23923.7
664.614, 24071.3
662.955, 24422.4
661.296, 24512.7
659.636, 24468.8
657.976, 24738.3
656.316, 25182.3
654.655, 25165.5
652.994, 25419.6
651.333, 25763.9
649.672, 25959.1
648.01, 26382.9
646.348, 26914.8
644.685, 27360.8
643.022, 27501.4
641.359, 27732.2
639.696, 27931.3
638.032, 27984.6
636.368, 27297.2
634.703, 26779.8
633.039, 26546.5
631.374, 25871.8
629.708, 25869.8
628.043, 25474.7
626.377, 25379.8
624.71, 25367.5
623.044, 25379.1
621.377, 25321.8
619.709, 25454.9
618.042, 25445.6
616.374, 25356.8
614.706, 25473.4
613.037, 25297.7
611.368, 25665.9
609.699, 26023.5
608.03, 26187.7
606.36, 26271
604.69, 26797.4
603.019, 27051.2
601.349, 27156.8
599.678, 27615.4
598.006, 28036.4
596.334, 28475.2
594.662, 28780.8
592.99, 29044.4
591.317, 29298.9
589.644, 29749.1
587.971, 30267.8
586.297, 30772.9
584.623, 30946.3
582.949, 31227.1
581.275, 31418.2
579.6, 31498.7
577.924, 31161.4
576.249, 31149.5
574.573, 30870.6
572.897, 30493.3
571.22, 30107.2
569.544, 29994.1
567.866, 29927.3
566.189, 29750.2
564.511, 29603
562.833, 29496
561.155, 29526.1
559.476, 29286.7
557.797, 28940.1
556.117, 29323.1
554.438, 28622.5
552.758, 28712.2
551.077, 28502.9
549.397, 28646.2
547.716, 28747.8
546.034, 28596.6
544.353, 28687.8
542.671, 29045
540.988, 29556.6
539.306, 29467.7
537.623, 29845.3
535.94, 29747.5
534.256, 29664.6
532.572, 29097.8
530.888, 28594.9
529.203, 27960.2
527.519, 27213
525.833, 26986.7
524.148, 26729.4
522.462, 26721.3
520.776, 26470.1
519.089, 26230.8
517.403, 26544.4
515.716, 26792.7
514.028, 27307.6
512.34, 27443.1
510.652, 28123.5
508.964, 28242.5
507.275, 28540.6
505.586, 28900.7
503.897, 29243
502.207, 29198.9
500.517, 29290.9
498.827, 29198.1
497.136, 29171.8
495.445, 28756.6
493.754, 28402.3
492.062, 27932.8
490.37, 27271.4
488.678, 26874.7
486.985, 26631.8
485.292, 26312.1
483.599, 25973.4
481.905, 25631.9
480.211, 25266.8
478.517, 25043.6
476.822, 24886.8
475.128, 24756.7
473.432, 24488
471.737, 24545.2
470.041, 25041.7
468.345, 24779
466.648, 25166.2
464.951, 25145.2
463.254, 25066.7
461.557, 25010.3
459.859, 24700.7
458.161, 24756.3
456.462, 24692.7
454.763, 24776.3
453.064, 24444.9
451.365, 24949.2
449.665, 25135.6
447.965, 25370.4
446.265, 25689
444.564, 26089.8
442.863, 26115.6
441.161, 26123.8
439.46, 26189.3
437.757, 26397.3
436.055, 25728.4
434.352, 25707.4
432.649, 25471.9
430.946, 25472.9
429.242, 25419.6
427.538, 25287.1
425.834, 25568.2
424.129, 25535.5
422.424, 25686
420.719, 26005
419.013, 26357.7
417.307, 26538.7
415.601, 26930.6
413.894, 27115.9
412.187, 27298.1
410.48, 27724.9
408.772, 27858.6
407.064, 27727.4
405.356, 27814.2
403.647, 27599.6
401.938, 27723.1
400.229, 27670.9
398.519, 27678.8
396.809, 28082.8
395.099, 28619.7
393.389, 29061.4
391.678, 28938.9
389.966, 29091.1
388.255, 28504.2
386.543, 28136.5
384.831, 27395.2
383.118, 27235.2
381.405, 26711.8
379.692, 26430.9
377.978, 26055.2
376.264, 25484.3
374.55, 25003.9
372.836, 25093.9
371.121, 24698.3
369.406, 24493.9
367.69, 24187.5
365.974, 24274.7
364.258, 24239.4
362.541, 24355.6
360.824, 24366.9
359.107, 24477.2
357.39, 24785.5
355.672, 24766.1
353.954, 24332.1
352.235, 24211
350.516, 24241.3
348.797, 24018.5
347.078, 24056
345.358, 24236
343.637, 24476.9
341.917, 24650.9
340.196, 24772.5
338.475, 24860.7
336.753, 24800.7
335.032, 25039.9
333.309, 25013.3
331.587, 25152.1
329.864, 25391
328.141, 25502.2
326.417, 25825.1
324.693, 26379.9
322.969, 27017.1
321.245, 27644
319.52, 28072
317.795, 28604.2
316.069, 28937.7
314.343, 28633.7
312.617, 28176.3
310.891, 28230.2
309.164, 27629.8
307.437, 27326.3
305.709, 26526.5
303.981, 26065.6
302.253, 25732.2
300.524, 25605.7
298.796, 25745.4
297.066, 25802.5
295.337, 25632.8
293.607, 25648
291.877, 25718.2
290.146, 26135.1
288.415, 25976.9
286.684, 26151
284.953, 26411.6
283.221, 26083.1
281.489, 25701.4
279.756, 25166.8
278.023, 24936.9
276.29, 24805.1
274.557, 24399.4
272.823, 24063.1
271.088, 24414.5
269.354, 24457.3
267.619, 25242.2
265.884, 25792
264.148, 26330.1
262.412, 26543.9
260.676, 26295.4
258.939, 26038.4
257.203, 25533.9
255.465, 25149
253.728, 25434.8
251.99, 25494.6
250.252, 25712.6
248.513, 25673.1
246.774, 25809
245.035, 26015.3
243.295, 26556.3
241.555, 26653.2
239.815, 27120.7
238.074, 26219.2
236.333, 25503.3
234.592, 24934.1
232.85, 24337.8
231.109, 24004.5
229.366, 23819
227.624, 23797.2
225.881, 23827
224.137, 23915.6
222.394, 24348.2
220.65, 24719.1
218.905, 25552.7
217.161, 26302.9
215.416, 26534.2
213.67, 26289.8
211.925, 25939.6
210.179, 25311.7
208.432, 24807.2
206.685, 24576.2
204.938, 24821.9
203.191, 25113.2
201.443, 25586.1
199.695, 25830
197.947, 25739.2
196.198, 25912.9
194.449, 25907.8
192.7, 25684.2
190.95, 25922
189.2, 26145.6
187.449, 26341.9
185.698, 26216.8
183.947, 25450.8
182.196, 24953.4
180.444, 24850
178.692, 24741.1
176.939, 25011.6
175.187, 24536
173.433, 23879.6
171.68, 23444.4
169.926, 23626.5
168.172, 22765.4
166.417, 22951.9
164.662, 22857.7
162.907, 23105.4
161.152, 23412.7
159.396, 23833.9
157.639, 24605.1
155.883, 25422.9
154.126, 25945.8
152.369, 26431.6
150.611, 26224.5
148.853, 26175.3
147.095, 26052.2
145.336, 26028.6
143.577, 26377.4
141.818, 26974.8
140.058, 27161.4
138.298, 27327.9
136.538, 27023
134.777, 26667
133.016, 26272.8
131.255, 25562.3
129.493, 24741.3
127.731, 24336.4
125.969, 23774.2
124.206, 23942.6
122.443, 23808.9
120.679, 23522.1
118.915, 23331.8
117.151, 23656.1
115.387, 23302.9
113.622, 22985.3
111.857, 22571.5
110.091, 22333.5
108.325, 22194.6
106.559, 22317.7
104.793, 22491.6
103.026, 21973.6
101.259, 21833.5
99.491, 22000.4
##END=



