##NAMES=Heisenbergite
##RRUFFID=R140422
##IDEAL CHEMISTRY=U^6+^O_2_(OH)_2_&#183;H_2_O
##LOCALITY=Menzenschwand, Southern Black Forest, Baden WÃ¼rttemberg, Germany
##OWNER=Thomas Theye
##SOURCE=Thomas Theye
##DESCRIPTION=Small yellow, yellow brown or orange brown prismatic crystals associated with quartz, baryte, uraninite, billietite, studtite, rutherfordine, joliotite, goethite and hematite. Type sample
##STATUS=The identification of this mineral is confirmed by single-crystal X-ray diffraction and chemical analysis.
##URL=rruff.info/R140422
##MEASURED CHEMISTRY=U_1.044_Pb_0.020_Ba_0.004_Ca_0.008_H_3.672_O_5_
150, 1050.7842
150.90164, 1039.2125
151.80328, 1054.7682
152.70493, 1072.9189
153.60655, 1083.6514
154.50819, 1062.3802
155.40984, 1067.3423
156.31148, 1076.9172
157.21312, 1083.2158
158.11476, 1089.129
159.01639, 1078.5486
159.91803, 1059.1229
160.81967, 1076.8936
161.72131, 1078.5562
162.62296, 1073.337
163.5246, 1067.8478
164.42622, 1082.1022
165.32787, 1080.806
166.22951, 1057.7323
167.13115, 1057.7772
168.03279, 1068.4812
168.93443, 1082.5477
169.83606, 1083.4691
170.7377, 1074.402
171.63934, 1064.7188
172.54099, 1058.7407
173.44263, 1056.6367
174.34427, 1063.1696
175.2459, 1075.5909
176.14754, 1077.4917
177.04918, 1063.8348
177.95082, 1051.6912
178.85246, 1059.3354
179.7541, 1069.0419
180.65573, 1084.2749
181.55737, 1104.1167
182.45901, 1092.5131
183.36066, 1091.1678
184.2623, 1098.6328
185.16394, 1116.2374
186.06557, 1108.0878
186.96721, 1098.9038
187.86885, 1097.7152
188.77049, 1114.3602
189.67213, 1118.7589
190.57378, 1115.4458
191.4754, 1122.8011
192.37704, 1121.8182
193.27869, 1120.6814
194.18033, 1125.1006
195.08197, 1124.8597
195.98361, 1120.902
196.88524, 1113.7334
197.78688, 1106.507
198.68852, 1110.6952
199.59016, 1115.7229
200.49181, 1109.2173
201.39345, 1112.7952
202.29507, 1111.1963
203.19672, 1101.7383
204.09836, 1096.9282
205, 1085.0853
205.90164, 1075.3439
206.80328, 1086.2836
207.70493, 1089.4208
208.60655, 1081.9775
209.50819, 1061.8112
210.40984, 1064.193
211.31148, 1065.0416
212.21312, 1066.3337
213.11476, 1074.1731
214.01639, 1076.8285
214.91803, 1083.0608
215.81967, 1097.8879
216.72131, 1081.1268
217.62296, 1072.1763
218.5246, 1071.3192
219.42622, 1075.6423
220.32787, 1072.395
221.22951, 1067.926
222.13115, 1066.1847
223.03279, 1063.8174
223.93443, 1057.2831
224.83606, 1052.0509
225.7377, 1083.152
226.63934, 1086.434
227.54099, 1089.054
228.44263, 1114.7684
229.34427, 1101.462
230.2459, 1101.9113
231.14754, 1118.7599
232.04918, 1124.1121
232.95082, 1129.8398
233.85246, 1136.6123
234.7541, 1145.5248
235.65573, 1143.5864
236.55737, 1144.5104
237.45901, 1149.873
238.36066, 1154.5057
239.2623, 1141.8313
240.16394, 1125.5612
241.06557, 1121.1432
241.96721, 1143.1732
242.86885, 1148.1788
243.77049, 1132.6661
244.67213, 1149.5785
245.57378, 1147.7208
246.4754, 1141.9697
247.37704, 1150.5437
248.27869, 1151.9392
249.18033, 1152.911
250.08197, 1154.3173
250.98361, 1151.7773
251.88524, 1152.1565
252.78688, 1153.77
253.68852, 1154.8293
254.59016, 1151.7303
255.49181, 1154.1272
256.39343, 1161.226
257.29507, 1141.1874
258.19672, 1134.0543
259.09836, 1133.5013
260, 1133.8385
260.90164, 1155.2572
261.80328, 1149.9484
262.70493, 1117.2966
263.60657, 1136.9375
264.50821, 1133.285
265.40985, 1128.5425
266.31146, 1147.3976
267.2131, 1134.1115
268.11475, 1121.7734
269.01639, 1115.3716
269.91803, 1118.1539
270.81967, 1119.032
271.72131, 1115.6835
272.62296, 1104.6221
273.5246, 1111.2444
274.42624, 1121.2866
275.32788, 1132.7458
276.22952, 1142.8971
277.13113, 1133.2493
278.03278, 1127.0215
278.93442, 1142.4399
279.83606, 1144.0566
280.7377, 1144.8511
281.63934, 1146.0151
282.54099, 1148.9003
283.44263, 1158.0454
284.34427, 1157.2125
285.24591, 1135.5352
286.14755, 1144.7054
287.04919, 1141.9645
287.95081, 1135.1608
288.85245, 1151.0261
289.75409, 1160.1483
290.65573, 1166.199
291.55737, 1170.2444
292.45901, 1170.4197
293.36066, 1167.6147
294.2623, 1163.7445
295.16394, 1162.4442
296.06558, 1167.1234
296.96722, 1169.2941
297.86887, 1165.9562
298.77048, 1146.1871
299.67212, 1166.6223
300.57376, 1189.7375
301.4754, 1167.7365
302.37704, 1173.7179
303.27869, 1180.9548
304.18033, 1185.4309
305.08197, 1185.9382
305.98361, 1180.6713
306.88525, 1180.6875
307.7869, 1195.7778
308.68854, 1190.6869
309.59015, 1186.1777
310.49179, 1185.031
311.39343, 1193.5273
312.29507, 1223.4154
313.19672, 1229.2913
314.09836, 1189.5717
315, 1202.3015
315.90164, 1203.1458
316.80328, 1200.8794
317.70493, 1212.1957
318.60657, 1214.7405
319.50821, 1216.2996
320.40985, 1219.1324
321.31146, 1229.2223
322.2131, 1231.7792
323.11475, 1230.0144
324.01639, 1226.0941
324.91803, 1230.6417
325.81967, 1230.4995
326.72131, 1225.6528
327.62296, 1220.6444
328.5246, 1230.9705
329.42624, 1238.5989
330.32788, 1234.5126
331.22952, 1234.5754
332.13113, 1238.3624
333.03278, 1241.7589
333.93442, 1236.3453
334.83606, 1260.8757
335.7377, 1265.519
336.63934, 1243.4747
337.54099, 1240.1206
338.44263, 1236.4564
339.34427, 1238.7705
340.24591, 1253.9432
341.14755, 1256.0803
342.04919, 1253.4
342.95081, 1249.6528
343.85245, 1255.4678
344.75409, 1247.0217
345.65573, 1236.5808
346.55737, 1229.5249
347.45901, 1252.2808
348.36066, 1258.3378
349.2623, 1251.5558
350.16394, 1234.1487
351.06558, 1235.0996
351.96722, 1235.425
352.86887, 1232.6074
353.77048, 1226.106
354.67212, 1231.5525
355.57376, 1246.4852
356.4754, 1270.4131
357.37704, 1231.9025
358.27869, 1222.755
359.18033, 1230.9501
360.08197, 1238.3074
360.98361, 1240.9368
361.88525, 1243.1472
362.7869, 1244.2228
363.68854, 1234.3712
364.59015, 1244.433
365.49179, 1248.8286
366.39343, 1230.9408
367.29507, 1251.4371
368.19672, 1246.6879
369.09836, 1234.8198
370, 1253.3545
370.90164, 1254.4882
371.80328, 1261.203
372.70493, 1274.2378
373.60657, 1265.7566
374.50821, 1266.6073
375.40985, 1265.1433
376.31146, 1253.5876
377.2131, 1262.1438
378.11475, 1269.9047
379.01639, 1273.3093
379.91803, 1265.0354
380.81967, 1278.734
381.72131, 1290.2439
382.62296, 1291.3864
383.5246, 1258.5382
384.42624, 1282.9177
385.32788, 1302.078
386.22952, 1280.2367
387.13113, 1297.5872
388.03278, 1292.2198
388.93442, 1277.3401
389.83606, 1273.2443
390.7377, 1277.4132
391.63934, 1288.3784
392.54099, 1302.147
393.44263, 1300.8912
394.34427, 1300.6571
395.24591, 1306.6227
396.14755, 1320.3824
397.04919, 1310.0215
397.95081, 1305.0042
398.85245, 1305.2808
399.75409, 1311.7676
400.65573, 1310.2006
401.55737, 1305.8069
402.45901, 1299.5302
403.36066, 1292.6244
404.2623, 1292.8215
405.16394, 1303.9626
406.06558, 1324.1302
406.96722, 1318.0461
407.86887, 1306.0096
408.77048, 1294.3649
409.67212, 1287.9279
410.57376, 1295.4814
411.4754, 1309.1547
412.37704, 1318.9247
413.27869, 1305.4137
414.18033, 1319.1083
415.08197, 1327.4889
415.98361, 1328.1785
416.88525, 1333.7273
417.7869, 1325.7549
418.68854, 1323.1182
419.59015, 1332.2343
420.49179, 1322.1034
421.39343, 1323.4619
422.29507, 1330.052
423.19672, 1336.563
424.09836, 1346.4424
425, 1348.1052
425.90164, 1349.2881
426.80328, 1368.333
427.70493, 1364.2749
428.60657, 1363.2014
429.50821, 1365.5933
430.40985, 1348.6749
431.31146, 1349.0594
432.2131, 1354.5228
433.11475, 1360.6897
434.01639, 1378.6823
434.91803, 1379.964
435.81967, 1374.3074
436.72131, 1369.9977
437.62296, 1362.2396
438.5246, 1371.6057
439.42624, 1380.9725
440.32788, 1354.4604
441.22952, 1376.1753
442.13113, 1384.8347
443.03278, 1381.6772
443.93442, 1411.5006
444.83606, 1392.2404
445.7377, 1375.0042
446.63934, 1374.8116
447.54099, 1357.6996
448.44263, 1357.6099
449.34427, 1369.2268
450.24591, 1389.7926
451.14755, 1374.3788
452.04919, 1363.476
452.95081, 1355.8234
453.85245, 1350.0388
454.75409, 1349.741
455.65573, 1354.0317
456.55737, 1351.3804
457.45901, 1311.0809
458.36066, 1317.7576
459.2623, 1319.7302
460.16394, 1311.3556
461.06558, 1318.8696
461.96722, 1325.2185
462.86887, 1328.0402
463.77048, 1326.6344
464.67212, 1326.4924
465.57376, 1302.3656
466.4754, 1290.7612
467.37704, 1318.7141
468.27869, 1319.5359
469.18033, 1311.517
470.08197, 1308.3048
470.98361, 1328.2866
471.88525, 1316.7571
472.7869, 1297.63
473.68854, 1281.1896
474.59015, 1286.9338
475.49179, 1301.6837
476.39343, 1297.9403
477.29507, 1282.9047
478.19672, 1301.2445
479.09836, 1301.0214
480, 1297.9564
480.90164, 1293.681
481.80328, 1266.8527
482.70493, 1261.6794
483.60657, 1278.4114
484.50821, 1314.2479
485.40985, 1298.7946
486.31146, 1272.17
487.2131, 1255.5554
488.11475, 1266.2605
489.01639, 1268.4257
489.91803, 1266.5762
490.81967, 1268.7762
491.72131, 1285.6501
492.62296, 1265.8418
493.5246, 1257.5028
494.42624, 1255.7096
495.32788, 1246.2448
496.22952, 1268.2709
497.13113, 1268.0613
498.03278, 1256.7108
498.93442, 1286.074
499.83606, 1288.1249
500.7377, 1287.9806
501.63934, 1286.7197
502.54099, 1265.1917
503.44263, 1261.5117
504.34427, 1263.9392
505.24591, 1268.791
506.14755, 1275.9243
507.04919, 1283.8647
507.95081, 1286.0293
508.85245, 1281.3618
509.75409, 1298.6127
510.65573, 1309.2341
511.55737, 1314.7229
512.45905, 1315.3291
513.36066, 1296.5393
514.26227, 1290.4668
515.16394, 1291.332
516.06555, 1294.2507
516.96722, 1317.701
517.86884, 1329.2744
518.77051, 1333.7343
519.67212, 1336.8817
520.57379, 1329.799
521.4754, 1326.254
522.37708, 1330.4413
523.27869, 1348.7322
524.1803, 1347.0603
525.08197, 1351.8362
525.98358, 1361.0355
526.88525, 1365.8531
527.78687, 1372.7667
528.68854, 1362.3693
529.59015, 1346.6909
530.49182, 1364.4521
531.39343, 1355.937
532.2951, 1357.0398
533.19672, 1368.1515
534.09839, 1368.947
535, 1361.1245
535.90161, 1360.8234
536.80328, 1370.2705
537.7049, 1382.9093
538.60657, 1385.1434
539.50818, 1388.3435
540.40985, 1393.292
541.31146, 1386.8367
542.21313, 1365.5334
543.11475, 1353.9276
544.01642, 1356.5673
544.91803, 1346.3069
545.8197, 1355.2894
546.72131, 1361.4136
547.62292, 1355.9736
548.5246, 1342.2075
549.42621, 1358.3635
550.32788, 1368.5386
551.22949, 1357.8381
552.13116, 1346.7916
553.03278, 1332.0874
553.93445, 1329.3405
554.83606, 1342.9901
555.73773, 1322.4874
556.63934, 1319.6382
557.54095, 1326.1836
558.44263, 1333.6312
559.34424, 1284.9899
560.24591, 1292.0558
561.14752, 1303.6671
562.04919, 1289.5032
562.95081, 1280.4236
563.85248, 1277.9397
564.75409, 1281.4116
565.65576, 1290.1998
566.55737, 1297.2969
567.45905, 1287.574
568.36066, 1274.396
569.26227, 1267.2322
570.16394, 1271.913
571.06555, 1263.3274
571.96722, 1259.1466
572.86884, 1270.5203
573.77051, 1262.8806
574.67212, 1248.7942
575.57379, 1248.0521
576.4754, 1272.2959
577.37708, 1260.3468
578.27869, 1261.6917
579.1803, 1259.3433
580.08197, 1243.3081
580.98358, 1256.7036
581.88525, 1260.197
582.78687, 1254.2102
583.68854, 1240.2452
584.59015, 1243.7833
585.49182, 1260.0632
586.39343, 1273.3813
587.2951, 1273.6689
588.19672, 1266.4442
589.09839, 1265.1875
590, 1260.0829
590.90161, 1246.2418
591.80328, 1239.8118
592.7049, 1251.5962
593.60657, 1257.5546
594.50818, 1245.4625
595.40985, 1232.4102
596.31146, 1247.3727
597.21313, 1265.0525
598.11475, 1268.8323
599.01642, 1225.5779
599.91803, 1245.8258
600.8197, 1265.7501
601.72131, 1260.1212
602.62292, 1255.546
603.5246, 1260.467
604.42621, 1258.4022
605.32788, 1247.684
606.22949, 1257.5908
607.13116, 1244.3149
608.03278, 1238.6244
608.93445, 1245.2344
609.83606, 1236.9506
610.73773, 1242.5057
611.63934, 1254.4209
612.54095, 1263.9071
613.44263, 1244.8973
614.34424, 1248.9131
615.24591, 1252.562
616.14752, 1249.8564
617.04919, 1238.4519
617.95081, 1250.1371
618.85248, 1256.4508
619.75409, 1254.5657
620.65576, 1249.4293
621.55737, 1250.1908
622.45905, 1249.3512
623.36066, 1245.4742
624.26227, 1237.573
625.16394, 1229.6465
626.06555, 1236.8129
626.96722, 1248.7629
627.86884, 1248.0486
628.77051, 1248.2267
629.67212, 1241.6425
630.57379, 1240.7153
631.4754, 1260.1483
632.37708, 1262.6482
633.27869, 1265.2511
634.1803, 1263.6069
635.08197, 1253.9429
635.98358, 1241.2422
636.88525, 1245.2079
637.78687, 1248.0092
638.68854, 1239.1044
639.59015, 1236.8585
640.49182, 1237.7678
641.39343, 1242.3971
642.2951, 1248.8594
643.19672, 1242.2056
644.09839, 1260.2609
645, 1264.6783
645.90161, 1247.7211
646.80328, 1234.3263
647.7049, 1250.9634
648.60657, 1256.1198
649.50818, 1249.3682
650.40985, 1258.2211
651.31146, 1247.1661
652.21313, 1242.1677
653.11475, 1242.7659
654.01642, 1240.4281
654.91803, 1253.4502
655.8197, 1262.3693
656.72131, 1265.1356
657.62292, 1261.0944
658.5246, 1240.3948
659.42621, 1248.6647
660.32788, 1260.0122
661.22949, 1251.0001
662.13116, 1254.8998
663.03278, 1264.1949
663.93445, 1276.3435
664.83606, 1288.9149
665.73773, 1294.5001
666.63934, 1290.7524
667.54095, 1292.7618
668.44263, 1301.7461
669.34424, 1295.6183
670.24591, 1308.163
671.14752, 1308.3643
672.04919, 1295.5483
672.95081, 1288.5576
673.85248, 1296.3263
674.75409, 1296.1261
675.65576, 1291.5498
676.55737, 1293.6027
677.45905, 1294.4633
678.36066, 1296.2584
679.26227, 1295.2667
680.16394, 1288.3098
681.06555, 1303.915
681.96722, 1298.1287
682.86884, 1296.0167
683.77051, 1309.4366
684.67212, 1297.0386
685.57379, 1285.7817
686.4754, 1289.0122
687.37708, 1304.4537
688.27869, 1300.9576
689.1803, 1298.187
690.08197, 1302.7778
690.98358, 1310.3573
691.88525, 1307.7317
692.78687, 1309.5807
693.68854, 1301.7115
694.59015, 1298.7356
695.49182, 1321.0273
696.39343, 1313.0118
697.2951, 1313.3923
698.19672, 1315.1896
699.09839, 1314.8492
700, 1335.2529
700.90161, 1341.0991
701.80328, 1342.0001
702.7049, 1339.4999
703.60657, 1321.8701
704.50818, 1317.5291
705.40985, 1327.7596
706.31146, 1342.3467
707.21313, 1337.5789
708.11475, 1353.9564
709.01642, 1365.9674
709.91803, 1364.5562
710.8197, 1342.6289
711.72131, 1359.6069
712.62292, 1372.3545
713.5246, 1385.0375
714.42621, 1397.3759
715.32788, 1384.2563
716.22949, 1394.8657
717.13116, 1415.797
718.03278, 1436.0083
718.93445, 1434.1143
719.83606, 1453.6674
720.73773, 1474.2393
721.63934, 1492.08
722.54095, 1506.1329
723.44263, 1495.6211
724.34424, 1498.5125
725.24591, 1511.8953
726.14752, 1531.5731
727.04919, 1552.0009
727.95081, 1572.5149
728.85248, 1585.1614
729.75409, 1593.3112
730.65576, 1624.3311
731.55737, 1614.261
732.45905, 1638.1975
733.36066, 1682.2783
734.26227, 1694.9677
735.16394, 1698.3301
736.06555, 1703.3575
736.96722, 1713.0956
737.86884, 1728.3853
738.77051, 1730.0468
739.67212, 1715.2736
740.57379, 1716.52
741.4754, 1740.65
742.37708, 1757.6311
743.27869, 1781.1056
744.1803, 1764.3962
745.08197, 1734.1238
745.98358, 1750.8102
746.88525, 1737.4559
747.78687, 1715.6302
748.68854, 1702.5582
749.59015, 1709.5507
750.49182, 1712.4197
751.39343, 1705.3877
752.2951, 1666.5652
753.19672, 1609.9342
754.09839, 1606.6647
755, 1609.3076
755.90161, 1604.53
756.80328, 1590.7838
757.7049, 1568.9821
758.60657, 1558.9901
759.50818, 1558.4314
760.40985, 1557.2217
761.31146, 1547.8899
762.21313, 1524.8469
763.11475, 1507.8201
764.01642, 1505.4325
764.91803, 1509.8202
765.8197, 1498.9443
766.72131, 1504.6205
767.62292, 1500.8535
768.5246, 1491.9323
769.42621, 1483.8409
770.32788, 1479.704
771.22949, 1497.0614
772.13116, 1491.9904
773.03278, 1465.0099
773.93445, 1474.9503
774.83606, 1473.0275
775.73773, 1467.1747
776.63934, 1465.0343
777.54095, 1474.8143
778.44263, 1494.3834
779.34424, 1486.5616
780.24591, 1486.7433
781.14752, 1503.7966
782.04919, 1489.21
782.95081, 1504.6831
783.85248, 1528.443
784.75409, 1546.6329
785.65576, 1544.1011
786.55737, 1539.1494
787.45905, 1543.6168
788.36066, 1550.3965
789.26227, 1555.6456
790.16394, 1566.5455
791.06555, 1585.7487
791.96722, 1607.4889
792.86884, 1621.4382
793.77051, 1611.1182
794.67212, 1637.84
795.57379, 1646.0999
796.4754, 1657.0052
797.37708, 1682.0667
798.27869, 1679.2441
799.1803, 1689.671
800.08197, 1694.926
800.98358, 1699.2382
801.88525, 1721.5393
802.78687, 1734.1409
803.68854, 1740.7672
804.59015, 1752.6168
805.49182, 1777.6653
806.39343, 1811.0043
807.2951, 1834.4574
808.19672, 1852.6322
809.09839, 1867.7043
810, 1881.6132
810.90161, 1915.4025
811.80328, 1957.9656
812.7049, 1993.546
813.60657, 2016.0726
814.50818, 2062.6421
815.40985, 2136.6853
816.31146, 2191.1721
817.21313, 2225.7908
818.11475, 2262.5388
819.01642, 2299.5793
819.91803, 2386.5959
820.8197, 2466.6785
821.72131, 2508.4744
822.62292, 2556.9812
823.5246, 2599.5859
824.42621, 2605.6797
825.32788, 2600.0923
826.22949, 2630.4648
827.13116, 2646.4937
828.03278, 2635.0322
828.93445, 2624.9058
829.83606, 2627.4443
830.73773, 2622.1174
831.63934, 2619.8945
832.54095, 2609.283
833.44263, 2586.0674
834.34424, 2548.9949
835.24591, 2518.4104
836.14752, 2463.2573
837.04919, 2407.9148
837.95081, 2355.3828
838.85248, 2285.8635
839.75409, 2182.4419
840.65576, 2087.0789
841.55737, 2015.0347
842.45905, 1965.9303
843.36066, 1858.2705
844.26227, 1799.4016
845.16394, 1739.4377
846.06555, 1673.1631
846.96722, 1616.4606
847.86884, 1611.0062
848.77051, 1580.222
849.67212, 1539.7214
850.57379, 1504.7635
851.4754, 1494.3442
852.37708, 1480.1909
853.27869, 1466.3848
854.1803, 1456.0978
855.08197, 1451.3596
855.98358, 1440.5398
856.88525, 1425.7212
857.78687, 1420.0272
858.68854, 1418.9393
859.59015, 1400.9578
860.49182, 1386.3959
861.39343, 1381.6056
862.2951, 1384.7001
863.19672, 1391.5853
864.09839, 1391.1349
865, 1391.4985
865.90161, 1396.4882
866.80328, 1386.8607
867.7049, 1342.2142
868.60657, 1344.0736
869.50818, 1353.2802
870.40985, 1356.3922
871.31146, 1349.104
872.21313, 1334.1372
873.11475, 1355.4441
874.01642, 1353.552
874.91803, 1348.4056
875.8197, 1353.4288
876.72131, 1354.3451
877.62292, 1341.7131
878.5246, 1334.343
879.42621, 1340.7273
880.32788, 1362.1355
881.22949, 1342.7062
882.13116, 1353.6179
883.03278, 1356.0806
883.93445, 1343.6613
884.83606, 1330.064
885.73773, 1311.0277
886.63934, 1320.2035
887.54095, 1329.8813
888.44263, 1331.1697
889.34424, 1351.0017
890.24591, 1340.1289
891.14752, 1338.369
892.04919, 1343.3672
892.95081, 1347.4109
893.85248, 1340.1332
894.75409, 1328.2166
895.65576, 1338.2637
896.55737, 1352.2977
897.45905, 1339.127
898.36066, 1330.3597
899.26227, 1343.3619
900.16394, 1340.342
901.06555, 1326.8553
901.96722, 1344.4722
902.86884, 1342.2499
903.77051, 1358.1833
904.67212, 1366.8113
905.57379, 1360.7616
906.4754, 1366.4877
907.37708, 1359.6685
908.27869, 1362.516
909.1803, 1364.7955
910.08197, 1361.4897
910.98358, 1381.4906
911.88525, 1374.2026
912.78687, 1364.9059
913.68854, 1358.1138
914.59015, 1354.6642
915.49182, 1364.1719
916.39343, 1365.3999
917.2951, 1368.7236
918.19672, 1371.5759
919.09839, 1366.2161
920, 1373.6685
920.90161, 1381.7103
921.80328, 1378.4442
922.7049, 1364.201
923.60657, 1350.2094
924.50818, 1364.5283
925.40985, 1374.6958
926.31146, 1370.1752
927.21313, 1359.3595
928.11475, 1381.3655
929.01642, 1357.6338
929.91803, 1360.8345
930.8197, 1361.8474
931.72131, 1345.9927
932.62292, 1350.0983
933.5246, 1347.0645
934.42621, 1344.7445
935.32788, 1342.4098
936.22949, 1342.8083
937.13116, 1368.702
938.03278, 1357.1765
938.93445, 1346.3754
939.83606, 1340.8097
940.73773, 1339.2675
941.63934, 1349.8107
942.54095, 1353.0991
943.44263, 1346.9937
944.34424, 1337.0614
945.24591, 1332.1464
946.14752, 1343.769
947.04919, 1328.6967
947.95081, 1333.6831
948.85248, 1350.6835
949.75409, 1348.2341
950.65576, 1318.5482
951.55737, 1332.4795
952.45905, 1353.8743
953.36066, 1356.6454
954.26227, 1322.9706
955.16394, 1347.9259
956.06555, 1345.745
956.96722, 1331.8334
957.86884, 1316.3417
958.77051, 1306.6321
959.67212, 1308.1556
960.57379, 1334.2794
961.4754, 1334.1019
962.37708, 1311.0737
963.27869, 1314.6071
964.1803, 1316.8809
965.08197, 1322.9824
965.98358, 1323.0544
966.88525, 1314.906
967.78687, 1303.6793
968.68854, 1319.0817
969.59015, 1321.4888
970.49182, 1315.6731
971.39343, 1311.4695
972.2951, 1324.1133
973.19672, 1330.0906
974.09839, 1324.2877
975, 1323.0236
975.90161, 1332.1013
976.80328, 1346.0756
977.7049, 1324.3552
978.60657, 1321.0044
979.50818, 1322.6488
980.40985, 1324.3645
981.31146, 1330.5724
982.21313, 1329.5963
983.11475, 1324.8209
984.01642, 1327.9558
984.91803, 1337.8021
985.8197, 1340.2494
986.72131, 1321.1556
987.62292, 1328.6582
988.5246, 1337.5919
989.42621, 1338.0334
990.32788, 1333.8976
991.22949, 1341.8004
992.13116, 1329.5238
993.03278, 1326.2758
993.93445, 1334.7997
994.83606, 1337.8516
995.73773, 1339.2684
996.63934, 1359.248
997.54095, 1355.3583
998.44263, 1340.035
999.34424, 1356.3568
1000.2459, 1362.1401
1001.1475, 1367.692
1002.0492, 1369.6293
1002.9508, 1362.7968
1003.8525, 1344.9246
1004.7541, 1352.5745
1005.6558, 1357.0691
1006.5574, 1358.0549
1007.459, 1358.2356
1008.3607, 1359.2279
1009.2623, 1345.3632
1010.1639, 1354.1818
1011.0656, 1358.7217
1011.9672, 1359.8418
1012.8688, 1360.0476
1013.7705, 1332.8501
1014.6721, 1338.1913
1015.5738, 1340.9572
1016.4754, 1350.7209
1017.3771, 1370.301
1018.2787, 1356.2537
1019.1803, 1342.1198
1020.082, 1340.5492
1020.9836, 1348.8464
1021.8853, 1356.9159
1022.7869, 1343.6838
1023.6885, 1362.7607
1024.5902, 1358.7169
1025.4918, 1351.3228
1026.3934, 1353.1246
1027.295, 1361.8947
1028.1968, 1344.0229
1029.0984, 1347.1152
1030, 1345.7928
1030.9016, 1339.7695
1031.8032, 1346.6764
1032.705, 1330.9122
1033.6066, 1325.6279
1034.5082, 1324.9329
1035.4098, 1325.2618
1036.3115, 1325.078
1037.2131, 1330.7504
1038.1147, 1321.941
1039.0164, 1332.8091
1039.9181, 1339.0702
1040.8197, 1317.798
1041.7213, 1307.3386
1042.6229, 1307.0715
1043.5245, 1305.0149
1044.4263, 1311.1887
1045.3279, 1324.8472
1046.2295, 1319.6145
1047.1311, 1304.9628
1048.0328, 1296.0901
1048.9344, 1293.149
1049.8361, 1295.446
1050.7377, 1301.4337
1051.6394, 1291.474
1052.541, 1299.0372
1053.4426, 1303.851
1054.3442, 1300.1558
1055.2458, 1289.3643
1056.1476, 1265.9387
1057.0492, 1293.0607
1057.9508, 1294.1952
1058.8524, 1288.0277
1059.7542, 1297.057
1060.6558, 1282.7404
1061.5574, 1287.6152
1062.459, 1291.7703
1063.3606, 1288.1947
1064.2623, 1280.9237
1065.1639, 1286.969
1066.0656, 1287.4022
1066.9672, 1287.6858
1067.8689, 1295.605
1068.7705, 1300.8112
1069.6721, 1287.5421
1070.5737, 1295.3549
1071.4755, 1307.6029
1072.3771, 1298.187
1073.2787, 1288.8971
1074.1803, 1300.054
1075.0819, 1306.4504
1075.9836, 1300.0344
1076.8853, 1299.6338
1077.7869, 1298.3624
1078.6885, 1292.9241
1079.5902, 1287.8831
1080.4918, 1303.1453
1081.3934, 1301.7721
1082.295, 1299.7877
1083.1968, 1300.1843
1084.0984, 1299.8123
1085, 1302.2048
1085.9016, 1320.339
1086.8032, 1318.7941
1087.705, 1311.0459
1088.6066, 1308.0154
1089.5082, 1295.4719
1090.4098, 1304.9021
1091.3115, 1312.0596
1092.2131, 1325.5327
1093.1147, 1331.325
1094.0164, 1306.0659
1094.9181, 1313.6472
1095.8197, 1318.8167
1096.7213, 1312.6439
1097.6229, 1308.1515
1098.5245, 1315.4691
1099.4263, 1319.317
1100.3279, 1315.1516
1101.2295, 1326.9388
1102.1311, 1345.764
1103.0328, 1349.0172
1103.9344, 1312.3296
1104.8361, 1318.3949
1105.7377, 1329.5726
1106.6394, 1347.1277
1107.541, 1348.74
1108.4426, 1324.7766
1109.3442, 1326.5298
1110.2458, 1320.2999
1111.1476, 1306.88
1112.0492, 1307.4489
1112.9508, 1315.991
1113.8524, 1303.631
1114.7542, 1315.1526
1115.6558, 1329.1947
1116.5574, 1331.4568
1117.459, 1328.506
1118.3606, 1330.5732
1119.2623, 1338.73
1120.1639, 1333.5304
1121.0656, 1319.0209
1121.9672, 1322.1228
1122.8689, 1335.5105
1123.7705, 1328.0061
1124.6721, 1327.4624
1125.5737, 1320.0969
1126.4755, 1318.5381
1127.3771, 1316.946
1128.2787, 1311.0414
1129.1803, 1309.1735
1130.0819, 1305.1388
1130.9836, 1310.3186
1131.8853, 1316.2017
1132.7869, 1325.4353
1133.6885, 1341.5056
1134.5902, 1333.4738
1135.4918, 1319.172
1136.3934, 1329.8538
1137.295, 1342.9423
1138.1968, 1336.6851
1139.0984, 1306.7407
1140, 1324.2495
1140.9016, 1316.988
1141.8032, 1312.7299
1142.705, 1314.4487
1143.6066, 1319.4443
1144.5082, 1336.1256
1145.4098, 1320.2798
1146.3115, 1324.3658
1147.2131, 1322.2684
1148.1147, 1309.009
1149.0164, 1299.2598
1149.9181, 1308.1342
1150.8197, 1301.0072
1151.7213, 1302.9303
1152.6229, 1313.4332
1153.5245, 1320.3992
1154.4263, 1305.275
1155.3279, 1287.0363
1156.2295, 1303.9659
1157.1311, 1320.6971
1158.0328, 1316.5359
1158.9344, 1293.3284
1159.8361, 1291.1288
1160.7377, 1301.0338
1161.6394, 1287.3829
1162.541, 1287.4292
1163.4426, 1297.2576
1164.3442, 1294.717
1165.2458, 1294.693
1166.1476, 1304.9082
1167.0492, 1309.4181
1167.9508, 1312.6099
1168.8524, 1318.5133
1169.7542, 1326.8071
1170.6558, 1323.4869
1171.5574, 1310.0342
1172.459, 1302.7092
1173.3606, 1302.0491
1174.2623, 1304.031
1175.1639, 1303.2737
1176.0656, 1294.6344
1176.9672, 1297.8081
1177.8689, 1301.6877
1178.7705, 1299.5393
1179.6721, 1299.2274
1180.5737, 1330.8821
1181.4755, 1297.6222
1182.3771, 1297.7925
1183.2787, 1295.6715
1184.1803, 1296.7733
1185.0819, 1309.3009
1185.9836, 1298.1157
1186.8853, 1316.5829
1187.7869, 1317.0687
1188.6885, 1311.7261
1189.5902, 1308.988
1190.4918, 1307.2388
1191.3934, 1283.5951
1192.295, 1282.7167
1193.1968, 1294.0392
1194.0984, 1308.4181
1195, 1313.5707
1195.9016, 1304.3298
1196.8032, 1312.8922
1197.705, 1284.0193
1198.6066, 1304.8429
1199.5082, 1311.2531
1200.4098, 1297.4587
1201.3115, 1303.0934
1202.2131, 1272.8256
1203.1147, 1290.8643
1204.0164, 1283.5106
1204.9181, 1283.2197
1205.8197, 1301.8097
1206.7213, 1314.5358
1207.6229, 1271.1151
1208.5245, 1261.7592
1209.4263, 1275.1053
1210.3279, 1291.5563
1211.2295, 1302.2045
1212.1311, 1307.6021
1213.0328, 1285.165
1213.9344, 1294.4852
1214.8361, 1292.479
1215.7377, 1286.4091
1216.6394, 1277.8357
1217.541, 1260.5302
1218.4426, 1264.2084
1219.3442, 1276.4475
1220.2458, 1267.3832
1221.1476, 1271.452
1222.0492, 1287.755
1222.9508, 1283.6475
1223.8524, 1292.3173
1224.7542, 1278.8771
1225.6558, 1263.5789
1226.5574, 1274.4913
1227.459, 1294.515
1228.3606, 1282.6282
1229.2623, 1278.9623
1230.1639, 1258.405
1231.0656, 1270.4424
1231.9672, 1267.5004
1232.8689, 1261.6206
1233.7705, 1289.4562
1234.6721, 1264.6201
1235.5737, 1260.5074
1236.4755, 1254.8799
1237.3771, 1259.3348
1238.2787, 1265.8848
1239.1803, 1262.4453
1240.0819, 1270.3099
1240.9836, 1263.3716
1241.8853, 1258.3112
1242.7869, 1265.0149
1243.6885, 1272.1936
1244.5902, 1265.7095
1245.4918, 1252.3256
1246.3934, 1250.8951
1247.295, 1269.2832
1248.1968, 1268.3879
1249.0984, 1257.2284
1250, 1256.9508
1250.9016, 1269.7813
1251.8032, 1257.7123
1252.705, 1265.6378
1253.6066, 1260.7468
1254.5082, 1254.1051
1255.4098, 1258.6816
1256.3115, 1270.5175
1257.2131, 1273.9332
1258.1147, 1275.0298
1259.0164, 1273.9084
1259.9181, 1263.9725
1260.8197, 1261.0758
1261.7213, 1283.7123
1262.6229, 1260.1943
1263.5245, 1234.7993
1264.4263, 1252.8334
1265.3279, 1271.3818
1266.2295, 1279.5078
1267.1311, 1286.8357
1268.0328, 1282.118
1268.9344, 1249.0632
1269.8361, 1269.4126
1270.7377, 1274.1053
1271.6394, 1269.1053
1272.541, 1269.8029
1273.4426, 1252.2031
1274.3442, 1247.877
1275.2458, 1267.0563
1276.1476, 1270.2549
1277.0492, 1264.9193
1277.9508, 1257.4452
1278.8524, 1246.0005
1279.7542, 1259.0165
1280.6558, 1257.3253
1281.5574, 1257.072
1282.459, 1256.6078
1283.3606, 1254.9103
1284.2623, 1255.1956
1285.1639, 1266.7964
1286.0656, 1263.1167
1286.9672, 1239.3666
1287.8689, 1238.6682
1288.7705, 1242.762
1289.6721, 1238.2332
1290.5737, 1247.9323
1291.4755, 1253.5602
1292.3771, 1254.0164
1293.2787, 1256.7678
1294.1803, 1248.6594
1295.0819, 1239.4272
1295.9836, 1243.1598
1296.8853, 1221.6272
1297.7869, 1224.8459
1298.6885, 1239.1183
1299.5902, 1252.5024
1300.4918, 1251.4258
1301.3934, 1239.9937
1302.295, 1243.312
1303.1968, 1223.2778
1304.0984, 1236.5824
1305, 1241.7537
1305.9016, 1236.424
1306.8032, 1232.3779
1307.705, 1237.3243
1308.6066, 1229.6469
1309.5082, 1215.892
1310.4098, 1222.0829
1311.3115, 1235.3827
1312.2131, 1233.8374
1313.1147, 1222.7313
1314.0164, 1238.9921
1314.9181, 1246.9255
1315.8197, 1244.319
1316.7213, 1229.7173
1317.6229, 1224.8311
1318.5245, 1227.6554
1319.4263, 1225.6423
1320.3279, 1226.1063
1321.2295, 1222.3574
1322.1311, 1226.9501
1323.0328, 1217.0934
1323.9344, 1211.7202
1324.8361, 1223.4358
1325.7377, 1239.1901
1326.6394, 1224.6652
1327.541, 1224.464
1328.4426, 1232.1167
1329.3442, 1227.4746
1330.2458, 1219.3363
1331.1476, 1218.8413
1332.0492, 1218.4357
1332.9508, 1214.3433
1333.8524, 1206.335
1334.7542, 1207.11
1335.6558, 1221.8669
1336.5574, 1225.1136
1337.459, 1202.5857
1338.3606, 1204.1965
1339.2623, 1217.2489
1340.1639, 1208.8644
1341.0656, 1201.1074
1341.9672, 1204.1819
1342.8689, 1214.4104
1343.7705, 1222.1875
1344.6721, 1230.0038
1345.5737, 1213.7028
1346.4755, 1216.3813
1347.3771, 1214.9823
1348.2787, 1211.6837
1349.1803, 1211.5586
1350.0819, 1212.1404
1350.9836, 1209.4572
1351.8853, 1214.3091
1352.7869, 1225.7794
1353.6885, 1228.8387
1354.5902, 1215.8486
1355.4918, 1199.3969
1356.3934, 1203.7686
1357.295, 1202.8212
1358.1968, 1192.3643
1359.0984, 1221.0756
1360, 1236.2328
1360.9016, 1226.3361
1361.8032, 1217.2317
1362.705, 1236.9656
1363.6066, 1219.1821
1364.5082, 1194.266
1365.4098, 1195.9792
1366.3115, 1204.9056
1367.2131, 1214.6456
1368.1147, 1222.5786
1369.0164, 1217.6418
1369.9181, 1200.6401
1370.8197, 1225.4374
1371.7213, 1226.6863
1372.6229, 1221.6925
1373.5245, 1218.391
1374.4263, 1219.6205
1375.3279, 1230.5381
1376.2295, 1209.0551
1377.1311, 1208.3608
1378.0328, 1209.9517
1378.9344, 1212.4923
1379.8361, 1216.1871
1380.7377, 1216.2649
1381.6394, 1206.1628
1382.541, 1216.0189
1383.4426, 1201.1571
1384.3442, 1188.0878
1385.2458, 1196.5334
1386.1476, 1213.9867
1387.0492, 1218.4937
1387.9508, 1205.2769
1388.8524, 1206.4579
1389.7542, 1191.7616
1390.6558, 1203.2031
1391.5574, 1202.7952
1392.459, 1204.0164
1393.3606, 1214.785
1394.2623, 1212.233
1395.1639, 1203.068
1396.0656, 1203.067
1396.9672, 1193.1752
1397.8689, 1189.6921
1398.7705, 1215.016
1399.6721, 1230.4268
1400.5737, 1188.3555
1401.4755, 1202.2397
1402.3771, 1217.5247
1403.2787, 1191.3911
1404.1803, 1192.1193
1405.0819, 1202.3187
1405.9836, 1195.3212
1406.8853, 1177.1548
1407.7869, 1192.566
1408.6885, 1195.3722
1409.5902, 1197.2875
1410.4918, 1187.0538
1411.3934, 1183.7083
1412.295, 1182.6501
1413.1968, 1178.2214
1414.0984, 1184.9974
1415, 1173.0342
1415.9016, 1169.4498
1416.8032, 1207.0935
1417.705, 1211.5244
1418.6066, 1197.9595
1419.5082, 1192.0345
1420.4098, 1183.0105
1421.3115, 1168.4463
1422.2131, 1194.1306
1423.1147, 1191.1622
1424.0164, 1200.782
1424.9181, 1187.9283
1425.8197, 1180.0869
1426.7213, 1210.0778
1427.6229, 1198.1272
1428.5245, 1181.4125
1429.4263, 1180.9066
1430.3279, 1181.4512
1431.2295, 1183.9784
1432.1311, 1184.3203
1433.0328, 1185.4398
1433.9344, 1195.0613
1434.8361, 1186.4492
1435.7377, 1172.8856
1436.6394, 1167.3661
1437.541, 1198.8457
1438.4426, 1202.9335
1439.3442, 1186.6405
1440.2458, 1194.4578
1441.1476, 1187.715
1442.0492, 1178.3441
1442.9508, 1178.2948
1443.8524, 1178.2715
1444.7542, 1196.0784
1445.6558, 1209.4456
1446.5574, 1202.2319
1447.459, 1189.9059
1448.3606, 1186.9332
1449.2623, 1176.3661
1450.1639, 1186.5438
1451.0656, 1185.4869
1451.9672, 1187.6248
1452.8689, 1192.9613
1453.7705, 1191.7163
1454.6721, 1187.307
1455.5737, 1194.7028
1456.4755, 1192.2058
1457.3771, 1202.057
1458.2787, 1185.6101
1459.1803, 1180.7721
1460.0819, 1190.9861
1460.9836, 1189.8047
1461.8853, 1192.2429
1462.7869, 1159.6554
1463.6885, 1172.9216
1464.5902, 1176.2906
1465.4918, 1196.0715
1466.3934, 1195.8138
1467.295, 1177.7853
1468.1968, 1182.8733
1469.0984, 1175.1116
1470, 1194.6685
1470.9016, 1173.3618
1471.8032, 1174.3029
1472.705, 1175.4137
1473.6066, 1177.0828
1474.5082, 1187.1968
1475.4098, 1194.5005
1476.3115, 1168.6512
1477.2131, 1144.3427
1478.1147, 1172.4536
1479.0164, 1181.1826
1479.9181, 1172.1027
1480.8197, 1165.1858
1481.7213, 1169.111
1482.6229, 1173.4484
1483.5245, 1167.1002
1484.4263, 1170.9546
1485.3279, 1164.8837
1486.2295, 1176.8756
1487.1311, 1182.0103
1488.0328, 1174.2523
1488.9344, 1163.4989
1489.8361, 1154.4391
1490.7377, 1137.7551
1491.6394, 1155.441
1492.541, 1145.5789
1493.4426, 1141.8525
1494.3442, 1143.2256
1495.2458, 1158.8263
1496.1476, 1170.0822
1497.0492, 1145.8531
1497.9508, 1134.5082
1498.8524, 1134.9677
1499.7542, 1142.1101
1500.6558, 1156.5266
1501.5574, 1153.7614
1502.459, 1145.048
1503.3606, 1141.9163
1504.2623, 1143.0878
1505.1639, 1158.7441
1506.0656, 1176.1796
1506.9672, 1147.2388
1507.8689, 1165.0431
1508.7705, 1161.7217
1509.6721, 1142.3109
1510.5737, 1134.1775
1511.4755, 1141.906
1512.3771, 1148.8685
1513.2787, 1160.2755
1514.1803, 1142.6221
1515.0819, 1137.7871
1515.9836, 1147.702
1516.8853, 1146.2433
1517.7869, 1151.4297
1518.6885, 1172.2892
1519.5902, 1167.3298
1520.4918, 1151.7462
1521.3934, 1132.3287
1522.295, 1144.0151
1523.1968, 1154.377
1524.0984, 1151.7905
1525, 1144.007
1525.9016, 1146.1007
1526.8032, 1155.1243
1527.705, 1136.9047
1528.6066, 1132.9298
1529.5082, 1144.8424
1530.4098, 1144.7109
1531.3115, 1159.3761
1532.2131, 1160.5753
1533.1147, 1158.1188
1534.0164, 1165.5497
1534.9181, 1153.2125
1535.8197, 1163.9366
1536.7213, 1167.2229
1537.6229, 1176.0229
1538.5245, 1166.4567
1539.4263, 1175.3495
1540.3279, 1178.4781
1541.2295, 1171.1942
1542.1311, 1180.6893
1543.0328, 1183.978
1543.9344, 1165.4641
1544.8361, 1150.198
1545.7377, 1147.3051
1546.6394, 1153.3077
1547.541, 1158.9423
1548.4426, 1164.4716
1549.3442, 1167.1848
1550.2458, 1158.6027
1551.1476, 1148.1754
1552.0492, 1132.0804
1552.9508, 1170.5701
1553.8524, 1156.7632
1554.7542, 1153.3414
1555.6558, 1161.8353
1556.5574, 1156.7634
1557.459, 1147.4922
1558.3606, 1166.8375
1559.2623, 1154.7599
1560.1639, 1150.1393
1561.0656, 1137.0175
1561.9672, 1140.0143
1562.8689, 1141.2025
1563.7705, 1145.911
1564.6721, 1151.3002
1565.5737, 1150.2061
1566.4755, 1150.0216
1567.3771, 1146.5038
1568.2787, 1137.1256
1569.1803, 1160.1558
1570.0819, 1171.3733
1570.9836, 1165.6171
1571.8853, 1158.562
1572.7869, 1163.2291
1573.6885, 1178.8008
1574.5902, 1194.2281
1575.4918, 1199.0538
1576.3934, 1182.9872
1577.295, 1191.55
1578.1968, 1205.5076
1579.0984, 1191.1311
1580, 1185.4736
1580.9016, 1192.3077
1581.8032, 1191.5613
1582.705, 1192.6298
1583.6066, 1193.5323
1584.5082, 1179.2671
1585.4098, 1171.0078
1586.3115, 1171.0222
1587.2131, 1165.1765
1588.1147, 1149.8586
1589.0164, 1144.6495
1589.9181, 1146.1895
1590.8197, 1136.2545
1591.7213, 1158.3451
1592.6229, 1142.2301
1593.5245, 1139.366
1594.4263, 1144.9648
1595.3279, 1139.9427
1596.2295, 1127.5129
1597.1311, 1131.8271
1598.0328, 1140.0155
1598.9344, 1135.3478
1599.8361, 1156.1956
1600.7377, 1129.8408
1601.6394, 1124.6595
1602.541, 1130.8766
1603.4426, 1138.5902
1604.3442, 1128.1124
1605.2458, 1115.8445
1606.1476, 1115.093
1607.0492, 1121.1431
1607.9508, 1124.0864
1608.8524, 1118.5994
1609.7542, 1102.6573
1610.6558, 1121.2378
1611.5574, 1107.1199
1612.459, 1107.8964
1613.3606, 1098.9556
1614.2623, 1103.0529
1615.1639, 1122.9049
1616.0656, 1128.5597
1616.9672, 1120.8214
1617.8689, 1091.4147
1618.7705, 1108.3896
1619.6721, 1109.6448
1620.5737, 1121.0131
1621.4755, 1125.7555
1622.3771, 1124.563
1623.2787, 1124.7489
1624.1803, 1120.8046
1625.0819, 1114.7355
1625.9836, 1133.947
1626.8853, 1117.5627
1627.7869, 1123.8865
1628.6885, 1135.424
1629.5902, 1119.9542
1630.4918, 1104.1818
1631.3934, 1107.3536
1632.295, 1117.266
1633.1968, 1124.6958
1634.0984, 1132.5518
1635, 1125.9153
1635.9016, 1134.142
1636.8032, 1126.9805
1637.705, 1154.3638
1638.6066, 1145.6479
1639.5082, 1140.274
1640.4098, 1133.7528
1641.3115, 1131.7273
1642.2131, 1133.8947
1643.1147, 1133.8894
1644.0164, 1153.7955
1644.9181, 1135.1647
1645.8197, 1131.1041
1646.7213, 1126.7405
1647.6229, 1142.0012
1648.5245, 1146.8842
1649.4263, 1154.623
1650.3279, 1162.3583
1651.2295, 1152.7465
1652.1311, 1137.6011
1653.0328, 1149.9141
1653.9344, 1140.7003
1654.8361, 1135.6798
1655.7377, 1132.4539
1656.6394, 1134.7472
1657.541, 1133.4401
1658.4426, 1137.7939
1659.3442, 1130.51
1660.2458, 1122.673
1661.1476, 1129.5001
1662.0492, 1129.2573
1662.9508, 1123.7614
1663.8524, 1125.056
1664.7542, 1114.5739
1665.6558, 1118.6293
1666.5574, 1113.6268
1667.459, 1113.1984
1668.3606, 1116.9388
1669.2623, 1117.8201
1670.1639, 1118.7985
1671.0656, 1123.1255
1671.9672, 1118.9055
1672.8689, 1108.798
1673.7705, 1116.7788
1674.6721, 1105.0023
1675.5737, 1120.0778
1676.4755, 1127.8854
1677.3771, 1136.4575
1678.2787, 1120.9492
1679.1803, 1116.4294
1680.0819, 1129.8154
1680.9836, 1119.7892
1681.8853, 1124.5382
1682.7869, 1099.1851
1683.6885, 1108.0741
1684.5902, 1119.2065
1685.4918, 1119.2456
1686.3934, 1103.5431
1687.295, 1095.2076
1688.1968, 1095.3195
1689.0984, 1095.8296
1690, 1096.1095
1690.9016, 1095.1233
1691.8032, 1089.4402
1692.705, 1114.6241
1693.6066, 1114.326
1694.5082, 1111.3927
1695.4098, 1109.3708
1696.3115, 1084.5089
1697.2131, 1083.2096
1698.1147, 1085.6113
1699.0164, 1083.4613
1699.9181, 1085.6858
1700.8197, 1084.184
1701.7213, 1071.2866
1702.6229, 1062.163
1703.5245, 1084.2341
1704.4263, 1076.7245
1705.3279, 1063.1648
1706.2295, 1070.9801
1707.1311, 1084.9524
1708.0328, 1094.3596
1708.9344, 1090.1328
1709.8361, 1084.2689
1710.7377, 1084.4932
1711.6394, 1080.6215
1712.541, 1095.7184
1713.4426, 1101.7732
1714.3442, 1094.9208
1715.2458, 1096.1162
1716.1476, 1083.3032
1717.0492, 1095.632
1717.9508, 1078.0729
1718.8524, 1070.7217
1719.7542, 1087.21
1720.6558, 1087.896
1721.5574, 1072.5526
1722.459, 1079.985
1723.3606, 1062.7921
1724.2623, 1069.2771
1725.1639, 1085.3931
1726.0656, 1084.0021
1726.9672, 1070.3955
1727.8689, 1086.1924
1728.7705, 1098.5104
1729.6721, 1094.5177
1730.5737, 1090.1616
1731.4755, 1092.4485
1732.3771, 1088.7726
1733.2787, 1071.5616
1734.1803, 1053.7904
1735.0819, 1067.3289
1735.9836, 1067.5277
1736.8853, 1054.708
1737.7869, 1062.1495
1738.6885, 1072.6941
1739.5902, 1071.8822
1740.4918, 1084.2817
1741.3934, 1095.7694
1742.295, 1088.7385
1743.1968, 1073.7737
1744.0984, 1063.4108
1745, 1080.8569
1745.9016, 1087.6608
1746.8032, 1109.8007
1747.705, 1078.9523
1748.6066, 1073.8373
1749.5082, 1072.6035
1750.4098, 1082.1906
1751.3115, 1070.4523
1752.2131, 1067.0199
1753.1147, 1075.8568
1754.0164, 1081.0492
1754.9181, 1092.192
1755.8197, 1093.2621
1756.7213, 1097.8239
1757.6229, 1102.2328
1758.5245, 1093.0367
1759.4263, 1100.2239
1760.3279, 1082.5188
1761.2295, 1087.8171
1762.1311, 1108.7465
1763.0328, 1102.6958
1763.9344, 1100.5209
1764.8361, 1105.2963
1765.7377, 1100.5419
1766.6394, 1108.3973
1767.541, 1108.0115
1768.4426, 1101.2832
1769.3442, 1093.6741
1770.2458, 1108.6046
1771.1476, 1117.3362
1772.0492, 1107.4637
1772.9508, 1103.6661
1773.8524, 1110.2223
1774.7542, 1108.7722
1775.6558, 1110.3656
1776.5574, 1119.7233
1777.459, 1111.5732
1778.3606, 1093.8567
1779.2623, 1110.3871
1780.1639, 1102.3306
1781.0656, 1106.9735
1781.9672, 1117.9739
1782.8689, 1110.1948
1783.7705, 1102.6388
1784.6721, 1099.0105
1785.5737, 1111.8552
1786.4755, 1113.0702
1787.3771, 1113.7621
1788.2787, 1109.9839
1789.1803, 1101.8192
1790.0819, 1096.5665
1790.9836, 1091.8679
1791.8853, 1105.778
1792.7869, 1108.7915
1793.6885, 1137.9133
1794.5902, 1103.9498
1795.4918, 1105.9106
1796.3934, 1105.9216
1797.295, 1108.0006
1798.1968, 1105.3523
1799.0984, 1096.8058
1800, 1097.3362
1800.9016, 1100.2708
1801.8032, 1100.7566
1802.705, 1100.276
1803.6066, 1092.5581
1804.5082, 1088.6376
1805.4098, 1093.4884
1806.3115, 1109.8633
1807.2131, 1104.9337
1808.1147, 1086.5874
1809.0164, 1094.6185
1809.9181, 1107.3037
1810.8197, 1105.2258
1811.7213, 1100.8077
1812.6229, 1097.4846
1813.5245, 1098.7666
1814.4263, 1101.3491
1815.3279, 1098.9845
1816.2295, 1088.6387
1817.1311, 1076.6406
1818.0328, 1077.1055
1818.9344, 1066.7004
1819.8361, 1083.3732
1820.7377, 1072.3568
1821.6394, 1089.907
1822.541, 1077.0973
1823.4426, 1059.0283
1824.3442, 1072.1731
1825.2458, 1063.0719
1826.1476, 1058.9683
1827.0492, 1077.6649
1827.9508, 1078.1781
1828.8524, 1066.5336
1829.7542, 1070.3755
1830.6558, 1072.3176
1831.5574, 1057.6934
1832.459, 1057.6949
1833.3606, 1066.201
1834.2623, 1058.353
1835.1639, 1055.257
1836.0656, 1056.9851
1836.9672, 1069.8396
1837.8689, 1054.4989
1838.7705, 1067.9047
1839.6721, 1057.0804
1840.5737, 1044.7725
1841.4755, 1049.9393
1842.3771, 1059.0109
1843.2787, 1058.7084
1844.1803, 1052.9713
1845.0819, 1053.9774
1845.9836, 1049.1748
1846.8853, 1053.3627
1847.7869, 1050.0579
1848.6885, 1066.2788
1849.5902, 1059.3843
1850.4918, 1068.3081
1851.3934, 1062.3242
1852.295, 1061.1907
1853.1968, 1056.1563
1854.0984, 1054.905
1855, 1054.0704
1855.9016, 1046.5612
1856.8032, 1054.0345
1857.705, 1064.7682
1858.6066, 1059.0021
1859.5082, 1067.7362
1860.4098, 1066.5455
1861.3115, 1052.9156
1862.2131, 1052.8783
1863.1147, 1065.0178
1864.0164, 1057.3113
1864.9181, 1063.9707
1865.8197, 1061.8129
1866.7213, 1062.8354
1867.6229, 1056.9777
1868.5245, 1060.0706
1869.4263, 1059.8397
1870.3279, 1054.5095
1871.2295, 1048.6046
1872.1311, 1055.7684
1873.0328, 1060.0863
1873.9344, 1069.6591
1874.8361, 1070.8289
1875.7377, 1065.0942
1876.6394, 1064.714
1877.541, 1071.4282
1878.4426, 1070.4087
1879.3442, 1070.418
1880.2458, 1066.2798
1881.1476, 1054.3575
1882.0492, 1061.6561
1882.9508, 1054.3606
1883.8524, 1060.4788
1884.7542, 1076.2217
1885.6558, 1061.382
1886.5574, 1054.3688
1887.459, 1060.4933
1888.3606, 1059.5282
1889.2623, 1052.3453
1890.1639, 1055.1467
1891.0656, 1064.4446
1891.9672, 1063.8679
1892.8689, 1052.2333
1893.7705, 1053.3044
1894.6721, 1054.1716
1895.5737, 1046.2905
1896.4755, 1067.2679
1897.3771, 1045.4269
1898.2787, 1055.8508
1899.1803, 1050.2493
1900.0819, 1041.5111
1900.9836, 1051.6931
1901.8853, 1053.0264
1902.7869, 1059.1627
1903.6885, 1056.3865
1904.5902, 1053.3771
1905.4918, 1053.5872
1906.3934, 1046.9543
1907.295, 1043.4031
1908.1968, 1058.5857
1909.0984, 1058.6301
1910, 1048.4486
1910.9016, 1042.3983
1911.8032, 1038.2848
1912.705, 1048.6925
1913.6066, 1051.4529
1914.5082, 1046.5424
1915.4098, 1043.0978
1916.3115, 1041.4534
1917.2131, 1044.6459
1918.1147, 1034.5713
1919.0164, 1039.3263
1919.9181, 1042.8459
1920.8197, 1058.1354
1921.7213, 1043.4529
1922.6229, 1041.5321
1923.5245, 1051.8464
1924.4263, 1053.7002
1925.3279, 1052.1256
1926.2295, 1067.2147
1927.1311, 1064.8044
1928.0328, 1050.5562
1928.9344, 1049.3956
1929.8361, 1048.8313
1930.7377, 1050.0356
1931.6394, 1059.5929
1932.541, 1040.8174
1933.4426, 1045.8268
1934.3442, 1058.3218
1935.2458, 1044.8384
1936.1476, 1041.6482
1937.0492, 1041.9694
1937.9508, 1057.6953
1938.8524, 1047.3773
1939.7542, 1051.9628
1940.6558, 1055.2495
1941.5574, 1057.2205
1942.459, 1057.1265
1943.3606, 1054.7446
1944.2623, 1051.3341
1945.1639, 1043.7618
1946.0656, 1040.7238
1946.9672, 1054.9094
1947.8689, 1053.2164
1948.7705, 1044.2297
1949.6721, 1054.8347
1950.5737, 1050.8412
1951.4755, 1041.0846
1952.3771, 1047.345
1953.2787, 1059.8245
1954.1803, 1058.5475
1955.0819, 1054.6771
1955.9836, 1052.3734
1956.8853, 1043.1392
1957.7869, 1043.3184
1958.6885, 1049.3876
1959.5902, 1049.3953
1960.4918, 1058.5153
1961.3934, 1061.8867
1962.295, 1045.0493
1963.1968, 1063.3958
1964.0984, 1056.7006
1965, 1044.449
1965.9016, 1071.3596
1966.8032, 1053.4205
1967.705, 1050.219
1968.6066, 1059.5193
1969.5082, 1067.656
1970.4098, 1059.8058
1971.3115, 1053.8801
1972.2131, 1051.1545
1973.1147, 1045.0646
1974.0164, 1048.7357
1974.9181, 1062.6693
1975.8197, 1059.8822
1976.7213, 1046.8621
1977.6229, 1062.3453
1978.5245, 1072.8829
1979.4263, 1071.3219
1980.3279, 1060.97
1981.2295, 1048.7388
1982.1311, 1044.7625
1983.0328, 1058.1166
1983.9344, 1061.186
1984.8361, 1057.1801
1985.7377, 1061.0024
1986.6394, 1051.8477
1987.541, 1055.4633
1988.4426, 1060.8507
1989.3442, 1057.5961
1990.2458, 1062.4395
1991.1476, 1070.4354
1992.0492, 1068.9031
1992.9508, 1062.4116
1993.8524, 1053.9141
1994.7542, 1072.7931
1995.6558, 1065.1797
1996.5574, 1060.0957
1997.459, 1057.1787
1998.3606, 1055.3342
1999.2623, 1051.3855
2000.1639, 1059.9594
2001.0656, 1057.5287
2001.9672, 1043.1201
2002.8689, 1037.2399
2003.7705, 1034.1222
2004.6721, 1034.3711
2005.5737, 1035.9088
2006.4755, 1042.6179
2007.3771, 1051.8719
2008.2787, 1050.5604
2009.1803, 1044.058
2010.0819, 1037.4779
2010.9836, 1050.4785
2011.8853, 1060.7008
2012.7869, 1063.4707
2013.6885, 1026.0514
2014.5902, 1034.0433
2015.4918, 1055.0627
2016.3934, 1043.3599
2017.295, 1043.6055
2018.1968, 1029.6106
2019.0984, 1039.8466
2020, 1039.0848
2020.9016, 1034.9982
2021.8032, 1043.9524
2022.705, 1041.6102
2023.6066, 1034.5802
2024.5082, 1037.6101
2025.4098, 1035.9878
2026.3115, 1034.8564
2027.2131, 1046.8901
2028.1147, 1050.3278
2029.0164, 1028.9659
2029.9181, 1035.837
2030.8197, 1022.9519
2031.7213, 1026.7023
2032.6229, 1022.1012
2033.5245, 1031.6509
2034.4263, 1010.355
2035.3279, 1022.7267
2036.2295, 1016.2393
2037.1311, 1026.7079
2038.0328, 1014.9945
2038.9344, 1014.2098
2039.8361, 1020.5649
2040.7377, 1036.1592
2041.6394, 1033.2628
2042.541, 1022.7693
2043.4426, 1022.1005
2044.3442, 1013.0378
2045.2458, 1002.9083
2046.1476, 1004.3738
2047.0492, 1023.6555
2047.9508, 1022.6025
2048.8525, 1025.1787
2049.7542, 1019.3287
2050.6558, 1025.1788
2051.5574, 994.40594
2052.459, 1023.1418
2053.3606, 1019.9956
2054.2622, 1028.1614
2055.1638, 1012.7806
2056.0657, 1014.0682
2056.9673, 1006.8976
2057.8689, 1015.8583
2058.7705, 1013.5313
2059.6721, 1006.0253
2060.5737, 1002.741
2061.4753, 1006.2027
2062.377, 1013.0325
2063.2788, 1017.0003
2064.1804, 1010.5411
2065.082, 1010.6654
2065.9836, 1021.2449
2066.8853, 1007.5154
2067.7869, 1018.2636
2068.6885, 1006.6904
2069.5901, 1008.3742
2070.4917, 1020.7519
2071.3936, 1007.0953
2072.2952, 1016.8632
2073.1968, 1017.9868
2074.0984, 1009.4678
2075, 1021.1812
2075.9016, 1025.9382
2076.8032, 1014.6865
2077.7048, 1016.975
2078.6064, 1003.9985
2079.5083, 995.87189
2080.4099, 997.58319
2081.3115, 993.52386
2082.2131, 1001.905
2083.1147, 1008.7669
2084.0164, 1005.3386
2084.918, 988.89886
2085.8196, 987.13586
2086.7212, 1007.5535
2087.623, 1006.1153
2088.5247, 1005.6727
2089.4263, 1018.1051
2090.3279, 1019.4424
2091.2295, 1014.8419
2092.1311, 1010.2587
2093.0327, 1005.9534
2093.9343, 1035.1797
2094.8362, 1024.4662
2095.7378, 999.45142
2096.6394, 996.31262
2097.541, 1016.6887
2098.4426, 1005.6572
2099.3442, 1009.9326
2100.2458, 988.60681
2101.1475, 996.76556
2102.0491, 1016.4385
2102.9509, 1009.4152
2103.8525, 1005.2526
2104.7542, 998.80524
2105.6558, 1007.4028
2106.5574, 1003.4044
2107.459, 999.30878
2108.3606, 1000.7204
2109.2622, 993.65082
2110.1638, 990.95886
2111.0657, 980.08234
2111.9673, 969.23865
2112.8689, 989.46582
2113.7705, 994.698
2114.6721, 990.10223
2115.5737, 989.53094
2116.4753, 1005.3007
2117.377, 990.14258
2118.2788, 977.69476
2119.1804, 983.49512
2120.082, 990.52582
2120.9836, 989.14526
2121.8853, 967.67163
2122.7869, 966.37549
2123.6885, 974.73584
2124.5901, 980.90778
2125.4917, 974.59631
2126.3936, 975.82019
2127.2952, 985.41473
2128.1968, 984.98389
2129.0984, 969.39838
2130, 960.70496
2130.9016, 955.29675
2131.8032, 955.2381
2132.7048, 973.20441
2133.6064, 977.42889
2134.5083, 962.81293
2135.4099, 958.44641
2136.3115, 963.47028
2137.2131, 965.28027
2138.1147, 964.9212
2139.0164, 965.06232
2139.918, 966.87042
2140.8196, 968.69611
2141.7212, 965.42316
2142.623, 954.56152
2143.5247, 949.61523
2144.4263, 950.86139
2145.3279, 935.42694
2146.2295, 928.13385
2147.1311, 937.8421
2148.0327, 955.85767
2148.9343, 954.67639
2149.8362, 952.3537
2150.7378, 959.4104
2151.6394, 957.1955
2152.541, 947.30206
2153.4426, 945.97656
2154.3442, 929.33539
2155.2458, 953.93018
2156.1475, 954.56049
2157.0491, 929.36383
2157.9509, 938.36798
2158.8525, 933.49579
2159.7542, 943.23663
2160.6558, 926.69476
2161.5574, 931.0376
2162.459, 931.43402
2163.3606, 935.401
2164.2622, 931.71356
2165.1638, 928.33899
2166.0657, 935.81012
2166.9673, 934.35852
2167.8689, 927.99841
2168.7705, 931.35834
2169.6721, 937.71423
2170.5737, 938.97638
2171.4753, 933.69781
2172.377, 934.08484
2173.2788, 933.43665
2174.1804, 924.23096
2175.082, 926.57605
2175.9836, 921.91046
2176.8853, 920.11292
2177.7869, 935.17877
2178.6885, 927.39825
2179.5901, 936.10236
2180.4917, 922.52234
2181.3936, 913.04016
2182.2952, 934.75916
2183.1968, 941.49377
2184.0984, 922.86542
2185, 917.62964
2185.9016, 913.00555
2186.8032, 903.88043
2187.7048, 928.89935
2188.6064, 915.3797
2189.5083, 921.63422
2190.4099, 924.89545
2191.3115, 913.92102
2192.2131, 920.16364
2193.1147, 928.65417
2194.0164, 926.54761
2194.918, 916.61963
2195.8196, 912.18518
2196.7212, 925.22467
2197.623, 920.70874
2198.5247, 908.50793
2199.4263, 914.5882
2200.3279, 924.75366
2201.2295, 928.39532
2202.1311, 927.63293
2203.0327, 912.92676
2203.9343, 927.51752
2204.8362, 922.95215
2205.7378, 907.69897
2206.6394, 903.79999
2207.541, 913.26404
2208.4426, 917.74207
2209.3442, 910.95923
2210.2458, 916.46362
2211.1475, 910.23132
2212.0491, 902.99133
2212.9509, 906.44641
2213.8525, 898.70605
2214.7542, 905.10443
2215.6558, 917.19189
2216.5574, 918.65894
2217.459, 906.98425
2218.3606, 893.77679
2219.2622, 897.26038
2220.1638, 900.06177
2221.0657, 907.78656
2221.9673, 908.62988
2222.8689, 894.69849
2223.7705, 893.8172
2224.6721, 897.99426
2225.5737, 899.71777
2226.4753, 893.82648
2227.377, 891.36078
2228.2788, 885.76874
2229.1804, 879.50806
2230.082, 888.73999
2230.9836, 898.43512
2231.8853, 899.13867
2232.7869, 886.95782
2233.6885, 881.08557
2234.5901, 879.24774
2235.4917, 882.70245
2236.3936, 882.68927
2237.2952, 890.0473
2238.1968, 884.97357
2239.0984, 877.18927
2240, 889.70105
2240.9016, 873.21063
2241.8032, 881.40662
2242.7048, 870.16278
2243.6064, 872.96802
2244.5083, 877.45245
2245.4099, 877.36414
2246.3115, 873.75195
2247.2131, 856.34711
2248.1147, 885.47894
2249.0164, 862.40784
2249.918, 871.78143
2250.8196, 869.30731
2251.7212, 864.13715
2252.623, 850.90167
2253.5247, 857.79401
2254.4263, 872.60254
2255.3279, 871.90088
2256.2295, 864.07373
2257.1311, 857.53418
2258.0327, 856.07898
2258.9343, 865.93829
2259.8362, 845.29144
2260.7378, 863.01111
2261.6394, 866.26129
2262.541, 852.81396
2263.4426, 862.67755
2264.3442, 839.81091
2265.2458, 855.29541
2266.1475, 844.82831
2267.0491, 852.33777
2267.9509, 838.11224
2268.8525, 847.03131
2269.7542, 845.76996
2270.6558, 838.77942
2271.5574, 832.81403
2272.459, 850.17987
2273.3606, 839.34265
2274.2622, 823.13831
2275.1638, 857.02667
2276.0657, 844.11127
2276.9673, 830.17065
2277.8689, 841.70264
2278.7705, 831.39929
2279.6721, 840.25977
2280.5737, 839.79407
2281.4753, 836.92462
2282.377, 832.42902
2283.2788, 829.59979
2284.1804, 835.56433
2285.082, 828.94409
2285.9836, 816.84589
2286.8853, 839.60089
2287.7869, 826.76355
2288.6885, 835.41876
2289.5901, 818.11438
2290.4917, 832.01526
2291.3936, 829.02448
2292.2952, 818.78986
2293.1968, 826.93951
2294.0984, 826.91003
2295, 827.02496
2295.9016, 815.19421
2296.8032, 817.40253
2297.7048, 816.59259
2298.6064, 816.06268
2299.5083, 800.54065
2300.4099, 814.2724
2301.3115, 815.23254
2302.2131, 822.84802
2303.1147, 803.50903
2304.0164, 824.64722
2304.918, 835.4209
2305.8196, 822.51044
2306.7212, 809.96552
2307.623, 799.01288
2308.5247, 827.26868
2309.4263, 805.8244
2310.3279, 793.74683
2311.2295, 804.4682
2312.1311, 811.25793
2313.0327, 810.10522
2313.9343, 818.49304
2314.8362, 811.76642
2315.7378, 803.95294
2316.6394, 808.44867
2317.541, 805.74121
2318.4426, 802.74506
2319.3442, 797.43732
2320.2458, 801.10168
2321.1475, 798.83887
2322.0491, 804.61206
2322.9509, 807.77612
2323.8525, 804.0144
2324.7542, 807.81287
2325.6558, 801.74731
2326.5574, 797.95374
2327.459, 782.63416
2328.3606, 799.63983
2329.2622, 788.729
2330.1638, 797.71771
2331.0657, 783.58026
2331.9673, 795.41223
2332.8689, 800.65289
2333.7705, 804.58813
2334.6721, 795.44696
2335.5737, 792.12952
2336.4753, 796.1098
2337.377, 789.32007
2338.2788, 785.7099
2339.1804, 764.35748
2340.082, 792.2182
2340.9836, 775.78528
2341.8853, 777.76831
2342.7869, 778.00366
2343.6885, 774.67535
2344.5901, 746.05878
2345.4917, 782.63831
2346.3936, 761.00647
2347.2952, 790.98132
2348.1968, 781.88385
2349.0984, 782.83533
2350, 785.90924
2350.9016, 788.29669
2351.8032, 777.75854
2352.7048, 771.28851
2353.6064, 779.08038
2354.5083, 774.49908
2355.4099, 766.85858
2356.3115, 765.56567
2357.2131, 776.26105
2358.1147, 770.4314
2359.0164, 772.35577
2359.918, 774.89594
2360.8196, 758.49756
2361.7212, 767.98749
2362.623, 772.34509
2363.5247, 761.68817
2364.4263, 770.30402
2365.3279, 753.27765
2366.2295, 766.26862
2367.1311, 766.99133
2368.0327, 766.31824
2368.9343, 761.03375
2369.8362, 751.6554
2370.7378, 752.85736
2371.6394, 758.58911
2372.541, 759.55688
2373.4426, 760.37
2374.3442, 759.16766
2375.2458, 752.82965
2376.1475, 747.26617
2377.0491, 751.99023
2377.9509, 754.89032
2378.8525, 754.33038
2379.7542, 751.19446
2380.6558, 755.24713
2381.5574, 747.02838
2382.459, 742.30066
2383.3606, 745.57336
2384.2622, 754.46417
2385.1638, 749.88599
2386.0657, 738.04608
2386.9673, 740.93347
2387.8689, 746.15558
2388.7705, 752.159
2389.6721, 743.94348
2390.5737, 744.7052
2391.4753, 747.35437
2392.377, 741.87921
2393.2788, 745.31781
2394.1804, 752.44788
2395.082, 735.93439
2395.9836, 732.98871
2396.8853, 742.77844
2397.7869, 740.13123
2398.6885, 739.49628
2399.5901, 721.86786
2400.4917, 749.43359
2401.3936, 736.81232
2402.2952, 716.53961
2403.1968, 734.26825
2404.0984, 734.21588
2405, 732.3374
2405.9016, 734.76172
2406.8032, 737.73883
2407.7048, 736.83606
2408.6064, 739.30646
2409.5083, 742.12982
2410.4099, 729.56396
2411.3115, 732.8089
2412.2131, 722.08112
2413.1147, 713.05133
2414.0164, 721.05273
2414.918, 720.99451
2415.8196, 721.86249
2416.7212, 726.87061
2417.623, 727.08105
2418.5247, 721.11365
2419.4263, 722.42755
2420.3279, 718.58752
2421.2295, 721.97217
2422.1311, 726.5766
2423.0327, 725.94531
2423.9343, 721.15167
2424.8362, 714.43085
2425.7378, 714.86426
2426.6394, 715.25116
2427.541, 714.55872
2428.4426, 717.99457
2429.3442, 719.61328
2430.2458, 714.10657
2431.1475, 717.409
2432.0491, 706.09485
2432.9509, 706.10492
2433.8525, 710.18646
2434.7542, 720.49359
2435.6558, 705.23773
2436.5574, 712.67572
2437.459, 713.20483
2438.3606, 690.49847
2439.2622, 714.06641
2440.1638, 706.80493
2441.0657, 705.68774
2441.9673, 709.71667
2442.8689, 700.01434
2443.7705, 709.40765
2444.6721, 707.25989
2445.5737, 703.57153
2446.4753, 689.66479
2447.377, 694.85468
2448.2788, 703.48865
2449.1804, 703.32886
2450.082, 691.77185
2450.9836, 699.64435
2451.8853, 703.2113
2452.7869, 698.49011
2453.6885, 692.35358
2454.5901, 692.80078
2455.4917, 695.59613
2456.3936, 700.69208
2457.2952, 693.47614
2458.1968, 689.76288
2459.0984, 696.3078
2460, 697.1123
2460.9016, 693.25159
2461.8032, 684.71191
2462.7048, 698.53284
2463.6064, 699.97571
2464.5083, 689.0636
2465.4099, 684.1189
2466.3115, 686.94397
2467.2131, 691.99768
2468.1147, 691.20978
2469.0164, 668.99304
2469.918, 682.5083
2470.8196, 677.02136
2471.7212, 686.49872
2472.623, 680.79089
2473.5247, 674.1391
2474.4263, 677.0733
2475.3279, 684.11719
2476.2295, 686.05695
2477.1311, 668.08429
2478.0327, 664.22711
2478.9343, 672.11774
2479.8362, 687.39343
2480.7378, 680.34027
2481.6394, 670.22449
2482.541, 682.67871
2483.4426, 682.38019
2484.3442, 675.27039
2485.2458, 676.97736
2486.1475, 681.862
2487.0491, 678.62885
2487.9509, 673.01654
2488.8525, 675.02307
2489.7542, 672.49994
2490.6558, 679.96283
2491.5574, 688.33099
2492.459, 681.83649
2493.3606, 670.28186
2494.2622, 675.42267
2495.1638, 666.32745
2496.0657, 653.0896
2496.9673, 667.11957
2497.8689, 674.25232
2498.7705, 674.18646
2499.6721, 675.4718
2500.5737, 653.0896
2501.4753, 653.0896
2502.377, 653.0896
2503.2788, 653.0896
2504.1804, 653.0896
2505.082, 653.0896
2505.9836, 653.0896
2506.8853, 653.0896
2507.7869, 653.0896
2508.6885, 668.57251
2509.5901, 651.71356
2510.4917, 656.0022
2511.3936, 660.10455
2512.2952, 663.12177
2513.1968, 659.52417
2514.0984, 661.1087
2515, 654.49622
2515.9016, 660.6474
2516.8032, 665.77338
2517.7048, 652.9856
2518.6064, 657.26099
2519.5083, 658.6864
2520.4099, 657.17419
2521.3115, 657.25159
2522.2131, 649.20459
2523.1147, 650.47321
2524.0164, 652.99188
2524.918, 660.05237
2525.8196, 653.0896
2526.7212, 662.10693
2527.623, 662.10693
2528.5247, 662.10693
2529.4263, 662.10693
2530.3279, 662.10693
2531.2295, 653.0896
2532.1311, 653.0896
2533.0327, 655.42444
2533.9343, 653.24109
2534.8362, 653.03973
2535.7378, 635.59552
2536.6394, 655.0564
2537.541, 652.16821
2538.4426, 651.34802
2539.3442, 641.71802
2540.2458, 639.33582
2541.1475, 649.06647
2542.0491, 651.49341
2542.9509, 655.10986
2543.8525, 645.28876
2544.7542, 641.87378
2545.6558, 640.37006
2546.5574, 635.68011
2547.459, 641.70142
2548.3606, 634.75592
2549.2622, 629.58905
2550.1638, 632.07281
2551.0657, 628.54773
2551.9673, 633.29364
2552.8689, 636.59436
2553.7705, 641.31696
2554.6721, 642.22656
2555.5737, 643.1958
2556.4753, 626.47632
2557.377, 624.69031
2558.2788, 636.89514
2559.1804, 629.37616
2560.082, 629.58734
2560.9836, 635.4538
2561.8853, 637.12622
2562.7869, 624.8894
2563.6885, 635.32227
2564.5901, 627.25952
2565.4917, 622.5899
2566.3936, 633.78961
2567.2952, 619.65094
2568.1968, 629.26251
2569.0984, 629.28381
2570, 622.98218
2570.9016, 633.797
2571.8032, 627.96045
2572.7048, 619.34509
2573.6064, 618.29956
2574.5083, 615.67786
2575.4099, 620.37408
2576.3115, 616.93768
2577.2131, 623.61505
2578.1147, 625.88977
2579.0164, 626.39716
2579.918, 618.30743
2580.8196, 616.43951
2581.7212, 618.35791
2582.623, 616.90765
2583.5247, 630.21478
2584.4263, 623.12299
2585.3279, 630.73822
2586.2295, 618.24225
2587.1311, 620.41852
2588.0327, 624.54901
2588.9343, 611.74921
2589.8362, 621.20239
2590.7378, 621.53937
2591.6394, 611.54932
2592.541, 611.58337
2593.4426, 617.6806
2594.3442, 622.8653
2595.2458, 618.776
2596.1475, 616.27972
2597.0491, 614.87762
2597.9509, 614.06793
2598.8525, 626.8714
2599.7542, 631.48206
2600.6558, 620.97192
2601.5574, 611.09558
2602.459, 616.96112
2603.3606, 613.14716
2604.2622, 625.91217
2605.1638, 632.01257
2606.0657, 619.2074
2606.9673, 616.42877
2607.8689, 617.388
2608.7705, 616.78754
2609.6721, 609.61212
2610.5737, 616.36542
2611.4753, 610.26343
2612.377, 614.90796
2613.2788, 612.82947
2614.1804, 608.21954
2615.082, 605.90906
2615.9836, 611.73224
2616.8853, 599.96387
2617.7869, 613.46381
2618.6885, 608.50073
2619.5901, 612.01392
2620.4917, 617.17523
2621.3936, 609.10809
2622.2952, 604.2193
2623.1968, 601.33472
2624.0984, 606.77197
2625, 616.44476
2625.9016, 622.35956
2626.8032, 616.48346
2627.7048, 609.15027
2628.6064, 612.61823
2629.5083, 617.54926
2630.4099, 602.96344
2631.3115, 602.4906
2632.2131, 619.19421
2633.1147, 605.4823
2634.0164, 599.76166
2634.918, 599.29626
2635.8196, 602.82867
2636.7212, 605.67206
2637.623, 616.35333
2638.5247, 612.78784
2639.4263, 602.18927
2640.3279, 601.11389
2641.2295, 613.95264
2642.1311, 595.37433
2643.0327, 602.71906
2643.9343, 610.08673
2644.8362, 609.15643
2645.7378, 596.2594
2646.6394, 596.30762
2647.541, 598.33551
2648.4426, 597.47913
2649.3442, 603.09564
2650.2458, 597.54108
2651.1475, 603.24457
2652.0491, 609.58307
2652.9509, 609.61041
2653.8525, 592.64111
2654.7542, 594.50464
2655.6558, 598.61078
2656.5574, 607.2193
2657.459, 602.15399
2658.3606, 608.70953
2659.2622, 605.1153
2660.1638, 598.02527
2661.0657, 604.24628
2661.9673, 595.7572
2662.8689, 592.93884
2663.7705, 597.17969
2664.6721, 606.01349
2665.5737, 594.13922
2666.4753, 599.50739
2667.377, 598.10864
2668.2788, 596.99701
2669.1804, 600.35858
2670.082, 604.7951
2670.9836, 608.5752
2671.8853, 595.69855
2672.7869, 599.39813
2673.6885, 602.69891
2674.5901, 604.3595
2675.4917, 604.99628
2676.3936, 600.55951
2677.2952, 609.82959
2678.1968, 575.85461
2679.0984, 595.95142
2680, 581.99939
2680.9016, 593.3313
2681.8032, 590.13196
2682.7048, 582.95343
2683.6064, 584.43298
2684.5083, 589.69653
2685.4099, 583.56207
2686.3115, 588.5274
2687.2131, 596.65411
2688.1147, 602.27319
2689.0164, 604.59027
2689.918, 583.38818
2690.8196, 602.53802
2691.7212, 594.44006
2692.623, 587.3623
2693.5247, 588.87427
2694.4263, 583.2265
2695.3279, 578.00818
2696.2295, 585.72491
2697.1311, 578.37744
2698.0327, 588.75049
2698.9343, 581.76843
2699.8362, 591.67828
2700.7378, 600.68707
2701.6394, 584.93896
2702.541, 585.82593
2703.4426, 585.2251
2704.3442, 589.52521
2705.2458, 589.18506
2706.1475, 581.82965
2707.0491, 587.46222
2707.9509, 590.47961
2708.8525, 584.15887
2709.7542, 583.5827
2710.6558, 583.70758
2711.5574, 587.62653
2712.459, 586.35126
2713.3606, 583.03015
2714.2622, 580.54083
2715.1638, 582.77026
2716.0657, 580.49152
2716.9673, 579.57001
2717.8689, 581.45349
2718.7705, 576.2301
2719.6721, 579.7724
2720.5737, 592.56323
2721.4753, 589.48224
2722.377, 586.80786
2723.2788, 574.59381
2724.1804, 577.20245
2725.082, 590.43585
2725.9836, 582.073
2726.8853, 571.34412
2727.7869, 586.97058
2728.6885, 586.27771
2729.5901, 583.41553
2730.4917, 588.61194
2731.3936, 583.56897
2732.2952, 591.71759
2733.1968, 573.82642
2734.0984, 574.51141
2735, 582.42706
2735.9016, 588.06433
2736.8032, 582.45532
2737.7048, 588.13861
2738.6064, 585.53748
2739.5083, 585.90741
2740.4099, 574.06927
2741.3115, 576.53119
2742.2131, 577.34729
2743.1147, 586.90295
2744.0164, 578.4566
2744.918, 573.59082
2745.8196, 579.20782
2746.7212, 579.23328
2747.623, 576.04382
2748.5247, 580.86047
2749.4263, 592.02063
2750.3279, 578.31744
2751.2295, 572.61346
2752.1311, 582.59094
2753.0327, 576.62683
2753.9343, 572.09503
2754.8362, 576.11084
2755.7378, 578.25958
2756.6394, 586.14178
2757.541, 591.76776
2758.4426, 571.28015
2759.3442, 565.00488
2760.2458, 584.00854
2761.1475, 586.46893
2762.0491, 574.27258
2762.9509, 576.4967
2763.8525, 577.31152
2764.7542, 578.31934
2765.6558, 579.38538
2766.5574, 569.84766
2767.459, 577.6322
2768.3606, 569.7735
2769.2622, 572.19739
2770.1638, 575.48578
2771.0657, 574.28387
2771.9673, 572.28656
2772.8689, 560.53064
2773.7705, 564.48724
2774.6721, 575.01813
2775.5737, 574.19812
2776.4753, 581.53027
2777.377, 574.33447
2778.2788, 585.52606
2779.1804, 578.78687
2780.082, 571.43781
2780.9836, 571.36926
2781.8853, 571.86432
2782.7869, 570.94049
2783.6885, 573.27893
2784.5901, 574.19745
2785.4917, 573.36316
2786.3936, 572.04749
2787.2952, 572.60077
2788.1968, 565.60455
2789.0984, 572.52759
2790, 573.61029
2790.9016, 569.40271
2791.8032, 565.51508
2792.7048, 566.10925
2793.6064, 578.5575
2794.5083, 556.19855
2795.4099, 564.61554
2796.3115, 561.40546
2797.2131, 564.83282
2798.1147, 566.22894
2799.0164, 566.43176
2799.918, 562.32983
2800.8196, 561.84253
2801.7212, 566.26147
2802.623, 560.54065
2803.5247, 571.02527
2804.4263, 562.79932
2805.3279, 567.21826
2806.2295, 568.61847
2807.1311, 568.14966
2808.0327, 560.70941
2808.9343, 560.86041
2809.8362, 567.36102
2810.7378, 548.62592
2811.6394, 562.07288
2812.541, 570.82434
2813.4426, 566.80591
2814.3442, 562.55951
2815.2458, 569.9397
2816.1475, 576.93304
2817.0491, 584.02887
2817.9509, 574.19684
2818.8525, 564.77979
2819.7542, 565.03247
2820.6558, 568.05493
2821.5574, 562.71808
2822.459, 559.43695
2823.3606, 566.16541
2824.2622, 563.2525
2825.1638, 568.65961
2826.0657, 572.11224
2826.9673, 564.80103
2827.8689, 571.96796
2828.7705, 566.45984
2829.6721, 573.771
2830.5737, 569.35394
2831.4753, 560.94409
2832.377, 562.09424
2833.2788, 556.21332
2834.1804, 580.15082
2835.082, 563.51337
2835.9836, 559.6037
2836.8853, 571.50385
2837.7869, 580.22424
2838.6885, 577.44812
2839.5901, 562.71094
2840.4917, 566.08655
2841.3936, 565.84296
2842.2952, 554.61664
2843.1968, 556.94385
2844.0984, 566.08582
2845, 570.31818
2845.9016, 573.39471
2846.8032, 570.86371
2847.7048, 578.06744
2848.6064, 574.59521
2849.5083, 575.26685
2850.4099, 574.87817
2851.3115, 578.25085
2852.2131, 576.29346
2853.1147, 580.17621
2854.0164, 578.79694
2854.918, 576.93951
2855.8196, 574.13629
2856.7212, 560.05066
2857.623, 590.52893
2858.5247, 575.01154
2859.4263, 565.42065
2860.3279, 571.84821
2861.2295, 570.56421
2862.1311, 564.95795
2863.0327, 568.92566
2863.9343, 570.05688
2864.8362, 570.76086
2865.7378, 579.73889
2866.6394, 582.53192
2867.541, 575.76355
2868.4426, 564.51563
2869.3442, 576.94897
2870.2458, 581.38525
2871.1475, 575.58228
2872.0491, 591.20782
2872.9509, 576.20135
2873.8525, 582.68219
2874.7542, 575.41486
2875.6558, 574.39441
2876.5574, 582.25171
2877.459, 581.16632
2878.3606, 573.36481
2879.2622, 593.47314
2880.1638, 583.08295
2881.0657, 576.41772
2881.9673, 572.49109
2882.8689, 575.79102
2883.7705, 578.10468
2884.6721, 576.09485
2885.5737, 582.57336
2886.4753, 563.84332
2887.377, 564.00092
2888.2788, 557.81708
2889.1804, 574.70544
2890.082, 578.2511
2890.9836, 577.30225
2891.8853, 567.94934
2892.7869, 573.36133
2893.6885, 573.70819
2894.5901, 571.39172
2895.4917, 568.11035
2896.3936, 565.58838
2897.2952, 568.44202
2898.1968, 565.61505
2899.0984, 581.55389
2900, 572.87262
2900.9016, 575.06604
2901.8032, 569.33221
2902.7048, 573.48187
2903.6064, 573.8186
2904.5083, 570.50372
2905.4099, 570.12787
2906.3115, 572.55444
2907.2131, 567.9588
2908.1147, 572.66565
2909.0164, 560.98975
2909.918, 564.81946
2910.8196, 566.65448
2911.7212, 565.64056
2912.623, 576.42297
2913.5247, 566.30829
2914.4263, 573.3941
2915.3279, 575.28717
2916.2295, 563.64716
2917.1311, 571.36591
2918.0327, 569.77869
2918.9343, 574.91229
2919.8362, 569.40448
2920.7378, 561.82318
2921.6394, 566.97839
2922.541, 565.96307
2923.4426, 561.70465
2924.3442, 561.27789
2925.2458, 558.53772
2926.1475, 561.62915
2927.0491, 577.24902
2927.9509, 583.03625
2928.8525, 575.32153
2929.7542, 568.92639
2930.6558, 568.16174
2931.5574, 566.2179
2932.459, 575.82214
2933.3606, 575.56622
2934.2622, 574.47687
2935.1638, 566.06097
2936.0657, 577.52924
2936.9673, 573.40845
2937.8689, 568.18555
2938.7705, 558.74646
2939.6721, 567.2887
2940.5737, 563.19897
2941.4753, 569.25293
2942.377, 569.53131
2943.2788, 576.49573
2944.1804, 577.14954
2945.082, 570.20782
2945.9836, 563.37372
2946.8853, 565.565
2947.7869, 568.82202
2948.6885, 562.88727
2949.5901, 558.08539
2950.4917, 558.60443
2951.3936, 570.90436
2952.2952, 569.9234
2953.1968, 569.60535
2954.0984, 567.76587
2955, 563.73804
2955.9016, 560.05389
2956.8032, 565.44287
2957.7048, 559.9436
2958.6064, 562.04706
2959.5083, 576.49609
2960.4099, 571.87518
2961.3115, 558.81677
2962.2131, 557.15094
2963.1147, 559.02625
2964.0164, 572.52588
2964.918, 558.10651
2965.8196, 562.87744
2966.7212, 547.77045
2967.623, 547.79193
2968.5247, 562.92261
2969.4263, 560.00293
2970.3279, 554.02594
2971.2295, 557.94049
2972.1311, 557.54944
2973.0327, 551.76324
2973.9343, 547.77997
2974.8362, 551.00446
2975.7378, 549.11169
2976.6394, 541.40442
2977.541, 553.1734
2978.4426, 549.09784
2979.3442, 553.13843
2980.2458, 544.1098
2981.1475, 553.53247
2982.0491, 544.83496
2982.9509, 541.09454
2983.8525, 548.76782
2984.7542, 550.78784
2985.6558, 547.13348
2986.5574, 535.85541
2987.459, 545.30225
2988.3606, 545.00604
2989.2622, 538.37677
2990.1638, 544.20306
2991.0657, 544.08295
2991.9673, 538.08093
2992.8689, 544.90607
2993.7705, 536.30731
2994.6721, 538.23425
2995.5737, 544.08929
2996.4753, 544.33215
2997.377, 538.20483
2998.2788, 539.98743
2999.1804, 543.41089
3000.082, 541.39124
3000.9836, 545.21875
3001.8853, 539.41888
3002.7869, 548.11151
3003.6885, 545.96216
3004.5901, 542.73114
3005.4917, 543.5658
3006.3936, 542.56989
3007.2952, 544.79285
3008.1968, 542.3515
3009.0984, 536.92755
3010, 537.802
3010.9016, 538.69434
3011.8032, 540.81287
3012.7048, 541.46277
3013.6064, 540.83936
3014.5083, 540.78265
3015.4099, 534.06604
3016.3115, 537.24365
3017.2131, 541.46942
3018.1147, 538.96234
3019.0164, 528.19598
3019.918, 539.00116
3020.8196, 532.03503
3021.7212, 532.89349
3022.623, 535.60156
3023.5247, 537.14594
3024.4263, 539.87323
3025.3279, 527.38928
3026.2295, 536.75244
3027.1311, 535.81244
3028.0327, 529.86945
3028.9343, 537.35291
3029.8362, 534.71271
3030.7378, 536.75391
3031.6394, 538.63745
3032.541, 539.06219
3033.4426, 536.79193
3034.3442, 534.34503
3035.2458, 533.12433
3036.1475, 541.95117
3037.0491, 530.4444
3037.9509, 531.89545
3038.8525, 532.96735
3039.7542, 533.40948
3040.6558, 535.99469
3041.5574, 536.26678
3042.459, 540.17743
3043.3606, 534.99445
3044.2622, 527.67352
3045.1638, 528.13287
3046.0657, 530.50262
3046.9673, 537.59198
3047.8689, 540.88989
3048.7705, 532.51923
3049.6721, 535.61896
3050.5737, 537.65247
3051.4753, 539.12329
3052.377, 534.22955
3053.2788, 530.86768
3054.1804, 538.76245
3055.082, 541.19489
3055.9836, 532.6167
3056.8853, 533.24646
3057.7869, 539.69806
3058.6885, 537.08685
3059.5901, 530.55042
3060.4917, 535.15186
3061.3936, 540.06903
3062.2952, 530.29358
3063.1968, 542.04431
3064.0984, 528.75043
3065, 535.40338
3065.9016, 533.8952
3066.8032, 534.27496
3067.7048, 543.5174
3068.6064, 535.2038
3069.5083, 531.84039
3070.4099, 539.65186
3071.3115, 538.72534
3072.2131, 540.43817
3073.1147, 536.08575
3074.0164, 527.08075
3074.918, 536.03046
3075.8196, 534.80493
3076.7212, 532.76727
3077.623, 538.92175
3078.5247, 530.1579
3079.4263, 538.19568
3080.3279, 537.09106
3081.2295, 537.15326
3082.1311, 526.92499
3083.0327, 534.9718
3083.9343, 532.18787
3084.8362, 528.30438
3085.7378, 530.27441
3086.6394, 524.36591
3087.541, 531.45764
3088.4426, 532.47797
3089.3442, 528.36414
3090.2458, 532.87372
3091.1475, 530.68329
3092.0491, 528.33063
3092.9509, 528.68359
3093.8525, 526.3407
3094.7542, 527.30981
3095.6558, 522.04431
3096.5574, 528.14185
3097.459, 535.75983
3098.3606, 530.60022
3099.2622, 529.98407
3100.1638, 529.21588
3101.0657, 528.40509
3101.9673, 529.29315
3102.8689, 533.94489
3103.7705, 534.85583
3104.6721, 535.13361
3105.5737, 529.25543
3106.4753, 529.43561
3107.377, 528.24567
3108.2788, 527.83069
3109.1804, 529.1637
3110.082, 529.78705
3110.9836, 527.4281
3111.8853, 525.01288
3112.7869, 525.43274
3113.6885, 523.20728
3114.5901, 522.93677
3115.4917, 527.46429
3116.3936, 524.00305
3117.2952, 521.422
3118.1968, 523.67944
3119.0984, 522.0683
3120, 521.62848
3120.9016, 522.85596
3121.8032, 520.52136
3122.7048, 531.79895
3123.6064, 524.58929
3124.5083, 528.77435
3125.4099, 528.52808
3126.3115, 518.09692
3127.2131, 522.48822
3128.1147, 517.50623
3129.0164, 522.29199
3129.918, 525.41864
3130.8196, 513.62958
3131.7212, 525.2821
3132.623, 521.31006
3133.5247, 520.50934
3134.4263, 515.35498
3135.3279, 526.13654
3136.2295, 522.55328
3137.1311, 522.0545
3138.0327, 527.4505
3138.9343, 522.66309
3139.8362, 514.88837
3140.7378, 523.91492
3141.6394, 525.13971
3142.541, 524.3653
3143.4426, 520.23419
3144.3442, 524.71771
3145.2458, 521.66809
3146.1475, 518.59222
3147.0491, 517.64697
3147.9509, 523.34576
3148.8525, 515.27405
3149.7542, 524.92145
3150.6558, 520.5799
3151.5574, 518.20245
3152.459, 517.02325
3153.3606, 516.73224
3154.2622, 515.51117
3155.1638, 520.02576
3156.0657, 516.72656
3156.9673, 520.08014
3157.8689, 513.06372
3158.7705, 513.97247
3159.6721, 511.47049
3160.5737, 509.42975
3161.4753, 511.92596
3162.377, 508.65454
3163.2788, 516.66962
3164.1804, 514.48425
3165.082, 515.18585
3165.9836, 518.60242
3166.8853, 517.1507
3167.7869, 509.47302
3168.6885, 507.67697
3169.5901, 510.96878
3170.4917, 511.83826
3171.3936, 506.44608
3172.2952, 512.24579
3173.1968, 511.08395
3174.0984, 508.4845
3175, 506.77618
3175.9016, 521.35834
3176.8032, 502.23975
3177.7048, 504.18512
3178.6064, 511.05685
3179.5083, 517.41833
3180.4099, 508.79691
3181.3115, 513.06232
3182.2131, 503.91394
3183.1147, 506.22174
3184.0164, 511.36603
3184.918, 508.16019
3185.8196, 509.87549
3186.7212, 511.85504
3187.623, 503.00064
3188.5247, 517.75769
3189.4263, 522.49518
3190.3279, 518.69904
3191.2295, 526.94794
3192.1311, 524.93616
3193.0327, 518.43555
3193.9343, 518.04059
3194.8362, 522.86078
3195.7378, 519.80042
3196.6394, 514.1499
3197.541, 515.3111
3198.4426, 515.04559
3199.3442, 511.67984
3200.2458, 513.14496
3201.1475, 513.61963
3202.0491, 518.57837
3202.9509, 509.19064
3203.8525, 509.05725
3204.7542, 514.64801
3205.6558, 515.25867
3206.5574, 531.06885
3207.459, 508.20099
3208.3606, 515.31238
3209.2622, 504.23734
3210.1638, 509.28458
3211.0657, 512.7995
3211.9673, 499.17621
3212.8689, 514.86823
3213.7705, 513.05487
3214.6721, 509.67896
3215.5737, 506.5162
3216.4753, 511.96729
3217.377, 504.64246
3218.2788, 513.7832
3219.1804, 513.26752
3220.082, 518.83801
3220.9836, 506.37531
3221.8853, 507.01923
3222.7869, 512.20026
3223.6885, 512.70087
3224.5901, 502.60107
3225.4917, 508.94522
3226.3936, 504.81915
3227.2952, 505.82501
3228.1968, 510.88742
3229.0984, 510.97052
3230, 496.09241
3230.9016, 501.49289
3231.8032, 497.78433
3232.7048, 504.6937
3233.6064, 499.87143
3234.5083, 500.86142
3235.4099, 503.5853
3236.3115, 506.03387
3237.2131, 509.88873
3238.1147, 496.89215
3239.0164, 504.49847
3239.918, 500.16458
3240.8196, 500.27878
3241.7212, 499.56198
3242.623, 505.18561
3243.5247, 491.12552
3244.4263, 497.51337
3245.3279, 498.2879
3246.2295, 504.90546
3247.1311, 500.53354
3248.0327, 497.25797
3248.9343, 502.11243
3249.8362, 493.38098
3250.7378, 489.92496
3251.6394, 488.2789
3252.541, 491.86749
3253.4426, 490.35211
3254.3442, 500.81506
3255.2458, 493.42068
3256.1475, 498.26065
3257.0491, 490.91214
3257.9509, 489.62546
3258.8525, 484.14328
3259.7542, 493.49661
3260.6558, 496.24796
3261.5574, 493.56564
3262.459, 484.74033
3263.3606, 491.26361
3264.2622, 493.73282
3265.1638, 489.01654
3266.0657, 487.99307
3266.9673, 478.82706
3267.8689, 485.72894
3268.7705, 489.64929
3269.6721, 494.85825
3270.5737, 487.23288
3271.4753, 485.52051
3272.377, 486.02866
3273.2788, 485.6965
3274.1804, 490.19711
3275.082, 490.39743
3275.9836, 489.92615
3276.8853, 498.05261
3277.7869, 491.62473
3278.6885, 486.98029
3279.5901, 481.30365
3280.4917, 488.98117
3281.3936, 485.77499
3282.2952, 487.93076
3283.1968, 479.23907
3284.0984, 481.80832
3285, 490.16544
3285.9016, 485.69705
3286.8032, 484.17755
3287.7048, 485.10507
3288.6064, 474.48813
3289.5083, 478.54611
3290.4099, 476.21506
3291.3115, 477.0191
3292.2131, 473.94943
3293.1147, 481.4577
3294.0164, 472.72867
3294.918, 472.42746
3295.8196, 481.24335
3296.7212, 479.81241
3297.623, 480.08627
3298.5247, 479.37299
3299.4263, 474.008
3300.3279, 474.50732
3301.2295, 472.14716
3302.1311, 486.89902
3303.0327, 473.46329
3303.9343, 476.85931
3304.8362, 478.84738
3305.7378, 478.93759
3306.6394, 484.54376
3307.541, 467.83984
3308.4426, 472.08621
3309.3442, 474.12503
3310.2458, 469.72076
3311.1475, 467.12808
3312.0491, 470.13129
3312.9509, 473.13446
3313.8525, 471.98822
3314.7542, 482.82202
3315.6558, 471.66385
3316.5574, 464.11426
3317.459, 463.16293
3318.3606, 475.50522
3319.2622, 482.89676
3320.1638, 462.5582
3321.0657, 471.4166
3321.9673, 461.22934
3322.8689, 472.82852
3323.7705, 464.19415
3324.6721, 465.41397
3325.5737, 465.81183
3326.4753, 471.6543
3327.377, 466.19507
3328.2788, 475.45816
3329.1804, 470.67645
3330.082, 464.43402
3330.9836, 453.36841
3331.8853, 465.22794
3332.7869, 465.27078
3333.6885, 464.20404
3334.5901, 473.61548
3335.4917, 470.7124
3336.3936, 466.95993
3337.2952, 469.53928
3338.1968, 473.52429
3339.0984, 466.80734
3340, 457.54388
3340.9016, 467.82892
3341.8032, 471.09366
3342.7048, 480.35947
3343.6064, 465.87112
3344.5083, 465.45425
3345.4099, 467.65894
3346.3115, 467.65894
3347.2131, 488.9512
3348.1147, 467.09354
3349.0164, 465.09406
3349.918, 463.13589
3350.8196, 462.23376
3351.7212, 462.66382
3352.623, 465.56241
3353.5247, 467.09967
3354.4263, 472.85727
3355.3279, 467.65894
3356.2295, 467.85464
3357.1311, 466.38403
3358.0327, 467.85464
3358.9343, 467.85464
3359.8362, 467.85464
3360.7378, 461.57834
3361.6394, 473.30359
3362.541, 452.35886
3363.4426, 457.49451
3364.3442, 451.10452
3365.2458, 456.12387
3366.1475, 455.55179
3367.0491, 454.58203
3367.9509, 460.55313
3368.8525, 453.06897
3369.7542, 453.28952
3370.6558, 449.40625
3371.5574, 469.3566
3372.459, 445.44443
3373.3606, 437.76605
3374.2622, 441.26398
3375.1638, 445.16876
3376.0657, 453.91165
3376.9673, 446.29471
3377.8689, 443.51697
3378.7705, 455.13724
3379.6721, 444.52472
3380.5737, 444.13376
3381.4753, 440.96185
3382.377, 448.2774
3383.2788, 454.52563
3384.1804, 446.47345
3385.082, 445.77997
3385.9836, 442.91617
3386.8853, 437.84943
3387.7869, 446.40439
3388.6885, 447.85071
3389.5901, 441.36969
3390.4917, 437.70358
3391.3936, 441.13843
3392.2952, 443.26004
3393.1968, 443.1918
3394.0984, 441.11893
3395, 440.43927
3395.9016, 434.70306
3396.8032, 433.40964
3397.7048, 439.44492
3398.6064, 435.78055
3399.5083, 440.74857
3400.4099, 437.53412
3401.3115, 429.63235
3402.2131, 441.4938
3403.1147, 443.75372
3404.0164, 433.91147
3404.918, 437.9314
3405.8196, 441.06439
3406.7212, 444.56161
3407.623, 443.15619
3408.5247, 434.18832
3409.4263, 434.46786
3410.3279, 442.61145
3411.2295, 428.62729
3412.1311, 431.78433
3413.0327, 438.0563
3413.9343, 434.39413
3414.8362, 432.80069
3415.7378, 435.53247
3416.6394, 430.37958
3417.541, 424.48236
3418.4426, 430.54932
3419.3442, 431.63016
3420.2458, 428.55145
3421.1475, 422.71814
3422.0491, 434.25989
3422.9509, 428.4285
3423.8525, 431.76929
3424.7542, 423.0148
3425.6558, 429.2782
3426.5574, 429.45389
3427.459, 426.55069
3428.3606, 426.40311
3429.2622, 425.2811
3430.1638, 427.94482
3431.0657, 426.79108
3431.9673, 426.47806
3432.8689, 432.38947
3433.7705, 421.15198
3434.6721, 426.95587
3435.5737, 419.0379
3436.4753, 422.54004
3437.377, 417.59787
3438.2788, 417.83588
3439.1804, 420.79684
3440.082, 416.32434
3440.9836, 430.23907
3441.8853, 420.98386
3442.7869, 420.32892
3443.6885, 422.60391
3444.5901, 425.08481
3445.4917, 428.79703
3446.3936, 420.14871
3447.2952, 416.32434
3448.1968, 421.68042
3449.0984, 424.24802
3450, 416.32434
3450.9016, 415.29068
3451.8032, 427.90829
3452.7048, 421.66699
3453.6064, 418.2803
3454.5083, 427.90094
3455.4099, 407.04175
3456.3115, 409.94995
3457.2131, 419.59244
3458.1147, 418.06464
3459.0164, 411.04205
3459.918, 411.33658
3460.8196, 420.32019
3461.7212, 411.38513
3462.623, 408.26077
3463.5247, 410.92688
3464.4263, 420.7706
3465.3279, 419.86987
3466.2295, 425.89972
3467.1311, 416.58981
3468.0327, 409.64191
3468.9343, 411.16571
3469.8362, 422.3952
3470.7378, 418.88324
3471.6394, 420.61697
3472.541, 413.55515
3473.4426, 416.32434
3474.3442, 429.60721
3475.2458, 416.32434
3476.1475, 416.32434
3477.0491, 423.10776
3477.9509, 416.89529
3478.8525, 413.70044
3479.7542, 410.85156
3480.6558, 414.62936
3481.5574, 411.9859
3482.459, 414.01263
3483.3606, 412.95245
3484.2622, 412.49753
3485.1638, 420.88339
3486.0657, 409.08945
3486.9673, 410.66776
3487.8689, 413.0712
3488.7705, 409.59027
3489.6721, 414.59161
3490.5737, 417.49222
3491.4753, 409.45193
3492.377, 398.03232
3493.2788, 408.65274
3494.1804, 406.89383
3495.082, 398.56259
3495.9836, 404.73163
3496.8853, 403.17947
3497.7869, 396.89545
3498.6885, 402.53732
3499.5901, 395.32352
3500.4917, 403.44449
3501.3936, 402.38315
3502.2952, 402.83728
3503.1968, 401.14313
3504.0984, 404.01392
3505, 393.07083
3505.9016, 402.92294
3506.8032, 398.41315
3507.7048, 404.31802
3508.6064, 401.41907
3509.5083, 398.0488
3510.4099, 397.79285
3511.3115, 399.20212
3512.2131, 396.93506
3513.1147, 394.5766
3514.0164, 395.26196
3514.918, 401.51862
3515.8196, 402.18579
3516.7212, 400.84402
3517.623, 388.38306
3518.5247, 390.18591
3519.4263, 395.1037
3520.3279, 388.74524
3521.2295, 390.75745
3522.1311, 389.23993
3523.0327, 393.65881
3523.9343, 393.57309
3524.8362, 387.32693
3525.7378, 386.88461
3526.6394, 388.04156
3527.541, 385.88422
3528.4426, 385.89987
3529.3442, 386.63568
3530.2458, 387.93829
3531.1475, 382.74341
3532.0491, 386.93582
3532.9509, 390.05148
3533.8525, 381.04599
3534.7542, 378.89078
3535.6558, 389.94406
3536.5574, 378.94244
3537.459, 383.50748
3538.3606, 381.93796
3539.2622, 380.61389
3540.1638, 376.54794
3541.0657, 380.01288
3541.9673, 377.59323
3542.8689, 386.10187
3543.7705, 374.58316
3544.6721, 379.35968
3545.5737, 371.37955
3546.4753, 383.8848
3547.377, 376.15137
3548.2788, 381.40042
3549.1804, 370.6188
3550.082, 369.05701
3550.9836, 374.9696
3551.8853, 367.33466
3552.7869, 375.51456
3553.6885, 377.34116
3554.5901, 376.95755
3555.4917, 375.60107
3556.3936, 368.65906
3557.2952, 371.3222
3558.1968, 374.65735
3559.0984, 367.50391
3560, 366.24832
3560.9016, 366.31122
3561.8032, 369.289
3562.7048, 369.12701
3563.6064, 374.27179
3564.5083, 361.3793
3565.4099, 370.8454
3566.3115, 370.9382
3567.2131, 364.59283
3568.1147, 367.74313
3569.0164, 360.73535
3569.918, 359.81326
3570.8196, 368.33557
3571.7212, 363.82913
3572.623, 352.96362
3573.5247, 358.78729
3574.4263, 362.35376
3575.3279, 359.96707
3576.2295, 360.62076
3577.1311, 357.74091
3578.0327, 360.05487
3578.9343, 362.17841
3579.8362, 375.81604
3580.7378, 366.21567
3581.6394, 380.34528
3582.541, 376.98969
3583.4426, 371.77399
3584.3442, 361.30649
3585.2458, 373.04486
3586.1475, 359.465
3587.0491, 356.75357
3587.9509, 351.95059
3588.8525, 358.91943
3589.7542, 358.91452
3590.6558, 359.173
3591.5574, 358.48889
3592.459, 352.65933
3593.3606, 362.57816
3594.2622, 355.34903
3595.1638, 354.46021
3596.0657, 350.35559
3596.9673, 351.60474
3597.8689, 354.34665
3598.7705, 349.83133
3599.6721, 345.90286
3600.5737, 352.06595
3601.4753, 346.89853
3602.377, 357.73419
3603.2788, 355.6188
3604.1804, 353.67935
3605.082, 351.78021
3605.9836, 352.23651
3606.8853, 350.98499
3607.7869, 353.17633
3608.6885, 357.10825
3609.5901, 353.08661
3610.4917, 348.86621
3611.3936, 351.22092
3612.2952, 354.55014
3613.1968, 350.84094
3614.0984, 348.38013
3615, 352.36353
3615.9016, 349.94556
3616.8032, 349.7713
3617.7048, 350.5813
3618.6064, 350.32388
3619.5083, 345.09631
3620.4099, 340.58755
3621.3115, 346.9436
3622.2131, 342.47672
3623.1147, 341.27628
3624.0164, 343.13156
3624.918, 346.08438
3625.8196, 350.23688
3626.7212, 343.86328
3627.623, 347.16006
3628.5247, 351.75217
3629.4263, 348.01617
3630.3279, 350.79813
3631.2295, 357.38165
3632.1311, 367.58136
3633.0327, 345.52911
3633.9343, 365.88644
3634.8362, 345.33194
3635.7378, 345.52911
3636.6394, 350.92874
3637.541, 343.65591
3638.4426, 343.13071
3639.3442, 345.09424
3640.2458, 342.2767
3641.1475, 342.90958
3642.0491, 344.64041
3642.9509, 336.5766
3643.8525, 338.9353
3644.7542, 335.48425
3645.6558, 341.2572
3646.5574, 334.20132
3647.459, 336.19104
3648.3606, 338.08548
3649.2622, 334.96335
3650.1638, 336.07962
3651.0657, 338.63339
3651.9673, 342.0433
3652.8689, 335.98621
3653.7705, 339.12424
3654.6721, 343.07065
3655.5737, 338.28867
3656.4753, 334.8443
3657.377, 336.74026
3658.2788, 340.70999
3659.1804, 339.21939
3660.082, 331.70535
3660.9836, 337.65887
3661.8853, 334.99664
3662.7869, 332.10071
3663.6885, 334.48712
3664.5901, 334.09882
3665.4917, 333.02097
3666.3936, 334.99063
3667.2952, 330.3252
3668.1968, 329.95618
3669.0984, 330.04153
3670, 324.02676
3670.9016, 329.25162
3671.8032, 330.53232
3672.7048, 338.84738
3673.6064, 324.25882
3674.5083, 334.18909
3675.4099, 332.34265
3676.3115, 329.77222
3677.2131, 329.34714
3678.1147, 333.74771
3679.0164, 331.66833
3679.918, 327.72992
3680.8196, 333.66849
3681.7212, 333.01169
3682.623, 333.48666
3683.5247, 333.88681
3684.4263, 333.59509
3685.3279, 332.41443
3686.2295, 334.46582
3687.1311, 323.62704
3688.0327, 325.33282
3688.9343, 334.6651
3689.8362, 334.89063
3690.7378, 334.81537
3691.6394, 328.82944
3692.541, 331.96829
3693.4426, 322.62253
3694.3442, 324.7019
3695.2458, 323.39981
3696.1475, 323.57123
3697.0491, 327.98376
3697.9509, 324.58478
3698.8525, 329.67456
3699.7542, 324.88016
3700.6558, 324.36218
3701.5574, 330.94324
3702.459, 328.09317
3703.3606, 321.2363
3704.2622, 324.82199
3705.1638, 326.56314
3706.0657, 321.50031
3706.9673, 327.16916
3707.8689, 322.2464
3708.7705, 320.58313
3709.6721, 321.41669
3710.5737, 324.74713
3711.4753, 328.36298
3712.377, 326.10367
3713.2788, 328.77234
3714.1804, 323.38586
3715.082, 326.36273
3715.9836, 322.84332
3716.8853, 322.72589
3717.7869, 323.10599
3718.6885, 318.64273
3719.5901, 317.50302
3720.4917, 322.0755
3721.3936, 323.07501
3722.2952, 317.06033
3723.1968, 318.11728
3724.0984, 314.24527
3725, 315.4939
3725.9016, 322.44458
3726.8032, 319.71991
3727.7048, 314.08426
3728.6064, 321.82907
3729.5083, 322.68939
3730.4099, 323.85645
3731.3115, 330.50543
3732.2131, 318.7811
3733.1147, 318.07037
3734.0164, 325.42319
3734.918, 321.51355
3735.8196, 319.43097
3736.7212, 320.30292
3737.623, 324.90735
3738.5247, 319.29688
3739.4263, 317.6073
3740.3279, 317.45587
3741.2295, 320.99402
3742.1311, 319.78598
3743.0327, 322.48276
3743.9343, 315.25015
3744.8362, 320.81287
3745.7378, 319.50903
3746.6394, 316.57089
3747.541, 316.86267
3748.4426, 311.57315
3749.3442, 315.82794
3750.2458, 315.44714
3751.1475, 322.36685
3752.0491, 319.88412
3752.9509, 317.30798
3753.8525, 318.57947
3754.7542, 322.2002
3755.6558, 321.88467
3756.5574, 319.9744
3757.459, 315.19534
3758.3606, 313.03644
3759.2622, 312.35831
3760.1638, 317.21265
3761.0657, 316.71075
3761.9673, 310.49219
3762.8689, 312.68237
3763.7705, 311.19049
3764.6721, 314.63596
3765.5737, 316.22003
3766.4753, 319.33713
3767.377, 312.51987
3768.2788, 318.26224
3769.1804, 306.41864
3770.082, 313.63461
3770.9836, 314.15689
3771.8853, 316.57712
3772.7869, 312.54941
3773.6885, 319.6507
3774.5901, 312.80121
3775.4917, 310.19427
3776.3936, 317.60275
3777.2952, 316.69614
3778.1968, 311.45135
3779.0984, 310.46527
3780, 309.7937
3780.9016, 310.07541
3781.8032, 314.54666
3782.7048, 313.39096
3783.6064, 309.70181
3784.5083, 310.41187
3785.4099, 308.39017
3786.3115, 312.86169
3787.2131, 310.46695
3788.1147, 312.10699
3789.0164, 311.66315
3789.918, 307.38757
3790.8196, 308.39532
3791.7212, 310.78845
3792.623, 309.11966
3793.5247, 309.69312
3794.4263, 311.75317
3795.3279, 310.03253
3796.2295, 308.94666
3797.1311, 308.34549
3798.0327, 311.67667
3798.9343, 308.20728
3799.8362, 309.70343
3800.7378, 300.07141
3801.6394, 309.08932
3802.541, 306.72971
3803.4426, 305.23508
3804.3442, 312.66284
3805.2458, 313.901
3806.1475, 311.08218
3807.0491, 305.40598
3807.9509, 307.35855
3808.8525, 310.12036
3809.7542, 305.44925
3810.6558, 306.33777
3811.5574, 315.94797
3812.459, 312.19614
3813.3606, 304.78821
3814.2622, 306.45917
3815.1638, 313.2309
3816.0657, 308.20035
3816.9673, 310.96194
3817.8689, 303.89111
3818.7705, 305.81561
3819.6721, 304.039
3820.5737, 303.2345
3821.4753, 307.14719
3822.377, 309.50308
3823.2788, 304.06735
3824.1804, 306.99731
3825.082, 308.276
3825.9836, 303.84241
3826.8853, 303.60782
3827.7869, 308.94467
3828.6885, 308.03085
3829.5901, 302.33578
3830.4917, 304.69733
3831.3936, 306.20117
3832.2952, 304.16333
3833.1968, 308.63046
3834.0984, 308.80536
3835, 304.26819
3835.9016, 307.70126
3836.8032, 308.4321
3837.7048, 305.65115
3838.6064, 308.00949
3839.5083, 305.89093
3840.4099, 303.01822
3841.3115, 312.23938
3842.2131, 304.40381
3843.1147, 304.24454
3844.0164, 308.12155
3844.918, 306.53806
3845.8196, 301.22156
3846.7212, 302.93918
3847.623, 305.7254
3848.5247, 305.34155
3849.4263, 302.78052
3850.3279, 311.68369
3851.2295, 305.25644
3852.1311, 303.80612
3853.0327, 302.27945
3853.9343, 304.20758
3854.8362, 302.6604
3855.7378, 305.07443
3856.6394, 302.08078
3857.541, 306.75067
3858.4426, 308.91037
3859.3442, 309.27515
3860.2458, 295.92038
3861.1475, 297.92929
3862.0491, 305.12451
3862.9509, 309.14371
3863.8525, 302.75327
3864.7542, 309.80185
3865.6558, 306.68915
3866.5574, 302.56519
3867.459, 305.0256
3868.3606, 302.01563
3869.2622, 304.35159
3870.1638, 308.90845
3871.0657, 299.26157
3871.9673, 305.67953
3872.8689, 298.88754
3873.7705, 299.62891
3874.6721, 304.10019
3875.5737, 298.89526
3876.4753, 299.34253
3877.377, 306.26895
3878.2788, 303.72546
3879.1804, 295.08276
3880.082, 302.00763
3880.9836, 303.3848
3881.8853, 304.11713
3882.7869, 300.9668
3883.6885, 297.8717
3884.5901, 302.4248
3885.4917, 298.19409
3886.3936, 301.24692
3887.2952, 301.0267
3888.1968, 296.39072
3889.0984, 302.61459
3890, 301.49982
3890.9016, 299.43695
3891.8032, 302.89828
3892.7048, 306.82321
3893.6064, 299.61798
3894.5083, 299.99799
3895.4099, 295.50937
3896.3115, 295.71915
3897.2131, 300.13046
3898.1147, 300.05569
3899.0164, 304.61328
3899.918, 303.76993
3900.8196, 299.93875
3901.7212, 305.1814
3902.623, 303.02621
3903.5247, 302.62299
3904.4263, 294.51016
3905.3279, 304.28662
3906.2295, 306.47598
3907.1311, 303.30292
3908.0327, 297.20978
3908.9343, 295.60001
3909.8362, 300.49536
3910.7378, 295.30658
3911.6394, 297.9585
3912.541, 295.53018
3913.4426, 296.77457
3914.3442, 300.17288
3915.2458, 302.60699
3916.1475, 300.7334
3917.0491, 294.77625
3917.9509, 293.68164
3918.8525, 296.78922
3919.7542, 300.66306
3920.6558, 298.81757
3921.5574, 297.53448
3922.459, 300.20264
3923.3606, 299.19107
3924.2622, 297.07611
3925.1638, 295.87167
3926.0657, 294.7309
3926.9673, 296.75946
3927.8689, 297.17987
3928.7705, 299.0679
3929.6721, 296.00748
3930.5737, 300.70044
3931.4753, 305.14172
3932.377, 298.85693
3933.2788, 300.35132
3934.1804, 295.38147
3935.082, 307.88058
3935.9836, 298.85046
3936.8853, 296.03906
3937.7869, 296.88525
3938.6885, 297.53864
3939.5901, 293.22754
3940.4917, 293.03152
3941.3936, 296.06821
3942.2952, 300.95435
3943.1968, 300.07806
3944.0984, 287.06531
3945, 292.84564
3945.9016, 301.44946
3946.8032, 296.39896
3947.7048, 292.52322
3948.6064, 296.82629
3949.5083, 293.67944
3950.4099, 293.91269
3951.3115, 297.5079
3952.2131, 297.00934
3953.1147, 299.92853
3954.0164, 297.12244
3954.918, 297.94971
3955.8196, 296.32458
3956.7212, 297.88882
3957.623, 287.86591
3958.5247, 299.24216
3959.4263, 296.60217
3960.3279, 301.28821
3961.2295, 296.01514
3962.1311, 289.53159
3963.0327, 287.96609
3963.9343, 294.93735
3964.8362, 303.72528
3965.7378, 298.00919
3966.6394, 300.30487
3967.541, 291.9248
3968.4426, 295.45209
3969.3442, 294.89749
3970.2458, 294.10532
3971.1475, 298.9068
3972.0491, 292.99307
3972.9509, 298.14426
3973.8525, 285.2991
3974.7542, 295.2785
3975.6558, 289.04309
3976.5574, 295.37387
3977.459, 298.01254
3978.3606, 299.03448
3979.2622, 306.04889
3980.1638, 294.75925
3981.0657, 292.42166
3981.9673, 291.89496
3982.8689, 293.23669
3983.7705, 295.88309
3984.6721, 287.25015
3985.5737, 287.2366
3986.4753, 291.92514
3987.377, 293.00864
3988.2788, 289.06772
3989.1804, 289.8157
3990.082, 294.5993
3990.9836, 293.08997
3991.8853, 291.74884
3992.7869, 293.9762
3993.6885, 293.03445
3994.5901, 298.25397
3995.4917, 292.05774
3996.3936, 297.06552
3997.2952, 296.28699
3998.1968, 292.46634
3999.0984, 293.99551
4000, 289.18961
##END=



