##NAMES=Hughesite
##RRUFFID=R130080
##IDEAL CHEMISTRY=Na_3_AlV^5+^_10_O_28_&#183;22H_2_O
##LOCALITY=Sunday mine, Gypsum Valley, San Miguel County, Slick Rock District, Colorado, USA
##OWNER=National Museum of Natural History of the Smithsonian Institution
##SOURCE=John Rakovan
##DESCRIPTION=Orange to golden orange crystals in efflorescent crusts. Data from Rakovan et al (2011)
##STATUS=The identification of this mineral has been confirmed by X-ray diffraction and chemical analysis
##URL=rruff.info/R130080
##MEASURED CHEMISTRY=Na_2.99_Al_1.05_(V_10_O_28_)&#183;5.70H_2_O
##ORIENTATION=Laser parallel to a [1 0 0]. Fiducial mark perpendicular to laser is parallel to b [0 1 0]
1501.09, 298048
1500.19, 298115
1499.29, 298164
1498.39, 297396
1497.49, 297971
1496.59, 297169
1495.69, 296337
1494.79, 298239
1493.89, 298215
1493, 297470
1492.1, 297997
1491.2, 297266
1490.3, 298448
1489.4, 298059
1488.5, 299246
1487.6, 298640
1486.7, 296957
1485.79, 297900
1484.89, 297247
1483.99, 297238
1483.09, 296540
1482.19, 296401
1481.29, 298395
1480.39, 298200
1479.49, 295318
1478.58, 295697
1477.68, 296528
1476.78, 296708
1475.88, 296391
1474.98, 297174
1474.07, 295946
1473.17, 296608
1472.27, 297022
1471.37, 296592
1470.46, 297657
1469.56, 297061
1468.66, 295845
1467.75, 296952
1466.85, 296466
1465.95, 296258
1465.04, 297533
1464.14, 296467
1463.23, 296314
1462.33, 295470
1461.43, 296495
1460.52, 295637
1459.62, 295122
1458.71, 296382
1457.81, 295577
1456.9, 296012
1456, 295653
1455.09, 295840
1454.19, 295074
1453.28, 296202
1452.38, 293618
1451.47, 294531
1450.56, 295940
1449.66, 294209
1448.75, 295318
1447.84, 295309
1446.94, 294442
1446.03, 293840
1445.12, 294835
1444.22, 294139
1443.31, 295048
1442.4, 293884
1441.5, 294719
1440.59, 294354
1439.68, 293982
1438.77, 293356
1437.87, 294462
1436.96, 294764
1436.05, 293684
1435.14, 292957
1434.23, 293688
1433.32, 292653
1432.42, 292567
1431.51, 294388
1430.6, 292855
1429.69, 293030
1428.78, 292221
1427.87, 292158
1426.96, 292902
1426.05, 293443
1425.14, 293233
1424.23, 293381
1423.32, 292671
1422.41, 292759
1421.5, 291292
1420.59, 292024
1419.68, 292109
1418.77, 291976
1417.86, 291743
1416.95, 292645
1416.03, 291815
1415.12, 291985
1414.21, 291938
1413.3, 291419
1412.39, 291309
1411.48, 291182
1410.56, 291346
1409.65, 290345
1408.74, 291131
1407.83, 291591
1406.91, 290431
1406, 290861
1405.09, 290649
1404.18, 290241
1403.26, 290670
1402.35, 290371
1401.44, 290833
1400.52, 290275
1399.61, 290474
1398.69, 289956
1397.78, 290098
1396.87, 289624
1395.95, 290135
1395.04, 290219
1394.12, 290747
1393.21, 289483
1392.29, 290160
1391.38, 289387
1390.46, 289818
1389.55, 290754
1388.63, 290254
1387.72, 288738
1386.8, 289534
1385.89, 290402
1384.97, 289563
1384.05, 289407
1383.14, 289693
1382.22, 289109
1381.3, 289523
1380.39, 289165
1379.47, 288985
1378.55, 289276
1377.64, 288896
1376.72, 289585
1375.8, 288849
1374.88, 288385
1373.97, 288870
1373.05, 289261
1372.13, 289964
1371.21, 290230
1370.3, 288810
1369.38, 289153
1368.46, 288017
1367.54, 288090
1366.62, 289088
1365.7, 289531
1364.78, 287721
1363.86, 289402
1362.94, 289075
1362.03, 289341
1361.11, 289052
1360.19, 288918
1359.27, 287963
1358.35, 288666
1357.43, 289234
1356.51, 287847
1355.58, 288309
1354.66, 287368
1353.74, 287957
1352.82, 288638
1351.9, 288808
1350.98, 288145
1350.06, 288337
1349.14, 288168
1348.22, 288393
1347.29, 289246
1346.37, 289194
1345.45, 289223
1344.53, 288124
1343.61, 288029
1342.68, 288063
1341.76, 287412
1340.84, 288885
1339.92, 288486
1338.99, 287191
1338.07, 288352
1337.15, 287336
1336.22, 287419
1335.3, 287559
1334.38, 287374
1333.45, 287934
1332.53, 288304
1331.6, 288122
1330.68, 288050
1329.75, 288123
1328.83, 287741
1327.91, 286948
1326.98, 287155
1326.06, 287219
1325.13, 287640
1324.21, 286677
1323.28, 287511
1322.35, 286460
1321.43, 286905
1320.5, 286988
1319.58, 285705
1318.65, 287664
1317.72, 285841
1316.8, 285616
1315.87, 286215
1314.95, 286276
1314.02, 286696
1313.09, 286059
1312.16, 286317
1311.24, 285017
1310.31, 286990
1309.38, 286558
1308.45, 285781
1307.53, 285325
1306.6, 285200
1305.67, 284539
1304.74, 285737
1303.81, 286149
1302.89, 283999
1301.96, 285474
1301.03, 285005
1300.1, 285247
1299.17, 285023
1298.24, 284887
1297.31, 285172
1296.38, 284744
1295.45, 284020
1294.52, 284342
1293.59, 283674
1292.66, 284891
1291.73, 283977
1290.8, 283893
1289.87, 284559
1288.94, 284333
1288.01, 282828
1287.08, 282698
1286.15, 284116
1285.22, 283396
1284.29, 284047
1283.35, 282992
1282.42, 283813
1281.49, 283533
1280.56, 283897
1279.63, 282990
1278.69, 283121
1277.76, 283179
1276.83, 282744
1275.9, 282344
1274.96, 282569
1274.03, 282810
1273.1, 282978
1272.16, 282723
1271.23, 282527
1270.3, 282690
1269.36, 282338
1268.43, 283023
1267.5, 282257
1266.56, 281697
1265.63, 280618
1264.69, 282908
1263.76, 283124
1262.82, 282495
1261.89, 281716
1260.95, 282149
1260.02, 281734
1259.08, 281420
1258.15, 281297
1257.21, 282654
1256.28, 282579
1255.34, 283016
1254.41, 281314
1253.47, 281140
1252.53, 282156
1251.6, 281870
1250.66, 281931
1249.72, 281026
1248.79, 282653
1247.85, 281315
1246.91, 280891
1245.98, 280901
1245.04, 281719
1244.1, 281180
1243.16, 280627
1242.22, 280861
1241.29, 281506
1240.35, 281366
1239.41, 280601
1238.47, 280734
1237.53, 280869
1236.59, 281188
1235.66, 281542
1234.72, 279938
1233.78, 280135
1232.84, 280286
1231.9, 281102
1230.96, 280785
1230.02, 279906
1229.08, 280209
1228.14, 281150
1227.2, 280508
1226.26, 279527
1225.32, 281126
1224.38, 280363
1223.44, 279879
1222.5, 280091
1221.56, 279705
1220.61, 280079
1219.67, 280020
1218.73, 278009
1217.79, 279548
1216.85, 278428
1215.91, 279282
1214.96, 279560
1214.02, 278800
1213.08, 278768
1212.14, 278287
1211.19, 278123
1210.25, 278968
1209.31, 278877
1208.37, 278442
1207.42, 279027
1206.48, 278388
1205.54, 277754
1204.59, 277571
1203.65, 277322
1202.7, 277112
1201.76, 278664
1200.82, 277752
1199.87, 277415
1198.93, 277431
1197.98, 277375
1197.04, 278187
1196.09, 276422
1195.15, 277194
1194.2, 276921
1193.26, 277754
1192.31, 278099
1191.37, 275862
1190.42, 276750
1189.47, 276250
1188.53, 275198
1187.58, 276466
1186.64, 275570
1185.69, 276146
1184.74, 275813
1183.8, 276182
1182.85, 275311
1181.9, 275250
1180.95, 275495
1180.01, 275634
1179.06, 274901
1178.11, 274486
1177.16, 274663
1176.22, 275153
1175.27, 276590
1174.32, 274744
1173.37, 275155
1172.42, 275355
1171.47, 274343
1170.52, 274825
1169.58, 274245
1168.63, 273918
1167.68, 274484
1166.73, 274579
1165.78, 273483
1164.83, 274462
1163.88, 274996
1162.93, 275046
1161.98, 274396
1161.03, 274577
1160.08, 273911
1159.13, 273458
1158.18, 274584
1157.22, 273724
1156.27, 273163
1155.32, 274128
1154.37, 273481
1153.42, 273843
1152.47, 273326
1151.52, 274644
1150.56, 273246
1149.61, 273496
1148.66, 274236
1147.71, 273808
1146.75, 273295
1145.8, 273355
1144.85, 274659
1143.9, 274297
1142.94, 273541
1141.99, 273105
1141.04, 273157
1140.08, 273501
1139.13, 273401
1138.18, 273812
1137.22, 273754
1136.27, 272928
1135.31, 273507
1134.36, 273333
1133.4, 272450
1132.45, 272667
1131.49, 273418
1130.54, 273300
1129.58, 274491
1128.63, 273553
1127.67, 272854
1126.72, 273019
1125.76, 273003
1124.81, 272777
1123.85, 274335
1122.89, 272688
1121.94, 273623
1120.98, 273591
1120.02, 273089
1119.07, 273410
1118.11, 272385
1117.15, 273524
1116.19, 273466
1115.24, 274071
1114.28, 272452
1113.32, 272636
1112.36, 273842
1111.41, 273212
1110.45, 273754
1109.49, 273558
1108.53, 273795
1107.57, 273113
1106.61, 272362
1105.66, 272447
1104.7, 272953
1103.74, 273585
1102.78, 272605
1101.82, 271197
1100.86, 273899
1099.9, 272840
1098.94, 272009
1097.98, 272485
1097.02, 272271
1096.06, 271843
1095.1, 271052
1094.14, 271678
1093.18, 272209
1092.21, 271792
1091.25, 271976
1090.29, 271679
1089.33, 270397
1088.37, 271743
1087.41, 272509
1086.45, 272610
1085.48, 271747
1084.52, 271174
1083.56, 272000
1082.6, 271488
1081.63, 271173
1080.67, 271178
1079.71, 270011
1078.74, 270774
1077.78, 271031
1076.82, 271196
1075.85, 270441
1074.89, 270235
1073.93, 270754
1072.96, 269861
1072, 269544
1071.03, 270288
1070.07, 270471
1069.11, 269950
1068.14, 269501
1067.18, 269750
1066.21, 269301
1065.25, 268912
1064.28, 269298
1063.32, 269103
1062.35, 269398
1061.38, 269007
1060.42, 268520
1059.45, 268481
1058.49, 268586
1057.52, 268552
1056.55, 268568
1055.59, 268766
1054.62, 268611
1053.65, 268424
1052.68, 268959
1051.72, 267951
1050.75, 268485
1049.78, 267904
1048.81, 268343
1047.85, 268538
1046.88, 267360
1045.91, 267825
1044.94, 266660
1043.97, 267739
1043.01, 267767
1042.04, 267411
1041.07, 267751
1040.1, 267451
1039.13, 268320
1038.16, 267015
1037.19, 267858
1036.22, 268041
1035.25, 267086
1034.28, 268094
1033.31, 267735
1032.34, 266895
1031.37, 267557
1030.4, 267894
1029.43, 268560
1028.46, 267674
1027.49, 267588
1026.52, 268600
1025.54, 268859
1024.57, 267994
1023.6, 268335
1022.63, 268664
1021.66, 267725
1020.68, 268753
1019.71, 270020
1018.74, 269962
1017.77, 270434
1016.79, 270372
1015.82, 271728
1014.85, 272626
1013.88, 272840
1012.9, 273823
1011.93, 275092
1010.96, 277391
1009.98, 278578
1009.01, 281576
1008.03, 285667
1007.06, 290357
1006.09, 296544
1005.11, 303645
1004.14, 314227
1003.16, 330396
1002.19, 348085
1001.21, 371118
1000.24, 391592
999.26, 403533
998.284, 400639
997.309, 385142
996.333, 364806
995.357, 344712
994.381, 328242
993.404, 315975
992.428, 306489
991.451, 300088
990.474, 294344
989.497, 292072
988.52, 288393
987.543, 285987
986.565, 284840
985.588, 284706
984.61, 285386
983.632, 284477
982.654, 285662
981.676, 287862
980.698, 290635
979.719, 294486
978.741, 300091
977.762, 304928
976.783, 312948
975.804, 321156
974.824, 331137
973.845, 340479
972.865, 348148
971.886, 353606
970.906, 354018
969.926, 349957
968.946, 341254
967.965, 331171
966.985, 321086
966.004, 312526
965.023, 306214
964.043, 300982
963.061, 297452
962.08, 294539
961.099, 291765
960.117, 288992
959.136, 285697
958.154, 283086
957.172, 280438
956.19, 277097
955.207, 274662
954.225, 274398
953.242, 272548
952.259, 271020
951.276, 270678
950.293, 269138
949.31, 268366
948.327, 267724
947.343, 266757
946.359, 267064
945.376, 266895
944.392, 265959
943.407, 264939
942.423, 266183
941.439, 264638
940.454, 264597
939.469, 264842
938.484, 264146
937.499, 264937
936.514, 264464
935.529, 264108
934.543, 262591
933.557, 264006
932.572, 262590
931.586, 262741
930.599, 262660
929.613, 262013
928.627, 264063
927.64, 261776
926.653, 262045
925.666, 262622
924.679, 261499
923.692, 261727
922.705, 261496
921.717, 261270
920.729, 261720
919.741, 260900
918.753, 260897
917.765, 261415
916.777, 261013
915.788, 260550
914.8, 261217
913.811, 260273
912.822, 259621
911.833, 259310
910.844, 261127
909.854, 260469
908.865, 260517
907.875, 261103
906.885, 260049
905.895, 259220
904.905, 261621
903.915, 260217
902.924, 260701
901.933, 260754
900.943, 260733
899.952, 260748
898.961, 260818
897.969, 260936
896.978, 259962
895.986, 260471
894.995, 260579
894.003, 260485
893.011, 260291
892.018, 260845
891.026, 261096
890.034, 260287
889.041, 261032
888.048, 260409
887.055, 260776
886.062, 260484
885.069, 259336
884.075, 260108
883.082, 262805
882.088, 260160
881.094, 261615
880.1, 260777
879.106, 261440
878.111, 261648
877.117, 261869
876.122, 261647
875.127, 262196
874.132, 261864
873.137, 262571
872.142, 264225
871.146, 263923
870.151, 264587
869.155, 264154
868.159, 264168
867.163, 266473
866.167, 266559
865.17, 267649
864.174, 268211
863.177, 269454
862.18, 270429
861.183, 271024
860.186, 273769
859.188, 275396
858.191, 277144
857.193, 278767
856.196, 280994
855.198, 282132
854.199, 284179
853.201, 282955
852.203, 284994
851.204, 283389
850.205, 282669
849.206, 281035
848.207, 279813
847.208, 279066
846.209, 275285
845.209, 273868
844.209, 271649
843.21, 271014
842.21, 269704
841.209, 268772
840.209, 267783
839.209, 266581
838.208, 265405
837.207, 265526
836.206, 264090
835.205, 263879
834.204, 262539
833.202, 262900
832.201, 261897
831.199, 261527
830.197, 261339
829.195, 261342
828.193, 260059
827.191, 259998
826.188, 259932
825.185, 259388
824.183, 259965
823.18, 259419
822.176, 259134
821.173, 258712
820.17, 258992
819.166, 258934
818.162, 258345
817.158, 257764
816.154, 258321
815.15, 258298
814.145, 258016
813.141, 257311
812.136, 257975
811.131, 257156
810.126, 256727
809.121, 257149
808.116, 257579
807.11, 258202
806.104, 256981
805.098, 257149
804.092, 256974
803.086, 257513
802.08, 256163
801.073, 256175
800.067, 256691
799.06, 256626
798.053, 256188
797.046, 256244
796.039, 255532
795.031, 255630
794.024, 255506
793.016, 255448
792.008, 255204
791, 254581
789.992, 255665
788.983, 253904
787.975, 254372
786.966, 254327
785.957, 255199
784.948, 254990
783.939, 254893
782.93, 254174
781.92, 254899
780.911, 254347
779.901, 254680
778.891, 253714
777.881, 254268
776.87, 254889
775.86, 254428
774.849, 254294
773.839, 255130
772.828, 254182
771.816, 253976
770.805, 254030
769.794, 253958
768.782, 253814
767.771, 254982
766.759, 254357
765.747, 254250
764.734, 253651
763.722, 253607
762.71, 255078
761.697, 254936
760.684, 253649
759.671, 254634
758.658, 253298
757.644, 254208
756.631, 253221
755.617, 254929
754.604, 253651
753.59, 253754
752.575, 253731
751.561, 253519
750.547, 254361
749.532, 254365
748.517, 253088
747.502, 253640
746.487, 254085
745.472, 253744
744.457, 253832
743.441, 253307
742.425, 253181
741.41, 253956
740.393, 253824
739.377, 253113
738.361, 253156
737.344, 253045
736.328, 253128
735.311, 253786
734.294, 253918
733.277, 253352
732.259, 252400
731.242, 252994
730.224, 253244
729.206, 252652
728.188, 254179
727.17, 252655
726.152, 252824
725.133, 252396
724.115, 252096
723.096, 253769
722.077, 253045
721.058, 252053
720.039, 253127
719.019, 253055
718, 251664
716.98, 253070
715.96, 252364
714.94, 253093
713.92, 251909
712.899, 252435
711.879, 253083
710.858, 253619
709.837, 252646
708.816, 251653
707.795, 252889
706.774, 252494
705.752, 252324
704.73, 252571
703.709, 252406
702.687, 252616
701.664, 252231
700.642, 252856
699.62, 252662
698.597, 252732
697.574, 252866
696.551, 252547
695.528, 252954
694.505, 252401
693.481, 252346
692.458, 253518
691.434, 253358
690.41, 252940
689.386, 253185
688.362, 252657
687.337, 253547
686.313, 253072
685.288, 252073
684.263, 253660
683.238, 252998
682.212, 253290
681.187, 252143
680.161, 252724
679.136, 252838
678.11, 253341
677.084, 252358
676.058, 254089
675.031, 252653
674.005, 253096
672.978, 252513
671.951, 253325
670.924, 254548
669.897, 253110
668.869, 254199
667.842, 253748
666.814, 253365
665.786, 252884
664.758, 252691
663.73, 253483
662.702, 253557
661.673, 253672
660.645, 253697
659.616, 253871
658.587, 253325
657.558, 253467
656.528, 253196
655.499, 254667
654.469, 254415
653.439, 253775
652.409, 253929
651.379, 254508
650.349, 253975
649.319, 254313
648.288, 254867
647.257, 255091
646.226, 254228
645.195, 255019
644.164, 254737
643.132, 254347
642.101, 254636
641.069, 254312
640.037, 255575
639.005, 255062
637.973, 254932
636.94, 255572
635.908, 255014
634.875, 255840
633.842, 255373
632.809, 255294
631.776, 255082
630.742, 256304
629.709, 255871
628.675, 255620
627.641, 256489
626.607, 257007
625.573, 256958
624.538, 256548
623.504, 257885
622.469, 257583
621.434, 256914
620.399, 256583
619.364, 257368
618.328, 257518
617.293, 258624
616.257, 259133
615.221, 258739
614.185, 259142
613.149, 259909
612.113, 259767
611.076, 259969
610.039, 260487
609.003, 261191
607.966, 261099
606.928, 262877
605.891, 263341
604.854, 262593
603.816, 264180
602.778, 264446
601.74, 265505
600.702, 265595
599.663, 265481
598.625, 265971
597.586, 266328
596.547, 267611
595.508, 267593
594.469, 267894
593.43, 268299
592.39, 268408
591.351, 267721
590.311, 268818
589.271, 267645
588.231, 268576
587.19, 268608
586.15, 269062
585.109, 268018
584.068, 267351
583.027, 266237
581.986, 265136
580.945, 264625
579.903, 263112
578.862, 263370
577.82, 261984
576.778, 260651
575.736, 259984
574.693, 259132
573.651, 258201
572.608, 256697
571.565, 257567
570.522, 256510
569.479, 255573
568.436, 254902
567.392, 255719
566.349, 254880
565.305, 253578
564.261, 255213
563.217, 254675
562.172, 254024
561.128, 253047
560.083, 253670
559.038, 253117
557.993, 252366
556.948, 251831
555.903, 253128
554.857, 251849
553.812, 251830
552.766, 251102
551.72, 250770
550.674, 250993
549.628, 250542
548.581, 250650
547.534, 250459
546.488, 249937
545.441, 249491
544.393, 249203
543.346, 248447
542.299, 248288
541.251, 247349
540.203, 247792
539.155, 246473
538.107, 247338
537.059, 246767
536.01, 246286
534.961, 246521
533.913, 245648
532.864, 245913
531.815, 245286
530.765, 246545
529.716, 246196
528.666, 245518
527.616, 246555
526.566, 245418
525.516, 245120
524.466, 245685
523.415, 245558
522.364, 244467
521.314, 244161
520.263, 244089
519.211, 244136
518.16, 245231
517.109, 244726
516.057, 243888
515.005, 244878
513.953, 243527
512.901, 244280
511.848, 243744
510.796, 242905
509.743, 243056
508.69, 242240
507.637, 243424
506.584, 242915
505.531, 242340
504.477, 241886
503.424, 241425
502.37, 241797
501.316, 241426
500.261, 240897
499.207, 240778
498.153, 239658
497.098, 241073
496.043, 240963
494.988, 239925
493.933, 240794
492.877, 241219
491.822, 240814
490.766, 240242
489.71, 239174
488.654, 239425
487.598, 240229
486.541, 240207
485.485, 239620
484.428, 240050
483.371, 240234
482.314, 239781
481.257, 240336
480.199, 239643
479.142, 240522
478.084, 240472
477.026, 241754
475.968, 241720
474.91, 241766
473.851, 242226
472.793, 242898
471.734, 243400
470.675, 243219
469.616, 244783
468.557, 244404
467.497, 244079
466.438, 245543
465.378, 245037
464.318, 244981
463.258, 244336
462.197, 243386
461.137, 243145
460.076, 243233
459.016, 242199
457.955, 241821
456.893, 241288
455.832, 240802
454.771, 240047
453.709, 239262
452.647, 239155
451.585, 238912
450.523, 237492
449.461, 236393
448.398, 237273
447.335, 235795
446.273, 236185
445.21, 235893
444.146, 235557
443.083, 234247
442.019, 235202
440.956, 234235
439.892, 234184
438.828, 234581
437.764, 234073
436.699, 234123
435.635, 233247
434.57, 233343
433.505, 231954
432.44, 233177
431.375, 233353
430.309, 233384
429.244, 233149
428.178, 232103
427.112, 232926
426.046, 233288
424.98, 232169
423.913, 231459
422.847, 231293
421.78, 231181
420.713, 231069
419.646, 231254
418.578, 230500
417.511, 230248
416.443, 229855
415.376, 229610
414.308, 230067
413.239, 229258
412.171, 229202
411.103, 229090
410.034, 229428
408.965, 229290
407.896, 229225
406.827, 229116
405.758, 228672
404.688, 229253
403.618, 228545
402.548, 229191
401.478, 228301
400.408, 227723
399.338, 228800
398.267, 228245
397.196, 227909
396.126, 228643
395.054, 227761
393.983, 227160
392.912, 227823
391.84, 227906
390.768, 227141
389.697, 226657
388.624, 227273
387.552, 227787
386.48, 227865
385.407, 228031
384.334, 227043
383.261, 226173
382.188, 226679
381.115, 228327
380.041, 227670
378.968, 227427
377.894, 227199
376.82, 227977
375.746, 228227
374.671, 227848
373.597, 227953
372.522, 228619
371.447, 228571
370.372, 228348
369.297, 228376
368.221, 229355
367.146, 230724
366.07, 230671
364.994, 231977
363.918, 232911
362.842, 233937
361.765, 234668
360.689, 234579
359.612, 236127
358.535, 235476
357.458, 235111
356.381, 235591
355.303, 234075
354.226, 234074
353.148, 233679
352.07, 233853
350.992, 234406
349.913, 234985
348.835, 234454
347.756, 235215
346.677, 235949
345.598, 236259
344.519, 237200
343.439, 238343
342.36, 239474
341.28, 239556
340.2, 240754
339.12, 241793
338.04, 242708
336.959, 243773
335.879, 243289
334.798, 246116
333.717, 247528
332.636, 249297
331.555, 251693
330.473, 253493
329.392, 256061
328.31, 258962
327.228, 261767
326.146, 265726
325.063, 270251
323.981, 276157
322.898, 280079
321.815, 286865
320.732, 292795
319.649, 297548
318.565, 300385
317.482, 302339
316.398, 302438
315.314, 300108
314.23, 295535
313.146, 291593
312.061, 283445
310.977, 277220
309.892, 269966
308.807, 263261
307.722, 258017
306.636, 253861
305.551, 248108
304.465, 244690
303.379, 241443
302.293, 239314
301.207, 236944
300.121, 235104
299.034, 232763
297.948, 231704
296.861, 230962
295.774, 230185
294.686, 229078
293.599, 228124
292.511, 226892
291.423, 226384
290.335, 226111
289.247, 225925
288.159, 224765
287.071, 223729
285.982, 223351
284.893, 223182
283.804, 223970
282.715, 222456
281.625, 224421
280.536, 223423
279.446, 223839
278.356, 225261
277.266, 225427
276.176, 227067
275.085, 228385
273.995, 231351
272.904, 233426
271.813, 236001
270.722, 237507
269.631, 241210
268.539, 244295
267.448, 246367
266.356, 247941
265.264, 250371
264.171, 249815
263.079, 251599
261.987, 252858
260.894, 254274
259.801, 255173
258.708, 255873
257.615, 257135
256.521, 256275
255.428, 256576
254.334, 253042
253.24, 251788
252.146, 249129
251.051, 246838
249.957, 245398
248.862, 244365
247.767, 242729
246.672, 240753
245.577, 239203
244.482, 236074
243.386, 233704
242.29, 231985
241.194, 229235
240.098, 228620
239.002, 228189
237.906, 227782
236.809, 228473
235.712, 229949
234.615, 230776
233.518, 231766
232.421, 232141
231.323, 231996
230.225, 232289
229.128, 230832
228.03, 231546
226.931, 231147
225.833, 232197
224.734, 230141
223.636, 228920
222.537, 227389
221.437, 225107
220.338, 223599
219.239, 222203
218.139, 221653
217.039, 222981
215.939, 221058
214.839, 222154
213.739, 223227
212.638, 224231
211.537, 223477
210.436, 223615
209.335, 222201
208.234, 220394
207.133, 218588
206.031, 216700
204.929, 214292
203.827, 213538
202.725, 213002
201.623, 212146
200.52, 212423
199.417, 211270
198.315, 212088
197.212, 213652
196.108, 213819
195.005, 214450
193.901, 216289
192.798, 216688
191.694, 219362
190.589, 221613
189.485, 225040
188.381, 228284
187.276, 233898
186.171, 239944
185.066, 245034
183.961, 249715
182.855, 252562
181.75, 252386
180.644, 253513
179.538, 253465
178.432, 253883
177.326, 255406
176.219, 254327
175.113, 250569
174.006, 245182
172.899, 239244
171.792, 231832
170.684, 226374
169.577, 221755
168.469, 218133
167.361, 214774
166.253, 213462
165.145, 211767
164.036, 211252
162.928, 209238
161.819, 209530
160.71, 211097
159.601, 210325
158.491, 209173
157.382, 208675
156.272, 209648
155.162, 209128
154.052, 208337
152.942, 208231
151.831, 208186
150.721, 207933
149.61, 208359
148.499, 208543
147.388, 209416
146.277, 209571
145.165, 208574
144.053, 209192
142.941, 208679
141.829, 206941
140.717, 205914
139.605, 204732
138.492, 204031
137.379, 202987
136.266, 202284
135.153, 201313
134.04, 200956
132.926, 199788
131.813, 197304
130.699, 193027
129.585, 188066
128.47, 181818
127.356, 174722
126.241, 165827
125.127, 157520
124.012, 149425
122.896, 142231
121.781, 134616
120.666, 129090
119.55, 124045
118.434, 120304
117.318, 116707
116.202, 113669
115.085, 110737
113.969, 108406
112.852, 104464
111.735, 100559
110.618, 95337.8
109.5, 88762.1
108.383, 81074.4
107.265, 70532.9
106.147, 59943.4
105.029, 49596.6
103.911, 38692
102.792, 29413.8
101.674, 22040.6
100.555, 15735.6
##END=



