##NAMES=Pyromorphite
##RRUFFID=R060285
##IDEAL CHEMISTRY=Pb^2+^_5_(PO_4_)_3_Cl
##LOCALITY=Les Farges mine, Correze Ussel, France
##OWNER=RRUFF
##SOURCE=Herb Obodda
##DESCRIPTION=Aggregate of green hexagonal prisms
##STATUS=The identification of this mineral has been confirmed by X-ray diffraction and chemical analysis
##URL=rruff.info/R060285
##MEASURED CHEMISTRY=Pb_5.00_((P_0.99_As_0.01_)_Î£=1_O_4_)_3_Cl_1.00_
##PIN_ID=M01413
##ORIENTATION=Laser parallel to -c* (0 0 -1). Fiducial mark perpendicular to laser is parallel to a [1 0 0]
74.32600, 169610.0
75.56200, 174209.0
76.79700, 184513.0
78.03300, 187724.0
79.26800, 186710.0
80.50300, 188619.0
81.73700, 195287.0
82.97200, 198526.0
84.20700, 202744.0
85.44100, 208622.0
86.67500, 209485.0
87.90900, 206279.0
89.14300, 207763.0
90.37700, 204634.0
91.61000, 200093.0
92.84400, 197732.0
94.07700, 193118.0
95.31000, 190906.0
96.54300, 185632.0
97.77600, 188844.0
99.00900, 192532.0
100.2410, 191131.0
101.4740, 193423.0
102.7060, 197883.0
103.9380, 201683.0
105.1700, 199576.0
106.4020, 198909.0
107.6340, 196328.0
108.8650, 193547.0
110.0970, 190288.8
111.3280, 186478.0
112.5590, 181123.0
113.7900, 177173.0
115.0210, 173044.9
116.2510, 168935.0
117.4820, 165710.0
118.7120, 163146.0
119.9420, 160882.0
121.1720, 159965.0
122.4020, 160452.0
123.6320, 159569.0
124.8620, 161095.0
126.0910, 155393.0
127.3200, 154579.0
128.5490, 154334.0
129.7780, 154113.0
131.0070, 154242.0
132.2360, 155434.0
133.4640, 156262.0
134.6930, 156576.0
135.9210, 157221.0
137.1490, 156278.0
138.3770, 156457.0
139.6050, 156525.0
140.8330, 157003.0
142.0600, 157243.8
143.2870, 157910.0
144.5150, 158054.0
145.7420, 159187.0
146.9690, 159774.0
148.1950, 159969.0
149.4220, 160366.0
150.6480, 160468.0
151.8750, 161449.0
153.1010, 161596.0
154.3270, 163577.0
155.5530, 162230.0
156.7780, 163210.0
158.0040, 163309.0
159.2290, 162926.0
160.4550, 163339.0
161.6800, 161154.0
162.9050, 161365.0
164.1290, 161127.0
165.3540, 162195.0
166.5790, 162435.0
167.8030, 161711.0
169.0270, 161325.0
170.2510, 161028.0
171.4750, 160986.0
172.6990, 162091.0
173.9220, 160920.0
175.1460, 159528.0
176.3690, 159298.0
177.5920, 160832.0
178.8150, 161114.0
180.0380, 160400.0
181.2610, 161255.0
182.4830, 160646.0
183.7060, 160162.0
184.9280, 160332.0
186.1500, 158849.0
187.3720, 159369.0
188.5940, 159431.0
189.8160, 160011.0
191.0370, 158747.0
192.2590, 158597.0
193.4800, 157812.0
194.7010, 157507.0
195.9220, 157833.0
197.1420, 158080.0
198.3630, 158401.0
199.5830, 158799.0
200.8040, 158036.0
202.0240, 157448.0
203.2440, 158231.0
204.4640, 156752.0
205.6830, 155602.0
206.9030, 155500.0
208.1220, 154598.6
209.3420, 154481.0
210.5610, 154194.0
211.7800, 154507.0
212.9990, 155091.0
214.2170, 154279.0
215.4360, 155308.0
216.6540, 155189.0
217.8720, 154021.0
219.0900, 154419.0
220.3080, 154406.0
221.5260, 154878.0
222.7440, 154900.6
223.9610, 154587.0
225.1780, 154673.0
226.3950, 154934.0
227.6120, 154051.0
228.8290, 154197.0
230.0460, 154492.0
231.2620, 153417.0
232.4790, 155181.0
233.6950, 154624.0
234.9110, 154024.0
236.1270, 154471.0
237.3430, 154277.0
238.5590, 154292.0
239.7740, 153213.0
240.9890, 153496.0
242.2050, 153712.0
243.4200, 154347.0
244.6340, 154793.0
245.8490, 154334.0
247.0640, 154228.0
248.2780, 153961.0
249.4920, 154327.0
250.7070, 154288.0
251.9210, 154516.0
253.1340, 154456.2
254.3480, 154425.4
255.5620, 154277.0
256.7750, 154349.0
257.9880, 154312.0
259.2010, 154461.0
260.4140, 153683.0
261.6270, 154018.0
262.8400, 154504.0
264.0520, 155199.0
265.2640, 155552.0
266.4760, 155514.0
267.6880, 155749.0
268.9000, 155394.0
270.1120, 155601.0
271.3240, 156312.0
272.5350, 155814.0
273.7460, 156446.0
274.9570, 155786.0
276.1680, 156435.0
277.3790, 157112.0
278.5900, 156539.0
279.8000, 156769.0
281.0110, 156636.0
282.2210, 156371.0
283.4310, 156994.0
284.6410, 156994.0
285.8500, 157035.7
287.0600, 157669.0
288.2700, 157168.0
289.4790, 157561.0
290.6880, 157797.0
291.8970, 157920.0
293.1060, 158116.5
294.3140, 157889.0
295.5230, 158244.0
296.7310, 158014.0
297.9400, 157906.0
299.1480, 158144.9
300.3560, 158135.6
301.5630, 158497.0
302.7710, 158466.0
303.9780, 158745.0
305.1860, 158888.6
306.3930, 159822.0
307.6000, 159673.0
308.8070, 159861.0
310.0130, 160568.0
311.2200, 160268.0
312.4260, 160994.0
313.6330, 160778.0
314.8390, 160638.0
316.0450, 161572.0
317.2510, 161499.0
318.4560, 162333.0
319.6620, 162112.0
320.8670, 162696.0
322.0720, 162494.0
323.2770, 163115.0
324.4820, 163342.0
325.6870, 163519.0
326.8910, 163818.4
328.0960, 163971.0
329.3000, 164094.0
330.5040, 164328.0
331.7080, 164382.0
332.9120, 164552.0
334.1160, 164669.0
335.3190, 164829.0
336.5230, 165071.0
337.7260, 164966.0
338.9290, 165305.7
340.1320, 165452.0
341.3340, 165800.0
342.5370, 165670.0
343.7400, 165868.0
344.9420, 165805.0
346.1440, 165628.0
347.3460, 165677.0
348.5480, 166717.0
349.7490, 166391.0
350.9510, 166187.0
352.1520, 167281.0
353.3540, 167197.0
354.5550, 167356.0
355.7560, 167649.0
356.9560, 168795.0
358.1570, 168563.0
359.3570, 168798.0
360.5580, 168618.0
361.7580, 169670.0
362.9580, 169855.0
364.1580, 169879.0
365.3580, 170399.0
366.5570, 170472.0
367.7560, 171257.0
368.9560, 171085.0
370.1550, 171740.0
371.3540, 171375.0
372.5530, 171977.0
373.7510, 171950.0
374.9500, 172739.0
376.1480, 173067.0
377.3460, 174100.0
378.5440, 173807.0
379.7420, 174686.0
380.9400, 175236.0
382.1370, 175171.0
383.3350, 175944.0
384.5320, 177288.0
385.7290, 178348.0
386.9260, 178124.0
388.1230, 179051.0
389.3200, 179690.0
390.5160, 180823.0
391.7120, 180864.0
392.9090, 181404.0
394.1050, 181746.0
395.3010, 181176.0
396.4960, 180689.0
397.6920, 180648.0
398.8870, 180663.0
400.0830, 180569.5
401.2780, 180970.0
402.4730, 181074.0
403.6670, 181043.0
404.8620, 182070.0
406.0570, 182624.0
407.2510, 183429.0
408.4450, 183257.0
409.6390, 184724.0
410.8330, 184991.0
412.0270, 185328.0
413.2200, 186182.0
414.4140, 185888.0
415.6070, 186823.0
416.8000, 187099.0
417.9930, 186384.0
419.1860, 185931.0
420.3790, 185305.0
421.5710, 185193.0
422.7640, 184721.0
423.9560, 184091.0
425.1480, 183724.0
426.3400, 184202.0
427.5320, 183935.0
428.7230, 183422.0
429.9150, 182958.0
431.1060, 183529.0
432.2970, 183056.0
433.4880, 183156.0
434.6790, 182640.0
435.8690, 183632.0
437.0600, 183273.0
438.2500, 184007.0
439.4410, 183997.0
440.6310, 184329.0
441.8210, 184216.0
443.0100, 184120.0
444.2000, 184151.0
445.3890, 184686.0
446.5790, 184774.5
447.7680, 185294.0
448.9570, 185422.0
450.1460, 185511.0
451.3340, 185811.0
452.5230, 185952.7
453.7110, 186045.0
454.8990, 186421.0
456.0870, 186722.0
457.2750, 187052.0
458.4630, 187325.0
459.6510, 187587.5
460.8380, 187805.7
462.0250, 188013.0
463.2130, 188158.0
464.4000, 188235.0
465.5860, 188349.0
466.7730, 188833.0
467.9600, 188929.0
469.1460, 188901.0
470.3320, 190154.0
471.5180, 189273.0
472.7040, 191076.0
473.8900, 190251.0
475.0760, 190984.0
476.2610, 190592.0
477.4460, 191219.0
478.6310, 191185.0
479.8160, 191437.6
481.0010, 191747.0
482.1860, 192030.0
483.3700, 192726.0
484.5550, 193038.0
485.7390, 193840.0
486.9230, 192804.0
488.1070, 193501.0
489.2910, 193758.0
490.4740, 194142.0
491.6580, 194942.0
492.8410, 195095.0
494.0240, 195204.0
495.2070, 195538.0
496.3900, 196139.0
497.5730, 196527.0
498.7550, 197220.0
499.9380, 197295.7
501.1200, 197762.0
502.3020, 197346.0
503.4840, 197703.0
504.6660, 197525.0
505.8470, 197800.0
507.0290, 198398.0
508.2100, 198428.0
509.3910, 198859.0
510.5720, 198912.0
511.7530, 199801.0
512.9330, 199791.0
514.1140, 200643.0
515.2940, 200327.0
516.4750, 201177.0
517.6550, 201327.0
518.8340, 201416.0
520.0140, 201596.0
521.1940, 201841.0
522.3730, 202585.0
523.5520, 202856.0
524.7320, 203217.0
525.9110, 203471.0
527.0890, 204004.0
528.2680, 203981.0
529.4470, 203973.0
530.6250, 204642.0
531.8030, 204788.0
532.9810, 205557.0
534.1590, 205624.0
535.3370, 206159.0
536.5140, 206092.0
537.6920, 207159.0
538.8690, 207936.0
540.0460, 208977.0
541.2230, 208835.0
542.4000, 209721.0
543.5770, 210036.0
544.7530, 209773.0
545.9290, 210684.0
547.1060, 210341.0
548.2820, 210252.0
549.4570, 210376.0
550.6330, 211222.0
551.8090, 211673.0
552.9840, 211538.0
554.1590, 212488.0
555.3340, 212046.0
556.5090, 212694.0
557.6840, 212901.0
558.8590, 213578.0
560.0330, 212823.0
561.2080, 213624.0
562.3820, 213604.0
563.5560, 214016.0
564.7300, 215559.0
565.9030, 215810.0
567.0770, 216782.0
568.2500, 217578.0
569.4240, 217489.0
570.5970, 218847.0
571.7700, 219334.0
572.9420, 219211.0
574.1150, 219176.0
575.2870, 219992.0
576.4600, 219690.0
577.6320, 219771.0
578.8040, 219143.0
579.9760, 219081.0
581.1470, 218645.0
582.3190, 218788.0
583.4900, 219089.0
584.6620, 218847.0
585.8330, 218885.0
587.0040, 218924.0
588.1740, 219097.0
589.3450, 218685.0
590.5150, 219237.0
591.6860, 218826.0
592.8560, 220158.0
594.0260, 220190.0
595.1960, 220726.0
596.3650, 221053.0
597.5350, 221745.0
598.7040, 221971.0
599.8730, 221835.0
601.0420, 222275.0
602.2110, 222486.0
603.3800, 222566.0
604.5490, 222847.0
605.7170, 223493.0
606.8850, 223806.0
608.0530, 224136.0
609.2210, 224597.0
610.3890, 224862.5
611.5570, 225199.4
612.7240, 225423.0
613.8920, 225757.0
615.0590, 225905.0
616.2260, 226112.0
617.3930, 226693.0
618.5590, 226467.0
619.7260, 226764.0
620.8920, 227971.0
622.0590, 227935.0
623.2250, 228379.0
624.3910, 228018.0
625.5560, 228317.0
626.7220, 229192.0
627.8870, 229261.0
629.0530, 229153.0
630.2180, 230021.0
631.3830, 230323.0
632.5480, 230085.0
633.7120, 230274.0
634.8770, 230467.0
636.0410, 231071.0
637.2060, 231813.0
638.3700, 232088.0
639.5340, 231644.0
640.6970, 233033.0
641.8610, 232508.0
643.0240, 233089.0
644.1880, 233688.0
645.3510, 233521.0
646.5140, 233731.0
647.6770, 234592.0
648.8390, 234404.0
650.0020, 234591.0
651.1640, 235681.0
652.3260, 235485.0
653.4880, 236008.0
654.6500, 236564.0
655.8120, 236706.0
656.9730, 237048.0
658.1350, 236616.0
659.2960, 237626.0
660.4570, 237688.0
661.6180, 237826.0
662.7790, 238737.0
663.9400, 239570.0
665.1000, 238883.0
666.2600, 240198.0
667.4210, 239556.0
668.5810, 240247.0
669.7400, 240336.0
670.9000, 240685.0
672.0600, 241592.0
673.2190, 241550.0
674.3780, 241621.0
675.5370, 242172.0
676.6960, 242465.0
677.8550, 243337.0
679.0140, 243442.0
680.1720, 243759.0
681.3300, 244238.0
682.4890, 244461.0
683.6460, 244271.0
684.8040, 244825.0
685.9620, 245207.9
687.1190, 245614.9
688.2770, 246431.0
689.4340, 245999.9
690.5910, 247318.9
691.7480, 248236.8
692.9050, 248775.4
694.0610, 247797.8
695.2180, 248777.9
696.3740, 248973.3
697.5300, 249136.5
698.6860, 250391.7
699.8420, 249634.6
700.9970, 250872.2
702.1530, 251313.7
703.3080, 252119.4
704.4630, 252135.8
705.6180, 251892.0
706.7730, 252535.0
707.9280, 252973.0
709.0820, 252999.0
710.2370, 253563.0
711.3910, 254422.0
712.5450, 254423.0
713.6990, 255673.0
714.8530, 255919.0
716.0060, 255486.0
717.1600, 256548.0
718.3130, 256854.0
719.4660, 256614.0
720.6190, 257910.0
721.7720, 257555.0
722.9250, 258015.0
724.0770, 258164.0
725.2290, 258653.0
726.3820, 259455.0
727.5340, 259389.0
728.6860, 259799.0
729.8370, 260714.0
730.9890, 261269.0
732.1400, 261019.0
733.2910, 261835.0
734.4430, 261525.0
735.5930, 262883.0
736.7440, 262586.0
737.8950, 263697.0
739.0450, 262993.0
740.1960, 264404.0
741.3460, 264313.0
742.4960, 264728.0
743.6460, 265651.0
744.7950, 265870.0
745.9450, 266466.0
747.0940, 267237.0
748.2430, 267808.0
749.3920, 267065.0
750.5410, 268538.0
751.6900, 267711.0
752.8390, 268171.0
753.9870, 269573.0
755.1350, 269678.0
756.2830, 270433.0
757.4310, 270478.0
758.5790, 271728.0
759.7270, 271331.0
760.8740, 271549.0
762.0220, 273211.0
763.1690, 273670.0
764.3160, 274118.0
765.4630, 274832.0
766.6090, 275428.0
767.7560, 275967.0
768.9020, 276681.0
770.0480, 277646.0
771.1940, 278305.0
772.3400, 280175.0
773.4860, 280048.0
774.6320, 282038.0
775.7770, 282627.0
776.9220, 283926.0
778.0680, 285028.0
779.2120, 286932.0
780.3570, 288691.0
781.5020, 290602.0
782.6460, 292026.0
783.7910, 294759.0
784.9350, 296884.0
786.0790, 298767.0
787.2230, 300213.0
788.3670, 303189.0
789.5100, 304716.0
790.6530, 308045.0
791.7970, 309473.0
792.9400, 311862.0
794.0830, 313646.0
795.2250, 314088.0
796.3680, 316167.0
797.5100, 316470.0
798.6530, 316714.0
799.7950, 316737.1
800.9370, 316321.0
802.0790, 314961.0
803.2200, 313761.0
804.3620, 311702.0
805.5030, 310720.0
806.6440, 309609.0
807.7850, 307689.0
808.9260, 307758.0
810.0670, 306490.0
811.2070, 306126.0
812.3480, 305373.0
813.4880, 305360.0
814.6280, 305670.1
815.7680, 306025.0
816.9080, 306716.0
818.0470, 307037.0
819.1870, 307254.0
820.3260, 306284.0
821.4650, 305814.0
822.6040, 305488.0
823.7430, 304479.0
824.8820, 303549.0
826.0200, 302918.0
827.1590, 303096.0
828.2970, 302229.0
829.4350, 301544.0
830.5730, 302057.0
831.7100, 300976.0
832.8480, 301155.0
833.9850, 300193.0
835.1230, 300826.0
836.2600, 299620.0
837.3970, 299656.0
838.5330, 300098.0
839.6700, 300604.0
840.8070, 299850.0
841.9430, 300565.0
843.0790, 301041.0
844.2150, 300485.0
845.3510, 300500.0
846.4860, 300818.2
847.6220, 301694.0
848.7570, 301532.0
849.8920, 301679.0
851.0270, 302283.0
852.1620, 300887.0
853.2970, 301973.0
854.4320, 302006.0
855.5660, 301032.0
856.7000, 301189.0
857.8340, 301445.0
858.9680, 302464.0
860.1020, 302168.0
861.2360, 302171.0
862.3690, 302612.0
863.5020, 302163.0
864.6360, 303686.0
865.7680, 302868.0
866.9010, 304299.0
868.0340, 304104.0
869.1660, 304269.0
870.2990, 304173.0
871.4310, 304565.0
872.5630, 305598.0
873.6950, 305065.0
874.8270, 306216.0
875.9580, 306389.0
877.0900, 307039.0
878.2210, 306910.0
879.3520, 308190.0
880.4830, 308217.0
881.6140, 308695.0
882.7440, 309400.0
883.8750, 308835.0
885.0050, 309964.0
886.1350, 310673.0
887.2650, 310672.0
888.3950, 312278.0
889.5240, 311634.0
890.6540, 314041.0
891.7830, 313099.0
892.9120, 314833.0
894.0410, 314797.0
895.1700, 315565.0
896.2990, 317424.0
897.4280, 316675.0
898.5560, 318820.0
899.6840, 318885.0
900.8120, 320488.0
901.9400, 322252.0
903.0680, 322845.0
904.1960, 325164.0
905.3230, 326497.0
906.4500, 330895.0
907.5770, 332767.0
908.7040, 337680.0
909.8310, 343375.0
910.9580, 349135.0
912.0840, 357424.0
913.2110, 366807.0
914.3370, 377098.0
915.4630, 387066.0
916.5890, 397110.0
917.7140, 403943.0
918.8400, 406810.0
919.9650, 407906.0
921.0900, 402355.0
922.2160, 395933.0
923.3400, 388110.0
924.4650, 379379.0
925.5900, 372030.0
926.7140, 365159.0
927.8380, 359694.0
928.9630, 354076.0
930.0860, 352054.0
931.2100, 349482.0
932.3340, 347424.0
933.4570, 345529.0
934.5810, 346923.0
935.7040, 347541.0
936.8270, 347382.0
937.9500, 349801.0
939.0720, 350864.0
940.1950, 353028.0
941.3170, 354396.0
942.4390, 355837.0
943.5620, 357023.0
944.6830, 356964.0
945.8050, 358815.0
946.9270, 357333.0
948.0480, 357261.0
949.1690, 356221.0
950.2900, 354600.0
951.4110, 353700.0
952.5320, 351076.0
953.6530, 350677.0
954.7730, 348498.0
955.8940, 347518.0
957.0140, 346993.0
958.1340, 344842.0
959.2530, 344365.0
960.3730, 343807.0
961.4930, 344216.0
962.6120, 342756.0
963.7310, 343220.0
964.8500, 342920.0
965.9690, 343509.0
967.0880, 343416.2
968.2060, 343980.0
969.3250, 343361.0
970.4430, 344236.0
971.5610, 344130.0
972.6790, 345128.0
973.7970, 344373.0
974.9140, 345708.0
976.0320, 345273.0
977.1490, 345627.0
978.2660, 345550.0
979.3830, 345919.0
980.5000, 346184.0
981.6170, 346232.0
982.7330, 346816.0
983.8490, 346987.0
984.9650, 347447.0
986.0810, 347341.0
987.1970, 347645.0
988.3130, 348167.0
989.4290, 347706.0
990.5440, 348574.0
991.6590, 349446.0
992.7740, 349405.0
993.8890, 348714.0
995.0040, 349400.0
996.1180, 349826.0
997.2330, 350022.0
998.3470, 350889.4
999.4610, 351637.0
1000.575, 352303.0
1001.689, 352998.0
1002.802, 353508.0
1003.916, 354137.1
1005.029, 354649.3
1006.142, 355343.0
1007.255, 355678.0
1008.368, 356437.0
1009.481, 357056.0
1010.593, 357210.0
1011.706, 357522.0
1012.818, 357855.5
1013.930, 357832.6
1015.042, 358232.0
1016.153, 357856.0
1017.265, 357684.0
1018.376, 357750.3
1019.488, 357557.0
1020.599, 357859.0
1021.710, 357820.0
1022.820, 357689.0
1023.931, 358632.0
1025.041, 357912.0
1026.152, 357336.0
1027.262, 358757.0
1028.372, 357906.0
1029.482, 358812.0
1030.591, 359198.0
1031.701, 358711.0
1032.810, 359921.0
1033.919, 360019.0
1035.028, 359601.0
1036.137, 360874.0
1037.246, 361468.0
1038.354, 362296.7
1039.462, 363245.5
1040.571, 364076.0
1041.679, 364827.0
1042.787, 364852.0
1043.894, 365299.0
1045.002, 366420.0
1046.109, 367125.0
1047.217, 366553.0
1048.324, 368270.0
1049.431, 368037.0
1050.537, 368889.0
1051.644, 369119.0
1052.750, 369208.0
1053.857, 370632.0
1054.963, 369753.0
1056.069, 371401.0
1057.175, 371233.0
1058.280, 371441.0
1059.386, 372682.0
1060.491, 373063.0
1061.596, 373344.0
1062.701, 373632.0
1063.806, 373504.0
1064.911, 373582.0
1066.015, 375531.0
1067.120, 375501.0
1068.224, 375831.0
1069.328, 376455.0
1070.432, 376397.0
1071.535, 377380.0
1072.639, 377712.0
1073.742, 377450.0
1074.846, 378076.0
1075.949, 377467.0
1077.052, 379519.0
1078.154, 379149.0
1079.257, 379907.0
1080.360, 380069.0
1081.462, 379697.0
1082.564, 380804.0
1083.666, 380390.0
1084.768, 380598.0
1085.869, 382078.0
1086.971, 381301.0
1088.072, 382176.0
1089.173, 383007.0
1090.274, 382899.0
1091.375, 383800.0
1092.476, 382663.1
1093.576, 383946.3
1094.677, 384828.9
1095.777, 385331.8
1096.877, 384318.8
1097.977, 385263.2
1099.077, 385423.2
1100.176, 385550.7
1101.276, 386770.5
1102.375, 385977.7
1103.474, 387179.8
1104.573, 387585.7
1105.672, 387496.6
1106.770, 388555.0
1107.869, 388398.0
1108.967, 389243.0
1110.065, 389796.0
1111.163, 390350.0
1112.261, 390157.0
1113.359, 390363.0
1114.456, 390791.0
1115.554, 390601.0
1116.651, 391279.6
1117.748, 391652.0
1118.845, 392494.0
1119.941, 392815.0
1121.038, 393622.0
1122.134, 393560.0
1123.230, 393852.0
1124.326, 395182.0
1125.422, 394961.0
1126.518, 395214.0
1127.614, 395847.0
1128.709, 395850.0
1129.804, 396683.0
1130.899, 397194.0
1131.994, 398078.0
1133.089, 398601.0
1134.184, 398022.0
1135.278, 398281.0
1136.372, 398483.0
1137.467, 399546.0
1138.561, 399183.0
1139.654, 400166.0
1140.748, 401798.0
1141.842, 400998.0
1142.935, 401158.0
1144.028, 402902.0
1145.121, 402794.0
1146.214, 403183.0
1147.307, 402784.0
1148.399, 403227.3
1149.491, 404244.0
1150.584, 403944.0
1151.676, 404699.0
1152.768, 405239.0
1153.859, 405597.0
1154.951, 406107.0
1156.042, 406131.0
1157.134, 406047.0
1158.225, 407226.0
1159.316, 406972.0
1160.406, 406792.0
1161.497, 408204.0
1162.587, 407910.0
1163.678, 409242.0
1164.768, 409506.0
1165.858, 410176.0
1166.948, 410145.0
1168.037, 410666.0
1169.127, 410507.0
1170.216, 411060.0
1171.305, 411179.0
1172.394, 411584.0
1173.483, 412645.0
1174.572, 413312.0
1175.660, 412432.0
1176.749, 413935.0
1177.837, 413791.0
1178.925, 413927.0
1180.013, 415164.0
1181.100, 414563.0
1182.188, 415099.0
1183.275, 415975.0
1184.363, 416634.0
1185.450, 417675.0
1186.537, 417323.0
1187.623, 417156.0
1188.710, 418157.0
1189.796, 419274.0
1190.883, 419746.0
1191.969, 418819.0
1193.055, 419761.0
1194.140, 419959.0
1195.226, 421271.0
1196.312, 421157.0
1197.397, 421317.0
1198.482, 421103.0
1199.567, 421676.3
1200.652, 422714.0
1201.736, 423109.7
1202.821, 423390.0
1203.905, 424673.0
1204.989, 424473.0
1206.074, 425355.8
1207.157, 425037.0
1208.241, 426562.0
1209.325, 426276.0
1210.408, 426740.0
1211.491, 426675.0
1212.574, 426931.0
1213.657, 427566.0
1214.740, 428744.0
1215.822, 429048.0
1216.905, 429508.0
1217.987, 429257.0
1219.069, 430338.0
1220.151, 430549.0
1221.233, 431000.0
1222.315, 431326.0
1223.396, 431419.0
1224.477, 432441.0
1225.558, 432994.0
1226.639, 433822.0
1227.720, 433872.0
1228.801, 433663.0
1229.881, 435062.0
1230.962, 434042.0
1232.042, 435987.0
1233.122, 436215.0
1234.202, 436189.0
1235.281, 436770.0
1236.361, 436528.0
1237.440, 437066.0
1238.519, 438462.0
1239.599, 437299.0
1240.677, 438503.0
1241.756, 438690.0
1242.835, 440656.0
1243.913, 439529.0
1244.991, 441570.0
1246.069, 440896.0
1247.147, 441336.0
1248.225, 443295.0
1249.303, 442187.0
1250.380, 443652.0
1251.457, 444049.0
1252.534, 444338.0
1253.611, 445288.0
1254.688, 445148.0
1255.765, 445780.0
1256.841, 447254.0
1257.918, 445792.0
1258.994, 447026.0
1260.070, 446829.0
1261.146, 448375.0
1262.221, 448761.0
1263.297, 448559.0
1264.372, 449268.0
1265.447, 450193.0
1266.522, 450470.0
1267.597, 450946.0
1268.672, 451493.0
1269.746, 451157.0
1270.821, 451479.0
1271.895, 451759.0
1272.969, 452177.0
1274.043, 452888.0
1275.117, 452067.0
1276.190, 452913.0
1277.263, 454505.0
1278.337, 453864.0
1279.410, 454994.0
1280.483, 455140.0
1281.556, 455078.0
1282.628, 456793.0
1283.701, 456884.0
1284.773, 456635.0
1285.845, 456924.0
1286.917, 458135.0
1287.989, 457786.0
1289.060, 458749.0
1290.132, 458765.0
1291.203, 459820.0
1292.274, 459018.0
1293.345, 459802.0
1294.416, 459878.0
1295.487, 461626.0
1296.557, 461485.0
1297.628, 462690.0
1298.698, 461914.0
1299.768, 462060.0
1300.838, 463634.0
1301.907, 463706.0
1302.977, 464890.0
1304.046, 464853.0
1305.115, 465451.0
1306.185, 465780.0
1307.253, 466101.0
1308.322, 466750.0
1309.391, 466588.0
1310.459, 467310.0
1311.527, 467876.0
1312.595, 467230.0
1313.663, 469054.0
1314.731, 469037.0
1315.799, 469458.0
1316.866, 469580.0
1317.933, 470157.0
1319.001, 471182.0
1320.068, 470980.0
1321.134, 470928.0
1322.201, 472626.0
1323.267, 472300.0
1324.334, 472635.0
1325.400, 473813.0
1326.466, 473542.0
1327.532, 474663.0
1328.597, 475397.0
1329.663, 475762.0
1330.728, 476250.0
1331.793, 476749.0
1332.858, 477131.0
1333.923, 477176.0
1334.988, 478324.0
1336.053, 478148.0
1337.117, 478800.0
1338.181, 479444.0
1339.245, 479539.4
1340.309, 479917.0
1341.373, 480101.0
1342.436, 480609.0
1343.500, 480833.0
1344.563, 481522.0
1345.626, 482274.0
1346.689, 481672.0
1347.752, 483054.0
1348.814, 482569.0
1349.877, 483756.0
1350.939, 483627.0
1352.001, 483889.0
1353.063, 485023.0
1354.125, 485047.0
1355.187, 485352.0
1356.248, 486175.0
1357.309, 485942.0
1358.371, 486814.0
1359.432, 484757.7
1360.492, 486144.5
1361.553, 487130.9
1362.614, 487737.8
1363.674, 486828.5
1364.734, 487876.6
1365.794, 488140.2
1366.854, 488371.7
1367.914, 489695.2
1368.973, 489005.9
1370.033, 490312.1
1371.092, 490821.5
1372.151, 491695.3
1373.210, 491779.9
1374.268, 492107.8
1375.327, 493225.7
1376.385, 493906.0
1377.444, 493358.0
1378.502, 494102.0
1379.560, 495429.0
1380.617, 494649.0
1381.675, 495802.0
1382.732, 495247.0
1383.790, 494390.0
1384.847, 497068.0
1385.904, 495911.0
1386.960, 498922.0
1388.017, 496986.0
1389.074, 497501.0
1390.130, 499312.0
1391.186, 498522.0
1392.242, 498684.0
1393.298, 499584.0
1394.353, 499501.0
1395.409, 501266.0
1396.464, 500178.0
1397.519, 501462.0
1398.574, 501391.0
1399.629, 502358.0
1400.684, 501859.0
1401.738, 502015.0
1402.793, 503359.0
1403.847, 502059.0
1404.901, 503321.0
1405.955, 504070.0
1407.009, 504480.0
1408.062, 505776.0
1409.116, 504285.0
1410.169, 504602.0
1411.222, 505685.0
1412.275, 506080.0
1413.327, 507230.0
1414.380, 507599.0
1415.432, 506488.0
1416.485, 508154.0
1417.537, 507805.0
1418.589, 508403.0
1419.641, 510002.0
1420.692, 509378.0
1421.744, 510256.0
1422.795, 509478.0
1423.846, 511541.0
1424.897, 510969.0
1425.948, 510832.0
1426.998, 512726.0
1428.049, 510976.0
1429.099, 513428.0
1430.149, 512979.0
1431.199, 513491.0
1432.249, 514910.0
1433.299, 514320.0
1434.348, 515658.0
1435.398, 513931.0
1436.447, 515097.0
1437.496, 515737.0
1438.545, 515640.0
1439.593, 516931.0
1440.642, 516234.0
1441.690, 517396.0
1442.738, 518059.0
1443.787, 518007.0
1444.834, 519426.0
1445.882, 519491.0
1446.930, 519669.0
1447.977, 520014.0
1449.024, 520251.0
1450.071, 520748.2
1451.118, 521072.0
1452.165, 521712.0
1453.212, 522432.0
1454.258, 522713.0
1455.304, 522444.0
1456.350, 522350.0
1457.396, 522828.0
1458.442, 524108.0
1459.488, 524604.0
1460.533, 524308.0
1461.579, 524387.0
1462.624, 523746.0
1463.669, 525826.0
1464.713, 525466.0
1465.758, 526547.0
1466.803, 525914.0
1467.847, 526940.0
1468.891, 528306.0
1469.935, 528095.0
1470.979, 530113.0
1472.023, 529119.0
1473.066, 530045.0
1474.109, 530081.0
1475.153, 529770.0
1476.196, 531421.0
1477.238, 530959.0
1478.281, 532386.0
1479.324, 533687.0
1480.366, 531426.0
1481.408, 533312.0
1482.450, 533425.0
1483.492, 533776.0
1484.534, 535278.0
1485.576, 534143.0
1486.617, 535337.0
1487.658, 535718.0
1488.699, 535664.0
1489.740, 536566.0
1490.781, 536613.0
1491.822, 537714.0
1492.862, 538349.0
1493.902, 537062.0
1494.942, 539281.0
1495.982, 537820.0
1497.022, 539919.0
1498.062, 540676.0
1499.101, 540627.0
1500.140, 540844.0
1501.180, 540890.0
1502.219, 541055.0
1503.257, 542169.0
1504.296, 542141.0
1505.334, 542881.0
1506.373, 542301.0
1507.411, 543011.0
1508.449, 542439.0
1509.487, 544021.0
1510.524, 545138.0
1511.562, 544587.0
1512.599, 544216.0
1513.637, 545344.0
1514.674, 545904.0
1515.710, 548203.0
1516.747, 547456.0
1517.784, 548590.0
1518.820, 548708.0
1519.856, 547668.0
1520.892, 550796.0
1521.928, 549016.0
1522.964, 549872.0
1523.999, 551117.0
1525.035, 551292.0
1526.070, 551888.0
1527.105, 552011.0
1528.140, 551856.0
1529.175, 552594.0
1530.209, 552382.0
1531.244, 553637.0
1532.278, 553555.0
1533.312, 554506.0
1534.346, 555778.0
1535.380, 553818.0
1536.414, 555907.0
1537.447, 555272.0
1538.480, 556812.0
1539.513, 556226.0
1540.546, 556337.0
1541.579, 557599.0
1542.612, 557196.0
1543.644, 557802.0
1544.677, 559058.0
1545.709, 558862.0
1546.741, 560181.0
1547.773, 560553.0
1548.804, 561119.0
1549.836, 561560.0
1550.867, 561260.0
1551.898, 562409.0
1552.929, 562225.0
1553.960, 561609.0
1554.991, 564029.0
1556.021, 563288.0
1557.052, 564648.0
1558.082, 565071.0
1559.112, 564145.0
1560.142, 565502.0
1561.172, 564713.0
1562.201, 565587.0
1563.231, 567333.0
1564.260, 566308.0
1565.289, 568329.0
1566.318, 567959.0
1567.347, 567938.0
1568.375, 568939.0
1569.404, 568822.0
1570.432, 570616.0
1571.460, 571274.0
1572.488, 571165.0
1573.516, 570829.0
1574.543, 570103.0
1575.571, 571742.0
1576.598, 572379.0
1577.625, 572532.0
1578.652, 578136.0
##END=



