##NAMES=Sodalite
##RRUFFID=R060436
##IDEAL CHEMISTRY=Na_4_Si_3_Al_3_O_12_Cl
##LOCALITY=Koksha Valley, Budakshan Province, Afghanistan
##OWNER=RRUFF
##SOURCE=Herb Obodda
##DESCRIPTION=Pale blue fragment
##STATUS=The identification of this mineral has been confirmed by X-ray diffraction and chemical analysis
##URL=rruff.info/R060436
##MEASURED CHEMISTRY=(Na_0.99_K_0.01_)_8_Al_6.00_Si_6.00_O_24_Cl_2.00_
##PIN_ID=L01849
##ORIENTATION=Laser parallel to -a* (-1 0 0). Fiducial mark perpendicular to laser is parallel to c [0 0 1]
74.71800, 201961.0
75.95700, 203379.0
77.19600, 202533.0
78.43500, 203227.0
79.67300, 203271.0
80.91200, 203989.0
82.15000, 204644.0
83.38800, 204956.0
84.62600, 205802.0
85.86300, 204822.0
87.10100, 205501.0
88.33800, 205220.0
89.57500, 205934.0
90.81200, 206784.0
92.04900, 205606.0
93.28600, 206317.0
94.52300, 206270.0
95.75900, 206669.0
96.99500, 207823.0
98.23100, 207351.0
99.46700, 208461.0
100.7030, 208961.0
101.9390, 209867.0
103.1740, 210545.0
104.4090, 210975.0
105.6440, 210739.0
106.8790, 211841.0
108.1140, 213215.0
109.3490, 213877.0
110.5830, 215578.0
111.8180, 217624.0
113.0520, 218029.0
114.2860, 218162.0
115.5200, 217273.0
116.7530, 216560.0
117.9870, 216059.0
119.2200, 214785.0
120.4530, 214091.0
121.6860, 214434.0
122.9190, 214763.0
124.1520, 214946.0
125.3850, 215042.0
126.6170, 215684.0
127.8490, 216439.0
129.0810, 216002.0
130.3130, 217581.0
131.5450, 218124.0
132.7770, 218092.0
134.0080, 218318.0
135.2390, 218853.0
136.4710, 219377.0
137.7020, 219557.0
138.9320, 220569.0
140.1630, 220533.0
141.3930, 221036.0
142.6240, 220187.0
143.8540, 221645.0
145.0840, 221530.0
146.3140, 222737.0
147.5440, 223209.0
148.7730, 224060.0
150.0020, 224571.8
151.2320, 224610.0
152.4610, 225664.0
153.6900, 226326.0
154.9180, 227467.0
156.1470, 228416.0
157.3750, 230129.0
158.6040, 231784.0
159.8320, 234345.0
161.0600, 235886.0
162.2870, 238741.0
163.5150, 240489.0
164.7420, 242231.0
165.9700, 242795.0
167.1970, 243823.0
168.4240, 242411.0
169.6510, 240303.0
170.8770, 238923.0
172.1040, 237703.0
173.3300, 237307.0
174.5560, 235549.0
175.7820, 235239.0
177.0080, 234444.0
178.2340, 234927.0
179.4590, 234760.0
180.6850, 235473.0
181.9100, 234863.0
183.1350, 234867.0
184.3600, 234472.0
185.5850, 234929.0
186.8090, 234967.0
188.0340, 235028.0
189.2580, 234962.0
190.4820, 235164.0
191.7060, 235291.0
192.9300, 235958.0
194.1530, 236226.0
195.3770, 236564.0
196.6000, 236755.0
197.8230, 237537.0
199.0460, 238293.0
200.2690, 239185.0
201.4910, 239062.0
202.7140, 238683.0
203.9360, 238912.0
205.1580, 240266.0
206.3800, 239682.0
207.6020, 240337.0
208.8240, 240813.0
210.0450, 241037.0
211.2670, 241330.0
212.4880, 241828.0
213.7090, 242275.0
214.9300, 242575.0
216.1510, 242961.0
217.3710, 243479.0
218.5920, 244179.0
219.8120, 244580.0
221.0320, 245055.0
222.2520, 245487.2
223.4720, 246128.0
224.6910, 246363.0
225.9110, 246675.0
227.1300, 247425.0
228.3490, 247737.0
229.5680, 249447.0
230.7870, 249583.0
232.0050, 249705.0
233.2240, 251018.0
234.4420, 251104.0
235.6600, 252629.0
236.8780, 252353.0
238.0960, 253062.0
239.3140, 253244.0
240.5310, 253803.0
241.7490, 254512.0
242.9660, 254789.0
244.1830, 256229.0
245.4000, 257481.0
246.6160, 259139.0
247.8330, 260095.0
249.0490, 261299.0
250.2660, 262833.0
251.4820, 264473.8
252.6980, 266134.0
253.9130, 268587.0
255.1290, 271202.0
256.3440, 273985.0
257.5600, 275468.0
258.7750, 278909.0
259.9900, 281088.0
261.2040, 283309.0
262.4190, 284789.0
263.6330, 285149.0
264.8480, 285000.0
266.0620, 284392.0
267.2760, 283767.0
268.4900, 280583.0
269.7030, 279094.0
270.9170, 276722.0
272.1300, 275353.0
273.3430, 273423.0
274.5560, 272899.0
275.7690, 271206.0
276.9820, 270297.0
278.1940, 270140.0
279.4070, 269819.0
280.6190, 270265.0
281.8310, 268897.0
283.0430, 268859.0
284.2550, 269662.0
285.4660, 269945.0
286.6770, 270644.0
287.8890, 271527.0
289.1000, 271530.0
290.3110, 272693.0
291.5210, 275090.0
292.7320, 275997.0
293.9420, 277036.0
295.1530, 278049.0
296.3630, 278392.0
297.5730, 278013.0
298.7830, 276103.0
299.9920, 275000.0
301.2020, 273700.0
302.4110, 272373.0
303.6200, 271848.0
304.8290, 271831.0
306.0380, 270948.0
307.2470, 271767.0
308.4550, 270847.0
309.6630, 271811.0
310.8720, 271346.0
312.0800, 271859.0
313.2880, 272282.0
314.4950, 272031.0
315.7030, 272726.0
316.9100, 272907.0
318.1170, 273205.0
319.3240, 273138.0
320.5310, 273563.7
321.7380, 273741.6
322.9450, 274183.0
324.1510, 274428.0
325.3570, 274574.0
326.5630, 275222.0
327.7690, 275481.1
328.9750, 276023.0
330.1810, 276241.0
331.3860, 276604.0
332.5910, 276780.0
333.7960, 277173.0
335.0010, 277439.1
336.2060, 277746.7
337.4110, 278158.0
338.6150, 278428.0
339.8200, 279059.0
341.0240, 279504.0
342.2280, 278467.0
343.4320, 280305.0
344.6350, 280232.0
345.8390, 279880.0
347.0420, 281024.0
348.2450, 280746.0
349.4480, 281171.0
350.6510, 281869.0
351.8540, 282154.2
353.0560, 282562.0
354.2590, 283323.0
355.4610, 283587.0
356.6630, 284063.0
357.8650, 284738.0
359.0670, 284397.0
360.2680, 285672.0
361.4700, 286386.0
362.6710, 285699.0
363.8720, 286230.0
365.0730, 286586.0
366.2740, 287081.0
367.4740, 287222.0
368.6750, 287591.0
369.8750, 288523.0
371.0750, 288626.0
372.2750, 289062.5
373.4750, 289815.0
374.6740, 289475.0
375.8740, 289535.0
377.0730, 289517.0
378.2720, 291118.0
379.4710, 290629.0
380.6700, 291472.0
381.8690, 291305.0
383.0670, 292195.0
384.2660, 291909.0
385.4640, 292547.0
386.6620, 293374.0
387.8600, 293426.0
389.0570, 293269.0
390.2550, 293787.0
391.4520, 293911.0
392.6490, 295767.0
393.8460, 294623.0
395.0430, 295237.0
396.2400, 296382.0
397.4370, 296130.0
398.6330, 296640.0
399.8290, 297075.0
401.0250, 297472.0
402.2210, 298239.0
403.4170, 299193.0
404.6130, 299312.0
405.8080, 300749.0
407.0030, 301161.0
408.1980, 302019.0
409.3930, 302045.0
410.5880, 302096.0
411.7830, 302607.0
412.9770, 302942.0
414.1720, 303121.0
415.3660, 303486.0
416.5600, 303545.0
417.7530, 304320.0
418.9470, 304458.0
420.1410, 304989.0
421.3340, 305963.0
422.5270, 307034.0
423.7200, 305883.0
424.9130, 307401.0
426.1060, 307893.0
427.2980, 307621.0
428.4900, 308727.0
429.6830, 308906.0
430.8750, 309392.0
432.0670, 310274.0
433.2580, 310588.0
434.4500, 311518.0
435.6410, 312036.0
436.8320, 312985.9
438.0240, 315210.0
439.2140, 315361.0
440.4050, 316598.0
441.5960, 318585.0
442.7860, 319108.0
443.9760, 321933.0
445.1670, 324815.0
446.3560, 326946.0
447.5460, 330357.0
448.7360, 333568.0
449.9250, 337602.0
451.1150, 341990.0
452.3040, 346879.0
453.4930, 355425.0
454.6810, 364658.0
455.8700, 374662.0
457.0590, 389454.0
458.2470, 405382.0
459.4350, 423798.0
460.6230, 443260.0
461.8110, 460447.0
462.9980, 471696.0
464.1860, 475155.0
465.3730, 466108.0
466.5600, 450071.0
467.7470, 430403.0
468.9340, 410404.0
470.1210, 393239.0
471.3080, 379081.0
472.4940, 367566.0
473.6800, 358902.0
474.8660, 353434.0
476.0520, 347415.0
477.2380, 344338.0
478.4230, 341772.0
479.6090, 339727.0
480.7940, 337919.0
481.9790, 336224.0
483.1640, 336028.0
484.3490, 335550.0
485.5330, 334621.0
486.7180, 335159.0
487.9020, 333284.0
489.0860, 333859.0
490.2700, 333390.0
491.4540, 332517.0
492.6370, 332616.0
493.8210, 331717.0
495.0040, 331786.0
496.1870, 331493.0
497.3700, 331353.0
498.5530, 331336.0
499.7360, 330554.0
500.9180, 330513.0
502.1000, 330360.2
503.2830, 329844.0
504.4650, 330153.0
505.6460, 330536.0
506.8280, 330256.0
508.0100, 330263.0
509.1910, 329868.0
510.3720, 331141.0
511.5530, 330587.0
512.7340, 331461.0
513.9150, 332533.0
515.0950, 331717.0
516.2760, 331201.0
517.4560, 331478.0
518.6360, 332296.0
519.8160, 332573.0
520.9950, 332328.0
522.1750, 332905.0
523.3540, 332761.0
524.5340, 333423.0
525.7130, 333768.0
526.8920, 334569.0
528.0700, 334767.1
529.2490, 334582.0
530.4270, 335130.0
531.6060, 334930.0
532.7840, 334812.0
533.9620, 334951.0
535.1390, 335234.0
536.3170, 336033.0
537.4940, 336204.0
538.6720, 336586.0
539.8490, 337194.0
541.0260, 337114.0
542.2030, 336798.0
543.3790, 337853.0
544.5560, 337228.0
545.7320, 338054.0
546.9080, 337182.0
548.0840, 338224.0
549.2600, 338786.0
550.4360, 338943.0
551.6110, 338726.0
552.7860, 340027.0
553.9620, 339942.0
555.1370, 341063.0
556.3110, 340045.0
557.4860, 340111.0
558.6610, 340018.0
559.8350, 340686.0
561.0090, 341488.0
562.1830, 341197.0
563.3570, 341818.0
564.5310, 342065.0
565.7040, 342783.0
566.8780, 341968.0
568.0510, 342397.0
569.2240, 342833.0
570.3970, 343025.0
571.5700, 343399.0
572.7420, 343513.0
573.9150, 343900.0
575.0870, 344591.0
576.2590, 343858.0
577.4310, 344770.0
578.6030, 344746.0
579.7740, 344943.0
580.9460, 345119.0
582.1170, 346236.0
583.2880, 345776.0
584.4590, 346946.0
585.6300, 346237.0
586.8010, 346704.0
587.9710, 347459.0
589.1410, 347770.0
590.3110, 348111.0
591.4810, 347702.0
592.6510, 349160.0
593.8210, 348328.0
594.9900, 349115.0
596.1600, 349065.0
597.3290, 349506.0
598.4980, 349960.0
599.6670, 350055.0
600.8350, 350449.0
602.0040, 350477.0
603.1720, 350583.0
604.3400, 351259.0
605.5080, 351765.0
606.6760, 352042.0
607.8440, 352191.0
609.0120, 351929.0
610.1790, 351886.0
611.3460, 352868.0
612.5130, 352341.0
613.6800, 352558.0
614.8470, 352525.0
616.0130, 352453.0
617.1800, 352566.0
618.3460, 353544.0
619.5120, 353376.0
620.6780, 353888.0
621.8440, 354025.0
623.0090, 354623.0
624.1750, 354946.0
625.3400, 353699.0
626.5050, 354899.0
627.6700, 355386.0
628.8350, 354539.0
629.9990, 355647.0
631.1640, 356314.0
632.3280, 356343.0
633.4920, 357426.0
634.6560, 357532.0
635.8200, 357434.0
636.9840, 358104.0
638.1470, 358247.0
639.3100, 357883.0
640.4730, 358346.0
641.6360, 358808.0
642.7990, 359056.0
643.9620, 359348.0
645.1240, 359506.2
646.2870, 359497.0
647.4490, 359734.0
648.6110, 359313.0
649.7730, 359478.0
650.9340, 360143.0
652.0960, 359629.0
653.2570, 360007.1
654.4180, 360411.0
655.5790, 360163.0
656.7400, 360520.0
657.9010, 360646.0
659.0620, 361517.0
660.2220, 361483.0
661.3820, 361503.0
662.5420, 361364.0
663.7020, 362287.0
664.8620, 362804.0
666.0210, 363519.0
667.1810, 363189.0
668.3400, 364176.0
669.4990, 363975.0
670.6580, 363854.0
671.8170, 364086.0
672.9750, 364353.0
674.1340, 363140.0
675.2920, 364322.0
676.4500, 364738.0
677.6080, 363316.0
678.7660, 365012.0
679.9230, 365172.0
681.0810, 364634.0
682.2380, 365222.0
683.3950, 365682.0
684.5520, 365143.0
685.7090, 365483.0
686.8660, 365748.0
688.0220, 365657.0
689.1780, 366268.8
690.3340, 366293.5
691.4900, 367255.0
692.6460, 367031.0
693.8020, 367437.0
694.9570, 368629.0
696.1130, 368165.0
697.2680, 368476.0
698.4230, 368642.0
699.5780, 368640.0
700.7320, 368957.0
701.8870, 368626.0
703.0410, 369608.0
704.1950, 369135.0
705.3490, 370351.0
706.5030, 369899.0
707.6570, 369961.0
708.8110, 371271.0
709.9640, 370363.0
711.1170, 371001.0
712.2700, 370777.0
713.4230, 370901.0
714.5760, 370457.0
715.7280, 369497.0
716.8810, 368458.0
718.0330, 367743.0
719.1850, 367414.0
720.3370, 366979.8
721.4890, 366521.0
722.6400, 367109.0
723.7920, 367286.0
724.9430, 368287.0
726.0940, 369295.0
727.2450, 370413.0
728.3960, 371675.0
729.5460, 373182.0
730.6970, 373907.0
731.8470, 374658.8
732.9970, 374234.0
734.1470, 375465.0
735.2970, 375097.0
736.4460, 375236.0
737.5960, 376053.0
738.7450, 376373.0
739.8940, 377025.0
741.0430, 377395.0
742.1920, 377678.0
743.3410, 378349.0
744.4890, 378538.8
745.6370, 378634.0
746.7850, 379056.0
747.9330, 379338.0
749.0810, 379449.0
750.2290, 379951.0
751.3760, 379126.0
752.5240, 379667.0
753.6710, 379654.0
754.8180, 380716.0
755.9650, 380386.0
757.1110, 380154.0
758.2580, 379760.0
759.4040, 379863.0
760.5510, 381042.0
761.6970, 380432.0
762.8420, 381435.0
763.9880, 380413.0
765.1340, 381820.0
766.2790, 381831.0
767.4240, 381154.0
768.5690, 380602.0
769.7140, 381680.0
770.8590, 381755.0
772.0030, 380795.0
773.1480, 381478.0
774.2920, 382130.0
775.4360, 381971.0
776.5800, 381414.0
777.7240, 381191.0
778.8670, 381942.0
780.0110, 381465.0
781.1540, 382714.0
782.2970, 381556.0
783.4400, 382594.0
784.5830, 382276.0
785.7250, 382328.0
786.8680, 383071.0
788.0100, 382869.0
789.1520, 382155.0
790.2940, 384147.0
791.4360, 383357.0
792.5780, 382930.0
793.7190, 382028.0
794.8600, 382804.0
796.0010, 383708.0
797.1420, 383564.0
798.2830, 383405.0
799.4240, 383444.0
800.5640, 384015.0
801.7050, 383781.4
802.8450, 384005.0
803.9850, 384153.0
805.1250, 384213.0
806.2640, 385222.0
807.4040, 385202.0
808.5430, 386255.0
809.6820, 387175.0
810.8210, 386438.0
811.9600, 386187.0
813.0990, 387413.0
814.2370, 386717.0
815.3760, 387167.0
816.5140, 388419.0
817.6520, 387389.0
818.7900, 388107.0
819.9270, 388721.0
821.0650, 387905.0
822.2020, 387461.0
823.3390, 388409.0
824.4760, 388403.0
825.6130, 387814.0
826.7500, 388928.0
827.8870, 389227.0
829.0230, 388822.0
830.1590, 389249.0
831.2950, 389417.0
832.4310, 389101.0
833.5670, 390300.0
834.7030, 390548.0
835.8380, 390394.0
836.9730, 390584.0
838.1080, 390791.0
839.2430, 391399.0
840.3780, 390788.0
841.5130, 392228.0
842.6470, 390397.0
843.7810, 390883.0
844.9150, 391688.0
846.0490, 391031.0
847.1830, 391976.0
848.3170, 392021.0
849.4500, 392168.0
850.5830, 391654.0
851.7160, 392467.0
852.8490, 391917.0
853.9820, 392522.0
855.1150, 393701.0
856.2470, 392454.0
857.3800, 393468.0
858.5120, 393277.0
859.6440, 393496.0
860.7760, 393321.0
861.9070, 393317.0
863.0390, 394095.0
864.1700, 393320.0
865.3010, 394166.0
866.4320, 394117.0
867.5630, 393844.0
868.6940, 393874.0
869.8240, 394773.0
870.9540, 395301.0
872.0850, 394671.0
873.2150, 394811.0
874.3450, 394352.0
875.4740, 395105.0
876.6040, 394635.0
877.7330, 395652.0
878.8620, 394963.0
879.9910, 394717.0
881.1200, 395736.0
882.2490, 395541.0
883.3770, 394642.0
884.5060, 395401.0
885.6340, 395478.0
886.7620, 395791.0
887.8900, 395931.0
889.0180, 395631.0
890.1450, 395976.0
891.2730, 395331.0
892.4000, 395832.0
893.5270, 395699.0
894.6540, 395923.0
895.7810, 395026.0
896.9070, 394910.0
898.0340, 396011.0
899.1600, 395286.0
900.2860, 395953.0
901.4120, 396117.0
902.5380, 396793.0
903.6630, 396283.0
904.7890, 397053.0
905.9140, 397026.0
907.0390, 397350.0
908.1640, 396928.0
909.2890, 397358.0
910.4130, 397287.0
911.5380, 397642.0
912.6620, 397990.0
913.7860, 397527.0
914.9100, 398194.0
916.0340, 398490.0
917.1580, 398619.0
918.2810, 399145.0
919.4040, 398094.0
920.5280, 399664.0
921.6510, 399183.0
922.7730, 398628.0
923.8960, 399677.0
925.0180, 398773.0
926.1410, 400231.0
927.2630, 398960.0
928.3850, 398671.0
929.5070, 400219.0
930.6280, 400382.0
931.7500, 399700.0
932.8710, 400305.0
933.9920, 399783.0
935.1130, 399618.0
936.2340, 399993.0
937.3550, 399973.0
938.4760, 400369.0
939.5960, 399951.0
940.7160, 400380.0
941.8360, 400895.0
942.9560, 399617.0
944.0760, 400697.0
945.1950, 400484.0
946.3150, 401319.0
947.4340, 401641.0
948.5530, 400170.0
949.6720, 401537.0
950.7900, 400211.0
951.9090, 400292.0
953.0270, 401027.0
954.1460, 400514.0
955.2640, 400859.0
956.3820, 400884.0
957.4990, 401403.0
958.6170, 401960.0
959.7340, 401782.0
960.8520, 401844.0
961.9690, 402175.0
963.0860, 403229.0
964.2020, 402252.0
965.3190, 402454.0
966.4350, 402554.0
967.5520, 404127.0
968.6680, 403406.0
969.7840, 404242.0
970.8990, 405516.0
972.0150, 404551.0
973.1310, 406361.0
974.2460, 405945.0
975.3610, 407409.0
976.4760, 409130.0
977.5910, 410699.0
978.7050, 412197.0
979.8200, 416374.0
980.9340, 420115.0
982.0480, 424955.0
983.1620, 431000.0
984.2760, 438848.0
985.3900, 444582.0
986.5030, 449440.0
987.6160, 447195.0
988.7300, 443869.0
989.8430, 435907.0
990.9550, 429385.0
992.0680, 422982.0
993.1810, 418616.0
994.2930, 415592.0
995.4050, 412607.0
996.5170, 410776.0
997.6290, 409476.0
998.7410, 407975.0
999.8520, 406570.0
1000.964, 406842.0
1002.075, 407333.0
1003.186, 405816.0
1004.297, 406235.0
1005.407, 406595.0
1006.518, 406013.0
1007.628, 405897.0
1008.738, 405505.0
1009.848, 405666.0
1010.958, 405344.0
1012.068, 405867.0
1013.178, 406422.0
1014.287, 405158.0
1015.396, 405200.0
1016.505, 404323.0
1017.614, 404280.0
1018.723, 404123.0
1019.831, 404056.0
1020.940, 403833.0
1022.048, 403432.0
1023.156, 403385.0
1024.264, 402165.0
1025.372, 403396.0
1026.479, 402193.0
1027.587, 402830.0
1028.694, 401684.0
1029.801, 401649.0
1030.908, 402861.0
1032.015, 402102.0
1033.121, 401960.0
1034.228, 402095.0
1035.334, 401944.0
1036.440, 404094.0
1037.546, 403862.0
1038.652, 404054.0
1039.758, 403708.0
1040.863, 404704.0
1041.968, 404445.0
1043.074, 404088.0
1044.178, 404825.0
1045.283, 404099.0
1046.388, 403774.0
1047.492, 403824.0
1048.597, 405219.0
1049.701, 405197.0
1050.805, 405943.0
1051.909, 405759.0
1053.012, 406733.0
1054.116, 407134.0
1055.219, 408546.0
1056.322, 409264.0
1057.425, 410899.0
1058.528, 411392.0
1059.631, 412509.0
1060.733, 413124.0
1061.836, 413838.0
1062.938, 414945.0
1064.040, 416136.0
1065.142, 416910.0
1066.243, 416114.0
1067.345, 416648.0
1068.446, 414512.0
1069.547, 413664.0
1070.648, 413108.0
1071.749, 411098.0
1072.850, 409579.0
1073.951, 409474.0
1075.051, 407416.0
1076.151, 407411.0
1077.251, 406520.0
1078.351, 406246.0
1079.451, 405795.0
1080.550, 406521.0
1081.650, 404897.0
1082.749, 405649.0
1083.848, 404688.0
1084.947, 404554.0
1086.046, 404343.0
1087.144, 404217.0
1088.243, 403887.0
1089.341, 403794.0
1090.439, 402964.0
1091.537, 403824.0
1092.635, 404070.0
1093.732, 403988.0
1094.830, 403438.0
1095.927, 403457.0
1097.024, 403567.0
1098.121, 403471.0
1099.218, 403306.0
1100.314, 403437.0
1101.411, 403194.0
1102.507, 404006.0
1103.603, 403982.0
1104.699, 403365.0
1105.795, 404342.0
1106.890, 404801.0
1107.986, 403692.0
1109.081, 403367.0
1110.176, 403497.0
1111.271, 403364.0
1112.366, 404217.0
1113.461, 403071.0
1114.555, 403241.0
1115.649, 403336.0
1116.744, 402490.0
1117.838, 403433.0
1118.931, 402126.0
1120.025, 403898.0
1121.119, 402756.0
1122.212, 402972.0
1123.305, 403513.0
1124.398, 403005.0
1125.491, 403451.0
1126.584, 402659.0
1127.676, 402371.0
1128.768, 403020.0
1129.861, 402142.0
1130.953, 402279.0
1132.044, 402740.0
1133.136, 402314.0
1134.228, 401598.0
1135.319, 402014.0
1136.410, 402202.0
1137.501, 401061.0
1138.592, 402064.0
1139.683, 400783.0
1140.773, 401057.0
1141.864, 402284.0
1142.954, 401473.0
1144.044, 400689.0
1145.134, 401061.0
1146.224, 401017.0
1147.313, 401386.0
1148.402, 401011.0
1149.492, 402002.0
1150.581, 400875.0
1151.670, 402829.0
1152.758, 401574.0
1153.847, 401030.0
1154.935, 402094.0
1156.024, 401367.0
1157.112, 400882.0
1158.200, 400263.0
1159.287, 401543.0
1160.375, 400456.0
1161.462, 400544.0
1162.550, 400937.0
1163.637, 399775.0
1164.724, 400818.0
1165.810, 400748.0
1166.897, 400235.0
1167.983, 399308.0
1169.070, 398361.0
1170.156, 400315.0
1171.242, 399768.0
1172.327, 399491.0
1173.413, 399658.0
1174.499, 399494.0
1175.584, 399329.0
1176.669, 399419.0
1177.754, 400318.0
1178.839, 399733.0
1179.923, 399771.0
1181.008, 399948.0
1182.092, 398547.0
1183.176, 399433.0
1184.260, 399189.0
1185.344, 400118.0
1186.428, 398457.0
1187.511, 399180.0
1188.595, 398895.0
1189.678, 397954.0
1190.761, 398599.0
1191.843, 397519.0
1192.926, 398989.0
1194.009, 398261.0
1195.091, 397649.0
1196.173, 397264.0
1197.255, 398276.0
1198.337, 397647.0
1199.419, 397744.0
1200.500, 397995.0
1201.582, 397536.0
1202.663, 397522.0
1203.744, 397696.0
1204.825, 398921.0
1205.905, 397038.0
1206.986, 398289.0
1208.066, 396735.0
1209.146, 397953.0
1210.226, 397056.0
1211.306, 397403.0
1212.386, 398079.0
1213.466, 396923.0
1214.545, 397521.0
1215.624, 396151.0
1216.703, 396639.0
1217.782, 397133.0
1218.861, 397067.0
1219.939, 396814.0
1221.018, 396887.0
1222.096, 397064.0
1223.174, 397227.0
1224.252, 395978.0
1225.330, 395637.0
1226.407, 396445.0
1227.485, 396942.0
1228.562, 396194.0
1229.639, 396095.0
1230.716, 397161.0
1231.793, 396105.0
1232.869, 396487.0
1233.946, 396342.0
1235.022, 396022.0
1236.098, 395921.0
1237.174, 395774.2
1238.250, 396146.0
1239.325, 395586.0
1240.401, 395500.0
1241.476, 395441.0
1242.551, 394299.0
1243.626, 394520.0
1244.701, 393751.0
1245.776, 394582.0
1246.850, 394012.0
1247.924, 393803.0
1248.999, 395280.0
1250.073, 392938.0
1251.146, 394513.0
1252.220, 393594.0
1253.293, 392876.0
1254.367, 393200.0
1255.440, 391935.0
1256.513, 392822.0
1257.586, 391959.0
1258.658, 392764.0
1259.731, 393751.0
1260.803, 392514.0
1261.875, 392410.0
1262.947, 391592.0
1264.019, 392086.0
1265.091, 392508.0
1266.162, 392267.0
1267.234, 392112.0
1268.305, 391086.0
1269.376, 391421.0
1270.447, 391664.0
1271.517, 390809.0
1272.588, 392436.0
1273.658, 391713.0
1274.729, 392006.0
1275.799, 390611.0
1276.868, 390784.0
1277.938, 391302.0
1279.008, 390189.0
1280.077, 391675.0
1281.146, 390337.0
1282.215, 390835.0
1283.284, 390400.0
1284.353, 391220.0
1285.421, 390429.0
1286.490, 389063.0
1287.558, 389503.0
1288.626, 389843.0
1289.694, 389869.0
1290.762, 389996.1
1291.829, 389784.3
1292.897, 389756.0
1293.964, 389401.0
1295.031, 388952.0
1296.098, 389250.0
1297.165, 389507.0
1298.231, 389612.0
1299.298, 388953.0
1300.364, 388414.0
1301.430, 388706.0
1302.496, 387898.0
1303.562, 388204.0
1304.627, 388032.0
1305.693, 387738.0
1306.758, 388139.0
1307.823, 387565.0
1308.888, 387320.0
1309.953, 387738.0
1311.018, 387547.0
1312.082, 387328.0
1313.146, 387324.6
1314.210, 386864.0
1315.274, 386833.0
1316.338, 386669.2
1317.402, 386843.0
1318.465, 386366.0
1319.529, 386403.0
1320.592, 386126.0
1321.655, 385549.0
1322.718, 385854.0
1323.780, 385435.0
1324.843, 386490.0
1325.905, 385953.0
1326.967, 385929.0
1328.029, 385178.0
1329.091, 384610.0
1330.153, 384343.3
1331.214, 384132.2
1332.275, 383822.0
1333.337, 384379.0
1334.398, 384708.0
1335.458, 385358.0
1336.519, 384587.0
1337.580, 385305.0
1338.640, 384325.0
1339.700, 384025.0
1340.760, 383926.0
1341.820, 383579.0
1342.880, 383290.8
1343.939, 383338.5
1344.999, 382813.0
1346.058, 383304.0
1347.117, 383554.0
1348.176, 383322.0
1349.235, 383460.7
1350.293, 383595.0
1351.351, 383041.0
1352.410, 382789.0
1353.468, 382244.0
1354.526, 381499.0
1355.583, 381632.0
1356.641, 381255.8
1357.698, 380951.0
1358.756, 381049.0
1359.813, 381063.0
1360.869, 380828.0
1361.926, 381222.0
1362.983, 381312.0
1364.039, 380847.0
1365.095, 380403.0
1366.152, 381109.0
1367.207, 381259.0
1368.263, 380449.0
1369.319, 381024.0
1370.374, 380043.0
1371.430, 380227.0
1372.485, 380559.0
1373.540, 379771.0
1374.594, 379739.0
1375.649, 379477.0
1376.703, 379214.0
1377.758, 378911.0
1378.812, 378710.0
1379.866, 379370.0
1380.920, 378958.0
1381.973, 379799.0
1383.027, 378785.0
1384.080, 378766.0
1385.133, 379259.0
1386.186, 378105.0
1387.239, 378937.0
1388.291, 377449.0
1389.344, 377618.0
1390.396, 378406.0
1391.448, 377625.0
1392.500, 377867.0
1393.552, 377370.0
1394.604, 377013.0
1395.655, 377592.0
1396.707, 375446.0
1397.758, 377456.0
1398.809, 376820.0
1399.860, 375632.0
1400.910, 376025.0
1401.961, 375874.0
1403.011, 375976.0
1404.061, 375376.0
1405.111, 374893.0
1406.161, 374978.0
1407.211, 374457.0
1408.260, 374869.0
1409.310, 374064.0
1410.359, 374883.0
1411.408, 374669.0
1412.457, 374586.0
1413.506, 375380.0
1414.554, 373665.0
1415.603, 374270.0
1416.651, 374533.0
1417.699, 372926.0
1418.747, 374676.0
1419.794, 373472.0
1420.842, 372582.0
1421.889, 372985.0
1422.937, 372676.0
1423.984, 373729.0
1425.031, 371665.0
1426.077, 372442.0
1427.124, 372114.0
1428.170, 371048.0
1429.217, 371953.0
1430.263, 371542.0
1431.309, 371301.0
1432.354, 371216.0
1433.400, 370000.0
1434.445, 371896.0
1435.491, 371488.0
1436.536, 371144.0
1437.581, 370296.0
1438.625, 369988.0
1439.670, 370289.0
1440.714, 369469.0
1441.759, 369081.0
1442.803, 368633.0
1443.847, 367916.0
1444.890, 367856.0
1445.934, 367594.0
1446.978, 367769.0
1448.021, 368267.0
1449.064, 367323.0
1450.107, 367492.0
1451.150, 367539.0
1452.192, 366636.0
1453.235, 367923.0
1454.277, 367085.0
1455.319, 367021.0
1456.361, 366662.0
1457.403, 365744.0
1458.445, 366381.0
1459.486, 366113.0
1460.528, 366904.0
1461.569, 365778.0
1462.610, 365873.0
1463.651, 365515.0
1464.691, 364049.0
1465.732, 365282.0
1466.772, 364916.0
1467.812, 364213.0
1468.852, 364969.0
1469.892, 363660.0
1470.932, 364434.0
1471.971, 363274.0
1473.011, 363894.0
1474.050, 363667.0
1475.089, 362238.0
1476.128, 362894.0
1477.166, 362579.0
1478.205, 362642.0
1479.243, 363035.0
1480.282, 361752.0
1481.320, 361857.0
1482.357, 362524.0
1483.395, 361873.0
1484.433, 361768.0
1485.470, 361636.0
1486.507, 362599.0
1487.544, 361206.0
1488.581, 361540.0
1489.618, 362039.0
1490.655, 360110.0
1491.691, 362039.0
1492.727, 361463.0
1493.763, 360362.0
1494.799, 360405.0
1495.835, 359932.0
1496.871, 359475.0
1497.906, 359630.0
1498.941, 359462.0
1499.976, 359405.0
1501.011, 358974.0
1502.046, 358675.0
1503.081, 358624.0
1504.115, 357715.0
1505.149, 358050.0
1506.183, 358063.0
1507.217, 357913.0
1508.251, 356862.0
1509.285, 357279.0
1510.318, 357765.0
1511.352, 356455.0
1512.385, 356595.0
1513.418, 356692.0
1514.450, 355097.0
1515.483, 356750.0
1516.516, 355907.0
1517.548, 355876.0
1518.580, 355159.0
1519.612, 354641.0
1520.644, 355549.0
1521.675, 355095.0
1522.707, 355534.0
1523.738, 354981.0
1524.769, 354128.0
1525.800, 354448.0
1526.831, 353775.0
1527.862, 354556.0
1528.892, 353707.0
1529.923, 353179.0
1530.953, 354606.0
1531.983, 353514.0
1533.013, 353638.0
1534.042, 354109.0
1535.072, 352873.0
1536.101, 352674.0
1537.131, 352875.0
1538.160, 353768.0
1539.188, 352937.0
1540.217, 351407.0
1541.246, 353382.0
1542.274, 351885.0
1543.302, 351015.0
1544.330, 352753.0
1545.358, 350882.0
1546.386, 350929.0
1547.413, 350773.0
1548.441, 349211.0
1549.468, 350940.0
1550.495, 350186.0
1551.522, 349778.0
1552.549, 349818.0
1553.575, 350222.0
1554.602, 349975.0
1555.628, 348280.0
1556.654, 349595.0
1557.680, 349012.0
1558.706, 347218.0
1559.731, 348436.0
1560.757, 349267.0
1561.782, 348009.0
1562.807, 348491.0
1563.832, 347882.0
1564.857, 348820.0
1565.881, 348025.0
1566.906, 347460.0
1567.930, 347688.0
1568.954, 345843.0
1569.978, 347665.0
1571.002, 346390.0
1572.025, 346367.0
1573.049, 347434.0
1574.072, 346170.0
1575.095, 345652.0
1576.118, 345326.0
1577.141, 345626.0
1578.164, 345699.0
##END=



