##NAMES=Sodalite
##RRUFFID=R060436
##IDEAL CHEMISTRY=Na_4_Si_3_Al_3_O_12_Cl
##LOCALITY=Koksha Valley, Budakshan Province, Afghanistan
##OWNER=RRUFF
##SOURCE=Herb Obodda
##DESCRIPTION=Pale blue fragment
##STATUS=The identification of this mineral has been confirmed by X-ray diffraction and chemical analysis
##URL=rruff.info/R060436
##MEASURED CHEMISTRY=(Na_0.99_K_0.01_)_8_Al_6.00_Si_6.00_O_24_Cl_2.00_
##PIN_ID=L01849
##ORIENTATION=Laser parallel to -a* (-1 0 0). Fiducial mark perpendicular to laser is parallel to c [0 0 1]
74.71800, 128471.0
75.95700, 128940.0
77.19600, 129654.0
78.43500, 129728.0
79.67300, 129684.0
80.91200, 129728.0
82.15000, 130843.0
83.38800, 130617.0
84.62600, 130518.0
85.86300, 130753.0
87.10100, 130457.0
88.33800, 130984.0
89.57500, 131087.0
90.81200, 131498.0
92.04900, 131828.0
93.28600, 131393.0
94.52300, 132031.0
95.75900, 131769.0
96.99500, 132181.0
98.23100, 132364.0
99.46700, 132879.0
100.7030, 133756.0
101.9390, 133847.0
103.1740, 134003.0
104.4090, 133939.0
105.6440, 134408.0
106.8790, 134922.0
108.1140, 134772.0
109.3490, 134958.0
110.5830, 135789.0
111.8180, 135416.0
113.0520, 136450.0
114.2860, 136596.0
115.5200, 136256.0
116.7530, 136809.0
117.9870, 136249.0
119.2200, 136570.0
120.4530, 135992.0
121.6860, 136733.0
122.9190, 137118.0
124.1520, 137086.0
125.3850, 136720.0
126.6170, 137711.0
127.8490, 137608.0
129.0810, 138038.0
130.3130, 138567.0
131.5450, 138666.0
132.7770, 139163.3
134.0080, 138683.0
135.2390, 139847.0
136.4710, 139691.0
137.7020, 139880.0
138.9320, 140383.0
140.1630, 140667.0
141.3930, 141300.0
142.6240, 141260.0
143.8540, 142695.0
145.0840, 142320.0
146.3140, 143155.0
147.5440, 143421.0
148.7730, 143640.0
150.0020, 144151.0
151.2320, 144171.0
152.4610, 144645.0
153.6900, 145055.0
154.9180, 145900.0
156.1470, 147180.0
157.3750, 148457.0
158.6040, 149737.0
159.8320, 151717.0
161.0600, 153690.0
162.2870, 155710.0
163.5150, 158413.0
164.7420, 160081.0
165.9700, 160828.0
167.1970, 160107.0
168.4240, 158830.0
169.6510, 156464.0
170.8770, 155121.0
172.1040, 153302.0
173.3300, 152514.0
174.5560, 151750.0
175.7820, 151330.0
177.0080, 150511.0
178.2340, 150160.0
179.4590, 149662.0
180.6850, 149965.0
181.9100, 149940.0
183.1350, 149868.0
184.3600, 149510.0
185.5850, 149272.0
186.8090, 149355.0
188.0340, 149677.0
189.2580, 149589.0
190.4820, 149899.1
191.7060, 150039.0
192.9300, 150334.0
194.1530, 150707.0
195.3770, 150854.0
196.6000, 150733.0
197.8230, 150522.0
199.0460, 151216.0
200.2690, 151350.0
201.4910, 151946.0
202.7140, 151755.0
203.9360, 152829.0
205.1580, 152511.0
206.3800, 152861.0
207.6020, 153016.0
208.8240, 153272.4
210.0450, 153651.0
211.2670, 153872.0
212.4880, 154308.0
213.7090, 154203.0
214.9300, 154713.0
216.1510, 154519.0
217.3710, 155119.0
218.5920, 155384.0
219.8120, 155735.0
221.0320, 155885.0
222.2520, 156301.0
223.4720, 156753.0
224.6910, 157278.0
225.9110, 157953.0
227.1300, 157732.0
228.3490, 158385.0
229.5680, 158307.0
230.7870, 158962.0
232.0050, 159038.0
233.2240, 160451.0
234.4420, 159992.0
235.6600, 160759.0
236.8780, 161375.0
238.0960, 161400.0
239.3140, 161712.0
240.5310, 163047.0
241.7490, 162731.0
242.9660, 164132.0
244.1830, 164555.0
245.4000, 165429.0
246.6160, 166518.0
247.8330, 167880.0
249.0490, 168774.0
250.2660, 170310.0
251.4820, 172098.0
252.6980, 173782.0
253.9130, 176183.0
255.1290, 178430.0
256.3440, 180322.0
257.5600, 183189.0
258.7750, 185093.0
259.9900, 186572.0
261.2040, 189009.0
262.4190, 190257.0
263.6330, 190381.0
264.8480, 190380.0
266.0620, 189068.0
267.2760, 188094.0
268.4900, 185425.0
269.7030, 183728.0
270.9170, 181356.0
272.1300, 180118.0
273.3430, 178429.0
274.5560, 176970.0
275.7690, 175776.0
276.9820, 174611.0
278.1940, 173929.0
279.4070, 173263.0
280.6190, 172157.0
281.8310, 172196.0
283.0430, 172412.0
284.2550, 171933.0
285.4660, 172320.0
286.6770, 171973.0
287.8890, 172964.0
289.1000, 173057.0
290.3110, 173304.0
291.5210, 174412.0
292.7320, 174980.0
293.9420, 175480.0
295.1530, 176586.0
296.3630, 176684.0
297.5730, 176270.0
298.7830, 175363.0
299.9920, 174440.0
301.2020, 174280.0
302.4110, 173492.0
303.6200, 172700.0
304.8290, 172584.0
306.0380, 172017.0
307.2470, 171821.0
308.4550, 172042.0
309.6630, 171711.2
310.8720, 171853.4
312.0800, 171756.0
313.2880, 172224.0
314.4950, 172687.0
315.7030, 173412.0
316.9100, 173273.0
318.1170, 173466.0
319.3240, 172990.0
320.5310, 173793.0
321.7380, 173518.0
322.9450, 174282.0
324.1510, 174378.0
325.3570, 174504.0
326.5630, 174623.0
327.7690, 174717.0
328.9750, 174838.0
330.1810, 175001.0
331.3860, 175138.0
332.5910, 175474.0
333.7960, 175944.0
335.0010, 175846.0
336.2060, 176239.0
337.4110, 176658.0
338.6150, 176526.0
339.8200, 177282.0
341.0240, 176968.0
342.2280, 177363.0
343.4320, 177699.0
344.6350, 177505.0
345.8390, 178310.0
347.0420, 178029.0
348.2450, 178449.0
349.4480, 179105.0
350.6510, 179074.0
351.8540, 178963.0
353.0560, 178953.0
354.2590, 179529.0
355.4610, 180046.0
356.6630, 180210.0
357.8650, 180380.0
359.0670, 180206.0
360.2680, 181023.0
361.4700, 180473.0
362.6710, 180994.0
363.8720, 181721.0
365.0730, 181404.0
366.2740, 181427.0
367.4740, 181905.0
368.6750, 181445.0
369.8750, 183021.0
371.0750, 182417.0
372.2750, 183251.0
373.4750, 183406.0
374.6740, 182871.0
375.8740, 184050.0
377.0730, 183557.0
378.2720, 184189.0
379.4710, 184329.0
380.6700, 184307.0
381.8690, 184953.0
383.0670, 184708.0
384.2660, 185705.0
385.4640, 185683.0
386.6620, 185863.0
387.8600, 185795.0
389.0570, 186398.0
390.2550, 186761.0
391.4520, 187067.0
392.6490, 186879.0
393.8460, 187681.0
395.0430, 187685.0
396.2400, 188545.0
397.4370, 188356.0
398.6330, 189126.0
399.8290, 189460.0
401.0250, 189022.0
402.2210, 190016.0
403.4170, 191040.0
404.6130, 191266.0
405.8080, 192169.0
407.0030, 193595.0
408.1980, 194782.0
409.3930, 195364.0
410.5880, 195635.0
411.7830, 195337.0
412.9770, 194548.0
414.1720, 194560.0
415.3660, 194419.0
416.5600, 193617.0
417.7530, 194041.0
418.9470, 194225.0
420.1410, 194261.0
421.3340, 194811.0
422.5270, 195517.0
423.7200, 195547.0
424.9130, 196148.0
426.1060, 196071.0
427.2980, 197075.0
428.4900, 196949.0
429.6830, 197356.0
430.8750, 197984.0
432.0670, 198736.0
433.2580, 199139.5
434.4500, 199331.0
435.6410, 200220.0
436.8320, 200628.0
438.0240, 201356.0
439.2140, 201826.0
440.4050, 203133.0
441.5960, 203808.0
442.7860, 205359.0
443.9760, 206795.0
445.1670, 208860.0
446.3560, 210824.0
447.5460, 213028.0
448.7360, 216403.0
449.9250, 220786.0
451.1150, 225283.0
452.3040, 231046.0
453.4930, 238471.0
454.6810, 248054.0
455.8700, 259427.0
457.0590, 273030.0
458.2470, 289345.0
459.4350, 306855.0
460.6230, 326135.0
461.8110, 342875.0
462.9980, 353207.0
464.1860, 354671.0
465.3730, 345673.0
466.5600, 330538.0
467.7470, 310893.0
468.9340, 292051.0
470.1210, 275205.0
471.3080, 261338.0
472.4940, 250626.0
473.6800, 242172.0
474.8660, 236852.0
476.0520, 231147.0
477.2380, 227675.0
478.4230, 224422.0
479.6090, 222831.0
480.7940, 220284.0
481.9790, 218606.0
483.1640, 217917.0
484.3490, 216557.0
485.5330, 215443.0
486.7180, 215699.0
487.9020, 215069.0
489.0860, 215533.0
490.2700, 214889.0
491.4540, 215055.0
492.6370, 215181.0
493.8210, 216317.0
495.0040, 215925.0
496.1870, 216896.0
497.3700, 216685.0
498.5530, 216698.0
499.7360, 216109.0
500.9180, 215242.0
502.1000, 213844.0
503.2830, 213312.0
504.4650, 213421.0
505.6460, 213322.0
506.8280, 213448.0
508.0100, 212411.0
509.1910, 212895.0
510.3720, 212870.0
511.5530, 212907.0
512.7340, 213277.0
513.9150, 213272.8
515.0950, 212900.0
516.2760, 213469.0
517.4560, 213511.0
518.6360, 213445.0
519.8160, 214123.0
520.9950, 214499.0
522.1750, 214178.0
523.3540, 214839.0
524.5340, 214488.0
525.7130, 214056.0
526.8920, 214925.0
528.0700, 214382.0
529.2490, 215591.0
530.4270, 215011.0
531.6060, 215399.0
532.7840, 215659.0
533.9620, 215316.0
535.1390, 215571.0
536.3170, 215695.0
537.4940, 215803.0
538.6720, 216442.0
539.8490, 216388.0
541.0260, 216583.0
542.2030, 217095.0
543.3790, 217253.0
544.5560, 217374.0
545.7320, 217270.0
546.9080, 217055.0
548.0840, 218223.0
549.2600, 217551.0
550.4360, 218340.0
551.6110, 218461.0
552.7860, 218100.0
553.9620, 219061.0
555.1370, 218858.0
556.3110, 219516.0
557.4860, 218342.0
558.6610, 219146.0
559.8350, 218966.0
561.0090, 220482.0
562.1830, 220166.0
563.3570, 219868.0
564.5310, 220308.0
565.7040, 220244.0
566.8780, 220496.0
568.0510, 220285.0
569.2240, 220948.0
570.3970, 220815.0
571.5700, 221687.0
572.7420, 221425.0
573.9150, 220977.0
575.0870, 221979.0
576.2590, 221869.0
577.4310, 221690.0
578.6030, 222816.0
579.7740, 223185.0
580.9460, 223277.0
582.1170, 223008.0
583.2880, 223262.0
584.4590, 223729.0
585.6300, 223437.0
586.8010, 223812.0
587.9710, 224342.0
589.1410, 223753.0
590.3110, 224882.0
591.4810, 224587.0
592.6510, 225710.0
593.8210, 225394.0
594.9900, 225619.0
596.1600, 226280.0
597.3290, 225744.0
598.4980, 226308.0
599.6670, 225614.0
600.8350, 226478.0
602.0040, 227043.0
603.1720, 226691.0
604.3400, 227949.0
605.5080, 228230.0
606.6760, 228325.0
607.8440, 228366.0
609.0120, 228686.0
610.1790, 229061.0
611.3460, 228847.0
612.5130, 228741.0
613.6800, 229054.0
614.8470, 228839.0
616.0130, 228593.0
617.1800, 229376.0
618.3460, 229438.0
619.5120, 229619.0
620.6780, 229744.0
621.8440, 229977.0
623.0090, 229951.0
624.1750, 230256.0
625.3400, 230443.0
626.5050, 231165.0
627.6700, 230476.0
628.8350, 230034.0
629.9990, 230770.0
631.1640, 230888.0
632.3280, 230941.0
633.4920, 231715.0
634.6560, 231395.0
635.8200, 231859.0
636.9840, 232195.0
638.1470, 232240.0
639.3100, 232390.0
640.4730, 232298.0
641.6360, 233303.0
642.7990, 233454.0
643.9620, 233275.0
645.1240, 233673.0
646.2870, 233644.0
647.4490, 233226.0
648.6110, 234200.0
649.7730, 233782.0
650.9340, 234073.0
652.0960, 233953.0
653.2570, 234924.0
654.4180, 234983.0
655.5790, 234986.0
656.7400, 235205.0
657.9010, 235400.9
659.0620, 235511.0
660.2220, 235972.0
661.3820, 235660.0
662.5420, 235912.0
663.7020, 236341.0
664.8620, 236598.0
666.0210, 236191.0
667.1810, 236848.0
668.3400, 237432.0
669.4990, 237124.0
670.6580, 237670.0
671.8170, 237541.0
672.9750, 238046.0
674.1340, 238171.0
675.2920, 238160.0
676.4500, 238179.0
677.6080, 238127.0
678.7660, 238809.0
679.9230, 238052.0
681.0810, 239091.0
682.2380, 238706.0
683.3950, 238574.0
684.5520, 238558.0
685.7090, 238629.0
686.8660, 239494.0
688.0220, 238750.0
689.1780, 239851.0
690.3340, 240635.0
691.4900, 240109.0
692.6460, 241135.0
693.8020, 240522.0
694.9570, 241215.0
696.1130, 241327.0
697.2680, 241243.0
698.4230, 241316.0
699.5780, 241627.0
700.7320, 241533.0
701.8870, 242392.0
703.0410, 242366.0
704.1950, 242839.0
705.3490, 243485.0
706.5030, 242533.0
707.6570, 242915.0
708.8110, 243131.0
709.9640, 242992.0
711.1170, 243184.0
712.2700, 244222.0
713.4230, 243375.0
714.5760, 243211.0
715.7280, 242186.0
716.8810, 242148.0
718.0330, 241667.0
719.1850, 241156.0
720.3370, 241180.0
721.4890, 241127.0
722.6400, 241016.0
723.7920, 242023.0
724.9430, 243247.0
726.0940, 243317.0
727.2450, 244132.0
728.3960, 245772.0
729.5460, 245459.0
730.6970, 246542.0
731.8470, 246749.0
732.9970, 246814.0
734.1470, 247055.0
735.2970, 246964.0
736.4460, 247276.0
737.5960, 247718.0
738.7450, 247748.0
739.8940, 247954.0
741.0430, 248044.0
742.1920, 249672.0
743.3410, 249028.0
744.4890, 250090.0
745.6370, 249257.0
746.7850, 250374.0
747.9330, 250245.0
749.0810, 250747.0
750.2290, 250938.0
751.3760, 250770.0
752.5240, 250825.0
753.6710, 251145.0
754.8180, 251545.0
755.9650, 251250.0
757.1110, 251392.0
758.2580, 251529.0
759.4040, 252217.0
760.5510, 251812.0
761.6970, 252382.0
762.8420, 252823.0
763.9880, 252273.0
765.1340, 252531.0
766.2790, 252889.0
767.4240, 252671.0
768.5690, 252570.0
769.7140, 253135.0
770.8590, 252789.1
772.0030, 253380.0
773.1480, 252677.0
774.2920, 253190.0
775.4360, 253336.0
776.5800, 254271.0
777.7240, 253907.0
778.8670, 253869.0
780.0110, 253923.0
781.1540, 254196.0
782.2970, 254294.0
783.4400, 254078.0
784.5830, 253993.0
785.7250, 254041.0
786.8680, 254280.9
788.0100, 254664.0
789.1520, 255085.0
790.2940, 254917.0
791.4360, 255393.0
792.5780, 255128.0
793.7190, 255737.0
794.8600, 255210.0
796.0010, 255552.0
797.1420, 255940.0
798.2830, 255591.0
799.4240, 255731.0
800.5640, 256775.0
801.7050, 256634.0
802.8450, 256374.0
803.9850, 257191.0
805.1250, 257475.0
806.2640, 257620.0
807.4040, 257627.0
808.5430, 257672.0
809.6820, 258465.0
810.8210, 258896.0
811.9600, 259080.0
813.0990, 258631.0
814.2370, 259268.0
815.3760, 259703.0
816.5140, 260304.0
817.6520, 260387.9
818.7900, 260463.0
819.9270, 260450.0
821.0650, 259825.0
822.2020, 259789.0
823.3390, 260532.0
824.4760, 260703.0
825.6130, 261298.0
826.7500, 260858.0
827.8870, 261111.0
829.0230, 261406.0
830.1590, 260586.0
831.2950, 261755.0
832.4310, 262277.0
833.5670, 262490.0
834.7030, 262330.0
835.8380, 262669.0
836.9730, 263082.0
838.1080, 263046.0
839.2430, 263264.0
840.3780, 263063.0
841.5130, 263775.0
842.6470, 262900.0
843.7810, 263217.0
844.9150, 264122.0
846.0490, 264378.0
847.1830, 263914.0
848.3170, 264442.0
849.4500, 264073.0
850.5830, 264791.0
851.7160, 264830.0
852.8490, 264363.0
853.9820, 265075.0
855.1150, 265089.0
856.2470, 265246.0
857.3800, 265823.0
858.5120, 265582.0
859.6440, 266320.0
860.7760, 265893.0
861.9070, 266377.0
863.0390, 266718.0
864.1700, 266442.0
865.3010, 267026.0
866.4320, 267426.0
867.5630, 267462.0
868.6940, 267224.0
869.8240, 267562.0
870.9540, 267567.0
872.0850, 267766.0
873.2150, 267644.0
874.3450, 268079.0
875.4740, 268286.0
876.6040, 267878.0
877.7330, 268095.0
878.8620, 267772.0
879.9910, 268490.0
881.1200, 268270.0
882.2490, 268854.0
883.3770, 268981.5
884.5060, 269019.0
885.6340, 269343.0
886.7620, 269208.0
887.8900, 269468.0
889.0180, 269156.0
890.1450, 269038.0
891.2730, 268625.0
892.4000, 269415.0
893.5270, 269178.0
894.6540, 268601.0
895.7810, 268759.0
896.9070, 269749.0
898.0340, 269593.0
899.1600, 269701.0
900.2860, 270529.0
901.4120, 270768.0
902.5380, 270917.0
903.6630, 270959.0
904.7890, 270926.0
905.9140, 271419.0
907.0390, 271486.0
908.1640, 271673.0
909.2890, 272078.0
910.4130, 271864.0
911.5380, 272276.0
912.6620, 272380.0
913.7860, 272281.0
914.9100, 272198.0
916.0340, 272040.0
917.1580, 272701.0
918.2810, 272847.0
919.4040, 273342.0
920.5280, 273547.0
921.6510, 273379.0
922.7730, 273171.0
923.8960, 273733.0
925.0180, 272869.0
926.1410, 274039.0
927.2630, 274529.0
928.3850, 274060.0
929.5070, 274743.0
930.6280, 274596.0
931.7500, 273813.0
932.8710, 275206.0
933.9920, 275050.0
935.1130, 274722.0
936.2340, 274535.0
937.3550, 275371.0
938.4760, 275231.0
939.5960, 275752.0
940.7160, 275525.0
941.8360, 276181.0
942.9560, 275105.0
944.0760, 276132.0
945.1950, 275572.0
946.3150, 276310.0
947.4340, 276712.0
948.5530, 276502.0
949.6720, 276535.0
950.7900, 276294.0
951.9090, 277159.0
953.0270, 276699.0
954.1460, 276965.0
955.2640, 276736.0
956.3820, 277239.0
957.4990, 277305.0
958.6170, 278081.0
959.7340, 278199.2
960.8520, 278589.7
961.9690, 278600.0
963.0860, 278994.0
964.2020, 279029.0
965.3190, 278637.0
966.4350, 279313.0
967.5520, 279753.0
968.6680, 279463.0
969.7840, 280487.0
970.8990, 281464.0
972.0150, 280870.0
973.1310, 282266.0
974.2460, 282624.0
975.3610, 284083.0
976.4760, 285062.0
977.5910, 286220.0
978.7050, 288671.0
979.8200, 291163.0
980.9340, 296037.0
982.0480, 300848.0
983.1620, 307458.0
984.2760, 313989.0
985.3900, 319322.0
986.5030, 322998.0
987.6160, 322426.0
988.7300, 318511.0
989.8430, 311515.0
990.9550, 305231.0
992.0680, 299927.0
993.1810, 295650.7
994.2930, 291150.0
995.4050, 289426.0
996.5170, 288286.0
997.6290, 286693.0
998.7410, 286279.0
999.8520, 284637.0
1000.964, 284600.0
1002.075, 284730.0
1003.186, 284240.0
1004.297, 284749.0
1005.407, 284224.0
1006.518, 283571.0
1007.628, 284747.0
1008.738, 284961.0
1009.848, 285229.0
1010.958, 285829.0
1012.068, 285875.0
1013.178, 286001.0
1014.287, 285064.0
1015.396, 284747.0
1016.505, 283622.0
1017.614, 284166.0
1018.723, 283350.0
1019.831, 283218.0
1020.940, 282729.0
1022.048, 282244.0
1023.156, 282590.0
1024.264, 282031.0
1025.372, 281870.0
1026.479, 281921.0
1027.587, 282028.0
1028.694, 282134.0
1029.801, 281645.0
1030.908, 282812.0
1032.015, 282288.0
1033.121, 282975.0
1034.228, 282977.0
1035.334, 283336.0
1036.440, 284706.0
1037.546, 283934.0
1038.652, 284775.0
1039.758, 284155.0
1040.863, 284377.0
1041.968, 284164.0
1043.074, 284256.0
1044.178, 284472.0
1045.283, 284540.9
1046.388, 285206.0
1047.492, 285328.0
1048.597, 285965.0
1049.701, 287165.0
1050.805, 287574.0
1051.909, 289155.0
1053.012, 289734.0
1054.116, 290165.0
1055.219, 291755.0
1056.322, 292861.0
1057.425, 293822.0
1058.528, 293465.0
1059.631, 293903.0
1060.733, 293387.0
1061.836, 292964.0
1062.938, 293256.0
1064.040, 292331.0
1065.142, 292033.0
1066.243, 290968.0
1067.345, 290876.0
1068.446, 289763.0
1069.547, 289023.0
1070.648, 288907.0
1071.749, 288618.0
1072.850, 287420.0
1073.951, 287589.0
1075.051, 286483.0
1076.151, 286800.0
1077.251, 286925.0
1078.351, 287514.0
1079.451, 287479.0
1080.550, 287171.0
1081.650, 286678.0
1082.749, 286770.0
1083.848, 287391.0
1084.947, 286727.0
1086.046, 286825.0
1087.144, 286691.0
1088.243, 286481.0
1089.341, 286986.0
1090.439, 286639.0
1091.537, 286660.0
1092.635, 286434.0
1093.732, 286514.7
1094.830, 286304.0
1095.927, 286974.0
1097.024, 287085.0
1098.121, 287785.0
1099.218, 287189.0
1100.314, 287101.0
1101.411, 287353.0
1102.507, 287644.0
1103.603, 287624.5
1104.699, 287600.8
1105.795, 287712.0
1106.890, 287496.0
1107.986, 287386.0
1109.081, 287822.0
1110.176, 288101.0
1111.271, 288005.0
1112.366, 288330.0
1113.461, 287082.0
1114.555, 287967.0
1115.649, 288507.0
1116.744, 287964.0
1117.838, 288783.0
1118.931, 288705.0
1120.025, 287580.0
1121.119, 288316.0
1122.212, 288777.0
1123.305, 288396.0
1124.398, 288316.0
1125.491, 288312.0
1126.584, 288852.0
1127.676, 289143.0
1128.768, 288647.0
1129.861, 288272.0
1130.953, 288580.0
1132.044, 288571.0
1133.136, 289223.0
1134.228, 288574.0
1135.319, 288548.0
1136.410, 288391.0
1137.501, 287886.0
1138.592, 288439.0
1139.683, 288437.0
1140.773, 288595.0
1141.864, 288563.0
1142.954, 288432.0
1144.044, 288101.0
1145.134, 287917.0
1146.224, 289218.0
1147.313, 289367.0
1148.402, 288454.0
1149.492, 289944.0
1150.581, 289215.0
1151.670, 289711.0
1152.758, 289219.0
1153.847, 289418.0
1154.935, 289725.0
1156.024, 289365.0
1157.112, 289025.0
1158.200, 288988.0
1159.287, 289193.0
1160.375, 288705.0
1161.462, 289702.0
1162.550, 289255.0
1163.637, 289187.0
1164.724, 289869.0
1165.810, 289176.0
1166.897, 288892.0
1167.983, 289562.0
1169.070, 288785.0
1170.156, 289218.0
1171.242, 288668.0
1172.327, 289683.0
1173.413, 289651.0
1174.499, 289024.0
1175.584, 288841.0
1176.669, 289057.0
1177.754, 288895.1
1178.839, 289206.0
1179.923, 289173.0
1181.008, 289487.0
1182.092, 289651.0
1183.176, 290011.0
1184.260, 289278.0
1185.344, 289805.0
1186.428, 288545.0
1187.511, 289221.0
1188.595, 289667.0
1189.678, 289075.0
1190.761, 289141.0
1191.843, 288948.0
1192.926, 289804.0
1194.009, 289555.0
1195.091, 289688.0
1196.173, 289965.0
1197.255, 289065.0
1198.337, 289622.0
1199.419, 289873.0
1200.500, 289270.0
1201.582, 289586.0
1202.663, 289018.0
1203.744, 289718.0
1204.825, 290271.0
1205.905, 288994.0
1206.986, 289924.0
1208.066, 288665.0
1209.146, 289987.0
1210.226, 289493.0
1211.306, 289936.0
1212.386, 290398.0
1213.466, 289821.0
1214.545, 290553.0
1215.624, 289665.0
1216.703, 289853.0
1217.782, 289776.0
1218.861, 290337.0
1219.939, 290074.0
1221.018, 290674.0
1222.096, 290363.0
1223.174, 290631.0
1224.252, 289720.0
1225.330, 290035.0
1226.407, 290238.0
1227.485, 290867.0
1228.562, 290185.0
1229.639, 289876.0
1230.716, 290722.0
1231.793, 289980.0
1232.869, 290396.0
1233.946, 290827.0
1235.022, 290356.0
1236.098, 289753.0
1237.174, 290246.0
1238.250, 289739.0
1239.325, 290719.0
1240.401, 290632.0
1241.476, 290213.0
1242.551, 290399.0
1243.626, 290094.0
1244.701, 290067.0
1245.776, 290057.0
1246.850, 289957.3
1247.924, 290323.0
1248.999, 290289.0
1250.073, 289887.0
1251.146, 290772.0
1252.220, 289164.0
1253.293, 289486.0
1254.367, 290187.0
1255.440, 289316.0
1256.513, 289330.0
1257.586, 289246.0
1258.658, 289234.0
1259.731, 289959.0
1260.803, 289653.0
1261.875, 289537.0
1262.947, 288886.0
1264.019, 289527.0
1265.091, 289642.0
1266.162, 289618.0
1267.234, 289338.0
1268.305, 289605.0
1269.376, 289007.0
1270.447, 289858.0
1271.517, 289629.0
1272.588, 290253.0
1273.658, 288841.0
1274.729, 288757.0
1275.799, 289199.0
1276.868, 288729.0
1277.938, 289438.0
1279.008, 289052.0
1280.077, 289798.0
1281.146, 288843.0
1282.215, 289169.0
1283.284, 289592.0
1284.353, 289282.0
1285.421, 289601.3
1286.490, 288689.0
1287.558, 289624.0
1288.626, 288908.0
1289.694, 288613.0
1290.762, 289476.0
1291.829, 289401.0
1292.897, 288671.0
1293.964, 288310.0
1295.031, 288687.0
1296.098, 289088.0
1297.165, 288802.0
1298.231, 289198.0
1299.298, 288939.0
1300.364, 288530.0
1301.430, 289201.0
1302.496, 289171.0
1303.562, 288902.0
1304.627, 289375.0
1305.693, 288854.0
1306.758, 288678.0
1307.823, 287745.0
1308.888, 289369.0
1309.953, 288801.0
1311.018, 288461.0
1312.082, 287935.0
1313.146, 288072.0
1314.210, 287950.0
1315.274, 288407.0
1316.338, 289250.0
1317.402, 289312.0
1318.465, 288297.0
1319.529, 288810.0
1320.592, 288301.0
1321.655, 288316.0
1322.718, 288112.0
1323.780, 288164.0
1324.843, 288473.0
1325.905, 288757.0
1326.967, 288262.0
1328.029, 288187.0
1329.091, 287794.0
1330.153, 288301.0
1331.214, 287694.0
1332.275, 288139.0
1333.337, 287775.0
1334.398, 288260.0
1335.458, 288653.0
1336.519, 287814.0
1337.580, 288026.0
1338.640, 287519.0
1339.700, 287505.0
1340.760, 288007.0
1341.820, 288169.0
1342.880, 287215.0
1343.939, 287722.0
1344.999, 287460.0
1346.058, 288357.0
1347.117, 287673.0
1348.176, 288598.0
1349.235, 287108.0
1350.293, 287386.0
1351.351, 287865.0
1352.410, 287410.0
1353.468, 287754.0
1354.526, 287421.0
1355.583, 287628.0
1356.641, 287931.0
1357.698, 287359.0
1358.756, 286657.0
1359.813, 286489.0
1360.869, 286619.0
1361.926, 287258.0
1362.983, 287597.0
1364.039, 286322.0
1365.095, 286594.0
1366.152, 286135.0
1367.207, 287284.0
1368.263, 286814.0
1369.319, 287652.0
1370.374, 286672.0
1371.430, 286517.0
1372.485, 286746.0
1373.540, 286884.0
1374.594, 286880.0
1375.649, 286765.0
1376.703, 286833.7
1377.758, 286662.0
1378.812, 286592.0
1379.866, 286384.0
1380.920, 285774.0
1381.973, 287137.0
1383.027, 286542.0
1384.080, 285941.0
1385.133, 286809.0
1386.186, 285660.0
1387.239, 286222.0
1388.291, 285474.0
1389.344, 286438.0
1390.396, 286930.0
1391.448, 286560.0
1392.500, 286351.0
1393.552, 285192.0
1394.604, 285772.0
1395.655, 285992.0
1396.707, 285085.0
1397.758, 286556.0
1398.809, 285128.0
1399.860, 285463.0
1400.910, 286148.0
1401.961, 284889.0
1403.011, 285191.0
1404.061, 284861.0
1405.111, 285609.0
1406.161, 285184.0
1407.211, 284290.0
1408.260, 285724.0
1409.310, 284754.0
1410.359, 286165.0
1411.408, 284744.0
1412.457, 284868.0
1413.506, 285051.0
1414.554, 283937.0
1415.603, 284638.0
1416.651, 284758.0
1417.699, 285314.0
1418.747, 284982.0
1419.794, 284690.0
1420.842, 284780.0
1421.889, 283754.0
1422.937, 283419.0
1423.984, 284643.0
1425.031, 283899.0
1426.077, 284603.0
1427.124, 283499.0
1428.170, 283469.0
1429.217, 283556.0
1430.263, 283553.0
1431.309, 283008.0
1432.354, 283092.0
1433.400, 283156.0
1434.445, 284072.0
1435.491, 283016.0
1436.536, 282895.0
1437.581, 283065.0
1438.625, 282333.0
1439.670, 282835.0
1440.714, 282817.0
1441.759, 282306.0
1442.803, 281956.0
1443.847, 281304.0
1444.890, 281926.0
1445.934, 281407.0
1446.978, 281250.0
1448.021, 281680.0
1449.064, 281706.0
1450.107, 281871.0
1451.150, 281940.2
1452.192, 282174.0
1453.235, 281835.0
1454.277, 281798.0
1455.319, 281554.0
1456.361, 281543.9
1457.403, 281544.0
1458.445, 281645.0
1459.486, 281553.0
1460.528, 281736.0
1461.569, 280252.0
1462.610, 280593.0
1463.651, 281251.0
1464.691, 280436.0
1465.732, 281176.0
1466.772, 280353.0
1467.812, 279556.0
1468.852, 280227.0
1469.892, 280231.0
1470.932, 279618.0
1471.971, 280326.0
1473.011, 279474.0
1474.050, 279644.0
1475.089, 279163.0
1476.128, 279240.0
1477.166, 278963.0
1478.205, 278852.3
1479.243, 278938.2
1480.282, 278906.0
1481.320, 278883.0
1482.357, 279369.0
1483.395, 278935.0
1484.433, 279581.0
1485.470, 278546.0
1486.507, 279549.0
1487.544, 278595.0
1488.581, 278480.0
1489.618, 279281.0
1490.655, 277967.0
1491.691, 279034.0
1492.727, 278953.0
1493.763, 278466.0
1494.799, 279045.0
1495.835, 278111.0
1496.871, 278544.0
1497.906, 277663.0
1498.941, 278161.0
1499.976, 278471.0
1501.011, 277213.0
1502.046, 277809.0
1503.081, 277631.0
1504.115, 277224.0
1505.149, 277610.0
1506.183, 277544.0
1507.217, 277652.0
1508.251, 276795.0
1509.285, 277038.0
1510.318, 276812.0
1511.352, 277421.0
1512.385, 276907.0
1513.418, 276178.0
1514.450, 276248.0
1515.483, 277354.0
1516.516, 275756.0
1517.548, 276357.0
1518.580, 276687.0
1519.612, 275976.0
1520.644, 276285.0
1521.675, 275083.0
1522.707, 275581.0
1523.738, 275712.0
1524.769, 275588.0
1525.800, 275797.0
1526.831, 274887.0
1527.862, 275484.0
1528.892, 275097.0
1529.923, 275321.0
1530.953, 275725.0
1531.983, 275368.0
1533.013, 275524.0
1534.042, 275850.0
1535.072, 274626.0
1536.101, 275496.0
1537.131, 274563.0
1538.160, 274776.0
1539.188, 274568.0
1540.217, 274723.0
1541.246, 274845.0
1542.274, 273798.0
1543.302, 274492.0
1544.330, 274231.0
1545.358, 273215.0
1546.386, 274058.0
1547.413, 273501.0
1548.441, 274250.0
1549.468, 273276.0
1550.495, 273343.0
1551.522, 273775.0
1552.549, 273319.0
1553.575, 272959.0
1554.602, 273279.0
1555.628, 272619.0
1556.654, 273901.0
1557.680, 273742.0
1558.706, 271436.0
1559.731, 273360.0
1560.757, 271999.0
1561.782, 272540.0
1562.807, 271972.0
1563.832, 272479.0
1564.857, 272367.0
1565.881, 272004.0
1566.906, 272415.0
1567.930, 272461.0
1568.954, 272250.0
1569.978, 272570.0
1571.002, 271565.0
1572.025, 271799.0
1573.049, 272059.0
1574.072, 271366.0
1575.095, 271705.0
1576.118, 270571.0
1577.141, 270824.0
1578.164, 270555.0
##END=



