##NAMES=Abhurite
##RRUFFID=R060227
##IDEAL CHEMISTRY=Sn^2+^_21_O_6_(OH)_14_Cl_16_
##LOCALITY=Wreck of the SS Cheerful, 14 miles NNW of St. Ives, Cornwall, England
##OWNER=RRUFF
##SOURCE=Michael Scott
##DESCRIPTION=Aggregate of tan colored platy crystals
##STATUS=The identification of this mineral is confirmed by single-crystal X-ray diffraction and chemical analysis.
##URL=rruff.info/R060227
##MEASURED CHEMISTRY=Sn^2+^_21.00_Cl_16.00_(OH)_14.00_O_6_; (OH) estimated by difference
92.07813, 54.51814
92.56024, 57.47292
93.04236, 55.29597
93.52448, 49.30273
94.00659, 44.35788
94.48871, 44.15390
94.97083, 47.12158
95.45294, 49.14802
95.93506, 49.75447
96.41718, 49.29237
96.89929, 47.62852
97.38141, 44.74683
97.86353, 42.78957
98.34564, 43.63559
98.82776, 47.16285
99.30988, 51.29117
99.79199, 56.54315
100.2741, 61.87254
100.7562, 62.41004
101.2383, 56.53687
101.7205, 50.36674
102.2026, 50.35294
102.6847, 58.67231
103.1668, 64.71684
103.6489, 65.92247
104.1310, 62.17879
104.6132, 57.95970
105.0953, 51.99864
105.5774, 46.80103
106.0595, 45.99949
106.5416, 53.34661
107.0237, 59.30294
107.5059, 60.86418
107.9880, 55.70484
108.4701, 53.43295
108.9522, 57.00900
109.4343, 62.90278
109.9164, 64.74544
110.3986, 56.16941
110.8807, 48.86179
111.3628, 46.36350
111.8449, 51.37438
112.3270, 56.96896
112.8091, 64.03027
113.2913, 71.57092
113.7734, 76.90192
114.2555, 76.46367
114.7376, 75.82694
115.2197, 77.92928
115.7018, 84.08259
116.1840, 92.10739
116.6661, 102.4124
117.1482, 114.5356
117.6303, 126.0266
118.1124, 134.9488
118.5945, 143.4547
119.0767, 153.3086
119.5588, 164.5534
120.0409, 177.7784
120.5230, 192.8940
121.0051, 209.8796
121.4872, 229.9865
121.9694, 254.6455
122.4515, 282.6118
122.9336, 312.2907
123.4157, 340.7813
123.8978, 371.6249
124.3799, 407.7870
124.8621, 449.4234
125.3442, 495.8317
125.8263, 544.8509
126.3084, 597.9731
126.7905, 659.1249
127.2726, 735.8009
127.7548, 819.9194
128.2369, 898.8879
128.7190, 972.1027
129.2011, 1038.803
129.6832, 1097.110
130.1653, 1147.139
130.6474, 1192.840
131.1296, 1236.162
131.6117, 1276.647
132.0938, 1313.527
132.5759, 1345.672
133.0580, 1376.078
133.5401, 1409.234
134.0223, 1445.266
134.5044, 1484.097
134.9865, 1525.575
135.4686, 1570.114
135.9507, 1617.276
136.4328, 1667.219
136.9150, 1720.574
137.3971, 1779.103
137.8792, 1844.036
138.3613, 1910.583
138.8434, 1975.102
139.3255, 2036.930
139.8077, 2098.418
140.2898, 2160.593
140.7719, 2222.846
141.2540, 2284.684
141.7361, 2344.716
142.2182, 2405.479
142.7004, 2469.788
143.1825, 2538.433
143.6646, 2607.775
144.1467, 2676.632
144.6288, 2746.214
145.1109, 2811.195
145.5931, 2875.274
146.0752, 2932.288
146.5573, 2976.111
147.0394, 3005.828
147.5215, 3022.987
148.0036, 3026.227
148.4858, 3012.995
148.9679, 2996.116
149.4500, 2975.038
149.9321, 2950.437
150.4142, 2923.726
150.8963, 2887.306
151.3785, 2855.443
151.8606, 2833.781
152.3427, 2828.640
152.8248, 2817.880
153.3069, 2797.924
153.7890, 2772.353
154.2712, 2740.469
154.7533, 2693.415
155.2354, 2647.014
155.7175, 2600.575
156.1996, 2552.342
156.6817, 2508.527
157.1639, 2471.402
157.6460, 2438.865
158.1281, 2407.430
158.6102, 2371.564
159.0923, 2339.825
159.5744, 2316.248
160.0566, 2302.553
160.5387, 2295.329
161.0208, 2294.094
161.5029, 2298.642
161.9850, 2308.543
162.4671, 2326.458
162.9493, 2347.918
163.4314, 2369.954
163.9135, 2391.688
164.3956, 2414.193
164.8777, 2436.304
165.3598, 2459.027
165.8420, 2486.694
166.3241, 2525.509
166.8062, 2568.167
167.2883, 2608.171
167.7704, 2642.697
168.2525, 2675.025
168.7346, 2708.962
169.2168, 2743.657
169.6989, 2773.647
170.1810, 2795.972
170.6631, 2811.732
171.1452, 2822.290
171.6273, 2828.683
172.1095, 2829.564
172.5916, 2824.291
173.0737, 2812.877
173.5558, 2794.690
174.0379, 2765.834
174.5201, 2730.538
175.0022, 2695.016
175.4843, 2659.860
175.9664, 2626.293
176.4485, 2597.332
176.9306, 2572.608
177.4128, 2549.104
177.8949, 2521.735
178.3770, 2493.618
178.8591, 2471.077
179.3412, 2458.357
179.8233, 2452.136
180.3055, 2446.602
180.7876, 2441.501
181.2697, 2439.983
181.7518, 2444.888
182.2339, 2455.802
182.7160, 2471.675
183.1982, 2492.049
183.6803, 2516.929
184.1624, 2546.399
184.6445, 2580.380
185.1266, 2618.679
185.6087, 2660.239
186.0909, 2705.773
186.5730, 2756.816
187.0551, 2816.458
187.5372, 2882.398
188.0193, 2948.076
188.5014, 3012.461
188.9836, 3079.850
189.4657, 3158.686
189.9478, 3247.635
190.4299, 3340.518
190.9120, 3434.889
191.3941, 3530.028
191.8763, 3625.280
192.3584, 3720.634
192.8405, 3814.730
193.3226, 3908.186
193.8047, 4000.592
194.2868, 4093.150
194.7690, 4185.878
195.2511, 4278.827
195.7332, 4377.618
196.2153, 4481.846
196.6974, 4593.048
197.1795, 4708.698
197.6617, 4828.850
198.1438, 4959.281
198.6259, 5103.889
199.1080, 5261.989
199.5901, 5426.420
200.0722, 5595.330
200.5544, 5772.288
201.0365, 5960.430
201.5186, 6160.512
202.0007, 6371.967
202.4828, 6597.940
202.9649, 6839.680
203.4471, 7079.134
203.9292, 7322.371
204.4113, 7558.698
204.8934, 7773.733
205.3755, 7968.212
205.8576, 8130.488
206.3398, 8260.729
206.8219, 8363.615
207.3040, 8403.484
207.7861, 8378.128
208.2682, 8291.564
208.7503, 8148.073
209.2325, 7945.844
209.7146, 7698.539
210.1967, 7406.405
210.6788, 7062.044
211.1609, 6707.181
211.6430, 6336.434
212.1252, 5958.309
212.6073, 5594.289
213.0894, 5242.794
213.5715, 4912.673
214.0536, 4608.658
214.5357, 4330.657
215.0179, 4075.609
215.5000, 3842.016
215.9821, 3630.075
216.4642, 3440.846
216.9463, 3278.602
217.4284, 3133.029
217.9105, 2998.816
218.3927, 2877.484
218.8748, 2766.822
219.3569, 2667.729
219.8390, 2578.951
220.3211, 2495.551
220.8032, 2416.386
221.2854, 2344.204
221.7675, 2279.235
222.2496, 2223.711
222.7317, 2170.140
223.2138, 2116.951
223.6959, 2066.577
224.1781, 2023.403
224.6602, 1990.026
225.1423, 1959.781
225.6244, 1930.569
226.1065, 1901.078
226.5886, 1875.194
227.0708, 1852.786
227.5529, 1833.825
228.0350, 1818.297
228.5171, 1806.972
228.9992, 1797.537
229.4813, 1789.698
229.9635, 1784.981
230.4456, 1776.905
230.9277, 1763.181
231.4098, 1747.386
231.8919, 1736.397
232.3740, 1732.691
232.8562, 1729.955
233.3383, 1725.877
233.8204, 1719.699
234.3025, 1714.380
234.7846, 1708.408
235.2667, 1704.096
235.7489, 1705.786
236.2310, 1714.580
236.7131, 1727.541
237.1952, 1744.435
237.6773, 1765.999
238.1594, 1787.681
238.6416, 1807.802
239.1237, 1829.082
239.6058, 1856.052
240.0879, 1891.378
240.5700, 1928.642
241.0521, 1966.259
241.5343, 2003.866
242.0164, 2042.026
242.4985, 2081.743
242.9806, 2121.306
243.4627, 2157.616
243.9448, 2186.981
244.4270, 2219.306
244.9091, 2257.600
245.3912, 2302.887
245.8733, 2349.439
246.3554, 2398.269
246.8375, 2447.821
247.3197, 2495.563
247.8018, 2538.601
248.2839, 2584.940
248.7660, 2636.556
249.2481, 2693.916
249.7302, 2754.677
250.2124, 2819.409
250.6945, 2887.519
251.1766, 2960.518
251.6587, 3044.020
252.1408, 3121.485
252.6229, 3188.127
253.1051, 3243.767
253.5872, 3299.911
254.0693, 3361.208
254.5514, 3419.030
255.0335, 3465.764
255.5156, 3503.363
255.9978, 3524.674
256.4799, 3527.751
256.9620, 3512.511
257.4441, 3483.465
257.9262, 3440.342
258.4083, 3383.841
258.8904, 3314.691
259.3726, 3230.414
259.8547, 3138.074
260.3368, 3038.240
260.8189, 2930.644
261.3010, 2821.615
261.7831, 2709.700
262.2653, 2598.923
262.7474, 2494.119
263.2295, 2395.204
263.7116, 2299.759
264.1937, 2205.605
264.6758, 2114.428
265.1580, 2030.980
265.6401, 1957.078
266.1222, 1888.591
266.6043, 1822.439
267.0864, 1756.615
267.5685, 1698.638
268.0507, 1650.226
268.5328, 1609.561
269.0149, 1569.161
269.4970, 1528.011
269.9791, 1488.497
270.4612, 1450.599
270.9434, 1413.935
271.4255, 1382.239
271.9076, 1356.840
272.3897, 1335.467
272.8718, 1311.533
273.3539, 1283.959
273.8361, 1257.283
274.3182, 1233.734
274.8003, 1213.511
275.2824, 1195.511
275.7645, 1180.236
276.2466, 1166.702
276.7288, 1153.142
277.2109, 1139.613
277.6930, 1125.925
278.1751, 1112.529
278.6572, 1099.453
279.1393, 1084.566
279.6215, 1066.966
280.1036, 1049.332
280.5857, 1036.534
281.0678, 1029.166
281.5499, 1021.355
282.0320, 1010.592
282.5142, 997.1265
282.9963, 984.7336
283.4784, 973.4609
283.9605, 963.1194
284.4426, 953.2344
284.9247, 943.7795
285.4069, 936.0631
285.8890, 931.7928
286.3711, 929.7570
286.8532, 923.0560
287.3353, 911.0394
287.8174, 897.8846
288.2996, 887.2801
288.7817, 879.1913
289.2638, 874.2827
289.7459, 874.2111
290.2280, 876.7145
290.7101, 875.0696
291.1923, 869.0701
291.6744, 862.1268
292.1565, 856.7169
292.6386, 852.7166
293.1207, 849.6682
293.6028, 847.8815
294.0850, 846.4923
294.5671, 843.6434
295.0492, 839.3947
295.5313, 834.8631
296.0134, 830.2702
296.4955, 825.9893
296.9777, 823.3480
297.4598, 822.8661
297.9419, 823.4344
298.4240, 823.9772
298.9061, 824.3849
299.3882, 824.0673
299.8704, 822.5375
300.3525, 820.0801
300.8346, 816.8204
301.3167, 812.4977
301.7988, 808.7177
302.2809, 807.4686
302.7631, 808.2338
303.2452, 809.4227
303.7273, 810.6891
304.2094, 811.7327
304.6915, 811.8067
305.1736, 810.7717
305.6558, 810.0416
306.1379, 811.2967
306.6200, 813.7064
307.1021, 815.7036
307.5842, 815.4368
308.0663, 815.1893
308.5485, 817.6434
309.0306, 822.7067
309.5127, 827.6569
309.9948, 829.8488
310.4769, 831.0303
310.9590, 833.5077
311.4412, 840.1741
311.9233, 846.3138
312.4054, 847.7123
312.8875, 845.2499
313.3696, 843.4424
313.8517, 845.4071
314.3339, 848.8406
314.8160, 851.6040
315.2981, 851.8829
315.7802, 853.4696
316.2623, 859.8873
316.7444, 869.2916
317.2266, 876.8299
317.7087, 877.8200
318.1908, 878.0472
318.6729, 881.4868
319.1550, 890.1270
319.6371, 898.2409
320.1193, 904.0467
320.6014, 908.0363
321.0835, 911.0850
321.5656, 911.6504
322.0477, 912.7725
322.5298, 915.7811
323.0120, 921.0016
323.4941, 926.8597
323.9762, 933.0391
324.4583, 939.6771
324.9404, 946.9261
325.4225, 955.5684
325.9047, 964.1349
326.3868, 972.0186
326.8689, 979.2686
327.3510, 986.7450
327.8331, 995.8750
328.3152, 1004.475
328.7974, 1011.024
329.2795, 1012.758
329.7616, 1015.733
330.2437, 1020.255
330.7258, 1026.285
331.2079, 1033.916
331.6901, 1045.090
332.1722, 1055.924
332.6543, 1064.398
333.1364, 1068.255
333.6185, 1073.792
334.1006, 1081.907
334.5828, 1091.441
335.0649, 1099.337
335.5470, 1104.583
336.0291, 1110.085
336.5112, 1117.313
336.9933, 1127.136
337.4755, 1134.203
337.9576, 1137.434
338.4397, 1139.089
338.9218, 1142.469
339.4039, 1148.223
339.8860, 1153.218
340.3681, 1156.066
340.8503, 1157.064
341.3324, 1159.967
341.8145, 1165.128
342.2966, 1171.316
342.7787, 1177.661
343.2608, 1184.114
343.7430, 1190.840
344.2251, 1198.096
344.7072, 1205.439
345.1893, 1210.573
345.6714, 1213.270
346.1535, 1217.159
346.6357, 1225.885
347.1178, 1238.536
347.5999, 1249.128
348.0820, 1256.403
348.5641, 1263.056
349.0462, 1274.313
349.5284, 1289.505
350.0105, 1303.968
350.4926, 1314.129
350.9747, 1321.945
351.4568, 1331.762
351.9389, 1343.785
352.4211, 1357.058
352.9032, 1370.713
353.3853, 1384.751
353.8674, 1399.207
354.3495, 1415.593
354.8316, 1431.485
355.3138, 1443.419
355.7959, 1451.707
356.2780, 1459.520
356.7601, 1470.218
357.2422, 1481.458
357.7243, 1490.114
358.2065, 1493.904
358.6886, 1496.972
359.1707, 1502.359
359.6528, 1509.370
360.1349, 1515.909
360.6170, 1521.933
361.0992, 1526.457
361.5813, 1528.876
362.0634, 1529.138
362.5455, 1527.004
363.0276, 1521.040
363.5097, 1512.864
363.9919, 1504.887
364.4740, 1497.813
364.9561, 1491.054
365.4382, 1485.110
365.9203, 1480.193
366.4024, 1472.869
366.8846, 1460.405
367.3667, 1446.323
367.8488, 1433.480
368.3309, 1423.703
368.8130, 1413.513
369.2951, 1403.054
369.7773, 1392.012
370.2594, 1378.692
370.7415, 1360.136
371.2236, 1341.980
371.7057, 1326.838
372.1878, 1317.333
372.6700, 1305.712
373.1521, 1291.114
373.6342, 1274.874
374.1163, 1259.557
374.5984, 1245.386
375.0805, 1231.944
375.5627, 1219.117
376.0448, 1206.890
376.5269, 1194.809
377.0090, 1182.887
377.4911, 1170.883
377.9732, 1158.262
378.4554, 1144.990
378.9375, 1131.561
379.4196, 1117.399
379.9017, 1103.353
380.3838, 1092.386
380.8659, 1084.859
381.3481, 1078.329
381.8302, 1071.785
382.3123, 1065.051
382.7944, 1056.382
383.2765, 1044.926
383.7586, 1033.029
384.2408, 1024.448
384.7229, 1018.792
385.2050, 1013.119
385.6871, 1005.110
386.1692, 996.3987
386.6513, 990.5894
387.1335, 987.9670
387.6156, 984.8204
388.0977, 977.5319
388.5798, 967.4287
389.0619, 956.6740
389.5440, 944.6460
390.0262, 933.7413
390.5083, 926.6803
390.9904, 922.7736
391.4725, 919.1414
391.9546, 914.4893
392.4367, 909.1536
392.9189, 903.2567
393.4010, 896.6193
393.8831, 890.0212
394.3652, 882.7948
394.8473, 876.0797
395.3294, 871.7361
395.8116, 874.0659
396.2937, 875.7380
396.7758, 872.7513
397.2579, 864.2339
397.7400, 857.7899
398.2221, 857.5792
398.7043, 858.7111
399.1864, 857.2160
399.6685, 848.9470
400.1506, 842.4346
400.6327, 839.7775
401.1148, 839.9191
401.5970, 837.6744
402.0791, 830.5099
402.5612, 823.9310
403.0433, 820.7234
403.5254, 822.8873
404.0075, 822.6566
404.4897, 818.7183
404.9718, 813.5551
405.4539, 811.2316
405.9360, 812.7664
406.4181, 813.9806
406.9002, 813.6717
407.3824, 811.9846
407.8645, 810.1179
408.3466, 807.9928
408.8287, 805.9670
409.3108, 804.6883
409.7929, 804.0756
410.2751, 802.0496
410.7572, 797.4894
411.2393, 792.6537
411.7214, 792.3209
412.2035, 796.0961
412.6856, 800.4667
413.1678, 804.5707
413.6499, 807.6556
414.1320, 807.2099
414.6141, 802.7894
415.0962, 798.6670
415.5783, 800.1278
416.0605, 804.6146
416.5426, 807.2967
417.0247, 805.4352
417.5068, 802.0029
417.9889, 798.9072
418.4710, 796.2773
418.9532, 794.6465
419.4353, 795.3472
419.9174, 796.5678
420.3995, 796.8674
420.8816, 795.8326
421.3637, 794.2422
421.8459, 790.9787
422.3280, 787.6295
422.8101, 786.5846
423.2922, 790.4800
423.7743, 794.8228
424.2564, 798.7242
424.7386, 802.2036
425.2207, 803.7744
425.7028, 801.6671
426.1849, 798.6760
426.6670, 796.5900
427.1491, 795.6638
427.6313, 795.2738
428.1134, 795.3619
428.5955, 796.0001
429.0776, 797.6533
429.5597, 801.4928
430.0418, 804.0249
430.5240, 803.0316
431.0061, 797.9869
431.4882, 797.2321
431.9703, 802.2197
432.4524, 808.3137
432.9345, 809.6022
433.4167, 805.9169
433.8988, 803.6798
434.3809, 804.8998
434.8630, 808.0670
435.3451, 809.2270
435.8272, 808.4542
436.3094, 808.0351
436.7915, 809.9711
437.2736, 813.3732
437.7557, 815.8903
438.2378, 817.1871
438.7199, 818.4963
439.2020, 821.4362
439.6841, 825.2980
440.1663, 828.6278
440.6484, 830.2508
441.1305, 831.5221
441.6126, 833.1257
442.0947, 835.1722
442.5768, 838.3372
443.0590, 844.7799
443.5411, 851.4010
444.0232, 855.5760
444.5053, 855.7059
444.9874, 855.8034
445.4695, 857.1071
445.9517, 859.1937
446.4338, 861.3972
446.9159, 863.9075
447.3980, 866.2174
447.8801, 868.1110
448.3622, 869.5726
448.8444, 871.0115
449.3265, 872.1470
449.8086, 873.5238
450.2907, 875.5394
450.7728, 878.5602
451.2549, 881.5236
451.7371, 884.5883
452.2192, 887.4274
452.7013, 889.0919
453.1834, 889.2262
453.6655, 889.4568
454.1476, 890.2335
454.6298, 891.5820
455.1119, 894.0698
455.5940, 897.7863
456.0761, 902.0277
456.5582, 906.5109
457.0403, 911.0446
457.5225, 914.2769
458.0046, 915.3297
458.4867, 915.9634
458.9688, 919.3481
459.4509, 924.8002
459.9330, 929.3763
460.4152, 930.0031
460.8973, 929.6333
461.3794, 932.0121
461.8615, 937.4091
462.3436, 943.4053
462.8257, 949.1898
463.3079, 954.4656
463.7900, 958.8768
464.2721, 961.5797
464.7542, 964.3826
465.2363, 967.9706
465.7184, 972.2188
466.2006, 976.7662
466.6827, 982.9178
467.1648, 988.1455
467.6469, 990.7166
468.1290, 989.1808
468.6111, 990.4862
469.0933, 997.4808
469.5754, 1005.551
470.0575, 1010.671
470.5396, 1011.564
471.0217, 1012.037
471.5038, 1012.347
471.9860, 1012.587
472.4681, 1013.169
472.9502, 1014.267
473.4323, 1015.129
473.9144, 1015.782
474.3965, 1016.174
474.8787, 1014.263
475.3608, 1009.812
475.8429, 1004.203
476.3250, 999.3488
476.8071, 994.8589
477.2892, 988.6451
477.7714, 979.8093
478.2535, 969.6506
478.7356, 959.9232
479.2177, 950.4825
479.6998, 940.9559
480.1819, 931.1877
480.6641, 921.0499
481.1462, 910.4668
481.6283, 899.3724
482.1104, 888.1472
482.5925, 875.8459
483.0746, 864.0336
483.5568, 854.2921
484.0389, 850.9846
484.5210, 845.6855
485.0031, 834.3297
485.4852, 818.9932
485.9673, 805.7694
486.4495, 797.3499
486.9316, 789.6531
487.4137, 780.9214
487.8958, 770.3754
488.3779, 762.7251
488.8600, 759.3827
489.3422, 757.3663
489.8243, 754.0516
490.3064, 749.2960
490.7885, 743.5868
491.2706, 736.2611
491.7527, 728.6102
492.2349, 724.5114
492.7170, 724.4007
493.1991, 723.1841
493.6812, 716.9302
494.1633, 707.3737
494.6454, 702.2814
495.1276, 701.9263
495.6097, 701.6691
496.0918, 697.0460
496.5739, 689.3996
497.0560, 681.3168
497.5381, 672.2435
498.0203, 665.0973
498.5024, 664.3713
498.9845, 667.4998
499.4666, 668.7734
499.9487, 662.1871
500.4308, 655.7430
500.9130, 655.2936
501.3951, 661.0068
501.8772, 664.5770
502.3593, 662.3942
502.8414, 657.9191
503.3235, 653.2796
503.8057, 646.8234
504.2878, 643.1083
504.7699, 644.0310
505.2520, 647.0743
505.7341, 648.0104
506.2162, 646.0190
506.6984, 643.4717
507.1805, 640.6344
507.6626, 637.6416
508.1447, 635.8946
508.6268, 635.5270
509.1089, 635.8835
509.5911, 637.1025
510.0732, 638.9847
510.5553, 639.0182
511.0374, 636.7209
511.5195, 633.6975
512.0016, 631.0729
512.4838, 629.2697
512.9659, 629.9198
513.4480, 636.0176
513.9301, 642.5119
514.4122, 642.4495
514.8943, 637.2935
515.3765, 633.2190
515.8586, 634.6276
516.3407, 637.8729
516.8228, 640.4144
517.3049, 641.9924
517.7870, 642.6766
518.2692, 641.3165
518.7513, 639.6168
519.2334, 639.2207
519.7155, 642.3802
520.1976, 644.4115
520.6797, 643.8692
521.1619, 641.9083
521.6440, 641.8842
522.1261, 644.5355
522.6082, 647.8541
523.0903, 651.5345
523.5724, 655.6174
524.0546, 657.7477
524.5367, 657.3510
525.0188, 656.7648
525.5009, 658.7291
525.9830, 662.9052
526.4651, 665.1044
526.9473, 664.5583
527.4294, 662.4027
527.9115, 659.2208
528.3936, 655.6112
528.8757, 653.5294
529.3578, 655.1345
529.8400, 657.9029
530.3221, 659.3940
530.8042, 659.6892
531.2863, 659.4845
531.7684, 658.2727
532.2505, 657.2729
532.7327, 657.5172
533.2148, 659.4679
533.6969, 661.5793
534.1790, 664.6578
534.6611, 667.1960
535.1432, 667.4289
535.6254, 662.7461
536.1075, 658.8309
536.5896, 655.7716
537.0717, 653.9127
537.5538, 655.0870
538.0359, 660.9715
538.5181, 666.0342
539.0002, 667.8864
539.4823, 666.5732
539.9644, 664.6019
540.4465, 661.7915
540.9286, 659.2355
541.4108, 658.5834
541.8929, 659.2212
542.3750, 658.1555
542.8571, 654.3254
543.3392, 650.2750
543.8214, 649.1290
544.3035, 650.1406
544.7856, 651.4304
545.2677, 653.2234
545.7498, 654.1327
546.2319, 653.5035
546.7141, 651.2222
547.1962, 646.7167
547.6783, 635.3070
548.1604, 625.0451
548.6425, 620.8511
549.1246, 625.5746
549.6068, 629.4596
550.0889, 631.8866
550.5710, 632.9921
551.0531, 632.7858
551.5352, 630.7765
552.0173, 628.3912
552.4995, 625.4052
552.9816, 622.4091
553.4637, 621.2191
553.9458, 622.1296
554.4279, 622.8006
554.9100, 622.0762
555.3922, 620.3456
555.8743, 619.0353
556.3564, 618.1585
556.8385, 617.6792
557.3206, 618.4816
557.8027, 619.4235
558.2849, 618.0959
558.7670, 613.6276
559.2491, 609.3691
559.7312, 607.5568
560.2133, 607.6537
560.6954, 608.9602
561.1776, 613.5470
561.6597, 616.8591
562.1418, 616.3940
562.6239, 613.2066
563.1060, 611.1732
563.5881, 612.6926
564.0703, 613.5118
564.5524, 611.8303
565.0345, 607.3190
565.5166, 605.0043
565.9987, 605.9193
566.4808, 607.2744
566.9630, 606.5057
567.4451, 603.3401
567.9272, 602.1373
568.4093, 603.7211
568.8914, 606.0260
569.3735, 605.9965
569.8557, 604.0369
570.3378, 602.1136
570.8199, 601.2888
571.3020, 600.4523
571.7841, 597.2421
572.2662, 592.5319
572.7484, 589.5601
573.2305, 592.0846
573.7126, 595.4332
574.1947, 596.0975
574.6768, 593.6465
575.1589, 591.4199
575.6411, 590.7346
576.1232, 590.5031
576.6053, 589.9688
577.0874, 588.5908
577.5695, 587.6950
578.0516, 587.4147
578.5338, 587.5308
579.0159, 587.5237
579.4980, 586.9602
579.9801, 588.1754
580.4622, 592.9302
580.9443, 599.0420
581.4265, 598.3339
581.9086, 590.8284
582.3907, 584.1897
582.8728, 584.1342
583.3549, 587.6759
583.8370, 588.3453
584.3192, 586.0595
584.8013, 583.1053
585.2834, 580.4136
585.7655, 578.3152
586.2476, 577.1012
586.7297, 576.7162
587.2118, 577.5495
587.6939, 581.5635
588.1760, 586.2647
588.6581, 588.4764
589.1403, 586.4935
589.6224, 583.2081
590.1045, 577.3641
590.5866, 570.5317
591.0687, 568.4406
591.5508, 573.3302
592.0330, 577.9078
592.5151, 579.1940
592.9972, 577.5184
593.4793, 576.6895
593.9614, 576.7652
594.4435, 577.2718
594.9257, 578.5597
595.4078, 579.9991
595.8899, 579.3438
596.3720, 576.1147
596.8541, 572.5016
597.3362, 569.5950
597.8184, 567.8927
598.3005, 568.3289
598.7826, 573.4709
599.2647, 577.7502
599.7468, 577.4304
600.2289, 574.4130
600.7111, 572.8993
601.1932, 576.3323
601.6753, 578.7449
602.1574, 577.7808
602.6395, 573.7752
603.1216, 571.6688
603.6038, 572.1550
604.0859, 573.2152
604.5680, 573.6859
605.0501, 573.4758
605.5322, 574.2844
606.0143, 576.3225
606.4965, 578.4490
606.9786, 579.4663
607.4607, 579.5970
607.9428, 579.6862
608.4249, 580.0831
608.9070, 579.9300
609.3892, 577.6307
609.8713, 574.2494
610.3534, 571.7086
610.8355, 571.8446
611.3176, 572.0535
611.7997, 570.6066
612.2819, 568.1246
612.7640, 566.9139
613.2461, 569.1917
613.7282, 571.0759
614.2103, 570.8043
614.6924, 568.1786
615.1746, 567.9076
615.6567, 571.4626
616.1388, 574.5813
616.6209, 573.4573
617.1030, 567.8849
617.5851, 565.7457
618.0673, 567.9249
618.5494, 571.2750
619.0315, 571.8544
619.5136, 570.5475
619.9957, 569.9075
620.4778, 570.8293
620.9600, 572.1138
621.4421, 573.1596
621.9242, 573.6930
622.4063, 573.1506
622.8884, 570.1926
623.3705, 567.2289
623.8527, 564.5870
624.3348, 562.5134
624.8169, 562.4675
625.2990, 567.2174
625.7811, 571.1550
626.2632, 571.9880
626.7454, 569.4619
627.2275, 567.8244
627.7096, 567.3535
628.1917, 567.0511
628.6738, 565.7421
629.1559, 563.6259
629.6381, 563.2667
630.1202, 565.1858
630.6023, 567.4072
631.0844, 568.3010
631.5665, 567.7990
632.0486, 565.3882
632.5308, 559.3007
633.0129, 554.1744
633.4950, 553.8430
633.9771, 556.7198
634.4592, 559.7396
634.9413, 562.9574
635.4235, 565.1198
635.9056, 564.9250
636.3877, 562.9337
636.8698, 563.0150
637.3519, 566.5307
637.8340, 569.8978
638.3162, 571.6334
638.7983, 571.7711
639.2804, 571.6766
639.7625, 571.3460
640.2446, 570.7874
640.7267, 570.1102
641.2089, 568.7855
641.6910, 567.6842
642.1731, 565.4127
642.6552, 563.0768
643.1373, 560.7021
643.6194, 558.8770
644.1016, 558.5642
644.5837, 561.0734
645.0658, 563.3282
645.5479, 563.6452
646.0300, 562.9612
646.5121, 562.7733
646.9943, 564.0068
647.4764, 564.8844
647.9585, 565.0068
648.4406, 564.6093
648.9227, 564.5419
649.4048, 564.8554
649.8870, 565.2821
650.3691, 565.5262
650.8512, 565.8011
651.3333, 567.6599
651.8154, 571.0436
652.2975, 573.4538
652.7797, 572.7948
653.2618, 570.1785
653.7439, 566.4866
654.2260, 561.7377
654.7081, 558.5377
655.1902, 559.1716
655.6724, 561.6683
656.1545, 564.6082
656.6366, 568.9276
657.1187, 571.2560
657.6008, 570.5204
658.0829, 567.9440
658.5651, 564.3578
659.0472, 558.7432
659.5293, 554.9427
660.0114, 553.6230
660.4935, 554.1420
660.9756, 555.7086
661.4578, 558.2352
661.9399, 560.2481
662.4220, 561.0429
662.9041, 561.1857
663.3862, 561.6291
663.8683, 562.2252
664.3505, 562.4033
664.8326, 561.1087
665.3147, 559.8837
665.7968, 560.2242
666.2789, 562.0692
666.7610, 562.8687
667.2432, 560.7885
667.7253, 558.5641
668.2074, 557.4728
668.6895, 557.6552
669.1716, 558.3845
669.6537, 559.9137
670.1359, 561.5046
670.6180, 562.7515
671.1001, 563.6216
671.5822, 563.3563
672.0643, 561.7998
672.5464, 559.4946
673.0286, 555.8686
673.5107, 552.1460
673.9928, 551.2160
674.4749, 555.4575
674.9570, 559.5200
675.4391, 559.4111
675.9213, 556.7260
676.4034, 554.0602
676.8855, 552.4234
677.3676, 550.6189
677.8497, 547.3009
678.3318, 543.6556
678.8140, 543.3760
679.2961, 548.0102
679.7782, 552.3718
680.2603, 554.7355
680.7424, 555.4847
681.2245, 556.1603
681.7067, 556.7629
682.1888, 558.2856
682.6709, 564.1442
683.1530, 570.2652
683.6351, 568.0417
684.1172, 557.7328
684.5994, 548.6533
685.0815, 547.5826
685.5636, 549.4794
686.0457, 550.6845
686.5278, 550.5406
687.0099, 550.3551
687.4921, 550.2526
687.9742, 550.2511
688.4563, 550.3721
688.9384, 550.6332
689.4205, 550.9798
689.9026, 551.4821
690.3848, 551.9174
690.8669, 551.6366
691.3490, 550.8182
691.8311, 551.2256
692.3132, 553.6825
692.7953, 556.3565
693.2775, 557.2615
693.7596, 556.7436
694.2417, 555.5321
694.7238, 552.9565
695.2059, 550.7501
695.6880, 549.6077
696.1702, 549.4254
696.6523, 549.8539
697.1344, 551.5175
697.6165, 553.0027
698.0986, 554.2097
698.5807, 555.0255
699.0629, 554.5908
699.5450, 552.6155
700.0271, 550.6837
700.5092, 549.0167
700.9913, 548.0425
701.4734, 550.2191
701.9556, 555.2650
702.4377, 559.2708
702.9198, 558.9084
703.4019, 556.4197
703.8840, 553.4963
704.3661, 550.2286
704.8483, 548.4952
705.3304, 550.7723
705.8125, 553.5708
706.2946, 554.3466
706.7767, 551.9061
707.2589, 550.8613
707.7410, 552.1679
708.2231, 553.5226
708.7052, 552.0378
709.1873, 547.5877
709.6694, 546.2933
710.1516, 549.2952
710.6337, 553.4527
711.1158, 555.3016
711.5979, 555.3511
712.0800, 554.5585
712.5621, 552.8505
713.0443, 551.1006
713.5264, 549.6015
714.0085, 548.5125
714.4906, 548.0432
714.9727, 549.2987
715.4548, 549.8676
715.9370, 548.6552
716.4191, 546.7803
716.9012, 546.9454
717.3833, 549.9020
717.8654, 552.1362
718.3475, 552.6049
718.8297, 551.7833
719.3118, 550.4626
719.7939, 548.8026
720.2760, 547.8748
720.7581, 549.1261
721.2402, 550.7993
721.7224, 550.3032
722.2045, 548.2934
722.6866, 547.7968
723.1687, 551.8161
723.6508, 556.0503
724.1329, 558.6813
724.6151, 559.5975
725.0972, 559.2857
725.5793, 556.6572
726.0614, 554.6683
726.5435, 555.3658
727.0256, 558.5707
727.5078, 559.6906
727.9899, 558.6478
728.4720, 556.6707
728.9541, 553.7143
729.4362, 550.8153
729.9183, 550.4732
730.4005, 553.0323
730.8826, 555.0348
731.3647, 553.7580
731.8468, 551.4090
732.3289, 549.7494
732.8110, 549.2228
733.2932, 548.9380
733.7753, 549.0984
734.2574, 549.2004
734.7395, 548.7693
735.2216, 547.6959
735.7037, 546.7133
736.1859, 545.8286
736.6680, 545.1595
737.1501, 544.6517
737.6322, 544.4674
738.1143, 545.2458
738.5964, 547.3888
739.0786, 549.7165
739.5607, 551.6358
740.0428, 553.0130
740.5249, 553.6432
741.0070, 553.0165
741.4891, 552.2011
741.9713, 551.1895
742.4534, 550.1667
742.9355, 549.3608
743.4176, 548.6602
743.8997, 548.6571
744.3818, 549.8711
744.8640, 551.2728
745.3461, 550.0817
745.8282, 546.8018
746.3103, 544.7699
746.7924, 546.0333
747.2745, 548.1588
747.7567, 549.0003
748.2388, 548.7198
748.7209, 547.7241
749.2030, 543.6943
749.6851, 541.5856
750.1672, 545.2754
750.6494, 552.6188
751.1315, 555.1932
751.6136, 550.8083
752.0957, 546.5719
752.5778, 544.7644
753.0599, 544.8290
753.5421, 544.4352
754.0242, 543.6535
754.5063, 543.5668
754.9884, 545.5657
755.4705, 548.1457
755.9526, 549.2062
756.4348, 549.0109
756.9169, 548.9908
757.3990, 549.8193
757.8811, 550.9691
758.3632, 552.7390
758.8453, 555.0773
759.3275, 555.1273
759.8096, 551.2930
760.2917, 548.0268
760.7738, 547.6705
761.2559, 549.9125
761.7380, 552.1193
762.2202, 554.3192
762.7023, 554.9022
763.1844, 550.1472
763.6665, 544.2432
764.1486, 544.3493
764.6307, 550.6470
765.1129, 555.9899
765.5950, 556.0674
766.0771, 554.5306
766.5592, 553.8173
767.0413, 554.5735
767.5234, 553.4651
768.0056, 549.0832
768.4877, 545.0275
768.9698, 544.0092
769.4519, 545.9635
769.9340, 547.3989
770.4161, 548.1909
770.8983, 549.2125
771.3804, 552.2884
771.8625, 555.6981
772.3446, 556.3976
772.8267, 553.7654
773.3088, 551.1254
773.7910, 550.2570
774.2731, 549.9641
774.7552, 549.2958
775.2373, 547.8658
775.7194, 546.8629
776.2015, 546.1815
776.6837, 546.0758
777.1658, 547.1636
777.6479, 549.3832
778.1300, 550.1317
778.6121, 549.0057
779.0942, 547.9815
779.5764, 549.5670
780.0585, 552.3574
780.5406, 554.3411
781.0227, 555.1568
781.5048, 555.0878
781.9869, 553.5382
782.4691, 551.5845
782.9512, 550.2267
783.4332, 549.8229
783.9153, 549.3432
784.3975, 548.7685
784.8796, 548.1559
785.3617, 547.4266
785.8438, 546.6320
786.3259, 546.4116
786.8080, 546.8847
787.2902, 547.7235
787.7723, 548.8712
788.2544, 550.0626
788.7365, 550.8929
789.2186, 551.2294
789.7007, 551.3366
790.1829, 550.7987
790.6650, 550.3722
791.1471, 551.0192
791.6292, 554.2128
792.1113, 554.6842
792.5934, 551.0890
793.0756, 546.9452
793.5577, 547.5424
794.0398, 551.9122
794.5219, 553.4686
795.0040, 550.3767
795.4861, 547.4467
795.9683, 550.5127
796.4504, 556.0220
796.9325, 559.3175
797.4146, 558.2869
797.8967, 556.7183
798.3788, 555.7206
798.8610, 554.4453
799.3431, 551.5374
799.8252, 545.4169
800.3073, 543.5221
800.7894, 547.4122
801.2715, 553.1882
801.7537, 556.0333
802.2358, 556.4905
802.7179, 556.6140
803.2000, 556.9954
803.6821, 556.5011
804.1642, 552.7650
804.6464, 548.2837
805.1285, 546.1368
805.6106, 549.3412
806.0927, 550.9730
806.5748, 549.4678
807.0569, 547.0526
807.5391, 545.9346
808.0212, 546.2054
808.5033, 547.3258
808.9854, 549.4094
809.4675, 551.7217
809.9496, 553.9735
810.4318, 555.6784
810.9139, 555.3514
811.3960, 551.8912
811.8781, 549.0941
812.3602, 550.4165
812.8423, 552.8894
813.3245, 553.2665
813.8066, 548.7225
814.2887, 546.3325
814.7708, 546.8141
815.2529, 548.4686
815.7350, 549.7748
816.2172, 550.7014
816.6993, 550.3531
817.1814, 548.3824
817.6635, 546.5651
818.1456, 547.1815
818.6277, 548.9584
819.1099, 549.9031
819.5920, 548.8970
820.0741, 549.2484
820.5562, 554.7509
821.0383, 560.3126
821.5204, 561.2306
822.0026, 554.6861
822.4847, 551.9918
822.9668, 554.3381
823.4489, 557.6200
823.9310, 557.2614
824.4131, 554.2073
824.8953, 551.5975
825.3774, 549.8221
825.8595, 548.5046
826.3416, 547.1801
826.8237, 546.2656
827.3058, 546.1581
827.7880, 546.9623
828.2701, 548.5297
828.7522, 551.3575
829.2343, 554.3194
829.7164, 556.9208
830.1985, 559.2616
830.6807, 559.2822
831.1628, 556.6998
831.6449, 553.8842
832.1270, 552.9188
832.6091, 553.2114
833.0912, 553.9010
833.5734, 554.8840
834.0555, 556.1993
834.5376, 559.3285
835.0197, 561.6348
835.5018, 560.3177
835.9839, 554.2199
836.4661, 553.2659
836.9482, 559.6403
837.4303, 565.7938
837.9124, 566.0899
838.3945, 561.7040
838.8766, 558.0375
839.3588, 555.1573
839.8409, 553.2909
840.3230, 553.2230
840.8051, 553.7905
841.2872, 554.2346
841.7693, 554.4871
842.2515, 554.0005
842.7336, 551.0204
843.2157, 549.1669
843.6978, 550.0861
844.1799, 553.5453
844.6620, 557.0019
845.1442, 560.5359
845.6263, 562.3503
846.1084, 559.6888
846.5905, 555.4754
847.0726, 555.1937
847.5547, 557.9071
848.0369, 559.1006
848.5190, 553.8318
849.0011, 549.3217
849.4832, 549.8463
849.9653, 554.3082
850.4474, 556.3160
850.9296, 554.8372
851.4117, 554.1802
851.8938, 556.4138
852.3759, 559.9421
852.8580, 560.3812
853.3401, 558.2387
853.8223, 555.7741
854.3044, 553.8887
854.7865, 552.2287
855.2686, 550.2404
855.7507, 548.3131
856.2328, 547.3539
856.7150, 547.5360
857.1971, 548.9258
857.6792, 552.5302
858.1613, 556.5432
858.6434, 556.2094
859.1255, 551.7365
859.6077, 549.3394
860.0898, 551.4756
860.5719, 554.6359
861.0540, 554.6072
861.5361, 552.8061
862.0182, 551.5838
862.5004, 551.7131
862.9825, 552.4372
863.4646, 554.2863
863.9467, 556.2324
864.4288, 557.2208
864.9109, 557.2057
865.3931, 556.1410
865.8752, 553.5779
866.3573, 551.5441
866.8394, 554.2708
867.3215, 558.9966
867.8036, 558.7757
868.2858, 550.9961
868.7679, 545.5709
869.2500, 551.0164
869.7321, 559.0166
870.2142, 561.9199
870.6964, 557.6080
871.1785, 554.8397
871.6606, 553.9142
872.1427, 553.8615
872.6248, 554.1603
873.1069, 554.7054
873.5891, 554.9326
874.0712, 554.8317
874.5533, 555.0133
875.0354, 556.2589
875.5175, 557.7071
875.9996, 558.9387
876.4818, 559.9275
876.9639, 559.6708
877.4460, 557.4069
877.9281, 554.9771
878.4102, 552.7347
878.8923, 550.9350
879.3745, 552.0765
879.8566, 555.9506
880.3387, 558.8240
880.8208, 557.3480
881.3029, 554.7262
881.7850, 554.2528
882.2672, 555.4575
882.7493, 556.6361
883.2314, 558.0172
883.7135, 558.3555
884.1956, 556.7898
884.6777, 554.2785
885.1599, 553.5617
885.6420, 554.7646
886.1241, 555.8112
886.6062, 556.1412
887.0883, 555.9403
887.5704, 555.0236
888.0526, 553.8447
888.5347, 553.2328
889.0168, 553.0815
889.4989, 554.0829
889.9810, 558.0959
890.4631, 562.4208
890.9453, 563.8273
891.4274, 561.4870
891.9095, 559.8423
892.3916, 559.2968
892.8737, 559.2922
893.3558, 559.2386
893.8380, 559.2441
894.3201, 559.6403
894.8022, 560.5674
895.2843, 561.2382
895.7664, 560.6945
896.2485, 560.1751
896.7307, 560.8956
897.2128, 563.2885
897.6949, 563.9292
898.1770, 562.1997
898.6591, 560.7158
899.1412, 561.8625
899.6234, 564.5345
900.1055, 565.2498
900.5876, 564.2007
901.0697, 563.3256
901.5518, 564.4881
902.0339, 565.5531
902.5161, 565.3756
902.9982, 563.9141
903.4803, 561.4009
903.9624, 556.5416
904.4445, 553.9432
904.9266, 555.7974
905.4088, 560.0898
905.8909, 561.4407
906.3730, 560.6499
906.8551, 561.1942
907.3372, 566.1234
907.8193, 570.5241
908.3015, 569.5610
908.7836, 566.2841
909.2657, 566.0637
909.7478, 572.7270
910.2299, 576.2945
910.7120, 575.4213
911.1942, 572.3971
911.6763, 569.4520
912.1584, 566.8127
912.6405, 565.7728
913.1226, 566.6720
913.6047, 568.1044
914.0869, 569.3502
914.5690, 570.3608
915.0511, 571.1382
915.5332, 571.7528
916.0153, 571.6527
916.4974, 570.1195
916.9796, 569.1018
917.4617, 570.2476
917.9438, 573.1046
918.4259, 574.0311
918.9080, 573.1956
919.3901, 572.7865
919.8723, 574.9169
920.3544, 577.4742
920.8365, 578.5884
921.3186, 578.5361
921.8007, 579.2242
922.2828, 582.0630
922.7650, 583.7051
923.2471, 582.9459
923.7292, 580.8382
924.2113, 580.0599
924.6934, 580.4327
925.1755, 580.6450
925.6577, 580.1759
926.1398, 579.5816
926.6219, 578.5192
927.1040, 577.9298
927.5861, 579.1528
928.0682, 585.9545
928.5504, 589.0802
929.0325, 586.9611
929.5146, 583.2855
929.9967, 582.1917
930.4788, 583.2086
930.9609, 581.8188
931.4431, 577.4875
931.9252, 574.6411
932.4073, 579.7225
932.8894, 585.6763
933.3715, 585.2572
933.8536, 577.2056
934.3358, 572.8920
934.8179, 575.0663
935.3000, 577.6912
935.7821, 578.5903
936.2642, 577.8456
936.7463, 574.7627
937.2285, 569.8210
937.7106, 566.5931
938.1927, 568.8444
938.6748, 571.6305
939.1569, 570.4645
939.6390, 567.1776
940.1212, 565.9714
940.6033, 568.6676
941.0854, 571.2671
941.5675, 573.7230
942.0496, 575.3315
942.5317, 574.0109
943.0139, 570.6279
943.4960, 569.6505
943.9781, 572.1584
944.4602, 575.1085
944.9423, 577.5934
945.4244, 578.5311
945.9066, 576.2050
946.3887, 568.6153
946.8708, 565.2629
947.3529, 567.5294
947.8350, 570.8200
948.3171, 572.6440
948.7993, 573.1703
949.2814, 572.4943
949.7635, 570.8704
950.2456, 570.0299
950.7277, 572.5029
951.2098, 574.5991
951.6920, 573.1495
952.1741, 569.4574
952.6562, 568.7191
953.1383, 572.6819
953.6204, 574.7563
954.1025, 572.9340
954.5847, 569.9034
955.0668, 570.1395
955.5489, 572.8077
956.0310, 576.0677
956.5131, 580.0911
956.9952, 582.4838
957.4774, 580.2659
957.9595, 576.9987
958.4416, 575.9426
958.9237, 577.6534
959.4058, 579.3239
959.8879, 580.9664
960.3701, 582.4680
960.8522, 584.4556
961.3343, 585.9701
961.8164, 583.5203
962.2985, 578.0424
962.7806, 575.6561
963.2628, 583.3027
963.7449, 590.1681
964.2270, 591.3088
964.7091, 588.5514
965.1912, 586.9601
965.6733, 586.5438
966.1555, 587.4076
966.6376, 590.0572
967.1197, 592.8287
967.6018, 592.5712
968.0839, 591.1808
968.5660, 591.9802
969.0482, 597.4515
969.5303, 601.4886
970.0124, 603.1322
970.4945, 602.7926
970.9766, 599.6292
971.4587, 593.4878
971.9409, 591.9979
972.4230, 595.3527
972.9051, 599.6083
973.3872, 602.2430
973.8693, 603.9927
974.3514, 605.3678
974.8336, 606.4283
975.3157, 607.4068
975.7978, 608.6610
976.2799, 609.2260
976.7620, 608.4155
977.2441, 607.2125
977.7263, 607.9336
978.2084, 610.3900
978.6905, 613.7670
979.1726, 618.4341
979.6547, 622.3387
980.1368, 622.6841
980.6190, 622.1154
981.1010, 623.8667
981.5831, 629.8148
982.0652, 633.4264
982.5474, 634.2410
983.0295, 633.9940
983.5116, 633.1694
983.9937, 632.4833
984.4758, 634.8740
984.9579, 639.8549
985.4401, 643.5024
985.9222, 641.1901
986.4043, 639.5859
986.8864, 642.8857
987.3685, 649.3259
987.8506, 654.0014
988.3328, 656.6707
988.8149, 658.8053
989.2970, 660.6209
989.7791, 662.4028
990.2612, 664.7289
990.7433, 667.2266
991.2255, 669.3668
991.7076, 671.1666
992.1897, 672.0842
992.6718, 671.3109
993.1539, 670.3161
993.6360, 670.0031
994.1182, 670.3570
994.6003, 671.0764
995.0824, 672.1261
995.5645, 671.6055
996.0466, 665.9277
996.5287, 660.1429
997.0109, 659.2534
997.4930, 662.1037
997.9751, 664.2568
998.4572, 666.0081
998.9393, 665.2201
999.4214, 660.8123
999.9036, 654.9890
1000.386, 651.2844
1000.868, 649.2606
1001.350, 647.4495
1001.832, 645.4732
1002.314, 644.3887
1002.796, 646.5995
1003.278, 648.6354
1003.760, 647.5649
1004.243, 643.1945
1004.725, 638.6835
1005.207, 633.6927
1005.689, 630.3253
1006.171, 630.8821
1006.653, 632.8668
1007.135, 632.1614
1007.617, 629.4881
1008.100, 626.7714
1008.582, 625.2820
1009.064, 623.0782
1009.546, 619.6747
1010.028, 615.5541
1010.510, 610.1395
1010.992, 603.7117
1011.474, 603.3835
1011.956, 610.3794
1012.439, 617.4741
1012.921, 619.5242
1013.403, 618.1180
1013.885, 613.2885
1014.367, 605.0054
1014.849, 600.5050
1015.331, 601.9215
1015.813, 602.3329
1016.296, 598.6033
1016.778, 592.7621
1017.260, 589.3361
1017.742, 587.8291
1018.224, 586.6393
1018.706, 584.5190
1019.188, 583.7548
1019.670, 586.5241
1020.152, 590.3286
1020.635, 592.9191
1021.117, 594.3904
1021.599, 593.4538
1022.081, 589.8754
1022.563, 586.1981
1023.045, 583.9337
1023.527, 583.0579
1024.009, 584.5023
1024.492, 587.6956
1024.974, 589.1735
1025.456, 586.3930
1025.938, 584.5281
1026.420, 585.0040
1026.902, 586.4938
1027.384, 586.4963
1027.866, 585.2605
1028.349, 583.6261
1028.831, 581.6031
1029.313, 580.1168
1029.795, 580.1608
1030.277, 580.6758
1030.759, 580.6424
1031.241, 579.9125
1031.723, 580.5510
1032.205, 582.9164
1032.688, 584.4193
1033.170, 582.9799
1033.652, 580.3315
1034.134, 578.7433
1034.616, 578.0687
1035.098, 577.9047
1035.580, 578.4658
1036.062, 579.0729
1036.544, 579.6500
1037.027, 580.1954
1037.509, 580.7484
1037.991, 581.2780
1038.473, 581.7139
1038.955, 582.0535
1039.437, 581.6520
1039.919, 578.7314
1040.401, 576.0618
1040.884, 576.2010
1041.366, 578.7070
1041.848, 579.1547
1042.330, 576.9083
1042.812, 575.5793
1043.294, 576.6743
1043.776, 578.2672
1044.258, 576.0005
1044.740, 572.6981
1045.223, 573.7953
1045.705, 583.1592
1046.187, 589.7311
1046.669, 590.1888
1047.151, 589.0561
1047.633, 589.4953
1048.115, 591.0007
1048.597, 588.4747
1049.079, 582.4658
1049.562, 577.8204
1050.044, 578.2261
1050.526, 579.9628
1051.008, 581.5584
1051.490, 582.6466
1051.972, 582.3978
1052.454, 580.1442
1052.936, 579.0786
1053.419, 579.5321
1053.901, 581.1779
1054.383, 585.7159
1054.865, 590.1346
1055.347, 589.2528
1055.829, 582.7021
1056.311, 577.8912
1056.793, 577.6304
1057.276, 578.3569
1057.758, 579.3851
1058.240, 580.4828
1058.722, 581.0162
1059.204, 581.0320
1059.686, 580.6995
1060.168, 580.0322
1060.650, 579.1274
1061.132, 577.5734
1061.615, 576.1431
1062.097, 575.6083
1062.579, 576.0886
1063.061, 576.3597
1063.543, 576.3896
1064.025, 576.4691
1064.507, 576.8978
1064.989, 577.3914
1065.471, 577.9773
1065.954, 578.3239
1066.436, 577.5955
1066.918, 574.8830
1067.400, 571.9030
1067.882, 568.1550
1068.364, 565.2929
1068.846, 565.8732
1069.328, 568.8988
1069.811, 571.5063
1070.293, 573.4362
1070.775, 575.0153
1071.257, 576.7646
1071.739, 577.7809
1072.221, 577.6282
1072.703, 576.4966
1073.185, 574.7459
1073.667, 572.4132
1074.150, 569.8848
1074.632, 566.8570
1075.114, 565.2059
1075.596, 568.8732
1076.078, 573.6122
1076.560, 574.3876
1077.042, 569.4792
1077.524, 567.0580
1078.006, 567.6521
1078.489, 568.9268
1078.971, 570.0450
1079.453, 570.7232
1079.935, 569.7494
1080.417, 567.9091
1080.899, 567.1190
1081.381, 569.6469
1081.863, 571.0023
1082.345, 570.1689
1082.828, 568.6435
1083.310, 567.6745
1083.792, 567.2620
1084.274, 567.6514
1084.756, 568.7757
1085.238, 569.6349
1085.720, 569.4266
1086.202, 568.9550
1086.685, 568.5048
1087.167, 568.1559
1087.649, 568.1978
1088.131, 568.7274
1088.613, 568.5886
1089.095, 567.4603
1089.577, 566.3257
1090.059, 566.4393
1090.542, 566.9337
1091.024, 566.4678
1091.506, 564.8102
1091.988, 565.6285
1092.470, 570.9760
1092.952, 573.4281
1093.434, 568.9955
1093.916, 562.0570
1094.398, 561.0627
1094.880, 564.1899
1095.363, 567.6337
1095.845, 571.1476
1096.327, 572.8234
1096.809, 571.4226
1097.291, 568.9879
1097.773, 566.1694
1098.255, 563.2532
1098.737, 562.9095
1099.220, 564.7762
1099.702, 566.5829
1100.184, 567.3752
1100.666, 567.5068
1101.148, 566.6444
1101.630, 565.4985
1102.112, 565.1652
1102.594, 565.8130
1103.077, 565.9083
1103.559, 565.3288
1104.041, 564.9670
1104.523, 566.1547
1105.005, 567.4182
1105.487, 567.3154
1105.969, 565.9899
1106.451, 564.4415
1106.933, 562.1526
1107.416, 561.4772
1107.898, 563.1781
1108.380, 565.5500
1108.862, 566.0693
1109.344, 565.8577
1109.826, 567.2521
1110.308, 570.7198
1110.790, 572.4155
1111.272, 570.1495
1111.755, 567.9215
1112.237, 567.3698
1112.719, 567.4099
1113.201, 564.4188
1113.683, 559.5357
1114.165, 556.4706
1114.647, 556.6475
1115.129, 557.6309
1115.612, 558.1631
1116.094, 559.3708
1116.576, 562.8257
1117.058, 568.1538
1117.540, 567.8110
1118.022, 562.2953
1118.504, 557.9159
1118.986, 558.6180
1119.469, 560.6201
1119.951, 561.9301
1120.433, 562.7037
1120.915, 563.2184
1121.397, 563.5897
1121.879, 563.2181
1122.361, 562.0612
1122.843, 560.4991
1123.325, 557.4142
1123.807, 555.1962
1124.290, 557.9704
1124.772, 563.9406
1125.254, 566.3008
1125.736, 562.2217
1126.218, 560.4732
1126.700, 562.6465
1127.182, 565.4536
1127.664, 564.8002
1128.147, 562.3330
1128.629, 560.8392
1129.111, 560.4741
1129.593, 559.8900
1130.075, 557.5280
1130.557, 556.7520
1131.039, 558.9396
1131.521, 562.3391
1132.004, 563.8237
1132.486, 563.7732
1132.968, 563.2166
1133.450, 562.3113
1133.932, 561.2285
1134.414, 559.6368
1134.896, 558.3342
1135.378, 557.6873
1135.860, 557.6271
1136.343, 558.0126
1136.825, 558.7503
1137.307, 559.1670
1137.789, 558.7601
1138.271, 558.6988
1138.753, 560.0880
1139.235, 561.8400
1139.717, 562.7717
1140.199, 562.8511
1140.682, 564.8114
1141.164, 568.5883
1141.646, 570.8676
1142.128, 568.8460
1142.610, 565.8507
1143.092, 564.2346
1143.574, 563.5621
1144.056, 563.2642
1144.539, 563.5901
1145.021, 563.1058
1145.503, 561.7159
1145.985, 560.3059
1146.467, 559.4558
1146.949, 559.0299
1147.431, 558.5276
1147.913, 558.3346
1148.396, 559.8153
1148.878, 564.6796
1149.360, 566.9972
1149.842, 565.8561
1150.324, 563.5689
1150.806, 562.3673
1151.288, 561.6925
1151.770, 560.4778
1152.252, 558.8577
1152.734, 558.2017
1153.217, 558.6873
1153.699, 560.7147
1154.181, 565.3470
1154.663, 569.5858
1155.145, 568.2502
1155.627, 563.5700
1156.109, 559.9086
1156.591, 557.8363
1157.074, 556.7802
1157.556, 558.3600
1158.038, 558.4293
1158.520, 555.0065
1159.002, 550.3055
1159.484, 549.5293
1159.966, 551.6040
1160.448, 553.2347
1160.931, 553.5962
1161.413, 554.0798
1161.895, 555.5735
1162.377, 557.0483
1162.859, 558.1136
1163.341, 558.7646
1163.823, 559.1008
1164.305, 559.0331
1164.787, 557.6953
1165.270, 553.3579
1165.752, 551.6056
1166.234, 558.8617
1166.716, 566.7200
1167.198, 569.1939
1167.680, 566.6191
1168.162, 562.6954
1168.644, 557.7030
1169.126, 554.5730
1169.609, 555.6022
1170.091, 557.3516
1170.573, 558.4817
1171.055, 558.7599
1171.537, 557.6804
1172.019, 554.9625
1172.501, 554.5421
1172.983, 556.3708
1173.466, 558.2181
1173.948, 558.5206
1174.430, 558.5073
1174.912, 559.2545
1175.394, 560.1100
1175.876, 560.0353
1176.358, 558.9243
1176.840, 557.2831
1177.323, 555.0865
1177.805, 553.6284
1178.287, 554.4306
1178.769, 555.9188
1179.251, 557.1721
1179.733, 557.9987
1180.215, 558.0288
1180.697, 557.0856
1181.179, 556.3014
1181.661, 555.8027
1182.144, 555.3073
1182.626, 554.1037
1183.108, 553.1340
1183.590, 553.7275
1184.072, 553.5567
1184.554, 553.8713
1185.036, 555.1953
1185.518, 555.2950
1186.001, 557.0682
1186.483, 558.7178
1186.965, 557.2646
1187.447, 555.3802
1187.929, 556.7398
1188.411, 561.0934
1188.893, 562.7076
1189.375, 560.5710
1189.858, 558.4774
1190.340, 557.1588
1190.822, 556.4920
1191.304, 556.2245
1191.786, 556.5601
1192.268, 558.3454
1192.750, 561.6813
1193.232, 562.5751
1193.714, 560.0892
1194.197, 557.8501
1194.679, 557.0306
1195.161, 556.6649
1195.643, 554.7799
1196.125, 552.8182
1196.607, 553.0635
1197.089, 556.2267
1197.571, 558.6917
1198.053, 560.4487
1198.536, 560.8563
1199.018, 559.1248
1199.500, 557.0318
1199.982, 557.3804
1200.464, 559.2166
1200.946, 561.4826
1201.428, 564.5912
1201.910, 564.4869
1202.393, 559.3943
1202.875, 556.5370
1203.357, 560.7099
1203.839, 566.9962
1204.321, 567.0259
1204.803, 563.3881
1205.285, 560.3911
1205.767, 558.7901
1206.250, 558.7028
1206.732, 560.6432
1207.214, 562.3796
1207.696, 562.3990
1208.178, 561.6912
1208.660, 562.6735
1209.142, 564.0402
1209.624, 563.1302
1210.106, 556.6427
1210.589, 553.8387
1211.071, 555.7777
1211.553, 558.4062
1212.035, 559.4150
1212.517, 559.2411
1212.999, 557.6380
1213.481, 555.6492
1213.963, 555.5056
1214.445, 559.7570
1214.928, 562.4994
1215.410, 563.6059
1215.892, 563.7006
1216.374, 563.3490
1216.856, 562.2294
1217.338, 558.5399
1217.820, 553.7943
1218.302, 551.7939
1218.785, 555.5969
1219.267, 557.7133
1219.749, 557.6144
1220.231, 556.9472
1220.713, 556.1398
1221.195, 556.1926
1221.677, 560.0651
1222.159, 565.9799
1222.641, 568.5250
1223.124, 564.3996
1223.606, 562.7477
1224.088, 564.4037
1224.570, 566.9639
1225.052, 569.3956
1225.534, 570.7115
1226.016, 568.5480
1226.498, 564.0958
1226.980, 561.6276
1227.463, 562.4684
1227.945, 562.6122
1228.427, 561.6078
1228.909, 560.5414
1229.391, 561.1769
1229.873, 561.7305
1230.355, 558.7468
1230.837, 553.8018
1231.320, 553.0338
1231.802, 557.9557
1232.284, 562.8358
1232.766, 567.4070
1233.248, 569.9354
1233.730, 567.8755
1234.212, 563.6610
1234.694, 558.2079
1235.177, 552.7637
1235.659, 551.7522
1236.141, 556.4689
1236.623, 559.1766
1237.105, 558.7059
1237.587, 557.9882
1238.069, 560.8944
1238.551, 563.7493
1239.033, 562.3967
1239.516, 558.0605
1239.998, 555.9239
1240.480, 556.0433
1240.962, 558.6088
1241.444, 564.0203
1241.926, 568.2375
1242.408, 566.3137
1242.890, 563.2886
1243.372, 563.4972
1243.855, 565.7089
1244.337, 565.9195
1244.819, 564.0768
1245.301, 561.8182
1245.783, 559.3986
1246.265, 557.0094
1246.747, 554.1900
1247.229, 552.1382
1247.712, 552.0660
1248.194, 553.2408
1248.676, 553.9786
1249.158, 554.3646
1249.640, 555.9291
1250.122, 558.9950
1250.604, 560.9430
1251.086, 557.9310
1251.568, 555.6774
1252.051, 558.2537
1252.533, 562.7783
1253.015, 561.9709
1253.497, 557.0074
1253.979, 554.1873
1254.461, 554.5280
1254.943, 556.2653
1255.425, 560.6041
1255.907, 563.3851
1256.390, 562.6013
1256.872, 559.9186
1257.354, 558.3282
1257.836, 557.6808
1258.318, 557.2565
1258.800, 556.9334
1259.282, 557.9598
1259.764, 563.1139
1260.247, 566.6528
1260.729, 566.7369
1261.211, 564.9168
1261.693, 563.0470
1262.175, 561.5963
1262.657, 562.3215
1263.139, 565.4767
1263.621, 566.2504
1264.104, 561.6503
1264.586, 558.2445
1265.068, 557.7289
1265.550, 558.7280
1266.032, 559.5978
1266.514, 560.4243
1266.996, 561.4528
1267.478, 561.9557
1267.960, 563.3121
1268.443, 563.0133
1268.925, 562.9958
1269.407, 563.5061
1269.889, 564.5450
1270.371, 567.3649
1270.853, 569.8818
1271.335, 569.1913
1271.817, 565.2765
1272.299, 562.3538
1272.782, 560.5263
1273.264, 559.4022
1273.746, 558.9238
1274.228, 558.9875
1274.710, 560.0634
1275.192, 561.1425
1275.674, 560.5209
1276.156, 559.0750
1276.639, 561.5846
1277.121, 568.0726
1277.603, 570.8759
1278.085, 568.0686
1278.567, 565.1176
1279.049, 568.0877
1279.531, 570.0873
1280.013, 565.0280
1280.495, 567.3915
1280.978, 557.2913
1281.460, 564.5936
1281.942, 566.8810
1282.424, 561.9796
1282.906, 557.7562
1283.388, 559.4482
1283.870, 561.3760
1284.352, 561.2299
1284.834, 560.2251
1285.317, 561.1749
1285.799, 563.1319
1286.281, 563.0896
1286.763, 560.6882
1287.245, 559.2886
1287.727, 560.4257
1288.209, 562.2975
1288.691, 565.0939
1289.173, 567.2236
1289.656, 565.4276
1290.138, 561.9743
1290.620, 561.0250
1291.102, 562.7230
1291.584, 562.4578
1292.066, 558.7957
1292.548, 556.2461
1293.030, 555.5291
1293.513, 556.5178
1293.995, 560.9852
1294.477, 565.6259
1294.959, 566.5620
1295.441, 564.1381
1295.923, 562.3944
1296.405, 561.2550
1296.887, 561.8596
1297.370, 564.5937
1297.852, 566.5706
1298.334, 564.6627
1298.816, 561.8909
1299.298, 559.2732
1299.780, 557.5687
1300.262, 559.3729
1300.744, 564.3148
1301.226, 568.3013
1301.708, 570.8448
1302.191, 571.2839
1302.673, 567.5002
1303.155, 563.3306
1303.637, 559.4952
1304.119, 555.7562
##END=



