##NAMES=Acanthite
##RRUFFID=R070578
##IDEAL CHEMISTRY=Ag^1+^_2_S^2-^
##LOCALITY=Echo Bay mine, Port Radium, Northwest Territories, Canada
##OWNER=RRUFF
##SOURCE=Royal Ontario Museum
##DESCRIPTION=Dark gray metallic fragment
##STATUS=The identification of this mineral has been confirmed by single-crystal X-ray diffraction.
##URL=rruff.info/R070578
93.83722, 256.9423
94.31934, 266.1085
94.80145, 270.2298
95.28357, 281.9688
95.76569, 310.0527
96.24780, 337.4475
96.72992, 359.2438
97.21204, 374.6509
97.69416, 384.8293
98.17628, 390.8087
98.65839, 389.9654
99.14051, 390.9641
99.62263, 395.8434
100.1047, 401.5754
100.5869, 403.8287
101.0690, 398.7794
101.5511, 384.1090
102.0332, 380.9319
102.5153, 392.6332
102.9974, 400.4739
103.4796, 393.3176
103.9617, 375.9354
104.4438, 365.9725
104.9259, 375.0709
105.4080, 393.2879
105.8901, 403.2328
106.3723, 402.5919
106.8544, 395.6102
107.3365, 385.1452
107.8186, 369.7042
108.3007, 356.4394
108.7828, 350.7433
109.2650, 348.7764
109.7471, 345.6326
110.2292, 337.3198
110.7113, 325.5578
111.1934, 319.5211
111.6755, 323.1137
112.1577, 328.6819
112.6398, 335.6437
113.1219, 342.5980
113.6040, 346.7049
114.0861, 344.1557
114.5682, 332.0831
115.0504, 324.2323
115.5325, 321.8076
116.0146, 321.8609
116.4967, 324.4689
116.9788, 328.9991
117.4610, 332.9336
117.9431, 331.7896
118.4252, 317.1244
118.9073, 308.6146
119.3894, 310.6208
119.8715, 317.3284
120.3537, 322.2694
120.8358, 322.4932
121.3179, 319.0940
121.8000, 316.0089
122.2821, 313.9490
122.7642, 311.4128
123.2464, 307.2115
123.7285, 301.8704
124.2106, 297.3427
124.6927, 294.9685
125.1748, 294.5815
125.6569, 294.3048
126.1391, 295.6806
126.6212, 296.2686
127.1033, 291.8850
127.5854, 280.9147
128.0675, 272.4630
128.5496, 277.0303
129.0318, 289.6365
129.5139, 300.5152
129.9960, 304.8334
130.4781, 304.2780
130.9602, 304.6498
131.4423, 307.3734
131.9245, 309.5380
132.4066, 309.5467
132.8887, 307.5823
133.3708, 304.5419
133.8529, 300.4938
134.3350, 295.0587
134.8172, 291.5284
135.2993, 292.0121
135.7814, 293.2022
136.2635, 293.8429
136.7456, 293.5951
137.2277, 292.5392
137.7099, 290.4377
138.1920, 285.3110
138.6741, 283.0822
139.1562, 286.5338
139.6383, 291.3579
140.1204, 293.5302
140.6026, 291.3209
141.0847, 286.3482
141.5668, 283.9273
142.0489, 286.3276
142.5310, 288.9915
143.0131, 292.6740
143.4953, 296.1933
143.9774, 297.7429
144.4595, 296.1663
144.9416, 291.5790
145.4237, 285.8090
145.9058, 272.4379
146.3880, 263.9095
146.8701, 269.1436
147.3522, 286.1707
147.8343, 303.5506
148.3164, 312.7982
148.7986, 313.0535
149.2807, 310.4554
149.7628, 301.2284
150.2449, 291.1965
150.7270, 286.9571
151.2091, 289.8653
151.6913, 294.1442
152.1734, 293.0809
152.6555, 287.9673
153.1376, 284.2113
153.6197, 285.1617
154.1018, 288.7522
154.5840, 289.3330
155.0661, 283.5299
155.5482, 278.5740
156.0303, 282.4720
156.5124, 294.3206
156.9945, 304.5419
157.4767, 304.3424
157.9588, 294.0283
158.4409, 287.4770
158.9230, 289.5822
159.4051, 294.7894
159.8872, 301.5558
160.3694, 309.4489
160.8515, 314.8614
161.3336, 311.2063
161.8157, 293.4022
162.2978, 283.1425
162.7799, 291.1081
163.2621, 303.0419
163.7442, 308.5988
164.2263, 304.1472
164.7084, 294.2216
165.1905, 288.3656
165.6726, 287.5428
166.1548, 290.1145
166.6369, 299.6690
167.1190, 310.7577
167.6011, 317.6105
168.0832, 317.2122
168.5653, 310.7182
169.0475, 303.6957
169.5296, 296.2149
170.0117, 288.0903
170.4938, 276.6707
170.9759, 264.7022
171.4580, 257.0225
171.9402, 257.2058
172.4223, 265.0784
172.9044, 271.4488
173.3865, 275.6051
173.8686, 279.3226
174.3507, 283.8677
174.8329, 288.8408
175.3150, 292.6501
175.7971, 294.0284
176.2792, 292.6698
176.7613, 290.0597
177.2434, 284.2746
177.7256, 278.6723
178.2077, 276.5343
178.6898, 278.0461
179.1719, 279.2851
179.6540, 275.7618
180.1361, 267.2372
180.6183, 260.1207
181.1004, 254.3914
181.5825, 250.7186
182.0646, 250.4749
182.5467, 254.3479
183.0288, 259.7546
183.5110, 263.8385
183.9931, 266.7947
184.4752, 269.8561
184.9573, 274.5963
185.4394, 279.7628
185.9215, 282.1638
186.4037, 280.3919
186.8858, 276.7725
187.3679, 273.0126
187.8500, 269.1139
188.3321, 266.8251
188.8142, 268.3065
189.2964, 273.0092
189.7785, 276.3779
190.2606, 276.7618
190.7427, 276.0365
191.2248, 276.5132
191.7070, 278.3651
192.1891, 278.4625
192.6712, 272.1895
193.1533, 258.5328
193.6354, 248.3362
194.1175, 245.8799
194.5997, 246.7500
195.0818, 249.4083
195.5639, 253.5032
196.0460, 257.7756
196.5281, 260.9623
197.0102, 263.6364
197.4924, 263.2998
197.9745, 255.4677
198.4566, 247.0080
198.9387, 243.1874
199.4208, 245.7845
199.9029, 252.3565
200.3851, 259.0467
200.8672, 269.6732
201.3493, 272.6668
201.8314, 259.7672
202.3135, 242.9100
202.7956, 234.4781
203.2778, 240.2001
203.7599, 254.1494
204.2420, 258.7218
204.7241, 241.6615
205.2062, 230.7181
205.6883, 232.7781
206.1705, 241.3589
206.6526, 249.1890
207.1347, 252.4419
207.6168, 251.6993
208.0989, 249.6577
208.5810, 244.9064
209.0632, 240.2964
209.5453, 235.9944
210.0274, 232.1368
210.5095, 228.5189
210.9916, 224.8256
211.4737, 221.4232
211.9559, 221.8708
212.4380, 231.9524
212.9201, 239.3674
213.4022, 239.2346
213.8843, 233.7731
214.3664, 228.0710
214.8486, 225.4421
215.3307, 225.7492
215.8128, 225.8583
216.2949, 226.7705
216.7770, 226.6029
217.2591, 224.2893
217.7413, 220.1344
218.2234, 214.6242
218.7055, 206.8855
219.1876, 197.5909
219.6697, 197.5385
220.1518, 216.2445
220.6340, 234.8075
221.1161, 241.8535
221.5982, 238.1677
222.0803, 232.5280
222.5624, 231.7368
223.0445, 235.6137
223.5267, 236.0263
224.0088, 229.8951
224.4909, 222.6443
224.9730, 217.1985
225.4551, 213.8797
225.9372, 214.0370
226.4194, 221.4718
226.9015, 234.7559
227.3836, 239.4666
227.8657, 227.2335
228.3478, 210.5269
228.8299, 200.2556
229.3121, 197.2165
229.7942, 198.4627
230.2763, 203.8844
230.7584, 212.3099
231.2405, 217.8555
231.7227, 217.2572
232.2048, 214.4511
232.6869, 214.0282
233.1690, 216.4621
233.6511, 220.1222
234.1332, 225.2775
234.6154, 230.9164
235.0975, 233.4762
235.5796, 230.9750
236.0617, 225.2080
236.5438, 217.4073
237.0259, 206.2172
237.5081, 198.0667
237.9902, 202.1927
238.4723, 213.7406
238.9544, 221.2565
239.4365, 217.8016
239.9186, 208.5070
240.4008, 202.3948
240.8829, 199.7573
241.3650, 200.5596
241.8471, 207.5732
242.3292, 218.0889
242.8113, 225.8138
243.2935, 227.7203
243.7756, 225.0785
244.2577, 220.1732
244.7398, 211.5500
245.2219, 203.8841
245.7040, 200.4836
246.1862, 200.1298
246.6683, 200.5069
247.1504, 200.8916
247.6325, 201.1937
248.1146, 201.2802
248.5967, 201.5378
249.0789, 200.7716
249.5610, 197.3535
250.0431, 192.5185
250.5252, 188.8272
251.0073, 188.1498
251.4894, 189.6644
251.9716, 190.6468
252.4537, 190.9889
252.9358, 190.9233
253.4179, 192.3768
253.9000, 193.6142
254.3821, 190.6788
254.8643, 176.3004
255.3464, 155.9423
255.8285, 152.5647
256.3106, 178.4572
256.7927, 202.2735
257.2748, 209.3428
257.7570, 204.7464
258.2391, 197.7237
258.7212, 192.5062
259.2033, 189.0014
259.6854, 187.0743
260.1675, 188.3870
260.6497, 188.6590
261.1318, 185.0426
261.6139, 179.4575
262.0960, 175.2294
262.5781, 174.6694
263.0602, 176.8211
263.5424, 177.8655
264.0245, 177.2812
264.5066, 176.3073
264.9887, 177.1349
265.4708, 177.7291
265.9529, 174.2370
266.4351, 162.5020
266.9172, 146.0748
267.3993, 138.9766
267.8814, 147.3319
268.3635, 155.7482
268.8456, 158.8110
269.3278, 158.7045
269.8099, 158.5624
270.2920, 160.1026
270.7741, 162.6769
271.2562, 164.1464
271.7383, 164.4141
272.2205, 163.5650
272.7026, 160.4170
273.1847, 156.7002
273.6668, 154.9554
274.1489, 156.9376
274.6310, 160.9042
275.1132, 161.4070
275.5953, 155.3869
276.0774, 151.3254
276.5595, 155.5382
277.0416, 161.2837
277.5237, 159.1087
278.0059, 143.0380
278.4880, 121.3229
278.9701, 115.7161
279.4522, 138.4403
279.9343, 154.1015
280.4164, 149.1254
280.8986, 136.2842
281.3807, 128.2853
281.8628, 130.4770
282.3449, 138.7569
282.8270, 145.2888
283.3091, 150.7083
283.7913, 152.6547
284.2734, 147.4280
284.7555, 140.6327
285.2376, 138.1419
285.7197, 142.2160
286.2018, 148.0669
286.6840, 145.9630
287.1661, 130.5847
287.6482, 121.0810
288.1303, 125.8314
288.6124, 134.3283
289.0945, 138.7941
289.5767, 137.0201
290.0588, 132.1456
290.5409, 128.2832
291.0230, 125.3068
291.5051, 123.8799
291.9872, 123.7398
292.4694, 125.3482
292.9515, 130.1908
293.4336, 138.2842
293.9157, 146.4288
294.3979, 151.1059
294.8800, 152.2833
295.3621, 150.1164
295.8442, 141.8712
296.3263, 132.1298
296.8084, 121.7359
297.2906, 111.4291
297.7727, 103.8183
298.2548, 102.7263
298.7369, 109.1119
299.2190, 114.1145
299.7011, 117.6672
300.1833, 118.9459
300.6654, 116.0216
301.1475, 109.6774
301.6296, 103.8006
302.1117, 101.3127
302.5938, 102.2370
303.0760, 106.3859
303.5581, 120.2575
304.0402, 130.4368
304.5223, 127.1035
305.0044, 113.8777
305.4865, 102.9964
305.9687, 106.2103
306.4508, 121.4419
306.9329, 128.2337
307.4150, 120.7937
307.8971, 112.1333
308.3792, 109.1924
308.8614, 109.7781
309.3435, 108.7758
309.8256, 100.9588
310.3077, 89.46549
310.7898, 86.72372
311.2719, 97.81875
311.7541, 108.5157
312.2362, 112.6953
312.7183, 112.2289
313.2004, 109.4102
313.6825, 103.8620
314.1646, 97.72930
314.6468, 96.04005
315.1289, 100.4872
315.6110, 104.7688
316.0931, 105.9391
316.5752, 105.4924
317.0573, 104.9673
317.5395, 104.8294
318.0216, 104.8321
318.5037, 104.8011
318.9858, 104.8445
319.4679, 104.2052
319.9500, 101.4015
320.4322, 98.32867
320.9143, 97.15480
321.3964, 98.77339
321.8785, 100.6194
322.3606, 98.88162
322.8427, 93.54318
323.3249, 92.07459
323.8070, 101.3611
324.2891, 111.7813
324.7712, 111.8309
325.2533, 99.37333
325.7354, 87.70235
326.2176, 88.89349
326.6997, 100.2458
327.1818, 106.1008
327.6639, 100.3626
328.1460, 91.40922
328.6281, 88.21864
329.1103, 90.68238
329.5924, 93.76889
330.0745, 95.65584
330.5566, 96.36828
331.0387, 95.71896
331.5208, 93.28549
332.0030, 90.49477
332.4851, 88.75348
332.9672, 87.87241
333.4493, 87.20702
333.9314, 85.19286
334.4135, 83.84266
334.8957, 87.49260
335.3778, 97.18096
335.8599, 105.4155
336.3420, 104.9196
336.8241, 97.21400
337.3062, 90.69047
337.7884, 85.62732
338.2705, 82.52706
338.7526, 82.56557
339.2347, 85.52475
339.7168, 88.77916
340.1989, 90.30087
340.6811, 90.89191
341.1632, 93.99639
341.6453, 104.9676
342.1274, 113.1397
342.6095, 110.6855
343.0916, 100.6986
343.5738, 92.45387
344.0559, 90.48989
344.5380, 92.89594
345.0201, 93.96394
345.5022, 94.00405
345.9843, 92.67800
346.4665, 87.19469
346.9486, 80.91827
347.4307, 80.39729
347.9128, 88.28506
348.3949, 98.79326
348.8770, 101.2724
349.3592, 89.88930
349.8413, 82.52936
350.3234, 82.38216
350.8055, 85.38311
351.2876, 89.06097
351.7697, 92.51012
352.2519, 93.76746
352.7340, 89.63550
353.2161, 76.79892
353.6982, 71.99345
354.1803, 83.24617
354.6624, 94.67285
355.1446, 96.47132
355.6267, 89.49226
356.1088, 80.57157
356.5909, 75.24750
357.0730, 73.59355
357.5551, 72.12201
358.0373, 67.77579
358.5194, 66.79824
359.0015, 74.24265
359.4836, 86.02907
359.9657, 94.96789
360.4478, 96.86113
360.9300, 93.06057
361.4121, 89.21430
361.8942, 83.40199
362.3763, 80.42929
362.8584, 83.72230
363.3405, 88.70686
363.8227, 90.28070
364.3048, 86.58329
364.7869, 80.33333
365.2690, 76.39246
365.7511, 75.68726
366.2332, 74.92976
366.7154, 72.47746
367.1975, 70.77988
367.6796, 72.13922
368.1617, 76.53719
368.6438, 81.23492
369.1259, 83.74328
369.6081, 84.04903
370.0902, 81.97401
370.5723, 72.92473
371.0544, 66.28676
371.5365, 69.24619
372.0186, 79.04760
372.5008, 86.59927
372.9829, 83.71123
373.4650, 73.69200
373.9471, 70.26740
374.4292, 76.68548
374.9114, 82.89793
375.3935, 82.52253
375.8756, 78.68430
376.3577, 76.30738
376.8398, 78.03220
377.3220, 80.84583
377.8041, 80.28983
378.2862, 76.09241
378.7683, 72.66806
379.2504, 73.35162
379.7325, 75.06526
380.2147, 72.39110
380.6968, 62.46715
381.1789, 54.89419
381.6610, 57.75593
382.1431, 68.50719
382.6252, 78.37295
383.1074, 85.45877
383.5895, 89.74274
384.0716, 90.61727
384.5537, 88.10358
385.0358, 84.63725
385.5179, 79.96917
386.0001, 75.11581
386.4822, 71.07201
386.9643, 67.99249
387.4464, 66.38265
387.9285, 67.36153
388.4106, 71.27481
388.8928, 72.20142
389.3749, 66.59892
389.8570, 61.17026
390.3391, 60.12657
390.8212, 62.88460
391.3033, 66.97929
391.7855, 71.28971
392.2676, 75.36519
392.7497, 76.09792
393.2318, 69.05944
393.7139, 64.23129
394.1960, 64.24123
394.6782, 60.35866
395.1603, 68.90121
395.6424, 73.72100
396.1245, 75.01808
396.6066, 62.24152
397.0887, 67.63814
397.5709, 65.75178
398.0530, 63.56677
398.5351, 71.52119
399.0172, 60.79160
399.4993, 68.58523
399.9814, 68.98472
400.4636, 72.76833
400.9457, 69.22397
401.4278, 67.94299
401.9099, 73.99232
402.3920, 75.98279
402.8741, 71.59486
403.3563, 75.59359
403.8384, 64.60802
404.3205, 66.77137
404.8026, 74.60789
405.2847, 70.58841
405.7668, 74.72112
406.2490, 75.74902
406.7311, 62.66690
407.2132, 74.12352
407.6953, 74.96793
408.1774, 64.91595
408.6595, 75.53176
409.1417, 66.98197
409.6238, 65.27312
410.1059, 68.71253
410.5880, 66.78506
411.0701, 73.31910
411.5522, 71.70156
412.0344, 69.35573
412.5165, 70.18825
412.9986, 62.01427
413.4807, 70.54916
413.9628, 67.67047
414.4449, 70.46523
414.9271, 74.54594
415.4092, 68.78010
415.8913, 73.43860
416.3734, 61.93141
416.8555, 63.95064
417.3376, 64.51332
417.8198, 73.72182
418.3019, 62.29343
418.7840, 63.93684
419.2661, 71.14605
419.7482, 70.56743
420.2303, 73.24493
420.7125, 66.28296
421.1946, 68.37655
421.6767, 67.97408
422.1588, 76.19690
422.6409, 77.61043
423.1230, 70.81202
423.6052, 64.04839
424.0873, 72.89196
424.5694, 66.94286
425.0515, 65.61486
425.5336, 62.25647
426.0157, 60.72430
426.4979, 63.37836
426.9800, 68.43208
427.4621, 71.42852
427.9442, 68.79482
428.4263, 61.93438
428.9084, 57.85823
429.3906, 56.65190
429.8727, 58.41391
430.3548, 66.92283
430.8369, 76.17498
431.3190, 78.64059
431.8011, 71.58595
432.2833, 62.36933
432.7654, 61.24316
433.2475, 68.75211
433.7296, 73.98533
434.2117, 74.98456
434.6938, 72.82393
435.1760, 66.88499
435.6581, 57.83664
436.1402, 51.49289
436.6223, 52.14228
437.1044, 57.08330
437.5865, 62.09433
438.0687, 67.21563
438.5508, 70.12957
439.0329, 68.41173
439.5150, 63.01723
439.9971, 58.16240
440.4792, 53.42111
440.9614, 49.89759
441.4435, 48.13021
441.9256, 48.04111
442.4077, 49.63311
442.8898, 53.07843
443.3719, 57.68440
443.8541, 62.26910
444.3362, 67.85738
444.8183, 71.27672
445.3004, 70.76467
445.7825, 69.11407
446.2646, 68.91779
446.7468, 70.25689
447.2289, 71.24506
447.7110, 70.00456
448.1931, 66.41470
448.6752, 63.50960
449.1573, 61.78701
449.6395, 60.23653
450.1216, 58.97245
450.6037, 57.63711
451.0858, 55.16361
451.5679, 50.82276
452.0500, 46.85707
452.5322, 48.89006
453.0143, 59.96714
453.4964, 67.02950
453.9785, 61.24405
454.4606, 55.19501
454.9427, 59.22649
455.4249, 72.97977
455.9070, 83.92628
456.3891, 79.54363
456.8712, 64.51190
457.3534, 56.10437
457.8355, 57.19323
458.3176, 59.73437
458.7997, 56.57551
459.2818, 50.79531
459.7639, 49.66706
460.2461, 58.24122
460.7282, 67.98091
461.2103, 73.80756
461.6924, 75.69895
462.1745, 72.27658
462.6566, 61.27277
463.1388, 48.51818
463.6209, 46.66477
464.1030, 62.39672
464.5851, 70.73785
465.0672, 60.95743
465.5493, 47.72511
466.0315, 45.01283
466.5136, 53.26645
466.9957, 63.07718
467.4778, 66.20031
467.9599, 62.63639
468.4420, 59.75742
468.9242, 57.67503
469.4063, 56.19500
469.8884, 55.34001
470.3705, 55.06159
470.8526, 55.41829
471.3347, 56.43721
471.8169, 57.76241
472.2990, 58.83554
472.7811, 59.65763
473.2632, 60.24814
473.7453, 61.46124
474.2274, 61.64227
474.7096, 58.53006
475.1917, 52.97945
475.6738, 49.23068
476.1559, 50.82362
476.6380, 55.80880
477.1201, 59.97011
477.6023, 63.26660
478.0844, 65.73775
478.5665, 67.08638
479.0486, 67.68946
479.5307, 68.59296
480.0128, 70.69499
480.4950, 71.60291
480.9771, 69.48530
481.4592, 65.41635
481.9413, 61.40891
482.4234, 58.00405
482.9055, 54.63450
483.3877, 49.99824
483.8698, 42.67488
484.3519, 41.13205
484.8340, 52.04485
485.3161, 62.19643
485.7982, 63.16743
486.2804, 57.45390
486.7625, 52.05613
487.2446, 51.10549
487.7267, 53.42075
488.2088, 55.17396
488.6909, 56.54530
489.1731, 56.93138
489.6552, 54.22796
490.1373, 52.05058
490.6194, 54.93837
491.1015, 62.63626
491.5836, 68.38165
492.0658, 62.74199
492.5479, 48.12895
493.0300, 43.81435
493.5121, 55.05219
493.9942, 66.82826
494.4763, 70.45882
494.9585, 68.53560
495.4406, 64.51655
495.9227, 56.82729
496.4048, 50.63666
496.8869, 52.21180
497.3690, 59.19179
497.8512, 62.43010
498.3333, 58.34163
498.8154, 38.10867
499.2975, 55.10172
499.7796, 64.64925
500.2617, 67.15135
500.7439, 41.50618
501.2260, 52.20737
501.7081, 48.34259
502.1902, 43.88052
502.6723, 59.69731
503.1544, 38.14610
503.6366, 53.64129
504.1187, 54.34824
504.6008, 61.82340
505.0829, 54.64263
505.5650, 51.98861
506.0471, 63.99522
506.5293, 67.88412
507.0114, 59.01621
507.4935, 66.92160
507.9756, 44.85843
508.4577, 49.09308
508.9398, 64.67406
509.4220, 56.54306
509.9041, 64.71642
510.3862, 66.68016
510.8683, 40.42389
511.3504, 63.24507
511.8326, 64.84185
512.3147, 44.64582
512.7968, 65.78541
513.2789, 48.59376
513.7610, 45.08401
514.2432, 51.87079
514.7253, 47.92381
515.2074, 60.89984
515.6895, 57.57271
516.1716, 52.78898
516.6537, 54.36197
517.1359, 37.92197
517.6180, 54.89969
518.1001, 49.05028
518.5822, 54.54774
519.0643, 62.61710
519.5464, 50.99337
520.0286, 60.21832
520.5107, 37.11189
520.9928, 41.05831
521.4749, 42.09162
521.9570, 60.41656
522.4391, 37.46772
522.9213, 40.66251
523.4034, 54.98886
523.8855, 53.73958
524.3676, 59.00255
524.8497, 44.98654
525.3318, 49.08167
525.8140, 48.18468
526.2961, 64.53827
526.7782, 67.27328
527.2603, 53.58441
527.7424, 62.27106
528.2245, 70.92664
528.7067, 69.28132
529.1888, 61.56216
529.6709, 54.67438
530.1530, 50.03465
530.6351, 47.28514
531.1172, 46.19232
531.5994, 46.81813
532.0815, 48.37017
532.5636, 51.87172
533.0457, 54.99986
533.5278, 57.15764
534.0099, 58.41800
534.4921, 58.61056
534.9742, 57.71091
535.4563, 56.75783
535.9384, 58.09165
536.4205, 62.86665
536.9026, 64.01624
537.3848, 57.22374
537.8669, 50.79993
538.3490, 49.90151
538.8311, 52.62671
539.3132, 53.58937
539.7953, 48.65057
540.2775, 42.86797
540.7596, 43.99926
541.2417, 51.37075
541.7238, 56.97046
542.2059, 57.93617
542.6880, 56.06116
543.1702, 53.52417
543.6523, 49.99449
544.1344, 47.70498
544.6165, 47.82253
545.0986, 48.61660
545.5807, 49.00354
546.0629, 48.87488
546.5450, 48.45796
547.0271, 47.96577
547.5092, 47.07084
547.9913, 44.22197
548.4734, 35.53632
548.9556, 31.96577
549.4377, 38.69589
549.9198, 46.85157
550.4019, 50.47246
550.8840, 49.23662
551.3661, 46.17099
551.8483, 41.64692
552.3304, 37.32091
552.8125, 39.74049
553.2946, 50.72637
553.7767, 59.77324
554.2589, 61.54925
554.7410, 58.59165
555.2231, 55.29739
555.7052, 51.05245
556.1873, 48.53593
556.6694, 50.44416
557.1516, 53.85416
557.6337, 54.80466
558.1158, 52.96214
558.5979, 50.67963
559.0800, 49.93084
559.5621, 50.46669
560.0443, 49.64149
560.5264, 43.06823
561.0085, 40.54966
561.4906, 47.53908
561.9727, 56.59966
562.4548, 59.95211
562.9370, 56.43750
563.4191, 51.70235
563.9012, 51.94379
564.3833, 56.52916
564.8654, 58.48250
565.3475, 56.85163
565.8297, 54.74825
566.3118, 53.30956
566.7939, 52.57671
567.2760, 52.90835
567.7581, 55.00911
568.2402, 56.54803
568.7224, 55.80581
569.2045, 53.74429
569.6866, 52.03142
570.1687, 50.98638
570.6508, 50.01368
571.1329, 48.37402
571.6151, 46.07729
572.0972, 45.57601
572.5793, 48.72874
573.0614, 51.31496
573.5435, 52.88343
574.0256, 53.20728
574.5078, 51.27843
574.9899, 47.14473
575.4720, 43.48487
575.9541, 44.12169
576.4362, 48.87443
576.9183, 51.30345
577.4005, 50.39069
577.8826, 48.90378
578.3647, 48.81863
578.8468, 49.02997
579.3289, 47.39787
579.8110, 42.14663
580.2932, 38.15489
580.7753, 40.56021
581.2574, 45.77411
581.7395, 45.89266
582.2216, 39.39951
582.7037, 32.82371
583.1859, 32.33555
583.6680, 37.96798
584.1501, 43.42852
584.6322, 50.65622
585.1143, 55.36646
585.5964, 55.39508
586.0786, 53.07428
586.5607, 50.21823
587.0428, 47.58891
587.5249, 46.53061
588.0070, 50.40617
588.4891, 58.48885
588.9713, 60.07065
589.4534, 52.18260
589.9355, 44.02205
590.4176, 40.29921
590.8997, 39.71288
591.3818, 40.81842
591.8640, 44.69064
592.3461, 47.32667
592.8282, 45.00409
593.3103, 40.78952
593.7924, 39.68861
594.2745, 42.38746
594.7567, 45.98817
595.2388, 48.02280
595.7209, 48.61926
596.2030, 49.81839
596.6851, 52.69999
597.1672, 54.84668
597.6494, 55.68015
598.1315, 55.81673
598.6136, 56.71981
599.0957, 58.18316
599.5778, 57.20741
600.0599, 47.26184
600.5421, 32.08623
601.0242, 29.57644
601.5063, 42.69267
601.9884, 55.19765
602.4705, 59.74375
602.9526, 58.23288
603.4348, 54.87520
603.9169, 48.86216
604.3990, 43.39589
604.8811, 38.11926
605.3632, 34.65591
605.8453, 35.84859
606.3275, 40.99995
606.8096, 46.22468
607.2917, 49.06773
607.7738, 49.43504
608.2559, 46.16600
608.7380, 34.09130
609.2202, 28.44767
609.7023, 36.99458
610.1844, 47.30043
610.6665, 51.34914
611.1486, 49.08225
611.6307, 44.68708
612.1129, 38.02898
612.5950, 32.29755
613.0771, 34.68731
613.5592, 44.60081
614.0413, 51.21017
614.5234, 49.53402
615.0056, 44.14890
615.4877, 42.70506
615.9698, 47.21331
616.4519, 47.89586
616.9340, 38.84521
617.4161, 31.02115
617.8983, 33.12293
618.3804, 41.08408
618.8625, 45.22704
619.3446, 40.89479
619.8267, 33.08742
620.3088, 30.21242
620.7910, 32.77402
621.2731, 37.31569
621.7552, 46.23370
622.2373, 53.46691
622.7194, 54.68914
623.2015, 51.58740
623.6837, 48.11644
624.1658, 44.69272
624.6479, 41.95250
625.1300, 41.05180
625.6121, 41.02927
626.0942, 39.06122
626.5764, 34.56134
627.0585, 31.51477
627.5406, 34.57119
628.0227, 43.90613
628.5048, 48.97260
628.9869, 44.63318
629.4691, 41.97022
629.9512, 43.97118
630.4333, 47.80619
630.9154, 50.78406
631.3975, 52.31722
631.8796, 53.11794
632.3618, 54.64229
632.8439, 55.84945
633.3260, 52.11974
633.8081, 42.47585
634.2902, 36.15594
634.7723, 39.06644
635.2545, 47.08495
635.7366, 50.64737
636.2187, 47.90097
636.7008, 46.68501
637.1829, 48.87729
637.6650, 52.47533
638.1472, 57.90903
638.6293, 63.50301
639.1114, 64.93488
639.5935, 59.35682
640.0756, 50.15351
640.5577, 44.93274
641.0399, 44.52766
641.5220, 43.68984
642.0041, 40.38301
642.4862, 38.14600
642.9683, 40.62904
643.4504, 46.17272
643.9326, 49.40219
644.4147, 46.83434
644.8968, 43.86613
645.3789, 45.99945
645.8610, 50.14713
646.3431, 48.25312
646.8253, 38.60268
647.3074, 29.83295
647.7895, 32.11613
648.2716, 45.61640
648.7537, 51.19790
649.2358, 41.55776
649.7180, 33.32642
650.2001, 29.73168
650.6822, 28.91289
651.1643, 28.82558
651.6464, 29.22006
652.1285, 31.78057
652.6107, 40.33312
653.0928, 51.00653
653.5749, 55.97073
654.0570, 55.09386
654.5391, 50.88571
655.0212, 43.08345
655.5034, 35.10682
655.9855, 34.14899
656.4676, 45.77087
656.9497, 51.57428
657.4318, 45.57780
657.9139, 39.47536
658.3961, 40.59585
658.8782, 46.26646
659.3603, 50.29448
659.8424, 49.83485
660.3245, 47.65751
660.8066, 48.55932
661.2888, 52.18502
661.7709, 51.24295
662.2530, 42.79049
662.7352, 35.26732
663.2173, 35.82026
663.6994, 42.03737
664.1815, 44.80576
664.6636, 41.88838
665.1458, 38.60969
665.6279, 36.44868
666.1100, 34.85202
666.5921, 32.24159
667.0742, 29.23771
667.5563, 29.61847
668.0385, 37.18535
668.5206, 48.58295
669.0027, 51.71181
669.4848, 43.95607
669.9669, 36.90283
670.4490, 30.61862
670.9312, 28.19834
671.4133, 34.98409
671.8954, 48.85580
672.3775, 56.88242
672.8596, 51.77473
673.3417, 43.14288
673.8239, 35.51333
674.3060, 29.72017
674.7881, 27.73439
675.2702, 29.97466
675.7523, 34.24910
676.2344, 38.47961
676.7166, 42.68736
677.1987, 44.81934
677.6808, 43.92878
678.1629, 42.41307
678.6450, 40.64178
679.1271, 38.74824
679.6093, 36.12140
680.0914, 32.80730
680.5735, 31.85673
681.0556, 38.16177
681.5377, 45.64732
682.0198, 45.45048
682.5020, 38.92488
682.9841, 33.74006
683.4662, 33.22259
683.9483, 35.14798
684.4304, 35.64011
684.9125, 33.37894
685.3947, 34.78475
685.8768, 46.60149
686.3589, 54.64436
686.8410, 51.03157
687.3231, 42.41819
687.8052, 38.55400
688.2874, 42.29932
688.7695, 46.91267
689.2516, 45.85384
689.7337, 42.19163
690.2158, 43.13571
690.6979, 48.98737
691.1801, 54.22194
691.6622, 55.81894
692.1443, 54.66574
692.6264, 52.85888
693.1085, 49.86745
693.5906, 47.23933
694.0728, 44.19728
694.5549, 42.24778
695.0370, 43.96255
695.5191, 46.99467
696.0012, 46.18270
696.4833, 38.74044
696.9655, 31.10631
697.4476, 31.09666
697.9297, 36.71120
698.4118, 41.46159
698.8939, 44.59809
699.3760, 46.00910
699.8582, 45.49901
700.3403, 43.26829
700.8224, 40.08671
701.3045, 32.66542
701.7866, 28.95446
702.2687, 31.90674
702.7509, 36.13901
703.2330, 38.56360
703.7151, 39.19337
704.1972, 38.99206
704.6793, 38.27977
705.1614, 37.41689
705.6436, 36.17191
706.1257, 34.97684
706.6078, 36.93228
707.0899, 43.08987
707.5720, 49.14523
708.0541, 51.94973
708.5363, 51.71939
709.0184, 49.79401
709.5005, 43.02493
709.9826, 38.97464
710.4647, 39.90122
710.9468, 42.57356
711.4290, 45.63586
711.9111, 48.23726
712.3932, 48.85201
712.8753, 46.24901
713.3574, 41.99368
713.8395, 37.95976
714.3217, 34.25635
714.8038, 31.68253
715.2859, 30.34885
715.7680, 30.49357
716.2501, 32.77614
716.7322, 36.89365
717.2144, 39.57158
717.6965, 39.62304
718.1786, 39.94247
718.6607, 41.09353
719.1428, 42.51028
719.6249, 43.57661
720.1071, 44.42480
720.5892, 45.96561
721.0713, 49.45818
721.5534, 52.70140
722.0355, 51.24964
722.5176, 45.94832
722.9998, 43.37718
723.4819, 45.59715
723.9640, 47.19979
724.4461, 42.29091
724.9282, 31.71858
725.4103, 27.17122
725.8925, 32.67138
726.3746, 38.65762
726.8567, 46.65610
727.3388, 52.68524
727.8209, 52.53892
728.3030, 47.14346
728.7852, 41.05085
729.2673, 35.78234
729.7494, 32.72486
730.2315, 35.82855
730.7136, 43.43610
731.1957, 46.54623
731.6779, 42.72636
732.1600, 38.78205
732.6421, 41.48391
733.1242, 49.79803
733.6063, 52.71819
734.0884, 44.56804
734.5706, 38.62075
735.0527, 36.92876
735.5348, 36.90358
736.0169, 36.96694
736.4990, 36.93375
736.9811, 37.03614
737.4633, 37.54682
737.9454, 37.98377
738.4275, 36.86550
738.9096, 35.23305
739.3917, 36.97926
739.8738, 42.86977
740.3560, 48.63760
740.8381, 50.62543
741.3202, 49.43066
741.8023, 48.84318
742.2844, 50.88529
742.7665, 49.92030
743.2487, 39.87146
743.7308, 31.79028
744.2129, 35.32573
744.6950, 46.82557
745.1771, 54.38644
745.6592, 52.19742
746.1414, 47.22188
746.6235, 43.91791
747.1056, 42.14079
747.5877, 42.15876
748.0698, 43.75588
748.5519, 44.85261
749.0341, 43.66088
749.5162, 41.34436
749.9983, 42.31665
750.4804, 48.44617
750.9625, 52.66216
751.4446, 54.37069
751.9268, 53.77732
752.4089, 49.76652
752.8910, 43.77426
753.3731, 39.19754
753.8552, 36.59898
754.3373, 35.79855
754.8195, 39.05326
755.3016, 42.64481
755.7837, 41.02607
756.2658, 34.97031
756.7479, 29.58849
757.2300, 27.80203
757.7122, 29.19957
758.1943, 33.90366
758.6764, 42.50395
759.1585, 48.77123
759.6406, 52.10028
760.1227, 53.18714
760.6049, 50.80357
761.0870, 46.84585
761.5691, 46.30087
762.0512, 52.07167
762.5333, 54.21970
763.0154, 46.59430
763.4976, 37.89073
763.9797, 35.03050
764.4618, 36.39349
764.9439, 36.61759
765.4260, 33.34869
765.9081, 30.78999
766.3903, 36.39113
766.8724, 48.01057
767.3545, 52.63156
767.8366, 48.76967
768.3187, 45.36030
768.8008, 47.54296
769.2830, 51.70662
769.7651, 50.50258
770.2472, 40.34353
770.7293, 35.49393
771.2114, 39.13654
771.6935, 44.38935
772.1757, 51.67938
772.6578, 57.50794
773.1399, 55.99351
773.6220, 46.13276
774.1041, 36.45768
774.5862, 33.29139
775.0684, 34.29100
775.5505, 37.09787
776.0326, 40.97897
776.5147, 42.60899
776.9968, 40.72666
777.4789, 37.15566
777.9611, 34.06662
778.4432, 31.47019
778.9253, 28.87283
779.4074, 24.59550
779.8895, 23.17836
780.3716, 28.00475
780.8538, 34.40884
781.3359, 39.12821
781.8180, 41.90026
782.3001, 42.81809
782.7822, 40.79337
783.2643, 38.07170
783.7465, 35.57947
784.2286, 33.60220
784.7107, 32.53465
785.1928, 32.45199
785.6749, 33.52714
786.1570, 36.43645
786.6392, 39.71205
787.1213, 37.58924
787.6034, 29.04514
788.0855, 25.68484
788.5676, 31.93539
789.0497, 38.90556
789.5319, 38.34406
790.0140, 32.20631
790.4961, 31.41051
790.9782, 41.52363
791.4603, 48.69393
791.9424, 50.02771
792.4246, 48.54629
792.9067, 44.72971
793.3888, 40.15710
793.8709, 38.23402
794.3530, 40.98457
794.8351, 43.72836
795.3173, 39.47932
795.7994, 31.65036
796.2815, 30.29769
796.7636, 35.89753
797.2457, 40.80186
797.7278, 40.84416
798.2100, 38.31691
798.6921, 37.92241
799.1742, 40.78440
799.6563, 41.30484
800.1384, 36.88742
800.6205, 33.59634
801.1027, 33.12709
801.5848, 35.07181
802.0669, 40.89337
802.5490, 51.03469
803.0311, 55.42282
803.5132, 43.32007
803.9954, 30.52529
804.4775, 31.09100
804.9596, 39.13143
805.4417, 42.88822
805.9238, 39.53949
806.4059, 34.92828
806.8881, 34.66988
807.3702, 37.47194
807.8523, 38.45447
808.3344, 37.40199
808.8165, 38.36816
809.2986, 43.59740
809.7808, 47.82384
810.2629, 44.95566
810.7450, 35.83569
811.2271, 31.69777
811.7092, 35.62296
812.1913, 39.97124
812.6735, 45.08084
813.1556, 49.39048
813.6377, 52.33558
814.1198, 53.50851
814.6019, 51.93961
815.0840, 46.64281
815.5662, 40.42325
816.0483, 33.68386
816.5304, 28.43735
817.0125, 29.29250
817.4946, 35.58601
817.9767, 42.21105
818.4589, 46.58356
818.9410, 48.82375
819.4231, 48.61380
819.9052, 45.58441
820.3873, 43.78637
820.8694, 43.57157
821.3516, 43.81347
821.8337, 44.38186
822.3158, 44.90737
822.7979, 44.76508
823.2800, 43.88013
823.7621, 43.11044
824.2443, 43.19347
824.7264, 42.67204
825.2085, 38.80690
825.6906, 35.21311
826.1727, 38.20668
826.6548, 47.13585
827.1370, 52.60280
827.6191, 46.11249
828.1013, 35.56993
828.5834, 31.88952
829.0655, 33.64429
829.5476, 36.60532
830.0297, 39.85664
830.5118, 42.73606
830.9940, 44.91590
831.4761, 45.94110
831.9582, 43.35497
832.4403, 34.64734
832.9224, 30.94579
833.4045, 35.62254
833.8867, 42.08922
834.3688, 49.03498
834.8509, 54.49089
835.3330, 53.44809
835.8151, 41.96192
836.2972, 35.77789
836.7794, 43.90003
837.2615, 53.34713
837.7436, 55.79283
838.2257, 53.45047
838.7078, 50.69268
839.1899, 48.87394
839.6721, 47.38640
840.1542, 45.54570
840.6363, 43.73309
841.1184, 43.35805
841.6005, 43.94386
842.0826, 41.98623
842.5648, 36.33996
843.0469, 31.40401
843.5290, 31.84608
844.0111, 36.93153
844.4932, 41.28896
844.9753, 45.62371
845.4575, 47.28532
845.9396, 43.45808
846.4217, 39.59972
846.9038, 39.81820
847.3859, 42.90430
847.8680, 45.78755
848.3502, 48.43830
848.8323, 50.30320
849.3144, 51.99812
849.7965, 52.16539
850.2786, 47.86836
850.7607, 41.71703
851.2429, 39.87307
851.7250, 44.42326
852.2071, 48.12920
852.6892, 41.20079
853.1713, 30.07287
853.6534, 29.02231
854.1356, 36.54698
854.6177, 42.20699
855.0998, 42.52124
855.5819, 40.67957
856.0640, 39.97188
856.5461, 40.40582
857.0283, 42.49530
857.5104, 47.52446
857.9925, 50.09213
858.4746, 47.00385
858.9567, 43.92318
859.4388, 47.08994
859.9210, 54.30172
860.4031, 56.83483
860.8852, 51.79306
861.3673, 46.21318
861.8494, 40.65259
862.3315, 35.59303
862.8137, 30.90200
863.2958, 27.11571
863.7779, 24.95908
864.2600, 24.65379
864.7421, 26.53766
865.2242, 33.32973
865.7064, 40.97848
866.1885, 43.20062
866.6706, 40.91730
867.1527, 37.05799
867.6348, 32.74442
868.1169, 30.84034
868.5991, 35.45054
869.0812, 44.51639
869.5633, 45.76791
870.0454, 37.27181
870.5275, 35.45868
871.0096, 46.90538
871.4918, 58.26911
871.9739, 57.50480
872.4560, 47.64632
872.9381, 43.42068
873.4202, 50.74921
873.9023, 54.88655
874.3845, 53.46982
874.8666, 51.30907
875.3487, 50.56440
875.8308, 50.81588
876.3129, 51.69541
876.7950, 53.32966
877.2772, 52.91350
877.7593, 46.16866
878.2414, 39.40925
878.7235, 38.78073
879.2056, 41.95877
879.6877, 44.93907
880.1699, 46.44859
880.6520, 45.98436
881.1341, 42.18058
881.6162, 37.47176
882.0983, 38.02109
882.5804, 42.98839
883.0626, 45.92941
883.5447, 45.73297
884.0268, 43.46261
884.5089, 39.40289
884.9910, 34.60612
885.4731, 31.76922
885.9553, 30.59516
886.4374, 32.79898
886.9195, 42.30062
887.4016, 48.94420
887.8837, 45.51240
888.3658, 38.29620
888.8480, 35.79175
889.3301, 38.50631
889.8122, 40.83460
890.2943, 42.85434
890.7764, 43.26785
891.2585, 39.31263
891.7407, 35.06834
892.2228, 35.00510
892.7049, 38.91127
893.1870, 43.39567
893.6691, 46.80044
894.1512, 50.17738
894.6334, 56.84548
895.1155, 62.99509
895.5976, 60.60189
896.0797, 50.99421
896.5618, 42.77806
897.0439, 40.03578
897.5261, 40.02126
898.0082, 39.00936
898.4903, 37.22265
898.9724, 36.70940
899.4545, 37.57500
899.9366, 38.03394
900.4188, 37.37738
900.9009, 36.59808
901.3830, 36.93071
901.8651, 38.21269
902.3472, 38.11240
902.8293, 35.44960
903.3115, 33.71479
903.7936, 33.39083
904.2757, 34.01261
904.7578, 35.04395
905.2399, 36.85339
905.7220, 40.83852
906.2042, 48.82367
906.6863, 53.48288
907.1684, 49.17351
907.6505, 45.06865
908.1326, 48.20701
908.6147, 54.29837
909.0969, 57.05024
909.5790, 55.26826
910.0611, 51.77106
910.5432, 47.01188
911.0253, 42.74181
911.5074, 41.57397
911.9896, 42.01111
912.4717, 39.97999
912.9538, 35.79742
913.4359, 35.62309
913.9180, 43.96350
914.4001, 53.63310
914.8823, 49.54779
915.3644, 33.98913
915.8465, 26.89516
916.3286, 29.62371
916.8107, 35.20160
917.2928, 41.60634
917.7750, 46.21955
918.2571, 44.75761
918.7392, 37.20650
919.2213, 33.81491
919.7034, 36.50144
920.1855, 39.23809
920.6677, 41.50747
921.1498, 42.81233
921.6319, 41.77890
922.1140, 39.44370
922.5961, 39.45683
923.0782, 45.26512
923.5604, 46.74237
924.0425, 35.88429
924.5246, 27.36924
925.0067, 31.83028
925.4888, 42.44647
925.9709, 49.61793
926.4531, 51.42375
926.9352, 49.96445
927.4173, 44.11440
927.8994, 37.66430
928.3815, 32.98697
928.8636, 29.95279
929.3458, 28.83075
929.8279, 29.24964
930.3100, 29.97115
930.7921, 30.35457
931.2742, 30.34738
931.7563, 28.63647
932.2385, 26.69872
932.7206, 30.25180
933.2027, 38.64711
933.6848, 43.86784
934.1669, 42.63000
934.6490, 39.01854
935.1312, 38.01914
935.6133, 39.24790
936.0954, 39.80304
936.5775, 39.64914
937.0596, 39.05157
937.5417, 37.97738
938.0239, 36.76608
938.5060, 35.87825
938.9881, 34.93063
939.4702, 32.36136
939.9523, 25.55124
940.4344, 23.34226
940.9166, 29.24081
941.3987, 35.28859
941.8808, 38.89389
942.3629, 40.93297
942.8450, 42.45050
943.3271, 43.48121
943.8093, 43.24379
944.2914, 40.56238
944.7735, 37.95669
945.2556, 35.19070
945.7377, 33.69826
946.2198, 36.54488
946.7020, 41.49502
947.1841, 42.04158
947.6662, 34.91454
948.1483, 29.08396
948.6304, 32.08950
949.1125, 37.62941
949.5947, 38.10768
950.0768, 36.49532
950.5589, 41.23714
951.0410, 53.06377
951.5231, 61.49878
952.0052, 56.99805
952.4874, 46.86925
952.9695, 41.47425
953.4516, 40.26522
953.9337, 43.62885
954.4158, 50.58756
954.8979, 53.20344
955.3801, 46.93694
955.8622, 37.88082
956.3443, 36.42419
956.8264, 41.80228
957.3085, 42.82584
957.7906, 38.88119
958.2728, 39.49789
958.7549, 48.67233
959.2370, 58.19310
959.7191, 60.30680
960.2012, 56.23209
960.6833, 51.48020
961.1655, 44.86563
961.6476, 41.35190
962.1297, 42.70164
962.6118, 44.73492
963.0939, 46.55720
963.5760, 47.10340
964.0582, 43.53317
964.5403, 34.32189
965.0224, 30.63461
965.5045, 38.00012
965.9866, 43.47936
966.4688, 43.36474
966.9509, 41.21815
967.4330, 39.23957
967.9151, 37.61860
968.3972, 36.16588
968.8793, 34.13933
969.3615, 34.24057
969.8436, 40.97430
970.3257, 46.41171
970.8078, 43.45672
971.2899, 36.72215
971.7720, 33.20940
972.2542, 33.95822
972.7363, 35.31798
973.2184, 35.42469
973.7005, 35.22012
974.1826, 35.38904
974.6647, 35.76978
975.1469, 35.91803
975.6290, 36.06548
976.1111, 37.33252
976.5932, 40.20403
977.0753, 42.65121
977.5574, 41.44887
978.0396, 38.97426
978.5217, 40.46966
979.0038, 44.70284
979.4859, 47.59558
979.9680, 48.12477
980.4501, 46.27548
980.9323, 41.50560
981.4144, 36.35911
981.8965, 36.63171
982.3786, 41.57049
982.8607, 45.63321
983.3428, 48.43798
983.8250, 49.80393
984.3071, 49.59300
984.7892, 48.25952
985.2713, 46.04308
985.7534, 43.24595
986.2355, 42.92484
986.7177, 46.07537
987.1998, 45.24521
987.6819, 37.32965
988.1640, 31.35374
988.6461, 33.87140
989.1282, 40.95446
989.6104, 43.86075
990.0925, 41.16141
990.5746, 41.82360
991.0567, 49.03352
991.5388, 53.70960
992.0210, 52.60342
992.5031, 49.01257
992.9852, 44.96548
993.4673, 40.78848
993.9495, 38.26012
994.4316, 36.67153
994.9137, 37.89287
995.3958, 44.83901
995.8779, 51.35698
996.3600, 55.77392
996.8422, 57.68801
997.3243, 55.27162
997.8064, 48.71468
998.2885, 45.46493
998.7706, 51.64348
999.2527, 55.34698
999.7349, 49.07253
1000.217, 42.20327
1000.699, 43.48506
1001.181, 49.61304
1001.663, 52.74543
1002.145, 50.77856
1002.628, 47.64099
1003.110, 43.39962
1003.592, 40.54156
1004.074, 41.05949
1004.556, 43.78597
1005.038, 48.95579
1005.520, 54.94550
1006.002, 56.33334
1006.484, 49.31932
1006.967, 42.69318
1007.449, 45.49959
1007.931, 51.06110
1008.413, 51.74590
1008.895, 48.61657
1009.377, 43.52903
1009.859, 37.83571
1010.341, 35.82676
1010.824, 42.21246
1011.306, 50.56683
1011.788, 51.92984
1012.270, 49.14775
1012.752, 48.34034
1013.234, 49.36374
1013.716, 48.62363
1014.198, 44.75954
1014.680, 40.29092
1015.163, 37.42397
1015.645, 36.27388
1016.127, 38.07436
1016.609, 41.96986
1017.091, 43.78815
1017.573, 43.07214
1018.055, 42.85442
1018.537, 44.98038
1019.020, 47.35087
1019.502, 45.80403
1019.984, 41.21143
1020.466, 39.30558
1020.948, 40.07538
1021.430, 44.26096
1021.912, 52.36977
1022.394, 58.20834
1022.876, 56.49660
1023.359, 50.34293
1023.841, 48.27332
1024.323, 50.59378
1024.805, 47.62834
1025.287, 37.88451
1025.769, 31.86045
1026.251, 33.74718
1026.733, 38.86161
1027.215, 42.69284
1027.698, 45.21336
1028.180, 46.14410
1028.662, 45.31790
1029.144, 43.45058
1029.626, 39.94748
1030.108, 37.36441
1030.590, 36.89711
1031.072, 37.89905
1031.555, 39.44508
1032.037, 41.54155
1032.519, 45.18832
1033.001, 51.50695
1033.483, 56.63760
1033.965, 61.48783
1034.447, 62.07743
1034.929, 52.77016
1035.411, 40.32582
1035.894, 38.83218
1036.376, 51.40213
1036.858, 55.88192
1037.340, 45.66967
1037.822, 38.98872
1038.304, 42.65145
1038.786, 47.13624
1039.268, 44.31541
1039.750, 37.28857
1040.233, 35.07832
1040.715, 39.94862
1041.197, 43.38699
1041.679, 45.30093
1042.161, 45.93908
1042.643, 44.37568
1043.125, 42.38933
1043.607, 40.38524
1044.090, 39.09818
1044.572, 41.93513
1045.054, 54.05808
1045.536, 60.21348
1046.018, 54.42273
1046.500, 48.18206
1046.982, 46.35987
1047.464, 46.16977
1047.947, 44.28886
1048.429, 40.88874
1048.911, 38.65029
1049.393, 36.94196
1049.875, 38.01861
1050.357, 47.11193
1050.839, 53.76841
1051.321, 49.51023
1051.803, 41.06921
1052.286, 37.60468
1052.768, 39.81782
1053.250, 42.46969
1053.732, 46.75716
1054.214, 48.06610
1054.696, 40.87400
1055.178, 34.61638
1055.660, 37.25793
1056.142, 44.52810
1056.625, 48.87217
1057.107, 49.14461
1057.589, 49.49449
1058.071, 53.46500
1058.553, 54.63624
1059.035, 46.85595
1059.517, 38.77416
1059.999, 38.66692
1060.482, 43.20963
1060.964, 44.09410
1061.446, 39.26771
1061.928, 37.07331
1062.410, 42.37151
1062.892, 48.56985
1063.374, 54.92059
1063.856, 58.77842
1064.339, 56.29934
1064.821, 49.65541
1065.303, 44.15749
1065.785, 41.04908
1066.267, 39.57990
1066.749, 40.72473
1067.231, 41.88572
1067.713, 40.85321
1068.195, 39.69618
1068.677, 40.15204
1069.160, 42.50679
1069.642, 47.63530
1070.124, 56.99553
1070.606, 62.85625
1071.088, 58.66036
1071.570, 53.44827
1072.052, 52.43025
1072.534, 53.78191
1073.017, 56.29510
1073.499, 58.92628
1073.981, 59.27098
1074.463, 56.09874
1074.945, 52.30335
1075.427, 47.11417
1075.909, 44.04113
1076.391, 47.21865
1076.874, 52.68192
1077.356, 55.89256
1077.838, 56.45346
1078.320, 55.83792
1078.802, 54.35737
1079.284, 52.30122
1079.766, 49.90032
1080.248, 46.87831
1080.730, 41.35492
1081.213, 36.14838
1081.695, 35.07816
1082.177, 38.10510
1082.659, 42.78665
1083.141, 49.70021
1083.623, 54.53048
1084.105, 53.98564
1084.587, 52.01760
1085.070, 51.37069
1085.552, 51.03809
1086.034, 48.75329
1086.516, 44.92773
1086.998, 43.23782
1087.480, 46.08518
1087.962, 48.77402
1088.444, 48.37130
1088.927, 48.05714
1089.409, 51.16524
1089.891, 55.05021
1090.373, 55.93916
1090.855, 53.68467
1091.337, 50.78092
1091.819, 46.54552
1092.301, 44.72692
1092.783, 50.04614
1093.266, 54.72777
1093.748, 52.75256
1094.230, 47.43108
1094.712, 42.56628
1095.194, 39.00367
1095.676, 38.11409
1096.158, 42.00912
1096.640, 45.55564
1097.122, 47.05490
1097.605, 47.76493
1098.087, 49.59747
1098.569, 50.41209
1099.051, 45.32298
1099.533, 35.33967
1100.015, 30.85492
1100.497, 38.42396
1100.979, 44.96756
1101.462, 46.97073
1101.944, 47.28143
1102.426, 46.10060
1102.908, 45.00547
1103.390, 46.33903
1103.872, 49.90008
1104.354, 52.38799
1104.836, 53.74258
1105.318, 53.14949
1105.801, 47.96848
1106.283, 43.67682
1106.765, 42.88356
1107.247, 44.53395
1107.729, 49.18067
1108.211, 55.90660
1108.693, 56.86633
1109.175, 44.66315
1109.657, 37.19646
1110.140, 38.98072
1110.622, 42.31787
1111.104, 44.98276
1111.586, 46.84473
1112.068, 47.62468
1112.550, 47.41602
1113.032, 47.19810
1113.514, 47.04079
1113.997, 46.78891
1114.479, 46.49268
1114.961, 46.02111
1115.443, 44.95683
1115.925, 44.02454
1116.407, 43.94137
1116.889, 44.66008
1117.371, 45.98386
1117.854, 49.35006
1118.336, 49.94487
1118.818, 45.13710
1119.300, 42.30490
1119.782, 44.24843
1120.264, 48.99017
1120.746, 56.17545
1121.228, 64.17446
1121.710, 65.10378
1122.193, 55.77496
1122.675, 49.76686
1123.157, 48.21869
1123.639, 47.26694
1124.121, 46.01313
1124.603, 44.11928
1125.085, 40.85919
1125.567, 37.12647
1126.049, 35.67364
1126.532, 36.40112
1127.014, 41.05964
1127.496, 51.04883
1127.978, 57.08841
1128.460, 56.00638
1128.942, 52.82674
1129.424, 51.55975
1129.906, 51.10378
1130.389, 47.98857
1130.871, 42.21925
1131.353, 41.89252
1131.835, 47.28097
1132.317, 48.90245
1132.799, 44.20092
1133.281, 42.03851
1133.763, 49.38863
1134.245, 59.12211
1134.728, 56.30944
1135.210, 43.96530
1135.692, 39.92237
1136.174, 43.13434
1136.656, 44.77174
1137.138, 43.23279
1137.620, 42.27781
1138.102, 44.17093
1138.584, 46.44062
1139.067, 44.97246
1139.549, 41.56536
1140.031, 41.02810
1140.513, 42.45999
1140.995, 42.82834
1141.477, 42.04190
1141.959, 42.27391
1142.441, 44.53720
1142.924, 47.59785
1143.406, 51.99454
1143.888, 54.93307
1144.370, 48.87400
1144.852, 40.19082
1145.334, 43.03087
1145.816, 54.21028
1146.298, 58.51909
1146.781, 51.15596
1147.263, 43.89821
1147.745, 46.36308
1148.227, 51.32296
1148.709, 52.78209
1149.191, 53.09918
1149.673, 55.37060
1150.155, 58.60387
1150.637, 60.46762
1151.120, 60.38462
1151.602, 58.67146
1152.084, 54.52826
1152.566, 50.21243
1153.048, 45.87405
1153.530, 42.76636
1154.012, 41.85595
1154.494, 42.77036
1154.976, 45.26316
1155.459, 49.08486
1155.941, 53.06827
1156.423, 58.17843
1156.905, 61.15713
1157.387, 60.52305
1157.869, 58.52016
1158.351, 55.29170
1158.833, 51.90900
1159.316, 50.02396
1159.798, 49.11217
1160.280, 45.99942
1160.762, 38.09835
1161.244, 33.71646
1161.726, 33.38139
1162.208, 35.83210
1162.690, 42.54937
1163.172, 49.58735
1163.655, 54.40493
1164.137, 56.87045
1164.619, 56.10431
1165.101, 51.24807
1165.583, 49.52040
1166.065, 52.00853
1166.547, 53.60199
1167.029, 53.56953
1167.511, 50.77716
1167.994, 43.48088
1168.476, 36.29534
1168.958, 37.64546
1169.440, 46.24261
1169.922, 51.17430
1170.404, 52.48174
1170.886, 52.09515
1171.368, 50.30829
1171.851, 47.72897
1172.333, 44.57064
1172.815, 42.95036
1173.297, 46.02806
1173.779, 51.03151
1174.261, 50.55238
1174.743, 46.85681
1175.225, 47.32282
1175.708, 51.41239
1176.190, 54.72152
1176.672, 55.72495
1177.154, 54.02917
1177.636, 48.26183
1178.118, 42.77387
1178.600, 42.50764
1179.082, 45.50253
1179.564, 50.66041
1180.047, 56.40648
1180.529, 60.99123
1181.011, 63.54305
1181.493, 61.88525
1181.975, 53.81418
1182.457, 47.14893
1182.939, 47.54675
1183.421, 49.55495
1183.903, 51.43289
1184.386, 51.55841
1184.868, 46.25333
1185.350, 38.25709
1185.832, 35.24179
1186.314, 39.27487
1186.796, 43.35965
1187.278, 49.35706
1187.760, 50.70762
1188.243, 38.91989
1188.725, 29.24603
1189.207, 33.93521
1189.689, 45.06731
1190.171, 51.12513
1190.653, 52.14830
1191.135, 52.01766
1191.617, 49.78272
1192.099, 49.02937
1192.582, 50.55468
1193.064, 52.33343
1193.546, 54.12861
1194.028, 54.23769
1194.510, 50.37598
1194.992, 44.15261
1195.474, 40.65385
1195.956, 39.88090
1196.438, 42.50454
1196.921, 48.49220
1197.403, 54.07979
1197.885, 58.27810
1198.367, 61.58702
1198.849, 64.42832
1199.331, 65.63067
1199.813, 62.88224
1200.295, 57.39576
1200.778, 49.75737
1201.260, 42.40486
1201.742, 43.91536
1202.224, 52.62637
1202.706, 57.02319
1203.188, 52.85243
1203.670, 49.33916
1204.152, 57.01100
1204.635, 64.30727
1205.117, 58.29898
1205.599, 48.84412
1206.081, 46.65244
1206.563, 49.18972
1207.045, 50.20020
1207.527, 48.95087
1208.009, 49.38603
1208.491, 54.59724
1208.974, 57.94524
1209.456, 56.10583
1209.938, 53.60957
1210.420, 51.46342
1210.902, 50.61904
1211.384, 53.00333
1211.866, 57.37777
1212.348, 59.90070
1212.830, 61.30798
1213.313, 56.97162
1213.795, 41.66846
1214.277, 33.71650
1214.759, 38.32048
1215.241, 46.32981
1215.723, 53.88194
1216.205, 58.77193
1216.687, 57.23981
1217.170, 50.46065
1217.652, 44.42119
1218.134, 39.28527
1218.616, 41.09306
1219.098, 49.68977
1219.580, 53.87796
1220.062, 50.03778
1220.544, 46.03180
1221.026, 48.68300
1221.509, 53.04041
1221.991, 50.75812
1222.473, 45.50287
1222.955, 43.59464
1223.437, 44.36082
1223.919, 46.43980
1224.401, 48.97537
1224.883, 50.09551
1225.365, 48.92524
1225.848, 47.92719
1226.330, 48.78846
1226.812, 50.08724
1227.294, 50.89849
1227.776, 51.78796
1228.258, 54.14807
1228.740, 56.55657
1229.222, 55.81758
1229.705, 51.75460
1230.187, 49.73386
1230.669, 53.28209
1231.151, 54.13495
1231.633, 50.21596
1232.115, 46.03013
1232.597, 41.36739
1233.079, 39.94042
1233.562, 47.07364
1234.044, 57.85069
1234.526, 57.16143
1235.008, 43.94924
1235.490, 41.18694
1235.972, 49.45749
1236.454, 54.89749
1236.936, 54.98177
1237.418, 53.34731
1237.901, 51.75474
1238.383, 51.16673
1238.865, 53.23343
1239.347, 56.25515
1239.829, 57.09758
1240.311, 56.25320
1240.793, 54.08811
1241.275, 51.31325
1241.758, 49.35654
1242.240, 48.56435
1242.722, 48.41751
1243.204, 48.21086
1243.686, 50.27777
1244.168, 58.99443
1244.650, 67.05822
1245.132, 69.90964
1245.615, 69.40576
1246.097, 66.33012
1246.579, 61.94100
1247.061, 58.31237
1247.543, 55.53478
1248.025, 54.98714
1248.507, 60.57150
1248.989, 61.00687
1249.471, 50.95044
1249.953, 44.55396
1250.436, 49.22295
1250.918, 56.95147
1251.400, 60.16600
1251.882, 58.99126
1252.364, 52.12363
1252.846, 39.86784
1253.328, 34.21930
1253.810, 35.04605
1254.293, 38.98204
1254.775, 44.86430
1255.257, 48.84500
1255.739, 48.85573
1256.221, 48.73756
1256.703, 53.69007
1257.185, 59.57824
1257.667, 61.31371
1258.150, 59.99507
1258.632, 54.21402
1259.114, 47.84828
1259.596, 50.69873
1260.078, 62.04744
1260.560, 66.06180
1261.042, 53.55625
1261.524, 42.62967
1262.006, 37.82116
1262.489, 37.44378
1262.971, 43.66204
1263.453, 51.29323
1263.935, 57.79244
1264.417, 62.03044
1264.899, 61.48103
1265.381, 56.11194
1265.863, 50.98899
1266.345, 45.38717
1266.828, 44.60756
1267.310, 49.89562
1267.792, 53.66585
1268.274, 53.13197
1268.756, 51.33488
1269.238, 50.75359
1269.720, 50.98312
1270.202, 51.39204
1270.685, 52.02252
1271.167, 53.07934
1271.649, 54.40648
1272.131, 56.34864
1272.613, 58.17387
1273.095, 57.02721
1273.577, 52.09171
1274.059, 48.08085
1274.542, 47.31828
1275.024, 48.77785
1275.506, 55.13524
1275.988, 60.01845
1276.470, 57.95051
1276.952, 52.82415
1277.434, 48.47421
1277.916, 45.40811
1278.398, 44.71320
1278.880, 47.10888
1279.363, 48.45050
##END=



