##NAMES=Actinolite
##RRUFFID=R120010
##IDEAL CHEMISTRY=Ca_2_(Mg_4.5-2.5_Fe^2+^_0.5-2.5_)Si_8_O_22_(OH)_2_
##LOCALITY=Quebec Lithium Corporation mine, La Corne, Abitibi RCM, Abitibi-Temiscamingue, Quebec, Canada
##OWNER=RRUFF
##SOURCE=Donald Doell
##DESCRIPTION=Massive aggregate of black bladed crystals
##STATUS=The identification of this mineral has been confirmed only by single crystal X-ray diffraction.
##URL=rruff.info/R120010
9.112140e+001, 0.000000e+000
9.160352e+001, 4.425193e+002
9.208563e+001, 4.417905e+002
9.256775e+001, 4.417303e+002
9.304987e+001, 4.427014e+002
9.353198e+001, 4.438650e+002
9.401410e+001, 4.398471e+002
9.449622e+001, 4.311774e+002
9.497833e+001, 4.201175e+002
9.546045e+001, 4.083195e+002
9.594257e+001, 3.957317e+002
9.642468e+001, 3.838052e+002
9.690680e+001, 3.716878e+002
9.738892e+001, 3.612075e+002
9.787103e+001, 3.532907e+002
9.835315e+001, 3.472421e+002
9.883527e+001, 3.417973e+002
9.931738e+001, 3.367297e+002
9.979950e+001, 3.323807e+002
1.002816e+002, 3.274927e+002
1.007637e+002, 3.211115e+002
1.012458e+002, 3.145956e+002
1.017280e+002, 3.091230e+002
1.022101e+002, 3.048985e+002
1.026922e+002, 3.016915e+002
1.031743e+002, 2.993697e+002
1.036564e+002, 2.978281e+002
1.041385e+002, 2.965764e+002
1.046207e+002, 2.955250e+002
1.051028e+002, 2.946261e+002
1.055849e+002, 2.937662e+002
1.060670e+002, 2.930599e+002
1.065491e+002, 2.920796e+002
1.070313e+002, 2.904318e+002
1.075134e+002, 2.880385e+002
1.079955e+002, 2.852505e+002
1.084776e+002, 2.823433e+002
1.089597e+002, 2.792558e+002
1.094418e+002, 2.762599e+002
1.099240e+002, 2.732501e+002
1.104061e+002, 2.704333e+002
1.108882e+002, 2.679883e+002
1.113703e+002, 2.659756e+002
1.118524e+002, 2.643834e+002
1.123345e+002, 2.631892e+002
1.128167e+002, 2.624536e+002
1.132988e+002, 2.621231e+002
1.137809e+002, 2.622956e+002
1.142630e+002, 2.628053e+002
1.147451e+002, 2.634549e+002
1.152272e+002, 2.641150e+002
1.157094e+002, 2.647977e+002
1.161915e+002, 2.656566e+002
1.166736e+002, 2.668885e+002
1.171557e+002, 2.680755e+002
1.176378e+002, 2.691192e+002
1.181199e+002, 2.700031e+002
1.186021e+002, 2.707596e+002
1.190842e+002, 2.715041e+002
1.195663e+002, 2.721884e+002
1.200484e+002, 2.719962e+002
1.205305e+002, 2.705351e+002
1.210126e+002, 2.684604e+002
1.214948e+002, 2.663960e+002
1.219769e+002, 2.644508e+002
1.224590e+002, 2.621749e+002
1.229411e+002, 2.586474e+002
1.234232e+002, 2.542516e+002
1.239053e+002, 2.503381e+002
1.243875e+002, 2.475453e+002
1.248696e+002, 2.455914e+002
1.253517e+002, 2.436645e+002
1.258338e+002, 2.413846e+002
1.263159e+002, 2.395902e+002
1.267980e+002, 2.389534e+002
1.272802e+002, 2.392982e+002
1.277623e+002, 2.398041e+002
1.282444e+002, 2.397878e+002
1.287265e+002, 2.391874e+002
1.292086e+002, 2.387257e+002
1.296907e+002, 2.385726e+002
1.301729e+002, 2.384947e+002
1.306550e+002, 2.383631e+002
1.311371e+002, 2.381763e+002
1.316192e+002, 2.380485e+002
1.321013e+002, 2.381552e+002
1.325834e+002, 2.386483e+002
1.330656e+002, 2.390961e+002
1.335477e+002, 2.395512e+002
1.340298e+002, 2.399362e+002
1.345119e+002, 2.400865e+002
1.349940e+002, 2.399716e+002
1.354761e+002, 2.398250e+002
1.359583e+002, 2.401858e+002
1.364404e+002, 2.413495e+002
1.369225e+002, 2.426972e+002
1.374046e+002, 2.443820e+002
1.378867e+002, 2.462052e+002
1.383688e+002, 2.479384e+002
1.388510e+002, 2.495375e+002
1.393331e+002, 2.508655e+002
1.398152e+002, 2.514207e+002
1.402973e+002, 2.507950e+002
1.407794e+002, 2.501786e+002
1.412615e+002, 2.500121e+002
1.417437e+002, 2.502561e+002
1.422258e+002, 2.507748e+002
1.427079e+002, 2.516884e+002
1.431900e+002, 2.527336e+002
1.436721e+002, 2.533698e+002
1.441542e+002, 2.533788e+002
1.446364e+002, 2.532103e+002
1.451185e+002, 2.533266e+002
1.456006e+002, 2.537784e+002
1.460827e+002, 2.542051e+002
1.465648e+002, 2.545022e+002
1.470469e+002, 2.546515e+002
1.475291e+002, 2.545609e+002
1.480112e+002, 2.540903e+002
1.484933e+002, 2.534748e+002
1.489754e+002, 2.532994e+002
1.494575e+002, 2.539218e+002
1.499396e+002, 2.543712e+002
1.504218e+002, 2.542943e+002
1.509039e+002, 2.538994e+002
1.513860e+002, 2.534390e+002
1.518681e+002, 2.530383e+002
1.523502e+002, 2.527031e+002
1.528323e+002, 2.525027e+002
1.533145e+002, 2.521189e+002
1.537966e+002, 2.522321e+002
1.542787e+002, 2.533555e+002
1.547608e+002, 2.550998e+002
1.552429e+002, 2.567205e+002
1.557250e+002, 2.576167e+002
1.562072e+002, 2.577214e+002
1.566893e+002, 2.580367e+002
1.571714e+002, 2.585442e+002
1.576535e+002, 2.592247e+002
1.581356e+002, 2.603318e+002
1.586177e+002, 2.617083e+002
1.590999e+002, 2.628047e+002
1.595820e+002, 2.630993e+002
1.600641e+002, 2.624453e+002
1.605462e+002, 2.616243e+002
1.610283e+002, 2.602944e+002
1.615104e+002, 2.590382e+002
1.619926e+002, 2.583625e+002
1.624747e+002, 2.583300e+002
1.629568e+002, 2.585178e+002
1.634389e+002, 2.583971e+002
1.639210e+002, 2.580013e+002
1.644031e+002, 2.581017e+002
1.648853e+002, 2.588567e+002
1.653674e+002, 2.601799e+002
1.658495e+002, 2.620083e+002
1.663316e+002, 2.644351e+002
1.668137e+002, 2.671273e+002
1.672958e+002, 2.697569e+002
1.677780e+002, 2.723628e+002
1.682601e+002, 2.751381e+002
1.687422e+002, 2.783369e+002
1.692243e+002, 2.818247e+002
1.697064e+002, 2.849586e+002
1.701885e+002, 2.873968e+002
1.706707e+002, 2.898101e+002
1.711528e+002, 2.926307e+002
1.716349e+002, 2.958098e+002
1.721170e+002, 2.991323e+002
1.725991e+002, 3.024696e+002
1.730812e+002, 3.058241e+002
1.735634e+002, 3.091362e+002
1.740455e+002, 3.122422e+002
1.745276e+002, 3.154642e+002
1.750097e+002, 3.188576e+002
1.754918e+002, 3.224664e+002
1.759739e+002, 3.263615e+002
1.764561e+002, 3.305932e+002
1.769382e+002, 3.352147e+002
1.774203e+002, 3.401313e+002
1.779024e+002, 3.454500e+002
1.783845e+002, 3.509291e+002
1.788666e+002, 3.562996e+002
1.793488e+002, 3.615749e+002
1.798309e+002, 3.671324e+002
1.803130e+002, 3.734461e+002
1.807951e+002, 3.809259e+002
1.812772e+002, 3.882745e+002
1.817593e+002, 3.949963e+002
1.822415e+002, 4.018919e+002
1.827236e+002, 4.097044e+002
1.832057e+002, 4.185507e+002
1.836878e+002, 4.277507e+002
1.841699e+002, 4.362853e+002
1.846520e+002, 4.438692e+002
1.851342e+002, 4.512264e+002
1.856163e+002, 4.590849e+002
1.860984e+002, 4.664020e+002
1.865805e+002, 4.722411e+002
1.870626e+002, 4.763546e+002
1.875447e+002, 4.786552e+002
1.880269e+002, 4.787574e+002
1.885090e+002, 4.768404e+002
1.889911e+002, 4.729262e+002
1.894732e+002, 4.665027e+002
1.899553e+002, 4.581374e+002
1.904374e+002, 4.487762e+002
1.909196e+002, 4.384539e+002
1.914017e+002, 4.274654e+002
1.918838e+002, 4.158839e+002
1.923659e+002, 4.036869e+002
1.928480e+002, 3.918099e+002
1.933301e+002, 3.806160e+002
1.938123e+002, 3.700836e+002
1.942944e+002, 3.600117e+002
1.947765e+002, 3.502076e+002
1.952586e+002, 3.411631e+002
1.957407e+002, 3.331758e+002
1.962228e+002, 3.262716e+002
1.967050e+002, 3.200574e+002
1.971871e+002, 3.143046e+002
1.976692e+002, 3.090141e+002
1.981513e+002, 3.041970e+002
1.986334e+002, 2.999554e+002
1.991155e+002, 2.961788e+002
1.995977e+002, 2.928597e+002
2.000798e+002, 2.899716e+002
2.005619e+002, 2.873097e+002
2.010440e+002, 2.846369e+002
2.015261e+002, 2.818969e+002
2.020082e+002, 2.794351e+002
2.024904e+002, 2.772914e+002
2.029725e+002, 2.754494e+002
2.034546e+002, 2.740688e+002
2.039367e+002, 2.730998e+002
2.044188e+002, 2.721786e+002
2.049009e+002, 2.708129e+002
2.053831e+002, 2.687966e+002
2.058652e+002, 2.669724e+002
2.063473e+002, 2.653172e+002
2.068294e+002, 2.638762e+002
2.073115e+002, 2.627294e+002
2.077936e+002, 2.618705e+002
2.082758e+002, 2.611956e+002
2.087579e+002, 2.605980e+002
2.092400e+002, 2.602049e+002
2.097221e+002, 2.595923e+002
2.102042e+002, 2.588588e+002
2.106863e+002, 2.578899e+002
2.111685e+002, 2.564582e+002
2.116506e+002, 2.545841e+002
2.121327e+002, 2.526376e+002
2.126148e+002, 2.511631e+002
2.130969e+002, 2.505408e+002
2.135790e+002, 2.496322e+002
2.140612e+002, 2.483884e+002
2.145433e+002, 2.469206e+002
2.150254e+002, 2.451673e+002
2.155075e+002, 2.431624e+002
2.159896e+002, 2.411909e+002
2.164717e+002, 2.396823e+002
2.169539e+002, 2.388363e+002
2.174360e+002, 2.380371e+002
2.179181e+002, 2.372829e+002
2.184002e+002, 2.365654e+002
2.188823e+002, 2.358958e+002
2.193644e+002, 2.352797e+002
2.198466e+002, 2.346454e+002
2.203287e+002, 2.338693e+002
2.208108e+002, 2.329068e+002
2.212929e+002, 2.320419e+002
2.217750e+002, 2.311574e+002
2.222571e+002, 2.304501e+002
2.227393e+002, 2.303175e+002
2.232214e+002, 2.309239e+002
2.237035e+002, 2.316153e+002
2.241856e+002, 2.313873e+002
2.246677e+002, 2.303177e+002
2.251498e+002, 2.295739e+002
2.256320e+002, 2.297653e+002
2.261141e+002, 2.303914e+002
2.265962e+002, 2.306120e+002
2.270783e+002, 2.302290e+002
2.275604e+002, 2.296236e+002
2.280425e+002, 2.290932e+002
2.285247e+002, 2.286367e+002
2.290068e+002, 2.282895e+002
2.294889e+002, 2.280350e+002
2.299710e+002, 2.279048e+002
2.304531e+002, 2.280425e+002
2.309352e+002, 2.286263e+002
2.314174e+002, 2.291242e+002
2.318995e+002, 2.290546e+002
2.323816e+002, 2.285760e+002
2.328637e+002, 2.280972e+002
2.333458e+002, 2.276991e+002
2.338279e+002, 2.274402e+002
2.343101e+002, 2.275801e+002
2.347922e+002, 2.284098e+002
2.352743e+002, 2.291522e+002
2.357564e+002, 2.293481e+002
2.362385e+002, 2.291516e+002
2.367206e+002, 2.288562e+002
2.372028e+002, 2.285679e+002
2.376849e+002, 2.283091e+002
2.381670e+002, 2.281606e+002
2.386491e+002, 2.280737e+002
2.391312e+002, 2.281998e+002
2.396133e+002, 2.288057e+002
2.400955e+002, 2.296096e+002
2.405776e+002, 2.301418e+002
2.410597e+002, 2.300885e+002
2.415418e+002, 2.295516e+002
2.420239e+002, 2.289943e+002
2.425060e+002, 2.282200e+002
2.429882e+002, 2.277215e+002
2.434703e+002, 2.277616e+002
2.439524e+002, 2.281116e+002
2.444345e+002, 2.284650e+002
2.449166e+002, 2.286656e+002
2.453987e+002, 2.287126e+002
2.458809e+002, 2.285645e+002
2.463630e+002, 2.277443e+002
2.468451e+002, 2.273766e+002
2.473272e+002, 2.282041e+002
2.478093e+002, 2.294496e+002
2.482914e+002, 2.300994e+002
2.487736e+002, 2.295869e+002
2.492557e+002, 2.281547e+002
2.497378e+002, 2.267813e+002
2.502199e+002, 2.252916e+002
2.507020e+002, 2.241061e+002
2.511841e+002, 2.235789e+002
2.516663e+002, 2.232839e+002
2.521484e+002, 2.227040e+002
2.526305e+002, 2.215819e+002
2.531126e+002, 2.200993e+002
2.535947e+002, 2.188006e+002
2.540768e+002, 2.180093e+002
2.545590e+002, 2.170300e+002
2.550411e+002, 2.155643e+002
2.555232e+002, 2.139892e+002
2.560053e+002, 2.127869e+002
2.564874e+002, 2.121624e+002
2.569695e+002, 2.118186e+002
2.574517e+002, 2.110369e+002
2.579338e+002, 2.088100e+002
2.584159e+002, 2.073671e+002
2.588980e+002, 2.072250e+002
2.593801e+002, 2.076521e+002
2.598622e+002, 2.078904e+002
2.603444e+002, 2.076773e+002
2.608265e+002, 2.072580e+002
2.613086e+002, 2.071210e+002
2.617907e+002, 2.079797e+002
2.622728e+002, 2.079110e+002
2.627549e+002, 2.059962e+002
2.632371e+002, 2.035757e+002
2.637192e+002, 2.020188e+002
2.642013e+002, 2.016800e+002
2.646834e+002, 2.019364e+002
2.651655e+002, 2.018759e+002
2.656476e+002, 2.012859e+002
2.661298e+002, 2.008899e+002
2.666119e+002, 2.008045e+002
2.670940e+002, 2.008617e+002
2.675761e+002, 2.009059e+002
2.680582e+002, 2.009076e+002
2.685403e+002, 2.009418e+002
2.690225e+002, 2.011112e+002
2.695046e+002, 2.014626e+002
2.699867e+002, 2.017449e+002
2.704688e+002, 2.017778e+002
2.709509e+002, 2.018491e+002
2.714330e+002, 2.022554e+002
2.719152e+002, 2.030183e+002
2.723973e+002, 2.038869e+002
2.728794e+002, 2.046928e+002
2.733615e+002, 2.054189e+002
2.738436e+002, 2.057820e+002
2.743257e+002, 2.054170e+002
2.748079e+002, 2.049431e+002
2.752900e+002, 2.047830e+002
2.757721e+002, 2.049682e+002
2.762542e+002, 2.054447e+002
2.767363e+002, 2.062303e+002
2.772184e+002, 2.073127e+002
2.777006e+002, 2.084118e+002
2.781827e+002, 2.097005e+002
2.786648e+002, 2.108588e+002
2.791469e+002, 2.115641e+002
2.796290e+002, 2.118651e+002
2.801111e+002, 2.121594e+002
2.805933e+002, 2.126305e+002
2.810754e+002, 2.133071e+002
2.815575e+002, 2.141838e+002
2.820396e+002, 2.153585e+002
2.825217e+002, 2.166085e+002
2.830038e+002, 2.178596e+002
2.834860e+002, 2.190947e+002
2.839681e+002, 2.202357e+002
2.844502e+002, 2.212455e+002
2.849323e+002, 2.221309e+002
2.854144e+002, 2.228764e+002
2.858965e+002, 2.233147e+002
2.863787e+002, 2.240077e+002
2.868608e+002, 2.255660e+002
2.873429e+002, 2.277027e+002
2.878250e+002, 2.293416e+002
2.883071e+002, 2.299551e+002
2.887892e+002, 2.301515e+002
2.892714e+002, 2.308471e+002
2.897535e+002, 2.320860e+002
2.902356e+002, 2.333357e+002
2.907177e+002, 2.344147e+002
2.911998e+002, 2.353194e+002
2.916819e+002, 2.360065e+002
2.921641e+002, 2.363725e+002
2.926462e+002, 2.367031e+002
2.931283e+002, 2.374756e+002
2.936104e+002, 2.386190e+002
2.940925e+002, 2.393970e+002
2.945746e+002, 2.392285e+002
2.950568e+002, 2.385430e+002
2.955389e+002, 2.382510e+002
2.960210e+002, 2.385741e+002
2.965031e+002, 2.389400e+002
2.969852e+002, 2.386862e+002
2.974673e+002, 2.380485e+002
2.979495e+002, 2.376918e+002
2.984316e+002, 2.380282e+002
2.989137e+002, 2.386929e+002
2.993958e+002, 2.391983e+002
2.998779e+002, 2.395463e+002
3.003600e+002, 2.396621e+002
3.008422e+002, 2.391344e+002
3.013243e+002, 2.383885e+002
3.018064e+002, 2.382313e+002
3.022885e+002, 2.392496e+002
3.027706e+002, 2.405280e+002
3.032527e+002, 2.408984e+002
3.037349e+002, 2.402904e+002
3.042170e+002, 2.398154e+002
3.046991e+002, 2.402105e+002
3.051812e+002, 2.409387e+002
3.056633e+002, 2.412992e+002
3.061454e+002, 2.411969e+002
3.066276e+002, 2.407439e+002
3.071097e+002, 2.399128e+002
3.075918e+002, 2.387288e+002
3.080739e+002, 2.376065e+002
3.085560e+002, 2.367706e+002
3.090381e+002, 2.359824e+002
3.095203e+002, 2.349765e+002
3.100024e+002, 2.337282e+002
3.104845e+002, 2.324027e+002
3.109666e+002, 2.311551e+002
3.114487e+002, 2.299417e+002
3.119308e+002, 2.284969e+002
3.124130e+002, 2.265576e+002
3.128951e+002, 2.247029e+002
3.133772e+002, 2.235226e+002
3.138593e+002, 2.229269e+002
3.143414e+002, 2.224082e+002
3.148235e+002, 2.216895e+002
3.153057e+002, 2.208604e+002
3.157878e+002, 2.201389e+002
3.162699e+002, 2.195487e+002
3.167520e+002, 2.190623e+002
3.172341e+002, 2.187889e+002
3.177162e+002, 2.186099e+002
3.181984e+002, 2.182384e+002
3.186805e+002, 2.173962e+002
3.191626e+002, 2.163863e+002
3.196447e+002, 2.157479e+002
3.201268e+002, 2.155674e+002
3.206089e+002, 2.153277e+002
3.210911e+002, 2.145848e+002
3.215732e+002, 2.136409e+002
3.220553e+002, 2.128875e+002
3.225374e+002, 2.123445e+002
3.230195e+002, 2.121034e+002
3.235016e+002, 2.124021e+002
3.239838e+002, 2.132469e+002
3.244659e+002, 2.139915e+002
3.249480e+002, 2.143875e+002
3.254301e+002, 2.145448e+002
3.259122e+002, 2.145400e+002
3.263943e+002, 2.143183e+002
3.268765e+002, 2.142479e+002
3.273586e+002, 2.146116e+002
3.278407e+002, 2.153663e+002
3.283228e+002, 2.163101e+002
3.288049e+002, 2.175459e+002
3.292870e+002, 2.187460e+002
3.297692e+002, 2.195036e+002
3.302513e+002, 2.198596e+002
3.307334e+002, 2.202954e+002
3.312155e+002, 2.210751e+002
3.316976e+002, 2.220949e+002
3.321797e+002, 2.231661e+002
3.326619e+002, 2.243366e+002
3.331440e+002, 2.253660e+002
3.336261e+002, 2.260851e+002
3.341082e+002, 2.265231e+002
3.345903e+002, 2.266617e+002
3.350724e+002, 2.262578e+002
3.355546e+002, 2.256667e+002
3.360367e+002, 2.254638e+002
3.365188e+002, 2.257128e+002
3.370009e+002, 2.256963e+002
3.374830e+002, 2.248850e+002
3.379651e+002, 2.235502e+002
3.384473e+002, 2.222215e+002
3.389294e+002, 2.209764e+002
3.394115e+002, 2.197133e+002
3.398936e+002, 2.182322e+002
3.403757e+002, 2.165908e+002
3.408578e+002, 2.153288e+002
3.413400e+002, 2.148744e+002
3.418221e+002, 2.146533e+002
3.423042e+002, 2.137480e+002
3.427863e+002, 2.120473e+002
3.432684e+002, 2.103268e+002
3.437505e+002, 2.090041e+002
3.442327e+002, 2.079393e+002
3.447148e+002, 2.067422e+002
3.451969e+002, 2.052492e+002
3.456790e+002, 2.038299e+002
3.461611e+002, 2.030271e+002
3.466432e+002, 2.027390e+002
3.471254e+002, 2.024183e+002
3.476075e+002, 2.019631e+002
3.480896e+002, 2.013813e+002
3.485717e+002, 2.005791e+002
3.490538e+002, 1.995305e+002
3.495359e+002, 1.986630e+002
3.500181e+002, 1.983317e+002
3.505002e+002, 1.984691e+002
3.509823e+002, 1.986483e+002
3.514644e+002, 1.990861e+002
3.519465e+002, 1.993544e+002
3.524286e+002, 1.990542e+002
3.529108e+002, 1.982878e+002
3.533929e+002, 1.975140e+002
3.538750e+002, 1.969045e+002
3.543571e+002, 1.964823e+002
3.548392e+002, 1.963154e+002
3.553214e+002, 1.965119e+002
3.558035e+002, 1.966772e+002
3.562856e+002, 1.965700e+002
3.567677e+002, 1.963554e+002
3.572498e+002, 1.963223e+002
3.577319e+002, 1.965540e+002
3.582141e+002, 1.969828e+002
3.586962e+002, 1.975937e+002
3.591783e+002, 1.984495e+002
3.596604e+002, 1.990887e+002
3.601425e+002, 1.992468e+002
3.606246e+002, 1.993009e+002
3.611068e+002, 1.996211e+002
3.615889e+002, 2.002355e+002
3.620710e+002, 2.008886e+002
3.625531e+002, 2.013134e+002
3.630352e+002, 2.015359e+002
3.635173e+002, 2.022115e+002
3.639995e+002, 2.037408e+002
3.644816e+002, 2.052839e+002
3.649637e+002, 2.062684e+002
3.654458e+002, 2.069318e+002
3.659279e+002, 2.079346e+002
3.664100e+002, 2.096472e+002
3.668922e+002, 2.118614e+002
3.673743e+002, 2.138808e+002
3.678564e+002, 2.154221e+002
3.683385e+002, 2.171820e+002
3.688206e+002, 2.195569e+002
3.693027e+002, 2.220666e+002
3.697849e+002, 2.240414e+002
3.702670e+002, 2.253110e+002
3.707491e+002, 2.264010e+002
3.712312e+002, 2.280578e+002
3.717133e+002, 2.305383e+002
3.721954e+002, 2.327982e+002
3.726776e+002, 2.346033e+002
3.731597e+002, 2.363919e+002
3.736418e+002, 2.384619e+002
3.741239e+002, 2.407897e+002
3.746060e+002, 2.431458e+002
3.750881e+002, 2.453450e+002
3.755703e+002, 2.473952e+002
3.760524e+002, 2.498357e+002
3.765345e+002, 2.529765e+002
3.770166e+002, 2.561566e+002
3.774987e+002, 2.590017e+002
3.779808e+002, 2.618671e+002
3.784630e+002, 2.653091e+002
3.789451e+002, 2.695859e+002
3.794272e+002, 2.744533e+002
3.799093e+002, 2.793517e+002
3.803914e+002, 2.844524e+002
3.808735e+002, 2.893199e+002
3.813557e+002, 2.938539e+002
3.818378e+002, 2.982334e+002
3.823199e+002, 3.026407e+002
3.828020e+002, 3.070949e+002
3.832841e+002, 3.114467e+002
3.837662e+002, 3.156089e+002
3.842484e+002, 3.196942e+002
3.847305e+002, 3.228851e+002
3.852126e+002, 3.257179e+002
3.856947e+002, 3.270489e+002
3.861768e+002, 3.261819e+002
3.866589e+002, 3.235031e+002
3.871411e+002, 3.197517e+002
3.876232e+002, 3.152881e+002
3.881053e+002, 3.101733e+002
3.885874e+002, 3.046608e+002
3.890695e+002, 2.987301e+002
3.895516e+002, 2.924126e+002
3.900338e+002, 2.853390e+002
3.905159e+002, 2.781123e+002
3.909980e+002, 2.712604e+002
3.914801e+002, 2.649180e+002
3.919622e+002, 2.590135e+002
3.924443e+002, 2.532733e+002
3.929265e+002, 2.476207e+002
3.934086e+002, 2.429764e+002
3.938907e+002, 2.399704e+002
3.943728e+002, 2.376154e+002
3.948549e+002, 2.353755e+002
3.953370e+002, 2.332766e+002
3.958192e+002, 2.315604e+002
3.963013e+002, 2.306285e+002
3.967834e+002, 2.301902e+002
3.972655e+002, 2.291728e+002
3.977476e+002, 2.272457e+002
3.982297e+002, 2.256078e+002
3.987119e+002, 2.250971e+002
3.991940e+002, 2.251845e+002
3.996761e+002, 2.252969e+002
4.001582e+002, 2.253848e+002
4.006403e+002, 2.252476e+002
4.011224e+002, 2.244953e+002
4.016046e+002, 2.231724e+002
4.020867e+002, 2.221676e+002
4.025688e+002, 2.218554e+002
4.030509e+002, 2.218624e+002
4.035330e+002, 2.218407e+002
4.040151e+002, 2.218046e+002
4.044973e+002, 2.214192e+002
4.049794e+002, 2.202132e+002
4.054615e+002, 2.186541e+002
4.059436e+002, 2.177091e+002
4.064257e+002, 2.175883e+002
4.069078e+002, 2.173049e+002
4.073900e+002, 2.158761e+002
4.078721e+002, 2.135441e+002
4.083542e+002, 2.116388e+002
4.088363e+002, 2.105680e+002
4.093184e+002, 2.096687e+002
4.098005e+002, 2.086112e+002
4.102827e+002, 2.073941e+002
4.107648e+002, 2.060173e+002
4.112469e+002, 2.044534e+002
4.117290e+002, 2.027877e+002
4.122111e+002, 2.012231e+002
4.126932e+002, 1.998084e+002
4.131754e+002, 1.983602e+002
4.136575e+002, 1.969399e+002
4.141396e+002, 1.954240e+002
4.146217e+002, 1.935470e+002
4.151038e+002, 1.913134e+002
4.155859e+002, 1.891523e+002
4.160681e+002, 1.874964e+002
4.165502e+002, 1.863914e+002
4.170323e+002, 1.853614e+002
4.175144e+002, 1.845636e+002
4.179965e+002, 1.836659e+002
4.184786e+002, 1.825330e+002
4.189608e+002, 1.812037e+002
4.194429e+002, 1.797087e+002
4.199250e+002, 1.780531e+002
4.204071e+002, 1.763523e+002
4.208892e+002, 1.749268e+002
4.213713e+002, 1.739369e+002
4.218535e+002, 1.730166e+002
4.223356e+002, 1.721379e+002
4.228177e+002, 1.713252e+002
4.232998e+002, 1.707011e+002
4.237819e+002, 1.702177e+002
4.242640e+002, 1.696068e+002
4.247462e+002, 1.685334e+002
4.252283e+002, 1.669445e+002
4.257104e+002, 1.656189e+002
4.261925e+002, 1.646267e+002
4.266746e+002, 1.638526e+002
4.271567e+002, 1.634479e+002
4.276389e+002, 1.631947e+002
4.281210e+002, 1.627444e+002
4.286031e+002, 1.619023e+002
4.290852e+002, 1.608942e+002
4.295673e+002, 1.601931e+002
4.300494e+002, 1.598727e+002
4.305316e+002, 1.595876e+002
4.310137e+002, 1.593377e+002
4.314958e+002, 1.590466e+002
4.319779e+002, 1.586012e+002
4.324600e+002, 1.580186e+002
4.329421e+002, 1.575252e+002
4.334243e+002, 1.573259e+002
4.339064e+002, 1.573662e+002
4.343885e+002, 1.573933e+002
4.348706e+002, 1.573515e+002
4.353527e+002, 1.574005e+002
4.358348e+002, 1.578947e+002
4.363170e+002, 1.585109e+002
4.367991e+002, 1.586406e+002
4.372812e+002, 1.578733e+002
4.377633e+002, 1.569421e+002
4.382454e+002, 1.564861e+002
4.387275e+002, 1.564681e+002
4.392097e+002, 1.566810e+002
4.396918e+002, 1.571369e+002
4.401739e+002, 1.576704e+002
4.406560e+002, 1.579822e+002
4.411381e+002, 1.580430e+002
4.416202e+002, 1.582644e+002
4.421024e+002, 1.589766e+002
4.425845e+002, 1.597894e+002
4.430666e+002, 1.603360e+002
4.435487e+002, 1.605644e+002
4.440308e+002, 1.603496e+002
4.445129e+002, 1.594175e+002
4.449951e+002, 1.579240e+002
4.454772e+002, 1.572956e+002
4.459593e+002, 1.580596e+002
4.464414e+002, 1.589367e+002
4.469235e+002, 1.597661e+002
4.474056e+002, 1.604021e+002
4.478878e+002, 1.605676e+002
4.483699e+002, 1.601776e+002
4.488520e+002, 1.595370e+002
4.493341e+002, 1.591012e+002
4.498162e+002, 1.589302e+002
4.502983e+002, 1.588157e+002
4.507805e+002, 1.588593e+002
4.512626e+002, 1.588585e+002
4.517447e+002, 1.587055e+002
4.522268e+002, 1.584170e+002
4.527089e+002, 1.580652e+002
4.531910e+002, 1.577018e+002
4.536732e+002, 1.573096e+002
4.541553e+002, 1.568094e+002
4.546374e+002, 1.561129e+002
4.551195e+002, 1.554556e+002
4.556016e+002, 1.547542e+002
4.560837e+002, 1.541769e+002
4.565659e+002, 1.538912e+002
4.570480e+002, 1.539151e+002
4.575301e+002, 1.541127e+002
4.580122e+002, 1.544847e+002
4.584943e+002, 1.550207e+002
4.589764e+002, 1.550842e+002
4.594586e+002, 1.544244e+002
4.599407e+002, 1.536206e+002
4.604228e+002, 1.526663e+002
4.609049e+002, 1.518393e+002
4.613870e+002, 1.517498e+002
4.618691e+002, 1.529708e+002
4.623513e+002, 1.544158e+002
4.628334e+002, 1.545515e+002
4.633155e+002, 1.534391e+002
4.637976e+002, 1.527195e+002
4.642797e+002, 1.530834e+002
4.647618e+002, 1.538396e+002
4.652440e+002, 1.540425e+002
4.657261e+002, 1.536807e+002
4.662082e+002, 1.535149e+002
4.666903e+002, 1.540064e+002
4.671724e+002, 1.547207e+002
4.676545e+002, 1.550911e+002
4.681367e+002, 1.550909e+002
4.686188e+002, 1.551008e+002
4.691009e+002, 1.553908e+002
4.695830e+002, 1.558913e+002
4.700651e+002, 1.562548e+002
4.705472e+002, 1.564601e+002
4.710294e+002, 1.565755e+002
4.715115e+002, 1.564377e+002
4.719936e+002, 1.562931e+002
4.724757e+002, 1.565146e+002
4.729578e+002, 1.571772e+002
4.734399e+002, 1.579754e+002
4.739221e+002, 1.585417e+002
4.744042e+002, 1.588277e+002
4.748863e+002, 1.591549e+002
4.753684e+002, 1.594319e+002
4.758505e+002, 1.598419e+002
4.763326e+002, 1.606135e+002
4.768148e+002, 1.615313e+002
4.772969e+002, 1.621602e+002
4.777790e+002, 1.622707e+002
4.782611e+002, 1.622292e+002
4.787432e+002, 1.628592e+002
4.792253e+002, 1.644114e+002
4.797075e+002, 1.659206e+002
4.801896e+002, 1.674789e+002
4.806717e+002, 1.687983e+002
4.811538e+002, 1.694685e+002
4.816359e+002, 1.696707e+002
4.821180e+002, 1.701484e+002
4.826002e+002, 1.715836e+002
4.830823e+002, 1.735971e+002
4.835644e+002, 1.750823e+002
4.840465e+002, 1.758793e+002
4.845286e+002, 1.767133e+002
4.850107e+002, 1.780545e+002
4.854929e+002, 1.795206e+002
4.859750e+002, 1.806937e+002
4.864571e+002, 1.815230e+002
4.869392e+002, 1.820620e+002
4.874213e+002, 1.822588e+002
4.879034e+002, 1.821986e+002
4.883856e+002, 1.821543e+002
4.888677e+002, 1.822132e+002
4.893498e+002, 1.819064e+002
4.898319e+002, 1.806591e+002
4.903140e+002, 1.785552e+002
4.907961e+002, 1.769742e+002
4.912783e+002, 1.764959e+002
4.917604e+002, 1.759082e+002
4.922425e+002, 1.744864e+002
4.927246e+002, 1.725945e+002
4.932067e+002, 1.708925e+002
4.936888e+002, 1.696178e+002
4.941710e+002, 1.686124e+002
4.946531e+002, 1.676447e+002
4.951352e+002, 1.666338e+002
4.956173e+002, 1.659487e+002
4.960994e+002, 1.659188e+002
4.965815e+002, 1.658468e+002
4.970637e+002, 1.653266e+002
4.975458e+002, 1.645038e+002
4.980279e+002, 1.636954e+002
4.985100e+002, 1.630600e+002
4.989921e+002, 1.626495e+002
4.994742e+002, 1.626665e+002
4.999564e+002, 1.633946e+002
5.004385e+002, 1.638242e+002
5.009206e+002, 1.635009e+002
5.014027e+002, 1.630862e+002
5.018848e+002, 1.629909e+002
5.023669e+002, 1.632034e+002
5.028491e+002, 1.634549e+002
5.033312e+002, 1.635870e+002
5.038133e+002, 1.636192e+002
5.042954e+002, 1.635368e+002
5.047775e+002, 1.632734e+002
5.052596e+002, 1.632221e+002
5.057418e+002, 1.636955e+002
5.062239e+002, 1.644236e+002
5.067060e+002, 1.650666e+002
5.071881e+002, 1.656467e+002
5.076702e+002, 1.659684e+002
5.081523e+002, 1.656144e+002
5.086345e+002, 1.650417e+002
5.091166e+002, 1.650401e+002
5.095987e+002, 1.657277e+002
5.100808e+002, 1.667322e+002
5.105629e+002, 1.678342e+002
5.110450e+002, 1.690025e+002
5.115272e+002, 1.699482e+002
5.120093e+002, 1.706412e+002
5.124914e+002, 1.711853e+002
5.129735e+002, 1.713050e+002
5.134556e+002, 1.714188e+002
5.139377e+002, 1.722175e+002
5.144199e+002, 1.738255e+002
5.149020e+002, 1.755966e+002
5.153841e+002, 1.766720e+002
5.158662e+002, 1.769177e+002
5.163483e+002, 1.773831e+002
5.168304e+002, 1.781225e+002
5.173126e+002, 1.790359e+002
5.177947e+002, 1.800718e+002
5.182768e+002, 1.812742e+002
5.187589e+002, 1.828251e+002
5.192410e+002, 1.848231e+002
5.197231e+002, 1.867833e+002
5.202053e+002, 1.878988e+002
5.206874e+002, 1.880948e+002
5.211695e+002, 1.884872e+002
5.216516e+002, 1.891776e+002
5.221337e+002, 1.901661e+002
5.226158e+002, 1.916925e+002
5.230980e+002, 1.935070e+002
5.235801e+002, 1.948576e+002
5.240622e+002, 1.949836e+002
5.245443e+002, 1.950178e+002
5.250264e+002, 1.963601e+002
5.255085e+002, 1.987881e+002
5.259907e+002, 2.009324e+002
5.264728e+002, 2.023346e+002
5.269549e+002, 2.032401e+002
5.274370e+002, 2.039068e+002
5.279191e+002, 2.042731e+002
5.284012e+002, 2.048557e+002
5.288834e+002, 2.057789e+002
5.293655e+002, 2.068725e+002
5.298476e+002, 2.081134e+002
5.303297e+002, 2.094316e+002
5.308118e+002, 2.106443e+002
5.312939e+002, 2.116468e+002
5.317761e+002, 2.125291e+002
5.322582e+002, 2.135187e+002
5.327403e+002, 2.146444e+002
5.332224e+002, 2.158249e+002
5.337045e+002, 2.171712e+002
5.341866e+002, 2.184578e+002
5.346688e+002, 2.195200e+002
5.351509e+002, 2.204011e+002
5.356330e+002, 2.212218e+002
5.361151e+002, 2.219727e+002
5.365972e+002, 2.228338e+002
5.370793e+002, 2.244978e+002
5.375615e+002, 2.272850e+002
5.380436e+002, 2.294926e+002
5.385257e+002, 2.297730e+002
5.390078e+002, 2.299366e+002
5.394899e+002, 2.319775e+002
5.399720e+002, 2.358161e+002
5.404542e+002, 2.389014e+002
5.409363e+002, 2.392297e+002
5.414184e+002, 2.384485e+002
5.419005e+002, 2.389434e+002
5.423826e+002, 2.407529e+002
5.428647e+002, 2.427438e+002
5.433469e+002, 2.443578e+002
5.438290e+002, 2.457571e+002
5.443111e+002, 2.474163e+002
5.447932e+002, 2.496119e+002
5.452753e+002, 2.513725e+002
5.457574e+002, 2.521257e+002
5.462396e+002, 2.527086e+002
5.467217e+002, 2.538431e+002
5.472038e+002, 2.555271e+002
5.476859e+002, 2.573980e+002
5.481680e+002, 2.592540e+002
5.486501e+002, 2.610086e+002
5.491323e+002, 2.622549e+002
5.496144e+002, 2.626790e+002
5.500965e+002, 2.631117e+002
5.505786e+002, 2.638765e+002
5.510607e+002, 2.645139e+002
5.515428e+002, 2.644446e+002
5.520250e+002, 2.638119e+002
5.525071e+002, 2.635236e+002
5.529892e+002, 2.646291e+002
5.534713e+002, 2.664382e+002
5.539534e+002, 2.667610e+002
5.544355e+002, 2.652864e+002
5.549177e+002, 2.639019e+002
5.553998e+002, 2.635723e+002
5.558819e+002, 2.635497e+002
5.563640e+002, 2.628598e+002
5.568461e+002, 2.614508e+002
5.573282e+002, 2.596846e+002
5.578104e+002, 2.576055e+002
5.582925e+002, 2.552890e+002
5.587746e+002, 2.528062e+002
5.592567e+002, 2.501576e+002
5.597388e+002, 2.473903e+002
5.602209e+002, 2.444641e+002
5.607031e+002, 2.415064e+002
5.611852e+002, 2.389199e+002
5.616673e+002, 2.372673e+002
5.621494e+002, 2.351483e+002
5.626315e+002, 2.321621e+002
5.631136e+002, 2.290040e+002
5.635958e+002, 2.261198e+002
5.640779e+002, 2.235289e+002
5.645600e+002, 2.211395e+002
5.650421e+002, 2.189071e+002
5.655242e+002, 2.167736e+002
5.660063e+002, 2.144934e+002
5.664885e+002, 2.119365e+002
5.669706e+002, 2.096475e+002
5.674527e+002, 2.079695e+002
5.679348e+002, 2.064614e+002
5.684169e+002, 2.049141e+002
5.688990e+002, 2.032962e+002
5.693812e+002, 2.014846e+002
5.698633e+002, 1.990738e+002
5.703454e+002, 1.966302e+002
5.708275e+002, 1.950894e+002
5.713096e+002, 1.944065e+002
5.717917e+002, 1.938077e+002
5.722739e+002, 1.929915e+002
5.727560e+002, 1.920365e+002
5.732381e+002, 1.910520e+002
5.737202e+002, 1.899959e+002
5.742023e+002, 1.890612e+002
5.746844e+002, 1.884496e+002
5.751666e+002, 1.878015e+002
5.756487e+002, 1.867726e+002
5.761308e+002, 1.854982e+002
5.766129e+002, 1.843410e+002
5.770950e+002, 1.834829e+002
5.775771e+002, 1.828729e+002
5.780593e+002, 1.824373e+002
5.785414e+002, 1.823082e+002
5.790235e+002, 1.819890e+002
5.795056e+002, 1.814113e+002
5.799877e+002, 1.806720e+002
5.804698e+002, 1.796022e+002
5.809520e+002, 1.784132e+002
5.814341e+002, 1.775828e+002
5.819162e+002, 1.774353e+002
5.823983e+002, 1.775049e+002
5.828804e+002, 1.771602e+002
5.833625e+002, 1.764364e+002
5.838447e+002, 1.757072e+002
5.843268e+002, 1.750317e+002
5.848089e+002, 1.744386e+002
5.852910e+002, 1.739964e+002
5.857731e+002, 1.736910e+002
5.862552e+002, 1.733765e+002
5.867374e+002, 1.730224e+002
5.872195e+002, 1.726766e+002
5.877016e+002, 1.723573e+002
5.881837e+002, 1.720673e+002
5.886658e+002, 1.718421e+002
5.891479e+002, 1.716843e+002
5.896301e+002, 1.714854e+002
5.901122e+002, 1.710933e+002
5.905943e+002, 1.704797e+002
5.910764e+002, 1.699407e+002
5.915585e+002, 1.693780e+002
5.920406e+002, 1.690158e+002
5.925228e+002, 1.690725e+002
5.930049e+002, 1.692771e+002
5.934870e+002, 1.693358e+002
5.939691e+002, 1.691702e+002
5.944512e+002, 1.688503e+002
5.949333e+002, 1.683409e+002
5.954155e+002, 1.677137e+002
5.958976e+002, 1.673156e+002
5.963797e+002, 1.672094e+002
5.968618e+002, 1.671352e+002
5.973439e+002, 1.669162e+002
5.978260e+002, 1.666407e+002
5.983082e+002, 1.665301e+002
5.987903e+002, 1.666643e+002
5.992724e+002, 1.667628e+002
5.997545e+002, 1.666866e+002
6.002366e+002, 1.665616e+002
6.007188e+002, 1.665505e+002
6.012009e+002, 1.666422e+002
6.016830e+002, 1.666795e+002
6.021651e+002, 1.665473e+002
6.026472e+002, 1.663017e+002
6.031293e+002, 1.661512e+002
6.036115e+002, 1.661388e+002
6.040936e+002, 1.661455e+002
6.045757e+002, 1.662546e+002
6.050578e+002, 1.662987e+002
6.055399e+002, 1.660671e+002
6.060220e+002, 1.656671e+002
6.065042e+002, 1.654617e+002
6.069863e+002, 1.657625e+002
6.074684e+002, 1.662001e+002
6.079505e+002, 1.660799e+002
6.084326e+002, 1.654200e+002
6.089147e+002, 1.649966e+002
6.093969e+002, 1.651211e+002
6.098790e+002, 1.653447e+002
6.103611e+002, 1.651941e+002
6.108432e+002, 1.646929e+002
6.113253e+002, 1.640674e+002
6.118074e+002, 1.631584e+002
6.122896e+002, 1.623208e+002
6.127717e+002, 1.619068e+002
6.132538e+002, 1.616438e+002
6.137359e+002, 1.609912e+002
6.142180e+002, 1.598133e+002
6.147001e+002, 1.585584e+002
6.151823e+002, 1.577937e+002
6.156644e+002, 1.575590e+002
6.161465e+002, 1.569604e+002
6.166286e+002, 1.555720e+002
6.171107e+002, 1.544111e+002
6.175928e+002, 1.539185e+002
6.180750e+002, 1.536633e+002
6.185571e+002, 1.531678e+002
6.190392e+002, 1.523525e+002
6.195213e+002, 1.515755e+002
6.200034e+002, 1.512652e+002
6.204855e+002, 1.511504e+002
6.209677e+002, 1.504406e+002
6.214498e+002, 1.490764e+002
6.219319e+002, 1.481211e+002
6.224140e+002, 1.481988e+002
6.228961e+002, 1.488964e+002
6.233782e+002, 1.493796e+002
6.238604e+002, 1.496436e+002
6.243425e+002, 1.497469e+002
6.248246e+002, 1.496583e+002
6.253067e+002, 1.494433e+002
6.257888e+002, 1.490186e+002
6.262709e+002, 1.485116e+002
6.267531e+002, 1.482311e+002
6.272352e+002, 1.483360e+002
6.277173e+002, 1.485754e+002
6.281994e+002, 1.483816e+002
6.286815e+002, 1.475683e+002
6.291636e+002, 1.473861e+002
6.296458e+002, 1.484410e+002
6.301279e+002, 1.494396e+002
6.306100e+002, 1.496197e+002
6.310921e+002, 1.493425e+002
6.315742e+002, 1.492634e+002
6.320563e+002, 1.496118e+002
6.325385e+002, 1.499749e+002
6.330206e+002, 1.499503e+002
6.335027e+002, 1.497565e+002
6.339848e+002, 1.498887e+002
6.344669e+002, 1.504109e+002
6.349490e+002, 1.509110e+002
6.354312e+002, 1.510618e+002
6.359133e+002, 1.509663e+002
6.363954e+002, 1.511140e+002
6.368775e+002, 1.517113e+002
6.373596e+002, 1.522853e+002
6.378417e+002, 1.528742e+002
6.383239e+002, 1.533908e+002
6.388060e+002, 1.537637e+002
6.392881e+002, 1.540062e+002
6.397702e+002, 1.541709e+002
6.402523e+002, 1.542802e+002
6.407344e+002, 1.543533e+002
6.412166e+002, 1.543458e+002
6.416987e+002, 1.542396e+002
6.421808e+002, 1.545031e+002
6.426629e+002, 1.554004e+002
6.431450e+002, 1.564113e+002
6.436271e+002, 1.570774e+002
6.441093e+002, 1.574724e+002
6.445914e+002, 1.578231e+002
6.450735e+002, 1.580882e+002
6.455556e+002, 1.583950e+002
6.460377e+002, 1.588205e+002
6.465198e+002, 1.593173e+002
6.470020e+002, 1.597390e+002
6.474841e+002, 1.600973e+002
6.479662e+002, 1.607044e+002
6.484483e+002, 1.619063e+002
6.489304e+002, 1.635654e+002
6.494125e+002, 1.647022e+002
6.498947e+002, 1.648692e+002
6.503768e+002, 1.653436e+002
6.508589e+002, 1.663758e+002
6.513410e+002, 1.677444e+002
6.518231e+002, 1.693102e+002
6.523052e+002, 1.710731e+002
6.527874e+002, 1.731267e+002
6.532695e+002, 1.757391e+002
6.537516e+002, 1.784522e+002
6.542337e+002, 1.805715e+002
6.547158e+002, 1.822439e+002
6.551979e+002, 1.840956e+002
6.556801e+002, 1.862732e+002
6.561622e+002, 1.888670e+002
6.566443e+002, 1.920660e+002
6.571264e+002, 1.959012e+002
6.576085e+002, 1.996088e+002
6.580906e+002, 2.026609e+002
6.585728e+002, 2.062501e+002
6.590549e+002, 2.113103e+002
6.595370e+002, 2.166826e+002
6.600191e+002, 2.209077e+002
6.605012e+002, 2.239907e+002
6.609833e+002, 2.274683e+002
6.614655e+002, 2.329273e+002
6.619476e+002, 2.395687e+002
6.624297e+002, 2.444072e+002
6.629118e+002, 2.470841e+002
6.633939e+002, 2.507705e+002
6.638760e+002, 2.566916e+002
6.643582e+002, 2.636970e+002
6.648403e+002, 2.704908e+002
6.653224e+002, 2.770952e+002
6.658045e+002, 2.839130e+002
6.662866e+002, 2.910846e+002
6.667687e+002, 2.984036e+002
6.672509e+002, 3.058395e+002
6.677330e+002, 3.132872e+002
6.682151e+002, 3.208081e+002
6.686972e+002, 3.283351e+002
6.691793e+002, 3.351451e+002
6.696614e+002, 3.404293e+002
6.701436e+002, 3.443063e+002
6.706257e+002, 3.487139e+002
6.711078e+002, 3.548716e+002
6.715899e+002, 3.590571e+002
6.720720e+002, 3.595040e+002
6.725541e+002, 3.580830e+002
6.730363e+002, 3.560095e+002
6.735184e+002, 3.533757e+002
6.740005e+002, 3.500496e+002
6.744826e+002, 3.459366e+002
6.749647e+002, 3.410957e+002
6.754468e+002, 3.354479e+002
6.759290e+002, 3.291071e+002
6.764111e+002, 3.223163e+002
6.768932e+002, 3.151567e+002
6.773753e+002, 3.078442e+002
6.778574e+002, 3.006280e+002
6.783395e+002, 2.934967e+002
6.788217e+002, 2.867704e+002
6.793038e+002, 2.804863e+002
6.797859e+002, 2.745913e+002
6.802680e+002, 2.694294e+002
6.807501e+002, 2.644674e+002
6.812322e+002, 2.589612e+002
6.817144e+002, 2.530479e+002
6.821965e+002, 2.478227e+002
6.826786e+002, 2.446096e+002
6.831607e+002, 2.421557e+002
6.836428e+002, 2.381129e+002
6.841249e+002, 2.327185e+002
6.846071e+002, 2.283127e+002
6.850892e+002, 2.257806e+002
6.855713e+002, 2.237075e+002
6.860534e+002, 2.203675e+002
6.865355e+002, 2.156579e+002
6.870176e+002, 2.117404e+002
6.874998e+002, 2.093606e+002
6.879819e+002, 2.067730e+002
6.884640e+002, 2.032993e+002
6.889461e+002, 1.995653e+002
6.894282e+002, 1.962242e+002
6.899103e+002, 1.933333e+002
6.903925e+002, 1.904597e+002
6.908746e+002, 1.872405e+002
6.913567e+002, 1.838704e+002
6.918388e+002, 1.807496e+002
6.923209e+002, 1.778706e+002
6.928030e+002, 1.755008e+002
6.932852e+002, 1.738290e+002
6.937673e+002, 1.724724e+002
6.942494e+002, 1.711067e+002
6.947315e+002, 1.697217e+002
6.952136e+002, 1.682380e+002
6.956957e+002, 1.664785e+002
6.961779e+002, 1.648228e+002
6.966600e+002, 1.633959e+002
6.971421e+002, 1.621424e+002
6.976242e+002, 1.610954e+002
6.981063e+002, 1.601904e+002
6.985884e+002, 1.591497e+002
6.990706e+002, 1.577042e+002
6.995527e+002, 1.560729e+002
7.000348e+002, 1.549369e+002
7.005169e+002, 1.543919e+002
7.009990e+002, 1.537025e+002
7.014811e+002, 1.525509e+002
7.019633e+002, 1.514599e+002
7.024454e+002, 1.510156e+002
7.029275e+002, 1.510150e+002
7.034096e+002, 1.507691e+002
7.038917e+002, 1.500317e+002
7.043738e+002, 1.492510e+002
7.048560e+002, 1.484753e+002
7.053381e+002, 1.478307e+002
7.058202e+002, 1.474930e+002
7.063023e+002, 1.474520e+002
7.067844e+002, 1.476090e+002
7.072665e+002, 1.479498e+002
7.077487e+002, 1.482481e+002
7.082308e+002, 1.477494e+002
7.087129e+002, 1.461956e+002
7.091950e+002, 1.450722e+002
7.096771e+002, 1.447915e+002
7.101592e+002, 1.446606e+002
7.106414e+002, 1.441069e+002
7.111235e+002, 1.433957e+002
7.116056e+002, 1.431624e+002
7.120877e+002, 1.437938e+002
7.125698e+002, 1.442423e+002
7.130519e+002, 1.437816e+002
7.135341e+002, 1.429956e+002
7.140162e+002, 1.426034e+002
7.144983e+002, 1.425918e+002
7.149804e+002, 1.425370e+002
7.154625e+002, 1.421963e+002
7.159446e+002, 1.416736e+002
7.164268e+002, 1.411553e+002
7.169089e+002, 1.406005e+002
7.173910e+002, 1.402310e+002
7.178731e+002, 1.401140e+002
7.183552e+002, 1.400999e+002
7.188373e+002, 1.400972e+002
7.193195e+002, 1.401540e+002
7.198016e+002, 1.404050e+002
7.202837e+002, 1.409347e+002
7.207658e+002, 1.412710e+002
7.212479e+002, 1.410377e+002
7.217300e+002, 1.406055e+002
7.222122e+002, 1.402866e+002
7.226943e+002, 1.401283e+002
7.231764e+002, 1.402048e+002
7.236585e+002, 1.405514e+002
7.241406e+002, 1.410176e+002
7.246227e+002, 1.413753e+002
7.251049e+002, 1.416161e+002
7.255870e+002, 1.418451e+002
7.260691e+002, 1.420378e+002
7.265512e+002, 1.422568e+002
7.270333e+002, 1.425127e+002
7.275154e+002, 1.428096e+002
7.279976e+002, 1.431843e+002
7.284797e+002, 1.436337e+002
7.289618e+002, 1.440067e+002
7.294439e+002, 1.439967e+002
7.299260e+002, 1.440899e+002
7.304081e+002, 1.448972e+002
7.308903e+002, 1.461362e+002
7.313724e+002, 1.471066e+002
7.318545e+002, 1.476113e+002
7.323366e+002, 1.479673e+002
7.328187e+002, 1.485450e+002
7.333008e+002, 1.492952e+002
7.337830e+002, 1.495566e+002
7.342651e+002, 1.488579e+002
7.347472e+002, 1.486925e+002
7.352293e+002, 1.497572e+002
7.357114e+002, 1.511776e+002
7.361935e+002, 1.525229e+002
7.366757e+002, 1.537186e+002
7.371578e+002, 1.545735e+002
7.376399e+002, 1.547378e+002
7.381220e+002, 1.549258e+002
7.386041e+002, 1.556176e+002
7.390862e+002, 1.566411e+002
7.395684e+002, 1.578121e+002
7.400505e+002, 1.590490e+002
7.405326e+002, 1.601450e+002
7.410147e+002, 1.609254e+002
7.414968e+002, 1.615263e+002
7.419789e+002, 1.623909e+002
7.424611e+002, 1.636126e+002
7.429432e+002, 1.647646e+002
7.434253e+002, 1.659854e+002
7.439074e+002, 1.668873e+002
7.443895e+002, 1.671683e+002
7.448716e+002, 1.670242e+002
7.453538e+002, 1.667892e+002
7.458359e+002, 1.664893e+002
7.463180e+002, 1.661838e+002
7.468001e+002, 1.662064e+002
7.472822e+002, 1.660177e+002
7.477643e+002, 1.648387e+002
7.482465e+002, 1.629241e+002
7.487286e+002, 1.611756e+002
7.492107e+002, 1.600090e+002
7.496928e+002, 1.590563e+002
7.501749e+002, 1.576939e+002
7.506570e+002, 1.558814e+002
7.511392e+002, 1.545103e+002
7.516213e+002, 1.537507e+002
7.521034e+002, 1.530300e+002
7.525855e+002, 1.521311e+002
7.530676e+002, 1.511488e+002
7.535497e+002, 1.501944e+002
7.540319e+002, 1.492689e+002
7.545140e+002, 1.483751e+002
7.549961e+002, 1.475961e+002
7.554782e+002, 1.467618e+002
7.559603e+002, 1.456458e+002
7.564424e+002, 1.444618e+002
7.569246e+002, 1.435020e+002
7.574067e+002, 1.428393e+002
7.578888e+002, 1.424413e+002
7.583709e+002, 1.423415e+002
7.588530e+002, 1.424057e+002
7.593351e+002, 1.421127e+002
7.598173e+002, 1.413969e+002
7.602994e+002, 1.409157e+002
7.607815e+002, 1.409139e+002
7.612636e+002, 1.409914e+002
7.617457e+002, 1.407470e+002
7.622278e+002, 1.402855e+002
7.627100e+002, 1.401185e+002
7.631921e+002, 1.405998e+002
7.636742e+002, 1.408452e+002
7.641563e+002, 1.404533e+002
7.646384e+002, 1.399110e+002
7.651205e+002, 1.396140e+002
7.656027e+002, 1.395183e+002
7.660848e+002, 1.393929e+002
7.665669e+002, 1.391296e+002
7.670490e+002, 1.388097e+002
7.675311e+002, 1.384765e+002
7.680132e+002, 1.381649e+002
7.684954e+002, 1.381124e+002
7.689775e+002, 1.383623e+002
7.694596e+002, 1.386313e+002
7.699417e+002, 1.388195e+002
7.704238e+002, 1.388966e+002
7.709059e+002, 1.387786e+002
7.713881e+002, 1.383771e+002
7.718702e+002, 1.381383e+002
7.723523e+002, 1.380466e+002
7.728344e+002, 1.381262e+002
7.733165e+002, 1.386178e+002
7.737986e+002, 1.391479e+002
7.742808e+002, 1.392222e+002
7.747629e+002, 1.388339e+002
7.752450e+002, 1.384958e+002
7.757271e+002, 1.385917e+002
7.762092e+002, 1.388923e+002
7.766913e+002, 1.390654e+002
7.771735e+002, 1.391447e+002
7.776556e+002, 1.392880e+002
7.781377e+002, 1.395356e+002
7.786198e+002, 1.397441e+002
7.791019e+002, 1.397656e+002
7.795840e+002, 1.396621e+002
7.800662e+002, 1.397494e+002
7.805483e+002, 1.400525e+002
7.810304e+002, 1.405031e+002
7.815125e+002, 1.414110e+002
7.819946e+002, 1.421430e+002
7.824767e+002, 1.422304e+002
7.829589e+002, 1.419623e+002
7.834410e+002, 1.418983e+002
7.839231e+002, 1.421982e+002
7.844052e+002, 1.425872e+002
7.848873e+002, 1.429077e+002
7.853694e+002, 1.432227e+002
7.858516e+002, 1.436311e+002
7.863337e+002, 1.441059e+002
7.868158e+002, 1.445869e+002
7.872979e+002, 1.450472e+002
7.877800e+002, 1.453394e+002
7.882621e+002, 1.452332e+002
7.887443e+002, 1.447431e+002
7.892264e+002, 1.442953e+002
7.897085e+002, 1.438547e+002
7.901906e+002, 1.435749e+002
7.906727e+002, 1.437469e+002
7.911548e+002, 1.438545e+002
7.916370e+002, 1.431946e+002
7.921191e+002, 1.419142e+002
7.926012e+002, 1.410863e+002
7.930833e+002, 1.412698e+002
7.935654e+002, 1.414235e+002
7.940475e+002, 1.410556e+002
7.945297e+002, 1.405374e+002
7.950118e+002, 1.401499e+002
7.954939e+002, 1.399780e+002
7.959760e+002, 1.401701e+002
7.964581e+002, 1.408619e+002
7.969402e+002, 1.415957e+002
7.974224e+002, 1.415352e+002
7.979045e+002, 1.408344e+002
7.983866e+002, 1.405994e+002
7.988687e+002, 1.409762e+002
7.993508e+002, 1.413090e+002
7.998329e+002, 1.412603e+002
8.003151e+002, 1.409784e+002
8.007972e+002, 1.407406e+002
8.012793e+002, 1.405892e+002
8.017614e+002, 1.403087e+002
8.022435e+002, 1.396889e+002
8.027256e+002, 1.392101e+002
8.032078e+002, 1.390343e+002
8.036899e+002, 1.390543e+002
8.041720e+002, 1.392076e+002
8.046541e+002, 1.394551e+002
8.051362e+002, 1.396861e+002
8.056183e+002, 1.399578e+002
8.061005e+002, 1.400513e+002
8.065826e+002, 1.395388e+002
8.070647e+002, 1.387160e+002
8.075468e+002, 1.383403e+002
8.080289e+002, 1.384896e+002
8.085110e+002, 1.385387e+002
8.089932e+002, 1.380134e+002
8.094753e+002, 1.371877e+002
8.099574e+002, 1.367950e+002
8.104395e+002, 1.369159e+002
8.109216e+002, 1.371332e+002
8.114037e+002, 1.376284e+002
8.118859e+002, 1.378828e+002
8.123680e+002, 1.375559e+002
8.128501e+002, 1.368633e+002
8.133322e+002, 1.359702e+002
8.138143e+002, 1.347843e+002
8.142964e+002, 1.341464e+002
8.147786e+002, 1.344018e+002
8.152607e+002, 1.350902e+002
8.157428e+002, 1.365508e+002
8.162249e+002, 1.379876e+002
8.167070e+002, 1.380451e+002
8.171891e+002, 1.366937e+002
8.176713e+002, 1.353714e+002
8.181534e+002, 1.352632e+002
8.186355e+002, 1.357247e+002
8.191176e+002, 1.353542e+002
8.195997e+002, 1.343085e+002
8.200818e+002, 1.338952e+002
8.205640e+002, 1.343903e+002
8.210461e+002, 1.351298e+002
8.215282e+002, 1.357226e+002
8.220103e+002, 1.361315e+002
8.224924e+002, 1.362182e+002
8.229745e+002, 1.357379e+002
8.234567e+002, 1.354825e+002
8.239388e+002, 1.357284e+002
8.244209e+002, 1.358806e+002
8.249030e+002, 1.356540e+002
8.253851e+002, 1.352533e+002
8.258672e+002, 1.349350e+002
8.263494e+002, 1.347368e+002
8.268315e+002, 1.345721e+002
8.273136e+002, 1.343916e+002
8.277957e+002, 1.342385e+002
8.282778e+002, 1.340503e+002
8.287599e+002, 1.339517e+002
8.292421e+002, 1.342628e+002
8.297242e+002, 1.349773e+002
8.302063e+002, 1.356765e+002
8.306884e+002, 1.360559e+002
8.311705e+002, 1.361687e+002
8.316526e+002, 1.360369e+002
8.321348e+002, 1.356401e+002
8.326169e+002, 1.356701e+002
8.330990e+002, 1.363387e+002
8.335811e+002, 1.370187e+002
8.340632e+002, 1.374075e+002
8.345453e+002, 1.375145e+002
8.350275e+002, 1.373070e+002
8.355096e+002, 1.365680e+002
8.359917e+002, 1.361710e+002
8.364738e+002, 1.363441e+002
8.369559e+002, 1.365926e+002
8.374380e+002, 1.369456e+002
8.379202e+002, 1.371488e+002
8.384023e+002, 1.367190e+002
8.388844e+002, 1.357509e+002
8.393665e+002, 1.351793e+002
8.398486e+002, 1.358050e+002
8.403307e+002, 1.366729e+002
8.408129e+002, 1.367837e+002
8.412950e+002, 1.364356e+002
8.417771e+002, 1.362196e+002
8.422592e+002, 1.362072e+002
8.427413e+002, 1.361069e+002
8.432234e+002, 1.357065e+002
8.437056e+002, 1.353069e+002
8.441877e+002, 1.356378e+002
8.446698e+002, 1.367857e+002
8.451519e+002, 1.375556e+002
8.456340e+002, 1.378528e+002
8.461161e+002, 1.379243e+002
8.465983e+002, 1.377779e+002
8.470804e+002, 1.375465e+002
8.475625e+002, 1.374016e+002
8.480446e+002, 1.373427e+002
8.485267e+002, 1.373548e+002
8.490089e+002, 1.373526e+002
8.494910e+002, 1.375291e+002
8.499731e+002, 1.381669e+002
8.504552e+002, 1.388306e+002
8.509373e+002, 1.391497e+002
8.514194e+002, 1.391350e+002
8.519016e+002, 1.389037e+002
8.523837e+002, 1.383916e+002
8.528658e+002, 1.381020e+002
8.533479e+002, 1.388062e+002
8.538300e+002, 1.399011e+002
8.543121e+002, 1.402720e+002
8.547943e+002, 1.399617e+002
8.552764e+002, 1.395765e+002
8.557585e+002, 1.393765e+002
8.562406e+002, 1.392873e+002
8.567227e+002, 1.391815e+002
8.572048e+002, 1.390817e+002
8.576870e+002, 1.393626e+002
8.581691e+002, 1.401682e+002
8.586512e+002, 1.407726e+002
8.591333e+002, 1.409620e+002
8.596154e+002, 1.409465e+002
8.600975e+002, 1.408085e+002
8.605797e+002, 1.406044e+002
8.610618e+002, 1.406419e+002
8.615439e+002, 1.410227e+002
8.620260e+002, 1.414675e+002
8.625081e+002, 1.420592e+002
8.629902e+002, 1.425971e+002
8.634724e+002, 1.431039e+002
8.639545e+002, 1.434215e+002
8.644366e+002, 1.432404e+002
8.649187e+002, 1.424984e+002
8.654008e+002, 1.417126e+002
8.658829e+002, 1.410489e+002
8.663651e+002, 1.406583e+002
8.668472e+002, 1.408155e+002
8.673293e+002, 1.413624e+002
8.678114e+002, 1.420099e+002
8.682935e+002, 1.426514e+002
8.687756e+002, 1.430791e+002
8.692578e+002, 1.431050e+002
8.697399e+002, 1.429060e+002
8.702220e+002, 1.429109e+002
8.707041e+002, 1.431253e+002
8.711862e+002, 1.434470e+002
8.716683e+002, 1.439200e+002
8.721505e+002, 1.443223e+002
8.726326e+002, 1.446225e+002
8.731147e+002, 1.446804e+002
8.735968e+002, 1.441299e+002
8.740789e+002, 1.427149e+002
8.745610e+002, 1.420908e+002
8.750432e+002, 1.426214e+002
8.755253e+002, 1.434241e+002
8.760074e+002, 1.448463e+002
8.764895e+002, 1.460264e+002
8.769716e+002, 1.460239e+002
8.774537e+002, 1.451092e+002
8.779359e+002, 1.444289e+002
8.784180e+002, 1.443649e+002
8.789001e+002, 1.446010e+002
8.793822e+002, 1.452835e+002
8.798643e+002, 1.459164e+002
8.803464e+002, 1.458257e+002
8.808286e+002, 1.451945e+002
8.813107e+002, 1.445370e+002
8.817928e+002, 1.440684e+002
8.822749e+002, 1.439411e+002
8.827570e+002, 1.445750e+002
8.832391e+002, 1.455655e+002
8.837213e+002, 1.453945e+002
8.842034e+002, 1.441562e+002
8.846855e+002, 1.435308e+002
8.851676e+002, 1.439776e+002
8.856497e+002, 1.445811e+002
8.861318e+002, 1.446380e+002
8.866140e+002, 1.442873e+002
8.870961e+002, 1.440114e+002
8.875782e+002, 1.439226e+002
8.880603e+002, 1.436058e+002
8.885424e+002, 1.428469e+002
8.890245e+002, 1.421522e+002
8.895067e+002, 1.417374e+002
8.899888e+002, 1.414828e+002
8.904709e+002, 1.411692e+002
8.909530e+002, 1.407938e+002
8.914351e+002, 1.408577e+002
8.919172e+002, 1.422720e+002
8.923994e+002, 1.431365e+002
8.928815e+002, 1.423918e+002
8.933636e+002, 1.409546e+002
8.938457e+002, 1.394450e+002
8.943278e+002, 1.380956e+002
8.948099e+002, 1.372047e+002
8.952921e+002, 1.369347e+002
8.957742e+002, 1.368452e+002
8.962563e+002, 1.365155e+002
8.967384e+002, 1.360941e+002
8.972205e+002, 1.359450e+002
8.977026e+002, 1.359605e+002
8.981848e+002, 1.355785e+002
8.986669e+002, 1.346475e+002
8.991490e+002, 1.337997e+002
8.996311e+002, 1.337177e+002
9.001132e+002, 1.341156e+002
9.005953e+002, 1.337668e+002
9.010775e+002, 1.325568e+002
9.015596e+002, 1.319747e+002
9.020417e+002, 1.323792e+002
9.025238e+002, 1.329303e+002
9.030059e+002, 1.331838e+002
9.034880e+002, 1.332110e+002
9.039702e+002, 1.331591e+002
9.044523e+002, 1.330465e+002
9.049344e+002, 1.327734e+002
9.054165e+002, 1.321452e+002
9.058986e+002, 1.316075e+002
9.063807e+002, 1.311910e+002
9.068629e+002, 1.309527e+002
9.073450e+002, 1.309656e+002
9.078271e+002, 1.312030e+002
9.083092e+002, 1.315881e+002
9.087913e+002, 1.323214e+002
9.092734e+002, 1.327485e+002
9.097556e+002, 1.323942e+002
9.102377e+002, 1.317707e+002
9.107198e+002, 1.311949e+002
9.112019e+002, 1.307508e+002
9.116840e+002, 1.304884e+002
9.121661e+002, 1.304317e+002
9.126483e+002, 1.306414e+002
9.131304e+002, 1.314348e+002
9.136125e+002, 1.322897e+002
9.140946e+002, 1.322049e+002
9.145767e+002, 1.314582e+002
9.150588e+002, 1.309146e+002
9.155410e+002, 1.307207e+002
9.160231e+002, 1.307001e+002
9.165052e+002, 1.307624e+002
9.169873e+002, 1.308048e+002
9.174694e+002, 1.306124e+002
9.179515e+002, 1.301769e+002
9.184337e+002, 1.296881e+002
9.189158e+002, 1.291023e+002
9.193979e+002, 1.286409e+002
9.198800e+002, 1.283170e+002
9.203621e+002, 1.282884e+002
9.208442e+002, 1.288471e+002
9.213264e+002, 1.299059e+002
9.218085e+002, 1.305231e+002
9.222906e+002, 1.306611e+002
9.227727e+002, 1.304129e+002
9.232548e+002, 1.293896e+002
9.237369e+002, 1.284277e+002
9.242191e+002, 1.278155e+002
9.247012e+002, 1.275609e+002
9.251833e+002, 1.277937e+002
9.256654e+002, 1.285552e+002
9.261475e+002, 1.290433e+002
9.266296e+002, 1.288564e+002
9.271118e+002, 1.285296e+002
9.275939e+002, 1.283210e+002
9.280760e+002, 1.281232e+002
9.285581e+002, 1.277018e+002
9.290402e+002, 1.271674e+002
9.295223e+002, 1.269341e+002
9.300045e+002, 1.272129e+002
9.304866e+002, 1.276225e+002
9.309687e+002, 1.278837e+002
9.314508e+002, 1.280142e+002
9.319329e+002, 1.280683e+002
9.324150e+002, 1.280144e+002
9.328972e+002, 1.275999e+002
9.333793e+002, 1.268262e+002
9.338614e+002, 1.263856e+002
9.343435e+002, 1.269855e+002
9.348256e+002, 1.281010e+002
9.353077e+002, 1.283717e+002
9.357899e+002, 1.278619e+002
9.362720e+002, 1.274995e+002
9.367541e+002, 1.273910e+002
9.372362e+002, 1.273492e+002
9.377183e+002, 1.272796e+002
9.382004e+002, 1.272477e+002
9.386826e+002, 1.273922e+002
9.391647e+002, 1.277238e+002
9.396468e+002, 1.276845e+002
9.401289e+002, 1.269752e+002
9.406110e+002, 1.266436e+002
9.410931e+002, 1.271768e+002
9.415753e+002, 1.277579e+002
9.420574e+002, 1.277791e+002
9.425395e+002, 1.274219e+002
9.430216e+002, 1.272055e+002
9.435037e+002, 1.272402e+002
9.439858e+002, 1.270821e+002
9.444680e+002, 1.262209e+002
9.449501e+002, 1.257407e+002
9.454322e+002, 1.265043e+002
9.459143e+002, 1.275177e+002
9.463964e+002, 1.276376e+002
9.468785e+002, 1.269840e+002
9.473607e+002, 1.265977e+002
9.478428e+002, 1.269172e+002
9.483249e+002, 1.273532e+002
9.488070e+002, 1.277783e+002
9.492891e+002, 1.280105e+002
9.497712e+002, 1.277085e+002
9.502534e+002, 1.271273e+002
9.507355e+002, 1.267963e+002
9.512176e+002, 1.268356e+002
9.516997e+002, 1.269146e+002
9.521818e+002, 1.267268e+002
9.526639e+002, 1.265191e+002
9.531461e+002, 1.266036e+002
9.536282e+002, 1.269380e+002
9.541103e+002, 1.276134e+002
9.545924e+002, 1.285037e+002
9.550745e+002, 1.289160e+002
9.555566e+002, 1.285027e+002
9.560388e+002, 1.277286e+002
9.565209e+002, 1.270833e+002
9.570030e+002, 1.266350e+002
9.574851e+002, 1.268727e+002
9.579672e+002, 1.277928e+002
9.584493e+002, 1.284925e+002
9.589315e+002, 1.287627e+002
9.594136e+002, 1.288290e+002
9.598957e+002, 1.288094e+002
9.603778e+002, 1.288014e+002
9.608599e+002, 1.290901e+002
9.613420e+002, 1.297629e+002
9.618242e+002, 1.303002e+002
9.623063e+002, 1.307603e+002
9.627884e+002, 1.309112e+002
9.632705e+002, 1.304900e+002
9.637526e+002, 1.299743e+002
9.642347e+002, 1.298913e+002
9.647169e+002, 1.301623e+002
9.651990e+002, 1.302071e+002
9.656811e+002, 1.296852e+002
9.661632e+002, 1.294612e+002
9.666453e+002, 1.296730e+002
9.671274e+002, 1.300258e+002
9.676096e+002, 1.305773e+002
9.680917e+002, 1.310960e+002
9.685738e+002, 1.312827e+002
9.690559e+002, 1.311282e+002
9.695380e+002, 1.308783e+002
9.700201e+002, 1.304314e+002
9.705023e+002, 1.301117e+002
9.709844e+002, 1.299815e+002
9.714665e+002, 1.300683e+002
9.719486e+002, 1.306169e+002
9.724307e+002, 1.313306e+002
9.729128e+002, 1.315735e+002
9.733950e+002, 1.311922e+002
9.738771e+002, 1.308911e+002
9.743592e+002, 1.312586e+002
9.748413e+002, 1.317126e+002
9.753234e+002, 1.315724e+002
9.758055e+002, 1.312823e+002
9.762877e+002, 1.315700e+002
9.767698e+002, 1.323858e+002
9.772519e+002, 1.332071e+002
9.777340e+002, 1.337915e+002
9.782161e+002, 1.342748e+002
9.786982e+002, 1.347249e+002
9.791804e+002, 1.352121e+002
9.796625e+002, 1.359827e+002
9.801446e+002, 1.369025e+002
9.806267e+002, 1.374274e+002
9.811088e+002, 1.374968e+002
9.815909e+002, 1.377176e+002
9.820731e+002, 1.385358e+002
9.825552e+002, 1.395653e+002
9.830373e+002, 1.400165e+002
9.835194e+002, 1.400048e+002
9.840015e+002, 1.404547e+002
9.844836e+002, 1.413925e+002
9.849658e+002, 1.421280e+002
9.854479e+002, 1.424173e+002
9.859300e+002, 1.427033e+002
9.864121e+002, 1.434017e+002
9.868942e+002, 1.444081e+002
9.873763e+002, 1.454035e+002
9.878585e+002, 1.464514e+002
9.883406e+002, 1.470450e+002
9.888227e+002, 1.470822e+002
9.893048e+002, 1.469107e+002
9.897869e+002, 1.465972e+002
9.902690e+002, 1.462763e+002
9.907512e+002, 1.461464e+002
9.912333e+002, 1.461761e+002
9.917154e+002, 1.459526e+002
9.921975e+002, 1.452106e+002
9.926796e+002, 1.448012e+002
9.931617e+002, 1.452601e+002
9.936439e+002, 1.453960e+002
9.941260e+002, 1.445425e+002
9.946081e+002, 1.430976e+002
9.950902e+002, 1.415242e+002
9.955723e+002, 1.398119e+002
9.960544e+002, 1.383149e+002
9.965366e+002, 1.371162e+002
9.970187e+002, 1.360246e+002
9.975008e+002, 1.351012e+002
9.979829e+002, 1.341837e+002
9.984650e+002, 1.331664e+002
9.989471e+002, 1.320832e+002
9.994293e+002, 1.309187e+002
9.999114e+002, 1.296461e+002
1.000393e+003, 1.288038e+002
1.000876e+003, 1.290010e+002
1.001358e+003, 1.290735e+002
1.001840e+003, 1.284037e+002
1.002322e+003, 1.275160e+002
1.002804e+003, 1.267264e+002
1.003286e+003, 1.261484e+002
1.003768e+003, 1.259430e+002
1.004250e+003, 1.261717e+002
1.004733e+003, 1.264702e+002
1.005215e+003, 1.267599e+002
1.005697e+003, 1.269231e+002
1.006179e+003, 1.266822e+002
1.006661e+003, 1.263820e+002
1.007143e+003, 1.265213e+002
1.007625e+003, 1.270331e+002
1.008107e+003, 1.274783e+002
1.008589e+003, 1.276585e+002
1.009072e+003, 1.279484e+002
1.009554e+003, 1.287769e+002
1.010036e+003, 1.297872e+002
1.010518e+003, 1.306510e+002
1.011000e+003, 1.313306e+002
1.011482e+003, 1.317221e+002
1.011964e+003, 1.318723e+002
1.012446e+003, 1.320161e+002
1.012929e+003, 1.322731e+002
1.013411e+003, 1.326731e+002
1.013893e+003, 1.333293e+002
1.014375e+003, 1.341162e+002
1.014857e+003, 1.348418e+002
1.015339e+003, 1.354698e+002
1.015821e+003, 1.358035e+002
1.016303e+003, 1.358640e+002
1.016785e+003, 1.361792e+002
1.017268e+003, 1.371413e+002
1.017750e+003, 1.383492e+002
1.018232e+003, 1.390878e+002
1.018714e+003, 1.395135e+002
1.019196e+003, 1.403116e+002
1.019678e+003, 1.414633e+002
1.020160e+003, 1.426651e+002
1.020642e+003, 1.438363e+002
1.021125e+003, 1.448891e+002
1.021607e+003, 1.457764e+002
1.022089e+003, 1.464466e+002
1.022571e+003, 1.466594e+002
1.023053e+003, 1.464574e+002
1.023535e+003, 1.466503e+002
1.024017e+003, 1.472741e+002
1.024499e+003, 1.481581e+002
1.024981e+003, 1.492953e+002
1.025464e+003, 1.503284e+002
1.025946e+003, 1.508762e+002
1.026428e+003, 1.511661e+002
1.026910e+003, 1.520213e+002
1.027392e+003, 1.535599e+002
1.027874e+003, 1.544498e+002
1.028356e+003, 1.544957e+002
1.028838e+003, 1.546626e+002
1.029321e+003, 1.553655e+002
1.029803e+003, 1.560528e+002
1.030285e+003, 1.561585e+002
1.030767e+003, 1.558174e+002
1.031249e+003, 1.556273e+002
1.031731e+003, 1.556012e+002
1.032213e+003, 1.557006e+002
1.032695e+003, 1.560353e+002
1.033177e+003, 1.562201e+002
1.033660e+003, 1.561741e+002
1.034142e+003, 1.558074e+002
1.034624e+003, 1.549203e+002
1.035106e+003, 1.536266e+002
1.035588e+003, 1.526817e+002
1.036070e+003, 1.522128e+002
1.036552e+003, 1.517856e+002
1.037034e+003, 1.513421e+002
1.037516e+003, 1.510440e+002
1.037999e+003, 1.511751e+002
1.038481e+003, 1.512475e+002
1.038963e+003, 1.506644e+002
1.039445e+003, 1.495200e+002
1.039927e+003, 1.485373e+002
1.040409e+003, 1.475605e+002
1.040891e+003, 1.470266e+002
1.041373e+003, 1.474132e+002
1.041855e+003, 1.476359e+002
1.042338e+003, 1.471308e+002
1.042820e+003, 1.463969e+002
1.043302e+003, 1.460068e+002
1.043784e+003, 1.458889e+002
1.044266e+003, 1.454570e+002
1.044748e+003, 1.443519e+002
1.045230e+003, 1.435145e+002
1.045712e+003, 1.433345e+002
1.046195e+003, 1.430232e+002
1.046677e+003, 1.418964e+002
1.047159e+003, 1.407436e+002
1.047641e+003, 1.405909e+002
1.048123e+003, 1.412879e+002
1.048605e+003, 1.415972e+002
1.049087e+003, 1.412498e+002
1.049569e+003, 1.407599e+002
1.050052e+003, 1.398934e+002
1.050534e+003, 1.392596e+002
1.051016e+003, 1.393493e+002
1.051498e+003, 1.396670e+002
1.051980e+003, 1.397750e+002
1.052462e+003, 1.396062e+002
1.052944e+003, 1.390295e+002
1.053426e+003, 1.377165e+002
1.053908e+003, 1.366134e+002
1.054391e+003, 1.360256e+002
1.054873e+003, 1.355938e+002
1.055355e+003, 1.352927e+002
1.055837e+003, 1.349392e+002
1.056319e+003, 1.342060e+002
1.056801e+003, 1.332030e+002
1.057283e+003, 1.325551e+002
1.057765e+003, 1.326133e+002
1.058248e+003, 1.325525e+002
1.058730e+003, 1.321567e+002
1.059212e+003, 1.315510e+002
1.059694e+003, 1.305659e+002
1.060176e+003, 1.295762e+002
1.060658e+003, 1.289820e+002
1.061140e+003, 1.287806e+002
1.061622e+003, 1.287777e+002
1.062104e+003, 1.289955e+002
1.062587e+003, 1.291974e+002
1.063069e+003, 1.294179e+002
1.063551e+003, 1.294620e+002
1.064033e+003, 1.290640e+002
1.064515e+003, 1.285330e+002
1.064997e+003, 1.282282e+002
1.065479e+003, 1.281298e+002
1.065961e+003, 1.280077e+002
1.066443e+003, 1.277930e+002
1.066926e+003, 1.275625e+002
1.067408e+003, 1.273295e+002
1.067890e+003, 1.271096e+002
1.068372e+003, 1.269643e+002
1.068854e+003, 1.267974e+002
1.069336e+003, 1.264045e+002
1.069818e+003, 1.258926e+002
1.070300e+003, 1.256680e+002
1.070782e+003, 1.259297e+002
1.071265e+003, 1.260637e+002
1.071747e+003, 1.256791e+002
1.072229e+003, 1.252255e+002
1.072711e+003, 1.248200e+002
1.073193e+003, 1.246052e+002
1.073675e+003, 1.249733e+002
1.074157e+003, 1.256314e+002
1.074639e+003, 1.256517e+002
1.075122e+003, 1.246502e+002
1.075604e+003, 1.240082e+002
1.076086e+003, 1.246527e+002
1.076568e+003, 1.254876e+002
1.077050e+003, 1.259346e+002
1.077532e+003, 1.261979e+002
1.078014e+003, 1.263539e+002
1.078496e+003, 1.265566e+002
1.078979e+003, 1.272089e+002
1.079461e+003, 1.284530e+002
1.079943e+003, 1.293615e+002
1.080425e+003, 1.290780e+002
1.080907e+003, 1.288684e+002
1.081389e+003, 1.296644e+002
1.081871e+003, 1.306605e+002
1.082353e+003, 1.309930e+002
1.082835e+003, 1.309252e+002
1.083318e+003, 1.312138e+002
1.083800e+003, 1.320226e+002
1.084282e+003, 1.326545e+002
1.084764e+003, 1.324640e+002
1.085246e+003, 1.324675e+002
1.085728e+003, 1.333552e+002
1.086210e+003, 1.344859e+002
1.086692e+003, 1.352465e+002
1.087175e+003, 1.358580e+002
1.087657e+003, 1.369429e+002
1.088139e+003, 1.385438e+002
1.088621e+003, 1.396499e+002
1.089103e+003, 1.393534e+002
1.089585e+003, 1.391927e+002
1.090067e+003, 1.400545e+002
1.090549e+003, 1.410811e+002
1.091031e+003, 1.416116e+002
1.091514e+003, 1.418627e+002
1.091996e+003, 1.420954e+002
1.092478e+003, 1.424153e+002
1.092960e+003, 1.431838e+002
1.093442e+003, 1.449738e+002
1.093924e+003, 1.463789e+002
1.094406e+003, 1.465290e+002
1.094888e+003, 1.465140e+002
1.095370e+003, 1.469234e+002
1.095853e+003, 1.476736e+002
1.096335e+003, 1.487402e+002
1.096817e+003, 1.500154e+002
1.097299e+003, 1.510889e+002
1.097781e+003, 1.518783e+002
1.098263e+003, 1.523992e+002
1.098745e+003, 1.522599e+002
1.099227e+003, 1.523239e+002
1.099709e+003, 1.533104e+002
1.100192e+003, 1.545303e+002
1.100674e+003, 1.551690e+002
1.101156e+003, 1.553715e+002
1.101638e+003, 1.558499e+002
1.102120e+003, 1.568362e+002
1.102602e+003, 1.577234e+002
1.103084e+003, 1.583509e+002
1.103566e+003, 1.588694e+002
1.104049e+003, 1.593748e+002
1.104531e+003, 1.597631e+002
1.105013e+003, 1.597833e+002
1.105495e+003, 1.596542e+002
1.105977e+003, 1.599302e+002
1.106459e+003, 1.607504e+002
1.106941e+003, 1.614681e+002
1.107423e+003, 1.619056e+002
1.107906e+003, 1.623283e+002
1.108388e+003, 1.630947e+002
1.108870e+003, 1.635734e+002
1.109352e+003, 1.629852e+002
1.109834e+003, 1.619859e+002
1.110316e+003, 1.617842e+002
1.110798e+003, 1.624881e+002
1.111280e+003, 1.630044e+002
1.111762e+003, 1.631763e+002
1.112245e+003, 1.632692e+002
1.112727e+003, 1.633384e+002
1.113209e+003, 1.633120e+002
1.113691e+003, 1.630423e+002
1.114173e+003, 1.627287e+002
1.114655e+003, 1.626221e+002
1.115137e+003, 1.627121e+002
1.115619e+003, 1.628499e+002
1.116102e+003, 1.630446e+002
1.116584e+003, 1.632715e+002
1.117066e+003, 1.636288e+002
1.117548e+003, 1.638634e+002
1.118030e+003, 1.637727e+002
1.118512e+003, 1.636526e+002
1.118994e+003, 1.638808e+002
1.119476e+003, 1.643014e+002
1.119958e+003, 1.642464e+002
1.120441e+003, 1.634483e+002
1.120923e+003, 1.630411e+002
1.121405e+003, 1.631834e+002
1.121887e+003, 1.633846e+002
1.122369e+003, 1.635824e+002
1.122851e+003, 1.636918e+002
1.123333e+003, 1.636268e+002
1.123815e+003, 1.634523e+002
1.124297e+003, 1.633000e+002
1.124780e+003, 1.631656e+002
1.125262e+003, 1.631562e+002
1.125744e+003, 1.633806e+002
1.126226e+003, 1.632900e+002
1.126708e+003, 1.626992e+002
1.127190e+003, 1.620793e+002
1.127672e+003, 1.616697e+002
1.128154e+003, 1.614244e+002
1.128636e+003, 1.613060e+002
1.129119e+003, 1.612857e+002
1.129601e+003, 1.610976e+002
1.130083e+003, 1.607122e+002
1.130565e+003, 1.605058e+002
1.131047e+003, 1.605482e+002
1.131529e+003, 1.604800e+002
1.132011e+003, 1.601680e+002
1.132493e+003, 1.596128e+002
1.132976e+003, 1.587904e+002
1.133458e+003, 1.577739e+002
1.133940e+003, 1.567586e+002
1.134422e+003, 1.557426e+002
1.134904e+003, 1.547164e+002
1.135386e+003, 1.536826e+002
1.135868e+003, 1.526618e+002
1.136350e+003, 1.516593e+002
1.136833e+003, 1.506314e+002
1.137315e+003, 1.495298e+002
1.137797e+003, 1.484663e+002
1.138279e+003, 1.476758e+002
1.138761e+003, 1.470715e+002
1.139243e+003, 1.463728e+002
1.139725e+003, 1.455877e+002
1.140207e+003, 1.446414e+002
1.140689e+003, 1.436047e+002
1.141172e+003, 1.430972e+002
1.141654e+003, 1.433991e+002
1.142136e+003, 1.435391e+002
1.142618e+003, 1.422181e+002
1.143100e+003, 1.403775e+002
1.143582e+003, 1.397164e+002
1.144064e+003, 1.397031e+002
1.144546e+003, 1.392565e+002
1.145029e+003, 1.383894e+002
1.145511e+003, 1.374923e+002
1.145993e+003, 1.367028e+002
1.146475e+003, 1.360682e+002
1.146957e+003, 1.356596e+002
1.147439e+003, 1.353134e+002
1.147921e+003, 1.348204e+002
1.148403e+003, 1.343380e+002
1.148885e+003, 1.341949e+002
1.149368e+003, 1.341433e+002
1.149850e+003, 1.337163e+002
1.150332e+003, 1.329119e+002
1.150814e+003, 1.320487e+002
1.151296e+003, 1.312547e+002
1.151778e+003, 1.304632e+002
1.152260e+003, 1.295810e+002
1.152742e+003, 1.287583e+002
1.153224e+003, 1.280542e+002
1.153707e+003, 1.274893e+002
1.154189e+003, 1.272470e+002
1.154671e+003, 1.271067e+002
1.155153e+003, 1.265330e+002
1.155635e+003, 1.254112e+002
1.156117e+003, 1.244041e+002
1.156599e+003, 1.236800e+002
1.157081e+003, 1.231579e+002
1.157563e+003, 1.229381e+002
1.158046e+003, 1.227753e+002
1.158528e+003, 1.226475e+002
1.159010e+003, 1.224069e+002
1.159492e+003, 1.217090e+002
1.159974e+003, 1.206491e+002
1.160456e+003, 1.200868e+002
1.160938e+003, 1.206880e+002
1.161420e+003, 1.206214e+002
1.161903e+003, 1.190763e+002
1.162385e+003, 1.179190e+002
1.162867e+003, 1.179086e+002
1.163349e+003, 1.181718e+002
1.163831e+003, 1.181094e+002
1.164313e+003, 1.177778e+002
1.164795e+003, 1.172810e+002
1.165277e+003, 1.165748e+002
1.165760e+003, 1.160727e+002
1.166242e+003, 1.158448e+002
1.166724e+003, 1.155975e+002
1.167206e+003, 1.152840e+002
1.167688e+003, 1.149587e+002
1.168170e+003, 1.146488e+002
1.168652e+003, 1.143553e+002
1.169134e+003, 1.141079e+002
1.169616e+003, 1.138557e+002
1.170099e+003, 1.132467e+002
1.170581e+003, 1.122701e+002
1.171063e+003, 1.119486e+002
1.171545e+003, 1.123496e+002
1.172027e+003, 1.123244e+002
1.172509e+003, 1.115138e+002
1.172991e+003, 1.107914e+002
1.173473e+003, 1.108413e+002
1.173956e+003, 1.112451e+002
1.174438e+003, 1.113554e+002
1.174920e+003, 1.112089e+002
1.175402e+003, 1.108778e+002
1.175884e+003, 1.103994e+002
1.176366e+003, 1.098339e+002
1.176848e+003, 1.092404e+002
1.177330e+003, 1.088375e+002
1.177813e+003, 1.087143e+002
1.178295e+003, 1.087273e+002
1.178777e+003, 1.088426e+002
1.179259e+003, 1.088858e+002
1.179741e+003, 1.085292e+002
1.180223e+003, 1.080414e+002
1.180705e+003, 1.078268e+002
1.181187e+003, 1.077929e+002
1.181669e+003, 1.076605e+002
1.182151e+003, 1.074105e+002
1.182634e+003, 1.072953e+002
1.183116e+003, 1.075010e+002
1.183598e+003, 1.075861e+002
1.184080e+003, 1.070764e+002
1.184562e+003, 1.066098e+002
1.185044e+003, 1.067650e+002
1.185526e+003, 1.070544e+002
1.186008e+003, 1.069351e+002
1.186490e+003, 1.065251e+002
1.186973e+003, 1.061872e+002
1.187455e+003, 1.059798e+002
1.187937e+003, 1.058684e+002
1.188419e+003, 1.058861e+002
1.188901e+003, 1.059381e+002
1.189383e+003, 1.061207e+002
1.189865e+003, 1.061998e+002
1.190347e+003, 1.059624e+002
1.190830e+003, 1.056369e+002
1.191312e+003, 1.054971e+002
1.191794e+003, 1.054839e+002
1.192276e+003, 1.052884e+002
1.192758e+003, 1.048113e+002
1.193240e+003, 1.044818e+002
1.193722e+003, 1.042943e+002
1.194204e+003, 1.043224e+002
1.194687e+003, 1.047046e+002
1.195169e+003, 1.048958e+002
1.195651e+003, 1.045051e+002
1.196133e+003, 1.038517e+002
1.196615e+003, 1.034260e+002
1.197097e+003, 1.032051e+002
1.197579e+003, 1.030008e+002
1.198061e+003, 1.028270e+002
1.198543e+003, 1.030875e+002
1.199026e+003, 1.037708e+002
1.199508e+003, 1.040395e+002
1.199990e+003, 1.036381e+002
1.200472e+003, 1.033907e+002
1.200954e+003, 1.040210e+002
1.201436e+003, 1.048105e+002
1.201918e+003, 1.045193e+002
1.202400e+003, 1.036922e+002
1.202883e+003, 1.034365e+002
1.203365e+003, 1.035457e+002
1.203847e+003, 1.034358e+002
1.204329e+003, 1.031209e+002
1.204811e+003, 1.029428e+002
1.205293e+003, 1.030380e+002
1.205775e+003, 1.034995e+002
1.206257e+003, 1.049503e+002
1.206740e+003, 1.060107e+002
1.207222e+003, 1.053651e+002
1.207704e+003, 1.041852e+002
1.208186e+003, 1.033407e+002
1.208668e+003, 1.027965e+002
1.209150e+003, 1.023268e+002
1.209632e+003, 1.019622e+002
1.210114e+003, 1.020249e+002
1.210596e+003, 1.028108e+002
1.211078e+003, 1.032770e+002
1.211561e+003, 1.029771e+002
1.212043e+003, 1.026670e+002
1.212525e+003, 1.026701e+002
1.213007e+003, 1.026232e+002
1.213489e+003, 1.021678e+002
1.213971e+003, 1.016119e+002
1.214453e+003, 1.014845e+002
1.214935e+003, 1.017503e+002
1.215417e+003, 1.017317e+002
1.215900e+003, 1.012724e+002
1.216382e+003, 1.011586e+002
1.216864e+003, 1.015296e+002
1.217346e+003, 1.018130e+002
1.217828e+003, 1.018264e+002
1.218310e+003, 1.017150e+002
1.218792e+003, 1.015691e+002
1.219274e+003, 1.014483e+002
1.219757e+003, 1.015148e+002
1.220239e+003, 1.016921e+002
1.220721e+003, 1.015553e+002
1.221203e+003, 1.011803e+002
1.221685e+003, 1.008933e+002
1.222167e+003, 1.007580e+002
1.222649e+003, 1.009011e+002
1.223131e+003, 1.013319e+002
1.223614e+003, 1.016898e+002
1.224096e+003, 1.017123e+002
1.224578e+003, 1.015131e+002
1.225060e+003, 1.010681e+002
1.225542e+003, 1.006044e+002
1.226024e+003, 1.003690e+002
1.226506e+003, 1.003223e+002
1.226988e+003, 1.004483e+002
1.227470e+003, 1.006732e+002
1.227953e+003, 1.008355e+002
1.228435e+003, 1.008878e+002
1.228917e+003, 1.009164e+002
1.229399e+003, 1.008157e+002
1.229881e+003, 1.008944e+002
1.230363e+003, 1.015227e+002
1.230845e+003, 1.020527e+002
1.231327e+003, 1.021031e+002
1.231810e+003, 1.018513e+002
1.232292e+003, 1.012985e+002
1.232774e+003, 1.006372e+002
1.233256e+003, 1.007012e+002
1.233738e+003, 1.018293e+002
1.234220e+003, 1.021466e+002
1.234702e+003, 1.012722e+002
1.235184e+003, 1.008861e+002
1.235667e+003, 1.014572e+002
1.236149e+003, 1.018457e+002
1.236631e+003, 1.013880e+002
1.237113e+003, 1.008571e+002
1.237595e+003, 1.012523e+002
1.238077e+003, 1.021625e+002
1.238559e+003, 1.022862e+002
1.239041e+003, 1.018016e+002
1.239523e+003, 1.016978e+002
1.240005e+003, 1.018906e+002
1.240488e+003, 1.015854e+002
1.240970e+003, 1.007650e+002
1.241452e+003, 1.004372e+002
1.241934e+003, 1.011037e+002
1.242416e+003, 1.018324e+002
1.242898e+003, 1.016240e+002
1.243380e+003, 1.012254e+002
1.243862e+003, 1.014266e+002
1.244344e+003, 1.018126e+002
1.244827e+003, 1.019898e+002
1.245309e+003, 1.019625e+002
1.245791e+003, 1.016671e+002
1.246273e+003, 1.012235e+002
1.246755e+003, 1.011764e+002
1.247237e+003, 1.018011e+002
1.247719e+003, 1.023463e+002
1.248201e+003, 1.026474e+002
1.248684e+003, 1.028432e+002
1.249166e+003, 1.030543e+002
1.249648e+003, 1.030621e+002
1.250130e+003, 1.025604e+002
1.250612e+003, 1.019732e+002
1.251094e+003, 1.018997e+002
1.251576e+003, 1.022521e+002
1.252058e+003, 1.024759e+002
1.252541e+003, 1.025723e+002
1.253023e+003, 1.024830e+002
1.253505e+003, 1.021765e+002
1.253987e+003, 1.021047e+002
1.254469e+003, 1.023790e+002
1.254951e+003, 1.024921e+002
1.255433e+003, 1.021295e+002
1.255915e+003, 1.018991e+002
1.256397e+003, 1.027094e+002
1.256880e+003, 1.039148e+002
1.257362e+003, 1.042559e+002
1.257844e+003, 1.040407e+002
1.258326e+003, 1.036907e+002
1.258808e+003, 1.033757e+002
1.259290e+003, 1.033950e+002
1.259772e+003, 1.037375e+002
1.260254e+003, 1.041787e+002
1.260737e+003, 1.046950e+002
1.261219e+003, 1.047476e+002
1.261701e+003, 1.034646e+002
1.262183e+003, 1.024383e+002
1.262665e+003, 1.025532e+002
1.263147e+003, 1.030824e+002
1.263629e+003, 1.036961e+002
1.264111e+003, 1.042567e+002
1.264594e+003, 1.046230e+002
1.265076e+003, 1.047978e+002
1.265558e+003, 1.047979e+002
1.266040e+003, 1.044647e+002
1.266522e+003, 1.045927e+002
1.267004e+003, 1.054183e+002
1.267486e+003, 1.058361e+002
1.267968e+003, 1.055636e+002
1.268450e+003, 1.052069e+002
1.268932e+003, 1.050664e+002
1.269415e+003, 1.050237e+002
1.269897e+003, 1.049322e+002
1.270379e+003, 1.048697e+002
1.270861e+003, 1.050081e+002
1.271343e+003, 1.053347e+002
1.271825e+003, 1.059796e+002
1.272307e+003, 1.067435e+002
1.272789e+003, 1.069060e+002
1.273271e+003, 1.065494e+002
1.273754e+003, 1.065400e+002
1.274236e+003, 1.071909e+002
1.274718e+003, 1.077972e+002
1.275200e+003, 1.079527e+002
1.275682e+003, 1.078552e+002
1.276164e+003, 1.073406e+002
1.276646e+003, 1.069258e+002
1.277128e+003, 1.070178e+002
1.277611e+003, 1.073910e+002
1.278093e+003, 1.078466e+002
1.278575e+003, 1.083356e+002
1.279057e+003, 1.087760e+002
1.279539e+003, 1.091846e+002
1.280021e+003, 1.094526e+002
1.280503e+003, 1.096161e+002
1.280985e+003, 1.093972e+002
1.281468e+003, 1.086025e+002
1.281950e+003, 1.082004e+002
1.282432e+003, 1.085719e+002
1.282914e+003, 1.093062e+002
1.283396e+003, 1.101134e+002
1.283878e+003, 1.108765e+002
1.284360e+003, 1.114257e+002
1.284842e+003, 1.116959e+002
1.285324e+003, 1.115237e+002
##END=



