##NAMES=Actinolite
##RRUFFID=R120010
##IDEAL CHEMISTRY=Ca_2_(Mg_4.5-2.5_Fe^2+^_0.5-2.5_)Si_8_O_22_(OH)_2_
##LOCALITY=Quebec Lithium Corporation mine, La Corne, Abitibi RCM, Abitibi-Temiscamingue, Quebec, Canada
##OWNER=RRUFF
##SOURCE=Donald Doell
##DESCRIPTION=Massive aggregate of black bladed crystals
##STATUS=The identification of this mineral has been confirmed only by single crystal X-ray diffraction.
##URL=rruff.info/R120010
9.001007e+001, 0.000000e+000
9.049219e+001, 1.793120e+002
9.097430e+001, 1.789031e+002
9.145642e+001, 1.791241e+002
9.193854e+001, 1.798960e+002
9.242065e+001, 1.805613e+002
9.290277e+001, 1.804384e+002
9.338489e+001, 1.798033e+002
9.386700e+001, 1.793134e+002
9.434912e+001, 1.795030e+002
9.483124e+001, 1.798958e+002
9.531335e+001, 1.792786e+002
9.579547e+001, 1.775240e+002
9.627759e+001, 1.756567e+002
9.675970e+001, 1.749957e+002
9.724182e+001, 1.754591e+002
9.772394e+001, 1.758498e+002
9.820605e+001, 1.756477e+002
9.868817e+001, 1.748872e+002
9.917029e+001, 1.739743e+002
9.965240e+001, 1.728345e+002
1.001345e+002, 1.716614e+002
1.006166e+002, 1.709143e+002
1.010988e+002, 1.706867e+002
1.015809e+002, 1.704448e+002
1.020630e+002, 1.699268e+002
1.025451e+002, 1.691124e+002
1.030272e+002, 1.680395e+002
1.035093e+002, 1.664835e+002
1.039915e+002, 1.646918e+002
1.044736e+002, 1.638001e+002
1.049557e+002, 1.644817e+002
1.054378e+002, 1.650983e+002
1.059199e+002, 1.644127e+002
1.064020e+002, 1.613956e+002
1.068842e+002, 1.589714e+002
1.073663e+002, 1.575480e+002
1.078484e+002, 1.571462e+002
1.083305e+002, 1.569643e+002
1.088126e+002, 1.575193e+002
1.092947e+002, 1.580007e+002
1.097769e+002, 1.576603e+002
1.102590e+002, 1.555228e+002
1.107411e+002, 1.535500e+002
1.112232e+002, 1.521579e+002
1.117053e+002, 1.515216e+002
1.121874e+002, 1.507297e+002
1.126696e+002, 1.494790e+002
1.131517e+002, 1.481089e+002
1.136338e+002, 1.470594e+002
1.141159e+002, 1.465080e+002
1.145980e+002, 1.461981e+002
1.150801e+002, 1.461150e+002
1.155623e+002, 1.464607e+002
1.160444e+002, 1.465348e+002
1.165265e+002, 1.460835e+002
1.170086e+002, 1.452260e+002
1.174907e+002, 1.442291e+002
1.179728e+002, 1.429102e+002
1.184550e+002, 1.416437e+002
1.189371e+002, 1.406843e+002
1.194192e+002, 1.402274e+002
1.199013e+002, 1.398673e+002
1.203834e+002, 1.394466e+002
1.208655e+002, 1.389686e+002
1.213477e+002, 1.384448e+002
1.218298e+002, 1.378945e+002
1.223119e+002, 1.373020e+002
1.227940e+002, 1.366302e+002
1.232761e+002, 1.355715e+002
1.237582e+002, 1.346952e+002
1.242404e+002, 1.347873e+002
1.247225e+002, 1.357562e+002
1.252046e+002, 1.364714e+002
1.256867e+002, 1.358383e+002
1.261688e+002, 1.343544e+002
1.266509e+002, 1.329234e+002
1.271331e+002, 1.318418e+002
1.276152e+002, 1.310336e+002
1.280973e+002, 1.305051e+002
1.285794e+002, 1.302847e+002
1.290615e+002, 1.299992e+002
1.295436e+002, 1.290422e+002
1.300258e+002, 1.275909e+002
1.305079e+002, 1.264449e+002
1.309900e+002, 1.259005e+002
1.314721e+002, 1.259332e+002
1.319542e+002, 1.267792e+002
1.324363e+002, 1.287448e+002
1.329185e+002, 1.305787e+002
1.334006e+002, 1.300004e+002
1.338827e+002, 1.270037e+002
1.343648e+002, 1.240517e+002
1.348469e+002, 1.223828e+002
1.353290e+002, 1.219386e+002
1.358112e+002, 1.219340e+002
1.362933e+002, 1.224145e+002
1.367754e+002, 1.231844e+002
1.372575e+002, 1.239243e+002
1.377396e+002, 1.247170e+002
1.382217e+002, 1.251071e+002
1.387039e+002, 1.246400e+002
1.391860e+002, 1.231524e+002
1.396681e+002, 1.219558e+002
1.401502e+002, 1.212378e+002
1.406323e+002, 1.209072e+002
1.411144e+002, 1.205461e+002
1.415966e+002, 1.201421e+002
1.420787e+002, 1.197285e+002
1.425608e+002, 1.193498e+002
1.430429e+002, 1.190611e+002
1.435250e+002, 1.186497e+002
1.440071e+002, 1.180310e+002
1.444893e+002, 1.172227e+002
1.449714e+002, 1.165422e+002
1.454535e+002, 1.160532e+002
1.459356e+002, 1.156337e+002
1.464177e+002, 1.151445e+002
1.468998e+002, 1.142648e+002
1.473820e+002, 1.138194e+002
1.478641e+002, 1.141645e+002
1.483462e+002, 1.155010e+002
1.488283e+002, 1.161936e+002
1.493104e+002, 1.158205e+002
1.497925e+002, 1.150057e+002
1.502747e+002, 1.144687e+002
1.507568e+002, 1.146895e+002
1.512389e+002, 1.147066e+002
1.517210e+002, 1.142296e+002
1.522031e+002, 1.130313e+002
1.526852e+002, 1.120743e+002
1.531674e+002, 1.112722e+002
1.536495e+002, 1.107339e+002
1.541316e+002, 1.106084e+002
1.546137e+002, 1.110816e+002
1.550958e+002, 1.118190e+002
1.555779e+002, 1.127857e+002
1.560601e+002, 1.141739e+002
1.565422e+002, 1.153252e+002
1.570243e+002, 1.156983e+002
1.575064e+002, 1.157844e+002
1.579885e+002, 1.165344e+002
1.584706e+002, 1.194922e+002
1.589528e+002, 1.221796e+002
1.594349e+002, 1.232621e+002
1.599170e+002, 1.212864e+002
1.603991e+002, 1.199199e+002
1.608812e+002, 1.205934e+002
1.613633e+002, 1.226917e+002
1.618455e+002, 1.245992e+002
1.623276e+002, 1.249766e+002
1.628097e+002, 1.254487e+002
1.632918e+002, 1.271214e+002
1.637739e+002, 1.309736e+002
1.642560e+002, 1.350454e+002
1.647382e+002, 1.385606e+002
1.652203e+002, 1.416130e+002
1.657024e+002, 1.445623e+002
1.661845e+002, 1.472233e+002
1.666666e+002, 1.500304e+002
1.671487e+002, 1.533585e+002
1.676309e+002, 1.577548e+002
1.681130e+002, 1.622867e+002
1.685951e+002, 1.663108e+002
1.690772e+002, 1.699110e+002
1.695593e+002, 1.734854e+002
1.700414e+002, 1.773313e+002
1.705236e+002, 1.812827e+002
1.710057e+002, 1.850813e+002
1.714878e+002, 1.884181e+002
1.719699e+002, 1.918000e+002
1.724520e+002, 1.957917e+002
1.729341e+002, 2.003502e+002
1.734163e+002, 2.047087e+002
1.738984e+002, 2.081403e+002
1.743805e+002, 2.110475e+002
1.748626e+002, 2.139955e+002
1.753447e+002, 2.169520e+002
1.758268e+002, 2.202381e+002
1.763090e+002, 2.242997e+002
1.767911e+002, 2.291061e+002
1.772732e+002, 2.343044e+002
1.777553e+002, 2.387242e+002
1.782374e+002, 2.421955e+002
1.787195e+002, 2.454548e+002
1.792017e+002, 2.485670e+002
1.796838e+002, 2.518087e+002
1.801659e+002, 2.555666e+002
1.806480e+002, 2.598899e+002
1.811301e+002, 2.645018e+002
1.816122e+002, 2.692237e+002
1.820944e+002, 2.740918e+002
1.825765e+002, 2.791018e+002
1.830586e+002, 2.842179e+002
1.835407e+002, 2.894820e+002
1.840228e+002, 2.952979e+002
1.845049e+002, 3.016581e+002
1.849871e+002, 3.083289e+002
1.854692e+002, 3.152035e+002
1.859513e+002, 3.222272e+002
1.864334e+002, 3.287046e+002
1.869155e+002, 3.346357e+002
1.873976e+002, 3.398514e+002
1.878798e+002, 3.437553e+002
1.883619e+002, 3.462277e+002
1.888440e+002, 3.478011e+002
1.893261e+002, 3.493425e+002
1.898082e+002, 3.508011e+002
1.902903e+002, 3.512223e+002
1.907725e+002, 3.498435e+002
1.912546e+002, 3.468930e+002
1.917367e+002, 3.438163e+002
1.922188e+002, 3.407279e+002
1.927009e+002, 3.374029e+002
1.931830e+002, 3.333424e+002
1.936652e+002, 3.285599e+002
1.941473e+002, 3.238586e+002
1.946294e+002, 3.197116e+002
1.951115e+002, 3.160858e+002
1.955936e+002, 3.126219e+002
1.960757e+002, 3.092887e+002
1.965579e+002, 3.061156e+002
1.970400e+002, 3.031862e+002
1.975221e+002, 3.005095e+002
1.980042e+002, 2.979663e+002
1.984863e+002, 2.953238e+002
1.989684e+002, 2.925845e+002
1.994506e+002, 2.905009e+002
1.999327e+002, 2.892278e+002
2.004148e+002, 2.885230e+002
2.008969e+002, 2.879912e+002
2.013790e+002, 2.876817e+002
2.018611e+002, 2.872676e+002
2.023433e+002, 2.863521e+002
2.028254e+002, 2.848328e+002
2.033075e+002, 2.841260e+002
2.037896e+002, 2.845986e+002
2.042717e+002, 2.857125e+002
2.047538e+002, 2.860043e+002
2.052360e+002, 2.852601e+002
2.057181e+002, 2.844710e+002
2.062002e+002, 2.842869e+002
2.066823e+002, 2.848216e+002
2.071644e+002, 2.851682e+002
2.076465e+002, 2.852006e+002
2.081287e+002, 2.850228e+002
2.086108e+002, 2.850454e+002
2.090929e+002, 2.854498e+002
2.095750e+002, 2.855506e+002
2.100571e+002, 2.846849e+002
2.105392e+002, 2.824672e+002
2.110214e+002, 2.811608e+002
2.115035e+002, 2.812946e+002
2.119856e+002, 2.823655e+002
2.124677e+002, 2.825998e+002
2.129498e+002, 2.818018e+002
2.134319e+002, 2.806286e+002
2.139140e+002, 2.795190e+002
2.143962e+002, 2.786299e+002
2.148783e+002, 2.771850e+002
2.153604e+002, 2.748165e+002
2.158425e+002, 2.718884e+002
2.163246e+002, 2.700181e+002
2.168067e+002, 2.695052e+002
2.172889e+002, 2.694265e+002
2.177710e+002, 2.693058e+002
2.182531e+002, 2.692662e+002
2.187352e+002, 2.687385e+002
2.192173e+002, 2.673615e+002
2.196994e+002, 2.654367e+002
2.201816e+002, 2.645410e+002
2.206637e+002, 2.650977e+002
2.211458e+002, 2.659042e+002
2.216279e+002, 2.662007e+002
2.221100e+002, 2.658073e+002
2.225921e+002, 2.653557e+002
2.230743e+002, 2.647665e+002
2.235564e+002, 2.641507e+002
2.240385e+002, 2.640765e+002
2.245206e+002, 2.648459e+002
2.250027e+002, 2.656904e+002
2.254848e+002, 2.661646e+002
2.259670e+002, 2.662303e+002
2.264491e+002, 2.659770e+002
2.269312e+002, 2.651150e+002
2.274133e+002, 2.639132e+002
2.278954e+002, 2.637327e+002
2.283775e+002, 2.651266e+002
2.288597e+002, 2.667391e+002
2.293418e+002, 2.677120e+002
2.298239e+002, 2.677154e+002
2.303060e+002, 2.678612e+002
2.307881e+002, 2.683907e+002
2.312702e+002, 2.691385e+002
2.317524e+002, 2.692284e+002
2.322345e+002, 2.681829e+002
2.327166e+002, 2.671420e+002
2.331987e+002, 2.667816e+002
2.336808e+002, 2.673135e+002
2.341629e+002, 2.680686e+002
2.346451e+002, 2.692028e+002
2.351272e+002, 2.705424e+002
2.356093e+002, 2.713379e+002
2.360914e+002, 2.714055e+002
2.365735e+002, 2.711841e+002
2.370556e+002, 2.708519e+002
2.375378e+002, 2.701687e+002
2.380199e+002, 2.699319e+002
2.385020e+002, 2.703701e+002
2.389841e+002, 2.712986e+002
2.394662e+002, 2.719375e+002
2.399483e+002, 2.721743e+002
2.404305e+002, 2.722944e+002
2.409126e+002, 2.724590e+002
2.413947e+002, 2.727482e+002
2.418768e+002, 2.728966e+002
2.423589e+002, 2.727245e+002
2.428410e+002, 2.724147e+002
2.433232e+002, 2.726746e+002
2.438053e+002, 2.738956e+002
2.442874e+002, 2.751442e+002
2.447695e+002, 2.759580e+002
2.452516e+002, 2.762833e+002
2.457337e+002, 2.762475e+002
2.462159e+002, 2.755451e+002
2.466980e+002, 2.745130e+002
2.471801e+002, 2.743419e+002
2.476622e+002, 2.756432e+002
2.481443e+002, 2.768676e+002
2.486264e+002, 2.772169e+002
2.491086e+002, 2.762343e+002
2.495907e+002, 2.754765e+002
2.500728e+002, 2.750139e+002
2.505549e+002, 2.747798e+002
2.510370e+002, 2.746638e+002
2.515191e+002, 2.749630e+002
2.520013e+002, 2.749197e+002
2.524834e+002, 2.740973e+002
2.529655e+002, 2.720446e+002
2.534476e+002, 2.704312e+002
2.539297e+002, 2.693347e+002
2.544118e+002, 2.686492e+002
2.548940e+002, 2.681693e+002
2.553761e+002, 2.680839e+002
2.558582e+002, 2.678652e+002
2.563403e+002, 2.672535e+002
2.568224e+002, 2.660943e+002
2.573046e+002, 2.650567e+002
2.577867e+002, 2.642165e+002
2.582688e+002, 2.634507e+002
2.587509e+002, 2.624760e+002
2.592330e+002, 2.610996e+002
2.597151e+002, 2.599193e+002
2.601973e+002, 2.592253e+002
2.606794e+002, 2.591824e+002
2.611615e+002, 2.589147e+002
2.616436e+002, 2.583028e+002
2.621257e+002, 2.575760e+002
2.626078e+002, 2.571869e+002
2.630900e+002, 2.573639e+002
2.635721e+002, 2.573485e+002
2.640542e+002, 2.567723e+002
2.645363e+002, 2.554765e+002
2.650184e+002, 2.547172e+002
2.655005e+002, 2.546738e+002
2.659827e+002, 2.549478e+002
2.664648e+002, 2.549602e+002
2.669469e+002, 2.546319e+002
2.674290e+002, 2.542615e+002
2.679111e+002, 2.538252e+002
2.683932e+002, 2.532856e+002
2.688754e+002, 2.534358e+002
2.693575e+002, 2.545878e+002
2.698396e+002, 2.559376e+002
2.703217e+002, 2.563893e+002
2.708038e+002, 2.557289e+002
2.712859e+002, 2.549699e+002
2.717681e+002, 2.543435e+002
2.722502e+002, 2.538482e+002
2.727323e+002, 2.534483e+002
2.732144e+002, 2.531091e+002
2.736965e+002, 2.529466e+002
2.741786e+002, 2.531597e+002
2.746608e+002, 2.538341e+002
2.751429e+002, 2.544193e+002
2.756250e+002, 2.547009e+002
2.761071e+002, 2.547548e+002
2.765892e+002, 2.552935e+002
2.770714e+002, 2.564956e+002
2.775535e+002, 2.576493e+002
2.780356e+002, 2.579630e+002
2.785177e+002, 2.573394e+002
2.789998e+002, 2.568628e+002
2.794819e+002, 2.567386e+002
2.799641e+002, 2.569283e+002
2.804462e+002, 2.573173e+002
2.809283e+002, 2.579372e+002
2.814104e+002, 2.586205e+002
2.818925e+002, 2.592948e+002
2.823746e+002, 2.599643e+002
2.828568e+002, 2.604418e+002
2.833389e+002, 2.606673e+002
2.838210e+002, 2.607162e+002
2.843031e+002, 2.607853e+002
2.847852e+002, 2.608853e+002
2.852673e+002, 2.609761e+002
2.857495e+002, 2.610303e+002
2.862316e+002, 2.610544e+002
2.867137e+002, 2.610790e+002
2.871958e+002, 2.611129e+002
2.876779e+002, 2.611497e+002
2.881600e+002, 2.611045e+002
2.886422e+002, 2.609722e+002
2.891243e+002, 2.610124e+002
2.896064e+002, 2.615064e+002
2.900885e+002, 2.623518e+002
2.905706e+002, 2.630072e+002
2.910527e+002, 2.634005e+002
2.915349e+002, 2.636271e+002
2.920170e+002, 2.639245e+002
2.924991e+002, 2.642557e+002
2.929812e+002, 2.642798e+002
2.934633e+002, 2.635120e+002
2.939454e+002, 2.622610e+002
2.944276e+002, 2.615412e+002
2.949097e+002, 2.614541e+002
2.953918e+002, 2.617192e+002
2.958739e+002, 2.622750e+002
2.963560e+002, 2.629908e+002
2.968381e+002, 2.632670e+002
2.973203e+002, 2.621984e+002
2.978024e+002, 2.606063e+002
2.982845e+002, 2.605582e+002
2.987666e+002, 2.622583e+002
2.992487e+002, 2.638263e+002
2.997308e+002, 2.626111e+002
3.002130e+002, 2.596173e+002
3.006951e+002, 2.577690e+002
3.011772e+002, 2.593568e+002
3.016593e+002, 2.622007e+002
3.021414e+002, 2.630226e+002
3.026235e+002, 2.618531e+002
3.031057e+002, 2.603336e+002
3.035878e+002, 2.597237e+002
3.040699e+002, 2.597391e+002
3.045520e+002, 2.598997e+002
3.050341e+002, 2.603128e+002
3.055162e+002, 2.605609e+002
3.059984e+002, 2.601075e+002
3.064805e+002, 2.590282e+002
3.069626e+002, 2.578063e+002
3.074447e+002, 2.567841e+002
3.079268e+002, 2.558181e+002
3.084089e+002, 2.546983e+002
3.088911e+002, 2.531754e+002
3.093732e+002, 2.517858e+002
3.098553e+002, 2.511951e+002
3.103374e+002, 2.511652e+002
3.108195e+002, 2.508744e+002
3.113016e+002, 2.495441e+002
3.117838e+002, 2.479123e+002
3.122659e+002, 2.466265e+002
3.127480e+002, 2.458837e+002
3.132301e+002, 2.453407e+002
3.137122e+002, 2.449363e+002
3.141943e+002, 2.445747e+002
3.146765e+002, 2.440633e+002
3.151586e+002, 2.430692e+002
3.156407e+002, 2.420737e+002
3.161228e+002, 2.414238e+002
3.166049e+002, 2.412590e+002
3.170870e+002, 2.410489e+002
3.175692e+002, 2.403972e+002
3.180513e+002, 2.395977e+002
3.185334e+002, 2.390654e+002
3.190155e+002, 2.393609e+002
3.194976e+002, 2.395864e+002
3.199797e+002, 2.392221e+002
3.204619e+002, 2.381680e+002
3.209440e+002, 2.373659e+002
3.214261e+002, 2.373230e+002
3.219082e+002, 2.375667e+002
3.223903e+002, 2.376503e+002
3.228724e+002, 2.372461e+002
3.233546e+002, 2.369014e+002
3.238367e+002, 2.368111e+002
3.243188e+002, 2.369651e+002
3.248009e+002, 2.370204e+002
3.252830e+002, 2.366984e+002
3.257651e+002, 2.364019e+002
3.262473e+002, 2.363938e+002
3.267294e+002, 2.369278e+002
3.272115e+002, 2.374958e+002
3.276936e+002, 2.381508e+002
3.281757e+002, 2.388423e+002
3.286578e+002, 2.393323e+002
3.291400e+002, 2.392722e+002
3.296221e+002, 2.393103e+002
3.301042e+002, 2.397345e+002
3.305863e+002, 2.408293e+002
3.310684e+002, 2.418485e+002
3.315505e+002, 2.427426e+002
3.320327e+002, 2.435608e+002
3.325148e+002, 2.444325e+002
3.329969e+002, 2.456264e+002
3.334790e+002, 2.464922e+002
3.339611e+002, 2.467421e+002
3.344432e+002, 2.461671e+002
3.349254e+002, 2.457972e+002
3.354075e+002, 2.457935e+002
3.358896e+002, 2.458499e+002
3.363717e+002, 2.454876e+002
3.368538e+002, 2.444720e+002
3.373359e+002, 2.436289e+002
3.378180e+002, 2.433726e+002
3.383001e+002, 2.436861e+002
3.387823e+002, 2.430398e+002
3.392644e+002, 2.411123e+002
3.397465e+002, 2.388887e+002
3.402286e+002, 2.374005e+002
3.407107e+002, 2.368192e+002
3.411928e+002, 2.360339e+002
3.416750e+002, 2.347806e+002
3.421571e+002, 2.332021e+002
3.426392e+002, 2.319761e+002
3.431213e+002, 2.311660e+002
3.436034e+002, 2.303294e+002
3.440855e+002, 2.290274e+002
3.445677e+002, 2.272985e+002
3.450498e+002, 2.258591e+002
3.455319e+002, 2.248978e+002
3.460140e+002, 2.241112e+002
3.464961e+002, 2.227095e+002
3.469782e+002, 2.207358e+002
3.474604e+002, 2.191683e+002
3.479425e+002, 2.189395e+002
3.484246e+002, 2.196314e+002
3.489067e+002, 2.196587e+002
3.493888e+002, 2.188517e+002
3.498709e+002, 2.178115e+002
3.503531e+002, 2.172282e+002
3.508352e+002, 2.170211e+002
3.513173e+002, 2.168926e+002
3.517994e+002, 2.165486e+002
3.522815e+002, 2.162547e+002
3.527636e+002, 2.166295e+002
3.532458e+002, 2.176694e+002
3.537279e+002, 2.186129e+002
3.542100e+002, 2.188736e+002
3.546921e+002, 2.185875e+002
3.551742e+002, 2.179490e+002
3.556563e+002, 2.166417e+002
3.561385e+002, 2.153986e+002
3.566206e+002, 2.149271e+002
3.571027e+002, 2.151450e+002
3.575848e+002, 2.156468e+002
3.580669e+002, 2.165674e+002
3.585490e+002, 2.174704e+002
3.590312e+002, 2.178709e+002
3.595133e+002, 2.174503e+002
3.599954e+002, 2.170477e+002
3.604775e+002, 2.173584e+002
3.609596e+002, 2.180441e+002
3.614417e+002, 2.183810e+002
3.619239e+002, 2.174884e+002
3.624060e+002, 2.166264e+002
3.628881e+002, 2.165588e+002
3.633702e+002, 2.174982e+002
3.638523e+002, 2.185167e+002
3.643344e+002, 2.192976e+002
3.648166e+002, 2.200047e+002
3.652987e+002, 2.208320e+002
3.657808e+002, 2.218464e+002
3.662629e+002, 2.229425e+002
3.667450e+002, 2.240394e+002
3.672271e+002, 2.251386e+002
3.677093e+002, 2.264820e+002
3.681914e+002, 2.284451e+002
3.686735e+002, 2.304397e+002
3.691556e+002, 2.320911e+002
3.696377e+002, 2.327312e+002
3.701198e+002, 2.337986e+002
3.706020e+002, 2.354500e+002
3.710841e+002, 2.375777e+002
3.715662e+002, 2.398243e+002
3.720483e+002, 2.422888e+002
3.725304e+002, 2.447132e+002
3.730125e+002, 2.469784e+002
3.734947e+002, 2.489851e+002
3.739768e+002, 2.510555e+002
3.744589e+002, 2.531702e+002
3.749410e+002, 2.553871e+002
3.754231e+002, 2.577321e+002
3.759052e+002, 2.601498e+002
3.763874e+002, 2.629057e+002
3.768695e+002, 2.660613e+002
3.773516e+002, 2.696605e+002
3.778337e+002, 2.736593e+002
3.783158e+002, 2.782896e+002
3.787979e+002, 2.828458e+002
3.792801e+002, 2.863203e+002
3.797622e+002, 2.886692e+002
3.802443e+002, 2.916469e+002
3.807264e+002, 2.957146e+002
3.812085e+002, 3.005720e+002
3.816906e+002, 3.055161e+002
3.821728e+002, 3.105233e+002
3.826549e+002, 3.156600e+002
3.831370e+002, 3.212188e+002
3.836191e+002, 3.269821e+002
3.841012e+002, 3.318900e+002
3.845833e+002, 3.358603e+002
3.850655e+002, 3.390262e+002
3.855476e+002, 3.417489e+002
3.860297e+002, 3.438882e+002
3.865118e+002, 3.447835e+002
3.869939e+002, 3.437958e+002
3.874760e+002, 3.415179e+002
3.879582e+002, 3.388414e+002
3.884403e+002, 3.357704e+002
3.889224e+002, 3.319435e+002
3.894045e+002, 3.270015e+002
3.898866e+002, 3.212011e+002
3.903687e+002, 3.148285e+002
3.908509e+002, 3.078369e+002
3.913330e+002, 3.005675e+002
3.918151e+002, 2.925471e+002
3.922972e+002, 2.842008e+002
3.927793e+002, 2.771000e+002
3.932614e+002, 2.725908e+002
3.937436e+002, 2.692850e+002
3.942257e+002, 2.661065e+002
3.947078e+002, 2.627880e+002
3.951899e+002, 2.598578e+002
3.956720e+002, 2.577596e+002
3.961541e+002, 2.561193e+002
3.966363e+002, 2.543370e+002
3.971184e+002, 2.519073e+002
3.976005e+002, 2.496443e+002
3.980826e+002, 2.478339e+002
3.985647e+002, 2.465224e+002
3.990468e+002, 2.453857e+002
3.995290e+002, 2.445693e+002
4.000111e+002, 2.438187e+002
4.004932e+002, 2.429331e+002
4.009753e+002, 2.419512e+002
4.014574e+002, 2.407635e+002
4.019395e+002, 2.391466e+002
4.024217e+002, 2.372748e+002
4.029038e+002, 2.360394e+002
4.033859e+002, 2.357525e+002
4.038680e+002, 2.356463e+002
4.043501e+002, 2.354294e+002
4.048322e+002, 2.352134e+002
4.053144e+002, 2.344590e+002
4.057965e+002, 2.330263e+002
4.062786e+002, 2.312336e+002
4.067607e+002, 2.295324e+002
4.072428e+002, 2.279003e+002
4.077249e+002, 2.264868e+002
4.082071e+002, 2.254553e+002
4.086892e+002, 2.247129e+002
4.091713e+002, 2.237206e+002
4.096534e+002, 2.224694e+002
4.101355e+002, 2.209786e+002
4.106176e+002, 2.190348e+002
4.110998e+002, 2.167633e+002
4.115819e+002, 2.150041e+002
4.120640e+002, 2.140415e+002
4.125461e+002, 2.134516e+002
4.130282e+002, 2.125777e+002
4.135103e+002, 2.114497e+002
4.139925e+002, 2.102338e+002
4.144746e+002, 2.089258e+002
4.149567e+002, 2.076097e+002
4.154388e+002, 2.064946e+002
4.159209e+002, 2.056153e+002
4.164030e+002, 2.046717e+002
4.168852e+002, 2.031758e+002
4.173673e+002, 2.014760e+002
4.178494e+002, 2.001340e+002
4.183315e+002, 2.000200e+002
4.188136e+002, 1.997863e+002
4.192957e+002, 1.983176e+002
4.197779e+002, 1.958172e+002
4.202600e+002, 1.935398e+002
4.207421e+002, 1.920500e+002
4.212242e+002, 1.910197e+002
4.217063e+002, 1.902896e+002
4.221884e+002, 1.900122e+002
4.226706e+002, 1.896566e+002
4.231527e+002, 1.889416e+002
4.236348e+002, 1.880766e+002
4.241169e+002, 1.874514e+002
4.245990e+002, 1.875679e+002
4.250811e+002, 1.874951e+002
4.255633e+002, 1.867646e+002
4.260454e+002, 1.851884e+002
4.265275e+002, 1.842760e+002
4.270096e+002, 1.844648e+002
4.274917e+002, 1.849573e+002
4.279738e+002, 1.850988e+002
4.284560e+002, 1.847299e+002
4.289381e+002, 1.843379e+002
4.294202e+002, 1.839885e+002
4.299023e+002, 1.836530e+002
4.303844e+002, 1.831634e+002
4.308665e+002, 1.824201e+002
4.313487e+002, 1.818162e+002
4.318308e+002, 1.816307e+002
4.323129e+002, 1.818943e+002
4.327950e+002, 1.819494e+002
4.332771e+002, 1.817470e+002
4.337592e+002, 1.814543e+002
4.342414e+002, 1.811749e+002
4.347235e+002, 1.809339e+002
4.352056e+002, 1.810736e+002
4.356877e+002, 1.819826e+002
4.361698e+002, 1.831463e+002
4.366519e+002, 1.833162e+002
4.371341e+002, 1.825430e+002
4.376162e+002, 1.817568e+002
4.380983e+002, 1.815466e+002
4.385804e+002, 1.818048e+002
4.390625e+002, 1.824785e+002
4.395446e+002, 1.837279e+002
4.400268e+002, 1.848140e+002
4.405089e+002, 1.848520e+002
4.409910e+002, 1.842461e+002
4.414731e+002, 1.838248e+002
4.419552e+002, 1.839544e+002
4.424373e+002, 1.843879e+002
4.429195e+002, 1.852091e+002
4.434016e+002, 1.863848e+002
4.438837e+002, 1.870733e+002
4.443658e+002, 1.864914e+002
4.448479e+002, 1.855199e+002
4.453300e+002, 1.848397e+002
4.458122e+002, 1.843802e+002
4.462943e+002, 1.844742e+002
4.467764e+002, 1.857812e+002
4.472585e+002, 1.877023e+002
4.477406e+002, 1.887044e+002
4.482227e+002, 1.881346e+002
4.487049e+002, 1.871660e+002
4.491870e+002, 1.858906e+002
4.496691e+002, 1.841036e+002
4.501512e+002, 1.834137e+002
4.506333e+002, 1.845682e+002
4.511154e+002, 1.860190e+002
4.515976e+002, 1.861474e+002
4.520797e+002, 1.844079e+002
4.525618e+002, 1.832183e+002
4.530439e+002, 1.831259e+002
4.535260e+002, 1.837355e+002
4.540081e+002, 1.837561e+002
4.544903e+002, 1.830957e+002
4.549724e+002, 1.824503e+002
4.554545e+002, 1.822798e+002
4.559366e+002, 1.825021e+002
4.564187e+002, 1.824929e+002
4.569008e+002, 1.822016e+002
4.573830e+002, 1.818423e+002
4.578651e+002, 1.818199e+002
4.583472e+002, 1.819649e+002
4.588293e+002, 1.816794e+002
4.593114e+002, 1.803630e+002
4.597935e+002, 1.789331e+002
4.602757e+002, 1.786393e+002
4.607578e+002, 1.793150e+002
4.612399e+002, 1.801067e+002
4.617220e+002, 1.809174e+002
4.622041e+002, 1.813597e+002
4.626862e+002, 1.808033e+002
4.631684e+002, 1.788565e+002
4.636505e+002, 1.773120e+002
4.641326e+002, 1.773851e+002
4.646147e+002, 1.783285e+002
4.650968e+002, 1.791825e+002
4.655789e+002, 1.795349e+002
4.660611e+002, 1.798755e+002
4.665432e+002, 1.804467e+002
4.670253e+002, 1.812093e+002
4.675074e+002, 1.817035e+002
4.679895e+002, 1.815338e+002
4.684716e+002, 1.813642e+002
4.689538e+002, 1.815446e+002
4.694359e+002, 1.823973e+002
4.699180e+002, 1.828540e+002
4.704001e+002, 1.826197e+002
4.708822e+002, 1.821935e+002
4.713643e+002, 1.824053e+002
4.718465e+002, 1.835468e+002
4.723286e+002, 1.844547e+002
4.728107e+002, 1.847341e+002
4.732928e+002, 1.845193e+002
4.737749e+002, 1.846431e+002
4.742570e+002, 1.851494e+002
4.747392e+002, 1.857566e+002
4.752213e+002, 1.861230e+002
4.757034e+002, 1.863414e+002
4.761855e+002, 1.871341e+002
4.766676e+002, 1.886785e+002
4.771497e+002, 1.904673e+002
4.776319e+002, 1.918287e+002
4.781140e+002, 1.928586e+002
4.785961e+002, 1.938438e+002
4.790782e+002, 1.948574e+002
4.795603e+002, 1.959249e+002
4.800424e+002, 1.971438e+002
4.805246e+002, 1.984906e+002
4.810067e+002, 1.997307e+002
4.814888e+002, 2.006658e+002
4.819709e+002, 2.014568e+002
4.824530e+002, 2.021695e+002
4.829352e+002, 2.026300e+002
4.834173e+002, 2.034806e+002
4.838994e+002, 2.052489e+002
4.843815e+002, 2.075109e+002
4.848636e+002, 2.096031e+002
4.853457e+002, 2.118050e+002
4.858279e+002, 2.133755e+002
4.863100e+002, 2.139281e+002
4.867921e+002, 2.134534e+002
4.872742e+002, 2.130195e+002
4.877563e+002, 2.124409e+002
4.882384e+002, 2.120932e+002
4.887206e+002, 2.123205e+002
4.892027e+002, 2.136917e+002
4.896848e+002, 2.140666e+002
4.901669e+002, 2.131578e+002
4.906490e+002, 2.115336e+002
4.911311e+002, 2.100619e+002
4.916133e+002, 2.087997e+002
4.920954e+002, 2.073697e+002
4.925775e+002, 2.055529e+002
4.930596e+002, 2.035045e+002
4.935417e+002, 2.018340e+002
4.940238e+002, 2.005507e+002
4.945060e+002, 1.992853e+002
4.949881e+002, 1.975385e+002
4.954702e+002, 1.956167e+002
4.959523e+002, 1.943367e+002
4.964344e+002, 1.939109e+002
4.969165e+002, 1.936634e+002
4.973987e+002, 1.928312e+002
4.978808e+002, 1.916990e+002
4.983629e+002, 1.908205e+002
4.988450e+002, 1.908171e+002
4.993271e+002, 1.908120e+002
4.998092e+002, 1.900720e+002
5.002914e+002, 1.887455e+002
5.007735e+002, 1.877139e+002
5.012556e+002, 1.875754e+002
5.017377e+002, 1.876292e+002
5.022198e+002, 1.874316e+002
5.027019e+002, 1.867445e+002
5.031841e+002, 1.862976e+002
5.036662e+002, 1.865543e+002
5.041483e+002, 1.869430e+002
5.046304e+002, 1.867496e+002
5.051125e+002, 1.852364e+002
5.055946e+002, 1.843740e+002
5.060768e+002, 1.847647e+002
5.065589e+002, 1.860684e+002
5.070410e+002, 1.865302e+002
5.075231e+002, 1.859337e+002
5.080052e+002, 1.851009e+002
5.084873e+002, 1.842158e+002
5.089695e+002, 1.832822e+002
5.094516e+002, 1.834314e+002
5.099337e+002, 1.848692e+002
5.104158e+002, 1.865462e+002
5.108979e+002, 1.872758e+002
5.113800e+002, 1.872014e+002
5.118622e+002, 1.868823e+002
5.123443e+002, 1.862888e+002
5.128264e+002, 1.857839e+002
5.133085e+002, 1.859123e+002
5.137906e+002, 1.865601e+002
5.142728e+002, 1.873179e+002
5.147549e+002, 1.882451e+002
5.152370e+002, 1.889970e+002
5.157191e+002, 1.891503e+002
5.162012e+002, 1.886440e+002
5.166833e+002, 1.882319e+002
5.171655e+002, 1.880208e+002
5.176476e+002, 1.881861e+002
5.181297e+002, 1.888857e+002
5.186118e+002, 1.907080e+002
5.190939e+002, 1.923752e+002
5.195760e+002, 1.941130e+002
5.200582e+002, 1.955254e+002
5.205403e+002, 1.957036e+002
5.210224e+002, 1.934645e+002
5.215045e+002, 1.916400e+002
5.219866e+002, 1.910654e+002
5.224688e+002, 1.917390e+002
5.229509e+002, 1.924059e+002
5.234330e+002, 1.930546e+002
5.239151e+002, 1.937259e+002
5.243972e+002, 1.944132e+002
5.248793e+002, 1.951090e+002
5.253615e+002, 1.960185e+002
5.258436e+002, 1.971895e+002
5.263257e+002, 1.985078e+002
5.268078e+002, 2.000414e+002
5.272899e+002, 2.016538e+002
5.277720e+002, 2.026292e+002
5.282542e+002, 2.022021e+002
5.287363e+002, 2.013521e+002
5.292184e+002, 2.015561e+002
5.297005e+002, 2.026178e+002
5.301826e+002, 2.034782e+002
5.306647e+002, 2.031214e+002
5.311469e+002, 2.025034e+002
5.316290e+002, 2.025271e+002
5.321111e+002, 2.034659e+002
5.325932e+002, 2.043197e+002
5.330753e+002, 2.044116e+002
5.335574e+002, 2.043479e+002
5.340396e+002, 2.047552e+002
5.345217e+002, 2.064709e+002
5.350038e+002, 2.078158e+002
5.354859e+002, 2.084647e+002
5.359680e+002, 2.085790e+002
5.364501e+002, 2.086275e+002
5.369323e+002, 2.084390e+002
5.374144e+002, 2.084775e+002
5.378965e+002, 2.089592e+002
5.383786e+002, 2.098908e+002
5.388607e+002, 2.108311e+002
5.393428e+002, 2.118169e+002
5.398250e+002, 2.126659e+002
5.403071e+002, 2.130164e+002
5.407892e+002, 2.129494e+002
5.412713e+002, 2.134290e+002
5.417534e+002, 2.147719e+002
5.422355e+002, 2.162132e+002
5.427177e+002, 2.164589e+002
5.431998e+002, 2.158676e+002
5.436819e+002, 2.155752e+002
5.441640e+002, 2.164510e+002
5.446461e+002, 2.176213e+002
5.451282e+002, 2.183060e+002
5.456104e+002, 2.185512e+002
5.460925e+002, 2.186770e+002
5.465746e+002, 2.186168e+002
5.470567e+002, 2.186585e+002
5.475388e+002, 2.190007e+002
5.480209e+002, 2.197072e+002
5.485031e+002, 2.205994e+002
5.489852e+002, 2.220610e+002
5.494673e+002, 2.234955e+002
5.499494e+002, 2.242594e+002
5.504315e+002, 2.238557e+002
5.509136e+002, 2.235500e+002
5.513958e+002, 2.235405e+002
5.518779e+002, 2.236914e+002
5.523600e+002, 2.235053e+002
5.528421e+002, 2.227862e+002
5.533242e+002, 2.224152e+002
5.538063e+002, 2.229295e+002
5.542885e+002, 2.241808e+002
5.547706e+002, 2.249308e+002
5.552527e+002, 2.251387e+002
5.557348e+002, 2.252836e+002
5.562169e+002, 2.262630e+002
5.566990e+002, 2.274880e+002
5.571812e+002, 2.271667e+002
5.576633e+002, 2.246511e+002
5.581454e+002, 2.220023e+002
5.586275e+002, 2.215244e+002
5.591096e+002, 2.222639e+002
5.595917e+002, 2.225285e+002
5.600739e+002, 2.210797e+002
5.605560e+002, 2.195204e+002
5.610381e+002, 2.187876e+002
5.615202e+002, 2.186754e+002
5.620023e+002, 2.182228e+002
5.624844e+002, 2.168186e+002
5.629666e+002, 2.153315e+002
5.634487e+002, 2.141764e+002
5.639308e+002, 2.134483e+002
5.644129e+002, 2.126081e+002
5.648950e+002, 2.115697e+002
5.653771e+002, 2.105093e+002
5.658593e+002, 2.095425e+002
5.663414e+002, 2.086514e+002
5.668235e+002, 2.079283e+002
5.673056e+002, 2.074076e+002
5.677877e+002, 2.070052e+002
5.682698e+002, 2.065912e+002
5.687520e+002, 2.061617e+002
5.692341e+002, 2.056973e+002
5.697162e+002, 2.051958e+002
5.701983e+002, 2.046522e+002
5.706804e+002, 2.039674e+002
5.711625e+002, 2.031820e+002
5.716447e+002, 2.025417e+002
5.721268e+002, 2.023738e+002
5.726089e+002, 2.023347e+002
5.730910e+002, 2.020766e+002
5.735731e+002, 2.015327e+002
5.740552e+002, 2.009807e+002
5.745374e+002, 2.004169e+002
5.750195e+002, 1.999632e+002
5.755016e+002, 1.997299e+002
5.759837e+002, 1.999490e+002
5.764658e+002, 2.001218e+002
5.769479e+002, 2.001636e+002
5.774301e+002, 2.001329e+002
5.779122e+002, 2.001548e+002
5.783943e+002, 2.002790e+002
5.788764e+002, 2.003420e+002
5.793585e+002, 2.002938e+002
5.798406e+002, 2.001413e+002
5.803228e+002, 1.999173e+002
5.808049e+002, 1.996024e+002
5.812870e+002, 1.993386e+002
5.817691e+002, 1.993021e+002
5.822512e+002, 1.994114e+002
5.827333e+002, 1.993115e+002
5.832155e+002, 1.989724e+002
5.836975e+002, 1.985522e+002
5.841796e+002, 1.980217e+002
5.846617e+002, 1.975505e+002
5.851439e+002, 1.974788e+002
5.856260e+002, 1.982275e+002
5.861081e+002, 1.988054e+002
5.865902e+002, 1.984781e+002
5.870723e+002, 1.975635e+002
5.875544e+002, 1.966847e+002
5.880366e+002, 1.957466e+002
5.885187e+002, 1.951273e+002
5.890008e+002, 1.949423e+002
5.894829e+002, 1.951968e+002
5.899650e+002, 1.958364e+002
5.904471e+002, 1.974209e+002
5.909293e+002, 1.986484e+002
5.914114e+002, 1.987188e+002
5.918935e+002, 1.973772e+002
5.923756e+002, 1.967229e+002
5.928577e+002, 1.968611e+002
5.933398e+002, 1.974009e+002
5.938220e+002, 1.981145e+002
5.943041e+002, 1.989463e+002
5.947862e+002, 1.993995e+002
5.952683e+002, 1.992950e+002
5.957504e+002, 1.990306e+002
5.962325e+002, 1.992206e+002
5.967147e+002, 1.996760e+002
5.971968e+002, 1.998997e+002
5.976789e+002, 1.994386e+002
5.981610e+002, 1.988696e+002
5.986431e+002, 1.983983e+002
5.991252e+002, 1.981152e+002
5.996074e+002, 1.983927e+002
6.000895e+002, 2.001731e+002
6.005716e+002, 2.018562e+002
6.010537e+002, 2.026088e+002
6.015358e+002, 2.021532e+002
6.020179e+002, 2.017319e+002
6.025001e+002, 2.013324e+002
6.029822e+002, 2.009974e+002
6.034643e+002, 2.007062e+002
6.039464e+002, 2.003571e+002
6.044285e+002, 2.005237e+002
6.049106e+002, 2.014197e+002
6.053928e+002, 2.025161e+002
6.058749e+002, 2.030023e+002
6.063570e+002, 2.029138e+002
6.068391e+002, 2.026755e+002
6.073212e+002, 2.022978e+002
6.078033e+002, 2.019888e+002
6.082855e+002, 2.022262e+002
6.087676e+002, 2.028490e+002
6.092497e+002, 2.032769e+002
6.097318e+002, 2.032496e+002
6.102139e+002, 2.028474e+002
6.106960e+002, 2.020383e+002
6.111782e+002, 2.008355e+002
6.116603e+002, 1.995828e+002
6.121424e+002, 1.981752e+002
6.126245e+002, 1.969060e+002
6.131066e+002, 1.960331e+002
6.135887e+002, 1.959936e+002
6.140709e+002, 1.953373e+002
6.145530e+002, 1.937771e+002
6.150351e+002, 1.918551e+002
6.155172e+002, 1.900741e+002
6.159993e+002, 1.884085e+002
6.164814e+002, 1.869653e+002
6.169636e+002, 1.858293e+002
6.174457e+002, 1.848218e+002
6.179278e+002, 1.834541e+002
6.184099e+002, 1.817864e+002
6.188920e+002, 1.804599e+002
6.193741e+002, 1.800402e+002
6.198563e+002, 1.798743e+002
6.203384e+002, 1.788914e+002
6.208205e+002, 1.772440e+002
6.213026e+002, 1.757035e+002
6.217847e+002, 1.745180e+002
6.222668e+002, 1.737441e+002
6.227490e+002, 1.736979e+002
6.232311e+002, 1.745039e+002
6.237132e+002, 1.747635e+002
6.241953e+002, 1.734119e+002
6.246774e+002, 1.718651e+002
6.251595e+002, 1.711670e+002
6.256417e+002, 1.722017e+002
6.261238e+002, 1.723354e+002
6.266059e+002, 1.711909e+002
6.270880e+002, 1.695673e+002
6.275701e+002, 1.684766e+002
6.280522e+002, 1.679456e+002
6.285344e+002, 1.677634e+002
6.290165e+002, 1.680477e+002
6.294986e+002, 1.684151e+002
6.299807e+002, 1.678241e+002
6.304628e+002, 1.665041e+002
6.309449e+002, 1.657068e+002
6.314271e+002, 1.664437e+002
6.319092e+002, 1.677514e+002
6.323913e+002, 1.686454e+002
6.328734e+002, 1.691674e+002
6.333555e+002, 1.696137e+002
6.338376e+002, 1.703632e+002
6.343198e+002, 1.709052e+002
6.348019e+002, 1.707996e+002
6.352840e+002, 1.698100e+002
6.357661e+002, 1.692050e+002
6.362482e+002, 1.692331e+002
6.367303e+002, 1.695782e+002
6.372125e+002, 1.700818e+002
6.376946e+002, 1.708802e+002
6.381767e+002, 1.714111e+002
6.386588e+002, 1.715479e+002
6.391409e+002, 1.716001e+002
6.396230e+002, 1.720358e+002
6.401052e+002, 1.728330e+002
6.405873e+002, 1.736245e+002
6.410694e+002, 1.743145e+002
6.415515e+002, 1.749517e+002
6.420336e+002, 1.756522e+002
6.425157e+002, 1.763554e+002
6.429979e+002, 1.768946e+002
6.434800e+002, 1.769716e+002
6.439621e+002, 1.770262e+002
6.444442e+002, 1.773025e+002
6.449263e+002, 1.778069e+002
6.454084e+002, 1.785422e+002
6.458906e+002, 1.796374e+002
6.463727e+002, 1.808496e+002
6.468548e+002, 1.822300e+002
6.473369e+002, 1.839017e+002
6.478190e+002, 1.846709e+002
6.483011e+002, 1.838781e+002
6.487833e+002, 1.831636e+002
6.492654e+002, 1.839449e+002
6.497475e+002, 1.863978e+002
6.502296e+002, 1.882311e+002
6.507117e+002, 1.892202e+002
6.511938e+002, 1.899793e+002
6.516760e+002, 1.912353e+002
6.521581e+002, 1.928759e+002
6.526402e+002, 1.945031e+002
6.531223e+002, 1.959621e+002
6.536044e+002, 1.974849e+002
6.540865e+002, 1.991371e+002
6.545687e+002, 2.010491e+002
6.550508e+002, 2.034699e+002
6.555329e+002, 2.072000e+002
6.560150e+002, 2.107619e+002
6.564971e+002, 2.133669e+002
6.569792e+002, 2.152501e+002
6.574614e+002, 2.176675e+002
6.579435e+002, 2.205365e+002
6.584256e+002, 2.241258e+002
6.589077e+002, 2.287396e+002
6.593898e+002, 2.343192e+002
6.598719e+002, 2.393590e+002
6.603541e+002, 2.437529e+002
6.608362e+002, 2.480809e+002
6.613183e+002, 2.527894e+002
6.618004e+002, 2.577781e+002
6.622825e+002, 2.629375e+002
6.627646e+002, 2.682692e+002
6.632468e+002, 2.736186e+002
6.637289e+002, 2.783667e+002
6.642110e+002, 2.832404e+002
6.646931e+002, 2.893597e+002
6.651752e+002, 2.975370e+002
6.656573e+002, 3.055086e+002
6.661395e+002, 3.119763e+002
6.666216e+002, 3.178736e+002
6.671037e+002, 3.243477e+002
6.675858e+002, 3.317902e+002
6.680679e+002, 3.396291e+002
6.685500e+002, 3.481472e+002
6.690322e+002, 3.568594e+002
6.695143e+002, 3.645650e+002
6.699964e+002, 3.712987e+002
6.704785e+002, 3.770396e+002
6.709606e+002, 3.816712e+002
6.714427e+002, 3.853933e+002
6.719249e+002, 3.886877e+002
6.724070e+002, 3.915463e+002
6.728891e+002, 3.937919e+002
6.733712e+002, 3.960315e+002
6.738533e+002, 3.971567e+002
6.743354e+002, 3.955087e+002
6.748176e+002, 3.912346e+002
6.752997e+002, 3.861805e+002
6.757818e+002, 3.815664e+002
6.762639e+002, 3.762990e+002
6.767460e+002, 3.694223e+002
6.772281e+002, 3.604178e+002
6.777103e+002, 3.519663e+002
6.781924e+002, 3.442324e+002
6.786745e+002, 3.370191e+002
6.791566e+002, 3.301998e+002
6.796387e+002, 3.238725e+002
6.801208e+002, 3.172133e+002
6.806030e+002, 3.098510e+002
6.810851e+002, 3.028255e+002
6.815672e+002, 2.974535e+002
6.820493e+002, 2.934598e+002
6.825314e+002, 2.894817e+002
6.830135e+002, 2.852878e+002
6.834957e+002, 2.808720e+002
6.839778e+002, 2.759916e+002
6.844599e+002, 2.709286e+002
6.849420e+002, 2.663998e+002
6.854241e+002, 2.629597e+002
6.859063e+002, 2.596847e+002
6.863884e+002, 2.561368e+002
6.868705e+002, 2.524519e+002
6.873526e+002, 2.490729e+002
6.878347e+002, 2.461507e+002
6.883168e+002, 2.432910e+002
6.887990e+002, 2.404678e+002
6.892811e+002, 2.376302e+002
6.897632e+002, 2.346643e+002
6.902453e+002, 2.315772e+002
6.907274e+002, 2.283961e+002
6.912095e+002, 2.249149e+002
6.916917e+002, 2.214037e+002
6.921738e+002, 2.188261e+002
6.926559e+002, 2.171767e+002
6.931380e+002, 2.154005e+002
6.936201e+002, 2.121685e+002
6.941022e+002, 2.087782e+002
6.945844e+002, 2.066518e+002
6.950665e+002, 2.062009e+002
6.955486e+002, 2.055036e+002
6.960307e+002, 2.034433e+002
6.965128e+002, 2.011720e+002
6.969949e+002, 1.996181e+002
6.974771e+002, 1.993433e+002
6.979592e+002, 1.986292e+002
6.984413e+002, 1.973285e+002
6.989234e+002, 1.957891e+002
6.994055e+002, 1.943473e+002
6.998876e+002, 1.930018e+002
7.003698e+002, 1.920337e+002
7.008519e+002, 1.916087e+002
7.013340e+002, 1.912976e+002
7.018161e+002, 1.904419e+002
7.022982e+002, 1.892258e+002
7.027803e+002, 1.881020e+002
7.032625e+002, 1.872029e+002
7.037446e+002, 1.864945e+002
7.042267e+002, 1.860399e+002
7.047088e+002, 1.857589e+002
7.051909e+002, 1.854790e+002
7.056730e+002, 1.854903e+002
7.061552e+002, 1.850979e+002
7.066373e+002, 1.838192e+002
7.071194e+002, 1.819590e+002
7.076015e+002, 1.809939e+002
7.080836e+002, 1.811575e+002
7.085657e+002, 1.815378e+002
7.090479e+002, 1.818984e+002
7.095300e+002, 1.821579e+002
7.100121e+002, 1.818122e+002
7.104942e+002, 1.808867e+002
7.109763e+002, 1.800880e+002
7.114584e+002, 1.801435e+002
7.119406e+002, 1.804552e+002
7.124227e+002, 1.801340e+002
7.129048e+002, 1.791612e+002
7.133869e+002, 1.784639e+002
7.138690e+002, 1.786917e+002
7.143511e+002, 1.792076e+002
7.148333e+002, 1.796554e+002
7.153154e+002, 1.800720e+002
7.157975e+002, 1.801342e+002
7.162796e+002, 1.796912e+002
7.167617e+002, 1.790883e+002
7.172438e+002, 1.785582e+002
7.177260e+002, 1.781039e+002
7.182081e+002, 1.777303e+002
7.186902e+002, 1.774115e+002
7.191723e+002, 1.773019e+002
7.196544e+002, 1.778435e+002
7.201365e+002, 1.787265e+002
7.206187e+002, 1.791081e+002
7.211008e+002, 1.786604e+002
7.215829e+002, 1.781182e+002
7.220650e+002, 1.779834e+002
7.225471e+002, 1.781032e+002
7.230292e+002, 1.782710e+002
7.235114e+002, 1.784774e+002
7.239935e+002, 1.786596e+002
7.244756e+002, 1.787485e+002
7.249577e+002, 1.788254e+002
7.254398e+002, 1.790243e+002
7.259219e+002, 1.793354e+002
7.264041e+002, 1.798099e+002
7.268862e+002, 1.805111e+002
7.273683e+002, 1.813262e+002
7.278504e+002, 1.819505e+002
7.283325e+002, 1.824063e+002
7.288146e+002, 1.828388e+002
7.292968e+002, 1.831850e+002
7.297789e+002, 1.836455e+002
7.302610e+002, 1.846250e+002
7.307431e+002, 1.859436e+002
7.312252e+002, 1.870050e+002
7.317073e+002, 1.873306e+002
7.321895e+002, 1.875596e+002
7.326716e+002, 1.878183e+002
7.331537e+002, 1.881604e+002
7.336358e+002, 1.890263e+002
7.341179e+002, 1.907602e+002
7.346000e+002, 1.924540e+002
7.350822e+002, 1.936698e+002
7.355643e+002, 1.944782e+002
7.360464e+002, 1.955289e+002
7.365285e+002, 1.968322e+002
7.370106e+002, 1.981994e+002
7.374927e+002, 1.994819e+002
7.379749e+002, 2.007460e+002
7.384570e+002, 2.020419e+002
7.389391e+002, 2.033711e+002
7.394212e+002, 2.049640e+002
7.399033e+002, 2.074373e+002
7.403854e+002, 2.098773e+002
7.408676e+002, 2.114973e+002
7.413497e+002, 2.118865e+002
7.418318e+002, 2.127941e+002
7.423139e+002, 2.146659e+002
7.427960e+002, 2.166976e+002
7.432781e+002, 2.183814e+002
7.437603e+002, 2.196846e+002
7.442424e+002, 2.208711e+002
7.447245e+002, 2.219532e+002
7.452066e+002, 2.229154e+002
7.456887e+002, 2.239290e+002
7.461708e+002, 2.248162e+002
7.466530e+002, 2.250195e+002
7.471351e+002, 2.243605e+002
7.476172e+002, 2.234856e+002
7.480993e+002, 2.230523e+002
7.485814e+002, 2.225813e+002
7.490635e+002, 2.215257e+002
7.495457e+002, 2.193400e+002
7.500278e+002, 2.172089e+002
7.505099e+002, 2.153479e+002
7.509920e+002, 2.136013e+002
7.514741e+002, 2.118565e+002
7.519562e+002, 2.102025e+002
7.524384e+002, 2.081189e+002
7.529205e+002, 2.053750e+002
7.534026e+002, 2.025538e+002
7.538847e+002, 2.005914e+002
7.543668e+002, 1.993774e+002
7.548489e+002, 1.984787e+002
7.553311e+002, 1.979146e+002
7.558132e+002, 1.973366e+002
7.562953e+002, 1.963027e+002
7.567774e+002, 1.950714e+002
7.572595e+002, 1.941184e+002
7.577416e+002, 1.938650e+002
7.582238e+002, 1.935810e+002
7.587059e+002, 1.932340e+002
7.591880e+002, 1.927147e+002
7.596701e+002, 1.916619e+002
7.601522e+002, 1.897631e+002
7.606343e+002, 1.883477e+002
7.611165e+002, 1.878360e+002
7.615986e+002, 1.879139e+002
7.620807e+002, 1.878756e+002
7.625628e+002, 1.877358e+002
7.630449e+002, 1.875769e+002
7.635270e+002, 1.874933e+002
7.640092e+002, 1.873578e+002
7.644913e+002, 1.868694e+002
7.649734e+002, 1.862041e+002
7.654555e+002, 1.859019e+002
7.659376e+002, 1.865380e+002
7.664197e+002, 1.871720e+002
7.669019e+002, 1.875575e+002
7.673840e+002, 1.876853e+002
7.678661e+002, 1.874154e+002
7.683482e+002, 1.865515e+002
7.688303e+002, 1.858718e+002
7.693124e+002, 1.857746e+002
7.697946e+002, 1.860714e+002
7.702767e+002, 1.861080e+002
7.707588e+002, 1.859031e+002
7.712409e+002, 1.856315e+002
7.717230e+002, 1.852069e+002
7.722051e+002, 1.849032e+002
7.726873e+002, 1.850005e+002
7.731694e+002, 1.854845e+002
7.736515e+002, 1.861733e+002
7.741336e+002, 1.876988e+002
7.746157e+002, 1.887352e+002
7.750978e+002, 1.883955e+002
7.755800e+002, 1.867627e+002
7.760621e+002, 1.861407e+002
7.765442e+002, 1.868333e+002
7.770263e+002, 1.876782e+002
7.775084e+002, 1.880235e+002
7.779905e+002, 1.879873e+002
7.784727e+002, 1.881334e+002
7.789548e+002, 1.884495e+002
7.794369e+002, 1.887331e+002
7.799190e+002, 1.888442e+002
7.804011e+002, 1.888461e+002
7.808832e+002, 1.887112e+002
7.813654e+002, 1.884473e+002
7.818475e+002, 1.884175e+002
7.823296e+002, 1.890400e+002
7.828117e+002, 1.896479e+002
7.832938e+002, 1.898166e+002
7.837759e+002, 1.894619e+002
7.842581e+002, 1.897428e+002
7.847402e+002, 1.908647e+002
7.852223e+002, 1.919827e+002
7.857044e+002, 1.924413e+002
7.861865e+002, 1.924113e+002
7.866686e+002, 1.926459e+002
7.871508e+002, 1.931634e+002
7.876329e+002, 1.935130e+002
7.881150e+002, 1.931201e+002
7.885971e+002, 1.925512e+002
7.890792e+002, 1.924031e+002
7.895613e+002, 1.927905e+002
7.900435e+002, 1.930706e+002
7.905256e+002, 1.930094e+002
7.910077e+002, 1.928636e+002
7.914898e+002, 1.927631e+002
7.919719e+002, 1.927181e+002
7.924540e+002, 1.926256e+002
7.929362e+002, 1.924832e+002
7.934183e+002, 1.922961e+002
7.939004e+002, 1.920674e+002
7.943825e+002, 1.917970e+002
7.948646e+002, 1.914760e+002
7.953467e+002, 1.911006e+002
7.958289e+002, 1.907493e+002
7.963110e+002, 1.905112e+002
7.967931e+002, 1.903074e+002
7.972752e+002, 1.900683e+002
7.977573e+002, 1.897644e+002
7.982394e+002, 1.895203e+002
7.987216e+002, 1.892663e+002
7.992037e+002, 1.891671e+002
7.996858e+002, 1.893826e+002
8.001679e+002, 1.899767e+002
8.006500e+002, 1.903952e+002
8.011321e+002, 1.906233e+002
8.016143e+002, 1.908118e+002
8.020964e+002, 1.910688e+002
8.025785e+002, 1.913913e+002
8.030606e+002, 1.918817e+002
8.035427e+002, 1.925759e+002
8.040248e+002, 1.929624e+002
8.045070e+002, 1.923596e+002
8.049891e+002, 1.915932e+002
8.054712e+002, 1.913442e+002
8.059533e+002, 1.919425e+002
8.064354e+002, 1.922100e+002
8.069175e+002, 1.919805e+002
8.073997e+002, 1.916504e+002
8.078818e+002, 1.915947e+002
8.083639e+002, 1.917994e+002
8.088460e+002, 1.914461e+002
8.093281e+002, 1.904530e+002
8.098102e+002, 1.895774e+002
8.102924e+002, 1.899176e+002
8.107745e+002, 1.906065e+002
8.112566e+002, 1.902902e+002
8.117387e+002, 1.886754e+002
8.122208e+002, 1.873103e+002
8.127029e+002, 1.871025e+002
8.131851e+002, 1.871716e+002
8.136672e+002, 1.868662e+002
8.141493e+002, 1.860115e+002
8.146314e+002, 1.855170e+002
8.151135e+002, 1.854612e+002
8.155956e+002, 1.855796e+002
8.160778e+002, 1.858138e+002
8.165599e+002, 1.860688e+002
8.170420e+002, 1.857400e+002
8.175241e+002, 1.847784e+002
8.180062e+002, 1.839709e+002
8.184883e+002, 1.840568e+002
8.189705e+002, 1.845094e+002
8.194526e+002, 1.848490e+002
8.199347e+002, 1.850045e+002
8.204168e+002, 1.850986e+002
8.208989e+002, 1.850861e+002
8.213810e+002, 1.850820e+002
8.218632e+002, 1.851690e+002
8.223453e+002, 1.853711e+002
8.228274e+002, 1.854149e+002
8.233095e+002, 1.852789e+002
8.237916e+002, 1.851323e+002
8.242737e+002, 1.851204e+002
8.247559e+002, 1.851957e+002
8.252380e+002, 1.852490e+002
8.257201e+002, 1.852775e+002
8.262022e+002, 1.853648e+002
8.266843e+002, 1.856637e+002
8.271664e+002, 1.859597e+002
8.276486e+002, 1.860466e+002
8.281307e+002, 1.858463e+002
8.286128e+002, 1.859696e+002
8.290949e+002, 1.866820e+002
8.295770e+002, 1.872580e+002
8.300591e+002, 1.872663e+002
8.305413e+002, 1.867497e+002
8.310234e+002, 1.861164e+002
8.315055e+002, 1.853690e+002
8.319876e+002, 1.848168e+002
8.324697e+002, 1.847873e+002
8.329518e+002, 1.849959e+002
8.334340e+002, 1.850205e+002
8.339161e+002, 1.848821e+002
8.343982e+002, 1.851846e+002
8.348803e+002, 1.868949e+002
8.353624e+002, 1.883393e+002
8.358445e+002, 1.887611e+002
8.363267e+002, 1.882009e+002
8.368088e+002, 1.874265e+002
8.372909e+002, 1.862853e+002
8.377730e+002, 1.856685e+002
8.382551e+002, 1.863638e+002
8.387372e+002, 1.878538e+002
8.392194e+002, 1.890579e+002
8.397015e+002, 1.899291e+002
8.401836e+002, 1.901909e+002
8.406657e+002, 1.889314e+002
8.411478e+002, 1.876860e+002
8.416299e+002, 1.875537e+002
8.421121e+002, 1.884306e+002
8.425942e+002, 1.890636e+002
8.430763e+002, 1.895552e+002
8.435584e+002, 1.894392e+002
8.440405e+002, 1.882042e+002
8.445226e+002, 1.863631e+002
8.450048e+002, 1.862385e+002
8.454869e+002, 1.877098e+002
8.459690e+002, 1.889334e+002
8.464511e+002, 1.885257e+002
8.469332e+002, 1.877817e+002
8.474153e+002, 1.883878e+002
8.478975e+002, 1.898329e+002
8.483796e+002, 1.906695e+002
8.488617e+002, 1.897578e+002
8.493438e+002, 1.888952e+002
8.498259e+002, 1.885186e+002
8.503080e+002, 1.885636e+002
8.507902e+002, 1.889415e+002
8.512723e+002, 1.897042e+002
8.517544e+002, 1.905097e+002
8.522365e+002, 1.913600e+002
8.527186e+002, 1.920479e+002
8.532007e+002, 1.920463e+002
8.536829e+002, 1.915712e+002
8.541650e+002, 1.912099e+002
8.546471e+002, 1.911507e+002
8.551292e+002, 1.913047e+002
8.556113e+002, 1.919665e+002
8.560934e+002, 1.927270e+002
8.565756e+002, 1.928082e+002
8.570577e+002, 1.917685e+002
8.575398e+002, 1.908682e+002
8.580219e+002, 1.901196e+002
8.585040e+002, 1.897352e+002
8.589861e+002, 1.902804e+002
8.594683e+002, 1.915753e+002
8.599504e+002, 1.927123e+002
8.604325e+002, 1.935586e+002
8.609146e+002, 1.938932e+002
8.613967e+002, 1.929663e+002
8.618788e+002, 1.916346e+002
8.623610e+002, 1.909444e+002
8.628431e+002, 1.912857e+002
8.633252e+002, 1.920960e+002
8.638073e+002, 1.937761e+002
8.642894e+002, 1.954063e+002
8.647715e+002, 1.959461e+002
8.652537e+002, 1.953319e+002
8.657358e+002, 1.950309e+002
8.662179e+002, 1.951997e+002
8.667000e+002, 1.953625e+002
8.671821e+002, 1.948425e+002
8.676642e+002, 1.940941e+002
8.681464e+002, 1.938585e+002
8.686285e+002, 1.943329e+002
8.691106e+002, 1.947004e+002
8.695927e+002, 1.943730e+002
8.700748e+002, 1.940642e+002
8.705569e+002, 1.943160e+002
8.710391e+002, 1.952721e+002
8.715212e+002, 1.956958e+002
8.720033e+002, 1.954605e+002
8.724854e+002, 1.951571e+002
8.729675e+002, 1.952855e+002
8.734496e+002, 1.956583e+002
8.739318e+002, 1.958340e+002
8.744139e+002, 1.958057e+002
8.748960e+002, 1.957224e+002
8.753781e+002, 1.956625e+002
8.758602e+002, 1.955823e+002
8.763423e+002, 1.954173e+002
8.768245e+002, 1.951753e+002
8.773066e+002, 1.951156e+002
8.777887e+002, 1.954198e+002
8.782708e+002, 1.955048e+002
8.787529e+002, 1.950585e+002
8.792350e+002, 1.942649e+002
8.797172e+002, 1.937495e+002
8.801993e+002, 1.934747e+002
8.806814e+002, 1.931244e+002
8.811635e+002, 1.922561e+002
8.816456e+002, 1.914957e+002
8.821277e+002, 1.914364e+002
8.826099e+002, 1.918681e+002
8.830920e+002, 1.921614e+002
8.835741e+002, 1.921832e+002
8.840562e+002, 1.920358e+002
8.845383e+002, 1.916040e+002
8.850204e+002, 1.911075e+002
8.855026e+002, 1.911319e+002
8.859847e+002, 1.916299e+002
8.864668e+002, 1.919908e+002
8.869489e+002, 1.921339e+002
8.874310e+002, 1.918444e+002
8.879131e+002, 1.904654e+002
8.883953e+002, 1.886374e+002
8.888774e+002, 1.873294e+002
8.893595e+002, 1.873563e+002
8.898416e+002, 1.871013e+002
8.903237e+002, 1.862385e+002
8.908058e+002, 1.850992e+002
8.912880e+002, 1.839177e+002
8.917701e+002, 1.826712e+002
8.922522e+002, 1.818647e+002
8.927343e+002, 1.816052e+002
8.932164e+002, 1.813538e+002
8.936985e+002, 1.804531e+002
8.941807e+002, 1.792417e+002
8.946628e+002, 1.782266e+002
8.951449e+002, 1.775314e+002
8.956270e+002, 1.767264e+002
8.961091e+002, 1.751808e+002
8.965912e+002, 1.739036e+002
8.970734e+002, 1.736215e+002
8.975555e+002, 1.744698e+002
8.980376e+002, 1.746217e+002
8.985197e+002, 1.739963e+002
8.990018e+002, 1.731782e+002
8.994839e+002, 1.725885e+002
8.999661e+002, 1.720874e+002
9.004482e+002, 1.713328e+002
9.009303e+002, 1.703741e+002
9.014124e+002, 1.695985e+002
9.018945e+002, 1.694568e+002
9.023766e+002, 1.692744e+002
9.028588e+002, 1.685327e+002
9.033409e+002, 1.674299e+002
9.038230e+002, 1.669305e+002
9.043051e+002, 1.671991e+002
9.047872e+002, 1.673970e+002
9.052693e+002, 1.672338e+002
9.057515e+002, 1.668486e+002
9.062336e+002, 1.664928e+002
9.067157e+002, 1.661515e+002
9.071978e+002, 1.657801e+002
9.076799e+002, 1.652086e+002
9.081620e+002, 1.647960e+002
9.086442e+002, 1.648609e+002
9.091263e+002, 1.651374e+002
9.096084e+002, 1.651861e+002
9.100905e+002, 1.649592e+002
9.105726e+002, 1.645760e+002
9.110547e+002, 1.639583e+002
9.115369e+002, 1.633941e+002
9.120190e+002, 1.634286e+002
9.125011e+002, 1.638160e+002
9.129832e+002, 1.638268e+002
9.134653e+002, 1.632979e+002
9.139474e+002, 1.626477e+002
9.144296e+002, 1.618678e+002
9.149117e+002, 1.612627e+002
9.153938e+002, 1.611896e+002
9.158759e+002, 1.618636e+002
9.163580e+002, 1.621428e+002
9.168401e+002, 1.619156e+002
9.173223e+002, 1.615629e+002
9.178044e+002, 1.612474e+002
9.182865e+002, 1.610215e+002
9.187686e+002, 1.611392e+002
9.192507e+002, 1.615706e+002
9.197328e+002, 1.620220e+002
9.202150e+002, 1.625011e+002
9.206971e+002, 1.627725e+002
9.211792e+002, 1.625280e+002
9.216613e+002, 1.618678e+002
9.221434e+002, 1.616230e+002
9.226255e+002, 1.621545e+002
9.231077e+002, 1.622589e+002
9.235898e+002, 1.614136e+002
9.240719e+002, 1.601192e+002
9.245540e+002, 1.595054e+002
9.250361e+002, 1.594630e+002
9.255182e+002, 1.595865e+002
9.260004e+002, 1.598914e+002
9.264825e+002, 1.600327e+002
9.269646e+002, 1.595126e+002
9.274467e+002, 1.587850e+002
9.279288e+002, 1.585813e+002
9.284109e+002, 1.593487e+002
9.288931e+002, 1.597968e+002
9.293752e+002, 1.598648e+002
9.298573e+002, 1.595994e+002
9.303394e+002, 1.587572e+002
9.308215e+002, 1.576113e+002
9.313036e+002, 1.571929e+002
9.317858e+002, 1.576575e+002
9.322679e+002, 1.583339e+002
9.327500e+002, 1.589338e+002
9.332321e+002, 1.594306e+002
9.337142e+002, 1.598552e+002
9.341964e+002, 1.602278e+002
9.346785e+002, 1.602654e+002
9.351606e+002, 1.598792e+002
9.356427e+002, 1.593724e+002
9.361248e+002, 1.588104e+002
9.366069e+002, 1.582759e+002
9.370891e+002, 1.581658e+002
9.375712e+002, 1.583975e+002
9.380533e+002, 1.585675e+002
9.385354e+002, 1.583522e+002
9.390175e+002, 1.581108e+002
9.394996e+002, 1.581253e+002
9.399818e+002, 1.582648e+002
9.404639e+002, 1.581048e+002
9.409460e+002, 1.573572e+002
9.414281e+002, 1.570784e+002
9.419102e+002, 1.575805e+002
9.423923e+002, 1.583845e+002
9.428745e+002, 1.588206e+002
9.433566e+002, 1.589199e+002
9.438387e+002, 1.586565e+002
9.443208e+002, 1.578544e+002
9.448029e+002, 1.573418e+002
9.452850e+002, 1.579991e+002
9.457672e+002, 1.589075e+002
9.462493e+002, 1.591644e+002
9.467314e+002, 1.585702e+002
9.472135e+002, 1.580372e+002
9.476956e+002, 1.575173e+002
9.481777e+002, 1.572298e+002
9.486599e+002, 1.574739e+002
9.491420e+002, 1.580510e+002
9.496241e+002, 1.586264e+002
9.501062e+002, 1.591405e+002
9.505883e+002, 1.592523e+002
9.510704e+002, 1.583492e+002
9.515526e+002, 1.574123e+002
9.520347e+002, 1.569142e+002
9.525168e+002, 1.567981e+002
9.529989e+002, 1.569109e+002
9.534810e+002, 1.573075e+002
9.539631e+002, 1.576977e+002
9.544453e+002, 1.580664e+002
9.549274e+002, 1.582633e+002
9.554095e+002, 1.577449e+002
9.558916e+002, 1.569075e+002
9.563737e+002, 1.566414e+002
9.568558e+002, 1.576474e+002
9.573380e+002, 1.584668e+002
9.578201e+002, 1.582404e+002
9.583022e+002, 1.578543e+002
9.587843e+002, 1.583237e+002
9.592664e+002, 1.600282e+002
9.597485e+002, 1.601997e+002
9.602307e+002, 1.585729e+002
9.607128e+002, 1.568055e+002
9.611949e+002, 1.563408e+002
9.616770e+002, 1.566664e+002
9.621591e+002, 1.572917e+002
9.626412e+002, 1.581345e+002
9.631234e+002, 1.585468e+002
9.636055e+002, 1.578612e+002
9.640876e+002, 1.571880e+002
9.645697e+002, 1.569259e+002
9.650518e+002, 1.569859e+002
9.655339e+002, 1.569573e+002
9.660161e+002, 1.568387e+002
9.664982e+002, 1.568172e+002
9.669803e+002, 1.569957e+002
9.674624e+002, 1.572474e+002
9.679445e+002, 1.574409e+002
9.684266e+002, 1.576044e+002
9.689088e+002, 1.577809e+002
9.693909e+002, 1.584051e+002
9.698730e+002, 1.583603e+002
9.703551e+002, 1.571195e+002
9.708372e+002, 1.558034e+002
9.713193e+002, 1.556829e+002
9.718015e+002, 1.566249e+002
9.722836e+002, 1.574014e+002
9.727657e+002, 1.579194e+002
9.732478e+002, 1.581988e+002
9.737299e+002, 1.580109e+002
9.742120e+002, 1.577823e+002
9.746942e+002, 1.579175e+002
9.751763e+002, 1.584502e+002
9.756584e+002, 1.588785e+002
9.761405e+002, 1.592263e+002
9.766226e+002, 1.593554e+002
9.771047e+002, 1.590958e+002
9.775869e+002, 1.586786e+002
9.780690e+002, 1.588047e+002
9.785511e+002, 1.593519e+002
9.790332e+002, 1.598642e+002
9.795153e+002, 1.600924e+002
9.799974e+002, 1.603409e+002
9.804796e+002, 1.609032e+002
9.809617e+002, 1.615226e+002
9.814438e+002, 1.617999e+002
9.819259e+002, 1.614982e+002
9.824080e+002, 1.616349e+002
9.828901e+002, 1.623493e+002
9.833723e+002, 1.631612e+002
9.838544e+002, 1.635815e+002
9.843365e+002, 1.637612e+002
9.848186e+002, 1.639273e+002
9.853007e+002, 1.641088e+002
9.857828e+002, 1.644331e+002
9.862650e+002, 1.650620e+002
9.867471e+002, 1.657461e+002
9.872292e+002, 1.664007e+002
9.877113e+002, 1.670154e+002
9.881934e+002, 1.675562e+002
9.886755e+002, 1.680243e+002
9.891577e+002, 1.683421e+002
9.896398e+002, 1.684531e+002
9.901219e+002, 1.684338e+002
9.906040e+002, 1.683406e+002
9.910861e+002, 1.681884e+002
9.915682e+002, 1.680000e+002
9.920504e+002, 1.675996e+002
9.925325e+002, 1.674838e+002
9.930146e+002, 1.679597e+002
9.934967e+002, 1.683636e+002
9.939788e+002, 1.679530e+002
9.944609e+002, 1.668401e+002
9.949431e+002, 1.660271e+002
9.954252e+002, 1.655636e+002
9.959073e+002, 1.651094e+002
9.963894e+002, 1.645672e+002
9.968715e+002, 1.638052e+002
9.973536e+002, 1.625304e+002
9.978358e+002, 1.608259e+002
9.983179e+002, 1.596284e+002
9.988000e+002, 1.591644e+002
9.992821e+002, 1.586411e+002
9.997642e+002, 1.577789e+002
1.000246e+003, 1.567831e+002
1.000728e+003, 1.560029e+002
1.001211e+003, 1.554445e+002
1.001693e+003, 1.552024e+002
1.002175e+003, 1.555204e+002
1.002657e+003, 1.556722e+002
1.003139e+003, 1.552054e+002
1.003621e+003, 1.545217e+002
1.004103e+003, 1.539639e+002
1.004585e+003, 1.535213e+002
1.005068e+003, 1.533056e+002
1.005550e+003, 1.533343e+002
1.006032e+003, 1.533889e+002
1.006514e+003, 1.532234e+002
1.006996e+003, 1.530354e+002
1.007478e+003, 1.530871e+002
1.007960e+003, 1.533536e+002
1.008442e+003, 1.536424e+002
1.008924e+003, 1.538958e+002
1.009407e+003, 1.541709e+002
1.009889e+003, 1.544653e+002
1.010371e+003, 1.548026e+002
1.010853e+003, 1.553982e+002
1.011335e+003, 1.561553e+002
1.011817e+003, 1.562755e+002
1.012299e+003, 1.554119e+002
1.012781e+003, 1.546254e+002
1.013263e+003, 1.546030e+002
1.013746e+003, 1.551168e+002
1.014228e+003, 1.560760e+002
1.014710e+003, 1.576105e+002
1.015192e+003, 1.587332e+002
1.015674e+003, 1.593867e+002
1.016156e+003, 1.598037e+002
1.016638e+003, 1.599560e+002
1.017120e+003, 1.600565e+002
1.017603e+003, 1.607040e+002
1.018085e+003, 1.617334e+002
1.018567e+003, 1.625449e+002
1.019049e+003, 1.624133e+002
1.019531e+003, 1.625817e+002
1.020013e+003, 1.635961e+002
1.020495e+003, 1.649849e+002
1.020977e+003, 1.662012e+002
1.021459e+003, 1.672505e+002
1.021942e+003, 1.675969e+002
1.022424e+003, 1.670872e+002
1.022906e+003, 1.665437e+002
1.023388e+003, 1.666051e+002
1.023870e+003, 1.671005e+002
1.024352e+003, 1.679717e+002
1.024834e+003, 1.692447e+002
1.025316e+003, 1.703478e+002
1.025799e+003, 1.712873e+002
1.026281e+003, 1.719631e+002
1.026763e+003, 1.721976e+002
1.027245e+003, 1.722615e+002
1.027727e+003, 1.730374e+002
1.028209e+003, 1.742886e+002
1.028691e+003, 1.751974e+002
1.029173e+003, 1.751375e+002
1.029656e+003, 1.751644e+002
1.030138e+003, 1.761494e+002
1.030620e+003, 1.772066e+002
1.031102e+003, 1.773674e+002
1.031584e+003, 1.764470e+002
1.032066e+003, 1.755532e+002
1.032548e+003, 1.746729e+002
1.033030e+003, 1.740972e+002
1.033512e+003, 1.742561e+002
1.033995e+003, 1.747335e+002
1.034477e+003, 1.752435e+002
1.034959e+003, 1.756808e+002
1.035441e+003, 1.755409e+002
1.035923e+003, 1.740351e+002
1.036405e+003, 1.729867e+002
1.036887e+003, 1.729242e+002
1.037369e+003, 1.732989e+002
1.037851e+003, 1.729566e+002
1.038334e+003, 1.721030e+002
1.038816e+003, 1.715435e+002
1.039298e+003, 1.715342e+002
1.039780e+003, 1.714871e+002
1.040262e+003, 1.709693e+002
1.040744e+003, 1.703166e+002
1.041226e+003, 1.697541e+002
1.041708e+003, 1.692729e+002
1.042191e+003, 1.690833e+002
1.042673e+003, 1.692080e+002
1.043155e+003, 1.694240e+002
1.043637e+003, 1.698690e+002
1.044119e+003, 1.701126e+002
1.044601e+003, 1.692658e+002
1.045083e+003, 1.677735e+002
1.045565e+003, 1.666866e+002
1.046047e+003, 1.665361e+002
1.046530e+003, 1.665192e+002
1.047012e+003, 1.666694e+002
1.047494e+003, 1.667729e+002
1.047976e+003, 1.665595e+002
1.048458e+003, 1.660811e+002
1.048940e+003, 1.655452e+002
1.049422e+003, 1.649720e+002
1.049904e+003, 1.645564e+002
1.050386e+003, 1.645596e+002
1.050869e+003, 1.646227e+002
1.051351e+003, 1.645558e+002
1.051833e+003, 1.643628e+002
1.052315e+003, 1.640635e+002
1.052797e+003, 1.636504e+002
1.053279e+003, 1.631756e+002
1.053761e+003, 1.626574e+002
1.054243e+003, 1.620483e+002
1.054726e+003, 1.611075e+002
1.055208e+003, 1.601132e+002
1.055690e+003, 1.595162e+002
1.056172e+003, 1.596263e+002
1.056654e+003, 1.594020e+002
1.057136e+003, 1.586480e+002
1.057618e+003, 1.577631e+002
1.058100e+003, 1.569382e+002
1.058583e+003, 1.561830e+002
1.059065e+003, 1.555771e+002
1.059547e+003, 1.550884e+002
1.060029e+003, 1.545623e+002
1.060511e+003, 1.536658e+002
1.060993e+003, 1.530244e+002
1.061475e+003, 1.532014e+002
1.061957e+003, 1.536387e+002
1.062439e+003, 1.535222e+002
1.062922e+003, 1.527635e+002
1.063404e+003, 1.523148e+002
1.063886e+003, 1.522921e+002
1.064368e+003, 1.521988e+002
1.064850e+003, 1.513017e+002
1.065332e+003, 1.503193e+002
1.065814e+003, 1.501537e+002
1.066296e+003, 1.507689e+002
1.066778e+003, 1.508422e+002
1.067261e+003, 1.499571e+002
1.067743e+003, 1.492347e+002
1.068225e+003, 1.490020e+002
1.068707e+003, 1.490071e+002
1.069189e+003, 1.488394e+002
1.069671e+003, 1.485397e+002
1.070153e+003, 1.481904e+002
1.070635e+003, 1.477933e+002
1.071118e+003, 1.474253e+002
1.071600e+003, 1.470391e+002
1.072082e+003, 1.467879e+002
1.072564e+003, 1.468102e+002
1.073046e+003, 1.470766e+002
1.073528e+003, 1.471968e+002
1.074010e+003, 1.471801e+002
1.074492e+003, 1.471485e+002
1.074974e+003, 1.472580e+002
1.075457e+003, 1.472755e+002
1.075939e+003, 1.471516e+002
1.076421e+003, 1.467756e+002
1.076903e+003, 1.458659e+002
1.077385e+003, 1.440332e+002
1.077867e+003, 1.428946e+002
1.078349e+003, 1.425780e+002
1.078831e+003, 1.427305e+002
1.079313e+003, 1.432317e+002
1.079796e+003, 1.438795e+002
1.080278e+003, 1.443863e+002
1.080760e+003, 1.447485e+002
1.081242e+003, 1.450417e+002
1.081724e+003, 1.453506e+002
1.082206e+003, 1.455054e+002
1.082688e+003, 1.454927e+002
1.083170e+003, 1.452801e+002
1.083652e+003, 1.445353e+002
1.084135e+003, 1.435103e+002
1.084617e+003, 1.433354e+002
1.085099e+003, 1.443500e+002
1.085581e+003, 1.452293e+002
1.086063e+003, 1.450445e+002
1.086545e+003, 1.446087e+002
1.087027e+003, 1.444299e+002
1.087509e+003, 1.444861e+002
1.087992e+003, 1.444403e+002
1.088474e+003, 1.442894e+002
1.088956e+003, 1.443552e+002
1.089438e+003, 1.448846e+002
1.089920e+003, 1.454810e+002
1.090402e+003, 1.459770e+002
1.090884e+003, 1.462058e+002
1.091366e+003, 1.458525e+002
1.091849e+003, 1.444307e+002
1.092331e+003, 1.437067e+002
1.092813e+003, 1.438212e+002
1.093295e+003, 1.441576e+002
1.093777e+003, 1.443928e+002
1.094259e+003, 1.444784e+002
1.094741e+003, 1.442161e+002
1.095223e+003, 1.437109e+002
1.095705e+003, 1.433309e+002
1.096188e+003, 1.431272e+002
1.096670e+003, 1.432225e+002
1.097152e+003, 1.437951e+002
1.097634e+003, 1.444372e+002
1.098116e+003, 1.444321e+002
1.098598e+003, 1.440054e+002
1.099080e+003, 1.444961e+002
1.099562e+003, 1.460044e+002
1.100044e+003, 1.469174e+002
1.100527e+003, 1.455507e+002
1.101009e+003, 1.440148e+002
1.101491e+003, 1.435229e+002
1.101973e+003, 1.437612e+002
1.102455e+003, 1.437074e+002
1.102937e+003, 1.433569e+002
1.103419e+003, 1.433643e+002
1.103901e+003, 1.439764e+002
1.104384e+003, 1.446463e+002
1.104866e+003, 1.448801e+002
1.105348e+003, 1.448759e+002
1.105830e+003, 1.447695e+002
1.106312e+003, 1.445452e+002
1.106794e+003, 1.445459e+002
1.107276e+003, 1.447743e+002
1.107758e+003, 1.452512e+002
1.108240e+003, 1.462006e+002
1.108723e+003, 1.471406e+002
1.109205e+003, 1.472153e+002
1.109687e+003, 1.467479e+002
1.110169e+003, 1.463557e+002
1.110651e+003, 1.461294e+002
1.111133e+003, 1.461837e+002
1.111615e+003, 1.467365e+002
1.112097e+003, 1.471686e+002
1.112579e+003, 1.469119e+002
1.113062e+003, 1.461553e+002
1.113544e+003, 1.452863e+002
1.114026e+003, 1.444528e+002
1.114508e+003, 1.443722e+002
1.114990e+003, 1.463279e+002
1.115472e+003, 1.479289e+002
1.115954e+003, 1.482797e+002
1.116436e+003, 1.480022e+002
1.116919e+003, 1.476991e+002
1.117401e+003, 1.474018e+002
1.117883e+003, 1.477818e+002
1.118365e+003, 1.489003e+002
1.118847e+003, 1.496483e+002
1.119329e+003, 1.485544e+002
1.119811e+003, 1.474586e+002
1.120293e+003, 1.478271e+002
1.120776e+003, 1.492124e+002
1.121258e+003, 1.499878e+002
1.121740e+003, 1.500809e+002
1.122222e+003, 1.502387e+002
1.122704e+003, 1.505971e+002
1.123186e+003, 1.511397e+002
1.123668e+003, 1.520638e+002
1.124150e+003, 1.530343e+002
1.124632e+003, 1.537043e+002
1.125115e+003, 1.540032e+002
1.125597e+003, 1.541338e+002
1.126079e+003, 1.540296e+002
1.126561e+003, 1.539831e+002
1.127043e+003, 1.540716e+002
1.127525e+003, 1.543367e+002
1.128007e+003, 1.550409e+002
1.128489e+003, 1.559097e+002
1.128971e+003, 1.564641e+002
1.129454e+003, 1.565368e+002
1.129936e+003, 1.563990e+002
1.130418e+003, 1.559583e+002
1.130900e+003, 1.555811e+002
1.131382e+003, 1.555463e+002
1.131864e+003, 1.557193e+002
1.132346e+003, 1.558976e+002
1.132828e+003, 1.559409e+002
1.133311e+003, 1.553872e+002
1.133793e+003, 1.533938e+002
1.134275e+003, 1.516190e+002
1.134757e+003, 1.504113e+002
1.135239e+003, 1.495473e+002
1.135721e+003, 1.489152e+002
1.136203e+003, 1.484803e+002
1.136685e+003, 1.479603e+002
1.137167e+003, 1.473352e+002
1.137650e+003, 1.465403e+002
1.138132e+003, 1.454978e+002
1.138614e+003, 1.443207e+002
1.139096e+003, 1.428287e+002
1.139578e+003, 1.413370e+002
1.140060e+003, 1.403935e+002
1.140542e+003, 1.400016e+002
1.141024e+003, 1.397943e+002
1.141506e+003, 1.397451e+002
1.141989e+003, 1.396928e+002
1.142471e+003, 1.394158e+002
1.142953e+003, 1.391703e+002
1.143435e+003, 1.391705e+002
1.143917e+003, 1.393867e+002
1.144399e+003, 1.397357e+002
1.144881e+003, 1.403385e+002
1.145363e+003, 1.400886e+002
1.145846e+003, 1.385557e+002
1.146328e+003, 1.369415e+002
1.146810e+003, 1.368451e+002
1.147292e+003, 1.372083e+002
1.147774e+003, 1.367964e+002
1.148256e+003, 1.353856e+002
1.148738e+003, 1.345241e+002
1.149220e+003, 1.343449e+002
1.149703e+003, 1.343299e+002
1.150185e+003, 1.343534e+002
1.150667e+003, 1.343433e+002
1.151149e+003, 1.342362e+002
1.151631e+003, 1.340051e+002
1.152113e+003, 1.335544e+002
1.152595e+003, 1.327183e+002
1.153077e+003, 1.322125e+002
1.153559e+003, 1.321225e+002
1.154042e+003, 1.322709e+002
1.154524e+003, 1.327648e+002
1.155006e+003, 1.332672e+002
1.155488e+003, 1.328233e+002
1.155970e+003, 1.317921e+002
1.156452e+003, 1.310700e+002
1.156934e+003, 1.312110e+002
1.157416e+003, 1.311906e+002
1.157898e+003, 1.308522e+002
1.158381e+003, 1.303868e+002
1.158863e+003, 1.298622e+002
1.159345e+003, 1.293314e+002
1.159827e+003, 1.290959e+002
1.160309e+003, 1.290724e+002
1.160791e+003, 1.289292e+002
1.161273e+003, 1.282543e+002
1.161755e+003, 1.277902e+002
1.162238e+003, 1.278097e+002
1.162720e+003, 1.280024e+002
1.163202e+003, 1.281316e+002
1.163684e+003, 1.281622e+002
1.164166e+003, 1.277468e+002
1.164648e+003, 1.269321e+002
1.165130e+003, 1.263057e+002
1.165612e+003, 1.265853e+002
1.166094e+003, 1.266679e+002
1.166577e+003, 1.257305e+002
1.167059e+003, 1.245633e+002
1.167541e+003, 1.246646e+002
1.168023e+003, 1.258829e+002
1.168505e+003, 1.261447e+002
1.168987e+003, 1.252353e+002
1.169469e+003, 1.242135e+002
1.169951e+003, 1.235580e+002
1.170433e+003, 1.232719e+002
1.170916e+003, 1.235814e+002
1.171398e+003, 1.242016e+002
1.171880e+003, 1.245146e+002
1.172362e+003, 1.245226e+002
1.172844e+003, 1.241040e+002
1.173326e+003, 1.231655e+002
1.173808e+003, 1.223606e+002
1.174290e+003, 1.224135e+002
1.174773e+003, 1.226735e+002
1.175255e+003, 1.225977e+002
1.175737e+003, 1.222547e+002
1.176219e+003, 1.220667e+002
1.176701e+003, 1.220340e+002
1.177183e+003, 1.221891e+002
1.177665e+003, 1.226495e+002
1.178147e+003, 1.229132e+002
1.178630e+003, 1.222466e+002
1.179112e+003, 1.213302e+002
1.179594e+003, 1.208391e+002
1.180076e+003, 1.208087e+002
1.180558e+003, 1.207975e+002
1.181040e+003, 1.208182e+002
1.181522e+003, 1.207488e+002
1.182004e+003, 1.205665e+002
1.182486e+003, 1.202240e+002
1.182969e+003, 1.192994e+002
1.183451e+003, 1.183899e+002
1.183933e+003, 1.183852e+002
1.184415e+003, 1.195997e+002
1.184897e+003, 1.200551e+002
1.185379e+003, 1.196586e+002
1.185861e+003, 1.190819e+002
1.186343e+003, 1.185346e+002
1.186825e+003, 1.181647e+002
1.187308e+003, 1.181298e+002
1.187790e+003, 1.184012e+002
1.188272e+003, 1.190609e+002
1.188754e+003, 1.206728e+002
1.189236e+003, 1.207550e+002
1.189718e+003, 1.190196e+002
1.190200e+003, 1.172420e+002
1.190682e+003, 1.164026e+002
1.191165e+003, 1.163066e+002
1.191647e+003, 1.172985e+002
1.192129e+003, 1.187099e+002
1.192611e+003, 1.191234e+002
1.193093e+003, 1.175443e+002
1.193575e+003, 1.166942e+002
1.194057e+003, 1.167101e+002
1.194539e+003, 1.170441e+002
1.195021e+003, 1.174384e+002
1.195504e+003, 1.177707e+002
1.195986e+003, 1.177602e+002
1.196468e+003, 1.175473e+002
1.196950e+003, 1.175653e+002
1.197432e+003, 1.181114e+002
1.197914e+003, 1.183312e+002
1.198396e+003, 1.180799e+002
1.198878e+003, 1.178341e+002
1.199360e+003, 1.182444e+002
1.199843e+003, 1.188186e+002
1.200325e+003, 1.187745e+002
1.200807e+003, 1.182338e+002
1.201289e+003, 1.178020e+002
1.201771e+003, 1.176578e+002
1.202253e+003, 1.174583e+002
1.202735e+003, 1.171404e+002
1.203217e+003, 1.168515e+002
1.203700e+003, 1.169219e+002
1.204182e+003, 1.170297e+002
1.204664e+003, 1.164138e+002
1.205146e+003, 1.152497e+002
1.205628e+003, 1.150311e+002
1.206110e+003, 1.166508e+002
1.206592e+003, 1.176410e+002
1.207074e+003, 1.175343e+002
1.207557e+003, 1.169282e+002
1.208039e+003, 1.162452e+002
1.208521e+003, 1.157257e+002
1.209003e+003, 1.159690e+002
1.209485e+003, 1.169332e+002
1.209967e+003, 1.171396e+002
1.210449e+003, 1.160229e+002
1.210931e+003, 1.151266e+002
1.211413e+003, 1.147851e+002
1.211896e+003, 1.147271e+002
1.212378e+003, 1.144893e+002
1.212860e+003, 1.143382e+002
1.213342e+003, 1.148695e+002
1.213824e+003, 1.161460e+002
1.214306e+003, 1.166909e+002
1.214788e+003, 1.159677e+002
1.215270e+003, 1.157163e+002
1.215752e+003, 1.166092e+002
1.216235e+003, 1.176232e+002
1.216717e+003, 1.170536e+002
1.217199e+003, 1.157769e+002
1.217681e+003, 1.150061e+002
1.218163e+003, 1.149268e+002
1.218645e+003, 1.152864e+002
1.219127e+003, 1.163133e+002
1.219609e+003, 1.169332e+002
1.220092e+003, 1.167265e+002
1.220574e+003, 1.161457e+002
1.221056e+003, 1.155962e+002
1.221538e+003, 1.152414e+002
1.222020e+003, 1.154936e+002
1.222502e+003, 1.165644e+002
1.222984e+003, 1.167791e+002
1.223466e+003, 1.158128e+002
1.223948e+003, 1.148507e+002
1.224431e+003, 1.142280e+002
1.224913e+003, 1.140125e+002
1.225395e+003, 1.146881e+002
1.225877e+003, 1.156456e+002
1.226359e+003, 1.159996e+002
1.226841e+003, 1.154419e+002
1.227323e+003, 1.150855e+002
1.227805e+003, 1.150024e+002
1.228287e+003, 1.148441e+002
1.228770e+003, 1.143846e+002
1.229252e+003, 1.139269e+002
1.229734e+003, 1.139117e+002
1.230216e+003, 1.141498e+002
1.230698e+003, 1.144338e+002
1.231180e+003, 1.147860e+002
1.231662e+003, 1.148175e+002
1.232144e+003, 1.144589e+002
1.232627e+003, 1.141929e+002
1.233109e+003, 1.143045e+002
1.233591e+003, 1.145064e+002
1.234073e+003, 1.144835e+002
1.234555e+003, 1.143253e+002
1.235037e+003, 1.141543e+002
1.235519e+003, 1.140000e+002
1.236001e+003, 1.136933e+002
1.236484e+003, 1.131989e+002
1.236966e+003, 1.129008e+002
1.237448e+003, 1.130190e+002
1.237930e+003, 1.133798e+002
1.238412e+003, 1.142043e+002
1.238894e+003, 1.149604e+002
1.239376e+003, 1.147205e+002
1.239858e+003, 1.132275e+002
1.240340e+003, 1.128009e+002
1.240823e+003, 1.134999e+002
1.241305e+003, 1.140086e+002
1.241787e+003, 1.133872e+002
1.242269e+003, 1.126347e+002
1.242751e+003, 1.125211e+002
1.243233e+003, 1.128294e+002
1.243715e+003, 1.133563e+002
1.244197e+003, 1.141467e+002
1.244679e+003, 1.144476e+002
1.245162e+003, 1.142708e+002
1.245644e+003, 1.140599e+002
1.246126e+003, 1.139815e+002
1.246608e+003, 1.140474e+002
1.247090e+003, 1.145370e+002
1.247572e+003, 1.149868e+002
1.248054e+003, 1.148146e+002
1.248536e+003, 1.139860e+002
1.249019e+003, 1.135693e+002
1.249501e+003, 1.135443e+002
1.249983e+003, 1.136688e+002
1.250465e+003, 1.138471e+002
1.250947e+003, 1.140972e+002
1.251429e+003, 1.145601e+002
1.251911e+003, 1.149912e+002
1.252393e+003, 1.150836e+002
1.252875e+003, 1.148689e+002
1.253358e+003, 1.151176e+002
1.253840e+003, 1.157427e+002
1.254322e+003, 1.161820e+002
1.254804e+003, 1.160853e+002
1.255286e+003, 1.158182e+002
1.255768e+003, 1.155379e+002
1.256250e+003, 1.151010e+002
1.256732e+003, 1.141199e+002
1.257214e+003, 1.128204e+002
1.257697e+003, 1.128431e+002
1.258179e+003, 1.139129e+002
1.258661e+003, 1.147341e+002
1.259143e+003, 1.144512e+002
1.259625e+003, 1.142627e+002
1.260107e+003, 1.144715e+002
1.260589e+003, 1.147224e+002
1.261071e+003, 1.147059e+002
1.261554e+003, 1.144927e+002
1.262036e+003, 1.142378e+002
1.262518e+003, 1.139808e+002
1.263000e+003, 1.138415e+002
1.263482e+003, 1.140269e+002
1.263964e+003, 1.140464e+002
1.264446e+003, 1.137389e+002
1.264928e+003, 1.135326e+002
1.265411e+003, 1.140329e+002
1.265893e+003, 1.147475e+002
1.266375e+003, 1.145057e+002
1.266857e+003, 1.136918e+002
1.267339e+003, 1.133770e+002
1.267821e+003, 1.144535e+002
1.268303e+003, 1.148671e+002
1.268785e+003, 1.144485e+002
1.269267e+003, 1.138545e+002
1.269750e+003, 1.136046e+002
1.270232e+003, 1.134865e+002
1.270714e+003, 1.130688e+002
1.271196e+003, 1.125898e+002
1.271678e+003, 1.126860e+002
1.272160e+003, 1.137049e+002
1.272642e+003, 1.142695e+002
1.273124e+003, 1.143192e+002
1.273606e+003, 1.141199e+002
1.274089e+003, 1.135321e+002
1.274571e+003, 1.130964e+002
1.275053e+003, 1.135194e+002
1.275535e+003, 1.143502e+002
1.276017e+003, 1.147847e+002
1.276499e+003, 1.147473e+002
1.276981e+003, 1.147481e+002
1.277463e+003, 1.147942e+002
1.277946e+003, 1.145743e+002
1.278428e+003, 1.134622e+002
1.278910e+003, 1.124987e+002
1.279392e+003, 1.124787e+002
1.279874e+003, 1.128914e+002
1.280356e+003, 1.131557e+002
1.280838e+003, 1.132729e+002
1.281320e+003, 1.134305e+002
1.281802e+003, 1.136247e+002
1.282285e+003, 1.137988e+002
1.282767e+003, 1.139484e+002
1.283249e+003, 1.140357e+002
1.283731e+003, 1.139835e+002
1.284213e+003, 1.139308e+002
1.284695e+003, 1.140942e+002
1.285177e+003, 1.143657e+002
1.285659e+003, 1.140729e+002
1.286141e+003, 1.133785e+002
1.286624e+003, 1.129736e+002
1.287106e+003, 1.134232e+002
1.287588e+003, 1.137835e+002
1.288070e+003, 1.138695e+002
1.288552e+003, 1.139537e+002
1.289034e+003, 1.143800e+002
1.289516e+003, 1.149096e+002
1.289998e+003, 1.149002e+002
1.290481e+003, 1.145506e+002
1.290963e+003, 1.143754e+002
1.291445e+003, 1.145833e+002
1.291927e+003, 1.149420e+002
1.292409e+003, 1.155500e+002
1.292891e+003, 1.159173e+002
1.293373e+003, 1.155822e+002
1.293855e+003, 1.148977e+002
1.294338e+003, 1.139178e+002
1.294820e+003, 1.130380e+002
1.295302e+003, 1.131885e+002
1.295784e+003, 1.148590e+002
1.296266e+003, 1.154681e+002
1.296748e+003, 1.149547e+002
1.297230e+003, 1.144803e+002
1.297712e+003, 1.151528e+002
1.298194e+003, 1.156682e+002
1.298677e+003, 1.144069e+002
1.299159e+003, 1.127913e+002
1.299641e+003, 1.126887e+002
1.300123e+003, 1.141529e+002
1.300605e+003, 1.146134e+002
1.301087e+003, 1.141814e+002
1.301569e+003, 1.138710e+002
1.302051e+003, 1.143911e+002
1.302533e+003, 1.147896e+002
1.303016e+003, 1.147477e+002
##END=



