##NAMES=Adanite
##RRUFFID=R190033
##IDEAL CHEMISTRY=Pb^2+^_2_(Te^4+^O_3_)(S^6+^O_4_)
##LOCALITY=Tombstone, Cochise County, Arizona, USA
##OWNER=RRUFF
##SOURCE=John Callahan
##DESCRIPTION=White massive crystalline aggregates on small euhedral jarosite crystals coating the surface of the matrix
##STATUS=The identification of this mineral is confirmed by single-crystal X-ray diffraction and chemical analysis.
##URL=rruff.info/R190033
##MEASURED CHEMISTRY=Pb_2.02_(Te_1.01_O_3_)(S_0.99_O_4_)
8.813672e+001, 1.684694e+003
8.861884e+001, 1.704181e+003
8.910095e+001, 1.726038e+003
8.958307e+001, 1.757537e+003
9.006519e+001, 1.789251e+003
9.054730e+001, 1.808402e+003
9.102942e+001, 1.816417e+003
9.151154e+001, 1.820900e+003
9.199365e+001, 1.826758e+003
9.247577e+001, 1.834656e+003
9.295789e+001, 1.845464e+003
9.344000e+001, 1.860031e+003
9.392212e+001, 1.876851e+003
9.440424e+001, 1.895979e+003
9.488635e+001, 1.919611e+003
9.536847e+001, 1.945030e+003
9.585059e+001, 1.967616e+003
9.633270e+001, 1.987428e+003
9.681482e+001, 2.006113e+003
9.729694e+001, 2.025606e+003
9.777905e+001, 2.045634e+003
9.826117e+001, 2.060551e+003
9.874329e+001, 2.069781e+003
9.922540e+001, 2.073710e+003
9.970752e+001, 2.071986e+003
1.001896e+002, 2.063356e+003
1.006718e+002, 2.053751e+003
1.011539e+002, 2.047175e+003
1.016360e+002, 2.044053e+003
1.021181e+002, 2.041590e+003
1.026002e+002, 2.039071e+003
1.030823e+002, 2.036851e+003
1.035645e+002, 2.037907e+003
1.040466e+002, 2.044196e+003
1.045287e+002, 2.051313e+003
1.050108e+002, 2.055405e+003
1.054929e+002, 2.053987e+003
1.059750e+002, 2.054382e+003
1.064572e+002, 2.058376e+003
1.069393e+002, 2.066513e+003
1.074214e+002, 2.074066e+003
1.079035e+002, 2.080041e+003
1.083856e+002, 2.086238e+003
1.088677e+002, 2.094489e+003
1.093499e+002, 2.102480e+003
1.098320e+002, 2.115077e+003
1.103141e+002, 2.133742e+003
1.107962e+002, 2.160150e+003
1.112783e+002, 2.188374e+003
1.117604e+002, 2.219303e+003
1.122426e+002, 2.251942e+003
1.127247e+002, 2.284185e+003
1.132068e+002, 2.318658e+003
1.136889e+002, 2.350521e+003
1.141710e+002, 2.377192e+003
1.146531e+002, 2.396382e+003
1.151353e+002, 2.414138e+003
1.156174e+002, 2.431225e+003
1.160995e+002, 2.448077e+003
1.165816e+002, 2.466039e+003
1.170637e+002, 2.488216e+003
1.175458e+002, 2.510022e+003
1.180280e+002, 2.528352e+003
1.185101e+002, 2.539981e+003
1.189922e+002, 2.550878e+003
1.194743e+002, 2.564248e+003
1.199564e+002, 2.579615e+003
1.204385e+002, 2.594652e+003
1.209207e+002, 2.606469e+003
1.214028e+002, 2.617702e+003
1.218849e+002, 2.631375e+003
1.223670e+002, 2.651268e+003
1.228491e+002, 2.672088e+003
1.233312e+002, 2.689269e+003
1.238134e+002, 2.702853e+003
1.242955e+002, 2.713617e+003
1.247776e+002, 2.721932e+003
1.252597e+002, 2.727704e+003
1.257418e+002, 2.730855e+003
1.262239e+002, 2.729322e+003
1.267061e+002, 2.725532e+003
1.271882e+002, 2.723245e+003
1.276703e+002, 2.722437e+003
1.281524e+002, 2.722908e+003
1.286345e+002, 2.725012e+003
1.291166e+002, 2.728458e+003
1.295988e+002, 2.731931e+003
1.300809e+002, 2.734741e+003
1.305630e+002, 2.737094e+003
1.310451e+002, 2.738863e+003
1.315272e+002, 2.739329e+003
1.320093e+002, 2.741555e+003
1.324915e+002, 2.752101e+003
1.329736e+002, 2.770930e+003
1.334557e+002, 2.788621e+003
1.339378e+002, 2.798296e+003
1.344199e+002, 2.800508e+003
1.349020e+002, 2.805641e+003
1.353842e+002, 2.815029e+003
1.358663e+002, 2.826587e+003
1.363484e+002, 2.835754e+003
1.368305e+002, 2.841647e+003
1.373126e+002, 2.848623e+003
1.377947e+002, 2.859240e+003
1.382769e+002, 2.873762e+003
1.387590e+002, 2.890412e+003
1.392411e+002, 2.909867e+003
1.397232e+002, 2.931104e+003
1.402053e+002, 2.949059e+003
1.406874e+002, 2.963591e+003
1.411696e+002, 2.975754e+003
1.416517e+002, 2.985303e+003
1.421338e+002, 2.990182e+003
1.426159e+002, 2.998897e+003
1.430980e+002, 3.014087e+003
1.435801e+002, 3.035066e+003
1.440623e+002, 3.053058e+003
1.445444e+002, 3.065010e+003
1.450265e+002, 3.077617e+003
1.455086e+002, 3.096508e+003
1.459907e+002, 3.127661e+003
1.464728e+002, 3.156034e+003
1.469550e+002, 3.179292e+003
1.474371e+002, 3.197043e+003
1.479192e+002, 3.214776e+003
1.484013e+002, 3.237359e+003
1.488834e+002, 3.257000e+003
1.493655e+002, 3.266601e+003
1.498477e+002, 3.259549e+003
1.503298e+002, 3.249255e+003
1.508119e+002, 3.238958e+003
1.512940e+002, 3.230004e+003
1.517761e+002, 3.213514e+003
1.522583e+002, 3.187938e+003
1.527404e+002, 3.155490e+003
1.532225e+002, 3.118179e+003
1.537046e+002, 3.070005e+003
1.541867e+002, 3.023024e+003
1.546688e+002, 2.981002e+003
1.551510e+002, 2.944939e+003
1.556331e+002, 2.908988e+003
1.561152e+002, 2.870959e+003
1.565973e+002, 2.833115e+003
1.570794e+002, 2.798853e+003
1.575615e+002, 2.769900e+003
1.580437e+002, 2.743476e+003
1.585258e+002, 2.717616e+003
1.590079e+002, 2.690378e+003
1.594900e+002, 2.669085e+003
1.599721e+002, 2.660401e+003
1.604542e+002, 2.658692e+003
1.609364e+002, 2.654083e+003
1.614185e+002, 2.639440e+003
1.619006e+002, 2.623471e+003
1.623827e+002, 2.611117e+003
1.628648e+002, 2.604082e+003
1.633469e+002, 2.598412e+003
1.638291e+002, 2.593005e+003
1.643112e+002, 2.587700e+003
1.647933e+002, 2.582022e+003
1.652754e+002, 2.574665e+003
1.657575e+002, 2.567481e+003
1.662396e+002, 2.562298e+003
1.667218e+002, 2.561018e+003
1.672039e+002, 2.558898e+003
1.676860e+002, 2.551462e+003
1.681681e+002, 2.540461e+003
1.686502e+002, 2.531083e+003
1.691323e+002, 2.526332e+003
1.696145e+002, 2.524715e+003
1.700966e+002, 2.525021e+003
1.705787e+002, 2.527828e+003
1.710608e+002, 2.531177e+003
1.715429e+002, 2.533245e+003
1.720250e+002, 2.534323e+003
1.725072e+002, 2.535732e+003
1.729893e+002, 2.539519e+003
1.734714e+002, 2.543810e+003
1.739535e+002, 2.545965e+003
1.744356e+002, 2.544691e+003
1.749177e+002, 2.541648e+003
1.753999e+002, 2.537404e+003
1.758820e+002, 2.532242e+003
1.763641e+002, 2.528836e+003
1.768462e+002, 2.530735e+003
1.773283e+002, 2.535569e+003
1.778104e+002, 2.538835e+003
1.782926e+002, 2.538813e+003
1.787747e+002, 2.537024e+003
1.792568e+002, 2.535058e+003
1.797389e+002, 2.533002e+003
1.802210e+002, 2.531619e+003
1.807031e+002, 2.532015e+003
1.811853e+002, 2.533688e+003
1.816674e+002, 2.535305e+003
1.821495e+002, 2.536541e+003
1.826316e+002, 2.537427e+003
1.831137e+002, 2.537879e+003
1.835958e+002, 2.537879e+003
1.840780e+002, 2.537769e+003
1.845601e+002, 2.537632e+003
1.850422e+002, 2.537554e+003
1.855243e+002, 2.537930e+003
1.860064e+002, 2.538608e+003
1.864885e+002, 2.539888e+003
1.869707e+002, 2.543034e+003
1.874528e+002, 2.548249e+003
1.879349e+002, 2.553573e+003
1.884170e+002, 2.557240e+003
1.888991e+002, 2.559323e+003
1.893812e+002, 2.560076e+003
1.898634e+002, 2.557988e+003
1.903455e+002, 2.554741e+003
1.908276e+002, 2.558144e+003
1.913097e+002, 2.569407e+003
1.917918e+002, 2.581121e+003
1.922739e+002, 2.583806e+003
1.927561e+002, 2.577646e+003
1.932382e+002, 2.571962e+003
1.937203e+002, 2.569350e+003
1.942024e+002, 2.569601e+003
1.946845e+002, 2.572059e+003
1.951666e+002, 2.576939e+003
1.956488e+002, 2.582992e+003
1.961309e+002, 2.589294e+003
1.966130e+002, 2.595976e+003
1.970951e+002, 2.601226e+003
1.975772e+002, 2.604707e+003
1.980593e+002, 2.606377e+003
1.985415e+002, 2.604998e+003
1.990236e+002, 2.599714e+003
1.995057e+002, 2.593854e+003
1.999878e+002, 2.591961e+003
2.004699e+002, 2.594521e+003
2.009520e+002, 2.598146e+003
2.014342e+002, 2.602155e+003
2.019163e+002, 2.606607e+003
2.023984e+002, 2.610214e+003
2.028805e+002, 2.612846e+003
2.033626e+002, 2.615102e+003
2.038447e+002, 2.617266e+003
2.043269e+002, 2.618934e+003
2.048090e+002, 2.622692e+003
2.052911e+002, 2.630441e+003
2.057732e+002, 2.642362e+003
2.062553e+002, 2.649967e+003
2.067374e+002, 2.651460e+003
2.072196e+002, 2.651271e+003
2.077017e+002, 2.655873e+003
2.081838e+002, 2.666445e+003
2.086659e+002, 2.677451e+003
2.091480e+002, 2.687137e+003
2.096301e+002, 2.695500e+003
2.101123e+002, 2.702710e+003
2.105944e+002, 2.708151e+003
2.110765e+002, 2.713237e+003
2.115586e+002, 2.720283e+003
2.120407e+002, 2.730187e+003
2.125228e+002, 2.739445e+003
2.130050e+002, 2.746681e+003
2.134871e+002, 2.751607e+003
2.139692e+002, 2.756764e+003
2.144513e+002, 2.761679e+003
2.149334e+002, 2.767344e+003
2.154155e+002, 2.775850e+003
2.158977e+002, 2.788997e+003
2.163798e+002, 2.800595e+003
2.168619e+002, 2.807905e+003
2.173440e+002, 2.810030e+003
2.178261e+002, 2.815409e+003
2.183082e+002, 2.825462e+003
2.187904e+002, 2.837330e+003
2.192725e+002, 2.846916e+003
2.197546e+002, 2.853228e+003
2.202367e+002, 2.859413e+003
2.207188e+002, 2.866545e+003
2.212009e+002, 2.875057e+003
2.216831e+002, 2.882263e+003
2.221652e+002, 2.887958e+003
2.226473e+002, 2.892629e+003
2.231294e+002, 2.897369e+003
2.236115e+002, 2.904427e+003
2.240936e+002, 2.907046e+003
2.245758e+002, 2.902001e+003
2.250579e+002, 2.887693e+003
2.255400e+002, 2.877590e+003
2.260221e+002, 2.873927e+003
2.265042e+002, 2.872466e+003
2.269863e+002, 2.867412e+003
2.274685e+002, 2.855961e+003
2.279506e+002, 2.846021e+003
2.284327e+002, 2.840149e+003
2.289148e+002, 2.839000e+003
2.293969e+002, 2.836089e+003
2.298790e+002, 2.830188e+003
2.303612e+002, 2.823472e+003
2.308433e+002, 2.818344e+003
2.313254e+002, 2.813965e+003
2.318075e+002, 2.812602e+003
2.322896e+002, 2.815674e+003
2.327717e+002, 2.823828e+003
2.332539e+002, 2.830098e+003
2.337360e+002, 2.834393e+003
2.342181e+002, 2.836769e+003
2.347002e+002, 2.836687e+003
2.351823e+002, 2.831081e+003
2.356644e+002, 2.828720e+003
2.361466e+002, 2.832236e+003
2.366287e+002, 2.842158e+003
2.371108e+002, 2.851816e+003
2.375929e+002, 2.860934e+003
2.380750e+002, 2.869998e+003
2.385571e+002, 2.879488e+003
2.390393e+002, 2.889645e+003
2.395214e+002, 2.899907e+003
2.400035e+002, 2.909924e+003
2.404856e+002, 2.919722e+003
2.409677e+002, 2.930799e+003
2.414498e+002, 2.943471e+003
2.419320e+002, 2.957072e+003
2.424141e+002, 2.971192e+003
2.428962e+002, 2.986085e+003
2.433783e+002, 3.000768e+003
2.438604e+002, 3.014467e+003
2.443425e+002, 3.027122e+003
2.448247e+002, 3.042257e+003
2.453068e+002, 3.061543e+003
2.457889e+002, 3.081368e+003
2.462710e+002, 3.098676e+003
2.467531e+002, 3.111849e+003
2.472352e+002, 3.125632e+003
2.477174e+002, 3.141219e+003
2.481995e+002, 3.158336e+003
2.486816e+002, 3.173948e+003
2.491637e+002, 3.187152e+003
2.496458e+002, 3.200147e+003
2.501279e+002, 3.214082e+003
2.506101e+002, 3.227541e+003
2.510922e+002, 3.245784e+003
2.515743e+002, 3.270919e+003
2.520564e+002, 3.302107e+003
2.525385e+002, 3.331391e+003
2.530206e+002, 3.359143e+003
2.535028e+002, 3.384809e+003
2.539849e+002, 3.406518e+003
2.544670e+002, 3.421008e+003
2.549491e+002, 3.440189e+003
2.554312e+002, 3.467141e+003
2.559133e+002, 3.499796e+003
2.563955e+002, 3.528973e+003
2.568776e+002, 3.554434e+003
2.573597e+002, 3.576563e+003
2.578418e+002, 3.595121e+003
2.583239e+002, 3.608865e+003
2.588061e+002, 3.622755e+003
2.592882e+002, 3.638736e+003
2.597703e+002, 3.654984e+003
2.602524e+002, 3.664584e+003
2.607345e+002, 3.667331e+003
2.612166e+002, 3.664148e+003
2.616988e+002, 3.654675e+003
2.621809e+002, 3.637372e+003
2.626630e+002, 3.620070e+003
2.631451e+002, 3.604458e+003
2.636272e+002, 3.588701e+003
2.641093e+002, 3.568401e+003
2.645915e+002, 3.543428e+003
2.650736e+002, 3.514152e+003
2.655557e+002, 3.478729e+003
2.660378e+002, 3.435204e+003
2.665199e+002, 3.396562e+003
2.670020e+002, 3.364418e+003
2.674842e+002, 3.336413e+003
2.679663e+002, 3.308500e+003
2.684484e+002, 3.280675e+003
2.689305e+002, 3.253050e+003
2.694126e+002, 3.225793e+003
2.698947e+002, 3.198329e+003
2.703769e+002, 3.172089e+003
2.708590e+002, 3.146620e+003
2.713411e+002, 3.122532e+003
2.718232e+002, 3.101712e+003
2.723053e+002, 3.084735e+003
2.727874e+002, 3.068513e+003
2.732696e+002, 3.051091e+003
2.737517e+002, 3.032183e+003
2.742338e+002, 3.017573e+003
2.747159e+002, 3.008470e+003
2.751980e+002, 3.001106e+003
2.756801e+002, 2.989913e+003
2.761623e+002, 2.974035e+003
2.766444e+002, 2.959640e+003
2.771265e+002, 2.949186e+003
2.776086e+002, 2.942321e+003
2.780907e+002, 2.934778e+003
2.785728e+002, 2.926372e+003
2.790550e+002, 2.917918e+003
2.795371e+002, 2.909884e+003
2.800192e+002, 2.902198e+003
2.805013e+002, 2.896771e+003
2.809834e+002, 2.895423e+003
2.814655e+002, 2.896828e+003
2.819477e+002, 2.892831e+003
2.824298e+002, 2.882324e+003
2.829119e+002, 2.871891e+003
2.833940e+002, 2.869174e+003
2.838761e+002, 2.873989e+003
2.843582e+002, 2.875679e+003
2.848404e+002, 2.870716e+003
2.853225e+002, 2.861713e+003
2.858046e+002, 2.856465e+003
2.862867e+002, 2.855133e+003
2.867688e+002, 2.856024e+003
2.872509e+002, 2.859073e+003
2.877331e+002, 2.863847e+003
2.882152e+002, 2.866391e+003
2.886973e+002, 2.865551e+003
2.891794e+002, 2.862763e+003
2.896615e+002, 2.860689e+003
2.901436e+002, 2.859314e+003
2.906258e+002, 2.858933e+003
2.911079e+002, 2.859901e+003
2.915900e+002, 2.862080e+003
2.920721e+002, 2.865189e+003
2.925542e+002, 2.869617e+003
2.930363e+002, 2.873946e+003
2.935185e+002, 2.875813e+003
2.940006e+002, 2.875389e+003
2.944827e+002, 2.874184e+003
2.949648e+002, 2.871929e+003
2.954469e+002, 2.869535e+003
2.959290e+002, 2.870044e+003
2.964112e+002, 2.874135e+003
2.968933e+002, 2.878827e+003
2.973754e+002, 2.879492e+003
2.978575e+002, 2.877307e+003
2.983396e+002, 2.876666e+003
2.988217e+002, 2.881449e+003
2.993039e+002, 2.888687e+003
2.997860e+002, 2.893035e+003
3.002681e+002, 2.894281e+003
3.007502e+002, 2.894039e+003
3.012323e+002, 2.892218e+003
3.017144e+002, 2.890015e+003
3.021966e+002, 2.890404e+003
3.026787e+002, 2.898377e+003
3.031608e+002, 2.907420e+003
3.036429e+002, 2.908132e+003
3.041250e+002, 2.900903e+003
3.046071e+002, 2.893498e+003
3.050893e+002, 2.891783e+003
3.055714e+002, 2.893935e+003
3.060535e+002, 2.897159e+003
3.065356e+002, 2.901189e+003
3.070177e+002, 2.905313e+003
3.074998e+002, 2.908944e+003
3.079820e+002, 2.912109e+003
3.084641e+002, 2.914789e+003
3.089462e+002, 2.916754e+003
3.094283e+002, 2.918326e+003
3.099104e+002, 2.919586e+003
3.103925e+002, 2.919633e+003
3.108747e+002, 2.920993e+003
3.113568e+002, 2.926550e+003
3.118389e+002, 2.934989e+003
3.123210e+002, 2.942581e+003
3.128031e+002, 2.947612e+003
3.132852e+002, 2.951107e+003
3.137674e+002, 2.953373e+003
3.142495e+002, 2.953605e+003
3.147316e+002, 2.955270e+003
3.152137e+002, 2.960871e+003
3.156958e+002, 2.968971e+003
3.161779e+002, 2.977107e+003
3.166601e+002, 2.984551e+003
3.171422e+002, 2.991646e+003
3.176243e+002, 2.998407e+003
3.181064e+002, 3.004714e+003
3.185885e+002, 3.011168e+003
3.190706e+002, 3.018615e+003
3.195528e+002, 3.026108e+003
3.200349e+002, 3.032569e+003
3.205170e+002, 3.035605e+003
3.209991e+002, 3.039587e+003
3.214812e+002, 3.046447e+003
3.219633e+002, 3.056285e+003
3.224455e+002, 3.065618e+003
3.229276e+002, 3.072930e+003
3.234097e+002, 3.079950e+003
3.238918e+002, 3.087967e+003
3.243739e+002, 3.095584e+003
3.248560e+002, 3.105913e+003
3.253382e+002, 3.122866e+003
3.258203e+002, 3.144693e+003
3.263024e+002, 3.159319e+003
3.267845e+002, 3.158556e+003
3.272666e+002, 3.155904e+003
3.277487e+002, 3.157932e+003
3.282309e+002, 3.170346e+003
3.287130e+002, 3.179682e+003
3.291951e+002, 3.184129e+003
3.296772e+002, 3.185545e+003
3.301593e+002, 3.188799e+003
3.306414e+002, 3.197664e+003
3.311236e+002, 3.203996e+003
3.316057e+002, 3.204375e+003
3.320878e+002, 3.195935e+003
3.325699e+002, 3.190456e+003
3.330520e+002, 3.190066e+003
3.335341e+002, 3.191369e+003
3.340163e+002, 3.189478e+003
3.344984e+002, 3.183691e+003
3.349805e+002, 3.176076e+003
3.354626e+002, 3.166105e+003
3.359447e+002, 3.153518e+003
3.364268e+002, 3.145660e+003
3.369090e+002, 3.144945e+003
3.373911e+002, 3.145172e+003
3.378732e+002, 3.139491e+003
3.383553e+002, 3.125956e+003
3.388374e+002, 3.114361e+003
3.393195e+002, 3.106208e+003
3.398017e+002, 3.101260e+003
3.402838e+002, 3.098704e+003
3.407659e+002, 3.098995e+003
3.412480e+002, 3.099817e+003
3.417301e+002, 3.099870e+003
3.422122e+002, 3.099127e+003
3.426944e+002, 3.096432e+003
3.431765e+002, 3.090727e+003
3.436586e+002, 3.084337e+003
3.441407e+002, 3.082805e+003
3.446228e+002, 3.086237e+003
3.451049e+002, 3.090118e+003
3.455871e+002, 3.091549e+003
3.460692e+002, 3.091207e+003
3.465513e+002, 3.092668e+003
3.470334e+002, 3.096268e+003
3.475155e+002, 3.101018e+003
3.479977e+002, 3.106491e+003
3.484798e+002, 3.112389e+003
3.489619e+002, 3.116652e+003
3.494440e+002, 3.117053e+003
3.499261e+002, 3.115741e+003
3.504082e+002, 3.116135e+003
3.508904e+002, 3.118207e+003
3.513725e+002, 3.123560e+003
3.518546e+002, 3.137811e+003
3.523367e+002, 3.156089e+003
3.528188e+002, 3.167832e+003
3.533009e+002, 3.166717e+003
3.537831e+002, 3.161852e+003
3.542652e+002, 3.163866e+003
3.547473e+002, 3.171313e+003
3.552294e+002, 3.177659e+003
3.557115e+002, 3.178779e+003
3.561936e+002, 3.176689e+003
3.566758e+002, 3.173275e+003
3.571579e+002, 3.168436e+003
3.576400e+002, 3.163722e+003
3.581221e+002, 3.159756e+003
3.586042e+002, 3.156817e+003
3.590863e+002, 3.155298e+003
3.595685e+002, 3.154344e+003
3.600506e+002, 3.155734e+003
3.605327e+002, 3.161865e+003
3.610148e+002, 3.173566e+003
3.614969e+002, 3.183722e+003
3.619790e+002, 3.188545e+003
3.624612e+002, 3.190538e+003
3.629433e+002, 3.192442e+003
3.634254e+002, 3.192479e+003
3.639075e+002, 3.194882e+003
3.643896e+002, 3.201635e+003
3.648717e+002, 3.212380e+003
3.653539e+002, 3.223390e+003
3.658360e+002, 3.233146e+003
3.663181e+002, 3.243253e+003
3.668002e+002, 3.254899e+003
3.672823e+002, 3.272687e+003
3.677644e+002, 3.286204e+003
3.682466e+002, 3.292260e+003
3.687287e+002, 3.293384e+003
3.692108e+002, 3.296626e+003
3.696929e+002, 3.303685e+003
3.701750e+002, 3.311190e+003
3.706571e+002, 3.318323e+003
3.711393e+002, 3.325781e+003
3.716214e+002, 3.330722e+003
3.721035e+002, 3.331744e+003
3.725856e+002, 3.331433e+003
3.730677e+002, 3.333129e+003
3.735498e+002, 3.337657e+003
3.740320e+002, 3.342616e+003
3.745141e+002, 3.347445e+003
3.749962e+002, 3.352210e+003
3.754783e+002, 3.357854e+003
3.759604e+002, 3.364610e+003
3.764425e+002, 3.371741e+003
3.769247e+002, 3.378161e+003
3.774068e+002, 3.383428e+003
3.778889e+002, 3.391573e+003
3.783710e+002, 3.404107e+003
3.788531e+002, 3.418710e+003
3.793352e+002, 3.429553e+003
3.798174e+002, 3.436223e+003
3.802995e+002, 3.442739e+003
3.807816e+002, 3.451629e+003
3.812637e+002, 3.462455e+003
3.817458e+002, 3.472580e+003
3.822279e+002, 3.482384e+003
3.827101e+002, 3.489579e+003
3.831922e+002, 3.489697e+003
3.836743e+002, 3.484120e+003
3.841564e+002, 3.479716e+003
3.846385e+002, 3.481733e+003
3.851206e+002, 3.485253e+003
3.856028e+002, 3.480407e+003
3.860849e+002, 3.467549e+003
3.865670e+002, 3.453421e+003
3.870491e+002, 3.442969e+003
3.875312e+002, 3.434787e+003
3.880133e+002, 3.426559e+003
3.884955e+002, 3.417934e+003
3.889776e+002, 3.408903e+003
3.894597e+002, 3.398704e+003
3.899418e+002, 3.388081e+003
3.904239e+002, 3.379085e+003
3.909060e+002, 3.372202e+003
3.913882e+002, 3.367776e+003
3.918703e+002, 3.366749e+003
3.923524e+002, 3.369806e+003
3.928345e+002, 3.372877e+003
3.933166e+002, 3.373006e+003
3.937987e+002, 3.372289e+003
3.942809e+002, 3.373366e+003
3.947630e+002, 3.376778e+003
3.952451e+002, 3.382267e+003
3.957272e+002, 3.390508e+003
3.962093e+002, 3.401295e+003
3.966914e+002, 3.411933e+003
3.971736e+002, 3.420348e+003
3.976557e+002, 3.429409e+003
3.981378e+002, 3.440918e+003
3.986199e+002, 3.456600e+003
3.991020e+002, 3.472572e+003
3.995841e+002, 3.488148e+003
4.000663e+002, 3.503946e+003
4.005484e+002, 3.521578e+003
4.010305e+002, 3.542598e+003
4.015126e+002, 3.563465e+003
4.019947e+002, 3.582650e+003
4.024768e+002, 3.599176e+003
4.029590e+002, 3.618314e+003
4.034411e+002, 3.640576e+003
4.039232e+002, 3.664885e+003
4.044053e+002, 3.690834e+003
4.048874e+002, 3.719896e+003
4.053695e+002, 3.745792e+003
4.058517e+002, 3.767172e+003
4.063338e+002, 3.784632e+003
4.068159e+002, 3.801299e+003
4.072980e+002, 3.817137e+003
4.077801e+002, 3.832582e+003
4.082622e+002, 3.848940e+003
4.087444e+002, 3.865934e+003
4.092265e+002, 3.878705e+003
4.097086e+002, 3.887213e+003
4.101907e+002, 3.890323e+003
4.106728e+002, 3.885025e+003
4.111549e+002, 3.872078e+003
4.116371e+002, 3.856535e+003
4.121192e+002, 3.842609e+003
4.126013e+002, 3.827245e+003
4.130834e+002, 3.802689e+003
4.135655e+002, 3.768995e+003
4.140476e+002, 3.733905e+003
4.145298e+002, 3.703415e+003
4.150119e+002, 3.675754e+003
4.154940e+002, 3.647035e+003
4.159761e+002, 3.614829e+003
4.164582e+002, 3.583884e+003
4.169403e+002, 3.559517e+003
4.174225e+002, 3.540146e+003
4.179046e+002, 3.521337e+003
4.183867e+002, 3.500050e+003
4.188688e+002, 3.479523e+003
4.193509e+002, 3.462803e+003
4.198330e+002, 3.450739e+003
4.203152e+002, 3.439205e+003
4.207973e+002, 3.426107e+003
4.212794e+002, 3.412770e+003
4.217615e+002, 3.400649e+003
4.222436e+002, 3.390381e+003
4.227257e+002, 3.381130e+003
4.232079e+002, 3.371082e+003
4.236900e+002, 3.360756e+003
4.241721e+002, 3.356081e+003
4.246542e+002, 3.362313e+003
4.251363e+002, 3.370458e+003
4.256184e+002, 3.375850e+003
4.261006e+002, 3.373184e+003
4.265827e+002, 3.377477e+003
4.270648e+002, 3.391957e+003
4.275469e+002, 3.411744e+003
4.280290e+002, 3.427962e+003
4.285111e+002, 3.439507e+003
4.289933e+002, 3.449691e+003
4.294754e+002, 3.458376e+003
4.299575e+002, 3.465748e+003
4.304396e+002, 3.478053e+003
4.309217e+002, 3.496736e+003
4.314038e+002, 3.516175e+003
4.318860e+002, 3.531580e+003
4.323681e+002, 3.542956e+003
4.328502e+002, 3.552387e+003
4.333323e+002, 3.561678e+003
4.338144e+002, 3.566927e+003
4.342965e+002, 3.559343e+003
4.347787e+002, 3.539495e+003
4.352608e+002, 3.514606e+003
4.357429e+002, 3.486313e+003
4.362250e+002, 3.456161e+003
4.367071e+002, 3.425986e+003
4.371892e+002, 3.395516e+003
4.376714e+002, 3.370203e+003
4.381535e+002, 3.356248e+003
4.386356e+002, 3.351009e+003
4.391177e+002, 3.350311e+003
4.395998e+002, 3.354799e+003
4.400819e+002, 3.361081e+003
4.405641e+002, 3.365414e+003
4.410462e+002, 3.368964e+003
4.415283e+002, 3.375902e+003
4.420104e+002, 3.390557e+003
4.424925e+002, 3.407833e+003
4.429746e+002, 3.423287e+003
4.434568e+002, 3.434873e+003
4.439389e+002, 3.450747e+003
4.444210e+002, 3.476476e+003
4.449031e+002, 3.506799e+003
4.453852e+002, 3.535543e+003
4.458673e+002, 3.560585e+003
4.463495e+002, 3.584383e+003
4.468316e+002, 3.608312e+003
4.473137e+002, 3.632045e+003
4.477958e+002, 3.652028e+003
4.482779e+002, 3.671342e+003
4.487600e+002, 3.683499e+003
4.492422e+002, 3.685598e+003
4.497243e+002, 3.678224e+003
4.502064e+002, 3.658525e+003
4.506885e+002, 3.623196e+003
4.511706e+002, 3.578448e+003
4.516527e+002, 3.533347e+003
4.521349e+002, 3.486391e+003
4.526170e+002, 3.444756e+003
4.530991e+002, 3.411680e+003
4.535812e+002, 3.385869e+003
4.540633e+002, 3.362144e+003
4.545454e+002, 3.340179e+003
4.550276e+002, 3.321186e+003
4.555097e+002, 3.306726e+003
4.559918e+002, 3.296266e+003
4.564739e+002, 3.288210e+003
4.569560e+002, 3.282564e+003
4.574381e+002, 3.278107e+003
4.579203e+002, 3.272375e+003
4.584024e+002, 3.266214e+003
4.588845e+002, 3.262377e+003
4.593666e+002, 3.264209e+003
4.598488e+002, 3.267868e+003
4.603309e+002, 3.268985e+003
4.608130e+002, 3.267580e+003
4.612951e+002, 3.265748e+003
4.617772e+002, 3.264582e+003
4.622593e+002, 3.263775e+003
4.627415e+002, 3.263110e+003
4.632236e+002, 3.262712e+003
4.637057e+002, 3.262195e+003
4.641878e+002, 3.260198e+003
4.646699e+002, 3.258153e+003
4.651520e+002, 3.258792e+003
4.656342e+002, 3.268422e+003
4.661163e+002, 3.275594e+003
4.665984e+002, 3.275123e+003
4.670805e+002, 3.265517e+003
4.675626e+002, 3.259738e+003
4.680447e+002, 3.259315e+003
4.685269e+002, 3.261718e+003
4.690090e+002, 3.265605e+003
4.694911e+002, 3.272693e+003
4.699732e+002, 3.277591e+003
4.704553e+002, 3.279740e+003
4.709374e+002, 3.279649e+003
4.714196e+002, 3.277971e+003
4.719017e+002, 3.274021e+003
4.723838e+002, 3.271009e+003
4.728659e+002, 3.270381e+003
4.733480e+002, 3.271956e+003
4.738301e+002, 3.274162e+003
4.743123e+002, 3.277292e+003
4.747944e+002, 3.279371e+003
4.752765e+002, 3.277218e+003
4.757586e+002, 3.272098e+003
4.762407e+002, 3.269591e+003
4.767228e+002, 3.271340e+003
4.772050e+002, 3.274885e+003
4.776871e+002, 3.277065e+003
4.781692e+002, 3.278259e+003
4.786513e+002, 3.279650e+003
4.791334e+002, 3.282055e+003
4.796155e+002, 3.284778e+003
4.800977e+002, 3.287031e+003
4.805798e+002, 3.288779e+003
4.810619e+002, 3.290755e+003
4.815440e+002, 3.294410e+003
4.820261e+002, 3.297919e+003
4.825082e+002, 3.299591e+003
4.829904e+002, 3.297814e+003
4.834725e+002, 3.296033e+003
4.839546e+002, 3.295089e+003
4.844367e+002, 3.294839e+003
4.849188e+002, 3.294963e+003
4.854009e+002, 3.296752e+003
4.858831e+002, 3.297607e+003
4.863652e+002, 3.296204e+003
4.868473e+002, 3.292285e+003
4.873294e+002, 3.290752e+003
4.878115e+002, 3.293197e+003
4.882936e+002, 3.296184e+003
4.887758e+002, 3.296902e+003
4.892579e+002, 3.294130e+003
4.897400e+002, 3.293437e+003
4.902221e+002, 3.295549e+003
4.907042e+002, 3.299489e+003
4.911863e+002, 3.303671e+003
4.916685e+002, 3.308150e+003
4.921506e+002, 3.312077e+003
4.926327e+002, 3.315087e+003
4.931148e+002, 3.317259e+003
4.935969e+002, 3.318724e+003
4.940790e+002, 3.319491e+003
4.945612e+002, 3.319576e+003
4.950433e+002, 3.317617e+003
4.955254e+002, 3.315230e+003
4.960075e+002, 3.315817e+003
4.964896e+002, 3.320622e+003
4.969717e+002, 3.326458e+003
4.974539e+002, 3.330530e+003
4.979360e+002, 3.333538e+003
4.984181e+002, 3.336644e+003
4.989002e+002, 3.341629e+003
4.993823e+002, 3.345718e+003
4.998644e+002, 3.346884e+003
5.003466e+002, 3.345397e+003
5.008287e+002, 3.344161e+003
5.013108e+002, 3.343557e+003
5.017929e+002, 3.343865e+003
5.022750e+002, 3.345278e+003
5.027571e+002, 3.348084e+003
5.032393e+002, 3.351609e+003
5.037214e+002, 3.356543e+003
5.042035e+002, 3.361829e+003
5.046856e+002, 3.366252e+003
5.051677e+002, 3.370132e+003
5.056498e+002, 3.372378e+003
5.061320e+002, 3.372240e+003
5.066141e+002, 3.370289e+003
5.070962e+002, 3.369544e+003
5.075783e+002, 3.370042e+003
5.080604e+002, 3.371464e+003
5.085425e+002, 3.374952e+003
5.090247e+002, 3.379906e+003
5.095068e+002, 3.379785e+003
5.099889e+002, 3.373637e+003
5.104710e+002, 3.366130e+003
5.109531e+002, 3.361809e+003
5.114352e+002, 3.360421e+003
5.119174e+002, 3.361523e+003
5.123995e+002, 3.366525e+003
5.128816e+002, 3.371936e+003
5.133637e+002, 3.373183e+003
5.138458e+002, 3.371576e+003
5.143279e+002, 3.371284e+003
5.148101e+002, 3.376036e+003
5.152922e+002, 3.381883e+003
5.157743e+002, 3.386614e+003
5.162564e+002, 3.390142e+003
5.167385e+002, 3.391484e+003
5.172206e+002, 3.387598e+003
5.177028e+002, 3.382887e+003
5.181849e+002, 3.380904e+003
5.186670e+002, 3.385061e+003
5.191491e+002, 3.388273e+003
5.196312e+002, 3.388727e+003
5.201133e+002, 3.388154e+003
5.205955e+002, 3.390618e+003
5.210776e+002, 3.398073e+003
5.215597e+002, 3.404726e+003
5.220418e+002, 3.408473e+003
5.225239e+002, 3.409447e+003
5.230060e+002, 3.411101e+003
5.234882e+002, 3.413161e+003
5.239703e+002, 3.416657e+003
5.244524e+002, 3.423841e+003
5.249345e+002, 3.434044e+003
5.254166e+002, 3.440344e+003
5.258987e+002, 3.441464e+003
5.263809e+002, 3.440697e+003
5.268630e+002, 3.442278e+003
5.273451e+002, 3.445542e+003
5.278272e+002, 3.448416e+003
5.283093e+002, 3.450760e+003
5.287914e+002, 3.451850e+003
5.292736e+002, 3.449186e+003
5.297557e+002, 3.444010e+003
5.302378e+002, 3.441862e+003
5.307199e+002, 3.449386e+003
5.312020e+002, 3.458471e+003
5.316841e+002, 3.463318e+003
5.321663e+002, 3.462621e+003
5.326484e+002, 3.461074e+003
5.331305e+002, 3.458329e+003
5.336126e+002, 3.456114e+003
5.340947e+002, 3.456066e+003
5.345768e+002, 3.461729e+003
5.350590e+002, 3.464822e+003
5.355411e+002, 3.462520e+003
5.360232e+002, 3.457584e+003
5.365053e+002, 3.457933e+003
5.369874e+002, 3.465052e+003
5.374695e+002, 3.473547e+003
5.379517e+002, 3.482352e+003
5.384338e+002, 3.491193e+003
5.389159e+002, 3.494717e+003
5.393980e+002, 3.492046e+003
5.398801e+002, 3.489136e+003
5.403622e+002, 3.492974e+003
5.408444e+002, 3.501294e+003
5.413265e+002, 3.504475e+003
5.418086e+002, 3.500508e+003
5.422907e+002, 3.494255e+003
5.427728e+002, 3.489826e+003
5.432549e+002, 3.487374e+003
5.437371e+002, 3.487309e+003
5.442192e+002, 3.491771e+003
5.447013e+002, 3.497065e+003
5.451834e+002, 3.500312e+003
5.456655e+002, 3.502170e+003
5.461476e+002, 3.505069e+003
5.466298e+002, 3.512726e+003
5.471119e+002, 3.519532e+003
5.475940e+002, 3.521793e+003
5.480761e+002, 3.517522e+003
5.485582e+002, 3.515396e+003
5.490403e+002, 3.517075e+003
5.495225e+002, 3.520432e+003
5.500046e+002, 3.523880e+003
5.504867e+002, 3.527733e+003
5.509688e+002, 3.530759e+003
5.514509e+002, 3.532427e+003
5.519330e+002, 3.533453e+003
5.524152e+002, 3.535356e+003
5.528973e+002, 3.538155e+003
5.533794e+002, 3.541503e+003
5.538615e+002, 3.545738e+003
5.543436e+002, 3.550289e+003
5.548257e+002, 3.552915e+003
5.553079e+002, 3.553638e+003
5.557900e+002, 3.554150e+003
5.562721e+002, 3.556837e+003
5.567542e+002, 3.559828e+003
5.572363e+002, 3.558969e+003
5.577184e+002, 3.553017e+003
5.582006e+002, 3.548561e+003
5.586827e+002, 3.552663e+003
5.591648e+002, 3.560490e+003
5.596469e+002, 3.565979e+003
5.601290e+002, 3.564786e+003
5.606111e+002, 3.563539e+003
5.610933e+002, 3.564335e+003
5.615754e+002, 3.566650e+003
5.620575e+002, 3.569055e+003
5.625396e+002, 3.572133e+003
5.630217e+002, 3.574418e+003
5.635038e+002, 3.575126e+003
5.639860e+002, 3.574150e+003
5.644681e+002, 3.574332e+003
5.649502e+002, 3.575652e+003
5.654323e+002, 3.578148e+003
5.659144e+002, 3.582011e+003
5.663965e+002, 3.587324e+003
5.668787e+002, 3.593420e+003
5.673608e+002, 3.600831e+003
5.678429e+002, 3.607171e+003
5.683250e+002, 3.607509e+003
5.688071e+002, 3.603344e+003
5.692892e+002, 3.601115e+003
5.697714e+002, 3.603296e+003
5.702535e+002, 3.607822e+003
5.707356e+002, 3.612570e+003
5.712177e+002, 3.617572e+003
5.716998e+002, 3.622698e+003
5.721819e+002, 3.628918e+003
5.726641e+002, 3.634522e+003
5.731462e+002, 3.637997e+003
5.736283e+002, 3.639250e+003
5.741104e+002, 3.640521e+003
5.745925e+002, 3.642157e+003
5.750746e+002, 3.644281e+003
5.755568e+002, 3.647135e+003
5.760389e+002, 3.651971e+003
5.765210e+002, 3.655117e+003
5.770031e+002, 3.655402e+003
5.774852e+002, 3.654926e+003
5.779673e+002, 3.656975e+003
5.784495e+002, 3.662946e+003
5.789316e+002, 3.666370e+003
5.794137e+002, 3.664576e+003
5.798958e+002, 3.660573e+003
5.803779e+002, 3.663348e+003
5.808600e+002, 3.672857e+003
5.813422e+002, 3.682374e+003
5.818243e+002, 3.686608e+003
5.823064e+002, 3.688695e+003
5.827885e+002, 3.695859e+003
5.832706e+002, 3.708032e+003
5.837527e+002, 3.720581e+003
5.842349e+002, 3.730907e+003
5.847170e+002, 3.739456e+003
5.851991e+002, 3.746594e+003
5.856812e+002, 3.752305e+003
5.861633e+002, 3.756888e+003
5.866454e+002, 3.758629e+003
5.871276e+002, 3.759947e+003
5.876097e+002, 3.763777e+003
5.880918e+002, 3.772022e+003
5.885739e+002, 3.781282e+003
5.890560e+002, 3.792079e+003
5.895381e+002, 3.803584e+003
5.900203e+002, 3.813361e+003
5.905024e+002, 3.821550e+003
5.909845e+002, 3.827984e+003
5.914666e+002, 3.832544e+003
5.919487e+002, 3.835335e+003
5.924308e+002, 3.835977e+003
5.929130e+002, 3.834147e+003
5.933951e+002, 3.833043e+003
5.938772e+002, 3.835928e+003
5.943593e+002, 3.841504e+003
5.948414e+002, 3.846144e+003
5.953235e+002, 3.849445e+003
5.958057e+002, 3.851608e+003
5.962878e+002, 3.851998e+003
5.967699e+002, 3.851495e+003
5.972520e+002, 3.851449e+003
5.977341e+002, 3.852461e+003
5.982162e+002, 3.853626e+003
5.986984e+002, 3.851814e+003
5.991805e+002, 3.850033e+003
5.996626e+002, 3.854551e+003
6.001447e+002, 3.869644e+003
6.006268e+002, 3.888348e+003
6.011089e+002, 3.910328e+003
6.015911e+002, 3.935125e+003
6.020732e+002, 3.956674e+003
6.025553e+002, 3.973230e+003
6.030374e+002, 3.989517e+003
6.035195e+002, 4.007220e+003
6.040016e+002, 4.026202e+003
6.044838e+002, 4.049648e+003
6.049659e+002, 4.078210e+003
6.054480e+002, 4.107241e+003
6.059301e+002, 4.132155e+003
6.064122e+002, 4.153491e+003
6.068943e+002, 4.174564e+003
6.073765e+002, 4.197439e+003
6.078586e+002, 4.215267e+003
6.083407e+002, 4.222923e+003
6.088228e+002, 4.220043e+003
6.093049e+002, 4.205859e+003
6.097870e+002, 4.176858e+003
6.102692e+002, 4.139401e+003
6.107513e+002, 4.089981e+003
6.112334e+002, 4.033155e+003
6.117155e+002, 3.985369e+003
6.121976e+002, 3.951468e+003
6.126797e+002, 3.925059e+003
6.131619e+002, 3.904024e+003
6.136440e+002, 3.888169e+003
6.141261e+002, 3.878679e+003
6.146082e+002, 3.877217e+003
6.150903e+002, 3.878859e+003
6.155724e+002, 3.880136e+003
6.160546e+002, 3.880980e+003
6.165367e+002, 3.884573e+003
6.170188e+002, 3.891382e+003
6.175009e+002, 3.899503e+003
6.179830e+002, 3.906529e+003
6.184651e+002, 3.913081e+003
6.189473e+002, 3.921120e+003
6.194294e+002, 3.931786e+003
6.199115e+002, 3.942815e+003
6.203936e+002, 3.951765e+003
6.208757e+002, 3.959700e+003
6.213578e+002, 3.968806e+003
6.218400e+002, 3.982292e+003
6.223221e+002, 3.994931e+003
6.228042e+002, 4.003065e+003
6.232863e+002, 4.007669e+003
6.237684e+002, 4.015290e+003
6.242505e+002, 4.031444e+003
6.247327e+002, 4.045218e+003
6.252148e+002, 4.051287e+003
6.256969e+002, 4.048514e+003
6.261790e+002, 4.052045e+003
6.266611e+002, 4.064004e+003
6.271432e+002, 4.076542e+003
6.276254e+002, 4.082957e+003
6.281075e+002, 4.083748e+003
6.285896e+002, 4.084558e+003
6.290717e+002, 4.085831e+003
6.295538e+002, 4.087511e+003
6.300359e+002, 4.091173e+003
6.305181e+002, 4.095099e+003
6.310002e+002, 4.095441e+003
6.314823e+002, 4.089522e+003
6.319644e+002, 4.082515e+003
6.324465e+002, 4.077226e+003
6.329286e+002, 4.073560e+003
6.334108e+002, 4.071341e+003
6.338929e+002, 4.073609e+003
6.343750e+002, 4.074017e+003
6.348571e+002, 4.068777e+003
6.353392e+002, 4.058915e+003
6.358214e+002, 4.052820e+003
6.363035e+002, 4.051936e+003
6.367856e+002, 4.052045e+003
6.372677e+002, 4.051000e+003
6.377498e+002, 4.048718e+003
6.382319e+002, 4.049652e+003
6.387141e+002, 4.054344e+003
6.391962e+002, 4.059018e+003
6.396783e+002, 4.060492e+003
6.401604e+002, 4.059475e+003
6.406425e+002, 4.057802e+003
6.411246e+002, 4.055486e+003
6.416068e+002, 4.054585e+003
6.420889e+002, 4.059535e+003
6.425710e+002, 4.066439e+003
6.430531e+002, 4.069314e+003
6.435352e+002, 4.062662e+003
6.440173e+002, 4.058418e+003
6.444995e+002, 4.062613e+003
6.449816e+002, 4.072203e+003
6.454637e+002, 4.081957e+003
6.459458e+002, 4.091631e+003
6.464279e+002, 4.100338e+003
6.469100e+002, 4.106940e+003
6.473922e+002, 4.112289e+003
6.478743e+002, 4.120100e+003
6.483564e+002, 4.131175e+003
6.488385e+002, 4.141673e+003
6.493206e+002, 4.150092e+003
6.498027e+002, 4.156551e+003
6.502849e+002, 4.160385e+003
6.507670e+002, 4.161681e+003
6.512491e+002, 4.163886e+003
6.517312e+002, 4.170280e+003
6.522133e+002, 4.178982e+003
6.526954e+002, 4.188520e+003
6.531776e+002, 4.199086e+003
6.536597e+002, 4.206150e+003
6.541418e+002, 4.204540e+003
6.546239e+002, 4.199829e+003
6.551060e+002, 4.197040e+003
6.555881e+002, 4.198094e+003
6.560703e+002, 4.199281e+003
6.565524e+002, 4.202046e+003
6.570345e+002, 4.203603e+003
6.575166e+002, 4.199973e+003
6.579987e+002, 4.188182e+003
6.584808e+002, 4.179308e+003
6.589630e+002, 4.175996e+003
6.594451e+002, 4.175140e+003
6.599272e+002, 4.169302e+003
6.604093e+002, 4.158678e+003
6.608914e+002, 4.148603e+003
6.613735e+002, 4.141581e+003
6.618557e+002, 4.136188e+003
6.623378e+002, 4.131188e+003
6.628199e+002, 4.126115e+003
6.633020e+002, 4.118585e+003
6.637841e+002, 4.102002e+003
6.642662e+002, 4.086737e+003
6.647484e+002, 4.081521e+003
6.652305e+002, 4.086904e+003
6.657126e+002, 4.091506e+003
6.661947e+002, 4.092497e+003
6.666768e+002, 4.091931e+003
6.671589e+002, 4.090809e+003
6.676411e+002, 4.088979e+003
6.681232e+002, 4.086346e+003
6.686053e+002, 4.081961e+003
6.690874e+002, 4.077866e+003
6.695695e+002, 4.076044e+003
6.700516e+002, 4.076292e+003
6.705338e+002, 4.076563e+003
6.710159e+002, 4.076350e+003
6.714980e+002, 4.076719e+003
6.719801e+002, 4.080101e+003
6.724622e+002, 4.085042e+003
6.729443e+002, 4.088333e+003
6.734265e+002, 4.089458e+003
6.739086e+002, 4.088173e+003
6.743907e+002, 4.083661e+003
6.748728e+002, 4.076938e+003
6.753549e+002, 4.069899e+003
6.758370e+002, 4.059676e+003
6.763192e+002, 4.053339e+003
6.768013e+002, 4.054727e+003
6.772834e+002, 4.061854e+003
6.777655e+002, 4.068083e+003
6.782476e+002, 4.074310e+003
6.787297e+002, 4.077402e+003
6.792119e+002, 4.074450e+003
6.796940e+002, 4.067124e+003
6.801761e+002, 4.065602e+003
6.806582e+002, 4.069915e+003
6.811403e+002, 4.077042e+003
6.816224e+002, 4.086213e+003
6.821046e+002, 4.096154e+003
6.825867e+002, 4.105171e+003
6.830688e+002, 4.113104e+003
6.835509e+002, 4.118089e+003
6.840330e+002, 4.115532e+003
6.845151e+002, 4.111604e+003
6.849973e+002, 4.111700e+003
6.854794e+002, 4.117938e+003
6.859615e+002, 4.124286e+003
6.864436e+002, 4.129044e+003
6.869257e+002, 4.134202e+003
6.874078e+002, 4.142044e+003
6.878900e+002, 4.155415e+003
6.883721e+002, 4.162863e+003
6.888542e+002, 4.161364e+003
6.893363e+002, 4.157834e+003
6.898184e+002, 4.164753e+003
6.903005e+002, 4.180563e+003
6.907827e+002, 4.191390e+003
6.912648e+002, 4.191975e+003
6.917469e+002, 4.188936e+003
6.922290e+002, 4.190199e+003
6.927111e+002, 4.194390e+003
6.931932e+002, 4.198453e+003
6.936754e+002, 4.199454e+003
6.941575e+002, 4.201484e+003
6.946396e+002, 4.207927e+003
6.951217e+002, 4.217257e+003
6.956038e+002, 4.223991e+003
6.960859e+002, 4.224662e+003
6.965681e+002, 4.225598e+003
6.970502e+002, 4.228842e+003
6.975323e+002, 4.234026e+003
6.980144e+002, 4.237048e+003
6.984965e+002, 4.237419e+003
6.989786e+002, 4.238081e+003
6.994608e+002, 4.242261e+003
6.999429e+002, 4.248386e+003
7.004250e+002, 4.248156e+003
7.009071e+002, 4.241896e+003
7.013892e+002, 4.237524e+003
7.018713e+002, 4.242842e+003
7.023535e+002, 4.252271e+003
7.028356e+002, 4.259253e+003
7.033177e+002, 4.262405e+003
7.037998e+002, 4.267845e+003
7.042819e+002, 4.281854e+003
7.047640e+002, 4.296564e+003
7.052462e+002, 4.304892e+003
7.057283e+002, 4.298594e+003
7.062104e+002, 4.303585e+003
7.066925e+002, 4.324878e+003
7.071746e+002, 4.350938e+003
7.076567e+002, 4.367920e+003
7.081389e+002, 4.375187e+003
7.086210e+002, 4.386470e+003
7.091031e+002, 4.404378e+003
7.095852e+002, 4.424813e+003
7.100673e+002, 4.440683e+003
7.105494e+002, 4.454662e+003
7.110316e+002, 4.474356e+003
7.115137e+002, 4.506282e+003
7.119958e+002, 4.538146e+003
7.124779e+002, 4.560139e+003
7.129600e+002, 4.577084e+003
7.134421e+002, 4.597615e+003
7.139243e+002, 4.624370e+003
7.144064e+002, 4.655054e+003
7.148885e+002, 4.689124e+003
7.153706e+002, 4.726728e+003
7.158527e+002, 4.766806e+003
7.163348e+002, 4.808181e+003
7.168170e+002, 4.855996e+003
7.172991e+002, 4.913113e+003
7.177812e+002, 4.977066e+003
7.182633e+002, 5.036711e+003
7.187454e+002, 5.093477e+003
7.192275e+002, 5.154060e+003
7.197097e+002, 5.221729e+003
7.201918e+002, 5.296843e+003
7.206739e+002, 5.383085e+003
7.211560e+002, 5.478819e+003
7.216381e+002, 5.577048e+003
7.221202e+002, 5.673317e+003
7.226024e+002, 5.771239e+003
7.230845e+002, 5.872507e+003
7.235666e+002, 5.977391e+003
7.240487e+002, 6.085693e+003
7.245308e+002, 6.198474e+003
7.250129e+002, 6.315086e+003
7.254951e+002, 6.435114e+003
7.259772e+002, 6.559639e+003
7.264593e+002, 6.686846e+003
7.269414e+002, 6.816565e+003
7.274235e+002, 6.950644e+003
7.279056e+002, 7.092926e+003
7.283878e+002, 7.240287e+003
7.288699e+002, 7.387620e+003
7.293520e+002, 7.536276e+003
7.298341e+002, 7.679758e+003
7.303162e+002, 7.815768e+003
7.307983e+002, 7.943607e+003
7.312805e+002, 8.064973e+003
7.317626e+002, 8.187436e+003
7.322447e+002, 8.289151e+003
7.327268e+002, 8.370247e+003
7.332089e+002, 8.429374e+003
7.336910e+002, 8.465446e+003
7.341732e+002, 8.478711e+003
7.346553e+002, 8.466939e+003
7.351374e+002, 8.429967e+003
7.356195e+002, 8.367667e+003
7.361016e+002, 8.277487e+003
7.365837e+002, 8.161382e+003
7.370659e+002, 8.025891e+003
7.375480e+002, 7.871283e+003
7.380301e+002, 7.700218e+003
7.385122e+002, 7.508860e+003
7.389943e+002, 7.305346e+003
7.394764e+002, 7.104907e+003
7.399586e+002, 6.907884e+003
7.404407e+002, 6.719838e+003
7.409228e+002, 6.542971e+003
7.414049e+002, 6.375962e+003
7.418870e+002, 6.215200e+003
7.423691e+002, 6.063015e+003
7.428513e+002, 5.919569e+003
7.433334e+002, 5.785849e+003
7.438155e+002, 5.660773e+003
7.442976e+002, 5.539247e+003
7.447797e+002, 5.421864e+003
7.452618e+002, 5.318138e+003
7.457440e+002, 5.237541e+003
7.462261e+002, 5.168265e+003
7.467082e+002, 5.095478e+003
7.471903e+002, 5.021948e+003
7.476724e+002, 4.955577e+003
7.481545e+002, 4.901680e+003
7.486367e+002, 4.853675e+003
7.491188e+002, 4.808521e+003
7.496009e+002, 4.765897e+003
7.500830e+002, 4.728854e+003
7.505651e+002, 4.699478e+003
7.510472e+002, 4.670076e+003
7.515294e+002, 4.636638e+003
7.520115e+002, 4.600094e+003
7.524936e+002, 4.568954e+003
7.529757e+002, 4.543073e+003
7.534578e+002, 4.520157e+003
7.539399e+002, 4.500276e+003
7.544221e+002, 4.482022e+003
7.549042e+002, 4.464257e+003
7.553863e+002, 4.446735e+003
7.558684e+002, 4.429235e+003
7.563505e+002, 4.410210e+003
7.568326e+002, 4.392002e+003
7.573148e+002, 4.375518e+003
7.577969e+002, 4.360502e+003
7.582790e+002, 4.349708e+003
7.587611e+002, 4.344790e+003
7.592432e+002, 4.341162e+003
7.597253e+002, 4.336701e+003
7.602075e+002, 4.331345e+003
7.606896e+002, 4.321057e+003
7.611717e+002, 4.304979e+003
7.616538e+002, 4.291064e+003
7.621359e+002, 4.290505e+003
7.626180e+002, 4.295000e+003
7.631002e+002, 4.289923e+003
7.635823e+002, 4.272514e+003
7.640644e+002, 4.256525e+003
7.645465e+002, 4.250441e+003
7.650286e+002, 4.247937e+003
7.655107e+002, 4.243985e+003
7.659929e+002, 4.237505e+003
7.664750e+002, 4.230762e+003
7.669571e+002, 4.222853e+003
7.674392e+002, 4.215796e+003
7.679213e+002, 4.211216e+003
7.684034e+002, 4.209098e+003
7.688856e+002, 4.210126e+003
7.693677e+002, 4.214957e+003
7.698498e+002, 4.219101e+003
7.703319e+002, 4.217038e+003
7.708140e+002, 4.211108e+003
7.712961e+002, 4.205381e+003
7.717783e+002, 4.200693e+003
7.722604e+002, 4.196257e+003
7.727425e+002, 4.190044e+003
7.732246e+002, 4.184702e+003
7.737067e+002, 4.183052e+003
7.741888e+002, 4.189587e+003
7.746710e+002, 4.193143e+003
7.751531e+002, 4.193476e+003
7.756352e+002, 4.191155e+003
7.761173e+002, 4.184996e+003
7.765994e+002, 4.175072e+003
7.770815e+002, 4.172191e+003
7.775637e+002, 4.179673e+003
7.780458e+002, 4.187918e+003
7.785279e+002, 4.182862e+003
7.790100e+002, 4.170853e+003
7.794921e+002, 4.163618e+003
7.799742e+002, 4.166767e+003
7.804564e+002, 4.170681e+003
7.809385e+002, 4.169782e+003
7.814206e+002, 4.167565e+003
7.819027e+002, 4.168998e+003
7.823848e+002, 4.177004e+003
7.828669e+002, 4.183733e+003
7.833491e+002, 4.189384e+003
7.838312e+002, 4.192518e+003
7.843133e+002, 4.188528e+003
7.847954e+002, 4.178000e+003
7.852775e+002, 4.173149e+003
7.857596e+002, 4.178317e+003
7.862418e+002, 4.186008e+003
7.867239e+002, 4.187280e+003
7.872060e+002, 4.184453e+003
7.876881e+002, 4.181691e+003
7.881702e+002, 4.179806e+003
7.886523e+002, 4.179269e+003
7.891345e+002, 4.183128e+003
7.896166e+002, 4.187677e+003
7.900987e+002, 4.186265e+003
7.905808e+002, 4.174625e+003
7.910629e+002, 4.166647e+003
7.915450e+002, 4.165042e+003
7.920272e+002, 4.167031e+003
7.925093e+002, 4.168090e+003
7.929914e+002, 4.168232e+003
7.934735e+002, 4.166745e+003
7.939556e+002, 4.161728e+003
7.944377e+002, 4.158309e+003
7.949199e+002, 4.165147e+003
7.954020e+002, 4.177007e+003
7.958841e+002, 4.184248e+003
7.963662e+002, 4.178528e+003
7.968483e+002, 4.173548e+003
7.973304e+002, 4.173650e+003
7.978126e+002, 4.176199e+003
7.982947e+002, 4.176668e+003
7.987768e+002, 4.174052e+003
7.992589e+002, 4.172243e+003
7.997410e+002, 4.172090e+003
8.002231e+002, 4.172861e+003
8.007053e+002, 4.174475e+003
8.011874e+002, 4.176220e+003
8.016695e+002, 4.174523e+003
8.021516e+002, 4.166036e+003
8.026337e+002, 4.157563e+003
8.031158e+002, 4.155672e+003
8.035980e+002, 4.157873e+003
8.040801e+002, 4.159673e+003
8.045622e+002, 4.161567e+003
8.050443e+002, 4.160720e+003
8.055264e+002, 4.153497e+003
8.060085e+002, 4.145078e+003
8.064907e+002, 4.146988e+003
8.069728e+002, 4.161903e+003
8.074549e+002, 4.169106e+003
8.079370e+002, 4.161627e+003
8.084191e+002, 4.149145e+003
8.089012e+002, 4.147917e+003
8.093834e+002, 4.154619e+003
8.098655e+002, 4.160295e+003
8.103476e+002, 4.159728e+003
8.108297e+002, 4.159949e+003
8.113118e+002, 4.166997e+003
8.117939e+002, 4.177086e+003
8.122761e+002, 4.183771e+003
8.127582e+002, 4.184941e+003
8.132403e+002, 4.184433e+003
8.137224e+002, 4.181815e+003
8.142045e+002, 4.178529e+003
8.146866e+002, 4.177092e+003
8.151688e+002, 4.177554e+003
8.156509e+002, 4.179345e+003
8.161330e+002, 4.182860e+003
8.166151e+002, 4.186464e+003
8.170972e+002, 4.188495e+003
8.175793e+002, 4.189026e+003
8.180615e+002, 4.188080e+003
8.185436e+002, 4.182621e+003
8.190257e+002, 4.179794e+003
8.195078e+002, 4.184944e+003
8.199899e+002, 4.193063e+003
8.204720e+002, 4.196364e+003
8.209542e+002, 4.192863e+003
8.214363e+002, 4.189354e+003
8.219184e+002, 4.186256e+003
8.224005e+002, 4.184073e+003
8.228826e+002, 4.183743e+003
8.233647e+002, 4.185069e+003
8.238469e+002, 4.187554e+003
8.243290e+002, 4.191846e+003
8.248111e+002, 4.195305e+003
8.252932e+002, 4.194104e+003
8.257753e+002, 4.191360e+003
8.262574e+002, 4.191394e+003
8.267396e+002, 4.200290e+003
8.272217e+002, 4.204718e+003
8.277038e+002, 4.199927e+003
8.281859e+002, 4.193354e+003
8.286681e+002, 4.194754e+003
8.291502e+002, 4.205342e+003
8.296323e+002, 4.212905e+003
8.301144e+002, 4.215316e+003
8.305966e+002, 4.216034e+003
8.310787e+002, 4.219408e+003
8.315608e+002, 4.224089e+003
8.320429e+002, 4.227547e+003
8.325250e+002, 4.228808e+003
8.330071e+002, 4.229396e+003
8.334893e+002, 4.230305e+003
8.339714e+002, 4.230673e+003
8.344535e+002, 4.229467e+003
8.349356e+002, 4.225334e+003
8.354177e+002, 4.222452e+003
8.358998e+002, 4.220536e+003
8.363820e+002, 4.220719e+003
8.368641e+002, 4.225800e+003
8.373462e+002, 4.234820e+003
8.378283e+002, 4.241155e+003
8.383104e+002, 4.244159e+003
8.387925e+002, 4.244083e+003
8.392747e+002, 4.236992e+003
8.397568e+002, 4.229135e+003
8.402389e+002, 4.228617e+003
8.407210e+002, 4.240023e+003
8.412031e+002, 4.246630e+003
8.416852e+002, 4.238978e+003
8.421674e+002, 4.230731e+003
8.426495e+002, 4.231438e+003
8.431316e+002, 4.243099e+003
8.436137e+002, 4.248472e+003
8.440958e+002, 4.246687e+003
8.445779e+002, 4.243521e+003
8.450601e+002, 4.244497e+003
8.455422e+002, 4.247651e+003
8.460243e+002, 4.250708e+003
8.465064e+002, 4.253542e+003
8.469885e+002, 4.251768e+003
8.474706e+002, 4.234585e+003
8.479528e+002, 4.219054e+003
8.484349e+002, 4.219024e+003
8.489170e+002, 4.237704e+003
8.493991e+002, 4.247550e+003
8.498812e+002, 4.245806e+003
8.503633e+002, 4.242169e+003
8.508455e+002, 4.241666e+003
8.513276e+002, 4.244040e+003
8.518097e+002, 4.249314e+003
8.522918e+002, 4.257094e+003
8.527739e+002, 4.262524e+003
8.532560e+002, 4.259538e+003
8.537382e+002, 4.254871e+003
8.542203e+002, 4.254462e+003
8.547024e+002, 4.258114e+003
8.551845e+002, 4.260491e+003
8.556666e+002, 4.259499e+003
8.561487e+002, 4.258167e+003
8.566309e+002, 4.257127e+003
8.571130e+002, 4.256536e+003
8.575951e+002, 4.257095e+003
8.580772e+002, 4.258874e+003
8.585593e+002, 4.261846e+003
8.590414e+002, 4.267282e+003
8.595236e+002, 4.273157e+003
8.600057e+002, 4.276724e+003
8.604878e+002, 4.278285e+003
8.609699e+002, 4.278629e+003
8.614520e+002, 4.277214e+003
8.619341e+002, 4.275643e+003
8.624163e+002, 4.273969e+003
8.628984e+002, 4.272563e+003
8.633805e+002, 4.272781e+003
8.638626e+002, 4.275234e+003
8.643447e+002, 4.276609e+003
8.648268e+002, 4.275787e+003
8.653090e+002, 4.273721e+003
8.657911e+002, 4.271202e+003
8.662732e+002, 4.268845e+003
8.667553e+002, 4.268809e+003
8.672374e+002, 4.273801e+003
8.677195e+002, 4.278359e+003
8.682017e+002, 4.277559e+003
8.686838e+002, 4.274854e+003
8.691659e+002, 4.276046e+003
8.696480e+002, 4.283776e+003
8.701301e+002, 4.291358e+003
8.706122e+002, 4.299969e+003
8.710944e+002, 4.305593e+003
8.715765e+002, 4.299389e+003
8.720586e+002, 4.284013e+003
8.725407e+002, 4.275494e+003
8.730228e+002, 4.278065e+003
8.735049e+002, 4.281688e+003
8.739871e+002, 4.276337e+003
8.744692e+002, 4.267871e+003
8.749513e+002, 4.262878e+003
8.754334e+002, 4.263704e+003
8.759155e+002, 4.265522e+003
8.763976e+002, 4.267891e+003
8.768798e+002, 4.270910e+003
8.773619e+002, 4.275026e+003
8.778440e+002, 4.280278e+003
8.783261e+002, 4.285040e+003
8.788082e+002, 4.289438e+003
8.792903e+002, 4.291091e+003
8.797725e+002, 4.283426e+003
8.802546e+002, 4.274314e+003
8.807367e+002, 4.276006e+003
8.812188e+002, 4.289795e+003
8.817009e+002, 4.298807e+003
8.821830e+002, 4.291029e+003
8.826652e+002, 4.283032e+003
8.831473e+002, 4.282721e+003
8.836294e+002, 4.289846e+003
8.841115e+002, 4.297704e+003
8.845936e+002, 4.306437e+003
8.850757e+002, 4.314971e+003
8.855579e+002, 4.324531e+003
8.860400e+002, 4.332648e+003
8.865221e+002, 4.333432e+003
8.870042e+002, 4.328255e+003
8.874863e+002, 4.323014e+003
8.879684e+002, 4.317981e+003
8.884506e+002, 4.316028e+003
8.889327e+002, 4.321108e+003
8.894148e+002, 4.330313e+003
8.898969e+002, 4.333759e+003
8.903790e+002, 4.329521e+003
8.908611e+002, 4.326272e+003
8.913433e+002, 4.326544e+003
8.918254e+002, 4.328707e+003
8.923075e+002, 4.329668e+003
8.927896e+002, 4.329971e+003
8.932717e+002, 4.331347e+003
8.937538e+002, 4.336497e+003
8.942360e+002, 4.339733e+003
8.947181e+002, 4.335408e+003
8.952002e+002, 4.328220e+003
8.956823e+002, 4.325339e+003
8.961644e+002, 4.330179e+003
8.966465e+002, 4.331982e+003
8.971287e+002, 4.328890e+003
8.976108e+002, 4.325168e+003
8.980929e+002, 4.327029e+003
8.985750e+002, 4.332927e+003
8.990571e+002, 4.336886e+003
8.995392e+002, 4.337884e+003
9.000214e+002, 4.338158e+003
9.005035e+002, 4.338862e+003
9.009856e+002, 4.339860e+003
9.014677e+002, 4.340821e+003
9.019498e+002, 4.341192e+003
9.024319e+002, 4.343595e+003
9.029141e+002, 4.349475e+003
9.033962e+002, 4.354665e+003
9.038783e+002, 4.355361e+003
9.043604e+002, 4.352519e+003
9.048425e+002, 4.354509e+003
9.053246e+002, 4.361070e+003
9.058068e+002, 4.367455e+003
9.062889e+002, 4.371865e+003
9.067710e+002, 4.373767e+003
9.072531e+002, 4.371392e+003
9.077352e+002, 4.365478e+003
9.082173e+002, 4.361738e+003
9.086995e+002, 4.362409e+003
9.091816e+002, 4.362997e+003
9.096637e+002, 4.361686e+003
9.101458e+002, 4.359874e+003
9.106279e+002, 4.363454e+003
9.111100e+002, 4.371571e+003
9.115922e+002, 4.375812e+003
9.120743e+002, 4.369437e+003
9.125564e+002, 4.363220e+003
9.130385e+002, 4.370487e+003
9.135206e+002, 4.384330e+003
9.140027e+002, 4.393000e+003
9.144849e+002, 4.387862e+003
9.149670e+002, 4.385279e+003
9.154491e+002, 4.387497e+003
9.159312e+002, 4.391484e+003
9.164133e+002, 4.393380e+003
9.168954e+002, 4.393271e+003
9.173776e+002, 4.393309e+003
9.178597e+002, 4.393817e+003
9.183418e+002, 4.393884e+003
9.188239e+002, 4.392721e+003
9.193060e+002, 4.390579e+003
9.197881e+002, 4.386675e+003
9.202703e+002, 4.379470e+003
9.207524e+002, 4.378088e+003
9.212345e+002, 4.389255e+003
9.217166e+002, 4.399200e+003
9.221987e+002, 4.399274e+003
9.226808e+002, 4.390226e+003
9.231630e+002, 4.385849e+003
9.236451e+002, 4.386171e+003
9.241272e+002, 4.387861e+003
9.246093e+002, 4.388427e+003
9.250914e+002, 4.389570e+003
9.255735e+002, 4.395313e+003
9.260557e+002, 4.403854e+003
9.265378e+002, 4.406990e+003
9.270199e+002, 4.394234e+003
9.275020e+002, 4.386298e+003
9.279841e+002, 4.388983e+003
9.284662e+002, 4.398428e+003
9.289484e+002, 4.405061e+003
9.294305e+002, 4.408987e+003
9.299126e+002, 4.412102e+003
9.303947e+002, 4.414023e+003
9.308768e+002, 4.417203e+003
9.313589e+002, 4.428884e+003
9.318411e+002, 4.441864e+003
9.323232e+002, 4.445098e+003
9.328053e+002, 4.424726e+003
9.332874e+002, 4.413257e+003
9.337695e+002, 4.416185e+003
9.342516e+002, 4.425038e+003
9.347338e+002, 4.433314e+003
9.352159e+002, 4.441005e+003
9.356980e+002, 4.442862e+003
9.361801e+002, 4.438254e+003
9.366622e+002, 4.435105e+003
9.371443e+002, 4.443768e+003
9.376265e+002, 4.454728e+003
9.381086e+002, 4.457046e+003
9.385907e+002, 4.449623e+003
9.390728e+002, 4.446004e+003
9.395549e+002, 4.450185e+003
9.400370e+002, 4.455589e+003
9.405192e+002, 4.460070e+003
9.410013e+002, 4.463682e+003
9.414834e+002, 4.465938e+003
9.419655e+002, 4.467162e+003
9.424476e+002, 4.470782e+003
9.429297e+002, 4.480064e+003
9.434119e+002, 4.490798e+003
9.438940e+002, 4.501850e+003
9.443761e+002, 4.511363e+003
9.448582e+002, 4.515356e+003
9.453403e+002, 4.507522e+003
9.458224e+002, 4.502369e+003
9.463046e+002, 4.501056e+003
9.467867e+002, 4.503115e+003
9.472688e+002, 4.508504e+003
9.477509e+002, 4.516839e+003
9.482330e+002, 4.525535e+003
9.487151e+002, 4.533998e+003
9.491973e+002, 4.544019e+003
9.496794e+002, 4.559655e+003
9.501615e+002, 4.575712e+003
9.506436e+002, 4.586249e+003
9.511257e+002, 4.588015e+003
9.516078e+002, 4.596842e+003
9.520900e+002, 4.615442e+003
9.525721e+002, 4.635787e+003
9.530542e+002, 4.652537e+003
9.535363e+002, 4.667456e+003
9.540184e+002, 4.688638e+003
9.545005e+002, 4.715252e+003
9.549827e+002, 4.742960e+003
9.554648e+002, 4.766212e+003
9.559469e+002, 4.792913e+003
9.564290e+002, 4.825953e+003
9.569111e+002, 4.866720e+003
9.573932e+002, 4.918053e+003
9.578754e+002, 4.984364e+003
9.583575e+002, 5.049770e+003
9.588396e+002, 5.110176e+003
9.593217e+002, 5.170056e+003
9.598038e+002, 5.235794e+003
9.602859e+002, 5.305755e+003
9.607681e+002, 5.373472e+003
9.612502e+002, 5.435187e+003
9.617323e+002, 5.504931e+003
9.622144e+002, 5.585974e+003
9.626965e+002, 5.681619e+003
9.631786e+002, 5.795600e+003
9.636608e+002, 5.927626e+003
9.641429e+002, 6.070230e+003
9.646250e+002, 6.222050e+003
9.651071e+002, 6.385146e+003
9.655892e+002, 6.569545e+003
9.660714e+002, 6.761536e+003
9.665535e+002, 6.944805e+003
9.670356e+002, 7.117539e+003
9.675177e+002, 7.280623e+003
9.679998e+002, 7.456298e+003
9.684819e+002, 7.597564e+003
9.689641e+002, 7.702513e+003
9.694462e+002, 7.758581e+003
9.699283e+002, 7.729647e+003
9.704104e+002, 7.613194e+003
9.708925e+002, 7.434655e+003
9.713746e+002, 7.188940e+003
9.718568e+002, 6.911461e+003
9.723389e+002, 6.618583e+003
9.728210e+002, 6.329216e+003
9.733031e+002, 6.069374e+003
9.737852e+002, 5.844852e+003
9.742673e+002, 5.652483e+003
9.747495e+002, 5.495604e+003
9.752316e+002, 5.362390e+003
9.757137e+002, 5.246674e+003
9.761958e+002, 5.147541e+003
9.766779e+002, 5.064718e+003
9.771600e+002, 4.997901e+003
9.776422e+002, 4.943836e+003
9.781243e+002, 4.905659e+003
9.786064e+002, 4.873133e+003
9.790885e+002, 4.835224e+003
9.795706e+002, 4.794197e+003
9.800527e+002, 4.761318e+003
9.805349e+002, 4.740399e+003
9.810170e+002, 4.724614e+003
9.814991e+002, 4.713949e+003
9.819812e+002, 4.705968e+003
9.824633e+002, 4.695430e+003
9.829454e+002, 4.683253e+003
9.834276e+002, 4.673545e+003
9.839097e+002, 4.668075e+003
9.843918e+002, 4.662373e+003
9.848739e+002, 4.652888e+003
9.853560e+002, 4.641898e+003
9.858381e+002, 4.631036e+003
9.863203e+002, 4.619310e+003
9.868024e+002, 4.612458e+003
9.872845e+002, 4.611060e+003
9.877666e+002, 4.612537e+003
9.882487e+002, 4.617497e+003
9.887308e+002, 4.623221e+003
9.892130e+002, 4.621621e+003
9.896951e+002, 4.614401e+003
9.901772e+002, 4.610293e+003
9.906593e+002, 4.617135e+003
9.911414e+002, 4.623738e+003
9.916235e+002, 4.625695e+003
9.921057e+002, 4.624520e+003
9.925878e+002, 4.622634e+003
9.930699e+002, 4.619735e+003
9.935520e+002, 4.619698e+003
9.940341e+002, 4.624072e+003
9.945162e+002, 4.628419e+003
9.949984e+002, 4.625987e+003
9.954805e+002, 4.620962e+003
9.959626e+002, 4.619494e+003
9.964447e+002, 4.623998e+003
9.969268e+002, 4.626354e+003
9.974089e+002, 4.622548e+003
9.978911e+002, 4.620346e+003
9.983732e+002, 4.625945e+003
9.988553e+002, 4.637540e+003
9.993374e+002, 4.639990e+003
9.998195e+002, 4.634231e+003
1.000302e+003, 4.629583e+003
1.000784e+003, 4.632344e+003
1.001266e+003, 4.637286e+003
1.001748e+003, 4.640646e+003
1.002230e+003, 4.643494e+003
1.002712e+003, 4.649219e+003
1.003194e+003, 4.661511e+003
1.003676e+003, 4.666672e+003
1.004159e+003, 4.660463e+003
1.004641e+003, 4.652817e+003
1.005123e+003, 4.659329e+003
1.005605e+003, 4.674195e+003
1.006087e+003, 4.683770e+003
1.006569e+003, 4.685667e+003
1.007051e+003, 4.685486e+003
1.007533e+003, 4.685961e+003
1.008016e+003, 4.685028e+003
1.008498e+003, 4.681129e+003
1.008980e+003, 4.674497e+003
1.009462e+003, 4.668445e+003
1.009944e+003, 4.662796e+003
1.010426e+003, 4.659936e+003
1.010908e+003, 4.663356e+003
1.011390e+003, 4.667542e+003
1.011872e+003, 4.664702e+003
1.012355e+003, 4.657948e+003
1.012837e+003, 4.653516e+003
1.013319e+003, 4.656303e+003
1.013801e+003, 4.656956e+003
1.014283e+003, 4.654167e+003
1.014765e+003, 4.650037e+003
1.015247e+003, 4.646270e+003
1.015729e+003, 4.643051e+003
1.016211e+003, 4.641304e+003
1.016694e+003, 4.641114e+003
1.017176e+003, 4.643183e+003
1.017658e+003, 4.651132e+003
1.018140e+003, 4.658789e+003
1.018622e+003, 4.661262e+003
1.019104e+003, 4.659054e+003
1.019586e+003, 4.658468e+003
1.020068e+003, 4.660133e+003
1.020551e+003, 4.660446e+003
1.021033e+003, 4.657486e+003
1.021515e+003, 4.653978e+003
1.021997e+003, 4.654802e+003
1.022479e+003, 4.658278e+003
1.022961e+003, 4.660948e+003
1.023443e+003, 4.659997e+003
1.023925e+003, 4.662254e+003
1.024407e+003, 4.673546e+003
1.024890e+003, 4.684461e+003
1.025372e+003, 4.686931e+003
1.025854e+003, 4.680962e+003
1.026336e+003, 4.681131e+003
1.026818e+003, 4.687298e+003
1.027300e+003, 4.692208e+003
1.027782e+003, 4.688119e+003
1.028264e+003, 4.683353e+003
1.028746e+003, 4.685252e+003
1.029229e+003, 4.692323e+003
1.029711e+003, 4.697814e+003
1.030193e+003, 4.700546e+003
1.030675e+003, 4.703886e+003
1.031157e+003, 4.708772e+003
1.031639e+003, 4.713671e+003
1.032121e+003, 4.715004e+003
1.032603e+003, 4.714974e+003
1.033086e+003, 4.719558e+003
1.033568e+003, 4.730675e+003
1.034050e+003, 4.739468e+003
1.034532e+003, 4.737625e+003
1.035014e+003, 4.736683e+003
1.035496e+003, 4.744618e+003
1.035978e+003, 4.759910e+003
1.036460e+003, 4.764972e+003
1.036943e+003, 4.759918e+003
1.037425e+003, 4.756761e+003
1.037907e+003, 4.761958e+003
1.038389e+003, 4.770729e+003
1.038871e+003, 4.780735e+003
1.039353e+003, 4.790508e+003
1.039835e+003, 4.797112e+003
1.040317e+003, 4.797272e+003
1.040799e+003, 4.799803e+003
1.041281e+003, 4.805794e+003
1.041764e+003, 4.812233e+003
1.042246e+003, 4.815296e+003
1.042728e+003, 4.816649e+003
1.043210e+003, 4.820778e+003
1.043692e+003, 4.827820e+003
1.044174e+003, 4.835397e+003
1.044656e+003, 4.844846e+003
1.045138e+003, 4.851683e+003
1.045621e+003, 4.852055e+003
1.046103e+003, 4.849081e+003
1.046585e+003, 4.852728e+003
1.047067e+003, 4.863203e+003
1.047549e+003, 4.868728e+003
1.048031e+003, 4.865165e+003
1.048513e+003, 4.860260e+003
1.048995e+003, 4.860939e+003
1.049478e+003, 4.865263e+003
1.049960e+003, 4.871687e+003
1.050442e+003, 4.881216e+003
1.050924e+003, 4.887539e+003
1.051406e+003, 4.888959e+003
1.051888e+003, 4.891172e+003
1.052370e+003, 4.896667e+003
1.052852e+003, 4.905539e+003
1.053334e+003, 4.921392e+003
1.053817e+003, 4.941249e+003
1.054299e+003, 4.955387e+003
1.054781e+003, 4.952610e+003
1.055263e+003, 4.951784e+003
1.055745e+003, 4.963754e+003
1.056227e+003, 4.976455e+003
1.056709e+003, 4.974382e+003
1.057191e+003, 4.957254e+003
1.057673e+003, 4.944729e+003
1.058156e+003, 4.938382e+003
1.058638e+003, 4.933407e+003
1.059120e+003, 4.924118e+003
1.059602e+003, 4.915921e+003
1.060084e+003, 4.915286e+003
1.060566e+003, 4.921387e+003
1.061048e+003, 4.922588e+003
1.061530e+003, 4.917271e+003
1.062013e+003, 4.911058e+003
1.062495e+003, 4.905104e+003
1.062977e+003, 4.899682e+003
1.063459e+003, 4.895679e+003
1.063941e+003, 4.892323e+003
1.064423e+003, 4.887903e+003
1.064905e+003, 4.881768e+003
1.065387e+003, 4.875516e+003
1.065870e+003, 4.866683e+003
1.066352e+003, 4.861145e+003
1.066834e+003, 4.863369e+003
1.067316e+003, 4.871885e+003
1.067798e+003, 4.875513e+003
1.068280e+003, 4.874663e+003
1.068762e+003, 4.873298e+003
1.069244e+003, 4.873310e+003
1.069726e+003, 4.873585e+003
1.070208e+003, 4.874137e+003
1.070691e+003, 4.874149e+003
1.071173e+003, 4.871905e+003
1.071655e+003, 4.865697e+003
1.072137e+003, 4.863617e+003
1.072619e+003, 4.866261e+003
1.073101e+003, 4.872068e+003
1.073583e+003, 4.882733e+003
1.074065e+003, 4.893786e+003
1.074548e+003, 4.899312e+003
1.075030e+003, 4.899386e+003
1.075512e+003, 4.897542e+003
1.075994e+003, 4.891832e+003
1.076476e+003, 4.888725e+003
1.076958e+003, 4.890427e+003
1.077440e+003, 4.894283e+003
1.077922e+003, 4.895259e+003
1.078405e+003, 4.894217e+003
1.078887e+003, 4.894042e+003
1.079369e+003, 4.895471e+003
1.079851e+003, 4.896806e+003
1.080333e+003, 4.895636e+003
1.080815e+003, 4.895606e+003
1.081297e+003, 4.899386e+003
1.081779e+003, 4.906506e+003
1.082261e+003, 4.912009e+003
1.082744e+003, 4.915926e+003
1.083226e+003, 4.918804e+003
1.083708e+003, 4.919855e+003
1.084190e+003, 4.921451e+003
1.084672e+003, 4.925554e+003
1.085154e+003, 4.931671e+003
1.085636e+003, 4.939140e+003
1.086118e+003, 4.947410e+003
1.086601e+003, 4.958599e+003
1.087083e+003, 4.973834e+003
1.087565e+003, 4.988019e+003
1.088047e+003, 4.992959e+003
1.088529e+003, 4.996267e+003
1.089011e+003, 5.015394e+003
1.089493e+003, 5.046149e+003
1.089975e+003, 5.070433e+003
1.090458e+003, 5.069996e+003
1.090940e+003, 5.078707e+003
1.091422e+003, 5.105243e+003
1.091904e+003, 5.139941e+003
1.092386e+003, 5.169088e+003
1.092868e+003, 5.193623e+003
1.093350e+003, 5.215618e+003
1.093832e+003, 5.235165e+003
1.094314e+003, 5.258304e+003
1.094797e+003, 5.291207e+003
1.095279e+003, 5.326493e+003
1.095761e+003, 5.361670e+003
1.096243e+003, 5.395281e+003
1.096725e+003, 5.424097e+003
1.097207e+003, 5.448068e+003
1.097689e+003, 5.467326e+003
1.098171e+003, 5.481403e+003
1.098653e+003, 5.492151e+003
1.099136e+003, 5.503591e+003
1.099618e+003, 5.511657e+003
1.100100e+003, 5.511029e+003
1.100582e+003, 5.499263e+003
1.101064e+003, 5.487746e+003
1.101546e+003, 5.477897e+003
1.102028e+003, 5.462643e+003
1.102510e+003, 5.436710e+003
1.102993e+003, 5.403877e+003
1.103475e+003, 5.367618e+003
1.103957e+003, 5.330087e+003
1.104439e+003, 5.296369e+003
1.104921e+003, 5.274248e+003
1.105403e+003, 5.247233e+003
1.105885e+003, 5.211014e+003
1.106367e+003, 5.174907e+003
1.106849e+003, 5.148271e+003
1.107332e+003, 5.129583e+003
1.107814e+003, 5.113808e+003
1.108296e+003, 5.100334e+003
1.108778e+003, 5.086964e+003
1.109260e+003, 5.072405e+003
1.109742e+003, 5.057771e+003
1.110224e+003, 5.042100e+003
1.110706e+003, 5.027445e+003
1.111188e+003, 5.017907e+003
1.111671e+003, 5.013241e+003
1.112153e+003, 5.006050e+003
1.112635e+003, 4.994918e+003
1.113117e+003, 4.985860e+003
1.113599e+003, 4.985035e+003
1.114081e+003, 4.987261e+003
1.114563e+003, 4.988058e+003
1.115045e+003, 4.987795e+003
1.115528e+003, 4.991444e+003
1.116010e+003, 4.999566e+003
1.116492e+003, 5.008321e+003
1.116974e+003, 5.017371e+003
1.117456e+003, 5.024074e+003
1.117938e+003, 5.024279e+003
1.118420e+003, 5.020339e+003
1.118902e+003, 5.014365e+003
1.119385e+003, 5.004978e+003
1.119867e+003, 5.001501e+003
1.120349e+003, 5.006765e+003
1.120831e+003, 5.010574e+003
1.121313e+003, 5.006914e+003
1.121795e+003, 4.998968e+003
1.122277e+003, 4.993614e+003
1.122759e+003, 4.989575e+003
1.123241e+003, 4.983770e+003
1.123724e+003, 4.974683e+003
1.124206e+003, 4.964724e+003
1.124688e+003, 4.953034e+003
1.125170e+003, 4.942874e+003
1.125652e+003, 4.938121e+003
1.126134e+003, 4.937604e+003
1.126616e+003, 4.934686e+003
1.127098e+003, 4.929813e+003
1.127580e+003, 4.925604e+003
1.128063e+003, 4.925360e+003
1.128545e+003, 4.923861e+003
1.129027e+003, 4.917284e+003
1.129509e+003, 4.909411e+003
1.129991e+003, 4.904852e+003
1.130473e+003, 4.903507e+003
1.130955e+003, 4.905063e+003
1.131437e+003, 4.909464e+003
1.131920e+003, 4.913916e+003
1.132402e+003, 4.917535e+003
1.132884e+003, 4.919238e+003
1.133366e+003, 4.916025e+003
1.133848e+003, 4.910208e+003
1.134330e+003, 4.910665e+003
1.134812e+003, 4.918423e+003
1.135294e+003, 4.923282e+003
1.135776e+003, 4.922419e+003
1.136259e+003, 4.921739e+003
1.136741e+003, 4.929432e+003
1.137223e+003, 4.939089e+003
1.137705e+003, 4.944026e+003
1.138187e+003, 4.943142e+003
1.138669e+003, 4.941919e+003
1.139151e+003, 4.939591e+003
1.139633e+003, 4.940366e+003
1.140115e+003, 4.947226e+003
1.140598e+003, 4.954814e+003
1.141080e+003, 4.955093e+003
1.141562e+003, 4.950757e+003
1.142044e+003, 4.945433e+003
1.142526e+003, 4.938668e+003
1.143008e+003, 4.935808e+003
1.143490e+003, 4.937681e+003
1.143972e+003, 4.942478e+003
1.144455e+003, 4.951560e+003
1.144937e+003, 4.961210e+003
1.145419e+003, 4.960489e+003
1.145901e+003, 4.953147e+003
1.146383e+003, 4.948836e+003
1.146865e+003, 4.953279e+003
1.147347e+003, 4.957531e+003
1.147829e+003, 4.960905e+003
1.148312e+003, 4.962762e+003
1.148794e+003, 4.961412e+003
1.149276e+003, 4.957992e+003
1.149758e+003, 4.959610e+003
1.150240e+003, 4.965012e+003
1.150722e+003, 4.967317e+003
1.151204e+003, 4.955933e+003
1.151686e+003, 4.950072e+003
1.152168e+003, 4.961247e+003
1.152651e+003, 4.976313e+003
1.153133e+003, 4.979012e+003
1.153615e+003, 4.970720e+003
1.154097e+003, 4.965507e+003
1.154579e+003, 4.964278e+003
1.155061e+003, 4.964386e+003
1.155543e+003, 4.964501e+003
1.156025e+003, 4.965040e+003
1.156507e+003, 4.966501e+003
1.156990e+003, 4.968407e+003
1.157472e+003, 4.969307e+003
1.157954e+003, 4.969169e+003
1.158436e+003, 4.972796e+003
1.158918e+003, 4.981148e+003
1.159400e+003, 4.989509e+003
1.159882e+003, 4.997380e+003
1.160364e+003, 5.000907e+003
1.160847e+003, 4.993053e+003
1.161329e+003, 4.977401e+003
1.161811e+003, 4.972810e+003
1.162293e+003, 4.980470e+003
1.162775e+003, 4.985844e+003
1.163257e+003, 4.984887e+003
1.163739e+003, 4.982835e+003
1.164221e+003, 4.987064e+003
1.164703e+003, 4.991525e+003
1.165186e+003, 4.988964e+003
1.165668e+003, 4.978519e+003
1.166150e+003, 4.971147e+003
1.166632e+003, 4.966850e+003
1.167114e+003, 4.966665e+003
1.167596e+003, 4.972134e+003
1.168078e+003, 4.979621e+003
1.168560e+003, 4.986136e+003
1.169042e+003, 4.990943e+003
1.169525e+003, 4.992062e+003
1.170007e+003, 4.987066e+003
1.170489e+003, 4.988177e+003
1.170971e+003, 4.997313e+003
1.171453e+003, 5.005289e+003
1.171935e+003, 5.006069e+003
1.172417e+003, 5.004351e+003
1.172899e+003, 5.006978e+003
1.173382e+003, 5.012597e+003
1.173864e+003, 5.018956e+003
1.174346e+003, 5.027539e+003
1.174828e+003, 5.032054e+003
1.175310e+003, 5.031681e+003
1.175792e+003, 5.029085e+003
1.176274e+003, 5.024558e+003
1.176756e+003, 5.019925e+003
1.177239e+003, 5.018953e+003
1.177721e+003, 5.020741e+003
1.178203e+003, 5.022913e+003
1.178685e+003, 5.026183e+003
1.179167e+003, 5.027661e+003
1.179649e+003, 5.026912e+003
1.180131e+003, 5.025493e+003
1.180613e+003, 5.024884e+003
1.181095e+003, 5.024797e+003
1.181578e+003, 5.024704e+003
1.182060e+003, 5.024521e+003
1.182542e+003, 5.023762e+003
1.183024e+003, 5.019697e+003
1.183506e+003, 5.019270e+003
1.183988e+003, 5.024961e+003
1.184470e+003, 5.031692e+003
1.184952e+003, 5.031381e+003
1.185434e+003, 5.027909e+003
1.185917e+003, 5.033197e+003
1.186399e+003, 5.046647e+003
1.186881e+003, 5.056698e+003
1.187363e+003, 5.056576e+003
1.187845e+003, 5.054210e+003
1.188327e+003, 5.049528e+003
1.188809e+003, 5.046052e+003
1.189291e+003, 5.051594e+003
1.189774e+003, 5.062487e+003
1.190256e+003, 5.066910e+003
1.190738e+003, 5.063599e+003
1.191220e+003, 5.060808e+003
1.191702e+003, 5.063837e+003
1.192184e+003, 5.065599e+003
1.192666e+003, 5.062710e+003
1.193148e+003, 5.058782e+003
1.193630e+003, 5.063625e+003
1.194113e+003, 5.073666e+003
1.194595e+003, 5.075205e+003
1.195077e+003, 5.065147e+003
1.195559e+003, 5.057399e+003
1.196041e+003, 5.061755e+003
1.196523e+003, 5.065879e+003
1.197005e+003, 5.064183e+003
1.197487e+003, 5.059741e+003
1.197969e+003, 5.061895e+003
1.198452e+003, 5.068587e+003
1.198934e+003, 5.071825e+003
1.199416e+003, 5.068729e+003
1.199898e+003, 5.066840e+003
1.200380e+003, 5.071523e+003
1.200862e+003, 5.075957e+003
1.201344e+003, 5.076685e+003
1.201826e+003, 5.074738e+003
1.202309e+003, 5.072917e+003
1.202791e+003, 5.071681e+003
1.203273e+003, 5.073362e+003
1.203755e+003, 5.079911e+003
1.204237e+003, 5.085676e+003
1.204719e+003, 5.088133e+003
1.205201e+003, 5.089080e+003
1.205683e+003, 5.089653e+003
1.206166e+003, 5.089615e+003
1.206648e+003, 5.087285e+003
1.207130e+003, 5.083085e+003
1.207612e+003, 5.077927e+003
1.208094e+003, 5.069177e+003
1.208576e+003, 5.066261e+003
1.209058e+003, 5.080868e+003
1.209540e+003, 5.095204e+003
1.210022e+003, 5.096462e+003
1.210505e+003, 5.087463e+003
1.210987e+003, 5.086405e+003
1.211469e+003, 5.091792e+003
1.211951e+003, 5.096773e+003
1.212433e+003, 5.097563e+003
1.212915e+003, 5.098753e+003
1.213397e+003, 5.101355e+003
1.213879e+003, 5.105698e+003
1.214361e+003, 5.113947e+003
1.214844e+003, 5.124668e+003
1.215326e+003, 5.125237e+003
1.215808e+003, 5.117813e+003
1.216290e+003, 5.113454e+003
1.216772e+003, 5.121201e+003
1.217254e+003, 5.128005e+003
1.217736e+003, 5.130040e+003
1.218218e+003, 5.129443e+003
1.218701e+003, 5.126569e+003
1.219183e+003, 5.122219e+003
1.219665e+003, 5.123266e+003
1.220147e+003, 5.128533e+003
1.220629e+003, 5.131348e+003
1.221111e+003, 5.125451e+003
1.221593e+003, 5.120743e+003
1.222075e+003, 5.119931e+003
1.222557e+003, 5.121559e+003
1.223040e+003, 5.125662e+003
1.223522e+003, 5.131208e+003
1.224004e+003, 5.132765e+003
1.224486e+003, 5.130535e+003
1.224968e+003, 5.126446e+003
1.225450e+003, 5.118918e+003
1.225932e+003, 5.113073e+003
1.226414e+003, 5.109946e+003
1.226896e+003, 5.108894e+003
1.227379e+003, 5.109244e+003
1.227861e+003, 5.110996e+003
1.228343e+003, 5.114738e+003
1.228825e+003, 5.120169e+003
1.229307e+003, 5.125435e+003
1.229789e+003, 5.133694e+003
1.230271e+003, 5.135201e+003
1.230753e+003, 5.124636e+003
1.231236e+003, 5.112046e+003
1.231718e+003, 5.112303e+003
1.232200e+003, 5.120579e+003
1.232682e+003, 5.123744e+003
1.233164e+003, 5.121405e+003
1.233646e+003, 5.118019e+003
1.234128e+003, 5.110373e+003
1.234610e+003, 5.110266e+003
1.235093e+003, 5.123319e+003
1.235575e+003, 5.138384e+003
1.236057e+003, 5.139059e+003
1.236539e+003, 5.130674e+003
1.237021e+003, 5.122487e+003
1.237503e+003, 5.116073e+003
1.237985e+003, 5.117186e+003
1.238467e+003, 5.137328e+003
1.238949e+003, 5.149965e+003
1.239432e+003, 5.148736e+003
1.239914e+003, 5.142777e+003
1.240396e+003, 5.144370e+003
1.240878e+003, 5.150288e+003
1.241360e+003, 5.154929e+003
1.241842e+003, 5.157836e+003
1.242324e+003, 5.160345e+003
1.242806e+003, 5.163270e+003
1.243288e+003, 5.164646e+003
1.243771e+003, 5.163784e+003
1.244253e+003, 5.162068e+003
1.244735e+003, 5.158774e+003
1.245217e+003, 5.157151e+003
1.245699e+003, 5.165531e+003
1.246181e+003, 5.183449e+003
1.246663e+003, 5.189367e+003
1.247145e+003, 5.175668e+003
1.247628e+003, 5.168261e+003
1.248110e+003, 5.173807e+003
1.248592e+003, 5.183038e+003
1.249074e+003, 5.185034e+003
1.249556e+003, 5.183556e+003
1.250038e+003, 5.182948e+003
1.250520e+003, 5.183578e+003
1.251002e+003, 5.183218e+003
1.251484e+003, 5.180996e+003
1.251967e+003, 5.181955e+003
1.252449e+003, 5.188050e+003
1.252931e+003, 5.194351e+003
1.253413e+003, 5.194839e+003
1.253895e+003, 5.193298e+003
1.254377e+003, 5.194031e+003
1.254859e+003, 5.196826e+003
1.255341e+003, 5.195573e+003
1.255823e+003, 5.189260e+003
1.256306e+003, 5.187794e+003
1.256788e+003, 5.194189e+003
1.257270e+003, 5.201899e+003
1.257752e+003, 5.204902e+003
1.258234e+003, 5.206415e+003
1.258716e+003, 5.209083e+003
1.259198e+003, 5.212783e+003
1.259680e+003, 5.217034e+003
1.260163e+003, 5.221879e+003
1.260645e+003, 5.223108e+003
1.261127e+003, 5.219396e+003
1.261609e+003, 5.214774e+003
1.262091e+003, 5.211500e+003
1.262573e+003, 5.209371e+003
1.263055e+003, 5.209415e+003
1.263537e+003, 5.210207e+003
1.264020e+003, 5.204939e+003
1.264502e+003, 5.194847e+003
1.264984e+003, 5.189618e+003
1.265466e+003, 5.191871e+003
1.265948e+003, 5.196315e+003
1.266430e+003, 5.203749e+003
1.266912e+003, 5.207903e+003
1.267394e+003, 5.204365e+003
1.267876e+003, 5.196611e+003
1.268359e+003, 5.194624e+003
1.268841e+003, 5.196777e+003
1.269323e+003, 5.196561e+003
1.269805e+003, 5.192034e+003
1.270287e+003, 5.189896e+003
1.270769e+003, 5.195774e+003
1.271251e+003, 5.201075e+003
1.271733e+003, 5.202677e+003
1.272215e+003, 5.202470e+003
1.272698e+003, 5.205715e+003
1.273180e+003, 5.210120e+003
1.273662e+003, 5.209203e+003
1.274144e+003, 5.200889e+003
1.274626e+003, 5.197091e+003
1.275108e+003, 5.201157e+003
1.275590e+003, 5.207753e+003
1.276072e+003, 5.216470e+003
1.276555e+003, 5.224254e+003
1.277037e+003, 5.223907e+003
1.277519e+003, 5.220042e+003
1.278001e+003, 5.220409e+003
1.278483e+003, 5.226574e+003
1.278965e+003, 5.229122e+003
1.279447e+003, 5.226615e+003
1.279929e+003, 5.223333e+003
1.280411e+003, 5.219899e+003
1.280894e+003, 5.217930e+003
1.281376e+003, 5.221319e+003
1.281858e+003, 5.225952e+003
1.282340e+003, 5.226512e+003
1.282822e+003, 5.222794e+003
1.283304e+003, 5.221829e+003
1.283786e+003, 5.223930e+003
1.284268e+003, 5.225845e+003
1.284750e+003, 5.226925e+003
1.285233e+003, 5.226930e+003
1.285715e+003, 5.223335e+003
1.286197e+003, 5.220732e+003
1.286679e+003, 5.225675e+003
1.287161e+003, 5.235070e+003
1.287643e+003, 5.232218e+003
1.288125e+003, 5.218568e+003
1.288607e+003, 5.213331e+003
1.289090e+003, 5.222346e+003
1.289572e+003, 5.231997e+003
1.290054e+003, 5.233649e+003
1.290536e+003, 5.233698e+003
1.291018e+003, 5.234805e+003
1.291500e+003, 5.237468e+003
1.291982e+003, 5.245509e+003
1.292464e+003, 5.256406e+003
1.292947e+003, 5.260305e+003
1.293429e+003, 5.254570e+003
1.293911e+003, 5.249216e+003
1.294393e+003, 5.247200e+003
1.294875e+003, 5.247640e+003
1.295357e+003, 5.250431e+003
1.295839e+003, 5.254823e+003
1.296321e+003, 5.260938e+003
1.296803e+003, 5.268018e+003
1.297286e+003, 5.273839e+003
1.297768e+003, 5.277886e+003
1.298250e+003, 5.284519e+003
1.298732e+003, 5.297645e+003
1.299214e+003, 5.303328e+003
1.299696e+003, 5.296534e+003
1.300178e+003, 5.286274e+003
1.300660e+003, 5.282911e+003
##END=



