##NAMES=Aegirine
##RRUFFID=R120167
##IDEAL CHEMISTRY=NaFe^3+^Si_2_O_6_
##LOCALITY=Locotal metaevaporite breccia, Alto Chapare, Cochabamba Dept, Bolivia
##OWNER=RRUFF
##SOURCE=Rock Currier
##DESCRIPTION=Mass of dark green crystals
##STATUS=The identification of this mineral has been confirmed only by single crystal X-ray diffraction.
##URL=rruff.info/R120167
8.975323e+001, 0.000000e+000
9.023535e+001, 2.530334e+002
9.071747e+001, 2.532461e+002
9.119958e+001, 2.523560e+002
9.168170e+001, 2.539704e+002
9.216382e+001, 2.541220e+002
9.264594e+001, 2.528113e+002
9.312805e+001, 2.509676e+002
9.361017e+001, 2.489728e+002
9.409229e+001, 2.459161e+002
9.457440e+001, 2.408047e+002
9.505651e+001, 2.363268e+002
9.553863e+001, 2.328377e+002
9.602074e+001, 2.299236e+002
9.650286e+001, 2.273154e+002
9.698498e+001, 2.247580e+002
9.746709e+001, 2.217412e+002
9.794921e+001, 2.184430e+002
9.843133e+001, 2.142581e+002
9.891344e+001, 2.105746e+002
9.939556e+001, 2.078395e+002
9.987768e+001, 2.058180e+002
1.003598e+002, 2.039769e+002
1.008419e+002, 2.020036e+002
1.013240e+002, 1.999500e+002
1.018061e+002, 1.980549e+002
1.022883e+002, 1.964339e+002
1.027704e+002, 1.948548e+002
1.032525e+002, 1.929446e+002
1.037346e+002, 1.905421e+002
1.042167e+002, 1.885287e+002
1.046988e+002, 1.878822e+002
1.051810e+002, 1.879220e+002
1.056631e+002, 1.876595e+002
1.061452e+002, 1.864949e+002
1.066273e+002, 1.846543e+002
1.071094e+002, 1.830757e+002
1.075915e+002, 1.818838e+002
1.080737e+002, 1.808169e+002
1.085558e+002, 1.798208e+002
1.090379e+002, 1.788523e+002
1.095200e+002, 1.778336e+002
1.100021e+002, 1.766106e+002
1.104842e+002, 1.750582e+002
1.109664e+002, 1.740008e+002
1.114485e+002, 1.737565e+002
1.119306e+002, 1.736965e+002
1.124127e+002, 1.736590e+002
1.128948e+002, 1.735577e+002
1.133769e+002, 1.732820e+002
1.138591e+002, 1.726529e+002
1.143412e+002, 1.712909e+002
1.148233e+002, 1.702395e+002
1.153054e+002, 1.697085e+002
1.157875e+002, 1.693695e+002
1.162696e+002, 1.688950e+002
1.167517e+002, 1.681618e+002
1.172339e+002, 1.672839e+002
1.177160e+002, 1.665184e+002
1.181981e+002, 1.658066e+002
1.186802e+002, 1.652627e+002
1.191623e+002, 1.649744e+002
1.196444e+002, 1.648875e+002
1.201266e+002, 1.648408e+002
1.206087e+002, 1.647198e+002
1.210908e+002, 1.646496e+002
1.215729e+002, 1.648410e+002
1.220550e+002, 1.653896e+002
1.225371e+002, 1.660317e+002
1.230193e+002, 1.665436e+002
1.235014e+002, 1.669149e+002
1.239835e+002, 1.672538e+002
1.244656e+002, 1.673764e+002
1.249477e+002, 1.675760e+002
1.254298e+002, 1.681798e+002
1.259120e+002, 1.693596e+002
1.263941e+002, 1.709277e+002
1.268762e+002, 1.723763e+002
1.273583e+002, 1.732820e+002
1.278404e+002, 1.748689e+002
1.283225e+002, 1.772929e+002
1.288047e+002, 1.805283e+002
1.292868e+002, 1.845484e+002
1.297689e+002, 1.893709e+002
1.302510e+002, 1.949722e+002
1.307331e+002, 2.010168e+002
1.312152e+002, 2.090320e+002
1.316974e+002, 2.160705e+002
1.321795e+002, 2.223782e+002
1.326616e+002, 2.272102e+002
1.331437e+002, 2.291021e+002
1.336258e+002, 2.266406e+002
1.341079e+002, 2.191719e+002
1.345901e+002, 2.107753e+002
1.350722e+002, 2.002092e+002
1.355543e+002, 1.898632e+002
1.360364e+002, 1.809536e+002
1.365185e+002, 1.736546e+002
1.370006e+002, 1.676629e+002
1.374828e+002, 1.628426e+002
1.379649e+002, 1.593622e+002
1.384470e+002, 1.565508e+002
1.389291e+002, 1.546228e+002
1.394112e+002, 1.532412e+002
1.398933e+002, 1.520453e+002
1.403755e+002, 1.509747e+002
1.408576e+002, 1.500478e+002
1.413397e+002, 1.493522e+002
1.418218e+002, 1.488650e+002
1.423039e+002, 1.483981e+002
1.427860e+002, 1.479010e+002
1.432681e+002, 1.473692e+002
1.437503e+002, 1.467543e+002
1.442324e+002, 1.459052e+002
1.447145e+002, 1.451460e+002
1.451966e+002, 1.447754e+002
1.456787e+002, 1.447944e+002
1.461608e+002, 1.449030e+002
1.466430e+002, 1.448881e+002
1.471251e+002, 1.447501e+002
1.476072e+002, 1.444754e+002
1.480893e+002, 1.437419e+002
1.485714e+002, 1.430681e+002
1.490535e+002, 1.428247e+002
1.495357e+002, 1.430717e+002
1.500178e+002, 1.434771e+002
1.504999e+002, 1.435029e+002
1.509820e+002, 1.428456e+002
1.514641e+002, 1.424778e+002
1.519462e+002, 1.424680e+002
1.524284e+002, 1.427273e+002
1.529105e+002, 1.432477e+002
1.533926e+002, 1.440141e+002
1.538747e+002, 1.449288e+002
1.543568e+002, 1.457451e+002
1.548389e+002, 1.462497e+002
1.553211e+002, 1.469106e+002
1.558032e+002, 1.474345e+002
1.562853e+002, 1.482113e+002
1.567674e+002, 1.497796e+002
1.572495e+002, 1.524370e+002
1.577316e+002, 1.559361e+002
1.582138e+002, 1.592533e+002
1.586959e+002, 1.628808e+002
1.591780e+002, 1.658360e+002
1.596601e+002, 1.681246e+002
1.601422e+002, 1.695740e+002
1.606243e+002, 1.697095e+002
1.611065e+002, 1.680998e+002
1.615886e+002, 1.649782e+002
1.620707e+002, 1.617939e+002
1.625528e+002, 1.581156e+002
1.630349e+002, 1.547823e+002
1.635170e+002, 1.522269e+002
1.639991e+002, 1.504319e+002
1.644813e+002, 1.493300e+002
1.649634e+002, 1.491290e+002
1.654455e+002, 1.495968e+002
1.659276e+002, 1.501015e+002
1.664097e+002, 1.504094e+002
1.668918e+002, 1.508663e+002
1.673740e+002, 1.518102e+002
1.678561e+002, 1.532292e+002
1.683382e+002, 1.551869e+002
1.688203e+002, 1.577129e+002
1.693024e+002, 1.607798e+002
1.697845e+002, 1.644643e+002
1.702667e+002, 1.686705e+002
1.707488e+002, 1.735702e+002
1.712309e+002, 1.795225e+002
1.717130e+002, 1.864630e+002
1.721951e+002, 1.947668e+002
1.726772e+002, 2.039808e+002
1.731594e+002, 2.144969e+002
1.736415e+002, 2.268993e+002
1.741236e+002, 2.413526e+002
1.746057e+002, 2.579419e+002
1.750878e+002, 2.769350e+002
1.755699e+002, 2.965187e+002
1.760521e+002, 3.213779e+002
1.765342e+002, 3.536348e+002
1.770163e+002, 3.917715e+002
1.774984e+002, 4.345516e+002
1.779805e+002, 4.835887e+002
1.784626e+002, 5.391635e+002
1.789448e+002, 5.715331e+002
1.794269e+002, 5.788331e+002
1.799090e+002, 5.653845e+002
1.803911e+002, 5.205823e+002
1.808732e+002, 4.536428e+002
1.813553e+002, 3.844059e+002
1.818375e+002, 3.288190e+002
1.823196e+002, 2.873841e+002
1.828017e+002, 2.579940e+002
1.832838e+002, 2.426134e+002
1.837659e+002, 2.343050e+002
1.842480e+002, 2.308523e+002
1.847301e+002, 2.316829e+002
1.852123e+002, 2.364302e+002
1.856944e+002, 2.448555e+002
1.861765e+002, 2.574751e+002
1.866586e+002, 2.729305e+002
1.871407e+002, 2.899228e+002
1.876228e+002, 3.102879e+002
1.881050e+002, 3.360259e+002
1.885871e+002, 3.671250e+002
1.890692e+002, 4.014800e+002
1.895513e+002, 4.394227e+002
1.900334e+002, 4.803745e+002
1.905155e+002, 5.140481e+002
1.909977e+002, 5.452736e+002
1.914798e+002, 5.657771e+002
1.919619e+002, 5.643386e+002
1.924440e+002, 5.379608e+002
1.929261e+002, 4.984762e+002
1.934082e+002, 4.497377e+002
1.938904e+002, 3.950162e+002
1.943725e+002, 3.454793e+002
1.948546e+002, 3.037590e+002
1.953367e+002, 2.694658e+002
1.958188e+002, 2.422758e+002
1.963009e+002, 2.234393e+002
1.967831e+002, 2.093710e+002
1.972652e+002, 1.978845e+002
1.977473e+002, 1.885706e+002
1.982294e+002, 1.809978e+002
1.987115e+002, 1.752166e+002
1.991936e+002, 1.710228e+002
1.996758e+002, 1.676199e+002
2.001579e+002, 1.650732e+002
2.006400e+002, 1.633113e+002
2.011221e+002, 1.621269e+002
2.016042e+002, 1.615573e+002
2.020863e+002, 1.617200e+002
2.025685e+002, 1.627716e+002
2.030506e+002, 1.646847e+002
2.035327e+002, 1.669795e+002
2.040148e+002, 1.693178e+002
2.044969e+002, 1.724962e+002
2.049790e+002, 1.766050e+002
2.054612e+002, 1.817211e+002
2.059433e+002, 1.879695e+002
2.064254e+002, 1.953220e+002
2.069075e+002, 2.037402e+002
2.073896e+002, 2.140243e+002
2.078717e+002, 2.259844e+002
2.083539e+002, 2.401701e+002
2.088360e+002, 2.572943e+002
2.093181e+002, 2.769366e+002
2.098002e+002, 2.983315e+002
2.102823e+002, 3.214261e+002
2.107644e+002, 3.467867e+002
2.112466e+002, 3.674138e+002
2.117287e+002, 3.872741e+002
2.122108e+002, 3.994266e+002
2.126929e+002, 4.003910e+002
2.131750e+002, 3.908307e+002
2.136571e+002, 3.732253e+002
2.141393e+002, 3.489774e+002
2.146214e+002, 3.166221e+002
2.151035e+002, 2.876454e+002
2.155856e+002, 2.614956e+002
2.160677e+002, 2.382147e+002
2.165498e+002, 2.176830e+002
2.170320e+002, 1.999750e+002
2.175141e+002, 1.850996e+002
2.179962e+002, 1.733129e+002
2.184783e+002, 1.649805e+002
2.189604e+002, 1.581241e+002
2.194425e+002, 1.531019e+002
2.199247e+002, 1.490211e+002
2.204068e+002, 1.454806e+002
2.208889e+002, 1.424073e+002
2.213710e+002, 1.397477e+002
2.218531e+002, 1.374829e+002
2.223352e+002, 1.356656e+002
2.228174e+002, 1.340778e+002
2.232995e+002, 1.328377e+002
2.237816e+002, 1.317332e+002
2.242637e+002, 1.305696e+002
2.247458e+002, 1.293447e+002
2.252279e+002, 1.282834e+002
2.257100e+002, 1.276473e+002
2.261922e+002, 1.273838e+002
2.266743e+002, 1.269654e+002
2.271564e+002, 1.262019e+002
2.276385e+002, 1.253708e+002
2.281206e+002, 1.247175e+002
2.286027e+002, 1.242561e+002
2.290849e+002, 1.239170e+002
2.295670e+002, 1.237318e+002
2.300491e+002, 1.236363e+002
2.305312e+002, 1.234486e+002
2.310133e+002, 1.230952e+002
2.314954e+002, 1.226618e+002
2.319776e+002, 1.221686e+002
2.324597e+002, 1.215794e+002
2.329418e+002, 1.211914e+002
2.334239e+002, 1.214840e+002
2.339060e+002, 1.220526e+002
2.343881e+002, 1.222545e+002
2.348703e+002, 1.217530e+002
2.353524e+002, 1.209641e+002
2.358345e+002, 1.203590e+002
2.363166e+002, 1.198884e+002
2.367987e+002, 1.198038e+002
2.372808e+002, 1.206092e+002
2.377630e+002, 1.217597e+002
2.382451e+002, 1.226858e+002
2.387272e+002, 1.232088e+002
2.392093e+002, 1.234385e+002
2.396914e+002, 1.234961e+002
2.401735e+002, 1.233200e+002
2.406557e+002, 1.231710e+002
2.411378e+002, 1.231615e+002
2.416199e+002, 1.232222e+002
2.421020e+002, 1.232696e+002
2.425841e+002, 1.232523e+002
2.430662e+002, 1.232848e+002
2.435484e+002, 1.236232e+002
2.440305e+002, 1.244345e+002
2.445126e+002, 1.250913e+002
2.449947e+002, 1.253703e+002
2.454768e+002, 1.254618e+002
2.459589e+002, 1.254623e+002
2.464410e+002, 1.253935e+002
2.469232e+002, 1.253734e+002
2.474053e+002, 1.256551e+002
2.478874e+002, 1.264281e+002
2.483695e+002, 1.270455e+002
2.488516e+002, 1.272654e+002
2.493337e+002, 1.273794e+002
2.498159e+002, 1.276139e+002
2.502980e+002, 1.280370e+002
2.507801e+002, 1.285445e+002
2.512622e+002, 1.289317e+002
2.517443e+002, 1.290272e+002
2.522264e+002, 1.294039e+002
2.527086e+002, 1.303223e+002
2.531907e+002, 1.313546e+002
2.536728e+002, 1.321470e+002
2.541549e+002, 1.326311e+002
2.546370e+002, 1.330702e+002
2.551191e+002, 1.338854e+002
2.556013e+002, 1.352470e+002
2.560834e+002, 1.366376e+002
2.565655e+002, 1.378387e+002
2.570476e+002, 1.391976e+002
2.575297e+002, 1.409888e+002
2.580118e+002, 1.432377e+002
2.584940e+002, 1.457399e+002
2.589761e+002, 1.481826e+002
2.594582e+002, 1.503233e+002
2.599403e+002, 1.530766e+002
2.604224e+002, 1.570433e+002
2.609045e+002, 1.610546e+002
2.613867e+002, 1.643009e+002
2.618688e+002, 1.667636e+002
2.623509e+002, 1.690142e+002
2.628330e+002, 1.717890e+002
2.633151e+002, 1.754505e+002
2.637972e+002, 1.782559e+002
2.642794e+002, 1.798418e+002
2.647615e+002, 1.810554e+002
2.652436e+002, 1.821518e+002
2.657257e+002, 1.832574e+002
2.662078e+002, 1.844978e+002
2.666899e+002, 1.859068e+002
2.671721e+002, 1.873206e+002
2.676542e+002, 1.901600e+002
2.681363e+002, 1.950357e+002
2.686184e+002, 2.004513e+002
2.691005e+002, 2.055792e+002
2.695826e+002, 2.105274e+002
2.700648e+002, 2.159572e+002
2.705469e+002, 2.224735e+002
2.710290e+002, 2.300769e+002
2.715111e+002, 2.376111e+002
2.719932e+002, 2.452501e+002
2.724753e+002, 2.526556e+002
2.729575e+002, 2.600844e+002
2.734396e+002, 2.672068e+002
2.739217e+002, 2.732784e+002
2.744038e+002, 2.778808e+002
2.748859e+002, 2.809820e+002
2.753680e+002, 2.818596e+002
2.758501e+002, 2.806533e+002
2.763322e+002, 2.777307e+002
2.768144e+002, 2.728652e+002
2.772965e+002, 2.663560e+002
2.777786e+002, 2.587819e+002
2.782607e+002, 2.503894e+002
2.787428e+002, 2.412753e+002
2.792249e+002, 2.316840e+002
2.797071e+002, 2.206151e+002
2.801892e+002, 2.102883e+002
2.806713e+002, 2.013211e+002
2.811534e+002, 1.934553e+002
2.816355e+002, 1.862226e+002
2.821176e+002, 1.794225e+002
2.825998e+002, 1.731556e+002
2.830819e+002, 1.679164e+002
2.835640e+002, 1.638020e+002
2.840461e+002, 1.602532e+002
2.845282e+002, 1.571163e+002
2.850103e+002, 1.544917e+002
2.854925e+002, 1.525969e+002
2.859746e+002, 1.515327e+002
2.864567e+002, 1.510286e+002
2.869388e+002, 1.506576e+002
2.874209e+002, 1.503676e+002
2.879030e+002, 1.503585e+002
2.883852e+002, 1.506517e+002
2.888673e+002, 1.512507e+002
2.893494e+002, 1.521664e+002
2.898315e+002, 1.534023e+002
2.903136e+002, 1.549459e+002
2.907957e+002, 1.570188e+002
2.912779e+002, 1.597771e+002
2.917600e+002, 1.616602e+002
2.922421e+002, 1.622023e+002
2.927242e+002, 1.619743e+002
2.932063e+002, 1.615228e+002
2.936884e+002, 1.609159e+002
2.941706e+002, 1.599166e+002
2.946527e+002, 1.582266e+002
2.951348e+002, 1.558100e+002
2.956169e+002, 1.533675e+002
2.960990e+002, 1.508545e+002
2.965811e+002, 1.483723e+002
2.970633e+002, 1.458970e+002
2.975454e+002, 1.434691e+002
2.980275e+002, 1.413444e+002
2.985096e+002, 1.397458e+002
2.989917e+002, 1.386489e+002
2.994738e+002, 1.376180e+002
2.999560e+002, 1.364060e+002
3.004381e+002, 1.354856e+002
3.009202e+002, 1.351599e+002
3.014023e+002, 1.353770e+002
3.018844e+002, 1.358883e+002
3.023665e+002, 1.366020e+002
3.028487e+002, 1.375134e+002
3.033308e+002, 1.385683e+002
3.038129e+002, 1.397416e+002
3.042950e+002, 1.410772e+002
3.047771e+002, 1.426238e+002
3.052592e+002, 1.443501e+002
3.057414e+002, 1.462096e+002
3.062235e+002, 1.482290e+002
3.067056e+002, 1.502882e+002
3.071877e+002, 1.521534e+002
3.076698e+002, 1.538540e+002
3.081519e+002, 1.553614e+002
3.086341e+002, 1.567237e+002
3.091162e+002, 1.578734e+002
3.095983e+002, 1.587475e+002
3.100804e+002, 1.593744e+002
3.105625e+002, 1.595169e+002
3.110446e+002, 1.586678e+002
3.115268e+002, 1.568265e+002
3.120089e+002, 1.549050e+002
3.124910e+002, 1.529013e+002
3.129731e+002, 1.509919e+002
3.134552e+002, 1.493571e+002
3.139373e+002, 1.480272e+002
3.144195e+002, 1.469651e+002
3.149016e+002, 1.461433e+002
3.153837e+002, 1.455762e+002
3.158658e+002, 1.452811e+002
3.163479e+002, 1.453570e+002
3.168300e+002, 1.456375e+002
3.173121e+002, 1.458833e+002
3.177943e+002, 1.461223e+002
3.182764e+002, 1.467584e+002
3.187585e+002, 1.481192e+002
3.192406e+002, 1.501320e+002
3.197227e+002, 1.522213e+002
3.202048e+002, 1.543022e+002
3.206870e+002, 1.565488e+002
3.211691e+002, 1.590670e+002
3.216512e+002, 1.618289e+002
3.221333e+002, 1.647775e+002
3.226154e+002, 1.678595e+002
3.230975e+002, 1.711292e+002
3.235797e+002, 1.745671e+002
3.240618e+002, 1.778657e+002
3.245439e+002, 1.819092e+002
3.250260e+002, 1.873179e+002
3.255081e+002, 1.936453e+002
3.259902e+002, 2.000434e+002
3.264724e+002, 2.062047e+002
3.269545e+002, 2.125581e+002
3.274366e+002, 2.197526e+002
3.279187e+002, 2.276754e+002
3.284008e+002, 2.366048e+002
3.288829e+002, 2.465862e+002
3.293651e+002, 2.575833e+002
3.298472e+002, 2.693214e+002
3.303293e+002, 2.817513e+002
3.308114e+002, 2.956351e+002
3.312935e+002, 3.118544e+002
3.317756e+002, 3.306390e+002
3.322578e+002, 3.510214e+002
3.327399e+002, 3.724026e+002
3.332220e+002, 3.956582e+002
3.337041e+002, 4.216740e+002
3.341862e+002, 4.502534e+002
3.346683e+002, 4.811104e+002
3.351505e+002, 5.144137e+002
3.356326e+002, 5.497972e+002
3.361147e+002, 5.834517e+002
3.365968e+002, 6.167607e+002
3.370789e+002, 6.475463e+002
3.375610e+002, 6.765026e+002
3.380432e+002, 7.024120e+002
3.385253e+002, 7.224753e+002
3.390074e+002, 7.356834e+002
3.394895e+002, 7.417204e+002
3.399716e+002, 7.384805e+002
3.404537e+002, 7.245030e+002
3.409359e+002, 7.058848e+002
3.414180e+002, 6.814206e+002
3.419001e+002, 6.537448e+002
3.423822e+002, 6.258749e+002
3.428643e+002, 5.987719e+002
3.433464e+002, 5.725945e+002
3.438286e+002, 5.476526e+002
3.443107e+002, 5.242091e+002
3.447928e+002, 5.016488e+002
3.452749e+002, 4.808813e+002
3.457570e+002, 4.605444e+002
3.462391e+002, 4.396369e+002
3.467213e+002, 4.181932e+002
3.472034e+002, 3.963262e+002
3.476855e+002, 3.741705e+002
3.481676e+002, 3.515797e+002
3.486497e+002, 3.311422e+002
3.491318e+002, 3.125781e+002
3.496140e+002, 2.960121e+002
3.500961e+002, 2.819902e+002
3.505782e+002, 2.701661e+002
3.510603e+002, 2.597257e+002
3.515424e+002, 2.502698e+002
3.520245e+002, 2.418436e+002
3.525067e+002, 2.346219e+002
3.529888e+002, 2.287526e+002
3.534709e+002, 2.239079e+002
3.539530e+002, 2.200095e+002
3.544351e+002, 2.171430e+002
3.549172e+002, 2.155225e+002
3.553994e+002, 2.152116e+002
3.558815e+002, 2.158279e+002
3.563636e+002, 2.166970e+002
3.568457e+002, 2.174637e+002
3.573278e+002, 2.193581e+002
3.578099e+002, 2.224793e+002
3.582920e+002, 2.265304e+002
3.587741e+002, 2.312431e+002
3.592563e+002, 2.366463e+002
3.597384e+002, 2.429490e+002
3.602205e+002, 2.504101e+002
3.607026e+002, 2.590789e+002
3.611847e+002, 2.685086e+002
3.616668e+002, 2.781370e+002
3.621490e+002, 2.890077e+002
3.626311e+002, 3.017958e+002
3.631132e+002, 3.161179e+002
3.635953e+002, 3.312654e+002
3.640774e+002, 3.469624e+002
3.645595e+002, 3.628056e+002
3.650417e+002, 3.771502e+002
3.655238e+002, 3.907146e+002
3.660059e+002, 4.014113e+002
3.664880e+002, 4.095651e+002
3.669701e+002, 4.146364e+002
3.674522e+002, 4.157820e+002
3.679344e+002, 4.128253e+002
3.684165e+002, 4.068809e+002
3.688986e+002, 3.992244e+002
3.693807e+002, 3.889193e+002
3.698628e+002, 3.794922e+002
3.703449e+002, 3.702329e+002
3.708271e+002, 3.624673e+002
3.713092e+002, 3.565381e+002
3.717913e+002, 3.526953e+002
3.722734e+002, 3.512367e+002
3.727555e+002, 3.525428e+002
3.732376e+002, 3.565763e+002
3.737198e+002, 3.623945e+002
3.742019e+002, 3.693533e+002
3.746840e+002, 3.792997e+002
3.751661e+002, 3.929447e+002
3.756482e+002, 4.097057e+002
3.761303e+002, 4.284335e+002
3.766125e+002, 4.485214e+002
3.770946e+002, 4.706739e+002
3.775767e+002, 4.967086e+002
3.780588e+002, 5.272604e+002
3.785409e+002, 5.599935e+002
3.790230e+002, 5.945518e+002
3.795052e+002, 6.308536e+002
3.799873e+002, 6.695352e+002
3.804694e+002, 7.106790e+002
3.809515e+002, 7.523759e+002
3.814336e+002, 7.940625e+002
3.819157e+002, 8.357127e+002
3.823979e+002, 8.718275e+002
3.828800e+002, 9.036378e+002
3.833621e+002, 9.263951e+002
3.838442e+002, 9.391403e+002
3.843263e+002, 9.418271e+002
3.848084e+002, 9.346826e+002
3.852906e+002, 9.166823e+002
3.857727e+002, 8.891230e+002
3.862548e+002, 8.535833e+002
3.867369e+002, 8.088234e+002
3.872190e+002, 7.608839e+002
3.877011e+002, 7.106281e+002
3.881833e+002, 6.597738e+002
3.886654e+002, 6.104545e+002
3.891475e+002, 5.622528e+002
3.896296e+002, 5.171702e+002
3.901117e+002, 4.771514e+002
3.905938e+002, 4.418589e+002
3.910760e+002, 4.100092e+002
3.915581e+002, 3.814592e+002
3.920402e+002, 3.560351e+002
3.925223e+002, 3.333120e+002
3.930044e+002, 3.132232e+002
3.934865e+002, 2.950093e+002
3.939687e+002, 2.787158e+002
3.944508e+002, 2.640464e+002
3.949329e+002, 2.508038e+002
3.954150e+002, 2.388719e+002
3.958971e+002, 2.280858e+002
3.963792e+002, 2.182478e+002
3.968614e+002, 2.094551e+002
3.973435e+002, 2.017271e+002
3.978256e+002, 1.957183e+002
3.983077e+002, 1.901192e+002
3.987898e+002, 1.838198e+002
3.992719e+002, 1.771197e+002
3.997540e+002, 1.712101e+002
4.002361e+002, 1.667756e+002
4.007183e+002, 1.633762e+002
4.012004e+002, 1.598389e+002
4.016825e+002, 1.559885e+002
4.021646e+002, 1.523192e+002
4.026467e+002, 1.487660e+002
4.031288e+002, 1.455037e+002
4.036110e+002, 1.428900e+002
4.040931e+002, 1.409774e+002
4.045752e+002, 1.392642e+002
4.050573e+002, 1.371461e+002
4.055394e+002, 1.345041e+002
4.060215e+002, 1.321255e+002
4.065037e+002, 1.301008e+002
4.069858e+002, 1.282253e+002
4.074679e+002, 1.263431e+002
4.079500e+002, 1.245172e+002
4.084321e+002, 1.229598e+002
4.089142e+002, 1.218187e+002
4.093964e+002, 1.209682e+002
4.098785e+002, 1.197983e+002
4.103606e+002, 1.177819e+002
4.108427e+002, 1.161346e+002
4.113248e+002, 1.152578e+002
4.118069e+002, 1.146210e+002
4.122891e+002, 1.136335e+002
4.127712e+002, 1.121782e+002
4.132533e+002, 1.106941e+002
4.137354e+002, 1.098367e+002
4.142175e+002, 1.098316e+002
4.146996e+002, 1.095305e+002
4.151818e+002, 1.087562e+002
4.156639e+002, 1.078416e+002
4.161460e+002, 1.067102e+002
4.166281e+002, 1.055302e+002
4.171102e+002, 1.046984e+002
4.175923e+002, 1.045660e+002
4.180745e+002, 1.048664e+002
4.185566e+002, 1.046248e+002
4.190387e+002, 1.035481e+002
4.195208e+002, 1.025825e+002
4.200029e+002, 1.020820e+002
4.204850e+002, 1.017865e+002
4.209672e+002, 1.015004e+002
4.214493e+002, 1.011806e+002
4.219314e+002, 1.008051e+002
4.224135e+002, 1.002834e+002
4.228956e+002, 9.963161e+001
4.233777e+002, 9.916143e+001
4.238599e+002, 9.895486e+001
4.243420e+002, 9.890263e+001
4.248241e+002, 9.902168e+001
4.253062e+002, 9.923692e+001
4.257883e+002, 9.926631e+001
4.262704e+002, 9.879477e+001
4.267526e+002, 9.815897e+001
4.272347e+002, 9.788184e+001
4.277168e+002, 9.798018e+001
4.281989e+002, 9.817204e+001
4.286810e+002, 9.840056e+001
4.291631e+002, 9.857678e+001
4.296453e+002, 9.853932e+001
4.301274e+002, 9.824296e+001
4.306095e+002, 9.783360e+001
4.310916e+002, 9.717786e+001
4.315737e+002, 9.649110e+001
4.320558e+002, 9.629125e+001
4.325380e+002, 9.675347e+001
4.330201e+002, 9.738522e+001
4.335022e+002, 9.762002e+001
4.339843e+002, 9.739606e+001
4.344664e+002, 9.718059e+001
4.349485e+002, 9.692224e+001
4.354307e+002, 9.673191e+001
4.359128e+002, 9.678577e+001
4.363949e+002, 9.699292e+001
4.368770e+002, 9.701921e+001
4.373591e+002, 9.663600e+001
4.378412e+002, 9.599584e+001
4.383234e+002, 9.568940e+001
4.388055e+002, 9.618037e+001
4.392876e+002, 9.641345e+001
4.397697e+002, 9.611714e+001
4.402518e+002, 9.564783e+001
4.407339e+002, 9.532691e+001
4.412160e+002, 9.522550e+001
4.416982e+002, 9.523182e+001
4.421803e+002, 9.522887e+001
4.426624e+002, 9.521892e+001
4.431445e+002, 9.518532e+001
4.436266e+002, 9.511412e+001
4.441087e+002, 9.503390e+001
4.445909e+002, 9.490276e+001
4.450730e+002, 9.477878e+001
4.455551e+002, 9.477461e+001
4.460372e+002, 9.496249e+001
4.465193e+002, 9.522846e+001
4.470014e+002, 9.528745e+001
4.474836e+002, 9.502701e+001
4.479657e+002, 9.489582e+001
4.484478e+002, 9.513342e+001
4.489299e+002, 9.541138e+001
4.494120e+002, 9.546227e+001
4.498941e+002, 9.530420e+001
4.503763e+002, 9.523886e+001
4.508584e+002, 9.562813e+001
4.513405e+002, 9.632726e+001
4.518226e+002, 9.667780e+001
4.523047e+002, 9.656039e+001
4.527868e+002, 9.635912e+001
4.532690e+002, 9.612092e+001
4.537511e+002, 9.598484e+001
4.542332e+002, 9.624028e+001
4.547153e+002, 9.714931e+001
4.551974e+002, 9.806505e+001
4.556795e+002, 9.836227e+001
4.561617e+002, 9.818045e+001
4.566438e+002, 9.813933e+001
4.571259e+002, 9.843100e+001
4.576080e+002, 9.888554e+001
4.580901e+002, 9.929626e+001
4.585722e+002, 9.966179e+001
4.590544e+002, 1.000695e+002
4.595365e+002, 1.006994e+002
4.600186e+002, 1.012585e+002
4.605007e+002, 1.013934e+002
4.609828e+002, 1.011691e+002
4.614649e+002, 1.010390e+002
4.619471e+002, 1.013354e+002
4.624292e+002, 1.018834e+002
4.629113e+002, 1.019482e+002
4.633934e+002, 1.009340e+002
4.638755e+002, 1.002498e+002
4.643576e+002, 1.003180e+002
4.648398e+002, 1.006428e+002
4.653219e+002, 1.007249e+002
4.658040e+002, 1.004660e+002
4.662861e+002, 1.000765e+002
4.667682e+002, 9.979280e+001
4.672503e+002, 9.963538e+001
4.677325e+002, 9.935494e+001
4.682146e+002, 9.873191e+001
4.686967e+002, 9.821928e+001
4.691788e+002, 9.800294e+001
4.696609e+002, 9.795797e+001
4.701430e+002, 9.788351e+001
4.706252e+002, 9.768810e+001
4.711073e+002, 9.747586e+001
4.715894e+002, 9.742271e+001
4.720715e+002, 9.753740e+001
4.725536e+002, 9.777824e+001
4.730357e+002, 9.837408e+001
4.735179e+002, 9.889234e+001
4.740000e+002, 9.908544e+001
4.744821e+002, 9.897543e+001
4.749642e+002, 9.871188e+001
4.754463e+002, 9.820688e+001
4.759284e+002, 9.767016e+001
4.764106e+002, 9.765162e+001
4.768927e+002, 9.824612e+001
4.773748e+002, 9.875682e+001
4.778569e+002, 9.878740e+001
4.783390e+002, 9.857603e+001
4.788211e+002, 9.846457e+001
4.793033e+002, 9.842866e+001
4.797854e+002, 9.862901e+001
4.802675e+002, 9.928759e+001
4.807496e+002, 1.002020e+002
4.812317e+002, 1.009874e+002
4.817138e+002, 1.015711e+002
4.821959e+002, 1.021538e+002
4.826780e+002, 1.029089e+002
4.831602e+002, 1.038413e+002
4.836423e+002, 1.048439e+002
4.841244e+002, 1.058350e+002
4.846065e+002, 1.069751e+002
4.850886e+002, 1.083322e+002
4.855707e+002, 1.098890e+002
4.860529e+002, 1.115948e+002
4.865350e+002, 1.134357e+002
4.870171e+002, 1.154498e+002
4.874992e+002, 1.176497e+002
4.879813e+002, 1.198946e+002
4.884634e+002, 1.228063e+002
4.889456e+002, 1.264935e+002
4.894277e+002, 1.306125e+002
4.899098e+002, 1.348564e+002
4.903919e+002, 1.393882e+002
4.908740e+002, 1.445692e+002
4.913561e+002, 1.505958e+002
4.918383e+002, 1.574202e+002
4.923204e+002, 1.650089e+002
4.928025e+002, 1.735818e+002
4.932846e+002, 1.822581e+002
4.937667e+002, 1.914197e+002
4.942488e+002, 2.001497e+002
4.947310e+002, 2.082364e+002
4.952131e+002, 2.154627e+002
4.956952e+002, 2.209277e+002
4.961773e+002, 2.241190e+002
4.966594e+002, 2.250241e+002
4.971415e+002, 2.234623e+002
4.976237e+002, 2.193055e+002
4.981058e+002, 2.131727e+002
4.985879e+002, 2.043980e+002
4.990700e+002, 1.940812e+002
4.995521e+002, 1.843853e+002
5.000342e+002, 1.754072e+002
5.005164e+002, 1.670036e+002
5.009985e+002, 1.585544e+002
5.014806e+002, 1.507161e+002
5.019627e+002, 1.449031e+002
5.024448e+002, 1.414436e+002
5.029269e+002, 1.385620e+002
5.034091e+002, 1.344952e+002
5.038912e+002, 1.291575e+002
5.043733e+002, 1.249747e+002
5.048554e+002, 1.223629e+002
5.053375e+002, 1.202944e+002
5.058196e+002, 1.185301e+002
5.063018e+002, 1.170330e+002
5.067839e+002, 1.158556e+002
5.072660e+002, 1.150026e+002
5.077481e+002, 1.142930e+002
5.082302e+002, 1.134142e+002
5.087123e+002, 1.122098e+002
5.091945e+002, 1.114017e+002
5.096766e+002, 1.110196e+002
5.101587e+002, 1.110101e+002
5.106408e+002, 1.118274e+002
5.111229e+002, 1.129419e+002
5.116050e+002, 1.133432e+002
5.120872e+002, 1.124384e+002
5.125693e+002, 1.108783e+002
5.130514e+002, 1.097784e+002
5.135335e+002, 1.091656e+002
5.140156e+002, 1.087772e+002
5.144977e+002, 1.085655e+002
5.149799e+002, 1.085724e+002
5.154620e+002, 1.088552e+002
5.159441e+002, 1.093850e+002
5.164262e+002, 1.099756e+002
5.169083e+002, 1.105825e+002
5.173904e+002, 1.111907e+002
5.178726e+002, 1.117673e+002
5.183547e+002, 1.123169e+002
5.188368e+002, 1.128746e+002
5.193189e+002, 1.133924e+002
5.198010e+002, 1.140051e+002
5.202831e+002, 1.150441e+002
5.207653e+002, 1.165714e+002
5.212474e+002, 1.182365e+002
5.217295e+002, 1.200098e+002
5.222116e+002, 1.218709e+002
5.226937e+002, 1.236872e+002
5.231758e+002, 1.255215e+002
5.236580e+002, 1.276633e+002
5.241401e+002, 1.302994e+002
5.246222e+002, 1.334113e+002
5.251043e+002, 1.370145e+002
5.255864e+002, 1.414994e+002
5.260685e+002, 1.459004e+002
5.265507e+002, 1.498673e+002
5.270328e+002, 1.539210e+002
5.275149e+002, 1.584736e+002
5.279970e+002, 1.635653e+002
5.284791e+002, 1.689535e+002
5.289612e+002, 1.743284e+002
5.294434e+002, 1.797869e+002
5.299255e+002, 1.859898e+002
5.304076e+002, 1.928927e+002
5.308897e+002, 2.006143e+002
5.313718e+002, 2.087823e+002
5.318539e+002, 2.180075e+002
5.323361e+002, 2.291077e+002
5.328182e+002, 2.422126e+002
5.333003e+002, 2.571117e+002
5.337824e+002, 2.735806e+002
5.342645e+002, 2.917928e+002
5.347466e+002, 3.120803e+002
5.352288e+002, 3.344284e+002
5.357109e+002, 3.595825e+002
5.361930e+002, 3.878382e+002
5.366751e+002, 4.195039e+002
5.371572e+002, 4.546852e+002
5.376393e+002, 4.948408e+002
5.381215e+002, 5.364943e+002
5.386036e+002, 5.803588e+002
5.390857e+002, 6.245974e+002
5.395678e+002, 6.687782e+002
5.400499e+002, 7.119434e+002
5.405320e+002, 7.503653e+002
5.410142e+002, 7.805107e+002
5.414963e+002, 8.024883e+002
5.419784e+002, 8.123395e+002
5.424604e+002, 8.081655e+002
5.429426e+002, 7.927625e+002
5.434247e+002, 7.630090e+002
5.439068e+002, 7.241339e+002
5.443889e+002, 6.805742e+002
5.448710e+002, 6.338458e+002
5.453531e+002, 5.861828e+002
5.458353e+002, 5.391753e+002
5.463174e+002, 4.930128e+002
5.467995e+002, 4.522802e+002
5.472816e+002, 4.180177e+002
5.477637e+002, 3.876235e+002
5.482458e+002, 3.600430e+002
5.487280e+002, 3.352563e+002
5.492101e+002, 3.134953e+002
5.496922e+002, 2.952510e+002
5.501743e+002, 2.792910e+002
5.506564e+002, 2.649651e+002
5.511385e+002, 2.522898e+002
5.516207e+002, 2.413902e+002
5.521028e+002, 2.323080e+002
5.525849e+002, 2.244451e+002
5.530670e+002, 2.172815e+002
5.535491e+002, 2.108038e+002
5.540313e+002, 2.053555e+002
5.545134e+002, 2.013638e+002
5.549955e+002, 1.977216e+002
5.554776e+002, 1.939810e+002
5.559597e+002, 1.904602e+002
5.564418e+002, 1.876883e+002
5.569240e+002, 1.857451e+002
5.574061e+002, 1.842044e+002
5.578882e+002, 1.825463e+002
5.583703e+002, 1.807625e+002
5.588524e+002, 1.793678e+002
5.593345e+002, 1.789316e+002
5.598167e+002, 1.780609e+002
5.602988e+002, 1.762025e+002
5.607809e+002, 1.737445e+002
5.612630e+002, 1.711019e+002
5.617451e+002, 1.683766e+002
5.622272e+002, 1.655553e+002
5.627094e+002, 1.626487e+002
5.631915e+002, 1.596382e+002
5.636736e+002, 1.564225e+002
5.641557e+002, 1.529369e+002
5.646378e+002, 1.494325e+002
5.651199e+002, 1.459559e+002
5.656021e+002, 1.426261e+002
5.660842e+002, 1.398341e+002
5.665663e+002, 1.379666e+002
5.670484e+002, 1.360850e+002
5.675305e+002, 1.337538e+002
5.680126e+002, 1.312916e+002
5.684948e+002, 1.290315e+002
5.689769e+002, 1.270656e+002
5.694590e+002, 1.253613e+002
5.699411e+002, 1.239314e+002
5.704232e+002, 1.227599e+002
5.709053e+002, 1.216369e+002
5.713875e+002, 1.204486e+002
5.718696e+002, 1.194718e+002
5.723517e+002, 1.188773e+002
5.728338e+002, 1.184182e+002
5.733159e+002, 1.179457e+002
5.737980e+002, 1.173963e+002
5.742802e+002, 1.166441e+002
5.747623e+002, 1.153861e+002
5.752444e+002, 1.138086e+002
5.757265e+002, 1.127282e+002
5.762086e+002, 1.122328e+002
5.766907e+002, 1.118793e+002
5.771729e+002, 1.115710e+002
5.776550e+002, 1.112242e+002
5.781371e+002, 1.106995e+002
5.786192e+002, 1.099552e+002
5.791013e+002, 1.092106e+002
5.795834e+002, 1.084549e+002
5.800656e+002, 1.077976e+002
5.805477e+002, 1.073913e+002
5.810298e+002, 1.072242e+002
5.815119e+002, 1.071509e+002
5.819940e+002, 1.070922e+002
5.824761e+002, 1.070359e+002
5.829583e+002, 1.069440e+002
5.834404e+002, 1.068670e+002
5.839225e+002, 1.066663e+002
5.844046e+002, 1.063341e+002
5.848867e+002, 1.058886e+002
5.853688e+002, 1.053121e+002
5.858510e+002, 1.046300e+002
5.863331e+002, 1.038860e+002
5.868152e+002, 1.030758e+002
5.872973e+002, 1.022818e+002
5.877794e+002, 1.017304e+002
5.882615e+002, 1.014571e+002
5.887437e+002, 1.011778e+002
5.892258e+002, 1.008094e+002
5.897079e+002, 1.004281e+002
5.901900e+002, 1.001542e+002
5.906721e+002, 9.995700e+001
5.911542e+002, 9.963023e+001
5.916364e+002, 9.902923e+001
5.921185e+002, 9.834586e+001
5.926006e+002, 9.770875e+001
5.930827e+002, 9.712812e+001
5.935648e+002, 9.664597e+001
5.940469e+002, 9.628842e+001
5.945291e+002, 9.594268e+001
5.950112e+002, 9.543423e+001
5.954933e+002, 9.469936e+001
5.959754e+002, 9.409306e+001
5.964575e+002, 9.370911e+001
5.969396e+002, 9.333086e+001
5.974218e+002, 9.279875e+001
5.979039e+002, 9.225352e+001
5.983860e+002, 9.192437e+001
5.988681e+002, 9.188313e+001
5.993502e+002, 9.194069e+001
5.998323e+002, 9.189070e+001
6.003145e+002, 9.173360e+001
6.007966e+002, 9.148271e+001
6.012787e+002, 9.109028e+001
6.017608e+002, 9.070655e+001
6.022429e+002, 9.044318e+001
6.027250e+002, 9.023501e+001
6.032072e+002, 8.998093e+001
6.036893e+002, 8.963851e+001
6.041714e+002, 8.933603e+001
6.046535e+002, 8.915179e+001
6.051356e+002, 8.903922e+001
6.056177e+002, 8.897067e+001
6.060999e+002, 8.892689e+001
6.065820e+002, 8.878619e+001
6.070641e+002, 8.843498e+001
6.075462e+002, 8.794634e+001
6.080283e+002, 8.765121e+001
6.085104e+002, 8.774793e+001
6.089926e+002, 8.776315e+001
6.094747e+002, 8.756837e+001
6.099568e+002, 8.737968e+001
6.104389e+002, 8.738988e+001
6.109210e+002, 8.755537e+001
6.114031e+002, 8.768443e+001
6.118853e+002, 8.765844e+001
6.123674e+002, 8.751865e+001
6.128495e+002, 8.733215e+001
6.133316e+002, 8.709221e+001
6.138137e+002, 8.687272e+001
6.142958e+002, 8.668605e+001
6.147780e+002, 8.653226e+001
6.152601e+002, 8.640981e+001
6.157422e+002, 8.631709e+001
6.162243e+002, 8.625713e+001
6.167064e+002, 8.626435e+001
6.171885e+002, 8.627071e+001
6.176707e+002, 8.618101e+001
6.181528e+002, 8.606796e+001
6.186349e+002, 8.612003e+001
6.191170e+002, 8.638540e+001
6.195991e+002, 8.666026e+001
6.200812e+002, 8.669223e+001
6.205634e+002, 8.646092e+001
6.210455e+002, 8.629531e+001
6.215276e+002, 8.621147e+001
6.220097e+002, 8.617911e+001
6.224918e+002, 8.624355e+001
6.229739e+002, 8.632671e+001
6.234561e+002, 8.632661e+001
6.239382e+002, 8.623295e+001
6.244203e+002, 8.616646e+001
6.249023e+002, 8.625071e+001
6.253845e+002, 8.643339e+001
6.258666e+002, 8.657521e+001
6.263487e+002, 8.667127e+001
6.268308e+002, 8.676941e+001
6.273129e+002, 8.694468e+001
6.277950e+002, 8.708491e+001
6.282772e+002, 8.690982e+001
6.287593e+002, 8.632670e+001
6.292414e+002, 8.593044e+001
6.297235e+002, 8.585266e+001
6.302056e+002, 8.594690e+001
6.306877e+002, 8.622800e+001
6.311699e+002, 8.658801e+001
6.316520e+002, 8.679512e+001
6.321341e+002, 8.674199e+001
6.326162e+002, 8.657189e+001
6.330983e+002, 8.650860e+001
6.335804e+002, 8.655046e+001
6.340626e+002, 8.671826e+001
6.345447e+002, 8.712708e+001
6.350268e+002, 8.751183e+001
6.355089e+002, 8.781705e+001
6.359910e+002, 8.800816e+001
6.364731e+002, 8.797359e+001
6.369553e+002, 8.761551e+001
6.374374e+002, 8.736011e+001
6.379195e+002, 8.764085e+001
6.384016e+002, 8.819359e+001
6.388837e+002, 8.848801e+001
6.393658e+002, 8.847139e+001
6.398480e+002, 8.847792e+001
6.403301e+002, 8.873711e+001
6.408122e+002, 8.916446e+001
6.412943e+002, 8.947885e+001
6.417764e+002, 8.951579e+001
6.422585e+002, 8.968027e+001
6.427407e+002, 9.018349e+001
6.432228e+002, 9.062526e+001
6.437049e+002, 9.060239e+001
6.441870e+002, 9.030926e+001
6.446691e+002, 9.026620e+001
6.451512e+002, 9.075761e+001
6.456334e+002, 9.156382e+001
6.461155e+002, 9.247134e+001
6.465976e+002, 9.347629e+001
6.470797e+002, 9.399521e+001
6.475618e+002, 9.375903e+001
6.480439e+002, 9.340666e+001
6.485261e+002, 9.337741e+001
6.490082e+002, 9.362233e+001
6.494903e+002, 9.399704e+001
6.499724e+002, 9.456697e+001
6.504545e+002, 9.514780e+001
6.509366e+002, 9.563131e+001
6.514188e+002, 9.610471e+001
6.519009e+002, 9.669527e+001
6.523830e+002, 9.739701e+001
6.528651e+002, 9.808573e+001
6.533472e+002, 9.867018e+001
6.538293e+002, 9.916710e+001
6.543115e+002, 9.963560e+001
6.547936e+002, 1.000424e+002
6.552757e+002, 1.004971e+002
6.557578e+002, 1.010057e+002
6.562399e+002, 1.015767e+002
6.567220e+002, 1.021732e+002
6.572042e+002, 1.028363e+002
6.576863e+002, 1.036869e+002
6.581684e+002, 1.048371e+002
6.586505e+002, 1.060892e+002
6.591326e+002, 1.072092e+002
6.596147e+002, 1.082813e+002
6.600969e+002, 1.096043e+002
6.605790e+002, 1.112460e+002
6.610611e+002, 1.128981e+002
6.615432e+002, 1.142383e+002
6.620253e+002, 1.153360e+002
6.625074e+002, 1.169069e+002
6.629896e+002, 1.192954e+002
6.634717e+002, 1.217125e+002
6.639538e+002, 1.239582e+002
6.644359e+002, 1.263228e+002
6.649180e+002, 1.290489e+002
6.654001e+002, 1.321236e+002
6.658823e+002, 1.353512e+002
6.663644e+002, 1.385604e+002
6.668465e+002, 1.419801e+002
6.673286e+002, 1.460666e+002
6.678107e+002, 1.508132e+002
6.682928e+002, 1.560310e+002
6.687750e+002, 1.617299e+002
6.692571e+002, 1.676879e+002
6.697392e+002, 1.734387e+002
6.702213e+002, 1.791453e+002
6.707034e+002, 1.858786e+002
6.711855e+002, 1.940863e+002
6.716677e+002, 2.027810e+002
6.721498e+002, 2.118398e+002
6.726319e+002, 2.210354e+002
6.731140e+002, 2.302579e+002
6.735961e+002, 2.394179e+002
6.740782e+002, 2.484782e+002
6.745604e+002, 2.576010e+002
6.750425e+002, 2.663807e+002
6.755246e+002, 2.737392e+002
6.760067e+002, 2.798709e+002
6.764888e+002, 2.836990e+002
6.769709e+002, 2.847556e+002
6.774531e+002, 2.836414e+002
6.779352e+002, 2.810331e+002
6.784173e+002, 2.768581e+002
6.788994e+002, 2.707274e+002
6.793815e+002, 2.620226e+002
6.798636e+002, 2.520274e+002
6.803458e+002, 2.408570e+002
6.808279e+002, 2.291396e+002
6.813100e+002, 2.175851e+002
6.817921e+002, 2.064426e+002
6.822742e+002, 1.958756e+002
6.827563e+002, 1.860322e+002
6.832385e+002, 1.768734e+002
6.837206e+002, 1.680616e+002
6.842027e+002, 1.592977e+002
6.846848e+002, 1.515736e+002
6.851669e+002, 1.454846e+002
6.856490e+002, 1.401316e+002
6.861312e+002, 1.351500e+002
6.866133e+002, 1.305019e+002
6.870954e+002, 1.261298e+002
6.875775e+002, 1.219818e+002
6.880596e+002, 1.181897e+002
6.885417e+002, 1.148780e+002
6.890239e+002, 1.120241e+002
6.895060e+002, 1.096785e+002
6.899881e+002, 1.078272e+002
6.904702e+002, 1.061863e+002
6.909523e+002, 1.045487e+002
6.914344e+002, 1.029065e+002
6.919166e+002, 1.011662e+002
6.923987e+002, 9.894112e+001
6.928808e+002, 9.725571e+001
6.933629e+002, 9.658398e+001
6.938450e+002, 9.604573e+001
6.943271e+002, 9.502994e+001
6.948093e+002, 9.370258e+001
6.952914e+002, 9.260445e+001
6.957735e+002, 9.201183e+001
6.962556e+002, 9.160113e+001
6.967377e+002, 9.105843e+001
6.972198e+002, 9.039857e+001
6.977020e+002, 8.959456e+001
6.981841e+002, 8.862626e+001
6.986662e+002, 8.783000e+001
6.991483e+002, 8.748311e+001
6.996304e+002, 8.746592e+001
7.001125e+002, 8.732992e+001
7.005947e+002, 8.702448e+001
7.010768e+002, 8.667439e+001
7.015589e+002, 8.621171e+001
7.020410e+002, 8.577045e+001
7.025231e+002, 8.543481e+001
7.030052e+002, 8.518631e+001
7.034874e+002, 8.497758e+001
7.039695e+002, 8.479475e+001
7.044516e+002, 8.460435e+001
7.049337e+002, 8.435912e+001
7.054158e+002, 8.407108e+001
7.058979e+002, 8.376260e+001
7.063801e+002, 8.341395e+001
7.068622e+002, 8.323152e+001
7.073442e+002, 8.345358e+001
7.078264e+002, 8.383309e+001
7.083085e+002, 8.368302e+001
7.087906e+002, 8.264881e+001
7.092727e+002, 8.201735e+001
7.097548e+002, 8.212210e+001
7.102369e+002, 8.240514e+001
7.107191e+002, 8.254208e+001
7.112012e+002, 8.261807e+001
7.116833e+002, 8.291025e+001
7.121654e+002, 8.350951e+001
7.126475e+002, 8.401705e+001
7.131296e+002, 8.385756e+001
7.136118e+002, 8.317178e+001
7.140939e+002, 8.275097e+001
7.145760e+002, 8.265212e+001
7.150581e+002, 8.261047e+001
7.155402e+002, 8.250867e+001
7.160223e+002, 8.239879e+001
7.165045e+002, 8.234822e+001
7.169866e+002, 8.233549e+001
7.174687e+002, 8.249280e+001
7.179508e+002, 8.333116e+001
7.184329e+002, 8.380820e+001
7.189150e+002, 8.294156e+001
7.193972e+002, 8.157944e+001
7.198793e+002, 8.105888e+001
7.203614e+002, 8.165901e+001
7.208435e+002, 8.243703e+001
7.213256e+002, 8.244138e+001
7.218077e+002, 8.188382e+001
7.222899e+002, 8.164006e+001
7.227720e+002, 8.176102e+001
7.232541e+002, 8.174834e+001
7.237362e+002, 8.139629e+001
7.242183e+002, 8.091795e+001
7.247004e+002, 8.048602e+001
7.251826e+002, 8.010278e+001
7.256647e+002, 8.003465e+001
7.261468e+002, 8.075867e+001
7.266289e+002, 8.124543e+001
7.271110e+002, 8.082478e+001
7.275931e+002, 8.014935e+001
7.280753e+002, 8.001065e+001
7.285574e+002, 8.044840e+001
7.290395e+002, 8.093577e+001
7.295216e+002, 8.108906e+001
7.300037e+002, 8.103825e+001
7.304858e+002, 8.113394e+001
7.309680e+002, 8.138956e+001
7.314501e+002, 8.131213e+001
7.319322e+002, 8.061668e+001
7.324143e+002, 8.002213e+001
7.328964e+002, 8.026179e+001
7.333785e+002, 8.113049e+001
7.338607e+002, 8.150833e+001
7.343428e+002, 8.098244e+001
7.348249e+002, 8.060522e+001
7.353070e+002, 8.077071e+001
7.357891e+002, 8.101852e+001
7.362712e+002, 8.091280e+001
7.367534e+002, 8.054966e+001
7.372355e+002, 8.031880e+001
7.377176e+002, 8.042351e+001
7.381997e+002, 8.062496e+001
7.386818e+002, 8.049611e+001
7.391639e+002, 8.009315e+001
7.396461e+002, 8.002235e+001
7.401282e+002, 8.041968e+001
7.406103e+002, 8.074092e+001
7.410924e+002, 8.065498e+001
7.415745e+002, 8.032043e+001
7.420566e+002, 8.005028e+001
7.425388e+002, 7.978300e+001
7.430209e+002, 7.977407e+001
7.435030e+002, 8.038853e+001
7.439851e+002, 8.090879e+001
7.444672e+002, 8.086191e+001
7.449493e+002, 8.050728e+001
7.454315e+002, 8.023667e+001
7.459136e+002, 8.017187e+001
7.463957e+002, 8.024122e+001
7.468778e+002, 8.046243e+001
7.473599e+002, 8.074978e+001
7.478420e+002, 8.074773e+001
7.483242e+002, 8.044377e+001
7.488063e+002, 8.041580e+001
7.492884e+002, 8.092413e+001
7.497705e+002, 8.161606e+001
7.502526e+002, 8.210764e+001
7.507347e+002, 8.238745e+001
7.512169e+002, 8.259322e+001
7.516990e+002, 8.268636e+001
7.521811e+002, 8.276167e+001
7.526632e+002, 8.289120e+001
7.531453e+002, 8.297501e+001
7.536274e+002, 8.274098e+001
7.541096e+002, 8.233932e+001
7.545917e+002, 8.239705e+001
7.550738e+002, 8.345242e+001
7.555559e+002, 8.474618e+001
7.560380e+002, 8.510029e+001
7.565201e+002, 8.474169e+001
7.570023e+002, 8.472811e+001
7.574844e+002, 8.525883e+001
7.579665e+002, 8.567888e+001
7.584486e+002, 8.549573e+001
7.589307e+002, 8.488089e+001
7.594128e+002, 8.440713e+001
7.598950e+002, 8.411766e+001
7.603771e+002, 8.389361e+001
7.608592e+002, 8.387626e+001
7.613413e+002, 8.377184e+001
7.618234e+002, 8.337328e+001
7.623055e+002, 8.282040e+001
7.627877e+002, 8.231790e+001
7.632698e+002, 8.192093e+001
7.637519e+002, 8.162679e+001
7.642340e+002, 8.151480e+001
7.647161e+002, 8.146215e+001
7.651982e+002, 8.123094e+001
7.656804e+002, 8.085619e+001
7.661625e+002, 8.058032e+001
7.666446e+002, 8.049696e+001
7.671267e+002, 8.052818e+001
7.676088e+002, 8.058488e+001
7.680909e+002, 8.067030e+001
7.685731e+002, 8.070366e+001
7.690552e+002, 8.066711e+001
7.695373e+002, 8.060637e+001
7.700194e+002, 8.043428e+001
7.705015e+002, 8.031852e+001
7.709836e+002, 8.049483e+001
7.714658e+002, 8.088206e+001
7.719479e+002, 8.104966e+001
7.724300e+002, 8.067144e+001
7.729121e+002, 8.026781e+001
7.733942e+002, 8.028149e+001
7.738763e+002, 8.046941e+001
7.743585e+002, 8.041682e+001
7.748406e+002, 8.010667e+001
7.753227e+002, 7.982535e+001
7.758048e+002, 7.976159e+001
7.762869e+002, 7.984338e+001
7.767690e+002, 7.991630e+001
7.772512e+002, 7.998849e+001
7.777333e+002, 8.000565e+001
7.782154e+002, 7.997850e+001
7.786975e+002, 7.986514e+001
7.791796e+002, 7.946623e+001
7.796617e+002, 7.904453e+001
7.801439e+002, 7.912548e+001
7.806260e+002, 7.988155e+001
7.811081e+002, 8.034917e+001
7.815902e+002, 7.997204e+001
7.820723e+002, 7.955821e+001
7.825544e+002, 7.974575e+001
7.830366e+002, 8.021303e+001
7.835187e+002, 8.034756e+001
7.840008e+002, 8.001772e+001
7.844829e+002, 7.962466e+001
7.849650e+002, 7.954817e+001
7.854471e+002, 7.968359e+001
7.859293e+002, 7.972514e+001
7.864114e+002, 7.967152e+001
7.868935e+002, 7.959538e+001
7.873756e+002, 7.950687e+001
7.878577e+002, 7.942427e+001
7.883398e+002, 7.936587e+001
7.888220e+002, 7.932962e+001
7.893040e+002, 7.929789e+001
7.897861e+002, 7.917533e+001
7.902682e+002, 7.919498e+001
7.907504e+002, 7.948133e+001
7.912325e+002, 7.981642e+001
7.917146e+002, 8.017916e+001
7.921967e+002, 8.045645e+001
7.926788e+002, 8.037886e+001
7.931609e+002, 7.980164e+001
7.936431e+002, 7.928278e+001
7.941252e+002, 7.939703e+001
7.946073e+002, 7.986684e+001
7.950894e+002, 8.022245e+001
7.955715e+002, 8.043551e+001
7.960536e+002, 8.051707e+001
7.965358e+002, 8.046378e+001
7.970179e+002, 8.037624e+001
7.975000e+002, 8.041653e+001
7.979821e+002, 8.059836e+001
7.984642e+002, 8.053486e+001
7.989464e+002, 7.999092e+001
7.994285e+002, 7.962687e+001
7.999106e+002, 7.978532e+001
8.003927e+002, 8.004198e+001
8.008748e+002, 8.007565e+001
8.013569e+002, 7.992223e+001
8.018391e+002, 7.980612e+001
8.023212e+002, 7.976299e+001
8.028033e+002, 7.980309e+001
8.032854e+002, 8.000849e+001
8.037675e+002, 8.025320e+001
8.042496e+002, 8.035464e+001
8.047318e+002, 8.034334e+001
8.052139e+002, 8.041212e+001
8.056960e+002, 8.067093e+001
8.061781e+002, 8.097239e+001
8.066602e+002, 8.106028e+001
8.071423e+002, 8.095248e+001
8.076245e+002, 8.089214e+001
8.081066e+002, 8.089515e+001
8.085887e+002, 8.084588e+001
8.090708e+002, 8.043982e+001
8.095529e+002, 8.031818e+001
8.100350e+002, 8.180275e+001
8.105172e+002, 8.541927e+001
8.109993e+002, 8.702620e+001
8.114814e+002, 8.498637e+001
8.119635e+002, 8.305141e+001
8.124456e+002, 8.219811e+001
8.129277e+002, 8.193184e+001
8.134099e+002, 8.191225e+001
8.138920e+002, 8.201932e+001
8.143741e+002, 8.209633e+001
8.148562e+002, 8.203834e+001
8.153383e+002, 8.197805e+001
8.158204e+002, 8.211304e+001
8.163026e+002, 8.233499e+001
8.167847e+002, 8.239809e+001
8.172668e+002, 8.228129e+001
8.177489e+002, 8.208238e+001
8.182310e+002, 8.184724e+001
8.187131e+002, 8.161814e+001
8.191953e+002, 8.146745e+001
8.196774e+002, 8.138741e+001
8.201595e+002, 8.143307e+001
8.206416e+002, 8.160806e+001
8.211237e+002, 8.190795e+001
8.216058e+002, 8.252827e+001
8.220880e+002, 8.313161e+001
8.225701e+002, 8.329382e+001
8.230522e+002, 8.302737e+001
8.235343e+002, 8.280382e+001
8.240164e+002, 8.255997e+001
8.244985e+002, 8.256431e+001
8.249807e+002, 8.318211e+001
8.254628e+002, 8.394827e+001
8.259449e+002, 8.434082e+001
8.264270e+002, 8.435647e+001
8.269091e+002, 8.427306e+001
8.273912e+002, 8.423073e+001
8.278734e+002, 8.423112e+001
8.283555e+002, 8.432845e+001
8.288376e+002, 8.447578e+001
8.293197e+002, 8.438084e+001
8.298018e+002, 8.401607e+001
8.302839e+002, 8.394416e+001
8.307661e+002, 8.450423e+001
8.312482e+002, 8.533443e+001
8.317303e+002, 8.586665e+001
8.322124e+002, 8.608841e+001
8.326945e+002, 8.607938e+001
8.331766e+002, 8.558644e+001
8.336588e+002, 8.522830e+001
8.341409e+002, 8.507714e+001
8.346230e+002, 8.515727e+001
8.351051e+002, 8.564898e+001
8.355872e+002, 8.643129e+001
8.360693e+002, 8.694694e+001
8.365515e+002, 8.686353e+001
8.370336e+002, 8.674417e+001
8.375157e+002, 8.694755e+001
8.379978e+002, 8.724597e+001
8.384799e+002, 8.732603e+001
8.389620e+002, 8.724519e+001
8.394442e+002, 8.729378e+001
8.399263e+002, 8.760918e+001
8.404084e+002, 8.802830e+001
8.408905e+002, 8.831853e+001
8.413726e+002, 8.851006e+001
8.418547e+002, 8.878577e+001
8.423369e+002, 8.915324e+001
8.428190e+002, 8.950497e+001
8.433011e+002, 8.980090e+001
8.437832e+002, 9.006272e+001
8.442653e+002, 9.030879e+001
8.447474e+002, 9.053972e+001
8.452296e+002, 9.077199e+001
8.457117e+002, 9.092998e+001
8.461938e+002, 9.120098e+001
8.466759e+002, 9.166106e+001
8.471580e+002, 9.217849e+001
8.476401e+002, 9.268273e+001
8.481223e+002, 9.318000e+001
8.486044e+002, 9.370219e+001
8.490865e+002, 9.426398e+001
8.495686e+002, 9.482061e+001
8.500507e+002, 9.531756e+001
8.505328e+002, 9.582533e+001
8.510150e+002, 9.642105e+001
8.514971e+002, 9.709048e+001
8.519792e+002, 9.781102e+001
8.524613e+002, 9.856271e+001
8.529434e+002, 9.928543e+001
8.534255e+002, 9.987434e+001
8.539077e+002, 1.004165e+002
8.543898e+002, 1.012169e+002
8.548719e+002, 1.022765e+002
8.553540e+002, 1.032494e+002
8.558361e+002, 1.040345e+002
8.563182e+002, 1.048477e+002
8.568004e+002, 1.058414e+002
8.572825e+002, 1.069827e+002
8.577646e+002, 1.081786e+002
8.582467e+002, 1.094351e+002
8.587288e+002, 1.107260e+002
8.592109e+002, 1.120755e+002
8.596931e+002, 1.134282e+002
8.601752e+002, 1.146133e+002
8.606573e+002, 1.158834e+002
8.611394e+002, 1.176351e+002
8.616215e+002, 1.198833e+002
8.621036e+002, 1.220317e+002
8.625858e+002, 1.238401e+002
8.630679e+002, 1.255005e+002
8.635500e+002, 1.271253e+002
8.640321e+002, 1.286918e+002
8.645142e+002, 1.302174e+002
8.649963e+002, 1.316587e+002
8.654785e+002, 1.328875e+002
8.659606e+002, 1.338627e+002
8.664427e+002, 1.343526e+002
8.669248e+002, 1.339063e+002
8.674069e+002, 1.326339e+002
8.678890e+002, 1.310089e+002
8.683712e+002, 1.290491e+002
8.688533e+002, 1.271614e+002
8.693354e+002, 1.255491e+002
8.698175e+002, 1.239185e+002
8.702996e+002, 1.218373e+002
8.707817e+002, 1.192942e+002
8.712639e+002, 1.171887e+002
8.717459e+002, 1.158083e+002
8.722280e+002, 1.143591e+002
8.727101e+002, 1.127429e+002
8.731923e+002, 1.110059e+002
8.736744e+002, 1.089532e+002
8.741565e+002, 1.068348e+002
8.746386e+002, 1.052446e+002
8.751207e+002, 1.044326e+002
8.756028e+002, 1.037113e+002
8.760850e+002, 1.028705e+002
8.765671e+002, 1.020147e+002
8.770492e+002, 1.012882e+002
8.775313e+002, 1.005762e+002
8.780134e+002, 9.955729e+001
8.784955e+002, 9.823592e+001
8.789777e+002, 9.715575e+001
8.794598e+002, 9.679223e+001
8.799419e+002, 9.685416e+001
8.804240e+002, 9.702897e+001
8.809061e+002, 9.722086e+001
8.813882e+002, 9.700468e+001
8.818704e+002, 9.633621e+001
8.823525e+002, 9.563929e+001
8.828346e+002, 9.517382e+001
8.833167e+002, 9.488482e+001
8.837988e+002, 9.466097e+001
8.842809e+002, 9.449561e+001
8.847631e+002, 9.445979e+001
8.852452e+002, 9.463097e+001
8.857273e+002, 9.472811e+001
8.862094e+002, 9.453807e+001
8.866915e+002, 9.435126e+001
8.871736e+002, 9.452869e+001
8.876558e+002, 9.504662e+001
8.881379e+002, 9.553066e+001
8.886200e+002, 9.634828e+001
8.891021e+002, 9.659791e+001
8.895842e+002, 9.550593e+001
8.900663e+002, 9.438100e+001
8.905485e+002, 9.422304e+001
8.910306e+002, 9.469048e+001
8.915127e+002, 9.499100e+001
8.919948e+002, 9.490247e+001
8.924769e+002, 9.479788e+001
8.929590e+002, 9.496027e+001
8.934412e+002, 9.518819e+001
8.939233e+002, 9.523672e+001
8.944054e+002, 9.519133e+001
8.948875e+002, 9.527436e+001
8.953696e+002, 9.550692e+001
8.958517e+002, 9.566151e+001
8.963339e+002, 9.552955e+001
8.968160e+002, 9.535146e+001
8.972981e+002, 9.574503e+001
8.977802e+002, 9.662083e+001
8.982623e+002, 9.700964e+001
8.987444e+002, 9.677737e+001
8.992266e+002, 9.666497e+001
8.997087e+002, 9.707689e+001
9.001908e+002, 9.761880e+001
9.006729e+002, 9.765423e+001
9.011550e+002, 9.714221e+001
9.016371e+002, 9.707021e+001
9.021193e+002, 9.779703e+001
9.026014e+002, 9.829532e+001
9.030835e+002, 9.822806e+001
9.035656e+002, 9.801733e+001
9.040477e+002, 9.785433e+001
9.045298e+002, 9.778019e+001
9.050120e+002, 9.791087e+001
9.054941e+002, 9.831190e+001
9.059762e+002, 9.876541e+001
9.064583e+002, 9.935716e+001
9.069404e+002, 9.983984e+001
9.074225e+002, 9.992667e+001
9.079047e+002, 9.988077e+001
9.083868e+002, 1.001222e+002
9.088689e+002, 1.006683e+002
9.093510e+002, 1.011188e+002
9.098331e+002, 1.011677e+002
9.103152e+002, 1.011325e+002
9.107974e+002, 1.014095e+002
9.112795e+002, 1.018044e+002
9.117616e+002, 1.018475e+002
9.122437e+002, 1.016080e+002
9.127258e+002, 1.016591e+002
9.132079e+002, 1.022725e+002
9.136901e+002, 1.030562e+002
9.141722e+002, 1.034173e+002
9.146543e+002, 1.034781e+002
9.151364e+002, 1.040656e+002
9.156185e+002, 1.052064e+002
9.161006e+002, 1.060556e+002
9.165828e+002, 1.063375e+002
9.170649e+002, 1.065775e+002
9.175470e+002, 1.071381e+002
9.180291e+002, 1.080687e+002
9.185112e+002, 1.096757e+002
9.189933e+002, 1.127942e+002
9.194755e+002, 1.144542e+002
9.199576e+002, 1.138577e+002
9.204397e+002, 1.129405e+002
9.209218e+002, 1.121304e+002
9.214039e+002, 1.115934e+002
9.218860e+002, 1.115342e+002
9.223682e+002, 1.119493e+002
9.228503e+002, 1.126636e+002
9.233324e+002, 1.138658e+002
9.238145e+002, 1.150764e+002
9.242966e+002, 1.161778e+002
9.247787e+002, 1.172212e+002
9.252609e+002, 1.178986e+002
9.257430e+002, 1.186369e+002
9.262251e+002, 1.204044e+002
9.267072e+002, 1.235102e+002
9.271893e+002, 1.266887e+002
9.276714e+002, 1.295971e+002
9.281536e+002, 1.317213e+002
9.286357e+002, 1.316891e+002
9.291178e+002, 1.307979e+002
9.295999e+002, 1.318440e+002
9.300820e+002, 1.349574e+002
9.305641e+002, 1.378594e+002
9.310463e+002, 1.390748e+002
9.315284e+002, 1.394835e+002
9.320105e+002, 1.400909e+002
9.324926e+002, 1.410622e+002
9.329747e+002, 1.432541e+002
9.334568e+002, 1.466482e+002
9.339390e+002, 1.502741e+002
9.344211e+002, 1.537551e+002
9.349032e+002, 1.572737e+002
9.353853e+002, 1.609653e+002
9.358674e+002, 1.648985e+002
9.363495e+002, 1.694916e+002
9.368317e+002, 1.748153e+002
9.373138e+002, 1.805154e+002
9.377959e+002, 1.865214e+002
9.382780e+002, 1.929784e+002
9.387601e+002, 1.998308e+002
9.392422e+002, 2.073749e+002
9.397244e+002, 2.160982e+002
9.402065e+002, 2.259097e+002
9.406886e+002, 2.373355e+002
9.411707e+002, 2.507601e+002
9.416528e+002, 2.652403e+002
9.421349e+002, 2.800900e+002
9.426171e+002, 2.963945e+002
9.430992e+002, 3.144688e+002
9.435813e+002, 3.347234e+002
9.440634e+002, 3.579077e+002
9.445455e+002, 3.843657e+002
9.450276e+002, 4.131368e+002
9.455098e+002, 4.445599e+002
9.459919e+002, 4.776519e+002
9.464740e+002, 5.131455e+002
9.469561e+002, 5.488107e+002
9.474382e+002, 5.829655e+002
9.479203e+002, 6.143875e+002
9.484025e+002, 6.412604e+002
9.488846e+002, 6.638561e+002
9.493667e+002, 6.782708e+002
9.498488e+002, 6.810181e+002
9.503309e+002, 6.731807e+002
9.508130e+002, 6.546563e+002
9.512952e+002, 6.271260e+002
9.517773e+002, 5.938087e+002
9.522594e+002, 5.562899e+002
9.527415e+002, 5.179556e+002
9.532236e+002, 4.811071e+002
9.537057e+002, 4.466009e+002
9.541878e+002, 4.164124e+002
9.546699e+002, 3.903732e+002
9.551520e+002, 3.674091e+002
9.556342e+002, 3.472550e+002
9.561163e+002, 3.303633e+002
9.565984e+002, 3.169265e+002
9.570805e+002, 3.066154e+002
9.575626e+002, 2.993183e+002
9.580447e+002, 2.949342e+002
9.585269e+002, 2.906075e+002
9.590090e+002, 2.864193e+002
9.594911e+002, 2.819126e+002
9.599732e+002, 2.771286e+002
9.604553e+002, 2.716852e+002
9.609374e+002, 2.651847e+002
9.614196e+002, 2.579327e+002
9.619017e+002, 2.506988e+002
9.623838e+002, 2.431324e+002
9.628659e+002, 2.366843e+002
9.633480e+002, 2.317579e+002
9.638301e+002, 2.274433e+002
9.643123e+002, 2.229048e+002
9.647944e+002, 2.193398e+002
9.652765e+002, 2.178043e+002
9.657586e+002, 2.181558e+002
9.662407e+002, 2.196020e+002
9.667228e+002, 2.220559e+002
9.672050e+002, 2.255732e+002
9.676871e+002, 2.299912e+002
9.681692e+002, 2.356747e+002
9.686513e+002, 2.428852e+002
9.691334e+002, 2.514463e+002
9.696155e+002, 2.615745e+002
9.700977e+002, 2.729846e+002
9.705798e+002, 2.839359e+002
9.710619e+002, 2.942455e+002
9.715440e+002, 3.029043e+002
9.720261e+002, 3.104016e+002
9.725082e+002, 3.150570e+002
9.729904e+002, 3.152184e+002
9.734725e+002, 3.109335e+002
9.739546e+002, 3.022407e+002
9.744367e+002, 2.893916e+002
9.749188e+002, 2.740839e+002
9.754009e+002, 2.564594e+002
9.758831e+002, 2.385271e+002
9.763652e+002, 2.226540e+002
9.768473e+002, 2.086526e+002
9.773294e+002, 1.959790e+002
9.778115e+002, 1.845500e+002
9.782936e+002, 1.748018e+002
9.787758e+002, 1.668766e+002
9.792579e+002, 1.602729e+002
9.797400e+002, 1.540744e+002
9.802221e+002, 1.487582e+002
9.807042e+002, 1.471124e+002
9.811863e+002, 1.484984e+002
9.816685e+002, 1.473531e+002
9.821506e+002, 1.425930e+002
9.826327e+002, 1.373528e+002
9.831148e+002, 1.336078e+002
9.835969e+002, 1.309618e+002
9.840790e+002, 1.287570e+002
9.845612e+002, 1.269990e+002
9.850433e+002, 1.253450e+002
9.855254e+002, 1.237866e+002
9.860075e+002, 1.224039e+002
9.864896e+002, 1.212388e+002
9.869717e+002, 1.201659e+002
9.874539e+002, 1.190684e+002
9.879360e+002, 1.179989e+002
9.884181e+002, 1.171612e+002
9.889002e+002, 1.167204e+002
9.893823e+002, 1.158912e+002
9.898644e+002, 1.142894e+002
9.903466e+002, 1.130267e+002
9.908287e+002, 1.123321e+002
9.913108e+002, 1.122447e+002
9.917929e+002, 1.130413e+002
9.922750e+002, 1.145377e+002
9.927571e+002, 1.156559e+002
9.932393e+002, 1.169025e+002
9.937214e+002, 1.168622e+002
9.942035e+002, 1.142555e+002
9.946856e+002, 1.118665e+002
9.951677e+002, 1.108614e+002
9.956498e+002, 1.105446e+002
9.961320e+002, 1.102295e+002
9.966141e+002, 1.098826e+002
9.970962e+002, 1.096439e+002
9.975783e+002, 1.097352e+002
9.980604e+002, 1.096100e+002
9.985425e+002, 1.089591e+002
9.990247e+002, 1.082300e+002
9.995068e+002, 1.075481e+002
9.999889e+002, 1.070514e+002
1.000471e+003, 1.070711e+002
1.000953e+003, 1.075496e+002
1.001435e+003, 1.076882e+002
1.001917e+003, 1.067922e+002
1.002399e+003, 1.060381e+002
1.002882e+003, 1.062625e+002
1.003364e+003, 1.067492e+002
1.003846e+003, 1.068683e+002
1.004328e+003, 1.067089e+002
1.004810e+003, 1.065136e+002
1.005292e+003, 1.063677e+002
1.005774e+003, 1.063758e+002
1.006256e+003, 1.066971e+002
1.006739e+003, 1.070762e+002
1.007221e+003, 1.073319e+002
1.007703e+003, 1.074588e+002
1.008185e+003, 1.072945e+002
1.008667e+003, 1.070072e+002
1.009149e+003, 1.071257e+002
1.009631e+003, 1.078001e+002
1.010113e+003, 1.084784e+002
1.010595e+003, 1.085716e+002
1.011078e+003, 1.084986e+002
1.011560e+003, 1.089215e+002
1.012042e+003, 1.096634e+002
1.012524e+003, 1.102360e+002
1.013006e+003, 1.106755e+002
1.013488e+003, 1.115164e+002
1.013970e+003, 1.129838e+002
1.014452e+003, 1.144921e+002
1.014935e+003, 1.152288e+002
1.015417e+003, 1.156447e+002
1.015899e+003, 1.168730e+002
1.016381e+003, 1.188143e+002
1.016863e+003, 1.210662e+002
1.017345e+003, 1.235335e+002
1.017827e+003, 1.261026e+002
1.018309e+003, 1.287285e+002
1.018791e+003, 1.311590e+002
1.019274e+003, 1.330042e+002
1.019756e+003, 1.343639e+002
1.020238e+003, 1.359085e+002
1.020720e+003, 1.375977e+002
1.021202e+003, 1.384255e+002
1.021684e+003, 1.382024e+002
1.022166e+003, 1.373551e+002
1.022648e+003, 1.360923e+002
1.023130e+003, 1.345168e+002
1.023613e+003, 1.327489e+002
1.024095e+003, 1.307991e+002
1.024577e+003, 1.288849e+002
1.025059e+003, 1.269984e+002
1.025541e+003, 1.252703e+002
1.026023e+003, 1.237265e+002
1.026505e+003, 1.222790e+002
1.026987e+003, 1.208212e+002
1.027469e+003, 1.195360e+002
1.027952e+003, 1.188154e+002
1.028434e+003, 1.186818e+002
1.028916e+003, 1.184138e+002
1.029398e+003, 1.179425e+002
1.029880e+003, 1.175810e+002
1.030362e+003, 1.174102e+002
1.030844e+003, 1.172913e+002
1.031326e+003, 1.170649e+002
1.031809e+003, 1.169089e+002
1.032291e+003, 1.171952e+002
1.032773e+003, 1.179613e+002
1.033255e+003, 1.188416e+002
1.033737e+003, 1.197502e+002
1.034219e+003, 1.209887e+002
1.034701e+003, 1.227872e+002
1.035183e+003, 1.246502e+002
1.035666e+003, 1.259984e+002
1.036148e+003, 1.273216e+002
1.036630e+003, 1.296898e+002
1.037112e+003, 1.332630e+002
1.037594e+003, 1.369456e+002
1.038076e+003, 1.402543e+002
1.038558e+003, 1.444180e+002
1.039040e+003, 1.499906e+002
1.039522e+003, 1.560715e+002
1.040005e+003, 1.623900e+002
1.040487e+003, 1.687226e+002
1.040969e+003, 1.748281e+002
1.041451e+003, 1.811116e+002
1.041933e+003, 1.851340e+002
1.042415e+003, 1.868361e+002
1.042897e+003, 1.863221e+002
1.043379e+003, 1.832750e+002
1.043861e+003, 1.783640e+002
1.044344e+003, 1.711571e+002
1.044826e+003, 1.626827e+002
1.045308e+003, 1.547238e+002
1.045790e+003, 1.473399e+002
1.046272e+003, 1.410740e+002
1.046754e+003, 1.364888e+002
1.047236e+003, 1.323341e+002
1.047718e+003, 1.281690e+002
1.048201e+003, 1.244957e+002
1.048683e+003, 1.216717e+002
1.049165e+003, 1.195727e+002
1.049647e+003, 1.179823e+002
1.050129e+003, 1.169239e+002
1.050611e+003, 1.159325e+002
1.051093e+003, 1.148679e+002
1.051575e+003, 1.139337e+002
1.052057e+003, 1.132823e+002
1.052540e+003, 1.126905e+002
1.053022e+003, 1.119403e+002
1.053504e+003, 1.111524e+002
1.053986e+003, 1.105366e+002
1.054468e+003, 1.101189e+002
1.054950e+003, 1.099217e+002
1.055432e+003, 1.101407e+002
1.055914e+003, 1.103233e+002
1.056396e+003, 1.103404e+002
1.056879e+003, 1.102417e+002
1.057361e+003, 1.099722e+002
1.057843e+003, 1.096555e+002
1.058325e+003, 1.095354e+002
1.058807e+003, 1.096414e+002
1.059289e+003, 1.096129e+002
1.059771e+003, 1.092211e+002
1.060253e+003, 1.088267e+002
1.060736e+003, 1.085744e+002
1.061218e+003, 1.083621e+002
1.061700e+003, 1.080269e+002
1.062182e+003, 1.077133e+002
1.062664e+003, 1.077808e+002
1.063146e+003, 1.082312e+002
1.063628e+003, 1.083732e+002
1.064110e+003, 1.075891e+002
1.064593e+003, 1.069741e+002
1.065075e+003, 1.072753e+002
1.065557e+003, 1.076223e+002
1.066039e+003, 1.072258e+002
1.066521e+003, 1.064863e+002
1.067003e+003, 1.060301e+002
1.067485e+003, 1.059625e+002
1.067967e+003, 1.061427e+002
1.068449e+003, 1.067237e+002
1.068932e+003, 1.071835e+002
1.069414e+003, 1.072322e+002
1.069896e+003, 1.071292e+002
1.070378e+003, 1.069095e+002
1.070860e+003, 1.067549e+002
1.071342e+003, 1.070887e+002
1.071824e+003, 1.077983e+002
1.072306e+003, 1.079564e+002
1.072788e+003, 1.068963e+002
1.073271e+003, 1.059928e+002
1.073753e+003, 1.058646e+002
1.074235e+003, 1.061465e+002
1.074717e+003, 1.069848e+002
1.075199e+003, 1.078125e+002
1.075681e+003, 1.077742e+002
1.076163e+003, 1.069823e+002
1.076645e+003, 1.063823e+002
1.077127e+003, 1.062828e+002
1.077610e+003, 1.064456e+002
1.078092e+003, 1.070460e+002
1.078574e+003, 1.075579e+002
1.079056e+003, 1.075686e+002
1.079538e+003, 1.073311e+002
1.080020e+003, 1.070770e+002
1.080502e+003, 1.068839e+002
1.080984e+003, 1.068707e+002
1.081467e+003, 1.071191e+002
1.081949e+003, 1.073213e+002
1.082431e+003, 1.072814e+002
1.082913e+003, 1.072214e+002
1.083395e+003, 1.073182e+002
1.083877e+003, 1.074335e+002
1.084359e+003, 1.073417e+002
1.084841e+003, 1.071451e+002
1.085323e+003, 1.071667e+002
1.085806e+003, 1.075115e+002
1.086288e+003, 1.078576e+002
1.086770e+003, 1.081613e+002
1.087252e+003, 1.083168e+002
1.087734e+003, 1.081766e+002
1.088216e+003, 1.079440e+002
1.088698e+003, 1.077857e+002
1.089180e+003, 1.076941e+002
1.089662e+003, 1.076131e+002
1.090145e+003, 1.075301e+002
1.090627e+003, 1.074847e+002
1.091109e+003, 1.076179e+002
1.091591e+003, 1.076242e+002
1.092073e+003, 1.071299e+002
1.092555e+003, 1.066936e+002
1.093037e+003, 1.067632e+002
1.093519e+003, 1.072031e+002
1.094002e+003, 1.078732e+002
1.094484e+003, 1.086994e+002
1.094966e+003, 1.091758e+002
1.095448e+003, 1.089138e+002
1.095930e+003, 1.086152e+002
1.096412e+003, 1.083581e+002
1.096894e+003, 1.082979e+002
1.097376e+003, 1.087126e+002
1.097859e+003, 1.092731e+002
1.098341e+003, 1.095901e+002
1.098823e+003, 1.096229e+002
1.099305e+003, 1.094441e+002
1.099787e+003, 1.089401e+002
1.100269e+003, 1.084986e+002
1.100751e+003, 1.081680e+002
1.101233e+003, 1.079849e+002
1.101715e+003, 1.080139e+002
1.102198e+003, 1.081630e+002
1.102680e+003, 1.084168e+002
1.103162e+003, 1.087072e+002
1.103644e+003, 1.088049e+002
1.104126e+003, 1.085974e+002
1.104608e+003, 1.084557e+002
1.105090e+003, 1.084331e+002
1.105572e+003, 1.085031e+002
1.106054e+003, 1.087206e+002
1.106537e+003, 1.089683e+002
1.107019e+003, 1.092127e+002
1.107501e+003, 1.094016e+002
1.107983e+003, 1.094283e+002
1.108465e+003, 1.092825e+002
1.108947e+003, 1.089884e+002
1.109429e+003, 1.079947e+002
1.109911e+003, 1.076403e+002
1.110394e+003, 1.088521e+002
1.110876e+003, 1.100808e+002
1.111358e+003, 1.103817e+002
1.111840e+003, 1.101108e+002
1.112322e+003, 1.097276e+002
1.112804e+003, 1.092116e+002
1.113286e+003, 1.091829e+002
1.113768e+003, 1.100972e+002
1.114250e+003, 1.107441e+002
1.114733e+003, 1.110460e+002
1.115215e+003, 1.110558e+002
1.115697e+003, 1.105690e+002
1.116179e+003, 1.100121e+002
1.116661e+003, 1.099381e+002
1.117143e+003, 1.102611e+002
1.117625e+003, 1.103281e+002
1.118107e+003, 1.099729e+002
1.118589e+003, 1.097576e+002
1.119072e+003, 1.097024e+002
1.119554e+003, 1.097754e+002
1.120036e+003, 1.100836e+002
1.120518e+003, 1.103148e+002
1.121000e+003, 1.101209e+002
1.121482e+003, 1.097050e+002
1.121964e+003, 1.097135e+002
1.122446e+003, 1.102812e+002
1.122929e+003, 1.103921e+002
1.123411e+003, 1.098268e+002
1.123893e+003, 1.095890e+002
1.124375e+003, 1.100093e+002
1.124857e+003, 1.104376e+002
1.125339e+003, 1.104662e+002
1.125821e+003, 1.102371e+002
1.126303e+003, 1.099353e+002
1.126786e+003, 1.095850e+002
1.127268e+003, 1.097188e+002
1.127750e+003, 1.104156e+002
1.128232e+003, 1.108709e+002
1.128714e+003, 1.109639e+002
1.129196e+003, 1.109101e+002
1.129678e+003, 1.107895e+002
1.130160e+003, 1.106581e+002
1.130642e+003, 1.105745e+002
1.131125e+003, 1.105409e+002
1.131607e+003, 1.105705e+002
1.132089e+003, 1.106612e+002
1.132571e+003, 1.107625e+002
1.133053e+003, 1.108737e+002
1.133535e+003, 1.110958e+002
1.134017e+003, 1.114591e+002
1.134499e+003, 1.115910e+002
1.134981e+003, 1.111610e+002
1.135464e+003, 1.105446e+002
1.135946e+003, 1.104567e+002
1.136428e+003, 1.107608e+002
1.136910e+003, 1.109692e+002
1.137392e+003, 1.110777e+002
1.137874e+003, 1.110827e+002
1.138356e+003, 1.110031e+002
1.138838e+003, 1.109853e+002
1.139321e+003, 1.111048e+002
1.139803e+003, 1.111733e+002
1.140285e+003, 1.108818e+002
1.140767e+003, 1.104913e+002
1.141249e+003, 1.105105e+002
1.141731e+003, 1.107908e+002
1.142213e+003, 1.110727e+002
1.142695e+003, 1.112943e+002
1.143177e+003, 1.113717e+002
1.143660e+003, 1.112945e+002
1.144142e+003, 1.112031e+002
1.144624e+003, 1.112101e+002
1.145106e+003, 1.112129e+002
1.145588e+003, 1.110685e+002
1.146070e+003, 1.108877e+002
1.146552e+003, 1.108174e+002
1.147034e+003, 1.108152e+002
1.147516e+003, 1.107469e+002
1.147999e+003, 1.106386e+002
1.148481e+003, 1.107149e+002
1.148963e+003, 1.111093e+002
1.149445e+003, 1.114518e+002
1.149927e+003, 1.114808e+002
1.150409e+003, 1.114048e+002
1.150891e+003, 1.113765e+002
1.151373e+003, 1.113205e+002
1.151856e+003, 1.110606e+002
1.152338e+003, 1.107248e+002
1.152820e+003, 1.106515e+002
1.153302e+003, 1.109092e+002
1.153784e+003, 1.110802e+002
1.154266e+003, 1.108927e+002
1.154748e+003, 1.107843e+002
1.155230e+003, 1.109277e+002
1.155713e+003, 1.111628e+002
1.156195e+003, 1.114801e+002
1.156677e+003, 1.117724e+002
1.157159e+003, 1.118872e+002
1.157641e+003, 1.118451e+002
1.158123e+003, 1.118370e+002
1.158605e+003, 1.118725e+002
1.159087e+003, 1.119628e+002
1.159569e+003, 1.122752e+002
1.160052e+003, 1.124119e+002
1.160534e+003, 1.121192e+002
1.161016e+003, 1.117831e+002
1.161498e+003, 1.116585e+002
1.161980e+003, 1.117094e+002
1.162462e+003, 1.118877e+002
1.162944e+003, 1.122198e+002
1.163426e+003, 1.123796e+002
1.163908e+003, 1.122708e+002
1.164391e+003, 1.122900e+002
1.164873e+003, 1.125669e+002
1.165355e+003, 1.127274e+002
1.165837e+003, 1.125479e+002
1.166319e+003, 1.122881e+002
1.166801e+003, 1.122318e+002
1.167283e+003, 1.123761e+002
1.167765e+003, 1.127671e+002
1.168247e+003, 1.134180e+002
1.168730e+003, 1.139246e+002
1.169212e+003, 1.142708e+002
1.169694e+003, 1.143500e+002
1.170176e+003, 1.141285e+002
1.170658e+003, 1.138106e+002
1.171140e+003, 1.135296e+002
1.171622e+003, 1.132765e+002
1.172104e+003, 1.129586e+002
1.172587e+003, 1.126839e+002
1.173069e+003, 1.128973e+002
1.173551e+003, 1.134728e+002
1.174033e+003, 1.140042e+002
1.174515e+003, 1.144041e+002
1.174997e+003, 1.145596e+002
1.175479e+003, 1.144436e+002
1.175961e+003, 1.142499e+002
1.176443e+003, 1.140981e+002
1.176926e+003, 1.140399e+002
1.177408e+003, 1.142087e+002
1.177890e+003, 1.144610e+002
1.178372e+003, 1.146433e+002
1.178854e+003, 1.147196e+002
1.179336e+003, 1.145747e+002
1.179818e+003, 1.142743e+002
1.180300e+003, 1.141217e+002
1.180782e+003, 1.142489e+002
1.181265e+003, 1.144772e+002
1.181747e+003, 1.147380e+002
1.182229e+003, 1.150175e+002
1.182711e+003, 1.154669e+002
1.183193e+003, 1.157868e+002
1.183675e+003, 1.155299e+002
1.184157e+003, 1.149990e+002
1.184639e+003, 1.147882e+002
1.185122e+003, 1.149698e+002
1.185604e+003, 1.151589e+002
1.186086e+003, 1.152610e+002
1.186568e+003, 1.153766e+002
1.187050e+003, 1.155058e+002
1.187532e+003, 1.156724e+002
1.188014e+003, 1.159370e+002
1.188496e+003, 1.161992e+002
1.188979e+003, 1.164352e+002
1.189461e+003, 1.165758e+002
1.189943e+003, 1.163382e+002
1.190425e+003, 1.155513e+002
1.190907e+003, 1.154535e+002
1.191389e+003, 1.164171e+002
1.191871e+003, 1.169896e+002
1.192353e+003, 1.168038e+002
1.192835e+003, 1.166159e+002
1.193318e+003, 1.168152e+002
1.193800e+003, 1.171603e+002
1.194282e+003, 1.173731e+002
1.194764e+003, 1.174649e+002
1.195246e+003, 1.174345e+002
1.195728e+003, 1.172919e+002
1.196210e+003, 1.173667e+002
1.196692e+003, 1.176551e+002
1.197174e+003, 1.177478e+002
1.197657e+003, 1.175523e+002
1.198139e+003, 1.173282e+002
1.198621e+003, 1.172283e+002
1.199103e+003, 1.172859e+002
1.199585e+003, 1.175444e+002
1.200067e+003, 1.179898e+002
1.200549e+003, 1.188540e+002
1.201031e+003, 1.197797e+002
1.201514e+003, 1.198623e+002
1.201996e+003, 1.192767e+002
1.202478e+003, 1.187509e+002
1.202960e+003, 1.185060e+002
1.203442e+003, 1.184320e+002
1.203924e+003, 1.184779e+002
1.204406e+003, 1.186369e+002
1.204888e+003, 1.189192e+002
1.205370e+003, 1.192959e+002
1.205853e+003, 1.198724e+002
1.206335e+003, 1.204305e+002
1.206817e+003, 1.206687e+002
1.207299e+003, 1.206780e+002
1.207781e+003, 1.207312e+002
1.208263e+003, 1.208770e+002
1.208745e+003, 1.211468e+002
1.209227e+003, 1.216592e+002
1.209709e+003, 1.221271e+002
1.210192e+003, 1.226024e+002
1.210674e+003, 1.228898e+002
1.211156e+003, 1.227016e+002
1.211638e+003, 1.224388e+002
1.212120e+003, 1.224847e+002
1.212602e+003, 1.227947e+002
1.213084e+003, 1.232665e+002
1.213566e+003, 1.240752e+002
1.214049e+003, 1.240693e+002
1.214531e+003, 1.229700e+002
1.215013e+003, 1.221591e+002
1.215495e+003, 1.219069e+002
1.215977e+003, 1.219648e+002
1.216459e+003, 1.222697e+002
1.216941e+003, 1.224454e+002
1.217423e+003, 1.219481e+002
1.217906e+003, 1.210947e+002
1.218388e+003, 1.208960e+002
1.218870e+003, 1.212393e+002
1.219352e+003, 1.216447e+002
1.219834e+003, 1.220424e+002
1.220316e+003, 1.222061e+002
1.220798e+003, 1.221289e+002
1.221280e+003, 1.221483e+002
1.221762e+003, 1.224547e+002
1.222245e+003, 1.226957e+002
1.222727e+003, 1.223996e+002
1.223209e+003, 1.219692e+002
1.223691e+003, 1.218461e+002
1.224173e+003, 1.218838e+002
1.224655e+003, 1.216179e+002
1.225137e+003, 1.214752e+002
1.225619e+003, 1.227576e+002
1.226101e+003, 1.252489e+002
1.226584e+003, 1.264800e+002
1.227066e+003, 1.250977e+002
1.227548e+003, 1.238696e+002
1.228030e+003, 1.238493e+002
1.228512e+003, 1.240330e+002
1.228994e+003, 1.241260e+002
1.229476e+003, 1.241398e+002
1.229958e+003, 1.240888e+002
1.230441e+003, 1.239736e+002
1.230923e+003, 1.237620e+002
1.231405e+003, 1.234601e+002
1.231887e+003, 1.233220e+002
1.232369e+003, 1.234424e+002
1.232851e+003, 1.233962e+002
1.233333e+003, 1.230464e+002
1.233815e+003, 1.229637e+002
1.234297e+003, 1.233480e+002
1.234780e+003, 1.239534e+002
1.235262e+003, 1.246612e+002
1.235744e+003, 1.252404e+002
1.236226e+003, 1.252202e+002
1.236708e+003, 1.247700e+002
1.237190e+003, 1.245524e+002
1.237672e+003, 1.245565e+002
1.238154e+003, 1.248433e+002
1.238636e+003, 1.253189e+002
1.239119e+003, 1.255307e+002
1.239601e+003, 1.253790e+002
1.240083e+003, 1.251951e+002
1.240565e+003, 1.251898e+002
1.241047e+003, 1.252171e+002
1.241529e+003, 1.249364e+002
1.242011e+003, 1.248303e+002
1.242493e+003, 1.256673e+002
1.242975e+003, 1.267295e+002
1.243458e+003, 1.271399e+002
1.243940e+003, 1.270434e+002
1.244422e+003, 1.268187e+002
1.244904e+003, 1.265749e+002
1.245386e+003, 1.266922e+002
1.245868e+003, 1.278820e+002
1.246350e+003, 1.283038e+002
1.246832e+003, 1.266855e+002
1.247315e+003, 1.255642e+002
1.247797e+003, 1.261265e+002
1.248279e+003, 1.270627e+002
1.248761e+003, 1.275109e+002
1.249243e+003, 1.276859e+002
1.249725e+003, 1.279669e+002
1.250207e+003, 1.283467e+002
1.250689e+003, 1.287600e+002
1.251172e+003, 1.292277e+002
1.251654e+003, 1.294615e+002
1.252136e+003, 1.294339e+002
1.252618e+003, 1.292976e+002
1.253100e+003, 1.290990e+002
1.253582e+003, 1.289306e+002
1.254064e+003, 1.288486e+002
1.254546e+003, 1.289136e+002
1.255028e+003, 1.293037e+002
1.255510e+003, 1.298298e+002
1.255993e+003, 1.301528e+002
1.256475e+003, 1.303356e+002
1.256957e+003, 1.305287e+002
1.257439e+003, 1.306693e+002
1.257921e+003, 1.304725e+002
1.258403e+003, 1.299803e+002
1.258885e+003, 1.297219e+002
1.259367e+003, 1.299245e+002
1.259850e+003, 1.303792e+002
1.260332e+003, 1.313102e+002
1.260814e+003, 1.320477e+002
1.261296e+003, 1.321741e+002
1.261778e+003, 1.320907e+002
1.262260e+003, 1.320007e+002
1.262742e+003, 1.319698e+002
1.263224e+003, 1.321210e+002
1.263707e+003, 1.324198e+002
1.264189e+003, 1.325568e+002
1.264671e+003, 1.324228e+002
1.265153e+003, 1.325431e+002
1.265635e+003, 1.330313e+002
1.266117e+003, 1.332139e+002
1.266599e+003, 1.328776e+002
1.267081e+003, 1.326834e+002
1.267563e+003, 1.330157e+002
1.268046e+003, 1.335157e+002
1.268528e+003, 1.337751e+002
1.269010e+003, 1.338624e+002
1.269492e+003, 1.339249e+002
1.269974e+003, 1.339515e+002
1.270456e+003, 1.338181e+002
1.270938e+003, 1.336508e+002
1.271420e+003, 1.338128e+002
1.271902e+003, 1.342995e+002
1.272385e+003, 1.349143e+002
1.272867e+003, 1.355825e+002
1.273349e+003, 1.359144e+002
1.273831e+003, 1.354251e+002
1.274313e+003, 1.348962e+002
1.274795e+003, 1.345402e+002
1.275277e+003, 1.344759e+002
1.275759e+003, 1.350191e+002
1.276242e+003, 1.357083e+002
1.276724e+003, 1.359948e+002
1.277206e+003, 1.359928e+002
1.277688e+003, 1.361631e+002
1.278170e+003, 1.365510e+002
1.278652e+003, 1.366812e+002
1.279134e+003, 1.364686e+002
1.279616e+003, 1.362802e+002
1.280099e+003, 1.361159e+002
1.280581e+003, 1.362386e+002
1.281063e+003, 1.367861e+002
1.281545e+003, 1.372331e+002
1.282027e+003, 1.371503e+002
1.282509e+003, 1.368131e+002
1.282991e+003, 1.366167e+002
1.283473e+003, 1.365550e+002
1.283955e+003, 1.366458e+002
##END=



