##NAMES=Aegirine
##RRUFFID=R120144
##IDEAL CHEMISTRY=NaFe^3+^Si_2_O_6_
##LOCALITY=Zagi Mountain, Hameed Abad Kafoor Dheri, Peshawar, Khyber Pakhtunkhwa, Pakistan
##OWNER=RRUFF
##SOURCE=Ikram Mineralogy
##DESCRIPTION=Black bladed crystal
##STATUS=The identification of this mineral has been confirmed by single-crystal X-ray diffraction.
##URL=rruff.info/R120144
8.936163e+001, 0.000000e+000
8.984375e+001, 1.454053e+001
9.032587e+001, 1.468767e+001
9.080798e+001, 1.471791e+001
9.129010e+001, 1.459190e+001
9.177222e+001, 1.439441e+001
9.225433e+001, 1.419062e+001
9.273645e+001, 1.398548e+001
9.321857e+001, 1.384605e+001
9.370068e+001, 1.394368e+001
9.418280e+001, 1.418050e+001
9.466492e+001, 1.422778e+001
9.514703e+001, 1.386935e+001
9.562915e+001, 1.326675e+001
9.611127e+001, 1.285827e+001
9.659338e+001, 1.265846e+001
9.707550e+001, 1.259565e+001
9.755762e+001, 1.266136e+001
9.803973e+001, 1.286005e+001
9.852185e+001, 1.294071e+001
9.900397e+001, 1.273687e+001
9.948608e+001, 1.223877e+001
9.996820e+001, 1.185884e+001
1.004503e+002, 1.160294e+001
1.009324e+002, 1.145581e+001
1.014146e+002, 1.141607e+001
1.018967e+002, 1.153338e+001
1.023788e+002, 1.161530e+001
1.028609e+002, 1.152935e+001
1.033430e+002, 1.118831e+001
1.038251e+002, 1.097033e+001
1.043073e+002, 1.094977e+001
1.047894e+002, 1.108047e+001
1.052715e+002, 1.112311e+001
1.057536e+002, 1.105610e+001
1.062357e+002, 1.092549e+001
1.067178e+002, 1.075456e+001
1.072000e+002, 1.048630e+001
1.076821e+002, 1.026327e+001
1.081642e+002, 1.012159e+001
1.086463e+002, 1.006894e+001
1.091284e+002, 9.990561e+000
1.096105e+002, 9.841749e+000
1.100927e+002, 9.686418e+000
1.105748e+002, 9.585526e+000
1.110569e+002, 9.616106e+000
1.115390e+002, 9.629562e+000
1.120211e+002, 9.595247e+000
1.125032e+002, 9.508206e+000
1.129854e+002, 9.385870e+000
1.134675e+002, 9.159372e+000
1.139496e+002, 8.912377e+000
1.144317e+002, 8.763297e+000
1.149138e+002, 8.843214e+000
1.153959e+002, 8.952236e+000
1.158781e+002, 9.004826e+000
1.163602e+002, 8.987474e+000
1.168423e+002, 8.915333e+000
1.173244e+002, 8.737196e+000
1.178065e+002, 8.500591e+000
1.182886e+002, 8.326475e+000
1.187708e+002, 8.356096e+000
1.192529e+002, 8.422701e+000
1.197350e+002, 8.389428e+000
1.202171e+002, 8.145156e+000
1.206992e+002, 7.883703e+000
1.211813e+002, 7.719602e+000
1.216635e+002, 7.644194e+000
1.221456e+002, 7.615895e+000
1.226277e+002, 7.676846e+000
1.231098e+002, 7.753956e+000
1.235919e+002, 7.748879e+000
1.240740e+002, 7.541381e+000
1.245562e+002, 7.287309e+000
1.250383e+002, 7.155914e+000
1.255204e+002, 7.145740e+000
1.260025e+002, 7.180487e+000
1.264846e+002, 7.220338e+000
1.269667e+002, 7.257151e+000
1.274489e+002, 7.270565e+000
1.279310e+002, 7.236081e+000
1.284131e+002, 7.174780e+000
1.288952e+002, 7.131854e+000
1.293773e+002, 7.112287e+000
1.298594e+002, 7.091887e+000
1.303416e+002, 7.033450e+000
1.308237e+002, 6.942338e+000
1.313058e+002, 6.853714e+000
1.317879e+002, 6.809651e+000
1.322700e+002, 6.792119e+000
1.327521e+002, 6.700006e+000
1.332343e+002, 6.502488e+000
1.337164e+002, 6.267808e+000
1.341985e+002, 6.104117e+000
1.346806e+002, 6.012177e+000
1.351627e+002, 5.981271e+000
1.356448e+002, 6.047980e+000
1.361270e+002, 6.215430e+000
1.366091e+002, 6.280895e+000
1.370912e+002, 6.188569e+000
1.375733e+002, 5.992606e+000
1.380554e+002, 5.874368e+000
1.385375e+002, 5.852027e+000
1.390197e+002, 5.854009e+000
1.395018e+002, 5.820703e+000
1.399839e+002, 5.740312e+000
1.404660e+002, 5.674753e+000
1.409481e+002, 5.622201e+000
1.414302e+002, 5.587428e+000
1.419124e+002, 5.649783e+000
1.423945e+002, 5.882446e+000
1.428766e+002, 6.111190e+000
1.433587e+002, 6.140848e+000
1.438408e+002, 5.848709e+000
1.443229e+002, 5.610123e+000
1.448051e+002, 5.531132e+000
1.452872e+002, 5.644272e+000
1.457693e+002, 5.656984e+000
1.462514e+002, 5.492301e+000
1.467335e+002, 5.275697e+000
1.472156e+002, 5.167922e+000
1.476978e+002, 5.247986e+000
1.481799e+002, 5.341072e+000
1.486620e+002, 5.407559e+000
1.491441e+002, 5.443374e+000
1.496262e+002, 5.462638e+000
1.501083e+002, 5.488825e+000
1.505905e+002, 5.494804e+000
1.510726e+002, 5.431260e+000
1.515547e+002, 5.180934e+000
1.520368e+002, 4.963146e+000
1.525189e+002, 4.847463e+000
1.530010e+002, 4.900987e+000
1.534832e+002, 4.944623e+000
1.539653e+002, 4.972857e+000
1.544474e+002, 4.983959e+000
1.549295e+002, 4.973786e+000
1.554116e+002, 4.925484e+000
1.558937e+002, 4.867625e+000
1.563759e+002, 4.808594e+000
1.568580e+002, 4.686573e+000
1.573401e+002, 4.648470e+000
1.578222e+002, 4.827813e+000
1.583043e+002, 5.143778e+000
1.587864e+002, 5.298381e+000
1.592686e+002, 5.040460e+000
1.597507e+002, 4.695168e+000
1.602328e+002, 4.470130e+000
1.607149e+002, 4.494603e+000
1.611970e+002, 4.564812e+000
1.616791e+002, 4.633711e+000
1.621613e+002, 4.699216e+000
1.626434e+002, 4.754092e+000
1.631255e+002, 4.787121e+000
1.636076e+002, 4.811019e+000
1.640897e+002, 4.837112e+000
1.645718e+002, 4.894696e+000
1.650540e+002, 4.934132e+000
1.655361e+002, 4.914262e+000
1.660182e+002, 4.837746e+000
1.665003e+002, 4.775388e+000
1.669824e+002, 4.787781e+000
1.674645e+002, 4.829869e+000
1.679467e+002, 4.845901e+000
1.684288e+002, 4.716467e+000
1.689109e+002, 4.620549e+000
1.693930e+002, 4.733618e+000
1.698751e+002, 5.071213e+000
1.703572e+002, 5.383712e+000
1.708394e+002, 5.439162e+000
1.713215e+002, 5.361331e+000
1.718036e+002, 5.358296e+000
1.722857e+002, 5.514129e+000
1.727678e+002, 5.791498e+000
1.732499e+002, 6.178439e+000
1.737321e+002, 6.688567e+000
1.742142e+002, 7.224878e+000
1.746963e+002, 7.723065e+000
1.751784e+002, 8.194278e+000
1.756605e+002, 8.666958e+000
1.761426e+002, 9.027620e+000
1.766248e+002, 9.436475e+000
1.771069e+002, 1.012484e+001
1.775890e+002, 1.113809e+001
1.780711e+002, 1.234317e+001
1.785532e+002, 1.365659e+001
1.790353e+002, 1.506802e+001
1.795175e+002, 1.648847e+001
1.799996e+002, 1.809273e+001
1.804817e+002, 1.964866e+001
1.809638e+002, 2.074586e+001
1.814459e+002, 2.133061e+001
1.819280e+002, 2.146316e+001
1.824102e+002, 2.098333e+001
1.828923e+002, 1.999944e+001
1.833744e+002, 1.914019e+001
1.838565e+002, 1.874728e+001
1.843386e+002, 1.878806e+001
1.848207e+002, 1.915363e+001
1.853029e+002, 1.978921e+001
1.857850e+002, 2.082141e+001
1.862671e+002, 2.241755e+001
1.867492e+002, 2.457940e+001
1.872313e+002, 2.740284e+001
1.877134e+002, 3.084554e+001
1.881956e+002, 3.498829e+001
1.886777e+002, 4.006945e+001
1.891598e+002, 4.626042e+001
1.896419e+002, 5.333815e+001
1.901240e+002, 6.102452e+001
1.906061e+002, 6.944298e+001
1.910883e+002, 7.798515e+001
1.915704e+002, 8.720898e+001
1.920525e+002, 9.687386e+001
1.925346e+002, 1.039102e+002
1.930167e+002, 1.080648e+002
1.934988e+002, 1.089875e+002
1.939810e+002, 1.047409e+002
1.944631e+002, 9.495583e+001
1.949452e+002, 8.345901e+001
1.954273e+002, 7.208958e+001
1.959094e+002, 6.085195e+001
1.963915e+002, 5.140045e+001
1.968737e+002, 4.417203e+001
1.973558e+002, 3.883884e+001
1.978379e+002, 3.429370e+001
1.983200e+002, 3.055378e+001
1.988021e+002, 2.751368e+001
1.992842e+002, 2.521921e+001
1.997664e+002, 2.366867e+001
2.002485e+002, 2.238953e+001
2.007306e+002, 2.127973e+001
2.012127e+002, 2.034749e+001
2.016948e+002, 1.965162e+001
2.021769e+002, 1.921850e+001
2.026591e+002, 1.892048e+001
2.031412e+002, 1.860545e+001
2.036233e+002, 1.823669e+001
2.041054e+002, 1.808959e+001
2.045875e+002, 1.824155e+001
2.050696e+002, 1.867040e+001
2.055518e+002, 1.919254e+001
2.060339e+002, 1.978196e+001
2.065160e+002, 2.051398e+001
2.069981e+002, 2.146834e+001
2.074802e+002, 2.263888e+001
2.079623e+002, 2.397683e+001
2.084445e+002, 2.535288e+001
2.089266e+002, 2.679948e+001
2.094087e+002, 2.904146e+001
2.098908e+002, 3.218736e+001
2.103729e+002, 3.592353e+001
2.108550e+002, 4.001867e+001
2.113372e+002, 4.454304e+001
2.118193e+002, 4.906570e+001
2.123014e+002, 5.368114e+001
2.127835e+002, 5.835954e+001
2.132656e+002, 6.215430e+001
2.137477e+002, 6.524030e+001
2.142299e+002, 6.724007e+001
2.147120e+002, 6.779031e+001
2.151941e+002, 6.706098e+001
2.156762e+002, 6.443153e+001
2.161583e+002, 5.924394e+001
2.166404e+002, 5.137713e+001
2.171226e+002, 4.421132e+001
2.176047e+002, 3.765051e+001
2.180868e+002, 3.187965e+001
2.185689e+002, 2.704694e+001
2.190510e+002, 2.319163e+001
2.195331e+002, 2.013488e+001
2.200153e+002, 1.789268e+001
2.204974e+002, 1.651968e+001
2.209795e+002, 1.524658e+001
2.214616e+002, 1.401895e+001
2.219437e+002, 1.293225e+001
2.224258e+002, 1.211325e+001
2.229080e+002, 1.168299e+001
2.233901e+002, 1.126799e+001
2.238722e+002, 1.075551e+001
2.243543e+002, 1.011062e+001
2.248364e+002, 9.627115e+000
2.253185e+002, 9.353221e+000
2.258007e+002, 9.199146e+000
2.262828e+002, 9.058538e+000
2.267649e+002, 8.947050e+000
2.272470e+002, 8.819068e+000
2.277291e+002, 8.663107e+000
2.282112e+002, 8.473673e+000
2.286934e+002, 8.275743e+000
2.291755e+002, 8.042494e+000
2.296576e+002, 7.823529e+000
2.301397e+002, 7.690804e+000
2.306218e+002, 7.675589e+000
2.311039e+002, 7.688285e+000
2.315861e+002, 7.722844e+000
2.320682e+002, 7.794164e+000
2.325503e+002, 7.781517e+000
2.330324e+002, 7.635454e+000
2.335145e+002, 7.448242e+000
2.339966e+002, 7.335673e+000
2.344788e+002, 7.329542e+000
2.349609e+002, 7.342680e+000
2.354430e+002, 7.351006e+000
2.359251e+002, 7.349701e+000
2.364072e+002, 7.383558e+000
2.368893e+002, 7.490768e+000
2.373715e+002, 7.601741e+000
2.378536e+002, 7.620654e+000
2.383357e+002, 7.480006e+000
2.388178e+002, 7.366176e+000
2.392999e+002, 7.335782e+000
2.397820e+002, 7.403642e+000
2.402642e+002, 7.442086e+000
2.407463e+002, 7.440136e+000
2.412284e+002, 7.417788e+000
2.417105e+002, 7.392872e+000
2.421926e+002, 7.338577e+000
2.426747e+002, 7.331503e+000
2.431569e+002, 7.408150e+000
2.436390e+002, 7.585516e+000
2.441211e+002, 7.704941e+000
2.446032e+002, 7.741018e+000
2.450853e+002, 7.743064e+000
2.455674e+002, 7.764046e+000
2.460496e+002, 7.795764e+000
2.465317e+002, 7.862501e+000
2.470138e+002, 7.977055e+000
2.474959e+002, 8.144607e+000
2.479780e+002, 8.313333e+000
2.484601e+002, 8.511786e+000
2.489423e+002, 8.685758e+000
2.494244e+002, 8.761340e+000
2.499065e+002, 8.662947e+000
2.503886e+002, 8.616934e+000
2.508707e+002, 8.684387e+000
2.513528e+002, 8.869905e+000
2.518350e+002, 9.051362e+000
2.523171e+002, 9.244991e+000
2.527992e+002, 9.415009e+000
2.532813e+002, 9.503316e+000
2.537634e+002, 9.423006e+000
2.542455e+002, 9.449504e+000
2.547277e+002, 9.664755e+000
2.552098e+002, 1.007354e+001
2.556919e+002, 1.042980e+001
2.561740e+002, 1.066815e+001
2.566561e+002, 1.093444e+001
2.571382e+002, 1.137166e+001
2.576204e+002, 1.203976e+001
2.581025e+002, 1.273314e+001
2.585846e+002, 1.336290e+001
2.590667e+002, 1.394448e+001
2.595488e+002, 1.479022e+001
2.600309e+002, 1.592377e+001
2.605131e+002, 1.726006e+001
2.609952e+002, 1.871077e+001
2.614773e+002, 2.028988e+001
2.619594e+002, 2.198903e+001
2.624415e+002, 2.387617e+001
2.629236e+002, 2.592257e+001
2.634058e+002, 2.768988e+001
2.638879e+002, 2.928136e+001
2.643700e+002, 3.045228e+001
2.648521e+002, 3.110513e+001
2.653342e+002, 3.133131e+001
2.658163e+002, 3.066309e+001
2.662985e+002, 2.877213e+001
2.667806e+002, 2.591186e+001
2.672627e+002, 2.341662e+001
2.677448e+002, 2.129238e+001
2.682269e+002, 1.955540e+001
2.687090e+002, 1.827346e+001
2.691912e+002, 1.751227e+001
2.696733e+002, 1.686994e+001
2.701554e+002, 1.628460e+001
2.706375e+002, 1.578247e+001
2.711196e+002, 1.550885e+001
2.716017e+002, 1.550210e+001
2.720839e+002, 1.561646e+001
2.725660e+002, 1.576474e+001
2.730481e+002, 1.594733e+001
2.735302e+002, 1.616955e+001
2.740123e+002, 1.645178e+001
2.744944e+002, 1.676376e+001
2.749766e+002, 1.700918e+001
2.754587e+002, 1.716895e+001
2.759408e+002, 1.733548e+001
2.764229e+002, 1.760276e+001
2.769050e+002, 1.799305e+001
2.773871e+002, 1.821416e+001
2.778693e+002, 1.821580e+001
2.783514e+002, 1.807241e+001
2.788335e+002, 1.794205e+001
2.793156e+002, 1.782782e+001
2.797977e+002, 1.770144e+001
2.802798e+002, 1.755551e+001
2.807620e+002, 1.739149e+001
2.812441e+002, 1.716061e+001
2.817262e+002, 1.683416e+001
2.822083e+002, 1.648726e+001
2.826904e+002, 1.623370e+001
2.831725e+002, 1.607186e+001
2.836547e+002, 1.602283e+001
2.841368e+002, 1.611288e+001
2.846189e+002, 1.633494e+001
2.851010e+002, 1.662151e+001
2.855831e+002, 1.697522e+001
2.860652e+002, 1.738125e+001
2.865474e+002, 1.776162e+001
2.870295e+002, 1.812064e+001
2.875116e+002, 1.868016e+001
2.879937e+002, 1.960631e+001
2.884758e+002, 2.085038e+001
2.889579e+002, 2.203554e+001
2.894401e+002, 2.314837e+001
2.899222e+002, 2.432838e+001
2.904043e+002, 2.575022e+001
2.908864e+002, 2.739969e+001
2.913685e+002, 2.917521e+001
2.918506e+002, 3.108527e+001
2.923328e+002, 3.308403e+001
2.928149e+002, 3.509573e+001
2.932970e+002, 3.716100e+001
2.937791e+002, 3.888979e+001
2.942612e+002, 3.985627e+001
2.947433e+002, 4.013250e+001
2.952255e+002, 3.996729e+001
2.957076e+002, 3.941732e+001
2.961897e+002, 3.848980e+001
2.966718e+002, 3.709623e+001
2.971539e+002, 3.525312e+001
2.976360e+002, 3.331329e+001
2.981182e+002, 3.149337e+001
2.986003e+002, 2.981639e+001
2.990824e+002, 2.828118e+001
2.995645e+002, 2.682840e+001
3.000466e+002, 2.558096e+001
3.005287e+002, 2.469501e+001
3.010109e+002, 2.416521e+001
3.014930e+002, 2.393843e+001
3.019751e+002, 2.405705e+001
3.024572e+002, 2.444360e+001
3.029393e+002, 2.496765e+001
3.034214e+002, 2.561136e+001
3.039036e+002, 2.637704e+001
3.043857e+002, 2.723918e+001
3.048678e+002, 2.821302e+001
3.053499e+002, 2.938004e+001
3.058320e+002, 3.073205e+001
3.063141e+002, 3.232078e+001
3.067963e+002, 3.423021e+001
3.072784e+002, 3.657164e+001
3.077605e+002, 3.900818e+001
3.082426e+002, 4.124156e+001
3.087247e+002, 4.335672e+001
3.092068e+002, 4.555721e+001
3.096890e+002, 4.839844e+001
3.101711e+002, 5.111443e+001
3.106532e+002, 5.302859e+001
3.111353e+002, 5.403434e+001
3.116174e+002, 5.438462e+001
3.120995e+002, 5.426782e+001
3.125817e+002, 5.358374e+001
3.130638e+002, 5.217969e+001
3.135459e+002, 4.952163e+001
3.140280e+002, 4.646119e+001
3.145101e+002, 4.345940e+001
3.149922e+002, 4.056301e+001
3.154744e+002, 3.768737e+001
3.159565e+002, 3.463030e+001
3.164386e+002, 3.164289e+001
3.169207e+002, 2.904824e+001
3.174028e+002, 2.697703e+001
3.178849e+002, 2.525729e+001
3.183671e+002, 2.388120e+001
3.188492e+002, 2.282539e+001
3.193313e+002, 2.193917e+001
3.198134e+002, 2.116887e+001
3.202955e+002, 2.054443e+001
3.207776e+002, 2.009722e+001
3.212598e+002, 1.995955e+001
3.217419e+002, 1.985810e+001
3.222240e+002, 1.964556e+001
3.227061e+002, 1.938008e+001
3.231882e+002, 1.936738e+001
3.236703e+002, 1.987704e+001
3.241525e+002, 2.051114e+001
3.246346e+002, 2.104449e+001
3.251167e+002, 2.132154e+001
3.255988e+002, 2.168270e+001
3.260809e+002, 2.209632e+001
3.265630e+002, 2.260924e+001
3.270452e+002, 2.335316e+001
3.275273e+002, 2.450887e+001
3.280094e+002, 2.573963e+001
3.284915e+002, 2.692563e+001
3.289736e+002, 2.797981e+001
3.294557e+002, 2.915050e+001
3.299379e+002, 3.037715e+001
3.304200e+002, 3.174633e+001
3.309021e+002, 3.338017e+001
3.313842e+002, 3.540540e+001
3.318663e+002, 3.753728e+001
3.323484e+002, 3.966180e+001
3.328306e+002, 4.167164e+001
3.333127e+002, 4.409813e+001
3.337948e+002, 4.690732e+001
3.342769e+002, 5.017742e+001
3.347590e+002, 5.398054e+001
3.352411e+002, 5.846382e+001
3.357233e+002, 6.321147e+001
3.362054e+002, 6.806084e+001
3.366875e+002, 7.307192e+001
3.371696e+002, 7.857458e+001
3.376517e+002, 8.469739e+001
3.381339e+002, 9.104427e+001
3.386160e+002, 9.721848e+001
3.390981e+002, 1.032302e+002
3.395802e+002, 1.092489e+002
3.400623e+002, 1.153656e+002
3.405444e+002, 1.214705e+002
3.410266e+002, 1.269763e+002
3.415087e+002, 1.320344e+002
3.419908e+002, 1.361435e+002
3.424729e+002, 1.388389e+002
3.429550e+002, 1.401031e+002
3.434371e+002, 1.411108e+002
3.439193e+002, 1.419200e+002
3.444014e+002, 1.425468e+002
3.448835e+002, 1.431524e+002
3.453656e+002, 1.437332e+002
3.458477e+002, 1.437259e+002
3.463298e+002, 1.433105e+002
3.468120e+002, 1.421806e+002
3.472941e+002, 1.389195e+002
3.477762e+002, 1.333681e+002
3.482583e+002, 1.262268e+002
3.487404e+002, 1.178405e+002
3.492225e+002, 1.084175e+002
3.497047e+002, 9.880460e+001
3.501868e+002, 8.872153e+001
3.506689e+002, 7.895632e+001
3.511510e+002, 7.083956e+001
3.516331e+002, 6.439629e+001
3.521152e+002, 5.892837e+001
3.525974e+002, 5.399403e+001
3.530795e+002, 4.960615e+001
3.535616e+002, 4.578919e+001
3.540437e+002, 4.254848e+001
3.545258e+002, 3.989174e+001
3.550079e+002, 3.791661e+001
3.554901e+002, 3.656089e+001
3.559722e+002, 3.549750e+001
3.564543e+002, 3.452534e+001
3.569364e+002, 3.374620e+001
3.574185e+002, 3.325910e+001
3.579006e+002, 3.310553e+001
3.583828e+002, 3.318230e+001
3.588649e+002, 3.340266e+001
3.593470e+002, 3.380762e+001
3.598291e+002, 3.447890e+001
3.603112e+002, 3.544364e+001
3.607933e+002, 3.669139e+001
3.612755e+002, 3.824918e+001
3.617576e+002, 4.013480e+001
3.622397e+002, 4.220913e+001
3.627218e+002, 4.434469e+001
3.632039e+002, 4.666692e+001
3.636860e+002, 4.931581e+001
3.641682e+002, 5.246956e+001
3.646503e+002, 5.584377e+001
3.651324e+002, 5.935007e+001
3.656145e+002, 6.300598e+001
3.660966e+002, 6.663931e+001
3.665787e+002, 7.066399e+001
3.670609e+002, 7.438115e+001
3.675430e+002, 7.734319e+001
3.680251e+002, 8.005656e+001
3.685072e+002, 8.136971e+001
3.689893e+002, 8.087486e+001
3.694714e+002, 7.887817e+001
3.699536e+002, 7.630772e+001
3.704357e+002, 7.303728e+001
3.709178e+002, 6.930574e+001
3.713999e+002, 6.512513e+001
3.718820e+002, 6.001358e+001
3.723641e+002, 5.562000e+001
3.728463e+002, 5.209291e+001
3.733284e+002, 4.923093e+001
3.738105e+002, 4.669586e+001
3.742926e+002, 4.444945e+001
3.747747e+002, 4.260629e+001
3.752568e+002, 4.118611e+001
3.757390e+002, 4.018595e+001
3.762211e+002, 3.960805e+001
3.767032e+002, 3.951870e+001
3.771853e+002, 3.970140e+001
3.776674e+002, 3.987317e+001
3.781495e+002, 3.998286e+001
3.786317e+002, 4.057690e+001
3.791138e+002, 4.182907e+001
3.795959e+002, 4.359277e+001
3.800780e+002, 4.549683e+001
3.805601e+002, 4.753499e+001
3.810422e+002, 4.969361e+001
3.815244e+002, 5.192258e+001
3.820065e+002, 5.426179e+001
3.824886e+002, 5.685902e+001
3.829707e+002, 5.981771e+001
3.834528e+002, 6.284997e+001
3.839349e+002, 6.572758e+001
3.844171e+002, 6.841680e+001
3.848992e+002, 7.072032e+001
3.853813e+002, 7.283199e+001
3.858634e+002, 7.444808e+001
3.863455e+002, 7.508556e+001
3.868276e+002, 7.471677e+001
3.873098e+002, 7.350514e+001
3.877919e+002, 7.143160e+001
3.882740e+002, 6.860860e+001
3.887561e+002, 6.525079e+001
3.892382e+002, 6.113118e+001
3.897203e+002, 5.676524e+001
3.902025e+002, 5.247135e+001
3.906846e+002, 4.830527e+001
3.911667e+002, 4.441865e+001
3.916488e+002, 4.092734e+001
3.921309e+002, 3.778270e+001
3.926130e+002, 3.495490e+001
3.930952e+002, 3.254273e+001
3.935773e+002, 3.029572e+001
3.940594e+002, 2.810300e+001
3.945415e+002, 2.602687e+001
3.950236e+002, 2.418273e+001
3.955057e+002, 2.265765e+001
3.959879e+002, 2.132577e+001
3.964700e+002, 2.015449e+001
3.969521e+002, 1.915014e+001
3.974342e+002, 1.824563e+001
3.979163e+002, 1.748843e+001
3.983984e+002, 1.679875e+001
3.988806e+002, 1.610372e+001
3.993627e+002, 1.537274e+001
3.998448e+002, 1.466498e+001
4.003269e+002, 1.395749e+001
4.008090e+002, 1.326213e+001
4.012911e+002, 1.269835e+001
4.017733e+002, 1.233826e+001
4.022554e+002, 1.201857e+001
4.027375e+002, 1.164685e+001
4.032196e+002, 1.116754e+001
4.037017e+002, 1.078063e+001
4.041838e+002, 1.052534e+001
4.046660e+002, 1.033755e+001
4.051481e+002, 1.010022e+001
4.056302e+002, 9.799046e+000
4.061123e+002, 9.494640e+000
4.065944e+002, 9.189355e+000
4.070765e+002, 8.886376e+000
4.075587e+002, 8.693590e+000
4.080408e+002, 8.628750e+000
4.085229e+002, 8.601241e+000
4.090050e+002, 8.525729e+000
4.094871e+002, 8.403883e+000
4.099692e+002, 8.255088e+000
4.104514e+002, 8.070936e+000
4.109335e+002, 7.874915e+000
4.114156e+002, 7.719050e+000
4.118977e+002, 7.601793e+000
4.123798e+002, 7.488985e+000
4.128619e+002, 7.365744e+000
4.133441e+002, 7.231407e+000
4.138262e+002, 7.073670e+000
4.143083e+002, 6.883181e+000
4.147904e+002, 6.707386e+000
4.152725e+002, 6.582618e+000
4.157546e+002, 6.505780e+000
4.162368e+002, 6.467471e+000
4.167189e+002, 6.502382e+000
4.172010e+002, 6.547426e+000
4.176831e+002, 6.563233e+000
4.181652e+002, 6.547796e+000
4.186473e+002, 6.490991e+000
4.191295e+002, 6.342595e+000
4.196116e+002, 6.172834e+000
4.200937e+002, 6.048596e+000
4.205758e+002, 6.020996e+000
4.210579e+002, 5.987597e+000
4.215400e+002, 5.892215e+000
4.220222e+002, 5.765195e+000
4.225043e+002, 5.678697e+000
4.229864e+002, 5.667847e+000
4.234685e+002, 5.685252e+000
4.239506e+002, 5.723687e+000
4.244327e+002, 5.801089e+000
4.249149e+002, 5.834664e+000
4.253970e+002, 5.781343e+000
4.258791e+002, 5.705586e+000
4.263612e+002, 5.674440e+000
4.268433e+002, 5.744686e+000
4.273254e+002, 5.766677e+000
4.278076e+002, 5.695382e+000
4.282897e+002, 5.549004e+000
4.287718e+002, 5.462899e+000
4.292539e+002, 5.451167e+000
4.297360e+002, 5.472242e+000
4.302181e+002, 5.511557e+000
4.307003e+002, 5.575921e+000
4.311824e+002, 5.609839e+000
4.316645e+002, 5.604125e+000
4.321466e+002, 5.579034e+000
4.326287e+002, 5.575469e+000
4.331108e+002, 5.594385e+000
4.335930e+002, 5.587600e+000
4.340751e+002, 5.504071e+000
4.345572e+002, 5.385100e+000
4.350393e+002, 5.391608e+000
4.355214e+002, 5.526490e+000
4.360035e+002, 5.669507e+000
4.364857e+002, 5.700968e+000
4.369678e+002, 5.657969e+000
4.374499e+002, 5.632121e+000
4.379320e+002, 5.649102e+000
4.384141e+002, 5.678568e+000
4.388962e+002, 5.684392e+000
4.393784e+002, 5.674700e+000
4.398605e+002, 5.673406e+000
4.403426e+002, 5.714584e+000
4.408247e+002, 5.756028e+000
4.413068e+002, 5.748957e+000
4.417889e+002, 5.683611e+000
4.422711e+002, 5.643388e+000
4.427532e+002, 5.720583e+000
4.432353e+002, 5.824048e+000
4.437174e+002, 5.859117e+000
4.441995e+002, 5.721987e+000
4.446816e+002, 5.594340e+000
4.451638e+002, 5.528275e+000
4.456459e+002, 5.514871e+000
4.461280e+002, 5.507808e+000
4.466101e+002, 5.472999e+000
4.470922e+002, 5.465909e+000
4.475743e+002, 5.519441e+000
4.480565e+002, 5.672748e+000
4.485386e+002, 5.784999e+000
4.490207e+002, 5.830335e+000
4.495028e+002, 5.850244e+000
4.499849e+002, 5.901619e+000
4.504670e+002, 6.011284e+000
4.509492e+002, 6.090955e+000
4.514313e+002, 6.107869e+000
4.519134e+002, 6.074798e+000
4.523955e+002, 6.087579e+000
4.528776e+002, 6.154807e+000
4.533597e+002, 6.237058e+000
4.538419e+002, 6.307978e+000
4.543240e+002, 6.367403e+000
4.548061e+002, 6.425143e+000
4.552882e+002, 6.472692e+000
4.557703e+002, 6.541874e+000
4.562524e+002, 6.705985e+000
4.567346e+002, 6.950563e+000
4.572167e+002, 7.162007e+000
4.576988e+002, 7.242959e+000
4.581809e+002, 7.285256e+000
4.586630e+002, 7.478811e+000
4.591451e+002, 7.812599e+000
4.596273e+002, 8.138541e+000
4.601094e+002, 8.283491e+000
4.605915e+002, 8.371569e+000
4.610736e+002, 8.579208e+000
4.615557e+002, 9.007178e+000
4.620378e+002, 9.428112e+000
4.625200e+002, 9.686732e+000
4.630021e+002, 9.835370e+000
4.634842e+002, 9.970184e+000
4.639663e+002, 1.017134e+001
4.644484e+002, 1.033141e+001
4.649305e+002, 1.038986e+001
4.654127e+002, 1.034086e+001
4.658948e+002, 1.025845e+001
4.663769e+002, 1.017498e+001
4.668590e+002, 1.005312e+001
4.673411e+002, 9.865651e+000
4.678232e+002, 9.496716e+000
4.683054e+002, 9.210490e+000
4.687875e+002, 9.059996e+000
4.692696e+002, 8.991572e+000
4.697517e+002, 8.874205e+000
4.702338e+002, 8.699232e+000
4.707159e+002, 8.489192e+000
4.711981e+002, 8.224066e+000
4.716802e+002, 7.896993e+000
4.721623e+002, 7.707560e+000
4.726444e+002, 7.686453e+000
4.731265e+002, 7.724425e+000
4.736086e+002, 7.721216e+000
4.740908e+002, 7.677392e+000
4.745729e+002, 7.626200e+000
4.750550e+002, 7.567585e+000
4.755371e+002, 7.513846e+000
4.760192e+002, 7.487722e+000
4.765013e+002, 7.488002e+000
4.769835e+002, 7.505553e+000
4.774656e+002, 7.566405e+000
4.779477e+002, 7.630532e+000
4.784298e+002, 7.600661e+000
4.789119e+002, 7.469203e+000
4.793940e+002, 7.383736e+000
4.798762e+002, 7.482335e+000
4.803583e+002, 7.690329e+000
4.808404e+002, 7.913126e+000
4.813225e+002, 8.161701e+000
4.818046e+002, 8.369191e+000
4.822867e+002, 8.442518e+000
4.827689e+002, 8.443936e+000
4.832510e+002, 8.533585e+000
4.837331e+002, 8.814209e+000
4.842152e+002, 9.152515e+000
4.846973e+002, 9.506663e+000
4.851794e+002, 9.888219e+000
4.856616e+002, 1.021881e+001
4.861437e+002, 1.042447e+001
4.866258e+002, 1.061719e+001
4.871079e+002, 1.087860e+001
4.875900e+002, 1.117861e+001
4.880721e+002, 1.160642e+001
4.885543e+002, 1.218466e+001
4.890364e+002, 1.288928e+001
4.895185e+002, 1.365721e+001
4.900006e+002, 1.449012e+001
4.904827e+002, 1.535685e+001
4.909648e+002, 1.617934e+001
4.914470e+002, 1.697482e+001
4.919291e+002, 1.807776e+001
4.924112e+002, 1.950843e+001
4.928933e+002, 2.112603e+001
4.933754e+002, 2.272548e+001
4.938575e+002, 2.437010e+001
4.943397e+002, 2.636734e+001
4.948218e+002, 2.886954e+001
4.953039e+002, 3.155489e+001
4.957860e+002, 3.398626e+001
4.962681e+002, 3.620214e+001
4.967502e+002, 3.832380e+001
4.972324e+002, 4.078865e+001
4.977145e+002, 4.298075e+001
4.981966e+002, 4.437592e+001
4.986787e+002, 4.495638e+001
4.991608e+002, 4.481979e+001
4.996429e+002, 4.395665e+001
5.001251e+002, 4.243966e+001
5.006072e+002, 4.028242e+001
5.010893e+002, 3.703638e+001
5.015714e+002, 3.380975e+001
5.020535e+002, 3.067518e+001
5.025356e+002, 2.771641e+001
5.030178e+002, 2.510469e+001
5.034999e+002, 2.286054e+001
5.039820e+002, 2.091158e+001
5.044641e+002, 1.926196e+001
5.049462e+002, 1.790925e+001
5.054283e+002, 1.684188e+001
5.059105e+002, 1.615829e+001
5.063926e+002, 1.562050e+001
5.068747e+002, 1.505110e+001
5.073568e+002, 1.443796e+001
5.078389e+002, 1.388676e+001
5.083210e+002, 1.341577e+001
5.088032e+002, 1.301266e+001
5.092853e+002, 1.266149e+001
5.097674e+002, 1.236226e+001
5.102495e+002, 1.211933e+001
5.107316e+002, 1.194332e+001
5.112137e+002, 1.181849e+001
5.116959e+002, 1.171109e+001
5.121780e+002, 1.162219e+001
5.126601e+002, 1.155541e+001
5.131422e+002, 1.154493e+001
5.136243e+002, 1.154584e+001
5.141064e+002, 1.147470e+001
5.145886e+002, 1.127686e+001
5.150707e+002, 1.115485e+001
5.155528e+002, 1.130953e+001
5.160349e+002, 1.160042e+001
5.165170e+002, 1.182658e+001
5.169991e+002, 1.182452e+001
5.174813e+002, 1.184929e+001
5.179634e+002, 1.200773e+001
5.184455e+002, 1.228316e+001
5.189276e+002, 1.252561e+001
5.194097e+002, 1.265154e+001
5.198918e+002, 1.279796e+001
5.203740e+002, 1.301004e+001
5.208561e+002, 1.328057e+001
5.213382e+002, 1.364827e+001
5.218203e+002, 1.414414e+001
5.223024e+002, 1.470146e+001
5.227845e+002, 1.521941e+001
5.232667e+002, 1.565976e+001
5.237488e+002, 1.629599e+001
5.242309e+002, 1.723783e+001
5.247130e+002, 1.834719e+001
5.251951e+002, 1.923927e+001
5.256772e+002, 1.992475e+001
5.261594e+002, 2.071738e+001
5.266415e+002, 2.187179e+001
5.271236e+002, 2.325855e+001
5.276057e+002, 2.456039e+001
5.280878e+002, 2.576060e+001
5.285699e+002, 2.700313e+001
5.290521e+002, 2.841884e+001
5.295342e+002, 2.992809e+001
5.300163e+002, 3.144602e+001
5.304984e+002, 3.302223e+001
5.309805e+002, 3.444446e+001
5.314626e+002, 3.547054e+001
5.319448e+002, 3.625862e+001
5.324269e+002, 3.711138e+001
5.329090e+002, 3.804407e+001
5.333911e+002, 3.913309e+001
5.338732e+002, 4.033825e+001
5.343553e+002, 4.164363e+001
5.348375e+002, 4.342247e+001
5.353196e+002, 4.569054e+001
5.358017e+002, 4.839964e+001
5.362838e+002, 5.149606e+001
5.367659e+002, 5.495372e+001
5.372480e+002, 5.895802e+001
5.377302e+002, 6.349913e+001
5.382123e+002, 6.858829e+001
5.386944e+002, 7.416206e+001
5.391765e+002, 8.027093e+001
5.396586e+002, 8.686963e+001
5.401407e+002, 9.396593e+001
5.406229e+002, 1.014509e+002
5.411050e+002, 1.091043e+002
5.415871e+002, 1.168568e+002
5.420692e+002, 1.239684e+002
5.425513e+002, 1.309518e+002
5.430334e+002, 1.367213e+002
5.435156e+002, 1.395137e+002
5.439977e+002, 1.392117e+002
5.444798e+002, 1.368621e+002
5.449619e+002, 1.326771e+002
5.454440e+002, 1.270538e+002
5.459261e+002, 1.203719e+002
5.464083e+002, 1.121960e+002
5.468904e+002, 1.037562e+002
5.473725e+002, 9.499514e+001
5.478546e+002, 8.636478e+001
5.483367e+002, 7.863960e+001
5.488188e+002, 7.204011e+001
5.493010e+002, 6.627694e+001
5.497831e+002, 6.134412e+001
5.502652e+002, 5.723729e+001
5.507473e+002, 5.363705e+001
5.512294e+002, 5.052535e+001
5.517115e+002, 4.794617e+001
5.521937e+002, 4.594489e+001
5.526758e+002, 4.455238e+001
5.531579e+002, 4.343302e+001
5.536400e+002, 4.254810e+001
5.541221e+002, 4.200500e+001
5.546042e+002, 4.201227e+001
5.550864e+002, 4.252214e+001
5.555685e+002, 4.323036e+001
5.560506e+002, 4.399388e+001
5.565327e+002, 4.496601e+001
5.570148e+002, 4.634565e+001
5.574969e+002, 4.811617e+001
5.579791e+002, 5.022555e+001
5.584612e+002, 5.291152e+001
5.589433e+002, 5.572356e+001
5.594254e+002, 5.838963e+001
5.599075e+002, 6.090722e+001
5.603896e+002, 6.291261e+001
5.608718e+002, 6.424000e+001
5.613539e+002, 6.498837e+001
5.618360e+002, 6.523328e+001
5.623181e+002, 6.517809e+001
5.628002e+002, 6.429573e+001
5.632823e+002, 6.234505e+001
5.637645e+002, 5.968464e+001
5.642466e+002, 5.682203e+001
5.647287e+002, 5.375451e+001
5.652108e+002, 5.054271e+001
5.656929e+002, 4.711029e+001
5.661750e+002, 4.356892e+001
5.666572e+002, 4.024188e+001
5.671393e+002, 3.713776e+001
5.676214e+002, 3.431285e+001
5.681035e+002, 3.179133e+001
5.685856e+002, 2.957073e+001
5.690677e+002, 2.756070e+001
5.695499e+002, 2.577768e+001
5.700320e+002, 2.416368e+001
5.705141e+002, 2.271199e+001
5.709962e+002, 2.140367e+001
5.714783e+002, 2.020615e+001
5.719604e+002, 1.907591e+001
5.724426e+002, 1.810467e+001
5.729247e+002, 1.741642e+001
5.734068e+002, 1.691154e+001
5.738889e+002, 1.639593e+001
5.743710e+002, 1.576948e+001
5.748531e+002, 1.516670e+001
5.753353e+002, 1.464054e+001
5.758174e+002, 1.419002e+001
5.762995e+002, 1.373922e+001
5.767816e+002, 1.328517e+001
5.772637e+002, 1.283690e+001
5.777458e+002, 1.236888e+001
5.782280e+002, 1.184641e+001
5.787101e+002, 1.153893e+001
5.791922e+002, 1.152786e+001
5.796743e+002, 1.155277e+001
5.801564e+002, 1.128514e+001
5.806385e+002, 1.074770e+001
5.811207e+002, 1.035074e+001
5.816028e+002, 1.020026e+001
5.820849e+002, 1.014723e+001
5.825670e+002, 9.961573e+000
5.830491e+002, 9.683865e+000
5.835313e+002, 9.435990e+000
5.840134e+002, 9.311087e+000
5.844955e+002, 9.219445e+000
5.849776e+002, 9.089913e+000
5.854597e+002, 8.923574e+000
5.859418e+002, 8.730005e+000
5.864240e+002, 8.440824e+000
5.869061e+002, 8.182723e+000
5.873882e+002, 8.045691e+000
5.878703e+002, 8.084850e+000
5.883524e+002, 8.069467e+000
5.888345e+002, 7.902063e+000
5.893167e+002, 7.715498e+000
5.897988e+002, 7.621909e+000
5.902809e+002, 7.694571e+000
5.907630e+002, 7.690961e+000
5.912451e+002, 7.583990e+000
5.917272e+002, 7.402625e+000
5.922094e+002, 7.176238e+000
5.926915e+002, 6.900807e+000
5.931736e+002, 6.677683e+000
5.936557e+002, 6.561662e+000
5.941378e+002, 6.507039e+000
5.946199e+002, 6.395001e+000
5.951021e+002, 6.234899e+000
5.955842e+002, 6.095158e+000
5.960663e+002, 6.025294e+000
5.965484e+002, 5.998079e+000
5.970305e+002, 6.006045e+000
5.975126e+002, 6.051501e+000
5.979948e+002, 6.036499e+000
5.984769e+002, 5.806943e+000
5.989590e+002, 5.549098e+000
5.994411e+002, 5.429263e+000
5.999232e+002, 5.597680e+000
6.004053e+002, 5.709754e+000
6.008875e+002, 5.699615e+000
6.013696e+002, 5.609880e+000
6.018517e+002, 5.490458e+000
6.023338e+002, 5.312094e+000
6.028159e+002, 5.162957e+000
6.032980e+002, 5.055719e+000
6.037802e+002, 4.989621e+000
6.042623e+002, 4.972946e+000
6.047444e+002, 5.013300e+000
6.052265e+002, 5.039150e+000
6.057086e+002, 4.993414e+000
6.061907e+002, 4.903460e+000
6.066729e+002, 4.874255e+000
6.071550e+002, 4.904562e+000
6.076371e+002, 4.932139e+000
6.081192e+002, 4.900599e+000
6.086013e+002, 4.839093e+000
6.090834e+002, 4.784811e+000
6.095656e+002, 4.743896e+000
6.100477e+002, 4.708536e+000
6.105298e+002, 4.654672e+000
6.110119e+002, 4.612158e+000
6.114940e+002, 4.614165e+000
6.119761e+002, 4.744586e+000
6.124583e+002, 4.829352e+000
6.129404e+002, 4.829271e+000
6.134225e+002, 4.769655e+000
6.139046e+002, 4.697625e+000
6.143867e+002, 4.595987e+000
6.148688e+002, 4.521263e+000
6.153510e+002, 4.493577e+000
6.158331e+002, 4.506819e+000
6.163152e+002, 4.532220e+000
6.167973e+002, 4.573617e+000
6.172794e+002, 4.588623e+000
6.177615e+002, 4.520988e+000
6.182437e+002, 4.406168e+000
6.187258e+002, 4.350913e+000
6.192079e+002, 4.362133e+000
6.196900e+002, 4.379220e+000
6.201721e+002, 4.338032e+000
6.206542e+002, 4.277371e+000
6.211364e+002, 4.248194e+000
6.216185e+002, 4.273581e+000
6.221006e+002, 4.305073e+000
6.225827e+002, 4.341067e+000
6.230648e+002, 4.364607e+000
6.235469e+002, 4.351987e+000
6.240291e+002, 4.215792e+000
6.245112e+002, 4.147860e+000
6.249933e+002, 4.233437e+000
6.254754e+002, 4.403218e+000
6.259575e+002, 4.402736e+000
6.264396e+002, 4.167619e+000
6.269218e+002, 3.949516e+000
6.274039e+002, 3.834420e+000
6.278860e+002, 3.816641e+000
6.283681e+002, 3.889103e+000
6.288502e+002, 4.055461e+000
6.293323e+002, 4.214605e+000
6.298145e+002, 4.300057e+000
6.302966e+002, 4.322469e+000
6.307787e+002, 4.287271e+000
6.312608e+002, 4.190126e+000
6.317429e+002, 4.101140e+000
6.322250e+002, 4.077464e+000
6.327072e+002, 4.087383e+000
6.331893e+002, 4.097227e+000
6.336714e+002, 4.101548e+000
6.341535e+002, 4.100358e+000
6.346356e+002, 4.086402e+000
6.351177e+002, 4.068909e+000
6.355999e+002, 4.062070e+000
6.360820e+002, 4.065969e+000
6.365641e+002, 4.081315e+000
6.370462e+002, 4.112976e+000
6.375283e+002, 4.154936e+000
6.380104e+002, 4.193886e+000
6.384926e+002, 4.234418e+000
6.389747e+002, 4.243637e+000
6.394568e+002, 4.185950e+000
6.399389e+002, 4.088930e+000
6.404210e+002, 4.042050e+000
6.409031e+002, 4.044195e+000
6.413853e+002, 4.082961e+000
6.418674e+002, 4.190470e+000
6.423495e+002, 4.308997e+000
6.428316e+002, 4.362173e+000
6.433137e+002, 4.337499e+000
6.437958e+002, 4.298021e+000
6.442780e+002, 4.238695e+000
6.447601e+002, 4.198977e+000
6.452422e+002, 4.216778e+000
6.457243e+002, 4.367332e+000
6.462064e+002, 4.466759e+000
6.466885e+002, 4.468675e+000
6.471707e+002, 4.438089e+000
6.476528e+002, 4.471306e+000
6.481349e+002, 4.605146e+000
6.486170e+002, 4.675563e+000
6.490991e+002, 4.623406e+000
6.495812e+002, 4.521013e+000
6.500634e+002, 4.570560e+000
6.505455e+002, 4.759051e+000
6.510276e+002, 4.890548e+000
6.515097e+002, 4.814251e+000
6.519918e+002, 4.664111e+000
6.524739e+002, 4.674414e+000
6.529561e+002, 4.814127e+000
6.534382e+002, 4.921208e+000
6.539203e+002, 4.853829e+000
6.544024e+002, 4.755460e+000
6.548845e+002, 4.720161e+000
6.553666e+002, 4.760221e+000
6.558488e+002, 4.828313e+000
6.563309e+002, 4.941402e+000
6.568130e+002, 5.058655e+000
6.572951e+002, 5.155538e+000
6.577772e+002, 5.226450e+000
6.582593e+002, 5.290015e+000
6.587415e+002, 5.340670e+000
6.592236e+002, 5.392969e+000
6.597057e+002, 5.464168e+000
6.601878e+002, 5.553660e+000
6.606699e+002, 5.658420e+000
6.611520e+002, 5.788593e+000
6.616342e+002, 5.901665e+000
6.621163e+002, 5.883197e+000
6.625984e+002, 5.795586e+000
6.630805e+002, 5.805998e+000
6.635626e+002, 6.062817e+000
6.640447e+002, 6.357565e+000
6.645269e+002, 6.537867e+000
6.650090e+002, 6.636596e+000
6.654911e+002, 6.755343e+000
6.659732e+002, 6.926040e+000
6.664553e+002, 7.121127e+000
6.669374e+002, 7.334007e+000
6.674196e+002, 7.564809e+000
6.679017e+002, 7.807196e+000
6.683838e+002, 8.058477e+000
6.688659e+002, 8.329936e+000
6.693480e+002, 8.619287e+000
6.698301e+002, 8.927327e+000
6.703123e+002, 9.322623e+000
6.707944e+002, 9.815494e+000
6.712765e+002, 1.032957e+001
6.717586e+002, 1.076676e+001
6.722407e+002, 1.118664e+001
6.727228e+002, 1.172632e+001
6.732050e+002, 1.242147e+001
6.736871e+002, 1.315591e+001
6.741692e+002, 1.390383e+001
6.746513e+002, 1.462655e+001
6.751334e+002, 1.526301e+001
6.756155e+002, 1.569630e+001
6.760977e+002, 1.620937e+001
6.765798e+002, 1.701669e+001
6.770619e+002, 1.788056e+001
6.775440e+002, 1.844133e+001
6.780261e+002, 1.861899e+001
6.785082e+002, 1.865348e+001
6.789904e+002, 1.858819e+001
6.794725e+002, 1.840246e+001
6.799546e+002, 1.803755e+001
6.804367e+002, 1.749994e+001
6.809188e+002, 1.679033e+001
6.814009e+002, 1.582495e+001
6.818831e+002, 1.474987e+001
6.823652e+002, 1.384364e+001
6.828473e+002, 1.308307e+001
6.833294e+002, 1.239660e+001
6.838115e+002, 1.182358e+001
6.842936e+002, 1.123764e+001
6.847758e+002, 1.047077e+001
6.852579e+002, 9.523260e+000
6.857400e+002, 8.724859e+000
6.862221e+002, 8.251830e+000
6.867042e+002, 7.887097e+000
6.871863e+002, 7.506121e+000
6.876685e+002, 7.082029e+000
6.881506e+002, 6.781126e+000
6.886327e+002, 6.648710e+000
6.891148e+002, 6.537303e+000
6.895969e+002, 6.283639e+000
6.900790e+002, 5.900425e+000
6.905612e+002, 5.627022e+000
6.910433e+002, 5.499192e+000
6.915254e+002, 5.424451e+000
6.920075e+002, 5.321654e+000
6.924896e+002, 5.194091e+000
6.929717e+002, 5.041344e+000
6.934539e+002, 4.835150e+000
6.939360e+002, 4.661151e+000
6.944181e+002, 4.591349e+000
6.949002e+002, 4.581581e+000
6.953823e+002, 4.563179e+000
6.958644e+002, 4.525794e+000
6.963466e+002, 4.473325e+000
6.968287e+002, 4.404522e+000
6.973108e+002, 4.322072e+000
6.977929e+002, 4.223951e+000
6.982750e+002, 4.092263e+000
6.987571e+002, 4.011528e+000
6.992393e+002, 4.007346e+000
6.997214e+002, 4.074392e+000
7.002035e+002, 4.265635e+000
7.006856e+002, 4.555433e+000
7.011677e+002, 4.708784e+000
7.016498e+002, 4.468776e+000
7.021320e+002, 4.092328e+000
7.026141e+002, 3.853436e+000
7.030962e+002, 3.751670e+000
7.035783e+002, 3.710968e+000
7.040604e+002, 3.631256e+000
7.045425e+002, 3.653611e+000
7.050247e+002, 3.951793e+000
7.055068e+002, 4.652211e+000
7.059889e+002, 4.925801e+000
7.064710e+002, 4.529061e+000
7.069531e+002, 4.016082e+000
7.074352e+002, 3.745448e+000
7.079174e+002, 3.740062e+000
7.083995e+002, 3.723282e+000
7.088816e+002, 3.688049e+000
7.093637e+002, 3.653489e+000
7.098458e+002, 3.649326e+000
7.103279e+002, 3.660750e+000
7.108101e+002, 3.642476e+000
7.112922e+002, 3.576802e+000
7.117743e+002, 3.525697e+000
7.122564e+002, 3.557294e+000
7.127385e+002, 3.621618e+000
7.132206e+002, 3.659023e+000
7.137028e+002, 3.641102e+000
7.141849e+002, 3.612430e+000
7.146670e+002, 3.583002e+000
7.151491e+002, 3.546374e+000
7.156312e+002, 3.484186e+000
7.161133e+002, 3.367480e+000
7.165955e+002, 3.312109e+000
7.170776e+002, 3.353330e+000
7.175597e+002, 3.448382e+000
7.180418e+002, 3.508957e+000
7.185239e+002, 3.538031e+000
7.190060e+002, 3.561299e+000
7.194882e+002, 3.598367e+000
7.199703e+002, 3.624246e+000
7.204524e+002, 3.583263e+000
7.209345e+002, 3.502356e+000
7.214166e+002, 3.460094e+000
7.218987e+002, 3.558057e+000
7.223809e+002, 3.641879e+000
7.228630e+002, 3.621696e+000
7.233451e+002, 3.509098e+000
7.238272e+002, 3.421244e+000
7.243093e+002, 3.365671e+000
7.247914e+002, 3.332814e+000
7.252736e+002, 3.325076e+000
7.257557e+002, 3.340118e+000
7.262378e+002, 3.342528e+000
7.267199e+002, 3.328826e+000
7.272020e+002, 3.333641e+000
7.276841e+002, 3.412928e+000
7.281663e+002, 3.519773e+000
7.286484e+002, 3.527252e+000
7.291305e+002, 3.435827e+000
7.296126e+002, 3.362630e+000
7.300947e+002, 3.430589e+000
7.305768e+002, 3.520366e+000
7.310590e+002, 3.520486e+000
7.315411e+002, 3.391309e+000
7.320232e+002, 3.310346e+000
7.325053e+002, 3.341130e+000
7.329874e+002, 3.404223e+000
7.334695e+002, 3.455029e+000
7.339517e+002, 3.489808e+000
7.344338e+002, 3.528436e+000
7.349159e+002, 3.577580e+000
7.353980e+002, 3.612357e+000
7.358801e+002, 3.587932e+000
7.363622e+002, 3.522587e+000
7.368444e+002, 3.500539e+000
7.373265e+002, 3.542979e+000
7.378086e+002, 3.587836e+000
7.382907e+002, 3.560140e+000
7.387728e+002, 3.505779e+000
7.392549e+002, 3.486262e+000
7.397371e+002, 3.539181e+000
7.402192e+002, 3.591788e+000
7.407013e+002, 3.619241e+000
7.411834e+002, 3.637376e+000
7.416655e+002, 3.666617e+000
7.421476e+002, 3.704384e+000
7.426298e+002, 3.762480e+000
7.431119e+002, 3.853907e+000
7.435940e+002, 3.950748e+000
7.440761e+002, 3.995736e+000
7.445582e+002, 3.993385e+000
7.450403e+002, 3.993217e+000
7.455225e+002, 4.006946e+000
7.460046e+002, 4.034584e+000
7.464867e+002, 4.066331e+000
7.469688e+002, 4.112334e+000
7.474509e+002, 4.194571e+000
7.479330e+002, 4.381495e+000
7.484152e+002, 4.543678e+000
7.488973e+002, 4.606600e+000
7.493794e+002, 4.604049e+000
7.498615e+002, 4.645014e+000
7.503436e+002, 4.736392e+000
7.508257e+002, 4.866467e+000
7.513079e+002, 5.041265e+000
7.517900e+002, 5.249040e+000
7.522721e+002, 5.426444e+000
7.527542e+002, 5.574163e+000
7.532363e+002, 5.774064e+000
7.537184e+002, 6.100273e+000
7.542006e+002, 6.478660e+000
7.546827e+002, 6.750712e+000
7.551648e+002, 6.959044e+000
7.556469e+002, 7.269695e+000
7.561290e+002, 7.827818e+000
7.566111e+002, 8.460298e+000
7.570933e+002, 9.101270e+000
7.575754e+002, 9.735437e+000
7.580575e+002, 1.037138e+001
7.585396e+002, 1.107929e+001
7.590217e+002, 1.168211e+001
7.595038e+002, 1.214768e+001
7.599860e+002, 1.246214e+001
7.604681e+002, 1.249905e+001
7.609502e+002, 1.225247e+001
7.614323e+002, 1.177919e+001
7.619144e+002, 1.100576e+001
7.623965e+002, 1.007131e+001
7.628787e+002, 9.201706e+000
7.633608e+002, 8.409824e+000
7.638429e+002, 7.697917e+000
7.643250e+002, 7.079670e+000
7.648071e+002, 6.540679e+000
7.652892e+002, 6.093376e+000
7.657714e+002, 5.742023e+000
7.662535e+002, 5.394732e+000
7.667356e+002, 4.987583e+000
7.672177e+002, 4.656959e+000
7.676998e+002, 4.503306e+000
7.681819e+002, 4.538795e+000
7.686641e+002, 4.511134e+000
7.691462e+002, 4.412187e+000
7.696283e+002, 4.314226e+000
7.701104e+002, 4.313430e+000
7.705925e+002, 4.346766e+000
7.710746e+002, 4.267699e+000
7.715568e+002, 4.057652e+000
7.720389e+002, 3.878822e+000
7.725210e+002, 3.849539e+000
7.730031e+002, 3.880757e+000
7.734852e+002, 3.913208e+000
7.739673e+002, 3.957952e+000
7.744495e+002, 3.935103e+000
7.749316e+002, 3.793061e+000
7.754137e+002, 3.643985e+000
7.758958e+002, 3.571546e+000
7.763779e+002, 3.580066e+000
7.768600e+002, 3.627558e+000
7.773422e+002, 3.724759e+000
7.778243e+002, 3.786308e+000
7.783064e+002, 3.675635e+000
7.787885e+002, 3.480927e+000
7.792706e+002, 3.370773e+000
7.797527e+002, 3.380038e+000
7.802349e+002, 3.428702e+000
7.807170e+002, 3.508779e+000
7.811991e+002, 3.583848e+000
7.816812e+002, 3.618829e+000
7.821633e+002, 3.573951e+000
7.826454e+002, 3.557547e+000
7.831276e+002, 3.588591e+000
7.836097e+002, 3.625429e+000
7.840918e+002, 3.624243e+000
7.845739e+002, 3.584467e+000
7.850560e+002, 3.541736e+000
7.855381e+002, 3.497171e+000
7.860203e+002, 3.463989e+000
7.865024e+002, 3.467010e+000
7.869845e+002, 3.489085e+000
7.874666e+002, 3.500340e+000
7.879487e+002, 3.492196e+000
7.884308e+002, 3.479332e+000
7.889130e+002, 3.474563e+000
7.893951e+002, 3.465732e+000
7.898772e+002, 3.437325e+000
7.903593e+002, 3.342836e+000
7.908414e+002, 3.318244e+000
7.913235e+002, 3.397622e+000
7.918057e+002, 3.501322e+000
7.922878e+002, 3.521627e+000
7.927699e+002, 3.465573e+000
7.932520e+002, 3.442721e+000
7.937341e+002, 3.472372e+000
7.942162e+002, 3.520590e+000
7.946984e+002, 3.579911e+000
7.951805e+002, 3.624422e+000
7.956626e+002, 3.601554e+000
7.961447e+002, 3.446815e+000
7.966268e+002, 3.344996e+000
7.971089e+002, 3.399750e+000
7.975911e+002, 3.522149e+000
7.980732e+002, 3.612472e+000
7.985553e+002, 3.662803e+000
7.990374e+002, 3.700819e+000
7.995195e+002, 3.735074e+000
8.000016e+002, 3.744313e+000
8.004838e+002, 3.682549e+000
8.009659e+002, 3.564624e+000
8.014480e+002, 3.470177e+000
8.019301e+002, 3.410632e+000
8.024122e+002, 3.391981e+000
8.028943e+002, 3.457537e+000
8.033765e+002, 3.553743e+000
8.038586e+002, 3.609518e+000
8.043407e+002, 3.584130e+000
8.048228e+002, 3.559237e+000
8.053049e+002, 3.545024e+000
8.057870e+002, 3.543180e+000
8.062692e+002, 3.562824e+000
8.067513e+002, 3.619233e+000
8.072334e+002, 3.626251e+000
8.077155e+002, 3.559868e+000
8.081976e+002, 3.489075e+000
8.086797e+002, 3.519524e+000
8.091619e+002, 3.618728e+000
8.096440e+002, 3.691855e+000
8.101261e+002, 3.715642e+000
8.106082e+002, 3.722736e+000
8.110903e+002, 3.706936e+000
8.115724e+002, 3.701700e+000
8.120546e+002, 3.747961e+000
8.125367e+002, 3.939049e+000
8.130188e+002, 4.036338e+000
8.135009e+002, 3.988597e+000
8.139830e+002, 3.886419e+000
8.144651e+002, 3.822306e+000
8.149473e+002, 3.796962e+000
8.154294e+002, 3.792958e+000
8.159115e+002, 3.810673e+000
8.163936e+002, 3.838674e+000
8.168757e+002, 3.855486e+000
8.173578e+002, 3.875625e+000
8.178400e+002, 3.934326e+000
8.183221e+002, 4.058031e+000
8.188042e+002, 4.153848e+000
8.192863e+002, 4.144974e+000
8.197684e+002, 4.105585e+000
8.202505e+002, 4.107439e+000
8.207327e+002, 4.170063e+000
8.212148e+002, 4.239267e+000
8.216969e+002, 4.326329e+000
8.221790e+002, 4.399419e+000
8.226611e+002, 4.415792e+000
8.231432e+002, 4.383759e+000
8.236254e+002, 4.351477e+000
8.241075e+002, 4.323069e+000
8.245896e+002, 4.302842e+000
8.250717e+002, 4.274121e+000
8.255538e+002, 4.266452e+000
8.260359e+002, 4.331744e+000
8.265181e+002, 4.518424e+000
8.270002e+002, 4.635920e+000
8.274823e+002, 4.574723e+000
8.279644e+002, 4.483304e+000
8.284465e+002, 4.459333e+000
8.289286e+002, 4.520737e+000
8.294108e+002, 4.556686e+000
8.298929e+002, 4.558074e+000
8.303750e+002, 4.573236e+000
8.308571e+002, 4.658329e+000
8.313392e+002, 4.787528e+000
8.318214e+002, 4.913864e+000
8.323035e+002, 5.032033e+000
8.327856e+002, 5.130406e+000
8.332677e+002, 5.213475e+000
8.337498e+002, 5.263877e+000
8.342319e+002, 5.247375e+000
8.347141e+002, 5.120751e+000
8.351962e+002, 5.109701e+000
8.356783e+002, 5.258852e+000
8.361604e+002, 5.447664e+000
8.366425e+002, 5.613844e+000
8.371246e+002, 5.755243e+000
8.376068e+002, 5.814048e+000
8.380889e+002, 5.789264e+000
8.385710e+002, 5.794585e+000
8.390531e+002, 5.956108e+000
8.395352e+002, 6.169986e+000
8.400173e+002, 6.319803e+000
8.404995e+002, 6.399523e+000
8.409816e+002, 6.484418e+000
8.414637e+002, 6.559803e+000
8.419458e+002, 6.688501e+000
8.424279e+002, 6.921639e+000
8.429100e+002, 7.255881e+000
8.433922e+002, 7.496423e+000
8.438743e+002, 7.631156e+000
8.443564e+002, 7.738021e+000
8.448385e+002, 7.844279e+000
8.453206e+002, 7.961863e+000
8.458027e+002, 8.116447e+000
8.462849e+002, 8.306708e+000
8.467670e+002, 8.523023e+000
8.472491e+002, 8.729284e+000
8.477312e+002, 8.988261e+000
8.482133e+002, 9.332587e+000
8.486954e+002, 9.766732e+000
8.491776e+002, 1.028300e+001
8.496597e+002, 1.095418e+001
8.501418e+002, 1.155853e+001
8.506239e+002, 1.197683e+001
8.511060e+002, 1.229314e+001
8.515881e+002, 1.280398e+001
8.520703e+002, 1.348954e+001
8.525524e+002, 1.418404e+001
8.530345e+002, 1.476857e+001
8.535166e+002, 1.535026e+001
8.539987e+002, 1.599554e+001
8.544808e+002, 1.671966e+001
8.549630e+002, 1.756477e+001
8.554451e+002, 1.856536e+001
8.559272e+002, 1.965613e+001
8.564093e+002, 2.084870e+001
8.568914e+002, 2.209900e+001
8.573735e+002, 2.333139e+001
8.578557e+002, 2.453658e+001
8.583378e+002, 2.589552e+001
8.588199e+002, 2.746637e+001
8.593020e+002, 2.921994e+001
8.597841e+002, 3.108130e+001
8.602662e+002, 3.308678e+001
8.607484e+002, 3.527613e+001
8.612305e+002, 3.769028e+001
8.617126e+002, 4.024859e+001
8.621947e+002, 4.292380e+001
8.626768e+002, 4.571658e+001
8.631589e+002, 4.857228e+001
8.636411e+002, 5.152657e+001
8.641232e+002, 5.458144e+001
8.646053e+002, 5.786396e+001
8.650874e+002, 6.093412e+001
8.655695e+002, 6.330099e+001
8.660516e+002, 6.499757e+001
8.665338e+002, 6.615777e+001
8.670159e+002, 6.681445e+001
8.674980e+002, 6.695301e+001
8.679801e+002, 6.659673e+001
8.684622e+002, 6.570234e+001
8.689443e+002, 6.421078e+001
8.694265e+002, 6.193831e+001
8.699086e+002, 5.938087e+001
8.703907e+002, 5.649837e+001
8.708728e+002, 5.341264e+001
8.713549e+002, 5.012912e+001
8.718370e+002, 4.667989e+001
8.723192e+002, 4.367234e+001
8.728013e+002, 4.109616e+001
8.732834e+002, 3.866823e+001
8.737655e+002, 3.607961e+001
8.742476e+002, 3.356157e+001
8.747297e+002, 3.135496e+001
8.752119e+002, 2.946639e+001
8.756940e+002, 2.776035e+001
8.761761e+002, 2.636204e+001
8.766582e+002, 2.499213e+001
8.771403e+002, 2.349384e+001
8.776224e+002, 2.189720e+001
8.781046e+002, 2.065091e+001
8.785867e+002, 1.977065e+001
8.790688e+002, 1.898067e+001
8.795509e+002, 1.812586e+001
8.800330e+002, 1.727874e+001
8.805151e+002, 1.655572e+001
8.809973e+002, 1.593837e+001
8.814794e+002, 1.535405e+001
8.819615e+002, 1.479315e+001
8.824436e+002, 1.423808e+001
8.829257e+002, 1.365478e+001
8.834078e+002, 1.307841e+001
8.838900e+002, 1.258135e+001
8.843721e+002, 1.216706e+001
8.848542e+002, 1.182075e+001
8.853363e+002, 1.155983e+001
8.858184e+002, 1.132875e+001
8.863005e+002, 1.100923e+001
8.867827e+002, 1.063983e+001
8.872648e+002, 1.032199e+001
8.877469e+002, 1.008418e+001
8.882290e+002, 9.918222e+000
8.887111e+002, 9.901824e+000
8.891932e+002, 9.923765e+000
8.896754e+002, 9.810198e+000
8.901575e+002, 9.470822e+000
8.906396e+002, 9.238096e+000
8.911217e+002, 9.158147e+000
8.916038e+002, 9.145648e+000
8.920859e+002, 9.090513e+000
8.925681e+002, 9.014847e+000
8.930502e+002, 9.005290e+000
8.935323e+002, 9.089429e+000
8.940144e+002, 9.136619e+000
8.944965e+002, 9.040264e+000
8.949786e+002, 8.877947e+000
8.954608e+002, 8.701228e+000
8.959429e+002, 8.496856e+000
8.964250e+002, 8.363934e+000
8.969071e+002, 8.320329e+000
8.973892e+002, 8.314411e+000
8.978713e+002, 8.327163e+000
8.983535e+002, 8.351255e+000
8.988356e+002, 8.339736e+000
8.993177e+002, 8.293894e+000
8.997998e+002, 8.237505e+000
9.002819e+002, 8.157782e+000
9.007640e+002, 8.097033e+000
9.012462e+002, 8.098185e+000
9.017283e+002, 8.156030e+000
9.022104e+002, 8.205297e+000
9.026925e+002, 8.257655e+000
9.031746e+002, 8.262756e+000
9.036567e+002, 8.169794e+000
9.041389e+002, 8.039024e+000
9.046210e+002, 8.112490e+000
9.051031e+002, 8.360587e+000
9.055852e+002, 8.515529e+000
9.060673e+002, 8.409844e+000
9.065494e+002, 8.246691e+000
9.070316e+002, 8.190281e+000
9.075137e+002, 8.211171e+000
9.079958e+002, 8.257200e+000
9.084779e+002, 8.358268e+000
9.089600e+002, 8.422693e+000
9.094421e+002, 8.424415e+000
9.099243e+002, 8.406255e+000
9.104064e+002, 8.417118e+000
9.108885e+002, 8.458019e+000
9.113706e+002, 8.560580e+000
9.118527e+002, 8.740914e+000
9.123348e+002, 8.909026e+000
9.128170e+002, 8.958549e+000
9.132991e+002, 8.958267e+000
9.137812e+002, 8.981920e+000
9.142633e+002, 9.041703e+000
9.147454e+002, 9.128366e+000
9.152275e+002, 9.260650e+000
9.157097e+002, 9.394385e+000
9.161918e+002, 9.501230e+000
9.166739e+002, 9.581813e+000
9.171560e+002, 9.676668e+000
9.176381e+002, 9.785107e+000
9.181202e+002, 9.900313e+000
9.186024e+002, 1.001610e+001
9.190845e+002, 1.013686e+001
9.195666e+002, 1.027623e+001
9.200487e+002, 1.042763e+001
9.205308e+002, 1.056077e+001
9.210129e+002, 1.066078e+001
9.214951e+002, 1.074348e+001
9.219772e+002, 1.078497e+001
9.224593e+002, 1.082439e+001
9.229414e+002, 1.102134e+001
9.234235e+002, 1.136968e+001
9.239056e+002, 1.161283e+001
9.243878e+002, 1.159790e+001
9.248699e+002, 1.158096e+001
9.253520e+002, 1.192166e+001
9.258341e+002, 1.244023e+001
9.263162e+002, 1.285544e+001
9.267983e+002, 1.301596e+001
9.272805e+002, 1.317159e+001
9.277626e+002, 1.330488e+001
9.282447e+002, 1.349494e+001
9.287268e+002, 1.385985e+001
9.292089e+002, 1.440010e+001
9.296910e+002, 1.482097e+001
9.301732e+002, 1.508940e+001
9.306553e+002, 1.534552e+001
9.311374e+002, 1.570241e+001
9.316195e+002, 1.612367e+001
9.321016e+002, 1.658271e+001
9.325837e+002, 1.706953e+001
9.330659e+002, 1.757598e+001
9.335480e+002, 1.807030e+001
9.340301e+002, 1.861423e+001
9.345122e+002, 1.922370e+001
9.349943e+002, 1.990240e+001
9.354764e+002, 2.062326e+001
9.359586e+002, 2.139688e+001
9.364407e+002, 2.227645e+001
9.369228e+002, 2.335972e+001
9.374049e+002, 2.451929e+001
9.378870e+002, 2.557361e+001
9.383691e+002, 2.661137e+001
9.388513e+002, 2.780999e+001
9.393334e+002, 2.920599e+001
9.398155e+002, 3.082805e+001
9.402976e+002, 3.267427e+001
9.407797e+002, 3.471979e+001
9.412618e+002, 3.686662e+001
9.417440e+002, 3.912446e+001
9.422261e+002, 4.157624e+001
9.427082e+002, 4.423251e+001
9.431903e+002, 4.725258e+001
9.436724e+002, 5.078649e+001
9.441545e+002, 5.472099e+001
9.446367e+002, 5.895726e+001
9.451188e+002, 6.342274e+001
9.456009e+002, 6.833547e+001
9.460830e+002, 7.346483e+001
9.465651e+002, 7.934531e+001
9.470472e+002, 8.633611e+001
9.475294e+002, 9.444206e+001
9.480115e+002, 1.030684e+002
9.484936e+002, 1.122029e+002
9.489757e+002, 1.213615e+002
9.494578e+002, 1.305372e+002
9.499399e+002, 1.393526e+002
9.504221e+002, 1.482280e+002
9.509042e+002, 1.566438e+002
9.513863e+002, 1.624026e+002
9.518684e+002, 1.656279e+002
9.523505e+002, 1.659833e+002
9.528326e+002, 1.631942e+002
9.533148e+002, 1.578156e+002
9.537969e+002, 1.502290e+002
9.542790e+002, 1.408371e+002
9.547611e+002, 1.311978e+002
9.552432e+002, 1.215988e+002
9.557253e+002, 1.125080e+002
9.562075e+002, 1.038659e+002
9.566896e+002, 9.616895e+001
9.571717e+002, 8.987004e+001
9.576538e+002, 8.508997e+001
9.581359e+002, 8.135600e+001
9.586180e+002, 7.871472e+001
9.591002e+002, 7.698420e+001
9.595823e+002, 7.621286e+001
9.600644e+002, 7.620943e+001
9.605465e+002, 7.658800e+001
9.610286e+002, 7.727969e+001
9.615107e+002, 7.783261e+001
9.619929e+002, 7.797566e+001
9.624750e+002, 7.793391e+001
9.629571e+002, 7.768284e+001
9.634392e+002, 7.733927e+001
9.639213e+002, 7.724309e+001
9.644034e+002, 7.733793e+001
9.648856e+002, 7.790482e+001
9.653677e+002, 7.901623e+001
9.658498e+002, 8.063834e+001
9.663319e+002, 8.247207e+001
9.668140e+002, 8.482796e+001
9.672961e+002, 8.827215e+001
9.677783e+002, 9.293459e+001
9.682604e+002, 9.883770e+001
9.687425e+002, 1.061574e+002
9.692246e+002, 1.147092e+002
9.697067e+002, 1.244318e+002
9.701888e+002, 1.351592e+002
9.706710e+002, 1.472299e+002
9.711531e+002, 1.606155e+002
9.716352e+002, 1.747004e+002
9.721173e+002, 1.899546e+002
9.725994e+002, 2.048163e+002
9.730815e+002, 2.186171e+002
9.735637e+002, 2.306454e+002
9.740458e+002, 2.377993e+002
9.745279e+002, 2.390724e+002
9.750100e+002, 2.348514e+002
9.754921e+002, 2.246782e+002
9.759742e+002, 2.096502e+002
9.764564e+002, 1.913487e+002
9.769385e+002, 1.698583e+002
9.774206e+002, 1.492031e+002
9.779027e+002, 1.303127e+002
9.783848e+002, 1.135822e+002
9.788669e+002, 9.944524e+001
9.793491e+002, 8.755099e+001
9.798312e+002, 7.744512e+001
9.803133e+002, 6.928364e+001
9.807954e+002, 6.258847e+001
9.812775e+002, 5.751008e+001
9.817596e+002, 5.339406e+001
9.822418e+002, 4.984233e+001
9.827239e+002, 4.681228e+001
9.832060e+002, 4.412514e+001
9.836881e+002, 4.176757e+001
9.841702e+002, 3.964347e+001
9.846523e+002, 3.782207e+001
9.851345e+002, 3.609174e+001
9.856166e+002, 3.427175e+001
9.860987e+002, 3.242566e+001
9.865808e+002, 3.078138e+001
9.870629e+002, 2.940061e+001
9.875450e+002, 2.802970e+001
9.880272e+002, 2.661477e+001
9.885093e+002, 2.519778e+001
9.889914e+002, 2.380045e+001
9.894735e+002, 2.247352e+001
9.899556e+002, 2.135280e+001
9.904377e+002, 2.050279e+001
9.909199e+002, 1.970736e+001
9.914020e+002, 1.886353e+001
9.918841e+002, 1.805997e+001
9.923662e+002, 1.736523e+001
9.928483e+002, 1.679495e+001
9.933304e+002, 1.614220e+001
9.938126e+002, 1.539913e+001
9.942947e+002, 1.470815e+001
9.947768e+002, 1.417860e+001
9.952589e+002, 1.373602e+001
9.957410e+002, 1.327802e+001
9.962231e+002, 1.282736e+001
9.967053e+002, 1.243792e+001
9.971874e+002, 1.218889e+001
9.976695e+002, 1.192608e+001
9.981516e+002, 1.162853e+001
9.986337e+002, 1.130899e+001
9.991158e+002, 1.094339e+001
9.995980e+002, 1.055152e+001
1.000080e+003, 1.032079e+001
1.000562e+003, 1.029193e+001
1.001044e+003, 1.026602e+001
1.001526e+003, 1.005712e+001
1.002009e+003, 9.808146e+000
1.002491e+003, 9.648340e+000
1.002973e+003, 9.597982e+000
1.003455e+003, 9.512074e+000
1.003937e+003, 9.385562e+000
1.004419e+003, 9.237644e+000
1.004901e+003, 9.057072e+000
1.005383e+003, 8.876889e+000
1.005865e+003, 8.784336e+000
1.006348e+003, 8.751263e+000
1.006830e+003, 8.694349e+000
1.007312e+003, 8.510651e+000
1.007794e+003, 8.381655e+000
1.008276e+003, 8.440752e+000
1.008758e+003, 8.531388e+000
1.009240e+003, 8.468726e+000
1.009722e+003, 8.231126e+000
1.010205e+003, 8.066307e+000
1.010687e+003, 7.991307e+000
1.011169e+003, 7.957597e+000
1.011651e+003, 7.937974e+000
1.012133e+003, 7.923876e+000
1.012615e+003, 7.887977e+000
1.013097e+003, 7.834040e+000
1.013579e+003, 7.853128e+000
1.014061e+003, 7.998152e+000
1.014544e+003, 8.154493e+000
1.015026e+003, 8.305880e+000
1.015508e+003, 8.431537e+000
1.015990e+003, 8.468988e+000
1.016472e+003, 8.435221e+000
1.016954e+003, 8.390586e+000
1.017436e+003, 8.327006e+000
1.017918e+003, 8.324139e+000
1.018401e+003, 8.455656e+000
1.018883e+003, 8.658743e+000
1.019365e+003, 8.883298e+000
1.019847e+003, 9.145979e+000
1.020329e+003, 9.325204e+000
1.020811e+003, 9.408367e+000
1.021293e+003, 9.477399e+000
1.021775e+003, 9.606086e+000
1.022257e+003, 9.749269e+000
1.022740e+003, 9.858773e+000
1.023222e+003, 9.924638e+000
1.023704e+003, 9.914994e+000
1.024186e+003, 9.691333e+000
1.024668e+003, 9.560096e+000
1.025150e+003, 9.618899e+000
1.025632e+003, 9.765238e+000
1.026114e+003, 9.841424e+000
1.026596e+003, 9.849380e+000
1.027079e+003, 9.786263e+000
1.027561e+003, 9.633528e+000
1.028043e+003, 9.561573e+000
1.028525e+003, 9.765121e+000
1.029007e+003, 1.006991e+001
1.029489e+003, 1.032042e+001
1.029971e+003, 1.049790e+001
1.030453e+003, 1.073724e+001
1.030936e+003, 1.103486e+001
1.031418e+003, 1.140624e+001
1.031900e+003, 1.184094e+001
1.032382e+003, 1.237877e+001
1.032864e+003, 1.309831e+001
1.033346e+003, 1.398054e+001
1.033828e+003, 1.496809e+001
1.034310e+003, 1.609841e+001
1.034792e+003, 1.723357e+001
1.035275e+003, 1.818998e+001
1.035757e+003, 1.927222e+001
1.036239e+003, 2.075941e+001
1.036721e+003, 2.263939e+001
1.037203e+003, 2.481104e+001
1.037685e+003, 2.723736e+001
1.038167e+003, 3.003066e+001
1.038649e+003, 3.309181e+001
1.039132e+003, 3.669527e+001
1.039614e+003, 4.101509e+001
1.040096e+003, 4.611213e+001
1.040578e+003, 5.215191e+001
1.041060e+003, 5.918866e+001
1.041542e+003, 6.713750e+001
1.042024e+003, 7.623371e+001
1.042506e+003, 8.594674e+001
1.042989e+003, 9.673369e+001
1.043471e+003, 1.073908e+002
1.043953e+003, 1.158249e+002
1.044435e+003, 1.219817e+002
1.044917e+003, 1.242958e+002
1.045399e+003, 1.213866e+002
1.045881e+003, 1.150424e+002
1.046363e+003, 1.055177e+002
1.046845e+003, 9.325867e+001
1.047328e+003, 8.144946e+001
1.047810e+003, 7.001125e+001
1.048292e+003, 5.994738e+001
1.048774e+003, 5.180611e+001
1.049256e+003, 4.491214e+001
1.049738e+003, 3.872049e+001
1.050220e+003, 3.334810e+001
1.050702e+003, 2.902868e+001
1.051184e+003, 2.599895e+001
1.051667e+003, 2.331213e+001
1.052149e+003, 2.093252e+001
1.052631e+003, 1.893828e+001
1.053113e+003, 1.747662e+001
1.053595e+003, 1.636668e+001
1.054077e+003, 1.527815e+001
1.054559e+003, 1.419594e+001
1.055041e+003, 1.314278e+001
1.055523e+003, 1.198932e+001
1.056006e+003, 1.105417e+001
1.056488e+003, 1.046484e+001
1.056970e+003, 1.008223e+001
1.057452e+003, 9.622222e+000
1.057934e+003, 9.099932e+000
1.058416e+003, 8.660178e+000
1.058898e+003, 8.337104e+000
1.059380e+003, 8.054770e+000
1.059863e+003, 7.787961e+000
1.060345e+003, 7.516962e+000
1.060827e+003, 7.201428e+000
1.061309e+003, 6.836221e+000
1.061791e+003, 6.611743e+000
1.062273e+003, 6.559940e+000
1.062755e+003, 6.496223e+000
1.063237e+003, 6.333164e+000
1.063719e+003, 6.124215e+000
1.064202e+003, 5.926324e+000
1.064684e+003, 5.748394e+000
1.065166e+003, 5.609294e+000
1.065648e+003, 5.556153e+000
1.066130e+003, 5.468514e+000
1.066612e+003, 5.307403e+000
1.067094e+003, 5.149310e+000
1.067576e+003, 5.063538e+000
1.068059e+003, 5.036780e+000
1.068541e+003, 5.000039e+000
1.069023e+003, 4.952846e+000
1.069505e+003, 4.902542e+000
1.069987e+003, 4.804214e+000
1.070469e+003, 4.756401e+000
1.070951e+003, 4.899759e+000
1.071433e+003, 5.099263e+000
1.071916e+003, 5.068671e+000
1.072398e+003, 4.768872e+000
1.072880e+003, 4.610173e+000
1.073362e+003, 4.667158e+000
1.073844e+003, 4.747725e+000
1.074326e+003, 4.630538e+000
1.074808e+003, 4.452956e+000
1.075290e+003, 4.363012e+000
1.075772e+003, 4.375589e+000
1.076255e+003, 4.385241e+000
1.076737e+003, 4.388298e+000
1.077219e+003, 4.377455e+000
1.077701e+003, 4.349562e+000
1.078183e+003, 4.307620e+000
1.078665e+003, 4.231163e+000
1.079147e+003, 4.149092e+000
1.079629e+003, 4.143385e+000
1.080111e+003, 4.281412e+000
1.080594e+003, 4.357944e+000
1.081076e+003, 4.243647e+000
1.081558e+003, 4.099790e+000
1.082040e+003, 4.012769e+000
1.082522e+003, 3.978559e+000
1.083004e+003, 3.965687e+000
1.083486e+003, 3.972958e+000
1.083968e+003, 3.990129e+000
1.084450e+003, 4.016412e+000
1.084933e+003, 4.045496e+000
1.085415e+003, 4.101776e+000
1.085897e+003, 4.145180e+000
1.086379e+003, 4.102081e+000
1.086861e+003, 3.926141e+000
1.087343e+003, 3.863579e+000
1.087825e+003, 3.940019e+000
1.088307e+003, 4.031283e+000
1.088790e+003, 4.026820e+000
1.089272e+003, 3.976908e+000
1.089754e+003, 3.949730e+000
1.090236e+003, 3.937523e+000
1.090718e+003, 3.875760e+000
1.091200e+003, 3.675905e+000
1.091682e+003, 3.570495e+000
1.092164e+003, 3.616803e+000
1.092646e+003, 3.740801e+000
1.093129e+003, 3.863171e+000
1.093611e+003, 3.967147e+000
1.094093e+003, 4.002479e+000
1.094575e+003, 3.957166e+000
1.095057e+003, 3.913956e+000
1.095539e+003, 3.954705e+000
1.096021e+003, 3.950814e+000
1.096503e+003, 3.813642e+000
1.096986e+003, 3.601578e+000
1.097468e+003, 3.556278e+000
1.097950e+003, 3.657498e+000
1.098432e+003, 3.731004e+000
1.098914e+003, 3.711441e+000
1.099396e+003, 3.677508e+000
1.099878e+003, 3.679920e+000
1.100360e+003, 3.700367e+000
1.100843e+003, 3.726774e+000
1.101325e+003, 3.762818e+000
1.101807e+003, 3.748211e+000
1.102289e+003, 3.674966e+000
1.102771e+003, 3.636618e+000
1.103253e+003, 3.724394e+000
1.103735e+003, 3.837322e+000
1.104217e+003, 3.833386e+000
1.104699e+003, 3.771451e+000
1.105182e+003, 3.765550e+000
1.105664e+003, 3.899531e+000
1.106146e+003, 3.971294e+000
1.106628e+003, 3.963251e+000
1.107110e+003, 3.927425e+000
1.107592e+003, 3.915276e+000
1.108074e+003, 3.907104e+000
1.108556e+003, 3.835262e+000
1.109038e+003, 3.718427e+000
1.109521e+003, 3.662056e+000
1.110003e+003, 3.797557e+000
1.110485e+003, 3.872316e+000
1.110967e+003, 3.806353e+000
1.111449e+003, 3.690713e+000
1.111931e+003, 3.666789e+000
1.112413e+003, 3.715386e+000
1.112895e+003, 3.749650e+000
1.113377e+003, 3.759353e+000
1.113860e+003, 3.768954e+000
1.114342e+003, 3.812915e+000
1.114824e+003, 3.840230e+000
1.115306e+003, 3.813117e+000
1.115788e+003, 3.750013e+000
1.116270e+003, 3.708360e+000
1.116752e+003, 3.687634e+000
1.117234e+003, 3.674211e+000
1.117717e+003, 3.662695e+000
1.118199e+003, 3.665605e+000
1.118681e+003, 3.708992e+000
1.119163e+003, 3.761689e+000
1.119645e+003, 3.800728e+000
1.120127e+003, 3.825400e+000
1.120609e+003, 3.795599e+000
1.121091e+003, 3.698002e+000
1.121573e+003, 3.632451e+000
1.122056e+003, 3.656991e+000
1.122538e+003, 3.708820e+000
1.123020e+003, 3.712262e+000
1.123502e+003, 3.686020e+000
1.123984e+003, 3.661830e+000
1.124466e+003, 3.665859e+000
1.124948e+003, 3.611792e+000
1.125430e+003, 3.467095e+000
1.125913e+003, 3.346599e+000
1.126395e+003, 3.326946e+000
1.126877e+003, 3.385827e+000
1.127359e+003, 3.519180e+000
1.127841e+003, 3.687837e+000
1.128323e+003, 3.780876e+000
1.128805e+003, 3.676293e+000
1.129287e+003, 3.610810e+000
1.129770e+003, 3.644719e+000
1.130252e+003, 3.682484e+000
1.130734e+003, 3.600085e+000
1.131216e+003, 3.441215e+000
1.131698e+003, 3.389501e+000
1.132180e+003, 3.441061e+000
1.132662e+003, 3.511136e+000
1.133144e+003, 3.604631e+000
1.133626e+003, 3.645995e+000
1.134109e+003, 3.584107e+000
1.134591e+003, 3.477506e+000
1.135073e+003, 3.411832e+000
1.135555e+003, 3.384803e+000
1.136037e+003, 3.371062e+000
1.136519e+003, 3.368569e+000
1.137001e+003, 3.343595e+000
1.137483e+003, 3.216141e+000
1.137965e+003, 3.111572e+000
1.138448e+003, 3.146183e+000
1.138930e+003, 3.265886e+000
1.139412e+003, 3.300935e+000
1.139894e+003, 3.247192e+000
1.140376e+003, 3.200771e+000
1.140858e+003, 3.184187e+000
1.141340e+003, 3.166180e+000
1.141822e+003, 3.100886e+000
1.142304e+003, 3.032444e+000
1.142787e+003, 3.012105e+000
1.143269e+003, 3.041695e+000
1.143751e+003, 3.026733e+000
1.144233e+003, 2.958850e+000
1.144715e+003, 2.887363e+000
1.145197e+003, 2.816629e+000
1.145679e+003, 2.781368e+000
1.146161e+003, 2.879458e+000
1.146644e+003, 3.015626e+000
1.147126e+003, 3.056995e+000
1.147608e+003, 2.945428e+000
1.148090e+003, 2.876397e+000
1.148572e+003, 2.869479e+000
1.149054e+003, 2.851585e+000
1.149536e+003, 2.768979e+000
1.150018e+003, 2.674933e+000
1.150500e+003, 2.684740e+000
1.150983e+003, 2.748787e+000
1.151465e+003, 2.766069e+000
1.151947e+003, 2.675877e+000
1.152429e+003, 2.605585e+000
1.152911e+003, 2.564048e+000
1.153393e+003, 2.543084e+000
1.153875e+003, 2.538956e+000
1.154357e+003, 2.550443e+000
1.154840e+003, 2.585249e+000
1.155322e+003, 2.633893e+000
1.155804e+003, 2.664605e+000
1.156286e+003, 2.673852e+000
1.156768e+003, 2.646263e+000
1.157250e+003, 2.556056e+000
1.157732e+003, 2.468435e+000
1.158214e+003, 2.452046e+000
1.158697e+003, 2.490260e+000
1.159179e+003, 2.512500e+000
1.159661e+003, 2.519931e+000
1.160143e+003, 2.531159e+000
1.160625e+003, 2.555626e+000
1.161107e+003, 2.587808e+000
1.161589e+003, 2.660298e+000
1.162071e+003, 2.706533e+000
1.162553e+003, 2.594807e+000
1.163036e+003, 2.361918e+000
1.163518e+003, 2.292007e+000
1.164000e+003, 2.395588e+000
1.164482e+003, 2.496986e+000
1.164964e+003, 2.492438e+000
1.165446e+003, 2.456069e+000
1.165928e+003, 2.409441e+000
1.166410e+003, 2.362579e+000
1.166892e+003, 2.331183e+000
1.167375e+003, 2.315275e+000
1.167857e+003, 2.331374e+000
1.168339e+003, 2.384263e+000
1.168821e+003, 2.405818e+000
1.169303e+003, 2.296224e+000
1.169785e+003, 2.187310e+000
1.170267e+003, 2.172769e+000
1.170749e+003, 2.225259e+000
1.171231e+003, 2.277340e+000
1.171714e+003, 2.329110e+000
1.172196e+003, 2.363973e+000
1.172678e+003, 2.377947e+000
1.173160e+003, 2.376211e+000
1.173642e+003, 2.372052e+000
1.174124e+003, 2.346376e+000
1.174606e+003, 2.260596e+000
1.175088e+003, 2.132334e+000
1.175571e+003, 2.068616e+000
1.176053e+003, 2.071023e+000
1.176535e+003, 2.100322e+000
1.177017e+003, 2.149477e+000
1.177499e+003, 2.208475e+000
1.177981e+003, 2.291767e+000
1.178463e+003, 2.363282e+000
1.178945e+003, 2.382357e+000
1.179427e+003, 2.348088e+000
1.179910e+003, 2.303285e+000
1.180392e+003, 2.245055e+000
1.180874e+003, 2.202483e+000
1.181356e+003, 2.189389e+000
1.181838e+003, 2.189105e+000
1.182320e+003, 2.190062e+000
1.182802e+003, 2.190191e+000
1.183284e+003, 2.183818e+000
1.183767e+003, 2.167449e+000
1.184249e+003, 2.174884e+000
1.184731e+003, 2.210375e+000
1.185213e+003, 2.242311e+000
1.185695e+003, 2.261337e+000
1.186177e+003, 2.260765e+000
1.186659e+003, 2.218815e+000
1.187141e+003, 2.158198e+000
1.187624e+003, 2.111633e+000
1.188106e+003, 2.084336e+000
1.188588e+003, 2.065885e+000
1.189070e+003, 2.055570e+000
1.189552e+003, 2.060325e+000
1.190034e+003, 2.106565e+000
1.190516e+003, 2.145963e+000
1.190998e+003, 2.089756e+000
1.191480e+003, 1.992895e+000
1.191963e+003, 1.951854e+000
1.192445e+003, 2.005174e+000
1.192927e+003, 2.054326e+000
1.193409e+003, 2.098061e+000
1.193891e+003, 2.143973e+000
1.194373e+003, 2.217159e+000
1.194855e+003, 2.281145e+000
1.195337e+003, 2.285194e+000
1.195819e+003, 2.243026e+000
1.196302e+003, 2.182157e+000
1.196784e+003, 2.086782e+000
1.197266e+003, 2.016015e+000
1.197748e+003, 1.966437e+000
1.198230e+003, 1.960872e+000
1.198712e+003, 2.067776e+000
1.199194e+003, 2.194152e+000
1.199676e+003, 2.202756e+000
1.200158e+003, 2.126262e+000
1.200641e+003, 2.054735e+000
1.201123e+003, 1.990696e+000
1.201605e+003, 1.965655e+000
1.202087e+003, 1.987641e+000
1.202569e+003, 2.023141e+000
1.203051e+003, 2.048942e+000
1.203533e+003, 2.065020e+000
1.204015e+003, 2.071522e+000
1.204498e+003, 2.068385e+000
1.204980e+003, 2.053656e+000
1.205462e+003, 2.015233e+000
1.205944e+003, 1.996158e+000
1.206426e+003, 2.003028e+000
1.206908e+003, 2.017322e+000
1.207390e+003, 2.009163e+000
1.207872e+003, 2.005309e+000
1.208354e+003, 2.067308e+000
1.208837e+003, 2.171814e+000
1.209319e+003, 2.197659e+000
1.209801e+003, 2.097310e+000
1.210283e+003, 2.013392e+000
1.210765e+003, 1.960567e+000
1.211247e+003, 1.932752e+000
1.211729e+003, 1.920598e+000
1.212211e+003, 1.930229e+000
1.212694e+003, 1.989375e+000
1.213176e+003, 2.084762e+000
1.213658e+003, 2.131430e+000
1.214140e+003, 2.113320e+000
1.214622e+003, 2.072759e+000
1.215104e+003, 2.006499e+000
1.215586e+003, 1.959251e+000
1.216068e+003, 2.012351e+000
1.216551e+003, 2.089598e+000
1.217033e+003, 2.085307e+000
1.217515e+003, 2.007639e+000
1.217997e+003, 1.971668e+000
1.218479e+003, 1.994845e+000
1.218961e+003, 2.026083e+000
1.219443e+003, 2.062285e+000
1.219925e+003, 2.081256e+000
1.220407e+003, 2.028482e+000
1.220890e+003, 1.965363e+000
1.221372e+003, 1.975200e+000
1.221854e+003, 2.053084e+000
1.222336e+003, 2.091550e+000
1.222818e+003, 2.080049e+000
1.223300e+003, 2.049702e+000
1.223782e+003, 1.998424e+000
1.224264e+003, 1.966647e+000
1.224746e+003, 2.033785e+000
1.225229e+003, 2.118581e+000
1.225711e+003, 2.130262e+000
1.226193e+003, 2.067359e+000
1.226675e+003, 2.017197e+000
1.227157e+003, 1.980901e+000
1.227639e+003, 1.954638e+000
1.228121e+003, 1.937307e+000
1.228603e+003, 1.931214e+000
1.229085e+003, 1.942321e+000
1.229568e+003, 1.963220e+000
1.230050e+003, 1.987132e+000
1.230532e+003, 2.014309e+000
1.231014e+003, 2.054244e+000
1.231496e+003, 2.112158e+000
1.231978e+003, 2.130571e+000
1.232460e+003, 2.086799e+000
1.232942e+003, 2.049240e+000
1.233425e+003, 2.111607e+000
1.233907e+003, 2.187297e+000
1.234389e+003, 2.192407e+000
1.234871e+003, 2.136525e+000
1.235353e+003, 2.091359e+000
1.235835e+003, 2.056664e+000
1.236317e+003, 2.053079e+000
1.236799e+003, 2.093404e+000
1.237281e+003, 2.123021e+000
1.237764e+003, 2.078740e+000
1.238246e+003, 2.019338e+000
1.238728e+003, 1.988619e+000
1.239210e+003, 1.984035e+000
1.239692e+003, 2.007614e+000
1.240174e+003, 2.056699e+000
1.240656e+003, 2.062033e+000
1.241138e+003, 1.998617e+000
1.241621e+003, 1.940762e+000
1.242103e+003, 1.946127e+000
1.242585e+003, 1.975489e+000
1.243067e+003, 2.010526e+000
1.243549e+003, 2.044998e+000
1.244031e+003, 2.052815e+000
1.244513e+003, 2.037927e+000
1.244995e+003, 2.035379e+000
1.245478e+003, 2.057544e+000
1.245960e+003, 2.065567e+000
1.246442e+003, 2.002174e+000
1.246924e+003, 1.955843e+000
1.247406e+003, 1.981447e+000
1.247888e+003, 2.052714e+000
1.248370e+003, 2.088875e+000
1.248852e+003, 2.097533e+000
1.249334e+003, 2.115654e+000
1.249817e+003, 2.155630e+000
1.250299e+003, 2.175529e+000
1.250781e+003, 2.132195e+000
1.251263e+003, 2.091841e+000
1.251745e+003, 2.085123e+000
1.252227e+003, 2.094959e+000
1.252709e+003, 2.075283e+000
1.253191e+003, 2.037062e+000
1.253673e+003, 2.009873e+000
1.254156e+003, 1.999038e+000
1.254638e+003, 2.005795e+000
1.255120e+003, 2.053828e+000
1.255602e+003, 2.083383e+000
1.256084e+003, 2.070289e+000
1.256566e+003, 2.033235e+000
1.257048e+003, 1.996539e+000
1.257530e+003, 1.968223e+000
1.258012e+003, 1.973511e+000
1.258495e+003, 2.022054e+000
1.258977e+003, 2.040607e+000
1.259459e+003, 2.001594e+000
1.259941e+003, 1.971975e+000
1.260423e+003, 1.971909e+000
1.260905e+003, 1.993968e+000
1.261387e+003, 2.044501e+000
1.261869e+003, 2.100258e+000
1.262352e+003, 2.127000e+000
1.262834e+003, 2.118038e+000
1.263316e+003, 2.092973e+000
1.263798e+003, 2.041371e+000
1.264280e+003, 2.019260e+000
1.264762e+003, 2.047122e+000
1.265244e+003, 2.098424e+000
1.265726e+003, 2.172142e+000
1.266208e+003, 2.230926e+000
1.266691e+003, 2.216388e+000
1.267173e+003, 2.126365e+000
1.267655e+003, 2.085922e+000
1.268137e+003, 2.100420e+000
1.268619e+003, 2.123822e+000
1.269101e+003, 2.151061e+000
1.269583e+003, 2.152126e+000
1.270065e+003, 2.048530e+000
1.270548e+003, 1.946247e+000
1.271030e+003, 1.966393e+000
1.271512e+003, 2.075536e+000
1.271994e+003, 2.130363e+000
1.272476e+003, 2.131181e+000
1.272958e+003, 2.100692e+000
1.273440e+003, 2.039001e+000
1.273922e+003, 1.985064e+000
1.274405e+003, 1.975396e+000
1.274887e+003, 1.973742e+000
1.275369e+003, 1.953673e+000
1.275851e+003, 1.926867e+000
1.276333e+003, 1.919324e+000
1.276815e+003, 1.933926e+000
1.277297e+003, 2.014816e+000
1.277779e+003, 2.179229e+000
1.278261e+003, 2.253095e+000
1.278744e+003, 1.997630e+000
1.279226e+003, 1.824700e+000
1.279708e+003, 1.919991e+000
1.280190e+003, 2.132060e+000
1.280672e+003, 2.164959e+000
1.281154e+003, 2.080203e+000
1.281636e+003, 2.031662e+000
1.282118e+003, 2.040408e+000
1.282600e+003, 2.068671e+000
1.283083e+003, 2.147748e+000
1.283565e+003, 2.162531e+000
1.284047e+003, 2.063559e+000
1.284529e+003, 1.945143e+000
1.285011e+003, 1.958472e+000
1.285493e+003, 2.032516e+000
1.285975e+003, 2.059857e+000
1.286457e+003, 2.032699e+000
1.286939e+003, 2.002298e+000
1.287422e+003, 1.965695e+000
1.287904e+003, 1.959408e+000
1.288386e+003, 1.996343e+000
1.288868e+003, 2.037546e+000
1.289350e+003, 2.034776e+000
1.289832e+003, 2.019845e+000
1.290314e+003, 2.030496e+000
1.290796e+003, 2.059365e+000
1.291279e+003, 2.059191e+000
1.291761e+003, 2.025647e+000
1.292243e+003, 2.007577e+000
1.292725e+003, 2.011960e+000
1.293207e+003, 2.028460e+000
1.293689e+003, 2.061102e+000
1.294171e+003, 2.090611e+000
1.294653e+003, 2.089266e+000
1.295135e+003, 2.083094e+000
1.295618e+003, 2.131570e+000
1.296100e+003, 2.224951e+000
1.296582e+003, 2.261989e+000
1.297064e+003, 2.235980e+000
1.297546e+003, 2.203117e+000
1.298028e+003, 2.209260e+000
1.298510e+003, 2.191017e+000
1.298992e+003, 2.109210e+000
1.299475e+003, 2.025553e+000
1.299957e+003, 2.037656e+000
1.300439e+003, 2.110048e+000
1.300921e+003, 2.141862e+000
1.301403e+003, 2.131323e+000
1.301885e+003, 2.110880e+000
##END=



