##NAMES=Afghanite
##RRUFFID=R070558
##IDEAL CHEMISTRY=Na_22_Ca_10_(Si_24_Al_24_)O_96_(S^6+^O_4_)_6_Cl_6_
##LOCALITY=Badakhshan, Afghanistan
##OWNER=RRUFF
##SOURCE=Farooq Hashmi
##DESCRIPTION=Deep blue translucent fragment
##STATUS=The identification of this mineral is confirmed by single-crystal X-ray diffraction and chemical analysis.
##URL=rruff.info/R070558
##MEASURED CHEMISTRY=(Na_19.10_K_2.90_)_Σ=22_Ca_10.00_(Si_24.00_Al_24.00_)_Σ=48_O_96_(S_1.00_O_4_)_6_((OH)_3.21_Cl_2.79_)_Σ=6_ ; OH estimated by difference and charge balance
158.2971, 90966.05
158.7792, 90985.08
159.2613, 90982.04
159.7434, 90867.76
160.2256, 90786.95
160.7077, 90805.41
161.1898, 90955.45
161.6719, 91094.45
162.1540, 91153.56
162.6361, 91173.85
163.1183, 91233.10
163.6004, 91429.74
164.0825, 91628.55
164.5646, 91743.82
165.0467, 91690.04
165.5288, 91639.26
166.0110, 91682.11
166.4931, 91801.13
166.9752, 91907.02
167.4573, 91931.73
167.9394, 91928.26
168.4215, 91951.56
168.9037, 92045.63
169.3858, 92151.94
169.8679, 92237.66
170.3500, 92300.87
170.8321, 92341.53
171.3142, 92368.02
171.7964, 92371.34
172.2785, 92335.57
172.7606, 92217.69
173.2427, 92075.45
173.7248, 91959.48
174.2069, 91875.24
174.6891, 91825.77
175.1712, 91828.54
175.6533, 91874.95
176.1354, 91929.54
176.6175, 91963.67
177.0996, 91993.60
177.5818, 92046.05
178.0639, 92143.90
178.5460, 92250.55
179.0281, 92316.38
179.5102, 92341.13
179.9923, 92351.45
180.4745, 92351.95
180.9566, 92350.17
181.4387, 92368.80
181.9208, 92418.60
182.4029, 92490.34
182.8850, 92587.24
183.3672, 92718.28
183.8493, 92819.48
184.3314, 92791.71
184.8135, 92654.85
185.2956, 92513.55
185.7777, 92411.72
186.2599, 92350.85
186.7420, 92343.47
187.2241, 92411.92
187.7062, 92503.66
188.1883, 92518.71
188.6705, 92459.91
189.1526, 92396.59
189.6347, 92389.29
190.1168, 92427.99
190.5989, 92453.16
191.0810, 92445.46
191.5632, 92419.22
192.0453, 92422.95
192.5274, 92463.08
193.0095, 92496.77
193.4916, 92455.42
193.9737, 92344.84
194.4559, 92280.36
194.9380, 92318.59
195.4201, 92447.91
195.9022, 92576.28
196.3843, 92710.06
196.8664, 92828.62
197.3486, 92873.72
197.8307, 92835.88
198.3128, 92829.54
198.7949, 92928.20
199.2770, 93131.80
199.7591, 93307.44
200.2413, 93441.06
200.7234, 93541.76
201.2055, 93617.61
201.6876, 93653.13
202.1697, 93718.36
202.6518, 93898.95
203.1340, 94214.59
203.6161, 94427.59
204.0982, 94476.38
204.5803, 94389.90
205.0624, 94326.63
205.5445, 94287.50
206.0267, 94269.54
206.5088, 94288.40
206.9909, 94363.45
207.4730, 94379.76
207.9551, 94280.48
208.4372, 94064.78
208.9194, 93944.58
209.4015, 93953.18
209.8836, 94016.48
210.3657, 94026.16
210.8478, 93972.54
211.3299, 93909.49
211.8121, 93854.80
212.2942, 93808.26
212.7763, 93786.34
213.2584, 93801.72
213.7405, 93837.42
214.2226, 93840.31
214.7048, 93782.29
215.1869, 93756.88
215.6690, 93822.72
216.1511, 94005.39
216.6332, 94187.48
217.1153, 94365.59
217.5975, 94533.98
218.0796, 94655.97
218.5617, 94706.03
219.0438, 94745.76
219.5259, 94827.03
220.0080, 94973.57
220.4902, 95093.03
220.9723, 95172.56
221.4544, 95212.33
221.9365, 95199.53
222.4186, 95105.71
222.9007, 94995.08
223.3829, 94941.20
223.8650, 94964.69
224.3471, 95008.96
224.8292, 95070.06
225.3113, 95156.42
225.7934, 95218.99
226.2756, 95248.84
226.7577, 95264.13
227.2398, 95290.72
227.7219, 95328.74
228.2040, 95378.13
228.6861, 95437.68
229.1683, 95502.06
229.6504, 95588.04
230.1325, 95706.66
230.6146, 95839.84
231.0967, 95945.66
231.5789, 96004.53
232.0610, 96059.37
232.5431, 96127.50
233.0252, 96199.63
233.5073, 96305.52
233.9894, 96459.91
234.4716, 96652.11
234.9537, 96835.69
235.4358, 97019.26
235.9179, 97186.29
236.4000, 97327.29
236.8821, 97445.20
237.3643, 97525.80
237.8464, 97543.29
238.3285, 97500.23
238.8106, 97523.74
239.2927, 97648.45
239.7748, 97803.44
240.2570, 97918.52
240.7391, 97970.04
241.2212, 98024.96
241.7033, 98101.09
242.1854, 98204.09
242.6675, 98288.41
243.1497, 98351.01
243.6318, 98401.84
244.1139, 98451.02
244.5960, 98490.27
245.0781, 98547.78
245.5602, 98636.88
246.0424, 98770.72
246.5245, 98892.66
247.0066, 98995.42
247.4887, 99090.04
247.9708, 99202.86
248.4529, 99371.52
248.9351, 99496.08
249.4172, 99511.43
249.8993, 99297.64
250.3814, 99274.89
250.8635, 99536.96
251.3456, 99968.49
251.8278, 100235.6
252.3099, 100244.0
252.7920, 100224.0
253.2741, 100296.7
253.7562, 100511.5
254.2383, 100704.0
254.7205, 100854.5
255.2026, 100972.3
255.6847, 101093.5
256.1668, 101215.5
256.6489, 101343.5
257.1310, 101489.0
257.6132, 101675.6
258.0953, 101822.2
258.5774, 101905.1
259.0595, 101933.5
259.5416, 101985.3
260.0237, 102073.1
260.5059, 102171.8
260.9880, 102258.8
261.4701, 102326.3
261.9522, 102408.7
262.4343, 102508.6
262.9164, 102627.6
263.3986, 102798.6
263.8807, 103061.5
264.3628, 103325.9
264.8449, 103478.1
265.3270, 103471.4
265.8091, 103469.4
266.2913, 103506.5
266.7734, 103580.0
267.2555, 103690.5
267.7376, 103864.9
268.2197, 104033.4
268.7018, 104093.3
269.1840, 104008.5
269.6661, 103912.3
270.1482, 103846.9
270.6303, 103815.7
271.1124, 103792.9
271.5945, 103781.8
272.0767, 103781.2
272.5588, 103785.4
273.0409, 103792.1
273.5230, 103823.9
274.0051, 103919.2
274.4872, 104105.2
274.9694, 104170.8
275.4515, 104074.8
275.9336, 103906.7
276.4157, 103853.2
276.8978, 103937.0
277.3799, 104037.9
277.8621, 104084.1
278.3442, 104063.6
278.8263, 104089.9
279.3084, 104177.4
279.7905, 104298.4
280.2726, 104392.4
280.7548, 104453.9
281.2369, 104504.1
281.7190, 104566.0
282.2011, 104640.1
282.6832, 104657.8
283.1653, 104591.7
283.6475, 104484.7
284.1296, 104453.7
284.6117, 104509.1
285.0938, 104579.0
285.5759, 104627.6
286.0580, 104656.8
286.5402, 104640.0
287.0223, 104558.6
287.5044, 104447.6
287.9865, 104408.5
288.4686, 104450.0
288.9507, 104486.9
289.4329, 104417.4
289.9150, 104260.9
290.3971, 104182.2
290.8792, 104232.3
291.3614, 104365.7
291.8435, 104474.7
292.3256, 104556.5
292.8077, 104643.0
293.2898, 104785.3
293.7719, 104964.4
294.2541, 105084.6
294.7362, 105093.7
295.2183, 105042.8
295.7004, 105048.8
296.1825, 105112.7
296.6646, 105180.0
297.1468, 105198.8
297.6289, 105179.6
298.1110, 105156.1
298.5931, 105129.6
299.0752, 105110.4
299.5573, 105128.3
300.0395, 105183.6
300.5216, 105230.9
301.0037, 105217.7
301.4858, 105164.0
301.9679, 105118.2
302.4500, 105110.5
302.9322, 105116.2
303.4143, 105097.9
303.8964, 105056.3
304.3785, 105012.7
304.8606, 104934.4
305.3427, 104869.1
305.8249, 104908.4
306.3070, 105220.7
306.7891, 105588.5
307.2712, 105728.1
307.7533, 105632.9
308.2354, 105534.8
308.7176, 105642.6
309.1997, 105860.7
309.6818, 106030.1
310.1639, 106024.9
310.6460, 105979.0
311.1281, 106014.8
311.6103, 106138.8
312.0924, 106255.6
312.5745, 106302.0
313.0566, 106304.5
313.5387, 106301.1
314.0208, 106317.5
314.5030, 106332.4
314.9851, 106338.7
315.4672, 106340.3
315.9493, 106327.9
316.4314, 106273.0
316.9135, 106212.4
317.3957, 106191.8
317.8778, 106245.3
318.3599, 106331.4
318.8420, 106441.0
319.3241, 106576.2
319.8062, 106690.3
320.2884, 106677.4
320.7705, 106652.5
321.2526, 106761.1
321.7347, 107275.0
322.2168, 107719.8
322.6989, 107867.7
323.1811, 107635.8
323.6632, 107459.3
324.1453, 107488.4
324.6274, 107603.2
325.1095, 107658.9
325.5916, 107559.6
326.0738, 107471.2
326.5559, 107460.1
327.0380, 107563.9
327.5201, 107617.5
328.0022, 107570.3
328.4843, 107485.4
328.9665, 107438.7
329.4486, 107439.6
329.9307, 107477.3
330.4128, 107560.5
330.8949, 107706.2
331.3770, 107831.5
331.8592, 107944.0
332.3413, 108030.0
332.8234, 108062.7
333.3055, 107942.9
333.7876, 107904.0
334.2697, 108027.5
334.7519, 108355.2
335.2340, 108592.4
335.7161, 108703.1
336.1982, 108750.6
336.6803, 108807.3
337.1624, 108863.4
337.6446, 108949.3
338.1267, 109093.2
338.6088, 109305.2
339.0909, 109425.7
339.5730, 109430.3
340.0551, 109378.8
340.5373, 109336.3
341.0194, 109300.2
341.5015, 109288.1
341.9836, 109314.5
342.4657, 109377.8
342.9478, 109424.0
343.4300, 109447.1
343.9121, 109474.0
344.3942, 109546.0
344.8763, 109667.3
345.3584, 109771.3
345.8405, 109811.7
346.3227, 109815.6
346.8048, 109945.3
347.2869, 110226.2
347.7690, 110502.7
348.2511, 110578.6
348.7332, 110481.7
349.2154, 110418.4
349.6975, 110458.9
350.1796, 110575.9
350.6617, 110718.8
351.1438, 110889.1
351.6259, 111050.5
352.1081, 111188.8
352.5902, 111295.2
353.0723, 111340.9
353.5544, 111253.2
354.0365, 111137.4
354.5186, 111168.5
355.0008, 111342.7
355.4829, 111495.5
355.9650, 111467.5
356.4471, 111345.1
356.9292, 111261.5
357.4113, 111310.6
357.8935, 111384.0
358.3756, 111372.8
358.8577, 111290.1
359.3398, 111246.8
359.8219, 111355.8
360.3040, 111521.5
360.7862, 111645.7
361.2683, 111640.5
361.7504, 111641.5
362.2325, 111724.4
362.7146, 111878.0
363.1967, 112028.8
363.6789, 112090.6
364.1610, 112163.5
364.6431, 112322.1
365.1252, 112740.6
365.6073, 113068.0
366.0894, 113140.7
366.5716, 113012.1
367.0537, 112953.2
367.5358, 113105.6
368.0179, 113277.9
368.5000, 113367.3
368.9821, 113278.6
369.4643, 113208.9
369.9464, 113196.2
370.4285, 113222.0
370.9106, 113207.8
371.3927, 113118.0
371.8748, 113033.1
372.3570, 112993.8
372.8391, 113043.1
373.3212, 113076.8
373.8033, 113089.3
374.2855, 113094.7
374.7676, 113124.1
375.2497, 113184.5
375.7318, 113263.0
376.2139, 113353.3
376.6960, 113450.7
377.1782, 113578.3
377.6603, 113744.1
378.1424, 113927.9
378.6245, 114087.4
379.1066, 114215.8
379.5887, 114333.1
380.0709, 114433.6
380.5530, 114422.1
381.0351, 114600.2
381.5172, 114725.6
381.9993, 114801.2
382.4814, 114677.8
382.9636, 114811.4
383.4457, 114841.9
383.9278, 114868.3
384.4099, 115038.1
384.8920, 114943.6
385.3741, 115111.1
385.8563, 115174.0
386.3384, 115284.8
386.8205, 115291.9
387.3026, 115331.1
387.7847, 115473.9
388.2668, 115559.3
388.7490, 115554.5
389.2311, 115668.4
389.7132, 115570.2
390.1953, 115658.1
390.6774, 115826.2
391.1595, 115826.6
391.6417, 115942.3
392.1238, 116014.1
392.6059, 115886.3
393.0880, 116105.7
393.5701, 116174.9
394.0522, 116089.9
394.5344, 116297.4
395.0165, 116233.7
395.4986, 116266.8
395.9807, 116345.8
396.4628, 116551.1
396.9449, 116879.2
397.4271, 117131.7
397.9092, 117131.6
398.3913, 117118.6
398.8734, 117232.1
399.3555, 117689.6
399.8376, 118008.0
400.3198, 118063.5
400.8019, 117934.0
401.2840, 117878.7
401.7661, 117972.2
402.2482, 118071.8
402.7303, 118124.7
403.2125, 118116.6
403.6946, 118103.6
404.1767, 118096.2
404.6588, 118085.4
405.1409, 118043.6
405.6230, 117948.7
406.1052, 117881.0
406.5873, 117864.6
407.0694, 117899.1
407.5515, 118008.7
408.0336, 118221.7
408.5157, 118456.4
408.9979, 118577.1
409.4800, 118574.3
409.9621, 118599.3
410.4442, 118721.3
410.9263, 118913.7
411.4084, 119059.0
411.8906, 119152.4
412.3727, 119222.6
412.8548, 119297.6
413.3369, 119373.7
413.8190, 119434.5
414.3011, 119476.4
414.7833, 119501.7
415.2654, 119482.8
415.7475, 119429.7
416.2296, 119438.3
416.7117, 119637.0
417.1938, 119925.8
417.6760, 120163.6
418.1581, 120299.9
418.6402, 120395.4
419.1223, 120464.2
419.6044, 120521.0
420.0865, 120620.7
420.5687, 120844.1
421.0508, 121084.5
421.5329, 121260.9
422.0150, 121343.0
422.4971, 121396.7
422.9792, 121412.5
423.4614, 121417.0
423.9435, 121463.9
424.4256, 121581.0
424.9077, 121729.3
425.3898, 121907.4
425.8719, 122138.0
426.3541, 122329.3
426.8362, 122493.5
427.3183, 122614.6
427.8004, 122673.1
428.2825, 122637.1
428.7646, 122587.1
429.2468, 122520.0
429.7289, 122431.9
430.2110, 122448.2
430.6931, 122606.2
431.1752, 122812.9
431.6573, 122983.4
432.1395, 123110.6
432.6216, 123242.2
433.1037, 123392.2
433.5858, 123550.4
434.0679, 123677.0
434.5500, 123766.8
435.0322, 123857.5
435.5143, 123968.0
435.9964, 124099.1
436.4785, 124258.0
436.9606, 124445.3
437.4427, 124657.4
437.9249, 124890.1
438.4070, 125145.0
438.8891, 125415.9
439.3712, 125770.4
439.8533, 126114.6
440.3354, 126272.2
440.8176, 126187.8
441.2997, 126131.8
441.7818, 126386.0
442.2639, 126812.0
442.7460, 127162.8
443.2281, 127250.9
443.7103, 127302.9
444.1924, 127458.3
444.6745, 127726.9
445.1566, 127979.9
445.6387, 128122.8
446.1208, 128251.3
446.6030, 128449.3
447.0851, 128803.2
447.5672, 129148.1
448.0493, 129445.4
448.5314, 129701.6
449.0135, 129973.1
449.4957, 130303.4
449.9778, 130615.3
450.4599, 130869.7
450.9420, 131038.6
451.4241, 131203.1
451.9063, 131355.2
452.3884, 131513.4
452.8705, 131723.4
453.3526, 132006.4
453.8347, 132291.9
454.3168, 132537.0
454.7990, 132742.6
455.2811, 132998.7
455.7632, 133311.1
456.2453, 133665.0
456.7274, 134052.5
457.2096, 134471.7
457.6917, 134870.1
458.1738, 135221.3
458.6559, 135543.7
459.1380, 135878.2
459.6201, 136219.3
460.1023, 136593.3
460.5844, 137045.3
461.0665, 137537.2
461.5486, 137988.9
462.0307, 138346.5
462.5128, 138715.4
462.9950, 139247.5
463.4771, 139879.1
463.9592, 140377.5
464.4413, 140609.5
464.9234, 140685.8
465.4055, 140686.1
465.8877, 140642.1
466.3698, 140460.0
466.8519, 140055.0
467.3340, 139506.4
467.8161, 138941.4
468.2982, 138438.4
468.7804, 137867.3
469.2625, 137156.6
469.7446, 136287.4
470.2267, 135507.5
470.7088, 134851.1
471.1909, 134262.7
471.6731, 133674.8
472.1552, 133063.7
472.6373, 132537.6
473.1194, 132130.2
473.6015, 131816.9
474.0836, 131490.6
474.5658, 131138.4
475.0479, 130828.7
475.5300, 130616.4
476.0121, 130492.4
476.4942, 130380.8
476.9763, 130276.0
477.4585, 130169.0
477.9406, 130038.2
478.4227, 129888.5
478.9048, 129753.7
479.3869, 129659.6
479.8690, 129584.1
480.3512, 129504.1
480.8333, 129419.6
481.3154, 129316.5
481.7975, 129170.1
482.2796, 129005.1
482.7617, 128852.1
483.2439, 128691.7
483.7260, 128574.9
484.2081, 128535.1
484.6902, 128562.9
485.1723, 128612.8
485.6544, 128693.0
486.1366, 128774.9
486.6187, 128844.5
487.1008, 128907.3
487.5829, 128939.9
488.0650, 128943.9
488.5471, 128914.9
489.0293, 128836.2
489.5114, 128643.6
489.9935, 128512.7
490.4756, 128521.3
490.9577, 128674.9
491.4398, 128733.5
491.9220, 128670.5
492.4041, 128577.2
492.8862, 128541.3
493.3683, 128565.0
493.8504, 128601.7
494.3326, 128650.9
494.8147, 128701.7
495.2968, 128724.2
495.7789, 128722.4
496.2610, 128730.2
496.7431, 128750.7
497.2253, 128800.9
497.7074, 128924.2
498.1895, 129140.6
498.6716, 129361.0
499.1537, 129514.5
499.6358, 129621.4
500.1180, 129722.4
500.6001, 129874.4
501.0822, 129985.7
501.5643, 129964.7
502.0464, 129808.9
502.5285, 129717.7
503.0107, 129801.9
503.4928, 129936.2
503.9749, 130032.8
504.4570, 130026.6
504.9391, 130048.3
505.4212, 130144.8
505.9034, 130274.0
506.3855, 130304.9
506.8676, 130173.2
507.3497, 130063.0
507.8318, 130062.0
508.3139, 130190.3
508.7961, 130279.1
509.2782, 130325.5
509.7603, 130350.6
510.2424, 130380.6
510.7245, 130415.5
511.2066, 130434.5
511.6888, 130406.0
512.1709, 130373.5
512.6530, 130434.6
513.1351, 130582.2
513.6172, 130761.0
514.0994, 130948.3
514.5815, 131128.9
515.0636, 131288.8
515.5457, 131426.4
516.0278, 131527.6
516.5099, 131562.6
516.9921, 131556.4
517.4742, 131555.3
517.9563, 131582.6
518.4384, 131619.3
518.9205, 131667.4
519.4026, 131732.7
519.8848, 131788.7
520.3669, 131825.7
520.8490, 131866.6
521.3311, 131927.8
521.8132, 132014.5
522.2953, 132123.9
522.7775, 132261.2
523.2596, 132421.4
523.7417, 132572.6
524.2238, 132686.0
524.7059, 132866.2
525.1880, 133187.4
525.6702, 133640.2
526.1523, 134032.3
526.6344, 134350.2
527.1165, 134627.5
527.5986, 134860.5
528.0807, 135069.3
528.5629, 135344.8
529.0450, 135736.2
529.5271, 136182.4
530.0092, 136633.3
530.4913, 137077.0
530.9734, 137460.5
531.4556, 137672.7
531.9377, 137857.8
532.4198, 138152.0
532.9019, 138609.9
533.3840, 139070.9
533.8661, 139471.8
534.3483, 139838.6
534.8304, 140203.9
535.3125, 140511.9
535.7946, 140887.8
536.2767, 141411.3
536.7589, 142063.8
537.2410, 142590.7
537.7231, 142915.5
538.2052, 143198.0
538.6873, 143544.7
539.1694, 143979.1
539.6516, 144342.5
540.1337, 144617.4
540.6158, 144819.6
541.0979, 144992.2
541.5800, 145134.6
542.0621, 145190.2
542.5443, 145132.8
543.0264, 144980.8
543.5085, 144753.9
543.9906, 144456.0
544.4727, 144153.4
544.9548, 143933.8
545.4370, 143735.6
545.9191, 143474.3
546.4012, 143131.5
546.8833, 142722.6
547.3654, 142183.2
547.8475, 141582.3
548.3297, 141073.5
548.8118, 140752.5
549.2939, 140471.5
549.7760, 140172.3
550.2581, 139839.4
550.7402, 139510.9
551.2224, 139158.1
551.7045, 138823.1
552.1866, 138547.6
552.6687, 138367.3
553.1508, 138131.7
553.6329, 137781.4
554.1151, 137399.5
554.5972, 137243.8
555.0793, 137346.8
555.5614, 137356.4
556.0435, 136989.4
556.5256, 136379.3
557.0078, 136049.0
557.4899, 136025.5
557.9720, 136058.1
558.4541, 135908.8
558.9362, 135657.6
559.4183, 135446.9
559.9005, 135329.3
560.3826, 135248.1
560.8647, 135158.8
561.3468, 135075.5
561.8289, 135038.4
562.3110, 135119.0
562.7932, 135201.4
563.2753, 135222.3
563.7574, 135152.9
564.2395, 135123.1
564.7216, 135135.0
565.2037, 135190.3
565.6859, 135290.7
566.1680, 135444.8
566.6501, 135619.3
567.1322, 135808.5
567.6143, 136009.2
568.0964, 136239.5
568.5786, 136508.0
569.0607, 136691.9
569.5428, 136647.4
570.0249, 136449.4
570.5070, 136395.0
570.9891, 136498.0
571.4713, 136646.6
571.9534, 136745.3
572.4355, 136812.9
572.9176, 136884.6
573.3997, 136995.5
573.8818, 137083.6
574.3640, 137108.1
574.8461, 137082.4
575.3282, 137041.3
575.8103, 136998.4
576.2924, 136950.6
576.7745, 136893.3
577.2567, 136822.7
577.7388, 136783.2
578.2209, 136803.6
578.7030, 136836.9
579.1851, 136836.6
579.6672, 136776.9
580.1494, 136762.5
580.6315, 136815.9
581.1136, 136911.4
581.5957, 136973.2
582.0778, 136997.6
582.5599, 137050.6
583.0421, 137201.8
583.5242, 137401.5
584.0063, 137498.4
584.4884, 137486.2
584.9705, 137478.8
585.4526, 137571.0
585.9348, 137723.0
586.4169, 137885.6
586.8990, 138065.3
587.3811, 138216.4
587.8632, 138328.2
588.3453, 138392.0
588.8275, 138390.6
589.3096, 138189.9
589.7917, 138047.1
590.2738, 138090.3
590.7559, 138336.2
591.2380, 138464.7
591.7202, 138443.9
592.2023, 138354.6
592.6844, 138230.8
593.1665, 138058.9
593.6486, 137990.9
594.1307, 138070.3
594.6129, 138209.3
595.0950, 138261.9
595.5771, 138237.0
596.0592, 138194.8
596.5413, 138108.0
597.0234, 138046.9
597.5056, 138150.3
597.9877, 138398.5
598.4698, 138642.2
598.9519, 138775.6
599.4340, 138862.0
599.9161, 138956.3
600.3983, 139076.0
600.8804, 139174.2
601.3625, 139253.9
601.8446, 139297.5
602.3267, 139278.3
602.8088, 139089.9
603.2910, 138984.0
603.7731, 139025.6
604.2552, 139188.5
604.7373, 139333.5
605.2194, 139476.8
605.7015, 139556.8
606.1837, 139519.3
606.6658, 139375.9
607.1479, 139220.5
607.6300, 139046.8
608.1121, 138931.2
608.5942, 139009.6
609.0764, 139210.4
609.5585, 139369.7
610.0406, 139436.2
610.5227, 139454.6
611.0048, 139439.5
611.4869, 139404.7
611.9691, 139385.7
612.4512, 139385.9
612.9333, 139416.5
613.4154, 139492.4
613.8975, 139622.5
614.3796, 139732.4
614.8618, 139791.7
615.3439, 139848.7
615.8260, 139950.4
616.3081, 140129.0
616.7902, 140215.2
617.2723, 140161.8
617.7545, 140056.4
618.2366, 140064.6
618.7187, 140182.4
619.2008, 140311.7
619.6829, 140426.6
620.1650, 140520.9
620.6472, 140562.8
621.1293, 140562.4
621.6114, 140600.6
622.0935, 140810.4
622.5756, 141038.3
623.0577, 141134.3
623.5399, 141048.6
624.0220, 140936.0
624.5041, 140792.1
624.9862, 140670.0
625.4683, 140633.5
625.9504, 140777.7
626.4326, 140880.3
626.9147, 140899.8
627.3968, 140865.7
627.8789, 140877.7
628.3610, 140947.0
628.8431, 141031.8
629.3253, 141155.8
629.8074, 141295.8
630.2895, 141234.3
630.7716, 140958.5
631.2537, 140721.4
631.7358, 140827.0
632.2180, 141112.0
632.7001, 141278.7
633.1822, 141222.7
633.6643, 141147.3
634.1464, 141178.9
634.6285, 141281.3
635.1107, 141394.2
635.5928, 141523.2
636.0749, 141629.8
636.5570, 141668.0
637.0391, 141652.0
637.5212, 141725.4
638.0034, 141953.3
638.4855, 142173.8
638.9676, 142303.6
639.4497, 142329.8
639.9318, 142387.6
640.4139, 142484.6
640.8961, 142583.8
641.3782, 142648.5
641.8603, 142679.5
642.3424, 142674.1
642.8245, 142603.1
643.3066, 142548.9
643.7888, 142657.3
644.2709, 142852.6
644.7530, 142956.7
645.2351, 142815.6
645.7172, 142631.1
646.1993, 142501.0
646.6815, 142429.9
647.1636, 142370.4
647.6457, 142318.2
648.1278, 142284.5
648.6099, 142278.4
649.0920, 142308.9
649.5742, 142349.5
650.0563, 142391.3
650.5384, 142463.4
651.0205, 142631.1
651.5026, 142882.7
651.9847, 143060.7
652.4669, 143089.2
652.9490, 143073.5
653.4311, 143186.2
653.9132, 143390.9
654.3953, 143571.7
654.8774, 143655.5
655.3596, 143695.6
655.8417, 143711.2
656.3238, 143703.0
656.8059, 143725.8
657.2880, 143869.1
657.7701, 143993.5
658.2523, 144006.4
658.7344, 143843.0
659.2165, 143731.3
659.6986, 143688.7
660.1807, 143685.9
660.6628, 143692.2
661.1450, 143712.5
661.6271, 143741.5
662.1093, 143800.7
662.5914, 143847.5
663.0735, 143751.2
663.5556, 143551.3
664.0377, 143421.9
664.5198, 143515.8
665.0020, 143687.0
665.4841, 143796.6
665.9662, 143843.0
666.4483, 143897.9
666.9304, 144010.5
667.4125, 144122.9
667.8947, 144188.6
668.3768, 144139.4
668.8589, 144168.4
669.3410, 144305.8
669.8231, 144485.2
670.3052, 144635.7
670.7874, 144750.7
671.2695, 144845.4
671.7516, 144919.3
672.2337, 144974.9
672.7158, 145009.2
673.1979, 145026.8
673.6801, 145053.8
674.1622, 145130.1
674.6443, 145208.6
675.1264, 145248.3
675.6085, 145249.1
676.0906, 145205.7
676.5728, 145029.8
677.0549, 144873.0
677.5370, 144855.4
678.0191, 145088.7
678.5012, 145174.1
678.9833, 145010.4
679.4655, 144773.1
679.9476, 144628.8
680.4297, 144604.9
680.9118, 144564.3
681.3939, 144478.0
681.8760, 144395.2
682.3582, 144434.3
682.8403, 144574.9
683.3224, 144677.3
683.8045, 144656.9
684.2866, 144589.4
684.7687, 144536.6
685.2509, 144506.1
685.7330, 144534.5
686.2151, 144648.5
686.6972, 144814.4
687.1793, 145029.6
687.6614, 145312.8
688.1436, 145520.6
688.6257, 145579.0
689.1078, 145615.3
689.5899, 145729.4
690.0720, 145952.1
690.5541, 146111.2
691.0363, 146182.8
691.5184, 146219.8
692.0005, 146315.7
692.4826, 146454.4
692.9647, 146541.3
693.4468, 146517.2
693.9290, 146473.3
694.4111, 146514.5
694.8932, 146620.8
695.3753, 146733.6
695.8574, 146859.5
696.3395, 146953.2
696.8217, 146970.0
697.3038, 146903.1
697.7859, 146881.0
698.2680, 146918.4
698.7501, 146982.5
699.2322, 147060.2
699.7144, 147154.7
700.1965, 147254.8
700.6786, 147384.3
701.1607, 147443.9
701.6428, 147220.7
702.1249, 146823.6
702.6071, 146664.5
703.0892, 146916.8
703.5713, 147211.1
704.0534, 147178.2
704.5355, 146948.3
705.0176, 146753.5
705.4998, 146710.3
705.9819, 146689.4
706.4640, 146618.1
706.9461, 146525.2
707.4282, 146554.9
707.9103, 146785.0
708.3925, 147014.1
708.8746, 147164.9
709.3567, 147242.4
709.8388, 147345.0
710.3209, 147473.6
710.8030, 147621.2
711.2852, 147792.9
711.7673, 147975.0
712.2494, 148126.1
712.7315, 148234.2
713.2136, 148357.1
713.6957, 148540.2
714.1779, 148757.1
714.6600, 148978.2
715.1421, 149248.7
715.6242, 149441.2
716.1063, 149472.3
716.5884, 149420.3
717.0706, 149407.7
717.5527, 149458.2
718.0348, 149478.3
718.5169, 149448.2
718.9990, 149375.4
719.4811, 149252.4
719.9633, 149087.1
720.4454, 148989.3
720.9275, 149118.1
721.4096, 149306.2
721.8917, 149309.7
722.3738, 149144.7
722.8560, 148971.6
723.3381, 148888.1
723.8202, 148826.3
724.3023, 148723.7
724.7844, 148527.8
725.2665, 148471.3
725.7487, 148642.5
726.2308, 148869.4
726.7129, 149016.3
727.1950, 149070.4
727.6771, 149085.6
728.1592, 149043.5
728.6414, 149011.4
729.1235, 149119.5
729.6056, 149323.0
730.0877, 149478.0
730.5698, 149507.3
731.0519, 149507.7
731.5341, 149561.9
732.0162, 149650.2
732.4983, 149723.4
732.9804, 149723.5
733.4625, 149749.0
733.9446, 149848.2
734.4268, 150008.2
734.9089, 150152.1
735.3910, 150289.8
735.8731, 150392.8
736.3552, 150424.2
736.8373, 150398.8
737.3195, 150475.1
737.8016, 150660.6
738.2837, 150827.1
738.7658, 150822.7
739.2479, 150751.9
739.7300, 150787.2
740.2122, 150979.0
740.6943, 151138.9
741.1764, 151108.9
741.6585, 151030.8
742.1406, 151043.3
742.6227, 151268.5
743.1049, 151428.7
743.5870, 151481.5
744.0691, 151491.7
744.5512, 151574.3
745.0333, 151738.1
745.5154, 151834.1
745.9976, 151788.5
746.4797, 151702.6
746.9618, 151803.9
747.4439, 152035.6
747.9260, 152182.0
748.4081, 152054.1
748.8903, 151882.6
749.3724, 151834.0
749.8545, 151892.8
750.3366, 151926.7
750.8187, 151901.9
751.3008, 151854.0
751.7830, 151793.2
752.2651, 151720.4
752.7472, 151669.5
753.2293, 151656.3
753.7114, 151618.4
754.1935, 151447.6
754.6757, 151205.0
755.1578, 151189.3
755.6399, 151436.5
756.1220, 151693.3
756.6041, 151745.9
757.0862, 151692.3
757.5684, 151636.0
758.0505, 151570.3
758.5326, 151571.3
759.0147, 151695.4
759.4968, 151879.3
759.9789, 152049.9
760.4611, 152192.8
760.9432, 152343.0
761.4253, 152502.6
761.9074, 152661.5
762.3895, 152813.2
762.8716, 152951.5
763.3538, 153046.7
763.8359, 153054.8
764.3180, 153049.3
764.8001, 153164.0
765.2822, 153343.5
765.7643, 153424.9
766.2465, 153212.7
766.7286, 153014.8
767.2107, 152978.3
767.6928, 153100.0
768.1749, 153220.1
768.6570, 153360.1
769.1392, 153469.0
769.6213, 153519.7
770.1034, 153517.0
770.5855, 153502.5
771.0676, 153474.4
771.5497, 153472.0
772.0319, 153541.5
772.5140, 153647.5
772.9961, 153740.8
773.4782, 153813.8
773.9603, 153881.0
774.4424, 153928.5
774.9246, 153983.9
775.4067, 154074.7
775.8888, 154244.1
776.3709, 154358.9
776.8530, 154395.7
777.3351, 154408.5
777.8173, 154462.3
778.2994, 154558.3
778.7815, 154641.4
779.2636, 154702.9
779.7457, 154750.2
780.2278, 154755.4
780.7100, 154755.1
781.1921, 154829.3
781.6742, 155093.5
782.1563, 155326.1
782.6384, 155421.1
783.1205, 155409.2
783.6027, 155357.8
784.0848, 155238.5
784.5669, 155133.1
785.0490, 155037.6
785.5311, 154977.6
786.0132, 155101.7
786.4954, 155417.9
786.9775, 155600.5
787.4596, 155413.5
787.9417, 155059.4
788.4238, 154833.0
788.9059, 154726.3
789.3881, 154696.4
789.8702, 154771.5
790.3523, 154876.2
790.8344, 154975.7
791.3165, 155068.3
791.7986, 155147.6
792.2808, 155210.4
792.7629, 155259.6
793.2450, 155270.7
793.7271, 155242.0
794.2092, 155344.8
794.6913, 155585.5
795.1735, 155810.8
795.6556, 155821.3
796.1377, 155748.6
796.6198, 155821.2
797.1019, 156089.5
797.5840, 156313.8
798.0662, 156354.9
798.5483, 156315.9
799.0304, 156284.9
799.5125, 156302.6
799.9946, 156268.2
800.4767, 156178.4
800.9589, 156055.3
801.4410, 155894.9
801.9231, 155709.6
802.4052, 155636.3
802.8873, 155719.0
803.3694, 155854.6
803.8516, 155948.3
804.3337, 156011.2
804.8158, 156056.5
805.2979, 156066.8
805.7800, 156086.9
806.2621, 156064.6
806.7443, 156075.4
807.2264, 156267.9
807.7085, 156776.9
808.1906, 157132.5
808.6727, 157215.6
809.1548, 157131.3
809.6370, 157086.1
810.1191, 157078.3
810.6012, 157117.8
811.0833, 157241.8
811.5654, 157379.6
812.0475, 157468.6
812.5297, 157515.3
813.0118, 157534.1
813.4939, 157544.7
813.9760, 157517.4
814.4581, 157405.7
814.9402, 157245.0
815.4224, 157199.8
815.9045, 157293.5
816.3866, 157428.3
816.8687, 157582.1
817.3508, 157739.0
817.8329, 157841.1
818.3151, 157892.6
818.7972, 157936.1
819.2793, 157981.3
819.7614, 158039.4
820.2435, 158138.3
820.7256, 158273.6
821.2078, 158360.6
821.6899, 158383.8
822.1720, 158347.5
822.6541, 158225.9
823.1362, 158015.4
823.6183, 157892.5
824.1005, 157857.4
824.5826, 157897.8
825.0647, 158059.2
825.5469, 158275.1
826.0290, 158401.9
826.5111, 158432.7
826.9932, 158439.6
827.4753, 158468.0
827.9575, 158490.1
828.4396, 158467.1
828.9217, 158348.1
829.4038, 158373.7
829.8859, 158641.5
830.3680, 158914.9
830.8502, 158989.3
831.3323, 158872.0
831.8144, 158828.4
832.2965, 158876.8
832.7786, 158951.1
833.2607, 158976.3
833.7429, 158991.4
834.2250, 159060.5
834.7071, 159215.7
835.1892, 159342.8
835.6713, 159381.0
836.1534, 159383.1
836.6356, 159400.2
837.1177, 159450.0
837.5998, 159465.1
838.0819, 159441.5
838.5640, 159391.3
839.0461, 159302.0
839.5283, 159195.7
840.0104, 159173.8
840.4925, 159280.8
840.9746, 159380.4
841.4567, 159304.9
841.9388, 159185.7
842.4210, 159179.0
842.9031, 159436.6
843.3852, 159642.8
843.8673, 159763.7
844.3494, 159836.8
844.8315, 159910.0
845.3137, 159984.6
845.7958, 160021.9
846.2779, 159993.7
846.7600, 159992.8
847.2421, 160217.6
847.7242, 160547.5
848.2064, 160737.9
848.6885, 160606.7
849.1706, 160485.8
849.6527, 160497.4
850.1348, 160606.9
850.6169, 160762.7
851.0991, 160992.7
851.5812, 161186.9
852.0633, 161323.7
852.5454, 161421.4
853.0275, 161487.0
853.5096, 161531.8
853.9918, 161631.8
854.4739, 161853.2
854.9560, 162057.5
855.4381, 162127.7
855.9202, 162101.3
856.4023, 162043.5
856.8845, 161925.3
857.3666, 161842.0
857.8487, 161822.6
858.3308, 161838.8
858.8129, 161843.5
859.2950, 161839.9
859.7772, 161799.0
860.2593, 161706.8
860.7414, 161592.0
861.2235, 161479.1
861.7056, 161380.9
862.1877, 161326.9
862.6699, 161346.1
863.1520, 161396.6
863.6341, 161472.2
864.1162, 161570.0
864.5983, 161681.5
865.0804, 161825.7
865.5626, 161936.8
866.0447, 161993.0
866.5268, 162021.9
867.0089, 162074.0
867.4910, 162147.8
867.9731, 162241.3
868.4553, 162375.3
868.9374, 162495.1
869.4195, 162511.8
869.9016, 162484.0
870.3837, 162538.4
870.8658, 162800.0
871.3480, 163014.2
871.8301, 163136.7
872.3122, 163192.3
872.7943, 163248.1
873.2764, 163302.4
873.7585, 163288.5
874.2407, 163148.1
874.7228, 162990.1
875.2049, 162976.5
875.6870, 163052.9
876.1691, 163100.2
876.6512, 163059.9
877.1334, 163011.0
877.6155, 163001.8
878.0976, 163000.4
878.5797, 162940.0
879.0618, 162816.0
879.5439, 162667.6
880.0261, 162480.6
880.5082, 162321.4
880.9903, 162340.0
881.4724, 162485.1
881.9545, 162608.5
882.4366, 162629.5
882.9188, 162637.0
883.4009, 162663.5
883.8830, 162705.4
884.3651, 162755.9
884.8472, 162794.1
885.3293, 162871.7
885.8115, 163007.9
886.2936, 163163.9
886.7757, 163257.1
887.2578, 163298.4
887.7399, 163358.9
888.2220, 163476.4
888.7042, 163591.8
889.1863, 163639.1
889.6684, 163657.4
890.1505, 163711.2
890.6326, 163920.8
891.1147, 164020.9
891.5969, 163924.3
892.0790, 163766.3
892.5611, 163813.0
893.0432, 164059.9
893.5253, 164189.0
894.0074, 164106.7
894.4896, 163945.3
894.9717, 163810.5
895.4538, 163714.6
895.9359, 163680.0
896.4180, 163742.1
896.9001, 163828.8
897.3823, 163935.9
897.8644, 164053.8
898.3465, 164170.0
898.8286, 164284.3
899.3107, 164398.3
899.7928, 164514.4
900.2750, 164622.6
900.7571, 164693.4
901.2392, 164749.1
901.7213, 164842.4
902.2034, 165016.2
902.6855, 165151.0
903.1677, 165201.8
903.6498, 165178.5
904.1319, 165076.6
904.6140, 164818.7
905.0961, 164754.3
905.5782, 164959.8
906.0604, 165203.0
906.5425, 165165.6
907.0246, 164957.6
907.5067, 164880.0
907.9888, 165001.9
908.4709, 165164.3
908.9531, 165298.3
909.4352, 165409.6
909.9173, 165497.8
910.3994, 165535.9
910.8815, 165627.1
911.3636, 165791.0
911.8458, 165960.2
912.3279, 166089.4
912.8100, 166171.5
913.2921, 166146.4
913.7742, 166002.1
914.2563, 165905.0
914.7385, 166020.0
915.2206, 166206.9
915.7027, 166361.4
916.1848, 166469.9
916.6669, 166544.3
917.1490, 166584.5
917.6312, 166598.6
918.1133, 166578.6
918.5954, 166532.4
919.0775, 166538.1
919.5596, 166596.0
920.0417, 166640.2
920.5239, 166598.3
921.0060, 166539.5
921.4881, 166513.8
921.9702, 166525.3
922.4523, 166582.4
922.9344, 166720.9
923.4166, 166849.8
923.8987, 166930.3
924.3808, 166967.1
924.8629, 166997.5
925.3450, 167020.7
925.8271, 167049.8
926.3093, 167082.6
926.7914, 167130.6
927.2735, 167235.4
927.7556, 167373.7
928.2377, 167443.0
928.7198, 167336.8
929.2020, 167250.3
929.6841, 167235.8
930.1662, 167271.8
930.6483, 167280.7
931.1304, 167265.0
931.6125, 167269.4
932.0947, 167338.5
932.5768, 167408.8
933.0589, 167393.8
933.5410, 167328.9
934.0231, 167291.1
934.5052, 167313.0
934.9874, 167360.7
935.4695, 167441.2
935.9516, 167535.5
936.4337, 167607.3
936.9158, 167655.1
937.3979, 167705.1
937.8801, 167759.9
938.3622, 167819.9
938.8443, 167856.4
939.3264, 167904.2
939.8085, 168024.1
940.2906, 168321.5
940.7728, 168534.3
941.2549, 168593.4
941.7370, 168580.0
942.2191, 168556.0
942.7012, 168518.7
943.1833, 168561.4
943.6655, 168704.7
944.1476, 168856.0
944.6297, 168898.7
945.1118, 168903.9
945.5939, 168975.5
946.0760, 169156.6
946.5582, 169284.9
947.0403, 169254.4
947.5224, 169223.5
948.0045, 169292.7
948.4866, 169465.9
948.9688, 169577.6
949.4509, 169621.2
949.9330, 169654.7
950.4151, 169701.4
950.8972, 169774.2
951.3793, 169899.1
951.8615, 170074.8
952.3436, 170250.0
952.8257, 170456.0
953.3078, 170606.0
953.7899, 170653.6
954.2720, 170620.7
954.7542, 170619.4
955.2363, 170649.6
955.7184, 170750.3
956.2005, 171018.3
956.6826, 171299.4
957.1647, 171399.7
957.6469, 171371.0
958.1290, 171366.1
958.6111, 171487.4
959.0932, 171553.0
959.5753, 171513.9
960.0574, 171411.7
960.5396, 171320.3
961.0217, 171245.0
961.5038, 171226.6
961.9859, 171295.8
962.4680, 171391.6
962.9501, 171503.7
963.4323, 171588.1
963.9144, 171575.3
964.3965, 171287.2
964.8786, 171170.0
965.3607, 171301.1
965.8428, 171535.0
966.3250, 171732.3
966.8071, 171894.8
967.2892, 172050.1
967.7713, 172197.7
968.2534, 172340.1
968.7355, 172474.5
969.2177, 172606.2
969.6998, 172737.5
970.1819, 172868.5
970.6640, 173002.5
971.1461, 173125.3
971.6282, 173282.7
972.1104, 173522.8
972.5925, 173826.4
973.0746, 174060.8
973.5567, 174237.3
974.0388, 174438.3
974.5209, 174706.9
975.0031, 175029.9
975.4852, 175401.5
975.9673, 175819.2
976.4494, 176247.5
976.9315, 176662.7
977.4136, 177140.3
977.8958, 177737.8
978.3779, 178356.3
978.8600, 178749.5
979.3421, 178971.0
979.8242, 179234.5
980.3063, 179623.8
980.7885, 180070.9
981.2706, 180570.9
981.7527, 181097.6
982.2348, 181614.9
982.7169, 182139.6
983.1990, 182621.8
983.6812, 183058.6
984.1633, 183467.3
984.6454, 183858.4
985.1275, 184241.4
985.6096, 184623.2
986.0917, 185000.0
986.5739, 185429.1
987.0560, 186007.2
987.5381, 186591.4
988.0202, 187094.7
988.5023, 187513.2
988.9844, 187852.8
989.4666, 188102.9
989.9487, 188328.6
990.4308, 188619.7
990.9130, 188879.5
991.3951, 188962.9
991.8772, 188878.4
992.3593, 188707.3
992.8414, 188489.4
993.3235, 188160.4
993.8057, 187687.9
994.2878, 187107.4
994.7699, 186504.3
995.2520, 185881.2
995.7341, 185262.2
996.2162, 184666.7
996.6984, 184084.2
997.1805, 183490.5
997.6626, 182910.6
998.1447, 182396.4
998.6268, 181998.4
999.1089, 181605.4
999.5911, 181172.9
1000.073, 180808.9
1000.555, 180665.9
1001.037, 180704.7
1001.520, 180685.1
1002.002, 180576.0
1002.484, 180460.9
1002.966, 180400.1
1003.448, 180348.9
1003.930, 180264.2
1004.412, 180131.2
1004.894, 180023.3
1005.376, 179941.9
1005.859, 179869.5
1006.341, 179799.1
1006.823, 179729.4
1007.305, 179658.2
1007.787, 179584.6
1008.269, 179499.7
1008.751, 179420.4
1009.233, 179310.2
1009.716, 179100.7
1010.198, 178867.4
1010.680, 178758.1
1011.162, 178783.5
1011.644, 178858.8
1012.126, 178980.1
1012.608, 179098.0
1013.090, 179157.3
1013.572, 179166.8
1014.055, 179127.3
1014.537, 178990.9
1015.019, 178936.5
1015.501, 179050.1
1015.983, 179187.3
1016.465, 179261.4
1016.947, 179272.8
1017.429, 179184.1
1017.911, 178998.6
1018.394, 178828.5
1018.876, 178805.8
1019.358, 178791.8
1019.840, 178654.6
1020.322, 178407.8
1020.804, 178224.4
1021.286, 178157.5
1021.768, 178045.9
1022.251, 177820.5
1022.733, 177549.7
1023.215, 177362.4
1023.697, 177252.1
1024.179, 177206.7
1024.661, 177250.8
1025.143, 177304.0
1025.625, 177335.1
1026.107, 177351.7
1026.590, 177361.9
1027.072, 177363.1
1027.554, 177353.0
1028.036, 177323.4
1028.518, 177333.0
1029.000, 177507.5
1029.482, 177717.3
1029.964, 177785.4
1030.447, 177693.7
1030.929, 177586.3
1031.411, 177417.6
1031.893, 177350.3
1032.375, 177481.4
1032.857, 177749.2
1033.339, 177895.1
1033.821, 177932.0
1034.303, 177953.8
1034.786, 177988.6
1035.268, 178039.5
1035.750, 178099.1
1036.232, 178175.8
1036.714, 178297.4
1037.196, 178515.3
1037.678, 178607.3
1038.160, 178518.8
1038.642, 178396.9
1039.125, 178463.9
1039.607, 178613.1
1040.089, 178596.4
1040.571, 178361.4
1041.053, 178238.9
1041.535, 178628.2
1042.017, 178891.3
1042.499, 178591.7
1042.982, 177838.7
1043.464, 177750.4
1043.946, 178318.9
1044.428, 178839.1
1044.910, 178929.9
1045.392, 178819.4
1045.874, 178585.6
1046.356, 178322.8
1046.839, 178260.3
1047.321, 178494.3
1047.803, 178805.5
1048.285, 179220.3
1048.767, 179598.8
1049.249, 179690.1
1049.731, 179598.9
1050.213, 179650.0
1050.695, 179914.9
1051.177, 180134.8
1051.660, 180174.3
1052.142, 180130.5
1052.624, 180055.9
1053.106, 179955.3
1053.588, 179876.2
1054.070, 179818.2
1054.552, 179871.1
1055.034, 180192.9
1055.517, 180565.5
1055.999, 180694.3
1056.481, 180680.1
1056.963, 180780.4
1057.445, 181173.4
1057.927, 181488.0
1058.409, 181663.0
1058.891, 181782.3
1059.374, 181986.9
1059.856, 182233.6
1060.338, 182372.4
1060.820, 182367.4
1061.302, 182345.0
1061.784, 182368.4
1062.266, 182407.7
1062.748, 182438.4
1063.230, 182464.6
1063.713, 182554.2
1064.195, 182716.4
1064.677, 182891.4
1065.159, 183054.2
1065.641, 183211.8
1066.123, 183390.1
1066.605, 183565.2
1067.087, 183683.5
1067.569, 183636.7
1068.052, 183666.2
1068.534, 183800.0
1069.016, 183984.1
1069.498, 184187.0
1069.980, 184379.1
1070.462, 184457.5
1070.944, 184399.1
1071.426, 184360.6
1071.909, 184425.3
1072.391, 184551.7
1072.873, 184766.2
1073.355, 185047.6
1073.837, 185097.8
1074.319, 184911.5
1074.801, 184755.1
1075.283, 184779.4
1075.766, 184862.0
1076.248, 184854.6
1076.730, 184808.0
1077.212, 184815.7
1077.694, 184930.4
1078.176, 185030.2
1078.658, 185109.3
1079.140, 185155.6
1079.622, 185119.3
1080.105, 185043.4
1080.587, 185093.1
1081.069, 185278.4
1081.551, 185343.3
1082.033, 185014.8
1082.515, 184702.0
1082.997, 184601.2
1083.479, 184673.2
1083.962, 184715.5
1084.444, 184735.9
1084.926, 184821.2
1085.408, 185050.0
1085.890, 185275.1
1086.372, 185317.0
1086.854, 185288.5
1087.336, 185354.4
1087.818, 185596.0
1088.301, 185748.3
1088.783, 185780.7
1089.265, 185795.0
1089.747, 185858.1
1090.229, 185965.7
1090.711, 186145.7
1091.193, 186379.7
1091.675, 186547.9
1092.157, 186554.6
1092.640, 186546.9
1093.122, 186560.6
1093.604, 186591.1
1094.086, 186642.9
1094.568, 186708.5
1095.050, 186718.6
1095.532, 186634.0
1096.014, 186577.9
1096.497, 186679.2
1096.979, 186818.1
1097.461, 186884.5
1097.943, 186868.3
1098.425, 186856.1
1098.907, 186852.0
1099.389, 186810.4
1099.871, 186627.5
1100.354, 186445.3
1100.836, 186489.0
1101.318, 186679.0
1101.800, 186768.5
1102.282, 186614.1
1102.764, 186517.1
1103.246, 186523.3
1103.728, 186573.9
1104.210, 186630.4
1104.693, 186663.1
1105.175, 186555.4
1105.657, 186277.4
1106.139, 186091.4
1106.621, 186213.6
1107.103, 186358.6
1107.585, 186393.8
1108.067, 186339.2
1108.549, 186292.2
1109.032, 186253.3
1109.514, 186213.7
1109.996, 186162.5
1110.478, 186122.2
1110.960, 186078.6
1111.442, 186072.0
1111.924, 186170.4
1112.406, 186431.1
1112.889, 186573.4
1113.371, 186562.9
1113.853, 186584.5
1114.335, 186877.6
1114.817, 187240.1
1115.299, 187394.0
1115.781, 187351.6
1116.263, 187302.5
1116.745, 187261.2
1117.228, 187254.5
1117.710, 187290.8
1118.192, 187360.5
1118.674, 187477.5
1119.156, 187610.9
1119.638, 187672.0
1120.120, 187629.0
1120.602, 187573.3
1121.084, 187491.7
1121.567, 187465.6
1122.049, 187569.8
1122.531, 187782.2
1123.013, 187875.8
1123.495, 187859.5
1123.977, 187822.3
1124.459, 187777.0
1124.941, 187761.9
1125.424, 187860.7
1125.906, 187982.8
1126.388, 187948.2
1126.870, 187683.1
1127.352, 187655.8
1127.834, 187936.7
1128.316, 188218.7
1128.798, 188186.9
1129.281, 188036.9
1129.763, 187955.8
1130.245, 187958.3
1130.727, 188027.2
1131.209, 188193.7
1131.691, 188329.6
1132.173, 188384.2
1132.655, 188420.7
1133.137, 188591.0
1133.620, 188813.8
1134.102, 188912.5
1134.584, 188785.7
1135.066, 188719.3
1135.548, 188803.6
1136.030, 188918.0
1136.512, 188987.4
1136.994, 189025.5
1137.476, 189114.2
1137.959, 189242.5
1138.441, 189362.3
1138.923, 189482.6
1139.405, 189548.8
1139.887, 189509.1
1140.369, 189421.1
1140.851, 189336.0
1141.333, 189254.0
1141.816, 189284.8
1142.298, 189447.1
1142.780, 189565.4
1143.262, 189443.9
1143.744, 189282.0
1144.226, 189239.1
1144.708, 189304.2
1145.190, 189336.0
1145.672, 189325.7
1146.155, 189333.6
1146.637, 189380.7
1147.119, 189432.9
1147.601, 189416.0
1148.083, 189391.7
1148.565, 189445.9
1149.047, 189616.8
1149.529, 189776.5
1150.011, 189924.8
1150.494, 190046.2
1150.976, 190149.0
1151.458, 190207.3
1151.940, 190146.8
1152.422, 190002.4
1152.904, 189866.4
1153.386, 189762.5
1153.868, 189697.1
1154.351, 189669.6
1154.833, 189691.8
1155.315, 189798.9
1155.797, 189966.7
1156.279, 190109.1
1156.761, 190222.6
1157.243, 190333.4
1157.725, 190489.3
1158.208, 190593.3
1158.690, 190609.7
1159.172, 190552.9
1159.654, 190411.9
1160.136, 190209.0
1160.618, 190137.0
1161.100, 190247.8
1161.582, 190408.4
1162.064, 190597.3
1162.547, 190745.0
1163.029, 190793.5
1163.511, 190753.2
1163.993, 190747.5
1164.475, 190778.7
1164.957, 190783.2
1165.439, 190715.0
1165.921, 190647.9
1166.403, 190680.6
1166.886, 190736.4
1167.368, 190699.0
1167.850, 190528.4
1168.332, 190406.0
1168.814, 190331.5
1169.296, 190306.8
1169.778, 190317.2
1170.260, 190386.5
1170.743, 190576.3
1171.225, 190846.6
1171.707, 191054.0
1172.189, 191139.9
1172.671, 191296.6
1173.153, 191577.5
1173.635, 191825.1
1174.117, 191799.8
1174.599, 191657.1
1175.082, 191618.5
1175.564, 191707.1
1176.046, 191805.4
1176.528, 191896.9
1177.010, 192008.3
1177.492, 192187.4
1177.974, 192335.6
1178.456, 192183.2
1178.938, 191891.0
1179.421, 191794.5
1179.903, 192062.7
1180.385, 192240.4
1180.867, 192222.0
1181.349, 192143.4
1181.831, 192036.9
1182.313, 191940.4
1182.795, 192013.5
1183.278, 192210.6
1183.760, 192382.2
1184.242, 192419.3
1184.724, 192478.8
1185.206, 192617.7
1185.688, 192752.6
1186.170, 192797.9
1186.652, 192766.5
1187.135, 192731.0
1187.617, 192697.3
1188.099, 192681.9
1188.581, 192720.9
1189.063, 192755.9
1189.545, 192761.8
1190.027, 192757.3
1190.509, 192780.7
1190.991, 192826.3
1191.474, 192830.2
1191.956, 192780.1
1192.438, 192744.4
1192.920, 192734.3
1193.402, 192785.6
1193.884, 192945.7
1194.366, 193170.3
1194.848, 193321.8
1195.330, 193395.3
1195.813, 193336.2
1196.295, 193080.1
1196.777, 192841.4
1197.259, 192765.5
1197.741, 192796.5
1198.223, 192916.0
1198.705, 193122.5
1199.187, 193176.1
1199.670, 193080.0
1200.152, 192976.0
1200.634, 192930.3
1201.116, 192911.9
1201.598, 192923.5
1202.080, 192936.5
1202.562, 192903.0
1203.044, 192801.8
1203.526, 192759.6
1204.009, 192777.7
1204.491, 192842.4
1204.973, 193020.4
1205.455, 193170.0
1205.937, 193138.7
1206.419, 192984.7
1206.901, 192856.7
1207.383, 192728.9
1207.865, 192796.3
1208.348, 193105.4
1208.830, 193406.5
1209.312, 193409.6
1209.794, 193337.3
1210.276, 193434.8
1210.758, 193676.8
1211.240, 193734.1
1211.722, 193549.2
1212.205, 193454.9
1212.687, 193543.0
1213.169, 193666.8
1213.651, 193691.6
1214.133, 193646.5
1214.615, 193523.8
1215.097, 193313.7
1215.579, 193310.5
1216.062, 193567.9
1216.544, 193785.8
1217.026, 193852.7
1217.508, 193832.6
1217.990, 193747.0
1218.472, 193650.1
1218.954, 193616.3
1219.436, 193663.7
1219.918, 193743.8
1220.401, 193859.0
1220.883, 193976.8
1221.365, 194078.2
1221.847, 194170.3
1222.329, 194267.8
1222.811, 194363.7
1223.293, 194444.8
1223.775, 194515.2
1224.257, 194545.0
1224.740, 194513.0
1225.222, 194540.0
1225.704, 194837.1
1226.186, 195170.2
1226.668, 195200.9
1227.150, 195006.1
1227.632, 194854.4
1228.114, 194749.5
1228.597, 194760.9
1229.079, 194909.1
1229.561, 195106.8
1230.043, 195310.6
1230.525, 195476.4
1231.007, 195517.3
1231.489, 195451.0
1231.971, 195466.3
1232.453, 195631.1
1232.936, 195688.8
1233.418, 195565.3
1233.900, 195407.2
1234.382, 195379.6
1234.864, 195436.0
1235.346, 195557.2
1235.828, 195742.4
1236.310, 195794.6
1236.792, 195681.8
1237.275, 195537.2
1237.757, 195374.5
1238.239, 195270.5
1238.721, 195385.3
1239.203, 195590.9
1239.685, 195722.9
1240.167, 195739.1
1240.650, 195773.0
1241.132, 195832.2
1241.614, 195875.0
1242.096, 195888.7
1242.578, 195866.4
1243.060, 195739.2
1243.542, 195593.8
1244.024, 195568.4
1244.506, 195707.4
1244.989, 195854.3
1245.471, 196006.2
1245.953, 196173.3
1246.435, 196447.1
1246.917, 196657.2
1247.399, 196519.4
1247.881, 196205.1
1248.363, 196063.0
1248.845, 196160.9
1249.328, 196260.0
1249.810, 196355.7
1250.292, 196447.0
1250.774, 196511.3
1251.256, 196590.9
1251.738, 196743.4
1252.220, 196938.5
1252.702, 197090.6
1253.185, 197178.3
1253.667, 197329.1
1254.149, 197563.4
1254.631, 197746.6
1255.113, 197780.7
1255.595, 197698.0
1256.077, 197439.1
1256.559, 197092.8
1257.042, 196949.9
1257.524, 197035.8
1258.006, 197097.9
1258.488, 197096.6
1258.970, 197110.9
1259.452, 197225.8
1259.934, 197369.6
1260.416, 197485.9
1260.898, 197584.8
1261.380, 197721.8
1261.863, 197896.8
1262.345, 198002.5
1262.827, 198008.5
1263.309, 197980.0
1263.791, 197967.5
1264.273, 197934.3
1264.755, 197798.0
1265.237, 197619.3
1265.720, 197765.2
1266.202, 198195.5
1266.684, 198505.8
1267.166, 198572.7
1267.648, 198529.5
1268.130, 198315.4
1268.612, 198152.3
1269.094, 198189.0
1269.577, 198389.1
1270.059, 198614.5
1270.541, 198836.0
1271.023, 198919.3
1271.505, 198738.8
1271.987, 198592.6
1272.469, 198679.8
1272.951, 198783.5
1273.433, 198778.8
1273.916, 198689.3
1274.398, 198577.8
1274.880, 198468.7
1275.362, 198436.7
1275.844, 198559.3
1276.326, 198705.5
1276.808, 198912.0
1277.290, 199047.2
1277.772, 198937.3
1278.255, 198690.5
1278.737, 198668.7
1279.219, 198823.0
1279.701, 198992.0
1280.183, 199140.5
1280.665, 199236.5
1281.147, 199228.8
1281.629, 199262.8
1282.112, 199545.7
1282.594, 199918.2
1283.076, 200042.3
1283.558, 199973.0
1284.040, 199934.8
1284.522, 200005.8
1285.004, 200081.4
1285.486, 200170.4
1285.969, 200218.6
1286.451, 200125.0
1286.933, 199997.0
1287.415, 200010.5
1287.897, 200125.1
1288.379, 200129.6
1288.861, 199964.6
1289.343, 199880.8
1289.825, 199915.3
1290.307, 199999.1
1290.790, 200038.3
1291.272, 200119.8
1291.754, 200394.5
1292.236, 200787.5
1292.718, 200966.0
1293.200, 200899.1
1293.682, 200886.7
1294.164, 200970.7
1294.647, 201099.9
1295.129, 201231.8
1295.611, 201385.2
1296.093, 201597.3
1296.575, 201831.8
1297.057, 202016.3
1297.539, 202151.0
1298.021, 202201.5
1298.504, 202154.6
1298.986, 202105.1
1299.468, 202143.4
1299.950, 202171.4
1300.432, 202137.4
1300.914, 202078.7
1301.396, 202088.1
1301.878, 202149.3
1302.360, 202173.8
1302.843, 202111.3
1303.325, 202084.9
1303.807, 202202.8
1304.289, 202273.5
1304.771, 202192.0
1305.253, 202050.9
1305.735, 202058.2
##END=



