##NAMES=Afwillite
##RRUFFID=R141097
##IDEAL CHEMISTRY=Ca_3_(SiO_4_)(SiO_2_(OH)_2_)&#183;2H_2_O
##LOCALITY=Caspar quarry, Bellerberg volcano, Mayen, Eifel, Germany
##OWNER=RRUFF
##SOURCE=Ch. and H. Sch√§fer
##DESCRIPTION=Spherical aggregate of radiating colorless crystals
##STATUS=The identification of this mineral has been confirmed by single-crystal X-ray diffraction.
##URL=rruff.info/R141097
8.930109e+001, 0.000000e+000
8.978320e+001, 6.800950e+002
9.026532e+001, 6.722108e+002
9.074744e+001, 6.718083e+002
9.122955e+001, 6.818840e+002
9.171167e+001, 6.958942e+002
9.219379e+001, 7.071445e+002
9.267590e+001, 7.159240e+002
9.315802e+001, 7.205572e+002
9.364014e+001, 7.166549e+002
9.412225e+001, 7.074020e+002
9.460437e+001, 7.018353e+002
9.508649e+001, 7.040526e+002
9.556860e+001, 7.100253e+002
9.605072e+001, 7.104969e+002
9.653284e+001, 7.057629e+002
9.701495e+001, 7.000582e+002
9.749707e+001, 6.973152e+002
9.797919e+001, 6.973809e+002
9.846130e+001, 6.978936e+002
9.894342e+001, 6.980514e+002
9.942554e+001, 6.979257e+002
9.990765e+001, 6.990137e+002
1.003898e+002, 7.021433e+002
1.008719e+002, 7.049119e+002
1.013540e+002, 7.032150e+002
1.018361e+002, 6.958323e+002
1.023182e+002, 6.888253e+002
1.028004e+002, 6.844382e+002
1.032825e+002, 6.831788e+002
1.037646e+002, 6.822131e+002
1.042467e+002, 6.811515e+002
1.047288e+002, 6.805699e+002
1.052109e+002, 6.817263e+002
1.056931e+002, 6.841811e+002
1.061752e+002, 6.888216e+002
1.066573e+002, 6.963411e+002
1.071394e+002, 7.095060e+002
1.076215e+002, 7.208594e+002
1.081036e+002, 7.315184e+002
1.085858e+002, 7.408683e+002
1.090679e+002, 7.448108e+002
1.095500e+002, 7.381147e+002
1.100321e+002, 7.300463e+002
1.105142e+002, 7.255696e+002
1.109963e+002, 7.265327e+002
1.114785e+002, 7.288742e+002
1.119606e+002, 7.320450e+002
1.124427e+002, 7.360390e+002
1.129248e+002, 7.416017e+002
1.134069e+002, 7.495295e+002
1.138890e+002, 7.586426e+002
1.143712e+002, 7.680952e+002
1.148533e+002, 7.775983e+002
1.153354e+002, 7.874447e+002
1.158175e+002, 7.983947e+002
1.162996e+002, 8.108638e+002
1.167817e+002, 8.214116e+002
1.172639e+002, 8.276641e+002
1.177460e+002, 8.317394e+002
1.182281e+002, 8.363159e+002
1.187102e+002, 8.438273e+002
1.191923e+002, 8.511377e+002
1.196744e+002, 8.557941e+002
1.201566e+002, 8.569199e+002
1.206387e+002, 8.582981e+002
1.211208e+002, 8.621205e+002
1.216029e+002, 8.678437e+002
1.220850e+002, 8.743769e+002
1.225671e+002, 8.811182e+002
1.230493e+002, 8.883790e+002
1.235314e+002, 8.975242e+002
1.240135e+002, 9.105565e+002
1.244956e+002, 9.209955e+002
1.249777e+002, 9.213555e+002
1.254598e+002, 9.132629e+002
1.259420e+002, 9.028127e+002
1.264241e+002, 8.926191e+002
1.269062e+002, 8.828953e+002
1.273883e+002, 8.739465e+002
1.278704e+002, 8.655682e+002
1.283525e+002, 8.583274e+002
1.288347e+002, 8.531533e+002
1.293168e+002, 8.499988e+002
1.297989e+002, 8.483126e+002
1.302810e+002, 8.475392e+002
1.307631e+002, 8.478058e+002
1.312452e+002, 8.498144e+002
1.317274e+002, 8.546688e+002
1.322095e+002, 8.609512e+002
1.326916e+002, 8.645872e+002
1.331737e+002, 8.653486e+002
1.336558e+002, 8.652211e+002
1.341379e+002, 8.665131e+002
1.346201e+002, 8.691947e+002
1.351022e+002, 8.707848e+002
1.355843e+002, 8.703124e+002
1.360664e+002, 8.680311e+002
1.365485e+002, 8.658029e+002
1.370306e+002, 8.636635e+002
1.375128e+002, 8.614628e+002
1.379949e+002, 8.587723e+002
1.384770e+002, 8.553851e+002
1.389591e+002, 8.525275e+002
1.394412e+002, 8.512247e+002
1.399233e+002, 8.518033e+002
1.404055e+002, 8.492856e+002
1.408876e+002, 8.428105e+002
1.413697e+002, 8.340458e+002
1.418518e+002, 8.252217e+002
1.423339e+002, 8.154695e+002
1.428160e+002, 8.076581e+002
1.432982e+002, 8.031478e+002
1.437803e+002, 8.030540e+002
1.442624e+002, 8.027842e+002
1.447445e+002, 8.019800e+002
1.452266e+002, 8.011241e+002
1.457087e+002, 8.013076e+002
1.461909e+002, 8.025793e+002
1.466730e+002, 8.048376e+002
1.471551e+002, 8.082863e+002
1.476372e+002, 8.148954e+002
1.481193e+002, 8.193151e+002
1.486014e+002, 8.207096e+002
1.490836e+002, 8.198172e+002
1.495657e+002, 8.191823e+002
1.500478e+002, 8.183171e+002
1.505299e+002, 8.181143e+002
1.510120e+002, 8.189734e+002
1.514941e+002, 8.233948e+002
1.519763e+002, 8.259110e+002
1.524584e+002, 8.254568e+002
1.529405e+002, 8.226190e+002
1.534226e+002, 8.204167e+002
1.539047e+002, 8.188671e+002
1.543868e+002, 8.181330e+002
1.548690e+002, 8.183025e+002
1.553511e+002, 8.208892e+002
1.558332e+002, 8.227696e+002
1.563153e+002, 8.231799e+002
1.567974e+002, 8.222767e+002
1.572795e+002, 8.213514e+002
1.577617e+002, 8.203834e+002
1.582438e+002, 8.196633e+002
1.587259e+002, 8.194033e+002
1.592080e+002, 8.199643e+002
1.596901e+002, 8.207133e+002
1.601722e+002, 8.213937e+002
1.606544e+002, 8.220286e+002
1.611365e+002, 8.230239e+002
1.616186e+002, 8.246941e+002
1.621007e+002, 8.267087e+002
1.625828e+002, 8.288027e+002
1.630649e+002, 8.319254e+002
1.635471e+002, 8.342121e+002
1.640292e+002, 8.344461e+002
1.645113e+002, 8.325789e+002
1.649934e+002, 8.304826e+002
1.654755e+002, 8.284462e+002
1.659576e+002, 8.268595e+002
1.664398e+002, 8.262249e+002
1.669219e+002, 8.276296e+002
1.674040e+002, 8.293962e+002
1.678861e+002, 8.300229e+002
1.683682e+002, 8.293378e+002
1.688503e+002, 8.294528e+002
1.693325e+002, 8.316494e+002
1.698146e+002, 8.355721e+002
1.702967e+002, 8.405898e+002
1.707788e+002, 8.480063e+002
1.712609e+002, 8.555873e+002
1.717430e+002, 8.608821e+002
1.722252e+002, 8.635609e+002
1.727073e+002, 8.659343e+002
1.731894e+002, 8.700850e+002
1.736715e+002, 8.753771e+002
1.741536e+002, 8.802292e+002
1.746357e+002, 8.847844e+002
1.751179e+002, 8.882137e+002
1.756000e+002, 8.894694e+002
1.760821e+002, 8.883886e+002
1.765642e+002, 8.855130e+002
1.770463e+002, 8.804454e+002
1.775284e+002, 8.737646e+002
1.780106e+002, 8.673405e+002
1.784927e+002, 8.627565e+002
1.789748e+002, 8.589213e+002
1.794569e+002, 8.539704e+002
1.799390e+002, 8.475032e+002
1.804211e+002, 8.406300e+002
1.809033e+002, 8.342519e+002
1.813854e+002, 8.283900e+002
1.818675e+002, 8.232888e+002
1.823496e+002, 8.190485e+002
1.828317e+002, 8.156655e+002
1.833138e+002, 8.129515e+002
1.837960e+002, 8.109607e+002
1.842781e+002, 8.095055e+002
1.847602e+002, 8.080897e+002
1.852423e+002, 8.068067e+002
1.857244e+002, 8.065671e+002
1.862065e+002, 8.084218e+002
1.866887e+002, 8.118711e+002
1.871708e+002, 8.150361e+002
1.876529e+002, 8.176122e+002
1.881350e+002, 8.200165e+002
1.886171e+002, 8.229247e+002
1.890992e+002, 8.263486e+002
1.895814e+002, 8.298840e+002
1.900635e+002, 8.333086e+002
1.905456e+002, 8.366719e+002
1.910277e+002, 8.401074e+002
1.915098e+002, 8.438770e+002
1.919919e+002, 8.473942e+002
1.924741e+002, 8.492975e+002
1.929562e+002, 8.495497e+002
1.934383e+002, 8.489830e+002
1.939204e+002, 8.478194e+002
1.944025e+002, 8.461115e+002
1.948846e+002, 8.448069e+002
1.953668e+002, 8.440630e+002
1.958489e+002, 8.437240e+002
1.963310e+002, 8.434536e+002
1.968131e+002, 8.432501e+002
1.972952e+002, 8.431089e+002
1.977773e+002, 8.427317e+002
1.982595e+002, 8.420862e+002
1.987416e+002, 8.426552e+002
1.992237e+002, 8.448165e+002
1.997058e+002, 8.481299e+002
2.001879e+002, 8.514317e+002
2.006700e+002, 8.547538e+002
2.011522e+002, 8.580942e+002
2.016343e+002, 8.618286e+002
2.021164e+002, 8.661417e+002
2.025985e+002, 8.688844e+002
2.030806e+002, 8.694174e+002
2.035627e+002, 8.683990e+002
2.040449e+002, 8.680960e+002
2.045270e+002, 8.688745e+002
2.050091e+002, 8.691442e+002
2.054912e+002, 8.673802e+002
2.059733e+002, 8.630692e+002
2.064554e+002, 8.598495e+002
2.069376e+002, 8.583917e+002
2.074197e+002, 8.582535e+002
2.079018e+002, 8.576190e+002
2.083839e+002, 8.562223e+002
2.088660e+002, 8.550175e+002
2.093481e+002, 8.545035e+002
2.098303e+002, 8.545427e+002
2.103124e+002, 8.560069e+002
2.107945e+002, 8.594265e+002
2.112766e+002, 8.642802e+002
2.117587e+002, 8.684034e+002
2.122408e+002, 8.713525e+002
2.127230e+002, 8.745405e+002
2.132051e+002, 8.790922e+002
2.136872e+002, 8.854803e+002
2.141693e+002, 8.915915e+002
2.146514e+002, 8.970809e+002
2.151335e+002, 9.020956e+002
2.156157e+002, 9.069968e+002
2.160978e+002, 9.115515e+002
2.165799e+002, 9.164457e+002
2.170620e+002, 9.224760e+002
2.175441e+002, 9.305258e+002
2.180262e+002, 9.369916e+002
2.185084e+002, 9.408438e+002
2.189905e+002, 9.428632e+002
2.194726e+002, 9.466517e+002
2.199547e+002, 9.524213e+002
2.204368e+002, 9.596996e+002
2.209189e+002, 9.684365e+002
2.214011e+002, 9.796744e+002
2.218832e+002, 9.898139e+002
2.223653e+002, 9.983027e+002
2.228474e+002, 1.005493e+003
2.233295e+002, 1.013347e+003
2.238116e+002, 1.021850e+003
2.242938e+002, 1.030773e+003
2.247759e+002, 1.040122e+003
2.252580e+002, 1.050340e+003
2.257401e+002, 1.059742e+003
2.262222e+002, 1.068358e+003
2.267043e+002, 1.076066e+003
2.271865e+002, 1.082855e+003
2.276686e+002, 1.089038e+003
2.281507e+002, 1.093627e+003
2.286328e+002, 1.095854e+003
2.291149e+002, 1.095024e+003
2.295970e+002, 1.093484e+003
2.300792e+002, 1.091514e+003
2.305613e+002, 1.088937e+003
2.310434e+002, 1.085052e+003
2.315255e+002, 1.079566e+003
2.320076e+002, 1.073333e+003
2.324897e+002, 1.066778e+003
2.329719e+002, 1.059624e+003
2.334540e+002, 1.052850e+003
2.339361e+002, 1.046473e+003
2.344182e+002, 1.040485e+003
2.349003e+002, 1.034729e+003
2.353824e+002, 1.029104e+003
2.358646e+002, 1.023853e+003
2.363467e+002, 1.019108e+003
2.368288e+002, 1.014980e+003
2.373109e+002, 1.011135e+003
2.377930e+002, 1.007905e+003
2.382751e+002, 1.004861e+003
2.387573e+002, 1.000757e+003
2.392394e+002, 9.949698e+002
2.397215e+002, 9.889628e+002
2.402036e+002, 9.833517e+002
2.406857e+002, 9.783807e+002
2.411678e+002, 9.732747e+002
2.416500e+002, 9.683447e+002
2.421321e+002, 9.632078e+002
2.426142e+002, 9.565593e+002
2.430963e+002, 9.471133e+002
2.435784e+002, 9.381000e+002
2.440605e+002, 9.310029e+002
2.445427e+002, 9.263634e+002
2.450248e+002, 9.221550e+002
2.455069e+002, 9.183913e+002
2.459890e+002, 9.150541e+002
2.464711e+002, 9.121558e+002
2.469532e+002, 9.097086e+002
2.474354e+002, 9.076605e+002
2.479175e+002, 9.060051e+002
2.483996e+002, 9.047057e+002
2.488817e+002, 9.039493e+002
2.493638e+002, 9.039003e+002
2.498459e+002, 9.043221e+002
2.503281e+002, 9.048366e+002
2.508102e+002, 9.056810e+002
2.512923e+002, 9.062276e+002
2.517744e+002, 9.061659e+002
2.522565e+002, 9.052663e+002
2.527386e+002, 9.048536e+002
2.532208e+002, 9.054449e+002
2.537029e+002, 9.061440e+002
2.541850e+002, 9.054326e+002
2.546671e+002, 9.026183e+002
2.551492e+002, 8.997062e+002
2.556313e+002, 8.973239e+002
2.561135e+002, 8.955617e+002
2.565956e+002, 8.936466e+002
2.570777e+002, 8.914520e+002
2.575598e+002, 8.892157e+002
2.580419e+002, 8.873570e+002
2.585240e+002, 8.862262e+002
2.590062e+002, 8.846817e+002
2.594883e+002, 8.823092e+002
2.599704e+002, 8.790950e+002
2.604525e+002, 8.758943e+002
2.609346e+002, 8.728665e+002
2.614167e+002, 8.697100e+002
2.618989e+002, 8.660025e+002
2.623810e+002, 8.615398e+002
2.628631e+002, 8.572012e+002
2.633452e+002, 8.533005e+002
2.638273e+002, 8.497974e+002
2.643094e+002, 8.461697e+002
2.647916e+002, 8.423457e+002
2.652737e+002, 8.384631e+002
2.657558e+002, 8.343894e+002
2.662379e+002, 8.297764e+002
2.667200e+002, 8.263135e+002
2.672021e+002, 8.246777e+002
2.676843e+002, 8.246296e+002
2.681664e+002, 8.235095e+002
2.686485e+002, 8.207278e+002
2.691306e+002, 8.180850e+002
2.696127e+002, 8.171948e+002
2.700948e+002, 8.183293e+002
2.705770e+002, 8.199310e+002
2.710591e+002, 8.217332e+002
2.715412e+002, 8.237745e+002
2.720233e+002, 8.264362e+002
2.725054e+002, 8.298090e+002
2.729875e+002, 8.334047e+002
2.734697e+002, 8.367619e+002
2.739518e+002, 8.397982e+002
2.744339e+002, 8.433604e+002
2.749160e+002, 8.476902e+002
2.753981e+002, 8.525120e+002
2.758802e+002, 8.569695e+002
2.763624e+002, 8.608198e+002
2.768445e+002, 8.650322e+002
2.773266e+002, 8.703273e+002
2.778087e+002, 8.767794e+002
2.782908e+002, 8.834053e+002
2.787729e+002, 8.903393e+002
2.792551e+002, 8.971677e+002
2.797372e+002, 9.026114e+002
2.802193e+002, 9.065256e+002
2.807014e+002, 9.101380e+002
2.811835e+002, 9.143228e+002
2.816656e+002, 9.190613e+002
2.821478e+002, 9.228138e+002
2.826299e+002, 9.252293e+002
2.831120e+002, 9.272247e+002
2.835941e+002, 9.305977e+002
2.840762e+002, 9.354481e+002
2.845583e+002, 9.399266e+002
2.850405e+002, 9.433752e+002
2.855226e+002, 9.457975e+002
2.860047e+002, 9.470807e+002
2.864868e+002, 9.470818e+002
2.869689e+002, 9.464113e+002
2.874510e+002, 9.460930e+002
2.879332e+002, 9.460660e+002
2.884153e+002, 9.451153e+002
2.888974e+002, 9.425146e+002
2.893795e+002, 9.386063e+002
2.898616e+002, 9.347648e+002
2.903438e+002, 9.310330e+002
2.908259e+002, 9.270523e+002
2.913080e+002, 9.223265e+002
2.917901e+002, 9.169755e+002
2.922722e+002, 9.114299e+002
2.927543e+002, 9.058043e+002
2.932365e+002, 9.001461e+002
2.937186e+002, 8.945941e+002
2.942007e+002, 8.891965e+002
2.946828e+002, 8.839022e+002
2.951649e+002, 8.787061e+002
2.956470e+002, 8.736246e+002
2.961292e+002, 8.685469e+002
2.966113e+002, 8.635751e+002
2.970934e+002, 8.585378e+002
2.975755e+002, 8.528418e+002
2.980576e+002, 8.465532e+002
2.985397e+002, 8.406464e+002
2.990219e+002, 8.354482e+002
2.995040e+002, 8.311116e+002
2.999861e+002, 8.281236e+002
3.004682e+002, 8.268066e+002
3.009503e+002, 8.264090e+002
3.014324e+002, 8.266883e+002
3.019146e+002, 8.273443e+002
3.023967e+002, 8.271038e+002
3.028788e+002, 8.244089e+002
3.033609e+002, 8.205662e+002
3.038430e+002, 8.173555e+002
3.043251e+002, 8.149426e+002
3.048073e+002, 8.134590e+002
3.052894e+002, 8.137574e+002
3.057715e+002, 8.151335e+002
3.062536e+002, 8.158860e+002
3.067357e+002, 8.142083e+002
3.072178e+002, 8.119260e+002
3.077000e+002, 8.112101e+002
3.081821e+002, 8.123900e+002
3.086642e+002, 8.133906e+002
3.091463e+002, 8.121871e+002
3.096284e+002, 8.098719e+002
3.101105e+002, 8.081364e+002
3.105927e+002, 8.083288e+002
3.110748e+002, 8.089147e+002
3.115569e+002, 8.089046e+002
3.120390e+002, 8.082656e+002
3.125211e+002, 8.072490e+002
3.130032e+002, 8.049825e+002
3.134854e+002, 8.027921e+002
3.139675e+002, 8.021201e+002
3.144496e+002, 8.053407e+002
3.149317e+002, 8.084934e+002
3.154138e+002, 8.095447e+002
3.158959e+002, 8.087729e+002
3.163781e+002, 8.079047e+002
3.168602e+002, 8.073869e+002
3.173423e+002, 8.072511e+002
3.178244e+002, 8.075356e+002
3.183065e+002, 8.083671e+002
3.187886e+002, 8.094548e+002
3.192708e+002, 8.109846e+002
3.197529e+002, 8.127315e+002
3.202350e+002, 8.140711e+002
3.207171e+002, 8.137172e+002
3.211992e+002, 8.137096e+002
3.216813e+002, 8.151728e+002
3.221635e+002, 8.189012e+002
3.226456e+002, 8.225780e+002
3.231277e+002, 8.260646e+002
3.236098e+002, 8.291684e+002
3.240919e+002, 8.315826e+002
3.245740e+002, 8.329562e+002
3.250562e+002, 8.338674e+002
3.255383e+002, 8.343161e+002
3.260204e+002, 8.340790e+002
3.265025e+002, 8.343201e+002
3.269846e+002, 8.358838e+002
3.274667e+002, 8.376581e+002
3.279489e+002, 8.384766e+002
3.284310e+002, 8.372961e+002
3.289131e+002, 8.363520e+002
3.293952e+002, 8.362185e+002
3.298773e+002, 8.369394e+002
3.303594e+002, 8.369250e+002
3.308416e+002, 8.358660e+002
3.313237e+002, 8.343445e+002
3.318058e+002, 8.327497e+002
3.322879e+002, 8.310063e+002
3.327700e+002, 8.292755e+002
3.332521e+002, 8.273888e+002
3.337343e+002, 8.254742e+002
3.342164e+002, 8.242538e+002
3.346985e+002, 8.242039e+002
3.351806e+002, 8.241068e+002
3.356627e+002, 8.233038e+002
3.361448e+002, 8.216361e+002
3.366270e+002, 8.196710e+002
3.371091e+002, 8.171664e+002
3.375912e+002, 8.145868e+002
3.380733e+002, 8.129924e+002
3.385554e+002, 8.127191e+002
3.390375e+002, 8.124029e+002
3.395197e+002, 8.113867e+002
3.400018e+002, 8.096212e+002
3.404839e+002, 8.083369e+002
3.409660e+002, 8.076666e+002
3.414481e+002, 8.072380e+002
3.419302e+002, 8.065424e+002
3.424124e+002, 8.055369e+002
3.428945e+002, 8.047501e+002
3.433766e+002, 8.045017e+002
3.438587e+002, 8.045853e+002
3.443408e+002, 8.039111e+002
3.448229e+002, 8.023823e+002
3.453051e+002, 8.007590e+002
3.457872e+002, 7.997610e+002
3.462693e+002, 7.993124e+002
3.467514e+002, 7.988498e+002
3.472335e+002, 7.981757e+002
3.477156e+002, 7.975551e+002
3.481978e+002, 7.975680e+002
3.486799e+002, 7.981892e+002
3.491620e+002, 7.990287e+002
3.496441e+002, 7.999092e+002
3.501262e+002, 8.008206e+002
3.506083e+002, 8.018588e+002
3.510905e+002, 8.031810e+002
3.515726e+002, 8.041424e+002
3.520547e+002, 8.035349e+002
3.525368e+002, 8.018553e+002
3.530189e+002, 8.006108e+002
3.535010e+002, 8.008201e+002
3.539832e+002, 8.017522e+002
3.544653e+002, 8.026063e+002
3.549474e+002, 8.033537e+002
3.554295e+002, 8.039794e+002
3.559116e+002, 8.044392e+002
3.563937e+002, 8.047763e+002
3.568759e+002, 8.050522e+002
3.573580e+002, 8.052719e+002
3.578401e+002, 8.054536e+002
3.583222e+002, 8.055715e+002
3.588043e+002, 8.056450e+002
3.592864e+002, 8.057797e+002
3.597686e+002, 8.060089e+002
3.602507e+002, 8.063381e+002
3.607328e+002, 8.067303e+002
3.612149e+002, 8.069579e+002
3.616970e+002, 8.076133e+002
3.621791e+002, 8.092789e+002
3.626613e+002, 8.115462e+002
3.631434e+002, 8.134843e+002
3.636255e+002, 8.145437e+002
3.641076e+002, 8.153943e+002
3.645897e+002, 8.162596e+002
3.650718e+002, 8.170273e+002
3.655540e+002, 8.182195e+002
3.660361e+002, 8.206859e+002
3.665182e+002, 8.233710e+002
3.670003e+002, 8.250120e+002
3.674824e+002, 8.241613e+002
3.679645e+002, 8.236137e+002
3.684467e+002, 8.238759e+002
3.689288e+002, 8.249703e+002
3.694109e+002, 8.267975e+002
3.698930e+002, 8.301525e+002
3.703751e+002, 8.336560e+002
3.708572e+002, 8.363365e+002
3.713394e+002, 8.372577e+002
3.718215e+002, 8.389348e+002
3.723036e+002, 8.418582e+002
3.727857e+002, 8.456581e+002
3.732678e+002, 8.490369e+002
3.737499e+002, 8.518376e+002
3.742321e+002, 8.545248e+002
3.747142e+002, 8.571729e+002
3.751963e+002, 8.596288e+002
3.756784e+002, 8.627462e+002
3.761605e+002, 8.665721e+002
3.766426e+002, 8.709688e+002
3.771248e+002, 8.755731e+002
3.776069e+002, 8.803953e+002
3.780890e+002, 8.856332e+002
3.785711e+002, 8.914694e+002
3.790532e+002, 8.978258e+002
3.795353e+002, 9.036035e+002
3.800175e+002, 9.087375e+002
3.804996e+002, 9.139081e+002
3.809817e+002, 9.197026e+002
3.814638e+002, 9.260817e+002
3.819459e+002, 9.330631e+002
3.824280e+002, 9.407634e+002
3.829102e+002, 9.488137e+002
3.833923e+002, 9.563313e+002
3.838744e+002, 9.634032e+002
3.843565e+002, 9.703383e+002
3.848386e+002, 9.771121e+002
3.853207e+002, 9.839031e+002
3.858029e+002, 9.908652e+002
3.862850e+002, 9.980896e+002
3.867671e+002, 1.005427e+003
3.872492e+002, 1.012425e+003
3.877313e+002, 1.019459e+003
3.882134e+002, 1.027263e+003
3.886956e+002, 1.037022e+003
3.891777e+002, 1.047041e+003
3.896598e+002, 1.055738e+003
3.901419e+002, 1.063125e+003
3.906240e+002, 1.070317e+003
3.911061e+002, 1.078299e+003
3.915883e+002, 1.086406e+003
3.920704e+002, 1.093930e+003
3.925525e+002, 1.100148e+003
3.930346e+002, 1.106493e+003
3.935167e+002, 1.114436e+003
3.939988e+002, 1.123202e+003
3.944810e+002, 1.130701e+003
3.949631e+002, 1.135144e+003
3.954452e+002, 1.138967e+003
3.959273e+002, 1.143562e+003
3.964094e+002, 1.149642e+003
3.968915e+002, 1.154711e+003
3.973737e+002, 1.158247e+003
3.978558e+002, 1.160533e+003
3.983379e+002, 1.161917e+003
3.988200e+002, 1.161402e+003
3.993021e+002, 1.161046e+003
3.997842e+002, 1.161782e+003
4.002664e+002, 1.163589e+003
4.007485e+002, 1.163281e+003
4.012306e+002, 1.159322e+003
4.017127e+002, 1.154726e+003
4.021948e+002, 1.151539e+003
4.026769e+002, 1.150993e+003
4.031591e+002, 1.149095e+003
4.036412e+002, 1.145167e+003
4.041233e+002, 1.139963e+003
4.046054e+002, 1.135214e+003
4.050875e+002, 1.131058e+003
4.055696e+002, 1.127105e+003
4.060518e+002, 1.123125e+003
4.065339e+002, 1.119110e+003
4.070160e+002, 1.115697e+003
4.074981e+002, 1.112904e+003
4.079802e+002, 1.110813e+003
4.084623e+002, 1.110185e+003
4.089445e+002, 1.110973e+003
4.094266e+002, 1.110249e+003
4.099087e+002, 1.106807e+003
4.103908e+002, 1.101785e+003
4.108729e+002, 1.097613e+003
4.113550e+002, 1.094284e+003
4.118372e+002, 1.091775e+003
4.123193e+002, 1.090774e+003
4.128014e+002, 1.090497e+003
4.132835e+002, 1.089096e+003
4.137656e+002, 1.086274e+003
4.142477e+002, 1.082477e+003
4.147299e+002, 1.077764e+003
4.152120e+002, 1.072407e+003
4.156941e+002, 1.067215e+003
4.161762e+002, 1.062632e+003
4.166583e+002, 1.058231e+003
4.171404e+002, 1.053880e+003
4.176226e+002, 1.049485e+003
4.181047e+002, 1.044345e+003
4.185868e+002, 1.037609e+003
4.190689e+002, 1.030084e+003
4.195510e+002, 1.022416e+003
4.200331e+002, 1.014740e+003
4.205153e+002, 1.007069e+003
4.209974e+002, 9.996071e+002
4.214795e+002, 9.922302e+002
4.219616e+002, 9.849122e+002
4.224437e+002, 9.774222e+002
4.229258e+002, 9.701157e+002
4.234080e+002, 9.631855e+002
4.238901e+002, 9.566582e+002
4.243722e+002, 9.502888e+002
4.248543e+002, 9.440356e+002
4.253364e+002, 9.379728e+002
4.258185e+002, 9.322166e+002
4.263007e+002, 9.269456e+002
4.267828e+002, 9.216284e+002
4.272649e+002, 9.160417e+002
4.277470e+002, 9.103151e+002
4.282291e+002, 9.052054e+002
4.287112e+002, 9.010745e+002
4.291934e+002, 8.969745e+002
4.296755e+002, 8.921188e+002
4.301576e+002, 8.862127e+002
4.306397e+002, 8.811848e+002
4.311218e+002, 8.772419e+002
4.316039e+002, 8.739357e+002
4.320861e+002, 8.704304e+002
4.325682e+002, 8.666837e+002
4.330503e+002, 8.634801e+002
4.335324e+002, 8.612503e+002
4.340145e+002, 8.597217e+002
4.344966e+002, 8.579100e+002
4.349788e+002, 8.558122e+002
4.354609e+002, 8.537781e+002
4.359430e+002, 8.520139e+002
4.364251e+002, 8.505319e+002
4.369072e+002, 8.493783e+002
4.373893e+002, 8.485922e+002
4.378715e+002, 8.480416e+002
4.383536e+002, 8.476897e+002
4.388357e+002, 8.474655e+002
4.393178e+002, 8.471692e+002
4.397999e+002, 8.465510e+002
4.402820e+002, 8.458895e+002
4.407642e+002, 8.454037e+002
4.412463e+002, 8.450921e+002
4.417284e+002, 8.449681e+002
4.422105e+002, 8.447916e+002
4.426926e+002, 8.448959e+002
4.431747e+002, 8.456396e+002
4.436569e+002, 8.482075e+002
4.441390e+002, 8.500996e+002
4.446211e+002, 8.497609e+002
4.451032e+002, 8.480504e+002
4.455853e+002, 8.474682e+002
4.460674e+002, 8.495147e+002
4.465496e+002, 8.518643e+002
4.470317e+002, 8.535377e+002
4.475138e+002, 8.540623e+002
4.479959e+002, 8.555231e+002
4.484780e+002, 8.589583e+002
4.489601e+002, 8.626565e+002
4.494423e+002, 8.647606e+002
4.499244e+002, 8.637377e+002
4.504065e+002, 8.644023e+002
4.508886e+002, 8.680392e+002
4.513707e+002, 8.738592e+002
4.518528e+002, 8.786569e+002
4.523350e+002, 8.822861e+002
4.528171e+002, 8.853654e+002
4.532992e+002, 8.881682e+002
4.537813e+002, 8.906894e+002
4.542634e+002, 8.929908e+002
4.547455e+002, 8.948163e+002
4.552277e+002, 8.972491e+002
4.557098e+002, 9.024129e+002
4.561919e+002, 9.098155e+002
4.566740e+002, 9.165319e+002
4.571561e+002, 9.215128e+002
4.576382e+002, 9.251743e+002
4.581204e+002, 9.274871e+002
4.586025e+002, 9.286911e+002
4.590846e+002, 9.303383e+002
4.595667e+002, 9.348007e+002
4.600488e+002, 9.398475e+002
4.605309e+002, 9.421201e+002
4.610131e+002, 9.405563e+002
4.614952e+002, 9.390313e+002
4.619773e+002, 9.405032e+002
4.624594e+002, 9.436876e+002
4.629415e+002, 9.467312e+002
4.634236e+002, 9.486139e+002
4.639058e+002, 9.504728e+002
4.643879e+002, 9.530535e+002
4.648700e+002, 9.562068e+002
4.653521e+002, 9.587991e+002
4.658342e+002, 9.603632e+002
4.663163e+002, 9.614427e+002
4.667985e+002, 9.622447e+002
4.672806e+002, 9.621039e+002
4.677627e+002, 9.629620e+002
4.682448e+002, 9.654705e+002
4.687269e+002, 9.687100e+002
4.692090e+002, 9.715079e+002
4.696912e+002, 9.742244e+002
4.701733e+002, 9.758477e+002
4.706554e+002, 9.759020e+002
4.711375e+002, 9.745508e+002
4.716196e+002, 9.733744e+002
4.721017e+002, 9.724171e+002
4.725839e+002, 9.714978e+002
4.730660e+002, 9.705823e+002
4.735481e+002, 9.696790e+002
4.740302e+002, 9.682817e+002
4.745123e+002, 9.662984e+002
4.749944e+002, 9.639899e+002
4.754766e+002, 9.613843e+002
4.759587e+002, 9.586397e+002
4.764408e+002, 9.567106e+002
4.769229e+002, 9.560938e+002
4.774050e+002, 9.564911e+002
4.778871e+002, 9.578533e+002
4.783693e+002, 9.600598e+002
4.788514e+002, 9.619416e+002
4.793335e+002, 9.619534e+002
4.798156e+002, 9.614896e+002
4.802977e+002, 9.622036e+002
4.807798e+002, 9.644771e+002
4.812620e+002, 9.675790e+002
4.817441e+002, 9.711516e+002
4.822262e+002, 9.752510e+002
4.827083e+002, 9.799636e+002
4.831904e+002, 9.861931e+002
4.836725e+002, 9.921861e+002
4.841547e+002, 9.983162e+002
4.846368e+002, 1.004260e+003
4.851189e+002, 1.006517e+003
4.856010e+002, 1.000552e+003
4.860831e+002, 9.939033e+002
4.865652e+002, 9.904469e+002
4.870474e+002, 9.918029e+002
4.875295e+002, 9.928273e+002
4.880116e+002, 9.932698e+002
4.884937e+002, 9.935515e+002
4.889758e+002, 9.943082e+002
4.894579e+002, 9.957101e+002
4.899401e+002, 9.970527e+002
4.904222e+002, 9.980476e+002
4.909043e+002, 9.988700e+002
4.913864e+002, 1.000519e+003
4.918685e+002, 1.003114e+003
4.923506e+002, 1.005773e+003
4.928328e+002, 1.008030e+003
4.933149e+002, 1.009871e+003
4.937970e+002, 1.011098e+003
4.942791e+002, 1.011584e+003
4.947612e+002, 1.012079e+003
4.952433e+002, 1.013647e+003
4.957255e+002, 1.015928e+003
4.962076e+002, 1.018013e+003
4.966897e+002, 1.019607e+003
4.971718e+002, 1.020848e+003
4.976539e+002, 1.021414e+003
4.981360e+002, 1.021591e+003
4.986182e+002, 1.022497e+003
4.991003e+002, 1.025308e+003
4.995824e+002, 1.028659e+003
5.000645e+002, 1.031736e+003
5.005466e+002, 1.034635e+003
5.010287e+002, 1.036555e+003
5.015109e+002, 1.036065e+003
5.019930e+002, 1.035015e+003
5.024751e+002, 1.035261e+003
5.029572e+002, 1.038450e+003
5.034393e+002, 1.041252e+003
5.039214e+002, 1.043328e+003
5.044036e+002, 1.044735e+003
5.048857e+002, 1.045660e+003
5.053678e+002, 1.045724e+003
5.058499e+002, 1.045985e+003
5.063320e+002, 1.046991e+003
5.068141e+002, 1.048823e+003
5.072963e+002, 1.050110e+003
5.077784e+002, 1.050639e+003
5.082605e+002, 1.051240e+003
5.087426e+002, 1.052906e+003
5.092247e+002, 1.055566e+003
5.097068e+002, 1.058087e+003
5.101890e+002, 1.060131e+003
5.106711e+002, 1.062166e+003
5.111532e+002, 1.064829e+003
5.116353e+002, 1.068119e+003
5.121174e+002, 1.071946e+003
5.125995e+002, 1.076212e+003
5.130817e+002, 1.081040e+003
5.135638e+002, 1.086940e+003
5.140459e+002, 1.093845e+003
5.145280e+002, 1.100415e+003
5.150101e+002, 1.105167e+003
5.154922e+002, 1.109543e+003
5.159744e+002, 1.115009e+003
5.164565e+002, 1.122957e+003
5.169386e+002, 1.129968e+003
5.174207e+002, 1.133999e+003
5.179028e+002, 1.136582e+003
5.183849e+002, 1.140220e+003
5.188671e+002, 1.147188e+003
5.193492e+002, 1.153229e+003
5.198313e+002, 1.157477e+003
5.203134e+002, 1.159957e+003
5.207955e+002, 1.161487e+003
5.212776e+002, 1.161308e+003
5.217598e+002, 1.161276e+003
5.222419e+002, 1.163052e+003
5.227240e+002, 1.167630e+003
5.232061e+002, 1.168436e+003
5.236882e+002, 1.164652e+003
5.241703e+002, 1.158594e+003
5.246525e+002, 1.153212e+003
5.251346e+002, 1.148418e+003
5.256167e+002, 1.143061e+003
5.260988e+002, 1.137010e+003
5.265809e+002, 1.130127e+003
5.270630e+002, 1.121738e+003
5.275452e+002, 1.112118e+003
5.280273e+002, 1.102639e+003
5.285094e+002, 1.093616e+003
5.289915e+002, 1.085381e+003
5.294736e+002, 1.078461e+003
5.299557e+002, 1.072908e+003
5.304379e+002, 1.067442e+003
5.309200e+002, 1.061381e+003
5.314021e+002, 1.054895e+003
5.318842e+002, 1.048089e+003
5.323663e+002, 1.040525e+003
5.328484e+002, 1.033293e+003
5.333306e+002, 1.026542e+003
5.338127e+002, 1.020316e+003
5.342948e+002, 1.014919e+003
5.347769e+002, 1.011466e+003
5.352590e+002, 1.007487e+003
5.357411e+002, 1.002267e+003
5.362233e+002, 9.958788e+002
5.367054e+002, 9.897668e+002
5.371875e+002, 9.840165e+002
5.376696e+002, 9.785164e+002
5.381517e+002, 9.729944e+002
5.386339e+002, 9.674376e+002
5.391160e+002, 9.629771e+002
5.395981e+002, 9.599781e+002
5.400802e+002, 9.573110e+002
5.405623e+002, 9.531443e+002
5.410444e+002, 9.477767e+002
5.415266e+002, 9.427975e+002
5.420087e+002, 9.387058e+002
5.424908e+002, 9.352337e+002
5.429729e+002, 9.321546e+002
5.434550e+002, 9.294592e+002
5.439371e+002, 9.270215e+002
5.444193e+002, 9.249031e+002
5.449014e+002, 9.228906e+002
5.453835e+002, 9.208373e+002
5.458656e+002, 9.187312e+002
5.463477e+002, 9.164915e+002
5.468298e+002, 9.139998e+002
5.473120e+002, 9.113678e+002
5.477941e+002, 9.086783e+002
5.482762e+002, 9.048252e+002
5.487583e+002, 9.024328e+002
5.492404e+002, 9.026771e+002
5.497225e+002, 9.041853e+002
5.502047e+002, 9.046279e+002
5.506868e+002, 9.035494e+002
5.511689e+002, 9.022901e+002
5.516510e+002, 9.012793e+002
5.521331e+002, 9.003961e+002
5.526152e+002, 8.985667e+002
5.530974e+002, 8.955158e+002
5.535795e+002, 8.929443e+002
5.540616e+002, 8.924390e+002
5.545437e+002, 8.935754e+002
5.550258e+002, 8.936882e+002
5.555079e+002, 8.925309e+002
5.559901e+002, 8.912060e+002
5.564722e+002, 8.912391e+002
5.569543e+002, 8.919225e+002
5.574364e+002, 8.916039e+002
5.579185e+002, 8.889161e+002
5.584006e+002, 8.865280e+002
5.588828e+002, 8.867366e+002
5.593649e+002, 8.888404e+002
5.598470e+002, 8.912218e+002
5.603291e+002, 8.942045e+002
5.608112e+002, 8.963983e+002
5.612933e+002, 8.969014e+002
5.617755e+002, 8.956582e+002
5.622576e+002, 8.944865e+002
5.627397e+002, 8.930247e+002
5.632218e+002, 8.921923e+002
5.637039e+002, 8.925494e+002
5.641860e+002, 8.947195e+002
5.646682e+002, 8.965373e+002
5.651503e+002, 8.981599e+002
5.656324e+002, 8.992845e+002
5.661145e+002, 8.993764e+002
5.665966e+002, 8.983483e+002
5.670787e+002, 8.972247e+002
5.675609e+002, 8.961508e+002
5.680430e+002, 8.952414e+002
5.685251e+002, 8.945693e+002
5.690072e+002, 8.941999e+002
5.694893e+002, 8.946376e+002
5.699714e+002, 8.971918e+002
5.704536e+002, 9.002455e+002
5.709357e+002, 9.012618e+002
5.714178e+002, 9.002952e+002
5.718999e+002, 8.990591e+002
5.723820e+002, 8.981960e+002
5.728641e+002, 8.978140e+002
5.733463e+002, 8.981531e+002
5.738284e+002, 8.996240e+002
5.743105e+002, 9.007719e+002
5.747926e+002, 9.005485e+002
5.752747e+002, 8.999708e+002
5.757568e+002, 9.003360e+002
5.762390e+002, 9.027919e+002
5.767211e+002, 9.047854e+002
5.772032e+002, 9.058780e+002
5.776853e+002, 9.063209e+002
5.781674e+002, 9.070452e+002
5.786495e+002, 9.083401e+002
5.791317e+002, 9.090486e+002
5.796138e+002, 9.083120e+002
5.800959e+002, 9.064227e+002
5.805780e+002, 9.058984e+002
5.810601e+002, 9.068162e+002
5.815422e+002, 9.082662e+002
5.820244e+002, 9.097952e+002
5.825065e+002, 9.112577e+002
5.829886e+002, 9.121520e+002
5.834707e+002, 9.123334e+002
5.839528e+002, 9.124854e+002
5.844349e+002, 9.131072e+002
5.849171e+002, 9.141258e+002
5.853992e+002, 9.154427e+002
5.858813e+002, 9.178008e+002
5.863634e+002, 9.196012e+002
5.868455e+002, 9.197051e+002
5.873276e+002, 9.186921e+002
5.878098e+002, 9.181461e+002
5.882919e+002, 9.189876e+002
5.887740e+002, 9.196785e+002
5.892561e+002, 9.194933e+002
5.897382e+002, 9.183949e+002
5.902203e+002, 9.185449e+002
5.907025e+002, 9.206048e+002
5.911846e+002, 9.227151e+002
5.916667e+002, 9.233851e+002
5.921488e+002, 9.224453e+002
5.926309e+002, 9.228478e+002
5.931130e+002, 9.249836e+002
5.935952e+002, 9.274153e+002
5.940773e+002, 9.281600e+002
5.945594e+002, 9.276649e+002
5.950415e+002, 9.276565e+002
5.955236e+002, 9.287142e+002
5.960057e+002, 9.301865e+002
5.964879e+002, 9.314489e+002
5.969700e+002, 9.325580e+002
5.974521e+002, 9.336259e+002
5.979342e+002, 9.351824e+002
5.984163e+002, 9.362885e+002
5.988984e+002, 9.361283e+002
5.993806e+002, 9.348483e+002
5.998627e+002, 9.338777e+002
6.003448e+002, 9.330388e+002
6.008269e+002, 9.330240e+002
6.013090e+002, 9.343516e+002
6.017911e+002, 9.375656e+002
6.022733e+002, 9.399847e+002
6.027554e+002, 9.415638e+002
6.032375e+002, 9.424059e+002
6.037196e+002, 9.421161e+002
6.042017e+002, 9.404319e+002
6.046838e+002, 9.406801e+002
6.051660e+002, 9.438457e+002
6.056481e+002, 9.477256e+002
6.061302e+002, 9.479822e+002
6.066123e+002, 9.455105e+002
6.070944e+002, 9.445241e+002
6.075765e+002, 9.474960e+002
6.080587e+002, 9.517984e+002
6.085408e+002, 9.546180e+002
6.090229e+002, 9.561965e+002
6.095050e+002, 9.575157e+002
6.099871e+002, 9.590433e+002
6.104692e+002, 9.604602e+002
6.109514e+002, 9.614780e+002
6.114335e+002, 9.620555e+002
6.119156e+002, 9.627673e+002
6.123977e+002, 9.637702e+002
6.128798e+002, 9.649061e+002
6.133619e+002, 9.661285e+002
6.138441e+002, 9.677694e+002
6.143262e+002, 9.686013e+002
6.148083e+002, 9.680879e+002
6.152904e+002, 9.675124e+002
6.157725e+002, 9.689431e+002
6.162546e+002, 9.725753e+002
6.167368e+002, 9.748145e+002
6.172189e+002, 9.746216e+002
6.177010e+002, 9.733729e+002
6.181831e+002, 9.736708e+002
6.186652e+002, 9.751459e+002
6.191473e+002, 9.763127e+002
6.196295e+002, 9.753195e+002
6.201116e+002, 9.744344e+002
6.205937e+002, 9.767926e+002
6.210758e+002, 9.816588e+002
6.215579e+002, 9.854216e+002
6.220400e+002, 9.853632e+002
6.225222e+002, 9.843420e+002
6.230043e+002, 9.837452e+002
6.234864e+002, 9.836270e+002
6.239685e+002, 9.844154e+002
6.244506e+002, 9.872152e+002
6.249327e+002, 9.900305e+002
6.254149e+002, 9.915276e+002
6.258970e+002, 9.913127e+002
6.263791e+002, 9.908887e+002
6.268612e+002, 9.902503e+002
6.273433e+002, 9.895035e+002
6.278254e+002, 9.885740e+002
6.283076e+002, 9.875018e+002
6.287897e+002, 9.872868e+002
6.292718e+002, 9.885216e+002
6.297539e+002, 9.901752e+002
6.302360e+002, 9.902184e+002
6.307181e+002, 9.892180e+002
6.312003e+002, 9.889680e+002
6.316824e+002, 9.915492e+002
6.321645e+002, 9.943124e+002
6.326466e+002, 9.950995e+002
6.331287e+002, 9.941204e+002
6.336108e+002, 9.929359e+002
6.340930e+002, 9.919984e+002
6.345751e+002, 9.910563e+002
6.350572e+002, 9.898021e+002
6.355393e+002, 9.879521e+002
6.360214e+002, 9.872267e+002
6.365035e+002, 9.881234e+002
6.369857e+002, 9.895313e+002
6.374678e+002, 9.907038e+002
6.379499e+002, 9.916552e+002
6.384320e+002, 9.921520e+002
6.389141e+002, 9.920693e+002
6.393962e+002, 9.918186e+002
6.398784e+002, 9.922548e+002
6.403605e+002, 9.930859e+002
6.408426e+002, 9.928504e+002
6.413247e+002, 9.904471e+002
6.418068e+002, 9.881202e+002
6.422889e+002, 9.888809e+002
6.427711e+002, 9.915826e+002
6.432532e+002, 9.936339e+002
6.437353e+002, 9.933592e+002
6.442174e+002, 9.926660e+002
6.446995e+002, 9.922921e+002
6.451816e+002, 9.922493e+002
6.456638e+002, 9.924146e+002
6.461459e+002, 9.930662e+002
6.466280e+002, 9.936136e+002
6.471101e+002, 9.938084e+002
6.475922e+002, 9.936158e+002
6.480743e+002, 9.935385e+002
6.485565e+002, 9.934952e+002
6.490386e+002, 9.937522e+002
6.495207e+002, 9.947859e+002
6.500028e+002, 9.964372e+002
6.504849e+002, 9.972550e+002
6.509670e+002, 9.970388e+002
6.514492e+002, 9.965671e+002
6.519313e+002, 9.965255e+002
6.524134e+002, 9.968456e+002
6.528955e+002, 9.974668e+002
6.533776e+002, 9.985967e+002
6.538597e+002, 9.995504e+002
6.543419e+002, 9.996324e+002
6.548240e+002, 9.993405e+002
6.553061e+002, 9.994336e+002
6.557882e+002, 1.001190e+003
6.562703e+002, 1.002147e+003
6.567524e+002, 1.000969e+003
6.572346e+002, 9.986218e+002
6.577167e+002, 9.980897e+002
6.581988e+002, 1.000253e+003
6.586809e+002, 1.002267e+003
6.591630e+002, 1.003136e+003
6.596451e+002, 1.003051e+003
6.601273e+002, 1.003068e+003
6.606094e+002, 1.003178e+003
6.610915e+002, 1.003420e+003
6.615736e+002, 1.003936e+003
6.620557e+002, 1.004552e+003
6.625378e+002, 1.004767e+003
6.630200e+002, 1.004554e+003
6.635021e+002, 1.004685e+003
6.639842e+002, 1.005921e+003
6.644663e+002, 1.007632e+003
6.649484e+002, 1.009239e+003
6.654305e+002, 1.010643e+003
6.659127e+002, 1.011974e+003
6.663948e+002, 1.013582e+003
6.668769e+002, 1.014963e+003
6.673590e+002, 1.015555e+003
6.678411e+002, 1.014640e+003
6.683232e+002, 1.014544e+003
6.688054e+002, 1.015837e+003
6.692875e+002, 1.017596e+003
6.697696e+002, 1.017867e+003
6.702517e+002, 1.016604e+003
6.707338e+002, 1.016275e+003
6.712159e+002, 1.018010e+003
6.716981e+002, 1.020516e+003
6.721802e+002, 1.021467e+003
6.726623e+002, 1.021205e+003
6.731444e+002, 1.020996e+003
6.736265e+002, 1.021986e+003
6.741086e+002, 1.022881e+003
6.745908e+002, 1.022460e+003
6.750729e+002, 1.020938e+003
6.755550e+002, 1.019798e+003
6.760371e+002, 1.019644e+003
6.765192e+002, 1.019872e+003
6.770013e+002, 1.020358e+003
6.774835e+002, 1.021168e+003
6.779656e+002, 1.021497e+003
6.784477e+002, 1.021189e+003
6.789298e+002, 1.020695e+003
6.794119e+002, 1.019997e+003
6.798940e+002, 1.019077e+003
6.803762e+002, 1.020024e+003
6.808583e+002, 1.023214e+003
6.813404e+002, 1.026297e+003
6.818225e+002, 1.026196e+003
6.823046e+002, 1.024309e+003
6.827867e+002, 1.023777e+003
6.832689e+002, 1.025701e+003
6.837510e+002, 1.027483e+003
6.842331e+002, 1.026310e+003
6.847152e+002, 1.024194e+003
6.851973e+002, 1.023722e+003
6.856794e+002, 1.027725e+003
6.861616e+002, 1.030872e+003
6.866437e+002, 1.032040e+003
6.871258e+002, 1.031828e+003
6.876079e+002, 1.030946e+003
6.880900e+002, 1.028637e+003
6.885721e+002, 1.027759e+003
6.890543e+002, 1.029501e+003
6.895364e+002, 1.032786e+003
6.900185e+002, 1.034324e+003
6.905006e+002, 1.034157e+003
6.909827e+002, 1.034013e+003
6.914648e+002, 1.035115e+003
6.919470e+002, 1.036586e+003
6.924291e+002, 1.036922e+003
6.929112e+002, 1.036314e+003
6.933933e+002, 1.035836e+003
6.938754e+002, 1.036563e+003
6.943575e+002, 1.037248e+003
6.948397e+002, 1.036618e+003
6.953218e+002, 1.034395e+003
6.958039e+002, 1.033825e+003
6.962860e+002, 1.037074e+003
6.967681e+002, 1.040434e+003
6.972502e+002, 1.041909e+003
6.977324e+002, 1.040920e+003
6.982145e+002, 1.041079e+003
6.986966e+002, 1.042739e+003
6.991787e+002, 1.044570e+003
6.996608e+002, 1.045167e+003
7.001429e+002, 1.044753e+003
7.006251e+002, 1.044321e+003
7.011072e+002, 1.043909e+003
7.015893e+002, 1.043968e+003
7.020714e+002, 1.045378e+003
7.025535e+002, 1.047397e+003
7.030356e+002, 1.048946e+003
7.035178e+002, 1.049555e+003
7.039999e+002, 1.049876e+003
7.044820e+002, 1.049799e+003
7.049641e+002, 1.049671e+003
7.054462e+002, 1.050069e+003
7.059283e+002, 1.051512e+003
7.064105e+002, 1.052683e+003
7.068926e+002, 1.053374e+003
7.073747e+002, 1.053733e+003
7.078568e+002, 1.053954e+003
7.083389e+002, 1.053990e+003
7.088210e+002, 1.054667e+003
7.093032e+002, 1.056672e+003
7.097853e+002, 1.059120e+003
7.102674e+002, 1.060085e+003
7.107495e+002, 1.059837e+003
7.112316e+002, 1.059462e+003
7.117137e+002, 1.059109e+003
7.121959e+002, 1.059213e+003
7.126780e+002, 1.060482e+003
7.131601e+002, 1.062706e+003
7.136422e+002, 1.064324e+003
7.141243e+002, 1.064295e+003
7.146064e+002, 1.064160e+003
7.150886e+002, 1.064450e+003
7.155707e+002, 1.065168e+003
7.160528e+002, 1.066500e+003
7.165349e+002, 1.068795e+003
7.170170e+002, 1.070860e+003
7.174991e+002, 1.071874e+003
7.179813e+002, 1.071944e+003
7.184634e+002, 1.071805e+003
7.189455e+002, 1.071454e+003
7.194276e+002, 1.071355e+003
7.199097e+002, 1.072225e+003
7.203918e+002, 1.073453e+003
7.208740e+002, 1.073956e+003
7.213561e+002, 1.073340e+003
7.218382e+002, 1.073517e+003
7.223203e+002, 1.076541e+003
7.228024e+002, 1.080082e+003
7.232845e+002, 1.082041e+003
7.237667e+002, 1.080655e+003
7.242488e+002, 1.080532e+003
7.247309e+002, 1.082439e+003
7.252130e+002, 1.084777e+003
7.256951e+002, 1.085520e+003
7.261772e+002, 1.084537e+003
7.266594e+002, 1.083902e+003
7.271415e+002, 1.083925e+003
7.276236e+002, 1.084434e+003
7.281057e+002, 1.085265e+003
7.285878e+002, 1.086406e+003
7.290699e+002, 1.087877e+003
7.295521e+002, 1.090019e+003
7.300342e+002, 1.091973e+003
7.305163e+002, 1.092987e+003
7.309984e+002, 1.093453e+003
7.314805e+002, 1.094068e+003
7.319626e+002, 1.095073e+003
7.324448e+002, 1.096180e+003
7.329269e+002, 1.097468e+003
7.334090e+002, 1.098796e+003
7.338911e+002, 1.099748e+003
7.343732e+002, 1.100284e+003
7.348553e+002, 1.100460e+003
7.353375e+002, 1.099804e+003
7.358196e+002, 1.099185e+003
7.363017e+002, 1.101285e+003
7.367838e+002, 1.105736e+003
7.372659e+002, 1.110311e+003
7.377480e+002, 1.114342e+003
7.382302e+002, 1.117522e+003
7.387123e+002, 1.119684e+003
7.391944e+002, 1.120799e+003
7.396765e+002, 1.120779e+003
7.401586e+002, 1.117383e+003
7.406407e+002, 1.114925e+003
7.411229e+002, 1.115978e+003
7.416050e+002, 1.120333e+003
7.420871e+002, 1.123170e+003
7.425692e+002, 1.123733e+003
7.430513e+002, 1.124617e+003
7.435334e+002, 1.127726e+003
7.440156e+002, 1.132621e+003
7.444977e+002, 1.135218e+003
7.449798e+002, 1.135536e+003
7.454619e+002, 1.135387e+003
7.459440e+002, 1.135490e+003
7.464261e+002, 1.136280e+003
7.469083e+002, 1.138790e+003
7.473904e+002, 1.143133e+003
7.478725e+002, 1.146863e+003
7.483546e+002, 1.148038e+003
7.488367e+002, 1.148731e+003
7.493188e+002, 1.150405e+003
7.498010e+002, 1.153494e+003
7.502831e+002, 1.156114e+003
7.507652e+002, 1.158046e+003
7.512473e+002, 1.159820e+003
7.517294e+002, 1.161826e+003
7.522115e+002, 1.164047e+003
7.526937e+002, 1.166559e+003
7.531758e+002, 1.169405e+003
7.536579e+002, 1.172401e+003
7.541400e+002, 1.175728e+003
7.546221e+002, 1.178982e+003
7.551042e+002, 1.181336e+003
7.555864e+002, 1.182309e+003
7.560685e+002, 1.183690e+003
7.565506e+002, 1.186528e+003
7.570327e+002, 1.190214e+003
7.575148e+002, 1.194071e+003
7.579969e+002, 1.198661e+003
7.584791e+002, 1.202475e+003
7.589612e+002, 1.205088e+003
7.594433e+002, 1.207386e+003
7.599254e+002, 1.210336e+003
7.604075e+002, 1.213963e+003
7.608896e+002, 1.217968e+003
7.613718e+002, 1.222278e+003
7.618539e+002, 1.226998e+003
7.623360e+002, 1.232231e+003
7.628181e+002, 1.237980e+003
7.633002e+002, 1.244372e+003
7.637823e+002, 1.252208e+003
7.642645e+002, 1.259413e+003
7.647466e+002, 1.264239e+003
7.652287e+002, 1.267878e+003
7.657108e+002, 1.272275e+003
7.661929e+002, 1.278226e+003
7.666750e+002, 1.284174e+003
7.671572e+002, 1.289589e+003
7.676393e+002, 1.295229e+003
7.681214e+002, 1.302971e+003
7.686035e+002, 1.312999e+003
7.690856e+002, 1.322521e+003
7.695677e+002, 1.330893e+003
7.700499e+002, 1.338453e+003
7.705320e+002, 1.345046e+003
7.710141e+002, 1.351228e+003
7.714962e+002, 1.358445e+003
7.719783e+002, 1.368249e+003
7.724604e+002, 1.378273e+003
7.729426e+002, 1.386773e+003
7.734247e+002, 1.394549e+003
7.739068e+002, 1.403416e+003
7.743889e+002, 1.414337e+003
7.748710e+002, 1.425357e+003
7.753531e+002, 1.436460e+003
7.758353e+002, 1.447318e+003
7.763174e+002, 1.456784e+003
7.767995e+002, 1.464727e+003
7.772816e+002, 1.472700e+003
7.777637e+002, 1.481225e+003
7.782458e+002, 1.490161e+003
7.787280e+002, 1.499780e+003
7.792101e+002, 1.509729e+003
7.796922e+002, 1.518668e+003
7.801743e+002, 1.525252e+003
7.806564e+002, 1.531475e+003
7.811385e+002, 1.538444e+003
7.816207e+002, 1.546016e+003
7.821028e+002, 1.553341e+003
7.825849e+002, 1.561140e+003
7.830670e+002, 1.567529e+003
7.835491e+002, 1.571690e+003
7.840313e+002, 1.574123e+003
7.845134e+002, 1.577152e+003
7.849955e+002, 1.580811e+003
7.854776e+002, 1.583359e+003
7.859597e+002, 1.583531e+003
7.864418e+002, 1.582442e+003
7.869240e+002, 1.582125e+003
7.874061e+002, 1.582167e+003
7.878882e+002, 1.581037e+003
7.883703e+002, 1.577288e+003
7.888524e+002, 1.572861e+003
7.893345e+002, 1.568910e+003
7.898167e+002, 1.565250e+003
7.902988e+002, 1.560465e+003
7.907809e+002, 1.553906e+003
7.912630e+002, 1.547358e+003
7.917451e+002, 1.541271e+003
7.922272e+002, 1.535717e+003
7.927094e+002, 1.530549e+003
7.931915e+002, 1.525806e+003
7.936736e+002, 1.521216e+003
7.941557e+002, 1.516537e+003
7.946378e+002, 1.512028e+003
7.951199e+002, 1.507991e+003
7.956021e+002, 1.504488e+003
7.960842e+002, 1.501533e+003
7.965663e+002, 1.499364e+003
7.970484e+002, 1.497560e+003
7.975305e+002, 1.495559e+003
7.980126e+002, 1.493556e+003
7.984948e+002, 1.493570e+003
7.989769e+002, 1.496277e+003
7.994590e+002, 1.499324e+003
7.999411e+002, 1.501293e+003
8.004232e+002, 1.502935e+003
8.009053e+002, 1.507655e+003
8.013875e+002, 1.515158e+003
8.018696e+002, 1.522436e+003
8.023517e+002, 1.526898e+003
8.028338e+002, 1.530932e+003
8.033159e+002, 1.536575e+003
8.037980e+002, 1.543834e+003
8.042802e+002, 1.552271e+003
8.047623e+002, 1.562824e+003
8.052444e+002, 1.573386e+003
8.057265e+002, 1.582977e+003
8.062086e+002, 1.591740e+003
8.066907e+002, 1.600881e+003
8.071729e+002, 1.610203e+003
8.076550e+002, 1.620837e+003
8.081371e+002, 1.633941e+003
8.086192e+002, 1.648569e+003
8.091013e+002, 1.662435e+003
8.095834e+002, 1.675582e+003
8.100656e+002, 1.688247e+003
8.105477e+002, 1.700303e+003
8.110298e+002, 1.712176e+003
8.115119e+002, 1.723917e+003
8.119940e+002, 1.735709e+003
8.124761e+002, 1.748748e+003
8.129583e+002, 1.765807e+003
8.134404e+002, 1.780828e+003
8.139225e+002, 1.791287e+003
8.144046e+002, 1.798063e+003
8.148867e+002, 1.807524e+003
8.153688e+002, 1.819788e+003
8.158510e+002, 1.830853e+003
8.163331e+002, 1.837866e+003
8.168152e+002, 1.842818e+003
8.172973e+002, 1.849441e+003
8.177794e+002, 1.857024e+003
8.182615e+002, 1.862692e+003
8.187437e+002, 1.865222e+003
8.192258e+002, 1.865165e+003
8.197079e+002, 1.861450e+003
8.201900e+002, 1.854745e+003
8.206721e+002, 1.850379e+003
8.211542e+002, 1.850266e+003
8.216364e+002, 1.848219e+003
8.221185e+002, 1.842161e+003
8.226006e+002, 1.832733e+003
8.230827e+002, 1.821004e+003
8.235648e+002, 1.807273e+003
8.240469e+002, 1.793061e+003
8.245291e+002, 1.778479e+003
8.250112e+002, 1.764408e+003
8.254933e+002, 1.751767e+003
8.259754e+002, 1.740254e+003
8.264575e+002, 1.728694e+003
8.269396e+002, 1.715890e+003
8.274218e+002, 1.704009e+003
8.279039e+002, 1.693737e+003
8.283860e+002, 1.684779e+003
8.288681e+002, 1.676573e+003
8.293502e+002, 1.669107e+003
8.298323e+002, 1.662010e+003
8.303145e+002, 1.655107e+003
8.307966e+002, 1.648527e+003
8.312787e+002, 1.642311e+003
8.317608e+002, 1.636567e+003
8.322429e+002, 1.631848e+003
8.327250e+002, 1.628083e+003
8.332072e+002, 1.625649e+003
8.336893e+002, 1.625097e+003
8.341714e+002, 1.626020e+003
8.346535e+002, 1.627390e+003
8.351356e+002, 1.629133e+003
8.356177e+002, 1.631251e+003
8.360999e+002, 1.633783e+003
8.365820e+002, 1.636698e+003
8.370641e+002, 1.639627e+003
8.375462e+002, 1.642685e+003
8.380283e+002, 1.647293e+003
8.385104e+002, 1.654365e+003
8.389926e+002, 1.662308e+003
8.394747e+002, 1.668746e+003
8.399568e+002, 1.674893e+003
8.404389e+002, 1.682980e+003
8.409210e+002, 1.695470e+003
8.414031e+002, 1.707828e+003
8.418853e+002, 1.718084e+003
8.423674e+002, 1.728039e+003
8.428495e+002, 1.740513e+003
8.433316e+002, 1.756164e+003
8.438137e+002, 1.770673e+003
8.442958e+002, 1.782830e+003
8.447780e+002, 1.794933e+003
8.452601e+002, 1.810626e+003
8.457422e+002, 1.828858e+003
8.462243e+002, 1.847634e+003
8.467064e+002, 1.866844e+003
8.471885e+002, 1.885378e+003
8.476707e+002, 1.902233e+003
8.481528e+002, 1.918239e+003
8.486349e+002, 1.934364e+003
8.491170e+002, 1.949707e+003
8.495991e+002, 1.967024e+003
8.500812e+002, 1.987420e+003
8.505634e+002, 2.008236e+003
8.510455e+002, 2.026782e+003
8.515276e+002, 2.043260e+003
8.520097e+002, 2.058792e+003
8.524918e+002, 2.073454e+003
8.529739e+002, 2.088274e+003
8.534561e+002, 2.105481e+003
8.539382e+002, 2.122736e+003
8.544203e+002, 2.137033e+003
8.549024e+002, 2.146923e+003
8.553845e+002, 2.157076e+003
8.558666e+002, 2.170165e+003
8.563488e+002, 2.182334e+003
8.568309e+002, 2.191027e+003
8.573130e+002, 2.196266e+003
8.577951e+002, 2.197858e+003
8.582772e+002, 2.195433e+003
8.587593e+002, 2.191563e+003
8.592415e+002, 2.188649e+003
8.597236e+002, 2.185725e+003
8.602057e+002, 2.181125e+003
8.606878e+002, 2.174718e+003
8.611699e+002, 2.167167e+003
8.616520e+002, 2.158686e+003
8.621342e+002, 2.149218e+003
8.626163e+002, 2.138565e+003
8.630984e+002, 2.126886e+003
8.635805e+002, 2.114023e+003
8.640626e+002, 2.099676e+003
8.645447e+002, 2.085386e+003
8.650269e+002, 2.072663e+003
8.655090e+002, 2.060608e+003
8.659911e+002, 2.046067e+003
8.664732e+002, 2.029422e+003
8.669553e+002, 2.012661e+003
8.674374e+002, 1.997012e+003
8.679196e+002, 1.981813e+003
8.684017e+002, 1.967042e+003
8.688838e+002, 1.952629e+003
8.693659e+002, 1.938209e+003
8.698480e+002, 1.923994e+003
8.703301e+002, 1.909404e+003
8.708123e+002, 1.893762e+003
8.712944e+002, 1.877672e+003
8.717765e+002, 1.863077e+003
8.722586e+002, 1.850034e+003
8.727407e+002, 1.837430e+003
8.732228e+002, 1.825365e+003
8.737050e+002, 1.813054e+003
8.741871e+002, 1.798979e+003
8.746692e+002, 1.784171e+003
8.751513e+002, 1.770656e+003
8.756334e+002, 1.760944e+003
8.761155e+002, 1.750407e+003
8.765977e+002, 1.737571e+003
8.770798e+002, 1.723859e+003
8.775619e+002, 1.711933e+003
8.780440e+002, 1.701924e+003
8.785261e+002, 1.692020e+003
8.790082e+002, 1.681688e+003
8.794904e+002, 1.671440e+003
8.799725e+002, 1.662303e+003
8.804546e+002, 1.653420e+003
8.809367e+002, 1.643117e+003
8.814188e+002, 1.630018e+003
8.819009e+002, 1.617470e+003
8.823831e+002, 1.606509e+003
8.828652e+002, 1.596687e+003
8.833473e+002, 1.587977e+003
8.838294e+002, 1.580919e+003
8.843115e+002, 1.572461e+003
8.847936e+002, 1.562318e+003
8.852758e+002, 1.551509e+003
8.857579e+002, 1.540385e+003
8.862400e+002, 1.529531e+003
8.867221e+002, 1.520402e+003
8.872042e+002, 1.513280e+003
8.876863e+002, 1.506790e+003
8.881685e+002, 1.500722e+003
8.886506e+002, 1.494484e+003
8.891327e+002, 1.487530e+003
8.896148e+002, 1.479670e+003
8.900969e+002, 1.472172e+003
8.905790e+002, 1.465174e+003
8.910612e+002, 1.457901e+003
8.915433e+002, 1.449755e+003
8.920254e+002, 1.440919e+003
8.925075e+002, 1.431884e+003
8.929896e+002, 1.422729e+003
8.934717e+002, 1.414535e+003
8.939539e+002, 1.408455e+003
8.944360e+002, 1.402982e+003
8.949181e+002, 1.397357e+003
8.954002e+002, 1.391475e+003
8.958823e+002, 1.385113e+003
8.963644e+002, 1.377354e+003
8.968466e+002, 1.370905e+003
8.973287e+002, 1.366826e+003
8.978108e+002, 1.364234e+003
8.982929e+002, 1.360249e+003
8.987750e+002, 1.355276e+003
8.992571e+002, 1.351799e+003
8.997393e+002, 1.351701e+003
9.002214e+002, 1.352052e+003
9.007035e+002, 1.350541e+003
9.011856e+002, 1.347760e+003
9.016677e+002, 1.344739e+003
9.021498e+002, 1.340256e+003
9.026320e+002, 1.337617e+003
9.031141e+002, 1.337600e+003
9.035962e+002, 1.338712e+003
9.040783e+002, 1.338394e+003
9.045604e+002, 1.336910e+003
9.050425e+002, 1.338748e+003
9.055247e+002, 1.345197e+003
9.060068e+002, 1.350953e+003
9.064889e+002, 1.349976e+003
9.069710e+002, 1.346083e+003
9.074531e+002, 1.343513e+003
9.079352e+002, 1.343345e+003
9.084174e+002, 1.343075e+003
9.088995e+002, 1.342462e+003
9.093816e+002, 1.341534e+003
9.098637e+002, 1.340175e+003
9.103458e+002, 1.338374e+003
9.108279e+002, 1.337296e+003
9.113101e+002, 1.336958e+003
9.117922e+002, 1.336279e+003
9.122743e+002, 1.334078e+003
9.127564e+002, 1.331372e+003
9.132385e+002, 1.328814e+003
9.137206e+002, 1.326601e+003
9.142028e+002, 1.325772e+003
9.146849e+002, 1.328887e+003
9.151670e+002, 1.330790e+003
9.156491e+002, 1.329544e+003
9.161312e+002, 1.326045e+003
9.166133e+002, 1.323839e+003
9.170955e+002, 1.322955e+003
9.175776e+002, 1.321670e+003
9.180597e+002, 1.318773e+003
9.185418e+002, 1.316042e+003
9.190239e+002, 1.316328e+003
9.195060e+002, 1.318308e+003
9.199882e+002, 1.319408e+003
9.204703e+002, 1.317604e+003
9.209524e+002, 1.316425e+003
9.214345e+002, 1.317251e+003
9.219166e+002, 1.318282e+003
9.223987e+002, 1.317156e+003
9.228809e+002, 1.313718e+003
9.233630e+002, 1.309854e+003
9.238451e+002, 1.305533e+003
9.243272e+002, 1.302040e+003
9.248093e+002, 1.301622e+003
9.252914e+002, 1.302484e+003
9.257736e+002, 1.302333e+003
9.262557e+002, 1.300761e+003
9.267378e+002, 1.298638e+003
9.272199e+002, 1.295831e+003
9.277020e+002, 1.292936e+003
9.281841e+002, 1.290084e+003
9.286663e+002, 1.287302e+003
9.291484e+002, 1.285753e+003
9.296305e+002, 1.285487e+003
9.301126e+002, 1.285195e+003
9.305947e+002, 1.284194e+003
9.310768e+002, 1.282573e+003
9.315590e+002, 1.279779e+003
9.320411e+002, 1.276286e+003
9.325232e+002, 1.274168e+003
9.330053e+002, 1.276172e+003
9.334874e+002, 1.277035e+003
9.339695e+002, 1.274920e+003
9.344517e+002, 1.271084e+003
9.349338e+002, 1.268515e+003
9.354159e+002, 1.267259e+003
9.358980e+002, 1.266367e+003
9.363801e+002, 1.265770e+003
9.368622e+002, 1.265051e+003
9.373444e+002, 1.263700e+003
9.378265e+002, 1.261933e+003
9.383086e+002, 1.259955e+003
9.387907e+002, 1.257180e+003
9.392728e+002, 1.255550e+003
9.397549e+002, 1.256052e+003
9.402371e+002, 1.257090e+003
9.407192e+002, 1.257318e+003
9.412013e+002, 1.256690e+003
9.416834e+002, 1.256517e+003
9.421655e+002, 1.256853e+003
9.426476e+002, 1.257250e+003
9.431298e+002, 1.257359e+003
9.436119e+002, 1.257301e+003
9.440940e+002, 1.257087e+003
9.445761e+002, 1.256740e+003
9.450582e+002, 1.256755e+003
9.455403e+002, 1.257915e+003
9.460225e+002, 1.258567e+003
9.465046e+002, 1.257727e+003
9.469867e+002, 1.256091e+003
9.474688e+002, 1.256887e+003
9.479509e+002, 1.259953e+003
9.484330e+002, 1.262882e+003
9.489152e+002, 1.264517e+003
9.493973e+002, 1.265777e+003
9.498794e+002, 1.267919e+003
9.503615e+002, 1.270234e+003
9.508436e+002, 1.271471e+003
9.513257e+002, 1.268419e+003
9.518079e+002, 1.268702e+003
9.522900e+002, 1.274089e+003
9.527721e+002, 1.281069e+003
9.532542e+002, 1.285651e+003
9.537363e+002, 1.288012e+003
9.542184e+002, 1.289085e+003
9.547006e+002, 1.288860e+003
9.551827e+002, 1.288921e+003
9.556648e+002, 1.290259e+003
9.561469e+002, 1.292689e+003
9.566290e+002, 1.296470e+003
9.571111e+002, 1.301904e+003
9.575933e+002, 1.305977e+003
9.580754e+002, 1.308170e+003
9.585575e+002, 1.309829e+003
9.590396e+002, 1.311157e+003
9.595217e+002, 1.312576e+003
9.600038e+002, 1.316307e+003
9.604860e+002, 1.321808e+003
9.609681e+002, 1.326263e+003
9.614502e+002, 1.326923e+003
9.619323e+002, 1.327309e+003
9.624144e+002, 1.329995e+003
9.628965e+002, 1.333775e+003
9.633787e+002, 1.335985e+003
9.638608e+002, 1.336527e+003
9.643429e+002, 1.335357e+003
9.648250e+002, 1.331985e+003
9.653071e+002, 1.328022e+003
9.657892e+002, 1.326056e+003
9.662714e+002, 1.325232e+003
9.667535e+002, 1.323519e+003
9.672356e+002, 1.320624e+003
9.677177e+002, 1.316531e+003
9.681998e+002, 1.310109e+003
9.686819e+002, 1.303407e+003
9.691641e+002, 1.298173e+003
9.696462e+002, 1.294531e+003
9.701283e+002, 1.289414e+003
9.706104e+002, 1.282311e+003
9.710925e+002, 1.276228e+003
9.715746e+002, 1.273855e+003
9.720568e+002, 1.273034e+003
9.725389e+002, 1.269808e+003
9.730210e+002, 1.264684e+003
9.735031e+002, 1.259435e+003
9.739852e+002, 1.254185e+003
9.744673e+002, 1.249682e+003
9.749495e+002, 1.246460e+003
9.754316e+002, 1.243908e+003
9.759137e+002, 1.241029e+003
9.763958e+002, 1.237809e+003
9.768779e+002, 1.234833e+003
9.773600e+002, 1.232124e+003
9.778422e+002, 1.230148e+003
9.783243e+002, 1.230043e+003
9.788064e+002, 1.230620e+003
9.792885e+002, 1.230295e+003
9.797706e+002, 1.228574e+003
9.802527e+002, 1.227156e+003
9.807349e+002, 1.226443e+003
9.812170e+002, 1.225917e+003
9.816991e+002, 1.225535e+003
9.821812e+002, 1.225156e+003
9.826633e+002, 1.223071e+003
9.831454e+002, 1.219519e+003
9.836276e+002, 1.217306e+003
9.841097e+002, 1.218916e+003
9.845918e+002, 1.221711e+003
9.850739e+002, 1.223864e+003
9.855560e+002, 1.225599e+003
9.860381e+002, 1.227575e+003
9.865203e+002, 1.229883e+003
9.870024e+002, 1.232439e+003
9.874845e+002, 1.235485e+003
9.879666e+002, 1.238307e+003
9.884487e+002, 1.240256e+003
9.889308e+002, 1.241123e+003
9.894130e+002, 1.239824e+003
9.898951e+002, 1.235851e+003
9.903772e+002, 1.232434e+003
9.908593e+002, 1.232710e+003
9.913414e+002, 1.233262e+003
9.918235e+002, 1.231140e+003
9.923057e+002, 1.226114e+003
9.927878e+002, 1.223197e+003
9.932699e+002, 1.222625e+003
9.937520e+002, 1.222514e+003
9.942341e+002, 1.222397e+003
9.947162e+002, 1.221681e+003
9.951984e+002, 1.218394e+003
9.956805e+002, 1.213631e+003
9.961626e+002, 1.210487e+003
9.966447e+002, 1.210730e+003
9.971268e+002, 1.212017e+003
9.976089e+002, 1.214511e+003
9.980911e+002, 1.217171e+003
9.985732e+002, 1.218304e+003
9.990553e+002, 1.217933e+003
9.995374e+002, 1.218177e+003
1.000020e+003, 1.219344e+003
1.000502e+003, 1.220635e+003
1.000984e+003, 1.220869e+003
1.001466e+003, 1.221139e+003
1.001948e+003, 1.222984e+003
1.002430e+003, 1.226792e+003
1.002912e+003, 1.228661e+003
1.003394e+003, 1.227336e+003
1.003876e+003, 1.226047e+003
1.004359e+003, 1.225936e+003
1.004841e+003, 1.226950e+003
1.005323e+003, 1.229289e+003
1.005805e+003, 1.232704e+003
1.006287e+003, 1.236072e+003
1.006769e+003, 1.239228e+003
1.007251e+003, 1.241872e+003
1.007733e+003, 1.244291e+003
1.008216e+003, 1.245827e+003
1.008698e+003, 1.245544e+003
1.009180e+003, 1.242940e+003
1.009662e+003, 1.240532e+003
1.010144e+003, 1.238615e+003
1.010626e+003, 1.236078e+003
1.011108e+003, 1.231059e+003
1.011590e+003, 1.225150e+003
1.012072e+003, 1.220727e+003
1.012555e+003, 1.217892e+003
1.013037e+003, 1.215766e+003
1.013519e+003, 1.215578e+003
1.014001e+003, 1.214155e+003
1.014483e+003, 1.209863e+003
1.014965e+003, 1.203813e+003
1.015447e+003, 1.199750e+003
1.015929e+003, 1.197548e+003
1.016411e+003, 1.196151e+003
1.016894e+003, 1.195455e+003
1.017376e+003, 1.194901e+003
1.017858e+003, 1.194447e+003
1.018340e+003, 1.193650e+003
1.018822e+003, 1.191778e+003
1.019304e+003, 1.187587e+003
1.019786e+003, 1.185429e+003
1.020268e+003, 1.185736e+003
1.020751e+003, 1.186968e+003
1.021233e+003, 1.188490e+003
1.021715e+003, 1.189917e+003
1.022197e+003, 1.190037e+003
1.022679e+003, 1.188994e+003
1.023161e+003, 1.187728e+003
1.023643e+003, 1.186014e+003
1.024125e+003, 1.184932e+003
1.024607e+003, 1.184958e+003
1.025090e+003, 1.185864e+003
1.025572e+003, 1.187632e+003
1.026054e+003, 1.190398e+003
1.026536e+003, 1.191831e+003
1.027018e+003, 1.191391e+003
1.027500e+003, 1.190079e+003
1.027982e+003, 1.188416e+003
1.028464e+003, 1.186779e+003
1.028947e+003, 1.185690e+003
1.029429e+003, 1.185389e+003
1.029911e+003, 1.184800e+003
1.030393e+003, 1.183496e+003
1.030875e+003, 1.182589e+003
1.031357e+003, 1.182618e+003
1.031839e+003, 1.183514e+003
1.032321e+003, 1.185849e+003
1.032803e+003, 1.189035e+003
1.033286e+003, 1.190609e+003
1.033768e+003, 1.187827e+003
1.034250e+003, 1.184901e+003
1.034732e+003, 1.183023e+003
1.035214e+003, 1.182446e+003
1.035696e+003, 1.183785e+003
1.036178e+003, 1.187668e+003
1.036660e+003, 1.189762e+003
1.037143e+003, 1.189572e+003
1.037625e+003, 1.188935e+003
1.038107e+003, 1.189678e+003
1.038589e+003, 1.190880e+003
1.039071e+003, 1.191604e+003
1.039553e+003, 1.191739e+003
1.040035e+003, 1.190918e+003
1.040517e+003, 1.187544e+003
1.041000e+003, 1.185643e+003
1.041482e+003, 1.186856e+003
1.041964e+003, 1.189744e+003
1.042446e+003, 1.191095e+003
1.042928e+003, 1.191099e+003
1.043410e+003, 1.190347e+003
1.043892e+003, 1.188792e+003
1.044374e+003, 1.187212e+003
1.044856e+003, 1.185777e+003
1.045339e+003, 1.184817e+003
1.045821e+003, 1.184733e+003
1.046303e+003, 1.185701e+003
1.046785e+003, 1.186203e+003
1.047267e+003, 1.186213e+003
1.047749e+003, 1.186005e+003
1.048231e+003, 1.184956e+003
1.048713e+003, 1.184349e+003
1.049195e+003, 1.186773e+003
1.049677e+003, 1.191051e+003
1.050160e+003, 1.193753e+003
1.050642e+003, 1.192788e+003
1.051124e+003, 1.191603e+003
1.051606e+003, 1.190497e+003
1.052088e+003, 1.189388e+003
1.052570e+003, 1.187902e+003
1.053052e+003, 1.186295e+003
1.053534e+003, 1.185757e+003
1.054017e+003, 1.186445e+003
1.054499e+003, 1.187533e+003
1.054981e+003, 1.189156e+003
1.055463e+003, 1.190426e+003
1.055945e+003, 1.190683e+003
1.056427e+003, 1.190086e+003
1.056909e+003, 1.189266e+003
1.057391e+003, 1.188206e+003
1.057874e+003, 1.187219e+003
1.058356e+003, 1.186301e+003
1.058838e+003, 1.185771e+003
1.059320e+003, 1.186222e+003
1.059802e+003, 1.187244e+003
1.060284e+003, 1.188232e+003
1.060766e+003, 1.188876e+003
1.061248e+003, 1.190056e+003
1.061730e+003, 1.192158e+003
1.062213e+003, 1.194093e+003
1.062695e+003, 1.194854e+003
1.063177e+003, 1.194825e+003
1.063659e+003, 1.195679e+003
1.064141e+003, 1.197134e+003
1.064623e+003, 1.197871e+003
1.065105e+003, 1.196180e+003
1.065587e+003, 1.194799e+003
1.066070e+003, 1.195083e+003
1.066552e+003, 1.196138e+003
1.067034e+003, 1.196670e+003
1.067516e+003, 1.196650e+003
1.067998e+003, 1.196925e+003
1.068480e+003, 1.197652e+003
1.068962e+003, 1.198064e+003
1.069444e+003, 1.196613e+003
1.069927e+003, 1.195165e+003
1.070409e+003, 1.195855e+003
1.070891e+003, 1.198803e+003
1.071373e+003, 1.200420e+003
1.071855e+003, 1.199976e+003
1.072337e+003, 1.200089e+003
1.072819e+003, 1.201832e+003
1.073301e+003, 1.204182e+003
1.073783e+003, 1.205268e+003
1.074266e+003, 1.205576e+003
1.074748e+003, 1.206147e+003
1.075230e+003, 1.207343e+003
1.075712e+003, 1.208565e+003
1.076194e+003, 1.209677e+003
1.076676e+003, 1.210754e+003
1.077158e+003, 1.211951e+003
1.077640e+003, 1.213199e+003
1.078122e+003, 1.213690e+003
1.078604e+003, 1.213526e+003
1.079087e+003, 1.213595e+003
1.079569e+003, 1.214138e+003
1.080051e+003, 1.215330e+003
1.080533e+003, 1.217428e+003
1.081015e+003, 1.220209e+003
1.081497e+003, 1.223232e+003
1.081979e+003, 1.226426e+003
1.082461e+003, 1.230016e+003
1.082944e+003, 1.234046e+003
1.083426e+003, 1.238178e+003
1.083908e+003, 1.241991e+003
1.084390e+003, 1.245734e+003
1.084872e+003, 1.249867e+003
1.085354e+003, 1.254355e+003
1.085836e+003, 1.258377e+003
1.086318e+003, 1.262955e+003
1.086801e+003, 1.265105e+003
1.087283e+003, 1.263893e+003
1.087765e+003, 1.260269e+003
1.088247e+003, 1.255167e+003
1.088729e+003, 1.249137e+003
1.089211e+003, 1.243675e+003
1.089693e+003, 1.239091e+003
1.090175e+003, 1.234913e+003
1.090657e+003, 1.231177e+003
1.091140e+003, 1.227552e+003
1.091622e+003, 1.223731e+003
1.092104e+003, 1.219819e+003
1.092586e+003, 1.217046e+003
1.093068e+003, 1.215260e+003
1.093550e+003, 1.212761e+003
1.094032e+003, 1.208040e+003
1.094514e+003, 1.203435e+003
1.094997e+003, 1.201167e+003
1.095479e+003, 1.199802e+003
1.095961e+003, 1.197099e+003
1.096443e+003, 1.191805e+003
1.096925e+003, 1.189716e+003
1.097407e+003, 1.191332e+003
1.097889e+003, 1.192974e+003
1.098371e+003, 1.191073e+003
1.098854e+003, 1.188017e+003
1.099336e+003, 1.186797e+003
1.099818e+003, 1.187114e+003
1.100300e+003, 1.187536e+003
1.100782e+003, 1.188262e+003
1.101264e+003, 1.188025e+003
1.101746e+003, 1.186231e+003
1.102228e+003, 1.184303e+003
1.102710e+003, 1.184628e+003
1.103193e+003, 1.186229e+003
1.103675e+003, 1.186554e+003
1.104157e+003, 1.185310e+003
1.104639e+003, 1.184145e+003
1.105121e+003, 1.183982e+003
1.105603e+003, 1.183794e+003
1.106085e+003, 1.182996e+003
1.106567e+003, 1.181978e+003
1.107049e+003, 1.182006e+003
1.107531e+003, 1.182986e+003
1.108014e+003, 1.184253e+003
1.108496e+003, 1.185797e+003
1.108978e+003, 1.187013e+003
1.109460e+003, 1.186882e+003
1.109942e+003, 1.186662e+003
1.110424e+003, 1.187736e+003
1.110906e+003, 1.190211e+003
1.111388e+003, 1.190976e+003
1.111871e+003, 1.189925e+003
1.112353e+003, 1.188632e+003
1.112835e+003, 1.187721e+003
1.113317e+003, 1.187172e+003
1.113799e+003, 1.187288e+003
1.114281e+003, 1.187672e+003
1.114763e+003, 1.187644e+003
1.115245e+003, 1.186931e+003
1.115728e+003, 1.186082e+003
1.116210e+003, 1.184912e+003
1.116692e+003, 1.184282e+003
1.117174e+003, 1.185679e+003
1.117656e+003, 1.187740e+003
1.118138e+003, 1.187471e+003
1.118620e+003, 1.185470e+003
1.119102e+003, 1.184435e+003
1.119584e+003, 1.186520e+003
1.120067e+003, 1.187865e+003
1.120549e+003, 1.187633e+003
1.121031e+003, 1.186783e+003
1.121513e+003, 1.186324e+003
1.121995e+003, 1.186330e+003
1.122477e+003, 1.187659e+003
1.122959e+003, 1.190321e+003
1.123441e+003, 1.191533e+003
1.123924e+003, 1.187773e+003
1.124406e+003, 1.184549e+003
1.124888e+003, 1.184519e+003
1.125370e+003, 1.186551e+003
1.125852e+003, 1.187750e+003
1.126334e+003, 1.188149e+003
1.126816e+003, 1.187839e+003
1.127298e+003, 1.186728e+003
1.127781e+003, 1.185616e+003
1.128263e+003, 1.184737e+003
1.128745e+003, 1.184421e+003
1.129227e+003, 1.185338e+003
1.129709e+003, 1.187377e+003
1.130191e+003, 1.188016e+003
1.130673e+003, 1.187193e+003
1.131155e+003, 1.185908e+003
1.131637e+003, 1.183967e+003
1.132120e+003, 1.182799e+003
1.132602e+003, 1.184751e+003
1.133084e+003, 1.188059e+003
1.133566e+003, 1.190125e+003
1.134048e+003, 1.190152e+003
1.134530e+003, 1.190754e+003
1.135012e+003, 1.192141e+003
1.135494e+003, 1.193216e+003
1.135976e+003, 1.193197e+003
1.136458e+003, 1.192479e+003
1.136941e+003, 1.191221e+003
1.137423e+003, 1.189824e+003
1.137905e+003, 1.189262e+003
1.138387e+003, 1.191015e+003
1.138869e+003, 1.191614e+003
1.139351e+003, 1.190297e+003
1.139833e+003, 1.189083e+003
1.140315e+003, 1.190752e+003
1.140798e+003, 1.193797e+003
1.141280e+003, 1.194500e+003
1.141762e+003, 1.192993e+003
1.142244e+003, 1.191149e+003
1.142726e+003, 1.188832e+003
1.143208e+003, 1.187509e+003
1.143690e+003, 1.187772e+003
1.144172e+003, 1.188751e+003
1.144655e+003, 1.189149e+003
1.145137e+003, 1.189109e+003
1.145619e+003, 1.189335e+003
1.146101e+003, 1.189929e+003
1.146583e+003, 1.190161e+003
1.147065e+003, 1.189196e+003
1.147547e+003, 1.188304e+003
1.148029e+003, 1.188349e+003
1.148511e+003, 1.188789e+003
1.148994e+003, 1.187444e+003
1.149476e+003, 1.184684e+003
1.149958e+003, 1.184157e+003
1.150440e+003, 1.187132e+003
1.150922e+003, 1.190203e+003
1.151404e+003, 1.191373e+003
1.151886e+003, 1.191215e+003
1.152368e+003, 1.189302e+003
1.152851e+003, 1.186118e+003
1.153333e+003, 1.186997e+003
1.153815e+003, 1.191951e+003
1.154297e+003, 1.195455e+003
1.154779e+003, 1.194969e+003
1.155261e+003, 1.193327e+003
1.155743e+003, 1.192761e+003
1.156225e+003, 1.192667e+003
1.156708e+003, 1.192319e+003
1.157190e+003, 1.191578e+003
1.157672e+003, 1.191304e+003
1.158154e+003, 1.191534e+003
1.158636e+003, 1.191968e+003
1.159118e+003, 1.192451e+003
1.159600e+003, 1.193069e+003
1.160082e+003, 1.194419e+003
1.160564e+003, 1.195845e+003
1.161047e+003, 1.196145e+003
1.161529e+003, 1.195026e+003
1.162011e+003, 1.192998e+003
1.162493e+003, 1.189719e+003
1.162975e+003, 1.186980e+003
1.163457e+003, 1.186043e+003
1.163939e+003, 1.186533e+003
1.164421e+003, 1.188812e+003
1.164903e+003, 1.192089e+003
1.165385e+003, 1.194041e+003
1.165868e+003, 1.193437e+003
1.166350e+003, 1.192628e+003
1.166832e+003, 1.191582e+003
1.167314e+003, 1.190878e+003
1.167796e+003, 1.191214e+003
1.168278e+003, 1.192274e+003
1.168760e+003, 1.193898e+003
1.169242e+003, 1.195875e+003
1.169725e+003, 1.197016e+003
1.170207e+003, 1.196714e+003
1.170689e+003, 1.195770e+003
1.171171e+003, 1.193923e+003
1.171653e+003, 1.192240e+003
1.172135e+003, 1.192486e+003
1.172617e+003, 1.193997e+003
1.173099e+003, 1.195542e+003
1.173582e+003, 1.196951e+003
1.174064e+003, 1.197545e+003
1.174546e+003, 1.195770e+003
1.175028e+003, 1.194860e+003
1.175510e+003, 1.195832e+003
1.175992e+003, 1.197875e+003
1.176474e+003, 1.200000e+003
1.176956e+003, 1.201789e+003
1.177438e+003, 1.201564e+003
1.177921e+003, 1.198716e+003
1.178403e+003, 1.196592e+003
1.178885e+003, 1.197082e+003
1.179367e+003, 1.198041e+003
1.179849e+003, 1.198658e+003
1.180331e+003, 1.199113e+003
1.180813e+003, 1.199989e+003
1.181295e+003, 1.201180e+003
1.181778e+003, 1.202339e+003
1.182260e+003, 1.203487e+003
1.182742e+003, 1.204162e+003
1.183224e+003, 1.204373e+003
1.183706e+003, 1.203704e+003
1.184188e+003, 1.201318e+003
1.184670e+003, 1.197902e+003
1.185152e+003, 1.197733e+003
1.185635e+003, 1.200270e+003
1.186117e+003, 1.202832e+003
1.186599e+003, 1.204720e+003
1.187081e+003, 1.205757e+003
1.187563e+003, 1.205491e+003
1.188045e+003, 1.204551e+003
1.188527e+003, 1.202969e+003
1.189009e+003, 1.200954e+003
1.189491e+003, 1.201689e+003
1.189974e+003, 1.204773e+003
1.190456e+003, 1.207271e+003
1.190938e+003, 1.207586e+003
1.191420e+003, 1.207161e+003
1.191902e+003, 1.206119e+003
1.192384e+003, 1.205100e+003
1.192866e+003, 1.204801e+003
1.193348e+003, 1.205242e+003
1.193830e+003, 1.205510e+003
1.194313e+003, 1.205569e+003
1.194795e+003, 1.205073e+003
1.195277e+003, 1.202877e+003
1.195759e+003, 1.201100e+003
1.196241e+003, 1.201116e+003
1.196723e+003, 1.202125e+003
1.197205e+003, 1.203339e+003
1.197687e+003, 1.204788e+003
1.198169e+003, 1.205430e+003
1.198652e+003, 1.205234e+003
1.199134e+003, 1.204539e+003
1.199616e+003, 1.202502e+003
1.200098e+003, 1.201192e+003
1.200580e+003, 1.202711e+003
1.201062e+003, 1.205409e+003
1.201544e+003, 1.206673e+003
1.202026e+003, 1.206485e+003
1.202509e+003, 1.204950e+003
1.202991e+003, 1.202045e+003
1.203473e+003, 1.200866e+003
1.203955e+003, 1.206111e+003
1.204437e+003, 1.211370e+003
1.204919e+003, 1.211786e+003
1.205401e+003, 1.209334e+003
1.205883e+003, 1.208451e+003
1.206365e+003, 1.209159e+003
1.206848e+003, 1.209212e+003
1.207330e+003, 1.208239e+003
1.207812e+003, 1.207775e+003
1.208294e+003, 1.210046e+003
1.208776e+003, 1.212264e+003
1.209258e+003, 1.212157e+003
1.209740e+003, 1.210473e+003
1.210222e+003, 1.209199e+003
1.210705e+003, 1.208336e+003
1.211187e+003, 1.207400e+003
1.211669e+003, 1.206240e+003
1.212151e+003, 1.205664e+003
1.212633e+003, 1.207080e+003
1.213115e+003, 1.208686e+003
1.213597e+003, 1.208967e+003
1.214079e+003, 1.208329e+003
1.214562e+003, 1.208080e+003
1.215044e+003, 1.208229e+003
1.215526e+003, 1.209341e+003
1.216008e+003, 1.211904e+003
1.216490e+003, 1.213471e+003
1.216972e+003, 1.210093e+003
1.217454e+003, 1.206750e+003
1.217936e+003, 1.208065e+003
1.218418e+003, 1.212810e+003
1.218901e+003, 1.214707e+003
1.219383e+003, 1.213864e+003
1.219865e+003, 1.212612e+003
1.220347e+003, 1.211386e+003
1.220829e+003, 1.210775e+003
1.221311e+003, 1.211638e+003
1.221793e+003, 1.212929e+003
1.222275e+003, 1.213800e+003
1.222757e+003, 1.214357e+003
1.223240e+003, 1.215852e+003
1.223722e+003, 1.218145e+003
1.224204e+003, 1.219145e+003
1.224686e+003, 1.217725e+003
1.225168e+003, 1.216193e+003
1.225650e+003, 1.217057e+003
1.226132e+003, 1.217505e+003
1.226614e+003, 1.214685e+003
1.227096e+003, 1.209320e+003
1.227579e+003, 1.208427e+003
1.228061e+003, 1.211524e+003
1.228543e+003, 1.214482e+003
1.229025e+003, 1.215891e+003
1.229507e+003, 1.216347e+003
1.229989e+003, 1.215464e+003
1.230471e+003, 1.214343e+003
1.230953e+003, 1.213857e+003
1.231436e+003, 1.213915e+003
1.231918e+003, 1.213796e+003
1.232400e+003, 1.213513e+003
1.232882e+003, 1.213135e+003
1.233364e+003, 1.212058e+003
1.233846e+003, 1.212082e+003
1.234328e+003, 1.215466e+003
1.234810e+003, 1.219043e+003
1.235292e+003, 1.220388e+003
1.235775e+003, 1.219809e+003
1.236257e+003, 1.219714e+003
1.236739e+003, 1.220066e+003
1.237221e+003, 1.220689e+003
1.237703e+003, 1.222324e+003
1.238185e+003, 1.222888e+003
1.238667e+003, 1.220448e+003
1.239149e+003, 1.217763e+003
1.239632e+003, 1.216749e+003
1.240114e+003, 1.217203e+003
1.240596e+003, 1.218349e+003
1.241078e+003, 1.219869e+003
1.241560e+003, 1.220454e+003
1.242042e+003, 1.217837e+003
1.242524e+003, 1.216740e+003
1.243006e+003, 1.219229e+003
1.243489e+003, 1.222266e+003
1.243971e+003, 1.223417e+003
1.244453e+003, 1.223137e+003
1.244935e+003, 1.223119e+003
1.245417e+003, 1.223336e+003
1.245899e+003, 1.223667e+003
1.246381e+003, 1.224611e+003
1.246863e+003, 1.224761e+003
1.247345e+003, 1.223536e+003
1.247828e+003, 1.222304e+003
1.248310e+003, 1.222340e+003
1.248792e+003, 1.223248e+003
1.249274e+003, 1.224028e+003
1.249756e+003, 1.224736e+003
1.250238e+003, 1.225600e+003
1.250720e+003, 1.227332e+003
1.251202e+003, 1.228121e+003
1.251684e+003, 1.227474e+003
1.252167e+003, 1.226758e+003
1.252649e+003, 1.227286e+003
1.253131e+003, 1.228503e+003
1.253613e+003, 1.229485e+003
1.254095e+003, 1.230202e+003
1.254577e+003, 1.230636e+003
1.255059e+003, 1.230625e+003
1.255541e+003, 1.230496e+003
1.256023e+003, 1.230117e+003
1.256506e+003, 1.230104e+003
1.256988e+003, 1.232178e+003
1.257470e+003, 1.234151e+003
1.257952e+003, 1.231768e+003
1.258434e+003, 1.226705e+003
1.258916e+003, 1.224232e+003
1.259398e+003, 1.225476e+003
1.259880e+003, 1.227988e+003
1.260363e+003, 1.232021e+003
1.260845e+003, 1.235044e+003
1.261327e+003, 1.233693e+003
1.261809e+003, 1.231292e+003
1.262291e+003, 1.231480e+003
1.262773e+003, 1.233368e+003
1.263255e+003, 1.234303e+003
1.263737e+003, 1.233941e+003
1.264219e+003, 1.233671e+003
1.264702e+003, 1.233566e+003
1.265184e+003, 1.233725e+003
1.265666e+003, 1.234556e+003
1.266148e+003, 1.235366e+003
1.266630e+003, 1.235353e+003
1.267112e+003, 1.235034e+003
1.267594e+003, 1.235693e+003
1.268076e+003, 1.237487e+003
1.268559e+003, 1.237689e+003
1.269041e+003, 1.236146e+003
1.269523e+003, 1.234805e+003
1.270005e+003, 1.234675e+003
1.270487e+003, 1.235486e+003
1.270969e+003, 1.238175e+003
1.271451e+003, 1.241057e+003
1.271933e+003, 1.241475e+003
1.272416e+003, 1.239664e+003
1.272898e+003, 1.238914e+003
1.273380e+003, 1.239349e+003
1.273862e+003, 1.239861e+003
1.274344e+003, 1.239259e+003
1.274826e+003, 1.239370e+003
1.275308e+003, 1.241168e+003
1.275790e+003, 1.243541e+003
1.276272e+003, 1.245459e+003
1.276755e+003, 1.246759e+003
1.277237e+003, 1.246279e+003
1.277719e+003, 1.244303e+003
1.278201e+003, 1.243111e+003
1.278683e+003, 1.244708e+003
1.279165e+003, 1.245737e+003
1.279647e+003, 1.245268e+003
1.280129e+003, 1.244680e+003
1.280611e+003, 1.245936e+003
1.281094e+003, 1.248044e+003
1.281576e+003, 1.248741e+003
1.282058e+003, 1.248223e+003
1.282540e+003, 1.248019e+003
1.283022e+003, 1.249042e+003
1.283504e+003, 1.249256e+003
1.283986e+003, 1.248202e+003
1.284468e+003, 1.247181e+003
1.284950e+003, 1.247868e+003
1.285433e+003, 1.249101e+003
1.285915e+003, 1.249389e+003
1.286397e+003, 1.248852e+003
1.286879e+003, 1.248128e+003
1.287361e+003, 1.247075e+003
1.287843e+003, 1.246608e+003
1.288325e+003, 1.246787e+003
1.288807e+003, 1.247813e+003
1.289290e+003, 1.251251e+003
1.289772e+003, 1.254335e+003
1.290254e+003, 1.254091e+003
1.290736e+003, 1.251727e+003
1.291218e+003, 1.250238e+003
1.291700e+003, 1.249618e+003
1.292182e+003, 1.250212e+003
1.292664e+003, 1.252023e+003
1.293146e+003, 1.253626e+003
1.293629e+003, 1.254444e+003
1.294111e+003, 1.254283e+003
1.294593e+003, 1.252335e+003
1.295075e+003, 1.249770e+003
1.295557e+003, 1.247793e+003
1.296039e+003, 1.246434e+003
1.296521e+003, 1.246123e+003
1.297003e+003, 1.246760e+003
1.297486e+003, 1.247490e+003
1.297968e+003, 1.248707e+003
1.298450e+003, 1.248889e+003
1.298932e+003, 1.247220e+003
1.299414e+003, 1.245333e+003
1.299896e+003, 1.245525e+003
1.300378e+003, 1.246841e+003
1.300860e+003, 1.246244e+003
1.301343e+003, 1.244207e+003
1.301825e+003, 1.243177e+003
##END=



