##NAMES=Agardite-(Y)
##RRUFFID=R070357
##IDEAL CHEMISTRY=Cu^2+^_6_Y^3+^(As^5+^O_4_)_3_(OH)_6_&#183;3H_2_O
##LOCALITY=Hayashi, Setoda, Ikuchi Island, Hiroshima Prefecture, Chugoku Region, Honshu Island, Japan
##OWNER=Michael Scott
##SOURCE=Michael Scott
##DESCRIPTION=Green acicular to fibrous in spherical aggregates
##STATUS=The identification of this mineral is confirmed by single-crystal X-ray diffraction and chemical analysis.
##URL=rruff.info/R070357
##MEASURED CHEMISTRY=(Cu_5.59_Ca_0.28_Zn_0.03_Fe_0.01_)_Σ=5.91_(Y_0.35_La_0.08_Nd_0.06_Gd_0.03_Ce_0.02_Sm_0.01_Pr_0.01_Al_0.50_)_Σ=1.05_[(AsO_4_)_0.80_(SiO_4_)_0.14_(PO_4_)_0.02_]_3_(OH)_6_·3.51H_2_O
178.5888, 24384.75
179.0710, 24432.82
179.5531, 24485.88
180.0352, 24527.73
180.5173, 24548.91
180.9994, 24562.44
181.4815, 24585.24
181.9637, 24617.60
182.4458, 24662.53
182.9279, 24731.90
183.4100, 24818.78
183.8921, 24898.54
184.3742, 24965.68
184.8564, 25020.71
185.3385, 25056.87
185.8206, 25072.84
186.3027, 25089.69
186.7848, 25127.44
187.2669, 25185.04
187.7491, 25256.05
188.2312, 25348.40
188.7133, 25452.47
189.1954, 25533.94
189.6775, 25590.70
190.1596, 25631.64
190.6418, 25661.91
191.1239, 25681.79
191.6060, 25707.67
192.0881, 25752.39
192.5702, 25812.50
193.0524, 25854.47
193.5345, 25873.71
194.0166, 25886.56
194.4987, 25920.60
194.9808, 25977.40
195.4629, 26031.90
195.9451, 26069.68
196.4272, 26091.60
196.9093, 26118.38
197.3914, 26153.14
197.8735, 26188.90
198.3556, 26212.82
198.8378, 26224.32
199.3199, 26227.68
199.8020, 26225.25
200.2841, 26217.26
200.7662, 26197.31
201.2483, 26157.00
201.7305, 26111.85
202.2126, 26104.55
202.6947, 26143.15
203.1768, 26189.63
203.6589, 26224.29
204.1410, 26246.96
204.6232, 26255.54
205.1053, 26245.84
205.5874, 26223.65
206.0695, 26204.64
206.5516, 26184.42
207.0337, 26178.90
207.5159, 26205.63
207.9980, 26273.40
208.4801, 26328.33
208.9622, 26359.77
209.4443, 26373.41
209.9264, 26401.87
210.4086, 26457.59
210.8907, 26503.21
211.3728, 26499.75
211.8549, 26423.98
212.3370, 26379.84
212.8191, 26389.58
213.3013, 26446.44
213.7834, 26495.46
214.2655, 26535.87
214.7476, 26569.79
215.2297, 26597.31
215.7118, 26615.64
216.1940, 26635.60
216.6761, 26656.66
217.1582, 26679.38
217.6403, 26717.79
218.1224, 26780.43
218.6045, 26846.73
219.0867, 26893.33
219.5688, 26904.97
220.0509, 26934.04
220.5330, 27002.69
221.0151, 27113.62
221.4972, 27170.29
221.9794, 27142.82
222.4615, 27095.03
222.9436, 27096.01
223.4257, 27164.07
223.9078, 27244.90
224.3899, 27329.21
224.8721, 27419.13
225.3542, 27501.24
225.8363, 27585.10
226.3184, 27652.83
226.8005, 27673.28
227.2827, 27595.58
227.7648, 27569.85
228.2469, 27654.85
228.7290, 27873.69
229.2111, 28020.06
229.6932, 28072.72
230.1754, 28068.53
230.6575, 28050.00
231.1396, 28000.16
231.6217, 27966.20
232.1038, 27959.82
232.5859, 27981.79
233.0681, 28031.90
233.5502, 28134.68
234.0323, 28247.75
234.5144, 28309.32
234.9965, 28299.71
235.4786, 28270.06
235.9608, 28228.25
236.4429, 28166.21
236.9250, 28134.88
237.4071, 28156.89
237.8892, 28195.76
238.3713, 28188.56
238.8535, 28098.07
239.3356, 28024.11
239.8177, 28005.18
240.2998, 28062.73
240.7819, 28091.77
241.2640, 28081.22
241.7462, 28049.09
242.2283, 28026.68
242.7104, 28020.92
243.1925, 28013.20
243.6746, 27992.73
244.1567, 27946.57
244.6389, 27935.75
245.1210, 27983.21
245.6031, 28052.30
246.0852, 28072.47
246.5673, 28007.18
247.0494, 27955.66
247.5316, 27961.34
248.0137, 28053.92
248.4958, 28099.90
248.9779, 28075.51
249.4600, 28017.60
249.9421, 27997.58
250.4243, 28037.00
250.9064, 28075.35
251.3885, 28088.11
251.8706, 28063.88
252.3527, 28052.75
252.8348, 28059.60
253.3170, 28076.50
253.7991, 28087.30
254.2812, 28085.48
254.7633, 28089.75
255.2454, 28107.21
255.7275, 28139.18
256.2097, 28181.06
256.6918, 28242.01
257.1739, 28306.11
257.6560, 28343.72
258.1381, 28348.54
258.6202, 28339.49
259.1024, 28315.83
259.5845, 28265.10
260.0666, 28256.43
260.5487, 28309.10
261.0308, 28389.23
261.5129, 28431.82
261.9951, 28417.08
262.4772, 28411.47
262.9593, 28448.95
263.4414, 28546.60
263.9235, 28603.86
264.4056, 28606.52
264.8878, 28582.57
265.3699, 28584.29
265.8520, 28623.01
266.3341, 28654.84
266.8162, 28653.89
267.2983, 28608.66
267.7805, 28610.11
268.2626, 28676.82
268.7447, 28769.60
269.2268, 28818.46
269.7089, 28812.82
270.1910, 28800.98
270.6732, 28798.26
271.1553, 28804.34
271.6374, 28827.21
272.1195, 28874.34
272.6016, 28927.40
273.0837, 28949.55
273.5659, 28932.96
274.0480, 28926.24
274.5301, 28956.10
275.0122, 29024.47
275.4943, 29065.49
275.9764, 29072.14
276.4586, 29064.68
276.9407, 29074.01
277.4228, 29101.88
277.9049, 29129.88
278.3870, 29146.75
278.8691, 29153.64
279.3513, 29180.21
279.8334, 29231.04
280.3155, 29289.80
280.7976, 29339.27
281.2798, 29379.38
281.7619, 29401.94
282.2440, 29394.05
282.7261, 29361.68
283.2082, 29351.19
283.6903, 29364.85
284.1725, 29392.06
284.6546, 29420.59
285.1367, 29450.37
285.6188, 29486.70
286.1009, 29537.52
286.5830, 29596.95
287.0652, 29637.60
287.5473, 29657.14
288.0294, 29669.61
288.5115, 29693.23
288.9936, 29725.81
289.4757, 29747.99
289.9579, 29747.77
290.4400, 29733.98
290.9221, 29730.19
291.4042, 29736.62
291.8863, 29750.09
292.3684, 29775.13
292.8506, 29806.99
293.3327, 29824.29
293.8148, 29808.83
294.2969, 29781.39
294.7790, 29785.15
295.2611, 29820.26
295.7433, 29863.87
296.2254, 29909.32
296.7075, 29949.45
297.1896, 29959.95
297.6717, 29911.97
298.1538, 29850.22
298.6360, 29847.81
299.1181, 29900.93
299.6002, 29964.73
300.0823, 30010.70
300.5644, 30042.78
301.0465, 30067.78
301.5287, 30082.59
302.0108, 30097.15
302.4929, 30127.99
302.9750, 30171.67
303.4571, 30206.67
303.9392, 30205.81
304.4214, 30191.60
304.9035, 30197.10
305.3856, 30241.89
305.8677, 30289.23
306.3498, 30295.45
306.8319, 30273.27
307.3141, 30267.84
307.7962, 30320.94
308.2783, 30396.62
308.7604, 30461.38
309.2425, 30506.80
309.7246, 30541.23
310.2068, 30565.38
310.6889, 30582.17
311.1710, 30599.51
311.6531, 30612.17
312.1352, 30632.36
312.6173, 30669.90
313.0995, 30728.58
313.5816, 30796.86
314.0637, 30877.68
314.5458, 30964.20
315.0279, 31044.15
315.5100, 31121.21
315.9922, 31184.16
316.4743, 31222.06
316.9564, 31226.50
317.4385, 31235.60
317.9206, 31268.99
318.4027, 31312.93
318.8849, 31348.25
319.3670, 31365.29
319.8491, 31376.78
320.3312, 31380.07
320.8133, 31369.51
321.2954, 31385.51
321.7776, 31465.69
322.2597, 31564.85
322.7418, 31634.81
323.2239, 31647.76
323.7060, 31651.74
324.1881, 31662.92
324.6703, 31684.41
325.1524, 31678.87
325.6345, 31606.23
326.1166, 31525.48
326.5987, 31483.71
327.0808, 31522.42
327.5630, 31551.58
328.0451, 31558.86
328.5272, 31545.21
329.0093, 31530.93
329.4914, 31518.25
329.9735, 31503.33
330.4557, 31484.25
330.9378, 31464.02
331.4199, 31432.26
331.9020, 31372.19
332.3841, 31297.15
332.8662, 31277.44
333.3484, 31343.05
333.8305, 31418.82
334.3126, 31464.42
334.7947, 31471.60
335.2768, 31471.55
335.7589, 31461.52
336.2411, 31447.44
336.7232, 31445.11
337.2053, 31457.68
337.6874, 31472.84
338.1695, 31490.90
338.6516, 31515.24
339.1338, 31502.60
339.6159, 31434.20
340.0980, 31357.48
340.5801, 31368.23
341.0622, 31477.47
341.5443, 31573.88
342.0265, 31606.65
342.5086, 31582.58
342.9907, 31566.42
343.4728, 31558.54
343.9549, 31557.73
344.4370, 31571.94
344.9192, 31597.93
345.4013, 31602.38
345.8834, 31550.35
346.3655, 31474.72
346.8476, 31478.41
347.3297, 31563.80
347.8119, 31657.00
348.2940, 31686.86
348.7761, 31668.17
349.2582, 31643.01
349.7403, 31614.17
350.2225, 31593.25
350.7046, 31600.02
351.1867, 31632.26
351.6688, 31672.67
352.1509, 31721.99
352.6331, 31768.18
353.1152, 31790.38
353.5973, 31774.74
354.0794, 31751.51
354.5615, 31745.51
355.0436, 31753.67
355.5258, 31766.65
356.0079, 31779.11
356.4900, 31794.26
356.9721, 31815.16
357.4542, 31843.02
357.9363, 31874.25
358.4185, 31924.98
358.9006, 31975.82
359.3827, 31993.22
359.8648, 31898.91
360.3469, 31819.47
360.8290, 31840.70
361.3112, 31987.77
361.7933, 32102.98
362.2754, 32109.52
362.7575, 32069.22
363.2396, 32049.23
363.7217, 32074.91
364.2039, 32112.30
364.6860, 32165.06
365.1681, 32233.25
365.6502, 32270.00
366.1323, 32231.95
366.6144, 32184.14
367.0966, 32171.41
367.5787, 32216.44
368.0608, 32271.19
368.5429, 32346.52
369.0250, 32433.88
369.5071, 32486.34
369.9893, 32478.32
370.4714, 32465.07
370.9535, 32473.32
371.4356, 32511.78
371.9177, 32551.96
372.3998, 32594.41
372.8820, 32638.13
373.3641, 32682.00
373.8462, 32729.34
374.3283, 32767.80
374.8104, 32787.52
375.2925, 32785.84
375.7747, 32800.80
376.2568, 32837.07
376.7389, 32880.96
377.2210, 32907.98
377.7031, 32915.64
378.1852, 32943.73
378.6674, 33017.79
379.1495, 33121.36
379.6316, 33176.49
380.1137, 33177.20
380.5958, 33179.54
381.0779, 33247.36
381.5601, 33367.09
382.0422, 33465.91
382.5243, 33526.07
383.0064, 33562.21
383.4885, 33593.86
383.9706, 33621.96
384.4528, 33651.23
384.9349, 33690.35
385.4170, 33731.63
385.8991, 33761.63
386.3812, 33776.06
386.8633, 33787.55
387.3455, 33805.39
387.8276, 33829.13
388.3097, 33858.18
388.7918, 33874.14
389.2739, 33906.71
389.7560, 33994.70
390.2382, 34147.06
390.7203, 34281.76
391.2024, 34340.51
391.6845, 34361.77
392.1666, 34390.49
392.6487, 34453.59
393.1309, 34515.13
393.6130, 34560.29
394.0951, 34590.01
394.5772, 34615.68
395.0593, 34642.44
395.5414, 34664.71
396.0236, 34678.66
396.5057, 34661.51
396.9878, 34662.52
397.4699, 34699.19
397.9520, 34759.08
398.4341, 34803.16
398.9163, 34830.95
399.3984, 34843.21
399.8805, 34837.55
400.3626, 34805.67
400.8447, 34779.95
401.3268, 34758.62
401.8090, 34744.80
402.2911, 34746.00
402.7732, 34771.99
403.2553, 34786.75
403.7374, 34775.70
404.2195, 34741.01
404.7017, 34723.09
405.1838, 34724.55
405.6659, 34735.79
406.1480, 34752.05
406.6301, 34773.61
407.1122, 34787.60
407.5944, 34794.04
408.0765, 34789.07
408.5586, 34751.50
409.0407, 34682.01
409.5228, 34627.96
410.0049, 34632.91
410.4871, 34678.09
410.9692, 34710.06
411.4513, 34721.39
411.9334, 34728.04
412.4155, 34750.71
412.8976, 34784.32
413.3798, 34813.31
413.8619, 34821.03
414.3440, 34826.58
414.8261, 34851.05
415.3082, 34895.03
415.7903, 34945.49
416.2725, 35013.74
416.7546, 35076.70
417.2367, 35107.52
417.7188, 35043.06
418.2009, 35004.23
418.6830, 35066.53
419.1652, 35205.89
419.6473, 35331.76
420.1294, 35417.28
420.6115, 35479.76
421.0937, 35525.96
421.5758, 35541.43
422.0579, 35571.77
422.5400, 35627.19
423.0221, 35700.07
423.5042, 35779.41
423.9864, 35869.77
424.4685, 35960.21
424.9506, 36054.14
425.4327, 36152.29
425.9148, 36227.70
426.3969, 36273.90
426.8791, 36304.78
427.3612, 36331.41
427.8433, 36354.79
428.3254, 36370.09
428.8075, 36374.45
429.2896, 36370.98
429.7718, 36366.51
430.2539, 36358.30
430.7360, 36362.79
431.2181, 36405.85
431.7002, 36482.13
432.1823, 36502.99
432.6645, 36452.10
433.1466, 36385.54
433.6287, 36395.58
434.1108, 36465.11
434.5929, 36508.03
435.0750, 36467.19
435.5572, 36386.60
436.0393, 36338.41
436.5214, 36322.09
437.0035, 36326.57
437.4856, 36374.64
437.9677, 36428.95
438.4499, 36430.26
438.9320, 36329.75
439.4141, 36230.44
439.8962, 36201.06
440.3783, 36229.81
440.8604, 36285.45
441.3426, 36399.84
441.8247, 36502.10
442.3068, 36539.29
442.7889, 36487.07
443.2710, 36460.00
443.7531, 36522.05
444.2353, 36611.75
444.7174, 36662.19
445.1995, 36608.84
445.6816, 36575.34
446.1637, 36594.45
446.6458, 36659.64
447.1280, 36700.49
447.6101, 36683.44
448.0922, 36679.23
448.5743, 36735.61
449.0564, 36897.29
449.5385, 36997.06
450.0207, 37008.72
450.5028, 36976.55
450.9849, 36979.43
451.4670, 37018.99
451.9491, 37086.29
452.4312, 37193.90
452.9134, 37332.05
453.3955, 37423.21
453.8776, 37462.87
454.3597, 37486.02
454.8418, 37518.63
455.3239, 37561.55
455.8061, 37621.09
456.2882, 37711.73
456.7703, 37800.30
457.2524, 37823.57
457.7345, 37797.71
458.2166, 37789.49
458.6988, 37846.19
459.1809, 37937.61
459.6630, 38033.81
460.1451, 38133.36
460.6272, 38232.50
461.1093, 38339.16
461.5915, 38440.56
462.0736, 38518.55
462.5557, 38529.34
463.0378, 38552.89
463.5199, 38625.38
464.0020, 38740.77
464.4842, 38853.89
464.9663, 38959.35
465.4484, 39056.29
465.9305, 39142.02
466.4126, 39189.80
466.8947, 39276.75
467.3769, 39430.28
467.8590, 39610.44
468.3411, 39752.03
468.8232, 39834.64
469.3053, 39917.33
469.7874, 40013.83
470.2696, 40124.07
470.7517, 40250.87
471.2338, 40399.38
471.7159, 40547.48
472.1980, 40669.53
472.6801, 40766.84
473.1623, 40875.84
473.6444, 41004.00
474.1265, 41142.95
474.6086, 41286.60
475.0907, 41432.10
475.5728, 41561.10
476.0550, 41658.70
476.5371, 41735.76
477.0192, 41806.73
477.5013, 41872.42
477.9834, 41934.19
478.4655, 42007.21
478.9477, 42072.71
479.4298, 42105.26
479.9119, 42092.36
480.3940, 42051.77
480.8761, 41980.15
481.3582, 41886.51
481.8404, 41797.52
482.3225, 41748.53
482.8046, 41684.18
483.2867, 41572.13
483.7688, 41391.91
484.2509, 41225.80
484.7331, 41082.45
485.2152, 40956.07
485.6973, 40840.48
486.1794, 40751.59
486.6615, 40645.28
487.1436, 40509.48
487.6258, 40350.77
488.1079, 40190.98
488.5900, 40016.22
489.0721, 39882.07
489.5542, 39835.20
490.0363, 39876.19
490.5185, 39907.15
491.0006, 39935.56
491.4827, 39919.69
491.9648, 39764.79
492.4470, 39499.56
492.9291, 39286.47
493.4112, 39214.14
493.8933, 39199.43
494.3754, 39109.43
494.8575, 38955.71
495.3397, 38816.33
495.8218, 38753.61
496.3039, 38724.94
496.7860, 38682.55
497.2681, 38612.89
497.7502, 38551.91
498.2324, 38520.09
498.7145, 38507.70
499.1966, 38500.93
499.6787, 38531.69
500.1608, 38531.41
500.6429, 38453.14
501.1251, 38304.40
501.6072, 38208.60
502.0893, 38219.27
502.5714, 38243.48
503.0535, 38237.85
503.5356, 38188.56
504.0178, 38141.80
504.4999, 38096.20
504.9820, 38054.82
505.4641, 38021.79
505.9462, 37997.82
506.4283, 37979.39
506.9105, 37967.73
507.3926, 37960.54
507.8747, 37944.49
508.3568, 37918.57
508.8389, 37902.16
509.3210, 37925.24
509.8032, 37968.72
510.2853, 37976.21
510.7674, 37935.48
511.2495, 37880.96
511.7316, 37839.29
512.2137, 37810.24
512.6959, 37793.93
513.1780, 37811.92
513.6601, 37824.38
514.1422, 37797.02
514.6243, 37735.90
515.1064, 37683.76
515.5886, 37646.18
516.0707, 37630.50
516.5528, 37646.50
517.0349, 37723.27
517.5170, 37773.52
517.9991, 37777.42
518.4813, 37754.57
518.9634, 37725.03
519.4455, 37664.93
519.9276, 37641.45
520.4097, 37685.19
520.8918, 37780.61
521.3740, 37823.07
521.8561, 37797.77
522.3382, 37768.52
522.8203, 37780.59
523.3024, 37831.04
523.7845, 37871.36
524.2667, 37898.41
524.7488, 37917.75
525.2309, 37932.22
525.7130, 37944.52
526.1951, 37964.00
526.6772, 37999.35
527.1594, 38038.57
527.6415, 38059.79
528.1236, 38069.27
528.6057, 38095.28
529.0878, 38175.70
529.5699, 38264.35
530.0521, 38326.16
530.5342, 38354.70
531.0163, 38367.98
531.4984, 38370.11
531.9805, 38360.79
532.4626, 38339.79
532.9448, 38281.95
533.4269, 38242.68
533.9090, 38232.43
534.3911, 38245.67
534.8732, 38261.75
535.3553, 38281.14
535.8375, 38303.38
536.3196, 38336.91
536.8017, 38384.90
537.2838, 38378.28
537.7659, 38304.79
538.2480, 38216.81
538.7302, 38163.98
539.2123, 38144.59
539.6944, 38156.89
540.1765, 38217.25
540.6586, 38278.34
541.1407, 38267.04
541.6229, 38074.20
542.1050, 38167.61
542.5871, 38213.78
543.0692, 38215.24
543.5513, 38038.12
544.0334, 38091.61
544.5156, 38052.68
544.9977, 38009.96
545.4798, 38095.90
545.9619, 37944.76
546.4440, 38028.66
546.9261, 38018.74
547.4083, 38051.76
547.8904, 37991.79
548.3725, 38041.05
548.8546, 38026.05
549.3367, 37997.48
549.8188, 37952.92
550.3010, 37896.66
550.7831, 37886.74
551.2652, 37936.29
551.7473, 37988.43
552.2294, 37998.56
552.7115, 37971.17
553.1937, 37951.24
553.6758, 37943.86
554.1579, 37937.68
554.6400, 37912.55
555.1221, 37876.46
555.6042, 37852.62
556.0864, 37850.30
556.5685, 37862.42
557.0506, 37886.45
557.5327, 37920.27
558.0148, 37955.79
558.4969, 38006.59
558.9791, 38044.71
559.4612, 38046.72
559.9433, 38001.84
560.4254, 37965.37
560.9075, 37940.20
561.3896, 37932.21
561.8718, 37947.76
562.3539, 38018.99
562.8360, 38056.47
563.3181, 38034.78
563.8002, 37984.07
564.2823, 37985.76
564.7645, 38055.54
565.2466, 38106.47
565.7287, 38096.29
566.2108, 38038.39
566.6929, 37996.61
567.1750, 37971.64
567.6572, 37954.79
568.1393, 37938.18
568.6214, 37924.98
569.1035, 37926.80
569.5856, 37950.88
570.0677, 37967.53
570.5499, 37930.02
571.0320, 37873.50
571.5141, 37853.29
571.9962, 37929.41
572.4783, 38006.05
572.9604, 38053.32
573.4426, 38070.66
573.9247, 38059.41
574.4068, 37982.34
574.8889, 37910.71
575.3710, 37872.59
575.8531, 37873.88
576.3353, 37880.74
576.8174, 37896.38
577.2995, 37912.76
577.7816, 37924.59
578.2637, 37932.46
578.7458, 37923.67
579.2280, 37887.93
579.7101, 37850.20
580.1922, 37865.26
580.6743, 37923.64
581.1564, 37971.81
581.6385, 37984.71
582.1207, 37973.64
582.6028, 37944.55
583.0849, 37900.37
583.5670, 37861.60
584.0491, 37831.25
584.5313, 37817.06
585.0134, 37829.65
585.4955, 37880.68
585.9776, 37924.98
586.4597, 37953.82
586.9418, 37968.63
587.4240, 37970.17
587.9061, 37950.64
588.3882, 37930.02
588.8703, 37904.48
589.3524, 37880.82
589.8345, 37882.04
590.3167, 37913.75
590.7988, 37949.52
591.2809, 37984.04
591.7630, 38013.80
592.2451, 38013.86
592.7272, 37983.30
593.2094, 37945.16
593.6915, 37906.53
594.1736, 37876.40
594.6557, 37874.56
595.1378, 37907.76
595.6199, 37954.32
596.1021, 38011.94
596.5842, 38069.02
597.0663, 38109.22
597.5485, 38126.27
598.0306, 38125.84
598.5127, 38091.96
598.9948, 38037.18
599.4769, 38015.43
599.9590, 38051.09
600.4412, 38094.18
600.9233, 38135.42
601.4054, 38177.16
601.8875, 38176.73
602.3696, 38118.16
602.8517, 38056.65
603.3339, 38037.18
603.8160, 38057.87
604.2981, 38107.89
604.7802, 38193.79
605.2623, 38279.79
605.7444, 38310.58
606.2266, 38303.23
606.7087, 38302.81
607.1908, 38341.18
607.6729, 38377.29
608.1550, 38370.79
608.6371, 38333.70
609.1193, 38304.91
609.6014, 38295.16
610.0835, 38301.80
610.5656, 38329.81
611.0477, 38383.55
611.5298, 38425.42
612.0120, 38460.09
612.4941, 38476.62
612.9762, 38463.79
613.4583, 38411.62
613.9404, 38364.98
614.4225, 38323.31
614.9047, 38292.14
615.3868, 38281.86
615.8689, 38291.19
616.3510, 38303.42
616.8331, 38311.02
617.3152, 38322.43
617.7974, 38358.88
618.2795, 38412.86
618.7616, 38457.02
619.2437, 38467.07
619.7258, 38468.29
620.2079, 38481.76
620.6901, 38508.36
621.1722, 38528.06
621.6543, 38525.08
622.1364, 38519.12
622.6185, 38524.07
623.1006, 38550.52
623.5828, 38564.87
624.0649, 38556.61
624.5470, 38545.92
625.0291, 38559.75
625.5112, 38603.53
625.9933, 38643.38
626.4755, 38674.00
626.9576, 38695.82
627.4397, 38708.58
627.9218, 38712.61
628.4039, 38710.21
628.8860, 38702.11
629.3682, 38688.40
629.8503, 38656.02
630.3324, 38610.61
630.8145, 38595.48
631.2966, 38678.91
631.7787, 38771.75
632.2609, 38805.35
632.7430, 38754.55
633.2251, 38709.42
633.7072, 38674.32
634.1893, 38660.43
634.6714, 38681.27
635.1536, 38767.01
635.6357, 38818.96
636.1178, 38819.79
636.5999, 38793.96
637.0820, 38785.87
637.5641, 38796.32
638.0463, 38805.69
638.5284, 38809.10
639.0105, 38806.22
639.4926, 38785.64
639.9747, 38753.05
640.4568, 38741.67
640.9390, 38794.68
641.4211, 38863.00
641.9032, 38901.55
642.3853, 38907.04
642.8674, 38902.77
643.3495, 38886.54
643.8317, 38871.45
644.3138, 38868.25
644.7959, 38896.27
645.2780, 38898.51
645.7601, 38852.70
646.2422, 38800.63
646.7244, 38797.73
647.2065, 38856.54
647.6886, 38899.43
648.1707, 38911.29
648.6528, 38902.37
649.1349, 38880.18
649.6171, 38849.67
650.0992, 38844.65
650.5813, 38911.40
651.0634, 38993.31
651.5455, 39006.54
652.0276, 38965.28
652.5098, 38945.23
652.9919, 39025.03
653.4740, 39108.95
653.9561, 39127.34
654.4382, 39058.20
654.9203, 39018.15
655.4025, 39053.24
655.8846, 39095.79
656.3667, 39096.96
656.8488, 39034.46
657.3309, 38997.09
657.8130, 38988.66
658.2952, 39004.11
658.7773, 39052.20
659.2594, 39128.27
659.7415, 39168.92
660.2236, 39148.20
660.7057, 39100.28
661.1879, 39064.29
661.6700, 39040.33
662.1521, 39029.36
662.6342, 39039.46
663.1163, 39056.11
663.5984, 39074.05
664.0806, 39092.08
664.5627, 39103.42
665.0448, 39107.17
665.5269, 39102.57
666.0090, 39085.38
666.4911, 39051.62
666.9733, 39037.61
667.4554, 39050.46
667.9375, 39068.93
668.4196, 39070.39
668.9017, 39056.09
669.3839, 39070.95
669.8660, 39125.92
670.3481, 39177.00
670.8302, 39156.38
671.3123, 39094.39
671.7944, 39058.79
672.2766, 39087.84
672.7587, 39120.89
673.2408, 39108.68
673.7229, 39073.16
674.2050, 39057.09
674.6871, 39112.12
675.1693, 39144.52
675.6514, 39111.46
676.1335, 39029.69
676.6156, 38987.05
677.0977, 38992.86
677.5798, 39017.33
678.0620, 39055.78
678.5441, 39104.97
679.0262, 39122.52
679.5083, 39106.31
679.9904, 39095.54
680.4725, 39138.25
680.9547, 39202.77
681.4368, 39230.40
681.9189, 39211.33
682.4010, 39182.50
682.8831, 39157.09
683.3652, 39140.21
683.8474, 39138.14
684.3295, 39164.31
684.8116, 39186.26
685.2937, 39196.32
685.7758, 39201.02
686.2579, 39209.80
686.7401, 39228.07
687.2222, 39234.98
687.7043, 39224.45
688.1864, 39202.58
688.6685, 39182.52
689.1506, 39164.25
689.6328, 39147.00
690.1149, 39112.52
690.5970, 39090.39
691.0791, 39155.93
691.5612, 39286.89
692.0433, 39368.73
692.5255, 39289.52
693.0076, 39183.74
693.4897, 39135.88
693.9718, 39156.82
694.4539, 39184.18
694.9360, 39217.07
695.4182, 39247.00
695.9003, 39270.25
696.3824, 39286.82
696.8645, 39296.41
697.3466, 39300.81
697.8287, 39293.53
698.3109, 39252.66
698.7930, 39188.94
699.2751, 39165.81
699.7572, 39203.37
700.2393, 39250.60
700.7214, 39253.34
701.2036, 39229.44
701.6857, 39208.49
702.1678, 39196.47
702.6499, 39194.49
703.1320, 39222.85
703.6141, 39261.14
704.0963, 39254.51
704.5784, 39141.95
705.0605, 39076.70
705.5426, 39112.16
706.0247, 39218.46
706.5068, 39259.61
706.9890, 39230.55
707.4711, 39181.07
707.9532, 39118.77
708.4353, 39058.93
708.9174, 39054.30
709.3995, 39099.44
709.8817, 39142.05
710.3638, 39150.39
710.8459, 39137.25
711.3280, 39107.54
711.8101, 39058.80
712.2922, 39020.82
712.7744, 38996.80
713.2565, 38990.48
713.7386, 39006.72
714.2207, 39065.77
714.7028, 39093.45
715.1849, 39082.47
715.6671, 39053.09
716.1492, 39019.18
716.6313, 38982.91
717.1134, 38972.50
717.5955, 38999.92
718.0776, 39031.63
718.5598, 39017.47
719.0419, 38978.71
719.5240, 38957.17
720.0061, 38987.27
720.4882, 39013.83
720.9703, 39007.13
721.4525, 38978.79
721.9346, 38955.16
722.4167, 38939.42
722.8988, 38929.09
723.3809, 38926.46
723.8630, 38928.66
724.3452, 38919.90
724.8273, 38896.72
725.3094, 38887.89
725.7915, 38917.15
726.2736, 38966.84
726.7557, 38990.08
727.2379, 38989.39
727.7200, 38984.81
728.2021, 38998.04
728.6842, 39006.70
729.1663, 38981.93
729.6484, 38920.07
730.1306, 38883.36
730.6127, 38927.61
731.0948, 38969.93
731.5769, 38958.93
732.0590, 38872.29
732.5411, 38827.38
733.0233, 38832.90
733.5054, 38860.63
733.9875, 38894.19
734.4696, 38930.48
734.9517, 38939.54
735.4338, 38913.40
735.9160, 38888.52
736.3981, 38910.31
736.8802, 38954.63
737.3623, 38987.38
737.8444, 39003.93
738.3266, 38998.94
738.8087, 38937.95
739.2908, 38865.05
739.7729, 38848.13
740.2551, 38932.81
740.7372, 38992.27
741.2193, 39004.92
741.7014, 38990.83
742.1835, 38997.95
742.6656, 39026.69
743.1478, 39029.47
743.6299, 38979.54
744.1120, 38909.90
744.5941, 38862.78
745.0762, 38838.73
745.5583, 38838.04
746.0405, 38891.25
746.5226, 38939.85
747.0047, 38942.63
747.4868, 38908.22
747.9689, 38889.99
748.4510, 38907.19
748.9332, 38925.36
749.4153, 38938.87
749.8974, 38946.04
750.3795, 38918.11
750.8616, 38848.59
751.3438, 38794.77
751.8259, 38811.56
752.3080, 38866.95
752.7901, 38880.18
753.2722, 38851.46
753.7543, 38823.59
754.2365, 38817.46
754.7186, 38829.20
755.2007, 38862.95
755.6828, 38926.01
756.1649, 38969.61
756.6470, 38980.00
757.1292, 38974.02
757.6113, 38956.73
758.0934, 38920.82
758.5755, 38909.88
759.0576, 38929.21
759.5397, 38955.63
760.0219, 38963.55
760.5040, 38958.68
760.9861, 38961.41
761.4682, 38977.51
761.9503, 38986.94
762.4324, 38956.47
762.9146, 38917.84
763.3967, 38909.27
763.8788, 38959.08
764.3609, 39008.41
764.8430, 39062.51
765.3251, 39102.60
765.8073, 39101.50
766.2894, 39045.38
766.7715, 39000.29
767.2536, 38971.53
767.7357, 38965.16
768.2178, 39013.42
768.7000, 39098.69
769.1821, 39141.63
769.6642, 39087.17
770.1463, 39029.98
770.6284, 39072.50
771.1105, 39168.40
771.5927, 39228.07
772.0748, 39187.44
772.5569, 39149.42
773.0390, 39129.73
773.5211, 39130.81
774.0032, 39165.99
774.4854, 39246.52
774.9675, 39320.57
775.4496, 39378.43
775.9317, 39414.88
776.4138, 39398.33
776.8959, 39340.62
777.3781, 39304.96
777.8602, 39360.25
778.3423, 39422.89
778.8244, 39400.96
779.3065, 39319.10
779.7886, 39283.99
780.2708, 39399.39
780.7529, 39490.09
781.2350, 39476.30
781.7171, 39376.19
782.1992, 39376.81
782.6813, 39508.45
783.1635, 39619.89
783.6456, 39615.45
784.1277, 39534.09
784.6098, 39504.33
785.0919, 39522.17
785.5740, 39545.71
786.0562, 39540.23
786.5383, 39534.64
787.0204, 39563.05
787.5025, 39626.99
787.9846, 39664.95
788.4667, 39636.73
788.9489, 39603.73
789.4310, 39592.89
789.9131, 39606.08
790.3952, 39608.16
790.8773, 39598.74
791.3594, 39579.88
791.8416, 39528.43
792.3237, 39471.95
792.8058, 39507.36
793.2879, 39637.59
793.7700, 39742.89
794.2521, 39707.10
794.7343, 39633.65
795.2164, 39611.85
795.6985, 39668.05
796.1806, 39703.36
796.6627, 39702.25
797.1448, 39683.92
797.6270, 39650.03
798.1091, 39592.45
798.5912, 39594.01
799.0733, 39663.84
799.5554, 39746.54
800.0375, 39796.41
800.5197, 39818.22
801.0018, 39815.82
801.4839, 39787.07
801.9660, 39756.61
802.4481, 39719.17
802.9302, 39699.06
803.4124, 39721.18
803.8945, 39821.41
804.3766, 39890.22
804.8587, 39912.62
805.3408, 39923.27
805.8229, 39958.86
806.3051, 40019.07
806.7872, 40054.24
807.2693, 40058.30
807.7514, 40048.80
808.2335, 40016.04
808.7156, 39991.31
809.1978, 40036.16
809.6799, 40194.39
810.1620, 40317.18
810.6441, 40315.87
811.1262, 40264.54
811.6083, 40233.74
812.0905, 40221.61
812.5726, 40241.43
813.0547, 40301.34
813.5368, 40377.52
814.0189, 40439.50
814.5010, 40491.55
814.9832, 40561.66
815.4653, 40657.00
815.9474, 40755.52
816.4295, 40852.02
816.9116, 40934.18
817.3937, 40980.30
817.8759, 40940.32
818.3580, 40952.21
818.8401, 41102.25
819.3222, 41277.76
819.8043, 41365.48
820.2864, 41337.68
820.7686, 41349.07
821.2507, 41414.00
821.7328, 41517.88
822.2149, 41676.63
822.6970, 41855.98
823.1791, 41962.49
823.6613, 41955.12
824.1434, 41935.97
824.6255, 41953.52
825.1076, 42004.69
825.5897, 42085.80
826.0718, 42252.52
826.5540, 42365.68
827.0361, 42400.81
827.5182, 42412.07
828.0003, 42468.19
828.4824, 42568.09
828.9645, 42659.77
829.4467, 42735.43
829.9288, 42800.02
830.4109, 42862.86
830.8930, 42917.02
831.3751, 42947.75
831.8572, 42931.38
832.3394, 42936.46
832.8215, 43006.14
833.3036, 43099.44
833.7857, 43174.75
834.2678, 43239.66
834.7499, 43259.27
835.2321, 43224.04
835.7142, 43159.74
836.1963, 43082.18
836.6784, 43000.61
837.1605, 42955.74
837.6426, 42961.50
838.1248, 42977.96
838.6069, 42973.65
839.0890, 42963.44
839.5711, 42964.69
840.0532, 42994.41
840.5353, 43010.96
841.0175, 43012.23
841.4996, 42999.59
841.9817, 42970.88
842.4638, 42925.13
842.9459, 42882.18
843.4280, 42842.07
843.9102, 42814.41
844.3923, 42823.08
844.8744, 42846.97
845.3565, 42850.33
845.8386, 42820.93
846.3207, 42790.42
846.8029, 42761.18
847.2850, 42743.46
847.7671, 42746.08
848.2492, 42773.90
848.7313, 42812.34
849.2134, 42868.32
849.6956, 42916.48
850.1777, 42913.30
850.6598, 42880.21
851.1419, 42897.84
851.6240, 42979.48
852.1061, 43074.92
852.5883, 43149.87
853.0704, 43219.12
853.5525, 43297.28
854.0346, 43387.52
854.5167, 43482.25
854.9988, 43586.75
855.4810, 43687.98
855.9631, 43773.29
856.4452, 43842.55
856.9273, 43927.54
857.4094, 44028.65
857.8915, 44145.31
858.3737, 44272.27
858.8558, 44415.17
859.3379, 44593.59
859.8200, 44812.24
860.3021, 45003.84
860.7842, 45104.40
861.2664, 45199.89
861.7485, 45336.48
862.2306, 45519.04
862.7127, 45708.06
863.1948, 45907.81
863.6769, 46101.83
864.1591, 46290.93
864.6412, 46464.27
865.1233, 46585.71
865.6054, 46660.56
866.0875, 46755.02
866.5696, 46947.66
867.0518, 47141.72
867.5339, 47275.54
868.0160, 47342.77
868.4981, 47394.05
868.9802, 47423.51
869.4623, 47451.21
869.9445, 47493.60
870.4266, 47541.24
870.9087, 47562.03
871.3908, 47553.16
871.8729, 47486.02
872.3550, 47310.63
872.8372, 47095.84
873.3193, 46893.80
873.8014, 46702.28
874.2835, 46508.00
874.7656, 46308.13
875.2477, 46104.31
875.7299, 45896.77
876.2120, 45686.21
876.6941, 45469.55
877.1762, 45247.71
877.6583, 45013.07
878.1404, 44762.58
878.6226, 44500.29
879.1047, 44218.20
879.5869, 43929.54
880.0690, 43661.39
880.5511, 43436.51
881.0332, 43219.75
881.5153, 42986.58
881.9974, 42759.59
882.4796, 42590.15
882.9617, 42491.09
883.4438, 42373.80
883.9259, 42211.70
884.4080, 42036.74
884.8901, 41907.58
885.3723, 41805.57
885.8544, 41683.73
886.3365, 41498.66
886.8186, 41337.43
887.3007, 41268.34
887.7828, 41235.07
888.2650, 41159.34
888.7471, 41031.32
889.2292, 40876.39
889.7113, 40674.86
890.1934, 40495.62
890.6755, 40466.31
891.1577, 40532.54
891.6398, 40509.79
892.1219, 40347.14
892.6040, 40181.76
893.0861, 40114.63
893.5682, 40088.07
894.0504, 40049.70
894.5325, 39990.77
895.0146, 39922.41
895.4967, 39838.23
895.9788, 39756.59
896.4609, 39696.11
896.9431, 39653.38
897.4252, 39606.75
897.9073, 39555.03
898.3894, 39512.12
898.8715, 39495.48
899.3536, 39486.19
899.8358, 39470.47
900.3179, 39447.43
900.8000, 39410.43
901.2821, 39346.00
901.7642, 39288.33
902.2463, 39259.14
902.7285, 39252.09
903.2106, 39199.77
903.6927, 39105.20
904.1748, 39040.65
904.6569, 39081.77
905.1390, 39150.46
905.6212, 39169.78
906.1033, 39146.71
906.5854, 39120.05
907.0675, 39086.02
907.5496, 39069.77
908.0317, 39096.28
908.5139, 39137.10
908.9960, 39082.75
909.4781, 38932.88
909.9602, 38831.66
910.4423, 38852.32
910.9244, 38909.94
911.4066, 38908.06
911.8887, 38867.69
912.3708, 38827.34
912.8529, 38791.09
913.3350, 38768.27
913.8171, 38771.14
914.2993, 38780.30
914.7814, 38763.23
915.2635, 38715.85
915.7456, 38704.57
916.2277, 38747.50
916.7098, 38790.18
917.1920, 38748.57
917.6741, 38673.77
918.1562, 38647.12
918.6383, 38702.79
919.1204, 38743.41
919.6025, 38734.98
920.0847, 38704.80
920.5668, 38670.97
921.0489, 38635.02
921.5310, 38575.29
922.0131, 38487.71
922.4952, 38411.66
922.9774, 38386.41
923.4595, 38389.56
923.9416, 38386.61
924.4237, 38376.75
924.9058, 38379.89
925.3879, 38439.49
925.8701, 38475.82
926.3522, 38444.20
926.8343, 38356.46
927.3164, 38313.82
927.7985, 38320.84
928.2806, 38328.69
928.7628, 38314.90
929.2449, 38289.16
929.7270, 38259.33
930.2091, 38229.81
930.6912, 38211.70
931.1733, 38233.15
931.6555, 38239.14
932.1376, 38200.05
932.6197, 38141.05
933.1018, 38104.54
933.5839, 38093.57
934.0660, 38080.59
934.5482, 38060.87
935.0303, 38036.45
935.5124, 37999.20
935.9945, 37961.75
936.4766, 37945.94
936.9587, 37957.35
937.4409, 37988.09
937.9230, 38071.45
938.4051, 38145.83
938.8872, 38155.90
939.3693, 38083.64
939.8514, 38062.82
940.3336, 38101.61
940.8157, 38134.67
941.2978, 38082.65
941.7799, 38003.27
942.2620, 37994.71
942.7441, 38057.36
943.2263, 38092.37
943.7084, 38029.14
944.1905, 37963.45
944.6726, 37933.51
945.1547, 37934.27
945.6368, 37936.24
946.1190, 37939.61
946.6011, 37941.01
947.0832, 37936.39
947.5653, 37931.77
948.0474, 37942.33
948.5295, 37958.74
949.0117, 37959.32
949.4938, 37924.65
949.9759, 37887.26
950.4580, 37841.27
950.9401, 37804.64
951.4222, 37818.90
951.9044, 37885.70
952.3865, 37902.16
952.8686, 37843.32
953.3507, 37772.77
953.8328, 37758.21
954.3149, 37772.30
954.7971, 37777.45
955.2792, 37757.44
955.7613, 37765.86
956.2434, 37837.89
956.7255, 37906.99
957.2076, 37929.66
957.6898, 37907.40
958.1719, 37899.26
958.6540, 37904.75
959.1361, 37895.52
959.6182, 37834.36
960.1003, 37763.31
960.5825, 37713.87
961.0646, 37687.50
961.5467, 37684.71
962.0288, 37719.75
962.5109, 37758.76
962.9930, 37802.52
963.4752, 37837.46
963.9573, 37815.92
964.4394, 37747.95
964.9215, 37695.30
965.4036, 37683.12
965.8857, 37682.94
966.3679, 37656.39
966.8500, 37634.39
967.3321, 37661.61
967.8142, 37820.96
968.2963, 37878.99
968.7784, 37799.72
969.2606, 37688.77
969.7427, 37649.85
970.2248, 37668.93
970.7069, 37707.83
971.1890, 37762.87
971.6711, 37794.71
972.1533, 37753.85
972.6354, 37700.30
973.1175, 37680.73
973.5996, 37695.25
974.0817, 37671.66
974.5638, 37588.32
975.0460, 37546.55
975.5281, 37610.01
976.0102, 37721.43
976.4923, 37763.00
976.9744, 37749.61
977.4565, 37725.00
977.9387, 37696.21
978.4208, 37673.52
978.9029, 37661.34
979.3850, 37657.17
979.8671, 37660.42
980.3492, 37674.36
980.8314, 37674.48
981.3135, 37655.80
981.7956, 37633.40
982.2777, 37621.43
982.7598, 37617.23
983.2419, 37620.83
983.7241, 37634.57
984.2062, 37635.56
984.6883, 37597.00
985.1704, 37564.74
985.6525, 37561.68
986.1346, 37584.63
986.6168, 37597.53
987.0989, 37600.92
987.5810, 37611.34
988.0631, 37653.47
988.5452, 37694.31
989.0273, 37699.87
989.5095, 37679.34
989.9916, 37655.93
990.4737, 37630.93
990.9558, 37609.08
991.4379, 37594.34
991.9200, 37578.49
992.4022, 37537.33
992.8843, 37481.99
993.3664, 37464.21
993.8485, 37498.66
994.3306, 37539.30
994.8127, 37556.08
995.2949, 37563.99
995.7770, 37577.66
996.2591, 37600.82
996.7412, 37604.95
997.2233, 37582.83
997.7054, 37568.07
998.1876, 37599.12
998.6697, 37644.56
999.1518, 37629.26
999.6339, 37564.39
1000.116, 37495.18
1000.598, 37415.54
1001.080, 37365.20
1001.562, 37367.17
1002.044, 37401.76
1002.527, 37437.83
1003.009, 37474.90
1003.491, 37526.64
1003.973, 37606.25
1004.455, 37651.94
1004.937, 37552.98
1005.419, 37398.99
1005.901, 37301.63
1006.384, 37286.56
1006.866, 37308.66
1007.348, 37396.37
1007.830, 37464.59
1008.312, 37455.44
1008.794, 37384.22
1009.276, 37334.25
1009.758, 37305.62
1010.240, 37296.59
1010.723, 37325.48
1011.205, 37354.56
1011.687, 37356.64
1012.169, 37340.70
1012.651, 37333.34
1013.133, 37340.32
1013.615, 37340.48
1014.097, 37329.93
1014.580, 37313.55
1015.062, 37292.29
1015.544, 37271.93
1016.026, 37272.36
1016.508, 37306.10
1016.990, 37306.43
1017.472, 37192.35
1017.954, 37088.60
1018.436, 37075.87
1018.919, 37148.54
1019.401, 37177.81
1019.883, 37163.57
1020.365, 37143.55
1020.847, 37131.77
1021.329, 37131.03
1021.811, 37153.74
1022.293, 37189.01
1022.776, 37210.14
1023.258, 37201.46
1023.740, 37197.82
1024.222, 37209.62
1024.704, 37215.63
1025.186, 37169.28
1025.668, 37092.00
1026.150, 37069.92
1026.632, 37119.77
1027.115, 37155.14
1027.597, 37103.23
1028.079, 37036.13
1028.561, 36999.07
1029.043, 36991.83
1029.525, 37009.02
1030.007, 37055.00
1030.489, 37087.18
1030.972, 37083.14
1031.454, 37057.51
1031.936, 37017.78
1032.418, 36973.73
1032.900, 36946.85
1033.382, 36979.89
1033.864, 36974.77
1034.346, 36896.79
1034.828, 36812.15
1035.311, 36805.18
1035.793, 36863.08
1036.275, 36901.48
1036.757, 36913.80
1037.239, 36921.26
1037.721, 36943.51
1038.203, 36962.44
1038.685, 36962.55
1039.167, 36945.38
1039.650, 36932.98
1040.132, 36929.08
1040.614, 36912.77
1041.096, 36873.32
1041.578, 36824.94
1042.060, 36774.72
1042.542, 36736.67
1043.024, 36740.32
1043.507, 36825.81
1043.989, 36891.27
1044.471, 36918.77
1044.953, 36921.67
1045.435, 36907.64
1045.917, 36877.32
1046.399, 36827.44
1046.881, 36760.12
1047.364, 36714.09
1047.846, 36731.82
1048.328, 36764.74
1048.810, 36781.70
1049.292, 36785.23
1049.774, 36796.01
1050.256, 36823.24
1050.738, 36822.70
1051.220, 36779.42
1051.703, 36721.88
1052.185, 36683.08
1052.667, 36662.30
1053.149, 36664.74
1053.631, 36699.88
1054.113, 36716.59
1054.595, 36669.45
1055.077, 36638.34
1055.559, 36677.18
1056.042, 36769.91
1056.524, 36802.19
1057.006, 36780.28
1057.488, 36755.42
1057.970, 36764.30
1058.452, 36769.92
1058.934, 36738.22
1059.416, 36690.50
1059.899, 36673.03
1060.381, 36708.37
1060.863, 36685.80
1061.345, 36582.16
1061.827, 36480.33
1062.309, 36469.52
1062.791, 36512.79
1063.273, 36565.00
1063.755, 36621.32
1064.238, 36662.45
1064.720, 36682.86
1065.202, 36686.41
1065.684, 36668.25
1066.166, 36637.83
1066.648, 36622.02
1067.130, 36618.40
1067.612, 36614.98
1068.094, 36609.81
1068.577, 36599.48
1069.059, 36561.42
1069.541, 36531.68
1070.023, 36553.24
1070.505, 36645.11
1070.987, 36670.00
1071.469, 36622.39
1071.951, 36565.28
1072.434, 36526.85
1072.916, 36513.72
1073.398, 36559.64
1073.880, 36640.20
1074.362, 36669.68
1074.844, 36572.50
1075.326, 36525.18
1075.808, 36567.51
1076.291, 36634.20
1076.773, 36624.20
1077.255, 36564.70
1077.737, 36539.94
1078.219, 36564.42
1078.701, 36573.94
1079.183, 36517.29
1079.665, 36456.14
1080.147, 36423.39
1080.630, 36413.24
1081.112, 36386.12
1081.594, 36342.98
1082.076, 36313.86
1082.558, 36312.61
1083.040, 36324.64
1083.522, 36348.78
1084.004, 36372.98
1084.486, 36376.84
1084.969, 36335.23
1085.451, 36349.28
1085.933, 36437.50
1086.415, 36511.33
1086.897, 36491.24
1087.379, 36417.32
1087.861, 36337.67
1088.343, 36263.30
1088.826, 36232.37
1089.308, 36290.17
1089.790, 36355.63
1090.272, 36425.31
1090.754, 36481.68
1091.236, 36492.26
1091.718, 36464.28
1092.200, 36426.00
1092.682, 36380.49
1093.165, 36344.69
1093.647, 36325.68
1094.129, 36323.95
1094.611, 36347.16
1095.093, 36389.35
1095.575, 36409.55
1096.057, 36406.98
1096.539, 36402.84
1097.022, 36408.08
1097.504, 36408.88
1097.986, 36388.11
1098.468, 36355.10
1098.950, 36322.07
1099.432, 36287.52
1099.914, 36264.65
1100.396, 36260.28
1100.879, 36246.87
1101.361, 36175.69
1101.843, 36095.21
1102.325, 36125.99
1102.807, 36236.00
1103.289, 36302.34
1103.771, 36231.67
1104.253, 36177.85
1104.735, 36172.44
1105.218, 36188.12
1105.700, 36183.59
1106.182, 36165.88
1106.664, 36178.62
1107.146, 36227.42
1107.628, 36252.76
1108.110, 36189.16
1108.592, 36120.82
1109.074, 36095.02
1109.557, 36103.69
1110.039, 36123.86
1110.521, 36156.10
1111.003, 36160.62
1111.485, 36115.31
1111.967, 36071.03
1112.449, 36076.38
1112.931, 36109.40
1113.414, 36153.40
1113.896, 36214.77
1114.378, 36234.49
1114.860, 36204.51
1115.342, 36168.20
1115.824, 36153.38
1116.306, 36144.12
1116.788, 36096.29
1117.271, 36036.41
1117.753, 36023.23
1118.235, 36139.96
1118.717, 36208.63
1119.199, 36214.48
1119.681, 36179.01
1120.163, 36091.10
1120.645, 35983.73
1121.127, 35966.59
1121.609, 36035.92
1122.092, 36110.31
1122.574, 36179.51
1123.056, 36205.93
1123.538, 36156.81
1124.020, 36077.85
1124.502, 36074.03
1124.984, 36132.75
1125.466, 36134.88
1125.949, 36050.93
1126.431, 35982.12
1126.913, 36033.69
1127.395, 36097.13
1127.877, 36074.30
1128.359, 35981.93
1128.841, 35983.36
1129.323, 36086.23
1129.806, 36138.55
1130.288, 36055.47
1130.770, 35963.69
1131.252, 36022.97
1131.734, 36136.40
1132.216, 36168.91
1132.698, 36071.17
1133.180, 36028.97
1133.662, 36058.93
1134.145, 36075.05
1134.627, 35991.59
1135.109, 35880.92
1135.591, 35863.54
1136.073, 35912.05
1136.555, 35957.58
1137.037, 35970.91
1137.519, 36001.09
1138.001, 36067.64
1138.484, 36116.09
1138.966, 36065.03
1139.448, 35958.00
1139.930, 35903.21
1140.412, 35901.70
1140.894, 35908.07
1141.376, 35906.02
1141.858, 35906.54
1142.341, 35915.41
1142.823, 35925.34
1143.305, 35917.57
1143.787, 35898.18
1144.269, 35897.35
1144.751, 35921.91
1145.233, 35944.77
1145.715, 35952.39
1146.198, 35951.38
1146.680, 35940.91
1147.162, 35925.97
1147.644, 35937.81
1148.126, 35973.29
1148.608, 35987.73
1149.090, 35960.04
1149.572, 35926.71
1150.054, 35924.46
1150.536, 35922.80
1151.019, 35880.97
1151.501, 35791.11
1151.983, 35783.93
1152.465, 35863.29
1152.947, 35927.31
1153.429, 35904.84
1153.911, 35860.70
1154.393, 35857.46
1154.876, 35875.13
1155.358, 35878.90
1155.840, 35865.07
1156.322, 35835.24
1156.804, 35782.38
1157.286, 35752.27
1157.768, 35808.67
1158.250, 35890.25
1158.733, 35923.00
1159.215, 35912.98
1159.697, 35890.92
1160.179, 35853.20
1160.661, 35823.66
1161.143, 35805.91
1161.625, 35794.30
1162.107, 35780.07
1162.589, 35768.18
1163.072, 35771.92
1163.554, 35790.53
1164.036, 35797.09
1164.518, 35767.59
1165.000, 35756.92
1165.482, 35786.05
1165.964, 35827.73
1166.446, 35834.71
1166.928, 35815.31
1167.411, 35778.67
1167.893, 35719.40
1168.375, 35697.30
1168.857, 35776.47
1169.339, 35839.82
1169.821, 35837.68
1170.303, 35792.10
1170.785, 35755.55
1171.268, 35730.36
1171.750, 35726.46
1172.232, 35759.72
1172.714, 35781.51
1173.196, 35761.23
1173.678, 35734.05
1174.160, 35725.95
1174.642, 35730.05
1175.125, 35697.23
1175.607, 35632.48
1176.089, 35564.15
1176.571, 35472.52
1177.053, 35423.21
1177.535, 35488.36
1178.017, 35577.45
1178.499, 35600.62
1178.981, 35559.17
1179.464, 35562.48
1179.946, 35608.16
1180.428, 35636.87
1180.910, 35588.71
1181.392, 35538.27
1181.874, 35531.63
1182.356, 35544.53
1182.838, 35535.69
1183.320, 35503.61
1183.803, 35496.67
1184.285, 35519.27
1184.767, 35546.18
1185.249, 35563.34
1185.731, 35573.77
1186.213, 35581.59
1186.695, 35583.47
1187.177, 35569.63
1187.660, 35539.49
1188.142, 35489.79
1188.624, 35412.80
1189.106, 35377.76
1189.588, 35510.65
1190.070, 35657.44
1190.552, 35672.53
1191.034, 35573.76
1191.516, 35534.28
1191.999, 35561.98
1192.481, 35566.48
1192.963, 35515.59
1193.445, 35469.67
1193.927, 35503.44
1194.409, 35562.92
1194.891, 35592.88
1195.373, 35588.86
1195.855, 35589.21
1196.338, 35594.70
1196.820, 35600.36
1197.302, 35613.29
1197.784, 35606.89
1198.266, 35518.12
1198.748, 35410.51
1199.230, 35373.85
1199.712, 35432.97
1200.195, 35451.80
1200.677, 35424.27
1201.159, 35398.53
1201.641, 35398.32
1202.123, 35415.31
1202.605, 35458.56
1203.087, 35505.79
1203.569, 35519.64
1204.052, 35489.49
1204.534, 35440.80
1205.016, 35365.23
1205.498, 35318.93
1205.980, 35384.17
1206.462, 35463.79
1206.944, 35410.49
1207.426, 35290.19
1207.908, 35267.45
1208.391, 35418.29
1208.873, 35473.13
1209.355, 35405.62
1209.837, 35326.34
1210.319, 35341.38
1210.801, 35386.82
1211.283, 35386.93
1211.765, 35354.15
1212.247, 35340.97
1212.730, 35357.69
1213.212, 35376.27
1213.694, 35396.95
1214.176, 35403.79
1214.658, 35362.83
1215.140, 35313.00
1215.622, 35306.55
1216.104, 35336.16
1216.587, 35341.07
1217.069, 35305.20
1217.551, 35288.25
1218.033, 35300.90
1218.515, 35330.10
1218.997, 35379.09
1219.479, 35424.51
1219.961, 35442.93
1220.443, 35430.83
1220.926, 35378.95
1221.408, 35260.89
1221.890, 35223.04
1222.372, 35319.43
1222.854, 35436.49
1223.336, 35435.34
1223.818, 35380.50
1224.300, 35342.86
1224.782, 35331.38
1225.265, 35311.93
1225.747, 35279.47
1226.229, 35266.32
1226.711, 35292.72
1227.193, 35313.84
1227.675, 35254.80
1228.157, 35171.38
1228.639, 35129.70
1229.122, 35139.86
1229.604, 35174.17
1230.086, 35240.98
1230.568, 35275.35
1231.050, 35241.88
1231.532, 35187.32
1232.014, 35142.28
1232.496, 35120.71
1232.979, 35153.95
1233.461, 35254.62
1233.943, 35284.01
1234.425, 35233.72
1234.907, 35196.43
1235.389, 35233.91
1235.871, 35273.38
1236.353, 35211.53
1236.835, 35125.04
1237.318, 35132.84
1237.800, 35261.94
1238.282, 35280.35
1238.764, 35182.61
1239.246, 35083.42
1239.728, 35041.86
1240.210, 35032.12
1240.692, 35044.59
1241.175, 35071.21
1241.657, 35101.05
1242.139, 35134.51
1242.621, 35168.29
1243.103, 35202.80
1243.585, 35229.41
1244.067, 35258.77
1244.549, 35262.13
1245.031, 35183.55
1245.514, 35087.73
1245.996, 35066.15
1246.478, 35125.59
1246.960, 35188.38
1247.442, 35251.29
1247.924, 35274.04
1248.406, 35184.02
1248.888, 35097.75
1249.370, 35088.39
1249.853, 35116.70
1250.335, 35142.59
1250.817, 35164.60
1251.299, 35111.74
1251.781, 34989.68
1252.263, 34921.94
1252.745, 35073.31
1253.227, 35190.25
1253.710, 35116.87
1254.192, 34982.84
1254.674, 34945.93
1255.156, 34995.45
1255.638, 35079.88
1256.120, 35187.99
1256.602, 35236.93
1257.084, 35113.11
1257.567, 35008.57
1258.049, 34988.64
1258.531, 35011.87
1259.013, 35031.01
1259.495, 35044.55
1259.977, 35047.65
1260.459, 35039.79
1260.941, 35019.96
1261.423, 34963.34
1261.906, 34929.43
1262.388, 34934.31
1262.870, 34961.42
1263.352, 34999.95
1263.834, 35038.22
1264.316, 35050.95
1264.798, 35035.67
1265.280, 34994.00
1265.762, 34878.16
1266.245, 34821.12
1266.727, 34862.95
1267.209, 34933.08
1267.691, 34919.35
1268.173, 34875.52
1268.655, 34903.93
1269.137, 35007.55
1269.619, 35069.77
1270.102, 35069.46
1270.584, 35051.36
1271.066, 35019.09
1271.548, 34990.81
1272.030, 35006.38
1272.512, 35028.35
1272.994, 34997.94
1273.476, 34918.05
1273.958, 34896.07
1274.441, 34950.66
1274.923, 34981.68
1275.405, 34963.22
1275.887, 34933.31
1276.369, 34925.90
1276.851, 34930.51
1277.333, 34946.52
1277.815, 34967.50
1278.297, 34950.09
1278.780, 34890.91
1279.262, 34874.32
1279.744, 34926.26
1280.226, 34982.61
1280.708, 35003.53
1281.190, 34997.45
1281.672, 34959.78
1282.154, 34903.28
1282.637, 34870.50
1283.119, 34859.96
1283.601, 34858.34
1284.083, 34862.47
1284.565, 34876.57
1285.047, 34931.50
1285.529, 34961.81
1286.011, 34920.55
1286.494, 34846.14
1286.976, 34871.57
1287.458, 34957.88
1287.940, 34959.26
1288.422, 34832.41
1288.904, 34735.99
1289.386, 34746.79
1289.868, 34778.89
1290.350, 34817.84
1290.833, 34844.62
1291.315, 34798.67
1291.797, 34718.78
1292.279, 34684.48
1292.761, 34715.30
1293.243, 34747.08
1293.725, 34775.73
1294.207, 34793.39
1294.689, 34797.41
1295.172, 34789.98
1295.654, 34775.42
1296.136, 34750.76
1296.618, 34707.02
1297.100, 34640.24
1297.582, 34586.49
1298.064, 34540.97
1298.546, 34542.54
1299.029, 34617.69
1299.511, 34697.66
1299.993, 34712.91
1300.475, 34695.16
1300.957, 34665.78
1301.439, 34630.21
##END=



