##NAMES=Agardite-(Y)
##RRUFFID=R060924
##IDEAL CHEMISTRY=Cu^2+^_6_Y^3+^(As^5+^O_4_)_3_(OH)_6_&#183;3H_2_O
##LOCALITY=Bou Skour mine, Djebel Sarhro, Morocco
##OWNER=RRUFF
##SOURCE=Bob Jenkins
##DESCRIPTION=Light bluish-green flexible fibers
##STATUS=The identification of this mineral has been confirmed by X-ray diffraction and chemical analysis
##URL=rruff.info/R060924
##MEASURED CHEMISTRY=(Cu_5.81_Ca_0.11_Fe_0.02_)_Σ=5.94_(Y_0.51_Nd_0.05_Gd_0.04_La_0.03_Sm_0.02_Pr_0.01_Ca_0.34_)_Σ=1.00_[(AsO_4_)_0.85_(PO_4_)_0.03_(SiO_4_)_0.01_]_3_(OH)_6_·4.04H_2_O
90.47504, 98.34335
90.95715, 97.93790
91.43927, 97.27817
91.92139, 96.76375
92.40350, 96.38898
92.88562, 96.03947
93.36774, 95.05493
93.84985, 92.87206
94.33197, 89.62254
94.81409, 86.57177
95.29620, 83.54385
95.77832, 80.89483
96.26044, 78.67441
96.74255, 76.71817
97.22467, 74.79234
97.70679, 72.79158
98.18890, 71.06254
98.67102, 69.61109
99.15314, 68.38030
99.63525, 67.35476
100.1174, 66.52743
100.5995, 65.83447
101.0816, 65.04954
101.5637, 63.97217
102.0458, 62.99347
102.5280, 62.12730
103.0101, 61.37374
103.4922, 60.73634
103.9743, 60.23166
104.4564, 59.85487
104.9385, 59.44062
105.4207, 58.94127
105.9028, 58.44332
106.3849, 58.05189
106.8670, 57.75027
107.3491, 57.34298
107.8312, 56.57426
108.3134, 55.46672
108.7955, 54.50611
109.2776, 53.89748
109.7597, 53.42524
110.2418, 52.72757
110.7239, 51.64696
111.2061, 50.59461
111.6882, 49.99667
112.1703, 49.75845
112.6524, 49.53539
113.1345, 49.12630
113.6166, 48.53862
114.0988, 47.90889
114.5809, 47.10437
115.0630, 46.39260
115.5451, 45.96125
116.0272, 45.80396
116.5093, 45.75351
116.9915, 45.62056
117.4736, 45.40063
117.9557, 45.09739
118.4378, 44.67311
118.9199, 44.20608
119.4020, 43.71942
119.8842, 43.22826
120.3663, 42.77288
120.8484, 42.44382
121.3305, 42.48681
121.8126, 42.38105
122.2947, 42.00908
122.7769, 41.50560
123.2590, 41.04310
123.7411, 40.70885
124.2232, 40.47602
124.7053, 40.20976
125.1874, 39.89161
125.6696, 39.57010
126.1517, 39.24743
126.6338, 38.93065
127.1159, 38.64486
127.5980, 38.43264
128.0801, 38.25845
128.5623, 38.00353
129.0444, 37.52290
129.5265, 37.05864
130.0086, 36.89111
130.4907, 37.07568
130.9728, 37.28295
131.4550, 37.35266
131.9371, 37.30592
132.4192, 37.13392
132.9013, 36.75353
133.3834, 36.25803
133.8655, 35.94423
134.3477, 35.96273
134.8298, 35.94765
135.3119, 35.72274
135.7940, 35.35980
136.2761, 34.98836
136.7582, 34.68032
137.2404, 34.43509
137.7225, 34.32660
138.2046, 34.63280
138.6867, 34.83492
139.1688, 34.73098
139.6509, 34.35242
140.1331, 33.86184
140.6152, 33.41535
141.0973, 33.02906
141.5794, 32.64341
142.0615, 32.21357
142.5436, 31.81486
143.0258, 31.52104
143.5079, 31.33418
143.9900, 31.15902
144.4721, 30.85103
144.9542, 30.29577
145.4363, 29.91837
145.9185, 29.86020
146.4006, 29.93716
146.8827, 29.95390
147.3648, 29.85910
147.8469, 29.67206
148.3290, 29.36204
148.8112, 28.89703
149.2933, 28.55042
149.7754, 28.50905
150.2575, 28.67577
150.7396, 28.76396
151.2217, 28.67801
151.7039, 28.48360
152.1860, 28.24725
152.6681, 27.95245
153.1502, 27.73465
153.6323, 27.76787
154.1144, 28.06423
154.5966, 28.24498
155.0787, 28.14391
155.5608, 27.91248
156.0429, 27.61472
156.5250, 27.25912
157.0071, 26.90588
157.4893, 26.62872
157.9714, 26.42189
158.4535, 26.31812
158.9356, 26.43132
159.4177, 26.57616
159.8998, 26.59059
160.3820, 26.41446
160.8641, 26.13722
161.3462, 25.98436
161.8283, 26.16999
162.3104, 26.17067
162.7925, 25.77689
163.2747, 25.24543
163.7568, 24.86303
164.2389, 24.77737
164.7210, 24.90819
165.2031, 24.92315
165.6852, 24.69435
166.1674, 24.49491
166.6495, 24.34065
167.1316, 24.24658
167.6137, 24.25530
168.0958, 24.41041
168.5779, 24.67236
169.0601, 24.78905
169.5422, 24.68656
170.0243, 24.55008
170.5064, 24.45113
170.9885, 24.38105
171.4706, 24.29089
171.9528, 24.12520
172.4349, 23.92374
172.9170, 23.83645
173.3991, 23.95553
173.8812, 24.11371
174.3633, 24.19144
174.8455, 24.18769
175.3276, 24.14366
175.8097, 24.06373
176.2918, 23.96305
176.7739, 23.86839
177.2560, 23.78901
177.7382, 23.71568
178.2203, 23.63717
178.7024, 23.55389
179.1845, 23.46484
179.6666, 23.34466
180.1487, 23.22445
180.6309, 23.15024
181.1130, 23.15463
181.5951, 23.20942
182.0772, 23.24614
182.5593, 23.28980
183.0414, 23.26421
183.5236, 23.07876
184.0057, 22.83203
184.4878, 22.67479
184.9699, 22.72083
185.4520, 22.92362
185.9341, 22.97929
186.4163, 22.69219
186.8984, 22.46895
187.3805, 22.44084
187.8626, 22.53801
188.3447, 22.63802
188.8268, 22.65704
189.3090, 22.59703
189.7911, 22.52287
190.2732, 22.43641
190.7553, 22.33428
191.2374, 22.20744
191.7195, 22.06305
192.2017, 21.91178
192.6838, 21.75881
193.1659, 21.60109
193.6480, 21.49370
194.1301, 21.48176
194.6122, 21.46464
195.0944, 21.38199
195.5765, 21.24965
196.0586, 21.13869
196.5407, 21.12118
197.0228, 21.19968
197.5049, 21.16346
197.9871, 20.91917
198.4692, 20.64932
198.9513, 20.44092
199.4334, 20.30447
199.9155, 20.24754
200.3976, 20.29709
200.8798, 20.45012
201.3619, 20.58540
201.8440, 20.74253
202.3261, 20.85299
202.8082, 20.83490
203.2903, 20.68084
203.7725, 20.49258
204.2546, 20.35572
204.7367, 20.24718
205.2188, 20.09993
205.7009, 19.83477
206.1830, 19.55167
206.6652, 19.38983
207.1473, 19.36721
207.6294, 19.40281
208.1115, 19.51189
208.5936, 19.63586
209.0757, 19.67071
209.5579, 19.53579
210.0400, 19.30509
210.5221, 19.12182
211.0042, 18.99137
211.4863, 18.89993
211.9685, 18.83634
212.4506, 18.80219
212.9327, 18.80654
213.4148, 18.86539
213.8969, 18.95987
214.3790, 19.03205
214.8612, 19.07798
215.3433, 19.10547
215.8254, 19.14334
216.3075, 19.16328
216.7896, 19.11430
217.2717, 18.94864
217.7539, 18.70701
218.2360, 18.57581
218.7181, 18.60899
219.2002, 18.69609
219.6823, 18.88299
220.1644, 19.08735
220.6466, 19.18505
221.1287, 19.08983
221.6108, 18.84559
222.0929, 18.70357
222.5750, 18.74663
223.0571, 18.81263
223.5393, 18.88743
224.0214, 18.96583
224.5035, 19.06137
224.9856, 19.18909
225.4677, 19.32395
225.9498, 19.30099
226.4320, 18.88053
226.9141, 18.56022
227.3962, 18.45569
227.8783, 18.49893
228.3604, 18.59043
228.8425, 18.67915
229.3247, 18.75665
229.8068, 18.77193
230.2889, 18.66667
230.7710, 18.57064
231.2531, 18.48899
231.7352, 18.43632
232.2174, 18.44884
232.6995, 18.55579
233.1816, 18.72302
233.6637, 18.79438
234.1458, 18.69668
234.6279, 18.60721
235.1101, 18.57908
235.5922, 18.58981
236.0743, 18.60433
236.5564, 18.61510
237.0385, 18.60270
237.5206, 18.49323
238.0028, 18.21607
238.4849, 17.97313
238.9670, 17.83629
239.4491, 17.78413
239.9312, 17.78220
240.4133, 17.83894
240.8955, 17.90385
241.3776, 17.85484
241.8597, 17.65095
242.3418, 17.45895
242.8239, 17.35868
243.3060, 17.32569
243.7882, 17.28475
244.2703, 17.19289
244.7524, 17.10884
245.2345, 17.14060
245.7166, 17.31079
246.1987, 17.46393
246.6809, 17.54831
247.1630, 17.55962
247.6451, 17.45974
248.1272, 17.17147
248.6093, 16.86311
249.0914, 16.77062
249.5736, 16.90032
250.0557, 16.97830
250.5378, 16.75978
251.0199, 16.33871
251.5020, 16.12228
251.9841, 16.29151
252.4663, 16.54406
252.9484, 16.60189
253.4305, 16.48267
253.9126, 16.33544
254.3947, 16.22643
254.8768, 16.15640
255.3590, 16.14614
255.8411, 16.26737
256.3232, 16.34760
256.8053, 16.21095
257.2874, 15.92199
257.7695, 15.71320
258.2516, 15.78307
258.7338, 16.07490
259.2159, 16.28823
259.6980, 16.43380
260.1801, 16.46033
260.6622, 16.31357
261.1443, 16.04658
261.6265, 15.77230
262.1086, 15.53076
262.5907, 15.33424
263.0728, 15.25659
263.5549, 15.37500
264.0370, 15.49900
264.5192, 15.53886
265.0013, 15.53242
265.4834, 15.54951
265.9655, 15.64853
266.4476, 15.78533
266.9297, 15.79470
267.4119, 15.59791
267.8940, 15.39438
268.3761, 15.23117
268.8582, 15.10258
269.3403, 15.00345
269.8224, 14.93455
270.3046, 14.88730
270.7867, 14.83224
271.2688, 14.73323
271.7509, 14.69663
272.2330, 14.80189
272.7151, 14.94319
273.1973, 15.01559
273.6794, 14.97652
274.1615, 14.86093
274.6436, 14.72950
275.1257, 14.53472
275.6078, 14.42378
276.0900, 14.45647
276.5721, 14.53929
277.0542, 14.60902
277.5363, 14.64375
278.0184, 14.64158
278.5005, 14.58741
278.9827, 14.42939
279.4648, 14.33798
279.9469, 14.30608
280.4290, 14.34073
280.9111, 14.50409
281.3932, 14.77899
281.8754, 15.03093
282.3575, 15.05524
282.8396, 14.71718
283.3217, 14.54360
283.8038, 14.68242
284.2859, 14.84088
284.7681, 14.84681
285.2502, 14.70509
285.7323, 14.53978
286.2144, 14.48685
286.6965, 14.57874
287.1786, 14.59401
287.6608, 14.46648
288.1429, 14.33177
288.6250, 14.23647
289.1071, 14.18120
289.5892, 14.14285
290.0714, 14.09658
290.5535, 14.04112
291.0356, 14.07546
291.5177, 14.35934
291.9998, 14.56525
292.4819, 14.58854
292.9641, 14.46837
293.4462, 14.26619
293.9283, 14.00429
294.4104, 13.71563
294.8925, 13.61751
295.3746, 14.01468
295.8568, 14.26938
296.3389, 14.17448
296.8210, 13.91568
297.3031, 13.76265
297.7852, 13.84687
298.2673, 14.07663
298.7495, 14.17811
299.2316, 14.02645
299.7137, 13.89167
300.1958, 13.78120
300.6779, 13.69364
301.1600, 13.63420
301.6422, 13.60251
302.1243, 13.58022
302.6064, 13.53193
303.0885, 13.41873
303.5706, 13.35068
304.0527, 13.32770
304.5349, 13.34508
305.0170, 13.42862
305.4991, 13.56838
305.9812, 13.69494
306.4633, 13.71740
306.9454, 13.59476
307.4276, 13.50757
307.9097, 13.46479
308.3918, 13.44363
308.8739, 13.42336
309.3560, 13.41002
309.8381, 13.43695
310.3203, 13.54557
310.8024, 13.74688
311.2845, 13.84149
311.7666, 13.78586
312.2487, 13.68607
312.7308, 13.51560
313.2130, 13.32898
313.6951, 13.23840
314.1772, 13.32419
314.6593, 13.55546
315.1414, 13.71538
315.6235, 13.77441
316.1057, 13.79618
316.5878, 13.74599
317.0699, 13.67642
317.5520, 13.67376
318.0341, 13.77774
318.5162, 13.92678
318.9984, 13.95959
319.4805, 13.69501
319.9626, 13.55020
320.4447, 13.57192
320.9268, 13.69008
321.4089, 13.89422
321.8911, 14.16296
322.3732, 14.38546
322.8553, 14.38446
323.3374, 14.01731
323.8195, 13.77419
324.3016, 13.68126
324.7838, 13.67385
325.2659, 13.76351
325.7480, 13.91891
326.2301, 14.04411
326.7122, 14.04300
327.1943, 13.90215
327.6765, 13.74178
328.1586, 13.51839
328.6407, 13.32162
329.1228, 13.18139
329.6049, 13.09440
330.0870, 13.05280
330.5692, 13.05714
331.0513, 13.09648
331.5334, 13.08667
332.0155, 12.98218
332.4976, 12.87635
332.9797, 12.76145
333.4619, 12.65922
333.9440, 12.59714
334.4261, 12.58757
334.9082, 12.61797
335.3904, 12.65950
335.8725, 12.71783
336.3546, 12.77954
336.8367, 12.89755
337.3188, 12.98630
337.8009, 12.95106
338.2831, 12.78418
338.7652, 12.57803
339.2473, 12.45382
339.7294, 12.42617
340.2115, 12.43882
340.6936, 12.54598
341.1758, 12.64014
341.6579, 12.64844
342.1400, 12.58948
342.6221, 12.54198
343.1042, 12.58197
343.5863, 12.70917
344.0685, 12.76465
344.5506, 12.65695
345.0327, 12.56563
345.5148, 12.55268
345.9969, 12.57769
346.4790, 12.56784
346.9612, 12.47966
347.4433, 12.34635
347.9254, 12.27612
348.4075, 12.32320
348.8896, 12.34759
349.3717, 12.31397
349.8539, 12.26045
350.3360, 12.22272
350.8181, 12.21104
351.3002, 12.20539
351.7823, 12.17206
352.2644, 12.09687
352.7466, 12.04078
353.2287, 11.99534
353.7108, 11.97878
354.1929, 12.03654
354.6750, 12.14605
355.1571, 12.21654
355.6393, 12.13642
356.1214, 11.90714
356.6035, 11.80782
357.0856, 11.98372
357.5677, 12.12003
358.0498, 12.07552
358.5320, 11.92080
359.0141, 11.77395
359.4962, 11.68901
359.9783, 11.66702
360.4604, 11.73643
360.9425, 11.97395
361.4247, 12.12111
361.9068, 12.04182
362.3889, 11.87733
362.8710, 11.74147
363.3531, 11.66434
363.8352, 11.62837
364.3174, 11.61547
364.7995, 11.62597
365.2816, 11.65915
365.7637, 11.75656
366.2458, 11.83851
366.7279, 11.83996
367.2101, 11.77014
367.6922, 11.70031
368.1743, 11.67151
368.6564, 11.68194
369.1385, 11.74300
369.6206, 11.91795
370.1028, 12.01933
370.5849, 11.83981
371.0670, 11.52600
371.5491, 11.34836
372.0312, 11.45436
372.5133, 11.68709
372.9955, 11.84440
373.4776, 11.92465
373.9597, 11.93599
374.4418, 11.82659
374.9239, 11.67971
375.4060, 11.60313
375.8882, 11.61637
376.3703, 11.65343
376.8524, 11.67473
377.3345, 11.68301
377.8166, 11.69811
378.2987, 11.74347
378.7809, 11.76051
379.2630, 11.62379
379.7451, 11.35829
380.2272, 11.22413
380.7093, 11.45840
381.1914, 11.80102
381.6736, 11.85085
382.1557, 11.56524
382.6378, 11.31772
383.1199, 11.42219
383.6020, 11.79357
384.0841, 12.00660
384.5663, 11.95230
385.0484, 11.83912
385.5305, 11.77427
386.0126, 11.74662
386.4947, 11.71763
386.9768, 11.66743
387.4590, 11.61558
387.9411, 11.60962
388.4232, 11.66195
388.9053, 11.71161
389.3874, 11.77436
389.8695, 11.81489
390.3517, 11.76185
390.8338, 11.60808
391.3159, 11.47211
391.7980, 11.48821
392.2801, 11.68396
392.7622, 11.78866
393.2444, 11.71671
393.7265, 11.64350
394.2086, 11.66340
394.6907, 11.75653
395.1728, 11.86636
395.6549, 11.96501
396.1371, 12.04176
396.6192, 12.04953
397.1013, 11.89921
397.5834, 11.78914
398.0655, 11.76809
398.5476, 11.77655
399.0298, 11.74347
399.5119, 11.65485
399.9940, 11.56584
400.4761, 11.55554
400.9582, 11.65415
401.4403, 11.72614
401.9225, 11.80557
402.4046, 11.83095
402.8867, 11.72495
403.3688, 11.53798
403.8509, 11.38898
404.3330, 11.36100
404.8152, 11.43742
405.2973, 11.53242
405.7794, 11.74229
406.2615, 11.81651
406.7436, 11.59544
407.2257, 11.28818
407.7079, 11.11226
408.1900, 11.13214
408.6721, 11.23695
409.1542, 11.27202
409.6363, 11.21970
410.1184, 11.19973
410.6006, 11.25890
411.0827, 11.32236
411.5648, 11.36261
412.0469, 11.37611
412.5290, 11.35933
413.0111, 11.29285
413.4933, 11.19734
413.9754, 11.14230
414.4575, 11.13945
414.9396, 11.14635
415.4217, 11.11181
415.9038, 11.08727
416.3860, 11.15233
416.8681, 11.35123
417.3502, 11.55612
417.8323, 11.63441
418.3144, 11.59960
418.7965, 11.56168
419.2787, 11.53994
419.7608, 11.53542
420.2429, 11.56627
420.7250, 11.62783
421.2071, 11.64880
421.6892, 11.54079
422.1714, 11.40820
422.6535, 11.41141
423.1356, 11.56228
423.6177, 11.72433
424.0998, 11.81361
424.5819, 11.83822
425.0641, 11.85085
425.5462, 11.83255
426.0283, 11.82613
426.5104, 11.86564
426.9925, 11.92788
427.4746, 11.96642
427.9568, 11.96501
428.4389, 11.94290
428.9210, 11.93037
429.4031, 11.93883
429.8852, 11.92075
430.3673, 11.79468
430.8495, 11.70635
431.3316, 11.81235
431.8137, 12.06825
432.2958, 12.27313
432.7779, 12.27577
433.2600, 12.10397
433.7422, 11.98449
434.2243, 11.97722
434.7064, 11.95244
435.1885, 11.86482
435.6706, 11.76588
436.1527, 11.72465
436.6349, 11.75695
437.1170, 11.80507
437.5991, 11.77974
438.0812, 11.65099
438.5633, 11.55917
439.0454, 11.53208
439.5276, 11.51714
440.0097, 11.49588
440.4918, 11.47059
440.9739, 11.45457
441.4560, 11.46418
441.9381, 11.47847
442.4203, 11.42201
442.9024, 11.25159
443.3845, 11.12699
443.8666, 11.12613
444.3487, 11.17336
444.8308, 11.21775
445.3130, 11.25022
445.7951, 11.27079
446.2772, 11.27145
446.7593, 11.25763
447.2414, 11.26109
447.7235, 11.29528
448.2057, 11.32612
448.6878, 11.32701
449.1699, 11.30496
449.6520, 11.27197
450.1341, 11.20941
450.6162, 11.15682
451.0984, 11.16568
451.5805, 11.22503
452.0626, 11.26587
452.5447, 11.25854
453.0268, 11.22078
453.5089, 11.17124
453.9911, 11.09073
454.4732, 11.07512
454.9553, 11.20800
455.4374, 11.38030
455.9195, 11.47054
456.4016, 11.47123
456.8838, 11.46067
457.3659, 11.50780
457.8480, 11.60602
458.3301, 11.63269
458.8122, 11.47118
459.2943, 11.38760
459.7765, 11.52342
460.2586, 11.74655
460.7407, 11.87226
461.2228, 11.84185
461.7049, 11.75075
462.1870, 11.74795
462.6692, 11.88417
463.1513, 11.94551
463.6334, 11.85801
464.1155, 11.77270
464.5976, 11.76468
465.0797, 11.80973
465.5619, 11.83988
466.0440, 11.81013
466.5261, 11.74807
467.0082, 11.72494
467.4903, 11.73541
467.9724, 11.80018
468.4546, 12.01729
468.9367, 12.22806
469.4188, 12.28672
469.9009, 12.18909
470.3830, 12.09746
470.8651, 12.14738
471.3473, 12.30457
471.8294, 12.44838
472.3115, 12.57276
472.7936, 12.68213
473.2757, 12.77827
473.7578, 12.85990
474.2400, 12.92296
474.7221, 12.96846
475.2042, 12.99255
475.6863, 12.94324
476.1684, 12.86723
476.6505, 12.93025
477.1327, 13.20709
477.6148, 13.51800
478.0969, 13.61829
478.5790, 13.46620
479.0611, 13.40310
479.5432, 13.54039
480.0254, 13.68807
480.5075, 13.71882
480.9896, 13.65515
481.4717, 13.58608
481.9538, 13.56136
482.4359, 13.55920
482.9181, 13.51618
483.4002, 13.38101
483.8823, 13.27905
484.3644, 13.25529
484.8465, 13.23086
485.3286, 13.13864
485.8108, 12.98317
486.2929, 12.82301
486.7750, 12.71322
487.2571, 12.64423
487.7392, 12.51685
488.2213, 12.24304
488.7035, 12.05953
489.1856, 12.07410
489.6677, 12.17330
490.1498, 12.27108
490.6319, 12.34625
491.1140, 12.33702
491.5962, 12.12256
492.0783, 11.73617
492.5604, 11.46098
493.0425, 11.34415
493.5246, 11.30679
494.0067, 11.33767
494.4889, 11.40285
494.9710, 11.42074
495.4531, 11.32441
495.9352, 11.23153
496.4173, 11.28014
496.8994, 11.42062
497.3816, 11.45122
497.8637, 11.28267
498.3458, 11.05304
498.8279, 10.97345
499.3100, 11.08859
499.7921, 11.12735
500.2743, 11.01057
500.7564, 10.86733
501.2385, 10.76603
501.7206, 10.71112
502.2027, 10.70453
502.6848, 10.75177
503.1670, 10.82514
503.6491, 10.83871
504.1312, 10.71987
504.6133, 10.65992
505.0954, 10.68219
505.5775, 10.74472
506.0597, 10.85515
506.5418, 10.98728
507.0239, 11.06273
507.5060, 11.00173
507.9881, 10.84102
508.4702, 10.76532
508.9524, 10.82234
509.4345, 10.85623
509.9166, 10.75958
510.3987, 10.64962
510.8808, 10.66472
511.3629, 10.82741
511.8451, 10.94888
512.3271, 10.83440
512.8093, 10.57208
513.2914, 10.42191
513.7735, 10.42268
514.2556, 10.45675
514.7377, 10.45329
515.2198, 10.41870
515.7020, 10.38150
516.1841, 10.34790
516.6662, 10.30386
517.1483, 10.22050
517.6304, 10.12908
518.1125, 10.08197
518.5947, 10.09185
519.0768, 10.13915
519.5589, 10.21375
520.0410, 10.32727
520.5231, 10.35380
521.0052, 10.18675
521.4874, 10.06653
521.9695, 10.10949
522.4516, 10.23224
522.9337, 10.31727
523.4158, 10.32091
523.8979, 10.27406
524.3801, 10.20391
524.8622, 10.09113
525.3443, 10.06219
525.8264, 10.22527
526.3085, 10.35849
526.7906, 10.32457
527.2728, 10.19949
527.7549, 10.13613
528.2370, 10.21102
528.7191, 10.33774
529.2012, 10.42076
529.6833, 10.46006
530.1655, 10.44662
530.6476, 10.35254
531.1297, 10.24725
531.6118, 10.20998
532.0939, 10.23200
532.5760, 10.26911
533.0582, 10.34826
533.5403, 10.40919
534.0224, 10.39167
534.5045, 10.31557
534.9866, 10.23620
535.4688, 10.17469
535.9509, 10.14206
536.4330, 10.16362
536.9151, 10.27676
537.3972, 10.35539
537.8793, 10.37868
538.3615, 10.39038
538.8436, 10.40261
539.3257, 10.42352
539.8078, 10.47198
540.2899, 10.56286
540.7720, 10.66349
541.2542, 10.69971
541.7363, 10.66463
542.2184, 10.58606
542.7005, 10.39964
543.1826, 10.22942
543.6647, 10.14672
544.1469, 10.14487
544.6290, 10.18104
545.1111, 10.27101
545.5932, 10.35951
546.0753, 10.34337
546.5574, 10.22674
547.0396, 10.13232
547.5217, 10.11460
548.0038, 10.12932
548.4859, 10.11075
548.9680, 10.06055
549.4501, 9.988469
549.9323, 9.868275
550.4144, 9.749573
550.8965, 9.664221
551.3786, 9.614844
551.8607, 9.599942
552.3428, 9.619891
552.8250, 9.667323
553.3071, 9.730118
553.7892, 9.870090
554.2713, 9.908560
554.7534, 9.716319
555.2355, 9.553044
555.7177, 9.633490
556.1998, 9.872043
556.6819, 10.01120
557.1640, 9.878131
557.6461, 9.596329
558.1282, 9.427379
558.6104, 9.381303
559.0925, 9.385839
559.5746, 9.483187
560.0567, 9.565291
560.5388, 9.502252
561.0209, 9.320352
561.5031, 9.209431
561.9852, 9.309731
562.4673, 9.464025
562.9494, 9.481503
563.4315, 9.395366
563.9136, 9.400352
564.3958, 9.601370
564.8779, 9.851338
565.3600, 9.889651
565.8421, 9.613581
566.3242, 9.408767
566.8063, 9.261501
567.2885, 9.195693
567.7706, 9.289400
568.2527, 9.467755
568.7348, 9.581971
569.2169, 9.559158
569.6990, 9.448350
570.1812, 9.326303
570.6633, 9.170871
571.1454, 9.098480
571.6275, 9.204149
572.1096, 9.306933
572.5917, 9.329566
573.0739, 9.279346
573.5560, 9.169355
574.0381, 8.963926
574.5202, 8.773235
575.0023, 8.737792
575.4844, 8.835005
575.9666, 8.943484
576.4487, 9.038665
576.9308, 9.123035
577.4129, 9.206693
577.8950, 9.288258
578.3771, 9.321776
578.8593, 9.222485
579.3414, 9.165293
579.8235, 9.293070
580.3056, 9.495478
580.7877, 9.587989
581.2698, 9.516994
581.7520, 9.371647
582.2341, 9.261672
582.7162, 9.190519
583.1984, 9.109773
583.6805, 8.926829
584.1626, 8.856153
584.6447, 9.077139
585.1268, 9.383813
585.6089, 9.514791
586.0911, 9.399011
586.5732, 9.203509
587.0553, 9.042552
587.5374, 8.924314
588.0195, 8.901441
588.5016, 8.995919
588.9838, 9.095532
589.4659, 9.139645
589.9480, 9.132437
590.4301, 9.089248
590.9122, 8.962725
591.3943, 8.894500
591.8765, 8.993465
592.3586, 9.132573
592.8407, 9.155252
593.3228, 9.062250
593.8049, 8.982736
594.2870, 9.019673
594.7692, 9.135633
595.2513, 9.145247
595.7334, 8.923739
596.2155, 8.819765
596.6976, 8.969018
597.1797, 9.151117
597.6619, 9.205970
598.1440, 9.148503
598.6261, 9.107363
599.1082, 9.187663
599.5903, 9.305961
600.0724, 9.293781
600.5546, 9.150425
601.0367, 9.017139
601.5188, 8.935706
602.0009, 8.885240
602.4830, 8.829150
602.9651, 8.766037
603.4473, 8.768612
603.9294, 8.950295
604.4115, 9.100782
604.8936, 9.030984
605.3757, 8.843105
605.8578, 8.756884
606.3400, 8.851750
606.8221, 9.023713
607.3042, 9.134967
607.7863, 9.186645
608.2684, 9.169282
608.7505, 8.995112
609.2327, 8.854859
609.7148, 8.827641
610.1969, 8.854357
610.6790, 8.830372
611.1611, 8.723875
611.6432, 8.698277
612.1254, 9.017035
612.6075, 9.531381
613.0896, 9.733603
613.5717, 9.553234
614.0538, 9.327402
614.5359, 9.264791
615.0181, 9.297195
615.5002, 9.219325
615.9823, 8.974731
616.4644, 8.760928
616.9465, 8.591138
617.4286, 8.488097
617.9108, 8.505662
618.3929, 8.613750
618.8750, 8.714649
619.3571, 8.746962
619.8392, 8.733270
620.3214, 8.736563
620.8035, 8.773416
621.2856, 8.775015
621.7677, 8.657684
622.2498, 8.578286
622.7319, 8.652281
623.2141, 8.828607
623.6962, 8.976303
624.1783, 9.056886
624.6604, 9.074258
625.1425, 8.988053
625.6246, 8.838168
626.1068, 8.773223
626.5889, 8.833101
627.0710, 8.911119
627.5531, 8.906567
628.0352, 8.823672
628.5173, 8.758754
628.9995, 8.674606
629.4816, 8.653152
629.9637, 8.785964
630.4458, 8.942110
630.9279, 8.976975
631.4100, 8.887293
631.8922, 8.790270
632.3743, 8.786855
632.8564, 8.847270
633.3385, 8.852316
633.8206, 8.780972
634.3027, 8.740790
634.7849, 8.775707
635.2670, 8.841969
635.7491, 8.904108
636.2312, 8.961118
636.7133, 9.000585
637.1954, 9.042779
637.6776, 9.044947
638.1597, 8.932620
638.6418, 8.755837
639.1239, 8.636675
639.6060, 8.615636
640.0881, 8.656183
640.5703, 8.721026
641.0524, 8.815341
641.5345, 8.873224
642.0166, 8.858460
642.4987, 8.848757
642.9808, 8.863767
643.4630, 8.888667
643.9451, 8.915956
644.4272, 8.940780
644.9093, 8.943172
645.3914, 8.898294
645.8735, 8.821270
646.3557, 8.741643
646.8378, 8.658281
647.3199, 8.601568
647.8020, 8.592862
648.2841, 8.604026
648.7662, 8.585115
649.2484, 8.526003
649.7305, 8.494534
650.2126, 8.488030
650.6947, 8.518527
651.1768, 8.650716
651.6589, 8.809193
652.1411, 8.838941
652.6232, 8.693521
653.1053, 8.516204
653.5874, 8.510787
654.0695, 8.679753
654.5516, 8.770021
655.0338, 8.774088
655.5159, 8.712702
655.9980, 8.493612
656.4801, 8.264074
656.9622, 8.208556
657.4443, 8.359180
657.9265, 8.513824
658.4086, 8.596264
658.8907, 8.628068
659.3728, 8.619253
659.8549, 8.578589
660.3370, 8.530461
660.8192, 8.485292
661.3013, 8.445347
661.7834, 8.413779
662.2655, 8.387083
662.7476, 8.381722
663.2297, 8.403132
663.7119, 8.440705
664.1940, 8.516730
664.6761, 8.596533
665.1582, 8.627649
665.6403, 8.596261
666.1224, 8.557314
666.6046, 8.561585
667.0867, 8.590947
667.5688, 8.599243
668.0509, 8.583750
668.5330, 8.573380
669.0151, 8.582361
669.4973, 8.605462
669.9794, 8.637879
670.4615, 8.702173
670.9436, 8.709398
671.4257, 8.613928
671.9078, 8.506042
672.3900, 8.417681
672.8721, 8.353456
673.3542, 8.302275
673.8363, 8.262223
674.3184, 8.273828
674.8005, 8.430225
675.2827, 8.707762
675.7648, 8.861059
676.2469, 8.864678
676.7290, 8.810391
677.2111, 8.719301
677.6932, 8.608397
678.1754, 8.488428
678.6575, 8.338062
679.1396, 8.290790
679.6217, 8.502655
680.1038, 8.717761
680.5859, 8.702358
681.0681, 8.538801
681.5502, 8.454761
682.0323, 8.537230
682.5144, 8.647895
682.9965, 8.553805
683.4786, 8.231776
683.9608, 8.112618
684.4429, 8.315876
684.9250, 8.507582
685.4071, 8.528874
685.8892, 8.482200
686.3713, 8.485106
686.8535, 8.552995
687.3356, 8.574065
687.8177, 8.452641
688.2998, 8.296520
688.7819, 8.181721
689.2640, 8.126700
689.7462, 8.202293
690.2283, 8.439374
690.7104, 8.695288
691.1925, 8.754361
691.6746, 8.588149
692.1567, 8.485845
692.6389, 8.499714
693.1210, 8.506649
693.6031, 8.469674
694.0852, 8.413920
694.5673, 8.364009
695.0494, 8.323111
695.5316, 8.281903
696.0137, 8.199981
696.4958, 8.137098
696.9779, 8.221021
697.4600, 8.409114
697.9421, 8.481078
698.4243, 8.348311
698.9064, 8.177846
699.3885, 8.195930
699.8706, 8.428649
700.3527, 8.508426
700.8348, 8.246236
701.3170, 8.061866
701.7991, 8.088717
702.2812, 8.185572
702.7633, 8.209445
703.2454, 8.157032
703.7275, 8.141306
704.2097, 8.274096
704.6918, 8.450306
705.1739, 8.488714
705.6560, 8.412711
706.1381, 8.383980
706.6202, 8.458762
707.1024, 8.522783
707.5845, 8.446185
708.0666, 8.231907
708.5487, 8.093163
709.0308, 8.069985
709.5129, 8.064891
709.9951, 8.078252
710.4772, 8.092999
710.9593, 8.091520
711.4414, 8.077265
711.9235, 8.067121
712.4056, 8.065733
712.8878, 8.083409
713.3699, 8.148037
713.8520, 8.251813
714.3341, 8.341929
714.8162, 8.412151
715.2983, 8.448226
715.7805, 8.429783
716.2626, 8.367386
716.7447, 8.321478
717.2268, 8.301898
717.7089, 8.283615
718.1910, 8.251200
718.6732, 8.231130
719.1553, 8.272060
719.6374, 8.339102
720.1195, 8.331731
720.6016, 8.189673
721.0837, 8.036211
721.5659, 8.071951
722.0480, 8.253461
722.5301, 8.324315
723.0122, 8.242331
723.4943, 8.155452
723.9764, 8.151739
724.4586, 8.202112
724.9407, 8.234280
725.4228, 8.245765
725.9049, 8.245479
726.3870, 8.224479
726.8691, 8.201128
727.3513, 8.187097
727.8334, 8.177251
728.3155, 8.165272
728.7976, 8.148481
729.2797, 8.118586
729.7618, 8.040773
730.2440, 7.942491
730.7261, 7.947397
731.2082, 8.067906
731.6903, 8.142726
732.1724, 8.091433
732.6545, 7.988097
733.1367, 7.936338
733.6188, 7.944843
734.1009, 7.965075
734.5830, 8.054685
735.0651, 8.087688
735.5472, 7.902934
736.0294, 7.705867
736.5115, 7.807333
736.9936, 8.195784
737.4757, 8.497697
737.9578, 8.374430
738.4399, 8.041676
738.9221, 7.950413
739.4042, 8.084515
739.8863, 8.189550
740.3684, 8.200765
740.8505, 8.177375
741.3326, 8.168636
741.8148, 8.173822
742.2969, 8.184963
742.7790, 8.203715
743.2611, 8.225642
743.7432, 8.238430
744.2253, 8.264122
744.7075, 8.351144
745.1896, 8.464477
745.6717, 8.508349
746.1538, 8.429574
746.6359, 8.300655
747.1180, 8.178824
747.6002, 8.078202
748.0823, 8.068582
748.5644, 8.162051
749.0465, 8.239346
749.5286, 8.220462
750.0107, 8.155978
750.4929, 8.176793
750.9750, 8.387077
751.4571, 8.419511
751.9392, 8.061077
752.4213, 7.777010
752.9034, 7.785918
753.3856, 7.964522
753.8677, 8.179055
754.3498, 8.387899
754.8319, 8.492167
755.3140, 8.315670
755.7961, 8.041284
756.2783, 7.983757
756.7604, 8.117920
757.2425, 8.300231
757.7246, 8.494491
758.2067, 8.591372
758.6888, 8.425445
759.1710, 7.999643
759.6531, 7.806216
760.1352, 8.038787
760.6173, 8.211764
761.0994, 8.237219
761.5815, 8.197476
762.0637, 8.133085
762.5458, 8.056096
763.0279, 7.977706
763.5100, 7.864694
763.9921, 7.822551
764.4742, 8.019457
764.9564, 8.319468
765.4385, 8.453208
765.9206, 8.405143
766.4027, 8.356325
766.8848, 8.429783
767.3669, 8.539306
767.8491, 8.452075
768.3312, 8.074771
768.8133, 7.851226
769.2954, 7.831374
769.7775, 7.911386
770.2596, 8.162685
770.7418, 8.428073
771.2239, 8.465097
771.7060, 8.224526
772.1881, 8.027076
772.6702, 8.020356
773.1523, 8.080202
773.6345, 8.145223
774.1166, 8.190227
774.5987, 8.140659
775.0808, 7.992942
775.5629, 7.902411
776.0450, 8.059824
776.5272, 8.385702
777.0093, 8.475303
777.4914, 8.278098
777.9735, 8.116343
778.4556, 8.065112
778.9377, 8.065523
779.4199, 8.074744
779.9020, 8.093148
780.3841, 8.122494
780.8662, 8.178921
781.3483, 8.222306
781.8304, 8.248591
782.3126, 8.253843
782.7947, 8.208750
783.2768, 8.142219
783.7589, 8.130400
784.2410, 8.209545
784.7231, 8.307925
785.2053, 8.267247
785.6874, 8.166912
786.1695, 8.451513
786.6516, 9.171091
787.1337, 9.532338
787.6158, 9.104638
788.0980, 8.331079
788.5801, 7.838858
789.0622, 7.633947
789.5443, 7.700358
790.0264, 8.423112
790.5085, 8.914185
790.9907, 8.849885
791.4728, 8.566965
791.9549, 8.314777
792.4370, 8.140491
792.9191, 8.052478
793.4012, 8.073483
793.8834, 8.156653
794.3655, 8.309096
794.8476, 8.475694
795.3297, 8.516078
795.8118, 8.423481
796.2939, 8.328814
796.7761, 8.317499
797.2582, 8.356714
797.7403, 8.370007
798.2224, 8.354280
798.7045, 8.320965
799.1866, 8.228788
799.6688, 8.184041
800.1509, 8.282968
800.6330, 8.432103
801.1151, 8.528226
801.5972, 8.564691
802.0793, 8.551412
802.5615, 8.441360
803.0436, 8.334565
803.5257, 8.308593
804.0078, 8.319212
804.4899, 8.278973
804.9720, 8.187145
805.4542, 8.150308
805.9363, 8.278729
806.4184, 8.467782
806.9005, 8.428676
807.3826, 8.177922
807.8647, 8.140670
808.3469, 8.442721
808.8290, 8.698559
809.3111, 8.606731
809.7932, 8.292884
810.2753, 8.145452
810.7574, 8.270315
811.2396, 8.347484
811.7217, 8.329879
812.2038, 8.318682
812.6859, 8.334049
813.1680, 8.393108
813.6501, 8.560847
814.1323, 8.836080
814.6144, 9.010705
815.0965, 8.857900
815.5786, 8.615170
816.0607, 8.568174
816.5428, 8.655184
817.0250, 8.696502
817.5071, 8.655425
817.9892, 8.640916
818.4713, 8.752280
818.9534, 8.947828
819.4355, 9.072001
819.9177, 9.106674
820.3998, 9.159536
820.8819, 9.272658
821.3640, 9.352663
821.8461, 9.293019
822.3282, 9.178874
822.8104, 9.193233
823.2925, 9.388696
823.7746, 9.523266
824.2567, 9.450038
824.7388, 9.410008
825.2209, 9.627419
825.7031, 9.926411
826.1852, 10.02975
826.6673, 9.898058
827.1494, 9.724517
827.6315, 9.636499
828.1136, 9.617655
828.5958, 9.649465
829.0779, 9.726937
829.5600, 9.857204
830.0421, 10.04522
830.5242, 10.13284
831.0063, 9.979703
831.4885, 9.681753
831.9706, 9.541780
832.4527, 9.627501
832.9348, 9.692784
833.4169, 9.767613
833.8990, 9.778987
834.3812, 9.636857
834.8633, 9.452898
835.3454, 9.366396
835.8275, 9.392275
836.3096, 9.447943
836.7917, 9.552597
837.2739, 9.629647
837.7560, 9.612947
838.2381, 9.548247
838.7202, 9.494825
839.2023, 9.464031
839.6844, 9.448056
840.1666, 9.448621
840.6487, 9.438039
841.1308, 9.335550
841.6129, 9.164944
842.0950, 9.112384
842.5771, 9.206479
843.0593, 9.294683
843.5414, 9.286509
844.0235, 9.241405
844.5056, 9.270432
844.9877, 9.387839
845.4698, 9.508320
845.9520, 9.714873
846.4341, 9.811666
846.9162, 9.657298
847.3983, 9.451961
847.8804, 9.351126
848.3625, 9.361279
848.8447, 9.443808
849.3268, 9.646990
849.8089, 9.825018
850.2910, 9.906777
850.7731, 9.913034
851.2552, 9.795995
851.7374, 9.625412
852.2195, 9.622435
852.7016, 9.889033
853.1837, 10.20859
853.6658, 10.28322
854.1479, 10.16461
854.6301, 10.09415
855.1122, 10.07555
855.5943, 10.07423
856.0764, 10.07063
856.5585, 10.11794
857.0406, 10.30104
857.5228, 10.59696
858.0049, 10.73160
858.4870, 10.58444
858.9691, 10.47863
859.4512, 10.39307
859.9333, 10.40238
860.4155, 10.58803
860.8976, 10.88475
861.3797, 11.19870
861.8618, 11.53674
862.3439, 11.74998
862.8260, 11.66270
863.3082, 11.53504
863.7903, 11.56539
864.2724, 11.70538
864.7545, 11.87663
865.2366, 12.04891
865.7188, 12.19230
866.2009, 12.28884
866.6830, 12.33453
867.1651, 12.31127
867.6472, 12.22696
868.1293, 12.11230
868.6115, 11.96817
869.0936, 11.88455
869.5757, 11.92672
870.0578, 12.03581
870.5399, 12.10756
871.0220, 12.16918
871.5042, 12.03891
871.9863, 11.53415
872.4684, 11.13270
872.9505, 11.06733
873.4326, 11.10369
873.9147, 11.05211
874.3969, 10.91920
874.8790, 10.78623
875.3611, 10.67950
875.8432, 10.55936
876.3253, 10.39108
876.8074, 10.22067
877.2896, 10.09193
877.7717, 9.993352
878.2538, 9.891556
878.7359, 9.774236
879.2180, 9.653434
879.7001, 9.524280
880.1823, 9.406480
880.6644, 9.345929
881.1465, 9.331438
881.6286, 9.321089
882.1107, 9.302668
882.5928, 9.251731
883.0750, 9.137206
883.5571, 8.993891
884.0392, 8.960452
884.5213, 9.069842
885.0034, 9.085267
885.4855, 8.928157
885.9677, 8.815642
886.4498, 8.901692
886.9319, 9.066104
887.4140, 9.091945
887.8961, 8.949879
888.3782, 8.865241
888.8604, 8.858973
889.3425, 8.891483
889.8246, 9.025640
890.3067, 9.135630
890.7888, 9.081726
891.2709, 8.905194
891.7531, 8.766057
892.2352, 8.730961
892.7173, 8.707657
893.1994, 8.626722
893.6815, 8.528607
894.1636, 8.441143
894.6458, 8.380055
895.1279, 8.398515
895.6100, 8.502919
896.0921, 8.586368
896.5742, 8.534351
897.0563, 8.397778
897.5385, 8.304185
898.0206, 8.252114
898.5027, 8.221138
898.9848, 8.206201
899.4669, 8.233072
899.9490, 8.328505
900.4312, 8.457812
900.9133, 8.541769
901.3954, 8.571836
901.8775, 8.597230
902.3596, 8.636364
902.8417, 8.638559
903.3239, 8.541347
903.8060, 8.438663
904.2881, 8.449821
904.7702, 8.547800
905.2523, 8.555865
905.7344, 8.360820
906.2166, 8.210818
906.6987, 8.137121
907.1808, 8.154312
907.6629, 8.399341
908.1450, 8.700302
908.6271, 8.702868
909.1093, 8.329664
909.5914, 7.999852
910.0735, 8.045112
910.5556, 8.244135
911.0377, 8.421829
911.5198, 8.545069
912.0020, 8.512823
912.4841, 8.338127
912.9662, 8.174139
913.4483, 8.115079
913.9304, 8.134991
914.4125, 8.226432
914.8947, 8.370191
915.3768, 8.393620
915.8589, 8.283878
916.3410, 8.188328
916.8231, 8.161809
917.3052, 8.162818
917.7874, 8.142406
918.2695, 8.106519
918.7516, 8.116785
919.2337, 8.200953
919.7158, 8.264172
920.1979, 8.280907
920.6801, 8.297013
921.1622, 8.382159
921.6443, 8.464197
922.1264, 8.400236
922.6085, 8.155677
923.0906, 7.990680
923.5728, 7.953807
924.0549, 7.986320
924.5370, 8.179507
925.0191, 8.345724
925.5012, 8.241082
925.9833, 7.949366
926.4655, 7.783742
926.9476, 7.886271
927.4297, 8.024842
927.9118, 8.048613
928.3939, 8.016394
928.8760, 7.957633
929.3582, 7.905380
929.8403, 7.947029
930.3224, 8.087706
930.8045, 8.196618
931.2866, 8.154845
931.7687, 8.046914
932.2509, 8.052121
932.7330, 8.134836
933.2151, 8.107015
933.6972, 7.955110
934.1793, 7.856765
934.6614, 7.903295
935.1436, 8.022452
935.6257, 8.121801
936.1078, 8.198887
936.5899, 8.176131
937.0720, 8.009229
937.5541, 7.934784
938.0363, 8.052394
938.5184, 8.162439
939.0005, 8.090457
939.4826, 7.916713
939.9647, 7.871316
940.4468, 8.008864
940.9290, 8.126458
941.4111, 8.295554
941.8932, 8.355976
942.3753, 8.128953
942.8574, 7.875082
943.3395, 7.886621
943.8217, 8.108304
944.3038, 8.208250
944.7859, 8.041615
945.2680, 7.883716
945.7501, 7.816012
946.2322, 7.809654
946.7144, 7.900011
947.1965, 8.012275
947.6786, 8.004290
948.1607, 7.863284
948.6428, 7.763155
949.1249, 7.866051
949.6071, 7.991492
950.0892, 7.921916
950.5713, 7.764978
951.0534, 7.698813
951.5355, 7.729632
952.0176, 7.788635
952.4998, 7.844182
952.9819, 7.887222
953.4640, 7.922469
953.9461, 7.931504
954.4282, 7.804727
954.9103, 7.574740
955.3925, 7.523664
955.8746, 7.710994
956.3567, 7.936033
956.8388, 8.071009
957.3209, 8.111861
957.8030, 8.016689
958.2852, 7.761917
958.7673, 7.660208
959.2494, 7.752229
959.7315, 7.836842
960.2136, 7.847757
960.6957, 7.840980
961.1779, 7.867383
961.6600, 7.922355
962.1421, 7.985245
962.6242, 8.119347
963.1063, 8.132627
963.5884, 7.846930
964.0706, 7.663620
964.5527, 7.863933
965.0348, 8.151538
965.5169, 8.161453
965.9990, 7.909021
966.4811, 7.754226
966.9633, 7.795820
967.4454, 7.869540
967.9275, 7.975404
968.4096, 8.066031
968.8917, 8.140817
969.3738, 8.165797
969.8560, 8.043631
970.3381, 7.765803
970.8202, 7.595055
971.3023, 7.726813
971.7844, 7.925505
972.2665, 8.117050
972.7487, 8.232222
973.2308, 8.130533
973.7129, 7.881875
974.1950, 7.690294
974.6771, 7.634763
975.1592, 7.647743
975.6414, 7.704058
976.1235, 7.768383
976.6056, 7.780785
977.0877, 7.763244
977.5698, 7.766386
978.0519, 7.798923
978.5341, 7.850996
979.0162, 7.917964
979.4983, 7.986525
979.9804, 8.041624
980.4625, 8.081924
980.9446, 8.115127
981.4268, 8.135331
981.9089, 8.057141
982.3910, 7.856973
982.8731, 7.713811
983.3552, 7.791738
983.8373, 7.965443
984.3195, 7.870699
984.8016, 7.485505
985.2837, 7.364221
985.7658, 7.580925
986.2479, 7.729003
986.7300, 7.645997
987.2122, 7.507202
987.6943, 7.476568
988.1764, 7.547625
988.6585, 7.701040
989.1406, 8.020888
989.6227, 8.172600
990.1049, 8.062694
990.5870, 7.927203
991.0691, 7.826599
991.5512, 7.782137
992.0333, 7.854095
992.5154, 8.035610
992.9976, 8.108488
993.4797, 7.930610
993.9618, 7.861181
994.4439, 8.058845
994.9260, 8.211265
995.4081, 8.143946
995.8903, 7.957963
996.3724, 7.747119
996.8545, 7.524327
997.3366, 7.451690
997.8187, 7.710599
998.3008, 7.915825
998.7830, 7.927363
999.2651, 7.878796
999.7472, 7.825372
1000.229, 7.798136
1000.711, 7.859836
1001.194, 8.018023
1001.676, 8.116634
1002.158, 8.020524
1002.640, 7.926817
1003.122, 8.001998
1003.604, 8.095449
1004.086, 8.014224
1004.568, 7.822539
1005.050, 7.713733
1005.533, 7.747197
1006.015, 7.795180
1006.497, 7.769623
1006.979, 7.716949
1007.461, 7.661879
1007.943, 7.620872
1008.425, 7.612750
1008.907, 7.643159
1009.390, 7.741004
1009.872, 7.917801
1010.354, 8.053631
1010.836, 7.992123
1011.318, 7.842086
1011.800, 7.775675
1012.282, 7.766086
1012.764, 7.748945
1013.246, 7.713580
1013.729, 7.666523
1014.211, 7.610134
1014.693, 7.571355
1015.175, 7.592371
1015.657, 7.656857
1016.139, 7.736349
1016.621, 7.818982
1017.103, 7.828515
1017.586, 7.756605
1018.068, 7.703470
1018.550, 7.734717
1019.032, 7.784281
1019.514, 7.716794
1019.996, 7.560640
1020.478, 7.518951
1020.960, 7.590319
1021.442, 7.767413
1021.925, 8.058857
1022.407, 8.263660
1022.889, 8.231510
1023.371, 8.064202
1023.853, 7.962694
1024.335, 7.927901
1024.817, 7.859805
1025.299, 7.743509
1025.781, 7.724896
1026.264, 7.866548
1026.746, 7.997133
1027.228, 7.986241
1027.710, 7.881530
1028.192, 7.789245
1028.674, 7.707429
1029.156, 7.659426
1029.638, 7.650802
1030.120, 7.664979
1030.603, 7.723729
1031.085, 7.738760
1031.567, 7.600869
1032.049, 7.404334
1032.531, 7.416331
1033.013, 7.708455
1033.495, 7.884752
1033.977, 7.906378
1034.460, 7.892533
1034.942, 7.854888
1035.424, 7.814479
1035.906, 7.777253
1036.388, 7.753911
1036.870, 7.780792
1037.352, 7.882926
1037.834, 7.948505
1038.317, 7.989950
1038.799, 7.974364
1039.281, 7.852353
1039.763, 7.712891
1040.245, 7.606094
1040.727, 7.535669
1041.209, 7.506755
1041.691, 7.510268
1042.173, 7.584611
1042.656, 7.863570
1043.138, 8.034906
1043.620, 7.952469
1044.102, 7.800761
1044.584, 7.688661
1045.066, 7.620565
1045.548, 7.602686
1046.030, 7.645346
1046.512, 7.698125
1046.995, 7.762393
1047.477, 7.827124
1047.959, 7.948845
1048.441, 8.015715
1048.923, 7.856342
1049.405, 7.591302
1049.887, 7.539423
1050.369, 7.800547
1050.852, 7.941628
1051.334, 7.787627
1051.816, 7.623227
1052.298, 7.517614
1052.780, 7.465943
1053.262, 7.464197
1053.744, 7.509868
1054.226, 7.613360
1054.708, 7.788196
1055.191, 7.922424
1055.673, 8.058001
1056.155, 8.054326
1056.637, 7.679014
1057.119, 7.303344
1057.601, 7.252173
1058.083, 7.433513
1058.565, 7.637883
1059.047, 7.829768
1059.530, 7.958108
1060.012, 7.982423
1060.494, 7.968389
1060.976, 7.904500
1061.458, 7.849570
1061.940, 7.873004
1062.422, 7.933795
1062.904, 7.946311
1063.387, 7.894387
1063.869, 7.833947
1064.351, 7.750710
1064.833, 7.709054
1065.315, 7.777451
1065.797, 7.862299
1066.279, 7.885608
1066.761, 7.867667
1067.244, 7.847382
1067.726, 7.833944
1068.208, 7.838270
1068.690, 7.858317
1069.172, 7.905778
1069.654, 8.050428
1070.136, 8.162568
1070.618, 8.098780
1071.100, 7.946469
1071.583, 7.857405
1072.065, 7.850720
1072.547, 7.837399
1073.029, 7.770326
1073.511, 7.710628
1073.993, 7.682997
1074.475, 7.678267
1074.957, 7.698705
1075.439, 7.732161
1075.922, 7.777700
1076.404, 7.824131
1076.886, 7.819430
1077.368, 7.717880
1077.850, 7.622874
1078.332, 7.567219
1078.814, 7.551123
1079.297, 7.596553
1079.779, 7.667910
1080.261, 7.720907
1080.743, 7.754132
1081.225, 7.797828
1081.707, 7.885309
1082.189, 7.905439
1082.671, 7.743395
1083.153, 7.569236
1083.635, 7.454451
1084.118, 7.417041
1084.600, 7.524087
1085.082, 7.718638
1085.564, 7.816624
1086.046, 7.746447
1086.528, 7.687678
1087.010, 7.755181
1087.492, 7.808212
1087.975, 7.740991
1088.457, 7.642848
1088.939, 7.604208
1089.421, 7.613637
1089.903, 7.617011
1090.385, 7.600042
1090.867, 7.604071
1091.349, 7.673483
1091.832, 7.730448
1092.314, 7.722404
1092.796, 7.702024
1093.278, 7.735054
1093.760, 7.782027
1094.242, 7.746041
1094.724, 7.613328
1095.206, 7.527243
1095.688, 7.565787
1096.171, 7.614067
1096.653, 7.662303
1097.135, 7.675697
1097.617, 7.582120
1098.099, 7.464603
1098.581, 7.473826
1099.063, 7.605726
1099.545, 7.647860
1100.027, 7.418841
1100.510, 7.316347
1100.992, 7.578681
1101.474, 7.835269
1101.956, 7.864569
1102.438, 7.793861
1102.920, 7.782290
1103.402, 7.820198
1103.884, 7.786011
1104.367, 7.583771
1104.849, 7.501965
1105.331, 7.782502
1105.813, 7.949137
1106.295, 7.683319
1106.777, 7.340674
1107.259, 7.250425
1107.741, 7.348212
1108.224, 7.406408
1108.706, 7.380616
1109.188, 7.422054
1109.670, 7.648940
1110.152, 7.797914
1110.634, 7.751850
1111.116, 7.667152
1111.598, 7.636622
1112.080, 7.642970
1112.563, 7.660930
1113.045, 7.696005
1113.527, 7.685752
1114.009, 7.536324
1114.491, 7.497060
1114.973, 7.699810
1115.455, 7.871783
1115.937, 7.859677
1116.419, 7.768730
1116.902, 7.722417
1117.384, 7.719882
1117.866, 7.752792
1118.348, 7.855332
1118.830, 7.912217
1119.312, 7.901262
1119.794, 7.878646
1120.276, 7.847291
1120.759, 7.843136
1121.241, 7.932413
1121.723, 8.058421
1122.205, 8.001225
1122.687, 7.689057
1123.169, 7.528606
1123.651, 7.550514
1124.133, 7.634707
1124.615, 7.786504
1125.098, 7.889903
1125.580, 7.854755
1126.062, 7.740406
1126.544, 7.664561
1127.026, 7.625707
1127.508, 7.508466
1127.990, 7.285841
1128.472, 7.247921
1128.954, 7.469424
1129.437, 7.643937
1129.919, 7.614074
1130.401, 7.506626
1130.883, 7.465756
1131.365, 7.492799
1131.847, 7.633836
1132.329, 7.876160
1132.811, 7.941234
1133.294, 7.812973
1133.776, 7.673734
1134.258, 7.584052
1134.740, 7.556677
1135.222, 7.608252
1135.704, 7.703150
1136.186, 7.767564
1136.668, 7.815176
1137.151, 7.945399
1137.633, 8.117657
1138.115, 8.090915
1138.597, 7.843117
1139.079, 7.598306
1139.561, 7.480082
1140.043, 7.445404
1140.525, 7.475873
1141.007, 7.531634
1141.490, 7.533243
1141.972, 7.501250
1142.454, 7.473806
1142.936, 7.458888
1143.418, 7.460985
1143.900, 7.481406
1144.382, 7.518628
1144.864, 7.577201
1145.346, 7.640480
1145.829, 7.716262
1146.311, 7.765738
1146.793, 7.720166
1147.275, 7.616803
1147.757, 7.523376
1148.239, 7.455307
1148.721, 7.395266
1149.203, 7.319217
1149.686, 7.327415
1150.168, 7.630644
1150.650, 7.877607
1151.132, 7.720687
1151.614, 7.434690
1152.096, 7.300756
1152.578, 7.323217
1153.060, 7.449327
1153.542, 7.671679
1154.025, 7.829965
1154.507, 7.828474
1154.989, 7.809608
1155.471, 7.829954
1155.953, 7.841157
1156.435, 7.800441
1156.917, 7.737487
1157.399, 7.693694
1157.881, 7.670064
1158.364, 7.645965
1158.846, 7.623698
1159.328, 7.592573
1159.810, 7.538243
1160.292, 7.492746
1160.774, 7.430338
1161.256, 7.420455
1161.738, 7.564492
1162.221, 7.778085
1162.703, 7.847900
1163.185, 7.749686
1163.667, 7.715935
1164.149, 7.794471
1164.631, 7.787429
1165.113, 7.626728
1165.595, 7.492732
1166.078, 7.481857
1166.560, 7.521345
1167.042, 7.513821
1167.524, 7.483809
1168.006, 7.581255
1168.488, 7.817164
1168.970, 7.833488
1169.452, 7.602515
1169.934, 7.498758
1170.417, 7.633383
1170.899, 7.793450
1171.381, 7.824585
1171.863, 7.784539
1172.345, 7.765999
1172.827, 7.758245
1173.309, 7.710396
1173.791, 7.639305
1174.273, 7.596842
1174.756, 7.598058
1175.238, 7.694435
1175.720, 7.896781
1176.202, 8.058960
1176.684, 8.043273
1177.166, 7.947900
1177.648, 7.850777
1178.130, 7.786052
1178.613, 7.864950
1179.095, 7.990494
1179.577, 7.927114
1180.059, 7.689583
1180.541, 7.529764
1181.023, 7.561825
1181.505, 7.647100
1181.987, 7.734220
1182.469, 7.807338
1182.952, 7.869405
1183.434, 7.900679
1183.916, 7.858628
1184.398, 7.780501
1184.880, 7.739126
1185.362, 7.744649
1185.844, 7.756181
1186.326, 7.788562
1186.808, 7.788700
1187.291, 7.709139
1187.773, 7.642673
1188.255, 7.621109
1188.737, 7.638933
1189.219, 7.708587
1189.701, 7.808272
1190.183, 7.872884
1190.665, 7.901820
1191.148, 7.895628
1191.630, 7.833066
1192.112, 7.800065
1192.594, 7.829501
1193.076, 7.826774
1193.558, 7.724123
1194.040, 7.622552
1194.522, 7.660493
1195.005, 7.798152
1195.487, 7.875077
1195.969, 7.892087
1196.451, 7.859254
1196.933, 7.781874
1197.415, 7.772235
1197.897, 7.854703
1198.379, 7.896255
1198.861, 7.804553
1199.344, 7.728238
1199.826, 7.968750
1200.308, 8.300450
1200.790, 8.182172
1201.272, 7.821664
1201.754, 7.669800
1202.236, 7.719262
1202.718, 7.776476
1203.200, 7.785319
1203.683, 7.807145
1204.165, 7.896492
1204.647, 7.959720
1205.129, 7.881683
1205.611, 7.794908
1206.093, 7.829973
1206.575, 7.910105
1207.057, 7.929155
1207.540, 7.905707
1208.022, 7.925766
1208.504, 8.010964
1208.986, 8.077501
1209.468, 8.122872
1209.950, 8.122223
1210.432, 7.976118
1210.914, 7.894009
1211.396, 8.121333
1211.879, 8.342809
1212.361, 8.151582
1212.843, 7.691556
1213.325, 7.562281
1213.807, 7.857455
1214.289, 8.039666
1214.771, 8.102087
1215.253, 8.057600
1215.735, 7.876956
1216.218, 7.741875
1216.700, 7.747984
1217.182, 7.868963
1217.664, 8.108714
1218.146, 8.381180
1218.628, 8.379926
1219.110, 8.163629
1219.592, 8.026731
1220.075, 7.974544
1220.557, 7.921566
1221.039, 7.854393
1221.521, 7.847013
1222.003, 7.944781
1222.485, 8.015559
1222.967, 7.852542
1223.449, 7.665249
1223.932, 7.738338
1224.414, 7.900989
1224.896, 7.918112
1225.378, 7.847242
1225.860, 7.838053
1226.342, 7.913873
1226.824, 8.025392
1227.306, 8.199630
1227.788, 8.282007
1228.271, 8.179617
1228.753, 8.028577
1229.235, 7.819808
1229.717, 7.650904
1230.199, 7.588908
1230.681, 7.625273
1231.163, 7.758774
1231.645, 7.986155
1232.127, 8.174043
1232.610, 8.379612
1233.092, 8.335336
1233.574, 7.920262
1234.056, 7.646313
1234.538, 7.681741
1235.020, 7.829873
1235.502, 7.953744
1235.984, 8.072940
1236.467, 8.246195
1236.949, 8.429271
1237.431, 8.396586
1237.913, 8.199141
1238.395, 8.033680
1238.877, 7.934351
1239.359, 7.971506
1239.841, 8.137982
1240.323, 8.227028
1240.806, 8.089614
1241.288, 7.915491
1241.770, 7.847861
1242.252, 7.870800
1242.734, 8.026300
1243.216, 8.218199
1243.698, 8.337987
1244.180, 8.394915
1244.662, 8.449910
1245.145, 8.506191
1245.627, 8.460694
1246.109, 8.187693
1246.591, 7.993838
1247.073, 7.979123
1247.555, 7.986642
1248.037, 7.933946
1248.519, 7.925913
1249.002, 8.074535
1249.484, 8.279816
1249.966, 8.357441
1250.448, 8.314142
1250.930, 8.260738
1251.412, 8.192180
1251.894, 8.190487
1252.376, 8.266969
1252.859, 8.229467
1253.341, 8.021572
1253.823, 7.869860
1254.305, 7.934755
1254.787, 8.079347
1255.269, 8.120646
1255.751, 8.107585
1256.233, 8.138445
1256.715, 8.179542
1257.198, 8.142629
1257.680, 8.067650
1258.162, 8.086838
1258.644, 8.203487
1259.126, 8.263685
1259.608, 8.185857
1260.090, 8.109685
1260.572, 8.080452
1261.054, 8.093889
1261.537, 8.212164
1262.019, 8.307295
1262.501, 8.242215
1262.983, 8.114327
1263.465, 8.079540
1263.947, 8.129500
1264.429, 8.196531
1264.911, 8.306065
1265.394, 8.340452
1265.876, 8.286576
1266.358, 8.201083
1266.840, 8.084782
1267.322, 8.029882
1267.804, 8.091402
1268.286, 8.201727
1268.768, 8.291944
1269.250, 8.346289
1269.733, 8.297180
1270.215, 8.197571
1270.697, 8.172928
1271.179, 8.216332
1271.661, 8.324872
1272.143, 8.460337
1272.625, 8.490986
1273.107, 8.367825
1273.589, 8.252193
1274.072, 8.270310
1274.554, 8.278733
1275.036, 8.148402
1275.518, 8.050263
1276.000, 8.146696
1276.482, 8.297324
1276.964, 8.338876
1277.446, 8.299082
1277.929, 8.289275
1278.411, 8.315763
1278.893, 8.303585
1279.375, 8.230318
1279.857, 8.210488
1280.339, 8.270265
1280.821, 8.293008
1281.303, 8.230241
1281.786, 8.189906
1282.268, 8.251280
##END=



