##NAMES=Aikinite
##RRUFFID=R100117
##IDEAL CHEMISTRY=Cu^1+^Pb^2+^Bi^3+^S^2-^_3_
##LOCALITY=British Columbia Molybdenum mine, Kitsault, Alice Arm, British Columbia, Canada
##OWNER=RRUFF
##SOURCE=Robert Woodside
##DESCRIPTION=Metallic black bladed and striated crystals, with tarnished surfaces, associated with quartz and pyrite
##STATUS=The identification of this mineral has been confirmed only by single crystal X-ray diffraction.
##URL=rruff.info/R100117
84.23633, 7.383441
84.71844, 6.363375
85.20056, 6.010044
85.68268, 7.091008
86.16479, 8.657843
86.64691, 8.851289
87.12903, 7.509672
87.61115, 5.829892
88.09327, 5.410751
88.57539, 6.052694
89.05750, 6.379294
89.53962, 5.381395
90.02174, 3.340552
90.50385, 1.906309
90.98597, 1.232893
91.46809, 1.071265
91.95020, 1.002798
92.43232, 1.022483
92.91444, 1.167178
93.39655, 1.467625
93.87867, 1.931546
94.36079, 2.513939
94.84290, 3.288100
95.32503, 4.158857
95.80714, 4.749964
96.28926, 5.070702
96.77138, 5.104906
97.25349, 4.699865
97.73561, 3.408053
98.21773, 2.808045
98.69984, 3.603749
99.18196, 5.785758
99.66408, 6.305596
100.1462, 3.740974
100.6283, 0.5695060
101.1104, -0.7964451
101.5925, 1.597633
102.0747, 3.512995
102.5568, 3.868320
103.0389, 2.043582
103.5210, 1.159996
104.0031, 2.121983
104.4853, 3.766162
104.9674, 4.680833
105.4495, 4.012069
105.9316, 3.241311
106.4137, 2.751193
106.8958, 2.538783
107.3780, 2.721594
107.8601, 3.724486
108.3422, 5.119970
108.8243, 6.098802
109.3064, 6.759872
109.7885, 6.727079
110.2707, 5.519915
110.7528, 1.760652
111.2349, -0.9324278
111.7170, -0.2414429
112.1991, 2.851957
112.6812, 5.455767
113.1634, 5.975829
113.6455, 5.457468
114.1276, 4.809121
114.6097, 4.242754
115.0918, 3.535950
115.5739, 2.906372
116.0561, 2.040105
116.5382, 1.234330
117.0203, 0.3910060
117.5024, -0.2749199
117.9845, -0.4191037
118.4667, 0.6025904
118.9488, 1.867651
119.4309, 2.154640
119.9130, 1.481102
120.3951, 0.6199139
120.8772, 0.2434893
121.3594, 0.2260388
121.8415, 0.2169146
122.3236, -0.2382040
122.8057, -0.7544607
123.2878, -9.6877053E-02
123.7699, 1.962202
124.2521, 3.920075
124.7342, 3.596019
125.2163, 1.260127
125.6984, -0.7222636
126.1805, -1.095776
126.6626, -7.8050017E-02
127.1448, 0.9632494
127.6269, 2.063814
128.1090, 3.038931
128.5911, 3.539569
129.0732, 3.527624
129.5553, 3.420529
130.0375, 3.519314
130.5196, 3.857628
131.0017, 3.719999
131.4838, 2.862816
131.9659, 1.692659
132.4480, 1.275218
132.9302, 1.789293
133.4123, 2.509431
133.8944, 3.169333
134.3765, 3.943761
134.8586, 3.870549
135.3408, 2.336094
135.8229, -8.4861986E-02
136.3050, -0.7092789
136.7871, 1.313391
137.2692, 3.860839
137.7513, 5.646081
138.2335, 6.591115
138.7156, 6.855685
139.1977, 6.116198
139.6798, 4.478259
140.1619, 3.586751
140.6440, 4.025510
141.1262, 4.705765
141.6083, 4.775249
142.0904, 3.132427
142.5725, 2.296570
143.0546, 2.976785
143.5367, 5.322507
144.0189, 6.890741
144.5010, 7.119107
144.9831, 6.839566
145.4652, 6.727515
145.9473, 7.405233
146.4294, 7.636062
146.9116, 6.980498
147.3937, 5.262880
147.8758, 3.930770
148.3579, 3.289867
148.8400, 3.060911
149.3221, 2.965764
149.8043, 2.849113
150.2864, 2.965769
150.7685, 3.534339
151.2506, 4.700542
151.7327, 5.563324
152.2149, 5.556655
152.6970, 5.197191
153.1791, 5.165102
153.6612, 5.961766
154.1433, 6.880227
154.6254, 7.690370
155.1076, 8.430439
155.5897, 8.789852
156.0718, 8.542871
156.5539, 7.850446
157.0360, 6.983666
157.5181, 5.547534
158.0003, 4.303232
158.4824, 3.695092
158.9645, 3.797045
159.4466, 4.503537
159.9287, 6.413217
160.4108, 8.906326
160.8930, 10.72287
161.3751, 10.99404
161.8572, 10.44968
162.3393, 9.453350
162.8214, 7.679690
163.3035, 6.416520
163.7857, 7.223743
164.2678, 9.442163
164.7499, 11.20020
165.2320, 11.35395
165.7141, 10.60242
166.1963, 9.583981
166.6784, 8.244080
167.1605, 7.034605
167.6426, 6.424552
168.1247, 6.315038
168.6068, 6.382648
169.0890, 6.438080
169.5711, 6.534567
170.0532, 6.805230
170.5353, 7.419983
171.0174, 7.978431
171.4995, 7.827199
171.9817, 7.091708
172.4638, 6.460764
172.9459, 6.616183
173.4280, 7.220496
173.9101, 7.597064
174.3922, 7.622870
174.8744, 7.343888
175.3565, 6.480906
175.8386, 5.112229
176.3207, 4.259745
176.8028, 5.320472
177.2849, 7.592985
177.7671, 8.943996
178.2492, 8.564398
178.7313, 7.315479
179.2134, 6.859717
179.6955, 7.184739
180.1777, 7.630146
180.6598, 7.455804
181.1419, 6.842001
181.6240, 6.787885
182.1061, 7.785720
182.5882, 9.319692
183.0704, 10.02175
183.5525, 9.862401
184.0346, 9.410482
184.5167, 9.211102
184.9988, 9.221522
185.4809, 8.958621
185.9631, 8.177125
186.4452, 7.096032
186.9273, 6.369899
187.4094, 6.006044
187.8915, 5.963140
188.3736, 6.371978
188.8558, 7.235498
189.3379, 7.819326
189.8200, 7.829252
190.3021, 7.447016
190.7842, 7.474731
191.2663, 7.961436
191.7485, 8.650394
192.2306, 9.476854
192.7127, 10.49019
193.1948, 10.90530
193.6769, 10.32870
194.1591, 8.962905
194.6412, 8.131808
195.1233, 7.908889
195.6054, 7.995469
196.0875, 8.150860
196.5696, 8.392033
197.0518, 8.597919
197.5339, 8.793958
198.0160, 8.951417
198.4981, 8.665000
198.9802, 7.716916
199.4623, 6.829422
199.9445, 6.937196
200.4266, 8.359661
200.9087, 9.239970
201.3908, 8.900252
201.8729, 7.487083
202.3550, 7.026304
202.8372, 7.798830
203.3193, 8.982401
203.8014, 9.838909
204.2835, 10.40937
204.7656, 10.49668
205.2477, 9.935273
205.7299, 8.759196
206.2120, 7.689086
206.6941, 6.613854
207.1762, 5.805727
207.6583, 5.594727
208.1405, 6.143549
208.6226, 6.829009
209.1047, 7.694103
209.5868, 8.719790
210.0689, 8.828308
210.5510, 7.486783
211.0332, 6.012284
211.5153, 5.830034
211.9974, 7.553514
212.4795, 8.960368
212.9616, 9.553997
213.4437, 9.355742
213.9259, 9.183648
214.4080, 9.066424
214.8901, 8.937684
215.3722, 8.735671
215.8543, 8.438795
216.3364, 8.091563
216.8186, 7.543630
217.3007, 6.822761
217.7828, 6.951310
218.2649, 8.586702
218.7470, 10.26686
219.2291, 10.51053
219.7113, 8.282829
220.1934, 6.932842
220.6755, 7.357773
221.1576, 9.447665
221.6397, 10.52342
222.1218, 10.20521
222.6040, 9.313636
223.0861, 8.385879
223.5682, 7.072707
224.0503, 6.513118
224.5324, 7.221175
225.0146, 9.057364
225.4967, 10.02196
225.9788, 9.715261
226.4609, 8.997550
226.9430, 8.492411
227.4251, 8.244333
227.9073, 8.109729
228.3894, 8.085841
228.8715, 8.166170
229.3536, 8.297100
229.8357, 8.489072
230.3178, 8.718633
230.8000, 9.017236
231.2821, 9.597851
231.7642, 9.777134
232.2463, 9.251723
232.7284, 8.175694
233.2105, 7.745342
233.6927, 8.446971
234.1748, 9.186260
234.6569, 9.189256
235.1390, 7.889574
235.6211, 7.062698
236.1032, 6.961072
236.5854, 7.468778
237.0675, 7.995678
237.5496, 8.684411
238.0317, 9.207125
238.5138, 9.367923
238.9960, 9.109447
239.4781, 8.561735
239.9602, 7.383027
240.4423, 5.927065
240.9244, 5.691710
241.4065, 7.432856
241.8887, 9.295905
242.3708, 10.33148
242.8529, 10.35671
243.3350, 9.956203
243.8171, 8.813678
244.2992, 7.320968
244.7814, 6.744336
245.2635, 7.558122
245.7456, 8.509227
246.2277, 8.980753
246.7098, 8.704668
247.1919, 8.667561
247.6741, 9.005934
248.1562, 9.525283
248.6383, 9.770064
249.1204, 9.678150
249.6025, 9.419890
250.0846, 8.957029
250.5668, 8.069505
251.0489, 7.831500
251.5310, 8.568533
252.0131, 9.735650
252.4952, 10.26472
252.9774, 9.816339
253.4595, 9.436301
253.9416, 9.560826
254.4237, 10.33092
254.9058, 10.82055
255.3879, 10.92785
255.8701, 10.85159
256.3522, 10.91521
256.8343, 11.20425
257.3164, 11.41185
257.7985, 11.41319
258.2806, 11.18017
258.7628, 11.01223
259.2449, 10.88809
259.7270, 10.85271
260.2091, 11.07008
260.6912, 11.75443
261.1733, 11.98532
261.6555, 11.33019
262.1376, 9.803962
262.6197, 8.955932
263.1018, 9.077495
263.5839, 9.347966
264.0660, 8.675797
264.5482, 6.669386
265.0303, 5.459036
265.5124, 5.836911
265.9945, 7.560501
266.4766, 8.208744
266.9587, 7.558385
267.4409, 6.446049
267.9230, 5.452638
268.4051, 4.501904
268.8872, 4.256845
269.3693, 5.111001
269.8514, 6.713145
270.3336, 7.396968
270.8157, 6.968461
271.2978, 6.346385
271.7799, 6.292400
272.2620, 6.851976
272.7441, 7.191952
273.2263, 7.205584
273.7084, 6.927149
274.1905, 6.248724
274.6726, 5.062814
275.1548, 4.231084
275.6369, 4.622519
276.1190, 6.199014
276.6011, 7.056426
277.0832, 6.871368
277.5653, 6.135384
278.0475, 5.774567
278.5296, 5.802375
279.0117, 5.956935
279.4938, 6.416243
279.9759, 7.047727
280.4580, 6.365130
280.9402, 3.886657
281.4223, 1.215296
281.9044, 1.210405
282.3865, 3.741595
282.8686, 6.041953
283.3507, 6.698782
283.8329, 6.054948
284.3150, 5.483768
284.7971, 4.979125
285.2792, 4.615579
285.7613, 4.486221
286.2434, 4.576890
286.7256, 4.811701
287.2077, 5.244807
287.6898, 5.777122
288.1719, 6.263793
288.6540, 6.718557
289.1361, 6.895141
289.6183, 6.261775
290.1004, 5.097569
290.5825, 4.350427
291.0646, 4.433027
291.5467, 4.985876
292.0288, 5.581170
292.5110, 6.199877
292.9931, 6.565354
293.4752, 6.300832
293.9573, 5.630044
294.4394, 5.020830
294.9215, 4.553845
295.4037, 4.209255
295.8858, 3.927155
296.3679, 3.729189
296.8500, 3.702075
297.3321, 4.003765
297.8142, 4.480855
298.2964, 4.974781
298.7785, 5.538585
299.2606, 5.879978
299.7427, 5.379368
300.2248, 4.404105
300.7069, 3.887495
301.1891, 5.206328
301.6712, 6.765015
302.1533, 6.710634
302.6354, 4.571752
303.1176, 2.569257
303.5997, 2.354819
304.0818, 3.293503
304.5639, 4.308744
305.0460, 5.209175
305.5281, 5.841850
306.0103, 6.032536
306.4924, 5.771159
306.9745, 5.395867
307.4566, 4.964794
307.9387, 4.561376
308.4208, 4.278132
308.9030, 4.020588
309.3851, 3.998481
309.8672, 4.503901
310.3493, 5.451337
310.8314, 6.147270
311.3135, 6.171252
311.7957, 5.932925
312.2778, 5.726791
312.7599, 5.594979
313.2420, 5.537325
313.7241, 5.564106
314.2062, 5.666922
314.6884, 5.819878
315.1705, 6.311254
315.6526, 6.628258
316.1347, 6.472230
316.6168, 5.540067
317.0989, 4.688567
317.5811, 4.082943
318.0632, 3.638421
318.5453, 3.202626
319.0274, 2.564106
319.5095, 2.113755
319.9916, 1.995009
320.4738, 2.283138
320.9559, 2.645491
321.4380, 3.121009
321.9201, 3.646217
322.4022, 4.159867
322.8843, 4.773918
323.3665, 5.228755
323.8486, 5.354476
324.3307, 5.135580
324.8128, 5.321242
325.2949, 6.298857
325.7770, 7.331108
326.2592, 7.878973
326.7413, 7.884336
327.2234, 7.501559
327.7055, 6.571954
328.1876, 5.255816
328.6697, 4.210111
329.1519, 3.405916
329.6340, 2.920549
330.1161, 2.834854
330.5982, 3.259635
331.0803, 3.734849
331.5625, 4.339762
332.0446, 4.912009
332.5267, 5.089837
333.0088, 4.781562
333.4909, 4.420518
333.9731, 4.141730
334.4552, 3.946171
334.9373, 3.929386
335.4194, 4.126411
335.9015, 4.411932
336.3836, 4.626456
336.8658, 4.769441
337.3479, 4.939189
337.8300, 5.236745
338.3121, 5.569280
338.7942, 5.496847
339.2763, 4.977991
339.7585, 4.492479
340.2406, 4.607341
340.7227, 5.174924
341.2048, 5.407727
341.6869, 5.040482
342.1690, 4.419329
342.6512, 4.120121
343.1333, 4.118834
343.6154, 4.183065
344.0975, 4.150803
344.5796, 4.080864
345.0617, 4.075953
345.5439, 4.136981
346.0260, 4.308764
346.5081, 4.895963
346.9902, 5.657066
347.4723, 5.986855
347.9544, 4.967767
348.4366, 3.712704
348.9187, 3.660763
349.4008, 4.860087
349.8829, 5.939109
350.3650, 5.669208
350.8471, 4.768847
351.3293, 4.178628
351.8114, 4.684821
352.2935, 5.143114
352.7756, 4.549766
353.2577, 3.172311
353.7398, 2.273311
354.2220, 2.848701
354.7041, 3.897353
355.1862, 4.687373
355.6683, 5.055156
356.1504, 5.213916
356.6325, 5.061032
357.1147, 4.760547
357.5968, 4.631369
358.0789, 5.087894
358.5610, 5.448871
359.0431, 5.343908
359.5252, 4.589201
360.0074, 4.117390
360.4895, 4.384099
360.9716, 4.850550
361.4537, 4.967229
361.9359, 4.249803
362.4180, 3.668933
362.9001, 3.367704
363.3822, 3.339938
363.8643, 3.424354
364.3464, 3.701614
364.8286, 4.014617
365.3107, 4.279149
365.7928, 4.510666
366.2749, 4.678453
366.7570, 4.870600
367.2391, 4.969505
367.7213, 4.554321
368.2034, 3.258435
368.6855, 2.290258
369.1676, 2.276282
369.6497, 3.357109
370.1318, 4.158414
370.6140, 4.658553
371.0961, 4.906044
371.5782, 4.810260
372.0603, 4.309489
372.5424, 4.172399
373.0245, 4.798485
373.5067, 5.920381
373.9888, 6.462333
374.4709, 6.416587
374.9530, 5.912245
375.4351, 4.660231
375.9172, 2.912597
376.3994, 1.966079
376.8815, 2.182548
377.3636, 2.979146
377.8457, 3.583491
378.3278, 4.005185
378.8099, 4.294400
379.2921, 4.450154
379.7742, 4.501200
380.2563, 4.486175
380.7384, 4.407149
381.2205, 4.272097
381.7026, 3.936356
382.1848, 3.569211
382.6669, 3.469073
383.1490, 4.064741
383.6311, 4.717899
384.1132, 4.895945
384.5953, 4.664819
385.0775, 4.399838
385.5596, 4.178553
386.0417, 4.080973
386.5238, 4.242413
387.0059, 4.985529
387.4880, 5.398028
387.9702, 4.719800
388.4523, 3.499360
388.9344, 2.785634
389.4165, 3.253616
389.8987, 3.937558
390.3808, 4.510232
390.8629, 4.937506
391.3450, 5.294947
391.8271, 5.750798
392.3092, 6.066844
392.7914, 6.019850
393.2735, 5.152437
393.7556, 4.479110
394.2377, 4.096714
394.7198, 3.992265
395.2019, 4.130204
395.6841, 4.843261
396.1662, 5.360258
396.6483, 5.169536
397.1304, 3.738039
397.6125, 3.196652
398.0946, 3.890043
398.5768, 5.116938
399.0589, 5.672025
399.5410, 5.422669
400.0231, 5.086547
400.5052, 4.935793
400.9873, 4.917270
401.4695, 4.437686
401.9516, 3.366531
402.4337, 2.504254
402.9158, 2.852661
403.3979, 4.222939
403.8800, 5.172778
404.3622, 5.362475
404.8443, 5.141523
405.3264, 5.161314
405.8085, 5.357163
406.2906, 5.310740
406.7727, 4.302775
407.2549, 3.033455
407.7370, 2.861126
408.2191, 3.959273
408.7012, 5.181148
409.1833, 5.585203
409.6654, 5.420755
410.1476, 5.082139
410.6297, 4.548739
411.1118, 4.044317
411.5939, 3.717447
412.0760, 3.553146
412.5581, 3.495289
413.0403, 3.463069
413.5224, 3.559711
414.0045, 3.912112
414.4866, 4.720747
414.9687, 5.349660
415.4508, 5.534348
415.9330, 5.443198
416.4151, 5.326343
416.8972, 5.021351
417.3793, 4.903005
417.8614, 5.250775
418.3436, 6.140091
418.8257, 6.491679
419.3078, 5.988152
419.7899, 5.199795
420.2720, 4.455269
420.7542, 3.511032
421.2363, 3.128770
421.7184, 3.640230
422.2005, 4.632578
422.6826, 4.983316
423.1647, 4.466463
423.6469, 3.920528
424.1290, 3.681519
424.6111, 3.751601
425.0932, 3.876107
425.5753, 4.082697
426.0574, 4.262321
426.5396, 4.185121
427.0217, 3.878869
427.5038, 3.930986
427.9859, 4.652173
428.4680, 5.588424
428.9501, 5.718279
429.4323, 5.122340
429.9144, 4.556243
430.3965, 4.624884
430.8786, 5.023211
431.3607, 5.218701
431.8428, 5.158230
432.3250, 4.936526
432.8071, 4.380795
433.2892, 3.759070
433.7713, 3.524222
434.2534, 4.179317
434.7355, 5.014875
435.2177, 5.741645
435.6998, 6.310732
436.1819, 6.460700
436.6640, 5.516849
437.1461, 4.493311
437.6282, 4.140298
438.1104, 4.984036
438.5925, 5.517453
439.0746, 5.071881
439.5567, 4.197435
440.0388, 3.656630
440.5209, 3.610420
441.0031, 3.827405
441.4852, 4.422005
441.9673, 5.382994
442.4494, 5.933124
442.9315, 5.972573
443.4136, 5.714802
443.8958, 5.183120
444.3779, 4.099797
444.8600, 3.631904
445.3421, 3.987113
445.8242, 4.807982
446.3063, 5.451541
446.7885, 5.913383
447.2706, 6.266632
447.7527, 6.553069
448.2348, 6.756324
448.7169, 6.764978
449.1991, 6.572158
449.6812, 6.268712
450.1633, 5.794250
450.6454, 5.255907
451.1275, 5.036632
451.6096, 5.277512
452.0918, 5.656335
452.5739, 5.719876
453.0560, 5.596590
453.5381, 5.641782
454.0202, 6.176013
454.5023, 6.867410
454.9845, 7.487773
455.4666, 8.022067
455.9487, 8.344281
456.4308, 8.255024
456.9129, 7.993714
457.3951, 7.762722
457.8772, 7.522625
458.3593, 7.442207
458.8414, 7.716619
459.3235, 8.179597
459.8056, 8.469074
460.2878, 8.443295
460.7699, 8.318083
461.2520, 8.120406
461.7341, 7.834152
462.2162, 7.628669
462.6983, 7.540855
463.1805, 7.497872
463.6626, 7.442423
464.1447, 7.354224
464.6268, 7.331982
465.1089, 7.453547
465.5910, 7.590013
466.0732, 7.341252
466.5553, 6.607789
467.0374, 6.104601
467.5195, 6.269291
468.0016, 6.948051
468.4837, 7.210627
468.9659, 7.017965
469.4480, 6.837290
469.9301, 7.316508
470.4122, 8.171836
470.8943, 8.525279
471.3764, 8.072856
471.8586, 7.363392
472.3407, 6.961719
472.8228, 6.790292
473.3049, 6.646089
473.7870, 6.279901
474.2691, 6.006061
474.7513, 6.112562
475.2334, 6.601489
475.7155, 7.156859
476.1976, 8.084231
476.6797, 8.763016
477.1619, 8.664783
477.6440, 7.013391
478.1261, 5.575552
478.6082, 4.572650
479.0903, 3.999196
479.5724, 3.884887
480.0546, 4.633898
480.5367, 5.335715
481.0188, 5.778235
481.5009, 5.954673
481.9830, 6.081243
482.4651, 6.238249
482.9473, 6.213217
483.4294, 5.701463
483.9115, 4.547948
484.3936, 4.003722
484.8757, 4.286166
485.3578, 4.985280
485.8400, 5.431691
486.3221, 5.636179
486.8042, 5.753032
487.2863, 5.840601
487.7684, 5.886579
488.2505, 5.869677
488.7327, 5.788870
489.2148, 5.632304
489.6969, 5.358135
490.1790, 5.014944
490.6611, 4.599099
491.1432, 4.037330
491.6254, 3.700686
492.1075, 4.138183
492.5896, 4.891939
493.0717, 5.292750
493.5538, 4.800916
494.0359, 4.193678
494.5181, 3.622442
495.0002, 3.143227
495.4823, 3.079068
495.9644, 4.090147
496.4465, 5.039668
496.9286, 5.320075
497.4108, 4.462400
497.8929, 4.220222
498.3750, 5.029296
498.8571, 6.081339
499.3392, 6.334160
499.8214, 5.431874
500.3035, 4.899980
500.7856, 5.125309
501.2677, 5.844731
501.7498, 6.203696
502.2319, 6.178038
502.7141, 6.039190
503.1962, 5.991139
503.6783, 5.960877
504.1604, 5.618390
504.6425, 4.940609
505.1246, 4.160238
505.6068, 3.087559
506.0889, 2.133858
506.5710, 2.234700
507.0531, 4.240349
507.5352, 6.232974
508.0174, 6.350070
508.4995, 5.251035
508.9816, 4.426056
509.4637, 4.931688
509.9458, 5.527833
510.4279, 5.416070
510.9101, 4.547491
511.3922, 4.073796
511.8743, 4.884947
512.3564, 5.744744
512.8385, 5.789072
513.3206, 4.082277
513.8027, 3.152308
514.2849, 3.326445
514.7670, 4.086689
515.2491, 4.682681
515.7312, 5.160189
516.2133, 5.281832
516.6954, 4.795883
517.1776, 3.926353
517.6597, 3.907155
518.1418, 4.838030
518.6239, 5.682329
519.1060, 5.476544
519.5881, 4.578929
520.0703, 4.479546
520.5524, 5.377205
521.0345, 6.281466
521.5167, 5.859107
521.9988, 4.765693
522.4809, 4.337809
522.9630, 5.607928
523.4451, 6.811709
523.9272, 6.275015
524.4094, 4.591327
524.8915, 3.316180
525.3736, 3.347552
525.8557, 3.693982
526.3378, 3.908100
526.8199, 3.941921
527.3021, 4.017880
527.7842, 4.010097
528.2663, 4.168996
528.7484, 4.713455
529.2305, 6.379214
529.7126, 6.967065
530.1948, 5.863817
530.6769, 4.136806
531.1590, 3.708137
531.6411, 4.899622
532.1232, 5.812300
532.6053, 5.830694
533.0875, 5.216955
533.5696, 4.725481
534.0517, 4.354220
534.5338, 4.522044
535.0159, 6.288529
535.4980, 8.651095
535.9802, 9.305593
536.4623, 7.987792
536.9444, 6.077637
537.4265, 4.045846
537.9086, 2.368191
538.3907, 1.776915
538.8729, 3.226279
539.3550, 4.715631
539.8371, 5.188690
540.3192, 4.994992
540.8013, 4.884689
541.2834, 5.415147
541.7656, 5.711752
542.2477, 5.202229
542.7298, 3.847606
543.2119, 3.395149
543.6940, 4.486681
544.1761, 5.714992
544.6583, 6.253579
545.1404, 5.932579
545.6225, 5.548171
546.1046, 5.061983
546.5867, 4.609214
547.0688, 4.357383
547.5510, 4.304956
548.0331, 4.450419
548.5152, 4.907420
548.9973, 5.412801
549.4794, 5.378978
549.9615, 4.917436
550.4437, 4.546457
550.9258, 4.626285
551.4079, 4.912213
551.8900, 5.220618
552.3721, 5.536386
552.8542, 5.667586
553.3364, 5.221868
553.8185, 4.716098
554.3006, 4.636291
554.7827, 5.502482
555.2648, 5.921517
555.7469, 5.325875
556.2291, 4.233131
556.7112, 3.366851
557.1933, 2.579869
557.6754, 2.276362
558.1575, 2.658594
558.6396, 3.562658
559.1218, 4.427992
559.6039, 5.379698
560.0860, 5.776904
560.5681, 4.819224
561.0502, 2.799581
561.5323, 2.438970
562.0145, 3.841047
562.4966, 5.490939
562.9787, 5.906212
563.4608, 5.549593
563.9429, 5.420292
564.4250, 5.754235
564.9072, 6.160874
565.3893, 6.461480
565.8714, 6.578833
566.3535, 6.390536
566.8356, 5.354435
567.3177, 4.498974
567.7999, 4.396346
568.2820, 4.877698
568.7641, 5.191133
569.2462, 5.067212
569.7283, 4.886461
570.2104, 4.795407
570.6926, 4.818769
571.1747, 4.677835
571.6568, 4.229462
572.1389, 3.853389
572.6210, 3.961385
573.1031, 4.614604
573.5853, 4.865420
574.0674, 4.551091
574.5495, 4.046646
575.0316, 3.904373
575.5137, 4.056589
575.9958, 4.194038
576.4780, 4.198424
576.9601, 4.153233
577.4422, 4.124129
577.9243, 4.124238
578.4065, 4.197510
578.8886, 4.570760
579.3707, 4.864411
579.8528, 4.719220
580.3350, 4.101976
580.8171, 3.701963
581.2992, 4.014546
581.7813, 4.382535
582.2634, 4.343208
582.7455, 3.461436
583.2277, 3.089643
583.7098, 3.451425
584.1919, 4.117269
584.6740, 4.562324
585.1561, 4.754336
585.6382, 4.875565
586.1204, 4.952417
586.6025, 4.985619
587.0846, 4.944983
587.5667, 4.840696
588.0488, 4.778773
588.5309, 4.973553
589.0131, 5.172266
589.4952, 4.790483
589.9773, 3.922348
590.4594, 3.340270
590.9415, 3.815212
591.4236, 4.606261
591.9058, 5.115101
592.3879, 5.221874
592.8700, 5.185923
593.3521, 4.911420
593.8342, 4.619214
594.3163, 4.529037
594.7985, 4.908775
595.2806, 5.093082
595.7627, 4.996104
596.2448, 4.719001
596.7269, 4.425502
597.2090, 4.086532
597.6912, 3.861429
598.1733, 3.788926
598.6554, 3.867757
599.1375, 4.201599
599.6196, 4.771135
600.1017, 5.207209
600.5839, 5.187121
601.0660, 4.912742
601.5481, 4.655684
602.0302, 4.429136
602.5123, 4.307151
602.9944, 4.398067
603.4766, 4.581180
603.9587, 4.770918
604.4408, 5.005977
604.9229, 5.092561
605.4050, 4.577138
605.8871, 4.047925
606.3693, 4.269449
606.8514, 6.257474
607.3335, 7.366848
607.8156, 7.025083
608.2977, 5.753953
608.7798, 4.767288
609.2620, 4.088663
609.7441, 3.610467
610.2262, 3.331296
610.7083, 3.210087
611.1904, 3.034494
611.6725, 2.821801
612.1547, 2.901536
612.6368, 3.837693
613.1189, 5.053627
613.6010, 5.714003
614.0831, 5.740947
614.5652, 5.592129
615.0474, 5.349314
615.5295, 5.165947
616.0116, 5.229220
616.4937, 5.898851
616.9758, 6.193581
617.4579, 5.327263
617.9401, 4.255655
618.4222, 4.282752
618.9043, 6.432529
619.3864, 7.526278
619.8685, 6.711416
620.3506, 4.813263
620.8328, 3.984921
621.3149, 4.284949
621.7970, 4.880137
622.2791, 5.653738
622.7612, 6.377605
623.2433, 6.203221
623.7255, 5.260261
624.2076, 4.654516
624.6897, 5.751093
625.1718, 7.202950
625.6539, 7.379388
626.1360, 6.042935
626.6182, 5.019361
627.1003, 5.588224
627.5824, 6.515423
628.0645, 6.849469
628.5466, 6.061595
629.0287, 5.361716
629.5109, 4.662169
629.9930, 4.149775
630.4751, 4.175346
630.9572, 5.020540
631.4393, 5.282835
631.9214, 4.466365
632.4036, 3.279930
632.8857, 3.396308
633.3678, 4.698291
633.8499, 5.759566
634.3320, 5.925208
634.8141, 5.546686
635.2963, 4.987123
635.7784, 4.302373
636.2606, 3.776365
636.7427, 3.651071
637.2248, 3.668350
637.7069, 3.601626
638.1890, 3.420153
638.6711, 3.496359
639.1533, 4.220016
639.6354, 4.991018
640.1175, 5.454218
640.5996, 5.498549
641.0817, 5.572551
641.5638, 5.668116
642.0460, 5.806742
642.5281, 6.011259
643.0102, 6.282452
643.4923, 6.669905
643.9744, 7.262083
644.4565, 7.761771
644.9387, 7.649575
645.4208, 7.093023
645.9029, 6.565786
646.3850, 6.122051
646.8671, 5.918968
647.3492, 6.286984
647.8314, 7.001021
648.3135, 7.495202
648.7956, 7.623623
649.2777, 7.432816
649.7598, 6.644792
650.2419, 5.340312
650.7241, 4.846109
651.2062, 5.684165
651.6883, 6.538377
652.1704, 6.770332
652.6525, 6.366835
653.1346, 6.139885
653.6168, 6.111447
654.0989, 6.135042
654.5810, 6.094607
655.0631, 6.004805
655.5452, 5.958922
656.0273, 5.996483
656.5095, 5.852717
656.9916, 4.978585
657.4737, 3.908619
657.9558, 3.345168
658.4379, 3.749038
658.9200, 4.199771
659.4022, 4.298183
659.8843, 4.282647
660.3664, 4.546722
660.8485, 5.314048
661.3306, 6.056422
661.8127, 6.851241
662.2949, 7.519269
662.7770, 7.393441
663.2591, 6.348002
663.7412, 5.528233
664.2233, 5.565277
664.7054, 6.017285
665.1876, 5.581870
665.6697, 4.399543
666.1518, 3.460197
666.6339, 3.545227
667.1160, 4.081712
667.5981, 4.671489
668.0803, 5.272666
668.5624, 5.553771
669.0445, 5.014647
669.5266, 4.394843
670.0087, 4.190545
670.4908, 4.609329
670.9730, 4.842862
671.4551, 4.852486
671.9372, 4.722828
672.4193, 4.400592
672.9014, 3.810096
673.3835, 3.881457
673.8657, 4.858423
674.3478, 5.943964
674.8299, 5.949902
675.3120, 5.213380
675.7941, 4.775285
676.2762, 4.965726
676.7584, 5.387157
677.2405, 5.831235
677.7226, 6.239318
678.2047, 6.513196
678.6868, 6.593712
679.1689, 6.563112
679.6511, 6.433884
680.1332, 6.207608
680.6153, 5.860885
681.0974, 5.142390
681.5795, 4.784547
682.0616, 5.141068
682.5438, 6.012090
683.0259, 6.393433
683.5080, 6.269319
683.9901, 5.958889
684.4722, 5.453559
684.9543, 4.943636
685.4365, 4.955873
685.9186, 5.448745
686.4007, 5.915901
686.8828, 5.999940
687.3649, 5.938518
687.8470, 5.909308
688.3292, 5.935057
688.8113, 5.977500
689.2934, 6.067747
689.7755, 6.140565
690.2576, 6.159245
690.7397, 6.125998
691.2219, 5.994799
691.7040, 5.666825
692.1861, 5.426987
692.6682, 5.717489
693.1503, 6.477045
693.6324, 6.972339
694.1146, 7.091166
694.5967, 6.903219
695.0789, 6.209435
695.5610, 5.311285
696.0431, 4.778597
696.5252, 4.918463
697.0073, 5.278321
697.4894, 5.874885
697.9716, 6.488524
698.4537, 6.717327
698.9358, 6.044179
699.4179, 5.531212
699.9000, 5.294612
700.3821, 5.320815
700.8643, 5.720753
701.3464, 6.639112
701.8285, 7.054866
702.3106, 6.288590
702.7927, 4.978930
703.2748, 5.009048
703.7570, 6.176010
704.2391, 7.182283
704.7212, 7.068126
705.2033, 6.578690
705.6854, 6.422746
706.1675, 6.571683
706.6497, 6.601527
707.1318, 6.192164
707.6139, 5.759501
708.0960, 5.468359
708.5781, 5.302856
709.0602, 5.496093
709.5424, 6.294076
710.0245, 6.991441
710.5066, 6.993153
710.9887, 6.321073
711.4708, 6.221421
711.9529, 6.779291
712.4351, 7.200612
712.9172, 6.327120
713.3993, 4.961607
713.8814, 4.615457
714.3635, 5.696436
714.8456, 6.606397
715.3278, 5.951104
715.8099, 4.898529
716.2920, 4.574811
716.7741, 5.864571
717.2562, 6.713515
717.7383, 6.924179
718.2205, 6.751828
718.7026, 6.395110
719.1847, 5.774300
719.6668, 5.471528
720.1489, 5.634402
720.6310, 5.966373
721.1132, 6.104692
721.5953, 6.036476
722.0774, 5.656746
722.5595, 4.709595
723.0416, 3.837117
723.5237, 3.458846
724.0059, 3.559003
724.4880, 4.117752
724.9701, 5.833632
725.4522, 7.203607
725.9343, 7.821634
726.4164, 7.839137
726.8986, 7.511038
727.3807, 6.693055
727.8628, 5.887792
728.3449, 5.145890
728.8270, 4.580873
729.3091, 4.627618
729.7913, 5.239665
730.2734, 5.955824
730.7555, 6.726696
731.2376, 7.351908
731.7197, 7.594546
732.2018, 7.479873
732.6840, 7.123761
733.1661, 6.195923
733.6482, 5.393862
734.1303, 5.058156
734.6124, 5.205155
735.0945, 5.505234
735.5767, 6.139470
736.0588, 6.604270
736.5409, 6.609004
737.0230, 6.210679
737.5051, 6.031512
737.9872, 6.077703
738.4694, 6.216965
738.9515, 6.408722
739.4336, 6.612016
739.9157, 6.789207
740.3978, 6.934882
740.8799, 6.941238
741.3621, 6.699263
741.8442, 6.332474
742.3263, 5.902658
742.8084, 5.393823
743.2905, 4.911793
743.7726, 4.424454
744.2548, 4.010163
744.7369, 3.624242
745.2190, 3.211177
745.7011, 3.641555
746.1832, 5.065171
746.6653, 6.492067
747.1475, 6.820150
747.6296, 6.460874
748.1117, 6.249849
748.5938, 6.317575
749.0759, 6.414791
749.5580, 6.333834
750.0402, 6.231954
750.5223, 6.275538
751.0044, 6.677164
751.4865, 6.823167
751.9686, 6.461268
752.4508, 6.051147
752.9329, 6.057302
753.4150, 6.542033
753.8972, 7.007295
754.3793, 7.437177
754.8614, 7.728552
755.3435, 7.714015
755.8256, 7.462388
756.3077, 7.122124
756.7899, 6.695542
757.2720, 6.291489
757.7541, 5.997869
758.2362, 5.770343
758.7183, 5.555320
759.2004, 5.243482
759.6826, 5.082509
760.1647, 5.146724
760.6468, 5.319418
761.1289, 5.449655
761.6110, 5.535676
762.0931, 5.552052
762.5753, 5.416168
763.0574, 5.396092
763.5395, 6.205638
764.0216, 7.471347
764.5037, 8.135390
764.9858, 7.683535
765.4680, 6.858655
765.9501, 5.804160
766.4322, 4.797356
766.9143, 4.294525
767.3964, 4.831545
767.8785, 5.324037
768.3607, 5.703516
768.8428, 5.939897
769.3249, 5.915920
769.8070, 5.582057
770.2891, 5.356804
770.7712, 5.325469
771.2534, 5.483668
771.7355, 5.997083
772.2176, 6.710150
772.6997, 7.174526
773.1818, 7.193036
773.6639, 6.918231
774.1461, 6.088095
774.6282, 5.071172
775.1103, 4.616186
775.5924, 5.260891
776.0745, 6.047436
776.5566, 7.091431
777.0388, 8.083899
777.5209, 8.068012
778.0030, 6.937361
778.4851, 6.077646
778.9672, 5.968059
779.4493, 6.285073
779.9315, 6.621406
780.4136, 6.947287
780.8957, 7.188364
781.3778, 7.204261
781.8599, 7.232998
782.3420, 7.617015
782.8242, 8.111445
783.3063, 8.010215
783.7884, 6.615187
784.2705, 5.628081
784.7526, 5.428519
785.2347, 5.820032
785.7169, 6.482882
786.1990, 7.419482
786.6811, 7.726826
787.1632, 6.753557
787.6453, 5.375772
788.1274, 4.733521
788.6096, 4.727507
789.0917, 5.071965
789.5738, 6.325364
790.0559, 7.181627
790.5380, 6.707814
791.0201, 5.375907
791.5023, 4.794663
791.9844, 5.316375
792.4665, 5.938761
792.9486, 6.487887
793.4307, 6.938210
793.9128, 7.215612
794.3950, 7.324935
794.8771, 7.302774
795.3592, 7.044162
795.8413, 6.800663
796.3234, 7.087792
796.8055, 7.620773
797.2877, 7.691340
797.7698, 6.479345
798.2519, 5.395970
798.7340, 4.893785
799.2161, 4.829034
799.6982, 4.865571
800.1804, 4.973493
800.6625, 5.304995
801.1446, 5.987177
801.6267, 6.814496
802.1088, 7.479892
802.5909, 7.932952
803.0731, 7.929278
803.5552, 6.924601
804.0373, 5.926379
804.5194, 5.760748
805.0015, 6.193919
805.4836, 6.707926
805.9658, 7.506124
806.4479, 7.943359
806.9300, 7.782938
807.4121, 7.259698
807.8942, 6.880768
808.3763, 6.639989
808.8585, 6.587885
809.3406, 6.771256
809.8227, 7.088555
810.3049, 7.601416
810.7870, 8.112462
811.2691, 8.117311
811.7512, 6.764945
812.2333, 5.635160
812.7155, 5.880308
813.1976, 6.811943
813.6797, 7.061719
814.1618, 5.856499
814.6439, 5.361444
815.1260, 6.128622
815.6082, 7.431181
816.0903, 7.916137
816.5724, 7.640107
817.0545, 7.104599
817.5366, 6.285067
818.0187, 5.629479
818.5009, 5.891788
818.9830, 6.595167
819.4651, 6.957617
819.9472, 6.282164
820.4293, 5.851816
820.9114, 6.266422
821.3936, 6.913655
821.8757, 6.983763
822.3578, 6.236639
822.8399, 5.950226
823.3220, 6.393646
823.8041, 7.066478
824.2863, 7.144839
824.7684, 6.867827
825.2505, 6.984120
825.7326, 7.906232
826.2147, 8.487243
826.6968, 7.266562
827.1790, 5.604661
827.6611, 5.001400
828.1432, 6.950322
828.6253, 8.050922
829.1074, 7.965225
829.5895, 7.466975
830.0717, 7.397141
830.5538, 7.736522
831.0359, 7.918791
831.5180, 7.888648
832.0001, 7.682242
832.4822, 7.152098
832.9644, 6.549829
833.4465, 6.237035
833.9286, 6.333732
834.4107, 6.459914
834.8928, 6.298700
835.3749, 6.273284
835.8571, 6.747142
836.3392, 7.922234
836.8213, 8.755483
837.3034, 9.280347
837.7855, 9.337376
838.2676, 8.461530
838.7498, 7.048777
839.2319, 6.091863
839.7140, 5.655063
840.1961, 5.695698
840.6782, 6.854435
841.1603, 7.975647
841.6425, 8.055034
842.1246, 6.796227
842.6067, 6.059996
843.0888, 6.050018
843.5709, 6.325152
844.0530, 6.766247
844.5352, 7.324528
845.0173, 7.470124
845.4994, 7.218456
845.9815, 7.062446
846.4636, 7.529172
846.9457, 8.128280
847.4279, 8.316728
847.9100, 8.135404
848.3921, 8.011284
848.8742, 8.400895
849.3563, 8.502539
849.8384, 7.879418
850.3206, 6.720407
850.8027, 6.142706
851.2848, 6.193611
851.7669, 6.407761
852.2490, 6.696512
852.7311, 6.930117
853.2133, 6.665380
853.6954, 6.117642
854.1775, 5.946964
854.6596, 7.016693
855.1417, 7.951060
855.6238, 8.043943
856.1060, 7.544622
856.5881, 7.190190
857.0702, 7.023408
857.5523, 6.856090
858.0344, 6.566636
858.5165, 6.383555
858.9987, 6.985696
859.4808, 8.115271
859.9629, 8.707231
860.4450, 8.235486
860.9271, 7.573132
861.4092, 7.250830
861.8914, 7.184371
862.3735, 7.247736
862.8556, 7.681970
863.3377, 7.835230
863.8198, 7.519957
864.3019, 7.137373
864.7841, 7.245146
865.2662, 7.804881
865.7483, 8.147606
866.2304, 8.179503
866.7125, 8.080568
867.1946, 8.135715
867.6768, 8.103846
868.1589, 7.563083
868.6411, 6.216809
869.1232, 5.373904
869.6053, 5.674398
870.0874, 6.307165
870.5695, 6.912835
871.0516, 7.511882
871.5338, 7.760963
872.0159, 7.626496
872.4980, 7.456151
872.9801, 7.766363
873.4622, 8.098007
873.9443, 7.446711
874.4265, 5.913850
874.9086, 4.885585
875.3907, 5.231579
875.8728, 6.014109
876.3549, 7.025328
876.8370, 8.156336
877.3192, 8.517646
877.8013, 7.858826
878.2834, 7.613634
878.7655, 8.716617
879.2476, 10.34741
879.7297, 10.56752
880.2119, 9.713041
880.6940, 8.947360
881.1761, 9.018009
881.6582, 9.147123
882.1403, 8.912739
882.6224, 8.479150
883.1046, 8.288405
883.5867, 8.596231
884.0688, 8.480699
884.5509, 7.600039
885.0330, 6.559214
885.5151, 6.484485
885.9973, 7.107388
886.4794, 7.424069
886.9615, 7.088268
887.4436, 6.677610
887.9257, 6.403154
888.4078, 6.385739
888.8900, 6.796623
889.3721, 8.041718
889.8542, 8.947629
890.3363, 9.514567
890.8184, 9.728559
891.3005, 9.382749
891.7827, 8.599107
892.2648, 8.298345
892.7469, 8.546522
893.2290, 8.735612
893.7111, 8.141053
894.1932, 7.468758
894.6754, 7.482736
895.1575, 8.289184
895.6396, 8.555675
896.1217, 7.779768
896.6038, 7.008302
897.0859, 6.623178
897.5681, 6.589885
898.0502, 6.823607
898.5323, 7.295774
899.0144, 7.580247
899.4965, 6.996947
899.9786, 6.485469
900.4608, 7.316169
900.9429, 8.937221
901.4250, 9.898197
901.9071, 9.262928
902.3892, 8.594554
902.8713, 8.105341
903.3535, 7.755131
903.8356, 7.474070
904.3177, 7.262391
904.7998, 7.139697
905.2819, 7.130496
905.7640, 7.141643
906.2462, 6.955689
906.7283, 6.776919
907.2104, 6.939587
907.6925, 7.865148
908.1746, 8.294358
908.6567, 7.565383
909.1389, 6.783194
909.6210, 6.891782
910.1031, 7.952707
910.5852, 8.583877
911.0673, 8.751056
911.5494, 8.600546
912.0316, 7.977185
912.5137, 7.274985
912.9958, 6.974921
913.4779, 7.093379
913.9600, 7.278967
914.4421, 7.460885
914.9243, 7.669806
915.4064, 7.997342
915.8885, 8.361387
916.3706, 8.254415
916.8527, 7.673576
917.3348, 7.141654
917.8170, 6.848692
918.2991, 6.753970
918.7812, 6.929396
919.2633, 7.248969
919.7454, 7.458313
920.2275, 7.523929
920.7097, 7.379065
921.1918, 6.755918
921.6739, 6.142408
922.1560, 6.315681
922.6381, 7.296878
923.1202, 8.006080
923.6024, 8.283991
924.0845, 8.399664
924.5666, 8.530029
925.0487, 8.706314
925.5308, 9.018855
926.0129, 9.531240
926.4951, 9.861072
926.9772, 9.811663
927.4594, 9.678234
927.9415, 9.680156
928.4236, 9.789119
928.9057, 9.217811
929.3878, 7.957440
929.8699, 6.864832
930.3521, 6.401115
930.8342, 6.435495
931.3163, 7.177996
931.7984, 8.344755
932.2805, 8.986786
932.7626, 8.398259
933.2448, 7.784778
933.7269, 7.303347
934.2090, 6.996814
934.6911, 7.037053
935.1732, 7.403921
935.6553, 7.728430
936.1375, 7.926032
936.6196, 8.066175
937.1017, 8.235347
937.5838, 8.381582
938.0659, 8.429201
938.5480, 8.286695
939.0302, 8.256495
939.5123, 8.452218
939.9944, 8.634992
940.4765, 8.660296
940.9586, 8.526332
941.4407, 8.141881
941.9229, 7.516994
942.4050, 6.966362
942.8871, 6.761443
943.3692, 6.684731
943.8513, 6.553452
944.3334, 6.378052
944.8156, 6.286911
945.2977, 6.298920
945.7798, 6.382357
946.2619, 6.532572
946.7440, 6.747206
947.2261, 7.026086
947.7083, 7.365996
948.1904, 7.798583
948.6725, 8.474064
949.1546, 8.897313
949.6367, 8.417364
950.1188, 7.614717
950.6010, 7.201021
951.0831, 7.510626
951.5652, 7.589991
952.0473, 7.332154
952.5294, 7.088036
953.0115, 7.229964
953.4937, 7.632913
953.9758, 7.958235
954.4579, 8.180581
954.9400, 8.188697
955.4221, 7.919596
955.9042, 7.413410
956.3864, 6.296449
956.8685, 4.843554
957.3506, 4.797471
957.8327, 6.655947
958.3148, 8.049945
958.7969, 8.156919
959.2791, 7.560620
959.7612, 7.064561
960.2433, 6.733147
960.7254, 6.774730
961.2075, 7.587461
961.6896, 8.157331
962.1718, 7.768126
962.6539, 7.181054
963.1360, 7.172697
963.6181, 7.912938
964.1002, 8.321490
964.5823, 8.347189
965.0645, 8.254563
965.5466, 8.222963
966.0287, 8.241406
966.5108, 8.216530
966.9929, 8.176475
967.4750, 8.436727
967.9572, 9.962708
968.4393, 10.74189
968.9214, 9.743226
969.4035, 7.708917
969.8856, 7.279040
970.3677, 8.393646
970.8499, 9.461442
971.3320, 10.05008
971.8141, 10.19265
972.2962, 9.534908
972.7783, 8.600773
973.2604, 8.143517
973.7426, 8.815755
974.2247, 9.012529
974.7068, 8.489133
975.1889, 7.797357
975.6710, 7.276870
976.1531, 6.960886
976.6353, 7.085862
977.1174, 7.644332
977.5995, 8.408977
978.0816, 9.596460
978.5637, 10.60986
979.0458, 11.11101
979.5280, 11.05941
980.0101, 10.45944
980.4922, 9.105289
980.9743, 7.783265
981.4564, 6.583558
981.9385, 5.709369
982.4207, 5.841265
982.9028, 6.538346
983.3849, 6.706511
983.8670, 5.715966
984.3491, 5.113309
984.8313, 6.016454
985.3134, 7.210509
985.7955, 7.653115
986.2776, 7.207585
986.7598, 7.357172
987.2419, 8.165259
987.7240, 8.831528
988.2061, 8.589911
988.6882, 8.014801
989.1703, 7.769746
989.6525, 7.826440
990.1346, 7.990353
990.6167, 8.372503
991.0988, 8.622023
991.5809, 8.604804
992.0630, 8.491976
992.5452, 8.772191
993.0273, 9.335695
993.5094, 9.167685
993.9915, 7.908265
994.4736, 6.737054
994.9557, 6.547820
995.4379, 6.917815
995.9200, 7.584661
996.4021, 8.658798
996.8842, 9.140464
997.3663, 8.815436
997.8484, 8.516930
998.3306, 8.829016
998.8127, 9.413310
999.2948, 9.324224
999.7769, 8.749526
1000.259, 8.335716
1000.741, 8.554600
1001.223, 8.793295
1001.705, 8.754203
1002.188, 8.657547
1002.670, 8.841038
1003.152, 9.351080
1003.634, 9.761917
1004.116, 10.06520
1004.598, 10.04097
1005.080, 8.981527
1005.562, 7.778046
1006.044, 7.588840
1006.527, 8.557422
1007.009, 9.256731
1007.491, 9.328720
1007.973, 9.305285
1008.455, 9.406312
1008.937, 9.513550
1009.419, 9.135995
1009.901, 8.400397
1010.383, 7.889239
1010.866, 7.766263
1011.348, 8.010547
1011.830, 9.138640
1012.312, 10.34086
1012.794, 10.57877
1013.276, 9.342562
1013.758, 8.739768
1014.240, 8.848451
1014.723, 9.230265
1015.205, 9.765903
1015.687, 10.21768
1016.169, 10.03084
1016.651, 9.317458
1017.133, 8.779308
1017.615, 8.875927
1018.097, 8.960123
1018.579, 8.985935
1019.062, 8.806334
1019.544, 7.747745
1020.026, 5.986236
1020.508, 5.403193
1020.990, 6.584968
1021.472, 8.022427
1021.954, 8.536090
1022.436, 8.613943
1022.919, 8.660320
1023.401, 8.695125
1023.883, 8.941552
1024.365, 9.513567
1024.847, 9.947742
1025.329, 9.959559
1025.811, 9.710326
1026.293, 9.583685
1026.776, 9.502469
1027.258, 9.250568
1027.740, 8.421687
1028.222, 7.822500
1028.704, 7.926779
1029.186, 8.151412
1029.668, 7.621116
1030.150, 6.317415
1030.632, 6.418025
1031.115, 8.121928
1031.597, 9.904158
1032.079, 10.80615
1032.561, 11.04321
1033.043, 10.65676
1033.525, 9.705139
1034.007, 8.641259
1034.489, 7.129963
1034.971, 6.453020
1035.454, 7.124693
1035.936, 8.398052
1036.418, 9.097762
1036.900, 9.365621
1037.382, 9.508500
1037.864, 9.560307
1038.346, 9.647598
1038.828, 10.11151
1039.311, 10.34129
1039.793, 9.870212
1040.275, 8.734630
1040.757, 7.733006
1041.239, 6.875023
1041.721, 6.739341
1042.203, 8.438307
1042.685, 10.24258
1043.167, 10.71535
1043.650, 10.26573
1044.132, 9.702876
1044.614, 8.899294
1045.096, 8.554387
1045.578, 8.833298
1046.060, 9.233566
1046.542, 9.218546
1047.024, 8.950718
1047.506, 8.708470
1047.989, 8.525564
1048.471, 8.515217
1048.953, 8.918664
1049.435, 9.291722
1049.917, 9.536630
1050.399, 9.612047
1050.881, 9.286870
1051.363, 8.608352
1051.846, 8.158015
1052.328, 8.133378
1052.810, 8.192146
1053.292, 7.953897
1053.774, 7.714890
1054.256, 7.771136
1054.738, 8.160922
1055.220, 8.768856
1055.703, 9.711361
1056.185, 10.38675
1056.667, 10.38788
1057.149, 9.977683
1057.631, 9.484204
1058.113, 8.951262
1058.595, 8.480834
1059.077, 8.013173
1059.559, 7.763549
1060.042, 7.746650
1060.524, 7.941150
1061.006, 8.469218
1061.488, 9.234012
1061.970, 9.503317
1062.452, 9.273870
1062.934, 9.057439
1063.416, 9.059644
1063.898, 9.300269
1064.381, 10.19427
1064.863, 11.29100
1065.345, 11.21023
1065.827, 9.788377
1066.309, 8.335104
1066.791, 7.007192
1067.273, 6.195611
1067.755, 6.693222
1068.238, 7.787856
1068.720, 8.706451
1069.202, 9.344284
1069.684, 9.674665
1070.166, 9.589816
1070.648, 9.464250
1071.130, 9.461181
1071.612, 9.515929
1072.094, 9.488081
1072.577, 9.386683
1073.059, 9.208424
1073.541, 8.720327
1074.023, 8.586319
1074.505, 9.552679
1074.987, 10.52791
1075.469, 10.56508
1075.951, 9.665327
1076.434, 9.453243
1076.916, 9.885342
1077.398, 10.11933
1077.880, 9.154807
1078.362, 8.246031
1078.844, 8.598480
1079.326, 9.604132
1079.808, 9.709143
1080.291, 8.480595
1080.773, 7.939524
1081.255, 8.390857
1081.737, 9.059298
1082.219, 9.154590
1082.701, 8.964669
1083.183, 8.791017
1083.665, 8.673651
1084.147, 8.804648
1084.630, 9.321909
1085.112, 9.942317
1085.594, 10.71046
1086.076, 11.38585
1086.558, 11.40750
1087.040, 10.94115
1087.522, 10.39772
1088.004, 9.808521
1088.486, 9.452297
1088.969, 9.831152
1089.451, 10.11152
1089.933, 9.704065
1090.415, 8.746930
1090.897, 8.427305
1091.379, 8.697457
1091.861, 8.931253
1092.343, 8.826133
1092.826, 8.642431
1093.308, 8.595338
1093.790, 8.572474
1094.272, 8.353329
1094.754, 7.671953
1095.236, 7.949584
1095.718, 9.351857
1096.200, 10.56946
1096.682, 10.26894
1097.165, 9.481299
1097.647, 9.701870
1098.129, 10.54389
1098.611, 10.76932
1099.093, 9.568985
1099.575, 8.662720
1100.057, 8.155895
1100.539, 8.101158
1101.021, 8.968220
1101.504, 10.21388
1101.986, 10.43367
1102.468, 9.591260
1102.950, 9.007595
1103.432, 9.461762
1103.914, 10.01414
1104.396, 10.54286
1104.878, 10.84609
1105.361, 10.06531
1105.843, 8.531217
1106.325, 8.303371
1106.807, 10.01658
1107.289, 11.52540
1107.771, 11.30165
1108.253, 10.46257
1108.735, 9.599912
1109.218, 8.797078
1109.700, 8.671594
1110.182, 9.232548
1110.664, 9.841550
1111.146, 10.37916
1111.628, 10.61910
1112.110, 10.07588
1112.592, 9.247238
1113.074, 8.794738
1113.557, 8.931695
1114.039, 8.650582
1114.521, 7.815019
1115.003, 7.218987
1115.485, 7.351211
1115.967, 7.998968
1116.449, 9.339090
1116.931, 10.88994
1117.413, 11.60213
1117.896, 10.06022
1118.378, 9.468795
1118.860, 10.33458
1119.342, 11.32034
1119.824, 11.03775
1120.306, 9.966462
1120.788, 9.178714
1121.270, 8.725443
1121.753, 8.649047
1122.235, 9.269378
1122.717, 9.905963
1123.199, 10.51593
1123.681, 10.93060
1124.163, 10.74388
1124.645, 10.12121
1125.127, 9.969958
1125.609, 10.37873
1126.092, 10.55221
1126.574, 9.680479
1127.056, 8.797400
1127.538, 8.476090
1128.020, 8.510022
1128.502, 8.284612
1128.984, 7.826147
1129.466, 7.652166
1129.949, 7.886743
1130.431, 8.356720
1130.913, 9.243595
1131.395, 10.04872
1131.877, 10.35347
1132.359, 10.18081
1132.841, 9.568176
1133.323, 8.427493
1133.806, 7.840404
1134.288, 8.378485
1134.770, 9.172490
1135.252, 9.345911
1135.734, 9.195985
1136.216, 9.092944
1136.698, 9.126802
1137.180, 8.896289
1137.662, 8.242056
1138.145, 8.044971
1138.627, 9.084764
1139.109, 10.51699
1139.591, 11.02322
1140.073, 10.96306
1140.555, 11.02362
1141.037, 11.69923
1141.519, 11.82128
1142.001, 11.10144
1142.484, 10.50506
1142.966, 11.04995
1143.448, 12.11751
1143.930, 12.37928
1144.412, 11.97502
1144.894, 11.41371
1145.376, 10.34855
1145.858, 9.985006
1146.341, 10.75151
1146.823, 11.75367
1147.305, 12.15585
1147.787, 12.00163
1148.269, 11.11383
1148.751, 9.638578
1149.233, 8.741373
1149.715, 9.340872
1150.198, 10.17784
1150.680, 11.17447
1151.162, 11.89288
1151.644, 11.33014
1152.126, 9.811279
1152.608, 9.145350
1153.090, 9.531534
1153.572, 10.00408
1154.054, 10.16977
1154.536, 10.07410
1155.019, 9.545261
1155.501, 8.886820
1155.983, 8.914226
1156.465, 9.560852
1156.947, 10.12679
1157.429, 10.48931
1157.911, 10.71357
1158.393, 10.95301
1158.876, 10.96344
1159.358, 10.49983
1159.840, 9.667695
1160.322, 8.754778
1160.804, 7.778709
1161.286, 7.562970
1161.768, 8.545339
1162.250, 9.551931
1162.733, 9.394587
1163.215, 8.957394
1163.697, 9.163502
1164.179, 9.985326
1164.661, 10.30188
1165.143, 10.09334
1165.625, 9.863798
1166.107, 9.772142
1166.589, 9.822695
1167.072, 10.16289
1167.554, 10.56895
1168.036, 10.80752
1168.518, 10.90686
1169.000, 10.48175
1169.482, 9.446735
1169.964, 8.626734
1170.446, 8.499647
1170.928, 8.716158
1171.411, 8.986886
1171.893, 9.297491
1172.375, 9.639011
1172.857, 10.04246
1173.339, 10.37227
1173.821, 10.63477
1174.303, 10.80233
1174.785, 10.86680
1175.268, 10.81897
1175.750, 10.57774
1176.232, 10.23055
1176.714, 9.939764
1177.196, 9.546740
1177.678, 9.739434
1178.160, 10.69642
1178.642, 11.57332
1179.125, 11.49172
1179.607, 11.03297
1180.089, 11.00295
1180.571, 11.26752
1181.053, 11.36514
1181.535, 11.16967
1182.017, 10.87262
1182.499, 10.44695
1182.981, 10.07122
1183.464, 10.00640
1183.946, 10.05123
1184.428, 9.891575
1184.910, 9.559194
1185.392, 9.245111
1185.874, 8.799678
1186.356, 8.833976
1186.838, 9.595339
1187.320, 10.35094
1187.803, 10.03950
1188.285, 9.294480
1188.767, 9.139215
1189.249, 9.580862
1189.731, 10.00435
1190.213, 10.16773
1190.695, 10.63307
1191.177, 11.68408
1191.660, 12.59694
1192.142, 12.16652
1192.624, 11.03381
1193.106, 10.10517
1193.588, 9.490202
1194.070, 9.522466
1194.552, 10.79215
1195.034, 11.55397
1195.516, 11.27888
1195.999, 10.62354
1196.481, 10.48894
1196.963, 10.72774
1197.445, 11.23870
1197.927, 12.02145
1198.409, 12.29257
1198.891, 11.61758
1199.373, 11.07785
1199.856, 10.97324
1200.338, 11.14573
1200.820, 11.62706
1201.302, 12.07691
1201.784, 11.70486
1202.266, 10.23438
1202.748, 9.527415
1203.230, 10.14094
1203.713, 10.81021
1204.195, 11.12298
1204.677, 11.23884
1205.159, 11.52037
1205.641, 11.79496
1206.123, 11.64265
1206.605, 10.82016
1207.087, 10.60556
1207.569, 11.47599
1208.052, 12.05423
1208.534, 11.63797
1209.016, 10.86673
1209.498, 11.01637
1209.980, 11.59284
1210.462, 11.61829
1210.944, 10.62182
1211.426, 10.33149
1211.908, 11.29604
1212.391, 11.79758
1212.873, 10.81900
1213.355, 9.270177
1213.837, 8.681178
1214.319, 8.740888
1214.801, 8.893113
1215.283, 8.936829
1215.765, 9.447730
1216.248, 10.66344
1216.730, 11.67829
1217.212, 11.97769
1217.694, 11.87366
1218.176, 11.80219
1218.658, 11.73714
1219.140, 11.63674
1219.622, 11.50483
1220.104, 11.23099
1220.587, 10.69720
1221.069, 10.46964
1221.551, 11.18833
1222.033, 12.02755
1222.515, 11.29098
1222.997, 9.925620
1223.479, 9.624703
1223.961, 11.40870
1224.443, 12.14808
1224.926, 11.66607
1225.408, 10.99917
1225.890, 10.69367
1226.372, 10.61334
1226.854, 10.61422
1227.336, 10.69949
1227.818, 10.91129
1228.300, 11.39581
1228.783, 11.49692
1229.265, 11.17423
1229.747, 10.73800
1230.229, 10.24315
1230.711, 9.882914
1231.193, 10.01497
1231.675, 9.790220
1232.157, 9.775522
1232.640, 9.973979
1233.122, 9.942058
1233.604, 10.33981
1234.086, 10.81850
1234.568, 11.54556
1235.050, 11.85923
1235.532, 10.42034
1236.014, 8.550686
1236.496, 8.391387
1236.979, 10.42220
1237.461, 11.75256
1237.943, 12.39384
1238.425, 12.56100
1238.907, 12.09747
1239.389, 11.53310
1239.871, 11.10332
1240.353, 10.87704
1240.835, 10.96092
1241.318, 11.39258
1241.800, 11.61712
1242.282, 11.63710
1242.764, 11.58495
1243.246, 11.46462
1243.728, 11.38186
1244.210, 11.58710
1244.692, 11.71340
1245.175, 11.18929
1245.657, 10.06948
1246.139, 9.910723
1246.621, 10.62968
1247.103, 11.31096
1247.585, 11.44614
1248.067, 11.44168
1248.549, 11.38045
1249.031, 11.31891
1249.514, 11.33840
1249.996, 11.41169
1250.478, 11.30449
1250.960, 11.06221
1251.442, 10.94553
1251.924, 11.17089
1252.406, 11.40037
1252.888, 11.49963
1253.371, 11.66574
1253.853, 12.28079
1254.335, 13.07478
1254.817, 13.13048
1255.299, 12.55272
1255.781, 11.80251
1256.263, 10.50359
1256.745, 9.947360
1257.228, 10.40438
1257.710, 11.23802
1258.192, 12.08902
1258.674, 12.80837
1259.156, 13.07542
1259.638, 12.96663
1260.120, 12.71313
1260.602, 12.35598
1261.084, 11.83992
1261.567, 11.09861
1262.049, 10.42970
1262.531, 9.895051
1263.013, 9.717616
1263.495, 10.59818
1263.977, 12.00900
1264.459, 12.57070
1264.941, 11.80157
1265.423, 11.44806
1265.906, 11.58965
1266.388, 11.87567
1266.870, 12.24701
1267.352, 12.45897
1267.834, 12.17522
1268.316, 12.04908
1268.798, 11.21077
1269.280, 11.02696
1269.763, 10.44350
1270.245, 9.465288
1270.727, 8.859380
1271.209, 9.337644
1271.691, 10.10777
1272.173, 10.92667
1272.655, 11.60184
1273.137, 11.82580
1273.620, 11.61550
1274.102, 12.11715
1274.584, 13.16847
1275.066, 13.44548
1275.548, 11.01364
1276.030, 9.321516
1276.512, 10.33539
1276.994, 11.69587
1277.476, 11.14677
1277.958, 9.268524
1278.441, 9.031582
1278.923, 9.991006
1279.405, 10.46679
1279.887, 8.649731
1280.369, 8.119620
1280.851, 9.703032
1281.333, 11.56236
1281.815, 12.36553
1282.298, 12.39175
1282.780, 11.88698
1283.262, 11.15210
1283.744, 10.91133
1284.226, 11.86923
1284.708, 12.27571
1285.190, 12.02809
1285.672, 11.66162
1286.155, 11.46245
1286.637, 11.39846
1287.119, 11.57407
1287.601, 11.80025
1288.083, 11.68290
1288.565, 11.81902
1289.047, 12.04890
1289.529, 11.77994
1290.011, 12.33601
1290.494, 12.21654
1290.976, 11.85946
1291.458, 11.47693
1291.940, 11.12849
1292.422, 10.86808
1292.904, 10.69387
1293.386, 10.57437
1293.868, 10.52285
1294.350, 10.63602
1294.833, 10.96537
1295.315, 11.43649
1295.797, 12.05518
##END=



