##NAMES=Akrochordite
##RRUFFID=R100028
##IDEAL CHEMISTRY=Mn^2+^_5_(As^5+^O_4_)_2_(OH)_4_&#183;4H_2_O
##LOCALITY=Langban, Filipstad, Varmland, Sweden
##OWNER=RRUFF
##SOURCE=William W. Pinch
##DESCRIPTION=Radiating groups of pale pink prismatic crystals associated with pale green co-type (Flink 32/22) eveite, R100048
##STATUS=The identification of this mineral has been confirmed by single-crystal X-ray diffraction.
##URL=rruff.info/R100028
91.53320, 31.35993
92.01532, 34.72652
92.49744, 35.68613
92.97955, 32.59298
93.46167, 28.04726
93.94379, 27.24676
94.42590, 32.73721
94.90802, 38.98850
95.39014, 38.88680
95.87225, 30.54185
96.35437, 23.97361
96.83649, 24.63068
97.31860, 28.35448
97.80072, 30.86605
98.28284, 29.69601
98.76495, 25.77201
99.24707, 23.71189
99.72919, 24.73698
100.2113, 26.28204
100.6934, 28.23904
101.1755, 30.22858
101.6577, 31.62303
102.1398, 31.79416
102.6219, 30.42026
103.1040, 29.53909
103.5861, 28.89108
104.0682, 28.74754
104.5504, 29.65241
105.0325, 31.52481
105.5146, 33.41615
105.9967, 33.92436
106.4788, 32.37715
106.9609, 31.10033
107.4431, 30.28632
107.9252, 29.78785
108.4073, 29.40888
108.8894, 29.07561
109.3715, 28.86752
109.8536, 28.98084
110.3358, 29.49852
110.8179, 29.92560
111.3000, 29.77584
111.7821, 29.14100
112.2642, 29.01270
112.7463, 30.80615
113.2285, 32.61469
113.7106, 32.26950
114.1927, 28.94828
114.6748, 24.69510
115.1569, 22.51656
115.6390, 23.31780
116.1212, 23.86469
116.6033, 22.58164
117.0854, 20.81775
117.5675, 20.05461
118.0496, 21.16304
118.5317, 23.60316
119.0139, 24.74434
119.4960, 22.41094
119.9781, 21.03828
120.4602, 22.14266
120.9423, 24.76085
121.4244, 27.13515
121.9066, 27.86792
122.3887, 26.80503
122.8708, 26.24632
123.3529, 26.67126
123.8350, 27.05088
124.3171, 26.71307
124.7993, 25.72650
125.2814, 24.86126
125.7635, 25.06286
126.2456, 26.71023
126.7277, 27.12441
127.2098, 25.10880
127.6920, 22.35890
128.1741, 20.77991
128.6562, 20.89312
129.1383, 21.48906
129.6204, 20.82784
130.1025, 19.05236
130.5847, 17.75686
131.0668, 18.05242
131.5489, 19.44036
132.0310, 20.19196
132.5131, 19.87510
132.9952, 18.79919
133.4774, 16.98275
133.9595, 14.45823
134.4416, 12.32918
134.9237, 11.66746
135.4058, 12.63180
135.8879, 13.95888
136.3701, 16.01348
136.8522, 17.98404
137.3343, 19.63033
137.8164, 20.85871
138.2985, 21.28985
138.7806, 20.00653
139.2628, 15.22338
139.7449, 12.02696
140.2270, 11.26637
140.7091, 11.82966
141.1912, 12.95911
141.6733, 14.30367
142.1555, 15.68943
142.6376, 16.49053
143.1197, 16.42724
143.6018, 16.03346
144.0839, 14.52403
144.5660, 12.80371
145.0482, 12.52277
145.5303, 14.87495
146.0124, 19.29698
146.4945, 21.54441
146.9766, 20.35607
147.4587, 18.77287
147.9409, 18.03972
148.4230, 18.03296
148.9051, 17.95779
149.3872, 17.05788
149.8693, 15.63363
150.3514, 15.22299
150.8336, 16.84571
151.3157, 18.88110
151.7978, 19.92855
152.2799, 19.90496
152.7620, 19.30789
153.2441, 17.75465
153.7263, 15.89792
154.2084, 14.96024
154.6905, 16.15391
155.1726, 18.43596
155.6547, 19.46082
156.1368, 18.79165
156.6190, 17.54575
157.1011, 16.02294
157.5832, 14.44900
158.0653, 13.26179
158.5474, 12.79138
159.0295, 13.00155
159.5117, 13.42622
159.9938, 14.35733
160.4759, 15.22880
160.9580, 16.08876
161.4401, 16.76424
161.9222, 16.83514
162.4044, 15.62132
162.8865, 12.60916
163.3686, 11.38344
163.8507, 13.41512
164.3328, 15.81484
164.8149, 17.73305
165.2971, 18.90972
165.7792, 19.14787
166.2613, 18.00971
166.7434, 14.35397
167.2255, 12.84133
167.7076, 15.60970
168.1898, 18.74898
168.6719, 19.09567
169.1540, 16.15331
169.6361, 12.22572
170.1182, 10.59982
170.6003, 12.48840
171.0825, 13.77519
171.5646, 13.89435
172.0467, 13.47747
172.5288, 13.14912
173.0109, 13.05814
173.4930, 13.24018
173.9752, 13.98184
174.4573, 15.43178
174.9394, 16.42231
175.4215, 16.40158
175.9036, 15.68058
176.3857, 14.84958
176.8679, 13.85656
177.3500, 13.17164
177.8321, 13.48534
178.3142, 14.86451
178.7963, 16.28794
179.2784, 17.13717
179.7606, 17.47661
180.2427, 17.77033
180.7248, 18.14949
181.2069, 18.50918
181.6890, 18.70564
182.1711, 18.72074
182.6533, 18.78905
183.1354, 19.32333
183.6175, 20.45389
184.0996, 21.01618
184.5817, 20.43632
185.0638, 19.35917
185.5460, 17.81550
186.0281, 15.85650
186.5102, 14.13719
186.9923, 13.53078
187.4744, 14.11765
187.9565, 15.73198
188.4387, 20.07518
188.9208, 24.27303
189.4029, 25.94074
189.8850, 24.43258
190.3671, 21.25320
190.8492, 19.13862
191.3314, 18.17456
191.8135, 18.41198
192.2956, 21.52732
192.7777, 24.86743
193.2598, 25.71151
193.7419, 23.04889
194.2241, 18.43266
194.7062, 15.60627
195.1883, 16.03469
195.6704, 16.78695
196.1525, 18.24602
196.6346, 19.85510
197.1168, 20.94569
197.5989, 21.21847
198.0810, 20.91143
198.5631, 20.69658
199.0452, 20.96498
199.5273, 20.81636
200.0095, 19.62891
200.4916, 17.99496
200.9737, 16.98461
201.4558, 17.18462
201.9379, 18.06567
202.4200, 17.94470
202.9022, 15.69025
203.3843, 14.51240
203.8664, 16.57050
204.3485, 20.73055
204.8306, 23.84034
205.3127, 24.44812
205.7949, 23.24452
206.2770, 21.88047
206.7591, 20.14326
207.2412, 18.68108
207.7233, 18.27082
208.2054, 18.67238
208.6876, 18.25561
209.1697, 15.50133
209.6518, 12.27394
210.1339, 11.45350
210.6160, 13.82696
211.0981, 16.65451
211.5803, 17.65231
212.0624, 16.81590
212.5445, 15.88069
213.0266, 15.24668
213.5087, 14.93557
213.9908, 15.04132
214.4730, 15.63052
214.9551, 16.35553
215.4372, 16.84658
215.9193, 17.08102
216.4014, 17.23439
216.8836, 17.63026
217.3657, 17.79586
217.8478, 17.21008
218.3299, 15.73512
218.8120, 14.06086
219.2941, 13.22336
219.7763, 13.54191
220.2584, 13.64754
220.7405, 13.20264
221.2226, 12.53080
221.7047, 11.66973
222.1868, 10.66179
222.6690, 9.864685
223.1511, 10.03506
223.6332, 12.00869
224.1153, 13.00490
224.5974, 12.01013
225.0795, 10.58113
225.5617, 9.846156
226.0438, 10.11565
226.5259, 10.90483
227.0080, 11.38684
227.4901, 11.40335
227.9722, 11.36813
228.4544, 11.32633
228.9365, 11.23173
229.4186, 10.96285
229.9007, 10.51622
230.3828, 10.09575
230.8649, 10.06784
231.3471, 10.70017
231.8292, 11.33820
232.3113, 12.23262
232.7934, 12.99143
233.2755, 13.03511
233.7576, 12.28109
234.2398, 11.49011
234.7219, 12.00677
235.2040, 15.46591
235.6861, 17.24619
236.1682, 16.10961
236.6503, 14.00898
237.1325, 12.55968
237.6146, 12.21532
238.0967, 12.64046
238.5788, 13.42795
239.0609, 14.91560
239.5430, 15.94030
240.0252, 16.39470
240.5073, 16.39846
240.9894, 15.89536
241.4715, 14.87489
241.9536, 13.78099
242.4357, 13.14344
242.9179, 12.94793
243.4000, 13.38048
243.8821, 15.42823
244.3642, 17.66980
244.8463, 18.33573
245.3284, 17.02282
245.8106, 15.11302
246.2927, 14.24449
246.7748, 14.45751
247.2569, 14.50344
247.7390, 13.69368
248.2211, 12.84070
248.7033, 13.16564
249.1854, 14.98140
249.6675, 16.94532
250.1496, 17.59494
250.6317, 17.12589
251.1138, 16.69699
251.5960, 16.44925
252.0781, 16.40688
252.5602, 16.69392
253.0423, 17.37932
253.5244, 18.05659
254.0065, 18.46627
254.4887, 18.60391
254.9708, 18.34491
255.4529, 16.95492
255.9350, 15.43126
256.4171, 15.30449
256.8992, 16.82298
257.3813, 18.79589
257.8635, 20.86193
258.3456, 22.77769
258.8277, 24.04383
259.3098, 24.59186
259.7919, 24.35819
260.2740, 22.83737
260.7562, 19.61315
261.2383, 16.90424
261.7204, 16.06700
262.2025, 16.49362
262.6846, 17.85308
263.1667, 20.88333
263.6489, 23.79255
264.1310, 23.41356
264.6131, 18.80028
265.0952, 15.02024
265.5773, 15.51183
266.0594, 17.54272
266.5416, 18.54357
267.0237, 17.61080
267.5058, 16.03358
267.9879, 15.74990
268.4700, 17.16697
268.9521, 17.99080
269.4343, 16.39424
269.9164, 14.42983
270.3985, 13.70891
270.8806, 14.65845
271.3627, 16.44243
271.8448, 18.45393
272.3270, 21.01493
272.8091, 22.15395
273.2912, 19.82409
273.7733, 16.86935
274.2554, 14.80474
274.7375, 13.91515
275.2197, 13.96488
275.7018, 15.14408
276.1839, 17.79753
276.6660, 19.30146
277.1481, 17.79676
277.6302, 16.09313
278.1124, 15.51712
278.5945, 16.17173
279.0766, 17.44286
279.5587, 19.16062
280.0408, 21.54244
280.5229, 22.43468
281.0051, 19.36969
281.4872, 16.79500
281.9693, 17.29378
282.4514, 20.18751
282.9335, 22.77011
283.4156, 22.28536
283.8978, 18.63235
284.3799, 16.73019
284.8620, 18.65828
285.3441, 20.34104
285.8262, 19.81651
286.3083, 17.92888
286.7905, 16.73146
287.2726, 17.97666
287.7547, 21.29344
288.2368, 23.05023
288.7189, 22.13428
289.2010, 20.82880
289.6832, 19.37937
290.1653, 18.03824
290.6474, 17.10135
291.1295, 16.74933
291.6116, 16.92079
292.0938, 17.41068
292.5759, 18.52317
293.0580, 19.52715
293.5401, 20.44026
294.0222, 21.12306
294.5043, 21.38786
294.9865, 21.14543
295.4686, 20.53246
295.9507, 19.84208
296.4328, 18.90721
296.9149, 18.21261
297.3970, 17.94090
297.8792, 17.82597
298.3613, 17.72548
298.8434, 17.57349
299.3255, 17.24604
299.8076, 16.41925
300.2897, 14.55044
300.7719, 13.44732
301.2540, 13.39193
301.7361, 13.84419
302.2182, 14.87969
302.7003, 16.29187
303.1824, 17.26283
303.6646, 16.46763
304.1467, 12.93937
304.6288, 11.21329
305.1109, 12.88830
305.5930, 14.84339
306.0751, 15.70573
306.5573, 15.48346
307.0394, 14.85948
307.5215, 14.32294
308.0036, 13.82501
308.4857, 14.14180
308.9678, 16.07677
309.4500, 18.07638
309.9321, 20.05849
310.4142, 21.76360
310.8963, 22.77645
311.3784, 22.77636
311.8605, 21.86823
312.3427, 20.87351
312.8248, 19.32392
313.3069, 18.25802
313.7890, 18.23655
314.2711, 18.68430
314.7532, 18.67350
315.2354, 17.69925
315.7175, 16.41554
316.1996, 16.88554
316.6817, 21.20018
317.1638, 23.93204
317.6459, 23.55517
318.1281, 22.03107
318.6102, 21.13252
319.0923, 21.40957
319.5744, 22.13215
320.0565, 21.99241
320.5386, 20.30294
321.0208, 19.35806
321.5029, 20.01507
321.9850, 20.74903
322.4671, 20.57053
322.9492, 19.39879
323.4313, 17.82025
323.9135, 16.26032
324.3956, 14.48135
324.8777, 14.00171
325.3598, 16.10058
325.8419, 18.31483
326.3240, 19.77233
326.8062, 20.54038
327.2883, 21.11093
327.7704, 21.87273
328.2525, 22.80202
328.7346, 23.52768
329.2167, 24.66624
329.6989, 24.80555
330.1810, 22.97994
330.6631, 20.10090
331.1452, 17.26209
331.6273, 14.91617
332.1094, 13.42948
332.5916, 14.18557
333.0737, 19.02372
333.5558, 22.99997
334.0379, 26.01374
334.5200, 27.56045
335.0021, 26.46420
335.4843, 22.45318
335.9664, 17.64798
336.4485, 15.64212
336.9306, 17.45215
337.4127, 19.04643
337.8948, 19.83433
338.3770, 20.46246
338.8591, 21.28715
339.3412, 22.34849
339.8233, 23.48007
340.3055, 24.73705
340.7876, 26.22511
341.2697, 26.70777
341.7518, 25.36068
342.2339, 23.73368
342.7160, 21.67731
343.1982, 19.78092
343.6803, 19.35908
344.1624, 21.82520
344.6445, 26.39590
345.1266, 29.01189
345.6087, 28.45230
346.0909, 27.84544
346.5730, 28.57071
347.0551, 29.75059
347.5372, 30.18365
348.0193, 29.27557
348.5014, 27.79124
348.9836, 27.11103
349.4657, 27.40208
349.9478, 27.95393
350.4299, 29.07292
350.9120, 30.08374
351.3941, 30.43794
351.8763, 30.03959
352.3584, 29.26507
352.8405, 28.47702
353.3226, 27.67641
353.8047, 26.64867
354.2868, 24.68323
354.7690, 23.24152
355.2511, 23.77773
355.7332, 25.80649
356.2153, 27.25094
356.6974, 25.82207
357.1795, 22.56931
357.6617, 22.00322
358.1438, 25.60843
358.6259, 28.90760
359.1080, 28.82892
359.5901, 26.89560
360.0722, 25.49915
360.5544, 25.67890
361.0365, 26.54196
361.5186, 26.97659
362.0007, 26.99148
362.4828, 26.44133
362.9649, 24.75310
363.4471, 22.73991
363.9292, 21.22281
364.4113, 20.25069
364.8934, 19.93264
365.3755, 20.80108
365.8576, 22.57612
366.3398, 23.62921
366.8219, 23.28158
367.3040, 22.55625
367.7861, 22.66542
368.2682, 23.51415
368.7503, 24.07544
369.2325, 23.87087
369.7146, 23.13996
370.1967, 22.15718
370.6788, 20.87220
371.1609, 19.79285
371.6430, 19.41642
372.1252, 19.58208
372.6073, 19.75082
373.0894, 19.53713
373.5715, 19.55834
374.0536, 20.53537
374.5357, 22.30030
375.0179, 24.05787
375.5000, 25.87527
375.9821, 26.95413
376.4642, 25.11858
376.9463, 18.58533
377.4284, 13.62316
377.9106, 13.34587
378.3927, 15.98434
378.8748, 18.89206
379.3569, 21.48906
379.8390, 23.27449
380.3211, 23.26168
380.8033, 20.97135
381.2854, 19.73220
381.7675, 20.24702
382.2496, 21.56044
382.7317, 23.69643
383.2138, 26.27495
383.6960, 27.30116
384.1781, 24.76228
384.6602, 19.09534
385.1423, 16.72244
385.6244, 20.34378
386.1065, 23.57673
386.5887, 23.85667
387.0708, 22.42152
387.5529, 21.50492
388.0350, 22.09740
388.5171, 23.52021
388.9992, 24.30897
389.4814, 24.53891
389.9635, 23.87189
390.4456, 20.82198
390.9277, 17.86621
391.4098, 17.28458
391.8919, 19.20738
392.3741, 22.02197
392.8562, 24.26845
393.3383, 26.14145
393.8204, 25.88922
394.3025, 20.38325
394.7846, 16.13624
395.2668, 16.37078
395.7489, 19.38419
396.2310, 21.68241
396.7131, 21.13338
397.1952, 18.80106
397.6773, 18.50171
398.1595, 21.96319
398.6416, 24.64465
399.1237, 25.62323
399.6058, 25.88635
400.0879, 26.34852
400.5700, 27.19330
401.0522, 27.84888
401.5343, 27.33214
402.0164, 25.27725
402.4985, 24.27096
402.9806, 25.51818
403.4627, 26.81109
403.9449, 26.92932
404.4270, 26.29535
404.9091, 26.15320
405.3912, 27.53611
405.8733, 29.83774
406.3554, 31.18577
406.8376, 31.48302
407.3197, 31.06510
407.8018, 29.18857
408.2839, 27.08105
408.7660, 26.13766
409.2481, 26.80827
409.7303, 27.94493
410.2124, 28.37577
410.6945, 28.15274
411.1766, 28.11727
411.6587, 28.53427
412.1408, 29.08349
412.6230, 29.56675
413.1051, 29.96280
413.5872, 30.06246
414.0693, 29.55179
414.5514, 28.77476
415.0335, 28.10257
415.5157, 27.50471
415.9978, 27.60132
416.4799, 29.09641
416.9620, 31.58737
417.4441, 33.72814
417.9262, 35.55445
418.4084, 36.91535
418.8905, 37.78312
419.3726, 38.11984
419.8547, 37.73013
420.3368, 36.46875
420.8189, 34.69566
421.3011, 32.67604
421.7832, 29.88775
422.2653, 29.05637
422.7474, 32.66580
423.2295, 36.87600
423.7116, 38.03008
424.1938, 36.13889
424.6759, 33.94015
425.1580, 33.61125
425.6401, 35.01361
426.1222, 35.54103
426.6043, 34.87489
427.0865, 33.85465
427.5686, 32.14935
428.0507, 30.37796
428.5328, 29.58486
429.0149, 30.13966
429.4970, 31.13392
429.9792, 30.85537
430.4613, 28.13970
430.9434, 26.71668
431.4255, 26.77179
431.9076, 27.68931
432.3897, 29.90845
432.8719, 32.80986
433.3540, 34.77580
433.8361, 34.38786
434.3182, 31.98751
434.8003, 29.92261
435.2824, 27.59213
435.7646, 26.66308
436.2467, 28.89393
436.7288, 31.90947
437.2109, 33.03327
437.6930, 31.41501
438.1751, 28.71947
438.6573, 26.78275
439.1394, 25.61053
439.6215, 25.26545
440.1036, 26.53362
440.5857, 27.78060
441.0678, 27.84948
441.5500, 26.97165
442.0321, 26.09488
442.5142, 26.15860
442.9963, 26.34407
443.4784, 24.38214
443.9605, 19.76250
444.4427, 17.13204
444.9248, 20.59786
445.4069, 26.63215
445.8890, 28.79339
446.3711, 25.49524
446.8532, 22.05762
447.3354, 21.93913
447.8175, 23.73751
448.2996, 24.16771
448.7817, 22.33027
449.2638, 20.19116
449.7459, 20.03843
450.2281, 22.02692
450.7102, 23.23300
451.1923, 23.19074
451.6744, 22.65867
452.1565, 21.80651
452.6386, 20.82725
453.1208, 20.21850
453.6029, 20.26768
454.0850, 20.74743
454.5671, 21.03078
455.0492, 21.14262
455.5313, 20.99328
456.0135, 19.97355
456.4956, 19.09974
456.9777, 19.58905
457.4598, 21.32602
457.9419, 22.81292
458.4240, 22.47259
458.9062, 20.26583
459.3883, 19.10058
459.8704, 20.17365
460.3525, 20.98175
460.8346, 21.21593
461.3167, 20.79600
461.7989, 19.47853
462.2810, 17.14927
462.7631, 14.50216
463.2452, 12.30099
463.7273, 10.33980
464.2094, 10.14312
464.6916, 13.95030
465.1737, 17.65413
465.6558, 18.75581
466.1379, 17.65146
466.6200, 16.13057
467.1021, 14.72748
467.5843, 13.73174
468.0664, 14.22709
468.5485, 16.56644
469.0306, 17.75423
469.5127, 15.47576
469.9948, 11.80408
470.4770, 10.12399
470.9591, 11.01280
471.4412, 12.13128
471.9233, 12.07799
472.4054, 11.52095
472.8875, 11.91886
473.3697, 13.59641
473.8518, 15.14800
474.3339, 15.18809
474.8160, 13.71104
475.2981, 12.73686
475.7802, 12.52027
476.2624, 12.52441
476.7445, 12.89802
477.2266, 13.25918
477.7087, 12.66855
478.1908, 10.72798
478.6729, 8.457657
479.1551, 7.746804
479.6372, 9.433657
480.1193, 10.77802
480.6014, 11.61276
481.0835, 12.30997
481.5656, 13.47928
482.0478, 14.71499
482.5299, 14.76188
483.0120, 12.55862
483.4941, 9.006600
483.9762, 7.732555
484.4583, 10.01000
484.9405, 11.99651
485.4226, 13.22026
485.9047, 13.71212
486.3868, 13.14780
486.8689, 11.61660
487.3510, 10.11005
487.8332, 9.455131
488.3153, 9.537872
488.7974, 9.719741
489.2795, 9.806071
489.7616, 10.42788
490.2437, 13.22625
490.7259, 16.52153
491.2080, 17.47194
491.6901, 14.70022
492.1722, 11.22593
492.6543, 8.600370
493.1364, 6.974742
493.6186, 7.164252
494.1007, 9.701902
494.5828, 12.68969
495.0649, 13.90035
495.5470, 13.12798
496.0291, 12.63465
496.5113, 13.01628
496.9934, 13.20557
497.4755, 12.35944
497.9576, 10.82101
498.4397, 9.339728
498.9218, 8.251222
499.4040, 7.711667
499.8861, 8.211973
500.3682, 11.20816
500.8503, 12.49697
501.3324, 10.99061
501.8145, 8.921235
502.2967, 7.061968
502.7788, 5.820703
503.2609, 5.907999
503.7430, 8.140642
504.2251, 11.70103
504.7072, 13.25078
505.1894, 11.89632
505.6715, 10.57516
506.1536, 10.41763
506.6357, 10.33744
507.1178, 9.040181
507.5999, 6.494532
508.0821, 4.738892
508.5642, 6.100091
509.0463, 9.392436
509.5284, 10.98034
510.0105, 10.37206
510.4926, 9.293275
510.9748, 8.462729
511.4569, 8.010335
511.9390, 8.201952
512.4211, 9.292436
512.9032, 10.59098
513.3853, 12.22381
513.8674, 13.71430
514.3495, 13.92757
514.8317, 12.61904
515.3138, 11.22870
515.7959, 11.39949
516.2780, 13.32594
516.7601, 13.72882
517.2422, 10.95954
517.7244, 8.771504
518.2065, 9.237280
518.6886, 10.80254
519.1707, 11.05527
519.6528, 9.177929
520.1349, 6.394112
520.6171, 4.317988
521.0992, 2.700440
521.5813, 2.825007
522.0634, 7.394926
522.5455, 11.04251
523.0276, 10.83656
523.5098, 8.450758
523.9919, 7.246907
524.4740, 8.963339
524.9561, 11.72716
525.4382, 13.01301
525.9203, 12.80098
526.4025, 11.48670
526.8846, 8.104150
527.3667, 5.069668
527.8488, 5.132150
528.3309, 7.813622
528.8130, 10.13333
529.2952, 11.39148
529.7773, 11.79179
530.2594, 11.01951
530.7415, 9.404795
531.2236, 8.450609
531.7057, 8.936599
532.1879, 10.10026
532.6700, 10.50603
533.1521, 9.967011
533.6342, 8.991725
534.1163, 6.531903
534.5984, 4.539693
535.0806, 4.661148
535.5627, 6.408170
536.0448, 8.232707
536.5269, 9.207351
537.0090, 9.463058
537.4911, 9.267385
537.9733, 8.114645
538.4554, 7.637838
538.9375, 8.382033
539.4196, 9.528460
539.9017, 11.01170
540.3839, 12.54993
540.8660, 13.27615
541.3481, 12.27067
541.8302, 10.28331
542.3123, 8.908664
542.7944, 8.168504
543.2766, 7.870719
543.7587, 8.057152
544.2408, 8.582261
544.7229, 9.407194
545.2050, 10.65332
545.6871, 11.18016
546.1693, 9.626041
546.6514, 7.756424
547.1335, 7.854151
547.6156, 9.757926
548.0977, 11.45222
548.5798, 11.72509
549.0620, 10.88076
549.5441, 9.948699
550.0262, 8.440420
550.5083, 7.525354
550.9904, 7.337924
551.4725, 7.648185
551.9547, 8.601925
552.4368, 9.949127
552.9189, 10.99433
553.4010, 11.18533
553.8831, 10.70375
554.3652, 10.21014
554.8474, 9.577061
555.3295, 9.261092
555.8116, 9.860194
556.2937, 10.48710
556.7758, 10.44073
557.2579, 9.711196
557.7401, 8.879572
558.2222, 8.129758
558.7043, 7.558010
559.1864, 7.226268
559.6685, 7.138556
560.1506, 7.827598
560.6328, 10.12399
561.1149, 12.80712
561.5970, 12.87505
562.0791, 9.465902
562.5612, 6.782907
563.0433, 5.386252
563.5255, 5.168423
564.0076, 6.842306
564.4897, 9.793122
564.9718, 11.87528
565.4539, 11.63773
565.9360, 9.796247
566.4182, 8.807864
566.9003, 9.411061
567.3824, 9.460185
567.8645, 8.308020
568.3466, 7.046050
568.8287, 6.167766
569.3109, 5.782066
569.7930, 6.007245
570.2751, 7.092400
570.7572, 8.647501
571.2393, 10.09881
571.7214, 11.52538
572.2036, 11.73907
572.6857, 9.454597
573.1678, 6.779690
573.6499, 6.785578
574.1320, 9.388713
574.6141, 10.40729
575.0963, 6.736749
575.5784, 2.584156
576.0605, 1.854488
576.5426, 3.878526
577.0247, 6.050936
577.5068, 7.236574
577.9890, 7.640850
578.4711, 7.540055
578.9532, 6.317799
579.4353, 6.209228
579.9174, 8.715032
580.3995, 10.69895
580.8817, 10.17288
581.3638, 8.081037
581.8459, 6.256137
582.3280, 5.526860
582.8101, 5.704574
583.2922, 7.039046
583.7744, 9.725779
584.2565, 10.38249
584.7386, 6.982967
585.2207, 3.728861
585.7029, 4.392359
586.1850, 7.479835
586.6671, 9.123492
587.1492, 7.516809
587.6313, 5.406343
588.1135, 4.563297
588.5956, 4.756855
589.0777, 5.734547
589.5598, 7.461938
590.0419, 8.979091
590.5240, 9.191766
591.0062, 8.033106
591.4883, 7.108503
591.9704, 6.132974
592.4525, 5.698866
592.9346, 6.427444
593.4167, 7.533299
593.8989, 8.270179
594.3810, 8.405468
594.8631, 7.926700
595.3452, 6.426760
595.8273, 4.100002
596.3094, 3.265782
596.7916, 4.397491
597.2737, 5.935826
597.7558, 8.043714
598.2379, 9.801202
598.7200, 9.784761
599.2021, 7.605286
599.6843, 6.003302
600.1664, 6.843618
600.6485, 8.860249
601.1306, 10.51891
601.6127, 11.64427
602.0948, 12.10584
602.5770, 11.79372
603.0591, 10.81887
603.5412, 9.462331
604.0233, 7.178635
604.5054, 5.418612
604.9875, 4.007353
605.4697, 3.255568
605.9518, 3.874932
606.4339, 5.318311
606.9160, 6.164598
607.3981, 5.523086
607.8802, 4.319430
608.3624, 4.520091
608.8445, 6.335778
609.3266, 7.926109
609.8087, 9.171006
610.2908, 9.893881
610.7729, 9.562444
611.2551, 8.608246
611.7372, 8.414482
612.2193, 10.59132
612.7014, 12.05430
613.1835, 9.267999
613.6656, 4.328150
614.1478, 2.204688
614.6299, 4.111810
615.1120, 6.989480
615.5941, 7.761530
616.0762, 6.416745
616.5583, 5.417852
617.0405, 4.114511
617.5226, 3.975174
618.0047, 6.534862
618.4868, 9.581719
618.9689, 10.93273
619.4510, 10.31527
619.9332, 8.942168
620.4153, 7.619048
620.8974, 6.398371
621.3795, 5.306440
621.8616, 4.160741
622.3438, 4.241594
622.8259, 7.026273
623.3080, 10.39620
623.7901, 11.40686
624.2722, 9.961123
624.7543, 8.449259
625.2365, 7.023820
625.7186, 6.179553
626.2007, 6.922297
626.6828, 8.609392
627.1649, 9.339725
627.6470, 8.297086
628.1292, 6.578193
628.6113, 6.014067
629.0934, 7.014199
629.5755, 7.453825
630.0576, 6.307976
630.5397, 5.697861
631.0219, 7.115617
631.5040, 9.107279
631.9861, 9.377259
632.4682, 7.208322
632.9503, 4.896094
633.4324, 4.815459
633.9146, 6.277647
634.3967, 7.098540
634.8788, 7.067015
635.3609, 6.690115
635.8430, 5.934626
636.3251, 5.224727
636.8073, 6.048282
637.2894, 9.622800
637.7715, 11.63166
638.2536, 10.28227
638.7357, 8.078669
639.2178, 6.570926
639.7000, 5.923236
640.1821, 6.038766
640.6642, 6.913452
641.1463, 8.073905
641.6284, 8.460706
642.1105, 7.852123
642.5927, 7.705613
643.0748, 8.829340
643.5569, 9.539029
644.0390, 8.187122
644.5211, 5.908697
645.0032, 5.190774
645.4854, 7.321143
645.9675, 9.374082
646.4496, 8.958135
646.9317, 7.250033
647.4138, 6.449523
647.8959, 6.851021
648.3781, 7.554270
648.8602, 7.922789
649.3423, 8.015442
649.8244, 8.088284
650.3065, 7.966489
650.7886, 8.099570
651.2708, 9.120446
651.7529, 9.859989
652.2350, 8.954650
652.7171, 7.066881
653.1992, 6.220178
653.6813, 7.683725
654.1635, 10.18666
654.6456, 11.86594
655.1277, 12.77692
655.6098, 13.75225
656.0919, 15.19872
656.5740, 16.00753
657.0562, 15.04601
657.5383, 12.47720
658.0204, 9.987259
658.5025, 6.210014
658.9846, 4.237758
659.4667, 6.614647
659.9489, 10.24838
660.4310, 12.00781
660.9131, 11.54845
661.3952, 10.05677
661.8773, 8.256881
662.3594, 6.358535
662.8416, 4.904999
663.3237, 3.688708
663.8058, 3.739540
664.2879, 6.479829
664.7700, 9.267896
665.2521, 10.35880
665.7343, 9.966604
666.2164, 8.824807
666.6985, 6.463567
667.1806, 4.303233
667.6627, 3.257322
668.1448, 3.143382
668.6270, 3.843675
669.1091, 5.259273
669.5912, 6.723098
670.0733, 7.647858
670.5554, 8.096888
671.0375, 8.565616
671.5197, 9.267156
672.0018, 9.619521
672.4839, 9.445089
672.9660, 9.035701
673.4481, 8.207944
673.9302, 7.283763
674.4124, 7.329188
674.8945, 9.650608
675.3766, 11.92909
675.8587, 10.39652
676.3408, 6.035982
676.8229, 3.410064
677.3051, 3.564343
677.7872, 5.190411
678.2693, 7.427091
678.7514, 10.17641
679.2335, 12.28549
679.7156, 15.06180
680.1978, 15.53569
680.6799, 10.52912
681.1620, 5.124203
681.6441, 4.007418
682.1262, 6.726727
682.6083, 9.860585
683.0905, 11.50291
683.5726, 11.81528
684.0547, 10.57388
684.5368, 7.787910
685.0189, 6.261459
685.5010, 7.047040
685.9832, 7.993760
686.4653, 6.938815
686.9474, 4.425612
687.4295, 3.286151
687.9116, 4.318999
688.3937, 5.729078
688.8759, 7.659451
689.3580, 9.284372
689.8401, 9.125716
690.3222, 7.649794
690.8043, 7.313890
691.2864, 9.964162
691.7686, 13.86744
692.2507, 14.57118
692.7328, 11.51999
693.2149, 8.745718
693.6970, 6.580130
694.1791, 5.087870
694.6613, 4.455333
695.1434, 4.498292
695.6255, 4.902116
696.1076, 5.875144
696.5897, 6.684735
697.0718, 7.116463
697.5540, 7.135553
698.0361, 6.540725
698.5182, 5.440574
699.0003, 4.131550
699.4824, 2.699480
699.9645, 1.710292
700.4467, 2.933774
700.9288, 7.383835
701.4109, 10.24561
701.8930, 10.76083
702.3751, 10.18832
702.8572, 8.679575
703.3394, 6.723928
703.8215, 5.035168
704.3036, 3.657723
704.7857, 2.999584
705.2678, 3.959818
705.7499, 5.429175
706.2321, 5.629365
706.7142, 4.722436
707.1963, 4.339768
707.6784, 5.376681
708.1605, 7.144735
708.6426, 8.332811
709.1248, 8.935048
709.6069, 8.951620
710.0890, 7.311788
710.5711, 6.365576
711.0532, 7.767180
711.5353, 9.913888
712.0175, 10.46838
712.4996, 8.905574
712.9817, 7.557315
713.4638, 8.573874
713.9459, 10.24627
714.4280, 9.736999
714.9102, 7.457936
715.3923, 6.182081
715.8744, 7.184445
716.3565, 8.746691
716.8386, 8.096651
717.3207, 4.635567
717.8029, 3.346389
718.2850, 6.826975
718.7671, 9.290038
719.2492, 8.610004
719.7313, 6.842931
720.2134, 6.046494
720.6956, 6.430820
721.1777, 6.851305
721.6598, 6.324170
722.1419, 5.676984
722.6240, 6.231256
723.1061, 7.654157
723.5883, 8.679144
724.0704, 8.943357
724.5525, 8.517189
725.0346, 7.292768
725.5167, 5.318978
725.9988, 4.402661
726.4810, 6.039542
726.9631, 6.562782
727.4452, 4.353711
727.9273, 1.879206
728.4094, 0.9012888
728.8915, 1.375043
729.3737, 2.491231
729.8558, 4.146251
730.3379, 5.829163
730.8200, 7.309645
731.3021, 8.364744
731.7842, 7.769484
732.2664, 5.370865
732.7485, 4.130514
733.2306, 6.690835
733.7127, 11.70453
734.1948, 13.75718
734.6769, 10.82687
735.1591, 8.580793
735.6412, 6.891644
736.1233, 6.139229
736.6054, 7.428404
737.0875, 9.578010
737.5696, 10.29970
738.0518, 8.684134
738.5339, 6.744594
739.0160, 6.030233
739.4981, 6.101322
739.9802, 5.962142
740.4623, 5.661865
740.9445, 6.440770
741.4266, 9.097856
741.9087, 12.32905
742.3908, 13.78225
742.8729, 13.15992
743.3550, 12.03797
743.8372, 8.955171
744.3193, 7.166748
744.8014, 8.894308
745.2835, 11.56302
745.7656, 12.14412
746.2477, 10.31372
746.7299, 8.474782
747.2120, 8.048085
747.6941, 8.215473
748.1762, 7.957838
748.6583, 7.495317
749.1404, 7.769008
749.6226, 9.027026
750.1047, 10.13031
750.5868, 9.836820
751.0689, 8.298822
751.5510, 7.049094
752.0331, 5.353844
752.5153, 5.389654
752.9974, 9.807294
753.4795, 14.05050
753.9616, 15.07986
754.4437, 13.50585
754.9258, 11.52934
755.4080, 9.297164
755.8901, 7.814463
756.3722, 8.252092
756.8543, 9.638704
757.3364, 10.63741
757.8185, 11.08520
758.3007, 11.30825
758.7828, 11.50926
759.2649, 11.53595
759.7470, 10.89025
760.2291, 9.239942
760.7112, 8.549359
761.1934, 9.365903
761.6755, 10.36097
762.1576, 11.14527
762.6397, 11.64400
763.1218, 11.53879
763.6039, 10.68094
764.0861, 10.39024
764.5682, 12.19850
765.0503, 13.75144
765.5324, 12.46597
766.0145, 9.717216
766.4966, 8.150967
766.9788, 8.564151
767.4609, 10.43095
767.9430, 13.74573
768.4251, 17.84819
768.9072, 19.21980
769.3893, 17.47593
769.8715, 14.73532
770.3536, 10.31406
770.8357, 6.754564
771.3178, 7.312774
771.7999, 11.07911
772.2820, 13.32911
772.7642, 12.64472
773.2463, 11.97695
773.7284, 12.45477
774.2105, 13.02265
774.6926, 12.18776
775.1747, 10.58324
775.6569, 10.43217
776.1390, 12.96304
776.6211, 16.19080
777.1032, 17.16402
777.5853, 16.33234
778.0674, 16.39895
778.5496, 17.66374
779.0317, 18.82210
779.5138, 19.24696
779.9959, 19.18741
780.4780, 18.99366
780.9601, 18.50257
781.4423, 18.58020
781.9244, 20.28810
782.4065, 21.25587
782.8886, 19.40753
783.3707, 17.25100
783.8528, 18.04746
784.3350, 21.75174
784.8171, 24.94399
785.2992, 25.18706
785.7813, 24.25648
786.2634, 24.43329
786.7455, 25.39103
787.2277, 26.07648
787.7098, 26.27716
788.1919, 26.37244
788.6740, 26.76859
789.1561, 27.11765
789.6382, 25.79715
790.1204, 20.82057
790.6025, 19.02542
791.0846, 23.56215
791.5667, 28.28266
792.0488, 30.63631
792.5309, 31.40571
793.0131, 31.74618
793.4952, 31.76920
793.9773, 31.97462
794.4594, 32.41724
794.9415, 33.29223
795.4236, 35.17983
795.9058, 37.58747
796.3879, 39.36039
796.8700, 40.16899
797.3521, 40.60255
797.8342, 41.18470
798.3163, 41.96082
798.7985, 43.08573
799.2806, 44.49061
799.7627, 46.86861
800.2448, 51.40534
800.7269, 55.24359
801.2090, 55.16098
801.6912, 52.05812
802.1733, 51.05570
802.6554, 53.85869
803.1375, 56.06911
803.6196, 56.26834
804.1017, 56.15777
804.5839, 57.25839
805.0660, 58.96496
805.5481, 59.40150
806.0302, 57.86156
806.5123, 56.95496
806.9944, 60.27998
807.4766, 65.91434
807.9587, 69.34547
808.4408, 70.51298
808.9229, 70.35255
809.4050, 68.99247
809.8871, 67.73254
810.3693, 68.15683
810.8514, 70.25560
811.3335, 72.64272
811.8156, 75.88652
812.2977, 78.47320
812.7798, 79.77189
813.2620, 80.74760
813.7441, 82.10217
814.2262, 83.64456
814.7083, 84.71645
815.1904, 84.94766
815.6725, 85.17882
816.1547, 86.00557
816.6368, 86.99810
817.1189, 88.12788
817.6010, 88.97442
818.0831, 88.11427
818.5652, 84.98849
819.0474, 81.50910
819.5295, 80.44112
820.0116, 81.44421
820.4937, 81.16111
820.9758, 79.26460
821.4579, 78.24669
821.9401, 79.64739
822.4222, 80.83484
822.9043, 78.14307
823.3864, 71.87380
823.8685, 69.36752
824.3506, 73.84850
824.8328, 77.39754
825.3149, 78.34033
825.7970, 78.40154
826.2791, 78.67486
826.7612, 79.13611
827.2433, 79.44508
827.7255, 79.49345
828.2076, 79.26949
828.6897, 78.03304
829.1718, 76.88880
829.6539, 78.39818
830.1360, 81.93360
830.6182, 84.21078
831.1003, 83.97765
831.5824, 82.44504
832.0645, 80.96297
832.5466, 79.52514
833.0287, 78.09325
833.5109, 76.48141
833.9930, 75.46902
834.4751, 75.45046
834.9572, 75.79945
835.4393, 76.55054
835.9214, 77.27757
836.4036, 76.55119
836.8857, 73.39319
837.3678, 70.55246
837.8499, 68.72397
838.3320, 67.42469
838.8141, 66.42978
839.2963, 65.67838
839.7784, 65.21940
840.2605, 65.04082
840.7426, 64.76960
841.2247, 63.68522
841.7068, 62.45572
842.1890, 62.90908
842.6711, 64.60613
843.1532, 64.82326
843.6353, 62.81094
844.1174, 60.54075
844.5995, 59.80669
845.0817, 60.21314
845.5638, 59.99910
846.0459, 58.95807
846.5280, 57.86393
847.0101, 56.68022
847.4922, 55.57503
847.9744, 54.72972
848.4565, 53.97480
848.9386, 53.06934
849.4207, 52.00072
849.9028, 50.75109
850.3849, 48.60450
850.8671, 47.04582
851.3492, 47.98336
851.8313, 49.51141
852.3134, 48.76483
852.7955, 45.59752
853.2776, 42.13469
853.7598, 39.49995
854.2419, 37.98473
854.7240, 38.95553
855.2061, 41.50258
855.6882, 41.62459
856.1703, 38.87142
856.6525, 35.98054
857.1346, 34.51754
857.6167, 32.18245
858.0988, 32.01447
858.5809, 29.15626
859.0630, 27.32521
859.5452, 26.96069
860.0273, 26.84997
860.5094, 27.07828
860.9915, 27.05723
861.4736, 25.97009
861.9557, 24.05168
862.4379, 22.74636
862.9200, 23.02171
863.4021, 22.94168
863.8842, 21.18338
864.3663, 19.33689
864.8484, 18.91133
865.3306, 19.56503
865.8127, 20.46668
866.2948, 21.28671
866.7769, 21.10989
867.2590, 17.74586
867.7411, 13.26221
868.2233, 12.43740
868.7054, 14.75331
869.1875, 17.19126
869.6696, 18.90512
870.1517, 19.33305
870.6339, 17.72666
871.1160, 14.64374
871.5981, 12.61191
872.0802, 11.83921
872.5623, 11.36535
873.0444, 11.22029
873.5266, 11.17779
874.0087, 11.32728
874.4908, 11.40025
874.9729, 10.84038
875.4550, 9.503027
875.9371, 8.362879
876.4193, 6.798798
876.9014, 6.351773
877.3835, 9.339111
877.8656, 12.65335
878.3477, 12.29434
878.8298, 8.784017
879.3120, 6.197886
879.7941, 6.706038
880.2762, 8.430957
880.7583, 10.23428
881.2404, 11.70831
881.7225, 11.98942
882.2047, 11.18366
882.6868, 10.02282
883.1689, 8.823407
883.6510, 7.580397
884.1331, 6.131016
884.6152, 4.613540
885.0974, 4.299356
885.5795, 5.387030
886.0616, 6.196381
886.5437, 6.193232
887.0258, 6.194770
887.5079, 6.952929
887.9901, 8.234489
888.4722, 9.124846
888.9543, 9.728036
889.4364, 9.725063
889.9185, 8.770498
890.4006, 7.628130
890.8828, 6.255000
891.3649, 5.056116
891.8470, 4.332075
892.3291, 4.173886
892.8112, 4.981949
893.2933, 8.191893
893.7755, 10.96966
894.2576, 10.97227
894.7397, 9.886305
895.2218, 10.10544
895.7039, 11.34866
896.1860, 11.50636
896.6682, 9.523259
897.1503, 7.035557
897.6324, 6.168434
898.1145, 6.357996
898.5966, 5.797251
899.0787, 4.553807
899.5609, 3.687962
900.0430, 3.520562
900.5251, 4.081747
901.0072, 5.634551
901.4893, 7.711257
901.9714, 7.794998
902.4536, 5.101583
902.9357, 3.253877
903.4178, 2.514977
903.8999, 2.770972
904.3820, 4.695073
904.8641, 7.176669
905.3463, 8.243093
905.8284, 7.745662
906.3105, 7.160905
906.7926, 6.869617
907.2747, 6.143528
907.7568, 3.837424
908.2390, 1.747880
908.7211, 1.733023
909.2032, 3.325987
909.6853, 4.744362
910.1674, 5.371942
910.6495, 5.678872
911.1317, 6.302724
911.6138, 6.521848
912.0959, 5.025867
912.5780, 2.539200
913.0601, 0.7841009
913.5422, 0.2159352
914.0244, 0.1651483
914.5065, 8.2694642E-02
914.9886, 8.9584097E-02
915.4707, 0.6789371
915.9528, 1.672167
916.4349, 1.651363
916.9171, 0.4055348
917.3992, -0.1379608
917.8813, 1.230365
918.3634, 3.229394
918.8455, 3.621257
919.3276, 2.280186
919.8098, 1.688417
920.2919, 2.534010
920.7740, 2.263211
921.2561, -0.7830297
921.7382, -3.769331
922.2203, -4.125320
922.7025, -2.484371
923.1846, -1.417120
923.6667, -1.226988
924.1488, -0.9344337
924.6309, -6.3238151E-02
925.1130, 0.4891192
925.5952, -0.5788770
926.0773, -1.653637
926.5594, -1.2459530E-02
927.0415, 4.065772
927.5236, 6.437431
928.0057, 4.396138
928.4879, 1.594330
928.9700, -4.5262009E-02
929.4521, -0.8200355
929.9342, -0.6446689
930.4163, 2.2295959E-02
930.8984, -5.9717920E-02
931.3806, -1.302859
931.8627, -2.302183
932.3448, -1.080632
932.8269, 1.035913
933.3090, 0.7061033
933.7911, -1.284366
934.2733, -1.254852
934.7554, 1.407880
935.2375, 4.153367
935.7196, 5.321060
936.2017, 5.232715
936.6838, 4.230844
937.1660, 2.218903
937.6481, 1.425556
938.1302, 2.240866
938.6123, 2.506384
939.0944, 1.291843
939.5765, -0.2939036
940.0587, -1.247883
940.5408, -1.582913
941.0229, -1.306879
941.5050, 0.3567635
941.9871, 1.206635
942.4692, 4.2751681E-02
942.9514, -0.6481858
943.4335, 1.463669
943.9156, 3.836691
944.3977, 2.349236
944.8798, -3.099096
945.3619, -6.075976
945.8441, -2.917565
946.3262, -9.7277910E-02
946.8083, -0.8291352
947.2904, -2.038583
947.7725, -0.5157316
948.2546, 2.556476
948.7368, 4.011900
949.2189, 2.878692
949.7010, 1.149174
950.1831, 6.7937681E-03
950.6652, -1.005115
951.1473, -3.099689
951.6295, -5.097699
952.1116, -4.153630
952.5937, -0.5945674
953.0758, 2.006706
953.5579, 1.533733
954.0400, -1.5106650E-02
954.5222, 0.1085124
955.0043, 1.337061
955.4864, 1.943505
955.9685, 1.971417
956.4506, 2.349485
956.9327, 3.352646
957.4149, 4.262058
957.8970, 4.464242
958.3791, 4.040760
958.8612, 3.053046
959.3433, 1.418344
959.8254, 0.4597482
960.3076, 0.2891360
960.7897, 0.8736658
961.2718, 0.9261755
961.7539, 4.132442
962.2360, 2.273483
962.7181, 3.600753
963.2003, 4.551421
963.6824, 2.553123
964.1645, 5.882350
964.6466, 3.574894
965.1287, 0.7851133
965.6108, 0.2289919
966.0930, 0.8854633
966.5751, 1.421887
967.0572, 1.840578
967.5393, 1.779009
968.0214, 0.4023088
968.5035, -0.3930075
968.9857, 0.2960151
969.4678, 1.397620
969.9499, 2.256233
970.4320, 2.830385
970.9141, 3.159465
971.3962, 3.215597
971.8784, 3.344401
972.3605, 3.693976
972.8426, 4.177448
973.3247, 5.492331
973.8068, 6.432429
974.2889, 4.483148
974.7711, 0.5532350
975.2532, -1.121946
975.7353, 1.724012
976.2174, 5.035493
976.6995, 5.183620
977.1816, 3.551827
977.6638, 1.232125
978.1459, -1.063820
978.6280, -1.419283
979.1101, 0.2487448
979.5922, 1.600241
980.0743, 0.8692455
980.5565, 2.023043
981.0386, 0.1985502
981.5207, 2.234031
982.0028, 3.032186
982.4849, 2.553524
982.9670, 1.774457
983.4492, 1.020765
983.9313, 0.5074502
984.4134, 0.4687653
984.8955, 0.7670437
985.3776, 1.048077
985.8597, 1.323838
986.3419, 0.9438265
986.8240, -0.3844464
987.3061, -0.6274986
987.7882, 1.454589
988.2703, 3.896426
988.7524, 4.242475
989.2346, 2.713456
989.7167, 1.620043
990.1988, 1.008701
990.6809, 0.7122697
991.1630, 0.8914468
991.6451, 1.023529
992.1273, 0.6002284
992.6094, 0.2103562
993.0915, 0.9270823
993.5736, 2.851911
994.0557, 3.938053
994.5378, 3.680655
995.0200, 3.307011
995.5021, 2.581384
995.9842, 2.138607
996.4663, 2.592856
996.9484, 3.435819
997.4305, 3.699471
997.9127, 3.229415
998.3948, 3.330941
998.8769, 6.039063
999.3590, 6.909443
999.8411, 1.843066
1000.323, -3.054696
1000.805, -1.581764
1001.287, 3.302069
1001.770, 4.659562
1002.252, 0.8007206
1002.734, -2.550922
1003.216, -3.483745
1003.698, -2.677367
1004.180, 1.250643
1004.662, 5.396996
1005.144, 6.027412
1005.627, 4.111535
1006.109, 3.392434
1006.591, 5.257028
1007.073, 6.513077
1007.555, 3.388604
1008.037, 0.1239099
1008.519, 2.118705
1009.001, 6.111983
1009.483, 6.383965
1009.966, 3.172780
1010.448, 0.3920393
1010.930, -0.1238792
1011.412, 0.5472453
1011.894, 2.032998
1012.376, 3.546922
1012.858, 3.404443
1013.340, 2.379692
1013.823, 2.956611
1014.305, 5.111145
1014.787, 6.044658
1015.269, 4.083935
1015.751, 1.254765
1016.233, 0.3977302
1016.715, 0.8197826
1017.197, 0.5069891
1017.679, -0.3713521
1018.162, -1.008396
1018.644, -1.178588
1019.126, -0.4105848
1019.608, 1.699467
1020.090, 4.198274
1020.572, 5.590344
1021.054, 5.896269
1021.536, 4.757604
1022.018, 2.279253
1022.501, 1.871026
1022.983, 4.493146
1023.465, 6.678660
1023.947, 5.813857
1024.429, 3.200883
1024.911, 1.498530
1025.393, 0.7196006
1025.875, 0.2904332
1026.358, 0.2894176
1026.840, -0.1193851
1027.322, -1.302703
1027.804, -2.267623
1028.286, -2.267503
1028.768, -1.460503
1029.250, -7.7286623E-02
1029.732, 2.070303
1030.214, 3.202683
1030.697, 3.008780
1031.179, 2.880490
1031.661, 3.260509
1032.143, 3.644436
1032.625, 3.755983
1033.107, 3.457221
1033.589, 2.117667
1034.071, 2.426095
1034.553, 3.123744
1035.036, 2.104291
1035.518, 4.761780
1036.000, 4.732728
1036.482, 3.736037
1036.964, 2.775581
1037.446, 2.014017
1037.928, 2.050363
1038.410, 3.376342
1038.893, 3.743182
1039.375, 2.251885
1039.857, 1.245766
1040.339, 1.839676
1040.821, 2.507034
1041.303, 1.870996
1041.785, 0.4471284
1042.267, -0.2530091
1042.750, 4.0098231E-02
1043.232, 0.1532389
1043.714, 0.1869695
1044.196, -0.1118783
1044.678, -1.835016
1045.160, -2.947805
1045.642, -0.9530457
1046.124, 2.592016
1046.606, 3.660675
1047.089, 1.206829
1047.571, -0.2442541
1048.053, 0.7272683
1048.535, 1.470857
1049.017, 0.9466518
1049.499, 0.2363340
1049.981, 0.3470069
1050.463, 0.8633371
1050.945, 0.6399155
1051.428, -0.6733931
1051.910, -1.248339
1052.392, -0.2736714
1052.874, 0.8593388
1053.356, 2.032648
1053.838, 2.899464
1054.320, 3.448212
1054.802, 3.417491
1055.285, 1.886388
1055.767, -1.497774
1056.249, -3.384536
1056.731, -1.879154
1057.213, -7.7940337E-02
1057.695, 1.023167
1058.177, 1.862409
1058.659, 2.887656
1059.141, 3.886119
1059.624, 4.339087
1060.106, 4.156099
1060.588, 4.078729
1061.070, 4.341066
1061.552, 4.753965
1062.034, 5.481691
1062.516, 6.102209
1062.998, 6.465733
1063.480, 6.407892
1063.963, 5.404809
1064.445, 3.475858
1064.927, 2.207199
1065.409, 2.963764
1065.891, 3.426479
1066.373, 2.336053
1066.855, 0.9051359
1067.337, -0.3836598
1067.820, -1.145387
1068.302, -0.5985223
1068.784, 1.158422
1069.266, 2.422889
1069.748, 2.141183
1070.230, 1.970341
1070.712, 3.007725
1071.194, 4.057886
1071.677, 4.161132
1072.159, 3.732472
1072.641, 3.535118
1073.123, 3.554503
1073.605, 2.934180
1074.087, 0.5618970
1074.569, -0.5598539
1075.051, 2.926331
1075.533, 6.092355
1076.016, 4.081527
1076.498, 0.4596000
1076.980, 0.3087098
1077.462, 3.415158
1077.944, 6.101301
1078.426, 7.144334
1078.908, 7.640958
1079.390, 8.261131
1079.873, 8.336188
1080.355, 7.066449
1080.837, 5.259649
1081.319, 3.646826
1081.801, 2.397185
1082.283, 1.584736
1082.765, 1.209691
1083.247, 1.413236
1083.729, 2.703888
1084.212, 4.057442
1084.694, 5.208327
1085.176, 5.857794
1085.658, 5.017143
1086.140, 3.609842
1086.622, 4.284850
1087.104, 7.813780
1087.586, 9.708829
1088.068, 6.473565
1088.551, 3.206294
1089.033, 2.304451
1089.515, 2.585071
1089.997, 3.636353
1090.479, 4.795822
1090.961, 4.942164
1091.443, 3.933248
1091.925, 3.054045
1092.408, 3.156829
1092.890, 2.969502
1093.372, 1.582420
1093.854, 0.1360546
1094.336, -0.6568972
1094.818, -0.9113945
1095.300, -0.7912292
1095.782, -0.3741949
1096.265, 3.7035689E-02
1096.747, 9.9287942E-02
1097.229, 0.6492072
1097.711, 2.499011
1098.193, 4.312474
1098.675, 5.590119
1099.157, 6.199703
1099.639, 5.600314
1100.121, 4.193619
1100.604, 3.666392
1101.086, 4.740497
1101.568, 5.545258
1102.050, 4.974916
1102.532, 4.812015
1103.014, 6.520330
1103.496, 8.390027
1103.978, 8.801513
1104.460, 8.102878
1104.943, 7.418380
1105.425, 6.895670
1105.907, 6.424391
1106.389, 5.303165
1106.871, 5.166833
1107.353, 8.206559
1107.835, 10.65847
1108.317, 9.033469
1108.800, 5.451246
1109.282, 3.722810
1109.764, 4.177947
1110.246, 4.456139
1110.728, 4.101512
1111.210, 3.903776
1111.692, 3.769410
1112.174, 4.043772
1112.656, 5.710370
1113.139, 7.340607
1113.621, 6.888022
1114.103, 4.562008
1114.585, 2.812004
1115.067, 1.174355
1115.549, 1.006654
1116.031, 3.523205
1116.513, 5.784003
1116.995, 6.749738
1117.478, 7.246137
1117.960, 8.058750
1118.442, 8.958091
1118.924, 9.151406
1119.406, 8.325661
1119.888, 8.061682
1120.370, 8.734614
1120.852, 9.146044
1121.335, 8.711469
1121.817, 8.618769
1122.299, 10.10352
1122.781, 11.87031
1123.263, 11.28149
1123.745, 8.258754
1124.227, 7.048070
1124.709, 8.067945
1125.192, 9.647726
1125.674, 12.24526
1126.156, 13.14688
1126.638, 10.50201
1127.120, 7.102155
1127.602, 6.323613
1128.084, 7.604560
1128.566, 8.257762
1129.048, 8.259012
1129.531, 7.590551
1130.013, 6.014150
1130.495, 5.820457
1130.977, 7.997011
1131.459, 9.791286
1131.941, 8.731100
1132.423, 10.38916
1132.905, 11.02509
1133.387, 10.86823
1133.870, 12.29063
1134.352, 11.67983
1134.834, 11.01873
1135.316, 10.68236
1135.798, 9.493532
1136.280, 6.716724
1136.762, 4.311775
1137.244, 5.168886
1137.727, 8.023711
1138.209, 9.118410
1138.691, 8.774659
1139.173, 8.046950
1139.655, 7.214816
1140.137, 7.063874
1140.619, 7.846171
1141.101, 9.222161
1141.583, 11.18964
1142.066, 12.68279
1142.548, 11.48398
1143.030, 8.916654
1143.512, 7.371415
1143.994, 6.890406
1144.476, 7.415999
1144.958, 8.708072
1145.440, 9.995090
1145.922, 10.91291
1146.405, 11.39798
1146.887, 10.81122
1147.369, 10.31498
1147.851, 12.27585
1148.333, 14.53135
1148.815, 13.17586
1149.297, 9.329889
1149.779, 6.385299
1150.262, 5.395567
1150.744, 6.103317
1151.226, 9.382741
1151.708, 12.63887
1152.190, 14.38414
1152.672, 15.20407
1153.154, 15.46525
1153.636, 15.21944
1154.119, 14.22149
1154.601, 12.69789
1155.083, 11.47850
1155.565, 10.55633
1156.047, 10.78379
1156.529, 14.19673
1157.011, 16.55984
1157.493, 14.71315
1157.975, 12.26119
1158.458, 12.65483
1158.940, 14.60525
1159.422, 14.93638
1159.904, 13.22156
1160.386, 12.39004
1160.868, 13.22531
1161.350, 14.13375
1161.832, 15.30003
1162.314, 16.04893
1162.797, 15.90938
1163.279, 15.40479
1163.761, 15.06610
1164.243, 14.84182
1164.725, 14.35981
1165.207, 12.97190
1165.689, 13.93893
1166.171, 18.74091
1166.654, 21.25271
1167.136, 19.30593
1167.618, 16.97718
1168.100, 17.08422
1168.582, 17.99621
1169.064, 16.58536
1169.546, 13.38601
1170.028, 14.22089
1170.510, 13.02584
1170.993, 12.20494
1171.475, 14.96749
1171.957, 13.40621
1172.439, 18.59808
1172.921, 24.11716
1173.403, 24.07866
1173.885, 20.89651
1174.367, 18.72790
1174.849, 17.58037
1175.332, 17.98035
1175.814, 19.44914
1176.296, 20.19911
1176.778, 19.96236
1177.260, 19.30191
1177.742, 18.49475
1178.224, 17.82783
1178.706, 17.46884
1179.189, 17.51713
1179.671, 19.17475
1180.153, 20.58475
1180.635, 17.42046
1181.117, 12.19409
1181.599, 11.35989
1182.081, 15.52239
1182.563, 19.45769
1183.046, 20.75858
1183.528, 21.27301
1184.010, 21.88710
1184.492, 22.30078
1184.974, 22.76053
1185.456, 22.54358
1185.938, 19.92549
1186.420, 16.29012
1186.902, 15.08798
1187.385, 16.99035
1187.867, 18.73889
1188.349, 19.56290
1188.831, 20.39677
1189.313, 22.08160
1189.795, 23.02212
1190.277, 21.95202
1190.759, 20.15777
1191.241, 18.49123
1191.724, 17.22768
1192.206, 17.60400
1192.688, 20.30198
1193.170, 21.59120
1193.652, 20.68814
1194.134, 20.96919
1194.616, 23.62391
1195.098, 25.76224
1195.581, 25.69546
1196.063, 24.44225
1196.545, 23.23159
1197.027, 22.20879
1197.509, 22.10507
1197.991, 22.86307
1198.473, 23.85429
1198.955, 24.92945
1199.438, 24.37758
1199.920, 21.90022
1200.402, 20.05001
1200.884, 20.52660
1201.366, 22.51809
1201.848, 25.80800
1202.330, 29.29885
1202.812, 30.99763
1203.294, 31.22817
1203.776, 30.28357
1204.259, 28.58161
1204.741, 26.79890
1205.223, 25.23065
1205.705, 24.30583
1206.187, 24.44587
1206.669, 24.82408
1207.151, 24.78452
1207.633, 24.84919
1208.116, 25.97206
1208.598, 27.01107
1209.080, 25.97344
1209.562, 23.84987
1210.044, 23.73842
1210.526, 26.38702
1211.008, 28.07502
1211.490, 27.48041
1211.973, 26.80391
1212.455, 26.22549
1212.937, 25.90661
1213.419, 25.40722
1213.901, 25.76047
1214.383, 28.79106
1214.865, 33.19915
1215.347, 34.38025
1215.829, 31.77338
1216.312, 29.56511
1216.794, 27.48787
1217.276, 27.60771
1217.758, 30.71591
1218.240, 33.16190
1218.722, 33.11166
1219.204, 32.09527
1219.686, 31.78367
1220.168, 31.88764
1220.651, 31.47349
1221.133, 30.83887
1221.615, 31.55292
1222.097, 33.20365
1222.579, 33.87524
1223.061, 33.29648
1223.543, 32.16658
1224.025, 30.82685
1224.508, 30.06108
1224.990, 31.12290
1225.472, 32.38299
1225.954, 31.79439
1226.436, 30.85664
1226.918, 31.21873
1227.400, 32.52892
1227.882, 34.66249
1228.365, 36.99042
1228.847, 37.03392
1229.329, 33.04752
1229.811, 31.27338
1230.293, 36.47300
1230.775, 39.91454
1231.257, 36.73966
1231.739, 33.11342
1232.221, 32.74094
1232.703, 34.40979
1233.186, 37.43212
1233.668, 41.19954
1234.150, 41.28038
1234.632, 36.13310
1235.114, 33.42341
1235.596, 33.51533
1236.078, 34.89056
1236.560, 37.48880
1237.043, 39.28302
1237.525, 39.04570
1238.007, 37.76388
1238.489, 36.44017
1238.971, 35.49467
1239.453, 36.60836
1239.935, 38.96972
1240.417, 39.66806
1240.900, 39.01480
1241.382, 38.91343
1241.864, 39.57865
1242.346, 39.63575
1242.828, 38.38866
1243.310, 37.15691
1243.792, 36.72202
1244.274, 37.04859
1244.756, 39.06458
1245.239, 40.91226
1245.721, 39.97438
1246.203, 38.12966
1246.685, 38.79802
1247.167, 41.67076
1247.649, 43.20150
1248.131, 42.32314
1248.613, 41.66273
1249.095, 42.25835
1249.578, 41.90006
1250.060, 38.99053
1250.542, 37.07551
1251.024, 38.44952
1251.506, 40.87851
1251.988, 41.69970
1252.470, 41.33556
1252.952, 41.46664
1253.435, 42.11564
1253.917, 42.04236
1254.399, 41.29236
1254.881, 42.40412
1255.363, 45.57922
1255.845, 46.43974
1256.327, 43.03589
1256.809, 39.74485
1257.292, 41.14471
1257.774, 43.84962
1258.256, 43.04808
1258.738, 40.73874
1259.220, 38.89795
1259.702, 38.16286
1260.184, 40.25703
1260.666, 44.03858
1261.148, 45.57973
1261.630, 43.79585
1262.113, 42.58712
1262.595, 44.48072
1263.077, 45.49476
1263.559, 43.13213
1264.041, 41.32903
1264.523, 42.77727
1265.005, 44.88338
1265.487, 45.23549
1265.970, 44.65084
1266.452, 44.97966
1266.934, 46.23166
1267.416, 47.98438
1267.898, 50.53871
1268.380, 50.94386
1268.862, 48.77783
1269.344, 47.04594
1269.827, 46.71614
1270.309, 47.54730
1270.791, 49.51539
1271.273, 51.17675
1271.755, 49.89520
1272.237, 47.34800
1272.719, 46.30088
1273.201, 46.45288
1273.683, 47.87792
1274.166, 49.81542
1274.648, 50.45807
1275.130, 49.81379
1275.612, 50.10576
1276.094, 52.65261
1276.576, 53.99474
1277.058, 51.13752
1277.540, 49.06508
1278.022, 50.87113
1278.505, 52.79278
1278.987, 51.76845
1279.469, 49.95927
1279.951, 49.89777
1280.433, 51.20158
1280.915, 52.44717
1281.397, 53.80292
1281.879, 53.53770
1282.362, 53.47578
1282.844, 52.84513
1283.326, 50.95021
1283.808, 50.19722
1284.290, 46.97581
1284.772, 44.69699
1285.254, 46.05228
1285.736, 51.03076
##END=



