##NAMES=Alabandite
##RRUFFID=R070174
##IDEAL CHEMISTRY=Mn^2+^S^2-^
##LOCALITY=Mina Preciosa, Sangue de Cristo, Puebla, Mexico
##OWNER=Michael Scott
##SOURCE=Michael Scott
##DESCRIPTION=Dull dark gray semi-metallic coarse crystals associated with pyrite and calcite
##STATUS=The identification of this mineral has been confirmed by X-ray diffraction and chemical analysis
##URL=rruff.info/R070174
##MEASURED CHEMISTRY=Mn^2+^_1.00_S_1.00_
9.001007e+001, 0.000000e+000
9.049219e+001, 2.001557e+001
9.097430e+001, 2.020726e+001
9.145642e+001, 2.011015e+001
9.193854e+001, 1.976061e+001
9.242065e+001, 1.946141e+001
9.290277e+001, 1.962537e+001
9.338489e+001, 2.003414e+001
9.386700e+001, 2.016715e+001
9.434912e+001, 1.966715e+001
9.483124e+001, 1.882902e+001
9.531335e+001, 1.825792e+001
9.579547e+001, 1.796750e+001
9.627759e+001, 1.783768e+001
9.675970e+001, 1.781954e+001
9.724182e+001, 1.789629e+001
9.772394e+001, 1.784198e+001
9.820605e+001, 1.749056e+001
9.868817e+001, 1.686911e+001
9.917029e+001, 1.631680e+001
9.965240e+001, 1.581167e+001
1.001345e+002, 1.541138e+001
1.006166e+002, 1.530118e+001
1.010988e+002, 1.555562e+001
1.015809e+002, 1.576926e+001
1.020630e+002, 1.565723e+001
1.025451e+002, 1.510727e+001
1.030272e+002, 1.481113e+001
1.035093e+002, 1.491097e+001
1.039915e+002, 1.528571e+001
1.044736e+002, 1.542929e+001
1.049557e+002, 1.528812e+001
1.054378e+002, 1.498984e+001
1.059199e+002, 1.458221e+001
1.064020e+002, 1.386745e+001
1.068842e+002, 1.341274e+001
1.073663e+002, 1.339737e+001
1.078484e+002, 1.383006e+001
1.083305e+002, 1.401988e+001
1.088126e+002, 1.382708e+001
1.092947e+002, 1.346842e+001
1.097769e+002, 1.314093e+001
1.102590e+002, 1.272876e+001
1.107411e+002, 1.246625e+001
1.112232e+002, 1.245344e+001
1.117053e+002, 1.277505e+001
1.121874e+002, 1.297603e+001
1.126696e+002, 1.299032e+001
1.131517e+002, 1.287695e+001
1.136338e+002, 1.271239e+001
1.141159e+002, 1.239279e+001
1.145980e+002, 1.211915e+001
1.150801e+002, 1.198008e+001
1.155623e+002, 1.205573e+001
1.160444e+002, 1.209908e+001
1.165265e+002, 1.200688e+001
1.170086e+002, 1.183536e+001
1.174907e+002, 1.170463e+001
1.179728e+002, 1.175842e+001
1.184550e+002, 1.180346e+001
1.189371e+002, 1.170096e+001
1.194192e+002, 1.131272e+001
1.199013e+002, 1.094199e+001
1.203834e+002, 1.076688e+001
1.208655e+002, 1.075019e+001
1.213477e+002, 1.074635e+001
1.218298e+002, 1.066384e+001
1.223119e+002, 1.055668e+001
1.227940e+002, 1.048668e+001
1.232761e+002, 1.053825e+001
1.237582e+002, 1.057489e+001
1.242404e+002, 1.042994e+001
1.247225e+002, 1.012016e+001
1.252046e+002, 9.851590e+000
1.256867e+002, 9.788054e+000
1.261688e+002, 9.877128e+000
1.266509e+002, 1.002580e+001
1.271331e+002, 1.036951e+001
1.276152e+002, 1.069308e+001
1.280973e+002, 1.059627e+001
1.285794e+002, 1.005074e+001
1.290615e+002, 9.428302e+000
1.295436e+002, 9.109719e+000
1.300258e+002, 9.048514e+000
1.305079e+002, 9.045853e+000
1.309900e+002, 9.024211e+000
1.314721e+002, 8.991116e+000
1.319542e+002, 8.961219e+000
1.324363e+002, 8.928454e+000
1.329185e+002, 8.919689e+000
1.334006e+002, 9.026453e+000
1.338827e+002, 9.248549e+000
1.343648e+002, 9.381724e+000
1.348469e+002, 9.231040e+000
1.353290e+002, 8.826510e+000
1.358112e+002, 8.642356e+000
1.362933e+002, 8.790399e+000
1.367754e+002, 9.082973e+000
1.372575e+002, 9.042428e+000
1.377396e+002, 8.595204e+000
1.382217e+002, 8.142937e+000
1.387039e+002, 7.955839e+000
1.391860e+002, 8.075236e+000
1.396681e+002, 8.160997e+000
1.401502e+002, 8.153666e+000
1.406323e+002, 8.088471e+000
1.411144e+002, 8.142016e+000
1.415966e+002, 8.379946e+000
1.420787e+002, 8.611679e+000
1.425608e+002, 8.696416e+000
1.430429e+002, 8.615494e+000
1.435250e+002, 8.431736e+000
1.440071e+002, 8.090643e+000
1.444893e+002, 7.608023e+000
1.449714e+002, 7.323216e+000
1.454535e+002, 7.297030e+000
1.459356e+002, 7.412944e+000
1.464177e+002, 7.584767e+000
1.468998e+002, 7.961385e+000
1.473820e+002, 8.159844e+000
1.478641e+002, 8.035131e+000
1.483462e+002, 7.511380e+000
1.488283e+002, 7.207049e+000
1.493104e+002, 7.310975e+000
1.497925e+002, 7.544219e+000
1.502747e+002, 7.579321e+000
1.507568e+002, 7.101789e+000
1.512389e+002, 6.749852e+000
1.517210e+002, 6.705200e+000
1.522031e+002, 7.102572e+000
1.526852e+002, 7.377468e+000
1.531674e+002, 7.498784e+000
1.536495e+002, 7.500082e+000
1.541316e+002, 7.431918e+000
1.546137e+002, 7.141116e+000
1.550958e+002, 6.916052e+000
1.555779e+002, 6.861316e+000
1.560601e+002, 7.056690e+000
1.565422e+002, 7.252360e+000
1.570243e+002, 7.420450e+000
1.575064e+002, 7.564837e+000
1.579885e+002, 7.693020e+000
1.584706e+002, 7.747321e+000
1.589528e+002, 7.829169e+000
1.594349e+002, 7.989375e+000
1.599170e+002, 8.267079e+000
1.603991e+002, 8.567707e+000
1.608812e+002, 8.787076e+000
1.613633e+002, 8.999267e+000
1.618455e+002, 9.398733e+000
1.623276e+002, 1.026115e+001
1.628097e+002, 1.120195e+001
1.632918e+002, 1.197843e+001
1.637739e+002, 1.234711e+001
1.642560e+002, 1.279247e+001
1.647382e+002, 1.351311e+001
1.652203e+002, 1.448136e+001
1.657024e+002, 1.559128e+001
1.661845e+002, 1.694884e+001
1.666666e+002, 1.836120e+001
1.671487e+002, 1.962933e+001
1.676309e+002, 2.051460e+001
1.681130e+002, 2.145386e+001
1.685951e+002, 2.269968e+001
1.690772e+002, 2.423285e+001
1.695593e+002, 2.591292e+001
1.700414e+002, 2.779665e+001
1.705236e+002, 2.974747e+001
1.710057e+002, 3.157635e+001
1.714878e+002, 3.320022e+001
1.719699e+002, 3.472189e+001
1.724520e+002, 3.618018e+001
1.729341e+002, 3.758519e+001
1.734163e+002, 3.898389e+001
1.738984e+002, 4.047849e+001
1.743805e+002, 4.199389e+001
1.748626e+002, 4.336122e+001
1.753447e+002, 4.451008e+001
1.758268e+002, 4.551308e+001
1.763090e+002, 4.638762e+001
1.767911e+002, 4.712445e+001
1.772732e+002, 4.791988e+001
1.777553e+002, 4.881512e+001
1.782374e+002, 4.967290e+001
1.787195e+002, 5.040907e+001
1.792017e+002, 5.085097e+001
1.796838e+002, 5.121856e+001
1.801659e+002, 5.185954e+001
1.806480e+002, 5.279194e+001
1.811301e+002, 5.382176e+001
1.816122e+002, 5.471264e+001
1.820944e+002, 5.554218e+001
1.825765e+002, 5.654500e+001
1.830586e+002, 5.806580e+001
1.835407e+002, 5.979364e+001
1.840228e+002, 6.104444e+001
1.845049e+002, 6.173262e+001
1.849871e+002, 6.233536e+001
1.854692e+002, 6.343956e+001
1.859513e+002, 6.497546e+001
1.864334e+002, 6.651641e+001
1.869155e+002, 6.786544e+001
1.873976e+002, 6.907015e+001
1.878798e+002, 7.033321e+001
1.883619e+002, 7.168093e+001
1.888440e+002, 7.299924e+001
1.893261e+002, 7.405842e+001
1.898082e+002, 7.488631e+001
1.902903e+002, 7.571996e+001
1.907725e+002, 7.672092e+001
1.912546e+002, 7.786013e+001
1.917367e+002, 7.888490e+001
1.922188e+002, 7.978435e+001
1.927009e+002, 8.058456e+001
1.931830e+002, 8.134230e+001
1.936652e+002, 8.205774e+001
1.941473e+002, 8.260711e+001
1.946294e+002, 8.274887e+001
1.951115e+002, 8.253928e+001
1.955936e+002, 8.278472e+001
1.960757e+002, 8.364373e+001
1.965579e+002, 8.477428e+001
1.970400e+002, 8.548693e+001
1.975221e+002, 8.574498e+001
1.980042e+002, 8.598898e+001
1.984863e+002, 8.649296e+001
1.989684e+002, 8.725841e+001
1.994506e+002, 8.798232e+001
1.999327e+002, 8.864928e+001
2.004148e+002, 8.925099e+001
2.008969e+002, 8.973698e+001
2.013790e+002, 9.009370e+001
2.018611e+002, 9.043803e+001
2.023433e+002, 9.080635e+001
2.028254e+002, 9.118848e+001
2.033075e+002, 9.174483e+001
2.037896e+002, 9.255374e+001
2.042717e+002, 9.347790e+001
2.047538e+002, 9.407927e+001
2.052360e+002, 9.423701e+001
2.057181e+002, 9.451130e+001
2.062002e+002, 9.536438e+001
2.066823e+002, 9.694392e+001
2.071644e+002, 9.809896e+001
2.076465e+002, 9.863040e+001
2.081287e+002, 9.873740e+001
2.086108e+002, 9.904385e+001
2.090929e+002, 9.961994e+001
2.095750e+002, 1.002001e+002
2.100571e+002, 1.005485e+002
2.105392e+002, 1.005542e+002
2.110214e+002, 1.008803e+002
2.115035e+002, 1.016860e+002
2.119856e+002, 1.028158e+002
2.124677e+002, 1.037698e+002
2.129498e+002, 1.045429e+002
2.134319e+002, 1.051649e+002
2.139140e+002, 1.056740e+002
2.143962e+002, 1.060984e+002
2.148783e+002, 1.063021e+002
2.153604e+002, 1.061916e+002
2.158425e+002, 1.058639e+002
2.163246e+002, 1.056920e+002
2.168067e+002, 1.056586e+002
2.172889e+002, 1.058059e+002
2.177710e+002, 1.062520e+002
2.182531e+002, 1.072361e+002
2.187352e+002, 1.077778e+002
2.192173e+002, 1.076368e+002
2.196994e+002, 1.069874e+002
2.201816e+002, 1.066613e+002
2.206637e+002, 1.067273e+002
2.211458e+002, 1.069778e+002
2.216279e+002, 1.072997e+002
2.221100e+002, 1.077269e+002
2.225921e+002, 1.081513e+002
2.230743e+002, 1.086237e+002
2.235564e+002, 1.090918e+002
2.240385e+002, 1.092991e+002
2.245206e+002, 1.091185e+002
2.250027e+002, 1.088775e+002
2.254848e+002, 1.087771e+002
2.259670e+002, 1.088730e+002
2.264491e+002, 1.089848e+002
2.269312e+002, 1.091097e+002
2.274133e+002, 1.092430e+002
2.278954e+002, 1.093709e+002
2.283775e+002, 1.095099e+002
2.288597e+002, 1.096176e+002
2.293418e+002, 1.096756e+002
2.298239e+002, 1.097140e+002
2.303060e+002, 1.096249e+002
2.307881e+002, 1.093503e+002
2.312702e+002, 1.089327e+002
2.317524e+002, 1.085965e+002
2.322345e+002, 1.083961e+002
2.327166e+002, 1.081997e+002
2.331987e+002, 1.079192e+002
2.336808e+002, 1.074704e+002
2.341629e+002, 1.071164e+002
2.346451e+002, 1.068655e+002
2.351272e+002, 1.067177e+002
2.356093e+002, 1.067010e+002
2.360914e+002, 1.069726e+002
2.365735e+002, 1.071603e+002
2.370556e+002, 1.070297e+002
2.375378e+002, 1.063892e+002
2.380199e+002, 1.058486e+002
2.385020e+002, 1.054249e+002
2.389841e+002, 1.051245e+002
2.394662e+002, 1.050228e+002
2.399483e+002, 1.053278e+002
2.404305e+002, 1.055537e+002
2.409126e+002, 1.053955e+002
2.413947e+002, 1.045391e+002
2.418768e+002, 1.040038e+002
2.423589e+002, 1.039203e+002
2.428410e+002, 1.041832e+002
2.433232e+002, 1.044352e+002
2.438053e+002, 1.046964e+002
2.442874e+002, 1.049154e+002
2.447695e+002, 1.050503e+002
2.452516e+002, 1.050296e+002
2.457337e+002, 1.050784e+002
2.462159e+002, 1.051991e+002
2.466980e+002, 1.053916e+002
2.471801e+002, 1.056626e+002
2.476622e+002, 1.060569e+002
2.481443e+002, 1.064621e+002
2.486264e+002, 1.068464e+002
2.491086e+002, 1.073007e+002
2.495907e+002, 1.074992e+002
2.500728e+002, 1.072894e+002
2.505549e+002, 1.068634e+002
2.510370e+002, 1.067397e+002
2.515191e+002, 1.070240e+002
2.520013e+002, 1.074471e+002
2.524834e+002, 1.079068e+002
2.529655e+002, 1.084092e+002
2.534476e+002, 1.089391e+002
2.539297e+002, 1.095674e+002
2.544118e+002, 1.101926e+002
2.548940e+002, 1.105783e+002
2.553761e+002, 1.106096e+002
2.558582e+002, 1.106048e+002
2.563403e+002, 1.106990e+002
2.568224e+002, 1.109334e+002
2.573046e+002, 1.111148e+002
2.577867e+002, 1.111979e+002
2.582688e+002, 1.112511e+002
2.587509e+002, 1.113922e+002
2.592330e+002, 1.115832e+002
2.597151e+002, 1.119333e+002
2.601973e+002, 1.125541e+002
2.606794e+002, 1.135510e+002
2.611615e+002, 1.142796e+002
2.616436e+002, 1.146475e+002
2.621257e+002, 1.148213e+002
2.626078e+002, 1.150174e+002
2.630900e+002, 1.151124e+002
2.635721e+002, 1.155322e+002
2.640542e+002, 1.165093e+002
2.645363e+002, 1.181746e+002
2.650184e+002, 1.196102e+002
2.655005e+002, 1.207743e+002
2.659827e+002, 1.217933e+002
2.664648e+002, 1.229027e+002
2.669469e+002, 1.241865e+002
2.674290e+002, 1.252884e+002
2.679111e+002, 1.260263e+002
2.683932e+002, 1.263580e+002
2.688754e+002, 1.269571e+002
2.693575e+002, 1.278434e+002
2.698396e+002, 1.289578e+002
2.703217e+002, 1.302495e+002
2.708038e+002, 1.317534e+002
2.712859e+002, 1.332747e+002
2.717681e+002, 1.347814e+002
2.722502e+002, 1.362617e+002
2.727323e+002, 1.375433e+002
2.732144e+002, 1.385127e+002
2.736965e+002, 1.394672e+002
2.741786e+002, 1.407877e+002
2.746608e+002, 1.425865e+002
2.751429e+002, 1.442122e+002
2.756250e+002, 1.455092e+002
2.761071e+002, 1.464956e+002
2.765892e+002, 1.472661e+002
2.770714e+002, 1.477121e+002
2.775535e+002, 1.482191e+002
2.780356e+002, 1.492167e+002
2.785177e+002, 1.507587e+002
2.789998e+002, 1.522187e+002
2.794819e+002, 1.534384e+002
2.799641e+002, 1.544878e+002
2.804462e+002, 1.556631e+002
2.809283e+002, 1.570160e+002
2.814104e+002, 1.582841e+002
2.818925e+002, 1.592054e+002
2.823746e+002, 1.597744e+002
2.828568e+002, 1.604326e+002
2.833389e+002, 1.612738e+002
2.838210e+002, 1.622386e+002
2.843031e+002, 1.632528e+002
2.847852e+002, 1.643597e+002
2.852673e+002, 1.652138e+002
2.857495e+002, 1.653777e+002
2.862316e+002, 1.649289e+002
2.867137e+002, 1.648835e+002
2.871958e+002, 1.654413e+002
2.876779e+002, 1.663604e+002
2.881600e+002, 1.672424e+002
2.886422e+002, 1.680899e+002
2.891243e+002, 1.687513e+002
2.896064e+002, 1.689731e+002
2.900885e+002, 1.688629e+002
2.905706e+002, 1.690336e+002
2.910527e+002, 1.696213e+002
2.915349e+002, 1.702947e+002
2.920170e+002, 1.705226e+002
2.924991e+002, 1.703248e+002
2.929812e+002, 1.699709e+002
2.934633e+002, 1.694783e+002
2.939454e+002, 1.689326e+002
2.944276e+002, 1.686607e+002
2.949097e+002, 1.687229e+002
2.953918e+002, 1.688799e+002
2.958739e+002, 1.688905e+002
2.963560e+002, 1.687552e+002
2.968381e+002, 1.684714e+002
2.973203e+002, 1.678075e+002
2.978024e+002, 1.670394e+002
2.982845e+002, 1.669227e+002
2.987666e+002, 1.675482e+002
2.992487e+002, 1.680428e+002
2.997308e+002, 1.672095e+002
3.002130e+002, 1.654830e+002
3.006951e+002, 1.641314e+002
3.011772e+002, 1.640192e+002
3.016593e+002, 1.643954e+002
3.021414e+002, 1.641759e+002
3.026235e+002, 1.633712e+002
3.031057e+002, 1.623668e+002
3.035878e+002, 1.613331e+002
3.040699e+002, 1.603428e+002
3.045520e+002, 1.595705e+002
3.050341e+002, 1.592813e+002
3.055162e+002, 1.590431e+002
3.059984e+002, 1.583518e+002
3.064805e+002, 1.572634e+002
3.069626e+002, 1.561125e+002
3.074447e+002, 1.552069e+002
3.079268e+002, 1.543576e+002
3.084089e+002, 1.532992e+002
3.088911e+002, 1.517915e+002
3.093732e+002, 1.503229e+002
3.098553e+002, 1.495012e+002
3.103374e+002, 1.491099e+002
3.108195e+002, 1.483930e+002
3.113016e+002, 1.465295e+002
3.117838e+002, 1.443637e+002
3.122659e+002, 1.426551e+002
3.127480e+002, 1.416856e+002
3.132301e+002, 1.408816e+002
3.137122e+002, 1.398620e+002
3.141943e+002, 1.387440e+002
3.146765e+002, 1.377983e+002
3.151586e+002, 1.374188e+002
3.156407e+002, 1.370604e+002
3.161228e+002, 1.363189e+002
3.166049e+002, 1.350490e+002
3.170870e+002, 1.338195e+002
3.175692e+002, 1.329718e+002
3.180513e+002, 1.323058e+002
3.185334e+002, 1.315470e+002
3.190155e+002, 1.305340e+002
3.194976e+002, 1.294723e+002
3.199797e+002, 1.284226e+002
3.204619e+002, 1.273819e+002
3.209440e+002, 1.264483e+002
3.214261e+002, 1.258364e+002
3.219082e+002, 1.252723e+002
3.223903e+002, 1.244988e+002
3.228724e+002, 1.231308e+002
3.233546e+002, 1.218782e+002
3.238367e+002, 1.210119e+002
3.243188e+002, 1.205169e+002
3.248009e+002, 1.198760e+002
3.252830e+002, 1.188309e+002
3.257651e+002, 1.177317e+002
3.262473e+002, 1.168083e+002
3.267294e+002, 1.162729e+002
3.272115e+002, 1.156981e+002
3.276936e+002, 1.149511e+002
3.281757e+002, 1.141057e+002
3.286578e+002, 1.134919e+002
3.291400e+002, 1.134830e+002
3.296221e+002, 1.134001e+002
3.301042e+002, 1.129366e+002
3.305863e+002, 1.117262e+002
3.310684e+002, 1.107381e+002
3.315505e+002, 1.100441e+002
3.320327e+002, 1.095614e+002
3.325148e+002, 1.091207e+002
3.329969e+002, 1.087317e+002
3.334790e+002, 1.083623e+002
3.339611e+002, 1.079878e+002
3.344432e+002, 1.075903e+002
3.349254e+002, 1.072391e+002
3.354075e+002, 1.069183e+002
3.358896e+002, 1.066549e+002
3.363717e+002, 1.065117e+002
3.368538e+002, 1.065634e+002
3.373359e+002, 1.065564e+002
3.378180e+002, 1.064338e+002
3.383001e+002, 1.061977e+002
3.387823e+002, 1.058345e+002
3.392644e+002, 1.053155e+002
3.397465e+002, 1.047402e+002
3.402286e+002, 1.041760e+002
3.407107e+002, 1.036116e+002
3.411928e+002, 1.031769e+002
3.416750e+002, 1.029452e+002
3.421571e+002, 1.028550e+002
3.426392e+002, 1.026704e+002
3.431213e+002, 1.023756e+002
3.436034e+002, 1.020688e+002
3.440855e+002, 1.018625e+002
3.445677e+002, 1.017492e+002
3.450498e+002, 1.014377e+002
3.455319e+002, 1.008074e+002
3.460140e+002, 1.001097e+002
3.464961e+002, 9.992282e+001
3.469782e+002, 1.002253e+002
3.474604e+002, 1.004605e+002
3.479425e+002, 1.002277e+002
3.484246e+002, 9.965749e+001
3.489067e+002, 9.922194e+001
3.493888e+002, 9.894901e+001
3.498709e+002, 9.879354e+001
3.503531e+002, 9.878026e+001
3.508352e+002, 9.886035e+001
3.513173e+002, 9.885320e+001
3.517994e+002, 9.853403e+001
3.522815e+002, 9.812666e+001
3.527636e+002, 9.808875e+001
3.532458e+002, 9.841875e+001
3.537279e+002, 9.869716e+001
3.542100e+002, 9.858057e+001
3.546921e+002, 9.816753e+001
3.551742e+002, 9.761435e+001
3.556563e+002, 9.682993e+001
3.561385e+002, 9.606538e+001
3.566206e+002, 9.558072e+001
3.571027e+002, 9.533572e+001
3.575848e+002, 9.514246e+001
3.580669e+002, 9.491661e+001
3.585490e+002, 9.467193e+001
3.590312e+002, 9.443192e+001
3.595133e+002, 9.422566e+001
3.599954e+002, 9.396498e+001
3.604775e+002, 9.356665e+001
3.609596e+002, 9.307636e+001
3.614417e+002, 9.259726e+001
3.619239e+002, 9.223514e+001
3.624060e+002, 9.184377e+001
3.628881e+002, 9.130541e+001
3.633702e+002, 9.056522e+001
3.638523e+002, 8.991296e+001
3.643344e+002, 8.940163e+001
3.648166e+002, 8.904190e+001
3.652987e+002, 8.884447e+001
3.657808e+002, 8.915120e+001
3.662629e+002, 8.928687e+001
3.667450e+002, 8.893134e+001
3.672271e+002, 8.808675e+001
3.677093e+002, 8.751554e+001
3.681914e+002, 8.759299e+001
3.686735e+002, 8.778883e+001
3.691556e+002, 8.775632e+001
3.696377e+002, 8.714378e+001
3.701198e+002, 8.672853e+001
3.706020e+002, 8.665269e+001
3.710841e+002, 8.680978e+001
3.715662e+002, 8.680463e+001
3.720483e+002, 8.646046e+001
3.725304e+002, 8.616843e+001
3.730125e+002, 8.613041e+001
3.734947e+002, 8.652827e+001
3.739768e+002, 8.664444e+001
3.744589e+002, 8.638432e+001
3.749410e+002, 8.591957e+001
3.754231e+002, 8.551042e+001
3.759052e+002, 8.514491e+001
3.763874e+002, 8.486848e+001
3.768695e+002, 8.473257e+001
3.773516e+002, 8.473162e+001
3.778337e+002, 8.464606e+001
3.783158e+002, 8.448023e+001
3.787979e+002, 8.422404e+001
3.792801e+002, 8.384483e+001
3.797622e+002, 8.333405e+001
3.802443e+002, 8.283021e+001
3.807264e+002, 8.234800e+001
3.812085e+002, 8.189309e+001
3.816906e+002, 8.149250e+001
3.821728e+002, 8.114845e+001
3.826549e+002, 8.078691e+001
3.831370e+002, 8.037854e+001
3.836191e+002, 7.991371e+001
3.841012e+002, 7.937202e+001
3.845833e+002, 7.874038e+001
3.850655e+002, 7.803947e+001
3.855476e+002, 7.734348e+001
3.860297e+002, 7.661305e+001
3.865118e+002, 7.574386e+001
3.869939e+002, 7.440182e+001
3.874760e+002, 7.299647e+001
3.879582e+002, 7.219812e+001
3.884403e+002, 7.201802e+001
3.889224e+002, 7.195585e+001
3.894045e+002, 7.164914e+001
3.898866e+002, 7.119802e+001
3.903687e+002, 7.074119e+001
3.908509e+002, 7.036466e+001
3.913330e+002, 6.996189e+001
3.918151e+002, 6.946048e+001
3.922972e+002, 6.886833e+001
3.927793e+002, 6.820934e+001
3.932614e+002, 6.723697e+001
3.937436e+002, 6.636933e+001
3.942257e+002, 6.596404e+001
3.947078e+002, 6.634882e+001
3.951899e+002, 6.655130e+001
3.956720e+002, 6.603601e+001
3.961541e+002, 6.515283e+001
3.966363e+002, 6.446464e+001
3.971184e+002, 6.424218e+001
3.976005e+002, 6.411015e+001
3.980826e+002, 6.399810e+001
3.985647e+002, 6.392219e+001
3.990468e+002, 6.367779e+001
3.995290e+002, 6.298574e+001
4.000111e+002, 6.226310e+001
4.004932e+002, 6.184879e+001
4.009753e+002, 6.208659e+001
4.014574e+002, 6.217421e+001
4.019395e+002, 6.203015e+001
4.024217e+002, 6.168081e+001
4.029038e+002, 6.123244e+001
4.033859e+002, 6.060365e+001
4.038680e+002, 5.999563e+001
4.043501e+002, 5.949067e+001
4.048322e+002, 5.908301e+001
4.053144e+002, 5.883354e+001
4.057965e+002, 5.880529e+001
4.062786e+002, 5.886329e+001
4.067607e+002, 5.877347e+001
4.072428e+002, 5.850142e+001
4.077249e+002, 5.827215e+001
4.082071e+002, 5.819488e+001
4.086892e+002, 5.823197e+001
4.091713e+002, 5.815363e+001
4.096534e+002, 5.795638e+001
4.101355e+002, 5.765556e+001
4.106176e+002, 5.714227e+001
4.110998e+002, 5.648443e+001
4.115819e+002, 5.614161e+001
4.120640e+002, 5.630912e+001
4.125461e+002, 5.664997e+001
4.130282e+002, 5.657891e+001
4.135103e+002, 5.615713e+001
4.139925e+002, 5.574807e+001
4.144746e+002, 5.562568e+001
4.149567e+002, 5.562687e+001
4.154388e+002, 5.550133e+001
4.159209e+002, 5.522257e+001
4.164030e+002, 5.487171e+001
4.168852e+002, 5.446247e+001
4.173673e+002, 5.403306e+001
4.178494e+002, 5.364428e+001
4.183315e+002, 5.324625e+001
4.188136e+002, 5.295408e+001
4.192957e+002, 5.288300e+001
4.197779e+002, 5.300647e+001
4.202600e+002, 5.314183e+001
4.207421e+002, 5.330930e+001
4.212242e+002, 5.339511e+001
4.217063e+002, 5.330302e+001
4.221884e+002, 5.293713e+001
4.226706e+002, 5.254541e+001
4.231527e+002, 5.206536e+001
4.236348e+002, 5.161150e+001
4.241169e+002, 5.139445e+001
4.245990e+002, 5.174400e+001
4.250811e+002, 5.204443e+001
4.255633e+002, 5.206636e+001
4.260454e+002, 5.175014e+001
4.265275e+002, 5.156840e+001
4.270096e+002, 5.161689e+001
4.274917e+002, 5.172071e+001
4.279738e+002, 5.174946e+001
4.284560e+002, 5.173812e+001
4.289381e+002, 5.155621e+001
4.294202e+002, 5.107116e+001
4.299023e+002, 5.043201e+001
4.303844e+002, 5.018337e+001
4.308665e+002, 5.046454e+001
4.313487e+002, 5.074490e+001
4.318308e+002, 5.072551e+001
4.323129e+002, 5.038837e+001
4.327950e+002, 5.014779e+001
4.332771e+002, 5.002618e+001
4.337592e+002, 4.995559e+001
4.342414e+002, 4.984971e+001
4.347235e+002, 4.971181e+001
4.352056e+002, 4.957127e+001
4.356877e+002, 4.940544e+001
4.361698e+002, 4.926582e+001
4.366519e+002, 4.932186e+001
4.371341e+002, 4.956034e+001
4.376162e+002, 4.973984e+001
4.380983e+002, 4.965759e+001
4.385804e+002, 4.940395e+001
4.390625e+002, 4.911465e+001
4.395446e+002, 4.879156e+001
4.400268e+002, 4.850570e+001
4.405089e+002, 4.834203e+001
4.409910e+002, 4.826097e+001
4.414731e+002, 4.818389e+001
4.419552e+002, 4.811160e+001
4.424373e+002, 4.800155e+001
4.429195e+002, 4.777943e+001
4.434016e+002, 4.744944e+001
4.438837e+002, 4.720613e+001
4.443658e+002, 4.712630e+001
4.448479e+002, 4.716633e+001
4.453300e+002, 4.729942e+001
4.458122e+002, 4.770932e+001
4.462943e+002, 4.796345e+001
4.467764e+002, 4.788813e+001
4.472585e+002, 4.760219e+001
4.477406e+002, 4.741014e+001
4.482227e+002, 4.740945e+001
4.487049e+002, 4.742918e+001
4.491870e+002, 4.742862e+001
4.496691e+002, 4.740984e+001
4.501512e+002, 4.736323e+001
4.506333e+002, 4.730027e+001
4.511154e+002, 4.719928e+001
4.515976e+002, 4.701268e+001
4.520797e+002, 4.668211e+001
4.525618e+002, 4.647962e+001
4.530439e+002, 4.648953e+001
4.535260e+002, 4.663384e+001
4.540081e+002, 4.665509e+001
4.544903e+002, 4.653272e+001
4.549724e+002, 4.642321e+001
4.554545e+002, 4.642989e+001
4.559366e+002, 4.653416e+001
4.564187e+002, 4.661131e+001
4.569008e+002, 4.665844e+001
4.573830e+002, 4.666719e+001
4.578651e+002, 4.658170e+001
4.583472e+002, 4.644014e+001
4.588293e+002, 4.638300e+001
4.593114e+002, 4.654002e+001
4.597935e+002, 4.671443e+001
4.602757e+002, 4.658394e+001
4.607578e+002, 4.621371e+001
4.612399e+002, 4.593333e+001
4.617220e+002, 4.609820e+001
4.622041e+002, 4.636597e+001
4.626862e+002, 4.634944e+001
4.631684e+002, 4.590343e+001
4.636505e+002, 4.558397e+001
4.641326e+002, 4.584431e+001
4.646147e+002, 4.635161e+001
4.650968e+002, 4.667939e+001
4.655789e+002, 4.657649e+001
4.660611e+002, 4.639695e+001
4.665432e+002, 4.619111e+001
4.670253e+002, 4.597419e+001
4.675074e+002, 4.586036e+001
4.679895e+002, 4.595948e+001
4.684716e+002, 4.608790e+001
4.689538e+002, 4.615976e+001
4.694359e+002, 4.615228e+001
4.699180e+002, 4.613536e+001
4.704001e+002, 4.610284e+001
4.708822e+002, 4.606394e+001
4.713643e+002, 4.602058e+001
4.718465e+002, 4.594546e+001
4.723286e+002, 4.594966e+001
4.728107e+002, 4.609663e+001
4.732928e+002, 4.634808e+001
4.737749e+002, 4.650249e+001
4.742570e+002, 4.655795e+001
4.747392e+002, 4.651764e+001
4.752213e+002, 4.630273e+001
4.757034e+002, 4.595749e+001
4.761855e+002, 4.581548e+001
4.766676e+002, 4.594871e+001
4.771497e+002, 4.616353e+001
4.776319e+002, 4.618103e+001
4.781140e+002, 4.605808e+001
4.785961e+002, 4.597877e+001
4.790782e+002, 4.607148e+001
4.795603e+002, 4.622016e+001
4.800424e+002, 4.632880e+001
4.805246e+002, 4.638973e+001
4.810067e+002, 4.634031e+001
4.814888e+002, 4.600858e+001
4.819709e+002, 4.562286e+001
4.824530e+002, 4.538540e+001
4.829352e+002, 4.535535e+001
4.834173e+002, 4.542369e+001
4.838994e+002, 4.559444e+001
4.843815e+002, 4.582652e+001
4.848636e+002, 4.605567e+001
4.853457e+002, 4.635735e+001
4.858279e+002, 4.656144e+001
4.863100e+002, 4.659292e+001
4.867921e+002, 4.644980e+001
4.872742e+002, 4.632146e+001
4.877563e+002, 4.627346e+001
4.882384e+002, 4.617377e+001
4.887206e+002, 4.592240e+001
4.892027e+002, 4.539479e+001
4.896848e+002, 4.505989e+001
4.901669e+002, 4.495560e+001
4.906490e+002, 4.501165e+001
4.911311e+002, 4.516466e+001
4.916133e+002, 4.544346e+001
4.920954e+002, 4.559905e+001
4.925775e+002, 4.548118e+001
4.930596e+002, 4.520046e+001
4.935417e+002, 4.521043e+001
4.940238e+002, 4.551434e+001
4.945060e+002, 4.583868e+001
4.949881e+002, 4.600892e+001
4.954702e+002, 4.604036e+001
4.959523e+002, 4.596264e+001
4.964344e+002, 4.576774e+001
4.969165e+002, 4.551411e+001
4.973987e+002, 4.512532e+001
4.978808e+002, 4.473034e+001
4.983629e+002, 4.458088e+001
4.988450e+002, 4.515058e+001
4.993271e+002, 4.568788e+001
4.998092e+002, 4.554370e+001
5.002914e+002, 4.485747e+001
5.007735e+002, 4.441439e+001
5.012556e+002, 4.474571e+001
5.017377e+002, 4.523879e+001
5.022198e+002, 4.552583e+001
5.027019e+002, 4.547217e+001
5.031841e+002, 4.546211e+001
5.036662e+002, 4.564596e+001
5.041483e+002, 4.585526e+001
5.046304e+002, 4.588372e+001
5.051125e+002, 4.556913e+001
5.055946e+002, 4.533938e+001
5.060768e+002, 4.528802e+001
5.065589e+002, 4.537444e+001
5.070410e+002, 4.538841e+001
5.075231e+002, 4.530684e+001
5.080052e+002, 4.521650e+001
5.084873e+002, 4.514071e+001
5.089695e+002, 4.507970e+001
5.094516e+002, 4.511888e+001
5.099337e+002, 4.526797e+001
5.104158e+002, 4.547667e+001
5.108979e+002, 4.577180e+001
5.113800e+002, 4.610368e+001
5.118622e+002, 4.621380e+001
5.123443e+002, 4.594292e+001
5.128264e+002, 4.555330e+001
5.133085e+002, 4.536125e+001
5.137906e+002, 4.534251e+001
5.142728e+002, 4.540997e+001
5.147549e+002, 4.551620e+001
5.152370e+002, 4.568683e+001
5.157191e+002, 4.598290e+001
5.162012e+002, 4.641837e+001
5.166833e+002, 4.679974e+001
5.171655e+002, 4.701038e+001
5.176476e+002, 4.714643e+001
5.181297e+002, 4.728762e+001
5.186118e+002, 4.731834e+001
5.190939e+002, 4.752054e+001
5.195760e+002, 4.812407e+001
5.200582e+002, 4.891810e+001
5.205403e+002, 4.940962e+001
5.210224e+002, 4.935706e+001
5.215045e+002, 4.933023e+001
5.219866e+002, 4.948446e+001
5.224688e+002, 4.982034e+001
5.229509e+002, 5.018093e+001
5.234330e+002, 5.061271e+001
5.239151e+002, 5.096560e+001
5.243972e+002, 5.104204e+001
5.248793e+002, 5.083131e+001
5.253615e+002, 5.086558e+001
5.258436e+002, 5.122113e+001
5.263257e+002, 5.175188e+001
5.268078e+002, 5.231742e+001
5.272899e+002, 5.289104e+001
5.277720e+002, 5.333284e+001
5.282542e+002, 5.354802e+001
5.287363e+002, 5.362689e+001
5.292184e+002, 5.361506e+001
5.297005e+002, 5.354420e+001
5.301826e+002, 5.358629e+001
5.306647e+002, 5.393032e+001
5.311469e+002, 5.438305e+001
5.316290e+002, 5.477419e+001
5.321111e+002, 5.505722e+001
5.325932e+002, 5.538548e+001
5.330753e+002, 5.587083e+001
5.335574e+002, 5.641154e+001
5.340396e+002, 5.689396e+001
5.345217e+002, 5.730076e+001
5.350038e+002, 5.765173e+001
5.354859e+002, 5.791908e+001
5.359680e+002, 5.813363e+001
5.364501e+002, 5.840382e+001
5.369323e+002, 5.878988e+001
5.374144e+002, 5.912613e+001
5.378965e+002, 5.931438e+001
5.383786e+002, 5.934672e+001
5.388607e+002, 5.955471e+001
5.393428e+002, 5.998551e+001
5.398250e+002, 6.043909e+001
5.403071e+002, 6.068964e+001
5.407892e+002, 6.076152e+001
5.412713e+002, 6.092157e+001
5.417534e+002, 6.120834e+001
5.422355e+002, 6.159422e+001
5.427177e+002, 6.214225e+001
5.431998e+002, 6.277870e+001
5.436819e+002, 6.325332e+001
5.441640e+002, 6.335402e+001
5.446461e+002, 6.330452e+001
5.451282e+002, 6.320868e+001
5.456104e+002, 6.310400e+001
5.460925e+002, 6.320953e+001
5.465746e+002, 6.382310e+001
5.470567e+002, 6.455473e+001
5.475388e+002, 6.518724e+001
5.480209e+002, 6.572718e+001
5.485031e+002, 6.602632e+001
5.489852e+002, 6.569769e+001
5.494673e+002, 6.528476e+001
5.499494e+002, 6.538542e+001
5.504315e+002, 6.659822e+001
5.509136e+002, 6.738092e+001
5.513958e+002, 6.737621e+001
5.518779e+002, 6.688872e+001
5.523600e+002, 6.687309e+001
5.528421e+002, 6.747566e+001
5.533242e+002, 6.803197e+001
5.538063e+002, 6.821896e+001
5.542885e+002, 6.809641e+001
5.547706e+002, 6.816470e+001
5.552527e+002, 6.844095e+001
5.557348e+002, 6.872921e+001
5.562169e+002, 6.878938e+001
5.566990e+002, 6.873129e+001
5.571812e+002, 6.886757e+001
5.576633e+002, 6.928629e+001
5.581454e+002, 6.975513e+001
5.586275e+002, 7.007665e+001
5.591096e+002, 7.028713e+001
5.595917e+002, 7.045707e+001
5.600739e+002, 7.059075e+001
5.605560e+002, 7.071101e+001
5.610381e+002, 7.080983e+001
5.615202e+002, 7.089796e+001
5.620023e+002, 7.102556e+001
5.624844e+002, 7.124050e+001
5.629666e+002, 7.146693e+001
5.634487e+002, 7.165852e+001
5.639308e+002, 7.179274e+001
5.644129e+002, 7.200431e+001
5.648950e+002, 7.238719e+001
5.653771e+002, 7.274341e+001
5.658593e+002, 7.287721e+001
5.663414e+002, 7.270751e+001
5.668235e+002, 7.267775e+001
5.673056e+002, 7.287438e+001
5.677877e+002, 7.316196e+001
5.682698e+002, 7.326301e+001
5.687520e+002, 7.319270e+001
5.692341e+002, 7.319262e+001
5.697162e+002, 7.341006e+001
5.701983e+002, 7.371908e+001
5.706804e+002, 7.389082e+001
5.711625e+002, 7.393900e+001
5.716447e+002, 7.396022e+001
5.721268e+002, 7.400821e+001
5.726089e+002, 7.406670e+001
5.730910e+002, 7.412542e+001
5.735731e+002, 7.418708e+001
5.740552e+002, 7.422519e+001
5.745374e+002, 7.422436e+001
5.750195e+002, 7.419616e+001
5.755016e+002, 7.415128e+001
5.759837e+002, 7.389897e+001
5.764658e+002, 7.386996e+001
5.769479e+002, 7.430174e+001
5.774301e+002, 7.493191e+001
5.779122e+002, 7.523994e+001
5.783943e+002, 7.509661e+001
5.788764e+002, 7.488560e+001
5.793585e+002, 7.470619e+001
5.798406e+002, 7.454558e+001
5.803228e+002, 7.428752e+001
5.808049e+002, 7.390836e+001
5.812870e+002, 7.358483e+001
5.817691e+002, 7.340215e+001
5.822512e+002, 7.336906e+001
5.827333e+002, 7.358889e+001
5.832155e+002, 7.409961e+001
5.836975e+002, 7.456328e+001
5.841796e+002, 7.465744e+001
5.846617e+002, 7.449899e+001
5.851439e+002, 7.426981e+001
5.856260e+002, 7.397339e+001
5.861081e+002, 7.370472e+001
5.865902e+002, 7.355920e+001
5.870723e+002, 7.347840e+001
5.875544e+002, 7.335227e+001
5.880366e+002, 7.300908e+001
5.885187e+002, 7.275243e+001
5.890008e+002, 7.272980e+001
5.894829e+002, 7.292680e+001
5.899650e+002, 7.303467e+001
5.904471e+002, 7.306420e+001
5.909293e+002, 7.298412e+001
5.914114e+002, 7.274611e+001
5.918935e+002, 7.231124e+001
5.923756e+002, 7.199674e+001
5.928577e+002, 7.183212e+001
5.933398e+002, 7.170553e+001
5.938220e+002, 7.148606e+001
5.943041e+002, 7.118886e+001
5.947862e+002, 7.092440e+001
5.952683e+002, 7.070571e+001
5.957504e+002, 7.054658e+001
5.962325e+002, 7.049425e+001
5.967147e+002, 7.051596e+001
5.971968e+002, 7.052573e+001
5.976789e+002, 7.054676e+001
5.981610e+002, 7.049288e+001
5.986431e+002, 7.026907e+001
5.991252e+002, 6.990464e+001
5.996074e+002, 6.953373e+001
6.000895e+002, 6.911771e+001
6.005716e+002, 6.877660e+001
6.010537e+002, 6.859823e+001
6.015358e+002, 6.864126e+001
6.020179e+002, 6.860191e+001
6.025001e+002, 6.846060e+001
6.029822e+002, 6.825147e+001
6.034643e+002, 6.799077e+001
6.039464e+002, 6.765998e+001
6.044285e+002, 6.733804e+001
6.049106e+002, 6.701955e+001
6.053928e+002, 6.672459e+001
6.058749e+002, 6.651011e+001
6.063570e+002, 6.636443e+001
6.068391e+002, 6.613865e+001
6.073212e+002, 6.573336e+001
6.078033e+002, 6.529357e+001
6.082855e+002, 6.505471e+001
6.087676e+002, 6.497686e+001
6.092497e+002, 6.490529e+001
6.097318e+002, 6.476161e+001
6.102139e+002, 6.458550e+001
6.106960e+002, 6.441250e+001
6.111782e+002, 6.424294e+001
6.116603e+002, 6.404443e+001
6.121424e+002, 6.380764e+001
6.126245e+002, 6.353475e+001
6.131066e+002, 6.321849e+001
6.135887e+002, 6.280684e+001
6.140709e+002, 6.247259e+001
6.145530e+002, 6.226697e+001
6.150351e+002, 6.209101e+001
6.155172e+002, 6.183158e+001
6.159993e+002, 6.146506e+001
6.164814e+002, 6.111372e+001
6.169636e+002, 6.079646e+001
6.174457e+002, 6.050135e+001
6.179278e+002, 6.018878e+001
6.184099e+002, 5.986392e+001
6.188920e+002, 5.958518e+001
6.193741e+002, 5.941983e+001
6.198563e+002, 5.927810e+001
6.203384e+002, 5.899952e+001
6.208205e+002, 5.861348e+001
6.213026e+002, 5.826951e+001
6.217847e+002, 5.815850e+001
6.222668e+002, 5.804550e+001
6.227490e+002, 5.770109e+001
6.232311e+002, 5.707274e+001
6.237132e+002, 5.659756e+001
6.241953e+002, 5.655744e+001
6.246774e+002, 5.659931e+001
6.251595e+002, 5.647746e+001
6.256417e+002, 5.612352e+001
6.261238e+002, 5.572529e+001
6.266059e+002, 5.524251e+001
6.270880e+002, 5.476655e+001
6.275701e+002, 5.442898e+001
6.280522e+002, 5.424096e+001
6.285344e+002, 5.410850e+001
6.290165e+002, 5.406400e+001
6.294986e+002, 5.398669e+001
6.299807e+002, 5.359200e+001
6.304628e+002, 5.292559e+001
6.309449e+002, 5.225074e+001
6.314271e+002, 5.161156e+001
6.319092e+002, 5.107788e+001
6.323913e+002, 5.078065e+001
6.328734e+002, 5.068468e+001
6.333555e+002, 5.058050e+001
6.338376e+002, 5.032209e+001
6.343198e+002, 5.005241e+001
6.348019e+002, 4.990851e+001
6.352840e+002, 4.997247e+001
6.357661e+002, 4.977980e+001
6.362482e+002, 4.903584e+001
6.367303e+002, 4.822678e+001
6.372125e+002, 4.768225e+001
6.376946e+002, 4.747449e+001
6.381767e+002, 4.735630e+001
6.386588e+002, 4.739617e+001
6.391409e+002, 4.739101e+001
6.396230e+002, 4.694062e+001
6.401052e+002, 4.608460e+001
6.405873e+002, 4.547393e+001
6.410694e+002, 4.535654e+001
6.415515e+002, 4.542757e+001
6.420336e+002, 4.528504e+001
6.425157e+002, 4.496053e+001
6.429979e+002, 4.454047e+001
6.434800e+002, 4.382647e+001
6.439621e+002, 4.323581e+001
6.444442e+002, 4.324647e+001
6.449263e+002, 4.372944e+001
6.454084e+002, 4.391972e+001
6.458906e+002, 4.324054e+001
6.463727e+002, 4.250146e+001
6.468548e+002, 4.212634e+001
6.473369e+002, 4.219128e+001
6.478190e+002, 4.205965e+001
6.483011e+002, 4.165402e+001
6.487833e+002, 4.116938e+001
6.492654e+002, 4.074426e+001
6.497475e+002, 4.037619e+001
6.502296e+002, 4.002923e+001
6.507117e+002, 3.969239e+001
6.511938e+002, 3.940508e+001
6.516760e+002, 3.932015e+001
6.521581e+002, 3.933778e+001
6.526402e+002, 3.911185e+001
6.531223e+002, 3.842297e+001
6.536044e+002, 3.773654e+001
6.540865e+002, 3.753992e+001
6.545687e+002, 3.763075e+001
6.550508e+002, 3.761742e+001
6.555329e+002, 3.733191e+001
6.560150e+002, 3.693772e+001
6.564971e+002, 3.637438e+001
6.569792e+002, 3.571436e+001
6.574614e+002, 3.533003e+001
6.579435e+002, 3.547533e+001
6.584256e+002, 3.555463e+001
6.589077e+002, 3.534529e+001
6.593898e+002, 3.486226e+001
6.598719e+002, 3.447280e+001
6.603541e+002, 3.418151e+001
6.608362e+002, 3.396278e+001
6.613183e+002, 3.383657e+001
6.618004e+002, 3.377258e+001
6.622825e+002, 3.364718e+001
6.627646e+002, 3.345339e+001
6.632468e+002, 3.320505e+001
6.637289e+002, 3.284624e+001
6.642110e+002, 3.246720e+001
6.646931e+002, 3.219394e+001
6.651752e+002, 3.208555e+001
6.656573e+002, 3.200018e+001
6.661395e+002, 3.186227e+001
6.666216e+002, 3.171671e+001
6.671037e+002, 3.161865e+001
6.675858e+002, 3.172501e+001
6.680679e+002, 3.168059e+001
6.685500e+002, 3.140376e+001
6.690322e+002, 3.098491e+001
6.695143e+002, 3.061219e+001
6.699964e+002, 3.027776e+001
6.704785e+002, 3.001902e+001
6.709606e+002, 2.986015e+001
6.714427e+002, 2.977505e+001
6.719249e+002, 2.970998e+001
6.724070e+002, 2.966111e+001
6.728891e+002, 2.960015e+001
6.733712e+002, 2.950607e+001
6.738533e+002, 2.939377e+001
6.743354e+002, 2.929622e+001
6.748176e+002, 2.920798e+001
6.752997e+002, 2.907057e+001
6.757818e+002, 2.878531e+001
6.762639e+002, 2.849634e+001
6.767460e+002, 2.830586e+001
6.772281e+002, 2.826770e+001
6.777103e+002, 2.816611e+001
6.781924e+002, 2.789683e+001
6.786745e+002, 2.765996e+001
6.791566e+002, 2.763462e+001
6.796387e+002, 2.789499e+001
6.801208e+002, 2.801410e+001
6.806030e+002, 2.796650e+001
6.810851e+002, 2.778608e+001
6.815672e+002, 2.739333e+001
6.820493e+002, 2.687496e+001
6.825314e+002, 2.662074e+001
6.830135e+002, 2.680888e+001
6.834957e+002, 2.709623e+001
6.839778e+002, 2.714729e+001
6.844599e+002, 2.703429e+001
6.849420e+002, 2.689286e+001
6.854241e+002, 2.673299e+001
6.859063e+002, 2.659631e+001
6.863884e+002, 2.654728e+001
6.868705e+002, 2.654039e+001
6.873526e+002, 2.640802e+001
6.878347e+002, 2.597501e+001
6.883168e+002, 2.566268e+001
6.887990e+002, 2.563013e+001
6.892811e+002, 2.582314e+001
6.897632e+002, 2.587201e+001
6.902453e+002, 2.575733e+001
6.907274e+002, 2.563387e+001
6.912095e+002, 2.563480e+001
6.916917e+002, 2.569384e+001
6.921738e+002, 2.555708e+001
6.926559e+002, 2.523456e+001
6.931380e+002, 2.497828e+001
6.936201e+002, 2.509044e+001
6.941022e+002, 2.528868e+001
6.945844e+002, 2.524392e+001
6.950665e+002, 2.485679e+001
6.955486e+002, 2.462542e+001
6.960307e+002, 2.490025e+001
6.965128e+002, 2.528270e+001
6.969949e+002, 2.546033e+001
6.974771e+002, 2.536042e+001
6.979592e+002, 2.518557e+001
6.984413e+002, 2.488912e+001
6.989234e+002, 2.458017e+001
6.994055e+002, 2.440983e+001
6.998876e+002, 2.438150e+001
7.003698e+002, 2.431144e+001
7.008519e+002, 2.415140e+001
7.013340e+002, 2.398783e+001
7.018161e+002, 2.395703e+001
7.022982e+002, 2.402013e+001
7.027803e+002, 2.408295e+001
7.032625e+002, 2.415467e+001
7.037446e+002, 2.416069e+001
7.042267e+002, 2.400524e+001
7.047088e+002, 2.374965e+001
7.051909e+002, 2.352902e+001
7.056730e+002, 2.328554e+001
7.061552e+002, 2.319693e+001
7.066373e+002, 2.342148e+001
7.071194e+002, 2.384874e+001
7.076015e+002, 2.392068e+001
7.080836e+002, 2.349578e+001
7.085657e+002, 2.314446e+001
7.090479e+002, 2.313513e+001
7.095300e+002, 2.338111e+001
7.100121e+002, 2.354215e+001
7.104942e+002, 2.361785e+001
7.109763e+002, 2.360168e+001
7.114584e+002, 2.343401e+001
7.119406e+002, 2.320188e+001
7.124227e+002, 2.296979e+001
7.129048e+002, 2.274661e+001
7.133869e+002, 2.266218e+001
7.138690e+002, 2.300266e+001
7.143511e+002, 2.333965e+001
7.148333e+002, 2.335441e+001
7.153154e+002, 2.285537e+001
7.157975e+002, 2.255576e+001
7.162796e+002, 2.254819e+001
7.167617e+002, 2.262930e+001
7.172438e+002, 2.264024e+001
7.177260e+002, 2.257242e+001
7.182081e+002, 2.253739e+001
7.186902e+002, 2.255037e+001
7.191723e+002, 2.256273e+001
7.196544e+002, 2.248326e+001
7.201365e+002, 2.236015e+001
7.206187e+002, 2.233168e+001
7.211008e+002, 2.246433e+001
7.215829e+002, 2.258496e+001
7.220650e+002, 2.255059e+001
7.225471e+002, 2.242936e+001
7.230292e+002, 2.231164e+001
7.235114e+002, 2.221041e+001
7.239935e+002, 2.213270e+001
7.244756e+002, 2.213108e+001
7.249577e+002, 2.213442e+001
7.254398e+002, 2.199125e+001
7.259219e+002, 2.161124e+001
7.264041e+002, 2.136962e+001
7.268862e+002, 2.137021e+001
7.273683e+002, 2.153267e+001
7.278504e+002, 2.169927e+001
7.283325e+002, 2.186395e+001
7.288146e+002, 2.198374e+001
7.292968e+002, 2.202424e+001
7.297789e+002, 2.202097e+001
7.302610e+002, 2.203127e+001
7.307431e+002, 2.203507e+001
7.312252e+002, 2.196575e+001
7.317073e+002, 2.169210e+001
7.321895e+002, 2.143848e+001
7.326716e+002, 2.134087e+001
7.331537e+002, 2.138484e+001
7.336358e+002, 2.130081e+001
7.341179e+002, 2.094976e+001
7.346000e+002, 2.071159e+001
7.350822e+002, 2.080187e+001
7.355643e+002, 2.117321e+001
7.360464e+002, 2.133336e+001
7.365285e+002, 2.127421e+001
7.370106e+002, 2.116906e+001
7.374927e+002, 2.115455e+001
7.379749e+002, 2.117112e+001
7.384570e+002, 2.109882e+001
7.389391e+002, 2.093558e+001
7.394212e+002, 2.079213e+001
7.399033e+002, 2.072394e+001
7.403854e+002, 2.070718e+001
7.408676e+002, 2.073824e+001
7.413497e+002, 2.083845e+001
7.418318e+002, 2.089727e+001
7.423139e+002, 2.092341e+001
7.427960e+002, 2.089219e+001
7.432781e+002, 2.076505e+001
7.437603e+002, 2.051852e+001
7.442424e+002, 2.034698e+001
7.447245e+002, 2.026230e+001
7.452066e+002, 2.022328e+001
7.456887e+002, 2.018936e+001
7.461708e+002, 2.016612e+001
7.466530e+002, 2.016980e+001
7.471351e+002, 2.020502e+001
7.476172e+002, 2.025718e+001
7.480993e+002, 2.038151e+001
7.485814e+002, 2.048748e+001
7.490635e+002, 2.046617e+001
7.495457e+002, 2.016564e+001
7.500278e+002, 1.993936e+001
7.505099e+002, 1.983892e+001
7.509920e+002, 1.983073e+001
7.514741e+002, 1.989809e+001
7.519562e+002, 2.006688e+001
7.524384e+002, 2.019618e+001
7.529205e+002, 2.026096e+001
7.534026e+002, 2.028873e+001
7.538847e+002, 2.034404e+001
7.543668e+002, 2.040413e+001
7.548489e+002, 2.036419e+001
7.553311e+002, 2.012400e+001
7.558132e+002, 1.990224e+001
7.562953e+002, 1.994404e+001
7.567774e+002, 2.013077e+001
7.572595e+002, 2.025327e+001
7.577416e+002, 2.017017e+001
7.582238e+002, 2.010794e+001
7.587059e+002, 2.021056e+001
7.591880e+002, 2.034748e+001
7.596701e+002, 2.019759e+001
7.601522e+002, 1.962119e+001
7.606343e+002, 1.921505e+001
7.611165e+002, 1.916389e+001
7.615986e+002, 1.933661e+001
7.620807e+002, 1.942454e+001
7.625628e+002, 1.944267e+001
7.630449e+002, 1.947955e+001
7.635270e+002, 1.963703e+001
7.640092e+002, 1.977733e+001
7.644913e+002, 1.972644e+001
7.649734e+002, 1.954530e+001
7.654555e+002, 1.942339e+001
7.659376e+002, 1.950052e+001
7.664197e+002, 1.957351e+001
7.669019e+002, 1.953899e+001
7.673840e+002, 1.943356e+001
7.678661e+002, 1.945520e+001
7.683482e+002, 1.967206e+001
7.688303e+002, 1.981520e+001
7.693124e+002, 1.976295e+001
7.697946e+002, 1.955968e+001
7.702767e+002, 1.929498e+001
7.707588e+002, 1.898772e+001
7.712409e+002, 1.881404e+001
7.717230e+002, 1.899110e+001
7.722051e+002, 1.927608e+001
7.726873e+002, 1.944901e+001
7.731694e+002, 1.951104e+001
7.736515e+002, 1.952347e+001
7.741336e+002, 1.949993e+001
7.746157e+002, 1.943887e+001
7.750978e+002, 1.931098e+001
7.755800e+002, 1.912208e+001
7.760621e+002, 1.904286e+001
7.765442e+002, 1.911152e+001
7.770263e+002, 1.918169e+001
7.775084e+002, 1.916970e+001
7.779905e+002, 1.909202e+001
7.784727e+002, 1.902475e+001
7.789548e+002, 1.896691e+001
7.794369e+002, 1.890253e+001
7.799190e+002, 1.880225e+001
7.804011e+002, 1.870147e+001
7.808832e+002, 1.861113e+001
7.813654e+002, 1.853509e+001
7.818475e+002, 1.855268e+001
7.823296e+002, 1.883824e+001
7.828117e+002, 1.908811e+001
7.832938e+002, 1.914993e+001
7.837759e+002, 1.900867e+001
7.842581e+002, 1.882949e+001
7.847402e+002, 1.858206e+001
7.852223e+002, 1.839662e+001
7.857044e+002, 1.841639e+001
7.861865e+002, 1.857710e+001
7.866686e+002, 1.858808e+001
7.871508e+002, 1.844408e+001
7.876329e+002, 1.835296e+001
7.881150e+002, 1.859234e+001
7.885971e+002, 1.888207e+001
7.890792e+002, 1.889933e+001
7.895613e+002, 1.856894e+001
7.900435e+002, 1.837243e+001
7.905256e+002, 1.860472e+001
7.910077e+002, 1.884037e+001
7.914898e+002, 1.883084e+001
7.919719e+002, 1.852094e+001
7.924540e+002, 1.835789e+001
7.929362e+002, 1.836136e+001
7.934183e+002, 1.844022e+001
7.939004e+002, 1.855269e+001
7.943825e+002, 1.867875e+001
7.948646e+002, 1.876930e+001
7.953467e+002, 1.882194e+001
7.958289e+002, 1.881109e+001
7.963110e+002, 1.865559e+001
7.967931e+002, 1.847117e+001
7.972752e+002, 1.835404e+001
7.977573e+002, 1.832257e+001
7.982394e+002, 1.833300e+001
7.987216e+002, 1.844375e+001
7.992037e+002, 1.852506e+001
7.996858e+002, 1.847225e+001
8.001679e+002, 1.825533e+001
8.006500e+002, 1.813148e+001
8.011321e+002, 1.809951e+001
8.016143e+002, 1.815581e+001
8.020964e+002, 1.841252e+001
8.025785e+002, 1.872202e+001
8.030606e+002, 1.874570e+001
8.035427e+002, 1.842550e+001
8.040248e+002, 1.815068e+001
8.045070e+002, 1.818190e+001
8.049891e+002, 1.832731e+001
8.054712e+002, 1.846047e+001
8.059533e+002, 1.859648e+001
8.064354e+002, 1.860549e+001
8.069175e+002, 1.841566e+001
8.073997e+002, 1.820302e+001
8.078818e+002, 1.810504e+001
8.083639e+002, 1.811951e+001
8.088460e+002, 1.809694e+001
8.093281e+002, 1.802744e+001
8.098102e+002, 1.798203e+001
8.102924e+002, 1.804124e+001
8.107745e+002, 1.815645e+001
8.112566e+002, 1.829398e+001
8.117387e+002, 1.846146e+001
8.122208e+002, 1.850991e+001
8.127029e+002, 1.822466e+001
8.131851e+002, 1.791373e+001
8.136672e+002, 1.780902e+001
8.141493e+002, 1.797879e+001
8.146314e+002, 1.806192e+001
8.151135e+002, 1.803912e+001
8.155956e+002, 1.797594e+001
8.160778e+002, 1.789409e+001
8.165599e+002, 1.781112e+001
8.170420e+002, 1.782602e+001
8.175241e+002, 1.794567e+001
8.180062e+002, 1.808511e+001
8.184883e+002, 1.823680e+001
8.189705e+002, 1.833998e+001
8.194526e+002, 1.830962e+001
8.199347e+002, 1.811443e+001
8.204168e+002, 1.795520e+001
8.208989e+002, 1.794572e+001
8.213810e+002, 1.791376e+001
8.218632e+002, 1.772968e+001
8.223453e+002, 1.735438e+001
8.228274e+002, 1.726029e+001
8.233095e+002, 1.749135e+001
8.237916e+002, 1.774544e+001
8.242737e+002, 1.773897e+001
8.247559e+002, 1.759551e+001
8.252380e+002, 1.757273e+001
8.257201e+002, 1.768343e+001
8.262022e+002, 1.779971e+001
8.266843e+002, 1.794301e+001
8.271664e+002, 1.798776e+001
8.276486e+002, 1.777573e+001
8.281307e+002, 1.722377e+001
8.286128e+002, 1.696634e+001
8.290949e+002, 1.711568e+001
8.295770e+002, 1.736691e+001
8.300591e+002, 1.759739e+001
8.305413e+002, 1.779710e+001
8.310234e+002, 1.783430e+001
8.315055e+002, 1.771094e+001
8.319876e+002, 1.758719e+001
8.324697e+002, 1.760803e+001
8.329518e+002, 1.766878e+001
8.334340e+002, 1.764120e+001
8.339161e+002, 1.752573e+001
8.343982e+002, 1.743773e+001
8.348803e+002, 1.742038e+001
8.353624e+002, 1.743941e+001
8.358445e+002, 1.750550e+001
8.363267e+002, 1.761238e+001
8.368088e+002, 1.757798e+001
8.372909e+002, 1.736094e+001
8.377730e+002, 1.719535e+001
8.382551e+002, 1.726893e+001
8.387372e+002, 1.747064e+001
8.392194e+002, 1.748869e+001
8.397015e+002, 1.735720e+001
8.401836e+002, 1.727346e+001
8.406657e+002, 1.736668e+001
8.411478e+002, 1.752914e+001
8.416299e+002, 1.775605e+001
8.421121e+002, 1.802075e+001
8.425942e+002, 1.811837e+001
8.430763e+002, 1.797218e+001
8.435584e+002, 1.778292e+001
8.440405e+002, 1.760008e+001
8.445226e+002, 1.742598e+001
8.450048e+002, 1.724851e+001
8.454869e+002, 1.707285e+001
8.459690e+002, 1.698127e+001
8.464511e+002, 1.707239e+001
8.469332e+002, 1.722087e+001
8.474153e+002, 1.730107e+001
8.478975e+002, 1.732780e+001
8.483796e+002, 1.734272e+001
8.488617e+002, 1.734045e+001
8.493438e+002, 1.735351e+001
8.498259e+002, 1.742790e+001
8.503080e+002, 1.751522e+001
8.507902e+002, 1.746060e+001
8.512723e+002, 1.722989e+001
8.517544e+002, 1.706711e+001
8.522365e+002, 1.704549e+001
8.527186e+002, 1.712226e+001
8.532007e+002, 1.727318e+001
8.536829e+002, 1.746172e+001
8.541650e+002, 1.758923e+001
8.546471e+002, 1.759780e+001
8.551292e+002, 1.756263e+001
8.556113e+002, 1.751377e+001
8.560934e+002, 1.744594e+001
8.565756e+002, 1.734178e+001
8.570577e+002, 1.714089e+001
8.575398e+002, 1.703071e+001
8.580219e+002, 1.704438e+001
8.585040e+002, 1.713377e+001
8.589861e+002, 1.724893e+001
8.594683e+002, 1.737860e+001
8.599504e+002, 1.745994e+001
8.604325e+002, 1.747739e+001
8.609146e+002, 1.744299e+001
8.613967e+002, 1.732449e+001
8.618788e+002, 1.717905e+001
8.623610e+002, 1.707243e+001
8.628431e+002, 1.699054e+001
8.633252e+002, 1.701692e+001
8.638073e+002, 1.727903e+001
8.642894e+002, 1.752271e+001
8.647715e+002, 1.744822e+001
8.652537e+002, 1.703330e+001
8.657358e+002, 1.676853e+001
8.662179e+002, 1.669877e+001
8.667000e+002, 1.670779e+001
8.671821e+002, 1.670540e+001
8.676642e+002, 1.669433e+001
8.681464e+002, 1.665273e+001
8.686285e+002, 1.655806e+001
8.691106e+002, 1.657427e+001
8.695927e+002, 1.695032e+001
8.700748e+002, 1.730350e+001
8.705569e+002, 1.734346e+001
8.710391e+002, 1.699242e+001
8.715212e+002, 1.689542e+001
8.720033e+002, 1.711348e+001
8.724854e+002, 1.734320e+001
8.729675e+002, 1.733914e+001
8.734496e+002, 1.717851e+001
8.739318e+002, 1.699922e+001
8.744139e+002, 1.681660e+001
8.748960e+002, 1.673586e+001
8.753781e+002, 1.697961e+001
8.758602e+002, 1.720571e+001
8.763423e+002, 1.714076e+001
8.768245e+002, 1.677887e+001
8.773066e+002, 1.662329e+001
8.777887e+002, 1.676382e+001
8.782708e+002, 1.690924e+001
8.787529e+002, 1.694113e+001
8.792350e+002, 1.689122e+001
8.797172e+002, 1.685403e+001
8.801993e+002, 1.683047e+001
8.806814e+002, 1.682070e+001
8.811635e+002, 1.684789e+001
8.816456e+002, 1.686848e+001
8.821277e+002, 1.683974e+001
8.826099e+002, 1.677722e+001
8.830920e+002, 1.672734e+001
8.835741e+002, 1.666950e+001
8.840562e+002, 1.667642e+001
8.845383e+002, 1.681207e+001
8.850204e+002, 1.697438e+001
8.855026e+002, 1.687947e+001
8.859847e+002, 1.655129e+001
8.864668e+002, 1.636654e+001
8.869489e+002, 1.647606e+001
8.874310e+002, 1.666994e+001
8.879131e+002, 1.676997e+001
8.883953e+002, 1.678374e+001
8.888774e+002, 1.672081e+001
8.893595e+002, 1.651797e+001
8.898416e+002, 1.633567e+001
8.903237e+002, 1.614678e+001
8.908058e+002, 1.602845e+001
8.912880e+002, 1.608861e+001
8.917701e+002, 1.634447e+001
8.922522e+002, 1.658278e+001
8.927343e+002, 1.680183e+001
8.932164e+002, 1.690965e+001
8.936985e+002, 1.667793e+001
8.941807e+002, 1.632953e+001
8.946628e+002, 1.622010e+001
8.951449e+002, 1.644336e+001
8.956270e+002, 1.661648e+001
8.961091e+002, 1.657718e+001
8.965912e+002, 1.646441e+001
8.970734e+002, 1.634702e+001
8.975555e+002, 1.622019e+001
8.980376e+002, 1.616898e+001
8.985197e+002, 1.620249e+001
8.990018e+002, 1.626031e+001
8.994839e+002, 1.631850e+001
8.999661e+002, 1.636495e+001
9.004482e+002, 1.637605e+001
9.009303e+002, 1.635331e+001
9.014124e+002, 1.630857e+001
9.018945e+002, 1.617124e+001
9.023766e+002, 1.608766e+001
9.028588e+002, 1.616975e+001
9.033409e+002, 1.637376e+001
9.038230e+002, 1.651868e+001
9.043051e+002, 1.661616e+001
9.047872e+002, 1.659891e+001
9.052693e+002, 1.639576e+001
9.057515e+002, 1.612416e+001
9.062336e+002, 1.600305e+001
9.067157e+002, 1.601241e+001
9.071978e+002, 1.609794e+001
9.076799e+002, 1.634078e+001
9.081620e+002, 1.652313e+001
9.086442e+002, 1.646001e+001
9.091263e+002, 1.630373e+001
9.096084e+002, 1.633352e+001
9.100905e+002, 1.671688e+001
9.105726e+002, 1.681641e+001
9.110547e+002, 1.650102e+001
9.115369e+002, 1.606967e+001
9.120190e+002, 1.590630e+001
9.125011e+002, 1.594732e+001
9.129832e+002, 1.604285e+001
9.134653e+002, 1.618622e+001
9.139474e+002, 1.625133e+001
9.144296e+002, 1.606967e+001
9.149117e+002, 1.583411e+001
9.153938e+002, 1.570782e+001
9.158759e+002, 1.571693e+001
9.163580e+002, 1.577425e+001
9.168401e+002, 1.589402e+001
9.173223e+002, 1.602611e+001
9.178044e+002, 1.618022e+001
9.182865e+002, 1.631796e+001
9.187686e+002, 1.625469e+001
9.192507e+002, 1.601192e+001
9.197328e+002, 1.579539e+001
9.202150e+002, 1.573347e+001
9.206971e+002, 1.573913e+001
9.211792e+002, 1.578157e+001
9.216613e+002, 1.585061e+001
9.221434e+002, 1.588949e+001
9.226255e+002, 1.588914e+001
9.231077e+002, 1.587948e+001
9.235898e+002, 1.587212e+001
9.240719e+002, 1.585739e+001
9.245540e+002, 1.578306e+001
9.250361e+002, 1.567407e+001
9.255182e+002, 1.564284e+001
9.260004e+002, 1.580637e+001
9.264825e+002, 1.593324e+001
9.269646e+002, 1.581558e+001
9.274467e+002, 1.559080e+001
9.279288e+002, 1.546702e+001
9.284109e+002, 1.546408e+001
9.288931e+002, 1.557195e+001
9.293752e+002, 1.586137e+001
9.298573e+002, 1.611357e+001
9.303394e+002, 1.598798e+001
9.308215e+002, 1.561200e+001
9.313036e+002, 1.547013e+001
9.317858e+002, 1.563242e+001
9.322679e+002, 1.581694e+001
9.327500e+002, 1.589438e+001
9.332321e+002, 1.586606e+001
9.337142e+002, 1.567883e+001
9.341964e+002, 1.529088e+001
9.346785e+002, 1.513164e+001
9.351606e+002, 1.529078e+001
9.356427e+002, 1.546168e+001
9.361248e+002, 1.546637e+001
9.366069e+002, 1.536473e+001
9.370891e+002, 1.539623e+001
9.375712e+002, 1.552357e+001
9.380533e+002, 1.555641e+001
9.385354e+002, 1.522806e+001
9.390175e+002, 1.493824e+001
9.394996e+002, 1.497956e+001
9.399818e+002, 1.523689e+001
9.404639e+002, 1.536885e+001
9.409460e+002, 1.533184e+001
9.414281e+002, 1.523711e+001
9.419102e+002, 1.506145e+001
9.423923e+002, 1.491795e+001
9.428745e+002, 1.509919e+001
9.433566e+002, 1.546395e+001
9.438387e+002, 1.554700e+001
9.443208e+002, 1.513439e+001
9.448029e+002, 1.481112e+001
9.452850e+002, 1.504097e+001
9.457672e+002, 1.543176e+001
9.462493e+002, 1.561489e+001
9.467314e+002, 1.554038e+001
9.472135e+002, 1.540246e+001
9.476956e+002, 1.516960e+001
9.481777e+002, 1.498195e+001
9.486599e+002, 1.497908e+001
9.491420e+002, 1.509764e+001
9.496241e+002, 1.521856e+001
9.501062e+002, 1.532906e+001
9.505883e+002, 1.536721e+001
9.510704e+002, 1.519270e+001
9.515526e+002, 1.504160e+001
9.520347e+002, 1.508921e+001
9.525168e+002, 1.526622e+001
9.529989e+002, 1.529431e+001
9.534810e+002, 1.513362e+001
9.539631e+002, 1.501246e+001
9.544453e+002, 1.499991e+001
9.549274e+002, 1.505301e+001
9.554095e+002, 1.515790e+001
9.558916e+002, 1.526566e+001
9.563737e+002, 1.526002e+001
9.568558e+002, 1.500415e+001
9.573380e+002, 1.482082e+001
9.578201e+002, 1.490918e+001
9.583022e+002, 1.505993e+001
9.587843e+002, 1.505160e+001
9.592664e+002, 1.482301e+001
9.597485e+002, 1.483115e+001
9.602307e+002, 1.512457e+001
9.607128e+002, 1.539185e+001
9.611949e+002, 1.530422e+001
9.616770e+002, 1.504432e+001
9.621591e+002, 1.485500e+001
9.626412e+002, 1.475108e+001
9.631234e+002, 1.468347e+001
9.636055e+002, 1.458798e+001
9.640876e+002, 1.458739e+001
9.645697e+002, 1.478322e+001
9.650518e+002, 1.509868e+001
9.655339e+002, 1.517966e+001
9.660161e+002, 1.502581e+001
9.664982e+002, 1.483036e+001
9.669803e+002, 1.461716e+001
9.674624e+002, 1.447717e+001
9.679445e+002, 1.457436e+001
9.684266e+002, 1.480194e+001
9.689088e+002, 1.498151e+001
9.693909e+002, 1.506942e+001
9.698730e+002, 1.509646e+001
9.703551e+002, 1.504913e+001
9.708372e+002, 1.496757e+001
9.713193e+002, 1.487481e+001
9.718015e+002, 1.477763e+001
9.722836e+002, 1.472729e+001
9.727657e+002, 1.472794e+001
9.732478e+002, 1.478926e+001
9.737299e+002, 1.501773e+001
9.742120e+002, 1.523628e+001
9.746942e+002, 1.527449e+001
9.751763e+002, 1.511776e+001
9.756584e+002, 1.499984e+001
9.761405e+002, 1.495769e+001
9.766226e+002, 1.489232e+001
9.771047e+002, 1.474439e+001
9.775869e+002, 1.456696e+001
9.780690e+002, 1.451478e+001
9.785511e+002, 1.456688e+001
9.790332e+002, 1.464374e+001
9.795153e+002, 1.472236e+001
9.799974e+002, 1.480569e+001
9.804796e+002, 1.494996e+001
9.809617e+002, 1.507385e+001
9.814438e+002, 1.505954e+001
9.819259e+002, 1.485295e+001
9.824080e+002, 1.466384e+001
9.828901e+002, 1.449505e+001
9.833723e+002, 1.436772e+001
9.838544e+002, 1.430076e+001
9.843365e+002, 1.429135e+001
9.848186e+002, 1.436071e+001
9.853007e+002, 1.450688e+001
9.857828e+002, 1.461336e+001
9.862650e+002, 1.461192e+001
9.867471e+002, 1.457626e+001
9.872292e+002, 1.453166e+001
9.877113e+002, 1.448208e+001
9.881934e+002, 1.444984e+001
9.886755e+002, 1.443543e+001
9.891577e+002, 1.442173e+001
9.896398e+002, 1.439325e+001
9.901219e+002, 1.437716e+001
9.906040e+002, 1.444500e+001
9.910861e+002, 1.453792e+001
9.915682e+002, 1.455443e+001
9.920504e+002, 1.434170e+001
9.925325e+002, 1.424988e+001
9.930146e+002, 1.436358e+001
9.934967e+002, 1.452334e+001
9.939788e+002, 1.458744e+001
9.944609e+002, 1.456296e+001
9.949431e+002, 1.450288e+001
9.954252e+002, 1.440996e+001
9.959073e+002, 1.430771e+001
9.963894e+002, 1.420889e+001
9.968715e+002, 1.411014e+001
9.973536e+002, 1.395359e+001
9.978358e+002, 1.376588e+001
9.983179e+002, 1.382094e+001
9.988000e+002, 1.427426e+001
9.992821e+002, 1.455563e+001
9.997642e+002, 1.443825e+001
1.000246e+003, 1.414704e+001
1.000728e+003, 1.416347e+001
1.001211e+003, 1.437643e+001
1.001693e+003, 1.450125e+001
1.002175e+003, 1.442935e+001
1.002657e+003, 1.430521e+001
1.003139e+003, 1.410307e+001
1.003621e+003, 1.394040e+001
1.004103e+003, 1.393876e+001
1.004585e+003, 1.413931e+001
1.005068e+003, 1.427260e+001
1.005550e+003, 1.434070e+001
1.006032e+003, 1.432944e+001
1.006514e+003, 1.413191e+001
1.006996e+003, 1.391151e+001
1.007478e+003, 1.392474e+001
1.007960e+003, 1.412631e+001
1.008442e+003, 1.422061e+001
1.008924e+003, 1.396322e+001
1.009407e+003, 1.381152e+001
1.009889e+003, 1.391988e+001
1.010371e+003, 1.412420e+001
1.010853e+003, 1.401187e+001
1.011335e+003, 1.364942e+001
1.011817e+003, 1.350698e+001
1.012299e+003, 1.373401e+001
1.012781e+003, 1.401268e+001
1.013263e+003, 1.414864e+001
1.013746e+003, 1.419426e+001
1.014228e+003, 1.419246e+001
1.014710e+003, 1.414425e+001
1.015192e+003, 1.406845e+001
1.015674e+003, 1.394999e+001
1.016156e+003, 1.385504e+001
1.016638e+003, 1.383213e+001
1.017120e+003, 1.385555e+001
1.017603e+003, 1.385996e+001
1.018085e+003, 1.385936e+001
1.018567e+003, 1.390349e+001
1.019049e+003, 1.411692e+001
1.019531e+003, 1.424981e+001
1.020013e+003, 1.415537e+001
1.020495e+003, 1.398914e+001
1.020977e+003, 1.401118e+001
1.021459e+003, 1.422869e+001
1.021942e+003, 1.428696e+001
1.022424e+003, 1.412537e+001
1.022906e+003, 1.392699e+001
1.023388e+003, 1.383882e+001
1.023870e+003, 1.381386e+001
1.024352e+003, 1.380884e+001
1.024834e+003, 1.381938e+001
1.025316e+003, 1.385868e+001
1.025799e+003, 1.395205e+001
1.026281e+003, 1.402027e+001
1.026763e+003, 1.401925e+001
1.027245e+003, 1.398302e+001
1.027727e+003, 1.401567e+001
1.028209e+003, 1.409237e+001
1.028691e+003, 1.412896e+001
1.029173e+003, 1.407689e+001
1.029656e+003, 1.400297e+001
1.030138e+003, 1.393906e+001
1.030620e+003, 1.386715e+001
1.031102e+003, 1.376590e+001
1.031584e+003, 1.362815e+001
1.032066e+003, 1.348404e+001
1.032548e+003, 1.332717e+001
1.033030e+003, 1.322196e+001
1.033512e+003, 1.325116e+001
1.033995e+003, 1.334334e+001
1.034477e+003, 1.343109e+001
1.034959e+003, 1.350700e+001
1.035441e+003, 1.355263e+001
1.035923e+003, 1.348042e+001
1.036405e+003, 1.351877e+001
1.036887e+003, 1.378004e+001
1.037369e+003, 1.409582e+001
1.037851e+003, 1.409878e+001
1.038334e+003, 1.386598e+001
1.038816e+003, 1.369432e+001
1.039298e+003, 1.365935e+001
1.039780e+003, 1.364940e+001
1.040262e+003, 1.358834e+001
1.040744e+003, 1.352961e+001
1.041226e+003, 1.351468e+001
1.041708e+003, 1.354449e+001
1.042191e+003, 1.361440e+001
1.042673e+003, 1.373513e+001
1.043155e+003, 1.381254e+001
1.043637e+003, 1.380128e+001
1.044119e+003, 1.371344e+001
1.044601e+003, 1.343427e+001
1.045083e+003, 1.310288e+001
1.045565e+003, 1.304698e+001
1.046047e+003, 1.385115e+001
1.046530e+003, 1.418781e+001
1.047012e+003, 1.373091e+001
1.047494e+003, 1.309996e+001
1.047976e+003, 1.304859e+001
1.048458e+003, 1.344267e+001
1.048940e+003, 1.362682e+001
1.049422e+003, 1.355611e+001
1.049904e+003, 1.346309e+001
1.050386e+003, 1.353196e+001
1.050869e+003, 1.358742e+001
1.051351e+003, 1.346270e+001
1.051833e+003, 1.322630e+001
1.052315e+003, 1.319843e+001
1.052797e+003, 1.342051e+001
1.053279e+003, 1.351918e+001
1.053761e+003, 1.335584e+001
1.054243e+003, 1.313533e+001
1.054726e+003, 1.307470e+001
1.055208e+003, 1.314036e+001
1.055690e+003, 1.332605e+001
1.056172e+003, 1.374660e+001
1.056654e+003, 1.387352e+001
1.057136e+003, 1.351521e+001
1.057618e+003, 1.315254e+001
1.058100e+003, 1.308291e+001
1.058583e+003, 1.323851e+001
1.059065e+003, 1.339530e+001
1.059547e+003, 1.354328e+001
1.060029e+003, 1.363660e+001
1.060511e+003, 1.360227e+001
1.060993e+003, 1.356256e+001
1.061475e+003, 1.359661e+001
1.061957e+003, 1.363946e+001
1.062439e+003, 1.358128e+001
1.062922e+003, 1.339966e+001
1.063404e+003, 1.333775e+001
1.063886e+003, 1.342631e+001
1.064368e+003, 1.352402e+001
1.064850e+003, 1.350902e+001
1.065332e+003, 1.343802e+001
1.065814e+003, 1.336611e+001
1.066296e+003, 1.329575e+001
1.066778e+003, 1.318478e+001
1.067261e+003, 1.295355e+001
1.067743e+003, 1.286522e+001
1.068225e+003, 1.303982e+001
1.068707e+003, 1.330183e+001
1.069189e+003, 1.330019e+001
1.069671e+003, 1.313196e+001
1.070153e+003, 1.302868e+001
1.070635e+003, 1.306761e+001
1.071118e+003, 1.309652e+001
1.071600e+003, 1.302390e+001
1.072082e+003, 1.295348e+001
1.072564e+003, 1.295193e+001
1.073046e+003, 1.301169e+001
1.073528e+003, 1.302056e+001
1.074010e+003, 1.298475e+001
1.074492e+003, 1.299427e+001
1.074974e+003, 1.316016e+001
1.075457e+003, 1.331729e+001
1.075939e+003, 1.333677e+001
1.076421e+003, 1.326629e+001
1.076903e+003, 1.318412e+001
1.077385e+003, 1.309129e+001
1.077867e+003, 1.300413e+001
1.078349e+003, 1.292486e+001
1.078831e+003, 1.284606e+001
1.079313e+003, 1.271190e+001
1.079796e+003, 1.260022e+001
1.080278e+003, 1.266667e+001
1.080760e+003, 1.288930e+001
1.081242e+003, 1.306899e+001
1.081724e+003, 1.318416e+001
1.082206e+003, 1.317741e+001
1.082688e+003, 1.297967e+001
1.083170e+003, 1.272366e+001
1.083652e+003, 1.266433e+001
1.084135e+003, 1.276012e+001
1.084617e+003, 1.286445e+001
1.085099e+003, 1.295315e+001
1.085581e+003, 1.302328e+001
1.086063e+003, 1.310303e+001
1.086545e+003, 1.313180e+001
1.087027e+003, 1.303622e+001
1.087509e+003, 1.284174e+001
1.087992e+003, 1.284012e+001
1.088474e+003, 1.303430e+001
1.088956e+003, 1.316586e+001
1.089438e+003, 1.309125e+001
1.089920e+003, 1.297898e+001
1.090402e+003, 1.296535e+001
1.090884e+003, 1.302976e+001
1.091366e+003, 1.316307e+001
1.091849e+003, 1.346103e+001
1.092331e+003, 1.354451e+001
1.092813e+003, 1.337098e+001
1.093295e+003, 1.312674e+001
1.093777e+003, 1.287995e+001
1.094259e+003, 1.268889e+001
1.094741e+003, 1.272132e+001
1.095223e+003, 1.291139e+001
1.095705e+003, 1.302731e+001
1.096188e+003, 1.285636e+001
1.096670e+003, 1.278431e+001
1.097152e+003, 1.291849e+001
1.097634e+003, 1.311263e+001
1.098116e+003, 1.319288e+001
1.098598e+003, 1.316940e+001
1.099080e+003, 1.305634e+001
1.099562e+003, 1.285743e+001
1.100044e+003, 1.271622e+001
1.100527e+003, 1.279667e+001
1.101009e+003, 1.288371e+001
1.101491e+003, 1.288008e+001
1.101973e+003, 1.278801e+001
1.102455e+003, 1.255101e+001
1.102937e+003, 1.216471e+001
1.103419e+003, 1.198203e+001
1.103901e+003, 1.212477e+001
1.104384e+003, 1.235871e+001
1.104866e+003, 1.251554e+001
1.105348e+003, 1.261048e+001
1.105830e+003, 1.266359e+001
1.106312e+003, 1.267927e+001
1.106794e+003, 1.257994e+001
1.107276e+003, 1.231115e+001
1.107758e+003, 1.214752e+001
1.108240e+003, 1.225102e+001
1.108723e+003, 1.248372e+001
1.109205e+003, 1.267896e+001
1.109687e+003, 1.282798e+001
1.110169e+003, 1.291491e+001
1.110651e+003, 1.291905e+001
1.111133e+003, 1.287835e+001
1.111615e+003, 1.275134e+001
1.112097e+003, 1.266287e+001
1.112579e+003, 1.274680e+001
1.113062e+003, 1.294368e+001
1.113544e+003, 1.304956e+001
1.114026e+003, 1.307389e+001
1.114508e+003, 1.306730e+001
1.114990e+003, 1.310162e+001
1.115472e+003, 1.304249e+001
1.115954e+003, 1.274270e+001
1.116436e+003, 1.241994e+001
1.116919e+003, 1.241081e+001
1.117401e+003, 1.268392e+001
1.117883e+003, 1.275998e+001
1.118365e+003, 1.259701e+001
1.118847e+003, 1.246572e+001
1.119329e+003, 1.267405e+001
1.119811e+003, 1.287264e+001
1.120293e+003, 1.275334e+001
1.120776e+003, 1.243168e+001
1.121258e+003, 1.231146e+001
1.121740e+003, 1.240530e+001
1.122222e+003, 1.262004e+001
1.122704e+003, 1.298845e+001
1.123186e+003, 1.324297e+001
1.123668e+003, 1.298402e+001
1.124150e+003, 1.255067e+001
1.124632e+003, 1.231438e+001
1.125115e+003, 1.234277e+001
1.125597e+003, 1.226319e+001
1.126079e+003, 1.199879e+001
1.126561e+003, 1.188420e+001
1.127043e+003, 1.211445e+001
1.127525e+003, 1.245238e+001
1.128007e+003, 1.249836e+001
1.128489e+003, 1.237597e+001
1.128971e+003, 1.229327e+001
1.129454e+003, 1.231051e+001
1.129936e+003, 1.235196e+001
1.130418e+003, 1.244843e+001
1.130900e+003, 1.249246e+001
1.131382e+003, 1.239040e+001
1.131864e+003, 1.219843e+001
1.132346e+003, 1.203774e+001
1.132828e+003, 1.193045e+001
1.133311e+003, 1.194964e+001
1.133793e+003, 1.227204e+001
1.134275e+003, 1.253314e+001
1.134757e+003, 1.266580e+001
1.135239e+003, 1.269547e+001
1.135721e+003, 1.262673e+001
1.136203e+003, 1.246713e+001
1.136685e+003, 1.221423e+001
1.137167e+003, 1.189042e+001
1.137650e+003, 1.173282e+001
1.138132e+003, 1.208303e+001
1.138614e+003, 1.241543e+001
1.139096e+003, 1.243784e+001
1.139578e+003, 1.229376e+001
1.140060e+003, 1.218935e+001
1.140542e+003, 1.212417e+001
1.141024e+003, 1.209264e+001
1.141506e+003, 1.209466e+001
1.141989e+003, 1.212372e+001
1.142471e+003, 1.221426e+001
1.142953e+003, 1.229551e+001
1.143435e+003, 1.232655e+001
1.143917e+003, 1.230015e+001
1.144399e+003, 1.217090e+001
1.144881e+003, 1.190210e+001
1.145363e+003, 1.180704e+001
1.145846e+003, 1.198460e+001
1.146328e+003, 1.222715e+001
1.146810e+003, 1.237611e+001
1.147292e+003, 1.242192e+001
1.147774e+003, 1.231111e+001
1.148256e+003, 1.202171e+001
1.148738e+003, 1.186768e+001
1.149220e+003, 1.188655e+001
1.149703e+003, 1.191686e+001
1.150185e+003, 1.188925e+001
1.150667e+003, 1.187120e+001
1.151149e+003, 1.200453e+001
1.151631e+003, 1.220056e+001
1.152113e+003, 1.231635e+001
1.152595e+003, 1.230060e+001
1.153077e+003, 1.227202e+001
1.153559e+003, 1.222983e+001
1.154042e+003, 1.220482e+001
1.154524e+003, 1.225154e+001
1.155006e+003, 1.229397e+001
1.155488e+003, 1.209145e+001
1.155970e+003, 1.175198e+001
1.156452e+003, 1.154886e+001
1.156934e+003, 1.166741e+001
1.157416e+003, 1.174634e+001
1.157898e+003, 1.170892e+001
1.158381e+003, 1.167258e+001
1.158863e+003, 1.176819e+001
1.159345e+003, 1.193663e+001
1.159827e+003, 1.187500e+001
1.160309e+003, 1.165336e+001
1.160791e+003, 1.155734e+001
1.161273e+003, 1.187838e+001
1.161755e+003, 1.212821e+001
1.162238e+003, 1.215629e+001
1.162720e+003, 1.209809e+001
1.163202e+003, 1.210504e+001
1.163684e+003, 1.215693e+001
1.164166e+003, 1.209027e+001
1.164648e+003, 1.191525e+001
1.165130e+003, 1.179828e+001
1.165612e+003, 1.190315e+001
1.166094e+003, 1.200862e+001
1.166577e+003, 1.204776e+001
1.167059e+003, 1.201289e+001
1.167541e+003, 1.184838e+001
1.168023e+003, 1.156977e+001
1.168505e+003, 1.138320e+001
1.168987e+003, 1.130875e+001
1.169469e+003, 1.133115e+001
1.169951e+003, 1.155323e+001
1.170433e+003, 1.175709e+001
1.170916e+003, 1.177100e+001
1.171398e+003, 1.167804e+001
1.171880e+003, 1.170271e+001
1.172362e+003, 1.184255e+001
1.172844e+003, 1.188140e+001
1.173326e+003, 1.176608e+001
1.173808e+003, 1.164449e+001
1.174290e+003, 1.165740e+001
1.174773e+003, 1.169880e+001
1.175255e+003, 1.168308e+001
1.175737e+003, 1.161931e+001
1.176219e+003, 1.155291e+001
1.176701e+003, 1.148084e+001
1.177183e+003, 1.146824e+001
1.177665e+003, 1.154626e+001
1.178147e+003, 1.164005e+001
1.178630e+003, 1.169877e+001
1.179112e+003, 1.172371e+001
1.179594e+003, 1.170292e+001
1.180076e+003, 1.163784e+001
1.180558e+003, 1.160326e+001
1.181040e+003, 1.160178e+001
1.181522e+003, 1.160309e+001
1.182004e+003, 1.159256e+001
1.182486e+003, 1.158659e+001
1.182969e+003, 1.159182e+001
1.183451e+003, 1.161775e+001
1.183933e+003, 1.169684e+001
1.184415e+003, 1.185675e+001
1.184897e+003, 1.186952e+001
1.185379e+003, 1.170437e+001
1.185861e+003, 1.158879e+001
1.186343e+003, 1.166215e+001
1.186825e+003, 1.181269e+001
1.187308e+003, 1.197667e+001
1.187790e+003, 1.210230e+001
1.188272e+003, 1.208955e+001
1.188754e+003, 1.185877e+001
1.189236e+003, 1.168051e+001
1.189718e+003, 1.154260e+001
1.190200e+003, 1.152908e+001
1.190682e+003, 1.186560e+001
1.191165e+003, 1.221637e+001
1.191647e+003, 1.207272e+001
1.192129e+003, 1.163107e+001
1.192611e+003, 1.127801e+001
1.193093e+003, 1.104724e+001
1.193575e+003, 1.102183e+001
1.194057e+003, 1.125160e+001
1.194539e+003, 1.148853e+001
1.195021e+003, 1.155447e+001
1.195504e+003, 1.150174e+001
1.195986e+003, 1.133910e+001
1.196468e+003, 1.111878e+001
1.196950e+003, 1.099333e+001
1.197432e+003, 1.102283e+001
1.197914e+003, 1.106303e+001
1.198396e+003, 1.110269e+001
1.198878e+003, 1.116215e+001
1.199360e+003, 1.128148e+001
1.199843e+003, 1.141901e+001
1.200325e+003, 1.152435e+001
1.200807e+003, 1.159383e+001
1.201289e+003, 1.161790e+001
1.201771e+003, 1.158692e+001
1.202253e+003, 1.152515e+001
1.202735e+003, 1.142169e+001
1.203217e+003, 1.133280e+001
1.203700e+003, 1.133402e+001
1.204182e+003, 1.138224e+001
1.204664e+003, 1.141922e+001
1.205146e+003, 1.144290e+001
1.205628e+003, 1.147297e+001
1.206110e+003, 1.153230e+001
1.206592e+003, 1.153804e+001
1.207074e+003, 1.144660e+001
1.207557e+003, 1.138698e+001
1.208039e+003, 1.161571e+001
1.208521e+003, 1.192639e+001
1.209003e+003, 1.199493e+001
1.209485e+003, 1.180882e+001
1.209967e+003, 1.165261e+001
1.210449e+003, 1.155119e+001
1.210931e+003, 1.152774e+001
1.211413e+003, 1.162523e+001
1.211896e+003, 1.169797e+001
1.212378e+003, 1.145007e+001
1.212860e+003, 1.110412e+001
1.213342e+003, 1.102381e+001
1.213824e+003, 1.124867e+001
1.214306e+003, 1.138332e+001
1.214788e+003, 1.134813e+001
1.215270e+003, 1.134272e+001
1.215752e+003, 1.145107e+001
1.216235e+003, 1.153203e+001
1.216717e+003, 1.128207e+001
1.217199e+003, 1.092371e+001
1.217681e+003, 1.080279e+001
1.218163e+003, 1.098509e+001
1.218645e+003, 1.113319e+001
1.219127e+003, 1.125670e+001
1.219609e+003, 1.121793e+001
1.220092e+003, 1.090219e+001
1.220574e+003, 1.056437e+001
1.221056e+003, 1.062136e+001
1.221538e+003, 1.088249e+001
1.222020e+003, 1.108181e+001
1.222502e+003, 1.116505e+001
1.222984e+003, 1.126241e+001
1.223466e+003, 1.139716e+001
1.223948e+003, 1.148541e+001
1.224431e+003, 1.149510e+001
1.224913e+003, 1.144612e+001
1.225395e+003, 1.132184e+001
1.225877e+003, 1.117991e+001
1.226359e+003, 1.111002e+001
1.226841e+003, 1.115167e+001
1.227323e+003, 1.112393e+001
1.227805e+003, 1.100293e+001
1.228287e+003, 1.090273e+001
1.228770e+003, 1.086124e+001
1.229252e+003, 1.088193e+001
1.229734e+003, 1.104001e+001
1.230216e+003, 1.122810e+001
1.230698e+003, 1.128887e+001
1.231180e+003, 1.117038e+001
1.231662e+003, 1.105935e+001
1.232144e+003, 1.094374e+001
1.232627e+003, 1.090959e+001
1.233109e+003, 1.104637e+001
1.233591e+003, 1.119863e+001
1.234073e+003, 1.118038e+001
1.234555e+003, 1.106339e+001
1.235037e+003, 1.092702e+001
1.235519e+003, 1.076353e+001
1.236001e+003, 1.069573e+001
1.236484e+003, 1.072980e+001
1.236966e+003, 1.081626e+001
1.237448e+003, 1.097898e+001
1.237930e+003, 1.110764e+001
1.238412e+003, 1.103745e+001
1.238894e+003, 1.089244e+001
1.239376e+003, 1.084727e+001
1.239858e+003, 1.092154e+001
1.240340e+003, 1.099876e+001
1.240823e+003, 1.107964e+001
1.241305e+003, 1.111335e+001
1.241787e+003, 1.103457e+001
1.242269e+003, 1.095072e+001
1.242751e+003, 1.097672e+001
1.243233e+003, 1.103674e+001
1.243715e+003, 1.101368e+001
1.244197e+003, 1.088216e+001
1.244679e+003, 1.095193e+001
1.245162e+003, 1.121876e+001
1.245644e+003, 1.145162e+001
1.246126e+003, 1.155274e+001
1.246608e+003, 1.154678e+001
1.247090e+003, 1.137025e+001
1.247572e+003, 1.114774e+001
1.248054e+003, 1.101781e+001
1.248536e+003, 1.098053e+001
1.249019e+003, 1.102445e+001
1.249501e+003, 1.113774e+001
1.249983e+003, 1.118976e+001
1.250465e+003, 1.106616e+001
1.250947e+003, 1.091529e+001
1.251429e+003, 1.076773e+001
1.251911e+003, 1.066600e+001
1.252393e+003, 1.057923e+001
1.252875e+003, 1.052744e+001
1.253358e+003, 1.118723e+001
1.253840e+003, 1.239536e+001
1.254322e+003, 1.308495e+001
1.254804e+003, 1.218677e+001
1.255286e+003, 1.133476e+001
1.255768e+003, 1.111712e+001
1.256250e+003, 1.113849e+001
1.256732e+003, 1.112354e+001
1.257214e+003, 1.107558e+001
1.257697e+003, 1.100560e+001
1.258179e+003, 1.091905e+001
1.258661e+003, 1.084141e+001
1.259143e+003, 1.076911e+001
1.259625e+003, 1.073052e+001
1.260107e+003, 1.073664e+001
1.260589e+003, 1.076351e+001
1.261071e+003, 1.078515e+001
1.261554e+003, 1.081270e+001
1.262036e+003, 1.095801e+001
1.262518e+003, 1.114711e+001
1.263000e+003, 1.113484e+001
1.263482e+003, 1.046097e+001
1.263964e+003, 1.019083e+001
1.264446e+003, 1.055597e+001
1.264928e+003, 1.098854e+001
1.265411e+003, 1.094244e+001
1.265893e+003, 1.067359e+001
1.266375e+003, 1.068887e+001
1.266857e+003, 1.089809e+001
1.267339e+003, 1.104501e+001
1.267821e+003, 1.105134e+001
1.268303e+003, 1.099759e+001
1.268785e+003, 1.086461e+001
1.269267e+003, 1.075223e+001
1.269750e+003, 1.077794e+001
1.270232e+003, 1.084149e+001
1.270714e+003, 1.081922e+001
1.271196e+003, 1.073060e+001
1.271678e+003, 1.061058e+001
1.272160e+003, 1.040725e+001
1.272642e+003, 1.037479e+001
1.273124e+003, 1.053814e+001
1.273606e+003, 1.071035e+001
1.274089e+003, 1.075893e+001
1.274571e+003, 1.075359e+001
1.275053e+003, 1.072691e+001
1.275535e+003, 1.070127e+001
1.276017e+003, 1.071605e+001
1.276499e+003, 1.077951e+001
1.276981e+003, 1.082394e+001
1.277463e+003, 1.084833e+001
1.277946e+003, 1.088731e+001
1.278428e+003, 1.106128e+001
1.278910e+003, 1.114746e+001
1.279392e+003, 1.091764e+001
1.279874e+003, 1.057987e+001
1.280356e+003, 1.035341e+001
1.280838e+003, 1.024135e+001
1.281320e+003, 1.028796e+001
1.281802e+003, 1.047132e+001
1.282285e+003, 1.060533e+001
1.282767e+003, 1.048870e+001
1.283249e+003, 1.043881e+001
1.283731e+003, 1.065773e+001
1.284213e+003, 1.089342e+001
1.284695e+003, 1.090018e+001
1.285177e+003, 1.073143e+001
1.285659e+003, 1.066216e+001
1.286141e+003, 1.065901e+001
1.286624e+003, 1.057877e+001
1.287106e+003, 1.020436e+001
1.287588e+003, 9.986177e+000
1.288070e+003, 9.990164e+000
1.288552e+003, 1.012408e+001
1.289034e+003, 1.042222e+001
1.289516e+003, 1.074594e+001
1.289998e+003, 1.072579e+001
1.290481e+003, 1.047343e+001
1.290963e+003, 1.027745e+001
1.291445e+003, 1.023843e+001
1.291927e+003, 1.023922e+001
1.292409e+003, 1.028887e+001
1.292891e+003, 1.034092e+001
1.293373e+003, 1.034466e+001
1.293855e+003, 1.034613e+001
1.294338e+003, 1.041571e+001
1.294820e+003, 1.052262e+001
1.295302e+003, 1.061224e+001
1.295784e+003, 1.069452e+001
1.296266e+003, 1.069102e+001
1.296748e+003, 1.059536e+001
1.297230e+003, 1.052873e+001
1.297712e+003, 1.061719e+001
1.298194e+003, 1.070216e+001
1.298677e+003, 1.064434e+001
1.299159e+003, 1.051719e+001
1.299641e+003, 1.039929e+001
1.300123e+003, 1.028794e+001
1.300605e+003, 1.029430e+001
1.301087e+003, 1.040714e+001
1.301569e+003, 1.053297e+001
1.302051e+003, 1.071677e+001
1.302533e+003, 1.075368e+001
1.303016e+003, 1.056265e+001
##END=



