##NAMES=Alacranite
##RRUFFID=R140323
##IDEAL CHEMISTRY=As_8_S_9_
##LOCALITY=Solfatara di Pozzuoli, Napoli, Italy
##OWNER=RRUFF
##SOURCE=Renato and Adriana Pagano
##DESCRIPTION=Yellow crystals with red realgar. 2-fold twin around [1 1 0].
##STATUS=The identification of this mineral has been confirmed by single-crystal X-ray diffraction.
##URL=rruff.info/R140323
9.059570e+001, 5.625925e+003
9.107782e+001, 5.411802e+003
9.155994e+001, 5.335935e+003
9.204205e+001, 5.495941e+003
9.252417e+001, 5.728208e+003
9.300629e+001, 5.981195e+003
9.348840e+001, 6.203716e+003
9.397052e+001, 6.349907e+003
9.445264e+001, 6.394754e+003
9.493475e+001, 6.413437e+003
9.541687e+001, 6.426705e+003
9.589898e+001, 6.443435e+003
9.638110e+001, 6.459374e+003
9.686321e+001, 6.470575e+003
9.734533e+001, 6.471167e+003
9.782745e+001, 6.450531e+003
9.830956e+001, 6.431642e+003
9.879168e+001, 6.415625e+003
9.927380e+001, 6.402704e+003
9.975591e+001, 6.391015e+003
1.002380e+002, 6.380496e+003
1.007201e+002, 6.372996e+003
1.012023e+002, 6.369642e+003
1.016844e+002, 6.370106e+003
1.021665e+002, 6.371175e+003
1.026486e+002, 6.371268e+003
1.031307e+002, 6.372060e+003
1.036128e+002, 6.375101e+003
1.040950e+002, 6.380271e+003
1.045771e+002, 6.386422e+003
1.050592e+002, 6.390269e+003
1.055413e+002, 6.392835e+003
1.060234e+002, 6.396219e+003
1.065055e+002, 6.400879e+003
1.069877e+002, 6.406671e+003
1.074698e+002, 6.413739e+003
1.079519e+002, 6.422256e+003
1.084340e+002, 6.431228e+003
1.089161e+002, 6.440538e+003
1.093982e+002, 6.449785e+003
1.098804e+002, 6.458184e+003
1.103625e+002, 6.464982e+003
1.108446e+002, 6.469867e+003
1.113267e+002, 6.474059e+003
1.118088e+002, 6.476501e+003
1.122909e+002, 6.479065e+003
1.127731e+002, 6.482839e+003
1.132552e+002, 6.487806e+003
1.137373e+002, 6.493032e+003
1.142194e+002, 6.497056e+003
1.147015e+002, 6.498173e+003
1.151836e+002, 6.501267e+003
1.156658e+002, 6.509029e+003
1.161479e+002, 6.517461e+003
1.166300e+002, 6.522210e+003
1.171121e+002, 6.521601e+003
1.175942e+002, 6.517983e+003
1.180763e+002, 6.516830e+003
1.185584e+002, 6.518639e+003
1.190406e+002, 6.521018e+003
1.195227e+002, 6.523440e+003
1.200048e+002, 6.525901e+003
1.204869e+002, 6.528437e+003
1.209690e+002, 6.531022e+003
1.214511e+002, 6.533637e+003
1.219333e+002, 6.536367e+003
1.224154e+002, 6.539494e+003
1.228975e+002, 6.542123e+003
1.233796e+002, 6.543135e+003
1.238617e+002, 6.542302e+003
1.243438e+002, 6.541474e+003
1.248260e+002, 6.540071e+003
1.253081e+002, 6.539596e+003
1.257902e+002, 6.542108e+003
1.262723e+002, 6.549151e+003
1.267544e+002, 6.558494e+003
1.272365e+002, 6.565032e+003
1.277187e+002, 6.567573e+003
1.282008e+002, 6.569052e+003
1.286829e+002, 6.569290e+003
1.291650e+002, 6.569458e+003
1.296471e+002, 6.571151e+003
1.301292e+002, 6.575523e+003
1.306114e+002, 6.582421e+003
1.310935e+002, 6.589208e+003
1.315756e+002, 6.595853e+003
1.320577e+002, 6.602557e+003
1.325398e+002, 6.610513e+003
1.330219e+002, 6.618775e+003
1.335041e+002, 6.624908e+003
1.339862e+002, 6.626337e+003
1.344683e+002, 6.621707e+003
1.349504e+002, 6.621826e+003
1.354325e+002, 6.629890e+003
1.359146e+002, 6.639140e+003
1.363968e+002, 6.645934e+003
1.368789e+002, 6.649841e+003
1.373610e+002, 6.652321e+003
1.378431e+002, 6.654784e+003
1.383252e+002, 6.657201e+003
1.388073e+002, 6.659732e+003
1.392895e+002, 6.661984e+003
1.397716e+002, 6.664492e+003
1.402537e+002, 6.668131e+003
1.407358e+002, 6.673271e+003
1.412179e+002, 6.678769e+003
1.417000e+002, 6.682666e+003
1.421821e+002, 6.685072e+003
1.426643e+002, 6.688433e+003
1.431464e+002, 6.695155e+003
1.436285e+002, 6.703974e+003
1.441106e+002, 6.710214e+003
1.445927e+002, 6.711866e+003
1.450748e+002, 6.711532e+003
1.455570e+002, 6.711626e+003
1.460391e+002, 6.712195e+003
1.465212e+002, 6.712833e+003
1.470033e+002, 6.713389e+003
1.474854e+002, 6.713929e+003
1.479675e+002, 6.713720e+003
1.484497e+002, 6.709854e+003
1.489318e+002, 6.706971e+003
1.494139e+002, 6.708220e+003
1.498960e+002, 6.714134e+003
1.503781e+002, 6.722288e+003
1.508602e+002, 6.729619e+003
1.513424e+002, 6.737538e+003
1.518245e+002, 6.741201e+003
1.523066e+002, 6.737312e+003
1.527887e+002, 6.731548e+003
1.532708e+002, 6.728734e+003
1.537529e+002, 6.730626e+003
1.542351e+002, 6.735005e+003
1.547172e+002, 6.736229e+003
1.551993e+002, 6.727904e+003
1.556814e+002, 6.724186e+003
1.561635e+002, 6.729089e+003
1.566456e+002, 6.737909e+003
1.571278e+002, 6.745148e+003
1.576099e+002, 6.748058e+003
1.580920e+002, 6.747478e+003
1.585741e+002, 6.746842e+003
1.590562e+002, 6.746196e+003
1.595383e+002, 6.745399e+003
1.600205e+002, 6.742811e+003
1.605026e+002, 6.739877e+003
1.609847e+002, 6.740102e+003
1.614668e+002, 6.745857e+003
1.619489e+002, 6.756273e+003
1.624310e+002, 6.766362e+003
1.629131e+002, 6.778983e+003
1.633953e+002, 6.788725e+003
1.638774e+002, 6.790508e+003
1.643595e+002, 6.785121e+003
1.648416e+002, 6.780155e+003
1.653237e+002, 6.779975e+003
1.658058e+002, 6.783795e+003
1.662880e+002, 6.789249e+003
1.667701e+002, 6.797071e+003
1.672522e+002, 6.805714e+003
1.677343e+002, 6.814216e+003
1.682164e+002, 6.823114e+003
1.686985e+002, 6.829250e+003
1.691807e+002, 6.826630e+003
1.696628e+002, 6.821024e+003
1.701449e+002, 6.819955e+003
1.706270e+002, 6.828097e+003
1.711091e+002, 6.841392e+003
1.715912e+002, 6.850641e+003
1.720734e+002, 6.854908e+003
1.725555e+002, 6.856380e+003
1.730376e+002, 6.854401e+003
1.735197e+002, 6.851034e+003
1.740018e+002, 6.849394e+003
1.744839e+002, 6.851843e+003
1.749661e+002, 6.857483e+003
1.754482e+002, 6.860756e+003
1.759303e+002, 6.860927e+003
1.764124e+002, 6.859214e+003
1.768945e+002, 6.853664e+003
1.773766e+002, 6.846653e+003
1.778588e+002, 6.842125e+003
1.783409e+002, 6.843073e+003
1.788230e+002, 6.849545e+003
1.793051e+002, 6.856830e+003
1.797872e+002, 6.867561e+003
1.802693e+002, 6.876518e+003
1.807515e+002, 6.881196e+003
1.812336e+002, 6.882538e+003
1.817157e+002, 6.883007e+003
1.821978e+002, 6.884571e+003
1.826799e+002, 6.887228e+003
1.831620e+002, 6.890970e+003
1.836441e+002, 6.895002e+003
1.841263e+002, 6.900419e+003
1.846084e+002, 6.909315e+003
1.850905e+002, 6.920823e+003
1.855726e+002, 6.930969e+003
1.860547e+002, 6.935758e+003
1.865368e+002, 6.934239e+003
1.870190e+002, 6.933994e+003
1.875011e+002, 6.937292e+003
1.879832e+002, 6.940271e+003
1.884653e+002, 6.939025e+003
1.889474e+002, 6.933360e+003
1.894296e+002, 6.927973e+003
1.899117e+002, 6.928374e+003
1.903938e+002, 6.934362e+003
1.908759e+002, 6.937436e+003
1.913580e+002, 6.933333e+003
1.918401e+002, 6.927442e+003
1.923223e+002, 6.927237e+003
1.928044e+002, 6.934728e+003
1.932865e+002, 6.941713e+003
1.937686e+002, 6.937230e+003
1.942507e+002, 6.924905e+003
1.947328e+002, 6.915858e+003
1.952150e+002, 6.915347e+003
1.956971e+002, 6.920038e+003
1.961792e+002, 6.923591e+003
1.966613e+002, 6.925496e+003
1.971434e+002, 6.926146e+003
1.976255e+002, 6.926533e+003
1.981077e+002, 6.926168e+003
1.985898e+002, 6.923456e+003
1.990719e+002, 6.914422e+003
1.995540e+002, 6.901517e+003
2.000361e+002, 6.896036e+003
2.005182e+002, 6.902901e+003
2.010004e+002, 6.911064e+003
2.014825e+002, 6.914865e+003
2.019646e+002, 6.915179e+003
2.024467e+002, 6.914216e+003
2.029288e+002, 6.912513e+003
2.034109e+002, 6.910282e+003
2.038930e+002, 6.911206e+003
2.043752e+002, 6.918477e+003
2.048573e+002, 6.925894e+003
2.053394e+002, 6.931982e+003
2.058215e+002, 6.936407e+003
2.063036e+002, 6.938771e+003
2.067857e+002, 6.938064e+003
2.072679e+002, 6.934021e+003
2.077500e+002, 6.932304e+003
2.082321e+002, 6.935499e+003
2.087142e+002, 6.938791e+003
2.091963e+002, 6.939612e+003
2.096784e+002, 6.939005e+003
2.101606e+002, 6.940160e+003
2.106427e+002, 6.946514e+003
2.111248e+002, 6.959071e+003
2.116069e+002, 6.967300e+003
2.120890e+002, 6.967095e+003
2.125711e+002, 6.966782e+003
2.130533e+002, 6.970741e+003
2.135354e+002, 6.977923e+003
2.140175e+002, 6.983991e+003
2.144996e+002, 6.984647e+003
2.149817e+002, 6.978744e+003
2.154638e+002, 6.975469e+003
2.159460e+002, 6.973702e+003
2.164281e+002, 6.974819e+003
2.169102e+002, 6.980821e+003
2.173923e+002, 6.990884e+003
2.178744e+002, 7.001888e+003
2.183565e+002, 7.011166e+003
2.188387e+002, 7.018565e+003
2.193208e+002, 7.024246e+003
2.198029e+002, 7.028116e+003
2.202850e+002, 7.030613e+003
2.207671e+002, 7.031620e+003
2.212492e+002, 7.031294e+003
2.217314e+002, 7.030391e+003
2.222135e+002, 7.029365e+003
2.226956e+002, 7.028226e+003
2.231777e+002, 7.027797e+003
2.236598e+002, 7.027826e+003
2.241419e+002, 7.028712e+003
2.246240e+002, 7.032149e+003
2.251062e+002, 7.037925e+003
2.255883e+002, 7.041474e+003
2.260704e+002, 7.037536e+003
2.265525e+002, 7.027332e+003
2.270346e+002, 7.021272e+003
2.275167e+002, 7.023438e+003
2.279989e+002, 7.027887e+003
2.284810e+002, 7.028392e+003
2.289631e+002, 7.024515e+003
2.294452e+002, 7.022011e+003
2.299273e+002, 7.027019e+003
2.304094e+002, 7.036677e+003
2.308916e+002, 7.042958e+003
2.313737e+002, 7.042889e+003
2.318558e+002, 7.039760e+003
2.323379e+002, 7.036277e+003
2.328200e+002, 7.032098e+003
2.333021e+002, 7.029927e+003
2.337843e+002, 7.033160e+003
2.342664e+002, 7.039285e+003
2.347485e+002, 7.044849e+003
2.352306e+002, 7.050243e+003
2.357127e+002, 7.053626e+003
2.361948e+002, 7.051329e+003
2.366770e+002, 7.041786e+003
2.371591e+002, 7.032993e+003
2.376412e+002, 7.029090e+003
2.381233e+002, 7.028233e+003
2.386054e+002, 7.029220e+003
2.390875e+002, 7.032770e+003
2.395697e+002, 7.036444e+003
2.400518e+002, 7.035579e+003
2.405339e+002, 7.028396e+003
2.410160e+002, 7.022398e+003
2.414981e+002, 7.022267e+003
2.419802e+002, 7.023942e+003
2.424624e+002, 7.023287e+003
2.429445e+002, 7.018463e+003
2.434266e+002, 7.012085e+003
2.439087e+002, 7.008378e+003
2.443908e+002, 7.007439e+003
2.448729e+002, 7.009040e+003
2.453550e+002, 7.015386e+003
2.458372e+002, 7.022813e+003
2.463193e+002, 7.028486e+003
2.468014e+002, 7.031471e+003
2.472835e+002, 7.032038e+003
2.477656e+002, 7.030038e+003
2.482477e+002, 7.023529e+003
2.487299e+002, 7.019134e+003
2.492120e+002, 7.019482e+003
2.496941e+002, 7.021249e+003
2.501762e+002, 7.021788e+003
2.506583e+002, 7.020330e+003
2.511404e+002, 7.018236e+003
2.516226e+002, 7.018038e+003
2.521047e+002, 7.021259e+003
2.525868e+002, 7.022947e+003
2.530689e+002, 7.022966e+003
2.535510e+002, 7.021458e+003
2.540331e+002, 7.017431e+003
2.545153e+002, 7.011063e+003
2.549974e+002, 7.004881e+003
2.554795e+002, 7.003032e+003
2.559616e+002, 7.008040e+003
2.564437e+002, 7.012177e+003
2.569258e+002, 7.014594e+003
2.574080e+002, 7.016785e+003
2.578901e+002, 7.020417e+003
2.583722e+002, 7.025448e+003
2.588543e+002, 7.029829e+003
2.593364e+002, 7.030280e+003
2.598185e+002, 7.023616e+003
2.603007e+002, 7.021234e+003
2.607828e+002, 7.026195e+003
2.612649e+002, 7.032103e+003
2.617470e+002, 7.034483e+003
2.622291e+002, 7.033217e+003
2.627112e+002, 7.031696e+003
2.631934e+002, 7.034152e+003
2.636755e+002, 7.042586e+003
2.641576e+002, 7.047533e+003
2.646397e+002, 7.046075e+003
2.651218e+002, 7.044241e+003
2.656039e+002, 7.045577e+003
2.660861e+002, 7.049977e+003
2.665682e+002, 7.054995e+003
2.670503e+002, 7.058195e+003
2.675324e+002, 7.059131e+003
2.680145e+002, 7.061018e+003
2.684966e+002, 7.063315e+003
2.689788e+002, 7.066794e+003
2.694609e+002, 7.073384e+003
2.699430e+002, 7.081940e+003
2.704251e+002, 7.088620e+003
2.709072e+002, 7.089908e+003
2.713893e+002, 7.085525e+003
2.718715e+002, 7.083763e+003
2.723536e+002, 7.085482e+003
2.728357e+002, 7.088333e+003
2.733178e+002, 7.091799e+003
2.737999e+002, 7.095626e+003
2.742820e+002, 7.099522e+003
2.747642e+002, 7.103415e+003
2.752463e+002, 7.107202e+003
2.757284e+002, 7.109466e+003
2.762105e+002, 7.109707e+003
2.766926e+002, 7.109370e+003
2.771747e+002, 7.108806e+003
2.776568e+002, 7.108015e+003
2.781389e+002, 7.106655e+003
2.786211e+002, 7.104278e+003
2.791032e+002, 7.101567e+003
2.795853e+002, 7.101680e+003
2.800674e+002, 7.106498e+003
2.805495e+002, 7.111314e+003
2.810316e+002, 7.116125e+003
2.815138e+002, 7.120044e+003
2.819959e+002, 7.120705e+003
2.824780e+002, 7.116569e+003
2.829601e+002, 7.110342e+003
2.834422e+002, 7.109403e+003
2.839243e+002, 7.116368e+003
2.844065e+002, 7.122778e+003
2.848886e+002, 7.127552e+003
2.853707e+002, 7.130620e+003
2.858528e+002, 7.130828e+003
2.863349e+002, 7.127364e+003
2.868170e+002, 7.123705e+003
2.872992e+002, 7.126638e+003
2.877813e+002, 7.138666e+003
2.882634e+002, 7.148112e+003
2.887455e+002, 7.150698e+003
2.892276e+002, 7.150705e+003
2.897097e+002, 7.153573e+003
2.901919e+002, 7.160608e+003
2.906740e+002, 7.168825e+003
2.911561e+002, 7.174642e+003
2.916382e+002, 7.177698e+003
2.921203e+002, 7.180819e+003
2.926024e+002, 7.183953e+003
2.930846e+002, 7.187438e+003
2.935667e+002, 7.191491e+003
2.940488e+002, 7.196161e+003
2.945309e+002, 7.201633e+003
2.950130e+002, 7.208258e+003
2.954951e+002, 7.216083e+003
2.959773e+002, 7.223814e+003
2.964594e+002, 7.232374e+003
2.969415e+002, 7.240081e+003
2.974236e+002, 7.244482e+003
2.979057e+002, 7.245879e+003
2.983878e+002, 7.248732e+003
2.988700e+002, 7.257441e+003
2.993521e+002, 7.270332e+003
2.998342e+002, 7.277367e+003
3.003163e+002, 7.272372e+003
3.007984e+002, 7.267170e+003
3.012805e+002, 7.269091e+003
3.017627e+002, 7.277005e+003
3.022448e+002, 7.285623e+003
3.027269e+002, 7.292528e+003
3.032090e+002, 7.298056e+003
3.036911e+002, 7.303280e+003
3.041732e+002, 7.307236e+003
3.046554e+002, 7.312515e+003
3.051375e+002, 7.322525e+003
3.056196e+002, 7.334956e+003
3.061017e+002, 7.343144e+003
3.065838e+002, 7.343600e+003
3.070659e+002, 7.340565e+003
3.075481e+002, 7.342423e+003
3.080302e+002, 7.349953e+003
3.085123e+002, 7.357799e+003
3.089944e+002, 7.364962e+003
3.094765e+002, 7.371191e+003
3.099586e+002, 7.375581e+003
3.104408e+002, 7.377603e+003
3.109229e+002, 7.378921e+003
3.114050e+002, 7.381368e+003
3.118871e+002, 7.384779e+003
3.123692e+002, 7.389888e+003
3.128513e+002, 7.398120e+003
3.133335e+002, 7.407490e+003
3.138156e+002, 7.415912e+003
3.142977e+002, 7.423052e+003
3.147798e+002, 7.429093e+003
3.152619e+002, 7.434012e+003
3.157440e+002, 7.437799e+003
3.162262e+002, 7.441116e+003
3.167083e+002, 7.444142e+003
3.171904e+002, 7.446587e+003
3.176725e+002, 7.446885e+003
3.181546e+002, 7.445396e+003
3.186367e+002, 7.446669e+003
3.191188e+002, 7.454803e+003
3.196010e+002, 7.468247e+003
3.200831e+002, 7.478703e+003
3.205652e+002, 7.486134e+003
3.210473e+002, 7.490849e+003
3.215294e+002, 7.491437e+003
3.220115e+002, 7.489062e+003
3.224937e+002, 7.487890e+003
3.229758e+002, 7.490046e+003
3.234579e+002, 7.494416e+003
3.239400e+002, 7.497964e+003
3.244221e+002, 7.499967e+003
3.249042e+002, 7.502895e+003
3.253864e+002, 7.508712e+003
3.258685e+002, 7.515932e+003
3.263506e+002, 7.521740e+003
3.268327e+002, 7.525202e+003
3.273148e+002, 7.527291e+003
3.277969e+002, 7.529329e+003
3.282791e+002, 7.531323e+003
3.287612e+002, 7.533339e+003
3.292433e+002, 7.533971e+003
3.297254e+002, 7.535302e+003
3.302075e+002, 7.541107e+003
3.306896e+002, 7.552046e+003
3.311718e+002, 7.562462e+003
3.316539e+002, 7.566089e+003
3.321360e+002, 7.562248e+003
3.326181e+002, 7.560776e+003
3.331002e+002, 7.563821e+003
3.335823e+002, 7.567918e+003
3.340645e+002, 7.570311e+003
3.345466e+002, 7.571112e+003
3.350287e+002, 7.572292e+003
3.355108e+002, 7.574962e+003
3.359929e+002, 7.579241e+003
3.364750e+002, 7.585214e+003
3.369572e+002, 7.595805e+003
3.374393e+002, 7.604849e+003
3.379214e+002, 7.608844e+003
3.384035e+002, 7.609269e+003
3.388856e+002, 7.609805e+003
3.393677e+002, 7.612298e+003
3.398499e+002, 7.615547e+003
3.403320e+002, 7.615886e+003
3.408141e+002, 7.610106e+003
3.412962e+002, 7.607528e+003
3.417783e+002, 7.613359e+003
3.422604e+002, 7.622122e+003
3.427426e+002, 7.626367e+003
3.432247e+002, 7.623961e+003
3.437068e+002, 7.618579e+003
3.441889e+002, 7.615235e+003
3.446710e+002, 7.614970e+003
3.451531e+002, 7.613998e+003
3.456353e+002, 7.610642e+003
3.461174e+002, 7.607790e+003
3.465995e+002, 7.608845e+003
3.470816e+002, 7.613442e+003
3.475637e+002, 7.617272e+003
3.480458e+002, 7.616208e+003
3.485280e+002, 7.609923e+003
3.490101e+002, 7.605374e+003
3.494922e+002, 7.604908e+003
3.499743e+002, 7.603570e+003
3.504564e+002, 7.597744e+003
3.509385e+002, 7.589384e+003
3.514207e+002, 7.583354e+003
3.519028e+002, 7.582779e+003
3.523849e+002, 7.586162e+003
3.528670e+002, 7.587042e+003
3.533491e+002, 7.585469e+003
3.538312e+002, 7.581405e+003
3.543134e+002, 7.570228e+003
3.547955e+002, 7.558375e+003
3.552776e+002, 7.554595e+003
3.557597e+002, 7.561737e+003
3.562418e+002, 7.573628e+003
3.567239e+002, 7.579952e+003
3.572061e+002, 7.578450e+003
3.576882e+002, 7.575237e+003
3.581703e+002, 7.566876e+003
3.586524e+002, 7.559454e+003
3.591345e+002, 7.558689e+003
3.596166e+002, 7.563974e+003
3.600987e+002, 7.569118e+003
3.605808e+002, 7.567515e+003
3.610630e+002, 7.557905e+003
3.615451e+002, 7.553569e+003
3.620272e+002, 7.560566e+003
3.625093e+002, 7.566155e+003
3.629914e+002, 7.565710e+003
3.634735e+002, 7.560739e+003
3.639557e+002, 7.554475e+003
3.644378e+002, 7.548782e+003
3.649199e+002, 7.543622e+003
3.654020e+002, 7.538927e+003
3.658841e+002, 7.536891e+003
3.663662e+002, 7.532169e+003
3.668484e+002, 7.519791e+003
3.673305e+002, 7.506823e+003
3.678126e+002, 7.501477e+003
3.682947e+002, 7.505998e+003
3.687768e+002, 7.514069e+003
3.692589e+002, 7.515577e+003
3.697411e+002, 7.507649e+003
3.702232e+002, 7.500858e+003
3.707053e+002, 7.497227e+003
3.711874e+002, 7.493321e+003
3.716695e+002, 7.485800e+003
3.721516e+002, 7.475695e+003
3.726338e+002, 7.467594e+003
3.731159e+002, 7.466720e+003
3.735980e+002, 7.472724e+003
3.740801e+002, 7.473914e+003
3.745622e+002, 7.465376e+003
3.750443e+002, 7.457852e+003
3.755265e+002, 7.455474e+003
3.760086e+002, 7.456208e+003
3.764907e+002, 7.456872e+003
3.769728e+002, 7.455892e+003
3.774549e+002, 7.454006e+003
3.779370e+002, 7.453185e+003
3.784192e+002, 7.454378e+003
3.789013e+002, 7.453911e+003
3.793834e+002, 7.450198e+003
3.798655e+002, 7.444833e+003
3.803476e+002, 7.437963e+003
3.808297e+002, 7.429703e+003
3.813119e+002, 7.422935e+003
3.817940e+002, 7.422373e+003
3.822761e+002, 7.427830e+003
3.827582e+002, 7.428513e+003
3.832403e+002, 7.418116e+003
3.837224e+002, 7.408638e+003
3.842046e+002, 7.410454e+003
3.846867e+002, 7.420470e+003
3.851688e+002, 7.427347e+003
3.856509e+002, 7.421588e+003
3.861330e+002, 7.409017e+003
3.866151e+002, 7.403962e+003
3.870973e+002, 7.408767e+003
3.875794e+002, 7.412551e+003
3.880615e+002, 7.405236e+003
3.885436e+002, 7.394001e+003
3.890257e+002, 7.389932e+003
3.895078e+002, 7.398501e+003
3.899900e+002, 7.408327e+003
3.904721e+002, 7.409248e+003
3.909542e+002, 7.402082e+003
3.914363e+002, 7.392675e+003
3.919184e+002, 7.380596e+003
3.924005e+002, 7.370063e+003
3.928827e+002, 7.368124e+003
3.933648e+002, 7.375461e+003
3.938469e+002, 7.380962e+003
3.943290e+002, 7.378724e+003
3.948111e+002, 7.372522e+003
3.952932e+002, 7.368660e+003
3.957754e+002, 7.368253e+003
3.962575e+002, 7.367802e+003
3.967396e+002, 7.363784e+003
3.972217e+002, 7.356603e+003
3.977038e+002, 7.351139e+003
3.981859e+002, 7.349677e+003
3.986681e+002, 7.348156e+003
3.991501e+002, 7.343060e+003
3.996323e+002, 7.335404e+003
4.001144e+002, 7.329141e+003
4.005965e+002, 7.326462e+003
4.010786e+002, 7.326052e+003
4.015607e+002, 7.324034e+003
4.020428e+002, 7.318175e+003
4.025250e+002, 7.314714e+003
4.030071e+002, 7.315739e+003
4.034892e+002, 7.319206e+003
4.039713e+002, 7.323563e+003
4.044534e+002, 7.328229e+003
4.049355e+002, 7.331899e+003
4.054177e+002, 7.333017e+003
4.058998e+002, 7.331232e+003
4.063819e+002, 7.328142e+003
4.068640e+002, 7.323284e+003
4.073461e+002, 7.317784e+003
4.078282e+002, 7.310772e+003
4.083104e+002, 7.303525e+003
4.087925e+002, 7.299123e+003
4.092746e+002, 7.299726e+003
4.097567e+002, 7.304029e+003
4.102388e+002, 7.305918e+003
4.107209e+002, 7.302036e+003
4.112031e+002, 7.300064e+003
4.116852e+002, 7.302868e+003
4.121673e+002, 7.306605e+003
4.126494e+002, 7.307396e+003
4.131315e+002, 7.304342e+003
4.136136e+002, 7.299590e+003
4.140958e+002, 7.295473e+003
4.145779e+002, 7.291369e+003
4.150600e+002, 7.290421e+003
4.155421e+002, 7.297751e+003
4.160242e+002, 7.303549e+003
4.165063e+002, 7.301945e+003
4.169885e+002, 7.295617e+003
4.174706e+002, 7.291513e+003
4.179527e+002, 7.294598e+003
4.184348e+002, 7.302658e+003
4.189169e+002, 7.307999e+003
4.193990e+002, 7.309314e+003
4.198812e+002, 7.310749e+003
4.203633e+002, 7.314479e+003
4.208454e+002, 7.318405e+003
4.213275e+002, 7.320181e+003
4.218096e+002, 7.319173e+003
4.222917e+002, 7.317694e+003
4.227739e+002, 7.318269e+003
4.232560e+002, 7.320754e+003
4.237381e+002, 7.322764e+003
4.242202e+002, 7.323874e+003
4.247023e+002, 7.324402e+003
4.251844e+002, 7.324398e+003
4.256666e+002, 7.323994e+003
4.261487e+002, 7.323737e+003
4.266308e+002, 7.323011e+003
4.271129e+002, 7.322931e+003
4.275950e+002, 7.325620e+003
4.280771e+002, 7.331253e+003
4.285593e+002, 7.337240e+003
4.290414e+002, 7.343246e+003
4.295235e+002, 7.348132e+003
4.300056e+002, 7.349371e+003
4.304877e+002, 7.344639e+003
4.309698e+002, 7.341677e+003
4.314520e+002, 7.347481e+003
4.319341e+002, 7.357327e+003
4.324162e+002, 7.361114e+003
4.328983e+002, 7.355936e+003
4.333804e+002, 7.347292e+003
4.338625e+002, 7.340638e+003
4.343447e+002, 7.336030e+003
4.348268e+002, 7.334956e+003
4.353089e+002, 7.341083e+003
4.357910e+002, 7.347642e+003
4.362731e+002, 7.350148e+003
4.367552e+002, 7.349095e+003
4.372374e+002, 7.347039e+003
4.377195e+002, 7.345386e+003
4.382016e+002, 7.343987e+003
4.386837e+002, 7.342350e+003
4.391658e+002, 7.339041e+003
4.396479e+002, 7.337360e+003
4.401301e+002, 7.338690e+003
4.406122e+002, 7.341126e+003
4.410943e+002, 7.342874e+003
4.415764e+002, 7.343604e+003
4.420585e+002, 7.344326e+003
4.425406e+002, 7.346622e+003
4.430227e+002, 7.351293e+003
4.435049e+002, 7.351913e+003
4.439870e+002, 7.342301e+003
4.444691e+002, 7.335088e+003
4.449512e+002, 7.335326e+003
4.454333e+002, 7.340407e+003
4.459154e+002, 7.346206e+003
4.463976e+002, 7.350813e+003
4.468797e+002, 7.353833e+003
4.473618e+002, 7.353452e+003
4.478439e+002, 7.347271e+003
4.483260e+002, 7.344823e+003
4.488081e+002, 7.352480e+003
4.492903e+002, 7.361015e+003
4.497724e+002, 7.363909e+003
4.502545e+002, 7.361206e+003
4.507366e+002, 7.358389e+003
4.512187e+002, 7.359687e+003
4.517008e+002, 7.364329e+003
4.521830e+002, 7.369633e+003
4.526651e+002, 7.376512e+003
4.531472e+002, 7.381499e+003
4.536293e+002, 7.380438e+003
4.541114e+002, 7.376642e+003
4.545935e+002, 7.374944e+003
4.550757e+002, 7.377271e+003
4.555578e+002, 7.380060e+003
4.560399e+002, 7.379606e+003
4.565220e+002, 7.376855e+003
4.570041e+002, 7.376188e+003
4.574862e+002, 7.379315e+003
4.579684e+002, 7.383944e+003
4.584505e+002, 7.387155e+003
4.589326e+002, 7.388995e+003
4.594147e+002, 7.390980e+003
4.598968e+002, 7.394776e+003
4.603789e+002, 7.397870e+003
4.608611e+002, 7.397180e+003
4.613432e+002, 7.393324e+003
4.618253e+002, 7.390315e+003
4.623074e+002, 7.390936e+003
4.627895e+002, 7.393981e+003
4.632716e+002, 7.394320e+003
4.637538e+002, 7.388224e+003
4.642359e+002, 7.384520e+003
4.647180e+002, 7.384664e+003
4.652001e+002, 7.387370e+003
4.656822e+002, 7.391958e+003
4.661643e+002, 7.397973e+003
4.666465e+002, 7.404245e+003
4.671286e+002, 7.409647e+003
4.676107e+002, 7.414280e+003
4.680928e+002, 7.417061e+003
4.685749e+002, 7.417972e+003
4.690570e+002, 7.416858e+003
4.695392e+002, 7.411294e+003
4.700213e+002, 7.404242e+003
4.705034e+002, 7.400206e+003
4.709855e+002, 7.401228e+003
4.714676e+002, 7.404927e+003
4.719497e+002, 7.406874e+003
4.724319e+002, 7.406280e+003
4.729140e+002, 7.407572e+003
4.733961e+002, 7.415383e+003
4.738782e+002, 7.421811e+003
4.743603e+002, 7.421452e+003
4.748424e+002, 7.415380e+003
4.753246e+002, 7.408805e+003
4.758067e+002, 7.404522e+003
4.762888e+002, 7.401966e+003
4.767709e+002, 7.399935e+003
4.772530e+002, 7.398466e+003
4.777351e+002, 7.397393e+003
4.782173e+002, 7.396344e+003
4.786994e+002, 7.395884e+003
4.791815e+002, 7.397270e+003
4.796636e+002, 7.401422e+003
4.801457e+002, 7.404163e+003
4.806278e+002, 7.401972e+003
4.811100e+002, 7.397277e+003
4.815920e+002, 7.394354e+003
4.820742e+002, 7.393936e+003
4.825563e+002, 7.395069e+003
4.830384e+002, 7.397316e+003
4.835205e+002, 7.400595e+003
4.840026e+002, 7.402685e+003
4.844847e+002, 7.401258e+003
4.849669e+002, 7.401170e+003
4.854490e+002, 7.406335e+003
4.859311e+002, 7.413759e+003
4.864132e+002, 7.417608e+003
4.868953e+002, 7.415754e+003
4.873774e+002, 7.411770e+003
4.878596e+002, 7.411695e+003
4.883417e+002, 7.417562e+003
4.888238e+002, 7.421837e+003
4.893059e+002, 7.424212e+003
4.897880e+002, 7.425612e+003
4.902701e+002, 7.426563e+003
4.907523e+002, 7.426914e+003
4.912344e+002, 7.426357e+003
4.917165e+002, 7.424824e+003
4.921986e+002, 7.421966e+003
4.926807e+002, 7.415880e+003
4.931628e+002, 7.403955e+003
4.936450e+002, 7.396135e+003
4.941271e+002, 7.398733e+003
4.946092e+002, 7.403177e+003
4.950913e+002, 7.403685e+003
4.955734e+002, 7.400095e+003
4.960555e+002, 7.396183e+003
4.965377e+002, 7.394321e+003
4.970198e+002, 7.394140e+003
4.975019e+002, 7.395011e+003
4.979840e+002, 7.397224e+003
4.984661e+002, 7.399095e+003
4.989482e+002, 7.400828e+003
4.994304e+002, 7.401053e+003
4.999125e+002, 7.396685e+003
5.003946e+002, 7.384813e+003
5.008767e+002, 7.375109e+003
5.013588e+002, 7.373737e+003
5.018409e+002, 7.377370e+003
5.023231e+002, 7.380388e+003
5.028052e+002, 7.381657e+003
5.032873e+002, 7.382097e+003
5.037694e+002, 7.382542e+003
5.042515e+002, 7.383001e+003
5.047336e+002, 7.382995e+003
5.052158e+002, 7.382118e+003
5.056979e+002, 7.381295e+003
5.061800e+002, 7.379655e+003
5.066621e+002, 7.378630e+003
5.071442e+002, 7.381175e+003
5.076263e+002, 7.388160e+003
5.081085e+002, 7.396254e+003
5.085906e+002, 7.400304e+003
5.090727e+002, 7.399500e+003
5.095548e+002, 7.397476e+003
5.100369e+002, 7.393330e+003
5.105190e+002, 7.388795e+003
5.110012e+002, 7.384022e+003
5.114833e+002, 7.379376e+003
5.119654e+002, 7.375018e+003
5.124475e+002, 7.370649e+003
5.129296e+002, 7.367869e+003
5.134117e+002, 7.370888e+003
5.138939e+002, 7.380880e+003
5.143760e+002, 7.387835e+003
5.148581e+002, 7.389273e+003
5.153402e+002, 7.387115e+003
5.158223e+002, 7.381569e+003
5.163044e+002, 7.373452e+003
5.167866e+002, 7.367739e+003
5.172687e+002, 7.367802e+003
5.177508e+002, 7.370663e+003
5.182329e+002, 7.373212e+003
5.187150e+002, 7.375314e+003
5.191971e+002, 7.376164e+003
5.196793e+002, 7.375432e+003
5.201614e+002, 7.373153e+003
5.206435e+002, 7.368486e+003
5.211256e+002, 7.358931e+003
5.216077e+002, 7.354404e+003
5.220898e+002, 7.361709e+003
5.225720e+002, 7.371112e+003
5.230541e+002, 7.373102e+003
5.235362e+002, 7.368150e+003
5.240183e+002, 7.363416e+003
5.245004e+002, 7.364191e+003
5.249825e+002, 7.369265e+003
5.254647e+002, 7.372448e+003
5.259468e+002, 7.373501e+003
5.264289e+002, 7.372770e+003
5.269110e+002, 7.367716e+003
5.273931e+002, 7.362794e+003
5.278752e+002, 7.362483e+003
5.283574e+002, 7.366705e+003
5.288395e+002, 7.371168e+003
5.293216e+002, 7.371792e+003
5.298037e+002, 7.369337e+003
5.302858e+002, 7.369010e+003
5.307679e+002, 7.372885e+003
5.312501e+002, 7.374060e+003
5.317322e+002, 7.364931e+003
5.322143e+002, 7.353788e+003
5.326964e+002, 7.349898e+003
5.331785e+002, 7.355483e+003
5.336606e+002, 7.362321e+003
5.341428e+002, 7.366104e+003
5.346249e+002, 7.367096e+003
5.351070e+002, 7.364952e+003
5.355891e+002, 7.359341e+003
5.360712e+002, 7.354397e+003
5.365533e+002, 7.353753e+003
5.370355e+002, 7.356525e+003
5.375176e+002, 7.357029e+003
5.379997e+002, 7.352538e+003
5.384818e+002, 7.349330e+003
5.389639e+002, 7.349030e+003
5.394460e+002, 7.351050e+003
5.399282e+002, 7.355897e+003
5.404103e+002, 7.363095e+003
5.408924e+002, 7.369245e+003
5.413745e+002, 7.370595e+003
5.418566e+002, 7.367015e+003
5.423387e+002, 7.363211e+003
5.428209e+002, 7.356767e+003
5.433029e+002, 7.353154e+003
5.437850e+002, 7.357161e+003
5.442672e+002, 7.362783e+003
5.447493e+002, 7.361998e+003
5.452314e+002, 7.353017e+003
5.457135e+002, 7.343415e+003
5.461956e+002, 7.342652e+003
5.466777e+002, 7.349821e+003
5.471599e+002, 7.354057e+003
5.476420e+002, 7.354117e+003
5.481241e+002, 7.352686e+003
5.486062e+002, 7.350083e+003
5.490883e+002, 7.347384e+003
5.495704e+002, 7.346538e+003
5.500526e+002, 7.348513e+003
5.505347e+002, 7.351031e+003
5.510168e+002, 7.353363e+003
5.514989e+002, 7.355093e+003
5.519810e+002, 7.354649e+003
5.524631e+002, 7.351629e+003
5.529453e+002, 7.349239e+003
5.534274e+002, 7.350917e+003
5.539095e+002, 7.356681e+003
5.543916e+002, 7.359744e+003
5.548737e+002, 7.358278e+003
5.553558e+002, 7.356694e+003
5.558380e+002, 7.356935e+003
5.563201e+002, 7.357378e+003
5.568022e+002, 7.355225e+003
5.572843e+002, 7.350113e+003
5.577664e+002, 7.345294e+003
5.582485e+002, 7.345016e+003
5.587307e+002, 7.349517e+003
5.592128e+002, 7.351495e+003
5.596949e+002, 7.347861e+003
5.601770e+002, 7.346202e+003
5.606591e+002, 7.352597e+003
5.611412e+002, 7.360603e+003
5.616234e+002, 7.361278e+003
5.621055e+002, 7.351788e+003
5.625876e+002, 7.341511e+003
5.630697e+002, 7.338788e+003
5.635518e+002, 7.341888e+003
5.640339e+002, 7.345396e+003
5.645161e+002, 7.348897e+003
5.649982e+002, 7.351831e+003
5.654803e+002, 7.354049e+003
5.659624e+002, 7.355275e+003
5.664445e+002, 7.354698e+003
5.669266e+002, 7.348828e+003
5.674088e+002, 7.346087e+003
5.678909e+002, 7.352248e+003
5.683730e+002, 7.361741e+003
5.688551e+002, 7.367811e+003
5.693372e+002, 7.369210e+003
5.698193e+002, 7.368198e+003
5.703015e+002, 7.366468e+003
5.707836e+002, 7.364144e+003
5.712657e+002, 7.364028e+003
5.717478e+002, 7.370591e+003
5.722299e+002, 7.373180e+003
5.727120e+002, 7.366612e+003
5.731942e+002, 7.357716e+003
5.736763e+002, 7.352420e+003
5.741584e+002, 7.351768e+003
5.746405e+002, 7.353694e+003
5.751226e+002, 7.357641e+003
5.756047e+002, 7.362809e+003
5.760869e+002, 7.365654e+003
5.765690e+002, 7.365686e+003
5.770511e+002, 7.365258e+003
5.775332e+002, 7.364364e+003
5.780153e+002, 7.364343e+003
5.784974e+002, 7.367987e+003
5.789796e+002, 7.376717e+003
5.794617e+002, 7.382882e+003
5.799438e+002, 7.382680e+003
5.804259e+002, 7.378986e+003
5.809080e+002, 7.374227e+003
5.813901e+002, 7.369007e+003
5.818723e+002, 7.364198e+003
5.823544e+002, 7.360155e+003
5.828365e+002, 7.357350e+003
5.833186e+002, 7.357361e+003
5.838007e+002, 7.362422e+003
5.842828e+002, 7.367130e+003
5.847650e+002, 7.374932e+003
5.852471e+002, 7.379519e+003
5.857292e+002, 7.373538e+003
5.862113e+002, 7.360259e+003
5.866934e+002, 7.350437e+003
5.871755e+002, 7.351714e+003
5.876577e+002, 7.358913e+003
5.881398e+002, 7.359119e+003
5.886219e+002, 7.350733e+003
5.891040e+002, 7.346565e+003
5.895861e+002, 7.352536e+003
5.900682e+002, 7.360586e+003
5.905504e+002, 7.362426e+003
5.910325e+002, 7.359107e+003
5.915146e+002, 7.357480e+003
5.919967e+002, 7.362094e+003
5.924788e+002, 7.367106e+003
5.929609e+002, 7.367271e+003
5.934431e+002, 7.363671e+003
5.939252e+002, 7.359185e+003
5.944073e+002, 7.354694e+003
5.948894e+002, 7.351341e+003
5.953715e+002, 7.350764e+003
5.958536e+002, 7.353373e+003
5.963358e+002, 7.357125e+003
5.968179e+002, 7.364327e+003
5.973000e+002, 7.369972e+003
5.977821e+002, 7.372413e+003
5.982642e+002, 7.372159e+003
5.987463e+002, 7.368971e+003
5.992285e+002, 7.362956e+003
5.997106e+002, 7.357803e+003
6.001927e+002, 7.359441e+003
6.006748e+002, 7.367488e+003
6.011569e+002, 7.371167e+003
6.016390e+002, 7.368359e+003
6.021212e+002, 7.364628e+003
6.026033e+002, 7.362565e+003
6.030854e+002, 7.361749e+003
6.035675e+002, 7.361996e+003
6.040496e+002, 7.363923e+003
6.045317e+002, 7.364981e+003
6.050139e+002, 7.362806e+003
6.054960e+002, 7.359462e+003
6.059781e+002, 7.358620e+003
6.064602e+002, 7.360396e+003
6.069423e+002, 7.361125e+003
6.074244e+002, 7.357797e+003
6.079066e+002, 7.351766e+003
6.083887e+002, 7.349086e+003
6.088708e+002, 7.352689e+003
6.093529e+002, 7.355713e+003
6.098350e+002, 7.357796e+003
6.103171e+002, 7.359383e+003
6.107993e+002, 7.361254e+003
6.112814e+002, 7.363002e+003
6.117635e+002, 7.363026e+003
6.122456e+002, 7.359672e+003
6.127277e+002, 7.355017e+003
6.132098e+002, 7.354056e+003
6.136920e+002, 7.357214e+003
6.141741e+002, 7.358443e+003
6.146562e+002, 7.354816e+003
6.151383e+002, 7.350645e+003
6.156204e+002, 7.350605e+003
6.161025e+002, 7.354016e+003
6.165847e+002, 7.357165e+003
6.170668e+002, 7.359307e+003
6.175489e+002, 7.360933e+003
6.180310e+002, 7.363284e+003
6.185131e+002, 7.365166e+003
6.189952e+002, 7.363493e+003
6.194774e+002, 7.357482e+003
6.199595e+002, 7.350404e+003
6.204416e+002, 7.345883e+003
6.209237e+002, 7.343917e+003
6.214058e+002, 7.344571e+003
6.218879e+002, 7.350958e+003
6.223701e+002, 7.356271e+003
6.228522e+002, 7.359812e+003
6.233343e+002, 7.361255e+003
6.238164e+002, 7.358787e+003
6.242985e+002, 7.352642e+003
6.247806e+002, 7.348284e+003
6.252628e+002, 7.351953e+003
6.257448e+002, 7.360544e+003
6.262269e+002, 7.365918e+003
6.267090e+002, 7.367818e+003
6.271912e+002, 7.367392e+003
6.276733e+002, 7.364354e+003
6.281554e+002, 7.360079e+003
6.286375e+002, 7.357696e+003
6.291196e+002, 7.358264e+003
6.296017e+002, 7.355657e+003
6.300839e+002, 7.344567e+003
6.305660e+002, 7.333892e+003
6.310481e+002, 7.329404e+003
6.315302e+002, 7.330373e+003
6.320123e+002, 7.334994e+003
6.324944e+002, 7.342431e+003
6.329766e+002, 7.349736e+003
6.334587e+002, 7.350767e+003
6.339408e+002, 7.343359e+003
6.344229e+002, 7.341126e+003
6.349050e+002, 7.349357e+003
6.353871e+002, 7.356081e+003
6.358693e+002, 7.354522e+003
6.363514e+002, 7.348815e+003
6.368335e+002, 7.345220e+003
6.373156e+002, 7.345405e+003
6.377977e+002, 7.346979e+003
6.382798e+002, 7.349138e+003
6.387620e+002, 7.351263e+003
6.392441e+002, 7.352467e+003
6.397262e+002, 7.352604e+003
6.402083e+002, 7.350794e+003
6.406904e+002, 7.345929e+003
6.411725e+002, 7.339300e+003
6.416547e+002, 7.335188e+003
6.421368e+002, 7.335170e+003
6.426189e+002, 7.335490e+003
6.431010e+002, 7.337470e+003
6.435831e+002, 7.338576e+003
6.440652e+002, 7.336651e+003
6.445474e+002, 7.332495e+003
6.450295e+002, 7.328184e+003
6.455116e+002, 7.324695e+003
6.459937e+002, 7.322151e+003
6.464758e+002, 7.321006e+003
6.469579e+002, 7.321255e+003
6.474401e+002, 7.321595e+003
6.479222e+002, 7.321893e+003
6.484043e+002, 7.322242e+003
6.488864e+002, 7.323468e+003
6.493685e+002, 7.324841e+003
6.498506e+002, 7.323828e+003
6.503328e+002, 7.318019e+003
6.508149e+002, 7.313351e+003
6.512970e+002, 7.314030e+003
6.517791e+002, 7.316146e+003
6.522612e+002, 7.313571e+003
6.527433e+002, 7.306719e+003
6.532255e+002, 7.302635e+003
6.537076e+002, 7.307128e+003
6.541897e+002, 7.317096e+003
6.546718e+002, 7.320340e+003
6.551539e+002, 7.312568e+003
6.556360e+002, 7.308341e+003
6.561182e+002, 7.312426e+003
6.566003e+002, 7.318130e+003
6.570824e+002, 7.322151e+003
6.575645e+002, 7.324728e+003
6.580466e+002, 7.327463e+003
6.585287e+002, 7.332134e+003
6.590109e+002, 7.335219e+003
6.594930e+002, 7.332409e+003
6.599751e+002, 7.325349e+003
6.604572e+002, 7.317823e+003
6.609393e+002, 7.310564e+003
6.614214e+002, 7.305819e+003
6.619036e+002, 7.306057e+003
6.623857e+002, 7.310753e+003
6.628678e+002, 7.313952e+003
6.633499e+002, 7.314277e+003
6.638320e+002, 7.315057e+003
6.643141e+002, 7.318306e+003
6.647963e+002, 7.320904e+003
6.652784e+002, 7.319488e+003
6.657605e+002, 7.314912e+003
6.662426e+002, 7.311219e+003
6.667247e+002, 7.311223e+003
6.672068e+002, 7.313015e+003
6.676890e+002, 7.312848e+003
6.681711e+002, 7.310811e+003
6.686532e+002, 7.309974e+003
6.691353e+002, 7.311501e+003
6.696174e+002, 7.313216e+003
6.700995e+002, 7.313232e+003
6.705817e+002, 7.311534e+003
6.710638e+002, 7.308942e+003
6.715459e+002, 7.304024e+003
6.720280e+002, 7.299915e+003
6.725101e+002, 7.297395e+003
6.729922e+002, 7.296301e+003
6.734744e+002, 7.297030e+003
6.739565e+002, 7.299186e+003
6.744386e+002, 7.301438e+003
6.749207e+002, 7.303177e+003
6.754028e+002, 7.303581e+003
6.758849e+002, 7.298545e+003
6.763671e+002, 7.285617e+003
6.768492e+002, 7.278456e+003
6.773313e+002, 7.283708e+003
6.778134e+002, 7.291034e+003
6.782955e+002, 7.291470e+003
6.787776e+002, 7.286970e+003
6.792598e+002, 7.284561e+003
6.797419e+002, 7.288005e+003
6.802240e+002, 7.291160e+003
6.807061e+002, 7.290032e+003
6.811882e+002, 7.286449e+003
6.816703e+002, 7.283026e+003
6.821525e+002, 7.280333e+003
6.826346e+002, 7.277730e+003
6.831167e+002, 7.274369e+003
6.835988e+002, 7.271099e+003
6.840809e+002, 7.272659e+003
6.845630e+002, 7.282973e+003
6.850452e+002, 7.289552e+003
6.855273e+002, 7.287346e+003
6.860094e+002, 7.283885e+003
6.864915e+002, 7.283482e+003
6.869736e+002, 7.285397e+003
6.874557e+002, 7.286841e+003
6.879379e+002, 7.286979e+003
6.884200e+002, 7.285845e+003
6.889021e+002, 7.281272e+003
6.893842e+002, 7.275750e+003
6.898663e+002, 7.276673e+003
6.903484e+002, 7.285161e+003
6.908306e+002, 7.292827e+003
6.913127e+002, 7.292689e+003
6.917948e+002, 7.286618e+003
6.922769e+002, 7.284182e+003
6.927590e+002, 7.290323e+003
6.932411e+002, 7.292248e+003
6.937233e+002, 7.285050e+003
6.942054e+002, 7.277827e+003
6.946875e+002, 7.277186e+003
6.951696e+002, 7.281108e+003
6.956517e+002, 7.283468e+003
6.961339e+002, 7.281392e+003
6.966160e+002, 7.277575e+003
6.970981e+002, 7.274722e+003
6.975802e+002, 7.272604e+003
6.980623e+002, 7.269795e+003
6.985444e+002, 7.265907e+003
6.990266e+002, 7.264048e+003
6.995087e+002, 7.266968e+003
6.999908e+002, 7.273193e+003
7.004729e+002, 7.277182e+003
7.009550e+002, 7.277466e+003
7.014371e+002, 7.277505e+003
7.019193e+002, 7.276594e+003
7.024014e+002, 7.276071e+003
7.028835e+002, 7.277660e+003
7.033656e+002, 7.280144e+003
7.038477e+002, 7.280319e+003
7.043298e+002, 7.276514e+003
7.048120e+002, 7.272993e+003
7.052941e+002, 7.276880e+003
7.057762e+002, 7.286128e+003
7.062583e+002, 7.290048e+003
7.067404e+002, 7.287077e+003
7.072225e+002, 7.282990e+003
7.077046e+002, 7.281149e+003
7.081867e+002, 7.280423e+003
7.086688e+002, 7.277502e+003
7.091509e+002, 7.270072e+003
7.096331e+002, 7.266390e+003
7.101152e+002, 7.270117e+003
7.105973e+002, 7.274594e+003
7.110794e+002, 7.275653e+003
7.115615e+002, 7.274632e+003
7.120436e+002, 7.274117e+003
7.125258e+002, 7.275068e+003
7.130079e+002, 7.277427e+003
7.134900e+002, 7.283228e+003
7.139721e+002, 7.290921e+003
7.144542e+002, 7.290901e+003
7.149363e+002, 7.281728e+003
7.154185e+002, 7.272161e+003
7.159006e+002, 7.265294e+003
7.163827e+002, 7.261233e+003
7.168648e+002, 7.261015e+003
7.173469e+002, 7.265494e+003
7.178290e+002, 7.268348e+003
7.183112e+002, 7.267827e+003
7.187933e+002, 7.266891e+003
7.192754e+002, 7.268582e+003
7.197575e+002, 7.270134e+003
7.202396e+002, 7.266350e+003
7.207217e+002, 7.256530e+003
7.212039e+002, 7.246544e+003
7.216860e+002, 7.242340e+003
7.221681e+002, 7.242558e+003
7.226502e+002, 7.242234e+003
7.231323e+002, 7.241456e+003
7.236144e+002, 7.239245e+003
7.240966e+002, 7.234366e+003
7.245787e+002, 7.229376e+003
7.250608e+002, 7.227658e+003
7.255429e+002, 7.229151e+003
7.260250e+002, 7.230046e+003
7.265071e+002, 7.230294e+003
7.269893e+002, 7.229835e+003
7.274714e+002, 7.227998e+003
7.279535e+002, 7.225878e+003
7.284356e+002, 7.224313e+003
7.289177e+002, 7.223681e+003
7.293998e+002, 7.224767e+003
7.298820e+002, 7.228702e+003
7.303641e+002, 7.233671e+003
7.308462e+002, 7.234934e+003
7.313283e+002, 7.232288e+003
7.318104e+002, 7.231008e+003
7.322925e+002, 7.232440e+003
7.327747e+002, 7.234534e+003
7.332568e+002, 7.235978e+003
7.337389e+002, 7.236621e+003
7.342210e+002, 7.236076e+003
7.347031e+002, 7.232486e+003
7.351852e+002, 7.230459e+003
7.356674e+002, 7.233221e+003
7.361495e+002, 7.235987e+003
7.366316e+002, 7.234030e+003
7.371137e+002, 7.228546e+003
7.375958e+002, 7.224190e+003
7.380779e+002, 7.223405e+003
7.385601e+002, 7.223059e+003
7.390422e+002, 7.216842e+003
7.395243e+002, 7.205846e+003
7.400064e+002, 7.201102e+003
7.404885e+002, 7.204581e+003
7.409706e+002, 7.209527e+003
7.414528e+002, 7.212823e+003
7.419349e+002, 7.214813e+003
7.424170e+002, 7.216399e+003
7.428991e+002, 7.218294e+003
7.433812e+002, 7.217664e+003
7.438633e+002, 7.212310e+003
7.443455e+002, 7.206509e+003
7.448276e+002, 7.202202e+003
7.453097e+002, 7.199102e+003
7.457918e+002, 7.196841e+003
7.462739e+002, 7.195212e+003
7.467560e+002, 7.193298e+003
7.472382e+002, 7.188403e+003
7.477203e+002, 7.182874e+003
7.482024e+002, 7.185530e+003
7.486845e+002, 7.196635e+003
7.491666e+002, 7.206213e+003
7.496487e+002, 7.211744e+003
7.501309e+002, 7.212278e+003
7.506130e+002, 7.204279e+003
7.510951e+002, 7.186798e+003
7.515772e+002, 7.180146e+003
7.520593e+002, 7.195041e+003
7.525414e+002, 7.205745e+003
7.530236e+002, 7.204478e+003
7.535057e+002, 7.198053e+003
7.539878e+002, 7.189921e+003
7.544699e+002, 7.182385e+003
7.549520e+002, 7.180395e+003
7.554341e+002, 7.188691e+003
7.559163e+002, 7.199591e+003
7.563984e+002, 7.202104e+003
7.568805e+002, 7.197748e+003
7.573626e+002, 7.192944e+003
7.578447e+002, 7.188698e+003
7.583268e+002, 7.184436e+003
7.588090e+002, 7.179530e+003
7.592911e+002, 7.174628e+003
7.597732e+002, 7.171843e+003
7.602553e+002, 7.172962e+003
7.607374e+002, 7.173271e+003
7.612195e+002, 7.173833e+003
7.617017e+002, 7.172800e+003
7.621838e+002, 7.167435e+003
7.626659e+002, 7.160703e+003
7.631480e+002, 7.158141e+003
7.636301e+002, 7.161523e+003
7.641122e+002, 7.163560e+003
7.645944e+002, 7.155853e+003
7.650765e+002, 7.144942e+003
7.655586e+002, 7.141804e+003
7.660407e+002, 7.145600e+003
7.665228e+002, 7.149593e+003
7.670049e+002, 7.151181e+003
7.674871e+002, 7.151704e+003
7.679692e+002, 7.152983e+003
7.684513e+002, 7.155028e+003
7.689334e+002, 7.155722e+003
7.694155e+002, 7.153230e+003
7.698976e+002, 7.152201e+003
7.703798e+002, 7.156189e+003
7.708619e+002, 7.159859e+003
7.713440e+002, 7.157426e+003
7.718261e+002, 7.150256e+003
7.723082e+002, 7.146315e+003
7.727903e+002, 7.150288e+003
7.732725e+002, 7.155732e+003
7.737546e+002, 7.159016e+003
7.742367e+002, 7.160534e+003
7.747188e+002, 7.160361e+003
7.752009e+002, 7.158886e+003
7.756830e+002, 7.157690e+003
7.761652e+002, 7.157889e+003
7.766473e+002, 7.158745e+003
7.771294e+002, 7.158798e+003
7.776115e+002, 7.158320e+003
7.780936e+002, 7.154915e+003
7.785757e+002, 7.145737e+003
7.790579e+002, 7.138660e+003
7.795400e+002, 7.139410e+003
7.800221e+002, 7.144386e+003
7.805042e+002, 7.147827e+003
7.809863e+002, 7.149533e+003
7.814684e+002, 7.149994e+003
7.819506e+002, 7.149977e+003
7.824327e+002, 7.148098e+003
7.829148e+002, 7.140808e+003
7.833969e+002, 7.131962e+003
7.838790e+002, 7.127939e+003
7.843611e+002, 7.130251e+003
7.848433e+002, 7.135818e+003
7.853254e+002, 7.142996e+003
7.858075e+002, 7.150518e+003
7.862896e+002, 7.155130e+003
7.867717e+002, 7.156837e+003
7.872538e+002, 7.152459e+003
7.877360e+002, 7.138905e+003
7.882181e+002, 7.126100e+003
7.887002e+002, 7.123954e+003
7.891823e+002, 7.131074e+003
7.896644e+002, 7.135694e+003
7.901465e+002, 7.136635e+003
7.906286e+002, 7.136951e+003
7.911107e+002, 7.133588e+003
7.915928e+002, 7.132723e+003
7.920750e+002, 7.141182e+003
7.925571e+002, 7.154715e+003
7.930392e+002, 7.164312e+003
7.935213e+002, 7.166628e+003
7.940034e+002, 7.165373e+003
7.944855e+002, 7.162351e+003
7.949677e+002, 7.158558e+003
7.954498e+002, 7.156225e+003
7.959319e+002, 7.155147e+003
7.964140e+002, 7.152768e+003
7.968961e+002, 7.147813e+003
7.973782e+002, 7.143311e+003
7.978604e+002, 7.144138e+003
7.983425e+002, 7.150687e+003
7.988246e+002, 7.151669e+003
7.993067e+002, 7.142867e+003
7.997888e+002, 7.136028e+003
8.002709e+002, 7.135367e+003
8.007531e+002, 7.136654e+003
8.012352e+002, 7.137798e+003
8.017173e+002, 7.138367e+003
8.021994e+002, 7.136819e+003
8.026815e+002, 7.129216e+003
8.031636e+002, 7.124604e+003
8.036458e+002, 7.130618e+003
8.041279e+002, 7.140437e+003
8.046100e+002, 7.146715e+003
8.050921e+002, 7.148898e+003
8.055742e+002, 7.148696e+003
8.060563e+002, 7.146890e+003
8.065385e+002, 7.145120e+003
8.070206e+002, 7.147103e+003
8.075027e+002, 7.152354e+003
8.079848e+002, 7.153249e+003
8.084669e+002, 7.148896e+003
8.089490e+002, 7.143105e+003
8.094312e+002, 7.136970e+003
8.099133e+002, 7.131060e+003
8.103954e+002, 7.125963e+003
8.108775e+002, 7.121489e+003
8.113596e+002, 7.119590e+003
8.118417e+002, 7.124307e+003
8.123239e+002, 7.126465e+003
8.128060e+002, 7.120280e+003
8.132881e+002, 7.112810e+003
8.137702e+002, 7.110999e+003
8.142523e+002, 7.114633e+003
8.147344e+002, 7.119340e+003
8.152166e+002, 7.123880e+003
8.156987e+002, 7.126672e+003
8.161808e+002, 7.124536e+003
8.166629e+002, 7.119736e+003
8.171450e+002, 7.117270e+003
8.176271e+002, 7.117604e+003
8.181093e+002, 7.118935e+003
8.185914e+002, 7.120267e+003
8.190735e+002, 7.121599e+003
8.195556e+002, 7.123167e+003
8.200377e+002, 7.125213e+003
8.205198e+002, 7.125390e+003
8.210020e+002, 7.122667e+003
8.214841e+002, 7.119823e+003
8.219662e+002, 7.117161e+003
8.224483e+002, 7.115386e+003
8.229304e+002, 7.116197e+003
8.234125e+002, 7.119434e+003
8.238947e+002, 7.120284e+003
8.243768e+002, 7.115249e+003
8.248589e+002, 7.110819e+003
8.253410e+002, 7.109141e+003
8.258231e+002, 7.110087e+003
8.263052e+002, 7.115302e+003
8.267874e+002, 7.123230e+003
8.272695e+002, 7.128800e+003
8.277516e+002, 7.129133e+003
8.282337e+002, 7.126240e+003
8.287158e+002, 7.121454e+003
8.291979e+002, 7.115743e+003
8.296801e+002, 7.114435e+003
8.301622e+002, 7.118024e+003
8.306443e+002, 7.118166e+003
8.311264e+002, 7.109537e+003
8.316085e+002, 7.098838e+003
8.320906e+002, 7.098064e+003
8.325728e+002, 7.109621e+003
8.330549e+002, 7.112978e+003
8.335370e+002, 7.098677e+003
8.340191e+002, 7.089701e+003
8.345012e+002, 7.097287e+003
8.349833e+002, 7.106991e+003
8.354655e+002, 7.105004e+003
8.359476e+002, 7.093614e+003
8.364297e+002, 7.087308e+003
8.369118e+002, 7.093885e+003
8.373939e+002, 7.100983e+003
8.378760e+002, 7.101000e+003
8.383582e+002, 7.098573e+003
8.388403e+002, 7.099935e+003
8.393224e+002, 7.104102e+003
8.398045e+002, 7.105880e+003
8.402866e+002, 7.102833e+003
8.407687e+002, 7.097146e+003
8.412509e+002, 7.091015e+003
8.417330e+002, 7.084728e+003
8.422151e+002, 7.079626e+003
8.426972e+002, 7.075655e+003
8.431793e+002, 7.074427e+003
8.436614e+002, 7.076765e+003
8.441436e+002, 7.081517e+003
8.446257e+002, 7.088248e+003
8.451078e+002, 7.096772e+003
8.455899e+002, 7.100329e+003
8.460720e+002, 7.092611e+003
8.465541e+002, 7.089001e+003
8.470363e+002, 7.095694e+003
8.475184e+002, 7.102072e+003
8.480005e+002, 7.100005e+003
8.484826e+002, 7.092721e+003
8.489647e+002, 7.088490e+003
8.494468e+002, 7.090198e+003
8.499290e+002, 7.091505e+003
8.504111e+002, 7.087649e+003
8.508932e+002, 7.082852e+003
8.513753e+002, 7.082178e+003
8.518574e+002, 7.084035e+003
8.523395e+002, 7.084001e+003
8.528217e+002, 7.080874e+003
8.533038e+002, 7.076970e+003
8.537859e+002, 7.074428e+003
8.542680e+002, 7.073054e+003
8.547501e+002, 7.072165e+003
8.552322e+002, 7.071780e+003
8.557144e+002, 7.072768e+003
8.561965e+002, 7.075923e+003
8.566786e+002, 7.077521e+003
8.571607e+002, 7.074005e+003
8.576428e+002, 7.067334e+003
8.581249e+002, 7.063837e+003
8.586071e+002, 7.064530e+003
8.590892e+002, 7.066139e+003
8.595713e+002, 7.072298e+003
8.600534e+002, 7.075022e+003
8.605355e+002, 7.066326e+003
8.610176e+002, 7.055534e+003
8.614998e+002, 7.056089e+003
8.619819e+002, 7.068655e+003
8.624640e+002, 7.076930e+003
8.629461e+002, 7.071272e+003
8.634282e+002, 7.062560e+003
8.639103e+002, 7.057604e+003
8.643925e+002, 7.054573e+003
8.648746e+002, 7.050145e+003
8.653567e+002, 7.044684e+003
8.658388e+002, 7.042276e+003
8.663209e+002, 7.045635e+003
8.668030e+002, 7.050530e+003
8.672852e+002, 7.050634e+003
8.677673e+002, 7.046518e+003
8.682494e+002, 7.039874e+003
8.687315e+002, 7.030655e+003
8.692136e+002, 7.024973e+003
8.696957e+002, 7.025833e+003
8.701779e+002, 7.029659e+003
8.706600e+002, 7.031825e+003
8.711421e+002, 7.032314e+003
8.716242e+002, 7.033021e+003
8.721063e+002, 7.034917e+003
8.725884e+002, 7.035280e+003
8.730705e+002, 7.030872e+003
8.735526e+002, 7.027373e+003
8.740347e+002, 7.031003e+003
8.745168e+002, 7.037795e+003
8.749990e+002, 7.037026e+003
8.754811e+002, 7.023334e+003
8.759632e+002, 7.013288e+003
8.764453e+002, 7.016272e+003
8.769274e+002, 7.021525e+003
8.774095e+002, 7.021992e+003
8.778917e+002, 7.018739e+003
8.783738e+002, 7.012630e+003
8.788559e+002, 7.005005e+003
8.793380e+002, 7.001784e+003
8.798201e+002, 7.009929e+003
8.803022e+002, 7.022372e+003
8.807844e+002, 7.027220e+003
8.812665e+002, 7.026302e+003
8.817486e+002, 7.026211e+003
8.822307e+002, 7.027983e+003
8.827128e+002, 7.029694e+003
8.831949e+002, 7.030130e+003
8.836771e+002, 7.029727e+003
8.841592e+002, 7.029655e+003
8.846413e+002, 7.030244e+003
8.851234e+002, 7.028521e+003
8.856055e+002, 7.024412e+003
8.860876e+002, 7.017704e+003
8.865698e+002, 7.005440e+003
8.870519e+002, 6.993423e+003
8.875340e+002, 6.989092e+003
8.880161e+002, 6.991876e+003
8.884982e+002, 6.992692e+003
8.889803e+002, 6.988104e+003
8.894625e+002, 6.986027e+003
8.899446e+002, 6.989495e+003
8.904267e+002, 6.994349e+003
8.909088e+002, 6.998830e+003
8.913909e+002, 7.002252e+003
8.918730e+002, 7.003602e+003
8.923552e+002, 7.002578e+003
8.928373e+002, 7.001077e+003
8.933194e+002, 7.001916e+003
8.938015e+002, 7.001607e+003
8.942836e+002, 6.994035e+003
8.947657e+002, 6.983104e+003
8.952479e+002, 6.977716e+003
8.957300e+002, 6.979173e+003
8.962121e+002, 6.981659e+003
8.966942e+002, 6.980813e+003
8.971763e+002, 6.978459e+003
8.976584e+002, 6.978634e+003
8.981406e+002, 6.980950e+003
8.986227e+002, 6.981794e+003
8.991048e+002, 6.980751e+003
8.995869e+002, 6.978523e+003
9.000690e+002, 6.974836e+003
9.005511e+002, 6.971906e+003
9.010333e+002, 6.974077e+003
9.015154e+002, 6.981913e+003
9.019975e+002, 6.981000e+003
9.024796e+002, 6.962593e+003
9.029617e+002, 6.951776e+003
9.034438e+002, 6.959050e+003
9.039260e+002, 6.969691e+003
9.044081e+002, 6.974394e+003
9.048902e+002, 6.974692e+003
9.053723e+002, 6.974578e+003
9.058544e+002, 6.974763e+003
9.063365e+002, 6.973740e+003
9.068187e+002, 6.970731e+003
9.073008e+002, 6.966840e+003
9.077829e+002, 6.960255e+003
9.082650e+002, 6.954469e+003
9.087471e+002, 6.955298e+003
9.092292e+002, 6.962631e+003
9.097114e+002, 6.969616e+003
9.101935e+002, 6.972763e+003
9.106756e+002, 6.972898e+003
9.111577e+002, 6.968986e+003
9.116398e+002, 6.963421e+003
9.121219e+002, 6.960979e+003
9.126041e+002, 6.961600e+003
9.130862e+002, 6.963051e+003
9.135683e+002, 6.964307e+003
9.140504e+002, 6.962751e+003
9.145325e+002, 6.952458e+003
9.150146e+002, 6.936125e+003
9.154968e+002, 6.930022e+003
9.159789e+002, 6.934563e+003
9.164610e+002, 6.938417e+003
9.169431e+002, 6.938550e+003
9.174252e+002, 6.938716e+003
9.179073e+002, 6.942487e+003
9.183895e+002, 6.948345e+003
9.188716e+002, 6.950590e+003
9.193537e+002, 6.947674e+003
9.198358e+002, 6.945017e+003
9.203179e+002, 6.943468e+003
9.208000e+002, 6.940802e+003
9.212822e+002, 6.933423e+003
9.217643e+002, 6.926122e+003
9.222464e+002, 6.924728e+003
9.227285e+002, 6.929034e+003
9.232106e+002, 6.933229e+003
9.236927e+002, 6.939905e+003
9.241749e+002, 6.941711e+003
9.246570e+002, 6.930587e+003
9.251391e+002, 6.919181e+003
9.256212e+002, 6.918965e+003
9.261033e+002, 6.926008e+003
9.265854e+002, 6.930809e+003
9.270676e+002, 6.930610e+003
9.275497e+002, 6.929167e+003
9.280318e+002, 6.929050e+003
9.285139e+002, 6.928903e+003
9.289960e+002, 6.926544e+003
9.294781e+002, 6.923439e+003
9.299603e+002, 6.923348e+003
9.304424e+002, 6.926057e+003
9.309245e+002, 6.926651e+003
9.314066e+002, 6.921707e+003
9.318887e+002, 6.914780e+003
9.323708e+002, 6.911384e+003
9.328530e+002, 6.910837e+003
9.333351e+002, 6.910788e+003
9.338172e+002, 6.910987e+003
9.342993e+002, 6.909908e+003
9.347814e+002, 6.906813e+003
9.352635e+002, 6.903688e+003
9.357457e+002, 6.902553e+003
9.362278e+002, 6.903353e+003
9.367099e+002, 6.906493e+003
9.371920e+002, 6.913099e+003
9.376741e+002, 6.916818e+003
9.381563e+002, 6.916048e+003
9.386384e+002, 6.914417e+003
9.391205e+002, 6.915014e+003
9.396026e+002, 6.914996e+003
9.400847e+002, 6.908112e+003
9.405668e+002, 6.892136e+003
9.410490e+002, 6.882624e+003
9.415311e+002, 6.884171e+003
9.420132e+002, 6.885682e+003
9.424953e+002, 6.883392e+003
9.429774e+002, 6.881966e+003
9.434595e+002, 6.888120e+003
9.439417e+002, 6.897540e+003
9.444238e+002, 6.897637e+003
9.449059e+002, 6.882407e+003
9.453880e+002, 6.871726e+003
9.458701e+002, 6.877490e+003
9.463522e+002, 6.884908e+003
9.468344e+002, 6.884143e+003
9.473165e+002, 6.879015e+003
9.477986e+002, 6.875091e+003
9.482807e+002, 6.873079e+003
9.487628e+002, 6.870231e+003
9.492449e+002, 6.863880e+003
9.497271e+002, 6.859331e+003
9.502092e+002, 6.864065e+003
9.506913e+002, 6.872457e+003
9.511734e+002, 6.875358e+003
9.516555e+002, 6.873744e+003
9.521376e+002, 6.874041e+003
9.526198e+002, 6.878103e+003
9.531019e+002, 6.880219e+003
9.535840e+002, 6.873302e+003
9.540661e+002, 6.862576e+003
9.545482e+002, 6.862738e+003
9.550303e+002, 6.871613e+003
9.555124e+002, 6.874145e+003
9.559945e+002, 6.868214e+003
9.564766e+002, 6.860898e+003
9.569587e+002, 6.855526e+003
9.574409e+002, 6.853380e+003
9.579230e+002, 6.857730e+003
9.584051e+002, 6.868369e+003
9.588872e+002, 6.871362e+003
9.593693e+002, 6.864475e+003
9.598514e+002, 6.859651e+003
9.603336e+002, 6.860176e+003
9.608157e+002, 6.861634e+003
9.612978e+002, 6.860606e+003
9.617799e+002, 6.858199e+003
9.622620e+002, 6.857846e+003
9.627441e+002, 6.861443e+003
9.632263e+002, 6.861163e+003
9.637084e+002, 6.851209e+003
9.641905e+002, 6.845330e+003
9.646726e+002, 6.852103e+003
9.651547e+002, 6.860343e+003
9.656368e+002, 6.859634e+003
9.661190e+002, 6.851706e+003
9.666011e+002, 6.845497e+003
9.670832e+002, 6.842575e+003
9.675653e+002, 6.840425e+003
9.680474e+002, 6.839288e+003
9.685295e+002, 6.837926e+003
9.690117e+002, 6.835479e+003
9.694938e+002, 6.832472e+003
9.699759e+002, 6.828567e+003
9.704580e+002, 6.824409e+003
9.709401e+002, 6.824080e+003
9.714222e+002, 6.833325e+003
9.719044e+002, 6.840438e+003
9.723865e+002, 6.835699e+003
9.728686e+002, 6.826952e+003
9.733507e+002, 6.822862e+003
9.738328e+002, 6.821806e+003
9.743149e+002, 6.817106e+003
9.747971e+002, 6.807392e+003
9.752792e+002, 6.800458e+003
9.757613e+002, 6.805248e+003
9.762434e+002, 6.813160e+003
9.767255e+002, 6.812063e+003
9.772076e+002, 6.805480e+003
9.776898e+002, 6.800302e+003
9.781719e+002, 6.797465e+003
9.786540e+002, 6.796219e+003
9.791361e+002, 6.796183e+003
9.796182e+002, 6.796862e+003
9.801003e+002, 6.797828e+003
9.805825e+002, 6.798946e+003
9.810646e+002, 6.799613e+003
9.815467e+002, 6.799931e+003
9.820288e+002, 6.801130e+003
9.825109e+002, 6.803456e+003
9.829930e+002, 6.804104e+003
9.834752e+002, 6.800941e+003
9.839573e+002, 6.796551e+003
9.844394e+002, 6.796480e+003
9.849215e+002, 6.800792e+003
9.854036e+002, 6.801250e+003
9.858857e+002, 6.797120e+003
9.863679e+002, 6.793207e+003
9.868500e+002, 6.790317e+003
9.873321e+002, 6.789386e+003
9.878142e+002, 6.791622e+003
9.882963e+002, 6.795965e+003
9.887784e+002, 6.799349e+003
9.892606e+002, 6.802324e+003
9.897427e+002, 6.802068e+003
9.902248e+002, 6.796995e+003
9.907069e+002, 6.791522e+003
9.911890e+002, 6.785392e+003
9.916711e+002, 6.781145e+003
9.921533e+002, 6.781583e+003
9.926354e+002, 6.786155e+003
9.931175e+002, 6.791768e+003
9.935996e+002, 6.802048e+003
9.940817e+002, 6.806879e+003
9.945638e+002, 6.802452e+003
9.950460e+002, 6.797013e+003
9.955281e+002, 6.793578e+003
9.960102e+002, 6.790835e+003
9.964923e+002, 6.786466e+003
9.969744e+002, 6.780985e+003
9.974565e+002, 6.778831e+003
9.979387e+002, 6.785017e+003
9.984208e+002, 6.787600e+003
9.989029e+002, 6.778005e+003
9.993850e+002, 6.769729e+003
9.998671e+002, 6.772768e+003
1.000349e+003, 6.781727e+003
1.000831e+003, 6.789532e+003
1.001313e+003, 6.794757e+003
1.001796e+003, 6.796994e+003
1.002278e+003, 6.795132e+003
1.002760e+003, 6.791637e+003
1.003242e+003, 6.785628e+003
1.003724e+003, 6.780534e+003
1.004206e+003, 6.780237e+003
1.004688e+003, 6.783135e+003
1.005170e+003, 6.786376e+003
1.005653e+003, 6.788929e+003
1.006135e+003, 6.789297e+003
1.006617e+003, 6.784616e+003
1.007099e+003, 6.779923e+003
1.007581e+003, 6.781375e+003
1.008063e+003, 6.784885e+003
1.008545e+003, 6.783538e+003
1.009027e+003, 6.778941e+003
1.009509e+003, 6.778603e+003
1.009992e+003, 6.784640e+003
1.010474e+003, 6.788924e+003
1.010956e+003, 6.782801e+003
1.011438e+003, 6.772477e+003
1.011920e+003, 6.766017e+003
1.012402e+003, 6.763081e+003
1.012884e+003, 6.764422e+003
1.013366e+003, 6.768794e+003
1.013849e+003, 6.770541e+003
1.014331e+003, 6.767260e+003
1.014813e+003, 6.763115e+003
1.015295e+003, 6.762632e+003
1.015777e+003, 6.764841e+003
1.016259e+003, 6.769203e+003
1.016741e+003, 6.774316e+003
1.017223e+003, 6.771857e+003
1.017705e+003, 6.761423e+003
1.018188e+003, 6.752831e+003
1.018670e+003, 6.751184e+003
1.019152e+003, 6.752513e+003
1.019634e+003, 6.751044e+003
1.020116e+003, 6.747923e+003
1.020598e+003, 6.750462e+003
1.021080e+003, 6.758242e+003
1.021562e+003, 6.758776e+003
1.022044e+003, 6.749437e+003
1.022527e+003, 6.741813e+003
1.023009e+003, 6.742733e+003
1.023491e+003, 6.748311e+003
1.023973e+003, 6.752717e+003
1.024455e+003, 6.755967e+003
1.024937e+003, 6.758504e+003
1.025419e+003, 6.760699e+003
1.025901e+003, 6.758323e+003
1.026384e+003, 6.749365e+003
1.026866e+003, 6.741322e+003
1.027348e+003, 6.738905e+003
1.027830e+003, 6.740185e+003
1.028312e+003, 6.741688e+003
1.028794e+003, 6.743417e+003
1.029276e+003, 6.746819e+003
1.029758e+003, 6.753952e+003
1.030240e+003, 6.754981e+003
1.030723e+003, 6.745450e+003
1.031205e+003, 6.735593e+003
1.031687e+003, 6.731681e+003
1.032169e+003, 6.732247e+003
1.032651e+003, 6.734669e+003
1.033133e+003, 6.739259e+003
1.033615e+003, 6.742659e+003
1.034097e+003, 6.743836e+003
1.034579e+003, 6.746021e+003
1.035062e+003, 6.750727e+003
1.035544e+003, 6.755084e+003
1.036026e+003, 6.757349e+003
1.036508e+003, 6.757785e+003
1.036990e+003, 6.756586e+003
1.037472e+003, 6.753061e+003
1.037954e+003, 6.751595e+003
1.038436e+003, 6.754072e+003
1.038919e+003, 6.755577e+003
1.039401e+003, 6.755837e+003
1.039883e+003, 6.754316e+003
1.040365e+003, 6.749604e+003
1.040847e+003, 6.743245e+003
1.041329e+003, 6.738253e+003
1.041811e+003, 6.734548e+003
1.042293e+003, 6.732842e+003
1.042776e+003, 6.736616e+003
1.043258e+003, 6.737633e+003
1.043740e+003, 6.732590e+003
1.044222e+003, 6.726216e+003
1.044704e+003, 6.720286e+003
1.045186e+003, 6.715643e+003
1.045668e+003, 6.714146e+003
1.046150e+003, 6.716380e+003
1.046632e+003, 6.718406e+003
1.047115e+003, 6.720901e+003
1.047597e+003, 6.721587e+003
1.048079e+003, 6.716994e+003
1.048561e+003, 6.713193e+003
1.049043e+003, 6.716140e+003
1.049525e+003, 6.722169e+003
1.050007e+003, 6.724284e+003
1.050489e+003, 6.721499e+003
1.050971e+003, 6.717147e+003
1.051454e+003, 6.708536e+003
1.051936e+003, 6.702987e+003
1.052418e+003, 6.703568e+003
1.052900e+003, 6.707088e+003
1.053382e+003, 6.714632e+003
1.053864e+003, 6.722094e+003
1.054346e+003, 6.720679e+003
1.054828e+003, 6.708858e+003
1.055311e+003, 6.702162e+003
1.055793e+003, 6.709312e+003
1.056275e+003, 6.715978e+003
1.056757e+003, 6.718298e+003
1.057239e+003, 6.717400e+003
1.057721e+003, 6.711273e+003
1.058203e+003, 6.703814e+003
1.058685e+003, 6.701605e+003
1.059167e+003, 6.705599e+003
1.059650e+003, 6.710534e+003
1.060132e+003, 6.717518e+003
1.060614e+003, 6.721363e+003
1.061096e+003, 6.717245e+003
1.061578e+003, 6.712038e+003
1.062060e+003, 6.711296e+003
1.062542e+003, 6.712947e+003
1.063024e+003, 6.713250e+003
1.063506e+003, 6.711552e+003
1.063989e+003, 6.708737e+003
1.064471e+003, 6.703013e+003
1.064953e+003, 6.699143e+003
1.065435e+003, 6.700832e+003
1.065917e+003, 6.703337e+003
1.066399e+003, 6.703215e+003
1.066881e+003, 6.701348e+003
1.067363e+003, 6.699103e+003
1.067846e+003, 6.696901e+003
1.068328e+003, 6.695661e+003
1.068810e+003, 6.697737e+003
1.069292e+003, 6.697380e+003
1.069774e+003, 6.687229e+003
1.070256e+003, 6.678618e+003
1.070738e+003, 6.683753e+003
1.071220e+003, 6.693817e+003
1.071703e+003, 6.694315e+003
1.072185e+003, 6.685222e+003
1.072667e+003, 6.680051e+003
1.073149e+003, 6.686604e+003
1.073631e+003, 6.691145e+003
1.074113e+003, 6.683026e+003
1.074595e+003, 6.675022e+003
1.075077e+003, 6.679970e+003
1.075559e+003, 6.688442e+003
1.076042e+003, 6.686113e+003
1.076524e+003, 6.673845e+003
1.077006e+003, 6.664208e+003
1.077488e+003, 6.661752e+003
1.077970e+003, 6.661413e+003
1.078452e+003, 6.657461e+003
1.078934e+003, 6.658550e+003
1.079416e+003, 6.679780e+003
1.079898e+003, 6.702970e+003
1.080380e+003, 6.704214e+003
1.080863e+003, 6.686755e+003
1.081345e+003, 6.669802e+003
1.081827e+003, 6.658556e+003
1.082309e+003, 6.651747e+003
1.082791e+003, 6.649855e+003
1.083273e+003, 6.650901e+003
1.083755e+003, 6.656935e+003
1.084237e+003, 6.662702e+003
1.084720e+003, 6.661091e+003
1.085202e+003, 6.654595e+003
1.085684e+003, 6.651163e+003
1.086166e+003, 6.653060e+003
1.086648e+003, 6.655809e+003
1.087130e+003, 6.658419e+003
1.087612e+003, 6.660228e+003
1.088094e+003, 6.661991e+003
1.088577e+003, 6.661839e+003
1.089059e+003, 6.656701e+003
1.089541e+003, 6.648713e+003
1.090023e+003, 6.642037e+003
1.090505e+003, 6.637511e+003
1.090987e+003, 6.635381e+003
1.091469e+003, 6.638233e+003
1.091951e+003, 6.640291e+003
1.092433e+003, 6.639599e+003
1.092916e+003, 6.636788e+003
1.093398e+003, 6.629951e+003
1.093880e+003, 6.622531e+003
1.094362e+003, 6.621062e+003
1.094844e+003, 6.625915e+003
1.095326e+003, 6.628647e+003
1.095808e+003, 6.624536e+003
1.096290e+003, 6.621022e+003
1.096772e+003, 6.620740e+003
1.097255e+003, 6.621584e+003
1.097737e+003, 6.622868e+003
1.098219e+003, 6.624011e+003
1.098701e+003, 6.624888e+003
1.099183e+003, 6.625125e+003
1.099665e+003, 6.622583e+003
1.100147e+003, 6.612405e+003
1.100629e+003, 6.608465e+003
1.101112e+003, 6.622784e+003
1.101594e+003, 6.634040e+003
1.102076e+003, 6.626795e+003
1.102558e+003, 6.614941e+003
1.103040e+003, 6.614826e+003
1.103522e+003, 6.623691e+003
1.104004e+003, 6.626944e+003
1.104486e+003, 6.620048e+003
1.104969e+003, 6.615253e+003
1.105451e+003, 6.615367e+003
1.105933e+003, 6.617063e+003
1.106415e+003, 6.620511e+003
1.106897e+003, 6.623874e+003
1.107379e+003, 6.626435e+003
1.107861e+003, 6.627625e+003
1.108343e+003, 6.625737e+003
1.108825e+003, 6.619799e+003
1.109307e+003, 6.615704e+003
1.109790e+003, 6.615913e+003
1.110272e+003, 6.615197e+003
1.110754e+003, 6.611547e+003
1.111236e+003, 6.607736e+003
1.111718e+003, 6.605581e+003
1.112200e+003, 6.604288e+003
1.112682e+003, 6.602521e+003
1.113164e+003, 6.600271e+003
1.113647e+003, 6.598249e+003
1.114129e+003, 6.596983e+003
1.114611e+003, 6.595139e+003
1.115093e+003, 6.591549e+003
1.115575e+003, 6.588956e+003
1.116057e+003, 6.589470e+003
1.116539e+003, 6.590665e+003
1.117021e+003, 6.588907e+003
1.117504e+003, 6.585034e+003
1.117986e+003, 6.585620e+003
1.118468e+003, 6.594614e+003
1.118950e+003, 6.598518e+003
1.119432e+003, 6.595898e+003
1.119914e+003, 6.590248e+003
1.120396e+003, 6.579400e+003
1.120878e+003, 6.571148e+003
1.121360e+003, 6.572630e+003
1.121843e+003, 6.581524e+003
1.122325e+003, 6.591854e+003
1.122807e+003, 6.605052e+003
1.123289e+003, 6.610720e+003
1.123771e+003, 6.607372e+003
1.124253e+003, 6.600994e+003
1.124735e+003, 6.591157e+003
1.125217e+003, 6.583992e+003
1.125699e+003, 6.584199e+003
1.126182e+003, 6.587642e+003
1.126664e+003, 6.586912e+003
1.127146e+003, 6.582392e+003
1.127628e+003, 6.581583e+003
1.128110e+003, 6.585081e+003
1.128592e+003, 6.586321e+003
1.129074e+003, 6.583943e+003
1.129556e+003, 6.583267e+003
1.130039e+003, 6.586961e+003
1.130521e+003, 6.591709e+003
1.131003e+003, 6.593826e+003
1.131485e+003, 6.593782e+003
1.131967e+003, 6.592273e+003
1.132449e+003, 6.589591e+003
1.132931e+003, 6.592237e+003
1.133413e+003, 6.600390e+003
1.133896e+003, 6.606563e+003
1.134378e+003, 6.608468e+003
1.134860e+003, 6.606275e+003
1.135342e+003, 6.599545e+003
1.135824e+003, 6.591816e+003
1.136306e+003, 6.590370e+003
1.136788e+003, 6.593323e+003
1.137270e+003, 6.593397e+003
1.137752e+003, 6.591009e+003
1.138234e+003, 6.587795e+003
1.138717e+003, 6.584616e+003
1.139199e+003, 6.585333e+003
1.139681e+003, 6.591952e+003
1.140163e+003, 6.598768e+003
1.140645e+003, 6.599998e+003
1.141127e+003, 6.596659e+003
1.141609e+003, 6.587980e+003
1.142091e+003, 6.577302e+003
1.142574e+003, 6.571549e+003
1.143056e+003, 6.571070e+003
1.143538e+003, 6.575086e+003
1.144020e+003, 6.582627e+003
1.144502e+003, 6.588880e+003
1.144984e+003, 6.590173e+003
1.145466e+003, 6.589455e+003
1.145948e+003, 6.589447e+003
1.146431e+003, 6.589497e+003
1.146913e+003, 6.587677e+003
1.147395e+003, 6.585771e+003
1.147877e+003, 6.588474e+003
1.148359e+003, 6.594834e+003
1.148841e+003, 6.597874e+003
1.149323e+003, 6.594358e+003
1.149805e+003, 6.589082e+003
1.150287e+003, 6.582188e+003
1.150770e+003, 6.577866e+003
1.151252e+003, 6.581812e+003
1.151734e+003, 6.587744e+003
1.152216e+003, 6.589414e+003
1.152698e+003, 6.587177e+003
1.153180e+003, 6.582800e+003
1.153662e+003, 6.576703e+003
1.154144e+003, 6.572309e+003
1.154626e+003, 6.570151e+003
1.155109e+003, 6.570789e+003
1.155591e+003, 6.579436e+003
1.156073e+003, 6.585457e+003
1.156555e+003, 6.579095e+003
1.157037e+003, 6.568292e+003
1.157519e+003, 6.562761e+003
1.158001e+003, 6.562831e+003
1.158483e+003, 6.565874e+003
1.158966e+003, 6.575103e+003
1.159448e+003, 6.579848e+003
1.159930e+003, 6.574237e+003
1.160412e+003, 6.571233e+003
1.160894e+003, 6.575787e+003
1.161376e+003, 6.582448e+003
1.161858e+003, 6.589295e+003
1.162340e+003, 6.594168e+003
1.162822e+003, 6.591188e+003
1.163305e+003, 6.579000e+003
1.163787e+003, 6.573708e+003
1.164269e+003, 6.577642e+003
1.164751e+003, 6.582020e+003
1.165233e+003, 6.586427e+003
1.165715e+003, 6.588777e+003
1.166197e+003, 6.587304e+003
1.166679e+003, 6.585387e+003
1.167161e+003, 6.587177e+003
1.167644e+003, 6.591700e+003
1.168126e+003, 6.595266e+003
1.168608e+003, 6.597883e+003
1.169090e+003, 6.599225e+003
1.169572e+003, 6.599315e+003
1.170054e+003, 6.595142e+003
1.170536e+003, 6.585745e+003
1.171018e+003, 6.578272e+003
1.171500e+003, 6.577634e+003
1.171983e+003, 6.581898e+003
1.172465e+003, 6.589737e+003
1.172947e+003, 6.599267e+003
1.173429e+003, 6.604353e+003
1.173911e+003, 6.605525e+003
1.174393e+003, 6.604789e+003
1.174875e+003, 6.602336e+003
1.175357e+003, 6.596386e+003
1.175840e+003, 6.586682e+003
1.176322e+003, 6.578843e+003
1.176804e+003, 6.577789e+003
1.177286e+003, 6.580112e+003
1.177768e+003, 6.582716e+003
1.178250e+003, 6.585163e+003
1.178732e+003, 6.587062e+003
1.179214e+003, 6.588177e+003
1.179697e+003, 6.588088e+003
1.180179e+003, 6.586826e+003
1.180661e+003, 6.584952e+003
1.181143e+003, 6.582790e+003
1.181625e+003, 6.579198e+003
1.182107e+003, 6.569810e+003
1.182589e+003, 6.563173e+003
1.183071e+003, 6.569556e+003
1.183553e+003, 6.577184e+003
1.184036e+003, 6.572932e+003
1.184518e+003, 6.562111e+003
1.185000e+003, 6.556155e+003
1.185482e+003, 6.556520e+003
1.185964e+003, 6.556625e+003
1.186446e+003, 6.553573e+003
1.186928e+003, 6.552511e+003
1.187410e+003, 6.556983e+003
1.187892e+003, 6.560349e+003
1.188375e+003, 6.559454e+003
1.188857e+003, 6.556586e+003
1.189339e+003, 6.552791e+003
1.189821e+003, 6.549081e+003
1.190303e+003, 6.548775e+003
1.190785e+003, 6.552859e+003
1.191267e+003, 6.554565e+003
1.191749e+003, 6.553057e+003
1.192232e+003, 6.551325e+003
1.192714e+003, 6.549411e+003
1.193196e+003, 6.548481e+003
1.193678e+003, 6.549106e+003
1.194160e+003, 6.551003e+003
1.194642e+003, 6.554169e+003
1.195124e+003, 6.557857e+003
1.195606e+003, 6.558993e+003
1.196089e+003, 6.557643e+003
1.196571e+003, 6.555788e+003
1.197053e+003, 6.553660e+003
1.197535e+003, 6.555123e+003
1.198017e+003, 6.560820e+003
1.198499e+003, 6.564238e+003
1.198981e+003, 6.561259e+003
1.199463e+003, 6.555290e+003
1.199945e+003, 6.549333e+003
1.200427e+003, 6.544794e+003
1.200910e+003, 6.546028e+003
1.201392e+003, 6.550202e+003
1.201874e+003, 6.550429e+003
1.202356e+003, 6.547665e+003
1.202838e+003, 6.547429e+003
1.203320e+003, 6.550774e+003
1.203802e+003, 6.553299e+003
1.204284e+003, 6.552462e+003
1.204767e+003, 6.549966e+003
1.205249e+003, 6.546604e+003
1.205731e+003, 6.542660e+003
1.206213e+003, 6.537337e+003
1.206695e+003, 6.532391e+003
1.207177e+003, 6.529075e+003
1.207659e+003, 6.528083e+003
1.208141e+003, 6.531906e+003
1.208624e+003, 6.541572e+003
1.209106e+003, 6.546269e+003
1.209588e+003, 6.539682e+003
1.210070e+003, 6.533474e+003
1.210552e+003, 6.527564e+003
1.211034e+003, 6.525514e+003
1.211516e+003, 6.534752e+003
1.211998e+003, 6.543715e+003
1.212480e+003, 6.539626e+003
1.212963e+003, 6.525735e+003
1.213445e+003, 6.513912e+003
1.213927e+003, 6.502956e+003
1.214409e+003, 6.500608e+003
1.214891e+003, 6.509376e+003
1.215373e+003, 6.516823e+003
1.215855e+003, 6.520876e+003
1.216337e+003, 6.522266e+003
1.216819e+003, 6.521376e+003
1.217302e+003, 6.518013e+003
1.217784e+003, 6.511407e+003
1.218266e+003, 6.503091e+003
1.218748e+003, 6.497598e+003
1.219230e+003, 6.494707e+003
1.219712e+003, 6.493559e+003
1.220194e+003, 6.493724e+003
1.220676e+003, 6.493382e+003
1.221159e+003, 6.492085e+003
1.221641e+003, 6.489565e+003
1.222123e+003, 6.485596e+003
1.222605e+003, 6.482232e+003
1.223087e+003, 6.482628e+003
1.223569e+003, 6.483511e+003
1.224051e+003, 6.478746e+003
1.224533e+003, 6.473883e+003
1.225016e+003, 6.478405e+003
1.225498e+003, 6.487677e+003
1.225980e+003, 6.490624e+003
1.226462e+003, 6.486669e+003
1.226944e+003, 6.485840e+003
1.227426e+003, 6.492606e+003
1.227908e+003, 6.499468e+003
1.228390e+003, 6.507371e+003
1.228872e+003, 6.510101e+003
1.229354e+003, 6.498905e+003
1.229837e+003, 6.487528e+003
1.230319e+003, 6.488831e+003
1.230801e+003, 6.496305e+003
1.231283e+003, 6.497752e+003
1.231765e+003, 6.493434e+003
1.232247e+003, 6.490838e+003
1.232729e+003, 6.490556e+003
1.233211e+003, 6.490608e+003
1.233694e+003, 6.491390e+003
1.234176e+003, 6.491208e+003
1.234658e+003, 6.489867e+003
1.235140e+003, 6.485628e+003
1.235622e+003, 6.476488e+003
1.236104e+003, 6.466817e+003
1.236586e+003, 6.464854e+003
1.237068e+003, 6.468376e+003
1.237551e+003, 6.468405e+003
1.238033e+003, 6.465367e+003
1.238515e+003, 6.460379e+003
1.238997e+003, 6.454160e+003
1.239479e+003, 6.448724e+003
1.239961e+003, 6.444822e+003
1.240443e+003, 6.442695e+003
1.240925e+003, 6.442433e+003
1.241407e+003, 6.444431e+003
1.241890e+003, 6.452767e+003
1.242372e+003, 6.459708e+003
1.242854e+003, 6.454854e+003
1.243336e+003, 6.446393e+003
1.243818e+003, 6.443952e+003
1.244300e+003, 6.446581e+003
1.244782e+003, 6.451110e+003
1.245264e+003, 6.456566e+003
1.245746e+003, 6.459073e+003
1.246229e+003, 6.457903e+003
1.246711e+003, 6.453209e+003
1.247193e+003, 6.440215e+003
1.247675e+003, 6.430199e+003
1.248157e+003, 6.428697e+003
1.248639e+003, 6.429033e+003
1.249121e+003, 6.424625e+003
1.249603e+003, 6.421093e+003
1.250085e+003, 6.430619e+003
1.250568e+003, 6.451778e+003
1.251050e+003, 6.459299e+003
1.251532e+003, 6.451786e+003
1.252014e+003, 6.444489e+003
1.252496e+003, 6.438393e+003
1.252978e+003, 6.436519e+003
1.253460e+003, 6.439753e+003
1.253942e+003, 6.445433e+003
1.254425e+003, 6.451976e+003
1.254907e+003, 6.457207e+003
1.255389e+003, 6.457344e+003
1.255871e+003, 6.454592e+003
1.256353e+003, 6.452902e+003
1.256835e+003, 6.451523e+003
1.257317e+003, 6.447006e+003
1.257799e+003, 6.442212e+003
1.258281e+003, 6.446372e+003
1.258764e+003, 6.459156e+003
1.259246e+003, 6.467341e+003
1.259728e+003, 6.464453e+003
1.260210e+003, 6.459779e+003
1.260692e+003, 6.457546e+003
1.261174e+003, 6.454706e+003
1.261656e+003, 6.445766e+003
1.262138e+003, 6.439747e+003
1.262620e+003, 6.448087e+003
1.263103e+003, 6.461223e+003
1.263585e+003, 6.462517e+003
1.264067e+003, 6.453610e+003
1.264549e+003, 6.449115e+003
1.265031e+003, 6.449811e+003
1.265513e+003, 6.452325e+003
1.265995e+003, 6.457211e+003
1.266477e+003, 6.461067e+003
1.266960e+003, 6.463117e+003
1.267442e+003, 6.464092e+003
1.267924e+003, 6.464469e+003
1.268406e+003, 6.463290e+003
1.268888e+003, 6.458977e+003
1.269370e+003, 6.453129e+003
1.269852e+003, 6.448521e+003
1.270334e+003, 6.445711e+003
1.270817e+003, 6.447261e+003
1.271299e+003, 6.451521e+003
1.271781e+003, 6.455066e+003
1.272263e+003, 6.456501e+003
1.272745e+003, 6.453108e+003
1.273227e+003, 6.443845e+003
1.273709e+003, 6.435443e+003
1.274191e+003, 6.429872e+003
1.274673e+003, 6.429049e+003
1.275156e+003, 6.436351e+003
1.275638e+003, 6.445911e+003
1.276120e+003, 6.456265e+003
1.276602e+003, 6.464816e+003
1.277084e+003, 6.468082e+003
1.277566e+003, 6.467339e+003
1.278048e+003, 6.467334e+003
1.278530e+003, 6.468486e+003
1.279012e+003, 6.466161e+003
1.279495e+003, 6.457269e+003
1.279977e+003, 6.456071e+003
1.280459e+003, 6.466335e+003
1.280941e+003, 6.473406e+003
1.281423e+003, 6.471547e+003
1.281905e+003, 6.468865e+003
1.282387e+003, 6.471948e+003
1.282869e+003, 6.477253e+003
1.283352e+003, 6.479444e+003
1.283834e+003, 6.478276e+003
1.284316e+003, 6.472727e+003
1.284798e+003, 6.463103e+003
##END=



