##NAMES=Alacranite
##RRUFFID=R150030
##IDEAL CHEMISTRY=As_8_S_9_
##LOCALITY=Solfatara di Pozzuoli, Napoli, Italy
##OWNER=RRUFF
##SOURCE=Renato and Adriana Pagano
##DESCRIPTION=Yellow fine-grained aggregate, associated with red realgar, 2-fold twin around [-1 -1 1].
##STATUS=The identification of this mineral has been confirmed by single-crystal X-ray diffraction.
##URL=rruff.info/R150030
8.930109e+001, 0.000000e+000
8.978320e+001, 6.113784e+003
9.026532e+001, 6.101470e+003
9.074744e+001, 6.107712e+003
9.122955e+001, 6.144351e+003
9.171167e+001, 6.189778e+003
9.219379e+001, 6.211229e+003
9.267590e+001, 6.214566e+003
9.315802e+001, 6.210600e+003
9.364014e+001, 6.208183e+003
9.412225e+001, 6.206232e+003
9.460437e+001, 6.198191e+003
9.508649e+001, 6.181629e+003
9.556860e+001, 6.157231e+003
9.605072e+001, 6.130079e+003
9.653284e+001, 6.105199e+003
9.701495e+001, 6.084143e+003
9.749707e+001, 6.068034e+003
9.797919e+001, 6.056322e+003
9.846130e+001, 6.043556e+003
9.894342e+001, 6.026279e+003
9.942554e+001, 6.005183e+003
9.990765e+001, 5.991529e+003
1.003898e+002, 5.986601e+003
1.008719e+002, 5.985630e+003
1.013540e+002, 5.981184e+003
1.018361e+002, 5.971749e+003
1.023182e+002, 5.964239e+003
1.028004e+002, 5.960997e+003
1.032825e+002, 5.962082e+003
1.037646e+002, 5.967782e+003
1.042467e+002, 5.979098e+003
1.047288e+002, 5.994706e+003
1.052109e+002, 6.011547e+003
1.056931e+002, 6.031044e+003
1.061752e+002, 6.050752e+003
1.066573e+002, 6.070016e+003
1.071394e+002, 6.088808e+003
1.076215e+002, 6.107877e+003
1.081036e+002, 6.125859e+003
1.085858e+002, 6.143875e+003
1.090679e+002, 6.167446e+003
1.095500e+002, 6.203475e+003
1.100321e+002, 6.240442e+003
1.105142e+002, 6.272033e+003
1.109963e+002, 6.294169e+003
1.114785e+002, 6.316042e+003
1.119606e+002, 6.339471e+003
1.124427e+002, 6.364408e+003
1.129248e+002, 6.386564e+003
1.134069e+002, 6.404496e+003
1.138890e+002, 6.419970e+003
1.143712e+002, 6.434603e+003
1.148533e+002, 6.451286e+003
1.153354e+002, 6.464790e+003
1.158175e+002, 6.472280e+003
1.162996e+002, 6.473305e+003
1.167817e+002, 6.474470e+003
1.172639e+002, 6.479608e+003
1.177460e+002, 6.485896e+003
1.182281e+002, 6.489733e+003
1.187102e+002, 6.488366e+003
1.191923e+002, 6.485102e+003
1.196744e+002, 6.481603e+003
1.201566e+002, 6.477860e+003
1.206387e+002, 6.474179e+003
1.211208e+002, 6.470270e+003
1.216029e+002, 6.466362e+003
1.220850e+002, 6.463100e+003
1.225671e+002, 6.459504e+003
1.230493e+002, 6.456976e+003
1.235314e+002, 6.457537e+003
1.240135e+002, 6.462479e+003
1.244956e+002, 6.467496e+003
1.249777e+002, 6.468017e+003
1.254598e+002, 6.464712e+003
1.259420e+002, 6.460505e+003
1.264241e+002, 6.457048e+003
1.269062e+002, 6.453854e+003
1.273883e+002, 6.450289e+003
1.278704e+002, 6.446579e+003
1.283525e+002, 6.441807e+003
1.288347e+002, 6.433333e+003
1.293168e+002, 6.421343e+003
1.297989e+002, 6.410335e+003
1.302810e+002, 6.404173e+003
1.307631e+002, 6.402099e+003
1.312452e+002, 6.401053e+003
1.317274e+002, 6.401467e+003
1.322095e+002, 6.401938e+003
1.326916e+002, 6.397902e+003
1.331737e+002, 6.388889e+003
1.336558e+002, 6.378821e+003
1.341379e+002, 6.371728e+003
1.346201e+002, 6.367602e+003
1.351022e+002, 6.362594e+003
1.355843e+002, 6.354610e+003
1.360664e+002, 6.344448e+003
1.365485e+002, 6.339128e+003
1.370306e+002, 6.339995e+003
1.375128e+002, 6.342482e+003
1.379949e+002, 6.340085e+003
1.384770e+002, 6.331372e+003
1.389591e+002, 6.324718e+003
1.394412e+002, 6.323646e+003
1.399233e+002, 6.328685e+003
1.404055e+002, 6.331118e+003
1.408876e+002, 6.330195e+003
1.413697e+002, 6.327185e+003
1.418518e+002, 6.324288e+003
1.423339e+002, 6.321917e+003
1.428160e+002, 6.318558e+003
1.432982e+002, 6.313178e+003
1.437803e+002, 6.304517e+003
1.442624e+002, 6.298146e+003
1.447445e+002, 6.295215e+003
1.452266e+002, 6.294252e+003
1.457087e+002, 6.292132e+003
1.461909e+002, 6.289255e+003
1.466730e+002, 6.284823e+003
1.471551e+002, 6.278236e+003
1.476372e+002, 6.266937e+003
1.481193e+002, 6.258159e+003
1.486014e+002, 6.253760e+003
1.490836e+002, 6.252233e+003
1.495657e+002, 6.248034e+003
1.500478e+002, 6.239186e+003
1.505299e+002, 6.229395e+003
1.510120e+002, 6.220181e+003
1.514941e+002, 6.210951e+003
1.519763e+002, 6.202978e+003
1.524584e+002, 6.196776e+003
1.529405e+002, 6.191964e+003
1.534226e+002, 6.186653e+003
1.539047e+002, 6.180645e+003
1.543868e+002, 6.174063e+003
1.548690e+002, 6.166968e+003
1.553511e+002, 6.158380e+003
1.558332e+002, 6.150286e+003
1.563153e+002, 6.143814e+003
1.567974e+002, 6.138634e+003
1.572795e+002, 6.131966e+003
1.577617e+002, 6.122302e+003
1.582438e+002, 6.111522e+003
1.587259e+002, 6.101007e+003
1.592080e+002, 6.089446e+003
1.596901e+002, 6.079893e+003
1.601722e+002, 6.074361e+003
1.606544e+002, 6.072677e+003
1.611365e+002, 6.070414e+003
1.616186e+002, 6.065196e+003
1.621007e+002, 6.059041e+003
1.625828e+002, 6.053666e+003
1.630649e+002, 6.050339e+003
1.635471e+002, 6.047267e+003
1.640292e+002, 6.043758e+003
1.645113e+002, 6.039732e+003
1.649934e+002, 6.035034e+003
1.654755e+002, 6.028687e+003
1.659576e+002, 6.021726e+003
1.664398e+002, 6.015534e+003
1.669219e+002, 6.011449e+003
1.674040e+002, 6.007558e+003
1.678861e+002, 6.002161e+003
1.683682e+002, 5.995026e+003
1.688503e+002, 5.988759e+003
1.693325e+002, 5.986244e+003
1.698146e+002, 5.985610e+003
1.702967e+002, 5.983869e+003
1.707788e+002, 5.979900e+003
1.712609e+002, 5.974197e+003
1.717430e+002, 5.966554e+003
1.722252e+002, 5.956688e+003
1.727073e+002, 5.947424e+003
1.731894e+002, 5.941616e+003
1.736715e+002, 5.938119e+003
1.741536e+002, 5.934542e+003
1.746357e+002, 5.929039e+003
1.751179e+002, 5.923016e+003
1.756000e+002, 5.918942e+003
1.760821e+002, 5.917618e+003
1.765642e+002, 5.915090e+003
1.770463e+002, 5.906612e+003
1.775284e+002, 5.893490e+003
1.780106e+002, 5.879913e+003
1.784927e+002, 5.868843e+003
1.789748e+002, 5.858573e+003
1.794569e+002, 5.845947e+003
1.799390e+002, 5.829999e+003
1.804211e+002, 5.813990e+003
1.809033e+002, 5.801722e+003
1.813854e+002, 5.792679e+003
1.818675e+002, 5.784606e+003
1.823496e+002, 5.776956e+003
1.828317e+002, 5.769313e+003
1.833138e+002, 5.759964e+003
1.837960e+002, 5.748478e+003
1.842781e+002, 5.736180e+003
1.847602e+002, 5.725507e+003
1.852423e+002, 5.716106e+003
1.857244e+002, 5.706101e+003
1.862065e+002, 5.693477e+003
1.866887e+002, 5.679009e+003
1.871708e+002, 5.665444e+003
1.876529e+002, 5.653058e+003
1.881350e+002, 5.641625e+003
1.886171e+002, 5.631341e+003
1.890992e+002, 5.622076e+003
1.895814e+002, 5.613036e+003
1.900635e+002, 5.603659e+003
1.905456e+002, 5.593926e+003
1.910277e+002, 5.584772e+003
1.915098e+002, 5.576567e+003
1.919919e+002, 5.568523e+003
1.924741e+002, 5.559171e+003
1.929562e+002, 5.548532e+003
1.934383e+002, 5.537236e+003
1.939204e+002, 5.525224e+003
1.944025e+002, 5.512601e+003
1.948846e+002, 5.501351e+003
1.953668e+002, 5.491741e+003
1.958489e+002, 5.483554e+003
1.963310e+002, 5.477302e+003
1.968131e+002, 5.473450e+003
1.972952e+002, 5.467922e+003
1.977773e+002, 5.457053e+003
1.982595e+002, 5.440718e+003
1.987416e+002, 5.424773e+003
1.992237e+002, 5.409979e+003
1.997058e+002, 5.396157e+003
2.001879e+002, 5.382989e+003
2.006700e+002, 5.370343e+003
2.011522e+002, 5.358600e+003
2.016343e+002, 5.347978e+003
2.021164e+002, 5.338513e+003
2.025985e+002, 5.330358e+003
2.030806e+002, 5.324347e+003
2.035627e+002, 5.319304e+003
2.040449e+002, 5.311093e+003
2.045270e+002, 5.298860e+003
2.050091e+002, 5.286139e+003
2.054912e+002, 5.275932e+003
2.059733e+002, 5.269013e+003
2.064554e+002, 5.259429e+003
2.069376e+002, 5.245210e+003
2.074197e+002, 5.228235e+003
2.079018e+002, 5.215628e+003
2.083839e+002, 5.208750e+003
2.088660e+002, 5.202825e+003
2.093481e+002, 5.194220e+003
2.098303e+002, 5.181875e+003
2.103124e+002, 5.171932e+003
2.107945e+002, 5.166057e+003
2.112766e+002, 5.163037e+003
2.117587e+002, 5.157391e+003
2.122408e+002, 5.148429e+003
2.127230e+002, 5.138308e+003
2.132051e+002, 5.127852e+003
2.136872e+002, 5.116313e+003
2.141693e+002, 5.106943e+003
2.146514e+002, 5.100769e+003
2.151335e+002, 5.096900e+003
2.156157e+002, 5.091893e+003
2.160978e+002, 5.085664e+003
2.165799e+002, 5.078066e+003
2.170620e+002, 5.068203e+003
2.175441e+002, 5.054134e+003
2.180262e+002, 5.043534e+003
2.185084e+002, 5.038868e+003
2.189905e+002, 5.038227e+003
2.194726e+002, 5.031883e+003
2.199547e+002, 5.016910e+003
2.204368e+002, 5.001184e+003
2.209189e+002, 4.990717e+003
2.214011e+002, 4.989127e+003
2.218832e+002, 4.983012e+003
2.223653e+002, 4.969413e+003
2.228474e+002, 4.950534e+003
2.233295e+002, 4.935533e+003
2.238116e+002, 4.925942e+003
2.242938e+002, 4.918377e+003
2.247759e+002, 4.910915e+003
2.252580e+002, 4.903361e+003
2.257401e+002, 4.896532e+003
2.262222e+002, 4.890917e+003
2.267043e+002, 4.886011e+003
2.271865e+002, 4.879426e+003
2.276686e+002, 4.870675e+003
2.281507e+002, 4.861075e+003
2.286328e+002, 4.851354e+003
2.291149e+002, 4.841322e+003
2.295970e+002, 4.831731e+003
2.300792e+002, 4.823178e+003
2.305613e+002, 4.815142e+003
2.310434e+002, 4.805661e+003
2.315255e+002, 4.794006e+003
2.320076e+002, 4.782331e+003
2.324897e+002, 4.772229e+003
2.329719e+002, 4.765399e+003
2.334540e+002, 4.756629e+003
2.339361e+002, 4.745767e+003
2.344182e+002, 4.732841e+003
2.349003e+002, 4.717340e+003
2.353824e+002, 4.697197e+003
2.358646e+002, 4.677431e+003
2.363467e+002, 4.660746e+003
2.368288e+002, 4.649089e+003
2.373109e+002, 4.635952e+003
2.377930e+002, 4.620458e+003
2.382751e+002, 4.603324e+003
2.387573e+002, 4.587083e+003
2.392394e+002, 4.570876e+003
2.397215e+002, 4.556588e+003
2.402036e+002, 4.545354e+003
2.406857e+002, 4.539444e+003
2.411678e+002, 4.530988e+003
2.416500e+002, 4.517916e+003
2.421321e+002, 4.502851e+003
2.426142e+002, 4.492592e+003
2.430963e+002, 4.489706e+003
2.435784e+002, 4.487957e+003
2.440605e+002, 4.484968e+003
2.445427e+002, 4.480759e+003
2.450248e+002, 4.475149e+003
2.455069e+002, 4.467204e+003
2.459890e+002, 4.458273e+003
2.464711e+002, 4.451474e+003
2.469532e+002, 4.447592e+003
2.474354e+002, 4.444565e+003
2.479175e+002, 4.441591e+003
2.483996e+002, 4.438286e+003
2.488817e+002, 4.436481e+003
2.493638e+002, 4.436568e+003
2.498459e+002, 4.438039e+003
2.503281e+002, 4.440016e+003
2.508102e+002, 4.442818e+003
2.512923e+002, 4.445712e+003
2.517744e+002, 4.448348e+003
2.522565e+002, 4.450413e+003
2.527386e+002, 4.453715e+003
2.532208e+002, 4.458993e+003
2.537029e+002, 4.464970e+003
2.541850e+002, 4.469634e+003
2.546671e+002, 4.472293e+003
2.551492e+002, 4.474873e+003
2.556313e+002, 4.477788e+003
2.561135e+002, 4.480929e+003
2.565956e+002, 4.484468e+003
2.570777e+002, 4.487854e+003
2.575598e+002, 4.491950e+003
2.580419e+002, 4.498103e+003
2.585240e+002, 4.506890e+003
2.590062e+002, 4.516143e+003
2.594883e+002, 4.525731e+003
2.599704e+002, 4.535614e+003
2.604525e+002, 4.543103e+003
2.609346e+002, 4.546021e+003
2.614167e+002, 4.549151e+003
2.618989e+002, 4.558970e+003
2.623810e+002, 4.578673e+003
2.628631e+002, 4.596449e+003
2.633452e+002, 4.608980e+003
2.638273e+002, 4.616512e+003
2.643094e+002, 4.624640e+003
2.647916e+002, 4.632812e+003
2.652737e+002, 4.642852e+003
2.657558e+002, 4.657555e+003
2.662379e+002, 4.678821e+003
2.667200e+002, 4.698307e+003
2.672021e+002, 4.714103e+003
2.676843e+002, 4.726573e+003
2.681664e+002, 4.739569e+003
2.686485e+002, 4.752326e+003
2.691306e+002, 4.767029e+003
2.696127e+002, 4.785794e+003
2.700948e+002, 4.809278e+003
2.705770e+002, 4.833252e+003
2.710591e+002, 4.856883e+003
2.715412e+002, 4.880138e+003
2.720233e+002, 4.903652e+003
2.725054e+002, 4.926716e+003
2.729875e+002, 4.950729e+003
2.734697e+002, 4.976625e+003
2.739518e+002, 5.004789e+003
2.744339e+002, 5.033735e+003
2.749160e+002, 5.063412e+003
2.753981e+002, 5.093590e+003
2.758802e+002, 5.123931e+003
2.763624e+002, 5.153621e+003
2.768445e+002, 5.185082e+003
2.773266e+002, 5.219892e+003
2.778087e+002, 5.258188e+003
2.782908e+002, 5.298346e+003
2.787729e+002, 5.340277e+003
2.792551e+002, 5.384001e+003
2.797372e+002, 5.428374e+003
2.802193e+002, 5.473472e+003
2.807014e+002, 5.520009e+003
2.811835e+002, 5.569101e+003
2.816656e+002, 5.620727e+003
2.821478e+002, 5.672509e+003
2.826299e+002, 5.723812e+003
2.831120e+002, 5.776337e+003
2.835941e+002, 5.832567e+003
2.840762e+002, 5.892760e+003
2.845583e+002, 5.956573e+003
2.850405e+002, 6.026446e+003
2.855226e+002, 6.101454e+003
2.860047e+002, 6.171789e+003
2.864868e+002, 6.236028e+003
2.869689e+002, 6.300135e+003
2.874510e+002, 6.372302e+003
2.879332e+002, 6.452268e+003
2.884153e+002, 6.535796e+003
2.888974e+002, 6.620241e+003
2.893795e+002, 6.706002e+003
2.898616e+002, 6.791690e+003
2.903438e+002, 6.877106e+003
2.908259e+002, 6.963675e+003
2.913080e+002, 7.053138e+003
2.917901e+002, 7.144673e+003
2.922722e+002, 7.238833e+003
2.927543e+002, 7.335345e+003
2.932365e+002, 7.433737e+003
2.937186e+002, 7.532264e+003
2.942007e+002, 7.630070e+003
2.946828e+002, 7.728663e+003
2.951649e+002, 7.829393e+003
2.956470e+002, 7.931273e+003
2.961292e+002, 8.034688e+003
2.966113e+002, 8.138995e+003
2.970934e+002, 8.244021e+003
2.975755e+002, 8.351463e+003
2.980576e+002, 8.461541e+003
2.985397e+002, 8.570729e+003
2.990219e+002, 8.676140e+003
2.995040e+002, 8.780339e+003
2.999861e+002, 8.887888e+003
3.004682e+002, 9.001014e+003
3.009503e+002, 9.114972e+003
3.014324e+002, 9.226709e+003
3.019146e+002, 9.335280e+003
3.023967e+002, 9.441357e+003
3.028788e+002, 9.541709e+003
3.033609e+002, 9.640208e+003
3.038430e+002, 9.740611e+003
3.043251e+002, 9.843538e+003
3.048073e+002, 9.947796e+003
3.052894e+002, 1.005645e+004
3.057715e+002, 1.016607e+004
3.062536e+002, 1.027152e+004
3.067357e+002, 1.036524e+004
3.072178e+002, 1.045477e+004
3.077000e+002, 1.054674e+004
3.081821e+002, 1.064180e+004
3.086642e+002, 1.073628e+004
3.091463e+002, 1.082707e+004
3.096284e+002, 1.091498e+004
3.101105e+002, 1.100275e+004
3.105927e+002, 1.109322e+004
3.110748e+002, 1.118124e+004
3.115569e+002, 1.126425e+004
3.120390e+002, 1.134211e+004
3.125211e+002, 1.141582e+004
3.130032e+002, 1.148551e+004
3.134854e+002, 1.155267e+004
3.139675e+002, 1.161794e+004
3.144496e+002, 1.167937e+004
3.149317e+002, 1.174109e+004
3.154138e+002, 1.180725e+004
3.158959e+002, 1.187676e+004
3.163781e+002, 1.194429e+004
3.168602e+002, 1.200508e+004
3.173423e+002, 1.206391e+004
3.178244e+002, 1.212440e+004
3.183065e+002, 1.219103e+004
3.187886e+002, 1.225416e+004
3.192708e+002, 1.230594e+004
3.197529e+002, 1.235078e+004
3.202350e+002, 1.240136e+004
3.207171e+002, 1.246953e+004
3.211992e+002, 1.253747e+004
3.216813e+002, 1.259536e+004
3.221635e+002, 1.263699e+004
3.226456e+002, 1.267945e+004
3.231277e+002, 1.272477e+004
3.236098e+002, 1.277290e+004
3.240919e+002, 1.282408e+004
3.245740e+002, 1.288529e+004
3.250562e+002, 1.294237e+004
3.255383e+002, 1.299014e+004
3.260204e+002, 1.302640e+004
3.265025e+002, 1.306143e+004
3.269846e+002, 1.309338e+004
3.274667e+002, 1.312555e+004
3.279489e+002, 1.316195e+004
3.284310e+002, 1.321070e+004
3.289131e+002, 1.325516e+004
3.293952e+002, 1.329449e+004
3.298773e+002, 1.332889e+004
3.303594e+002, 1.335394e+004
3.308416e+002, 1.336055e+004
3.313237e+002, 1.336537e+004
3.318058e+002, 1.338075e+004
3.322879e+002, 1.341654e+004
3.327700e+002, 1.344584e+004
3.332521e+002, 1.346342e+004
3.337343e+002, 1.347240e+004
3.342164e+002, 1.348941e+004
3.346985e+002, 1.352147e+004
3.351806e+002, 1.355004e+004
3.356627e+002, 1.356372e+004
3.361448e+002, 1.355622e+004
3.366270e+002, 1.355270e+004
3.371091e+002, 1.355523e+004
3.375912e+002, 1.356100e+004
3.380733e+002, 1.356478e+004
3.385554e+002, 1.356684e+004
3.390375e+002, 1.356625e+004
3.395197e+002, 1.356283e+004
3.400018e+002, 1.355667e+004
3.404839e+002, 1.354646e+004
3.409660e+002, 1.353146e+004
3.414481e+002, 1.351439e+004
3.419302e+002, 1.350066e+004
3.424124e+002, 1.349077e+004
3.428945e+002, 1.347454e+004
3.433766e+002, 1.344594e+004
3.438587e+002, 1.340861e+004
3.443408e+002, 1.337995e+004
3.448229e+002, 1.336144e+004
3.453051e+002, 1.334214e+004
3.457872e+002, 1.331171e+004
3.462693e+002, 1.327142e+004
3.467514e+002, 1.322781e+004
3.472335e+002, 1.318084e+004
3.477156e+002, 1.313374e+004
3.481978e+002, 1.309544e+004
3.486799e+002, 1.306538e+004
3.491620e+002, 1.303522e+004
3.496441e+002, 1.300061e+004
3.501262e+002, 1.296188e+004
3.506083e+002, 1.291887e+004
3.510905e+002, 1.287026e+004
3.515726e+002, 1.282083e+004
3.520547e+002, 1.277586e+004
3.525368e+002, 1.273440e+004
3.530189e+002, 1.269361e+004
3.535010e+002, 1.265351e+004
3.539832e+002, 1.261251e+004
3.544653e+002, 1.256929e+004
3.549474e+002, 1.252339e+004
3.554295e+002, 1.247415e+004
3.559116e+002, 1.241681e+004
3.563937e+002, 1.235623e+004
3.568759e+002, 1.230058e+004
3.573580e+002, 1.225818e+004
3.578401e+002, 1.221658e+004
3.583222e+002, 1.216731e+004
3.588043e+002, 1.211083e+004
3.592864e+002, 1.205256e+004
3.597686e+002, 1.199401e+004
3.602507e+002, 1.193528e+004
3.607328e+002, 1.187740e+004
3.612149e+002, 1.182177e+004
3.616970e+002, 1.176404e+004
3.621791e+002, 1.170148e+004
3.626613e+002, 1.163537e+004
3.631434e+002, 1.156878e+004
3.636255e+002, 1.149980e+004
3.641076e+002, 1.143267e+004
3.645897e+002, 1.137018e+004
3.650718e+002, 1.131657e+004
3.655540e+002, 1.125810e+004
3.660361e+002, 1.118803e+004
3.665182e+002, 1.111340e+004
3.670003e+002, 1.104268e+004
3.674824e+002, 1.098482e+004
3.679645e+002, 1.092295e+004
3.684467e+002, 1.085028e+004
3.689288e+002, 1.076737e+004
3.694109e+002, 1.069123e+004
3.698930e+002, 1.062647e+004
3.703751e+002, 1.056527e+004
3.708572e+002, 1.050229e+004
3.713394e+002, 1.043761e+004
3.718215e+002, 1.037231e+004
3.723036e+002, 1.030525e+004
3.727857e+002, 1.023762e+004
3.732678e+002, 1.017335e+004
3.737499e+002, 1.011386e+004
3.742321e+002, 1.005389e+004
3.747142e+002, 9.990631e+003
3.751963e+002, 9.921621e+003
3.756784e+002, 9.858024e+003
3.761605e+002, 9.801659e+003
3.766426e+002, 9.748632e+003
3.771248e+002, 9.696197e+003
3.776069e+002, 9.644588e+003
3.780890e+002, 9.588468e+003
3.785711e+002, 9.524476e+003
3.790532e+002, 9.453861e+003
3.795353e+002, 9.391248e+003
3.800175e+002, 9.337369e+003
3.804996e+002, 9.285093e+003
3.809817e+002, 9.227404e+003
3.814638e+002, 9.165085e+003
3.819459e+002, 9.101972e+003
3.824280e+002, 9.039590e+003
3.829102e+002, 8.976628e+003
3.833923e+002, 8.911815e+003
3.838744e+002, 8.844697e+003
3.843565e+002, 8.776814e+003
3.848386e+002, 8.710711e+003
3.853207e+002, 8.644389e+003
3.858029e+002, 8.575983e+003
3.862850e+002, 8.504544e+003
3.867671e+002, 8.431397e+003
3.872492e+002, 8.357866e+003
3.877313e+002, 8.283160e+003
3.882134e+002, 8.206873e+003
3.886956e+002, 8.128997e+003
3.891777e+002, 8.050532e+003
3.896598e+002, 7.971676e+003
3.901419e+002, 7.892839e+003
3.906240e+002, 7.814263e+003
3.911061e+002, 7.735531e+003
3.915883e+002, 7.656727e+003
3.920704e+002, 7.577522e+003
3.925525e+002, 7.496922e+003
3.930346e+002, 7.417542e+003
3.935167e+002, 7.338650e+003
3.939988e+002, 7.260859e+003
3.944810e+002, 7.184883e+003
3.949631e+002, 7.114159e+003
3.954452e+002, 7.042813e+003
3.959273e+002, 6.966983e+003
3.964094e+002, 6.883842e+003
3.968915e+002, 6.803761e+003
3.973737e+002, 6.731435e+003
3.978558e+002, 6.662139e+003
3.983379e+002, 6.590060e+003
3.988200e+002, 6.511875e+003
3.993021e+002, 6.433583e+003
3.997842e+002, 6.355353e+003
4.002664e+002, 6.277175e+003
4.007485e+002, 6.201483e+003
4.012306e+002, 6.129930e+003
4.017127e+002, 6.060036e+003
4.021948e+002, 5.990154e+003
4.026769e+002, 5.918456e+003
4.031591e+002, 5.850920e+003
4.036412e+002, 5.789188e+003
4.041233e+002, 5.731371e+003
4.046054e+002, 5.670298e+003
4.050875e+002, 5.604642e+003
4.055696e+002, 5.541498e+003
4.060518e+002, 5.483952e+003
4.065339e+002, 5.432136e+003
4.070160e+002, 5.382799e+003
4.074981e+002, 5.336147e+003
4.079802e+002, 5.293027e+003
4.084623e+002, 5.255756e+003
4.089445e+002, 5.224146e+003
4.094266e+002, 5.192769e+003
4.099087e+002, 5.159207e+003
4.103908e+002, 5.125973e+003
4.108729e+002, 5.099474e+003
4.113550e+002, 5.079576e+003
4.118372e+002, 5.063607e+003
4.123193e+002, 5.051477e+003
4.128014e+002, 5.041536e+003
4.132835e+002, 5.029122e+003
4.137656e+002, 5.012737e+003
4.142477e+002, 4.996896e+003
4.147299e+002, 4.987022e+003
4.152120e+002, 4.981487e+003
4.156941e+002, 4.976741e+003
4.161762e+002, 4.970286e+003
4.166583e+002, 4.964153e+003
4.171404e+002, 4.960470e+003
4.176226e+002, 4.959087e+003
4.181047e+002, 4.957845e+003
4.185868e+002, 4.955464e+003
4.190689e+002, 4.952505e+003
4.195510e+002, 4.949434e+003
4.200331e+002, 4.946054e+003
4.205153e+002, 4.943004e+003
4.209974e+002, 4.941560e+003
4.214795e+002, 4.940785e+003
4.219616e+002, 4.938330e+003
4.224437e+002, 4.931819e+003
4.229258e+002, 4.925142e+003
4.234080e+002, 4.919974e+003
4.238901e+002, 4.916739e+003
4.243722e+002, 4.914109e+003
4.248543e+002, 4.911886e+003
4.253364e+002, 4.910439e+003
4.258185e+002, 4.910220e+003
4.263007e+002, 4.912933e+003
4.267828e+002, 4.914442e+003
4.272649e+002, 4.913659e+003
4.277470e+002, 4.911022e+003
4.282291e+002, 4.909288e+003
4.287112e+002, 4.908270e+003
4.291934e+002, 4.908410e+003
4.296755e+002, 4.910372e+003
4.301576e+002, 4.914730e+003
4.306397e+002, 4.917347e+003
4.311218e+002, 4.917396e+003
4.316039e+002, 4.916723e+003
4.320861e+002, 4.918346e+003
4.325682e+002, 4.922381e+003
4.330503e+002, 4.927094e+003
4.335324e+002, 4.932226e+003
4.340145e+002, 4.937576e+003
4.344966e+002, 4.942425e+003
4.349788e+002, 4.946813e+003
4.354609e+002, 4.950859e+003
4.359430e+002, 4.953582e+003
4.364251e+002, 4.956092e+003
4.369072e+002, 4.961597e+003
4.373893e+002, 4.971236e+003
4.378715e+002, 4.982714e+003
4.383536e+002, 4.993915e+003
4.388357e+002, 5.004886e+003
4.393178e+002, 5.015751e+003
4.397999e+002, 5.025804e+003
4.402820e+002, 5.036222e+003
4.407642e+002, 5.047800e+003
4.412463e+002, 5.060624e+003
4.417284e+002, 5.074526e+003
4.422105e+002, 5.091909e+003
4.426926e+002, 5.109183e+003
4.431747e+002, 5.122718e+003
4.436569e+002, 5.125760e+003
4.441390e+002, 5.131815e+003
4.446211e+002, 5.147266e+003
4.451032e+002, 5.169198e+003
4.455853e+002, 5.188729e+003
4.460674e+002, 5.203021e+003
4.465496e+002, 5.215958e+003
4.470317e+002, 5.228674e+003
4.475138e+002, 5.240909e+003
4.479959e+002, 5.254711e+003
4.484780e+002, 5.272620e+003
4.489601e+002, 5.290649e+003
4.494423e+002, 5.305067e+003
4.499244e+002, 5.314508e+003
4.504065e+002, 5.322999e+003
4.508886e+002, 5.330375e+003
4.513707e+002, 5.337301e+003
4.518528e+002, 5.347651e+003
4.523350e+002, 5.363009e+003
4.528171e+002, 5.376967e+003
4.532992e+002, 5.385785e+003
4.537813e+002, 5.389343e+003
4.542634e+002, 5.392359e+003
4.547455e+002, 5.394681e+003
4.552277e+002, 5.396925e+003
4.557098e+002, 5.399876e+003
4.561919e+002, 5.403423e+003
4.566740e+002, 5.407387e+003
4.571561e+002, 5.411673e+003
4.576382e+002, 5.416268e+003
4.581204e+002, 5.421255e+003
4.586025e+002, 5.426620e+003
4.590846e+002, 5.431752e+003
4.595667e+002, 5.434837e+003
4.600488e+002, 5.438163e+003
4.605309e+002, 5.445713e+003
4.610131e+002, 5.459155e+003
4.614952e+002, 5.471671e+003
4.619773e+002, 5.477335e+003
4.624594e+002, 5.479166e+003
4.629415e+002, 5.481630e+003
4.634236e+002, 5.486124e+003
4.639058e+002, 5.491781e+003
4.643879e+002, 5.498062e+003
4.648700e+002, 5.504995e+003
4.653521e+002, 5.513607e+003
4.658342e+002, 5.527256e+003
4.663163e+002, 5.540406e+003
4.667985e+002, 5.549754e+003
4.672806e+002, 5.551867e+003
4.677627e+002, 5.555913e+003
4.682448e+002, 5.562674e+003
4.687269e+002, 5.571108e+003
4.692090e+002, 5.580114e+003
4.696912e+002, 5.591239e+003
4.701733e+002, 5.600186e+003
4.706554e+002, 5.605590e+003
4.711375e+002, 5.607771e+003
4.716196e+002, 5.609835e+003
4.721017e+002, 5.611839e+003
4.725839e+002, 5.613525e+003
4.730660e+002, 5.615662e+003
4.735481e+002, 5.618282e+003
4.740302e+002, 5.615905e+003
4.745123e+002, 5.606864e+003
4.749944e+002, 5.596305e+003
4.754766e+002, 5.592665e+003
4.759587e+002, 5.594963e+003
4.764408e+002, 5.596548e+003
4.769229e+002, 5.593739e+003
4.774050e+002, 5.589375e+003
4.778871e+002, 5.588477e+003
4.783693e+002, 5.590774e+003
4.788514e+002, 5.593391e+003
4.793335e+002, 5.594662e+003
4.798156e+002, 5.594979e+003
4.802977e+002, 5.594494e+003
4.807798e+002, 5.592792e+003
4.812620e+002, 5.591715e+003
4.817441e+002, 5.592228e+003
4.822262e+002, 5.593966e+003
4.827083e+002, 5.596416e+003
4.831904e+002, 5.599836e+003
4.836725e+002, 5.603356e+003
4.841547e+002, 5.606487e+003
4.846368e+002, 5.609207e+003
4.851189e+002, 5.612144e+003
4.856010e+002, 5.617196e+003
4.860831e+002, 5.620954e+003
4.865652e+002, 5.621427e+003
4.870474e+002, 5.616066e+003
4.875295e+002, 5.612950e+003
4.880116e+002, 5.613476e+003
4.884937e+002, 5.615236e+003
4.889758e+002, 5.615467e+003
4.894579e+002, 5.615112e+003
4.899401e+002, 5.610097e+003
4.904222e+002, 5.598413e+003
4.909043e+002, 5.581457e+003
4.913864e+002, 5.565531e+003
4.918685e+002, 5.550946e+003
4.923506e+002, 5.534751e+003
4.928328e+002, 5.514160e+003
4.933149e+002, 5.490135e+003
4.937970e+002, 5.466328e+003
4.942791e+002, 5.442876e+003
4.947612e+002, 5.420198e+003
4.952433e+002, 5.398841e+003
4.957255e+002, 5.378435e+003
4.962076e+002, 5.357839e+003
4.966897e+002, 5.337891e+003
4.971718e+002, 5.316451e+003
4.976539e+002, 5.290810e+003
4.981360e+002, 5.261986e+003
4.986182e+002, 5.233220e+003
4.991003e+002, 5.207860e+003
4.995824e+002, 5.182194e+003
5.000645e+002, 5.153337e+003
5.005466e+002, 5.119125e+003
5.010287e+002, 5.088036e+003
5.015109e+002, 5.064991e+003
5.019930e+002, 5.044978e+003
5.024751e+002, 5.023281e+003
5.029572e+002, 4.994645e+003
5.034393e+002, 4.969893e+003
5.039214e+002, 4.952353e+003
5.044036e+002, 4.939849e+003
5.048857e+002, 4.924128e+003
5.053678e+002, 4.903240e+003
5.058499e+002, 4.882226e+003
5.063320e+002, 4.863148e+003
5.068141e+002, 4.846166e+003
5.072963e+002, 4.828695e+003
5.077784e+002, 4.809781e+003
5.082605e+002, 4.792438e+003
5.087426e+002, 4.780567e+003
5.092247e+002, 4.773741e+003
5.097068e+002, 4.765189e+003
5.101890e+002, 4.752920e+003
5.106711e+002, 4.739760e+003
5.111532e+002, 4.731535e+003
5.116353e+002, 4.727167e+003
5.121174e+002, 4.721796e+003
5.125995e+002, 4.710353e+003
5.130817e+002, 4.697772e+003
5.135638e+002, 4.691402e+003
5.140459e+002, 4.691027e+003
5.145280e+002, 4.689136e+003
5.150101e+002, 4.679098e+003
5.154922e+002, 4.666279e+003
5.159744e+002, 4.655728e+003
5.164565e+002, 4.648753e+003
5.169386e+002, 4.643573e+003
5.174207e+002, 4.640707e+003
5.179028e+002, 4.639106e+003
5.183849e+002, 4.637025e+003
5.188671e+002, 4.633435e+003
5.193492e+002, 4.630155e+003
5.198313e+002, 4.627381e+003
5.203134e+002, 4.625138e+003
5.207955e+002, 4.623695e+003
5.212776e+002, 4.622974e+003
5.217598e+002, 4.623074e+003
5.222419e+002, 4.624495e+003
5.227240e+002, 4.627849e+003
5.232061e+002, 4.628827e+003
5.236882e+002, 4.626744e+003
5.241703e+002, 4.623550e+003
5.246525e+002, 4.621627e+003
5.251346e+002, 4.620946e+003
5.256167e+002, 4.621317e+003
5.260988e+002, 4.624058e+003
5.265809e+002, 4.626330e+003
5.270630e+002, 4.620898e+003
5.275452e+002, 4.609253e+003
5.280273e+002, 4.599641e+003
5.285094e+002, 4.598435e+003
5.289915e+002, 4.601108e+003
5.294736e+002, 4.602484e+003
5.299557e+002, 4.602127e+003
5.304379e+002, 4.602223e+003
5.309200e+002, 4.605564e+003
5.314021e+002, 4.609226e+003
5.318842e+002, 4.610159e+003
5.323663e+002, 4.604542e+003
5.328484e+002, 4.600437e+003
5.333306e+002, 4.600590e+003
5.338127e+002, 4.603502e+003
5.342948e+002, 4.606083e+003
5.347769e+002, 4.609024e+003
5.352590e+002, 4.610521e+003
5.357411e+002, 4.609640e+003
5.362233e+002, 4.606522e+003
5.367054e+002, 4.604642e+003
5.371875e+002, 4.604193e+003
5.376696e+002, 4.604828e+003
5.381517e+002, 4.606886e+003
5.386339e+002, 4.610614e+003
5.391160e+002, 4.612751e+003
5.395981e+002, 4.612903e+003
5.400802e+002, 4.612153e+003
5.405623e+002, 4.611589e+003
5.410444e+002, 4.611269e+003
5.415266e+002, 4.611598e+003
5.420087e+002, 4.613241e+003
5.424908e+002, 4.614905e+003
5.429729e+002, 4.613592e+003
5.434550e+002, 4.610269e+003
5.439371e+002, 4.608821e+003
5.444193e+002, 4.613869e+003
5.449014e+002, 4.620052e+003
5.453835e+002, 4.622072e+003
5.458656e+002, 4.619200e+003
5.463477e+002, 4.617897e+003
5.468298e+002, 4.622482e+003
5.473120e+002, 4.628799e+003
5.477941e+002, 4.633379e+003
5.482762e+002, 4.634124e+003
5.487583e+002, 4.635228e+003
5.492404e+002, 4.638078e+003
5.497225e+002, 4.641122e+003
5.502047e+002, 4.641354e+003
5.506868e+002, 4.636348e+003
5.511689e+002, 4.633271e+003
5.516510e+002, 4.634417e+003
5.521331e+002, 4.639115e+003
5.526152e+002, 4.643617e+003
5.530974e+002, 4.648479e+003
5.535795e+002, 4.650702e+003
5.540616e+002, 4.646218e+003
5.545437e+002, 4.636718e+003
5.550258e+002, 4.631808e+003
5.555079e+002, 4.632257e+003
5.559901e+002, 4.635898e+003
5.564722e+002, 4.642585e+003
5.569543e+002, 4.650614e+003
5.574364e+002, 4.656342e+003
5.579185e+002, 4.658328e+003
5.584006e+002, 4.658295e+003
5.588828e+002, 4.655190e+003
5.593649e+002, 4.651035e+003
5.598470e+002, 4.650485e+003
5.603291e+002, 4.658875e+003
5.608112e+002, 4.667939e+003
5.612933e+002, 4.674131e+003
5.617755e+002, 4.677179e+003
5.622576e+002, 4.679304e+003
5.627397e+002, 4.679448e+003
5.632218e+002, 4.679682e+003
5.637039e+002, 4.681074e+003
5.641860e+002, 4.684175e+003
5.646682e+002, 4.687116e+003
5.651503e+002, 4.690044e+003
5.656324e+002, 4.692809e+003
5.661145e+002, 4.695087e+003
5.665966e+002, 4.696901e+003
5.670787e+002, 4.699146e+003
5.675609e+002, 4.702402e+003
5.680430e+002, 4.705934e+003
5.685251e+002, 4.707727e+003
5.690072e+002, 4.708044e+003
5.694893e+002, 4.708528e+003
5.699714e+002, 4.710105e+003
5.704536e+002, 4.712391e+003
5.709357e+002, 4.715115e+003
5.714178e+002, 4.718181e+003
5.718999e+002, 4.720753e+003
5.723820e+002, 4.719877e+003
5.728641e+002, 4.719550e+003
5.733463e+002, 4.724128e+003
5.738284e+002, 4.737096e+003
5.743105e+002, 4.747485e+003
5.747926e+002, 4.749803e+003
5.752747e+002, 4.748473e+003
5.757568e+002, 4.749074e+003
5.762390e+002, 4.754132e+003
5.767211e+002, 4.758244e+003
5.772032e+002, 4.760052e+003
5.776853e+002, 4.760548e+003
5.781674e+002, 4.763240e+003
5.786495e+002, 4.768768e+003
5.791317e+002, 4.774699e+003
5.796138e+002, 4.780210e+003
5.800959e+002, 4.785321e+003
5.805780e+002, 4.790307e+003
5.810601e+002, 4.795327e+003
5.815422e+002, 4.799227e+003
5.820244e+002, 4.800980e+003
5.825065e+002, 4.800922e+003
5.829886e+002, 4.798716e+003
5.834707e+002, 4.793436e+003
5.839528e+002, 4.790863e+003
5.844349e+002, 4.797999e+003
5.849171e+002, 4.810717e+003
5.853992e+002, 4.822932e+003
5.858813e+002, 4.834516e+003
5.863634e+002, 4.842978e+003
5.868455e+002, 4.844492e+003
5.873276e+002, 4.841786e+003
5.878098e+002, 4.842319e+003
5.882919e+002, 4.852251e+003
5.887740e+002, 4.860662e+003
5.892561e+002, 4.863610e+003
5.897382e+002, 4.860945e+003
5.902203e+002, 4.860030e+003
5.907025e+002, 4.860735e+003
5.911846e+002, 4.863395e+003
5.916667e+002, 4.868998e+003
5.921488e+002, 4.877903e+003
5.926309e+002, 4.885015e+003
5.931130e+002, 4.890068e+003
5.935952e+002, 4.893994e+003
5.940773e+002, 4.897460e+003
5.945594e+002, 4.900725e+003
5.950415e+002, 4.904503e+003
5.955236e+002, 4.908851e+003
5.960057e+002, 4.914247e+003
5.964879e+002, 4.921724e+003
5.969700e+002, 4.930650e+003
5.974521e+002, 4.939436e+003
5.979342e+002, 4.949076e+003
5.984163e+002, 4.956858e+003
5.988984e+002, 4.959559e+003
5.993806e+002, 4.957964e+003
5.998627e+002, 4.959279e+003
6.003448e+002, 4.968044e+003
6.008269e+002, 4.977560e+003
6.013090e+002, 4.984391e+003
6.017911e+002, 4.987271e+003
6.022733e+002, 4.992483e+003
6.027554e+002, 5.000921e+003
6.032375e+002, 5.010391e+003
6.037196e+002, 5.018599e+003
6.042017e+002, 5.025436e+003
6.046838e+002, 5.032806e+003
6.051660e+002, 5.040752e+003
6.056481e+002, 5.049943e+003
6.061302e+002, 5.062458e+003
6.066123e+002, 5.077470e+003
6.070944e+002, 5.090942e+003
6.075765e+002, 5.100515e+003
6.080587e+002, 5.108786e+003
6.085408e+002, 5.118647e+003
6.090229e+002, 5.129794e+003
6.095050e+002, 5.141563e+003
6.099871e+002, 5.154017e+003
6.104692e+002, 5.166460e+003
6.109514e+002, 5.178657e+003
6.114335e+002, 5.190691e+003
6.119156e+002, 5.201510e+003
6.123977e+002, 5.210585e+003
6.128798e+002, 5.218554e+003
6.133619e+002, 5.225775e+003
6.138441e+002, 5.232715e+003
6.143262e+002, 5.237933e+003
6.148083e+002, 5.241112e+003
6.152904e+002, 5.243144e+003
6.157725e+002, 5.245270e+003
6.162546e+002, 5.247614e+003
6.167368e+002, 5.248430e+003
6.172189e+002, 5.246907e+003
6.177010e+002, 5.244640e+003
6.181831e+002, 5.245797e+003
6.186652e+002, 5.249146e+003
6.191473e+002, 5.249614e+003
6.196295e+002, 5.240556e+003
6.201116e+002, 5.230271e+003
6.205937e+002, 5.228577e+003
6.210758e+002, 5.233815e+003
6.215579e+002, 5.237626e+003
6.220400e+002, 5.234211e+003
6.225222e+002, 5.229423e+003
6.230043e+002, 5.226204e+003
6.234864e+002, 5.224766e+003
6.239685e+002, 5.225315e+003
6.244506e+002, 5.230980e+003
6.249327e+002, 5.235990e+003
6.254149e+002, 5.235874e+003
6.258970e+002, 5.227589e+003
6.263791e+002, 5.223763e+003
6.268612e+002, 5.226200e+003
6.273433e+002, 5.230829e+003
6.278254e+002, 5.231741e+003
6.283076e+002, 5.229112e+003
6.287897e+002, 5.226697e+003
6.292718e+002, 5.225276e+003
6.297539e+002, 5.224786e+003
6.302360e+002, 5.224733e+003
6.307181e+002, 5.225466e+003
6.312003e+002, 5.228091e+003
6.316824e+002, 5.236023e+003
6.321645e+002, 5.243870e+003
6.326466e+002, 5.246624e+003
6.331287e+002, 5.245045e+003
6.336108e+002, 5.244267e+003
6.340930e+002, 5.245427e+003
6.345751e+002, 5.248378e+003
6.350572e+002, 5.253858e+003
6.355393e+002, 5.262942e+003
6.360214e+002, 5.268889e+003
6.365035e+002, 5.270713e+003
6.369857e+002, 5.270547e+003
6.374678e+002, 5.269254e+003
6.379499e+002, 5.266285e+003
6.384320e+002, 5.266292e+003
6.389141e+002, 5.270041e+003
6.393962e+002, 5.275374e+003
6.398784e+002, 5.278956e+003
6.403605e+002, 5.281467e+003
6.408426e+002, 5.286505e+003
6.413247e+002, 5.296690e+003
6.418068e+002, 5.306754e+003
6.422889e+002, 5.310394e+003
6.427711e+002, 5.309591e+003
6.432532e+002, 5.308904e+003
6.437353e+002, 5.309377e+003
6.442174e+002, 5.311385e+003
6.446995e+002, 5.316342e+003
6.451816e+002, 5.323581e+003
6.456638e+002, 5.328807e+003
6.461459e+002, 5.329172e+003
6.466280e+002, 5.329665e+003
6.471101e+002, 5.332317e+003
6.475922e+002, 5.337304e+003
6.480743e+002, 5.339870e+003
6.485565e+002, 5.338685e+003
6.490386e+002, 5.338308e+003
6.495207e+002, 5.343298e+003
6.500028e+002, 5.352803e+003
6.504849e+002, 5.359308e+003
6.509670e+002, 5.361796e+003
6.514492e+002, 5.363964e+003
6.519313e+002, 5.370426e+003
6.524134e+002, 5.379223e+003
6.528955e+002, 5.386924e+003
6.533776e+002, 5.393718e+003
6.538597e+002, 5.397263e+003
6.543419e+002, 5.394390e+003
6.548240e+002, 5.387823e+003
6.553061e+002, 5.381756e+003
6.557882e+002, 5.374849e+003
6.562703e+002, 5.371559e+003
6.567524e+002, 5.374993e+003
6.572346e+002, 5.382868e+003
6.577167e+002, 5.388556e+003
6.581988e+002, 5.391868e+003
6.586809e+002, 5.393464e+003
6.591630e+002, 5.392784e+003
6.596451e+002, 5.390496e+003
6.601273e+002, 5.390673e+003
6.606094e+002, 5.393354e+003
6.610915e+002, 5.396933e+003
6.615736e+002, 5.399913e+003
6.620557e+002, 5.403064e+003
6.625378e+002, 5.408983e+003
6.630200e+002, 5.417706e+003
6.635021e+002, 5.424587e+003
6.639842e+002, 5.424540e+003
6.644663e+002, 5.422071e+003
6.649484e+002, 5.421559e+003
6.654305e+002, 5.424628e+003
6.659127e+002, 5.427120e+003
6.663948e+002, 5.426488e+003
6.668769e+002, 5.425742e+003
6.673590e+002, 5.428237e+003
6.678411e+002, 5.437276e+003
6.683232e+002, 5.442440e+003
6.688054e+002, 5.441487e+003
6.692875e+002, 5.437970e+003
6.697696e+002, 5.438602e+003
6.702517e+002, 5.443473e+003
6.707338e+002, 5.446937e+003
6.712159e+002, 5.446661e+003
6.716981e+002, 5.444851e+003
6.721802e+002, 5.446063e+003
6.726623e+002, 5.449237e+003
6.731444e+002, 5.450647e+003
6.736265e+002, 5.444536e+003
6.741086e+002, 5.439042e+003
6.745908e+002, 5.441851e+003
6.750729e+002, 5.451675e+003
6.755550e+002, 5.459357e+003
6.760371e+002, 5.461874e+003
6.765192e+002, 5.461851e+003
6.770013e+002, 5.460092e+003
6.774835e+002, 5.456502e+003
6.779656e+002, 5.452696e+003
6.784477e+002, 5.447083e+003
6.789298e+002, 5.444101e+003
6.794119e+002, 5.448058e+003
6.798940e+002, 5.459055e+003
6.803762e+002, 5.468275e+003
6.808583e+002, 5.475770e+003
6.813404e+002, 5.479804e+003
6.818225e+002, 5.476003e+003
6.823046e+002, 5.467859e+003
6.827867e+002, 5.462789e+003
6.832689e+002, 5.462914e+003
6.837510e+002, 5.464376e+003
6.842331e+002, 5.464784e+003
6.847152e+002, 5.464791e+003
6.851973e+002, 5.465224e+003
6.856794e+002, 5.465661e+003
6.861616e+002, 5.467401e+003
6.866437e+002, 5.472073e+003
6.871258e+002, 5.477897e+003
6.876079e+002, 5.481440e+003
6.880900e+002, 5.481656e+003
6.885721e+002, 5.482352e+003
6.890543e+002, 5.485012e+003
6.895364e+002, 5.488289e+003
6.900185e+002, 5.487656e+003
6.905006e+002, 5.483198e+003
6.909827e+002, 5.478717e+003
6.914648e+002, 5.476563e+003
6.919470e+002, 5.475245e+003
6.924291e+002, 5.471688e+003
6.929112e+002, 5.466454e+003
6.933933e+002, 5.462733e+003
6.938754e+002, 5.463945e+003
6.943575e+002, 5.465964e+003
6.948397e+002, 5.465736e+003
6.953218e+002, 5.462809e+003
6.958039e+002, 5.461476e+003
6.962860e+002, 5.463821e+003
6.967681e+002, 5.466627e+003
6.972502e+002, 5.468696e+003
6.977324e+002, 5.470407e+003
6.982145e+002, 5.468981e+003
6.986966e+002, 5.463188e+003
6.991787e+002, 5.457831e+003
6.996608e+002, 5.458205e+003
7.001429e+002, 5.463300e+003
7.006251e+002, 5.468985e+003
7.011072e+002, 5.475214e+003
7.015893e+002, 5.478866e+003
7.020714e+002, 5.474413e+003
7.025535e+002, 5.466059e+003
7.030356e+002, 5.459880e+003
7.035178e+002, 5.457691e+003
7.039999e+002, 5.457750e+003
7.044820e+002, 5.461626e+003
7.049641e+002, 5.466674e+003
7.054462e+002, 5.468722e+003
7.059283e+002, 5.465605e+003
7.064105e+002, 5.462624e+003
7.068926e+002, 5.460218e+003
7.073747e+002, 5.458489e+003
7.078568e+002, 5.458103e+003
7.083389e+002, 5.459267e+003
7.088210e+002, 5.459212e+003
7.093032e+002, 5.456197e+003
7.097853e+002, 5.452222e+003
7.102674e+002, 5.451810e+003
7.107495e+002, 5.454236e+003
7.112316e+002, 5.456419e+003
7.117137e+002, 5.457528e+003
7.121959e+002, 5.457060e+003
7.126780e+002, 5.452457e+003
7.131601e+002, 5.444804e+003
7.136422e+002, 5.441859e+003
7.141243e+002, 5.453189e+003
7.146064e+002, 5.462368e+003
7.150886e+002, 5.461665e+003
7.155707e+002, 5.450699e+003
7.160528e+002, 5.443532e+003
7.165349e+002, 5.441049e+003
7.170170e+002, 5.440021e+003
7.174991e+002, 5.438782e+003
7.179813e+002, 5.437307e+003
7.184634e+002, 5.435229e+003
7.189455e+002, 5.432556e+003
7.194276e+002, 5.429284e+003
7.199097e+002, 5.423787e+003
7.203918e+002, 5.418382e+003
7.208740e+002, 5.416459e+003
7.213561e+002, 5.418786e+003
7.218382e+002, 5.422602e+003
7.223203e+002, 5.429301e+003
7.228024e+002, 5.435281e+003
7.232845e+002, 5.437232e+003
7.237667e+002, 5.431121e+003
7.242488e+002, 5.427563e+003
7.247309e+002, 5.427706e+003
7.252130e+002, 5.429074e+003
7.256951e+002, 5.428893e+003
7.261772e+002, 5.427104e+003
7.266594e+002, 5.424360e+003
7.271415e+002, 5.420317e+003
7.276236e+002, 5.416802e+003
7.281057e+002, 5.418958e+003
7.285878e+002, 5.423693e+003
7.290699e+002, 5.422395e+003
7.295521e+002, 5.407907e+003
7.300342e+002, 5.393608e+003
7.305163e+002, 5.388887e+003
7.309984e+002, 5.390565e+003
7.314805e+002, 5.392953e+003
7.319626e+002, 5.397605e+003
7.324448e+002, 5.399177e+003
7.329269e+002, 5.394753e+003
7.334090e+002, 5.387160e+003
7.338911e+002, 5.384841e+003
7.343732e+002, 5.389413e+003
7.348553e+002, 5.392597e+003
7.353375e+002, 5.391120e+003
7.358196e+002, 5.387102e+003
7.363017e+002, 5.386435e+003
7.367838e+002, 5.388561e+003
7.372659e+002, 5.390069e+003
7.377480e+002, 5.387681e+003
7.382302e+002, 5.384859e+003
7.387123e+002, 5.385845e+003
7.391944e+002, 5.389655e+003
7.396765e+002, 5.391342e+003
7.401586e+002, 5.386993e+003
7.406407e+002, 5.382084e+003
7.411229e+002, 5.379351e+003
7.416050e+002, 5.378654e+003
7.420871e+002, 5.376069e+003
7.425692e+002, 5.369886e+003
7.430513e+002, 5.365869e+003
7.435334e+002, 5.368472e+003
7.440156e+002, 5.376587e+003
7.444977e+002, 5.380136e+003
7.449798e+002, 5.379152e+003
7.454619e+002, 5.377703e+003
7.459440e+002, 5.378989e+003
7.464261e+002, 5.381586e+003
7.469083e+002, 5.384369e+003
7.473904e+002, 5.387240e+003
7.478725e+002, 5.388027e+003
7.483546e+002, 5.383301e+003
7.488367e+002, 5.377805e+003
7.493188e+002, 5.374290e+003
7.498010e+002, 5.372503e+003
7.502831e+002, 5.375074e+003
7.507652e+002, 5.385731e+003
7.512473e+002, 5.394878e+003
7.517294e+002, 5.393376e+003
7.522115e+002, 5.381415e+003
7.526937e+002, 5.372624e+003
7.531758e+002, 5.367893e+003
7.536579e+002, 5.365757e+003
7.541400e+002, 5.366569e+003
7.546221e+002, 5.368439e+003
7.551042e+002, 5.367470e+003
7.555864e+002, 5.361767e+003
7.560685e+002, 5.358361e+003
7.565506e+002, 5.365869e+003
7.570327e+002, 5.375196e+003
7.575148e+002, 5.376934e+003
7.579969e+002, 5.360978e+003
7.584791e+002, 5.351658e+003
7.589612e+002, 5.351909e+003
7.594433e+002, 5.355490e+003
7.599254e+002, 5.354022e+003
7.604075e+002, 5.347082e+003
7.608896e+002, 5.343625e+003
7.613718e+002, 5.345210e+003
7.618539e+002, 5.349808e+003
7.623360e+002, 5.358090e+003
7.628181e+002, 5.366940e+003
7.633002e+002, 5.369170e+003
7.637823e+002, 5.358508e+003
7.642645e+002, 5.348443e+003
7.647466e+002, 5.346467e+003
7.652287e+002, 5.349804e+003
7.657108e+002, 5.354291e+003
7.661929e+002, 5.363364e+003
7.666750e+002, 5.367775e+003
7.671572e+002, 5.365544e+003
7.676393e+002, 5.359263e+003
7.681214e+002, 5.352712e+003
7.686035e+002, 5.345712e+003
7.690856e+002, 5.341893e+003
7.695677e+002, 5.343003e+003
7.700499e+002, 5.345993e+003
7.705320e+002, 5.345596e+003
7.710141e+002, 5.343199e+003
7.714962e+002, 5.342425e+003
7.719783e+002, 5.346312e+003
7.724604e+002, 5.350573e+003
7.729426e+002, 5.352550e+003
7.734247e+002, 5.353239e+003
7.739068e+002, 5.355080e+003
7.743889e+002, 5.361740e+003
7.748710e+002, 5.364532e+003
7.753531e+002, 5.360689e+003
7.758353e+002, 5.352635e+003
7.763174e+002, 5.346934e+003
7.767995e+002, 5.343705e+003
7.772816e+002, 5.342295e+003
7.777637e+002, 5.343068e+003
7.782458e+002, 5.344982e+003
7.787280e+002, 5.346390e+003
7.792101e+002, 5.347482e+003
7.796922e+002, 5.348766e+003
7.801743e+002, 5.351755e+003
7.806564e+002, 5.353800e+003
7.811385e+002, 5.352323e+003
7.816207e+002, 5.348437e+003
7.821028e+002, 5.347238e+003
7.825849e+002, 5.351017e+003
7.830670e+002, 5.354107e+003
7.835491e+002, 5.354465e+003
7.840313e+002, 5.353077e+003
7.845134e+002, 5.354748e+003
7.849955e+002, 5.359511e+003
7.854776e+002, 5.362571e+003
7.859597e+002, 5.360744e+003
7.864418e+002, 5.356503e+003
7.869240e+002, 5.352798e+003
7.874061e+002, 5.349898e+003
7.878882e+002, 5.348929e+003
7.883703e+002, 5.353164e+003
7.888524e+002, 5.356927e+003
7.893345e+002, 5.356908e+003
7.898167e+002, 5.353570e+003
7.902988e+002, 5.351157e+003
7.907809e+002, 5.349481e+003
7.912630e+002, 5.349474e+003
7.917451e+002, 5.352280e+003
7.922272e+002, 5.356908e+003
7.927094e+002, 5.359132e+003
7.931915e+002, 5.358991e+003
7.936736e+002, 5.357376e+003
7.941557e+002, 5.353285e+003
7.946378e+002, 5.348926e+003
7.951199e+002, 5.347284e+003
7.956021e+002, 5.348002e+003
7.960842e+002, 5.349291e+003
7.965663e+002, 5.350969e+003
7.970484e+002, 5.352456e+003
7.975305e+002, 5.353442e+003
7.980126e+002, 5.353946e+003
7.984948e+002, 5.354129e+003
7.989769e+002, 5.353674e+003
7.994590e+002, 5.353756e+003
7.999411e+002, 5.355200e+003
8.004232e+002, 5.357531e+003
8.009053e+002, 5.358573e+003
8.013875e+002, 5.358481e+003
8.018696e+002, 5.358642e+003
8.023517e+002, 5.359659e+003
8.028338e+002, 5.361524e+003
8.033159e+002, 5.364812e+003
8.037980e+002, 5.369154e+003
8.042802e+002, 5.372501e+003
8.047623e+002, 5.373113e+003
8.052444e+002, 5.373587e+003
8.057265e+002, 5.374013e+003
8.062086e+002, 5.374692e+003
8.066907e+002, 5.379802e+003
8.071729e+002, 5.390926e+003
8.076550e+002, 5.399374e+003
8.081371e+002, 5.400513e+003
8.086192e+002, 5.396233e+003
8.091013e+002, 5.389597e+003
8.095834e+002, 5.381427e+003
8.100656e+002, 5.376374e+003
8.105477e+002, 5.380476e+003
8.110298e+002, 5.385940e+003
8.115119e+002, 5.386413e+003
8.119940e+002, 5.382737e+003
8.124761e+002, 5.382591e+003
8.129583e+002, 5.391943e+003
8.134404e+002, 5.398909e+003
8.139225e+002, 5.398800e+003
8.144046e+002, 5.393236e+003
8.148867e+002, 5.392481e+003
8.153688e+002, 5.396821e+003
8.158510e+002, 5.400438e+003
8.163331e+002, 5.398515e+003
8.168152e+002, 5.394973e+003
8.172973e+002, 5.397315e+003
8.177794e+002, 5.404085e+003
8.182615e+002, 5.409639e+003
8.187437e+002, 5.409636e+003
8.192258e+002, 5.409042e+003
8.197079e+002, 5.410500e+003
8.201900e+002, 5.413583e+003
8.206721e+002, 5.414963e+003
8.211542e+002, 5.414057e+003
8.216364e+002, 5.412708e+003
8.221185e+002, 5.411894e+003
8.226006e+002, 5.410905e+003
8.230827e+002, 5.405373e+003
8.235648e+002, 5.396299e+003
8.240469e+002, 5.391210e+003
8.245291e+002, 5.398979e+003
8.250112e+002, 5.408805e+003
8.254933e+002, 5.410423e+003
8.259754e+002, 5.405556e+003
8.264575e+002, 5.399690e+003
8.269396e+002, 5.391038e+003
8.274218e+002, 5.385922e+003
8.279039e+002, 5.387052e+003
8.283860e+002, 5.392693e+003
8.288681e+002, 5.397116e+003
8.293502e+002, 5.400202e+003
8.298323e+002, 5.403093e+003
8.303145e+002, 5.406890e+003
8.307966e+002, 5.409803e+003
8.312787e+002, 5.407062e+003
8.317608e+002, 5.400319e+003
8.322429e+002, 5.394845e+003
8.327250e+002, 5.392704e+003
8.332072e+002, 5.392765e+003
8.336893e+002, 5.395804e+003
8.341714e+002, 5.400571e+003
8.346535e+002, 5.403706e+003
8.351356e+002, 5.404440e+003
8.356177e+002, 5.404621e+003
8.360999e+002, 5.404127e+003
8.365820e+002, 5.403721e+003
8.370641e+002, 5.405401e+003
8.375462e+002, 5.408995e+003
8.380283e+002, 5.412673e+003
8.385104e+002, 5.416466e+003
8.389926e+002, 5.418927e+003
8.394747e+002, 5.416333e+003
8.399568e+002, 5.411680e+003
8.404389e+002, 5.410177e+003
8.409210e+002, 5.416912e+003
8.414031e+002, 5.422913e+003
8.418853e+002, 5.426188e+003
8.423674e+002, 5.427555e+003
8.428495e+002, 5.427792e+003
8.433316e+002, 5.426567e+003
8.438137e+002, 5.425562e+003
8.442958e+002, 5.424975e+003
8.447780e+002, 5.424792e+003
8.452601e+002, 5.426202e+003
8.457422e+002, 5.427903e+003
8.462243e+002, 5.426179e+003
8.467064e+002, 5.418078e+003
8.471885e+002, 5.411387e+003
8.476707e+002, 5.412480e+003
8.481528e+002, 5.416613e+003
8.486349e+002, 5.418158e+003
8.491170e+002, 5.414468e+003
8.495991e+002, 5.412239e+003
8.500812e+002, 5.411896e+003
8.505634e+002, 5.412752e+003
8.510455e+002, 5.414897e+003
8.515276e+002, 5.417975e+003
8.520097e+002, 5.418567e+003
8.524918e+002, 5.416052e+003
8.529739e+002, 5.412623e+003
8.534561e+002, 5.408775e+003
8.539382e+002, 5.405923e+003
8.544203e+002, 5.406061e+003
8.549024e+002, 5.410573e+003
8.553845e+002, 5.414408e+003
8.558666e+002, 5.416228e+003
8.563488e+002, 5.417256e+003
8.568309e+002, 5.418018e+003
8.573130e+002, 5.418316e+003
8.577951e+002, 5.419316e+003
8.582772e+002, 5.421056e+003
8.587593e+002, 5.422527e+003
8.592415e+002, 5.422058e+003
8.597236e+002, 5.420970e+003
8.602057e+002, 5.421589e+003
8.606878e+002, 5.424110e+003
8.611699e+002, 5.427286e+003
8.616520e+002, 5.433530e+003
8.621342e+002, 5.437793e+003
8.626163e+002, 5.436095e+003
8.630984e+002, 5.428374e+003
8.635805e+002, 5.421415e+003
8.640626e+002, 5.415019e+003
8.645447e+002, 5.410490e+003
8.650269e+002, 5.409651e+003
8.655090e+002, 5.411243e+003
8.659911e+002, 5.410375e+003
8.664732e+002, 5.407483e+003
8.669553e+002, 5.405196e+003
8.674374e+002, 5.404374e+003
8.679196e+002, 5.405425e+003
8.684017e+002, 5.409842e+003
8.688838e+002, 5.416911e+003
8.693659e+002, 5.421678e+003
8.698480e+002, 5.422523e+003
8.703301e+002, 5.422832e+003
8.708123e+002, 5.423205e+003
8.712944e+002, 5.423765e+003
8.717765e+002, 5.425394e+003
8.722586e+002, 5.427885e+003
8.727407e+002, 5.429935e+003
8.732228e+002, 5.430903e+003
8.737050e+002, 5.431137e+003
8.741871e+002, 5.431167e+003
8.746692e+002, 5.430757e+003
8.751513e+002, 5.429364e+003
8.756334e+002, 5.426871e+003
8.761155e+002, 5.423265e+003
8.765977e+002, 5.416789e+003
8.770798e+002, 5.410484e+003
8.775619e+002, 5.411004e+003
8.780440e+002, 5.419037e+003
8.785261e+002, 5.424010e+003
8.790082e+002, 5.422725e+003
8.794904e+002, 5.420797e+003
8.799725e+002, 5.428714e+003
8.804546e+002, 5.440401e+003
8.809367e+002, 5.444428e+003
8.814188e+002, 5.433255e+003
8.819009e+002, 5.423849e+003
8.823831e+002, 5.423709e+003
8.828652e+002, 5.427205e+003
8.833473e+002, 5.428716e+003
8.838294e+002, 5.427875e+003
8.843115e+002, 5.426115e+003
8.847936e+002, 5.422875e+003
8.852758e+002, 5.421201e+003
8.857579e+002, 5.425897e+003
8.862400e+002, 5.434252e+003
8.867221e+002, 5.439924e+003
8.872042e+002, 5.442048e+003
8.876863e+002, 5.443682e+003
8.881685e+002, 5.446523e+003
8.886506e+002, 5.449558e+003
8.891327e+002, 5.452228e+003
8.896148e+002, 5.454577e+003
8.900969e+002, 5.455093e+003
8.905790e+002, 5.452494e+003
8.910612e+002, 5.451070e+003
8.915433e+002, 5.454515e+003
8.920254e+002, 5.460995e+003
8.925075e+002, 5.462831e+003
8.929896e+002, 5.460661e+003
8.934717e+002, 5.460060e+003
8.939539e+002, 5.466765e+003
8.944360e+002, 5.474115e+003
8.949181e+002, 5.477753e+003
8.954002e+002, 5.477996e+003
8.958823e+002, 5.477659e+003
8.963644e+002, 5.476856e+003
8.968466e+002, 5.476002e+003
8.973287e+002, 5.475256e+003
8.978108e+002, 5.474687e+003
8.982929e+002, 5.474520e+003
8.987750e+002, 5.474723e+003
8.992571e+002, 5.474555e+003
8.997393e+002, 5.472990e+003
9.002214e+002, 5.472151e+003
9.007035e+002, 5.475481e+003
9.011856e+002, 5.480323e+003
9.016677e+002, 5.482144e+003
9.021498e+002, 5.474633e+003
9.026320e+002, 5.471550e+003
9.031141e+002, 5.475237e+003
9.035962e+002, 5.481612e+003
9.040783e+002, 5.485273e+003
9.045604e+002, 5.486383e+003
9.050425e+002, 5.487220e+003
9.055247e+002, 5.488139e+003
9.060068e+002, 5.488637e+003
9.064889e+002, 5.487239e+003
9.069710e+002, 5.485746e+003
9.074531e+002, 5.486715e+003
9.079352e+002, 5.491894e+003
9.084174e+002, 5.494606e+003
9.088995e+002, 5.493217e+003
9.093816e+002, 5.490151e+003
9.098637e+002, 5.485822e+003
9.103458e+002, 5.480194e+003
9.108279e+002, 5.479929e+003
9.113101e+002, 5.485089e+003
9.117922e+002, 5.491228e+003
9.122743e+002, 5.497544e+003
9.127564e+002, 5.501417e+003
9.132385e+002, 5.496846e+003
9.137206e+002, 5.485473e+003
9.142028e+002, 5.479991e+003
9.146849e+002, 5.490530e+003
9.151670e+002, 5.500331e+003
9.156491e+002, 5.504577e+003
9.161312e+002, 5.504364e+003
9.166133e+002, 5.503519e+003
9.170955e+002, 5.502083e+003
9.175776e+002, 5.500147e+003
9.180597e+002, 5.496746e+003
9.185418e+002, 5.494462e+003
9.190239e+002, 5.498208e+003
9.195060e+002, 5.505178e+003
9.199882e+002, 5.509855e+003
9.204703e+002, 5.508586e+003
9.209524e+002, 5.507156e+003
9.214345e+002, 5.505530e+003
9.219166e+002, 5.504815e+003
9.223987e+002, 5.506394e+003
9.228809e+002, 5.510253e+003
9.233630e+002, 5.516596e+003
9.238451e+002, 5.526125e+003
9.243272e+002, 5.533875e+003
9.248093e+002, 5.532134e+003
9.252914e+002, 5.526489e+003
9.257736e+002, 5.524368e+003
9.262557e+002, 5.527304e+003
9.267378e+002, 5.531268e+003
9.272199e+002, 5.537864e+003
9.277020e+002, 5.542583e+003
9.281841e+002, 5.542101e+003
9.286663e+002, 5.536477e+003
9.291484e+002, 5.535722e+003
9.296305e+002, 5.540068e+003
9.301126e+002, 5.544562e+003
9.305947e+002, 5.546987e+003
9.310768e+002, 5.547176e+003
9.315590e+002, 5.542246e+003
9.320411e+002, 5.534177e+003
9.325232e+002, 5.531274e+003
9.330053e+002, 5.544271e+003
9.334874e+002, 5.552823e+003
9.339695e+002, 5.549696e+003
9.344517e+002, 5.539959e+003
9.349338e+002, 5.536438e+003
9.354159e+002, 5.539331e+003
9.358980e+002, 5.540728e+003
9.363801e+002, 5.537681e+003
9.368622e+002, 5.534648e+003
9.373444e+002, 5.536820e+003
9.378265e+002, 5.542561e+003
9.383086e+002, 5.549837e+003
9.387907e+002, 5.560410e+003
9.392728e+002, 5.567673e+003
9.397549e+002, 5.568425e+003
9.402371e+002, 5.567576e+003
9.407192e+002, 5.569071e+003
9.412013e+002, 5.572940e+003
9.416834e+002, 5.576688e+003
9.421655e+002, 5.580186e+003
9.426476e+002, 5.583445e+003
9.431298e+002, 5.585789e+003
9.436119e+002, 5.588245e+003
9.440940e+002, 5.592630e+003
9.445761e+002, 5.598913e+003
9.450582e+002, 5.603290e+003
9.455403e+002, 5.602991e+003
9.460225e+002, 5.602825e+003
9.465046e+002, 5.603386e+003
9.469867e+002, 5.605462e+003
9.474688e+002, 5.614165e+003
9.479509e+002, 5.628865e+003
9.484330e+002, 5.641536e+003
9.489152e+002, 5.650023e+003
9.493973e+002, 5.653328e+003
9.498794e+002, 5.645390e+003
9.503615e+002, 5.632736e+003
9.508436e+002, 5.626942e+003
9.513257e+002, 5.637631e+003
9.518079e+002, 5.645927e+003
9.522900e+002, 5.650078e+003
9.527721e+002, 5.652564e+003
9.532542e+002, 5.657166e+003
9.537363e+002, 5.663232e+003
9.542184e+002, 5.664713e+003
9.547006e+002, 5.660528e+003
9.551827e+002, 5.657161e+003
9.556648e+002, 5.660673e+003
9.561469e+002, 5.666851e+003
9.566290e+002, 5.672249e+003
9.571111e+002, 5.676498e+003
9.575933e+002, 5.679807e+003
9.580754e+002, 5.679271e+003
9.585575e+002, 5.683956e+003
9.590396e+002, 5.700768e+003
9.595217e+002, 5.725064e+003
9.600038e+002, 5.739546e+003
9.604860e+002, 5.746153e+003
9.609681e+002, 5.755004e+003
9.614502e+002, 5.769449e+003
9.619323e+002, 5.789669e+003
9.624144e+002, 5.819105e+003
9.628965e+002, 5.853801e+003
9.633787e+002, 5.884120e+003
9.638608e+002, 5.907573e+003
9.643429e+002, 5.932902e+003
9.648250e+002, 5.961915e+003
9.653071e+002, 5.991636e+003
9.657892e+002, 6.014626e+003
9.662714e+002, 6.035188e+003
9.667535e+002, 6.065415e+003
9.672356e+002, 6.107993e+003
9.677177e+002, 6.153460e+003
9.681998e+002, 6.193847e+003
9.686819e+002, 6.237115e+003
9.691641e+002, 6.288532e+003
9.696462e+002, 6.348919e+003
9.701283e+002, 6.412267e+003
9.706104e+002, 6.479201e+003
9.710925e+002, 6.549895e+003
9.715746e+002, 6.626725e+003
9.720568e+002, 6.707037e+003
9.725389e+002, 6.791026e+003
9.730210e+002, 6.875740e+003
9.735031e+002, 6.948923e+003
9.739852e+002, 7.015483e+003
9.744673e+002, 7.057354e+003
9.749495e+002, 7.072276e+003
9.754316e+002, 7.059120e+003
9.759137e+002, 7.011271e+003
9.763958e+002, 6.928083e+003
9.768779e+002, 6.825955e+003
9.773600e+002, 6.704556e+003
9.778422e+002, 6.579831e+003
9.783243e+002, 6.462785e+003
9.788064e+002, 6.353774e+003
9.792885e+002, 6.253632e+003
9.797706e+002, 6.160880e+003
9.802527e+002, 6.086177e+003
9.807349e+002, 6.037155e+003
9.812170e+002, 5.997030e+003
9.816991e+002, 5.957776e+003
9.821812e+002, 5.920171e+003
9.826633e+002, 5.893796e+003
9.831454e+002, 5.877771e+003
9.836276e+002, 5.862858e+003
9.841097e+002, 5.839815e+003
9.845918e+002, 5.819090e+003
9.850739e+002, 5.812643e+003
9.855560e+002, 5.814667e+003
9.860381e+002, 5.809030e+003
9.865203e+002, 5.788227e+003
9.870024e+002, 5.773540e+003
9.874845e+002, 5.768985e+003
9.879666e+002, 5.768942e+003
9.884487e+002, 5.765998e+003
9.889308e+002, 5.760908e+003
9.894130e+002, 5.754909e+003
9.898951e+002, 5.747792e+003
9.903772e+002, 5.743653e+003
9.908593e+002, 5.750265e+003
9.913414e+002, 5.756517e+003
9.918235e+002, 5.752905e+003
9.923057e+002, 5.738792e+003
9.927878e+002, 5.729318e+003
9.932699e+002, 5.724890e+003
9.937520e+002, 5.721871e+003
9.942341e+002, 5.718616e+003
9.947162e+002, 5.715254e+003
9.951984e+002, 5.710593e+003
9.956805e+002, 5.705974e+003
9.961626e+002, 5.705233e+003
9.966447e+002, 5.715220e+003
9.971268e+002, 5.722157e+003
9.976089e+002, 5.721265e+003
9.980911e+002, 5.717513e+003
9.985732e+002, 5.718260e+003
9.990553e+002, 5.723439e+003
9.995374e+002, 5.726997e+003
1.000020e+003, 5.728187e+003
1.000502e+003, 5.727161e+003
1.000984e+003, 5.721548e+003
1.001466e+003, 5.715394e+003
1.001948e+003, 5.713165e+003
1.002430e+003, 5.715768e+003
1.002912e+003, 5.717097e+003
1.003394e+003, 5.716037e+003
1.003876e+003, 5.715046e+003
1.004359e+003, 5.715324e+003
1.004841e+003, 5.716328e+003
1.005323e+003, 5.716993e+003
1.005805e+003, 5.717046e+003
1.006287e+003, 5.715103e+003
1.006769e+003, 5.707392e+003
1.007251e+003, 5.701753e+003
1.007733e+003, 5.703066e+003
1.008216e+003, 5.708668e+003
1.008698e+003, 5.715215e+003
1.009180e+003, 5.724238e+003
1.009662e+003, 5.727563e+003
1.010144e+003, 5.723827e+003
1.010626e+003, 5.718953e+003
1.011108e+003, 5.718522e+003
1.011590e+003, 5.720875e+003
1.012072e+003, 5.724456e+003
1.012555e+003, 5.728936e+003
1.013037e+003, 5.731509e+003
1.013519e+003, 5.729316e+003
1.014001e+003, 5.727093e+003
1.014483e+003, 5.726215e+003
1.014965e+003, 5.726471e+003
1.015447e+003, 5.727304e+003
1.015929e+003, 5.728684e+003
1.016411e+003, 5.730271e+003
1.016894e+003, 5.732160e+003
1.017376e+003, 5.733774e+003
1.017858e+003, 5.733940e+003
1.018340e+003, 5.733840e+003
1.018822e+003, 5.735260e+003
1.019304e+003, 5.740508e+003
1.019786e+003, 5.741466e+003
1.020268e+003, 5.736584e+003
1.020751e+003, 5.731714e+003
1.021233e+003, 5.732398e+003
1.021715e+003, 5.736362e+003
1.022197e+003, 5.736700e+003
1.022679e+003, 5.734125e+003
1.023161e+003, 5.733520e+003
1.023643e+003, 5.741076e+003
1.024125e+003, 5.746774e+003
1.024607e+003, 5.744125e+003
1.025090e+003, 5.737766e+003
1.025572e+003, 5.737770e+003
1.026054e+003, 5.744562e+003
1.026536e+003, 5.751220e+003
1.027018e+003, 5.756657e+003
1.027500e+003, 5.760750e+003
1.027982e+003, 5.763534e+003
1.028464e+003, 5.764788e+003
1.028947e+003, 5.763946e+003
1.029429e+003, 5.760479e+003
1.029911e+003, 5.757379e+003
1.030393e+003, 5.754809e+003
1.030875e+003, 5.752955e+003
1.031357e+003, 5.752157e+003
1.031839e+003, 5.752208e+003
1.032321e+003, 5.751118e+003
1.032803e+003, 5.749853e+003
1.033286e+003, 5.752271e+003
1.033768e+003, 5.767020e+003
1.034250e+003, 5.778198e+003
1.034732e+003, 5.774795e+003
1.035214e+003, 5.765504e+003
1.035696e+003, 5.763255e+003
1.036178e+003, 5.769591e+003
1.036660e+003, 5.774239e+003
1.037143e+003, 5.776533e+003
1.037625e+003, 5.776593e+003
1.038107e+003, 5.770987e+003
1.038589e+003, 5.765309e+003
1.039071e+003, 5.768105e+003
1.039553e+003, 5.779290e+003
1.040035e+003, 5.788028e+003
1.040517e+003, 5.792903e+003
1.041000e+003, 5.793347e+003
1.041482e+003, 5.787434e+003
1.041964e+003, 5.778725e+003
1.042446e+003, 5.775722e+003
1.042928e+003, 5.777618e+003
1.043410e+003, 5.781656e+003
1.043892e+003, 5.788352e+003
1.044374e+003, 5.793300e+003
1.044856e+003, 5.793069e+003
1.045339e+003, 5.790313e+003
1.045821e+003, 5.787089e+003
1.046303e+003, 5.783222e+003
1.046785e+003, 5.780958e+003
1.047267e+003, 5.780298e+003
1.047749e+003, 5.781318e+003
1.048231e+003, 5.784002e+003
1.048713e+003, 5.788408e+003
1.049195e+003, 5.797867e+003
1.049677e+003, 5.809208e+003
1.050160e+003, 5.813217e+003
1.050642e+003, 5.796030e+003
1.051124e+003, 5.787359e+003
1.051606e+003, 5.792394e+003
1.052088e+003, 5.803977e+003
1.052570e+003, 5.814229e+003
1.053052e+003, 5.822875e+003
1.053534e+003, 5.827320e+003
1.054017e+003, 5.827107e+003
1.054499e+003, 5.827831e+003
1.054981e+003, 5.835100e+003
1.055463e+003, 5.842509e+003
1.055945e+003, 5.846837e+003
1.056427e+003, 5.848005e+003
1.056909e+003, 5.843368e+003
1.057391e+003, 5.832259e+003
1.057874e+003, 5.823927e+003
1.058356e+003, 5.822435e+003
1.058838e+003, 5.823327e+003
1.059320e+003, 5.820470e+003
1.059802e+003, 5.816817e+003
1.060284e+003, 5.816741e+003
1.060766e+003, 5.823396e+003
1.061248e+003, 5.828453e+003
1.061730e+003, 5.830665e+003
1.062213e+003, 5.833134e+003
1.062695e+003, 5.839782e+003
1.063177e+003, 5.848289e+003
1.063659e+003, 5.849030e+003
1.064141e+003, 5.843485e+003
1.064623e+003, 5.838866e+003
1.065105e+003, 5.837362e+003
1.065587e+003, 5.839014e+003
1.066070e+003, 5.847049e+003
1.066552e+003, 5.856473e+003
1.067034e+003, 5.858721e+003
1.067516e+003, 5.853409e+003
1.067998e+003, 5.852513e+003
1.068480e+003, 5.857796e+003
1.068962e+003, 5.863597e+003
1.069444e+003, 5.864114e+003
1.069927e+003, 5.863317e+003
1.070409e+003, 5.865720e+003
1.070891e+003, 5.871537e+003
1.071373e+003, 5.873758e+003
1.071855e+003, 5.871222e+003
1.072337e+003, 5.867888e+003
1.072819e+003, 5.864310e+003
1.073301e+003, 5.861788e+003
1.073783e+003, 5.863842e+003
1.074266e+003, 5.868466e+003
1.074748e+003, 5.871015e+003
1.075230e+003, 5.868524e+003
1.075712e+003, 5.868865e+003
1.076194e+003, 5.877731e+003
1.076676e+003, 5.885909e+003
1.077158e+003, 5.887139e+003
1.077640e+003, 5.882263e+003
1.078122e+003, 5.880177e+003
1.078604e+003, 5.880651e+003
1.079087e+003, 5.881846e+003
1.079569e+003, 5.881842e+003
1.080051e+003, 5.883129e+003
1.080533e+003, 5.888552e+003
1.081015e+003, 5.895733e+003
1.081497e+003, 5.900918e+003
1.081979e+003, 5.904498e+003
1.082461e+003, 5.902388e+003
1.082944e+003, 5.893326e+003
1.083426e+003, 5.885089e+003
1.083908e+003, 5.886775e+003
1.084390e+003, 5.892551e+003
1.084872e+003, 5.895479e+003
1.085354e+003, 5.895414e+003
1.085836e+003, 5.896304e+003
1.086318e+003, 5.898956e+003
1.086801e+003, 5.902540e+003
1.087283e+003, 5.907746e+003
1.087765e+003, 5.912472e+003
1.088247e+003, 5.912099e+003
1.088729e+003, 5.908183e+003
1.089211e+003, 5.904276e+003
1.089693e+003, 5.900637e+003
1.090175e+003, 5.899470e+003
1.090657e+003, 5.903978e+003
1.091140e+003, 5.908988e+003
1.091622e+003, 5.911622e+003
1.092104e+003, 5.912183e+003
1.092586e+003, 5.913575e+003
1.093068e+003, 5.915649e+003
1.093550e+003, 5.916656e+003
1.094032e+003, 5.915247e+003
1.094514e+003, 5.913384e+003
1.094997e+003, 5.911257e+003
1.095479e+003, 5.910176e+003
1.095961e+003, 5.912147e+003
1.096443e+003, 5.918551e+003
1.096925e+003, 5.922592e+003
1.097407e+003, 5.923663e+003
1.097889e+003, 5.926277e+003
1.098371e+003, 5.936987e+003
1.098854e+003, 5.949132e+003
1.099336e+003, 5.953954e+003
1.099818e+003, 5.952581e+003
1.100300e+003, 5.950046e+003
1.100782e+003, 5.944802e+003
1.101264e+003, 5.943591e+003
1.101746e+003, 5.948930e+003
1.102228e+003, 5.955220e+003
1.102710e+003, 5.953925e+003
1.103193e+003, 5.947931e+003
1.103675e+003, 5.943291e+003
1.104157e+003, 5.940806e+003
1.104639e+003, 5.942513e+003
1.105121e+003, 5.956773e+003
1.105603e+003, 5.966608e+003
1.106085e+003, 5.963880e+003
1.106567e+003, 5.953266e+003
1.107049e+003, 5.948511e+003
1.107531e+003, 5.949202e+003
1.108014e+003, 5.953004e+003
1.108496e+003, 5.960214e+003
1.108978e+003, 5.966964e+003
1.109460e+003, 5.968095e+003
1.109942e+003, 5.969313e+003
1.110424e+003, 5.977192e+003
1.110906e+003, 5.992302e+003
1.111388e+003, 5.998061e+003
1.111871e+003, 5.993917e+003
1.112353e+003, 5.987891e+003
1.112835e+003, 5.981933e+003
1.113317e+003, 5.978719e+003
1.113799e+003, 5.984190e+003
1.114281e+003, 5.993582e+003
1.114763e+003, 5.999020e+003
1.115245e+003, 5.998495e+003
1.115728e+003, 5.994595e+003
1.116210e+003, 5.985654e+003
1.116692e+003, 5.979236e+003
1.117174e+003, 5.984122e+003
1.117656e+003, 5.994689e+003
1.118138e+003, 6.000766e+003
1.118620e+003, 6.003089e+003
1.119102e+003, 6.005859e+003
1.119584e+003, 6.012104e+003
1.120067e+003, 6.016258e+003
1.120549e+003, 6.016721e+003
1.121031e+003, 6.015723e+003
1.121513e+003, 6.016727e+003
1.121995e+003, 6.018742e+003
1.122477e+003, 6.018326e+003
1.122959e+003, 6.015144e+003
1.123441e+003, 6.011198e+003
1.123924e+003, 6.004216e+003
1.124406e+003, 6.000634e+003
1.124888e+003, 6.004182e+003
1.125370e+003, 6.012335e+003
1.125852e+003, 6.019284e+003
1.126334e+003, 6.024900e+003
1.126816e+003, 6.026020e+003
1.127298e+003, 6.021057e+003
1.127781e+003, 6.016450e+003
1.128263e+003, 6.017343e+003
1.128745e+003, 6.020460e+003
1.129227e+003, 6.024360e+003
1.129709e+003, 6.028782e+003
1.130191e+003, 6.026561e+003
1.130673e+003, 6.017042e+003
1.131155e+003, 6.011005e+003
1.131637e+003, 6.013751e+003
1.132120e+003, 6.019966e+003
1.132602e+003, 6.025252e+003
1.133084e+003, 6.029877e+003
1.133566e+003, 6.033916e+003
1.134048e+003, 6.036807e+003
1.134530e+003, 6.041670e+003
1.135012e+003, 6.049554e+003
1.135494e+003, 6.054923e+003
1.135976e+003, 6.049987e+003
1.136458e+003, 6.043139e+003
1.136941e+003, 6.050969e+003
1.137423e+003, 6.067646e+003
1.137905e+003, 6.078901e+003
1.138387e+003, 6.076534e+003
1.138869e+003, 6.074579e+003
1.139351e+003, 6.073239e+003
1.139833e+003, 6.073422e+003
1.140315e+003, 6.077099e+003
1.140798e+003, 6.082643e+003
1.141280e+003, 6.086281e+003
1.141762e+003, 6.088015e+003
1.142244e+003, 6.088936e+003
1.142726e+003, 6.089216e+003
1.143208e+003, 6.088833e+003
1.143690e+003, 6.086784e+003
1.144172e+003, 6.085324e+003
1.144655e+003, 6.088891e+003
1.145137e+003, 6.096157e+003
1.145619e+003, 6.102428e+003
1.146101e+003, 6.107155e+003
1.146583e+003, 6.109606e+003
1.147065e+003, 6.107051e+003
1.147547e+003, 6.104872e+003
1.148029e+003, 6.105833e+003
1.148511e+003, 6.108913e+003
1.148994e+003, 6.111559e+003
1.149476e+003, 6.113693e+003
1.149958e+003, 6.113809e+003
1.150440e+003, 6.110857e+003
1.150922e+003, 6.109428e+003
1.151404e+003, 6.114341e+003
1.151886e+003, 6.120702e+003
1.152368e+003, 6.124665e+003
1.152851e+003, 6.126401e+003
1.153333e+003, 6.128060e+003
1.153815e+003, 6.129546e+003
1.154297e+003, 6.134028e+003
1.154779e+003, 6.144197e+003
1.155261e+003, 6.154163e+003
1.155743e+003, 6.157239e+003
1.156225e+003, 6.157602e+003
1.156708e+003, 6.160860e+003
1.157190e+003, 6.168496e+003
1.157672e+003, 6.168903e+003
1.158154e+003, 6.161171e+003
1.158636e+003, 6.154487e+003
1.159118e+003, 6.154963e+003
1.159600e+003, 6.158226e+003
1.160082e+003, 6.159952e+003
1.160564e+003, 6.160987e+003
1.161047e+003, 6.162880e+003
1.161529e+003, 6.167251e+003
1.162011e+003, 6.169315e+003
1.162493e+003, 6.168758e+003
1.162975e+003, 6.167443e+003
1.163457e+003, 6.166050e+003
1.163939e+003, 6.165255e+003
1.164421e+003, 6.165937e+003
1.164903e+003, 6.167976e+003
1.165385e+003, 6.171138e+003
1.165868e+003, 6.176576e+003
1.166350e+003, 6.180407e+003
1.166832e+003, 6.181827e+003
1.167314e+003, 6.182617e+003
1.167796e+003, 6.184175e+003
1.168278e+003, 6.186542e+003
1.168760e+003, 6.190973e+003
1.169242e+003, 6.196825e+003
1.169725e+003, 6.199765e+003
1.170207e+003, 6.193636e+003
1.170689e+003, 6.192356e+003
1.171171e+003, 6.199679e+003
1.171653e+003, 6.209618e+003
1.172135e+003, 6.214401e+003
1.172617e+003, 6.215088e+003
1.173099e+003, 6.212704e+003
1.173582e+003, 6.207535e+003
1.174064e+003, 6.205464e+003
1.174546e+003, 6.210518e+003
1.175028e+003, 6.216955e+003
1.175510e+003, 6.224306e+003
1.175992e+003, 6.230880e+003
1.176474e+003, 6.231979e+003
1.176956e+003, 6.229464e+003
1.177438e+003, 6.228933e+003
1.177921e+003, 6.231679e+003
1.178403e+003, 6.234117e+003
1.178885e+003, 6.232573e+003
1.179367e+003, 6.233370e+003
1.179849e+003, 6.240305e+003
1.180331e+003, 6.250527e+003
1.180813e+003, 6.254396e+003
1.181295e+003, 6.253536e+003
1.181778e+003, 6.254060e+003
1.182260e+003, 6.258066e+003
1.182742e+003, 6.262123e+003
1.183224e+003, 6.264402e+003
1.183706e+003, 6.266603e+003
1.184188e+003, 6.269617e+003
1.184670e+003, 6.273329e+003
1.185152e+003, 6.277294e+003
1.185635e+003, 6.281338e+003
1.186117e+003, 6.284817e+003
1.186599e+003, 6.287077e+003
1.187081e+003, 6.289442e+003
1.187563e+003, 6.293952e+003
1.188045e+003, 6.297445e+003
1.188527e+003, 6.296737e+003
1.189009e+003, 6.292405e+003
1.189491e+003, 6.291747e+003
1.189974e+003, 6.294541e+003
1.190456e+003, 6.299148e+003
1.190938e+003, 6.306475e+003
1.191420e+003, 6.313097e+003
1.191902e+003, 6.317960e+003
1.192384e+003, 6.320800e+003
1.192866e+003, 6.321013e+003
1.193348e+003, 6.318523e+003
1.193830e+003, 6.316458e+003
1.194313e+003, 6.314962e+003
1.194795e+003, 6.315852e+003
1.195277e+003, 6.322603e+003
1.195759e+003, 6.329328e+003
1.196241e+003, 6.333464e+003
1.196723e+003, 6.335210e+003
1.197205e+003, 6.333901e+003
1.197687e+003, 6.329399e+003
1.198169e+003, 6.328923e+003
1.198652e+003, 6.332714e+003
1.199134e+003, 6.337450e+003
1.199616e+003, 6.344283e+003
1.200098e+003, 6.347843e+003
1.200580e+003, 6.339995e+003
1.201062e+003, 6.329063e+003
1.201544e+003, 6.329691e+003
1.202026e+003, 6.342277e+003
1.202509e+003, 6.352236e+003
1.202991e+003, 6.358282e+003
1.203473e+003, 6.362064e+003
1.203955e+003, 6.362483e+003
1.204437e+003, 6.363269e+003
1.204919e+003, 6.367688e+003
1.205401e+003, 6.373933e+003
1.205883e+003, 6.377825e+003
1.206365e+003, 6.379267e+003
1.206848e+003, 6.381373e+003
1.207330e+003, 6.384560e+003
1.207812e+003, 6.387559e+003
1.208294e+003, 6.389011e+003
1.208776e+003, 6.390294e+003
1.209258e+003, 6.392456e+003
1.209740e+003, 6.395222e+003
1.210222e+003, 6.398024e+003
1.210705e+003, 6.400955e+003
1.211187e+003, 6.402282e+003
1.211669e+003, 6.401587e+003
1.212151e+003, 6.401107e+003
1.212633e+003, 6.401911e+003
1.213115e+003, 6.404390e+003
1.213597e+003, 6.411054e+003
1.214079e+003, 6.419644e+003
1.214562e+003, 6.419736e+003
1.215044e+003, 6.411675e+003
1.215526e+003, 6.411294e+003
1.216008e+003, 6.423819e+003
1.216490e+003, 6.435584e+003
1.216972e+003, 6.432837e+003
1.217454e+003, 6.427601e+003
1.217936e+003, 6.428917e+003
1.218418e+003, 6.435702e+003
1.218901e+003, 6.443388e+003
1.219383e+003, 6.451821e+003
1.219865e+003, 6.457881e+003
1.220347e+003, 6.460397e+003
1.220829e+003, 6.461275e+003
1.221311e+003, 6.461011e+003
1.221793e+003, 6.460396e+003
1.222275e+003, 6.459381e+003
1.222757e+003, 6.458447e+003
1.223240e+003, 6.462081e+003
1.223722e+003, 6.469877e+003
1.224204e+003, 6.475815e+003
1.224686e+003, 6.477769e+003
1.225168e+003, 6.478113e+003
1.225650e+003, 6.477338e+003
1.226132e+003, 6.476807e+003
1.226614e+003, 6.478080e+003
1.227096e+003, 6.480746e+003
1.227579e+003, 6.479134e+003
1.228061e+003, 6.474120e+003
1.228543e+003, 6.473659e+003
1.229025e+003, 6.482509e+003
1.229507e+003, 6.492334e+003
1.229989e+003, 6.499399e+003
1.230471e+003, 6.504234e+003
1.230953e+003, 6.506829e+003
1.231436e+003, 6.507470e+003
1.231918e+003, 6.508896e+003
1.232400e+003, 6.511155e+003
1.232882e+003, 6.514935e+003
1.233364e+003, 6.522028e+003
1.233846e+003, 6.527877e+003
1.234328e+003, 6.529149e+003
1.234810e+003, 6.529366e+003
1.235292e+003, 6.530276e+003
1.235775e+003, 6.532287e+003
1.236257e+003, 6.541081e+003
1.236739e+003, 6.554794e+003
1.237221e+003, 6.563365e+003
1.237703e+003, 6.558664e+003
1.238185e+003, 6.554255e+003
1.238667e+003, 6.555177e+003
1.239149e+003, 6.558380e+003
1.239632e+003, 6.562267e+003
1.240114e+003, 6.566665e+003
1.240596e+003, 6.571135e+003
1.241078e+003, 6.575563e+003
1.241560e+003, 6.579682e+003
1.242042e+003, 6.582164e+003
1.242524e+003, 6.586001e+003
1.243006e+003, 6.592132e+003
1.243489e+003, 6.599358e+003
1.243971e+003, 6.607716e+003
1.244453e+003, 6.616386e+003
1.244935e+003, 6.620124e+003
1.245417e+003, 6.620642e+003
1.245899e+003, 6.624196e+003
1.246381e+003, 6.639426e+003
1.246863e+003, 6.648659e+003
1.247345e+003, 6.647272e+003
1.247828e+003, 6.643907e+003
1.248310e+003, 6.645643e+003
1.248792e+003, 6.651155e+003
1.249274e+003, 6.658440e+003
1.249756e+003, 6.666488e+003
1.250238e+003, 6.672075e+003
1.250720e+003, 6.670720e+003
1.251202e+003, 6.672201e+003
1.251684e+003, 6.678109e+003
1.252167e+003, 6.684744e+003
1.252649e+003, 6.688151e+003
1.253131e+003, 6.690363e+003
1.253613e+003, 6.696755e+003
1.254095e+003, 6.705491e+003
1.254577e+003, 6.710470e+003
1.255059e+003, 6.708241e+003
1.255541e+003, 6.704383e+003
1.256023e+003, 6.697185e+003
1.256506e+003, 6.695124e+003
1.256988e+003, 6.711896e+003
1.257470e+003, 6.734147e+003
1.257952e+003, 6.741448e+003
1.258434e+003, 6.738237e+003
1.258916e+003, 6.739174e+003
1.259398e+003, 6.749604e+003
1.259880e+003, 6.752977e+003
1.260363e+003, 6.747126e+003
1.260845e+003, 6.742041e+003
1.261327e+003, 6.750141e+003
1.261809e+003, 6.759927e+003
1.262291e+003, 6.757241e+003
1.262773e+003, 6.746957e+003
1.263255e+003, 6.743276e+003
1.263737e+003, 6.748687e+003
1.264219e+003, 6.750319e+003
1.264702e+003, 6.747031e+003
1.265184e+003, 6.743918e+003
1.265666e+003, 6.744463e+003
1.266148e+003, 6.747177e+003
1.266630e+003, 6.751190e+003
1.267112e+003, 6.756642e+003
1.267594e+003, 6.764046e+003
1.268076e+003, 6.773728e+003
1.268559e+003, 6.781478e+003
1.269041e+003, 6.787016e+003
1.269523e+003, 6.790763e+003
1.270005e+003, 6.792658e+003
1.270487e+003, 6.793292e+003
1.270969e+003, 6.790391e+003
1.271451e+003, 6.787957e+003
1.271933e+003, 6.792484e+003
1.272416e+003, 6.803310e+003
1.272898e+003, 6.812733e+003
1.273380e+003, 6.820179e+003
1.273862e+003, 6.825894e+003
1.274344e+003, 6.831264e+003
1.274826e+003, 6.832818e+003
1.275308e+003, 6.826422e+003
1.275790e+003, 6.819357e+003
1.276272e+003, 6.821889e+003
1.276755e+003, 6.831538e+003
1.277237e+003, 6.839787e+003
1.277719e+003, 6.846017e+003
1.278201e+003, 6.850411e+003
1.278683e+003, 6.851097e+003
1.279165e+003, 6.852547e+003
1.279647e+003, 6.855318e+003
1.280129e+003, 6.859620e+003
1.280611e+003, 6.867858e+003
1.281094e+003, 6.876975e+003
1.281576e+003, 6.878181e+003
1.282058e+003, 6.873429e+003
1.282540e+003, 6.874396e+003
1.283022e+003, 6.890600e+003
1.283504e+003, 6.899534e+003
1.283986e+003, 6.897591e+003
1.284468e+003, 6.892782e+003
1.284950e+003, 6.893500e+003
1.285433e+003, 6.895864e+003
1.285915e+003, 6.892150e+003
1.286397e+003, 6.885358e+003
1.286879e+003, 6.888777e+003
1.287361e+003, 6.907128e+003
1.287843e+003, 6.919237e+003
1.288325e+003, 6.922858e+003
1.288807e+003, 6.923383e+003
1.289290e+003, 6.923772e+003
1.289772e+003, 6.924675e+003
1.290254e+003, 6.927415e+003
1.290736e+003, 6.930875e+003
1.291218e+003, 6.931956e+003
1.291700e+003, 6.930208e+003
1.292182e+003, 6.932270e+003
1.292664e+003, 6.938508e+003
1.293146e+003, 6.945311e+003
1.293629e+003, 6.951735e+003
1.294111e+003, 6.956196e+003
1.294593e+003, 6.956603e+003
1.295075e+003, 6.955125e+003
1.295557e+003, 6.952905e+003
1.296039e+003, 6.950630e+003
1.296521e+003, 6.956429e+003
1.297003e+003, 6.969240e+003
1.297486e+003, 6.977556e+003
1.297968e+003, 6.971831e+003
1.298450e+003, 6.966452e+003
1.298932e+003, 6.965140e+003
1.299414e+003, 6.966104e+003
1.299896e+003, 6.967098e+003
1.300378e+003, 6.969065e+003
1.300860e+003, 6.975672e+003
1.301343e+003, 6.986195e+003
1.301825e+003, 6.996716e+003
##END=



