##NAMES=Allabogdanite
##RRUFFID=R070012
##IDEAL CHEMISTRY=(Fe,Ni)_2_P
##LOCALITY=Onello meteorite, Bol'shoy Dolguchan River, Onello River Basin, Aldan, Yakutia, Russia
##OWNER=Michael Scott
##SOURCE=Michael Scott
##DESCRIPTION=Black lath embedded in epoxy, co-type sample
##STATUS=The identification of this mineral has been confirmed only by single crystal X-ray diffraction.
##URL=rruff.info/R070012
148.4504, 4933.358
148.9326, 4927.874
149.4147, 4939.311
149.8968, 4951.168
150.3789, 4972.147
150.8610, 4985.018
151.3431, 4972.969
151.8252, 4933.198
152.3074, 4887.022
152.7895, 4869.462
153.2716, 4896.694
153.7537, 4918.736
154.2358, 4928.150
154.7179, 4931.401
155.2001, 4934.303
155.6822, 4939.388
156.1643, 4944.624
156.6464, 4943.813
157.1285, 4933.483
157.6106, 4919.998
158.0928, 4899.604
158.5749, 4877.319
159.0570, 4858.093
159.5391, 4844.172
160.0212, 4836.481
160.5033, 4847.696
160.9855, 4907.700
161.4676, 4953.715
161.9497, 4957.358
162.4318, 4928.526
162.9139, 4897.514
163.3960, 4887.460
163.8782, 4899.479
164.3603, 4905.283
164.8424, 4903.280
165.3245, 4897.144
165.8066, 4886.474
166.2887, 4871.798
166.7709, 4859.820
167.2530, 4858.333
167.7351, 4867.238
168.2172, 4873.478
168.6993, 4874.252
169.1814, 4872.232
169.6636, 4869.090
170.1457, 4863.870
170.6278, 4862.233
171.1099, 4877.195
171.5920, 4905.032
172.0741, 4921.583
172.5563, 4911.076
173.0384, 4881.532
173.5205, 4855.802
174.0026, 4837.553
174.4847, 4823.915
174.9668, 4810.762
175.4490, 4798.285
175.9311, 4789.705
176.4132, 4788.241
176.8953, 4793.729
177.3774, 4800.500
177.8595, 4811.737
178.3417, 4820.501
178.8238, 4821.069
179.3059, 4813.160
179.7880, 4802.970
180.2701, 4794.516
180.7522, 4785.009
181.2344, 4789.448
181.7165, 4832.712
182.1986, 4875.856
182.6807, 4892.591
183.1628, 4876.086
183.6449, 4841.798
184.1271, 4814.584
184.6092, 4796.043
185.0913, 4782.453
185.5734, 4771.957
186.0555, 4765.817
186.5376, 4768.305
187.0198, 4781.018
187.5019, 4796.776
187.9840, 4795.842
188.4661, 4747.772
188.9482, 4721.807
189.4303, 4743.698
189.9125, 4783.641
190.3946, 4805.194
190.8767, 4789.213
191.3588, 4744.741
191.8409, 4713.846
192.3230, 4692.516
192.8052, 4689.183
193.2873, 4724.752
193.7694, 4778.533
194.2515, 4814.232
194.7336, 4808.602
195.2157, 4766.483
195.6979, 4734.471
196.1800, 4711.170
196.6621, 4696.412
197.1442, 4692.882
197.6263, 4698.479
198.1084, 4707.925
198.5906, 4718.916
199.0727, 4730.746
199.5548, 4737.363
200.0369, 4732.283
200.5190, 4727.961
201.0011, 4736.028
201.4833, 4754.862
201.9654, 4767.394
202.4475, 4757.779
202.9296, 4728.354
203.4117, 4708.458
203.8938, 4703.498
204.3760, 4705.546
204.8581, 4709.694
205.3402, 4715.892
205.8223, 4720.108
206.3044, 4717.889
206.7865, 4710.752
207.2687, 4704.014
207.7508, 4697.320
208.2329, 4692.101
208.7150, 4691.931
209.1971, 4698.764
209.6792, 4703.814
210.1614, 4696.653
210.6435, 4681.912
211.1256, 4670.161
211.6077, 4660.287
212.0898, 4656.496
212.5719, 4674.082
213.0541, 4729.109
213.5362, 4773.428
214.0183, 4765.641
214.5004, 4721.810
214.9825, 4680.227
215.4646, 4660.529
215.9468, 4659.491
216.4289, 4666.060
216.9110, 4688.997
217.3931, 4706.417
217.8752, 4702.599
218.3573, 4683.433
218.8395, 4665.907
219.3216, 4661.078
219.8037, 4668.327
220.2858, 4681.464
220.7679, 4717.299
221.2500, 4739.736
221.7322, 4722.173
222.2143, 4675.081
222.6964, 4631.581
223.1785, 4622.700
223.6606, 4650.413
224.1427, 4667.736
224.6249, 4660.542
225.1070, 4654.799
225.5891, 4664.988
226.0712, 4687.235
226.5533, 4706.096
227.0354, 4704.837
227.5176, 4679.588
227.9997, 4661.054
228.4818, 4655.744
228.9639, 4651.851
229.4460, 4644.018
229.9281, 4632.850
230.4103, 4622.750
230.8924, 4618.829
231.3745, 4622.841
231.8566, 4625.047
232.3387, 4617.415
232.8208, 4614.754
233.3030, 4629.885
233.7851, 4659.674
234.2672, 4687.885
234.7493, 4695.650
235.2314, 4676.052
235.7135, 4660.613
236.1957, 4647.015
236.6778, 4638.519
237.1599, 4640.774
237.6420, 4651.982
238.1241, 4663.221
238.6062, 4664.043
239.0884, 4651.491
239.5705, 4637.417
240.0526, 4620.910
240.5347, 4603.977
241.0168, 4584.236
241.4989, 4563.315
241.9811, 4548.975
242.4632, 4551.025
242.9453, 4576.289
243.4274, 4598.178
243.9095, 4620.416
244.3916, 4637.119
244.8738, 4641.597
245.3559, 4634.413
245.8380, 4625.016
246.3201, 4625.371
246.8022, 4642.297
247.2843, 4645.767
247.7665, 4621.888
248.2486, 4595.623
248.7307, 4587.002
249.2128, 4597.487
249.6949, 4612.177
250.1770, 4613.166
250.6592, 4593.011
251.1413, 4586.035
251.6234, 4605.046
252.1055, 4627.780
252.5876, 4635.596
253.0697, 4626.878
253.5519, 4615.513
254.0340, 4617.308
254.5161, 4637.113
254.9982, 4651.678
255.4803, 4659.659
255.9624, 4663.407
256.4445, 4665.406
256.9267, 4665.765
257.4088, 4661.193
257.8909, 4646.306
258.3730, 4617.288
258.8551, 4599.652
259.3372, 4600.864
259.8194, 4608.669
260.3015, 4615.030
260.7836, 4618.617
261.2657, 4618.627
261.7478, 4612.082
262.2299, 4597.295
262.7121, 4594.280
263.1942, 4616.582
263.6763, 4642.075
264.1584, 4652.886
264.6405, 4647.370
265.1227, 4633.981
265.6048, 4618.581
266.0869, 4600.990
266.5690, 4587.001
267.0511, 4571.840
267.5332, 4563.484
268.0154, 4576.152
268.4975, 4609.163
268.9796, 4635.063
269.4617, 4626.160
269.9438, 4582.765
270.4259, 4558.754
270.9081, 4566.771
271.3902, 4586.616
271.8723, 4607.303
272.3544, 4627.492
272.8365, 4640.150
273.3186, 4638.558
273.8008, 4622.964
274.2829, 4607.683
274.7650, 4587.498
275.2471, 4571.713
275.7292, 4572.416
276.2113, 4588.147
276.6935, 4598.510
277.1756, 4585.312
277.6577, 4553.729
278.1398, 4540.076
278.6219, 4562.051
279.1040, 4587.690
279.5862, 4595.268
280.0683, 4585.970
280.5504, 4570.339
281.0325, 4550.183
281.5146, 4529.985
281.9967, 4524.256
282.4789, 4543.813
282.9610, 4567.536
283.4431, 4582.831
283.9252, 4590.780
284.4073, 4598.050
284.8894, 4610.070
285.3716, 4622.499
285.8537, 4623.564
286.3358, 4607.368
286.8179, 4587.830
287.3000, 4567.944
287.7821, 4549.673
288.2643, 4543.418
288.7464, 4559.479
289.2285, 4585.785
289.7106, 4591.323
290.1927, 4564.073
290.6748, 4539.692
291.1570, 4537.659
291.6391, 4552.385
292.1212, 4567.302
292.6033, 4576.809
293.0854, 4581.986
293.5675, 4586.540
294.0497, 4594.703
294.5318, 4592.733
295.0139, 4563.498
295.4960, 4520.191
295.9781, 4494.159
296.4602, 4497.712
296.9424, 4517.978
297.4245, 4535.232
297.9066, 4550.937
298.3887, 4560.297
298.8708, 4558.065
299.3529, 4549.174
299.8351, 4541.849
300.3172, 4538.096
300.7993, 4536.706
301.2814, 4536.290
301.7635, 4536.702
302.2456, 4538.103
302.7278, 4539.891
303.2099, 4542.892
303.6920, 4549.858
304.1741, 4561.905
304.6562, 4572.551
305.1383, 4573.040
305.6205, 4562.749
306.1026, 4554.527
306.5847, 4550.653
307.0668, 4549.315
307.5489, 4548.593
308.0310, 4548.247
308.5132, 4549.366
308.9953, 4553.120
309.4774, 4559.735
309.9595, 4567.259
310.4416, 4583.614
310.9237, 4595.250
311.4059, 4585.385
311.8880, 4555.683
312.3701, 4530.034
312.8522, 4528.193
313.3343, 4549.095
313.8164, 4561.390
314.2986, 4553.516
314.7807, 4547.577
315.2628, 4562.357
315.7449, 4592.508
316.2270, 4613.440
316.7091, 4606.720
317.1913, 4579.045
317.6734, 4570.271
318.1555, 4600.916
318.6376, 4625.457
319.1197, 4623.560
319.6018, 4602.485
320.0840, 4577.080
320.5661, 4552.532
321.0482, 4532.347
321.5303, 4530.718
322.0124, 4570.503
322.4945, 4595.073
322.9767, 4580.588
323.4588, 4546.543
323.9409, 4522.033
324.4230, 4518.201
324.9051, 4526.366
325.3872, 4529.031
325.8694, 4518.833
326.3515, 4516.331
326.8336, 4529.477
327.3157, 4547.914
327.7978, 4562.521
328.2799, 4570.665
328.7621, 4572.442
329.2442, 4566.888
329.7263, 4547.586
330.2084, 4537.743
330.6905, 4547.199
331.1726, 4558.633
331.6548, 4556.118
332.1369, 4539.869
332.6190, 4525.876
333.1011, 4532.971
333.5832, 4568.964
334.0653, 4580.343
334.5475, 4546.683
335.0296, 4512.061
335.5117, 4498.304
335.9938, 4502.938
336.4759, 4512.231
336.9580, 4516.121
337.4402, 4514.670
337.9223, 4511.168
338.4044, 4500.360
338.8865, 4493.251
339.3686, 4494.343
339.8507, 4500.913
340.3329, 4509.250
340.8150, 4517.769
341.2971, 4524.839
341.7792, 4523.214
342.2613, 4501.651
342.7434, 4485.259
343.2256, 4472.811
343.7077, 4468.386
344.1898, 4481.187
344.6719, 4514.398
345.1540, 4553.385
345.6361, 4568.018
346.1183, 4546.873
346.6004, 4521.712
347.0825, 4480.832
347.5646, 4446.888
348.0467, 4441.804
348.5288, 4467.511
349.0110, 4501.646
349.4931, 4513.859
349.9752, 4496.235
350.4573, 4488.404
350.9394, 4505.379
351.4215, 4520.498
351.9037, 4515.463
352.3858, 4494.928
352.8679, 4480.413
353.3500, 4496.550
353.8321, 4541.822
354.3142, 4564.071
354.7964, 4543.694
355.2785, 4522.766
355.7606, 4519.146
356.2427, 4527.224
356.7248, 4535.308
357.2069, 4537.546
357.6891, 4534.796
358.1712, 4526.901
358.6533, 4506.749
359.1354, 4497.942
359.6175, 4525.300
360.0996, 4562.755
360.5818, 4578.284
361.0639, 4557.039
361.5460, 4522.302
362.0281, 4506.991
362.5102, 4513.736
362.9923, 4515.151
363.4745, 4494.624
363.9566, 4469.999
364.4387, 4458.819
364.9208, 4463.650
365.4029, 4475.390
365.8850, 4495.631
366.3672, 4520.151
366.8493, 4521.826
367.3314, 4480.343
367.8135, 4436.125
368.2956, 4436.985
368.7777, 4479.099
369.2599, 4514.611
369.7420, 4519.252
370.2241, 4506.138
370.7062, 4496.089
371.1883, 4491.263
371.6704, 4490.351
372.1526, 4497.151
372.6347, 4508.627
373.1168, 4507.154
373.5989, 4472.596
374.0810, 4437.515
374.5631, 4434.342
375.0453, 4459.770
375.5274, 4481.703
376.0095, 4481.283
376.4916, 4462.201
376.9737, 4442.846
377.4558, 4411.596
377.9380, 4392.899
378.4201, 4404.015
378.9022, 4433.036
379.3843, 4458.867
379.8664, 4473.888
380.3485, 4478.148
380.8307, 4469.931
381.3128, 4434.417
381.7949, 4414.133
382.2770, 4428.218
382.7591, 4449.634
383.2412, 4447.762
383.7234, 4418.941
384.2055, 4388.239
384.6876, 4386.808
385.1697, 4425.462
385.6518, 4447.104
386.1339, 4438.278
386.6161, 4428.044
387.0982, 4434.697
387.5803, 4452.998
388.0624, 4464.169
388.5445, 4452.846
389.0266, 4422.217
389.5088, 4407.338
389.9909, 4429.173
390.4730, 4443.408
390.9551, 4437.040
391.4372, 4420.730
391.9193, 4408.297
392.4015, 4405.787
392.8836, 4408.536
393.3657, 4406.481
393.8478, 4396.196
394.3299, 4389.577
394.8120, 4390.745
395.2942, 4394.069
395.7763, 4396.930
396.2584, 4398.521
396.7405, 4397.628
397.2226, 4392.729
397.7047, 4383.832
398.1869, 4372.923
398.6690, 4356.330
399.1511, 4342.486
399.6332, 4335.549
400.1153, 4334.882
400.5974, 4338.500
401.0796, 4348.625
401.5617, 4361.454
402.0438, 4368.485
402.5259, 4369.107
403.0080, 4366.457
403.4901, 4361.527
403.9723, 4354.465
404.4544, 4345.083
404.9365, 4332.227
405.4186, 4318.856
405.9007, 4304.598
406.3828, 4290.787
406.8650, 4286.566
407.3471, 4299.279
407.8292, 4317.682
408.3113, 4321.540
408.7934, 4307.585
409.2755, 4298.092
409.7577, 4305.412
410.2398, 4319.010
410.7219, 4322.293
411.2040, 4312.277
411.6861, 4302.720
412.1682, 4309.483
412.6504, 4335.739
413.1325, 4347.854
413.6146, 4337.392
414.0967, 4321.261
414.5788, 4302.116
415.0609, 4284.501
415.5431, 4281.893
416.0252, 4305.653
416.5073, 4345.900
416.9894, 4355.944
417.4715, 4296.817
417.9536, 4253.917
418.4358, 4243.464
418.9179, 4249.568
419.4000, 4256.796
419.8821, 4259.908
420.3642, 4260.480
420.8463, 4261.755
421.3285, 4267.070
421.8106, 4263.599
422.2927, 4233.835
422.7748, 4211.071
423.2569, 4218.050
423.7390, 4248.637
424.2212, 4278.097
424.7033, 4286.903
425.1854, 4278.296
425.6675, 4271.568
426.1496, 4264.100
426.6317, 4263.544
427.1139, 4281.280
427.5960, 4303.833
428.0781, 4312.825
428.5602, 4299.550
429.0423, 4277.543
429.5244, 4262.623
430.0066, 4254.901
430.4887, 4249.229
430.9708, 4243.711
431.4529, 4240.426
431.9350, 4242.761
432.4171, 4251.174
432.8993, 4256.825
433.3814, 4254.374
433.8635, 4246.661
434.3456, 4237.468
434.8277, 4226.802
435.3098, 4219.182
435.7920, 4221.521
436.2741, 4232.218
436.7562, 4232.013
437.2383, 4207.088
437.7204, 4183.224
438.2025, 4176.940
438.6847, 4184.337
439.1668, 4193.001
439.6489, 4196.861
440.1310, 4198.180
440.6131, 4203.301
441.0952, 4226.609
441.5774, 4233.144
442.0595, 4207.462
442.5416, 4172.457
443.0237, 4145.155
443.5058, 4130.291
443.9879, 4129.188
444.4701, 4146.938
444.9522, 4188.863
445.4343, 4211.072
445.9164, 4194.494
446.3985, 4177.083
446.8806, 4174.706
447.3628, 4179.625
447.8449, 4174.624
448.3270, 4148.135
448.8091, 4111.596
449.2912, 4094.323
449.7733, 4102.627
450.2555, 4112.880
450.7376, 4122.991
451.2197, 4130.228
451.7018, 4131.470
452.1839, 4126.255
452.6660, 4119.098
453.1482, 4112.384
453.6303, 4106.481
454.1124, 4103.591
454.5945, 4105.071
455.0766, 4107.138
455.5587, 4105.159
456.0409, 4100.923
456.5230, 4100.212
457.0051, 4114.443
457.4872, 4125.069
457.9693, 4109.429
458.4514, 4072.373
458.9336, 4041.741
459.4156, 4030.740
459.8978, 4034.620
460.3799, 4043.074
460.8620, 4065.279
461.3441, 4074.290
461.8262, 4050.989
462.3083, 4019.798
462.7905, 4008.299
463.2726, 4020.548
463.7547, 4039.993
464.2368, 4049.059
464.7189, 4045.757
465.2010, 4049.292
465.6832, 4074.340
466.1653, 4090.143
466.6474, 4080.631
467.1295, 4056.368
467.6116, 4033.949
468.0938, 4021.548
468.5759, 4017.628
469.0580, 4021.699
469.5401, 4040.720
470.0222, 4047.845
470.5043, 4027.017
470.9865, 4001.100
471.4686, 3980.146
471.9507, 3966.607
472.4328, 3964.822
472.9149, 3989.318
473.3970, 4029.473
473.8792, 4043.700
474.3613, 4023.223
474.8434, 3997.738
475.3255, 3983.863
475.8076, 3978.980
476.2897, 3978.538
476.7719, 3985.364
477.2540, 3992.042
477.7361, 3994.854
478.2182, 3993.570
478.7003, 3985.846
479.1824, 3969.548
479.6646, 3951.523
480.1467, 3943.404
480.6288, 3949.872
481.1109, 3951.297
481.5930, 3945.233
482.0751, 3935.028
482.5573, 3917.829
483.0394, 3897.369
483.5215, 3885.950
484.0036, 3893.360
484.4857, 3916.556
484.9678, 3935.816
485.4500, 3957.257
485.9321, 3965.378
486.4142, 3945.362
486.8963, 3918.625
487.3784, 3907.426
487.8605, 3916.736
488.3427, 3931.571
488.8248, 3932.509
489.3069, 3918.568
489.7890, 3916.384
490.2711, 3941.851
490.7532, 3959.271
491.2354, 3940.509
491.7175, 3899.959
492.1996, 3871.292
492.6817, 3871.292
493.1638, 3884.919
493.6459, 3899.496
494.1281, 3914.300
494.6102, 3917.476
495.0923, 3900.131
495.5744, 3874.115
496.0565, 3859.354
496.5386, 3855.366
497.0208, 3859.483
497.5029, 3883.112
497.9850, 3907.225
498.4671, 3908.581
498.9492, 3887.686
499.4313, 3865.329
499.9135, 3858.199
500.3956, 3865.086
500.8777, 3869.630
501.3598, 3879.417
501.8419, 3877.618
502.3240, 3843.847
502.8062, 3805.210
503.2883, 3796.646
503.7704, 3826.847
504.2525, 3867.594
504.7346, 3881.542
505.2167, 3864.631
505.6989, 3849.090
506.1810, 3830.702
506.6631, 3820.250
507.1452, 3831.356
507.6273, 3853.354
508.1094, 3861.693
508.5916, 3839.223
509.0737, 3806.653
509.5558, 3792.008
510.0379, 3794.844
510.5200, 3801.942
511.0021, 3811.470
511.4843, 3819.943
511.9664, 3818.556
512.4485, 3804.119
512.9306, 3802.445
513.4127, 3840.401
513.8948, 3881.066
514.3770, 3882.347
514.8591, 3845.952
515.3412, 3806.366
515.8233, 3787.540
516.3054, 3786.226
516.7875, 3782.111
517.2697, 3761.493
517.7518, 3755.372
518.2339, 3787.680
518.7160, 3823.935
519.1981, 3824.066
519.6802, 3783.598
520.1624, 3738.115
520.6445, 3730.031
521.1266, 3760.565
521.6087, 3777.780
522.0908, 3772.000
522.5729, 3766.882
523.0551, 3780.519
523.5372, 3799.584
524.0193, 3800.479
524.5014, 3769.092
524.9835, 3734.253
525.4656, 3728.984
525.9478, 3747.176
526.4299, 3754.609
526.9120, 3738.801
527.3941, 3719.562
527.8762, 3722.269
528.3583, 3747.862
528.8405, 3768.660
529.3226, 3786.463
529.8047, 3794.925
530.2868, 3784.315
530.7689, 3760.644
531.2510, 3738.760
531.7332, 3725.882
532.2153, 3721.294
532.6974, 3724.596
533.1795, 3748.019
533.6616, 3756.528
534.1437, 3737.391
534.6259, 3715.326
535.1080, 3704.988
535.5901, 3706.081
536.0722, 3711.313
536.5543, 3716.722
537.0364, 3721.758
537.5186, 3723.303
538.0007, 3719.246
538.4828, 3720.151
538.9649, 3738.140
539.4470, 3758.039
539.9291, 3760.828
540.4113, 3743.134
540.8934, 3723.880
541.3755, 3711.266
541.8576, 3703.361
542.3397, 3697.594
542.8218, 3693.617
543.3040, 3691.528
543.7861, 3691.515
544.2682, 3693.454
544.7503, 3696.466
545.2324, 3708.364
545.7145, 3711.511
546.1967, 3691.533
546.6788, 3666.760
547.1609, 3660.316
547.6430, 3675.427
548.1251, 3693.157
548.6072, 3691.036
549.0894, 3668.164
549.5715, 3653.398
550.0536, 3650.267
550.5357, 3650.610
551.0178, 3650.300
551.4999, 3651.500
551.9821, 3658.409
552.4642, 3673.770
552.9463, 3688.658
553.4284, 3692.500
553.9105, 3688.449
554.3926, 3690.731
554.8748, 3704.083
555.3569, 3716.039
555.8390, 3713.478
556.3211, 3696.445
556.8032, 3683.908
557.2853, 3676.613
557.7675, 3673.347
558.2496, 3676.597
558.7317, 3682.770
559.2138, 3685.418
559.6959, 3682.307
560.1780, 3677.215
560.6602, 3676.859
561.1423, 3684.544
561.6244, 3683.884
562.1065, 3656.096
562.5886, 3638.720
563.0707, 3658.741
563.5529, 3696.107
564.0350, 3711.896
564.5171, 3684.754
564.9992, 3643.675
565.4813, 3627.077
565.9634, 3633.658
566.4456, 3642.243
566.9277, 3647.700
567.4098, 3654.725
567.8919, 3673.414
568.3740, 3701.793
568.8561, 3716.429
569.3383, 3705.050
569.8204, 3687.076
570.3025, 3672.147
570.7846, 3660.780
571.2667, 3653.235
571.7488, 3649.669
572.2310, 3648.686
572.7131, 3647.845
573.1952, 3646.528
573.6773, 3647.072
574.1594, 3653.811
574.6415, 3658.044
575.1237, 3650.895
575.6058, 3638.844
576.0879, 3636.854
576.5700, 3654.991
577.0521, 3678.958
577.5342, 3684.707
578.0164, 3672.093
578.4985, 3663.253
578.9806, 3666.019
579.4627, 3670.104
579.9448, 3662.744
580.4269, 3645.478
580.9091, 3631.708
581.3912, 3622.878
581.8733, 3619.279
582.3554, 3623.483
582.8375, 3632.989
583.3196, 3642.810
583.8018, 3650.985
584.2839, 3655.820
584.7660, 3653.334
585.2481, 3638.576
585.7302, 3630.735
586.2123, 3637.183
586.6945, 3642.727
587.1766, 3635.706
587.6587, 3623.795
588.1408, 3624.297
588.6229, 3648.025
589.1050, 3678.020
589.5872, 3690.963
590.0693, 3687.232
590.5514, 3674.754
591.0335, 3651.362
591.5156, 3626.466
591.9977, 3607.255
592.4799, 3593.749
592.9620, 3589.897
593.4441, 3604.329
593.9262, 3620.616
594.4083, 3629.476
594.8904, 3633.140
595.3726, 3636.065
595.8547, 3639.863
596.3368, 3644.068
596.8189, 3648.394
597.3010, 3653.639
597.7831, 3655.106
598.2653, 3647.683
598.7474, 3641.737
599.2295, 3642.916
599.7116, 3646.984
600.1937, 3647.030
600.6758, 3640.204
601.1580, 3631.110
601.6401, 3624.602
602.1222, 3620.112
602.6043, 3614.247
603.0864, 3605.761
603.5685, 3598.604
604.0507, 3595.894
604.5328, 3597.711
605.0149, 3601.829
605.4970, 3613.357
605.9791, 3621.218
606.4612, 3615.857
606.9434, 3607.192
607.4255, 3610.570
607.9076, 3628.019
608.3897, 3645.976
608.8718, 3649.816
609.3539, 3639.795
609.8361, 3627.023
610.3182, 3603.878
610.8003, 3590.901
611.2824, 3600.696
611.7645, 3620.075
612.2466, 3635.922
612.7288, 3645.890
613.2109, 3653.176
613.6930, 3663.656
614.1751, 3671.566
614.6572, 3660.388
615.1393, 3629.554
615.6215, 3607.837
616.1036, 3615.284
616.5857, 3643.530
617.0678, 3662.347
617.5499, 3672.434
618.0320, 3671.845
618.5142, 3646.965
618.9963, 3621.717
619.4784, 3618.062
619.9605, 3632.359
620.4426, 3644.420
620.9247, 3639.868
621.4069, 3624.203
621.8890, 3609.274
622.3711, 3593.244
622.8532, 3589.914
623.3353, 3612.915
623.8174, 3639.877
624.2996, 3647.516
624.7817, 3636.987
625.2638, 3624.197
625.7459, 3609.854
626.2280, 3597.845
626.7101, 3590.776
627.1923, 3588.542
627.6744, 3591.056
628.1565, 3598.313
628.6386, 3608.682
629.1207, 3620.697
629.6028, 3637.344
630.0850, 3643.560
630.5671, 3626.115
631.0492, 3611.625
631.5313, 3610.800
632.0134, 3617.650
632.4955, 3623.219
632.9777, 3624.931
633.4598, 3623.034
633.9419, 3611.601
634.4240, 3596.355
634.9061, 3601.123
635.3882, 3631.877
635.8704, 3659.877
636.3525, 3662.035
636.8346, 3642.921
637.3167, 3631.994
637.7988, 3635.114
638.2809, 3637.521
638.7631, 3637.844
639.2452, 3635.729
639.7273, 3628.193
640.2094, 3616.970
640.6915, 3610.292
641.1736, 3616.614
641.6558, 3630.521
642.1379, 3630.561
642.6200, 3612.076
643.1021, 3600.585
643.5842, 3608.840
644.0663, 3621.971
644.5485, 3623.007
645.0306, 3612.343
645.5127, 3604.020
645.9948, 3603.400
646.4769, 3605.302
646.9590, 3604.047
647.4412, 3602.029
647.9233, 3606.803
648.4054, 3621.309
648.8875, 3639.195
649.3696, 3651.904
649.8517, 3660.093
650.3339, 3658.966
650.8160, 3639.317
651.2981, 3621.081
651.7802, 3609.076
652.2623, 3602.982
652.7444, 3603.928
653.2266, 3613.508
653.7087, 3620.865
654.1908, 3614.768
654.6729, 3601.002
655.1550, 3590.711
655.6371, 3585.185
656.1193, 3586.932
656.6014, 3600.117
657.0835, 3619.774
657.5656, 3626.898
658.0477, 3614.552
658.5298, 3598.403
659.0120, 3565.527
659.4941, 3539.697
659.9762, 3541.834
660.4583, 3565.929
660.9404, 3590.105
661.4225, 3602.226
661.9047, 3607.582
662.3868, 3616.340
662.8689, 3628.240
663.3510, 3633.458
663.8331, 3628.015
664.3152, 3619.549
664.7974, 3614.156
665.2795, 3612.053
665.7616, 3613.738
666.2437, 3625.846
666.7258, 3634.041
667.2079, 3629.803
667.6901, 3620.290
668.1722, 3615.617
668.6543, 3617.024
669.1364, 3615.936
669.6185, 3600.164
670.1006, 3575.192
670.5828, 3578.088
671.0649, 3619.337
671.5470, 3654.157
672.0291, 3669.461
672.5112, 3670.009
672.9933, 3658.343
673.4755, 3633.933
673.9576, 3616.499
674.4397, 3617.726
674.9218, 3622.758
675.4039, 3617.329
675.8860, 3606.461
676.3682, 3605.120
676.8503, 3618.963
677.3324, 3636.302
677.8145, 3637.818
678.2966, 3619.927
678.7787, 3616.335
679.2609, 3640.672
679.7430, 3659.168
680.2251, 3659.000
680.7072, 3646.093
681.1893, 3622.453
681.6714, 3584.893
682.1536, 3562.312
682.6357, 3591.211
683.1178, 3633.510
683.5999, 3629.262
684.0820, 3583.258
684.5641, 3548.653
685.0463, 3555.247
685.5284, 3586.002
686.0105, 3601.242
686.4926, 3593.944
686.9747, 3587.724
687.4568, 3583.321
687.9390, 3579.199
688.4211, 3572.265
688.9032, 3565.697
689.3853, 3566.014
689.8674, 3576.569
690.3495, 3589.435
690.8317, 3597.054
691.3138, 3602.249
691.7959, 3614.643
692.2780, 3634.815
692.7601, 3646.536
693.2422, 3636.734
693.7244, 3611.432
694.2065, 3593.798
694.6886, 3585.168
695.1707, 3582.711
695.6528, 3593.431
696.1349, 3603.412
696.6171, 3600.562
697.0992, 3589.955
697.5813, 3587.121
698.0634, 3602.444
698.5455, 3620.682
699.0276, 3622.165
699.5098, 3611.539
699.9919, 3607.354
700.4740, 3613.829
700.9561, 3617.140
701.4382, 3603.476
701.9203, 3576.366
702.4025, 3563.897
702.8846, 3583.022
703.3667, 3594.433
703.8488, 3590.331
704.3309, 3581.614
704.8130, 3573.763
705.2952, 3568.681
705.7773, 3568.988
706.2594, 3578.248
706.7415, 3590.302
707.2236, 3594.613
707.7057, 3593.028
708.1879, 3597.963
708.6700, 3613.201
709.1521, 3629.877
709.6342, 3640.623
710.1163, 3645.439
710.5984, 3643.538
711.0806, 3635.952
711.5627, 3620.669
712.0448, 3580.024
712.5269, 3544.083
713.0090, 3546.013
713.4911, 3580.790
713.9733, 3611.740
714.4554, 3614.383
714.9375, 3601.565
715.4196, 3591.940
715.9017, 3585.289
716.3839, 3579.173
716.8660, 3572.380
717.3481, 3569.023
717.8302, 3574.596
718.3123, 3589.038
718.7944, 3597.454
719.2766, 3602.136
719.7587, 3598.412
720.2408, 3573.067
720.7229, 3547.564
721.2050, 3544.731
721.6871, 3562.958
722.1693, 3580.559
722.6514, 3585.063
723.1335, 3579.445
723.6156, 3561.050
724.0977, 3533.592
724.5798, 3528.536
725.0620, 3558.294
725.5441, 3591.600
726.0262, 3595.245
726.5083, 3569.239
726.9904, 3551.002
727.4725, 3540.433
727.9547, 3537.401
728.4368, 3548.123
728.9189, 3562.013
729.4010, 3569.858
729.8831, 3571.363
730.3652, 3571.969
730.8474, 3575.496
731.3295, 3579.340
731.8116, 3582.426
732.2937, 3583.243
732.7758, 3569.718
733.2579, 3536.403
733.7401, 3508.040
734.2222, 3512.759
734.7043, 3548.528
735.1864, 3563.350
735.6685, 3538.082
736.1506, 3516.404
736.6328, 3495.468
737.1149, 3485.914
737.5970, 3506.251
738.0791, 3548.818
738.5612, 3578.005
739.0433, 3571.809
739.5255, 3548.501
740.0076, 3521.260
740.4897, 3493.917
740.9718, 3481.414
741.4539, 3487.197
741.9360, 3495.524
742.4182, 3490.476
742.9003, 3475.301
743.3824, 3480.224
743.8645, 3528.723
744.3466, 3556.704
744.8287, 3540.100
745.3109, 3515.897
745.7930, 3507.519
746.2751, 3513.154
746.7572, 3520.375
747.2393, 3529.426
747.7214, 3531.184
748.2036, 3510.245
748.6857, 3478.817
749.1678, 3460.971
749.6499, 3460.293
750.1320, 3467.316
750.6141, 3475.883
751.0963, 3484.473
751.5784, 3485.892
752.0605, 3475.653
752.5426, 3471.200
753.0247, 3483.521
753.5068, 3492.532
753.9890, 3482.119
754.4711, 3459.039
754.9532, 3441.715
755.4353, 3433.591
755.9174, 3432.264
756.3995, 3443.188
756.8817, 3456.315
757.3638, 3457.970
757.8459, 3448.845
758.3280, 3437.833
758.8101, 3429.641
759.2922, 3427.233
759.7744, 3441.883
760.2565, 3476.951
760.7386, 3493.766
761.2207, 3481.954
761.7028, 3464.961
762.1849, 3458.921
762.6671, 3457.902
763.1492, 3445.284
763.6313, 3409.950
764.1134, 3388.119
764.5955, 3394.000
765.0776, 3411.081
765.5598, 3436.776
766.0419, 3462.096
766.5240, 3468.528
767.0061, 3447.688
767.4882, 3417.916
767.9703, 3400.149
768.4525, 3393.592
768.9346, 3398.155
769.4167, 3415.881
769.8988, 3426.311
770.3809, 3417.183
770.8630, 3397.260
771.3452, 3382.867
771.8273, 3373.665
772.3094, 3371.673
772.7915, 3385.545
773.2736, 3396.705
773.7557, 3393.208
774.2379, 3384.538
774.7200, 3383.251
775.2021, 3392.276
775.6842, 3406.698
776.1663, 3431.538
776.6484, 3454.858
777.1306, 3453.600
777.6127, 3431.653
778.0948, 3408.075
778.5769, 3388.961
779.0590, 3380.532
779.5411, 3393.225
780.0233, 3427.738
780.5054, 3450.624
780.9875, 3459.738
781.4696, 3460.381
781.9517, 3449.037
782.4338, 3433.524
782.9160, 3421.391
783.3981, 3411.886
783.8802, 3396.256
784.3623, 3355.259
784.8444, 3324.376
785.3265, 3337.356
785.8087, 3370.848
786.2908, 3389.139
786.7729, 3386.451
787.2550, 3377.260
787.7371, 3372.138
788.2192, 3370.231
788.7014, 3368.824
789.1835, 3367.574
789.6656, 3371.710
790.1477, 3387.017
790.6298, 3396.817
791.1119, 3381.281
791.5941, 3348.955
792.0762, 3339.767
792.5583, 3377.712
793.0404, 3400.024
793.5225, 3387.177
794.0046, 3364.766
794.4868, 3344.073
794.9689, 3329.724
795.4510, 3329.074
795.9331, 3346.788
796.4152, 3366.811
796.8973, 3372.481
797.3795, 3367.503
797.8616, 3360.137
798.3437, 3351.192
798.8258, 3341.519
799.3079, 3330.935
799.7900, 3322.256
800.2722, 3322.129
800.7543, 3334.999
801.2364, 3334.917
801.7185, 3303.048
802.2006, 3284.146
802.6827, 3301.069
803.1649, 3332.010
803.6470, 3356.509
804.1291, 3372.432
804.6112, 3377.033
805.0933, 3361.132
805.5754, 3341.533
806.0576, 3330.900
806.5397, 3325.485
807.0218, 3316.719
807.5039, 3303.463
807.9860, 3293.665
808.4681, 3295.028
808.9503, 3304.604
809.4324, 3314.858
809.9145, 3326.188
810.3966, 3329.783
810.8787, 3320.639
811.3608, 3311.368
811.8430, 3314.031
812.3251, 3326.511
812.8072, 3333.252
813.2893, 3338.209
813.7714, 3332.026
814.2535, 3297.232
814.7357, 3266.421
815.2178, 3265.361
815.6999, 3284.845
816.1820, 3302.074
816.6641, 3310.058
817.1462, 3308.609
817.6284, 3284.002
818.1105, 3256.323
818.5926, 3267.419
819.0747, 3311.204
819.5568, 3342.995
820.0389, 3341.726
820.5211, 3322.783
821.0032, 3310.189
821.4853, 3304.642
821.9674, 3291.483
822.4495, 3264.485
822.9316, 3245.830
823.4138, 3247.570
823.8959, 3258.667
824.3780, 3266.187
824.8601, 3270.206
825.3422, 3271.719
825.8243, 3268.530
826.3065, 3265.591
826.7886, 3261.768
827.2707, 3261.120
827.7528, 3273.073
828.2349, 3294.248
828.7170, 3305.500
829.1992, 3291.054
829.6813, 3268.257
830.1633, 3259.201
830.6454, 3261.225
831.1276, 3267.069
831.6097, 3275.380
832.0918, 3284.114
832.5739, 3292.273
833.0560, 3298.939
833.5381, 3300.725
834.0203, 3294.927
834.5024, 3294.451
834.9845, 3309.414
835.4666, 3315.691
835.9487, 3288.221
836.4308, 3249.995
836.9130, 3237.408
837.3951, 3258.427
837.8772, 3272.099
838.3593, 3262.830
838.8414, 3249.208
839.3235, 3239.824
839.8057, 3234.607
840.2878, 3231.517
840.7699, 3230.565
841.2520, 3235.395
841.7341, 3252.859
842.2162, 3274.808
842.6984, 3286.167
843.1805, 3288.295
843.6626, 3287.833
844.1447, 3286.371
844.6268, 3281.028
845.1089, 3268.453
845.5911, 3250.782
846.0732, 3237.227
846.5553, 3227.716
847.0374, 3222.807
847.5195, 3225.363
848.0016, 3229.097
848.4838, 3228.794
848.9659, 3227.511
849.4480, 3233.024
849.9301, 3251.477
850.4122, 3259.283
850.8943, 3237.195
851.3765, 3214.836
851.8586, 3215.910
852.3407, 3229.983
852.8228, 3239.614
853.3049, 3239.294
853.7870, 3230.074
854.2692, 3199.726
854.7513, 3167.624
855.2334, 3180.728
855.7155, 3228.094
856.1976, 3253.906
856.6797, 3242.975
857.1619, 3222.648
857.6440, 3217.557
858.1261, 3224.876
858.6082, 3228.646
859.0903, 3225.895
859.5724, 3229.873
860.0546, 3248.882
860.5367, 3265.839
861.0188, 3268.648
861.5009, 3261.156
861.9830, 3251.984
862.4651, 3239.677
862.9473, 3230.001
863.4294, 3222.656
863.9115, 3219.672
864.3936, 3224.507
864.8757, 3233.684
865.3578, 3243.612
865.8400, 3252.887
866.3221, 3256.239
866.8042, 3246.253
867.2863, 3230.573
867.7684, 3217.562
868.2505, 3207.830
868.7327, 3203.506
869.2148, 3204.803
869.6969, 3207.866
870.1790, 3209.177
870.6611, 3209.896
871.1432, 3216.005
871.6254, 3229.261
872.1075, 3232.413
872.5896, 3218.989
873.0717, 3205.621
873.5538, 3203.439
874.0359, 3208.850
874.5181, 3212.087
875.0002, 3211.771
875.4823, 3212.356
875.9644, 3215.490
876.4465, 3217.680
876.9286, 3217.177
877.4108, 3215.105
877.8929, 3212.127
878.3750, 3208.572
878.8571, 3207.344
879.3392, 3209.645
879.8214, 3214.991
880.3035, 3227.955
880.7856, 3241.570
881.2677, 3242.420
881.7498, 3230.530
882.2319, 3218.729
882.7141, 3216.070
883.1962, 3217.379
883.6783, 3211.151
884.1604, 3199.579
884.6425, 3200.067
885.1246, 3215.425
885.6068, 3223.997
886.0889, 3212.434
886.5710, 3191.896
887.0531, 3182.943
887.5352, 3186.728
888.0173, 3196.920
888.4995, 3225.418
888.9816, 3239.842
889.4637, 3214.068
889.9458, 3181.887
890.4279, 3181.190
890.9100, 3209.024
891.3922, 3223.692
891.8743, 3206.170
892.3564, 3191.921
892.8385, 3197.767
893.3206, 3206.808
893.8027, 3200.118
894.2849, 3183.716
894.7670, 3179.010
895.2491, 3196.646
895.7312, 3216.241
896.2133, 3223.028
896.6954, 3219.499
897.1776, 3201.677
897.6597, 3176.412
898.1418, 3168.952
898.6239, 3187.545
899.1060, 3210.867
899.5881, 3214.634
900.0703, 3203.452
900.5524, 3198.740
901.0345, 3200.806
901.5166, 3203.281
901.9987, 3205.913
902.4808, 3203.572
902.9630, 3189.726
903.4451, 3168.795
903.9272, 3159.561
904.4093, 3169.491
904.8914, 3175.546
905.3735, 3173.054
905.8557, 3171.629
906.3378, 3178.133
906.8199, 3186.833
907.3020, 3188.765
907.7841, 3182.491
908.2662, 3177.624
908.7484, 3171.720
909.2305, 3173.156
909.7126, 3198.115
910.1947, 3225.078
910.6768, 3222.972
911.1589, 3195.531
911.6411, 3177.029
912.1232, 3189.147
912.6053, 3209.340
913.0874, 3218.953
913.5695, 3219.395
914.0516, 3209.758
914.5338, 3192.651
915.0159, 3177.494
915.4980, 3168.651
915.9801, 3164.637
916.4622, 3165.747
916.9443, 3170.423
917.4265, 3166.951
917.9086, 3154.963
918.3907, 3143.697
918.8728, 3134.580
919.3549, 3132.652
919.8370, 3144.501
920.3192, 3167.485
920.8013, 3184.054
921.2834, 3195.596
921.7655, 3197.038
922.2476, 3178.854
922.7297, 3162.173
923.2119, 3160.654
923.6940, 3167.635
924.1761, 3171.793
924.6582, 3171.772
925.1403, 3173.403
925.6224, 3178.740
926.1046, 3184.398
926.5867, 3193.978
927.0688, 3199.808
927.5509, 3186.304
928.0330, 3158.150
928.5151, 3146.850
928.9973, 3180.753
929.4794, 3212.007
929.9615, 3192.388
930.4436, 3158.399
930.9257, 3160.735
931.4078, 3193.237
931.8900, 3221.460
932.3721, 3230.576
932.8542, 3228.705
933.3363, 3221.841
933.8184, 3211.867
934.3005, 3200.946
934.7827, 3190.630
935.2648, 3193.820
935.7469, 3214.084
936.2290, 3231.120
936.7111, 3225.764
937.1932, 3204.582
937.6754, 3189.237
938.1575, 3179.423
938.6396, 3180.356
939.1217, 3197.003
939.6038, 3210.019
940.0859, 3207.257
940.5681, 3196.691
941.0502, 3192.585
941.5323, 3195.799
942.0144, 3201.438
942.4965, 3220.229
942.9786, 3226.041
943.4608, 3194.303
943.9429, 3163.521
944.4250, 3173.007
944.9071, 3212.654
945.3892, 3233.482
945.8713, 3213.131
946.3535, 3200.113
946.8356, 3213.092
947.3177, 3231.451
947.7998, 3243.908
948.2819, 3250.701
948.7640, 3253.450
949.2462, 3252.684
949.7283, 3251.245
950.2104, 3252.553
950.6925, 3252.204
951.1746, 3243.373
951.6567, 3231.524
952.1389, 3224.606
952.6210, 3223.991
953.1031, 3230.342
953.5852, 3245.883
954.0673, 3258.411
954.5494, 3244.199
955.0316, 3216.018
955.5137, 3210.094
955.9958, 3225.305
956.4779, 3240.495
956.9600, 3247.875
957.4421, 3245.949
957.9243, 3227.788
958.4064, 3202.444
958.8885, 3220.878
959.3706, 3286.720
959.8527, 3325.542
960.3348, 3322.307
960.8170, 3301.350
961.2991, 3273.299
961.7812, 3246.349
962.2633, 3241.546
962.7454, 3265.397
963.2275, 3282.783
963.7097, 3297.991
964.1918, 3297.462
964.6739, 3264.043
965.1560, 3225.776
965.6381, 3213.749
966.1202, 3225.779
966.6024, 3231.818
967.0845, 3221.365
967.5666, 3220.460
968.0487, 3238.924
968.5308, 3259.870
969.0129, 3277.818
969.4951, 3290.394
969.9772, 3295.593
970.4593, 3293.208
970.9414, 3280.804
971.4235, 3242.483
971.9056, 3211.651
972.3878, 3206.716
972.8699, 3217.803
973.3520, 3241.375
973.8341, 3270.240
974.3162, 3285.285
974.7983, 3274.225
975.2805, 3263.972
975.7626, 3288.900
976.2447, 3315.415
976.7268, 3289.829
977.2089, 3235.642
977.6910, 3214.737
978.1732, 3241.308
978.6553, 3275.573
979.1374, 3286.403
979.6195, 3284.796
980.1016, 3287.082
980.5837, 3291.745
981.0659, 3293.317
981.5480, 3291.969
982.0301, 3294.704
982.5122, 3305.338
982.9943, 3316.973
983.4764, 3318.715
983.9586, 3312.367
984.4407, 3307.991
984.9228, 3305.567
985.4049, 3306.484
985.8870, 3311.713
986.3691, 3314.052
986.8513, 3306.792
987.3334, 3293.723
987.8155, 3285.520
988.2976, 3281.920
988.7797, 3286.058
989.2618, 3300.745
989.7440, 3315.097
990.2261, 3326.979
990.7082, 3332.151
991.1903, 3321.913
991.6724, 3297.003
992.1545, 3291.382
992.6367, 3321.749
993.1188, 3336.534
993.6009, 3314.849
994.0830, 3295.537
994.5651, 3308.411
995.0472, 3336.796
995.5294, 3344.367
996.0115, 3323.825
996.4936, 3314.678
996.9757, 3331.930
997.4578, 3343.198
997.9399, 3333.574
998.4221, 3319.720
998.9042, 3317.203
999.3863, 3323.037
999.8684, 3322.747
1000.351, 3308.342
1000.833, 3300.629
1001.315, 3310.237
1001.797, 3322.878
1002.279, 3332.655
1002.761, 3338.743
1003.243, 3338.063
1003.725, 3331.962
1004.207, 3332.045
1004.690, 3350.550
1005.172, 3366.048
1005.654, 3363.681
1006.136, 3354.143
1006.618, 3344.699
1007.100, 3338.017
1007.582, 3338.375
1008.064, 3346.811
1008.547, 3354.940
1009.029, 3353.304
1009.511, 3351.451
1009.993, 3364.235
1010.475, 3381.290
1010.957, 3382.027
1011.439, 3368.380
1011.921, 3361.903
1012.403, 3374.409
1012.886, 3386.540
1013.368, 3368.778
1013.850, 3340.557
1014.332, 3339.830
1014.814, 3359.915
1015.296, 3377.256
1015.778, 3385.923
1016.260, 3390.352
1016.742, 3392.873
1017.225, 3396.199
1017.707, 3407.917
1018.189, 3424.346
1018.671, 3430.193
1019.153, 3425.913
1019.635, 3425.739
1020.117, 3434.896
1020.599, 3442.595
1021.082, 3436.755
1021.564, 3421.735
1022.046, 3408.238
1022.528, 3397.200
1023.010, 3408.407
1023.492, 3445.393
1023.974, 3470.950
1024.456, 3464.756
1024.938, 3446.014
1025.421, 3443.905
1025.903, 3456.569
1026.385, 3459.139
1026.867, 3450.164
1027.349, 3445.837
1027.831, 3450.761
1028.313, 3453.140
1028.795, 3443.041
1029.278, 3428.893
1029.760, 3429.993
1030.242, 3448.008
1030.724, 3470.743
1031.206, 3506.381
1031.688, 3515.425
1032.170, 3477.231
1032.652, 3430.465
1033.135, 3406.577
1033.617, 3402.599
1034.099, 3408.693
1034.581, 3430.881
1035.063, 3445.891
1035.545, 3454.508
1036.027, 3453.056
1036.509, 3431.696
1036.991, 3410.355
1037.474, 3414.082
1037.956, 3439.506
1038.438, 3450.789
1038.920, 3437.270
1039.402, 3430.254
1039.884, 3434.169
1040.366, 3440.580
1040.848, 3443.409
1041.330, 3448.233
1041.813, 3467.819
1042.295, 3503.871
1042.777, 3517.445
1043.259, 3482.203
1043.741, 3463.418
1044.223, 3478.869
1044.705, 3499.893
1045.187, 3511.310
1045.670, 3517.794
1046.152, 3529.981
1046.634, 3550.715
1047.116, 3558.163
1047.598, 3541.642
1048.080, 3523.922
1048.562, 3511.978
1049.044, 3498.802
1049.526, 3470.888
1050.009, 3439.761
1050.491, 3434.568
1050.973, 3466.368
1051.455, 3487.728
1051.937, 3484.626
1052.419, 3478.090
1052.901, 3472.522
1053.383, 3469.203
1053.865, 3468.207
1054.348, 3470.218
1054.830, 3477.813
1055.312, 3493.883
1055.794, 3507.744
1056.276, 3516.766
1056.758, 3523.058
1057.240, 3529.155
1057.722, 3531.869
1058.205, 3523.530
1058.687, 3507.997
1059.169, 3503.055
1059.651, 3519.670
1060.133, 3531.228
1060.615, 3523.834
1061.097, 3515.107
1061.579, 3519.016
1062.062, 3525.265
1062.544, 3517.105
1063.026, 3496.396
1063.508, 3483.854
1063.990, 3485.793
1064.472, 3497.220
1064.954, 3529.679
1065.436, 3557.063
1065.918, 3557.316
1066.401, 3543.086
1066.883, 3531.093
1067.365, 3524.683
1067.847, 3524.803
1068.329, 3534.668
1068.811, 3546.718
1069.293, 3562.593
1069.775, 3574.595
1070.257, 3575.785
1070.740, 3569.313
1071.222, 3556.705
1071.704, 3539.893
1072.186, 3534.971
1072.668, 3559.023
1073.150, 3582.833
1073.632, 3601.187
1074.114, 3605.657
1074.597, 3572.219
1075.079, 3525.902
1075.561, 3517.366
1076.043, 3555.314
1076.525, 3583.298
1077.007, 3558.811
1077.489, 3541.103
1077.971, 3576.100
1078.453, 3616.935
1078.936, 3613.878
1079.418, 3585.323
1079.900, 3577.017
1080.382, 3599.408
1080.864, 3617.418
1081.346, 3613.155
1081.828, 3603.245
1082.310, 3592.762
1082.792, 3583.830
1083.275, 3577.138
1083.757, 3573.923
1084.239, 3579.095
1084.721, 3594.329
1085.203, 3601.626
1085.685, 3583.765
1086.167, 3567.467
1086.649, 3569.353
1087.131, 3577.540
1087.614, 3581.767
1088.096, 3582.336
1088.578, 3583.271
1089.060, 3585.771
1089.542, 3585.485
1090.024, 3571.347
1090.506, 3565.399
1090.988, 3591.591
1091.471, 3620.782
1091.953, 3616.076
1092.435, 3592.853
1092.917, 3597.847
1093.399, 3646.451
1093.881, 3678.625
1094.363, 3661.552
1094.845, 3636.086
1095.328, 3611.608
1095.810, 3596.376
1096.292, 3605.635
1096.774, 3628.359
1097.256, 3636.742
1097.738, 3623.073
1098.220, 3608.781
1098.702, 3592.086
1099.184, 3587.117
1099.667, 3611.019
1100.149, 3639.926
1100.631, 3652.289
1101.113, 3652.267
1101.595, 3655.238
1102.077, 3666.129
1102.559, 3666.672
1103.041, 3636.637
1103.523, 3615.862
1104.006, 3623.955
1104.488, 3642.853
1104.970, 3666.635
1105.452, 3686.925
1105.934, 3681.995
1106.416, 3640.279
1106.898, 3619.922
1107.380, 3647.021
1107.863, 3675.337
1108.345, 3692.990
1108.827, 3704.805
1109.309, 3717.361
1109.791, 3726.412
1110.273, 3718.829
1110.755, 3687.449
1111.237, 3669.518
1111.719, 3673.372
1112.202, 3683.977
1112.684, 3723.532
1113.166, 3734.144
1113.648, 3736.314
1114.130, 3730.693
1114.612, 3682.595
1115.094, 3698.043
1115.576, 3693.340
1116.058, 3691.448
1116.541, 3726.712
1117.023, 3704.322
1117.505, 3746.631
1117.987, 3734.806
1118.469, 3761.216
1118.951, 3758.200
1119.433, 3718.616
1119.915, 3703.705
1120.398, 3733.197
1120.880, 3745.073
1121.362, 3718.269
1121.844, 3690.421
1122.326, 3682.099
1122.808, 3688.665
1123.290, 3702.785
1123.772, 3724.551
1124.255, 3753.727
1124.737, 3801.298
1125.219, 3818.355
1125.701, 3787.688
1126.183, 3751.907
1126.665, 3731.248
1127.147, 3725.000
1127.629, 3734.623
1128.111, 3758.827
1128.594, 3773.007
1129.076, 3775.649
1129.558, 3778.578
1130.040, 3783.932
1130.522, 3786.517
1131.004, 3783.908
1131.486, 3776.042
1131.968, 3760.243
1132.450, 3740.549
1132.933, 3742.549
1133.415, 3766.049
1133.897, 3788.968
1134.379, 3808.962
1134.861, 3816.708
1135.343, 3807.390
1135.825, 3794.924
1136.307, 3794.119
1136.790, 3802.663
1137.272, 3818.430
1137.754, 3838.346
1138.236, 3842.203
1138.718, 3830.498
1139.200, 3822.017
1139.682, 3823.209
1140.164, 3824.835
1140.646, 3817.048
1141.129, 3808.517
1141.611, 3820.324
1142.093, 3842.013
1142.575, 3842.524
1143.057, 3827.058
1143.539, 3822.328
1144.021, 3834.410
1144.503, 3848.674
1144.985, 3855.276
1145.468, 3857.960
1145.950, 3861.763
1146.432, 3864.099
1146.914, 3860.302
1147.396, 3852.094
1147.878, 3841.719
1148.360, 3831.024
1148.842, 3823.878
1149.325, 3821.079
1149.807, 3827.570
1150.289, 3854.600
1150.771, 3885.435
1151.253, 3913.064
1151.735, 3929.042
1152.217, 3913.747
1152.699, 3876.122
1153.182, 3851.596
1153.664, 3853.104
1154.146, 3862.067
1154.628, 3876.235
1155.110, 3887.509
1155.592, 3888.125
1156.074, 3886.238
1156.556, 3889.263
1157.038, 3896.689
1157.521, 3905.544
1158.003, 3915.396
1158.485, 3925.890
1158.967, 3939.004
1159.449, 3949.851
1159.931, 3955.044
1160.413, 3959.431
1160.895, 3970.620
1161.377, 3981.556
1161.860, 3978.058
1162.342, 3958.758
1162.824, 3938.381
1163.306, 3906.794
1163.788, 3893.268
1164.270, 3910.429
1164.752, 3930.157
1165.234, 3939.678
1165.717, 3944.997
1166.199, 3956.428
1166.681, 3971.377
1167.163, 3960.907
1167.645, 3912.248
1168.127, 3898.538
1168.609, 3932.652
1169.091, 3965.434
1169.573, 3978.835
1170.056, 3984.526
1170.538, 3994.313
1171.020, 4004.232
1171.502, 3999.230
1171.984, 3980.776
1172.466, 3976.985
1172.948, 3988.017
1173.430, 3992.357
1173.912, 3984.712
1174.395, 3981.762
1174.877, 3996.018
1175.359, 4016.396
1175.841, 4028.445
1176.323, 4031.716
1176.805, 4018.578
1177.287, 3996.541
1177.769, 3988.176
1178.252, 3996.251
1178.734, 4015.510
1179.216, 4043.941
1179.698, 4066.267
1180.180, 4068.887
1180.662, 4057.492
1181.144, 4025.542
1181.626, 3992.428
1182.109, 3988.578
1182.591, 4007.452
1183.073, 4026.039
1183.555, 4038.113
1184.037, 4052.391
1184.519, 4081.366
1185.001, 4103.039
1185.483, 4101.635
1185.965, 4093.177
1186.448, 4093.995
1186.930, 4093.586
1187.412, 4065.233
1187.894, 4013.314
1188.376, 3994.151
1188.858, 4039.582
1189.340, 4078.553
1189.822, 4108.972
1190.304, 4122.265
1190.787, 4099.514
1191.269, 4072.408
1191.751, 4070.072
1192.233, 4084.866
1192.715, 4092.118
1193.197, 4090.163
1193.679, 4087.582
1194.161, 4082.414
1194.644, 4083.235
1195.126, 4093.729
1195.608, 4104.609
1196.090, 4110.013
1196.572, 4112.601
1197.054, 4116.451
1197.536, 4121.660
1198.018, 4131.891
1198.500, 4146.364
1198.983, 4143.839
1199.465, 4122.941
1199.947, 4111.951
1200.429, 4122.434
1200.911, 4135.646
1201.393, 4131.979
1201.875, 4121.704
1202.357, 4124.395
1202.839, 4134.349
1203.322, 4138.277
1203.804, 4138.193
1204.286, 4141.683
1204.768, 4150.701
1205.250, 4166.112
1205.732, 4192.140
1206.214, 4208.500
1206.696, 4190.066
1207.179, 4164.409
1207.661, 4148.037
1208.143, 4144.743
1208.625, 4167.534
1209.107, 4204.959
1209.589, 4222.899
1210.071, 4210.388
1210.553, 4204.254
1211.036, 4227.015
1211.518, 4240.835
1212.000, 4226.595
1212.482, 4207.995
1212.964, 4194.655
1213.446, 4189.938
1213.928, 4202.426
1214.410, 4230.767
1214.892, 4242.363
1215.375, 4229.576
1215.857, 4220.171
1216.339, 4214.582
1216.821, 4216.138
1217.303, 4228.367
1217.785, 4241.166
1218.267, 4246.104
1218.749, 4243.789
1219.231, 4230.032
1219.714, 4207.180
1220.196, 4215.645
1220.678, 4252.272
1221.160, 4280.377
1221.642, 4292.584
1222.124, 4290.392
1222.606, 4274.199
1223.088, 4259.058
1223.571, 4265.147
1224.053, 4279.564
1224.535, 4281.795
1225.017, 4277.736
1225.499, 4274.240
1225.981, 4274.354
1226.463, 4287.411
1226.945, 4312.386
1227.427, 4323.468
1227.910, 4296.332
1228.392, 4276.853
1228.874, 4299.630
1229.356, 4327.076
1229.838, 4335.311
1230.320, 4333.714
1230.802, 4334.259
1231.284, 4335.954
1231.766, 4331.598
1232.249, 4319.667
1232.731, 4304.097
1233.213, 4269.895
1233.695, 4260.730
1234.177, 4302.400
1234.659, 4335.905
1235.141, 4323.445
1235.623, 4293.889
1236.106, 4289.461
1236.588, 4305.364
1237.070, 4305.576
1237.552, 4289.303
1238.034, 4298.082
1238.516, 4334.281
1238.998, 4357.489
1239.480, 4355.476
1239.963, 4348.128
1240.445, 4350.127
1240.927, 4356.513
1241.409, 4361.207
1241.891, 4364.361
1242.373, 4364.681
1242.855, 4364.355
1243.337, 4369.604
1243.819, 4378.533
1244.302, 4382.991
1244.784, 4380.203
1245.266, 4373.938
1245.748, 4354.667
1246.230, 4348.217
1246.712, 4384.426
1247.194, 4421.165
1247.676, 4422.273
1248.158, 4406.984
1248.641, 4405.107
1249.123, 4415.756
1249.605, 4415.125
1250.087, 4391.060
1250.569, 4383.197
1251.051, 4400.715
1251.533, 4414.823
1252.015, 4418.999
1252.498, 4416.150
1252.980, 4405.104
1253.462, 4395.875
1253.944, 4408.026
1254.426, 4436.408
1254.908, 4447.292
1255.390, 4442.588
1255.872, 4439.426
1256.354, 4439.360
1256.837, 4439.035
1257.319, 4437.377
1257.801, 4435.624
1258.283, 4434.540
1258.765, 4434.342
1259.247, 4436.896
1259.729, 4439.018
1260.211, 4429.977
1260.693, 4422.179
1261.176, 4443.077
1261.658, 4481.795
1262.140, 4497.511
1262.622, 4478.059
1263.104, 4460.852
1263.586, 4451.235
1264.068, 4454.663
1264.550, 4492.186
1265.033, 4519.861
1265.515, 4503.303
1265.997, 4475.507
1266.479, 4471.757
1266.961, 4487.992
1267.443, 4509.369
1267.925, 4540.502
1268.407, 4543.846
1268.890, 4514.715
1269.372, 4506.963
1269.854, 4533.158
1270.336, 4558.402
1270.818, 4563.042
1271.300, 4557.583
1271.782, 4553.393
1272.264, 4549.789
1272.746, 4543.497
1273.229, 4537.913
1273.711, 4541.301
##END=



