##NAMES=Allactite
##RRUFFID=R150120
##IDEAL CHEMISTRY=Mn^2+^_7_(As^5+^O_4_)_2_(OH)_8_
##LOCALITY=Sterling Mine, 1200' Level, Ogdensburg, New Jersey, USA
##OWNER=RRUFF
##SOURCE=Steven Kuitems
##DESCRIPTION=Brown elongated tabular crystals, associated with yellow euhedral barite and massive alleghanyite
##STATUS=The identification of this mineral has been confirmed only by single crystal X-ray diffraction.
##URL=rruff.info/R150120
8.930109e+001, 0.000000e+000
8.978320e+001, 1.810416e+002
9.026532e+001, 1.792627e+002
9.074744e+001, 1.792366e+002
9.122955e+001, 1.817510e+002
9.171167e+001, 1.850824e+002
9.219379e+001, 1.876669e+002
9.267590e+001, 1.895165e+002
9.315802e+001, 1.896688e+002
9.364014e+001, 1.861931e+002
9.412225e+001, 1.803770e+002
9.460437e+001, 1.758934e+002
9.508649e+001, 1.742451e+002
9.556860e+001, 1.740926e+002
9.605072e+001, 1.722758e+002
9.653284e+001, 1.688587e+002
9.701495e+001, 1.651641e+002
9.749707e+001, 1.622534e+002
9.797919e+001, 1.600801e+002
9.846130e+001, 1.585486e+002
9.894342e+001, 1.575804e+002
9.942554e+001, 1.571586e+002
9.990765e+001, 1.575785e+002
1.003898e+002, 1.591670e+002
1.008719e+002, 1.609199e+002
1.013540e+002, 1.612429e+002
1.018361e+002, 1.597986e+002
1.023182e+002, 1.583213e+002
1.028004e+002, 1.572873e+002
1.032825e+002, 1.565302e+002
1.037646e+002, 1.568545e+002
1.042467e+002, 1.584785e+002
1.047288e+002, 1.610118e+002
1.052109e+002, 1.634241e+002
1.056931e+002, 1.648886e+002
1.061752e+002, 1.673912e+002
1.066573e+002, 1.719549e+002
1.071394e+002, 1.802063e+002
1.076215e+002, 1.876701e+002
1.081036e+002, 1.949042e+002
1.085858e+002, 2.015758e+002
1.090679e+002, 2.055233e+002
1.095500e+002, 2.039808e+002
1.100321e+002, 2.018315e+002
1.105142e+002, 2.016738e+002
1.109963e+002, 2.048069e+002
1.114785e+002, 2.084057e+002
1.119606e+002, 2.127298e+002
1.124427e+002, 2.177139e+002
1.129248e+002, 2.213731e+002
1.134069e+002, 2.233450e+002
1.138890e+002, 2.239982e+002
1.143712e+002, 2.236442e+002
1.148533e+002, 2.215339e+002
1.153354e+002, 2.191903e+002
1.158175e+002, 2.172408e+002
1.162996e+002, 2.157557e+002
1.167817e+002, 2.137970e+002
1.172639e+002, 2.102825e+002
1.177460e+002, 2.062696e+002
1.182281e+002, 2.031009e+002
1.187102e+002, 2.019010e+002
1.191923e+002, 2.012280e+002
1.196744e+002, 2.002311e+002
1.201566e+002, 1.987471e+002
1.206387e+002, 1.972456e+002
1.211208e+002, 1.958282e+002
1.216029e+002, 1.945960e+002
1.220850e+002, 1.937772e+002
1.225671e+002, 1.931464e+002
1.230493e+002, 1.931237e+002
1.235314e+002, 1.946037e+002
1.240135e+002, 1.985430e+002
1.244956e+002, 2.019587e+002
1.249777e+002, 2.012127e+002
1.254598e+002, 1.971820e+002
1.259420e+002, 1.931833e+002
1.264241e+002, 1.912032e+002
1.269062e+002, 1.907390e+002
1.273883e+002, 1.909762e+002
1.278704e+002, 1.919940e+002
1.283525e+002, 1.933066e+002
1.288347e+002, 1.944845e+002
1.293168e+002, 1.954950e+002
1.297989e+002, 1.957439e+002
1.302810e+002, 1.943391e+002
1.307631e+002, 1.916508e+002
1.312452e+002, 1.891653e+002
1.317274e+002, 1.874005e+002
1.322095e+002, 1.860162e+002
1.326916e+002, 1.838846e+002
1.331737e+002, 1.808594e+002
1.336558e+002, 1.780214e+002
1.341379e+002, 1.764216e+002
1.346201e+002, 1.760481e+002
1.351022e+002, 1.760535e+002
1.355843e+002, 1.761739e+002
1.360664e+002, 1.764516e+002
1.365485e+002, 1.772185e+002
1.370306e+002, 1.785103e+002
1.375128e+002, 1.802291e+002
1.379949e+002, 1.820666e+002
1.384770e+002, 1.838130e+002
1.389591e+002, 1.868172e+002
1.394412e+002, 1.919839e+002
1.399233e+002, 1.994881e+002
1.404055e+002, 2.060224e+002
1.408876e+002, 2.112741e+002
1.413697e+002, 2.158900e+002
1.418518e+002, 2.210816e+002
1.423339e+002, 2.272652e+002
1.428160e+002, 2.330439e+002
1.432982e+002, 2.381685e+002
1.437803e+002, 2.430914e+002
1.442624e+002, 2.457359e+002
1.447445e+002, 2.458497e+002
1.452266e+002, 2.437287e+002
1.457087e+002, 2.399580e+002
1.461909e+002, 2.332842e+002
1.466730e+002, 2.264892e+002
1.471551e+002, 2.205887e+002
1.476372e+002, 2.160205e+002
1.481193e+002, 2.116948e+002
1.486014e+002, 2.072320e+002
1.490836e+002, 2.029616e+002
1.495657e+002, 1.998616e+002
1.500478e+002, 1.982308e+002
1.505299e+002, 1.975898e+002
1.510120e+002, 1.977415e+002
1.514941e+002, 1.985379e+002
1.519763e+002, 2.002795e+002
1.524584e+002, 2.033924e+002
1.529405e+002, 2.076226e+002
1.534226e+002, 2.117390e+002
1.539047e+002, 2.152183e+002
1.543868e+002, 2.188379e+002
1.548690e+002, 2.230204e+002
1.553511e+002, 2.286615e+002
1.558332e+002, 2.339600e+002
1.563153e+002, 2.386886e+002
1.567974e+002, 2.428409e+002
1.572795e+002, 2.463932e+002
1.577617e+002, 2.498337e+002
1.582438e+002, 2.524167e+002
1.587259e+002, 2.536045e+002
1.592080e+002, 2.535384e+002
1.596901e+002, 2.518190e+002
1.601722e+002, 2.481242e+002
1.606544e+002, 2.424966e+002
1.611365e+002, 2.357542e+002
1.616186e+002, 2.269899e+002
1.621007e+002, 2.177858e+002
1.625828e+002, 2.093877e+002
1.630649e+002, 2.025690e+002
1.635471e+002, 1.964313e+002
1.640292e+002, 1.906419e+002
1.645113e+002, 1.851862e+002
1.649934e+002, 1.800142e+002
1.654755e+002, 1.749597e+002
1.659576e+002, 1.701895e+002
1.664398e+002, 1.659744e+002
1.669219e+002, 1.624957e+002
1.674040e+002, 1.594851e+002
1.678861e+002, 1.568438e+002
1.683682e+002, 1.545563e+002
1.688503e+002, 1.525422e+002
1.693325e+002, 1.506817e+002
1.698146e+002, 1.490632e+002
1.702967e+002, 1.478525e+002
1.707788e+002, 1.474256e+002
1.712609e+002, 1.472515e+002
1.717430e+002, 1.469073e+002
1.722252e+002, 1.463695e+002
1.727073e+002, 1.456262e+002
1.731894e+002, 1.443749e+002
1.736715e+002, 1.428814e+002
1.741536e+002, 1.417784e+002
1.746357e+002, 1.416299e+002
1.751179e+002, 1.419062e+002
1.756000e+002, 1.419495e+002
1.760821e+002, 1.416718e+002
1.765642e+002, 1.413567e+002
1.770463e+002, 1.412837e+002
1.775284e+002, 1.414018e+002
1.780106e+002, 1.415551e+002
1.784927e+002, 1.417942e+002
1.789748e+002, 1.419861e+002
1.794569e+002, 1.418661e+002
1.799390e+002, 1.413688e+002
1.804211e+002, 1.407177e+002
1.809033e+002, 1.400771e+002
1.813854e+002, 1.394689e+002
1.818675e+002, 1.390078e+002
1.823496e+002, 1.388555e+002
1.828317e+002, 1.388938e+002
1.833138e+002, 1.387962e+002
1.837960e+002, 1.384814e+002
1.842781e+002, 1.381613e+002
1.847602e+002, 1.382382e+002
1.852423e+002, 1.386602e+002
1.857244e+002, 1.389895e+002
1.862065e+002, 1.388324e+002
1.866887e+002, 1.383372e+002
1.871708e+002, 1.381279e+002
1.876529e+002, 1.383744e+002
1.881350e+002, 1.387093e+002
1.886171e+002, 1.383737e+002
1.890992e+002, 1.373835e+002
1.895814e+002, 1.364676e+002
1.900635e+002, 1.362207e+002
1.905456e+002, 1.365262e+002
1.910277e+002, 1.365712e+002
1.915098e+002, 1.361908e+002
1.919919e+002, 1.356261e+002
1.924741e+002, 1.354152e+002
1.929562e+002, 1.355740e+002
1.934383e+002, 1.357531e+002
1.939204e+002, 1.356846e+002
1.944025e+002, 1.353856e+002
1.948846e+002, 1.351752e+002
1.953668e+002, 1.351304e+002
1.958489e+002, 1.351486e+002
1.963310e+002, 1.350213e+002
1.968131e+002, 1.347557e+002
1.972952e+002, 1.342887e+002
1.977773e+002, 1.334684e+002
1.982595e+002, 1.322844e+002
1.987416e+002, 1.312555e+002
1.992237e+002, 1.304639e+002
1.997058e+002, 1.298593e+002
2.001879e+002, 1.293153e+002
2.006700e+002, 1.288203e+002
2.011522e+002, 1.284209e+002
2.016343e+002, 1.281322e+002
2.021164e+002, 1.279495e+002
2.025985e+002, 1.279925e+002
2.030806e+002, 1.284318e+002
2.035627e+002, 1.290224e+002
2.040449e+002, 1.288892e+002
2.045270e+002, 1.278735e+002
2.050091e+002, 1.266526e+002
2.054912e+002, 1.256154e+002
2.059733e+002, 1.247408e+002
2.064554e+002, 1.242258e+002
2.069376e+002, 1.242642e+002
2.074197e+002, 1.246308e+002
2.079018e+002, 1.243911e+002
2.083839e+002, 1.233488e+002
2.088660e+002, 1.221980e+002
2.093481e+002, 1.214524e+002
2.098303e+002, 1.212097e+002
2.103124e+002, 1.209100e+002
2.107945e+002, 1.204501e+002
2.112766e+002, 1.198987e+002
2.117587e+002, 1.195448e+002
2.122408e+002, 1.194723e+002
2.127230e+002, 1.194208e+002
2.132051e+002, 1.191451e+002
2.136872e+002, 1.184766e+002
2.141693e+002, 1.182036e+002
2.146514e+002, 1.185898e+002
2.151335e+002, 1.194323e+002
2.156157e+002, 1.197249e+002
2.160978e+002, 1.192390e+002
2.165799e+002, 1.186221e+002
2.170620e+002, 1.182788e+002
2.175441e+002, 1.182588e+002
2.180262e+002, 1.183884e+002
2.185084e+002, 1.187535e+002
2.189905e+002, 1.192636e+002
2.194726e+002, 1.194307e+002
2.199547e+002, 1.191254e+002
2.204368e+002, 1.187065e+002
2.209189e+002, 1.183967e+002
2.214011e+002, 1.182142e+002
2.218832e+002, 1.180964e+002
2.223653e+002, 1.180533e+002
2.228474e+002, 1.180734e+002
2.233295e+002, 1.181001e+002
2.238116e+002, 1.181302e+002
2.242938e+002, 1.181726e+002
2.247759e+002, 1.182360e+002
2.252580e+002, 1.183330e+002
2.257401e+002, 1.184115e+002
2.262222e+002, 1.184356e+002
2.267043e+002, 1.184364e+002
2.271865e+002, 1.185544e+002
2.276686e+002, 1.188201e+002
2.281507e+002, 1.191515e+002
2.286328e+002, 1.195361e+002
2.291149e+002, 1.201077e+002
2.295970e+002, 1.203965e+002
2.300792e+002, 1.202340e+002
2.305613e+002, 1.197683e+002
2.310434e+002, 1.196018e+002
2.315255e+002, 1.198894e+002
2.320076e+002, 1.202535e+002
2.324897e+002, 1.204784e+002
2.329719e+002, 1.204519e+002
2.334540e+002, 1.205420e+002
2.339361e+002, 1.207692e+002
2.344182e+002, 1.211254e+002
2.349003e+002, 1.216260e+002
2.353824e+002, 1.225013e+002
2.358646e+002, 1.231924e+002
2.363467e+002, 1.233300e+002
2.368288e+002, 1.223894e+002
2.373109e+002, 1.220948e+002
2.377930e+002, 1.227757e+002
2.382751e+002, 1.240842e+002
2.387573e+002, 1.249205e+002
2.392394e+002, 1.249879e+002
2.397215e+002, 1.250060e+002
2.402036e+002, 1.253072e+002
2.406857e+002, 1.260359e+002
2.411678e+002, 1.267242e+002
2.416500e+002, 1.273960e+002
2.421321e+002, 1.280158e+002
2.426142e+002, 1.284790e+002
2.430963e+002, 1.286334e+002
2.435784e+002, 1.288533e+002
2.440605e+002, 1.293300e+002
2.445427e+002, 1.302556e+002
2.450248e+002, 1.309390e+002
2.455069e+002, 1.312624e+002
2.459890e+002, 1.313940e+002
2.464711e+002, 1.317195e+002
2.469532e+002, 1.324117e+002
2.474354e+002, 1.330201e+002
2.479175e+002, 1.333298e+002
2.483996e+002, 1.331941e+002
2.488817e+002, 1.332506e+002
2.493638e+002, 1.335394e+002
2.498459e+002, 1.340003e+002
2.503281e+002, 1.345226e+002
2.508102e+002, 1.351008e+002
2.512923e+002, 1.357577e+002
2.517744e+002, 1.365294e+002
2.522565e+002, 1.374487e+002
2.527386e+002, 1.383035e+002
2.532208e+002, 1.390136e+002
2.537029e+002, 1.397185e+002
2.541850e+002, 1.406845e+002
2.546671e+002, 1.420810e+002
2.551492e+002, 1.434059e+002
2.556313e+002, 1.444492e+002
2.561135e+002, 1.451334e+002
2.565956e+002, 1.460113e+002
2.570777e+002, 1.470692e+002
2.575598e+002, 1.483169e+002
2.580419e+002, 1.498032e+002
2.585240e+002, 1.516184e+002
2.590062e+002, 1.534285e+002
2.594883e+002, 1.551735e+002
2.599704e+002, 1.568262e+002
2.604525e+002, 1.583448e+002
2.609346e+002, 1.596369e+002
2.614167e+002, 1.608874e+002
2.618989e+002, 1.622838e+002
2.623810e+002, 1.637843e+002
2.628631e+002, 1.655224e+002
2.633452e+002, 1.675497e+002
2.638273e+002, 1.698944e+002
2.643094e+002, 1.722670e+002
2.647916e+002, 1.747357e+002
2.652737e+002, 1.771912e+002
2.657558e+002, 1.795073e+002
2.662379e+002, 1.815470e+002
2.667200e+002, 1.838749e+002
2.672021e+002, 1.867209e+002
2.676843e+002, 1.900076e+002
2.681664e+002, 1.930533e+002
2.686485e+002, 1.957518e+002
2.691306e+002, 1.984145e+002
2.696127e+002, 2.014132e+002
2.700948e+002, 2.049507e+002
2.705770e+002, 2.078603e+002
2.710591e+002, 2.098996e+002
2.715412e+002, 2.111388e+002
2.720233e+002, 2.119160e+002
2.725054e+002, 2.121667e+002
2.729875e+002, 2.120815e+002
2.734697e+002, 2.118767e+002
2.739518e+002, 2.116289e+002
2.744339e+002, 2.107281e+002
2.749160e+002, 2.090953e+002
2.753981e+002, 2.067801e+002
2.758802e+002, 2.036476e+002
2.763624e+002, 1.995154e+002
2.768445e+002, 1.954747e+002
2.773266e+002, 1.921981e+002
2.778087e+002, 1.897118e+002
2.782908e+002, 1.876457e+002
2.787729e+002, 1.860252e+002
2.792551e+002, 1.847481e+002
2.797372e+002, 1.835891e+002
2.802193e+002, 1.825163e+002
2.807014e+002, 1.817607e+002
2.811835e+002, 1.815079e+002
2.816656e+002, 1.817519e+002
2.821478e+002, 1.819701e+002
2.826299e+002, 1.819915e+002
2.831120e+002, 1.822834e+002
2.835941e+002, 1.841709e+002
2.840762e+002, 1.877832e+002
2.845583e+002, 1.904714e+002
2.850405e+002, 1.905076e+002
2.855226e+002, 1.882293e+002
2.860047e+002, 1.867609e+002
2.864868e+002, 1.861978e+002
2.869689e+002, 1.861857e+002
2.874510e+002, 1.863793e+002
2.879332e+002, 1.867674e+002
2.884153e+002, 1.871326e+002
2.888974e+002, 1.873953e+002
2.893795e+002, 1.875635e+002
2.898616e+002, 1.875937e+002
2.903438e+002, 1.874556e+002
2.908259e+002, 1.873857e+002
2.913080e+002, 1.875842e+002
2.917901e+002, 1.880552e+002
2.922722e+002, 1.889144e+002
2.927543e+002, 1.907363e+002
2.932365e+002, 1.927178e+002
2.937186e+002, 1.926217e+002
2.942007e+002, 1.904216e+002
2.946828e+002, 1.878125e+002
2.951649e+002, 1.863123e+002
2.956470e+002, 1.856479e+002
2.961292e+002, 1.848404e+002
2.966113e+002, 1.835160e+002
2.970934e+002, 1.820741e+002
2.975755e+002, 1.813117e+002
2.980576e+002, 1.811525e+002
2.985397e+002, 1.808220e+002
2.990219e+002, 1.795576e+002
2.995040e+002, 1.777124e+002
2.999861e+002, 1.760795e+002
3.004682e+002, 1.748748e+002
3.009503e+002, 1.738075e+002
3.014324e+002, 1.724780e+002
3.019146e+002, 1.709612e+002
3.023967e+002, 1.695106e+002
3.028788e+002, 1.683365e+002
3.033609e+002, 1.673208e+002
3.038430e+002, 1.663493e+002
3.043251e+002, 1.654385e+002
3.048073e+002, 1.644481e+002
3.052894e+002, 1.630252e+002
3.057715e+002, 1.613967e+002
3.062536e+002, 1.600766e+002
3.067357e+002, 1.596220e+002
3.072178e+002, 1.594654e+002
3.077000e+002, 1.589669e+002
3.081821e+002, 1.580304e+002
3.086642e+002, 1.571922e+002
3.091463e+002, 1.569151e+002
3.096284e+002, 1.569832e+002
3.101105e+002, 1.570593e+002
3.105927e+002, 1.569149e+002
3.110748e+002, 1.567890e+002
3.115569e+002, 1.568647e+002
3.120390e+002, 1.571468e+002
3.125211e+002, 1.574897e+002
3.130032e+002, 1.577653e+002
3.134854e+002, 1.580810e+002
3.139675e+002, 1.585480e+002
3.144496e+002, 1.591461e+002
3.149317e+002, 1.599563e+002
3.154138e+002, 1.611055e+002
3.158959e+002, 1.625484e+002
3.163781e+002, 1.640309e+002
3.168602e+002, 1.653145e+002
3.173423e+002, 1.666568e+002
3.178244e+002, 1.682464e+002
3.183065e+002, 1.701973e+002
3.187886e+002, 1.722941e+002
3.192708e+002, 1.745435e+002
3.197529e+002, 1.768858e+002
3.202350e+002, 1.791624e+002
3.207171e+002, 1.813979e+002
3.211992e+002, 1.834729e+002
3.216813e+002, 1.852931e+002
3.221635e+002, 1.867273e+002
3.226456e+002, 1.881734e+002
3.231277e+002, 1.898115e+002
3.236098e+002, 1.914892e+002
3.240919e+002, 1.929583e+002
3.245740e+002, 1.942405e+002
3.250562e+002, 1.952318e+002
3.255383e+002, 1.958384e+002
3.260204e+002, 1.959617e+002
3.265025e+002, 1.960942e+002
3.269846e+002, 1.960655e+002
3.274667e+002, 1.961461e+002
3.279489e+002, 1.966276e+002
3.284310e+002, 1.982127e+002
3.289131e+002, 1.994191e+002
3.293952e+002, 1.999322e+002
3.298773e+002, 1.997366e+002
3.303594e+002, 1.995842e+002
3.308416e+002, 1.994481e+002
3.313237e+002, 1.993811e+002
3.318058e+002, 1.994362e+002
3.322879e+002, 1.997606e+002
3.327700e+002, 1.999476e+002
3.332521e+002, 1.998986e+002
3.337343e+002, 1.996751e+002
3.342164e+002, 1.995764e+002
3.346985e+002, 1.996145e+002
3.351806e+002, 1.997545e+002
3.356627e+002, 1.998704e+002
3.361448e+002, 1.996623e+002
3.366270e+002, 2.003761e+002
3.371091e+002, 2.021982e+002
3.375912e+002, 2.048291e+002
3.380733e+002, 2.077825e+002
3.385554e+002, 2.111174e+002
3.390375e+002, 2.144886e+002
3.395197e+002, 2.176747e+002
3.400018e+002, 2.206128e+002
3.404839e+002, 2.240291e+002
3.409660e+002, 2.278286e+002
3.414481e+002, 2.321720e+002
3.419302e+002, 2.373385e+002
3.424124e+002, 2.434338e+002
3.428945e+002, 2.494654e+002
3.433766e+002, 2.550461e+002
3.438587e+002, 2.603405e+002
3.443408e+002, 2.664729e+002
3.448229e+002, 2.734953e+002
3.453051e+002, 2.808004e+002
3.457872e+002, 2.878277e+002
3.462693e+002, 2.946021e+002
3.467514e+002, 3.015789e+002
3.472335e+002, 3.088540e+002
3.477156e+002, 3.162802e+002
3.481978e+002, 3.235712e+002
3.486799e+002, 3.307061e+002
3.491620e+002, 3.373857e+002
3.496441e+002, 3.433597e+002
3.501262e+002, 3.487390e+002
3.506083e+002, 3.537609e+002
3.510905e+002, 3.585092e+002
3.515726e+002, 3.628980e+002
3.520547e+002, 3.666754e+002
3.525368e+002, 3.699953e+002
3.530189e+002, 3.733247e+002
3.535010e+002, 3.769857e+002
3.539832e+002, 3.807420e+002
3.544653e+002, 3.844137e+002
3.549474e+002, 3.880356e+002
3.554295e+002, 3.912301e+002
3.559116e+002, 3.932073e+002
3.563937e+002, 3.946837e+002
3.568759e+002, 3.967131e+002
3.573580e+002, 4.008779e+002
3.578401e+002, 4.047499e+002
3.583222e+002, 4.066821e+002
3.588043e+002, 4.068347e+002
3.592864e+002, 4.060437e+002
3.597686e+002, 4.047243e+002
3.602507e+002, 4.026623e+002
3.607328e+002, 3.996935e+002
3.612149e+002, 3.957105e+002
3.616970e+002, 3.909066e+002
3.621791e+002, 3.852103e+002
3.626613e+002, 3.787388e+002
3.631434e+002, 3.717661e+002
3.636255e+002, 3.640714e+002
3.641076e+002, 3.561349e+002
3.645897e+002, 3.480849e+002
3.650718e+002, 3.400614e+002
3.655540e+002, 3.320450e+002
3.660361e+002, 3.239905e+002
3.665182e+002, 3.159687e+002
3.670003e+002, 3.080648e+002
3.674824e+002, 2.998470e+002
3.679645e+002, 2.922101e+002
3.684467e+002, 2.852853e+002
3.689288e+002, 2.791961e+002
3.694109e+002, 2.737510e+002
3.698930e+002, 2.692524e+002
3.703751e+002, 2.651726e+002
3.708572e+002, 2.611594e+002
3.713394e+002, 2.572907e+002
3.718215e+002, 2.534185e+002
3.723036e+002, 2.493707e+002
3.727857e+002, 2.453160e+002
3.732678e+002, 2.418267e+002
3.737499e+002, 2.390180e+002
3.742321e+002, 2.365077e+002
3.747142e+002, 2.341661e+002
3.751963e+002, 2.319908e+002
3.756784e+002, 2.299410e+002
3.761605e+002, 2.280854e+002
3.766426e+002, 2.262759e+002
3.771248e+002, 2.243145e+002
3.776069e+002, 2.221366e+002
3.780890e+002, 2.200621e+002
3.785711e+002, 2.182139e+002
3.790532e+002, 2.165637e+002
3.795353e+002, 2.150789e+002
3.800175e+002, 2.137821e+002
3.804996e+002, 2.124724e+002
3.809817e+002, 2.109552e+002
3.814638e+002, 2.092515e+002
3.819459e+002, 2.074249e+002
3.824280e+002, 2.054161e+002
3.829102e+002, 2.034119e+002
3.833923e+002, 2.017788e+002
3.838744e+002, 2.004975e+002
3.843565e+002, 1.995241e+002
3.848386e+002, 1.993903e+002
3.853207e+002, 1.994594e+002
3.858029e+002, 1.981676e+002
3.862850e+002, 1.951247e+002
3.867671e+002, 1.919281e+002
3.872492e+002, 1.902939e+002
3.877313e+002, 1.897502e+002
3.882134e+002, 1.892592e+002
3.886956e+002, 1.882508e+002
3.891777e+002, 1.871569e+002
3.896598e+002, 1.864595e+002
3.901419e+002, 1.861391e+002
3.906240e+002, 1.856884e+002
3.911061e+002, 1.845972e+002
3.915883e+002, 1.832976e+002
3.920704e+002, 1.822338e+002
3.925525e+002, 1.815530e+002
3.930346e+002, 1.811003e+002
3.935167e+002, 1.809075e+002
3.939988e+002, 1.808945e+002
3.944810e+002, 1.808313e+002
3.949631e+002, 1.809037e+002
3.954452e+002, 1.807000e+002
3.959273e+002, 1.799099e+002
3.964094e+002, 1.782472e+002
3.968915e+002, 1.768019e+002
3.973737e+002, 1.758223e+002
3.978558e+002, 1.751473e+002
3.983379e+002, 1.745786e+002
3.988200e+002, 1.741509e+002
3.993021e+002, 1.737672e+002
3.997842e+002, 1.734546e+002
4.002664e+002, 1.732107e+002
4.007485e+002, 1.728157e+002
4.012306e+002, 1.721610e+002
4.017127e+002, 1.714619e+002
4.021948e+002, 1.708501e+002
4.026769e+002, 1.703339e+002
4.031591e+002, 1.698871e+002
4.036412e+002, 1.695240e+002
4.041233e+002, 1.692224e+002
4.046054e+002, 1.688959e+002
4.050875e+002, 1.684993e+002
4.055696e+002, 1.682234e+002
4.060518e+002, 1.681753e+002
4.065339e+002, 1.683627e+002
4.070160e+002, 1.685189e+002
4.074981e+002, 1.686001e+002
4.079802e+002, 1.687771e+002
4.084623e+002, 1.692433e+002
4.089445e+002, 1.700019e+002
4.094266e+002, 1.709939e+002
4.099087e+002, 1.723179e+002
4.103908e+002, 1.737737e+002
4.108729e+002, 1.747238e+002
4.113550e+002, 1.751964e+002
4.118372e+002, 1.758732e+002
4.123193e+002, 1.774667e+002
4.128014e+002, 1.796190e+002
4.132835e+002, 1.814568e+002
4.137656e+002, 1.828142e+002
4.142477e+002, 1.841030e+002
4.147299e+002, 1.856645e+002
4.152120e+002, 1.874900e+002
4.156941e+002, 1.895151e+002
4.161762e+002, 1.918134e+002
4.166583e+002, 1.942507e+002
4.171404e+002, 1.966933e+002
4.176226e+002, 1.991588e+002
4.181047e+002, 2.017124e+002
4.185868e+002, 2.045688e+002
4.190689e+002, 2.074636e+002
4.195510e+002, 2.102097e+002
4.200331e+002, 2.129179e+002
4.205153e+002, 2.152151e+002
4.209974e+002, 2.170101e+002
4.214795e+002, 2.182762e+002
4.219616e+002, 2.188598e+002
4.224437e+002, 2.184233e+002
4.229258e+002, 2.175695e+002
4.234080e+002, 2.165726e+002
4.238901e+002, 2.155208e+002
4.243722e+002, 2.140623e+002
4.248543e+002, 2.121198e+002
4.253364e+002, 2.097861e+002
4.258185e+002, 2.071333e+002
4.263007e+002, 2.037119e+002
4.267828e+002, 2.005964e+002
4.272649e+002, 1.980744e+002
4.277470e+002, 1.960381e+002
4.282291e+002, 1.936221e+002
4.287112e+002, 1.904910e+002
4.291934e+002, 1.875918e+002
4.296755e+002, 1.855139e+002
4.301576e+002, 1.844950e+002
4.306397e+002, 1.830584e+002
4.311218e+002, 1.809789e+002
4.316039e+002, 1.787752e+002
4.320861e+002, 1.772680e+002
4.325682e+002, 1.764939e+002
4.330503e+002, 1.759395e+002
4.335324e+002, 1.754576e+002
4.340145e+002, 1.750477e+002
4.344966e+002, 1.747149e+002
4.349788e+002, 1.744616e+002
4.354609e+002, 1.742605e+002
4.359430e+002, 1.740578e+002
4.364251e+002, 1.738880e+002
4.369072e+002, 1.738883e+002
4.373893e+002, 1.741608e+002
4.378715e+002, 1.744108e+002
4.383536e+002, 1.741984e+002
4.388357e+002, 1.736732e+002
4.393178e+002, 1.732534e+002
4.397999e+002, 1.732370e+002
4.402820e+002, 1.733679e+002
4.407642e+002, 1.734487e+002
4.412463e+002, 1.734665e+002
4.417284e+002, 1.733903e+002
4.422105e+002, 1.730346e+002
4.426926e+002, 1.726503e+002
4.431747e+002, 1.724872e+002
4.436569e+002, 1.728902e+002
4.441390e+002, 1.731844e+002
4.446211e+002, 1.731405e+002
4.451032e+002, 1.728252e+002
4.455853e+002, 1.724333e+002
4.460674e+002, 1.718432e+002
4.465496e+002, 1.713236e+002
4.470317e+002, 1.709883e+002
4.475138e+002, 1.708928e+002
4.479959e+002, 1.708223e+002
4.484780e+002, 1.707379e+002
4.489601e+002, 1.707124e+002
4.494423e+002, 1.708517e+002
4.499244e+002, 1.713487e+002
4.504065e+002, 1.716012e+002
4.508886e+002, 1.714412e+002
4.513707e+002, 1.709755e+002
4.518528e+002, 1.706486e+002
4.523350e+002, 1.704816e+002
4.528171e+002, 1.703804e+002
4.532992e+002, 1.703780e+002
4.537813e+002, 1.704759e+002
4.542634e+002, 1.701573e+002
4.547455e+002, 1.693032e+002
4.552277e+002, 1.683591e+002
4.557098e+002, 1.680346e+002
4.561919e+002, 1.682141e+002
4.566740e+002, 1.680749e+002
4.571561e+002, 1.672201e+002
4.576382e+002, 1.660046e+002
4.581204e+002, 1.649963e+002
4.586025e+002, 1.641813e+002
4.590846e+002, 1.635188e+002
4.595667e+002, 1.630180e+002
4.600488e+002, 1.626325e+002
4.605309e+002, 1.622535e+002
4.610131e+002, 1.618212e+002
4.614952e+002, 1.616169e+002
4.619773e+002, 1.621969e+002
4.624594e+002, 1.630534e+002
4.629415e+002, 1.634480e+002
4.634236e+002, 1.625097e+002
4.639058e+002, 1.615998e+002
4.643879e+002, 1.613810e+002
4.648700e+002, 1.617950e+002
4.653521e+002, 1.621370e+002
4.658342e+002, 1.621386e+002
4.663163e+002, 1.620921e+002
4.667985e+002, 1.621729e+002
4.672806e+002, 1.625531e+002
4.677627e+002, 1.627685e+002
4.682448e+002, 1.628758e+002
4.687269e+002, 1.627849e+002
4.692090e+002, 1.623483e+002
4.696912e+002, 1.613940e+002
4.701733e+002, 1.603902e+002
4.706554e+002, 1.594130e+002
4.711375e+002, 1.584670e+002
4.716196e+002, 1.576386e+002
4.721017e+002, 1.569953e+002
4.725839e+002, 1.562764e+002
4.730660e+002, 1.552728e+002
4.735481e+002, 1.539866e+002
4.740302e+002, 1.525895e+002
4.745123e+002, 1.510498e+002
4.749944e+002, 1.495292e+002
4.754766e+002, 1.483290e+002
4.759587e+002, 1.474000e+002
4.764408e+002, 1.464113e+002
4.769229e+002, 1.451734e+002
4.774050e+002, 1.438460e+002
4.778871e+002, 1.427475e+002
4.783693e+002, 1.418509e+002
4.788514e+002, 1.409046e+002
4.793335e+002, 1.395163e+002
4.798156e+002, 1.380649e+002
4.802977e+002, 1.370647e+002
4.807798e+002, 1.367165e+002
4.812620e+002, 1.364431e+002
4.817441e+002, 1.358954e+002
4.822262e+002, 1.352115e+002
4.827083e+002, 1.345957e+002
4.831904e+002, 1.341234e+002
4.836725e+002, 1.337163e+002
4.841547e+002, 1.333904e+002
4.846368e+002, 1.331340e+002
4.851189e+002, 1.328025e+002
4.856010e+002, 1.322612e+002
4.860831e+002, 1.317271e+002
4.865652e+002, 1.313199e+002
4.870474e+002, 1.311261e+002
4.875295e+002, 1.308667e+002
4.880116e+002, 1.305281e+002
4.884937e+002, 1.301371e+002
4.889758e+002, 1.297080e+002
4.894579e+002, 1.291990e+002
4.899401e+002, 1.287814e+002
4.904222e+002, 1.285099e+002
4.909043e+002, 1.283584e+002
4.913864e+002, 1.281803e+002
4.918685e+002, 1.279635e+002
4.923506e+002, 1.278023e+002
4.928328e+002, 1.278739e+002
4.933149e+002, 1.280853e+002
4.937970e+002, 1.279573e+002
4.942791e+002, 1.274097e+002
4.947612e+002, 1.267497e+002
4.952433e+002, 1.262988e+002
4.957255e+002, 1.260072e+002
4.962076e+002, 1.257376e+002
4.966897e+002, 1.253877e+002
4.971718e+002, 1.250914e+002
4.976539e+002, 1.250058e+002
4.981360e+002, 1.250962e+002
4.986182e+002, 1.252270e+002
4.991003e+002, 1.255155e+002
4.995824e+002, 1.256892e+002
5.000645e+002, 1.254766e+002
5.005466e+002, 1.247305e+002
5.010287e+002, 1.241330e+002
5.015109e+002, 1.240138e+002
5.019930e+002, 1.240768e+002
5.024751e+002, 1.240282e+002
5.029572e+002, 1.235987e+002
5.034393e+002, 1.233371e+002
5.039214e+002, 1.234319e+002
5.044036e+002, 1.237463e+002
5.048857e+002, 1.237860e+002
5.053678e+002, 1.233966e+002
5.058499e+002, 1.229979e+002
5.063320e+002, 1.227410e+002
5.068141e+002, 1.226282e+002
5.072963e+002, 1.226718e+002
5.077784e+002, 1.229345e+002
5.082605e+002, 1.231895e+002
5.087426e+002, 1.232057e+002
5.092247e+002, 1.229927e+002
5.097068e+002, 1.226352e+002
5.101890e+002, 1.220301e+002
5.106711e+002, 1.215092e+002
5.111532e+002, 1.215888e+002
5.116353e+002, 1.222446e+002
5.121174e+002, 1.233434e+002
5.125995e+002, 1.261284e+002
5.130817e+002, 1.286230e+002
5.135638e+002, 1.277663e+002
5.140459e+002, 1.236647e+002
5.145280e+002, 1.197576e+002
5.150101e+002, 1.182349e+002
5.154922e+002, 1.179187e+002
5.159744e+002, 1.177705e+002
5.164565e+002, 1.176437e+002
5.169386e+002, 1.175109e+002
5.174207e+002, 1.173423e+002
5.179028e+002, 1.171676e+002
5.183849e+002, 1.170347e+002
5.188671e+002, 1.170680e+002
5.193492e+002, 1.170174e+002
5.198313e+002, 1.168039e+002
5.203134e+002, 1.164403e+002
5.207955e+002, 1.160849e+002
5.212776e+002, 1.157084e+002
5.217598e+002, 1.153797e+002
5.222419e+002, 1.151558e+002
5.227240e+002, 1.150611e+002
5.232061e+002, 1.149040e+002
5.236882e+002, 1.146329e+002
5.241703e+002, 1.144020e+002
5.246525e+002, 1.141848e+002
5.251346e+002, 1.140277e+002
5.256167e+002, 1.149008e+002
5.260988e+002, 1.176113e+002
5.265809e+002, 1.208466e+002
5.270630e+002, 1.223395e+002
5.275452e+002, 1.221918e+002
5.280273e+002, 1.210600e+002
5.285094e+002, 1.184201e+002
5.289915e+002, 1.154914e+002
5.294736e+002, 1.136712e+002
5.299557e+002, 1.130781e+002
5.304379e+002, 1.129262e+002
5.309200e+002, 1.130274e+002
5.314021e+002, 1.131914e+002
5.318842e+002, 1.132166e+002
5.323663e+002, 1.128195e+002
5.328484e+002, 1.126144e+002
5.333306e+002, 1.129432e+002
5.338127e+002, 1.135535e+002
5.342948e+002, 1.139027e+002
5.347769e+002, 1.136417e+002
5.352590e+002, 1.134774e+002
5.357411e+002, 1.136252e+002
5.362233e+002, 1.140714e+002
5.367054e+002, 1.143384e+002
5.371875e+002, 1.143910e+002
5.376696e+002, 1.143327e+002
5.381517e+002, 1.141992e+002
5.386339e+002, 1.139826e+002
5.391160e+002, 1.138097e+002
5.395981e+002, 1.136690e+002
5.400802e+002, 1.136308e+002
5.405623e+002, 1.138798e+002
5.410444e+002, 1.143524e+002
5.415266e+002, 1.146858e+002
5.420087e+002, 1.147071e+002
5.424908e+002, 1.146004e+002
5.429729e+002, 1.146190e+002
5.434550e+002, 1.147367e+002
5.439371e+002, 1.148510e+002
5.444193e+002, 1.147791e+002
5.449014e+002, 1.147625e+002
5.453835e+002, 1.151463e+002
5.458656e+002, 1.159919e+002
5.463477e+002, 1.165001e+002
5.468298e+002, 1.159166e+002
5.473120e+002, 1.150988e+002
5.477941e+002, 1.147614e+002
5.482762e+002, 1.154765e+002
5.487583e+002, 1.160432e+002
5.492404e+002, 1.163817e+002
5.497225e+002, 1.165171e+002
5.502047e+002, 1.164595e+002
5.506868e+002, 1.160623e+002
5.511689e+002, 1.157484e+002
5.516510e+002, 1.155981e+002
5.521331e+002, 1.156156e+002
5.526152e+002, 1.159155e+002
5.530974e+002, 1.165713e+002
5.535795e+002, 1.171522e+002
5.540616e+002, 1.172889e+002
5.545437e+002, 1.170741e+002
5.550258e+002, 1.170565e+002
5.555079e+002, 1.172853e+002
5.559901e+002, 1.175794e+002
5.564722e+002, 1.177808e+002
5.569543e+002, 1.179067e+002
5.574364e+002, 1.179725e+002
5.579185e+002, 1.178938e+002
5.584006e+002, 1.179009e+002
5.588828e+002, 1.182580e+002
5.593649e+002, 1.188386e+002
5.598470e+002, 1.193587e+002
5.603291e+002, 1.196989e+002
5.608112e+002, 1.199520e+002
5.612933e+002, 1.201191e+002
5.617755e+002, 1.201992e+002
5.622576e+002, 1.203490e+002
5.627397e+002, 1.205853e+002
5.632218e+002, 1.208978e+002
5.637039e+002, 1.213205e+002
5.641860e+002, 1.220174e+002
5.646682e+002, 1.223559e+002
5.651503e+002, 1.221473e+002
5.656324e+002, 1.218240e+002
5.661145e+002, 1.219684e+002
5.665966e+002, 1.226286e+002
5.670787e+002, 1.233805e+002
5.675609e+002, 1.242388e+002
5.680430e+002, 1.250113e+002
5.685251e+002, 1.250947e+002
5.690072e+002, 1.245831e+002
5.694893e+002, 1.242132e+002
5.699714e+002, 1.245005e+002
5.704536e+002, 1.251161e+002
5.709357e+002, 1.256393e+002
5.714178e+002, 1.260563e+002
5.718999e+002, 1.263742e+002
5.723820e+002, 1.264239e+002
5.728641e+002, 1.264692e+002
5.733463e+002, 1.267821e+002
5.738284e+002, 1.275529e+002
5.743105e+002, 1.282066e+002
5.747926e+002, 1.284340e+002
5.752747e+002, 1.284978e+002
5.757568e+002, 1.287306e+002
5.762390e+002, 1.294008e+002
5.767211e+002, 1.299181e+002
5.772032e+002, 1.301680e+002
5.776853e+002, 1.302231e+002
5.781674e+002, 1.303229e+002
5.786495e+002, 1.304829e+002
5.791317e+002, 1.306401e+002
5.796138e+002, 1.307243e+002
5.800959e+002, 1.307663e+002
5.805780e+002, 1.310891e+002
5.810601e+002, 1.317248e+002
5.815422e+002, 1.323264e+002
5.820244e+002, 1.326614e+002
5.825065e+002, 1.327366e+002
5.829886e+002, 1.324727e+002
5.834707e+002, 1.317831e+002
5.839528e+002, 1.311688e+002
5.844349e+002, 1.311747e+002
5.849171e+002, 1.315205e+002
5.853992e+002, 1.317916e+002
5.858813e+002, 1.318945e+002
5.863634e+002, 1.318360e+002
5.868455e+002, 1.314008e+002
5.873276e+002, 1.307855e+002
5.878098e+002, 1.305491e+002
5.882919e+002, 1.313360e+002
5.887740e+002, 1.319624e+002
5.892561e+002, 1.319885e+002
5.897382e+002, 1.313991e+002
5.902203e+002, 1.311238e+002
5.907025e+002, 1.313562e+002
5.911846e+002, 1.315593e+002
5.916667e+002, 1.312908e+002
5.921488e+002, 1.304943e+002
5.926309e+002, 1.300764e+002
5.931130e+002, 1.301198e+002
5.935952e+002, 1.303423e+002
5.940773e+002, 1.304488e+002
5.945594e+002, 1.304529e+002
5.950415e+002, 1.303889e+002
5.955236e+002, 1.302291e+002
5.960057e+002, 1.300794e+002
5.964879e+002, 1.300639e+002
5.969700e+002, 1.301514e+002
5.974521e+002, 1.302684e+002
5.979342e+002, 1.304586e+002
5.984163e+002, 1.306007e+002
5.988984e+002, 1.305572e+002
5.993806e+002, 1.303596e+002
5.998627e+002, 1.303074e+002
6.003448e+002, 1.306793e+002
6.008269e+002, 1.310290e+002
6.013090e+002, 1.311036e+002
6.017911e+002, 1.307659e+002
6.022733e+002, 1.307176e+002
6.027554e+002, 1.311133e+002
6.032375e+002, 1.315802e+002
6.037196e+002, 1.317026e+002
6.042017e+002, 1.314260e+002
6.046838e+002, 1.314179e+002
6.051660e+002, 1.318244e+002
6.056481e+002, 1.323727e+002
6.061302e+002, 1.326478e+002
6.066123e+002, 1.326792e+002
6.070944e+002, 1.325911e+002
6.075765e+002, 1.323162e+002
6.080587e+002, 1.320580e+002
6.085408e+002, 1.321014e+002
6.090229e+002, 1.323745e+002
6.095050e+002, 1.326225e+002
6.099871e+002, 1.326369e+002
6.104692e+002, 1.326440e+002
6.109514e+002, 1.328168e+002
6.114335e+002, 1.331796e+002
6.119156e+002, 1.334418e+002
6.123977e+002, 1.328623e+002
6.128798e+002, 1.327008e+002
6.133619e+002, 1.338542e+002
6.138441e+002, 1.375723e+002
6.143262e+002, 1.395758e+002
6.148083e+002, 1.394908e+002
6.152904e+002, 1.382353e+002
6.157725e+002, 1.366347e+002
6.162546e+002, 1.346275e+002
6.167368e+002, 1.334479e+002
6.172189e+002, 1.335196e+002
6.177010e+002, 1.341893e+002
6.181831e+002, 1.342379e+002
6.186652e+002, 1.338272e+002
6.191473e+002, 1.336084e+002
6.196295e+002, 1.342940e+002
6.201116e+002, 1.350555e+002
6.205937e+002, 1.349084e+002
6.210758e+002, 1.340211e+002
6.215579e+002, 1.332348e+002
6.220400e+002, 1.329054e+002
6.225222e+002, 1.328576e+002
6.230043e+002, 1.330650e+002
6.234864e+002, 1.335878e+002
6.239685e+002, 1.339948e+002
6.244506e+002, 1.342987e+002
6.249327e+002, 1.344291e+002
6.254149e+002, 1.342920e+002
6.258970e+002, 1.337304e+002
6.263791e+002, 1.333878e+002
6.268612e+002, 1.333269e+002
6.273433e+002, 1.334196e+002
6.278254e+002, 1.335188e+002
6.283076e+002, 1.336223e+002
6.287897e+002, 1.336829e+002
6.292718e+002, 1.336806e+002
6.297539e+002, 1.336438e+002
6.302360e+002, 1.336572e+002
6.307181e+002, 1.336825e+002
6.312003e+002, 1.335963e+002
6.316824e+002, 1.332215e+002
6.321645e+002, 1.328020e+002
6.326466e+002, 1.325747e+002
6.331287e+002, 1.325007e+002
6.336108e+002, 1.323195e+002
6.340930e+002, 1.317290e+002
6.345751e+002, 1.311837e+002
6.350572e+002, 1.309962e+002
6.355393e+002, 1.313094e+002
6.360214e+002, 1.312528e+002
6.365035e+002, 1.305915e+002
6.369857e+002, 1.298445e+002
6.374678e+002, 1.293948e+002
6.379499e+002, 1.292650e+002
6.384320e+002, 1.293408e+002
6.389141e+002, 1.297076e+002
6.393962e+002, 1.300150e+002
6.398784e+002, 1.296449e+002
6.403605e+002, 1.287656e+002
6.408426e+002, 1.281228e+002
6.413247e+002, 1.280463e+002
6.418068e+002, 1.280708e+002
6.422889e+002, 1.276496e+002
6.427711e+002, 1.269418e+002
6.432532e+002, 1.262968e+002
6.437353e+002, 1.258964e+002
6.442174e+002, 1.255777e+002
6.446995e+002, 1.253492e+002
6.451816e+002, 1.251730e+002
6.456638e+002, 1.248109e+002
6.461459e+002, 1.239771e+002
6.466280e+002, 1.232069e+002
6.471101e+002, 1.226672e+002
6.475922e+002, 1.223687e+002
6.480743e+002, 1.222032e+002
6.485565e+002, 1.222301e+002
6.490386e+002, 1.222349e+002
6.495207e+002, 1.220843e+002
6.500028e+002, 1.217766e+002
6.504849e+002, 1.211906e+002
6.509670e+002, 1.202680e+002
6.514492e+002, 1.194362e+002
6.519313e+002, 1.192977e+002
6.524134e+002, 1.195578e+002
6.528955e+002, 1.196648e+002
6.533776e+002, 1.194525e+002
6.538597e+002, 1.191275e+002
6.543419e+002, 1.186965e+002
6.548240e+002, 1.182675e+002
6.553061e+002, 1.180133e+002
6.557882e+002, 1.182762e+002
6.562703e+002, 1.183834e+002
6.567524e+002, 1.181110e+002
6.572346e+002, 1.175789e+002
6.577167e+002, 1.171076e+002
6.581988e+002, 1.166502e+002
6.586809e+002, 1.163687e+002
6.591630e+002, 1.163517e+002
6.596451e+002, 1.165588e+002
6.601273e+002, 1.168178e+002
6.606094e+002, 1.171408e+002
6.610915e+002, 1.172978e+002
6.615736e+002, 1.170296e+002
6.620557e+002, 1.165170e+002
6.625378e+002, 1.160835e+002
6.630200e+002, 1.157457e+002
6.635021e+002, 1.155119e+002
6.639842e+002, 1.153486e+002
6.644663e+002, 1.153136e+002
6.649484e+002, 1.155495e+002
6.654305e+002, 1.163139e+002
6.659127e+002, 1.166594e+002
6.663948e+002, 1.158995e+002
6.668769e+002, 1.148557e+002
6.673590e+002, 1.143806e+002
6.678411e+002, 1.148373e+002
6.683232e+002, 1.151168e+002
6.688054e+002, 1.151026e+002
6.692875e+002, 1.149145e+002
6.697696e+002, 1.147139e+002
6.702517e+002, 1.144984e+002
6.707338e+002, 1.144161e+002
6.712159e+002, 1.145960e+002
6.716981e+002, 1.148194e+002
6.721802e+002, 1.145758e+002
6.726623e+002, 1.140142e+002
6.731444e+002, 1.136609e+002
6.736265e+002, 1.140840e+002
6.741086e+002, 1.145835e+002
6.745908e+002, 1.146259e+002
6.750729e+002, 1.142569e+002
6.755550e+002, 1.138585e+002
6.760371e+002, 1.133783e+002
6.765192e+002, 1.130542e+002
6.770013e+002, 1.130389e+002
6.774835e+002, 1.133682e+002
6.779656e+002, 1.135844e+002
6.784477e+002, 1.136330e+002
6.789298e+002, 1.136709e+002
6.794119e+002, 1.138527e+002
6.798940e+002, 1.141818e+002
6.803762e+002, 1.142885e+002
6.808583e+002, 1.141443e+002
6.813404e+002, 1.138880e+002
6.818225e+002, 1.135910e+002
6.823046e+002, 1.132979e+002
6.827867e+002, 1.131058e+002
6.832689e+002, 1.130566e+002
6.837510e+002, 1.130418e+002
6.842331e+002, 1.130356e+002
6.847152e+002, 1.130012e+002
6.851973e+002, 1.128923e+002
6.856794e+002, 1.125175e+002
6.861616e+002, 1.122817e+002
6.866437e+002, 1.123146e+002
6.871258e+002, 1.125172e+002
6.876079e+002, 1.127472e+002
6.880900e+002, 1.130697e+002
6.885721e+002, 1.132247e+002
6.890543e+002, 1.130704e+002
6.895364e+002, 1.127563e+002
6.900185e+002, 1.127903e+002
6.905006e+002, 1.131572e+002
6.909827e+002, 1.134339e+002
6.914648e+002, 1.132824e+002
6.919470e+002, 1.129729e+002
6.924291e+002, 1.129723e+002
6.929112e+002, 1.132230e+002
6.933933e+002, 1.134062e+002
6.938754e+002, 1.133233e+002
6.943575e+002, 1.131338e+002
6.948397e+002, 1.128702e+002
6.953218e+002, 1.125167e+002
6.958039e+002, 1.124060e+002
6.962860e+002, 1.128893e+002
6.967681e+002, 1.133305e+002
6.972502e+002, 1.133746e+002
6.977324e+002, 1.129061e+002
6.982145e+002, 1.126254e+002
6.986966e+002, 1.125677e+002
6.991787e+002, 1.126005e+002
6.996608e+002, 1.125895e+002
7.001429e+002, 1.125535e+002
7.006251e+002, 1.126083e+002
7.011072e+002, 1.127868e+002
7.015893e+002, 1.129482e+002
7.020714e+002, 1.128879e+002
7.025535e+002, 1.127390e+002
7.030356e+002, 1.127062e+002
7.035178e+002, 1.129312e+002
7.039999e+002, 1.131318e+002
7.044820e+002, 1.131368e+002
7.049641e+002, 1.130681e+002
7.054462e+002, 1.131214e+002
7.059283e+002, 1.133917e+002
7.064105e+002, 1.136513e+002
7.068926e+002, 1.138948e+002
7.073747e+002, 1.140992e+002
7.078568e+002, 1.141887e+002
7.083389e+002, 1.141541e+002
7.088210e+002, 1.141539e+002
7.093032e+002, 1.142934e+002
7.097853e+002, 1.144524e+002
7.102674e+002, 1.142937e+002
7.107495e+002, 1.139055e+002
7.112316e+002, 1.136633e+002
7.117137e+002, 1.139049e+002
7.121959e+002, 1.142579e+002
7.126780e+002, 1.144680e+002
7.131601e+002, 1.145425e+002
7.136422e+002, 1.145923e+002
7.141243e+002, 1.145406e+002
7.146064e+002, 1.145783e+002
7.150886e+002, 1.147970e+002
7.155707e+002, 1.152035e+002
7.160528e+002, 1.156185e+002
7.165349e+002, 1.160858e+002
7.170170e+002, 1.164596e+002
7.174991e+002, 1.166147e+002
7.179813e+002, 1.165781e+002
7.184634e+002, 1.165306e+002
7.189455e+002, 1.164702e+002
7.194276e+002, 1.165360e+002
7.199097e+002, 1.169322e+002
7.203918e+002, 1.174911e+002
7.208740e+002, 1.180060e+002
7.213561e+002, 1.184615e+002
7.218382e+002, 1.188013e+002
7.223203e+002, 1.188241e+002
7.228024e+002, 1.188238e+002
7.232845e+002, 1.190630e+002
7.237667e+002, 1.196862e+002
7.242488e+002, 1.203575e+002
7.247309e+002, 1.211593e+002
7.252130e+002, 1.219277e+002
7.256951e+002, 1.224466e+002
7.261772e+002, 1.226967e+002
7.266594e+002, 1.229548e+002
7.271415e+002, 1.232438e+002
7.276236e+002, 1.235920e+002
7.281057e+002, 1.241566e+002
7.285878e+002, 1.248146e+002
7.290699e+002, 1.252367e+002
7.295521e+002, 1.251948e+002
7.300342e+002, 1.250806e+002
7.305163e+002, 1.250499e+002
7.309984e+002, 1.251496e+002
7.314805e+002, 1.254622e+002
7.319626e+002, 1.260951e+002
7.324448e+002, 1.268575e+002
7.329269e+002, 1.278717e+002
7.334090e+002, 1.289563e+002
7.338911e+002, 1.295006e+002
7.343732e+002, 1.293165e+002
7.348553e+002, 1.293501e+002
7.353375e+002, 1.299304e+002
7.358196e+002, 1.308962e+002
7.363017e+002, 1.319185e+002
7.367838e+002, 1.329768e+002
7.372659e+002, 1.339449e+002
7.377480e+002, 1.348141e+002
7.382302e+002, 1.355152e+002
7.387123e+002, 1.359156e+002
7.391944e+002, 1.360708e+002
7.396765e+002, 1.362537e+002
7.401586e+002, 1.365331e+002
7.406407e+002, 1.368907e+002
7.411229e+002, 1.373076e+002
7.416050e+002, 1.377858e+002
7.420871e+002, 1.384140e+002
7.425692e+002, 1.392931e+002
7.430513e+002, 1.400939e+002
7.435334e+002, 1.405969e+002
7.440156e+002, 1.408489e+002
7.444977e+002, 1.412520e+002
7.449798e+002, 1.418079e+002
7.454619e+002, 1.423239e+002
7.459440e+002, 1.426480e+002
7.464261e+002, 1.428411e+002
7.469083e+002, 1.429051e+002
7.473904e+002, 1.428366e+002
7.478725e+002, 1.429515e+002
7.483546e+002, 1.435849e+002
7.488367e+002, 1.443118e+002
7.493188e+002, 1.448620e+002
7.498010e+002, 1.451942e+002
7.502831e+002, 1.453800e+002
7.507652e+002, 1.453763e+002
7.512473e+002, 1.452886e+002
7.517294e+002, 1.451391e+002
7.522115e+002, 1.449324e+002
7.526937e+002, 1.449656e+002
7.531758e+002, 1.452755e+002
7.536579e+002, 1.457051e+002
7.541400e+002, 1.461592e+002
7.546221e+002, 1.466046e+002
7.551042e+002, 1.469652e+002
7.555864e+002, 1.471852e+002
7.560685e+002, 1.474865e+002
7.565506e+002, 1.481110e+002
7.570327e+002, 1.488151e+002
7.575148e+002, 1.493350e+002
7.579969e+002, 1.494251e+002
7.584791e+002, 1.496784e+002
7.589612e+002, 1.501259e+002
7.594433e+002, 1.507005e+002
7.599254e+002, 1.512186e+002
7.604075e+002, 1.516599e+002
7.608896e+002, 1.526783e+002
7.613718e+002, 1.544797e+002
7.618539e+002, 1.565381e+002
7.623360e+002, 1.580603e+002
7.628181e+002, 1.593312e+002
7.633002e+002, 1.609788e+002
7.637823e+002, 1.634480e+002
7.642645e+002, 1.658943e+002
7.647466e+002, 1.674488e+002
7.652287e+002, 1.687978e+002
7.657108e+002, 1.710384e+002
7.661929e+002, 1.750017e+002
7.666750e+002, 1.789093e+002
7.671572e+002, 1.824239e+002
7.676393e+002, 1.859378e+002
7.681214e+002, 1.902126e+002
7.686035e+002, 1.952664e+002
7.690856e+002, 2.009568e+002
7.695677e+002, 2.074155e+002
7.700499e+002, 2.142577e+002
7.705320e+002, 2.205841e+002
7.710141e+002, 2.268017e+002
7.714962e+002, 2.339550e+002
7.719783e+002, 2.426532e+002
7.724604e+002, 2.522645e+002
7.729426e+002, 2.625697e+002
7.734247e+002, 2.734804e+002
7.739068e+002, 2.847062e+002
7.743889e+002, 2.960565e+002
7.748710e+002, 3.079980e+002
7.753531e+002, 3.209252e+002
7.758353e+002, 3.343560e+002
7.763174e+002, 3.472628e+002
7.767995e+002, 3.595934e+002
7.772816e+002, 3.703640e+002
7.777637e+002, 3.792520e+002
7.782458e+002, 3.863099e+002
7.787280e+002, 3.918150e+002
7.792101e+002, 3.956085e+002
7.796922e+002, 3.971085e+002
7.801743e+002, 3.956618e+002
7.806564e+002, 3.922658e+002
7.811385e+002, 3.868511e+002
7.816207e+002, 3.797508e+002
7.821028e+002, 3.724424e+002
7.825849e+002, 3.649111e+002
7.830670e+002, 3.573015e+002
7.835491e+002, 3.494527e+002
7.840313e+002, 3.415883e+002
7.845134e+002, 3.346210e+002
7.849955e+002, 3.285039e+002
7.854776e+002, 3.224831e+002
7.859597e+002, 3.157583e+002
7.864418e+002, 3.091356e+002
7.869240e+002, 3.038818e+002
7.874061e+002, 2.998822e+002
7.878882e+002, 2.967934e+002
7.883703e+002, 2.952218e+002
7.888524e+002, 2.938578e+002
7.893345e+002, 2.917443e+002
7.898167e+002, 2.891080e+002
7.902988e+002, 2.878767e+002
7.907809e+002, 2.886959e+002
7.912630e+002, 2.897306e+002
7.917451e+002, 2.901735e+002
7.922272e+002, 2.903757e+002
7.927094e+002, 2.921803e+002
7.931915e+002, 2.955185e+002
7.936736e+002, 2.990058e+002
7.941557e+002, 3.013876e+002
7.946378e+002, 3.037338e+002
7.951199e+002, 3.072540e+002
7.956021e+002, 3.118620e+002
7.960842e+002, 3.173639e+002
7.965663e+002, 3.237473e+002
7.970484e+002, 3.308801e+002
7.975305e+002, 3.388802e+002
7.980126e+002, 3.476116e+002
7.984948e+002, 3.562469e+002
7.989769e+002, 3.643580e+002
7.994590e+002, 3.733699e+002
7.999411e+002, 3.838589e+002
8.004232e+002, 3.956776e+002
8.009053e+002, 4.076467e+002
8.013875e+002, 4.198318e+002
8.018696e+002, 4.328075e+002
8.023517e+002, 4.472907e+002
8.028338e+002, 4.626976e+002
8.033159e+002, 4.782451e+002
8.037980e+002, 4.940804e+002
8.042802e+002, 5.108029e+002
8.047623e+002, 5.298121e+002
8.052444e+002, 5.484544e+002
8.057265e+002, 5.654421e+002
8.062086e+002, 5.809972e+002
8.066907e+002, 5.973364e+002
8.071729e+002, 6.147930e+002
8.076550e+002, 6.317827e+002
8.081371e+002, 6.477960e+002
8.086192e+002, 6.628577e+002
8.091013e+002, 6.770614e+002
8.095834e+002, 6.903928e+002
8.100656e+002, 7.027742e+002
8.105477e+002, 7.136566e+002
8.110298e+002, 7.240057e+002
8.115119e+002, 7.343185e+002
8.119940e+002, 7.447047e+002
8.124761e+002, 7.557002e+002
8.129583e+002, 7.675217e+002
8.134404e+002, 7.797943e+002
8.139225e+002, 7.921569e+002
8.144046e+002, 8.048066e+002
8.148867e+002, 8.195662e+002
8.153688e+002, 8.363265e+002
8.158510e+002, 8.549779e+002
8.163331e+002, 8.750623e+002
8.168152e+002, 8.972885e+002
8.172973e+002, 9.220692e+002
8.177794e+002, 9.496830e+002
8.182615e+002, 9.810789e+002
8.187437e+002, 1.015739e+003
8.192258e+002, 1.054799e+003
8.197079e+002, 1.098859e+003
8.201900e+002, 1.148428e+003
8.206721e+002, 1.202716e+003
8.211542e+002, 1.261714e+003
8.216364e+002, 1.325978e+003
8.221185e+002, 1.396082e+003
8.226006e+002, 1.471110e+003
8.230827e+002, 1.552959e+003
8.235648e+002, 1.640817e+003
8.240469e+002, 1.733772e+003
8.245291e+002, 1.836843e+003
8.250112e+002, 1.940215e+003
8.254933e+002, 2.038526e+003
8.259754e+002, 2.130634e+003
8.264575e+002, 2.214313e+003
8.269396e+002, 2.296330e+003
8.274218e+002, 2.360652e+003
8.279039e+002, 2.405188e+003
8.283860e+002, 2.429570e+003
8.288681e+002, 2.429786e+003
8.293502e+002, 2.404205e+003
8.298323e+002, 2.363114e+003
8.303145e+002, 2.307216e+003
8.307966e+002, 2.241125e+003
8.312787e+002, 2.171903e+003
8.317608e+002, 2.099469e+003
8.322429e+002, 2.025882e+003
8.327250e+002, 1.948287e+003
8.332072e+002, 1.872416e+003
8.336893e+002, 1.800840e+003
8.341714e+002, 1.733185e+003
8.346535e+002, 1.668679e+003
8.351356e+002, 1.607528e+003
8.356177e+002, 1.548674e+003
8.360999e+002, 1.491494e+003
8.365820e+002, 1.436195e+003
8.370641e+002, 1.382702e+003
8.375462e+002, 1.331017e+003
8.380283e+002, 1.281207e+003
8.385104e+002, 1.233328e+003
8.389926e+002, 1.187255e+003
8.394747e+002, 1.143259e+003
8.399568e+002, 1.101052e+003
8.404389e+002, 1.059495e+003
8.409210e+002, 1.017731e+003
8.414031e+002, 9.775455e+002
8.418853e+002, 9.392868e+002
8.423674e+002, 9.031348e+002
8.428495e+002, 8.699294e+002
8.433316e+002, 8.400573e+002
8.438137e+002, 8.110074e+002
8.442958e+002, 7.820587e+002
8.447780e+002, 7.546340e+002
8.452601e+002, 7.311981e+002
8.457422e+002, 7.110025e+002
8.462243e+002, 6.916455e+002
8.467064e+002, 6.722824e+002
8.471885e+002, 6.542404e+002
8.476707e+002, 6.384103e+002
8.481528e+002, 6.242686e+002
8.486349e+002, 6.111914e+002
8.491170e+002, 5.987546e+002
8.495991e+002, 5.882422e+002
8.500812e+002, 5.799150e+002
8.505634e+002, 5.731439e+002
8.510455e+002, 5.670066e+002
8.515276e+002, 5.616217e+002
8.520097e+002, 5.579998e+002
8.524918e+002, 5.563533e+002
8.529739e+002, 5.558439e+002
8.534561e+002, 5.557592e+002
8.539382e+002, 5.563322e+002
8.544203e+002, 5.579812e+002
8.549024e+002, 5.611556e+002
8.553845e+002, 5.641286e+002
8.558666e+002, 5.669975e+002
8.563488e+002, 5.691855e+002
8.568309e+002, 5.703746e+002
8.573130e+002, 5.706506e+002
8.577951e+002, 5.696152e+002
8.582772e+002, 5.674261e+002
8.587593e+002, 5.628170e+002
8.592415e+002, 5.543038e+002
8.597236e+002, 5.427772e+002
8.602057e+002, 5.294180e+002
8.606878e+002, 5.143832e+002
8.611699e+002, 4.977329e+002
8.616520e+002, 4.776852e+002
8.621342e+002, 4.574188e+002
8.626163e+002, 4.385166e+002
8.630984e+002, 4.211154e+002
8.635805e+002, 4.048003e+002
8.640626e+002, 3.896825e+002
8.645447e+002, 3.756219e+002
8.650269e+002, 3.625377e+002
8.655090e+002, 3.504062e+002
8.659911e+002, 3.396909e+002
8.664732e+002, 3.303505e+002
8.669553e+002, 3.217501e+002
8.674374e+002, 3.132105e+002
8.679196e+002, 3.056149e+002
8.684017e+002, 3.000626e+002
8.688838e+002, 2.963271e+002
8.693659e+002, 2.926770e+002
8.698480e+002, 2.886890e+002
8.703301e+002, 2.852049e+002
8.708123e+002, 2.824247e+002
8.712944e+002, 2.803066e+002
8.717765e+002, 2.786887e+002
8.722586e+002, 2.775806e+002
8.727407e+002, 2.769357e+002
8.732228e+002, 2.768371e+002
8.737050e+002, 2.770923e+002
8.741871e+002, 2.774920e+002
8.746692e+002, 2.780931e+002
8.751513e+002, 2.790305e+002
8.756334e+002, 2.807287e+002
8.761155e+002, 2.822810e+002
8.765977e+002, 2.833685e+002
8.770798e+002, 2.843385e+002
8.775619e+002, 2.858712e+002
8.780440e+002, 2.880097e+002
8.785261e+002, 2.901281e+002
8.790082e+002, 2.921403e+002
8.794904e+002, 2.940474e+002
8.799725e+002, 2.961316e+002
8.804546e+002, 2.980807e+002
8.809367e+002, 2.993404e+002
8.814188e+002, 2.996832e+002
8.819009e+002, 2.994859e+002
8.823831e+002, 2.989835e+002
8.828652e+002, 2.978883e+002
8.833473e+002, 2.959951e+002
8.838294e+002, 2.932397e+002
8.843115e+002, 2.898604e+002
8.847936e+002, 2.858272e+002
8.852758e+002, 2.813236e+002
8.857579e+002, 2.766845e+002
8.862400e+002, 2.716910e+002
8.867221e+002, 2.654657e+002
8.872042e+002, 2.578443e+002
8.876863e+002, 2.508073e+002
8.881685e+002, 2.460134e+002
8.886506e+002, 2.417432e+002
8.891327e+002, 2.367132e+002
8.896148e+002, 2.306837e+002
8.900969e+002, 2.250949e+002
8.905790e+002, 2.199616e+002
8.910612e+002, 2.150818e+002
8.915433e+002, 2.102951e+002
8.920254e+002, 2.056497e+002
8.925075e+002, 2.013435e+002
8.929896e+002, 1.973784e+002
8.934717e+002, 1.939292e+002
8.939539e+002, 1.915018e+002
8.944360e+002, 1.892113e+002
8.949181e+002, 1.863500e+002
8.954002e+002, 1.830150e+002
8.958823e+002, 1.801245e+002
8.963644e+002, 1.779043e+002
8.968466e+002, 1.757435e+002
8.973287e+002, 1.734221e+002
8.978108e+002, 1.710838e+002
8.982929e+002, 1.690415e+002
8.987750e+002, 1.672854e+002
8.992571e+002, 1.657000e+002
8.997393e+002, 1.643638e+002
9.002214e+002, 1.629994e+002
9.007035e+002, 1.612226e+002
9.011856e+002, 1.593050e+002
9.016677e+002, 1.577409e+002
9.021498e+002, 1.570591e+002
9.026320e+002, 1.560981e+002
9.031141e+002, 1.546295e+002
9.035962e+002, 1.530305e+002
9.040783e+002, 1.518055e+002
9.045604e+002, 1.509331e+002
9.050425e+002, 1.503824e+002
9.055247e+002, 1.502264e+002
9.060068e+002, 1.498933e+002
9.064889e+002, 1.484997e+002
9.069710e+002, 1.468139e+002
9.074531e+002, 1.457547e+002
9.079352e+002, 1.456670e+002
9.084174e+002, 1.454351e+002
9.088995e+002, 1.449692e+002
9.093816e+002, 1.442352e+002
9.098637e+002, 1.430678e+002
9.103458e+002, 1.414554e+002
9.108279e+002, 1.405287e+002
9.113101e+002, 1.402983e+002
9.117922e+002, 1.401646e+002
9.122743e+002, 1.398057e+002
9.127564e+002, 1.392346e+002
9.132385e+002, 1.383367e+002
9.137206e+002, 1.371767e+002
9.142028e+002, 1.362066e+002
9.146849e+002, 1.357812e+002
9.151670e+002, 1.353096e+002
9.156491e+002, 1.345688e+002
9.161312e+002, 1.336610e+002
9.166133e+002, 1.330117e+002
9.170955e+002, 1.326246e+002
9.175776e+002, 1.322116e+002
9.180597e+002, 1.316374e+002
9.185418e+002, 1.310257e+002
9.190239e+002, 1.305388e+002
9.195060e+002, 1.301250e+002
9.199882e+002, 1.296914e+002
9.204703e+002, 1.292127e+002
9.209524e+002, 1.286896e+002
9.214345e+002, 1.280508e+002
9.219166e+002, 1.274270e+002
9.223987e+002, 1.270142e+002
9.228809e+002, 1.268269e+002
9.233630e+002, 1.265749e+002
9.238451e+002, 1.262253e+002
9.243272e+002, 1.257901e+002
9.248093e+002, 1.251834e+002
9.252914e+002, 1.245496e+002
9.257736e+002, 1.241495e+002
9.262557e+002, 1.240823e+002
9.267378e+002, 1.238311e+002
9.272199e+002, 1.231210e+002
9.277020e+002, 1.223062e+002
9.281841e+002, 1.215041e+002
9.286663e+002, 1.207197e+002
9.291484e+002, 1.202827e+002
9.296305e+002, 1.202084e+002
9.301126e+002, 1.200743e+002
9.305947e+002, 1.194347e+002
9.310768e+002, 1.186910e+002
9.315590e+002, 1.184898e+002
9.320411e+002, 1.186783e+002
9.325232e+002, 1.186141e+002
9.330053e+002, 1.177454e+002
9.334874e+002, 1.170070e+002
9.339695e+002, 1.167411e+002
9.344517e+002, 1.167059e+002
9.349338e+002, 1.162133e+002
9.354159e+002, 1.152539e+002
9.358980e+002, 1.145420e+002
9.363801e+002, 1.143296e+002
9.368622e+002, 1.143160e+002
9.373444e+002, 1.142992e+002
9.378265e+002, 1.142020e+002
9.383086e+002, 1.138788e+002
9.387907e+002, 1.130624e+002
9.392728e+002, 1.124855e+002
9.397549e+002, 1.123910e+002
9.402371e+002, 1.124495e+002
9.407192e+002, 1.124161e+002
9.412013e+002, 1.122888e+002
9.416834e+002, 1.120662e+002
9.421655e+002, 1.117404e+002
9.426476e+002, 1.114751e+002
9.431298e+002, 1.115911e+002
9.436119e+002, 1.117234e+002
9.440940e+002, 1.110958e+002
9.445761e+002, 1.097472e+002
9.450582e+002, 1.096484e+002
9.455403e+002, 1.132907e+002
9.460225e+002, 1.156964e+002
9.465046e+002, 1.148280e+002
9.469867e+002, 1.116340e+002
9.474688e+002, 1.099862e+002
9.479509e+002, 1.098227e+002
9.484330e+002, 1.098077e+002
9.489152e+002, 1.090493e+002
9.493973e+002, 1.086558e+002
9.498794e+002, 1.106447e+002
9.503615e+002, 1.135430e+002
9.508436e+002, 1.147416e+002
9.513257e+002, 1.119726e+002
9.518079e+002, 1.096779e+002
9.522900e+002, 1.080248e+002
9.527721e+002, 1.070118e+002
9.532542e+002, 1.068712e+002
9.537363e+002, 1.074702e+002
9.542184e+002, 1.078062e+002
9.547006e+002, 1.077584e+002
9.551827e+002, 1.075488e+002
9.556648e+002, 1.072211e+002
9.561469e+002, 1.069090e+002
9.566290e+002, 1.067705e+002
9.571111e+002, 1.068516e+002
9.575933e+002, 1.067879e+002
9.580754e+002, 1.064705e+002
9.585575e+002, 1.062090e+002
9.590396e+002, 1.062180e+002
9.595217e+002, 1.063731e+002
9.600038e+002, 1.062193e+002
9.604860e+002, 1.057979e+002
9.609681e+002, 1.053213e+002
9.614502e+002, 1.048184e+002
9.619323e+002, 1.043828e+002
9.624144e+002, 1.039891e+002
9.628965e+002, 1.037235e+002
9.633787e+002, 1.038199e+002
9.638608e+002, 1.045514e+002
9.643429e+002, 1.049069e+002
9.648250e+002, 1.046934e+002
9.653071e+002, 1.042509e+002
9.657892e+002, 1.039812e+002
9.662714e+002, 1.038605e+002
9.667535e+002, 1.038370e+002
9.672356e+002, 1.039071e+002
9.677177e+002, 1.040368e+002
9.681998e+002, 1.043669e+002
9.686819e+002, 1.046189e+002
9.691641e+002, 1.045403e+002
9.696462e+002, 1.040982e+002
9.701283e+002, 1.038352e+002
9.706104e+002, 1.037576e+002
9.710925e+002, 1.038038e+002
9.715746e+002, 1.040601e+002
9.720568e+002, 1.043469e+002
9.725389e+002, 1.042658e+002
9.730210e+002, 1.039226e+002
9.735031e+002, 1.036699e+002
9.739852e+002, 1.038076e+002
9.744673e+002, 1.038713e+002
9.749495e+002, 1.036535e+002
9.754316e+002, 1.033255e+002
9.759137e+002, 1.032099e+002
9.763958e+002, 1.033249e+002
9.768779e+002, 1.033151e+002
9.773600e+002, 1.030887e+002
9.778422e+002, 1.028729e+002
9.783243e+002, 1.030341e+002
9.788064e+002, 1.032898e+002
9.792885e+002, 1.032249e+002
9.797706e+002, 1.026677e+002
9.802527e+002, 1.023257e+002
9.807349e+002, 1.023494e+002
9.812170e+002, 1.025551e+002
9.816991e+002, 1.029259e+002
9.821812e+002, 1.034139e+002
9.826633e+002, 1.036506e+002
9.831454e+002, 1.036413e+002
9.836276e+002, 1.034593e+002
9.841097e+002, 1.030254e+002
9.845918e+002, 1.025439e+002
9.850739e+002, 1.019891e+002
9.855560e+002, 1.015158e+002
9.860381e+002, 1.016069e+002
9.865203e+002, 1.026909e+002
9.870024e+002, 1.034353e+002
9.874845e+002, 1.036054e+002
9.879666e+002, 1.035131e+002
9.884487e+002, 1.035974e+002
9.889308e+002, 1.037926e+002
9.894130e+002, 1.038892e+002
9.898951e+002, 1.038379e+002
9.903772e+002, 1.038082e+002
9.908593e+002, 1.039941e+002
9.913414e+002, 1.041631e+002
9.918235e+002, 1.041210e+002
9.923057e+002, 1.038561e+002
9.927878e+002, 1.036197e+002
9.932699e+002, 1.033885e+002
9.937520e+002, 1.033107e+002
9.942341e+002, 1.035428e+002
9.947162e+002, 1.039205e+002
9.951984e+002, 1.042116e+002
9.956805e+002, 1.044137e+002
9.961626e+002, 1.045125e+002
9.966447e+002, 1.042916e+002
9.971268e+002, 1.042545e+002
9.976089e+002, 1.046897e+002
9.980911e+002, 1.052085e+002
9.985732e+002, 1.051492e+002
9.990553e+002, 1.045203e+002
9.995374e+002, 1.043232e+002
1.000020e+003, 1.047178e+002
1.000502e+003, 1.052295e+002
1.000984e+003, 1.054792e+002
1.001466e+003, 1.055895e+002
1.001948e+003, 1.056690e+002
1.002430e+003, 1.057295e+002
1.002912e+003, 1.057373e+002
1.003394e+003, 1.056234e+002
1.003876e+003, 1.055974e+002
1.004359e+003, 1.057923e+002
1.004841e+003, 1.061093e+002
1.005323e+003, 1.062326e+002
1.005805e+003, 1.062004e+002
1.006287e+003, 1.061627e+002
1.006769e+003, 1.062317e+002
1.007251e+003, 1.062521e+002
1.007733e+003, 1.061329e+002
1.008216e+003, 1.059193e+002
1.008698e+003, 1.056508e+002
1.009180e+003, 1.052412e+002
1.009662e+003, 1.051723e+002
1.010144e+003, 1.055470e+002
1.010626e+003, 1.058714e+002
1.011108e+003, 1.054809e+002
1.011590e+003, 1.048067e+002
1.012072e+003, 1.045764e+002
1.012555e+003, 1.048059e+002
1.013037e+003, 1.048538e+002
1.013519e+003, 1.042341e+002
1.014001e+003, 1.037027e+002
1.014483e+003, 1.035286e+002
1.014965e+003, 1.036079e+002
1.015447e+003, 1.036120e+002
1.015929e+003, 1.035434e+002
1.016411e+003, 1.034399e+002
1.016894e+003, 1.033637e+002
1.017376e+003, 1.031416e+002
1.017858e+003, 1.023796e+002
1.018340e+003, 1.014968e+002
1.018822e+003, 1.010627e+002
1.019304e+003, 1.014382e+002
1.019786e+003, 1.014711e+002
1.020268e+003, 1.010331e+002
1.020751e+003, 1.005968e+002
1.021233e+003, 1.006316e+002
1.021715e+003, 1.009244e+002
1.022197e+003, 1.009208e+002
1.022679e+003, 1.006366e+002
1.023161e+003, 1.002318e+002
1.023643e+003, 9.968123e+001
1.024125e+003, 9.913731e+001
1.024607e+003, 9.854789e+001
1.025090e+003, 9.804552e+001
1.025572e+003, 9.800176e+001
1.026054e+003, 9.845782e+001
1.026536e+003, 9.873405e+001
1.027018e+003, 9.867995e+001
1.027500e+003, 9.853660e+001
1.027982e+003, 9.855703e+001
1.028464e+003, 9.863480e+001
1.028947e+003, 9.863121e+001
1.029429e+003, 9.849537e+001
1.029911e+003, 9.845708e+001
1.030393e+003, 9.861812e+001
1.030875e+003, 9.871787e+001
1.031357e+003, 9.864010e+001
1.031839e+003, 9.839807e+001
1.032321e+003, 9.794449e+001
1.032803e+003, 9.734413e+001
1.033286e+003, 9.684995e+001
1.033768e+003, 9.658019e+001
1.034250e+003, 9.646015e+001
1.034732e+003, 9.663638e+001
1.035214e+003, 9.685478e+001
1.035696e+003, 9.671121e+001
1.036178e+003, 9.609683e+001
1.036660e+003, 9.569953e+001
1.037143e+003, 9.556536e+001
1.037625e+003, 9.561575e+001
1.038107e+003, 9.593168e+001
1.038589e+003, 9.629069e+001
1.039071e+003, 9.638784e+001
1.039553e+003, 9.621667e+001
1.040035e+003, 9.604845e+001
1.040517e+003, 9.598222e+001
1.041000e+003, 9.584841e+001
1.041482e+003, 9.554952e+001
1.041964e+003, 9.520973e+001
1.042446e+003, 9.520056e+001
1.042928e+003, 9.543493e+001
1.043410e+003, 9.554794e+001
1.043892e+003, 9.540298e+001
1.044374e+003, 9.521210e+001
1.044856e+003, 9.501266e+001
1.045339e+003, 9.489700e+001
1.045821e+003, 9.496967e+001
1.046303e+003, 9.526664e+001
1.046785e+003, 9.552097e+001
1.047267e+003, 9.575614e+001
1.047749e+003, 9.574560e+001
1.048231e+003, 9.505913e+001
1.048713e+003, 9.423624e+001
1.049195e+003, 9.399784e+001
1.049677e+003, 9.420407e+001
1.050160e+003, 9.444823e+001
1.050642e+003, 9.471056e+001
1.051124e+003, 9.486401e+001
1.051606e+003, 9.489026e+001
1.052088e+003, 9.480876e+001
1.052570e+003, 9.455395e+001
1.053052e+003, 9.420515e+001
1.053534e+003, 9.413988e+001
1.054017e+003, 9.441074e+001
1.054499e+003, 9.465397e+001
1.054981e+003, 9.456740e+001
1.055463e+003, 9.445100e+001
1.055945e+003, 9.454162e+001
1.056427e+003, 9.478413e+001
1.056909e+003, 9.481860e+001
1.057391e+003, 9.462761e+001
1.057874e+003, 9.443025e+001
1.058356e+003, 9.427537e+001
1.058838e+003, 9.420452e+001
1.059320e+003, 9.447766e+001
1.059802e+003, 9.478365e+001
1.060284e+003, 9.462444e+001
1.060766e+003, 9.345325e+001
1.061248e+003, 9.292764e+001
1.061730e+003, 9.337375e+001
1.062213e+003, 9.392815e+001
1.062695e+003, 9.390622e+001
1.063177e+003, 9.349969e+001
1.063659e+003, 9.342007e+001
1.064141e+003, 9.360875e+001
1.064623e+003, 9.378740e+001
1.065105e+003, 9.368883e+001
1.065587e+003, 9.369547e+001
1.066070e+003, 9.386795e+001
1.066552e+003, 9.428504e+001
1.067034e+003, 9.535886e+001
1.067516e+003, 9.714221e+001
1.067998e+003, 9.765572e+001
1.068480e+003, 9.657707e+001
1.068962e+003, 9.512572e+001
1.069444e+003, 9.405687e+001
1.069927e+003, 9.338403e+001
1.070409e+003, 9.320883e+001
1.070891e+003, 9.354089e+001
1.071373e+003, 9.387254e+001
1.071855e+003, 9.434743e+001
1.072337e+003, 9.431551e+001
1.072819e+003, 9.334406e+001
1.073301e+003, 9.213593e+001
1.073783e+003, 9.210267e+001
1.074266e+003, 9.276138e+001
1.074748e+003, 9.305041e+001
1.075230e+003, 9.247117e+001
1.075712e+003, 9.212238e+001
1.076194e+003, 9.249439e+001
1.076676e+003, 9.294891e+001
1.077158e+003, 9.311942e+001
1.077640e+003, 9.302818e+001
1.078122e+003, 9.286004e+001
1.078604e+003, 9.263474e+001
1.079087e+003, 9.252168e+001
1.079569e+003, 9.275468e+001
1.080051e+003, 9.298174e+001
1.080533e+003, 9.295295e+001
1.081015e+003, 9.278996e+001
1.081497e+003, 9.273652e+001
1.081979e+003, 9.284253e+001
1.082461e+003, 9.281234e+001
1.082944e+003, 9.260869e+001
1.083426e+003, 9.237573e+001
1.083908e+003, 9.223982e+001
1.084390e+003, 9.216272e+001
1.084872e+003, 9.211473e+001
1.085354e+003, 9.208913e+001
1.085836e+003, 9.203959e+001
1.086318e+003, 9.189793e+001
1.086801e+003, 9.185752e+001
1.087283e+003, 9.200180e+001
1.087765e+003, 9.221174e+001
1.088247e+003, 9.223934e+001
1.088729e+003, 9.215842e+001
1.089211e+003, 9.220816e+001
1.089693e+003, 9.250308e+001
1.090175e+003, 9.258826e+001
1.090657e+003, 9.196928e+001
1.091140e+003, 9.138644e+001
1.091622e+003, 9.128875e+001
1.092104e+003, 9.159663e+001
1.092586e+003, 9.162232e+001
1.093068e+003, 9.139615e+001
1.093550e+003, 9.129216e+001
1.094032e+003, 9.159498e+001
1.094514e+003, 9.189997e+001
1.094997e+003, 9.192205e+001
1.095479e+003, 9.176235e+001
1.095961e+003, 9.153153e+001
1.096443e+003, 9.113680e+001
1.096925e+003, 9.105952e+001
1.097407e+003, 9.134244e+001
1.097889e+003, 9.167400e+001
1.098371e+003, 9.181390e+001
1.098854e+003, 9.185776e+001
1.099336e+003, 9.194641e+001
1.099818e+003, 9.204897e+001
1.100300e+003, 9.202538e+001
1.100782e+003, 9.162424e+001
1.101264e+003, 9.150832e+001
1.101746e+003, 9.186262e+001
1.102228e+003, 9.232072e+001
1.102710e+003, 9.236677e+001
1.103193e+003, 9.213651e+001
1.103675e+003, 9.195278e+001
1.104157e+003, 9.185503e+001
1.104639e+003, 9.177177e+001
1.105121e+003, 9.172337e+001
1.105603e+003, 9.160610e+001
1.106085e+003, 9.126094e+001
1.106567e+003, 9.088010e+001
1.107049e+003, 9.124046e+001
1.107531e+003, 9.221645e+001
1.108014e+003, 9.275783e+001
1.108496e+003, 9.249879e+001
1.108978e+003, 9.206551e+001
1.109460e+003, 9.176121e+001
1.109942e+003, 9.158170e+001
1.110424e+003, 9.152825e+001
1.110906e+003, 9.159424e+001
1.111388e+003, 9.181776e+001
1.111871e+003, 9.221790e+001
1.112353e+003, 9.248766e+001
1.112835e+003, 9.237072e+001
1.113317e+003, 9.218013e+001
1.113799e+003, 9.235947e+001
1.114281e+003, 9.266934e+001
1.114763e+003, 9.269383e+001
1.115245e+003, 9.208739e+001
1.115728e+003, 9.182469e+001
1.116210e+003, 9.200574e+001
1.116692e+003, 9.220784e+001
1.117174e+003, 9.197575e+001
1.117656e+003, 9.157809e+001
1.118138e+003, 9.148985e+001
1.118620e+003, 9.168181e+001
1.119102e+003, 9.197907e+001
1.119584e+003, 9.264584e+001
1.120067e+003, 9.291527e+001
1.120549e+003, 9.251997e+001
1.121031e+003, 9.192299e+001
1.121513e+003, 9.174430e+001
1.121995e+003, 9.188680e+001
1.122477e+003, 9.202575e+001
1.122959e+003, 9.213013e+001
1.123441e+003, 9.228374e+001
1.123924e+003, 9.279700e+001
1.124406e+003, 9.304619e+001
1.124888e+003, 9.259902e+001
1.125370e+003, 9.180111e+001
1.125852e+003, 9.172482e+001
1.126334e+003, 9.228834e+001
1.126816e+003, 9.247806e+001
1.127298e+003, 9.196551e+001
1.127781e+003, 9.152573e+001
1.128263e+003, 9.192712e+001
1.128745e+003, 9.249340e+001
1.129227e+003, 9.264942e+001
1.129709e+003, 9.240703e+001
1.130191e+003, 9.220715e+001
1.130673e+003, 9.205094e+001
1.131155e+003, 9.188522e+001
1.131637e+003, 9.164980e+001
1.132120e+003, 9.146091e+001
1.132602e+003, 9.148286e+001
1.133084e+003, 9.160983e+001
1.133566e+003, 9.169592e+001
1.134048e+003, 9.171646e+001
1.134530e+003, 9.171508e+001
1.135012e+003, 9.168916e+001
1.135494e+003, 9.164804e+001
1.135976e+003, 9.161765e+001
1.136458e+003, 9.156210e+001
1.136941e+003, 9.131645e+001
1.137423e+003, 9.100829e+001
1.137905e+003, 9.094765e+001
1.138387e+003, 9.145879e+001
1.138869e+003, 9.186592e+001
1.139351e+003, 9.210146e+001
1.139833e+003, 9.229742e+001
1.140315e+003, 9.264405e+001
1.140798e+003, 9.302751e+001
1.141280e+003, 9.315397e+001
1.141762e+003, 9.304127e+001
1.142244e+003, 9.287571e+001
1.142726e+003, 9.273156e+001
1.143208e+003, 9.252944e+001
1.143690e+003, 9.219378e+001
1.144172e+003, 9.186412e+001
1.144655e+003, 9.179264e+001
1.145137e+003, 9.191483e+001
1.145619e+003, 9.166295e+001
1.146101e+003, 9.095776e+001
1.146583e+003, 9.138000e+001
1.147065e+003, 9.616553e+001
1.147547e+003, 9.960936e+001
1.148029e+003, 9.849277e+001
1.148511e+003, 9.454811e+001
1.148994e+003, 9.265970e+001
1.149476e+003, 9.263296e+001
1.149958e+003, 9.273664e+001
1.150440e+003, 9.257317e+001
1.150922e+003, 9.247708e+001
1.151404e+003, 9.286457e+001
1.151886e+003, 9.326211e+001
1.152368e+003, 9.328825e+001
1.152851e+003, 9.297897e+001
1.153333e+003, 9.263697e+001
1.153815e+003, 9.226028e+001
1.154297e+003, 9.200658e+001
1.154779e+003, 9.192313e+001
1.155261e+003, 9.200648e+001
1.155743e+003, 9.238692e+001
1.156225e+003, 9.285632e+001
1.156708e+003, 9.316933e+001
1.157190e+003, 9.330688e+001
1.157672e+003, 9.340144e+001
1.158154e+003, 9.346021e+001
1.158636e+003, 9.341212e+001
1.159118e+003, 9.310348e+001
1.159600e+003, 9.279832e+001
1.160082e+003, 9.292915e+001
1.160564e+003, 9.323211e+001
1.161047e+003, 9.321460e+001
1.161529e+003, 9.250762e+001
1.162011e+003, 9.227084e+001
1.162493e+003, 9.261572e+001
1.162975e+003, 9.298309e+001
1.163457e+003, 9.279517e+001
1.163939e+003, 9.246899e+001
1.164421e+003, 9.269524e+001
1.164903e+003, 9.328329e+001
1.165385e+003, 9.363347e+001
1.165868e+003, 9.346565e+001
1.166350e+003, 9.331059e+001
1.166832e+003, 9.319518e+001
1.167314e+003, 9.312882e+001
1.167796e+003, 9.313550e+001
1.168278e+003, 9.319228e+001
1.168760e+003, 9.326807e+001
1.169242e+003, 9.335885e+001
1.169725e+003, 9.345191e+001
1.170207e+003, 9.358964e+001
1.170689e+003, 9.365098e+001
1.171171e+003, 9.358178e+001
1.171653e+003, 9.349988e+001
1.172135e+003, 9.356426e+001
1.172617e+003, 9.374638e+001
1.173099e+003, 9.409070e+001
1.173582e+003, 9.458764e+001
1.174064e+003, 9.474329e+001
1.174546e+003, 9.384203e+001
1.175028e+003, 9.329770e+001
1.175510e+003, 9.362385e+001
1.175992e+003, 9.431651e+001
1.176474e+003, 9.425425e+001
1.176956e+003, 9.372561e+001
1.177438e+003, 9.364399e+001
1.177921e+003, 9.424916e+001
1.178403e+003, 9.466145e+001
1.178885e+003, 9.424198e+001
1.179367e+003, 9.388049e+001
1.179849e+003, 9.397153e+001
1.180331e+003, 9.434383e+001
1.180813e+003, 9.449638e+001
1.181295e+003, 9.446506e+001
1.181778e+003, 9.435469e+001
1.182260e+003, 9.414143e+001
1.182742e+003, 9.405014e+001
1.183224e+003, 9.432960e+001
1.183706e+003, 9.461227e+001
1.184188e+003, 9.468465e+001
1.184670e+003, 9.458843e+001
1.185152e+003, 9.451965e+001
1.185635e+003, 9.448458e+001
1.186117e+003, 9.453179e+001
1.186599e+003, 9.477567e+001
1.187081e+003, 9.490121e+001
1.187563e+003, 9.462336e+001
1.188045e+003, 9.427275e+001
1.188527e+003, 9.407305e+001
1.189009e+003, 9.402407e+001
1.189491e+003, 9.415549e+001
1.189974e+003, 9.444064e+001
1.190456e+003, 9.468337e+001
1.190938e+003, 9.476385e+001
1.191420e+003, 9.480897e+001
1.191902e+003, 9.489525e+001
1.192384e+003, 9.496497e+001
1.192866e+003, 9.493815e+001
1.193348e+003, 9.481059e+001
1.193830e+003, 9.483753e+001
1.194313e+003, 9.500427e+001
1.194795e+003, 9.512719e+001
1.195277e+003, 9.497586e+001
1.195759e+003, 9.488538e+001
1.196241e+003, 9.515910e+001
1.196723e+003, 9.552645e+001
1.197205e+003, 9.563493e+001
1.197687e+003, 9.547824e+001
1.198169e+003, 9.530669e+001
1.198652e+003, 9.513509e+001
1.199134e+003, 9.501588e+001
1.199616e+003, 9.496536e+001
1.200098e+003, 9.500162e+001
1.200580e+003, 9.522287e+001
1.201062e+003, 9.550073e+001
1.201544e+003, 9.563280e+001
1.202026e+003, 9.561720e+001
1.202509e+003, 9.549275e+001
1.202991e+003, 9.526057e+001
1.203473e+003, 9.512114e+001
1.203955e+003, 9.530482e+001
1.204437e+003, 9.554239e+001
1.204919e+003, 9.572878e+001
1.205401e+003, 9.581636e+001
1.205883e+003, 9.563855e+001
1.206365e+003, 9.518316e+001
1.206848e+003, 9.500938e+001
1.207330e+003, 9.520802e+001
1.207812e+003, 9.537070e+001
1.208294e+003, 9.498608e+001
1.208776e+003, 9.463770e+001
1.209258e+003, 9.488734e+001
1.209740e+003, 9.547950e+001
1.210222e+003, 9.564097e+001
1.210705e+003, 9.536792e+001
1.211187e+003, 9.536176e+001
1.211669e+003, 9.577993e+001
1.212151e+003, 9.617821e+001
1.212633e+003, 9.620211e+001
1.213115e+003, 9.606890e+001
1.213597e+003, 9.585390e+001
1.214079e+003, 9.562022e+001
1.214562e+003, 9.562196e+001
1.215044e+003, 9.585216e+001
1.215526e+003, 9.599306e+001
1.216008e+003, 9.597471e+001
1.216490e+003, 9.584196e+001
1.216972e+003, 9.538221e+001
1.217454e+003, 9.504361e+001
1.217936e+003, 9.528095e+001
1.218418e+003, 9.594541e+001
1.218901e+003, 9.632336e+001
1.219383e+003, 9.642418e+001
1.219865e+003, 9.640751e+001
1.220347e+003, 9.629829e+001
1.220829e+003, 9.616227e+001
1.221311e+003, 9.586816e+001
1.221793e+003, 9.574094e+001
1.222275e+003, 9.617408e+001
1.222757e+003, 9.701922e+001
1.223240e+003, 9.708281e+001
1.223722e+003, 9.643153e+001
1.224204e+003, 9.590663e+001
1.224686e+003, 9.579431e+001
1.225168e+003, 9.586235e+001
1.225650e+003, 9.604902e+001
1.226132e+003, 9.628230e+001
1.226614e+003, 9.660191e+001
1.227096e+003, 9.694543e+001
1.227579e+003, 9.653111e+001
1.228061e+003, 9.547812e+001
1.228543e+003, 9.485160e+001
1.229025e+003, 9.519253e+001
1.229507e+003, 9.573691e+001
1.229989e+003, 9.624877e+001
1.230471e+003, 9.659214e+001
1.230953e+003, 9.662112e+001
1.231436e+003, 9.638090e+001
1.231918e+003, 9.633418e+001
1.232400e+003, 9.644380e+001
1.232882e+003, 9.644716e+001
1.233364e+003, 9.610491e+001
1.233846e+003, 9.588255e+001
1.234328e+003, 9.614876e+001
1.234810e+003, 9.649519e+001
1.235292e+003, 9.663172e+001
1.235775e+003, 9.658082e+001
1.236257e+003, 9.647578e+001
1.236739e+003, 9.634402e+001
1.237221e+003, 9.633050e+001
1.237703e+003, 9.660192e+001
1.238185e+003, 9.683459e+001
1.238667e+003, 9.681519e+001
1.239149e+003, 9.680423e+001
1.239632e+003, 9.706001e+001
1.240114e+003, 9.749414e+001
1.240596e+003, 9.751352e+001
1.241078e+003, 9.722378e+001
1.241560e+003, 9.707700e+001
1.242042e+003, 9.755296e+001
1.242524e+003, 9.777209e+001
1.243006e+003, 9.730412e+001
1.243489e+003, 9.681452e+001
1.243971e+003, 9.692418e+001
1.244453e+003, 9.744514e+001
1.244935e+003, 9.757539e+001
1.245417e+003, 9.740359e+001
1.245899e+003, 9.725977e+001
1.246381e+003, 9.722097e+001
1.246863e+003, 9.728354e+001
1.247345e+003, 9.723514e+001
1.247828e+003, 9.762187e+001
1.248310e+003, 9.962563e+001
1.248792e+003, 1.021967e+002
1.249274e+003, 1.021250e+002
1.249756e+003, 1.000691e+002
1.250238e+003, 9.839847e+001
1.250720e+003, 9.818697e+001
1.251202e+003, 9.811197e+001
1.251684e+003, 9.808678e+001
1.252167e+003, 9.811594e+001
1.252649e+003, 9.828294e+001
1.253131e+003, 9.846603e+001
1.253613e+003, 9.836134e+001
1.254095e+003, 9.806136e+001
1.254577e+003, 9.788213e+001
1.255059e+003, 9.802896e+001
1.255541e+003, 9.802763e+001
1.256023e+003, 9.779381e+001
1.256506e+003, 9.761784e+001
1.256988e+003, 9.794859e+001
1.257470e+003, 9.836047e+001
1.257952e+003, 9.804288e+001
1.258434e+003, 9.730209e+001
1.258916e+003, 9.715541e+001
1.259398e+003, 9.808620e+001
1.259880e+003, 9.841983e+001
1.260363e+003, 9.796266e+001
1.260845e+003, 9.750945e+001
1.261327e+003, 9.792142e+001
1.261809e+003, 9.851633e+001
1.262291e+003, 9.861937e+001
1.262773e+003, 9.832393e+001
1.263255e+003, 9.788094e+001
1.263737e+003, 9.716155e+001
1.264219e+003, 9.709385e+001
1.264702e+003, 9.778173e+001
1.265184e+003, 9.848557e+001
1.265666e+003, 9.868951e+001
1.266148e+003, 9.863288e+001
1.266630e+003, 9.827219e+001
1.267112e+003, 9.786841e+001
1.267594e+003, 9.799171e+001
1.268076e+003, 9.869612e+001
1.268559e+003, 9.908006e+001
1.269041e+003, 9.908553e+001
1.269523e+003, 9.896274e+001
1.270005e+003, 9.875624e+001
1.270487e+003, 9.860928e+001
1.270969e+003, 9.867452e+001
1.271451e+003, 9.881121e+001
1.271933e+003, 9.884130e+001
1.272416e+003, 9.876765e+001
1.272898e+003, 9.855330e+001
1.273380e+003, 9.822635e+001
1.273862e+003, 9.813787e+001
1.274344e+003, 9.879752e+001
1.274826e+003, 9.934608e+001
1.275308e+003, 9.947610e+001
1.275790e+003, 9.937729e+001
1.276272e+003, 9.923286e+001
1.276755e+003, 9.906429e+001
1.277237e+003, 9.894160e+001
1.277719e+003, 9.887158e+001
1.278201e+003, 9.885758e+001
1.278683e+003, 9.903635e+001
1.279165e+003, 9.905608e+001
1.279647e+003, 9.877341e+001
1.280129e+003, 9.847574e+001
1.280611e+003, 9.853996e+001
1.281094e+003, 9.879984e+001
1.281576e+003, 9.891062e+001
1.282058e+003, 9.887952e+001
1.282540e+003, 9.883340e+001
1.283022e+003, 9.879692e+001
1.283504e+003, 9.875579e+001
1.283986e+003, 9.869932e+001
1.284468e+003, 9.866831e+001
1.284950e+003, 9.873515e+001
1.285433e+003, 9.882986e+001
1.285915e+003, 9.882570e+001
1.286397e+003, 9.876418e+001
1.286879e+003, 9.883744e+001
1.287361e+003, 9.912663e+001
1.287843e+003, 9.927650e+001
1.288325e+003, 9.925272e+001
1.288807e+003, 9.911333e+001
1.289290e+003, 9.867662e+001
1.289772e+003, 9.836021e+001
1.290254e+003, 9.872390e+001
1.290736e+003, 9.943797e+001
1.291218e+003, 9.962968e+001
1.291700e+003, 9.922649e+001
1.292182e+003, 9.943098e+001
1.292664e+003, 1.003175e+002
1.293146e+003, 1.009161e+002
1.293629e+003, 1.001405e+002
1.294111e+003, 9.932860e+001
1.294593e+003, 9.942104e+001
1.295075e+003, 9.980253e+001
1.295557e+003, 9.960706e+001
1.296039e+003, 9.895583e+001
1.296521e+003, 9.899324e+001
1.297003e+003, 9.967950e+001
1.297486e+003, 1.001519e+002
1.297968e+003, 9.970213e+001
1.298450e+003, 9.933047e+001
1.298932e+003, 9.933272e+001
1.299414e+003, 9.945059e+001
1.299896e+003, 9.929301e+001
1.300378e+003, 9.905558e+001
1.300860e+003, 9.951818e+001
1.301343e+003, 1.004724e+002
1.301825e+003, 1.009194e+002
##END=



