##NAMES=Alluaudite
##RRUFFID=R140711
##IDEAL CHEMISTRY=NaMn^2+^Fe^3+^_2_(PO_4_)_3_
##LOCALITY=Dyke Lode, Custer, Custer District, Custer County, South Dakota, USA
##OWNER=RRUFF
##SOURCE=Rock Currier
##DESCRIPTION=Dark green massive, associated with micas and quartz.
##STATUS=The identification of this mineral is confirmed by single-crystal X-ray diffraction and chemical analysis.
##URL=rruff.info/R140711
##MEASURED CHEMISTRY=Na_0.98_(Mn_0.58_Fe^2+^_0.31_Mg_0.18_)_âˆ‘=1.07_Fe^3+^_2_(PO_4_)_3_
8.806445e+001, 6.356049e+002
8.854657e+001, 6.283416e+002
8.902869e+001, 6.258485e+002
8.951080e+001, 6.300476e+002
8.999292e+001, 6.381307e+002
9.047504e+001, 6.480212e+002
9.095715e+001, 6.596564e+002
9.143927e+001, 6.711835e+002
9.192139e+001, 6.796550e+002
9.240350e+001, 6.851512e+002
9.288562e+001, 6.905040e+002
9.336774e+001, 6.921319e+002
9.384985e+001, 6.857400e+002
9.433197e+001, 6.720858e+002
9.481409e+001, 6.616853e+002
9.529620e+001, 6.505688e+002
9.577832e+001, 6.394958e+002
9.626044e+001, 6.286658e+002
9.674255e+001, 6.187380e+002
9.722467e+001, 6.103926e+002
9.770679e+001, 6.036299e+002
9.818890e+001, 5.977908e+002
9.867102e+001, 5.925524e+002
9.915314e+001, 5.878925e+002
9.963525e+001, 5.837762e+002
1.001174e+002, 5.801572e+002
1.005995e+002, 5.769588e+002
1.010816e+002, 5.739847e+002
1.015637e+002, 5.705198e+002
1.020458e+002, 5.679769e+002
1.025280e+002, 5.669794e+002
1.030101e+002, 5.668183e+002
1.034922e+002, 5.662716e+002
1.039743e+002, 5.643510e+002
1.044564e+002, 5.610425e+002
1.049385e+002, 5.596282e+002
1.054207e+002, 5.610116e+002
1.059028e+002, 5.629397e+002
1.063849e+002, 5.649662e+002
1.068670e+002, 5.668295e+002
1.073491e+002, 5.672252e+002
1.078312e+002, 5.641636e+002
1.083134e+002, 5.578444e+002
1.087955e+002, 5.526397e+002
1.092776e+002, 5.501580e+002
1.097597e+002, 5.487656e+002
1.102418e+002, 5.460315e+002
1.107239e+002, 5.413242e+002
1.112061e+002, 5.359050e+002
1.116882e+002, 5.307043e+002
1.121703e+002, 5.256929e+002
1.126524e+002, 5.211093e+002
1.131345e+002, 5.172848e+002
1.136166e+002, 5.141547e+002
1.140988e+002, 5.107520e+002
1.145809e+002, 5.064085e+002
1.150630e+002, 5.022216e+002
1.155451e+002, 4.988878e+002
1.160272e+002, 4.964004e+002
1.165093e+002, 4.942720e+002
1.169915e+002, 4.919557e+002
1.174736e+002, 4.894697e+002
1.179557e+002, 4.867077e+002
1.184378e+002, 4.831152e+002
1.189199e+002, 4.796194e+002
1.194020e+002, 4.769508e+002
1.198842e+002, 4.753271e+002
1.203663e+002, 4.743473e+002
1.208484e+002, 4.730888e+002
1.213305e+002, 4.706182e+002
1.218126e+002, 4.689562e+002
1.222947e+002, 4.688199e+002
1.227769e+002, 4.693661e+002
1.232590e+002, 4.695877e+002
1.237411e+002, 4.689874e+002
1.242232e+002, 4.676432e+002
1.247053e+002, 4.658312e+002
1.251874e+002, 4.635415e+002
1.256696e+002, 4.609552e+002
1.261517e+002, 4.576412e+002
1.266338e+002, 4.538940e+002
1.271159e+002, 4.508767e+002
1.275980e+002, 4.495471e+002
1.280801e+002, 4.495561e+002
1.285623e+002, 4.493262e+002
1.290444e+002, 4.489869e+002
1.295265e+002, 4.482708e+002
1.300086e+002, 4.467977e+002
1.304907e+002, 4.444621e+002
1.309728e+002, 4.419130e+002
1.314550e+002, 4.393281e+002
1.319371e+002, 4.368205e+002
1.324192e+002, 4.346125e+002
1.329013e+002, 4.328377e+002
1.333834e+002, 4.314157e+002
1.338655e+002, 4.301181e+002
1.343477e+002, 4.289613e+002
1.348298e+002, 4.279275e+002
1.353119e+002, 4.270964e+002
1.357940e+002, 4.263712e+002
1.362761e+002, 4.255252e+002
1.367582e+002, 4.241566e+002
1.372404e+002, 4.222207e+002
1.377225e+002, 4.216736e+002
1.382046e+002, 4.249013e+002
1.386867e+002, 4.274639e+002
1.391688e+002, 4.278199e+002
1.396509e+002, 4.261133e+002
1.401331e+002, 4.233429e+002
1.406152e+002, 4.203185e+002
1.410973e+002, 4.165908e+002
1.415794e+002, 4.145428e+002
1.420615e+002, 4.152611e+002
1.425436e+002, 4.164824e+002
1.430258e+002, 4.169184e+002
1.435079e+002, 4.163133e+002
1.439900e+002, 4.151135e+002
1.444721e+002, 4.138407e+002
1.449542e+002, 4.123117e+002
1.454363e+002, 4.112633e+002
1.459185e+002, 4.110972e+002
1.464006e+002, 4.112743e+002
1.468827e+002, 4.110828e+002
1.473648e+002, 4.102536e+002
1.478469e+002, 4.093021e+002
1.483290e+002, 4.091967e+002
1.488112e+002, 4.099557e+002
1.492933e+002, 4.107571e+002
1.497754e+002, 4.112614e+002
1.502575e+002, 4.115706e+002
1.507396e+002, 4.120419e+002
1.512217e+002, 4.129482e+002
1.517039e+002, 4.138403e+002
1.521860e+002, 4.141945e+002
1.526681e+002, 4.139777e+002
1.531502e+002, 4.135263e+002
1.536323e+002, 4.129354e+002
1.541144e+002, 4.121925e+002
1.545966e+002, 4.118213e+002
1.550787e+002, 4.127361e+002
1.555608e+002, 4.136087e+002
1.560429e+002, 4.133080e+002
1.565250e+002, 4.115714e+002
1.570071e+002, 4.094509e+002
1.574893e+002, 4.084223e+002
1.579714e+002, 4.088109e+002
1.584535e+002, 4.094768e+002
1.589356e+002, 4.104811e+002
1.594177e+002, 4.114959e+002
1.598998e+002, 4.121865e+002
1.603820e+002, 4.124274e+002
1.608641e+002, 4.124763e+002
1.613462e+002, 4.129878e+002
1.618283e+002, 4.146700e+002
1.623104e+002, 4.158023e+002
1.627925e+002, 4.157430e+002
1.632747e+002, 4.152648e+002
1.637568e+002, 4.153001e+002
1.642389e+002, 4.163286e+002
1.647210e+002, 4.180097e+002
1.652031e+002, 4.188942e+002
1.656852e+002, 4.183174e+002
1.661674e+002, 4.177077e+002
1.666495e+002, 4.172255e+002
1.671316e+002, 4.168670e+002
1.676137e+002, 4.166229e+002
1.680958e+002, 4.165031e+002
1.685779e+002, 4.164799e+002
1.690601e+002, 4.163670e+002
1.695422e+002, 4.160373e+002
1.700243e+002, 4.157654e+002
1.705064e+002, 4.156517e+002
1.709885e+002, 4.156861e+002
1.714706e+002, 4.158818e+002
1.719528e+002, 4.164434e+002
1.724349e+002, 4.170952e+002
1.729170e+002, 4.168972e+002
1.733991e+002, 4.151064e+002
1.738812e+002, 4.130606e+002
1.743633e+002, 4.117169e+002
1.748455e+002, 4.110817e+002
1.753276e+002, 4.108062e+002
1.758097e+002, 4.108827e+002
1.762918e+002, 4.111436e+002
1.767739e+002, 4.113077e+002
1.772560e+002, 4.114217e+002
1.777382e+002, 4.113403e+002
1.782203e+002, 4.107587e+002
1.787024e+002, 4.095177e+002
1.791845e+002, 4.083151e+002
1.796666e+002, 4.077122e+002
1.801487e+002, 4.073333e+002
1.806309e+002, 4.066734e+002
1.811130e+002, 4.054014e+002
1.815951e+002, 4.037784e+002
1.820772e+002, 4.025156e+002
1.825593e+002, 4.018354e+002
1.830414e+002, 4.011764e+002
1.835236e+002, 4.001884e+002
1.840057e+002, 3.991151e+002
1.844878e+002, 3.983064e+002
1.849699e+002, 3.979886e+002
1.854520e+002, 3.980997e+002
1.859341e+002, 3.982655e+002
1.864163e+002, 3.988009e+002
1.868984e+002, 3.990086e+002
1.873805e+002, 3.986740e+002
1.878626e+002, 3.979124e+002
1.883447e+002, 3.968829e+002
1.888268e+002, 3.956373e+002
1.893090e+002, 3.941990e+002
1.897911e+002, 3.932181e+002
1.902732e+002, 3.926940e+002
1.907553e+002, 3.926240e+002
1.912374e+002, 3.935608e+002
1.917195e+002, 3.950066e+002
1.922017e+002, 3.958293e+002
1.926838e+002, 3.950233e+002
1.931659e+002, 3.924572e+002
1.936480e+002, 3.914670e+002
1.941301e+002, 3.934860e+002
1.946122e+002, 3.953266e+002
1.950944e+002, 3.956446e+002
1.955765e+002, 3.945476e+002
1.960586e+002, 3.927423e+002
1.965407e+002, 3.906092e+002
1.970228e+002, 3.881556e+002
1.975049e+002, 3.867726e+002
1.979871e+002, 3.871081e+002
1.984692e+002, 3.878453e+002
1.989513e+002, 3.883234e+002
1.994334e+002, 3.884813e+002
1.999155e+002, 3.883630e+002
2.003976e+002, 3.878762e+002
2.008798e+002, 3.870716e+002
2.013619e+002, 3.866147e+002
2.018440e+002, 3.866610e+002
2.023261e+002, 3.869831e+002
2.028082e+002, 3.876648e+002
2.032903e+002, 3.887431e+002
2.037725e+002, 3.892867e+002
2.042546e+002, 3.880143e+002
2.047367e+002, 3.855778e+002
2.052188e+002, 3.838544e+002
2.057009e+002, 3.836688e+002
2.061830e+002, 3.841761e+002
2.066652e+002, 3.843260e+002
2.071473e+002, 3.840883e+002
2.076294e+002, 3.835619e+002
2.081115e+002, 3.824856e+002
2.085936e+002, 3.811992e+002
2.090757e+002, 3.802695e+002
2.095579e+002, 3.801894e+002
2.100400e+002, 3.804828e+002
2.105221e+002, 3.800272e+002
2.110042e+002, 3.783241e+002
2.114863e+002, 3.770217e+002
2.119685e+002, 3.773737e+002
2.124506e+002, 3.785256e+002
2.129327e+002, 3.792433e+002
2.134148e+002, 3.788565e+002
2.138969e+002, 3.776732e+002
2.143790e+002, 3.765826e+002
2.148612e+002, 3.753781e+002
2.153433e+002, 3.746598e+002
2.158254e+002, 3.750390e+002
2.163075e+002, 3.758610e+002
2.167896e+002, 3.761294e+002
2.172717e+002, 3.751125e+002
2.177539e+002, 3.732536e+002
2.182360e+002, 3.726617e+002
2.187181e+002, 3.748863e+002
2.192002e+002, 3.763492e+002
2.196823e+002, 3.756187e+002
2.201644e+002, 3.737667e+002
2.206466e+002, 3.723148e+002
2.211287e+002, 3.722087e+002
2.216108e+002, 3.731859e+002
2.220929e+002, 3.737674e+002
2.225750e+002, 3.740278e+002
2.230571e+002, 3.737198e+002
2.235393e+002, 3.721337e+002
2.240214e+002, 3.700827e+002
2.245035e+002, 3.688549e+002
2.249856e+002, 3.693078e+002
2.254677e+002, 3.710312e+002
2.259498e+002, 3.714157e+002
2.264320e+002, 3.682696e+002
2.269141e+002, 3.661520e+002
2.273962e+002, 3.664672e+002
2.278783e+002, 3.681980e+002
2.283604e+002, 3.697316e+002
2.288425e+002, 3.701315e+002
2.293247e+002, 3.696115e+002
2.298068e+002, 3.694023e+002
2.302889e+002, 3.699972e+002
2.307710e+002, 3.703202e+002
2.312531e+002, 3.698548e+002
2.317352e+002, 3.689926e+002
2.322174e+002, 3.685011e+002
2.326995e+002, 3.688509e+002
2.331816e+002, 3.697573e+002
2.336637e+002, 3.699290e+002
2.341458e+002, 3.685165e+002
2.346279e+002, 3.674833e+002
2.351101e+002, 3.676548e+002
2.355922e+002, 3.685385e+002
2.360743e+002, 3.691035e+002
2.365564e+002, 3.687796e+002
2.370385e+002, 3.679318e+002
2.375206e+002, 3.677884e+002
2.380028e+002, 3.687339e+002
2.384849e+002, 3.696103e+002
2.389670e+002, 3.701554e+002
2.394491e+002, 3.703520e+002
2.399312e+002, 3.700487e+002
2.404133e+002, 3.690109e+002
2.408955e+002, 3.676979e+002
2.413776e+002, 3.671598e+002
2.418597e+002, 3.675963e+002
2.423418e+002, 3.681330e+002
2.428239e+002, 3.683083e+002
2.433060e+002, 3.682905e+002
2.437882e+002, 3.686488e+002
2.442703e+002, 3.698112e+002
2.447524e+002, 3.710948e+002
2.452345e+002, 3.712928e+002
2.457166e+002, 3.702152e+002
2.461987e+002, 3.691947e+002
2.466809e+002, 3.689347e+002
2.471630e+002, 3.692621e+002
2.476451e+002, 3.695933e+002
2.481272e+002, 3.697211e+002
2.486093e+002, 3.698734e+002
2.490914e+002, 3.704514e+002
2.495736e+002, 3.714745e+002
2.500557e+002, 3.722052e+002
2.505378e+002, 3.719724e+002
2.510199e+002, 3.710343e+002
2.515020e+002, 3.704930e+002
2.519841e+002, 3.707613e+002
2.524663e+002, 3.711983e+002
2.529484e+002, 3.711767e+002
2.534305e+002, 3.707473e+002
2.539126e+002, 3.703450e+002
2.543947e+002, 3.701498e+002
2.548768e+002, 3.701733e+002
2.553590e+002, 3.705653e+002
2.558411e+002, 3.717662e+002
2.563232e+002, 3.727255e+002
2.568053e+002, 3.725258e+002
2.572874e+002, 3.714556e+002
2.577695e+002, 3.705503e+002
2.582516e+002, 3.706258e+002
2.587338e+002, 3.714725e+002
2.592159e+002, 3.719448e+002
2.596980e+002, 3.718677e+002
2.601801e+002, 3.716022e+002
2.606622e+002, 3.713072e+002
2.611443e+002, 3.709999e+002
2.616265e+002, 3.707119e+002
2.621086e+002, 3.704367e+002
2.625907e+002, 3.701935e+002
2.630728e+002, 3.701126e+002
2.635549e+002, 3.703983e+002
2.640370e+002, 3.705199e+002
2.645192e+002, 3.701796e+002
2.650013e+002, 3.695690e+002
2.654834e+002, 3.690111e+002
2.659655e+002, 3.687144e+002
2.664476e+002, 3.685731e+002
2.669297e+002, 3.681756e+002
2.674119e+002, 3.673045e+002
2.678940e+002, 3.665321e+002
2.683761e+002, 3.660602e+002
2.688582e+002, 3.657646e+002
2.693403e+002, 3.654448e+002
2.698224e+002, 3.649666e+002
2.703046e+002, 3.645105e+002
2.707867e+002, 3.647167e+002
2.712688e+002, 3.664774e+002
2.717509e+002, 3.672543e+002
2.722330e+002, 3.657469e+002
2.727151e+002, 3.635222e+002
2.731973e+002, 3.621824e+002
2.736794e+002, 3.623807e+002
2.741615e+002, 3.634740e+002
2.746436e+002, 3.641490e+002
2.751257e+002, 3.643116e+002
2.756078e+002, 3.641863e+002
2.760900e+002, 3.639117e+002
2.765721e+002, 3.633658e+002
2.770542e+002, 3.623211e+002
2.775363e+002, 3.607440e+002
2.780184e+002, 3.589947e+002
2.785005e+002, 3.577067e+002
2.789827e+002, 3.571242e+002
2.794648e+002, 3.564742e+002
2.799469e+002, 3.557530e+002
2.804290e+002, 3.549387e+002
2.809111e+002, 3.539171e+002
2.813932e+002, 3.527191e+002
2.818754e+002, 3.515866e+002
2.823575e+002, 3.508209e+002
2.828396e+002, 3.504461e+002
2.833217e+002, 3.504092e+002
2.838038e+002, 3.514441e+002
2.842859e+002, 3.521790e+002
2.847681e+002, 3.515551e+002
2.852502e+002, 3.497441e+002
2.857323e+002, 3.478711e+002
2.862144e+002, 3.471782e+002
2.866965e+002, 3.479771e+002
2.871786e+002, 3.481499e+002
2.876608e+002, 3.470341e+002
2.881429e+002, 3.459711e+002
2.886250e+002, 3.456592e+002
2.891071e+002, 3.459069e+002
2.895892e+002, 3.460355e+002
2.900714e+002, 3.454572e+002
2.905535e+002, 3.441605e+002
2.910356e+002, 3.431328e+002
2.915177e+002, 3.425456e+002
2.919998e+002, 3.420512e+002
2.924819e+002, 3.414469e+002
2.929641e+002, 3.408742e+002
2.934462e+002, 3.406278e+002
2.939283e+002, 3.409199e+002
2.944104e+002, 3.416642e+002
2.948925e+002, 3.422778e+002
2.953746e+002, 3.432778e+002
2.958568e+002, 3.435294e+002
2.963389e+002, 3.422528e+002
2.968210e+002, 3.402861e+002
2.973031e+002, 3.387228e+002
2.977852e+002, 3.380826e+002
2.982673e+002, 3.381713e+002
2.987495e+002, 3.384250e+002
2.992316e+002, 3.392961e+002
2.997137e+002, 3.397448e+002
3.001958e+002, 3.393518e+002
3.006779e+002, 3.387010e+002
3.011600e+002, 3.383885e+002
3.016422e+002, 3.386054e+002
3.021243e+002, 3.391142e+002
3.026064e+002, 3.395028e+002
3.030885e+002, 3.398331e+002
3.035706e+002, 3.398912e+002
3.040527e+002, 3.395449e+002
3.045349e+002, 3.390421e+002
3.050170e+002, 3.385251e+002
3.054991e+002, 3.380397e+002
3.059812e+002, 3.376075e+002
3.064633e+002, 3.372705e+002
3.069454e+002, 3.370958e+002
3.074276e+002, 3.367779e+002
3.079097e+002, 3.361348e+002
3.083918e+002, 3.355341e+002
3.088739e+002, 3.351895e+002
3.093560e+002, 3.350893e+002
3.098381e+002, 3.350973e+002
3.103203e+002, 3.351021e+002
3.108024e+002, 3.351055e+002
3.112845e+002, 3.350931e+002
3.117666e+002, 3.351419e+002
3.122487e+002, 3.351022e+002
3.127308e+002, 3.347617e+002
3.132130e+002, 3.342896e+002
3.136951e+002, 3.340714e+002
3.141772e+002, 3.343810e+002
3.146593e+002, 3.351166e+002
3.151414e+002, 3.355638e+002
3.156235e+002, 3.353954e+002
3.161057e+002, 3.353134e+002
3.165878e+002, 3.356594e+002
3.170699e+002, 3.360912e+002
3.175520e+002, 3.359792e+002
3.180341e+002, 3.350311e+002
3.185162e+002, 3.337698e+002
3.189984e+002, 3.335682e+002
3.194805e+002, 3.360385e+002
3.199626e+002, 3.374745e+002
3.204447e+002, 3.370332e+002
3.209268e+002, 3.359930e+002
3.214089e+002, 3.355320e+002
3.218911e+002, 3.359582e+002
3.223732e+002, 3.367615e+002
3.228553e+002, 3.372035e+002
3.233374e+002, 3.371315e+002
3.238195e+002, 3.370412e+002
3.243016e+002, 3.367221e+002
3.247838e+002, 3.365495e+002
3.252659e+002, 3.370092e+002
3.257480e+002, 3.379671e+002
3.262301e+002, 3.386762e+002
3.267122e+002, 3.383189e+002
3.271943e+002, 3.366870e+002
3.276765e+002, 3.357379e+002
3.281586e+002, 3.358629e+002
3.286407e+002, 3.361763e+002
3.291228e+002, 3.363859e+002
3.296049e+002, 3.365187e+002
3.300870e+002, 3.367701e+002
3.305692e+002, 3.373135e+002
3.310513e+002, 3.380488e+002
3.315334e+002, 3.382005e+002
3.320155e+002, 3.370862e+002
3.324976e+002, 3.361271e+002
3.329797e+002, 3.355027e+002
3.334619e+002, 3.351567e+002
3.339440e+002, 3.351183e+002
3.344261e+002, 3.354015e+002
3.349082e+002, 3.357294e+002
3.353904e+002, 3.353803e+002
3.358725e+002, 3.334480e+002
3.363546e+002, 3.322822e+002
3.368367e+002, 3.324049e+002
3.373188e+002, 3.329798e+002
3.378009e+002, 3.334257e+002
3.382831e+002, 3.335752e+002
3.387652e+002, 3.335026e+002
3.392473e+002, 3.332817e+002
3.397294e+002, 3.328482e+002
3.402115e+002, 3.324617e+002
3.406936e+002, 3.318687e+002
3.411758e+002, 3.315301e+002
3.416579e+002, 3.319140e+002
3.421400e+002, 3.328203e+002
3.426221e+002, 3.335483e+002
3.431042e+002, 3.333990e+002
3.435863e+002, 3.323737e+002
3.440685e+002, 3.321281e+002
3.445506e+002, 3.340500e+002
3.450327e+002, 3.353594e+002
3.455148e+002, 3.349610e+002
3.459969e+002, 3.336272e+002
3.464790e+002, 3.326604e+002
3.469612e+002, 3.328021e+002
3.474433e+002, 3.336244e+002
3.479254e+002, 3.337397e+002
3.484075e+002, 3.326951e+002
3.488896e+002, 3.316339e+002
3.493717e+002, 3.305807e+002
3.498539e+002, 3.296701e+002
3.503360e+002, 3.289867e+002
3.508181e+002, 3.285676e+002
3.513002e+002, 3.284238e+002
3.517823e+002, 3.286183e+002
3.522644e+002, 3.292598e+002
3.527466e+002, 3.298910e+002
3.532287e+002, 3.308108e+002
3.537108e+002, 3.314549e+002
3.541929e+002, 3.312919e+002
3.546750e+002, 3.304727e+002
3.551571e+002, 3.297326e+002
3.556393e+002, 3.299124e+002
3.561214e+002, 3.310021e+002
3.566035e+002, 3.311578e+002
3.570856e+002, 3.293673e+002
3.575677e+002, 3.278265e+002
3.580498e+002, 3.273009e+002
3.585320e+002, 3.275498e+002
3.590141e+002, 3.281774e+002
3.594962e+002, 3.290668e+002
3.599783e+002, 3.300538e+002
3.604604e+002, 3.307368e+002
3.609425e+002, 3.311977e+002
3.614247e+002, 3.311336e+002
3.619068e+002, 3.299221e+002
3.623889e+002, 3.284673e+002
3.628710e+002, 3.276133e+002
3.633531e+002, 3.275962e+002
3.638352e+002, 3.279514e+002
3.643174e+002, 3.281291e+002
3.647995e+002, 3.280979e+002
3.652816e+002, 3.282324e+002
3.657637e+002, 3.290241e+002
3.662458e+002, 3.295984e+002
3.667279e+002, 3.292589e+002
3.672101e+002, 3.280995e+002
3.676922e+002, 3.268602e+002
3.681743e+002, 3.259094e+002
3.686564e+002, 3.252703e+002
3.691385e+002, 3.251325e+002
3.696206e+002, 3.257586e+002
3.701028e+002, 3.263969e+002
3.705849e+002, 3.267575e+002
3.710670e+002, 3.268090e+002
3.715491e+002, 3.263914e+002
3.720312e+002, 3.251093e+002
3.725133e+002, 3.236745e+002
3.729955e+002, 3.232651e+002
3.734776e+002, 3.240111e+002
3.739597e+002, 3.245151e+002
3.744418e+002, 3.239107e+002
3.749239e+002, 3.229127e+002
3.754060e+002, 3.225284e+002
3.758882e+002, 3.230167e+002
3.763703e+002, 3.233544e+002
3.768524e+002, 3.224831e+002
3.773345e+002, 3.207752e+002
3.778166e+002, 3.198219e+002
3.782987e+002, 3.201689e+002
3.787809e+002, 3.210287e+002
3.792630e+002, 3.217288e+002
3.797451e+002, 3.222733e+002
3.802272e+002, 3.223746e+002
3.807093e+002, 3.214449e+002
3.811914e+002, 3.202472e+002
3.816736e+002, 3.199174e+002
3.821557e+002, 3.205728e+002
3.826378e+002, 3.213082e+002
3.831199e+002, 3.215445e+002
3.836020e+002, 3.213057e+002
3.840841e+002, 3.208886e+002
3.845663e+002, 3.199800e+002
3.850484e+002, 3.192147e+002
3.855305e+002, 3.190771e+002
3.860126e+002, 3.194031e+002
3.864947e+002, 3.196674e+002
3.869768e+002, 3.196393e+002
3.874590e+002, 3.194621e+002
3.879411e+002, 3.194693e+002
3.884232e+002, 3.197791e+002
3.889053e+002, 3.198958e+002
3.893874e+002, 3.195094e+002
3.898695e+002, 3.189797e+002
3.903517e+002, 3.187230e+002
3.908338e+002, 3.188139e+002
3.913159e+002, 3.190642e+002
3.917980e+002, 3.192884e+002
3.922801e+002, 3.194780e+002
3.927622e+002, 3.197427e+002
3.932444e+002, 3.204599e+002
3.937265e+002, 3.208923e+002
3.942086e+002, 3.203958e+002
3.946907e+002, 3.192848e+002
3.951728e+002, 3.183543e+002
3.956549e+002, 3.180581e+002
3.961371e+002, 3.183209e+002
3.966192e+002, 3.188571e+002
3.971013e+002, 3.205789e+002
3.975834e+002, 3.214240e+002
3.980655e+002, 3.205246e+002
3.985476e+002, 3.190399e+002
3.990298e+002, 3.181860e+002
3.995119e+002, 3.182594e+002
3.999940e+002, 3.186192e+002
4.004761e+002, 3.183553e+002
4.009582e+002, 3.171441e+002
4.014403e+002, 3.164572e+002
4.019225e+002, 3.167924e+002
4.024046e+002, 3.171113e+002
4.028867e+002, 3.170124e+002
4.033688e+002, 3.164971e+002
4.038509e+002, 3.156768e+002
4.043330e+002, 3.145817e+002
4.048152e+002, 3.132801e+002
4.052973e+002, 3.121624e+002
4.057794e+002, 3.112364e+002
4.062615e+002, 3.105015e+002
4.067436e+002, 3.101632e+002
4.072257e+002, 3.098893e+002
4.077079e+002, 3.091608e+002
4.081900e+002, 3.078457e+002
4.086721e+002, 3.066767e+002
4.091542e+002, 3.069408e+002
4.096363e+002, 3.090478e+002
4.101184e+002, 3.102679e+002
4.106006e+002, 3.095936e+002
4.110827e+002, 3.085980e+002
4.115648e+002, 3.080383e+002
4.120469e+002, 3.078528e+002
4.125290e+002, 3.076401e+002
4.130111e+002, 3.069688e+002
4.134933e+002, 3.061031e+002
4.139754e+002, 3.060624e+002
4.144575e+002, 3.072836e+002
4.149396e+002, 3.081681e+002
4.154217e+002, 3.075450e+002
4.159038e+002, 3.063075e+002
4.163860e+002, 3.054715e+002
4.168681e+002, 3.053360e+002
4.173502e+002, 3.053882e+002
4.178323e+002, 3.051081e+002
4.183144e+002, 3.045458e+002
4.187965e+002, 3.041308e+002
4.192787e+002, 3.039341e+002
4.197608e+002, 3.039760e+002
4.202429e+002, 3.044340e+002
4.207250e+002, 3.052585e+002
4.212071e+002, 3.057689e+002
4.216892e+002, 3.054901e+002
4.221714e+002, 3.048773e+002
4.226535e+002, 3.045311e+002
4.231356e+002, 3.044953e+002
4.236177e+002, 3.045662e+002
4.240998e+002, 3.046953e+002
4.245819e+002, 3.048048e+002
4.250641e+002, 3.046107e+002
4.255462e+002, 3.037591e+002
4.260283e+002, 3.030559e+002
4.265104e+002, 3.028998e+002
4.269925e+002, 3.031290e+002
4.274746e+002, 3.034743e+002
4.279568e+002, 3.038620e+002
4.284389e+002, 3.042292e+002
4.289210e+002, 3.044837e+002
4.294031e+002, 3.045945e+002
4.298852e+002, 3.046606e+002
4.303673e+002, 3.046411e+002
4.308495e+002, 3.046123e+002
4.313316e+002, 3.045887e+002
4.318137e+002, 3.045963e+002
4.322958e+002, 3.047266e+002
4.327779e+002, 3.050756e+002
4.332600e+002, 3.055884e+002
4.337422e+002, 3.058158e+002
4.342243e+002, 3.054470e+002
4.347064e+002, 3.051497e+002
4.351885e+002, 3.048554e+002
4.356706e+002, 3.047399e+002
4.361527e+002, 3.051256e+002
4.366349e+002, 3.060576e+002
4.371170e+002, 3.070778e+002
4.375991e+002, 3.075187e+002
4.380812e+002, 3.072347e+002
4.385633e+002, 3.068989e+002
4.390454e+002, 3.062065e+002
4.395276e+002, 3.057551e+002
4.400097e+002, 3.059033e+002
4.404918e+002, 3.064880e+002
4.409739e+002, 3.071457e+002
4.414560e+002, 3.077011e+002
4.419381e+002, 3.081163e+002
4.424203e+002, 3.082320e+002
4.429024e+002, 3.078961e+002
4.433845e+002, 3.076701e+002
4.438666e+002, 3.078769e+002
4.443487e+002, 3.081745e+002
4.448308e+002, 3.082666e+002
4.453130e+002, 3.081035e+002
4.457951e+002, 3.079121e+002
4.462772e+002, 3.078675e+002
4.467593e+002, 3.079544e+002
4.472414e+002, 3.081064e+002
4.477235e+002, 3.083419e+002
4.482057e+002, 3.085883e+002
4.486878e+002, 3.089489e+002
4.491699e+002, 3.092893e+002
4.496520e+002, 3.092184e+002
4.501341e+002, 3.083703e+002
4.506162e+002, 3.073195e+002
4.510984e+002, 3.063912e+002
4.515805e+002, 3.056458e+002
4.520626e+002, 3.055943e+002
4.525447e+002, 3.067199e+002
4.530268e+002, 3.082563e+002
4.535089e+002, 3.086131e+002
4.539911e+002, 3.075862e+002
4.544732e+002, 3.067224e+002
4.549553e+002, 3.064980e+002
4.554374e+002, 3.065244e+002
4.559195e+002, 3.062123e+002
4.564016e+002, 3.055846e+002
4.568838e+002, 3.054721e+002
4.573659e+002, 3.067324e+002
4.578480e+002, 3.092271e+002
4.583301e+002, 3.103916e+002
4.588122e+002, 3.091232e+002
4.592943e+002, 3.080639e+002
4.597765e+002, 3.080980e+002
4.602586e+002, 3.086243e+002
4.607407e+002, 3.087316e+002
4.612228e+002, 3.081435e+002
4.617049e+002, 3.074260e+002
4.621870e+002, 3.074638e+002
4.626692e+002, 3.085575e+002
4.631513e+002, 3.094628e+002
4.636334e+002, 3.103481e+002
4.641155e+002, 3.108984e+002
4.645976e+002, 3.104537e+002
4.650797e+002, 3.095831e+002
4.655619e+002, 3.096261e+002
4.660440e+002, 3.115909e+002
4.665261e+002, 3.145545e+002
4.670082e+002, 3.157338e+002
4.674903e+002, 3.142877e+002
4.679724e+002, 3.133603e+002
4.684546e+002, 3.142341e+002
4.689367e+002, 3.155704e+002
4.694188e+002, 3.164579e+002
4.699009e+002, 3.168026e+002
4.703830e+002, 3.169977e+002
4.708651e+002, 3.173818e+002
4.713473e+002, 3.178621e+002
4.718294e+002, 3.180855e+002
4.723115e+002, 3.179823e+002
4.727936e+002, 3.177666e+002
4.732757e+002, 3.174563e+002
4.737578e+002, 3.171496e+002
4.742400e+002, 3.170726e+002
4.747221e+002, 3.174419e+002
4.752042e+002, 3.177460e+002
4.756863e+002, 3.175941e+002
4.761684e+002, 3.170962e+002
4.766505e+002, 3.165919e+002
4.771327e+002, 3.161964e+002
4.776148e+002, 3.157296e+002
4.780969e+002, 3.148590e+002
4.785790e+002, 3.134842e+002
4.790611e+002, 3.125569e+002
4.795432e+002, 3.126345e+002
4.800254e+002, 3.127339e+002
4.805075e+002, 3.121255e+002
4.809896e+002, 3.109883e+002
4.814717e+002, 3.099862e+002
4.819538e+002, 3.095061e+002
4.824359e+002, 3.093007e+002
4.829181e+002, 3.086508e+002
4.834002e+002, 3.069874e+002
4.838823e+002, 3.057012e+002
4.843644e+002, 3.050931e+002
4.848465e+002, 3.046315e+002
4.853286e+002, 3.039078e+002
4.858108e+002, 3.029229e+002
4.862929e+002, 3.019488e+002
4.867750e+002, 3.012159e+002
4.872571e+002, 3.007032e+002
4.877392e+002, 3.001857e+002
4.882213e+002, 2.995078e+002
4.887035e+002, 2.990953e+002
4.891856e+002, 2.992953e+002
4.896677e+002, 2.996529e+002
4.901498e+002, 2.997504e+002
4.906319e+002, 2.994855e+002
4.911140e+002, 2.988908e+002
4.915962e+002, 2.978160e+002
4.920783e+002, 2.963449e+002
4.925604e+002, 2.952846e+002
4.930425e+002, 2.949841e+002
4.935246e+002, 2.945751e+002
4.940067e+002, 2.928809e+002
4.944889e+002, 2.905987e+002
4.949710e+002, 2.894115e+002
4.954531e+002, 2.905482e+002
4.959352e+002, 2.919112e+002
4.964173e+002, 2.916377e+002
4.968994e+002, 2.901373e+002
4.973816e+002, 2.888991e+002
4.978637e+002, 2.884257e+002
4.983458e+002, 2.883947e+002
4.988279e+002, 2.884072e+002
4.993100e+002, 2.884893e+002
4.997921e+002, 2.884744e+002
5.002743e+002, 2.885340e+002
5.007564e+002, 2.883380e+002
5.012385e+002, 2.875026e+002
5.017206e+002, 2.862024e+002
5.022027e+002, 2.849223e+002
5.026848e+002, 2.839165e+002
5.031670e+002, 2.832061e+002
5.036491e+002, 2.829143e+002
5.041312e+002, 2.837237e+002
5.046133e+002, 2.838138e+002
5.050954e+002, 2.824736e+002
5.055775e+002, 2.809911e+002
5.060597e+002, 2.802148e+002
5.065418e+002, 2.801571e+002
5.070239e+002, 2.804070e+002
5.075060e+002, 2.807546e+002
5.079881e+002, 2.811027e+002
5.084702e+002, 2.809230e+002
5.089524e+002, 2.799603e+002
5.094345e+002, 2.790482e+002
5.099166e+002, 2.783674e+002
5.103987e+002, 2.779177e+002
5.108808e+002, 2.778990e+002
5.113629e+002, 2.783458e+002
5.118451e+002, 2.784974e+002
5.123271e+002, 2.774870e+002
5.128093e+002, 2.757550e+002
5.132914e+002, 2.745849e+002
5.137735e+002, 2.741517e+002
5.142556e+002, 2.739767e+002
5.147377e+002, 2.737547e+002
5.152198e+002, 2.735446e+002
5.157020e+002, 2.735285e+002
5.161841e+002, 2.738549e+002
5.166662e+002, 2.741661e+002
5.171483e+002, 2.743511e+002
5.176304e+002, 2.744035e+002
5.181125e+002, 2.742985e+002
5.185947e+002, 2.740309e+002
5.190768e+002, 2.736431e+002
5.195589e+002, 2.731421e+002
5.200410e+002, 2.724846e+002
5.205231e+002, 2.721236e+002
5.210052e+002, 2.721254e+002
5.214874e+002, 2.722976e+002
5.219695e+002, 2.729212e+002
5.224516e+002, 2.735641e+002
5.229337e+002, 2.735201e+002
5.234158e+002, 2.725560e+002
5.238979e+002, 2.712612e+002
5.243801e+002, 2.704843e+002
5.248622e+002, 2.702923e+002
5.253443e+002, 2.703031e+002
5.258264e+002, 2.708665e+002
5.263085e+002, 2.712363e+002
5.267906e+002, 2.710387e+002
5.272728e+002, 2.704344e+002
5.277549e+002, 2.697188e+002
5.282370e+002, 2.689643e+002
5.287191e+002, 2.682427e+002
5.292012e+002, 2.675599e+002
5.296833e+002, 2.669349e+002
5.301655e+002, 2.667293e+002
5.306476e+002, 2.672220e+002
5.311297e+002, 2.678473e+002
5.316118e+002, 2.679359e+002
5.320939e+002, 2.675637e+002
5.325760e+002, 2.671982e+002
5.330582e+002, 2.670104e+002
5.335403e+002, 2.667940e+002
5.340224e+002, 2.663292e+002
5.345045e+002, 2.656978e+002
5.349866e+002, 2.651367e+002
5.354688e+002, 2.647441e+002
5.359509e+002, 2.645230e+002
5.364330e+002, 2.644921e+002
5.369151e+002, 2.647436e+002
5.373972e+002, 2.649826e+002
5.378793e+002, 2.652912e+002
5.383615e+002, 2.655155e+002
5.388436e+002, 2.655433e+002
5.393257e+002, 2.654175e+002
5.398078e+002, 2.652368e+002
5.402899e+002, 2.650502e+002
5.407720e+002, 2.648698e+002
5.412542e+002, 2.647593e+002
5.417363e+002, 2.648002e+002
5.422184e+002, 2.646212e+002
5.427005e+002, 2.636281e+002
5.431826e+002, 2.628690e+002
5.436647e+002, 2.632330e+002
5.441469e+002, 2.644442e+002
5.446290e+002, 2.653478e+002
5.451111e+002, 2.652140e+002
5.455932e+002, 2.645535e+002
5.460753e+002, 2.640176e+002
5.465574e+002, 2.636129e+002
5.470396e+002, 2.635417e+002
5.475217e+002, 2.640624e+002
5.480038e+002, 2.647103e+002
5.484859e+002, 2.646688e+002
5.489680e+002, 2.638907e+002
5.494501e+002, 2.632054e+002
5.499323e+002, 2.627429e+002
5.504144e+002, 2.624444e+002
5.508965e+002, 2.623845e+002
5.513786e+002, 2.624662e+002
5.518607e+002, 2.623475e+002
5.523428e+002, 2.618157e+002
5.528250e+002, 2.611317e+002
5.533071e+002, 2.609840e+002
5.537892e+002, 2.619846e+002
5.542713e+002, 2.624030e+002
5.547534e+002, 2.618608e+002
5.552355e+002, 2.611620e+002
5.557177e+002, 2.605918e+002
5.561998e+002, 2.602552e+002
5.566819e+002, 2.603440e+002
5.571640e+002, 2.611104e+002
5.576461e+002, 2.620732e+002
5.581282e+002, 2.620139e+002
5.586104e+002, 2.607179e+002
5.590925e+002, 2.597956e+002
5.595746e+002, 2.597493e+002
5.600567e+002, 2.601138e+002
5.605388e+002, 2.606422e+002
5.610209e+002, 2.612617e+002
5.615031e+002, 2.614795e+002
5.619852e+002, 2.606417e+002
5.624673e+002, 2.596512e+002
5.629494e+002, 2.595179e+002
5.634315e+002, 2.601078e+002
5.639136e+002, 2.607815e+002
5.643958e+002, 2.613502e+002
5.648779e+002, 2.616325e+002
5.653600e+002, 2.612188e+002
5.658421e+002, 2.595924e+002
5.663242e+002, 2.588050e+002
5.668063e+002, 2.597006e+002
5.672885e+002, 2.606164e+002
5.677706e+002, 2.604111e+002
5.682527e+002, 2.595187e+002
5.687348e+002, 2.589838e+002
5.692169e+002, 2.593201e+002
5.696990e+002, 2.601720e+002
5.701812e+002, 2.608868e+002
5.706633e+002, 2.614518e+002
5.711454e+002, 2.619208e+002
5.716275e+002, 2.622366e+002
5.721096e+002, 2.625183e+002
5.725917e+002, 2.628314e+002
5.730739e+002, 2.631563e+002
5.735560e+002, 2.634578e+002
5.740381e+002, 2.637729e+002
5.745202e+002, 2.639726e+002
5.750023e+002, 2.637871e+002
5.754844e+002, 2.633092e+002
5.759666e+002, 2.630404e+002
5.764487e+002, 2.630891e+002
5.769308e+002, 2.634206e+002
5.774129e+002, 2.640559e+002
5.778950e+002, 2.650079e+002
5.783771e+002, 2.659651e+002
5.788593e+002, 2.670589e+002
5.793414e+002, 2.680101e+002
5.798235e+002, 2.686424e+002
5.803056e+002, 2.690645e+002
5.807877e+002, 2.694090e+002
5.812698e+002, 2.697307e+002
5.817520e+002, 2.701002e+002
5.822341e+002, 2.706458e+002
5.827162e+002, 2.714196e+002
5.831984e+002, 2.718966e+002
5.836805e+002, 2.717951e+002
5.841626e+002, 2.717380e+002
5.846447e+002, 2.718821e+002
5.851268e+002, 2.721720e+002
5.856089e+002, 2.725080e+002
5.860911e+002, 2.728620e+002
5.865732e+002, 2.733765e+002
5.870553e+002, 2.744276e+002
5.875374e+002, 2.757810e+002
5.880195e+002, 2.764108e+002
5.885016e+002, 2.761124e+002
5.889838e+002, 2.757330e+002
5.894659e+002, 2.758470e+002
5.899480e+002, 2.762603e+002
5.904301e+002, 2.763577e+002
5.909122e+002, 2.759128e+002
5.913943e+002, 2.756109e+002
5.918765e+002, 2.757875e+002
5.923586e+002, 2.761351e+002
5.928407e+002, 2.763624e+002
5.933228e+002, 2.764221e+002
5.938049e+002, 2.763954e+002
5.942870e+002, 2.763756e+002
5.947692e+002, 2.762668e+002
5.952513e+002, 2.755725e+002
5.957334e+002, 2.738474e+002
5.962155e+002, 2.723219e+002
5.966976e+002, 2.711017e+002
5.971797e+002, 2.701136e+002
5.976619e+002, 2.693453e+002
5.981440e+002, 2.687681e+002
5.986261e+002, 2.683098e+002
5.991082e+002, 2.679863e+002
5.995903e+002, 2.676974e+002
6.000724e+002, 2.672509e+002
6.005546e+002, 2.666450e+002
6.010367e+002, 2.659699e+002
6.015188e+002, 2.651508e+002
6.020009e+002, 2.644230e+002
6.024830e+002, 2.641564e+002
6.029651e+002, 2.643305e+002
6.034473e+002, 2.644707e+002
6.039294e+002, 2.645750e+002
6.044115e+002, 2.645639e+002
6.048936e+002, 2.644141e+002
6.053757e+002, 2.641090e+002
6.058578e+002, 2.635204e+002
6.063400e+002, 2.626169e+002
6.068221e+002, 2.617493e+002
6.073042e+002, 2.614591e+002
6.077863e+002, 2.618657e+002
6.082684e+002, 2.620931e+002
6.087505e+002, 2.623249e+002
6.092327e+002, 2.621352e+002
6.097148e+002, 2.608924e+002
6.101969e+002, 2.593966e+002
6.106790e+002, 2.586489e+002
6.111611e+002, 2.589301e+002
6.116432e+002, 2.597129e+002
6.121254e+002, 2.608051e+002
6.126075e+002, 2.620255e+002
6.130896e+002, 2.627877e+002
6.135717e+002, 2.630327e+002
6.140538e+002, 2.629368e+002
6.145359e+002, 2.624760e+002
6.150181e+002, 2.618058e+002
6.155002e+002, 2.613801e+002
6.159823e+002, 2.611949e+002
6.164644e+002, 2.612088e+002
6.169465e+002, 2.615831e+002
6.174286e+002, 2.620256e+002
6.179108e+002, 2.622892e+002
6.183929e+002, 2.623805e+002
6.188750e+002, 2.624059e+002
6.193571e+002, 2.624204e+002
6.198392e+002, 2.624668e+002
6.203214e+002, 2.627093e+002
6.208035e+002, 2.633076e+002
6.212856e+002, 2.636154e+002
6.217677e+002, 2.634854e+002
6.222498e+002, 2.631109e+002
6.227319e+002, 2.623685e+002
6.232141e+002, 2.614670e+002
6.236962e+002, 2.609576e+002
6.241783e+002, 2.612993e+002
6.246604e+002, 2.616553e+002
6.251425e+002, 2.610234e+002
6.256246e+002, 2.597088e+002
6.261068e+002, 2.587328e+002
6.265889e+002, 2.583221e+002
6.270710e+002, 2.582243e+002
6.275531e+002, 2.582811e+002
6.280352e+002, 2.584769e+002
6.285173e+002, 2.584283e+002
6.289995e+002, 2.579163e+002
6.294816e+002, 2.574757e+002
6.299637e+002, 2.574212e+002
6.304458e+002, 2.573586e+002
6.309279e+002, 2.568324e+002
6.314100e+002, 2.558412e+002
6.318922e+002, 2.547698e+002
6.323743e+002, 2.539205e+002
6.328564e+002, 2.532448e+002
6.333385e+002, 2.525390e+002
6.338206e+002, 2.517479e+002
6.343027e+002, 2.511704e+002
6.347849e+002, 2.511812e+002
6.352670e+002, 2.511618e+002
6.357491e+002, 2.503763e+002
6.362312e+002, 2.489133e+002
6.367133e+002, 2.477489e+002
6.371954e+002, 2.473142e+002
6.376776e+002, 2.471681e+002
6.381597e+002, 2.471118e+002
6.386418e+002, 2.470533e+002
6.391239e+002, 2.467246e+002
6.396060e+002, 2.460413e+002
6.400881e+002, 2.453259e+002
6.405703e+002, 2.450355e+002
6.410524e+002, 2.452451e+002
6.415345e+002, 2.450284e+002
6.420166e+002, 2.439543e+002
6.424987e+002, 2.429550e+002
6.429808e+002, 2.422067e+002
6.434630e+002, 2.416288e+002
6.439451e+002, 2.411601e+002
6.444272e+002, 2.407794e+002
6.449093e+002, 2.404136e+002
6.453914e+002, 2.398835e+002
6.458735e+002, 2.393524e+002
6.463557e+002, 2.393382e+002
6.468378e+002, 2.398674e+002
6.473199e+002, 2.402449e+002
6.478020e+002, 2.401833e+002
6.482841e+002, 2.398236e+002
6.487662e+002, 2.393119e+002
6.492484e+002, 2.385712e+002
6.497305e+002, 2.381046e+002
6.502126e+002, 2.382649e+002
6.506947e+002, 2.383948e+002
6.511768e+002, 2.380927e+002
6.516589e+002, 2.375149e+002
6.521411e+002, 2.369722e+002
6.526232e+002, 2.365728e+002
6.531053e+002, 2.361898e+002
6.535874e+002, 2.355860e+002
6.540695e+002, 2.347558e+002
6.545516e+002, 2.343109e+002
6.550338e+002, 2.343573e+002
6.555159e+002, 2.345841e+002
6.559980e+002, 2.351248e+002
6.564801e+002, 2.356409e+002
6.569622e+002, 2.356940e+002
6.574443e+002, 2.352040e+002
6.579265e+002, 2.346940e+002
6.584086e+002, 2.344733e+002
6.588907e+002, 2.342980e+002
6.593728e+002, 2.338783e+002
6.598549e+002, 2.332470e+002
6.603370e+002, 2.325482e+002
6.608192e+002, 2.318277e+002
6.613013e+002, 2.312698e+002
6.617834e+002, 2.312727e+002
6.622655e+002, 2.321192e+002
6.627476e+002, 2.324634e+002
6.632297e+002, 2.317684e+002
6.637119e+002, 2.311581e+002
6.641940e+002, 2.310128e+002
6.646761e+002, 2.311363e+002
6.651582e+002, 2.313124e+002
6.656403e+002, 2.314841e+002
6.661224e+002, 2.315168e+002
6.666046e+002, 2.313051e+002
6.670867e+002, 2.308733e+002
6.675688e+002, 2.301823e+002
6.680509e+002, 2.292331e+002
6.685330e+002, 2.283976e+002
6.690151e+002, 2.278292e+002
6.694973e+002, 2.275335e+002
6.699794e+002, 2.275609e+002
6.704615e+002, 2.280929e+002
6.709436e+002, 2.284590e+002
6.714257e+002, 2.286553e+002
6.719078e+002, 2.286761e+002
6.723900e+002, 2.284403e+002
6.728721e+002, 2.280471e+002
6.733542e+002, 2.276125e+002
6.738363e+002, 2.271850e+002
6.743184e+002, 2.268555e+002
6.748005e+002, 2.266974e+002
6.752827e+002, 2.267189e+002
6.757648e+002, 2.271276e+002
6.762469e+002, 2.281350e+002
6.767290e+002, 2.287683e+002
6.772111e+002, 2.284224e+002
6.776932e+002, 2.274992e+002
6.781754e+002, 2.266725e+002
6.786575e+002, 2.259192e+002
6.791396e+002, 2.253751e+002
6.796217e+002, 2.251131e+002
6.801038e+002, 2.250300e+002
6.805859e+002, 2.250909e+002
6.810681e+002, 2.252636e+002
6.815502e+002, 2.255684e+002
6.820323e+002, 2.260002e+002
6.825144e+002, 2.263155e+002
6.829965e+002, 2.260570e+002
6.834786e+002, 2.251656e+002
6.839608e+002, 2.247473e+002
6.844429e+002, 2.250965e+002
6.849250e+002, 2.253899e+002
6.854071e+002, 2.251745e+002
6.858892e+002, 2.247966e+002
6.863713e+002, 2.246694e+002
6.868535e+002, 2.248484e+002
6.873356e+002, 2.248930e+002
6.878177e+002, 2.245508e+002
6.882998e+002, 2.240280e+002
6.887819e+002, 2.234239e+002
6.892640e+002, 2.228150e+002
6.897462e+002, 2.224440e+002
6.902283e+002, 2.224065e+002
6.907104e+002, 2.224757e+002
6.911925e+002, 2.222834e+002
6.916746e+002, 2.217526e+002
6.921567e+002, 2.216769e+002
6.926389e+002, 2.225865e+002
6.931210e+002, 2.232300e+002
6.936031e+002, 2.231605e+002
6.940852e+002, 2.227678e+002
6.945673e+002, 2.224268e+002
6.950494e+002, 2.221887e+002
6.955316e+002, 2.219284e+002
6.960137e+002, 2.214839e+002
6.964958e+002, 2.210336e+002
6.969779e+002, 2.208241e+002
6.974600e+002, 2.208273e+002
6.979421e+002, 2.209652e+002
6.984243e+002, 2.212409e+002
6.989064e+002, 2.213711e+002
6.993885e+002, 2.209375e+002
6.998706e+002, 2.198684e+002
7.003527e+002, 2.191799e+002
7.008348e+002, 2.190613e+002
7.013170e+002, 2.191060e+002
7.017991e+002, 2.192374e+002
7.022812e+002, 2.195086e+002
7.027633e+002, 2.202487e+002
7.032454e+002, 2.213084e+002
7.037275e+002, 2.217461e+002
7.042097e+002, 2.205195e+002
7.046918e+002, 2.187131e+002
7.051739e+002, 2.180077e+002
7.056560e+002, 2.182707e+002
7.061381e+002, 2.187981e+002
7.066202e+002, 2.194730e+002
7.071024e+002, 2.199272e+002
7.075845e+002, 2.197279e+002
7.080666e+002, 2.188857e+002
7.085487e+002, 2.182061e+002
7.090308e+002, 2.175802e+002
7.095129e+002, 2.172492e+002
7.099951e+002, 2.174634e+002
7.104772e+002, 2.178213e+002
7.109593e+002, 2.179521e+002
7.114414e+002, 2.178915e+002
7.119235e+002, 2.179680e+002
7.124056e+002, 2.184561e+002
7.128878e+002, 2.190173e+002
7.133699e+002, 2.191727e+002
7.138520e+002, 2.189362e+002
7.143341e+002, 2.183115e+002
7.148162e+002, 2.172165e+002
7.152983e+002, 2.161477e+002
7.157805e+002, 2.154628e+002
7.162626e+002, 2.151472e+002
7.167447e+002, 2.151160e+002
7.172268e+002, 2.155442e+002
7.177089e+002, 2.159872e+002
7.181910e+002, 2.167190e+002
7.186732e+002, 2.171922e+002
7.191553e+002, 2.168390e+002
7.196374e+002, 2.159111e+002
7.201195e+002, 2.150164e+002
7.206016e+002, 2.144154e+002
7.210837e+002, 2.141628e+002
7.215659e+002, 2.145673e+002
7.220480e+002, 2.154549e+002
7.225301e+002, 2.157784e+002
7.230122e+002, 2.153516e+002
7.234943e+002, 2.148706e+002
7.239764e+002, 2.147290e+002
7.244586e+002, 2.148255e+002
7.249407e+002, 2.149400e+002
7.254228e+002, 2.152390e+002
7.259049e+002, 2.151396e+002
7.263870e+002, 2.141442e+002
7.268691e+002, 2.132110e+002
7.273513e+002, 2.128842e+002
7.278334e+002, 2.129814e+002
7.283155e+002, 2.132037e+002
7.287976e+002, 2.134396e+002
7.292797e+002, 2.135986e+002
7.297618e+002, 2.135350e+002
7.302440e+002, 2.133155e+002
7.307261e+002, 2.132130e+002
7.312082e+002, 2.132482e+002
7.316903e+002, 2.131612e+002
7.321724e+002, 2.127790e+002
7.326545e+002, 2.123438e+002
7.331367e+002, 2.122302e+002
7.336188e+002, 2.125188e+002
7.341009e+002, 2.126931e+002
7.345830e+002, 2.128152e+002
7.350651e+002, 2.127531e+002
7.355472e+002, 2.122783e+002
7.360294e+002, 2.116984e+002
7.365115e+002, 2.114129e+002
7.369936e+002, 2.114399e+002
7.374757e+002, 2.114113e+002
7.379578e+002, 2.108975e+002
7.384399e+002, 2.102994e+002
7.389221e+002, 2.106270e+002
7.394042e+002, 2.117990e+002
7.398863e+002, 2.125306e+002
7.403684e+002, 2.124479e+002
7.408505e+002, 2.120766e+002
7.413326e+002, 2.118810e+002
7.418148e+002, 2.118396e+002
7.422969e+002, 2.117051e+002
7.427790e+002, 2.116125e+002
7.432611e+002, 2.112485e+002
7.437432e+002, 2.101676e+002
7.442253e+002, 2.091473e+002
7.447075e+002, 2.087661e+002
7.451896e+002, 2.089505e+002
7.456717e+002, 2.094114e+002
7.461538e+002, 2.100928e+002
7.466359e+002, 2.106510e+002
7.471180e+002, 2.104590e+002
7.476002e+002, 2.097886e+002
7.480823e+002, 2.097139e+002
7.485644e+002, 2.103796e+002
7.490465e+002, 2.110891e+002
7.495286e+002, 2.115377e+002
7.500107e+002, 2.116048e+002
7.504929e+002, 2.109316e+002
7.509750e+002, 2.088856e+002
7.514571e+002, 2.076724e+002
7.519392e+002, 2.075970e+002
7.524213e+002, 2.079419e+002
7.529034e+002, 2.088188e+002
7.533856e+002, 2.097636e+002
7.538677e+002, 2.101536e+002
7.543498e+002, 2.098606e+002
7.548319e+002, 2.093529e+002
7.553140e+002, 2.089233e+002
7.557961e+002, 2.085271e+002
7.562783e+002, 2.079663e+002
7.567604e+002, 2.073257e+002
7.572425e+002, 2.071548e+002
7.577246e+002, 2.076703e+002
7.582067e+002, 2.083717e+002
7.586888e+002, 2.086833e+002
7.591710e+002, 2.086076e+002
7.596531e+002, 2.084780e+002
7.601352e+002, 2.083470e+002
7.606173e+002, 2.080740e+002
7.610994e+002, 2.074100e+002
7.615815e+002, 2.067957e+002
7.620637e+002, 2.066530e+002
7.625458e+002, 2.068609e+002
7.630279e+002, 2.069217e+002
7.635100e+002, 2.065938e+002
7.639921e+002, 2.061497e+002
7.644742e+002, 2.056412e+002
7.649564e+002, 2.052330e+002
7.654385e+002, 2.053319e+002
7.659206e+002, 2.059221e+002
7.664027e+002, 2.065658e+002
7.668848e+002, 2.070164e+002
7.673669e+002, 2.071984e+002
7.678491e+002, 2.068380e+002
7.683312e+002, 2.056938e+002
7.688133e+002, 2.049180e+002
7.692954e+002, 2.046615e+002
7.697775e+002, 2.046035e+002
7.702596e+002, 2.046874e+002
7.707418e+002, 2.048378e+002
7.712239e+002, 2.050101e+002
7.717060e+002, 2.052227e+002
7.721881e+002, 2.052014e+002
7.726702e+002, 2.046474e+002
7.731523e+002, 2.039954e+002
7.736345e+002, 2.034969e+002
7.741166e+002, 2.031979e+002
7.745987e+002, 2.032053e+002
7.750808e+002, 2.035223e+002
7.755629e+002, 2.039420e+002
7.760450e+002, 2.043019e+002
7.765272e+002, 2.045679e+002
7.770093e+002, 2.045226e+002
7.774914e+002, 2.040916e+002
7.779735e+002, 2.037734e+002
7.784556e+002, 2.037881e+002
7.789377e+002, 2.037774e+002
7.794199e+002, 2.032853e+002
7.799020e+002, 2.024629e+002
7.803841e+002, 2.020553e+002
7.808662e+002, 2.023424e+002
7.813483e+002, 2.026685e+002
7.818304e+002, 2.028225e+002
7.823126e+002, 2.030010e+002
7.827947e+002, 2.035591e+002
7.832768e+002, 2.042649e+002
7.837589e+002, 2.044600e+002
7.842410e+002, 2.038307e+002
7.847231e+002, 2.029951e+002
7.852053e+002, 2.027408e+002
7.856874e+002, 2.029200e+002
7.861695e+002, 2.028846e+002
7.866516e+002, 2.025845e+002
7.871337e+002, 2.025628e+002
7.876158e+002, 2.031742e+002
7.880980e+002, 2.039044e+002
7.885801e+002, 2.039188e+002
7.890622e+002, 2.030546e+002
7.895443e+002, 2.025385e+002
7.900264e+002, 2.027634e+002
7.905085e+002, 2.028249e+002
7.909907e+002, 2.022732e+002
7.914728e+002, 2.016590e+002
7.919549e+002, 2.016317e+002
7.924370e+002, 2.020861e+002
7.929191e+002, 2.022447e+002
7.934012e+002, 2.014747e+002
7.938834e+002, 2.006491e+002
7.943655e+002, 2.008063e+002
7.948476e+002, 2.014962e+002
7.953297e+002, 2.017278e+002
7.958118e+002, 2.013912e+002
7.962939e+002, 2.009731e+002
7.967761e+002, 2.007775e+002
7.972582e+002, 2.007504e+002
7.977403e+002, 2.008516e+002
7.982224e+002, 2.012548e+002
7.987045e+002, 2.009522e+002
7.991866e+002, 1.990460e+002
7.996688e+002, 1.978093e+002
8.001509e+002, 1.992271e+002
8.006330e+002, 2.014050e+002
8.011151e+002, 2.017917e+002
8.015972e+002, 2.000674e+002
8.020793e+002, 1.990572e+002
8.025615e+002, 2.004452e+002
8.030436e+002, 2.018356e+002
8.035257e+002, 2.014711e+002
8.040078e+002, 2.002739e+002
8.044899e+002, 1.997079e+002
8.049720e+002, 1.999888e+002
8.054542e+002, 2.003105e+002
8.059363e+002, 2.000148e+002
8.064184e+002, 1.994031e+002
8.069005e+002, 1.991874e+002
8.073826e+002, 1.993450e+002
8.078647e+002, 1.993470e+002
8.083469e+002, 1.990683e+002
8.088290e+002, 1.988059e+002
8.093111e+002, 1.988039e+002
8.097932e+002, 1.989441e+002
8.102753e+002, 1.988623e+002
8.107574e+002, 1.984124e+002
8.112396e+002, 1.980307e+002
8.117217e+002, 1.975633e+002
8.122038e+002, 1.973317e+002
8.126859e+002, 1.976368e+002
8.131680e+002, 1.981808e+002
8.136501e+002, 1.985957e+002
8.141323e+002, 1.988057e+002
8.146144e+002, 1.988810e+002
8.150965e+002, 1.988590e+002
8.155786e+002, 1.987314e+002
8.160607e+002, 1.983664e+002
8.165428e+002, 1.979001e+002
8.170250e+002, 1.977621e+002
8.175071e+002, 1.980197e+002
8.179892e+002, 1.982081e+002
8.184713e+002, 1.978904e+002
8.189534e+002, 1.972828e+002
8.194355e+002, 1.973149e+002
8.199177e+002, 1.982972e+002
8.203998e+002, 1.983509e+002
8.208819e+002, 1.964402e+002
8.213640e+002, 1.949896e+002
8.218461e+002, 1.961728e+002
8.223282e+002, 1.985737e+002
8.228104e+002, 1.992476e+002
8.232925e+002, 1.975540e+002
8.237746e+002, 1.963926e+002
8.242567e+002, 1.969669e+002
8.247388e+002, 1.975430e+002
8.252209e+002, 1.966909e+002
8.257031e+002, 1.954106e+002
8.261852e+002, 1.955005e+002
8.266673e+002, 1.971019e+002
8.271494e+002, 1.983589e+002
8.276315e+002, 1.975945e+002
8.281136e+002, 1.959268e+002
8.285958e+002, 1.952173e+002
8.290779e+002, 1.953089e+002
8.295600e+002, 1.954413e+002
8.300421e+002, 1.954658e+002
8.305242e+002, 1.955448e+002
8.310063e+002, 1.958115e+002
8.314885e+002, 1.961948e+002
8.319706e+002, 1.964855e+002
8.324527e+002, 1.967085e+002
8.329348e+002, 1.967658e+002
8.334169e+002, 1.964970e+002
8.338990e+002, 1.962631e+002
8.343812e+002, 1.963638e+002
8.348633e+002, 1.964912e+002
8.353454e+002, 1.961298e+002
8.358275e+002, 1.952168e+002
8.363096e+002, 1.946684e+002
8.367917e+002, 1.952246e+002
8.372739e+002, 1.957651e+002
8.377560e+002, 1.955190e+002
8.382381e+002, 1.948566e+002
8.387202e+002, 1.941962e+002
8.392023e+002, 1.936820e+002
8.396844e+002, 1.934773e+002
8.401666e+002, 1.937439e+002
8.406487e+002, 1.942009e+002
8.411308e+002, 1.943850e+002
8.416129e+002, 1.943169e+002
8.420950e+002, 1.941535e+002
8.425771e+002, 1.939170e+002
8.430593e+002, 1.934464e+002
8.435414e+002, 1.925291e+002
8.440235e+002, 1.915883e+002
8.445056e+002, 1.914330e+002
8.449877e+002, 1.922274e+002
8.454698e+002, 1.929914e+002
8.459520e+002, 1.942057e+002
8.464341e+002, 1.947345e+002
8.469162e+002, 1.937305e+002
8.473983e+002, 1.924053e+002
8.478804e+002, 1.919837e+002
8.483625e+002, 1.923050e+002
8.488447e+002, 1.920686e+002
8.493268e+002, 1.900297e+002
8.498089e+002, 1.886530e+002
8.502910e+002, 1.902119e+002
8.507731e+002, 1.925790e+002
8.512552e+002, 1.931693e+002
8.517374e+002, 1.921827e+002
8.522195e+002, 1.911329e+002
8.527016e+002, 1.907151e+002
8.531837e+002, 1.906708e+002
8.536658e+002, 1.907582e+002
8.541479e+002, 1.909398e+002
8.546301e+002, 1.910368e+002
8.551122e+002, 1.910452e+002
8.555943e+002, 1.910293e+002
8.560764e+002, 1.910046e+002
8.565585e+002, 1.909961e+002
8.570406e+002, 1.910781e+002
8.575228e+002, 1.912178e+002
8.580049e+002, 1.909777e+002
8.584870e+002, 1.897829e+002
8.589691e+002, 1.891990e+002
8.594512e+002, 1.900748e+002
8.599333e+002, 1.908458e+002
8.604155e+002, 1.905873e+002
8.608976e+002, 1.896751e+002
8.613797e+002, 1.888207e+002
8.618618e+002, 1.881345e+002
8.623439e+002, 1.875954e+002
8.628260e+002, 1.870354e+002
8.633082e+002, 1.867706e+002
8.637903e+002, 1.872851e+002
8.642724e+002, 1.881850e+002
8.647545e+002, 1.888526e+002
8.652366e+002, 1.891295e+002
8.657188e+002, 1.891307e+002
8.662009e+002, 1.889168e+002
8.666830e+002, 1.885353e+002
8.671651e+002, 1.879991e+002
8.676472e+002, 1.873526e+002
8.681293e+002, 1.869098e+002
8.686115e+002, 1.867236e+002
8.690936e+002, 1.865551e+002
8.695757e+002, 1.862213e+002
8.700578e+002, 1.859214e+002
8.705399e+002, 1.861139e+002
8.710220e+002, 1.869533e+002
8.715042e+002, 1.875136e+002
8.719863e+002, 1.877770e+002
8.724684e+002, 1.877883e+002
8.729505e+002, 1.873669e+002
8.734326e+002, 1.868398e+002
8.739147e+002, 1.865282e+002
8.743969e+002, 1.863911e+002
8.748790e+002, 1.861100e+002
8.753611e+002, 1.853839e+002
8.758432e+002, 1.848520e+002
8.763253e+002, 1.849046e+002
8.768074e+002, 1.851044e+002
8.772896e+002, 1.850789e+002
8.777717e+002, 1.848752e+002
8.782538e+002, 1.847217e+002
8.787359e+002, 1.846993e+002
8.792180e+002, 1.845925e+002
8.797001e+002, 1.840209e+002
8.801823e+002, 1.833183e+002
8.806644e+002, 1.832755e+002
8.811465e+002, 1.836967e+002
8.816286e+002, 1.835664e+002
8.821107e+002, 1.826399e+002
8.825928e+002, 1.818547e+002
8.830750e+002, 1.820814e+002
8.835571e+002, 1.829898e+002
8.840392e+002, 1.834410e+002
8.845213e+002, 1.833461e+002
8.850034e+002, 1.833162e+002
8.854855e+002, 1.835004e+002
8.859677e+002, 1.835167e+002
8.864498e+002, 1.830949e+002
8.869319e+002, 1.824467e+002
8.874140e+002, 1.818734e+002
8.878961e+002, 1.813420e+002
8.883782e+002, 1.811290e+002
8.888604e+002, 1.815786e+002
8.893425e+002, 1.819172e+002
8.898246e+002, 1.819410e+002
8.903067e+002, 1.817641e+002
8.907888e+002, 1.815156e+002
8.912709e+002, 1.811651e+002
8.917531e+002, 1.804774e+002
8.922352e+002, 1.791255e+002
8.927173e+002, 1.782305e+002
8.931994e+002, 1.790584e+002
8.936815e+002, 1.803892e+002
8.941636e+002, 1.806928e+002
8.946458e+002, 1.802643e+002
8.951279e+002, 1.801756e+002
8.956100e+002, 1.807451e+002
8.960921e+002, 1.813946e+002
8.965742e+002, 1.815741e+002
8.970563e+002, 1.814169e+002
8.975385e+002, 1.812820e+002
8.980206e+002, 1.811566e+002
8.985027e+002, 1.808644e+002
8.989848e+002, 1.803603e+002
8.994669e+002, 1.797997e+002
8.999490e+002, 1.792137e+002
9.004312e+002, 1.787721e+002
9.009133e+002, 1.789405e+002
9.013954e+002, 1.799760e+002
9.018775e+002, 1.804181e+002
9.023596e+002, 1.799703e+002
9.028417e+002, 1.794305e+002
9.033239e+002, 1.789060e+002
9.038060e+002, 1.785067e+002
9.042881e+002, 1.783868e+002
9.047702e+002, 1.785037e+002
9.052523e+002, 1.785833e+002
9.057344e+002, 1.786412e+002
9.062166e+002, 1.785884e+002
9.066987e+002, 1.782838e+002
9.071808e+002, 1.779760e+002
9.076629e+002, 1.777246e+002
9.081450e+002, 1.776432e+002
9.086271e+002, 1.780723e+002
9.091093e+002, 1.790574e+002
9.095914e+002, 1.796974e+002
9.100735e+002, 1.788782e+002
9.105556e+002, 1.778137e+002
9.110377e+002, 1.780515e+002
9.115198e+002, 1.790081e+002
9.120020e+002, 1.794187e+002
9.124841e+002, 1.791437e+002
9.129662e+002, 1.788951e+002
9.134483e+002, 1.791418e+002
9.139304e+002, 1.795099e+002
9.144125e+002, 1.792507e+002
9.148947e+002, 1.784772e+002
9.153768e+002, 1.781589e+002
9.158589e+002, 1.783586e+002
9.163410e+002, 1.784533e+002
9.168231e+002, 1.781587e+002
9.173052e+002, 1.779363e+002
9.177874e+002, 1.783838e+002
9.182695e+002, 1.793880e+002
9.187516e+002, 1.798073e+002
9.192337e+002, 1.793835e+002
9.197158e+002, 1.789995e+002
9.201979e+002, 1.787999e+002
9.206801e+002, 1.785736e+002
9.211622e+002, 1.778566e+002
9.216443e+002, 1.771832e+002
9.221264e+002, 1.776639e+002
9.226085e+002, 1.796017e+002
9.230906e+002, 1.806812e+002
9.235728e+002, 1.797493e+002
9.240549e+002, 1.789449e+002
9.245370e+002, 1.793288e+002
9.250191e+002, 1.799919e+002
9.255012e+002, 1.798988e+002
9.259833e+002, 1.792739e+002
9.264655e+002, 1.791571e+002
9.269476e+002, 1.800616e+002
9.274297e+002, 1.809940e+002
9.279118e+002, 1.812286e+002
9.283939e+002, 1.811607e+002
9.288760e+002, 1.811158e+002
9.293582e+002, 1.811598e+002
9.298403e+002, 1.814223e+002
9.303224e+002, 1.818992e+002
9.308045e+002, 1.823582e+002
9.312866e+002, 1.826529e+002
9.317687e+002, 1.827350e+002
9.322509e+002, 1.822542e+002
9.327330e+002, 1.814448e+002
9.332151e+002, 1.815419e+002
9.336972e+002, 1.826347e+002
9.341793e+002, 1.835534e+002
9.346614e+002, 1.837053e+002
9.351436e+002, 1.835198e+002
9.356257e+002, 1.835992e+002
9.361078e+002, 1.839335e+002
9.365899e+002, 1.843548e+002
9.370720e+002, 1.849108e+002
9.375541e+002, 1.853436e+002
9.380363e+002, 1.855730e+002
9.385184e+002, 1.857137e+002
9.390005e+002, 1.858085e+002
9.394826e+002, 1.858918e+002
9.399647e+002, 1.860803e+002
9.404468e+002, 1.864735e+002
9.409290e+002, 1.866908e+002
9.414111e+002, 1.864186e+002
9.418932e+002, 1.863727e+002
9.423753e+002, 1.869583e+002
9.428574e+002, 1.877032e+002
9.433395e+002, 1.882345e+002
9.438217e+002, 1.885302e+002
9.443038e+002, 1.885950e+002
9.447859e+002, 1.881810e+002
9.452680e+002, 1.880269e+002
9.457501e+002, 1.885598e+002
9.462322e+002, 1.892951e+002
9.467144e+002, 1.899154e+002
9.471965e+002, 1.904570e+002
9.476786e+002, 1.911203e+002
9.481607e+002, 1.918993e+002
9.486428e+002, 1.923819e+002
9.491249e+002, 1.920018e+002
9.496071e+002, 1.916031e+002
9.500892e+002, 1.920264e+002
9.505713e+002, 1.930283e+002
9.510534e+002, 1.944627e+002
9.515355e+002, 1.960969e+002
9.520176e+002, 1.972471e+002
9.524998e+002, 1.976141e+002
9.529819e+002, 1.977026e+002
9.534640e+002, 1.981438e+002
9.539461e+002, 1.987640e+002
9.544282e+002, 1.988715e+002
9.549103e+002, 1.985828e+002
9.553925e+002, 1.989093e+002
9.558746e+002, 2.000673e+002
9.563567e+002, 2.012027e+002
9.568388e+002, 2.016730e+002
9.573209e+002, 2.019216e+002
9.578030e+002, 2.030843e+002
9.582852e+002, 2.053140e+002
9.587673e+002, 2.065497e+002
9.592494e+002, 2.064693e+002
9.597315e+002, 2.066849e+002
9.602136e+002, 2.078052e+002
9.606957e+002, 2.091437e+002
9.611779e+002, 2.099955e+002
9.616600e+002, 2.105039e+002
9.621421e+002, 2.114442e+002
9.626242e+002, 2.132894e+002
9.631063e+002, 2.146307e+002
9.635884e+002, 2.154651e+002
9.640706e+002, 2.157715e+002
9.645527e+002, 2.151755e+002
9.650348e+002, 2.143067e+002
9.655169e+002, 2.137949e+002
9.659990e+002, 2.136566e+002
9.664811e+002, 2.137951e+002
9.669633e+002, 2.145499e+002
9.674454e+002, 2.150787e+002
9.679275e+002, 2.153139e+002
9.684096e+002, 2.151450e+002
9.688917e+002, 2.142225e+002
9.693738e+002, 2.129616e+002
9.698560e+002, 2.120135e+002
9.703381e+002, 2.115031e+002
9.708202e+002, 2.111369e+002
9.713023e+002, 2.108908e+002
9.717844e+002, 2.106109e+002
9.722665e+002, 2.103722e+002
9.727487e+002, 2.099236e+002
9.732308e+002, 2.087978e+002
9.737129e+002, 2.072025e+002
9.741950e+002, 2.057303e+002
9.746771e+002, 2.046129e+002
9.751592e+002, 2.038116e+002
9.756414e+002, 2.034414e+002
9.761235e+002, 2.032665e+002
9.766056e+002, 2.029755e+002
9.770877e+002, 2.025998e+002
9.775698e+002, 2.023093e+002
9.780519e+002, 2.020674e+002
9.785341e+002, 2.015174e+002
9.790162e+002, 2.004395e+002
9.794983e+002, 1.990714e+002
9.799804e+002, 1.975439e+002
9.804625e+002, 1.960251e+002
9.809446e+002, 1.953549e+002
9.814268e+002, 1.954419e+002
9.819089e+002, 1.952030e+002
9.823910e+002, 1.943521e+002
9.828731e+002, 1.932534e+002
9.833552e+002, 1.921426e+002
9.838373e+002, 1.911729e+002
9.843195e+002, 1.908890e+002
9.848016e+002, 1.913502e+002
9.852837e+002, 1.911079e+002
9.857658e+002, 1.899897e+002
9.862479e+002, 1.888640e+002
9.867300e+002, 1.879644e+002
9.872122e+002, 1.873732e+002
9.876943e+002, 1.872800e+002
9.881764e+002, 1.875213e+002
9.886585e+002, 1.871465e+002
9.891406e+002, 1.857677e+002
9.896227e+002, 1.849181e+002
9.901049e+002, 1.849369e+002
9.905870e+002, 1.849717e+002
9.910691e+002, 1.846174e+002
9.915512e+002, 1.841650e+002
9.920333e+002, 1.839580e+002
9.925154e+002, 1.839919e+002
9.929976e+002, 1.840715e+002
9.934797e+002, 1.844792e+002
9.939618e+002, 1.845032e+002
9.944439e+002, 1.836763e+002
9.949260e+002, 1.829404e+002
9.954081e+002, 1.830259e+002
9.958903e+002, 1.833115e+002
9.963724e+002, 1.826628e+002
9.968545e+002, 1.810538e+002
9.973366e+002, 1.804646e+002
9.978187e+002, 1.823272e+002
9.983008e+002, 1.837978e+002
9.987830e+002, 1.837468e+002
9.992651e+002, 1.833480e+002
9.997472e+002, 1.834508e+002
1.000229e+003, 1.838168e+002
1.000711e+003, 1.838876e+002
1.001194e+003, 1.835627e+002
1.001676e+003, 1.832985e+002
1.002158e+003, 1.833932e+002
1.002640e+003, 1.834841e+002
1.003122e+003, 1.831529e+002
1.003604e+003, 1.828779e+002
1.004086e+003, 1.833218e+002
1.004568e+003, 1.842190e+002
1.005050e+003, 1.848649e+002
1.005533e+003, 1.850381e+002
1.006015e+003, 1.849917e+002
1.006497e+003, 1.848540e+002
1.006979e+003, 1.846255e+002
1.007461e+003, 1.842141e+002
1.007943e+003, 1.837613e+002
1.008425e+003, 1.834417e+002
1.008907e+003, 1.832973e+002
1.009390e+003, 1.833549e+002
1.009872e+003, 1.836256e+002
1.010354e+003, 1.840942e+002
1.010836e+003, 1.849726e+002
1.011318e+003, 1.858889e+002
1.011800e+003, 1.862362e+002
1.012282e+003, 1.861267e+002
1.012764e+003, 1.857209e+002
1.013246e+003, 1.851310e+002
1.013729e+003, 1.846690e+002
1.014211e+003, 1.844957e+002
1.014693e+003, 1.845794e+002
1.015175e+003, 1.851265e+002
1.015657e+003, 1.858311e+002
1.016139e+003, 1.855071e+002
1.016621e+003, 1.844456e+002
1.017103e+003, 1.842147e+002
1.017586e+003, 1.850770e+002
1.018068e+003, 1.861957e+002
1.018550e+003, 1.870752e+002
1.019032e+003, 1.877007e+002
1.019514e+003, 1.879397e+002
1.019996e+003, 1.878670e+002
1.020478e+003, 1.880264e+002
1.020960e+003, 1.884122e+002
1.021442e+003, 1.887154e+002
1.021925e+003, 1.888408e+002
1.022407e+003, 1.893440e+002
1.022889e+003, 1.906742e+002
1.023371e+003, 1.923720e+002
1.023853e+003, 1.935069e+002
1.024335e+003, 1.940704e+002
1.024817e+003, 1.946001e+002
1.025299e+003, 1.950323e+002
1.025781e+003, 1.959867e+002
1.026264e+003, 1.977409e+002
1.026746e+003, 1.995174e+002
1.027228e+003, 2.007085e+002
1.027710e+003, 2.015591e+002
1.028192e+003, 2.026053e+002
1.028674e+003, 2.038018e+002
1.029156e+003, 2.055714e+002
1.029638e+003, 2.080955e+002
1.030120e+003, 2.105975e+002
1.030603e+003, 2.130216e+002
1.031085e+003, 2.150373e+002
1.031567e+003, 2.162233e+002
1.032049e+003, 2.169431e+002
1.032531e+003, 2.182380e+002
1.033013e+003, 2.203928e+002
1.033495e+003, 2.218693e+002
1.033977e+003, 2.227169e+002
1.034460e+003, 2.227415e+002
1.034942e+003, 2.214864e+002
1.035424e+003, 2.199867e+002
1.035906e+003, 2.191632e+002
1.036388e+003, 2.186769e+002
1.036870e+003, 2.175213e+002
1.037352e+003, 2.154778e+002
1.037834e+003, 2.135492e+002
1.038317e+003, 2.117063e+002
1.038799e+003, 2.100375e+002
1.039281e+003, 2.088457e+002
1.039763e+003, 2.075474e+002
1.040245e+003, 2.057659e+002
1.040727e+003, 2.035166e+002
1.041209e+003, 2.007281e+002
1.041691e+003, 1.971066e+002
1.042173e+003, 1.939138e+002
1.042656e+003, 1.911351e+002
1.043138e+003, 1.887914e+002
1.043620e+003, 1.872601e+002
1.044102e+003, 1.858196e+002
1.044584e+003, 1.837214e+002
1.045066e+003, 1.813223e+002
1.045548e+003, 1.796794e+002
1.046030e+003, 1.791706e+002
1.046512e+003, 1.781740e+002
1.046995e+003, 1.758801e+002
1.047477e+003, 1.739193e+002
1.047959e+003, 1.730933e+002
1.048441e+003, 1.724854e+002
1.048923e+003, 1.713557e+002
1.049405e+003, 1.698795e+002
1.049887e+003, 1.684958e+002
1.050369e+003, 1.671917e+002
1.050852e+003, 1.663302e+002
1.051334e+003, 1.665143e+002
1.051816e+003, 1.664462e+002
1.052298e+003, 1.653391e+002
1.052780e+003, 1.641109e+002
1.053262e+003, 1.636784e+002
1.053744e+003, 1.636697e+002
1.054226e+003, 1.630208e+002
1.054708e+003, 1.614159e+002
1.055191e+003, 1.603975e+002
1.055673e+003, 1.610832e+002
1.056155e+003, 1.615085e+002
1.056637e+003, 1.605107e+002
1.057119e+003, 1.593070e+002
1.057601e+003, 1.588889e+002
1.058083e+003, 1.590681e+002
1.058565e+003, 1.594175e+002
1.059047e+003, 1.598872e+002
1.059530e+003, 1.599184e+002
1.060012e+003, 1.589951e+002
1.060494e+003, 1.580242e+002
1.060976e+003, 1.573933e+002
1.061458e+003, 1.568736e+002
1.061940e+003, 1.563369e+002
1.062422e+003, 1.557323e+002
1.062904e+003, 1.548558e+002
1.063387e+003, 1.536798e+002
1.063869e+003, 1.530346e+002
1.064351e+003, 1.537194e+002
1.064833e+003, 1.543621e+002
1.065315e+003, 1.542940e+002
1.065797e+003, 1.539847e+002
1.066279e+003, 1.537387e+002
1.066761e+003, 1.535835e+002
1.067244e+003, 1.535828e+002
1.067726e+003, 1.537186e+002
1.068208e+003, 1.536121e+002
1.068690e+003, 1.528633e+002
1.069172e+003, 1.521709e+002
1.069654e+003, 1.519253e+002
1.070136e+003, 1.517938e+002
1.070618e+003, 1.514774e+002
1.071100e+003, 1.511014e+002
1.071583e+003, 1.508782e+002
1.072065e+003, 1.508487e+002
1.072547e+003, 1.509964e+002
1.073029e+003, 1.514722e+002
1.073511e+003, 1.518530e+002
1.073993e+003, 1.519355e+002
1.074475e+003, 1.518475e+002
1.074957e+003, 1.515989e+002
1.075439e+003, 1.512945e+002
1.075922e+003, 1.510916e+002
1.076404e+003, 1.509859e+002
1.076886e+003, 1.508082e+002
1.077368e+003, 1.504774e+002
1.077850e+003, 1.501074e+002
1.078332e+003, 1.494971e+002
1.078814e+003, 1.491299e+002
1.079297e+003, 1.497354e+002
1.079779e+003, 1.505611e+002
1.080261e+003, 1.504588e+002
1.080743e+003, 1.495495e+002
1.081225e+003, 1.489733e+002
1.081707e+003, 1.492262e+002
1.082189e+003, 1.494525e+002
1.082671e+003, 1.491916e+002
1.083153e+003, 1.488582e+002
1.083635e+003, 1.486695e+002
1.084118e+003, 1.485948e+002
1.084600e+003, 1.485340e+002
1.085082e+003, 1.485400e+002
1.085564e+003, 1.488776e+002
1.086046e+003, 1.497397e+002
1.086528e+003, 1.502759e+002
1.087010e+003, 1.498916e+002
1.087492e+003, 1.493671e+002
1.087975e+003, 1.490574e+002
1.088457e+003, 1.488863e+002
1.088939e+003, 1.488071e+002
1.089421e+003, 1.487728e+002
1.089903e+003, 1.486855e+002
1.090385e+003, 1.485139e+002
1.090867e+003, 1.484165e+002
1.091349e+003, 1.485507e+002
1.091832e+003, 1.486475e+002
1.092314e+003, 1.485798e+002
1.092796e+003, 1.484252e+002
1.093278e+003, 1.481736e+002
1.093760e+003, 1.479162e+002
1.094242e+003, 1.478288e+002
1.094724e+003, 1.479374e+002
1.095206e+003, 1.480228e+002
1.095688e+003, 1.480146e+002
1.096171e+003, 1.479722e+002
1.096653e+003, 1.479525e+002
1.097135e+003, 1.478675e+002
1.097617e+003, 1.475123e+002
1.098099e+003, 1.471295e+002
1.098581e+003, 1.470721e+002
1.099063e+003, 1.473639e+002
1.099545e+003, 1.477896e+002
1.100027e+003, 1.485395e+002
1.100510e+003, 1.490131e+002
1.100992e+003, 1.492559e+002
1.101474e+003, 1.489609e+002
1.101956e+003, 1.472409e+002
1.102438e+003, 1.454033e+002
1.102920e+003, 1.450944e+002
1.103402e+003, 1.461217e+002
1.103884e+003, 1.469798e+002
1.104367e+003, 1.474133e+002
1.104849e+003, 1.477195e+002
1.105331e+003, 1.479594e+002
1.105813e+003, 1.480652e+002
1.106295e+003, 1.478264e+002
1.106777e+003, 1.476000e+002
1.107259e+003, 1.478923e+002
1.107741e+003, 1.484380e+002
1.108224e+003, 1.483719e+002
1.108706e+003, 1.473679e+002
1.109188e+003, 1.468032e+002
1.109670e+003, 1.473282e+002
1.110152e+003, 1.475661e+002
1.110634e+003, 1.468535e+002
1.111116e+003, 1.461075e+002
1.111598e+003, 1.458932e+002
1.112080e+003, 1.460776e+002
1.112563e+003, 1.465240e+002
1.113045e+003, 1.473150e+002
1.113527e+003, 1.475608e+002
1.114009e+003, 1.468229e+002
1.114491e+003, 1.462520e+002
1.114973e+003, 1.459284e+002
1.115455e+003, 1.458372e+002
1.115937e+003, 1.461458e+002
1.116419e+003, 1.465369e+002
1.116902e+003, 1.465901e+002
1.117384e+003, 1.463321e+002
1.117866e+003, 1.460785e+002
1.118348e+003, 1.458327e+002
1.118830e+003, 1.455661e+002
1.119312e+003, 1.451320e+002
1.119794e+003, 1.450001e+002
1.120276e+003, 1.455706e+002
1.120759e+003, 1.461075e+002
1.121241e+003, 1.457578e+002
1.121723e+003, 1.449061e+002
1.122205e+003, 1.450070e+002
1.122687e+003, 1.464140e+002
1.123169e+003, 1.471188e+002
1.123651e+003, 1.469809e+002
1.124133e+003, 1.465381e+002
1.124615e+003, 1.457421e+002
1.125098e+003, 1.452324e+002
1.125580e+003, 1.455602e+002
1.126062e+003, 1.462329e+002
1.126544e+003, 1.462273e+002
1.127026e+003, 1.455682e+002
1.127508e+003, 1.455707e+002
1.127990e+003, 1.463805e+002
1.128472e+003, 1.464840e+002
1.128954e+003, 1.455256e+002
1.129437e+003, 1.448292e+002
1.129919e+003, 1.450842e+002
1.130401e+003, 1.456738e+002
1.130883e+003, 1.458609e+002
1.131365e+003, 1.457169e+002
1.131847e+003, 1.454721e+002
1.132329e+003, 1.451395e+002
1.132811e+003, 1.451031e+002
1.133294e+003, 1.453723e+002
1.133776e+003, 1.451601e+002
1.134258e+003, 1.442020e+002
1.134740e+003, 1.433549e+002
1.135222e+003, 1.433604e+002
1.135704e+003, 1.438239e+002
1.136186e+003, 1.440255e+002
1.136668e+003, 1.440151e+002
1.137151e+003, 1.440543e+002
1.137633e+003, 1.440823e+002
1.138115e+003, 1.436247e+002
1.138597e+003, 1.426843e+002
1.139079e+003, 1.420386e+002
1.139561e+003, 1.421282e+002
1.140043e+003, 1.424114e+002
1.140525e+003, 1.422371e+002
1.141007e+003, 1.418156e+002
1.141490e+003, 1.413961e+002
1.141972e+003, 1.411031e+002
1.142454e+003, 1.413194e+002
1.142936e+003, 1.419436e+002
1.143418e+003, 1.424709e+002
1.143900e+003, 1.427442e+002
1.144382e+003, 1.431034e+002
1.144864e+003, 1.439583e+002
1.145346e+003, 1.446992e+002
1.145829e+003, 1.446956e+002
1.146311e+003, 1.441745e+002
1.146793e+003, 1.430838e+002
1.147275e+003, 1.418427e+002
1.147757e+003, 1.412799e+002
1.148239e+003, 1.413937e+002
1.148721e+003, 1.413995e+002
1.149203e+003, 1.408815e+002
1.149686e+003, 1.405209e+002
1.150168e+003, 1.409843e+002
1.150650e+003, 1.415110e+002
1.151132e+003, 1.415228e+002
1.151614e+003, 1.413051e+002
1.152096e+003, 1.411973e+002
1.152578e+003, 1.411605e+002
1.153060e+003, 1.409313e+002
1.153542e+003, 1.404384e+002
1.154025e+003, 1.402343e+002
1.154507e+003, 1.408413e+002
1.154989e+003, 1.413032e+002
1.155471e+003, 1.412187e+002
1.155953e+003, 1.409529e+002
1.156435e+003, 1.406062e+002
1.156917e+003, 1.403094e+002
1.157399e+003, 1.403240e+002
1.157881e+003, 1.405959e+002
1.158364e+003, 1.405348e+002
1.158846e+003, 1.397689e+002
1.159328e+003, 1.392688e+002
1.159810e+003, 1.391423e+002
1.160292e+003, 1.392355e+002
1.160774e+003, 1.397627e+002
1.161256e+003, 1.402058e+002
1.161738e+003, 1.400488e+002
1.162221e+003, 1.395653e+002
1.162703e+003, 1.394348e+002
1.163185e+003, 1.397195e+002
1.163667e+003, 1.398590e+002
1.164149e+003, 1.398640e+002
1.164631e+003, 1.396504e+002
1.165113e+003, 1.390663e+002
1.165595e+003, 1.386764e+002
1.166078e+003, 1.387984e+002
1.166560e+003, 1.391754e+002
1.167042e+003, 1.395473e+002
1.167524e+003, 1.398477e+002
1.168006e+003, 1.396665e+002
1.168488e+003, 1.389730e+002
1.168970e+003, 1.386901e+002
1.169452e+003, 1.388769e+002
1.169934e+003, 1.390022e+002
1.170417e+003, 1.389087e+002
1.170899e+003, 1.388968e+002
1.171381e+003, 1.392024e+002
1.171863e+003, 1.396087e+002
1.172345e+003, 1.397850e+002
1.172827e+003, 1.397512e+002
1.173309e+003, 1.394667e+002
1.173791e+003, 1.390353e+002
1.174273e+003, 1.389305e+002
1.174756e+003, 1.391329e+002
1.175238e+003, 1.391479e+002
1.175720e+003, 1.387975e+002
1.176202e+003, 1.384741e+002
1.176684e+003, 1.385183e+002
1.177166e+003, 1.387546e+002
1.177648e+003, 1.392376e+002
1.178130e+003, 1.395723e+002
1.178613e+003, 1.389504e+002
1.179095e+003, 1.378103e+002
1.179577e+003, 1.370811e+002
1.180059e+003, 1.368584e+002
1.180541e+003, 1.366417e+002
1.181023e+003, 1.361881e+002
1.181505e+003, 1.359041e+002
1.181987e+003, 1.364160e+002
1.182469e+003, 1.367272e+002
1.182952e+003, 1.356070e+002
1.183434e+003, 1.344626e+002
1.183916e+003, 1.350756e+002
1.184398e+003, 1.365889e+002
1.184880e+003, 1.370421e+002
1.185362e+003, 1.361840e+002
1.185844e+003, 1.355903e+002
1.186326e+003, 1.360232e+002
1.186808e+003, 1.361285e+002
1.187291e+003, 1.351634e+002
1.187773e+003, 1.344558e+002
1.188255e+003, 1.350762e+002
1.188737e+003, 1.357871e+002
1.189219e+003, 1.351165e+002
1.189701e+003, 1.336543e+002
1.190183e+003, 1.332892e+002
1.190665e+003, 1.343219e+002
1.191148e+003, 1.348515e+002
1.191630e+003, 1.346226e+002
1.192112e+003, 1.346368e+002
1.192594e+003, 1.351650e+002
1.193076e+003, 1.356587e+002
1.193558e+003, 1.358600e+002
1.194040e+003, 1.357990e+002
1.194522e+003, 1.354577e+002
1.195005e+003, 1.349466e+002
1.195487e+003, 1.348157e+002
1.195969e+003, 1.350384e+002
1.196451e+003, 1.347184e+002
1.196933e+003, 1.338546e+002
1.197415e+003, 1.334971e+002
1.197897e+003, 1.338963e+002
1.198379e+003, 1.344466e+002
1.198861e+003, 1.347831e+002
1.199344e+003, 1.348614e+002
1.199826e+003, 1.345877e+002
1.200308e+003, 1.340411e+002
1.200790e+003, 1.331178e+002
1.201272e+003, 1.321581e+002
1.201754e+003, 1.319854e+002
1.202236e+003, 1.324886e+002
1.202718e+003, 1.331515e+002
1.203200e+003, 1.337777e+002
1.203683e+003, 1.342159e+002
1.204165e+003, 1.343546e+002
1.204647e+003, 1.343410e+002
1.205129e+003, 1.340704e+002
1.205611e+003, 1.339220e+002
1.206093e+003, 1.344976e+002
1.206575e+003, 1.351804e+002
1.207057e+003, 1.351156e+002
1.207540e+003, 1.344992e+002
1.208022e+003, 1.340574e+002
1.208504e+003, 1.339436e+002
1.208986e+003, 1.338990e+002
1.209468e+003, 1.337907e+002
1.209950e+003, 1.338508e+002
1.210432e+003, 1.343408e+002
1.210914e+003, 1.347616e+002
1.211396e+003, 1.349319e+002
1.211879e+003, 1.348414e+002
1.212361e+003, 1.343191e+002
1.212843e+003, 1.335497e+002
1.213325e+003, 1.333383e+002
1.213807e+003, 1.338999e+002
1.214289e+003, 1.339337e+002
1.214771e+003, 1.332507e+002
1.215253e+003, 1.328208e+002
1.215735e+003, 1.328766e+002
1.216218e+003, 1.330217e+002
1.216700e+003, 1.330622e+002
1.217182e+003, 1.329693e+002
1.217664e+003, 1.326288e+002
1.218146e+003, 1.322469e+002
1.218628e+003, 1.327276e+002
1.219110e+003, 1.337759e+002
1.219592e+003, 1.336523e+002
1.220075e+003, 1.325511e+002
1.220557e+003, 1.319665e+002
1.221039e+003, 1.322131e+002
1.221521e+003, 1.328066e+002
1.222003e+003, 1.335024e+002
1.222485e+003, 1.339514e+002
1.222967e+003, 1.336730e+002
1.223449e+003, 1.330889e+002
1.223932e+003, 1.323418e+002
1.224414e+003, 1.318480e+002
1.224896e+003, 1.325402e+002
1.225378e+003, 1.337601e+002
1.225860e+003, 1.340847e+002
1.226342e+003, 1.333953e+002
1.226824e+003, 1.327088e+002
1.227306e+003, 1.322997e+002
1.227788e+003, 1.321365e+002
1.228271e+003, 1.324065e+002
1.228753e+003, 1.326584e+002
1.229235e+003, 1.327612e+002
1.229717e+003, 1.327087e+002
1.230199e+003, 1.324346e+002
1.230681e+003, 1.320315e+002
1.231163e+003, 1.316032e+002
1.231645e+003, 1.311573e+002
1.232127e+003, 1.310597e+002
1.232610e+003, 1.314939e+002
1.233092e+003, 1.316832e+002
1.233574e+003, 1.314823e+002
1.234056e+003, 1.314788e+002
1.234538e+003, 1.319305e+002
1.235020e+003, 1.322266e+002
1.235502e+003, 1.318814e+002
1.235984e+003, 1.312675e+002
1.236467e+003, 1.310053e+002
1.236949e+003, 1.310447e+002
1.237431e+003, 1.312941e+002
1.237913e+003, 1.316561e+002
1.238395e+003, 1.315690e+002
1.238877e+003, 1.311186e+002
1.239359e+003, 1.310334e+002
1.239841e+003, 1.314700e+002
1.240323e+003, 1.318144e+002
1.240806e+003, 1.316490e+002
1.241288e+003, 1.313798e+002
1.241770e+003, 1.312566e+002
1.242252e+003, 1.313597e+002
1.242734e+003, 1.321310e+002
1.243216e+003, 1.328922e+002
1.243698e+003, 1.324315e+002
1.244180e+003, 1.314207e+002
1.244662e+003, 1.317717e+002
1.245145e+003, 1.336126e+002
1.245627e+003, 1.340847e+002
1.246109e+003, 1.311008e+002
1.246591e+003, 1.291900e+002
1.247073e+003, 1.299910e+002
1.247555e+003, 1.308008e+002
1.248037e+003, 1.305075e+002
1.248519e+003, 1.302013e+002
1.249002e+003, 1.308937e+002
1.249484e+003, 1.318165e+002
1.249966e+003, 1.313949e+002
1.250448e+003, 1.297665e+002
1.250930e+003, 1.294248e+002
1.251412e+003, 1.305101e+002
1.251894e+003, 1.314878e+002
1.252376e+003, 1.322665e+002
1.252859e+003, 1.320734e+002
1.253341e+003, 1.306862e+002
1.253823e+003, 1.294774e+002
1.254305e+003, 1.293901e+002
1.254787e+003, 1.299205e+002
1.255269e+003, 1.306621e+002
1.255751e+003, 1.313245e+002
1.256233e+003, 1.312494e+002
1.256715e+003, 1.307675e+002
1.257198e+003, 1.304206e+002
1.257680e+003, 1.302419e+002
1.258162e+003, 1.301879e+002
1.258644e+003, 1.302043e+002
1.259126e+003, 1.300516e+002
1.259608e+003, 1.294883e+002
1.260090e+003, 1.293034e+002
1.260572e+003, 1.302646e+002
1.261054e+003, 1.311627e+002
1.261537e+003, 1.316215e+002
1.262019e+003, 1.315923e+002
1.262501e+003, 1.307188e+002
1.262983e+003, 1.295373e+002
1.263465e+003, 1.288411e+002
1.263947e+003, 1.286049e+002
1.264429e+003, 1.285581e+002
1.264911e+003, 1.286395e+002
1.265394e+003, 1.292338e+002
1.265876e+003, 1.305965e+002
1.266358e+003, 1.312631e+002
1.266840e+003, 1.308319e+002
1.267322e+003, 1.301308e+002
1.267804e+003, 1.295731e+002
1.268286e+003, 1.293452e+002
1.268768e+003, 1.297881e+002
1.269250e+003, 1.304913e+002
1.269733e+003, 1.304874e+002
1.270215e+003, 1.300199e+002
1.270697e+003, 1.295683e+002
1.271179e+003, 1.292269e+002
1.271661e+003, 1.291648e+002
1.272143e+003, 1.293565e+002
1.272625e+003, 1.296647e+002
1.273107e+003, 1.300367e+002
1.273589e+003, 1.301724e+002
1.274072e+003, 1.296342e+002
1.274554e+003, 1.291757e+002
1.275036e+003, 1.292351e+002
1.275518e+003, 1.294268e+002
1.276000e+003, 1.294560e+002
1.276482e+003, 1.295077e+002
1.276964e+003, 1.299309e+002
1.277446e+003, 1.305593e+002
1.277929e+003, 1.308055e+002
1.278411e+003, 1.306463e+002
1.278893e+003, 1.303052e+002
1.279375e+003, 1.296369e+002
1.279857e+003, 1.293730e+002
1.280339e+003, 1.296565e+002
1.280821e+003, 1.300025e+002
1.281303e+003, 1.302621e+002
1.281786e+003, 1.304456e+002
1.282268e+003, 1.305459e+002
##END=



