##NAMES=Alluaudite
##RRUFFID=R141067
##IDEAL CHEMISTRY=NaMn^2+^Fe^3+^_2_(PO_4_)_3_
##LOCALITY=Pleasant Valley pegmatite, Fourmile, Custer District, Custer County, South Dakota, USA
##OWNER=RRUFF
##SOURCE=Rob Lavinsky
##DESCRIPTION=Massive dark-brown crystals, associated with quartz, mica, and dark-green schorl.
##STATUS=The identification of this mineral is confirmed by single-crystal X-ray diffraction and chemical analysis.
##URL=rruff.info/R141067
##MEASURED CHEMISTRY=(Na_0.93_Ca_0.03_)_∑=0.96_(Mn_0.77_Fe^2+^_0.21_Mg_0.06_)_∑=1.04_Fe^3+^_2_(PO_4_)_3_
8.806445e+001, 9.187289e+002
8.854657e+001, 9.179697e+002
8.902869e+001, 9.177515e+002
8.951080e+001, 9.176325e+002
8.999292e+001, 9.182300e+002
9.047504e+001, 9.209586e+002
9.095715e+001, 9.267139e+002
9.143927e+001, 9.324246e+002
9.192139e+001, 9.334359e+002
9.240350e+001, 9.300422e+002
9.288562e+001, 9.254473e+002
9.336774e+001, 9.149392e+002
9.384985e+001, 8.930559e+002
9.433197e+001, 8.606973e+002
9.481409e+001, 8.296501e+002
9.529620e+001, 7.988927e+002
9.577832e+001, 7.720256e+002
9.626044e+001, 7.494783e+002
9.674255e+001, 7.302372e+002
9.722467e+001, 7.133863e+002
9.770679e+001, 6.994037e+002
9.818890e+001, 6.855423e+002
9.867102e+001, 6.702857e+002
9.915314e+001, 6.551329e+002
9.963525e+001, 6.409905e+002
1.001174e+002, 6.281686e+002
1.005995e+002, 6.166617e+002
1.010816e+002, 6.065624e+002
1.015637e+002, 5.979169e+002
1.020458e+002, 5.905974e+002
1.025280e+002, 5.845953e+002
1.030101e+002, 5.797307e+002
1.034922e+002, 5.757889e+002
1.039743e+002, 5.726639e+002
1.044564e+002, 5.703326e+002
1.049385e+002, 5.686804e+002
1.054207e+002, 5.699946e+002
1.059028e+002, 5.698666e+002
1.063849e+002, 5.654077e+002
1.068670e+002, 5.567226e+002
1.073491e+002, 5.465427e+002
1.078312e+002, 5.369979e+002
1.083134e+002, 5.281037e+002
1.087955e+002, 5.200276e+002
1.092776e+002, 5.130016e+002
1.097597e+002, 5.067339e+002
1.102418e+002, 5.010436e+002
1.107239e+002, 4.962645e+002
1.112061e+002, 4.911738e+002
1.116882e+002, 4.843347e+002
1.121703e+002, 4.760915e+002
1.126524e+002, 4.681729e+002
1.131345e+002, 4.617530e+002
1.136166e+002, 4.567258e+002
1.140988e+002, 4.515365e+002
1.145809e+002, 4.455786e+002
1.150630e+002, 4.397647e+002
1.155451e+002, 4.347826e+002
1.160272e+002, 4.305911e+002
1.165093e+002, 4.265941e+002
1.169915e+002, 4.220143e+002
1.174736e+002, 4.165779e+002
1.179557e+002, 4.112701e+002
1.184378e+002, 4.054502e+002
1.189199e+002, 4.001704e+002
1.194020e+002, 3.962368e+002
1.198842e+002, 3.938974e+002
1.203663e+002, 3.927573e+002
1.208484e+002, 3.919140e+002
1.213305e+002, 3.914640e+002
1.218126e+002, 3.912589e+002
1.222947e+002, 3.918388e+002
1.227769e+002, 3.925329e+002
1.232590e+002, 3.923912e+002
1.237411e+002, 3.908510e+002
1.242232e+002, 3.882669e+002
1.247053e+002, 3.862506e+002
1.251874e+002, 3.853623e+002
1.256696e+002, 3.843176e+002
1.261517e+002, 3.824321e+002
1.266338e+002, 3.799074e+002
1.271159e+002, 3.776098e+002
1.275980e+002, 3.764133e+002
1.280801e+002, 3.757567e+002
1.285623e+002, 3.738679e+002
1.290444e+002, 3.699208e+002
1.295265e+002, 3.652583e+002
1.300086e+002, 3.613671e+002
1.304907e+002, 3.585161e+002
1.309728e+002, 3.551208e+002
1.314550e+002, 3.494493e+002
1.319371e+002, 3.426866e+002
1.324192e+002, 3.364120e+002
1.329013e+002, 3.312271e+002
1.333834e+002, 3.269782e+002
1.338655e+002, 3.232662e+002
1.343477e+002, 3.203386e+002
1.348298e+002, 3.176449e+002
1.353119e+002, 3.148138e+002
1.357940e+002, 3.120244e+002
1.362761e+002, 3.096437e+002
1.367582e+002, 3.080431e+002
1.372404e+002, 3.072593e+002
1.377225e+002, 3.062150e+002
1.382046e+002, 3.053970e+002
1.386867e+002, 3.038695e+002
1.391688e+002, 3.009088e+002
1.396509e+002, 2.968107e+002
1.401331e+002, 2.925134e+002
1.406152e+002, 2.889349e+002
1.410973e+002, 2.863026e+002
1.415794e+002, 2.837336e+002
1.420615e+002, 2.808780e+002
1.425436e+002, 2.783102e+002
1.430258e+002, 2.765198e+002
1.435079e+002, 2.755375e+002
1.439900e+002, 2.748366e+002
1.444721e+002, 2.736854e+002
1.449542e+002, 2.717621e+002
1.454363e+002, 2.702222e+002
1.459185e+002, 2.694850e+002
1.464006e+002, 2.689976e+002
1.468827e+002, 2.680893e+002
1.473648e+002, 2.665352e+002
1.478469e+002, 2.646660e+002
1.483290e+002, 2.629868e+002
1.488112e+002, 2.614830e+002
1.492933e+002, 2.600664e+002
1.497754e+002, 2.586747e+002
1.502575e+002, 2.573431e+002
1.507396e+002, 2.561729e+002
1.512217e+002, 2.552671e+002
1.517039e+002, 2.544700e+002
1.521860e+002, 2.535812e+002
1.526681e+002, 2.525862e+002
1.531502e+002, 2.515966e+002
1.536323e+002, 2.507379e+002
1.541144e+002, 2.500227e+002
1.545966e+002, 2.491953e+002
1.550787e+002, 2.482208e+002
1.555608e+002, 2.470727e+002
1.560429e+002, 2.456128e+002
1.565250e+002, 2.437926e+002
1.570071e+002, 2.419870e+002
1.574893e+002, 2.406727e+002
1.579714e+002, 2.398544e+002
1.584535e+002, 2.395780e+002
1.589356e+002, 2.402933e+002
1.594177e+002, 2.412306e+002
1.598998e+002, 2.417351e+002
1.603820e+002, 2.415609e+002
1.608641e+002, 2.410470e+002
1.613462e+002, 2.410273e+002
1.618283e+002, 2.420973e+002
1.623104e+002, 2.428373e+002
1.627925e+002, 2.429521e+002
1.632747e+002, 2.427529e+002
1.637568e+002, 2.424976e+002
1.642389e+002, 2.423065e+002
1.647210e+002, 2.422549e+002
1.652031e+002, 2.426838e+002
1.656852e+002, 2.442283e+002
1.661674e+002, 2.455402e+002
1.666495e+002, 2.463415e+002
1.671316e+002, 2.467731e+002
1.676137e+002, 2.470902e+002
1.680958e+002, 2.474487e+002
1.685779e+002, 2.478064e+002
1.690601e+002, 2.478990e+002
1.695422e+002, 2.479107e+002
1.700243e+002, 2.475547e+002
1.705064e+002, 2.465632e+002
1.709885e+002, 2.450490e+002
1.714706e+002, 2.434069e+002
1.719528e+002, 2.417480e+002
1.724349e+002, 2.402122e+002
1.729170e+002, 2.391784e+002
1.733991e+002, 2.390591e+002
1.738812e+002, 2.391031e+002
1.743633e+002, 2.386720e+002
1.748455e+002, 2.377521e+002
1.753276e+002, 2.368884e+002
1.758097e+002, 2.365003e+002
1.762918e+002, 2.363830e+002
1.767739e+002, 2.361800e+002
1.772560e+002, 2.358176e+002
1.777382e+002, 2.353405e+002
1.782203e+002, 2.348474e+002
1.787024e+002, 2.343958e+002
1.791845e+002, 2.337375e+002
1.796666e+002, 2.326756e+002
1.801487e+002, 2.313640e+002
1.806309e+002, 2.299461e+002
1.811130e+002, 2.283779e+002
1.815951e+002, 2.267991e+002
1.820772e+002, 2.256241e+002
1.825593e+002, 2.251885e+002
1.830414e+002, 2.246122e+002
1.835236e+002, 2.233251e+002
1.840057e+002, 2.217717e+002
1.844878e+002, 2.205867e+002
1.849699e+002, 2.201765e+002
1.854520e+002, 2.204355e+002
1.859341e+002, 2.207095e+002
1.864163e+002, 2.212255e+002
1.868984e+002, 2.214751e+002
1.873805e+002, 2.211185e+002
1.878626e+002, 2.204372e+002
1.883447e+002, 2.199275e+002
1.888268e+002, 2.199723e+002
1.893090e+002, 2.205464e+002
1.897911e+002, 2.207616e+002
1.902732e+002, 2.203769e+002
1.907553e+002, 2.198830e+002
1.912374e+002, 2.193926e+002
1.917195e+002, 2.188961e+002
1.922017e+002, 2.183650e+002
1.926838e+002, 2.178084e+002
1.931659e+002, 2.172385e+002
1.936480e+002, 2.161708e+002
1.941301e+002, 2.144422e+002
1.946122e+002, 2.125062e+002
1.950944e+002, 2.104622e+002
1.955765e+002, 2.083619e+002
1.960586e+002, 2.062749e+002
1.965407e+002, 2.042651e+002
1.970228e+002, 2.023352e+002
1.975049e+002, 2.004517e+002
1.979871e+002, 1.984440e+002
1.984692e+002, 1.966021e+002
1.989513e+002, 1.950862e+002
1.994334e+002, 1.939119e+002
1.999155e+002, 1.930658e+002
2.003976e+002, 1.926857e+002
2.008798e+002, 1.927126e+002
2.013619e+002, 1.923489e+002
2.018440e+002, 1.910652e+002
2.023261e+002, 1.896967e+002
2.028082e+002, 1.891245e+002
2.032903e+002, 1.894271e+002
2.037725e+002, 1.897563e+002
2.042546e+002, 1.894276e+002
2.047367e+002, 1.885999e+002
2.052188e+002, 1.877131e+002
2.057009e+002, 1.868276e+002
2.061830e+002, 1.859303e+002
2.066652e+002, 1.850085e+002
2.071473e+002, 1.840625e+002
2.076294e+002, 1.830926e+002
2.081115e+002, 1.820222e+002
2.085936e+002, 1.809355e+002
2.090757e+002, 1.799772e+002
2.095579e+002, 1.792844e+002
2.100400e+002, 1.787236e+002
2.105221e+002, 1.780147e+002
2.110042e+002, 1.771157e+002
2.114863e+002, 1.761553e+002
2.119685e+002, 1.750932e+002
2.124506e+002, 1.740310e+002
2.129327e+002, 1.731374e+002
2.134148e+002, 1.725180e+002
2.138969e+002, 1.721034e+002
2.143790e+002, 1.716732e+002
2.148612e+002, 1.711388e+002
2.153433e+002, 1.707476e+002
2.158254e+002, 1.706065e+002
2.163075e+002, 1.706311e+002
2.167896e+002, 1.707056e+002
2.172717e+002, 1.707644e+002
2.177539e+002, 1.708262e+002
2.182360e+002, 1.709884e+002
2.187181e+002, 1.714243e+002
2.192002e+002, 1.717257e+002
2.196823e+002, 1.717545e+002
2.201644e+002, 1.716077e+002
2.206466e+002, 1.714251e+002
2.211287e+002, 1.712950e+002
2.216108e+002, 1.711909e+002
2.220929e+002, 1.709554e+002
2.225750e+002, 1.702335e+002
2.230571e+002, 1.697820e+002
2.235393e+002, 1.699272e+002
2.240214e+002, 1.703836e+002
2.245035e+002, 1.707265e+002
2.249856e+002, 1.706909e+002
2.254677e+002, 1.703570e+002
2.259498e+002, 1.702325e+002
2.264320e+002, 1.705601e+002
2.269141e+002, 1.708400e+002
2.273962e+002, 1.709762e+002
2.278783e+002, 1.710147e+002
2.283604e+002, 1.710377e+002
2.288425e+002, 1.710927e+002
2.293247e+002, 1.711679e+002
2.298068e+002, 1.711924e+002
2.302889e+002, 1.713037e+002
2.307710e+002, 1.712162e+002
2.312531e+002, 1.707439e+002
2.317352e+002, 1.700416e+002
2.322174e+002, 1.693728e+002
2.326995e+002, 1.688786e+002
2.331816e+002, 1.685216e+002
2.336637e+002, 1.681424e+002
2.341458e+002, 1.678214e+002
2.346279e+002, 1.673931e+002
2.351101e+002, 1.666829e+002
2.355922e+002, 1.658397e+002
2.360743e+002, 1.651650e+002
2.365564e+002, 1.648223e+002
2.370385e+002, 1.647204e+002
2.375206e+002, 1.645880e+002
2.380028e+002, 1.644834e+002
2.384849e+002, 1.642763e+002
2.389670e+002, 1.638852e+002
2.394491e+002, 1.633612e+002
2.399312e+002, 1.627740e+002
2.404133e+002, 1.621011e+002
2.408955e+002, 1.614753e+002
2.413776e+002, 1.612380e+002
2.418597e+002, 1.615813e+002
2.423418e+002, 1.617750e+002
2.428239e+002, 1.613643e+002
2.433060e+002, 1.605523e+002
2.437882e+002, 1.598784e+002
2.442703e+002, 1.595094e+002
2.447524e+002, 1.594112e+002
2.452345e+002, 1.595790e+002
2.457166e+002, 1.600882e+002
2.461987e+002, 1.604607e+002
2.466809e+002, 1.602763e+002
2.471630e+002, 1.597316e+002
2.476451e+002, 1.595127e+002
2.481272e+002, 1.599198e+002
2.486093e+002, 1.605739e+002
2.490914e+002, 1.610010e+002
2.495736e+002, 1.611951e+002
2.500557e+002, 1.613969e+002
2.505378e+002, 1.618295e+002
2.510199e+002, 1.624030e+002
2.515020e+002, 1.626973e+002
2.519841e+002, 1.624090e+002
2.524663e+002, 1.621425e+002
2.529484e+002, 1.625347e+002
2.534305e+002, 1.635080e+002
2.539126e+002, 1.644041e+002
2.543947e+002, 1.647492e+002
2.548768e+002, 1.646631e+002
2.553590e+002, 1.647097e+002
2.558411e+002, 1.650147e+002
2.563232e+002, 1.653773e+002
2.568053e+002, 1.657103e+002
2.572874e+002, 1.659941e+002
2.577695e+002, 1.661555e+002
2.582516e+002, 1.661488e+002
2.587338e+002, 1.659811e+002
2.592159e+002, 1.656643e+002
2.596980e+002, 1.650423e+002
2.601801e+002, 1.645022e+002
2.606622e+002, 1.643649e+002
2.611443e+002, 1.644585e+002
2.616265e+002, 1.643955e+002
2.621086e+002, 1.638730e+002
2.625907e+002, 1.629985e+002
2.630728e+002, 1.622903e+002
2.635549e+002, 1.618790e+002
2.640370e+002, 1.614325e+002
2.645192e+002, 1.606411e+002
2.650013e+002, 1.597514e+002
2.654834e+002, 1.591779e+002
2.659655e+002, 1.592007e+002
2.664476e+002, 1.596632e+002
2.669297e+002, 1.599838e+002
2.674119e+002, 1.599313e+002
2.678940e+002, 1.601319e+002
2.683761e+002, 1.609996e+002
2.688582e+002, 1.621164e+002
2.693403e+002, 1.629150e+002
2.698224e+002, 1.630594e+002
2.703046e+002, 1.628703e+002
2.707867e+002, 1.632556e+002
2.712688e+002, 1.645411e+002
2.717509e+002, 1.658545e+002
2.722330e+002, 1.670189e+002
2.727151e+002, 1.681101e+002
2.731973e+002, 1.692182e+002
2.736794e+002, 1.703811e+002
2.741615e+002, 1.715556e+002
2.746436e+002, 1.726839e+002
2.751257e+002, 1.738560e+002
2.756078e+002, 1.747791e+002
2.760900e+002, 1.755788e+002
2.765721e+002, 1.760774e+002
2.770542e+002, 1.760369e+002
2.775363e+002, 1.754132e+002
2.780184e+002, 1.744826e+002
2.785005e+002, 1.737881e+002
2.789827e+002, 1.737685e+002
2.794648e+002, 1.729518e+002
2.799469e+002, 1.708583e+002
2.804290e+002, 1.683785e+002
2.809111e+002, 1.660120e+002
2.813932e+002, 1.638913e+002
2.818754e+002, 1.619489e+002
2.823575e+002, 1.601340e+002
2.828396e+002, 1.585526e+002
2.833217e+002, 1.567944e+002
2.838038e+002, 1.547134e+002
2.842859e+002, 1.526025e+002
2.847681e+002, 1.506481e+002
2.852502e+002, 1.488386e+002
2.857323e+002, 1.470409e+002
2.862144e+002, 1.451150e+002
2.866965e+002, 1.430337e+002
2.871786e+002, 1.409586e+002
2.876608e+002, 1.385752e+002
2.881429e+002, 1.364757e+002
2.886250e+002, 1.349874e+002
2.891071e+002, 1.340159e+002
2.895892e+002, 1.332449e+002
2.900714e+002, 1.324199e+002
2.905535e+002, 1.315423e+002
2.910356e+002, 1.307605e+002
2.915177e+002, 1.303708e+002
2.919998e+002, 1.297720e+002
2.924819e+002, 1.285875e+002
2.929641e+002, 1.270816e+002
2.934462e+002, 1.257548e+002
2.939283e+002, 1.249304e+002
2.944104e+002, 1.245402e+002
2.948925e+002, 1.240802e+002
2.953746e+002, 1.234978e+002
2.958568e+002, 1.228986e+002
2.963389e+002, 1.221151e+002
2.968210e+002, 1.213676e+002
2.973031e+002, 1.210566e+002
2.977852e+002, 1.213854e+002
2.982673e+002, 1.220313e+002
2.987495e+002, 1.220262e+002
2.992316e+002, 1.204894e+002
2.997137e+002, 1.193697e+002
3.001958e+002, 1.190118e+002
3.006779e+002, 1.189708e+002
3.011600e+002, 1.188185e+002
3.016422e+002, 1.184086e+002
3.021243e+002, 1.178485e+002
3.026064e+002, 1.173329e+002
3.030885e+002, 1.169019e+002
3.035706e+002, 1.164476e+002
3.040527e+002, 1.158807e+002
3.045349e+002, 1.153521e+002
3.050170e+002, 1.150415e+002
3.054991e+002, 1.149473e+002
3.059812e+002, 1.148510e+002
3.064633e+002, 1.144507e+002
3.069454e+002, 1.135600e+002
3.074276e+002, 1.130405e+002
3.079097e+002, 1.131817e+002
3.083918e+002, 1.133837e+002
3.088739e+002, 1.132918e+002
3.093560e+002, 1.129317e+002
3.098381e+002, 1.125744e+002
3.103203e+002, 1.124782e+002
3.108024e+002, 1.126776e+002
3.112845e+002, 1.125969e+002
3.117666e+002, 1.119907e+002
3.122487e+002, 1.113994e+002
3.127308e+002, 1.109772e+002
3.132130e+002, 1.107156e+002
3.136951e+002, 1.105912e+002
3.141772e+002, 1.106088e+002
3.146593e+002, 1.107219e+002
3.151414e+002, 1.106049e+002
3.156235e+002, 1.098064e+002
3.161057e+002, 1.092970e+002
3.165878e+002, 1.094099e+002
3.170699e+002, 1.098552e+002
3.175520e+002, 1.102934e+002
3.180341e+002, 1.105732e+002
3.185162e+002, 1.106652e+002
3.189984e+002, 1.104790e+002
3.194805e+002, 1.094622e+002
3.199626e+002, 1.089029e+002
3.204447e+002, 1.091840e+002
3.209268e+002, 1.097209e+002
3.214089e+002, 1.099862e+002
3.218911e+002, 1.098389e+002
3.223732e+002, 1.094818e+002
3.228553e+002, 1.091816e+002
3.233374e+002, 1.088438e+002
3.238195e+002, 1.088444e+002
3.243016e+002, 1.095446e+002
3.247838e+002, 1.102535e+002
3.252659e+002, 1.104469e+002
3.257480e+002, 1.101588e+002
3.262301e+002, 1.098434e+002
3.267122e+002, 1.099627e+002
3.271943e+002, 1.105875e+002
3.276765e+002, 1.110523e+002
3.281586e+002, 1.113001e+002
3.286407e+002, 1.114659e+002
3.291228e+002, 1.116195e+002
3.296049e+002, 1.117309e+002
3.300870e+002, 1.116835e+002
3.305692e+002, 1.113642e+002
3.310513e+002, 1.108507e+002
3.315334e+002, 1.107487e+002
3.320155e+002, 1.115643e+002
3.324976e+002, 1.122431e+002
3.329797e+002, 1.124848e+002
3.334619e+002, 1.125536e+002
3.339440e+002, 1.128714e+002
3.344261e+002, 1.136284e+002
3.349082e+002, 1.145347e+002
3.353904e+002, 1.148838e+002
3.358725e+002, 1.142109e+002
3.363546e+002, 1.136755e+002
3.368367e+002, 1.132782e+002
3.373188e+002, 1.130467e+002
3.378009e+002, 1.130908e+002
3.382831e+002, 1.133919e+002
3.387652e+002, 1.137271e+002
3.392473e+002, 1.137848e+002
3.397294e+002, 1.134597e+002
3.402115e+002, 1.131800e+002
3.406936e+002, 1.128930e+002
3.411758e+002, 1.126883e+002
3.416579e+002, 1.126572e+002
3.421400e+002, 1.127606e+002
3.426221e+002, 1.128825e+002
3.431042e+002, 1.129439e+002
3.435863e+002, 1.129441e+002
3.440685e+002, 1.127633e+002
3.445506e+002, 1.121795e+002
3.450327e+002, 1.116285e+002
3.455148e+002, 1.111963e+002
3.459969e+002, 1.108614e+002
3.464790e+002, 1.105710e+002
3.469612e+002, 1.102908e+002
3.474433e+002, 1.100518e+002
3.479254e+002, 1.099680e+002
3.484075e+002, 1.102169e+002
3.488896e+002, 1.103290e+002
3.493717e+002, 1.101223e+002
3.498539e+002, 1.098321e+002
3.503360e+002, 1.096452e+002
3.508181e+002, 1.096236e+002
3.513002e+002, 1.097352e+002
3.517823e+002, 1.099365e+002
3.522644e+002, 1.102274e+002
3.527466e+002, 1.106119e+002
3.532287e+002, 1.114629e+002
3.537108e+002, 1.121037e+002
3.541929e+002, 1.119423e+002
3.546750e+002, 1.111328e+002
3.551571e+002, 1.104493e+002
3.556393e+002, 1.107188e+002
3.561214e+002, 1.119326e+002
3.566035e+002, 1.125633e+002
3.570856e+002, 1.121749e+002
3.575677e+002, 1.116802e+002
3.580498e+002, 1.113404e+002
3.585320e+002, 1.111364e+002
3.590141e+002, 1.110276e+002
3.594962e+002, 1.110210e+002
3.599783e+002, 1.110535e+002
3.604604e+002, 1.109665e+002
3.609425e+002, 1.107611e+002
3.614247e+002, 1.104228e+002
3.619068e+002, 1.097325e+002
3.623889e+002, 1.090299e+002
3.628710e+002, 1.086923e+002
3.633531e+002, 1.088323e+002
3.638352e+002, 1.090741e+002
3.643174e+002, 1.089006e+002
3.647995e+002, 1.082503e+002
3.652816e+002, 1.078259e+002
3.657637e+002, 1.080654e+002
3.662458e+002, 1.082802e+002
3.667279e+002, 1.079336e+002
3.672101e+002, 1.070904e+002
3.676922e+002, 1.062814e+002
3.681743e+002, 1.059423e+002
3.686564e+002, 1.059621e+002
3.691385e+002, 1.058299e+002
3.696206e+002, 1.054743e+002
3.701028e+002, 1.050654e+002
3.705849e+002, 1.047052e+002
3.710670e+002, 1.043666e+002
3.715491e+002, 1.039985e+002
3.720312e+002, 1.035330e+002
3.725133e+002, 1.030748e+002
3.729955e+002, 1.028154e+002
3.734776e+002, 1.027838e+002
3.739597e+002, 1.026715e+002
3.744418e+002, 1.023157e+002
3.749239e+002, 1.018211e+002
3.754060e+002, 1.012815e+002
3.758882e+002, 1.006613e+002
3.763703e+002, 1.001792e+002
3.768524e+002, 1.000741e+002
3.773345e+002, 1.002564e+002
3.778166e+002, 1.003422e+002
3.782987e+002, 1.002059e+002
3.787809e+002, 1.000238e+002
3.792630e+002, 1.000213e+002
3.797451e+002, 1.001726e+002
3.802272e+002, 1.002651e+002
3.807093e+002, 1.001752e+002
3.811914e+002, 1.000131e+002
3.816736e+002, 9.992004e+001
3.821557e+002, 9.990860e+001
3.826378e+002, 9.993372e+001
3.831199e+002, 9.997192e+001
3.836020e+002, 1.000230e+002
3.840841e+002, 1.000806e+002
3.845663e+002, 1.001830e+002
3.850484e+002, 1.002533e+002
3.855305e+002, 1.001397e+002
3.860126e+002, 9.993916e+001
3.864947e+002, 9.999696e+001
3.869768e+002, 1.005081e+002
3.874590e+002, 1.012445e+002
3.879411e+002, 1.017304e+002
3.884232e+002, 1.019545e+002
3.889053e+002, 1.020411e+002
3.893874e+002, 1.019502e+002
3.898695e+002, 1.017648e+002
3.903517e+002, 1.015306e+002
3.908338e+002, 1.012648e+002
3.913159e+002, 1.010954e+002
3.917980e+002, 1.011980e+002
3.922801e+002, 1.016309e+002
3.927622e+002, 1.017589e+002
3.932444e+002, 1.012954e+002
3.937265e+002, 1.008281e+002
3.942086e+002, 1.007183e+002
3.946907e+002, 1.008580e+002
3.951728e+002, 1.009147e+002
3.956549e+002, 1.006882e+002
3.961371e+002, 1.002535e+002
3.966192e+002, 9.991848e+001
3.971013e+002, 9.966822e+001
3.975834e+002, 9.954411e+001
3.980655e+002, 9.964224e+001
3.985476e+002, 9.982211e+001
3.990298e+002, 1.000004e+002
3.995119e+002, 1.001330e+002
3.999940e+002, 1.001228e+002
4.004761e+002, 9.980474e+001
4.009582e+002, 9.903675e+001
4.014403e+002, 9.846371e+001
4.019225e+002, 9.841844e+001
4.024046e+002, 9.823161e+001
4.028867e+002, 9.749479e+001
4.033688e+002, 9.635043e+001
4.038509e+002, 9.520796e+001
4.043330e+002, 9.435740e+001
4.048152e+002, 9.372655e+001
4.052973e+002, 9.290241e+001
4.057794e+002, 9.176241e+001
4.062615e+002, 9.059568e+001
4.067436e+002, 8.946783e+001
4.072257e+002, 8.833650e+001
4.077079e+002, 8.712144e+001
4.081900e+002, 8.579891e+001
4.086721e+002, 8.452271e+001
4.091542e+002, 8.351662e+001
4.096363e+002, 8.280843e+001
4.101184e+002, 8.216808e+001
4.106006e+002, 8.157837e+001
4.110827e+002, 8.105602e+001
4.115648e+002, 8.064113e+001
4.120469e+002, 8.030760e+001
4.125290e+002, 7.997804e+001
4.130111e+002, 7.960596e+001
4.134933e+002, 7.919936e+001
4.139754e+002, 7.876127e+001
4.144575e+002, 7.824668e+001
4.149396e+002, 7.782397e+001
4.154217e+002, 7.766550e+001
4.159038e+002, 7.761105e+001
4.163860e+002, 7.746606e+001
4.168681e+002, 7.715533e+001
4.173502e+002, 7.684962e+001
4.178323e+002, 7.666659e+001
4.183144e+002, 7.661333e+001
4.187965e+002, 7.682462e+001
4.192787e+002, 7.755834e+001
4.197608e+002, 7.823740e+001
4.202429e+002, 7.814370e+001
4.207250e+002, 7.734599e+001
4.212071e+002, 7.656896e+001
4.216892e+002, 7.601694e+001
4.221714e+002, 7.564525e+001
4.226535e+002, 7.543705e+001
4.231356e+002, 7.539103e+001
4.236177e+002, 7.536978e+001
4.240998e+002, 7.525455e+001
4.245819e+002, 7.509905e+001
4.250641e+002, 7.511626e+001
4.255462e+002, 7.544605e+001
4.260283e+002, 7.576836e+001
4.265104e+002, 7.599010e+001
4.269925e+002, 7.610281e+001
4.274746e+002, 7.608308e+001
4.279568e+002, 7.592005e+001
4.284389e+002, 7.563754e+001
4.289210e+002, 7.523294e+001
4.294031e+002, 7.456308e+001
4.298852e+002, 7.422292e+001
4.303673e+002, 7.452380e+001
4.308495e+002, 7.490527e+001
4.313316e+002, 7.493727e+001
4.318137e+002, 7.466482e+001
4.322958e+002, 7.442837e+001
4.327779e+002, 7.448585e+001
4.332600e+002, 7.478792e+001
4.337422e+002, 7.493224e+001
4.342243e+002, 7.469108e+001
4.347064e+002, 7.455974e+001
4.351885e+002, 7.461360e+001
4.356706e+002, 7.479960e+001
4.361527e+002, 7.513487e+001
4.366349e+002, 7.559687e+001
4.371170e+002, 7.599399e+001
4.375991e+002, 7.597956e+001
4.380812e+002, 7.533852e+001
4.385633e+002, 7.508002e+001
4.390454e+002, 7.539811e+001
4.395276e+002, 7.592675e+001
4.400097e+002, 7.669964e+001
4.404918e+002, 7.756944e+001
4.409739e+002, 7.825380e+001
4.414560e+002, 7.852893e+001
4.419381e+002, 7.855724e+001
4.424203e+002, 7.883360e+001
4.429024e+002, 7.945589e+001
4.433845e+002, 8.006377e+001
4.438666e+002, 8.046609e+001
4.443487e+002, 8.085861e+001
4.448308e+002, 8.144268e+001
4.453130e+002, 8.225040e+001
4.457951e+002, 8.305543e+001
4.462772e+002, 8.365812e+001
4.467593e+002, 8.409148e+001
4.472414e+002, 8.451430e+001
4.477235e+002, 8.493459e+001
4.482057e+002, 8.536196e+001
4.486878e+002, 8.582479e+001
4.491699e+002, 8.630328e+001
4.496520e+002, 8.673925e+001
4.501341e+002, 8.714340e+001
4.506162e+002, 8.747836e+001
4.510984e+002, 8.766137e+001
4.515805e+002, 8.772025e+001
4.520626e+002, 8.785426e+001
4.525447e+002, 8.819655e+001
4.530268e+002, 8.858051e+001
4.535089e+002, 8.865298e+001
4.539911e+002, 8.837080e+001
4.544732e+002, 8.809140e+001
4.549553e+002, 8.786624e+001
4.554374e+002, 8.769771e+001
4.559195e+002, 8.761341e+001
4.564016e+002, 8.760442e+001
4.568838e+002, 8.760033e+001
4.573659e+002, 8.755724e+001
4.578480e+002, 8.747115e+001
4.583301e+002, 8.726215e+001
4.588122e+002, 8.674673e+001
4.592943e+002, 8.634428e+001
4.597765e+002, 8.620993e+001
4.602586e+002, 8.622726e+001
4.607407e+002, 8.621420e+001
4.612228e+002, 8.611721e+001
4.617049e+002, 8.606608e+001
4.621870e+002, 8.628107e+001
4.626692e+002, 8.688785e+001
4.631513e+002, 8.735995e+001
4.636334e+002, 8.755836e+001
4.641155e+002, 8.776511e+001
4.645976e+002, 8.802026e+001
4.650797e+002, 8.838326e+001
4.655619e+002, 8.896822e+001
4.660440e+002, 8.986608e+001
4.665261e+002, 9.097605e+001
4.670082e+002, 9.200635e+001
4.674903e+002, 9.292603e+001
4.679724e+002, 9.385942e+001
4.684546e+002, 9.475813e+001
4.689367e+002, 9.573288e+001
4.694188e+002, 9.690853e+001
4.699009e+002, 9.829214e+001
4.703830e+002, 9.968666e+001
4.708651e+002, 1.009803e+002
4.713473e+002, 1.021693e+002
4.718294e+002, 1.032554e+002
4.723115e+002, 1.042579e+002
4.727936e+002, 1.050923e+002
4.732757e+002, 1.056201e+002
4.737578e+002, 1.059436e+002
4.742400e+002, 1.062526e+002
4.747221e+002, 1.066535e+002
4.752042e+002, 1.069145e+002
4.756863e+002, 1.068325e+002
4.761684e+002, 1.064812e+002
4.766505e+002, 1.061018e+002
4.771327e+002, 1.057858e+002
4.776148e+002, 1.053512e+002
4.780969e+002, 1.044687e+002
4.785790e+002, 1.030389e+002
4.790611e+002, 1.019652e+002
4.795432e+002, 1.016808e+002
4.800254e+002, 1.014302e+002
4.805075e+002, 1.006471e+002
4.809896e+002, 9.947153e+001
4.814717e+002, 9.840435e+001
4.819538e+002, 9.772694e+001
4.824359e+002, 9.730338e+001
4.829181e+002, 9.674062e+001
4.834002e+002, 9.578338e+001
4.838823e+002, 9.506332e+001
4.843644e+002, 9.484813e+001
4.848465e+002, 9.466455e+001
4.853286e+002, 9.414811e+001
4.858108e+002, 9.330048e+001
4.862929e+002, 9.236089e+001
4.867750e+002, 9.151748e+001
4.872571e+002, 9.076614e+001
4.877392e+002, 9.006182e+001
4.882213e+002, 8.952896e+001
4.887035e+002, 8.882771e+001
4.891856e+002, 8.762902e+001
4.896677e+002, 8.636271e+001
4.901498e+002, 8.554300e+001
4.906319e+002, 8.529212e+001
4.911140e+002, 8.511396e+001
4.915962e+002, 8.450516e+001
4.920783e+002, 8.351058e+001
4.925604e+002, 8.247236e+001
4.930425e+002, 8.131007e+001
4.935246e+002, 8.034184e+001
4.940067e+002, 7.998696e+001
4.944889e+002, 7.999395e+001
4.949710e+002, 7.979277e+001
4.954531e+002, 7.906528e+001
4.959352e+002, 7.831162e+001
4.964173e+002, 7.802211e+001
4.968994e+002, 7.806196e+001
4.973816e+002, 7.789542e+001
4.978637e+002, 7.730176e+001
4.983458e+002, 7.658250e+001
4.988279e+002, 7.620832e+001
4.993100e+002, 7.628986e+001
4.997921e+002, 7.614965e+001
5.002743e+002, 7.548364e+001
5.007564e+002, 7.481246e+001
5.012385e+002, 7.452808e+001
5.017206e+002, 7.454428e+001
5.022027e+002, 7.456564e+001
5.026848e+002, 7.442983e+001
5.031670e+002, 7.416203e+001
5.036491e+002, 7.382958e+001
5.041312e+002, 7.331704e+001
5.046133e+002, 7.292979e+001
5.050954e+002, 7.276586e+001
5.055775e+002, 7.264671e+001
5.060597e+002, 7.240419e+001
5.065418e+002, 7.207270e+001
5.070239e+002, 7.186347e+001
5.075060e+002, 7.201273e+001
5.079881e+002, 7.239243e+001
5.084702e+002, 7.234577e+001
5.089524e+002, 7.166662e+001
5.094345e+002, 7.102781e+001
5.099166e+002, 7.064330e+001
5.103987e+002, 7.040450e+001
5.108808e+002, 7.025192e+001
5.113629e+002, 7.017586e+001
5.118451e+002, 7.011021e+001
5.123271e+002, 7.004520e+001
5.128093e+002, 6.995255e+001
5.132914e+002, 6.974850e+001
5.137735e+002, 6.942020e+001
5.142556e+002, 6.899675e+001
5.147377e+002, 6.834946e+001
5.152198e+002, 6.764214e+001
5.157020e+002, 6.742229e+001
5.161841e+002, 6.826295e+001
5.166662e+002, 6.878390e+001
5.171483e+002, 6.807129e+001
5.176304e+002, 6.672885e+001
5.181125e+002, 6.574660e+001
5.185947e+002, 6.536604e+001
5.190768e+002, 6.522413e+001
5.195589e+002, 6.493045e+001
5.200410e+002, 6.445821e+001
5.205231e+002, 6.408129e+001
5.210052e+002, 6.384936e+001
5.214874e+002, 6.364038e+001
5.219695e+002, 6.346821e+001
5.224516e+002, 6.327606e+001
5.229337e+002, 6.297033e+001
5.234158e+002, 6.252000e+001
5.238979e+002, 6.202548e+001
5.243801e+002, 6.165189e+001
5.248622e+002, 6.144169e+001
5.253443e+002, 6.113373e+001
5.258264e+002, 6.059027e+001
5.263085e+002, 6.009184e+001
5.267906e+002, 5.975895e+001
5.272728e+002, 5.955620e+001
5.277549e+002, 5.940377e+001
5.282370e+002, 5.926104e+001
5.287191e+002, 5.917577e+001
5.292012e+002, 5.929801e+001
5.296833e+002, 5.960047e+001
5.301655e+002, 5.963149e+001
5.306476e+002, 5.913680e+001
5.311297e+002, 5.857063e+001
5.316118e+002, 5.853450e+001
5.320939e+002, 5.894331e+001
5.325760e+002, 5.917913e+001
5.330582e+002, 5.896897e+001
5.335403e+002, 5.867216e+001
5.340224e+002, 5.857601e+001
5.345045e+002, 5.862680e+001
5.349866e+002, 5.860702e+001
5.354688e+002, 5.840759e+001
5.359509e+002, 5.818348e+001
5.364330e+002, 5.824192e+001
5.369151e+002, 5.878612e+001
5.373972e+002, 5.912912e+001
5.378793e+002, 5.910752e+001
5.383615e+002, 5.905646e+001
5.388436e+002, 5.919524e+001
5.393257e+002, 5.945414e+001
5.398078e+002, 5.962854e+001
5.402899e+002, 5.959631e+001
5.407720e+002, 5.945498e+001
5.412542e+002, 5.943677e+001
5.417363e+002, 5.958234e+001
5.422184e+002, 5.971354e+001
5.427005e+002, 5.982378e+001
5.431826e+002, 5.989196e+001
5.436647e+002, 5.979594e+001
5.441469e+002, 5.962036e+001
5.446290e+002, 5.968158e+001
5.451111e+002, 6.031308e+001
5.455932e+002, 6.114302e+001
5.460753e+002, 6.158783e+001
5.465574e+002, 6.165800e+001
5.470396e+002, 6.170222e+001
5.475217e+002, 6.183419e+001
5.480038e+002, 6.202056e+001
5.484859e+002, 6.222956e+001
5.489680e+002, 6.246777e+001
5.494501e+002, 6.266396e+001
5.499323e+002, 6.270484e+001
5.504144e+002, 6.277990e+001
5.508965e+002, 6.314406e+001
5.513786e+002, 6.369297e+001
5.518607e+002, 6.402934e+001
5.523428e+002, 6.391895e+001
5.528250e+002, 6.357909e+001
5.533071e+002, 6.355291e+001
5.537892e+002, 6.402455e+001
5.542713e+002, 6.449095e+001
5.547534e+002, 6.517268e+001
5.552355e+002, 6.565392e+001
5.557177e+002, 6.559014e+001
5.561998e+002, 6.511948e+001
5.566819e+002, 6.463565e+001
5.571640e+002, 6.437440e+001
5.576461e+002, 6.423952e+001
5.581282e+002, 6.402584e+001
5.586104e+002, 6.372015e+001
5.590925e+002, 6.341388e+001
5.595746e+002, 6.308548e+001
5.600567e+002, 6.281071e+001
5.605388e+002, 6.267750e+001
5.610209e+002, 6.266632e+001
5.615031e+002, 6.263191e+001
5.619852e+002, 6.251805e+001
5.624673e+002, 6.235847e+001
5.629494e+002, 6.211493e+001
5.634315e+002, 6.183307e+001
5.639136e+002, 6.174164e+001
5.643958e+002, 6.195616e+001
5.648779e+002, 6.233883e+001
5.653600e+002, 6.267124e+001
5.658421e+002, 6.296807e+001
5.663242e+002, 6.314458e+001
5.668063e+002, 6.316063e+001
5.672885e+002, 6.309746e+001
5.677706e+002, 6.287630e+001
5.682527e+002, 6.262578e+001
5.687348e+002, 6.264139e+001
5.692169e+002, 6.307624e+001
5.696990e+002, 6.366899e+001
5.701812e+002, 6.389176e+001
5.706633e+002, 6.364864e+001
5.711454e+002, 6.341363e+001
5.716275e+002, 6.309422e+001
5.721096e+002, 6.292927e+001
5.725917e+002, 6.309371e+001
5.730739e+002, 6.349678e+001
5.735560e+002, 6.393030e+001
5.740381e+002, 6.432498e+001
5.745202e+002, 6.470447e+001
5.750023e+002, 6.509952e+001
5.754844e+002, 6.550467e+001
5.759666e+002, 6.586109e+001
5.764487e+002, 6.612540e+001
5.769308e+002, 6.643655e+001
5.774129e+002, 6.697104e+001
5.778950e+002, 6.773659e+001
5.783771e+002, 6.843533e+001
5.788593e+002, 6.878671e+001
5.793414e+002, 6.936720e+001
5.798235e+002, 7.064848e+001
5.803056e+002, 7.226746e+001
5.807877e+002, 7.364624e+001
5.812698e+002, 7.461137e+001
5.817520e+002, 7.533276e+001
5.822341e+002, 7.596175e+001
5.827162e+002, 7.645191e+001
5.831984e+002, 7.734451e+001
5.836805e+002, 7.867976e+001
5.841626e+002, 8.040369e+001
5.846447e+002, 8.268736e+001
5.851268e+002, 8.525305e+001
5.856089e+002, 8.780856e+001
5.860911e+002, 9.027858e+001
5.865732e+002, 9.261575e+001
5.870553e+002, 9.465922e+001
5.875374e+002, 9.652821e+001
5.880195e+002, 9.867963e+001
5.885016e+002, 1.012209e+002
5.889838e+002, 1.037127e+002
5.894659e+002, 1.058623e+002
5.899480e+002, 1.077565e+002
5.904301e+002, 1.097442e+002
5.909122e+002, 1.121883e+002
5.913943e+002, 1.140145e+002
5.918765e+002, 1.147688e+002
5.923586e+002, 1.148304e+002
5.928407e+002, 1.145085e+002
5.933228e+002, 1.138894e+002
5.938049e+002, 1.130527e+002
5.942870e+002, 1.120483e+002
5.947692e+002, 1.108819e+002
5.952513e+002, 1.095713e+002
5.957334e+002, 1.082473e+002
5.962155e+002, 1.065297e+002
5.966976e+002, 1.040593e+002
5.971797e+002, 1.014975e+002
5.976619e+002, 9.917216e+001
5.981440e+002, 9.715041e+001
5.986261e+002, 9.545691e+001
5.991082e+002, 9.421120e+001
5.995903e+002, 9.320464e+001
6.000724e+002, 9.203536e+001
6.005546e+002, 9.070170e+001
6.010367e+002, 8.948379e+001
6.015188e+002, 8.851583e+001
6.020009e+002, 8.762682e+001
6.024830e+002, 8.651757e+001
6.029651e+002, 8.518940e+001
6.034473e+002, 8.415392e+001
6.039294e+002, 8.362606e+001
6.044115e+002, 8.327599e+001
6.048936e+002, 8.294155e+001
6.053757e+002, 8.262942e+001
6.058578e+002, 8.241928e+001
6.063400e+002, 8.233513e+001
6.068221e+002, 8.220813e+001
6.073042e+002, 8.173119e+001
6.077863e+002, 8.077657e+001
6.082684e+002, 8.032105e+001
6.087505e+002, 8.089216e+001
6.092327e+002, 8.135813e+001
6.097148e+002, 8.136565e+001
6.101969e+002, 8.109850e+001
6.106790e+002, 8.075738e+001
6.111611e+002, 8.039268e+001
6.116432e+002, 8.007944e+001
6.121254e+002, 7.991074e+001
6.126075e+002, 7.984429e+001
6.130896e+002, 7.971424e+001
6.135717e+002, 7.948393e+001
6.140538e+002, 7.938024e+001
6.145359e+002, 7.957258e+001
6.150181e+002, 7.997401e+001
6.155002e+002, 8.032253e+001
6.159823e+002, 8.057355e+001
6.164644e+002, 8.087758e+001
6.169465e+002, 8.136318e+001
6.174286e+002, 8.183876e+001
6.179108e+002, 8.214122e+001
6.183929e+002, 8.227633e+001
6.188750e+002, 8.227080e+001
6.193571e+002, 8.210818e+001
6.198392e+002, 8.197494e+001
6.203214e+002, 8.246320e+001
6.208035e+002, 8.390990e+001
6.212856e+002, 8.493810e+001
6.217677e+002, 8.498124e+001
6.222498e+002, 8.497126e+001
6.227319e+002, 8.553548e+001
6.232141e+002, 8.643104e+001
6.236962e+002, 8.697707e+001
6.241783e+002, 8.677553e+001
6.246604e+002, 8.639520e+001
6.251425e+002, 8.644157e+001
6.256246e+002, 8.677624e+001
6.261068e+002, 8.691501e+001
6.265889e+002, 8.673952e+001
6.270710e+002, 8.647462e+001
6.275531e+002, 8.631694e+001
6.280352e+002, 8.626314e+001
6.285173e+002, 8.623206e+001
6.289995e+002, 8.653946e+001
6.294816e+002, 8.646549e+001
6.299637e+002, 8.564771e+001
6.304458e+002, 8.451653e+001
6.309279e+002, 8.338577e+001
6.314100e+002, 8.236230e+001
6.318922e+002, 8.153567e+001
6.323743e+002, 8.104300e+001
6.328564e+002, 8.075658e+001
6.333385e+002, 8.014546e+001
6.338206e+002, 7.908726e+001
6.343027e+002, 7.820816e+001
6.347849e+002, 7.777190e+001
6.352670e+002, 7.750753e+001
6.357491e+002, 7.718681e+001
6.362312e+002, 7.680362e+001
6.367133e+002, 7.632497e+001
6.371954e+002, 7.572887e+001
6.376776e+002, 7.504143e+001
6.381597e+002, 7.421097e+001
6.386418e+002, 7.331042e+001
6.391239e+002, 7.249309e+001
6.396060e+002, 7.181313e+001
6.400881e+002, 7.130427e+001
6.405703e+002, 7.105021e+001
6.410524e+002, 7.109066e+001
6.415345e+002, 7.093140e+001
6.420166e+002, 7.034683e+001
6.424987e+002, 6.982629e+001
6.429808e+002, 6.954046e+001
6.434630e+002, 6.932333e+001
6.439451e+002, 6.898799e+001
6.444272e+002, 6.850955e+001
6.449093e+002, 6.801756e+001
6.453914e+002, 6.765121e+001
6.458735e+002, 6.733730e+001
6.463557e+002, 6.688557e+001
6.468378e+002, 6.628626e+001
6.473199e+002, 6.566550e+001
6.478020e+002, 6.504181e+001
6.482841e+002, 6.446496e+001
6.487662e+002, 6.404344e+001
6.492484e+002, 6.382228e+001
6.497305e+002, 6.349206e+001
6.502126e+002, 6.290153e+001
6.506947e+002, 6.232462e+001
6.511768e+002, 6.196024e+001
6.516589e+002, 6.170171e+001
6.521411e+002, 6.131692e+001
6.526232e+002, 6.073579e+001
6.531053e+002, 6.017621e+001
6.535874e+002, 5.994507e+001
6.540695e+002, 6.004609e+001
6.545516e+002, 6.012165e+001
6.550338e+002, 6.019362e+001
6.555159e+002, 6.019490e+001
6.559980e+002, 6.008878e+001
6.564801e+002, 5.989720e+001
6.569622e+002, 5.959918e+001
6.574443e+002, 5.917559e+001
6.579265e+002, 5.883497e+001
6.584086e+002, 5.864732e+001
6.588907e+002, 5.860582e+001
6.593728e+002, 5.871886e+001
6.598549e+002, 5.897580e+001
6.603370e+002, 5.944390e+001
6.608192e+002, 6.019127e+001
6.613013e+002, 6.081066e+001
6.617834e+002, 6.050927e+001
6.622655e+002, 5.892181e+001
6.627476e+002, 5.777987e+001
6.632297e+002, 5.732379e+001
6.637119e+002, 5.705424e+001
6.641940e+002, 5.691120e+001
6.646761e+002, 5.683001e+001
6.651582e+002, 5.675202e+001
6.656403e+002, 5.666153e+001
6.661224e+002, 5.654238e+001
6.666046e+002, 5.631268e+001
6.670867e+002, 5.605889e+001
6.675688e+002, 5.603130e+001
6.680509e+002, 5.624542e+001
6.685330e+002, 5.642524e+001
6.690151e+002, 5.643555e+001
6.694973e+002, 5.632912e+001
6.699794e+002, 5.620449e+001
6.704615e+002, 5.605483e+001
6.709436e+002, 5.590559e+001
6.714257e+002, 5.567397e+001
6.719078e+002, 5.552748e+001
6.723900e+002, 5.563793e+001
6.728721e+002, 5.586878e+001
6.733542e+002, 5.599056e+001
6.738363e+002, 5.592157e+001
6.743184e+002, 5.575325e+001
6.748005e+002, 5.555705e+001
6.752827e+002, 5.534257e+001
6.757648e+002, 5.522481e+001
6.762469e+002, 5.523518e+001
6.767290e+002, 5.523758e+001
6.772111e+002, 5.513782e+001
6.776932e+002, 5.501070e+001
6.781754e+002, 5.499499e+001
6.786575e+002, 5.511403e+001
6.791396e+002, 5.521322e+001
6.796217e+002, 5.530946e+001
6.801038e+002, 5.532791e+001
6.805859e+002, 5.510096e+001
6.810681e+002, 5.476435e+001
6.815502e+002, 5.469716e+001
6.820323e+002, 5.503547e+001
6.825144e+002, 5.539378e+001
6.829965e+002, 5.511150e+001
6.834786e+002, 5.411985e+001
6.839608e+002, 5.368727e+001
6.844429e+002, 5.409985e+001
6.849250e+002, 5.456007e+001
6.854071e+002, 5.481163e+001
6.858892e+002, 5.490931e+001
6.863713e+002, 5.488078e+001
6.868535e+002, 5.472498e+001
6.873356e+002, 5.453041e+001
6.878177e+002, 5.429703e+001
6.882998e+002, 5.407203e+001
6.887819e+002, 5.387969e+001
6.892640e+002, 5.373612e+001
6.897462e+002, 5.369897e+001
6.902283e+002, 5.379160e+001
6.907104e+002, 5.394166e+001
6.911925e+002, 5.404675e+001
6.916746e+002, 5.410179e+001
6.921567e+002, 5.416582e+001
6.926389e+002, 5.432290e+001
6.931210e+002, 5.437056e+001
6.936031e+002, 5.411620e+001
6.940852e+002, 5.382132e+001
6.945673e+002, 5.379185e+001
6.950494e+002, 5.404874e+001
6.955316e+002, 5.428460e+001
6.960137e+002, 5.440337e+001
6.964958e+002, 5.434617e+001
6.969779e+002, 5.388225e+001
6.974600e+002, 5.313114e+001
6.979421e+002, 5.262633e+001
6.984243e+002, 5.255772e+001
6.989064e+002, 5.279023e+001
6.993885e+002, 5.320811e+001
6.998706e+002, 5.384523e+001
7.003527e+002, 5.422548e+001
7.008348e+002, 5.419224e+001
7.013170e+002, 5.408626e+001
7.017991e+002, 5.391073e+001
7.022812e+002, 5.372475e+001
7.027633e+002, 5.357058e+001
7.032454e+002, 5.345690e+001
7.037275e+002, 5.338562e+001
7.042097e+002, 5.337563e+001
7.046918e+002, 5.339283e+001
7.051739e+002, 5.336253e+001
7.056560e+002, 5.330117e+001
7.061381e+002, 5.332207e+001
7.066202e+002, 5.346204e+001
7.071024e+002, 5.366856e+001
7.075845e+002, 5.392441e+001
7.080666e+002, 5.422636e+001
7.085487e+002, 5.430009e+001
7.090308e+002, 5.383447e+001
7.095129e+002, 5.356510e+001
7.099951e+002, 5.381676e+001
7.104772e+002, 5.414191e+001
7.109593e+002, 5.411567e+001
7.114414e+002, 5.378535e+001
7.119235e+002, 5.351816e+001
7.124056e+002, 5.354602e+001
7.128878e+002, 5.370493e+001
7.133699e+002, 5.372956e+001
7.138520e+002, 5.364497e+001
7.143341e+002, 5.363586e+001
7.148162e+002, 5.374615e+001
7.152983e+002, 5.389100e+001
7.157805e+002, 5.401189e+001
7.162626e+002, 5.410933e+001
7.167447e+002, 5.418579e+001
7.172268e+002, 5.426057e+001
7.177089e+002, 5.428955e+001
7.181910e+002, 5.431903e+001
7.186732e+002, 5.425908e+001
7.191553e+002, 5.392791e+001
7.196374e+002, 5.346241e+001
7.201195e+002, 5.318544e+001
7.206016e+002, 5.325720e+001
7.210837e+002, 5.354152e+001
7.215659e+002, 5.397401e+001
7.220480e+002, 5.449168e+001
7.225301e+002, 5.468148e+001
7.230122e+002, 5.445025e+001
7.234943e+002, 5.422157e+001
7.239764e+002, 5.423877e+001
7.244586e+002, 5.443411e+001
7.249407e+002, 5.465131e+001
7.254228e+002, 5.494179e+001
7.259049e+002, 5.512617e+001
7.263870e+002, 5.516423e+001
7.268691e+002, 5.512381e+001
7.273513e+002, 5.499296e+001
7.278334e+002, 5.482457e+001
7.283155e+002, 5.471222e+001
7.287976e+002, 5.468361e+001
7.292797e+002, 5.464704e+001
7.297618e+002, 5.443542e+001
7.302440e+002, 5.413647e+001
7.307261e+002, 5.414067e+001
7.312082e+002, 5.448605e+001
7.316903e+002, 5.467038e+001
7.321724e+002, 5.441262e+001
7.326545e+002, 5.403083e+001
7.331367e+002, 5.402059e+001
7.336188e+002, 5.448791e+001
7.341009e+002, 5.472825e+001
7.345830e+002, 5.457245e+001
7.350651e+002, 5.439624e+001
7.355472e+002, 5.433015e+001
7.360294e+002, 5.431043e+001
7.365115e+002, 5.422091e+001
7.369936e+002, 5.407074e+001
7.374757e+002, 5.401962e+001
7.379578e+002, 5.421409e+001
7.384399e+002, 5.455865e+001
7.389221e+002, 5.489239e+001
7.394042e+002, 5.521110e+001
7.398863e+002, 5.546314e+001
7.403684e+002, 5.563588e+001
7.408505e+002, 5.573594e+001
7.413326e+002, 5.575673e+001
7.418148e+002, 5.570457e+001
7.422969e+002, 5.565182e+001
7.427790e+002, 5.556150e+001
7.432611e+002, 5.552182e+001
7.437432e+002, 5.556626e+001
7.442253e+002, 5.564573e+001
7.447075e+002, 5.576239e+001
7.451896e+002, 5.588081e+001
7.456717e+002, 5.591064e+001
7.461538e+002, 5.578980e+001
7.466359e+002, 5.565218e+001
7.471180e+002, 5.568731e+001
7.476002e+002, 5.584193e+001
7.480823e+002, 5.594068e+001
7.485644e+002, 5.596601e+001
7.490465e+002, 5.586532e+001
7.495286e+002, 5.555384e+001
7.500107e+002, 5.517593e+001
7.504929e+002, 5.508347e+001
7.509750e+002, 5.543018e+001
7.514571e+002, 5.568660e+001
7.519392e+002, 5.581453e+001
7.524213e+002, 5.590214e+001
7.529034e+002, 5.597009e+001
7.533856e+002, 5.602568e+001
7.538677e+002, 5.607781e+001
7.543498e+002, 5.612782e+001
7.548319e+002, 5.616254e+001
7.553140e+002, 5.619347e+001
7.557961e+002, 5.619185e+001
7.562783e+002, 5.605292e+001
7.567604e+002, 5.581626e+001
7.572425e+002, 5.571815e+001
7.577246e+002, 5.584357e+001
7.582067e+002, 5.606683e+001
7.586888e+002, 5.624112e+001
7.591710e+002, 5.636769e+001
7.596531e+002, 5.655935e+001
7.601352e+002, 5.700404e+001
7.606173e+002, 5.721943e+001
7.610994e+002, 5.695467e+001
7.615815e+002, 5.660364e+001
7.620637e+002, 5.642857e+001
7.625458e+002, 5.642426e+001
7.630279e+002, 5.649579e+001
7.635100e+002, 5.667027e+001
7.639921e+002, 5.679060e+001
7.644742e+002, 5.665632e+001
7.649564e+002, 5.640287e+001
7.654385e+002, 5.626591e+001
7.659206e+002, 5.627537e+001
7.664027e+002, 5.639652e+001
7.668848e+002, 5.662170e+001
7.673669e+002, 5.687777e+001
7.678491e+002, 5.696442e+001
7.683312e+002, 5.679765e+001
7.688133e+002, 5.679128e+001
7.692954e+002, 5.713944e+001
7.697775e+002, 5.738387e+001
7.702596e+002, 5.720442e+001
7.707418e+002, 5.686610e+001
7.712239e+002, 5.671298e+001
7.717060e+002, 5.679182e+001
7.721881e+002, 5.692768e+001
7.726702e+002, 5.715376e+001
7.731523e+002, 5.732072e+001
7.736345e+002, 5.722839e+001
7.741166e+002, 5.700167e+001
7.745987e+002, 5.690987e+001
7.750808e+002, 5.702042e+001
7.755629e+002, 5.717907e+001
7.760450e+002, 5.723010e+001
7.765272e+002, 5.720090e+001
7.770093e+002, 5.720980e+001
7.774914e+002, 5.724913e+001
7.779735e+002, 5.739843e+001
7.784556e+002, 5.781713e+001
7.789377e+002, 5.813421e+001
7.794199e+002, 5.786750e+001
7.799020e+002, 5.718117e+001
7.803841e+002, 5.689353e+001
7.808662e+002, 5.735555e+001
7.813483e+002, 5.773940e+001
7.818304e+002, 5.775683e+001
7.823126e+002, 5.769740e+001
7.827947e+002, 5.788881e+001
7.832768e+002, 5.820349e+001
7.837589e+002, 5.820270e+001
7.842410e+002, 5.767279e+001
7.847231e+002, 5.711926e+001
7.852053e+002, 5.729178e+001
7.856874e+002, 5.797047e+001
7.861695e+002, 5.822237e+001
7.866516e+002, 5.797916e+001
7.871337e+002, 5.782318e+001
7.876158e+002, 5.803965e+001
7.880980e+002, 5.840125e+001
7.885801e+002, 5.856846e+001
7.890622e+002, 5.851217e+001
7.895443e+002, 5.844364e+001
7.900264e+002, 5.825057e+001
7.905085e+002, 5.819013e+001
7.909907e+002, 5.843036e+001
7.914728e+002, 5.874700e+001
7.919549e+002, 5.894025e+001
7.924370e+002, 5.900521e+001
7.929191e+002, 5.904616e+001
7.934012e+002, 5.910815e+001
7.938834e+002, 5.917260e+001
7.943655e+002, 5.922002e+001
7.948476e+002, 5.925617e+001
7.953297e+002, 5.929526e+001
7.958118e+002, 5.933813e+001
7.962939e+002, 5.936950e+001
7.967761e+002, 5.937654e+001
7.972582e+002, 5.937691e+001
7.977403e+002, 5.944256e+001
7.982224e+002, 5.964056e+001
7.987045e+002, 5.959257e+001
7.991866e+002, 5.903479e+001
7.996688e+002, 5.863239e+001
8.001509e+002, 5.887481e+001
8.006330e+002, 5.934555e+001
8.011151e+002, 5.952605e+001
8.015972e+002, 5.936270e+001
8.020793e+002, 5.924602e+001
8.025615e+002, 5.929167e+001
8.030436e+002, 5.940879e+001
8.035257e+002, 5.960720e+001
8.040078e+002, 5.981174e+001
8.044899e+002, 5.989388e+001
8.049720e+002, 5.984832e+001
8.054542e+002, 5.980263e+001
8.059363e+002, 5.986721e+001
8.064184e+002, 5.997624e+001
8.069005e+002, 5.997264e+001
8.073826e+002, 5.986121e+001
8.078647e+002, 5.974747e+001
8.083469e+002, 5.963543e+001
8.088290e+002, 5.958690e+001
8.093111e+002, 5.966991e+001
8.097932e+002, 5.983206e+001
8.102753e+002, 5.991612e+001
8.107574e+002, 5.993046e+001
8.112396e+002, 5.984309e+001
8.117217e+002, 5.953404e+001
8.122038e+002, 5.925984e+001
8.126859e+002, 5.906780e+001
8.131680e+002, 5.900584e+001
8.136501e+002, 5.918528e+001
8.141323e+002, 5.961013e+001
8.146144e+002, 6.000589e+001
8.150965e+002, 6.015380e+001
8.155786e+002, 6.022377e+001
8.160607e+002, 6.046178e+001
8.165428e+002, 6.077599e+001
8.170250e+002, 6.087587e+001
8.175071e+002, 6.071286e+001
8.179892e+002, 6.056566e+001
8.184713e+002, 6.068234e+001
8.189534e+002, 6.097109e+001
8.194355e+002, 6.111035e+001
8.199177e+002, 6.109418e+001
8.203998e+002, 6.093698e+001
8.208819e+002, 6.052171e+001
8.213640e+002, 6.016294e+001
8.218461e+002, 6.009290e+001
8.223282e+002, 6.019590e+001
8.228104e+002, 6.022888e+001
8.232925e+002, 6.014441e+001
8.237746e+002, 6.015696e+001
8.242567e+002, 6.035035e+001
8.247388e+002, 6.060828e+001
8.252209e+002, 6.100136e+001
8.257031e+002, 6.135366e+001
8.261852e+002, 6.132380e+001
8.266673e+002, 6.091167e+001
8.271494e+002, 6.060303e+001
8.276315e+002, 6.087230e+001
8.281136e+002, 6.135118e+001
8.285958e+002, 6.139083e+001
8.290779e+002, 6.106958e+001
8.295600e+002, 6.070297e+001
8.300421e+002, 6.034507e+001
8.305242e+002, 6.024525e+001
8.310063e+002, 6.064312e+001
8.314885e+002, 6.133812e+001
8.319706e+002, 6.170261e+001
8.324527e+002, 6.161956e+001
8.329348e+002, 6.151510e+001
8.334169e+002, 6.136932e+001
8.338990e+002, 6.123085e+001
8.343812e+002, 6.107299e+001
8.348633e+002, 6.095642e+001
8.353454e+002, 6.100561e+001
8.358275e+002, 6.123758e+001
8.363096e+002, 6.134381e+001
8.367917e+002, 6.104630e+001
8.372739e+002, 6.078312e+001
8.377560e+002, 6.093671e+001
8.382381e+002, 6.124010e+001
8.387202e+002, 6.128642e+001
8.392023e+002, 6.105076e+001
8.396844e+002, 6.078518e+001
8.401666e+002, 6.064178e+001
8.406487e+002, 6.061943e+001
8.411308e+002, 6.079993e+001
8.416129e+002, 6.113292e+001
8.420950e+002, 6.121728e+001
8.425771e+002, 6.098870e+001
8.430593e+002, 6.081405e+001
8.435414e+002, 6.091353e+001
8.440235e+002, 6.113641e+001
8.445056e+002, 6.119899e+001
8.449877e+002, 6.105743e+001
8.454698e+002, 6.097805e+001
8.459520e+002, 6.102614e+001
8.464341e+002, 6.105121e+001
8.469162e+002, 6.091137e+001
8.473983e+002, 6.081702e+001
8.478804e+002, 6.105862e+001
8.483625e+002, 6.155365e+001
8.488447e+002, 6.180458e+001
8.493268e+002, 6.140600e+001
8.498089e+002, 6.111889e+001
8.502910e+002, 6.159001e+001
8.507731e+002, 6.225501e+001
8.512552e+002, 6.245449e+001
8.517374e+002, 6.221572e+001
8.522195e+002, 6.184014e+001
8.527016e+002, 6.146592e+001
8.531837e+002, 6.116924e+001
8.536658e+002, 6.110199e+001
8.541479e+002, 6.120498e+001
8.546301e+002, 6.116724e+001
8.551122e+002, 6.098084e+001
8.555943e+002, 6.088814e+001
8.560764e+002, 6.100077e+001
8.565585e+002, 6.111973e+001
8.570406e+002, 6.101254e+001
8.575228e+002, 6.070667e+001
8.580049e+002, 6.052642e+001
8.584870e+002, 6.060126e+001
8.589691e+002, 6.058396e+001
8.594512e+002, 6.032107e+001
8.599333e+002, 6.008968e+001
8.604155e+002, 6.004865e+001
8.608976e+002, 6.013840e+001
8.613797e+002, 6.026283e+001
8.618618e+002, 6.042777e+001
8.623439e+002, 6.049063e+001
8.628260e+002, 6.034246e+001
8.633082e+002, 6.011672e+001
8.637903e+002, 5.990653e+001
8.642724e+002, 5.969902e+001
8.647545e+002, 5.940465e+001
8.652366e+002, 5.904114e+001
8.657188e+002, 5.882627e+001
8.662009e+002, 5.896397e+001
8.666830e+002, 5.928766e+001
8.671651e+002, 5.955821e+001
8.676472e+002, 5.974573e+001
8.681293e+002, 5.955354e+001
8.686115e+002, 5.891405e+001
8.690936e+002, 5.845044e+001
8.695757e+002, 5.856035e+001
8.700578e+002, 5.901518e+001
8.705399e+002, 5.937277e+001
8.710220e+002, 5.964808e+001
8.715042e+002, 5.972933e+001
8.719863e+002, 5.943739e+001
8.724684e+002, 5.923942e+001
8.729505e+002, 5.950402e+001
8.734326e+002, 5.975428e+001
8.739147e+002, 5.946854e+001
8.743969e+002, 5.873958e+001
8.748790e+002, 5.822206e+001
8.753611e+002, 5.808691e+001
8.758432e+002, 5.811440e+001
8.763253e+002, 5.835813e+001
8.768074e+002, 5.862355e+001
8.772896e+002, 5.875440e+001
8.777717e+002, 5.876188e+001
8.782538e+002, 5.869746e+001
8.787359e+002, 5.858103e+001
8.792180e+002, 5.845996e+001
8.797001e+002, 5.832317e+001
8.801823e+002, 5.823792e+001
8.806644e+002, 5.843389e+001
8.811465e+002, 5.881289e+001
8.816286e+002, 5.889562e+001
8.821107e+002, 5.856498e+001
8.825928e+002, 5.821999e+001
8.830750e+002, 5.822876e+001
8.835571e+002, 5.845772e+001
8.840392e+002, 5.842685e+001
8.845213e+002, 5.807543e+001
8.850034e+002, 5.781896e+001
8.854855e+002, 5.771587e+001
8.859677e+002, 5.765805e+001
8.864498e+002, 5.760030e+001
8.869319e+002, 5.754945e+001
8.874140e+002, 5.752569e+001
8.878961e+002, 5.753955e+001
8.883782e+002, 5.751307e+001
8.888604e+002, 5.740719e+001
8.893425e+002, 5.730998e+001
8.898246e+002, 5.720853e+001
8.903067e+002, 5.715559e+001
8.907888e+002, 5.728843e+001
8.912709e+002, 5.751147e+001
8.917531e+002, 5.749660e+001
8.922352e+002, 5.703834e+001
8.927173e+002, 5.662172e+001
8.931994e+002, 5.669710e+001
8.936815e+002, 5.690591e+001
8.941636e+002, 5.680828e+001
8.946458e+002, 5.647959e+001
8.951279e+002, 5.617118e+001
8.956100e+002, 5.597218e+001
8.960921e+002, 5.588603e+001
8.965742e+002, 5.596490e+001
8.970563e+002, 5.610666e+001
8.975385e+002, 5.596523e+001
8.980206e+002, 5.557626e+001
8.985027e+002, 5.547510e+001
8.989848e+002, 5.578943e+001
8.994669e+002, 5.599372e+001
8.999490e+002, 5.570197e+001
9.004312e+002, 5.516502e+001
9.009133e+002, 5.495771e+001
9.013954e+002, 5.513746e+001
9.018775e+002, 5.540484e+001
9.023596e+002, 5.595649e+001
9.028417e+002, 5.625922e+001
9.033239e+002, 5.594984e+001
9.038060e+002, 5.548233e+001
9.042881e+002, 5.528783e+001
9.047702e+002, 5.532766e+001
9.052523e+002, 5.533495e+001
9.057344e+002, 5.521288e+001
9.062166e+002, 5.515247e+001
9.066987e+002, 5.529470e+001
9.071808e+002, 5.542366e+001
9.076629e+002, 5.529619e+001
9.081450e+002, 5.507022e+001
9.086271e+002, 5.509194e+001
9.091093e+002, 5.543903e+001
9.095914e+002, 5.573948e+001
9.100735e+002, 5.565717e+001
9.105556e+002, 5.546547e+001
9.110377e+002, 5.544951e+001
9.115198e+002, 5.556047e+001
9.120020e+002, 5.570409e+001
9.124841e+002, 5.585920e+001
9.129662e+002, 5.604734e+001
9.134483e+002, 5.629203e+001
9.139304e+002, 5.650629e+001
9.144125e+002, 5.651390e+001
9.148947e+002, 5.634333e+001
9.153768e+002, 5.619184e+001
9.158589e+002, 5.606183e+001
9.163410e+002, 5.610193e+001
9.168231e+002, 5.638831e+001
9.173052e+002, 5.678799e+001
9.177874e+002, 5.718505e+001
9.182695e+002, 5.756066e+001
9.187516e+002, 5.770995e+001
9.192337e+002, 5.756880e+001
9.197158e+002, 5.733735e+001
9.201979e+002, 5.675102e+001
9.206801e+002, 5.644560e+001
9.211622e+002, 5.703168e+001
9.216443e+002, 5.801531e+001
9.221264e+002, 5.858347e+001
9.226085e+002, 5.864141e+001
9.230906e+002, 5.880917e+001
9.235728e+002, 5.935457e+001
9.240549e+002, 5.979577e+001
9.245370e+002, 5.990279e+001
9.250191e+002, 5.986015e+001
9.255012e+002, 5.971568e+001
9.259833e+002, 5.958758e+001
9.264655e+002, 5.978740e+001
9.269476e+002, 6.051831e+001
9.274297e+002, 6.122701e+001
9.279118e+002, 6.142152e+001
9.283939e+002, 6.147888e+001
9.288760e+002, 6.180874e+001
9.293582e+002, 6.235339e+001
9.298403e+002, 6.300903e+001
9.303224e+002, 6.369703e+001
9.308045e+002, 6.414079e+001
9.312866e+002, 6.404009e+001
9.317687e+002, 6.372431e+001
9.322509e+002, 6.380215e+001
9.327330e+002, 6.421238e+001
9.332151e+002, 6.475953e+001
9.336972e+002, 6.540363e+001
9.341793e+002, 6.582650e+001
9.346614e+002, 6.585178e+001
9.351436e+002, 6.569952e+001
9.356257e+002, 6.564158e+001
9.361078e+002, 6.568902e+001
9.365899e+002, 6.618522e+001
9.370720e+002, 6.732424e+001
9.375541e+002, 6.806516e+001
9.380363e+002, 6.798792e+001
9.385184e+002, 6.789828e+001
9.390005e+002, 6.842472e+001
9.394826e+002, 6.935120e+001
9.399647e+002, 7.007810e+001
9.404468e+002, 7.053182e+001
9.409290e+002, 7.097735e+001
9.414111e+002, 7.153508e+001
9.418932e+002, 7.193517e+001
9.423753e+002, 7.187009e+001
9.428574e+002, 7.179003e+001
9.433395e+002, 7.222131e+001
9.438217e+002, 7.305266e+001
9.443038e+002, 7.363245e+001
9.447859e+002, 7.368315e+001
9.452680e+002, 7.372592e+001
9.457501e+002, 7.389913e+001
9.462322e+002, 7.417974e+001
9.467144e+002, 7.457913e+001
9.471965e+002, 7.506158e+001
9.476786e+002, 7.563491e+001
9.481607e+002, 7.626908e+001
9.486428e+002, 7.675356e+001
9.491249e+002, 7.685390e+001
9.496071e+002, 7.687362e+001
9.500892e+002, 7.707207e+001
9.505713e+002, 7.742348e+001
9.510534e+002, 7.784290e+001
9.515355e+002, 7.836584e+001
9.520176e+002, 7.924986e+001
9.524998e+002, 8.059960e+001
9.529819e+002, 8.189339e+001
9.534640e+002, 8.231082e+001
9.539461e+002, 8.226501e+001
9.544282e+002, 8.313437e+001
9.549103e+002, 8.479904e+001
9.553925e+002, 8.633318e+001
9.558746e+002, 8.755139e+001
9.563567e+002, 8.856303e+001
9.568388e+002, 8.941804e+001
9.573209e+002, 9.022021e+001
9.578030e+002, 9.115913e+001
9.582852e+002, 9.221413e+001
9.587673e+002, 9.372165e+001
9.592494e+002, 9.583331e+001
9.597315e+002, 9.778199e+001
9.602136e+002, 9.933025e+001
9.606957e+002, 1.006333e+002
9.611779e+002, 1.016723e+002
9.616600e+002, 1.026047e+002
9.621421e+002, 1.042895e+002
9.626242e+002, 1.073767e+002
9.631063e+002, 1.099210e+002
9.635884e+002, 1.116455e+002
9.640706e+002, 1.131428e+002
9.645527e+002, 1.145705e+002
9.650348e+002, 1.159304e+002
9.655169e+002, 1.172063e+002
9.659990e+002, 1.184042e+002
9.664811e+002, 1.196060e+002
9.669633e+002, 1.211440e+002
9.674454e+002, 1.222209e+002
9.679275e+002, 1.224322e+002
9.684096e+002, 1.223538e+002
9.688917e+002, 1.224561e+002
9.693738e+002, 1.225098e+002
9.698560e+002, 1.220020e+002
9.703381e+002, 1.208539e+002
9.708202e+002, 1.197477e+002
9.713023e+002, 1.190983e+002
9.717844e+002, 1.184923e+002
9.722665e+002, 1.175853e+002
9.727487e+002, 1.166226e+002
9.732308e+002, 1.159592e+002
9.737129e+002, 1.155145e+002
9.741950e+002, 1.149636e+002
9.746771e+002, 1.141827e+002
9.751592e+002, 1.133359e+002
9.756414e+002, 1.126287e+002
9.761235e+002, 1.119049e+002
9.766056e+002, 1.108413e+002
9.770877e+002, 1.096000e+002
9.775698e+002, 1.085651e+002
9.780519e+002, 1.077902e+002
9.785341e+002, 1.071072e+002
9.790162e+002, 1.064139e+002
9.794983e+002, 1.058222e+002
9.799804e+002, 1.056526e+002
9.804625e+002, 1.057135e+002
9.809446e+002, 1.051886e+002
9.814268e+002, 1.041203e+002
9.819089e+002, 1.030532e+002
9.823910e+002, 1.021322e+002
9.828731e+002, 1.013540e+002
9.833552e+002, 1.007508e+002
9.838373e+002, 1.001983e+002
9.843195e+002, 9.932864e+001
9.848016e+002, 9.811929e+001
9.852837e+002, 9.717688e+001
9.857658e+002, 9.659184e+001
9.862479e+002, 9.583424e+001
9.867300e+002, 9.463011e+001
9.872122e+002, 9.346111e+001
9.876943e+002, 9.284631e+001
9.881764e+002, 9.266360e+001
9.886585e+002, 9.224830e+001
9.891406e+002, 9.154777e+001
9.896227e+002, 9.073812e+001
9.901049e+002, 8.963502e+001
9.905870e+002, 8.877003e+001
9.910691e+002, 8.840097e+001
9.915512e+002, 8.834122e+001
9.920333e+002, 8.851443e+001
9.925154e+002, 8.889745e+001
9.929976e+002, 8.876206e+001
9.934797e+002, 8.746700e+001
9.939618e+002, 8.663365e+001
9.944439e+002, 8.658295e+001
9.949260e+002, 8.673793e+001
9.954081e+002, 8.691142e+001
9.958903e+002, 8.707991e+001
9.963724e+002, 8.721155e+001
9.968545e+002, 8.730622e+001
9.973366e+002, 8.744131e+001
9.978187e+002, 8.770078e+001
9.983008e+002, 8.790638e+001
9.987830e+002, 8.786149e+001
9.992651e+002, 8.788753e+001
9.997472e+002, 8.824185e+001
1.000229e+003, 8.882268e+001
1.000711e+003, 8.942257e+001
1.001194e+003, 9.000114e+001
1.001676e+003, 9.070279e+001
1.002158e+003, 9.178770e+001
1.002640e+003, 9.277758e+001
1.003122e+003, 9.321397e+001
1.003604e+003, 9.356060e+001
1.004086e+003, 9.439924e+001
1.004568e+003, 9.554921e+001
1.005050e+003, 9.644542e+001
1.005533e+003, 9.691577e+001
1.006015e+003, 9.737939e+001
1.006497e+003, 9.807104e+001
1.006979e+003, 9.894592e+001
1.007461e+003, 1.001742e+002
1.007943e+003, 1.014426e+002
1.008425e+003, 1.022597e+002
1.008907e+003, 1.026327e+002
1.009390e+003, 1.027600e+002
1.009872e+003, 1.027307e+002
1.010354e+003, 1.026997e+002
1.010836e+003, 1.028587e+002
1.011318e+003, 1.030855e+002
1.011800e+003, 1.032169e+002
1.012282e+003, 1.032454e+002
1.012764e+003, 1.031722e+002
1.013246e+003, 1.029849e+002
1.013729e+003, 1.025960e+002
1.014211e+003, 1.019523e+002
1.014693e+003, 1.012537e+002
1.015175e+003, 1.006439e+002
1.015657e+003, 1.002167e+002
1.016139e+003, 1.004015e+002
1.016621e+003, 1.010575e+002
1.017103e+003, 1.014597e+002
1.017586e+003, 1.014754e+002
1.018068e+003, 1.013486e+002
1.018550e+003, 1.012130e+002
1.019032e+003, 1.011746e+002
1.019514e+003, 1.014725e+002
1.019996e+003, 1.020462e+002
1.020478e+003, 1.024893e+002
1.020960e+003, 1.028011e+002
1.021442e+003, 1.028598e+002
1.021925e+003, 1.026272e+002
1.022407e+003, 1.023313e+002
1.022889e+003, 1.021458e+002
1.023371e+003, 1.019369e+002
1.023853e+003, 1.014083e+002
1.024335e+003, 1.005570e+002
1.024817e+003, 9.966050e+001
1.025299e+003, 9.866774e+001
1.025781e+003, 9.802638e+001
1.026264e+003, 9.786345e+001
1.026746e+003, 9.800579e+001
1.027228e+003, 9.837520e+001
1.027710e+003, 9.886635e+001
1.028192e+003, 9.919546e+001
1.028674e+003, 9.929947e+001
1.029156e+003, 9.976706e+001
1.029638e+003, 1.007277e+002
1.030120e+003, 1.015546e+002
1.030603e+003, 1.018837e+002
1.031085e+003, 1.025203e+002
1.031567e+003, 1.041972e+002
1.032049e+003, 1.065382e+002
1.032531e+003, 1.085070e+002
1.033013e+003, 1.098807e+002
1.033495e+003, 1.119118e+002
1.033977e+003, 1.147091e+002
1.034460e+003, 1.179451e+002
1.034942e+003, 1.216264e+002
1.035424e+003, 1.256060e+002
1.035906e+003, 1.298624e+002
1.036388e+003, 1.342760e+002
1.036870e+003, 1.384754e+002
1.037352e+003, 1.422643e+002
1.037834e+003, 1.464587e+002
1.038317e+003, 1.514257e+002
1.038799e+003, 1.562292e+002
1.039281e+003, 1.609782e+002
1.039763e+003, 1.651849e+002
1.040245e+003, 1.686487e+002
1.040727e+003, 1.712844e+002
1.041209e+003, 1.728768e+002
1.041691e+003, 1.732244e+002
1.042173e+003, 1.731510e+002
1.042656e+003, 1.733993e+002
1.043138e+003, 1.722471e+002
1.043620e+003, 1.687500e+002
1.044102e+003, 1.641899e+002
1.044584e+003, 1.592224e+002
1.045066e+003, 1.539887e+002
1.045548e+003, 1.488619e+002
1.046030e+003, 1.439884e+002
1.046512e+003, 1.387283e+002
1.046995e+003, 1.325708e+002
1.047477e+003, 1.266045e+002
1.047959e+003, 1.209594e+002
1.048441e+003, 1.157883e+002
1.048923e+003, 1.113710e+002
1.049405e+003, 1.074991e+002
1.049887e+003, 1.037000e+002
1.050369e+003, 9.988151e+001
1.050852e+003, 9.630241e+001
1.051334e+003, 9.308093e+001
1.051816e+003, 8.999564e+001
1.052298e+003, 8.685780e+001
1.052780e+003, 8.391249e+001
1.053262e+003, 8.129911e+001
1.053744e+003, 7.903445e+001
1.054226e+003, 7.718227e+001
1.054708e+003, 7.580039e+001
1.055191e+003, 7.435722e+001
1.055673e+003, 7.242683e+001
1.056155e+003, 7.077794e+001
1.056637e+003, 6.988587e+001
1.057119e+003, 6.923535e+001
1.057601e+003, 6.842466e+001
1.058083e+003, 6.751070e+001
1.058565e+003, 6.670856e+001
1.059047e+003, 6.607277e+001
1.059530e+003, 6.534437e+001
1.060012e+003, 6.432107e+001
1.060494e+003, 6.334895e+001
1.060976e+003, 6.241538e+001
1.061458e+003, 6.174621e+001
1.061940e+003, 6.173525e+001
1.062422e+003, 6.204706e+001
1.062904e+003, 6.203750e+001
1.063387e+003, 6.158397e+001
1.063869e+003, 6.101872e+001
1.064351e+003, 6.027172e+001
1.064833e+003, 5.969063e+001
1.065315e+003, 5.955291e+001
1.065797e+003, 5.953044e+001
1.066279e+003, 5.934159e+001
1.066761e+003, 5.906977e+001
1.067244e+003, 5.894700e+001
1.067726e+003, 5.899609e+001
1.068208e+003, 5.890083e+001
1.068690e+003, 5.836213e+001
1.069172e+003, 5.788200e+001
1.069654e+003, 5.772952e+001
1.070136e+003, 5.768803e+001
1.070618e+003, 5.758114e+001
1.071100e+003, 5.746359e+001
1.071583e+003, 5.751171e+001
1.072065e+003, 5.771138e+001
1.072547e+003, 5.771777e+001
1.073029e+003, 5.723540e+001
1.073511e+003, 5.680548e+001
1.073993e+003, 5.670801e+001
1.074475e+003, 5.673840e+001
1.074957e+003, 5.683122e+001
1.075439e+003, 5.689643e+001
1.075922e+003, 5.673872e+001
1.076404e+003, 5.640693e+001
1.076886e+003, 5.632318e+001
1.077368e+003, 5.682144e+001
1.077850e+003, 5.718461e+001
1.078332e+003, 5.688613e+001
1.078814e+003, 5.653468e+001
1.079297e+003, 5.657159e+001
1.079779e+003, 5.682716e+001
1.080261e+003, 5.714232e+001
1.080743e+003, 5.743143e+001
1.081225e+003, 5.746253e+001
1.081707e+003, 5.702374e+001
1.082189e+003, 5.677872e+001
1.082671e+003, 5.729310e+001
1.083153e+003, 5.780511e+001
1.083635e+003, 5.774186e+001
1.084118e+003, 5.745831e+001
1.084600e+003, 5.734444e+001
1.085082e+003, 5.741810e+001
1.085564e+003, 5.757778e+001
1.086046e+003, 5.782419e+001
1.086528e+003, 5.799018e+001
1.087010e+003, 5.796787e+001
1.087492e+003, 5.789098e+001
1.087975e+003, 5.770880e+001
1.088457e+003, 5.761077e+001
1.088939e+003, 5.788703e+001
1.089421e+003, 5.838139e+001
1.089903e+003, 5.870322e+001
1.090385e+003, 5.876085e+001
1.090867e+003, 5.867806e+001
1.091349e+003, 5.829673e+001
1.091832e+003, 5.804874e+001
1.092314e+003, 5.828199e+001
1.092796e+003, 5.859627e+001
1.093278e+003, 5.855840e+001
1.093760e+003, 5.837698e+001
1.094242e+003, 5.853833e+001
1.094724e+003, 5.911641e+001
1.095206e+003, 5.958570e+001
1.095688e+003, 5.964754e+001
1.096171e+003, 5.975288e+001
1.096653e+003, 6.007772e+001
1.097135e+003, 6.047836e+001
1.097617e+003, 6.100222e+001
1.098099e+003, 6.145769e+001
1.098581e+003, 6.146411e+001
1.099063e+003, 6.105474e+001
1.099545e+003, 6.094893e+001
1.100027e+003, 6.164323e+001
1.100510e+003, 6.210857e+001
1.100992e+003, 6.180630e+001
1.101474e+003, 6.152910e+001
1.101956e+003, 6.184790e+001
1.102438e+003, 6.232490e+001
1.102920e+003, 6.236234e+001
1.103402e+003, 6.204491e+001
1.103884e+003, 6.199860e+001
1.104367e+003, 6.245591e+001
1.104849e+003, 6.284892e+001
1.105331e+003, 6.308362e+001
1.105813e+003, 6.323156e+001
1.106295e+003, 6.315064e+001
1.106777e+003, 6.313982e+001
1.107259e+003, 6.359178e+001
1.107741e+003, 6.431658e+001
1.108224e+003, 6.474749e+001
1.108706e+003, 6.478529e+001
1.109188e+003, 6.474308e+001
1.109670e+003, 6.454684e+001
1.110152e+003, 6.441213e+001
1.110634e+003, 6.424470e+001
1.111116e+003, 6.429855e+001
1.111598e+003, 6.498171e+001
1.112080e+003, 6.591064e+001
1.112563e+003, 6.630022e+001
1.113045e+003, 6.605994e+001
1.113527e+003, 6.603514e+001
1.114009e+003, 6.630595e+001
1.114491e+003, 6.666996e+001
1.114973e+003, 6.732850e+001
1.115455e+003, 6.777748e+001
1.115937e+003, 6.761040e+001
1.116419e+003, 6.725230e+001
1.116902e+003, 6.727322e+001
1.117384e+003, 6.763415e+001
1.117866e+003, 6.784621e+001
1.118348e+003, 6.771071e+001
1.118830e+003, 6.791606e+001
1.119312e+003, 6.873301e+001
1.119794e+003, 6.938728e+001
1.120276e+003, 6.952369e+001
1.120759e+003, 6.952305e+001
1.121241e+003, 6.974146e+001
1.121723e+003, 7.011234e+001
1.122205e+003, 7.037283e+001
1.122687e+003, 7.042761e+001
1.123169e+003, 7.086507e+001
1.123651e+003, 7.186412e+001
1.124133e+003, 7.262302e+001
1.124615e+003, 7.284865e+001
1.125098e+003, 7.309500e+001
1.125580e+003, 7.377701e+001
1.126062e+003, 7.465928e+001
1.126544e+003, 7.528511e+001
1.127026e+003, 7.565693e+001
1.127508e+003, 7.597984e+001
1.127990e+003, 7.625537e+001
1.128472e+003, 7.645013e+001
1.128954e+003, 7.654077e+001
1.129437e+003, 7.672491e+001
1.129919e+003, 7.713836e+001
1.130401e+003, 7.746940e+001
1.130883e+003, 7.728374e+001
1.131365e+003, 7.675304e+001
1.131847e+003, 7.665964e+001
1.132329e+003, 7.696175e+001
1.132811e+003, 7.680894e+001
1.133294e+003, 7.614748e+001
1.133776e+003, 7.549339e+001
1.134258e+003, 7.501887e+001
1.134740e+003, 7.441712e+001
1.135222e+003, 7.339735e+001
1.135704e+003, 7.223968e+001
1.136186e+003, 7.158855e+001
1.136668e+003, 7.127271e+001
1.137151e+003, 7.059678e+001
1.137633e+003, 6.960639e+001
1.138115e+003, 6.856646e+001
1.138597e+003, 6.756136e+001
1.139079e+003, 6.667745e+001
1.139561e+003, 6.596838e+001
1.140043e+003, 6.536445e+001
1.140525e+003, 6.482687e+001
1.141007e+003, 6.430659e+001
1.141490e+003, 6.362244e+001
1.141972e+003, 6.291825e+001
1.142454e+003, 6.262859e+001
1.142936e+003, 6.264180e+001
1.143418e+003, 6.235352e+001
1.143900e+003, 6.159901e+001
1.144382e+003, 6.094310e+001
1.144864e+003, 6.090833e+001
1.145346e+003, 6.097173e+001
1.145829e+003, 6.048149e+001
1.146311e+003, 5.983440e+001
1.146793e+003, 5.951171e+001
1.147275e+003, 5.944255e+001
1.147757e+003, 5.945838e+001
1.148239e+003, 5.950111e+001
1.148721e+003, 5.954815e+001
1.149203e+003, 5.963013e+001
1.149686e+003, 5.952479e+001
1.150168e+003, 5.886322e+001
1.150650e+003, 5.821773e+001
1.151132e+003, 5.799100e+001
1.151614e+003, 5.802520e+001
1.152096e+003, 5.829018e+001
1.152578e+003, 5.860609e+001
1.153060e+003, 5.855906e+001
1.153542e+003, 5.804288e+001
1.154025e+003, 5.766764e+001
1.154507e+003, 5.775307e+001
1.154989e+003, 5.786058e+001
1.155471e+003, 5.790533e+001
1.155953e+003, 5.784950e+001
1.156435e+003, 5.747441e+001
1.156917e+003, 5.710256e+001
1.157399e+003, 5.729113e+001
1.157881e+003, 5.798021e+001
1.158364e+003, 5.835307e+001
1.158846e+003, 5.821758e+001
1.159328e+003, 5.797890e+001
1.159810e+003, 5.745617e+001
1.160292e+003, 5.711469e+001
1.160774e+003, 5.726245e+001
1.161256e+003, 5.744759e+001
1.161738e+003, 5.732588e+001
1.162221e+003, 5.697532e+001
1.162703e+003, 5.653005e+001
1.163185e+003, 5.592831e+001
1.163667e+003, 5.579165e+001
1.164149e+003, 5.636935e+001
1.164631e+003, 5.666413e+001
1.165113e+003, 5.643518e+001
1.165595e+003, 5.619000e+001
1.166078e+003, 5.619618e+001
1.166560e+003, 5.625922e+001
1.167042e+003, 5.610670e+001
1.167524e+003, 5.582689e+001
1.168006e+003, 5.589541e+001
1.168488e+003, 5.633322e+001
1.168970e+003, 5.651169e+001
1.169452e+003, 5.639422e+001
1.169934e+003, 5.613689e+001
1.170417e+003, 5.577758e+001
1.170899e+003, 5.554098e+001
1.171381e+003, 5.559755e+001
1.171863e+003, 5.583361e+001
1.172345e+003, 5.606345e+001
1.172827e+003, 5.631190e+001
1.173309e+003, 5.670522e+001
1.173791e+003, 5.719518e+001
1.174273e+003, 5.768161e+001
1.174756e+003, 5.808676e+001
1.175238e+003, 5.804682e+001
1.175720e+003, 5.745964e+001
1.176202e+003, 5.699521e+001
1.176684e+003, 5.728442e+001
1.177166e+003, 5.787973e+001
1.177648e+003, 5.830189e+001
1.178130e+003, 5.861159e+001
1.178613e+003, 5.887590e+001
1.179095e+003, 5.911416e+001
1.179577e+003, 5.937075e+001
1.180059e+003, 5.963148e+001
1.180541e+003, 5.981044e+001
1.181023e+003, 5.986688e+001
1.181505e+003, 5.985889e+001
1.181987e+003, 5.988308e+001
1.182469e+003, 5.978189e+001
1.182952e+003, 5.930446e+001
1.183434e+003, 5.877917e+001
1.183916e+003, 5.862306e+001
1.184398e+003, 5.863212e+001
1.184880e+003, 5.833572e+001
1.185362e+003, 5.767524e+001
1.185844e+003, 5.706610e+001
1.186326e+003, 5.669099e+001
1.186808e+003, 5.624319e+001
1.187291e+003, 5.557042e+001
1.187773e+003, 5.493980e+001
1.188255e+003, 5.456580e+001
1.188737e+003, 5.419865e+001
1.189219e+003, 5.349372e+001
1.189701e+003, 5.262287e+001
1.190183e+003, 5.214630e+001
1.190665e+003, 5.218736e+001
1.191148e+003, 5.195955e+001
1.191630e+003, 5.135168e+001
1.192112e+003, 5.078754e+001
1.192594e+003, 5.036080e+001
1.193076e+003, 4.989935e+001
1.193558e+003, 4.927707e+001
1.194040e+003, 4.868954e+001
1.194522e+003, 4.840503e+001
1.195005e+003, 4.835099e+001
1.195487e+003, 4.821901e+001
1.195969e+003, 4.801527e+001
1.196451e+003, 4.791311e+001
1.196933e+003, 4.791429e+001
1.197415e+003, 4.786272e+001
1.197897e+003, 4.771702e+001
1.198379e+003, 4.748897e+001
1.198861e+003, 4.717485e+001
1.199344e+003, 4.689605e+001
1.199826e+003, 4.687017e+001
1.200308e+003, 4.695763e+001
1.200790e+003, 4.684286e+001
1.201272e+003, 4.662542e+001
1.201754e+003, 4.650475e+001
1.202236e+003, 4.649552e+001
1.202718e+003, 4.659995e+001
1.203200e+003, 4.678925e+001
1.203683e+003, 4.687454e+001
1.204165e+003, 4.671501e+001
1.204647e+003, 4.649807e+001
1.205129e+003, 4.630748e+001
1.205611e+003, 4.617955e+001
1.206093e+003, 4.610949e+001
1.206575e+003, 4.614893e+001
1.207057e+003, 4.647154e+001
1.207540e+003, 4.693459e+001
1.208022e+003, 4.712562e+001
1.208504e+003, 4.693300e+001
1.208986e+003, 4.684663e+001
1.209468e+003, 4.714857e+001
1.209950e+003, 4.731924e+001
1.210432e+003, 4.707750e+001
1.210914e+003, 4.687632e+001
1.211396e+003, 4.704781e+001
1.211879e+003, 4.728445e+001
1.212361e+003, 4.724552e+001
1.212843e+003, 4.700650e+001
1.213325e+003, 4.687348e+001
1.213807e+003, 4.687334e+001
1.214289e+003, 4.683356e+001
1.214771e+003, 4.670086e+001
1.215253e+003, 4.679433e+001
1.215735e+003, 4.725692e+001
1.216218e+003, 4.752697e+001
1.216700e+003, 4.726644e+001
1.217182e+003, 4.685602e+001
1.217664e+003, 4.678746e+001
1.218146e+003, 4.691463e+001
1.218628e+003, 4.672095e+001
1.219110e+003, 4.629540e+001
1.219592e+003, 4.607626e+001
1.220075e+003, 4.607554e+001
1.220557e+003, 4.629836e+001
1.221039e+003, 4.667295e+001
1.221521e+003, 4.673655e+001
1.222003e+003, 4.621653e+001
1.222485e+003, 4.568130e+001
1.222967e+003, 4.577447e+001
1.223449e+003, 4.608757e+001
1.223932e+003, 4.630634e+001
1.224414e+003, 4.633856e+001
1.224896e+003, 4.588390e+001
1.225378e+003, 4.522408e+001
1.225860e+003, 4.498798e+001
1.226342e+003, 4.519548e+001
1.226824e+003, 4.520135e+001
1.227306e+003, 4.461592e+001
1.227788e+003, 4.429384e+001
1.228271e+003, 4.484777e+001
1.228753e+003, 4.529837e+001
1.229235e+003, 4.508777e+001
1.229717e+003, 4.474607e+001
1.230199e+003, 4.467847e+001
1.230681e+003, 4.478373e+001
1.231163e+003, 4.488283e+001
1.231645e+003, 4.497320e+001
1.232127e+003, 4.495041e+001
1.232610e+003, 4.480926e+001
1.233092e+003, 4.453955e+001
1.233574e+003, 4.405144e+001
1.234056e+003, 4.377394e+001
1.234538e+003, 4.387960e+001
1.235020e+003, 4.401751e+001
1.235502e+003, 4.392315e+001
1.235984e+003, 4.373550e+001
1.236467e+003, 4.369587e+001
1.236949e+003, 4.377013e+001
1.237431e+003, 4.383291e+001
1.237913e+003, 4.387800e+001
1.238395e+003, 4.386697e+001
1.238877e+003, 4.380639e+001
1.239359e+003, 4.375808e+001
1.239841e+003, 4.373023e+001
1.240323e+003, 4.363119e+001
1.240806e+003, 4.339127e+001
1.241288e+003, 4.311869e+001
1.241770e+003, 4.289204e+001
1.242252e+003, 4.270850e+001
1.242734e+003, 4.255552e+001
1.243216e+003, 4.245009e+001
1.243698e+003, 4.240975e+001
1.244180e+003, 4.243521e+001
1.244662e+003, 4.259613e+001
1.245145e+003, 4.287329e+001
1.245627e+003, 4.289025e+001
1.246109e+003, 4.229826e+001
1.246591e+003, 4.190363e+001
1.247073e+003, 4.194675e+001
1.247555e+003, 4.207163e+001
1.248037e+003, 4.224831e+001
1.248519e+003, 4.235859e+001
1.249002e+003, 4.230906e+001
1.249484e+003, 4.214739e+001
1.249966e+003, 4.194093e+001
1.250448e+003, 4.169767e+001
1.250930e+003, 4.154328e+001
1.251412e+003, 4.147619e+001
1.251894e+003, 4.153745e+001
1.252376e+003, 4.173556e+001
1.252859e+003, 4.191135e+001
1.253341e+003, 4.201604e+001
1.253823e+003, 4.209453e+001
1.254305e+003, 4.218317e+001
1.254787e+003, 4.219906e+001
1.255269e+003, 4.195349e+001
1.255751e+003, 4.161365e+001
1.256233e+003, 4.141776e+001
1.256715e+003, 4.139731e+001
1.257198e+003, 4.176977e+001
1.257680e+003, 4.232011e+001
1.258162e+003, 4.246505e+001
1.258644e+003, 4.216941e+001
1.259126e+003, 4.202885e+001
1.259608e+003, 4.238607e+001
1.260090e+003, 4.256569e+001
1.260572e+003, 4.197320e+001
1.261054e+003, 4.149961e+001
1.261537e+003, 4.172644e+001
1.262019e+003, 4.207615e+001
1.262501e+003, 4.213300e+001
1.262983e+003, 4.199999e+001
1.263465e+003, 4.180048e+001
1.263947e+003, 4.157131e+001
1.264429e+003, 4.159977e+001
1.264911e+003, 4.199408e+001
1.265394e+003, 4.227531e+001
1.265876e+003, 4.242885e+001
1.266358e+003, 4.252372e+001
1.266840e+003, 4.257259e+001
1.267322e+003, 4.256723e+001
1.267804e+003, 4.249600e+001
1.268286e+003, 4.243715e+001
1.268768e+003, 4.250819e+001
1.269250e+003, 4.261316e+001
1.269733e+003, 4.247747e+001
1.270215e+003, 4.222731e+001
1.270697e+003, 4.222340e+001
1.271179e+003, 4.236980e+001
1.271661e+003, 4.233042e+001
1.272143e+003, 4.211668e+001
1.272625e+003, 4.204424e+001
1.273107e+003, 4.223095e+001
1.273589e+003, 4.236051e+001
1.274072e+003, 4.209291e+001
1.274554e+003, 4.193188e+001
1.275036e+003, 4.232726e+001
1.275518e+003, 4.268597e+001
1.276000e+003, 4.249783e+001
1.276482e+003, 4.215304e+001
1.276964e+003, 4.207202e+001
1.277446e+003, 4.223269e+001
1.277929e+003, 4.251770e+001
1.278411e+003, 4.297065e+001
1.278893e+003, 4.307236e+001
1.279375e+003, 4.270900e+001
1.279857e+003, 4.239592e+001
1.280339e+003, 4.215804e+001
1.280821e+003, 4.217752e+001
1.281303e+003, 4.256013e+001
1.281786e+003, 4.288747e+001
1.282268e+003, 4.284472e+001
##END=



