##NAMES=Alluaudite
##RRUFFID=R141067
##IDEAL CHEMISTRY=NaMn^2+^Fe^3+^_2_(PO_4_)_3_
##LOCALITY=Pleasant Valley pegmatite, Fourmile, Custer District, Custer County, South Dakota, USA
##OWNER=RRUFF
##SOURCE=Rob Lavinsky
##DESCRIPTION=Massive dark-brown crystals, associated with quartz, mica, and dark-green schorl.
##STATUS=The identification of this mineral is confirmed by single-crystal X-ray diffraction and chemical analysis.
##URL=rruff.info/R141067
##MEASURED CHEMISTRY=(Na_0.93_Ca_0.03_)_∑=0.96_(Mn_0.77_Fe^2+^_0.21_Mg_0.06_)_∑=1.04_Fe^3+^_2_(PO_4_)_3_
8.813672e+001, 1.011625e+002
8.861884e+001, 1.035012e+002
8.910095e+001, 1.051844e+002
8.958307e+001, 1.056207e+002
9.006519e+001, 1.059860e+002
9.054730e+001, 1.078495e+002
9.102942e+001, 1.122430e+002
9.151154e+001, 1.165075e+002
9.199365e+001, 1.173341e+002
9.247577e+001, 1.152194e+002
9.295789e+001, 1.126373e+002
9.344000e+001, 1.109793e+002
9.392212e+001, 1.100720e+002
9.440424e+001, 1.097591e+002
9.488635e+001, 1.105419e+002
9.536847e+001, 1.117188e+002
9.585059e+001, 1.115136e+002
9.633270e+001, 1.098471e+002
9.681482e+001, 1.079491e+002
9.729694e+001, 1.068140e+002
9.777905e+001, 1.064192e+002
9.826117e+001, 1.066732e+002
9.874329e+001, 1.078595e+002
9.922540e+001, 1.097594e+002
9.970752e+001, 1.107465e+002
1.001896e+002, 1.106532e+002
1.006718e+002, 1.100010e+002
1.011539e+002, 1.093294e+002
1.016360e+002, 1.085350e+002
1.021181e+002, 1.080715e+002
1.026002e+002, 1.080838e+002
1.030823e+002, 1.085877e+002
1.035645e+002, 1.093917e+002
1.040466e+002, 1.103741e+002
1.045287e+002, 1.117244e+002
1.050108e+002, 1.138658e+002
1.054929e+002, 1.170189e+002
1.059750e+002, 1.206099e+002
1.064572e+002, 1.246092e+002
1.069393e+002, 1.305292e+002
1.074214e+002, 1.341226e+002
1.079035e+002, 1.345604e+002
1.083856e+002, 1.326122e+002
1.088677e+002, 1.309356e+002
1.093499e+002, 1.294278e+002
1.098320e+002, 1.282518e+002
1.103141e+002, 1.274782e+002
1.107962e+002, 1.274180e+002
1.112783e+002, 1.273949e+002
1.117604e+002, 1.273533e+002
1.122426e+002, 1.273005e+002
1.127247e+002, 1.272909e+002
1.132068e+002, 1.268804e+002
1.136889e+002, 1.267542e+002
1.141710e+002, 1.273918e+002
1.146531e+002, 1.301907e+002
1.151353e+002, 1.325346e+002
1.156174e+002, 1.333495e+002
1.160995e+002, 1.326225e+002
1.165816e+002, 1.322057e+002
1.170637e+002, 1.334493e+002
1.175458e+002, 1.351497e+002
1.180280e+002, 1.360130e+002
1.185101e+002, 1.347083e+002
1.189922e+002, 1.329937e+002
1.194743e+002, 1.318257e+002
1.199564e+002, 1.312724e+002
1.204385e+002, 1.311525e+002
1.209207e+002, 1.311026e+002
1.214028e+002, 1.314252e+002
1.218849e+002, 1.326455e+002
1.223670e+002, 1.362660e+002
1.228491e+002, 1.403842e+002
1.233312e+002, 1.430222e+002
1.238134e+002, 1.438761e+002
1.242955e+002, 1.435826e+002
1.247776e+002, 1.420400e+002
1.252597e+002, 1.396312e+002
1.257418e+002, 1.376382e+002
1.262239e+002, 1.370164e+002
1.267061e+002, 1.373345e+002
1.271882e+002, 1.377543e+002
1.276703e+002, 1.380859e+002
1.281524e+002, 1.386131e+002
1.286345e+002, 1.400253e+002
1.291166e+002, 1.422254e+002
1.295988e+002, 1.442069e+002
1.300809e+002, 1.451412e+002
1.305630e+002, 1.451914e+002
1.310451e+002, 1.450595e+002
1.315272e+002, 1.448459e+002
1.320093e+002, 1.445507e+002
1.324915e+002, 1.441117e+002
1.329736e+002, 1.435059e+002
1.334557e+002, 1.429500e+002
1.339378e+002, 1.425820e+002
1.344199e+002, 1.424015e+002
1.349020e+002, 1.425457e+002
1.353842e+002, 1.431458e+002
1.358663e+002, 1.440966e+002
1.363484e+002, 1.448374e+002
1.368305e+002, 1.452475e+002
1.373126e+002, 1.457756e+002
1.377947e+002, 1.469953e+002
1.382769e+002, 1.490570e+002
1.387590e+002, 1.511084e+002
1.392411e+002, 1.531557e+002
1.397232e+002, 1.552292e+002
1.402053e+002, 1.557969e+002
1.406874e+002, 1.544723e+002
1.411696e+002, 1.521597e+002
1.416517e+002, 1.499875e+002
1.421338e+002, 1.478461e+002
1.426159e+002, 1.460811e+002
1.430980e+002, 1.448061e+002
1.435801e+002, 1.440907e+002
1.440623e+002, 1.436271e+002
1.445444e+002, 1.435260e+002
1.450265e+002, 1.436254e+002
1.455086e+002, 1.436431e+002
1.459907e+002, 1.434710e+002
1.464728e+002, 1.433752e+002
1.469550e+002, 1.435073e+002
1.474371e+002, 1.441896e+002
1.479192e+002, 1.443541e+002
1.484013e+002, 1.436855e+002
1.488834e+002, 1.425365e+002
1.493655e+002, 1.416584e+002
1.498477e+002, 1.407657e+002
1.503298e+002, 1.403969e+002
1.508119e+002, 1.408279e+002
1.512940e+002, 1.432809e+002
1.517761e+002, 1.447316e+002
1.522583e+002, 1.444615e+002
1.527404e+002, 1.430367e+002
1.532225e+002, 1.420471e+002
1.537046e+002, 1.415488e+002
1.541867e+002, 1.415691e+002
1.546688e+002, 1.421620e+002
1.551510e+002, 1.446378e+002
1.556331e+002, 1.460946e+002
1.561152e+002, 1.454599e+002
1.565973e+002, 1.432575e+002
1.570794e+002, 1.415565e+002
1.575615e+002, 1.412153e+002
1.580437e+002, 1.412454e+002
1.585258e+002, 1.410303e+002
1.590079e+002, 1.399392e+002
1.594900e+002, 1.391084e+002
1.599721e+002, 1.389792e+002
1.604542e+002, 1.394474e+002
1.609364e+002, 1.399072e+002
1.614185e+002, 1.399117e+002
1.619006e+002, 1.399275e+002
1.623827e+002, 1.403293e+002
1.628648e+002, 1.420795e+002
1.633469e+002, 1.434873e+002
1.638291e+002, 1.434952e+002
1.643112e+002, 1.422429e+002
1.647933e+002, 1.411959e+002
1.652754e+002, 1.413467e+002
1.657575e+002, 1.419765e+002
1.662396e+002, 1.423299e+002
1.667218e+002, 1.417717e+002
1.672039e+002, 1.411287e+002
1.676860e+002, 1.409587e+002
1.681681e+002, 1.412588e+002
1.686502e+002, 1.416387e+002
1.691323e+002, 1.417841e+002
1.696145e+002, 1.418700e+002
1.700966e+002, 1.421349e+002
1.705787e+002, 1.431939e+002
1.710608e+002, 1.441607e+002
1.715429e+002, 1.440570e+002
1.720250e+002, 1.428180e+002
1.725072e+002, 1.415510e+002
1.729893e+002, 1.410856e+002
1.734714e+002, 1.411763e+002
1.739535e+002, 1.413689e+002
1.744356e+002, 1.417282e+002
1.749177e+002, 1.419654e+002
1.753999e+002, 1.415707e+002
1.758820e+002, 1.404540e+002
1.763641e+002, 1.393967e+002
1.768462e+002, 1.391246e+002
1.773283e+002, 1.394619e+002
1.778104e+002, 1.399587e+002
1.782926e+002, 1.406570e+002
1.787747e+002, 1.413062e+002
1.792568e+002, 1.414260e+002
1.797389e+002, 1.409479e+002
1.802210e+002, 1.402239e+002
1.807031e+002, 1.394465e+002
1.811853e+002, 1.386958e+002
1.816674e+002, 1.383025e+002
1.821495e+002, 1.387449e+002
1.826316e+002, 1.396530e+002
1.831137e+002, 1.401111e+002
1.835958e+002, 1.400252e+002
1.840780e+002, 1.396988e+002
1.845601e+002, 1.394467e+002
1.850422e+002, 1.392780e+002
1.855243e+002, 1.392116e+002
1.860064e+002, 1.394216e+002
1.864885e+002, 1.397758e+002
1.869707e+002, 1.397446e+002
1.874528e+002, 1.392368e+002
1.879349e+002, 1.385154e+002
1.884170e+002, 1.379487e+002
1.888991e+002, 1.375310e+002
1.893812e+002, 1.371638e+002
1.898634e+002, 1.367742e+002
1.903455e+002, 1.363782e+002
1.908276e+002, 1.360772e+002
1.913097e+002, 1.358858e+002
1.917918e+002, 1.357614e+002
1.922739e+002, 1.356153e+002
1.927561e+002, 1.354410e+002
1.932382e+002, 1.353274e+002
1.937203e+002, 1.353867e+002
1.942024e+002, 1.355960e+002
1.946845e+002, 1.356342e+002
1.951666e+002, 1.354389e+002
1.956488e+002, 1.351248e+002
1.961309e+002, 1.349039e+002
1.966130e+002, 1.347784e+002
1.970951e+002, 1.347137e+002
1.975772e+002, 1.347479e+002
1.980593e+002, 1.348847e+002
1.985415e+002, 1.348166e+002
1.990236e+002, 1.344410e+002
1.995057e+002, 1.339504e+002
1.999878e+002, 1.338030e+002
2.004699e+002, 1.340416e+002
2.009520e+002, 1.344131e+002
2.014342e+002, 1.348285e+002
2.019163e+002, 1.353067e+002
2.023984e+002, 1.356331e+002
2.028805e+002, 1.358035e+002
2.033626e+002, 1.358057e+002
2.038447e+002, 1.355300e+002
2.043269e+002, 1.348773e+002
2.048090e+002, 1.343000e+002
2.052911e+002, 1.341219e+002
2.057732e+002, 1.344210e+002
2.062553e+002, 1.345711e+002
2.067374e+002, 1.344917e+002
2.072196e+002, 1.342689e+002
2.077017e+002, 1.341313e+002
2.081838e+002, 1.340877e+002
2.086659e+002, 1.341062e+002
2.091480e+002, 1.342246e+002
2.096301e+002, 1.345185e+002
2.101123e+002, 1.345378e+002
2.105944e+002, 1.341400e+002
2.110765e+002, 1.335136e+002
2.115586e+002, 1.332125e+002
2.120407e+002, 1.333231e+002
2.125228e+002, 1.335649e+002
2.130050e+002, 1.338571e+002
2.134871e+002, 1.343125e+002
2.139692e+002, 1.343479e+002
2.144513e+002, 1.337204e+002
2.149334e+002, 1.327301e+002
2.154155e+002, 1.322928e+002
2.158977e+002, 1.325938e+002
2.163798e+002, 1.330816e+002
2.168619e+002, 1.334871e+002
2.173440e+002, 1.338164e+002
2.178261e+002, 1.340385e+002
2.183082e+002, 1.341565e+002
2.187904e+002, 1.341620e+002
2.192725e+002, 1.340116e+002
2.197546e+002, 1.336554e+002
2.202367e+002, 1.332348e+002
2.207188e+002, 1.327876e+002
2.212009e+002, 1.322020e+002
2.216831e+002, 1.319090e+002
2.221652e+002, 1.320543e+002
2.226473e+002, 1.324655e+002
2.231294e+002, 1.326280e+002
2.236115e+002, 1.324617e+002
2.240936e+002, 1.321893e+002
2.245758e+002, 1.318872e+002
2.250579e+002, 1.314792e+002
2.255400e+002, 1.312467e+002
2.260221e+002, 1.312341e+002
2.265042e+002, 1.313906e+002
2.269863e+002, 1.316036e+002
2.274685e+002, 1.319925e+002
2.279506e+002, 1.322556e+002
2.284327e+002, 1.322164e+002
2.289148e+002, 1.316488e+002
2.293969e+002, 1.313025e+002
2.298790e+002, 1.312376e+002
2.303612e+002, 1.313779e+002
2.308433e+002, 1.315443e+002
2.313254e+002, 1.317756e+002
2.318075e+002, 1.319729e+002
2.322896e+002, 1.320962e+002
2.327717e+002, 1.321418e+002
2.332539e+002, 1.321130e+002
2.337360e+002, 1.319828e+002
2.342181e+002, 1.317863e+002
2.347002e+002, 1.315823e+002
2.351823e+002, 1.312748e+002
2.356644e+002, 1.311070e+002
2.361466e+002, 1.312274e+002
2.366287e+002, 1.318464e+002
2.371108e+002, 1.321579e+002
2.375929e+002, 1.319922e+002
2.380750e+002, 1.315857e+002
2.385571e+002, 1.314468e+002
2.390393e+002, 1.317738e+002
2.395214e+002, 1.320555e+002
2.400035e+002, 1.320663e+002
2.404856e+002, 1.316366e+002
2.409677e+002, 1.314756e+002
2.414498e+002, 1.317242e+002
2.419320e+002, 1.321722e+002
2.424141e+002, 1.324415e+002
2.428962e+002, 1.324314e+002
2.433783e+002, 1.324133e+002
2.438604e+002, 1.324855e+002
2.443425e+002, 1.326847e+002
2.448247e+002, 1.328490e+002
2.453068e+002, 1.329839e+002
2.457889e+002, 1.330820e+002
2.462710e+002, 1.331105e+002
2.467531e+002, 1.329574e+002
2.472352e+002, 1.329242e+002
2.477174e+002, 1.331049e+002
2.481995e+002, 1.335161e+002
2.486816e+002, 1.340621e+002
2.491637e+002, 1.348676e+002
2.496458e+002, 1.357134e+002
2.501279e+002, 1.362761e+002
2.506101e+002, 1.364706e+002
2.510922e+002, 1.365424e+002
2.515743e+002, 1.365120e+002
2.520564e+002, 1.363466e+002
2.525385e+002, 1.363405e+002
2.530206e+002, 1.365797e+002
2.535028e+002, 1.369004e+002
2.539849e+002, 1.370689e+002
2.544670e+002, 1.369404e+002
2.549491e+002, 1.369837e+002
2.554312e+002, 1.374115e+002
2.559133e+002, 1.382616e+002
2.563955e+002, 1.387184e+002
2.568776e+002, 1.386166e+002
2.573597e+002, 1.383054e+002
2.578418e+002, 1.381520e+002
2.583239e+002, 1.382160e+002
2.588061e+002, 1.382894e+002
2.592882e+002, 1.383222e+002
2.597703e+002, 1.383157e+002
2.602524e+002, 1.383958e+002
2.607345e+002, 1.386744e+002
2.612166e+002, 1.388839e+002
2.616988e+002, 1.387095e+002
2.621809e+002, 1.379318e+002
2.626630e+002, 1.374278e+002
2.631451e+002, 1.374578e+002
2.636272e+002, 1.379411e+002
2.641093e+002, 1.381077e+002
2.645915e+002, 1.378419e+002
2.650736e+002, 1.374700e+002
2.655557e+002, 1.372861e+002
2.660378e+002, 1.374107e+002
2.665199e+002, 1.372858e+002
2.670020e+002, 1.367151e+002
2.674842e+002, 1.358335e+002
2.679663e+002, 1.353910e+002
2.684484e+002, 1.355193e+002
2.689305e+002, 1.357813e+002
2.694126e+002, 1.358767e+002
2.698947e+002, 1.357638e+002
2.703769e+002, 1.356791e+002
2.708590e+002, 1.356869e+002
2.713411e+002, 1.357169e+002
2.718232e+002, 1.354885e+002
2.723053e+002, 1.348965e+002
2.727874e+002, 1.343644e+002
2.732696e+002, 1.341906e+002
2.737517e+002, 1.344484e+002
2.742338e+002, 1.345812e+002
2.747159e+002, 1.345305e+002
2.751980e+002, 1.343626e+002
2.756801e+002, 1.342159e+002
2.761623e+002, 1.340852e+002
2.766444e+002, 1.340034e+002
2.771265e+002, 1.340376e+002
2.776086e+002, 1.342088e+002
2.780907e+002, 1.341806e+002
2.785728e+002, 1.338762e+002
2.790550e+002, 1.334828e+002
2.795371e+002, 1.333728e+002
2.800192e+002, 1.335855e+002
2.805013e+002, 1.337589e+002
2.809834e+002, 1.336610e+002
2.814655e+002, 1.333033e+002
2.819477e+002, 1.332474e+002
2.824298e+002, 1.335984e+002
2.829119e+002, 1.339713e+002
2.833940e+002, 1.337294e+002
2.838761e+002, 1.328547e+002
2.843582e+002, 1.320553e+002
2.848404e+002, 1.316142e+002
2.853225e+002, 1.314805e+002
2.858046e+002, 1.313456e+002
2.862867e+002, 1.311982e+002
2.867688e+002, 1.311050e+002
2.872509e+002, 1.311787e+002
2.877331e+002, 1.314068e+002
2.882152e+002, 1.316228e+002
2.886973e+002, 1.318368e+002
2.891794e+002, 1.319870e+002
2.896615e+002, 1.317767e+002
2.901436e+002, 1.311745e+002
2.906258e+002, 1.305899e+002
2.911079e+002, 1.304523e+002
2.915900e+002, 1.306880e+002
2.920721e+002, 1.309122e+002
2.925542e+002, 1.310896e+002
2.930363e+002, 1.311467e+002
2.935185e+002, 1.307992e+002
2.940006e+002, 1.300529e+002
2.944827e+002, 1.294028e+002
2.949648e+002, 1.293363e+002
2.954469e+002, 1.296750e+002
2.959290e+002, 1.298516e+002
2.964112e+002, 1.297206e+002
2.968933e+002, 1.294540e+002
2.973754e+002, 1.292919e+002
2.978575e+002, 1.292256e+002
2.983396e+002, 1.292053e+002
2.988217e+002, 1.292637e+002
2.993039e+002, 1.293355e+002
2.997860e+002, 1.292606e+002
3.002681e+002, 1.289762e+002
3.007502e+002, 1.286721e+002
3.012323e+002, 1.286508e+002
3.017144e+002, 1.288210e+002
3.021966e+002, 1.288719e+002
3.026787e+002, 1.284909e+002
3.031608e+002, 1.279490e+002
3.036429e+002, 1.276018e+002
3.041250e+002, 1.274877e+002
3.046071e+002, 1.275149e+002
3.050893e+002, 1.277049e+002
3.055714e+002, 1.279786e+002
3.060535e+002, 1.281633e+002
3.065356e+002, 1.281542e+002
3.070177e+002, 1.280404e+002
3.074998e+002, 1.278882e+002
3.079820e+002, 1.276989e+002
3.084641e+002, 1.275093e+002
3.089462e+002, 1.273949e+002
3.094283e+002, 1.272852e+002
3.099104e+002, 1.270838e+002
3.103925e+002, 1.265664e+002
3.108747e+002, 1.260996e+002
3.113568e+002, 1.260050e+002
3.118389e+002, 1.262377e+002
3.123210e+002, 1.264578e+002
3.128031e+002, 1.264975e+002
3.132852e+002, 1.264294e+002
3.137674e+002, 1.263059e+002
3.142495e+002, 1.259798e+002
3.147316e+002, 1.258129e+002
3.152137e+002, 1.261732e+002
3.156958e+002, 1.268857e+002
3.161779e+002, 1.273629e+002
3.166601e+002, 1.272560e+002
3.171422e+002, 1.268968e+002
3.176243e+002, 1.264457e+002
3.181064e+002, 1.257754e+002
3.185885e+002, 1.253562e+002
3.190706e+002, 1.255561e+002
3.195528e+002, 1.261020e+002
3.200349e+002, 1.264654e+002
3.205170e+002, 1.262516e+002
3.209991e+002, 1.260239e+002
3.214812e+002, 1.260527e+002
3.219633e+002, 1.264457e+002
3.224455e+002, 1.267868e+002
3.229276e+002, 1.270106e+002
3.234097e+002, 1.271358e+002
3.238918e+002, 1.271850e+002
3.243739e+002, 1.270957e+002
3.248560e+002, 1.269977e+002
3.253382e+002, 1.269195e+002
3.258203e+002, 1.268634e+002
3.263024e+002, 1.268254e+002
3.267845e+002, 1.269409e+002
3.272666e+002, 1.270030e+002
3.277487e+002, 1.268425e+002
3.282309e+002, 1.259640e+002
3.287130e+002, 1.254516e+002
3.291951e+002, 1.255828e+002
3.296772e+002, 1.262774e+002
3.301593e+002, 1.267295e+002
3.306414e+002, 1.267871e+002
3.311236e+002, 1.267410e+002
3.316057e+002, 1.267425e+002
3.320878e+002, 1.267990e+002
3.325699e+002, 1.268881e+002
3.330520e+002, 1.270205e+002
3.335341e+002, 1.271800e+002
3.340163e+002, 1.273255e+002
3.344984e+002, 1.274610e+002
3.349805e+002, 1.275720e+002
3.354626e+002, 1.276640e+002
3.359447e+002, 1.277583e+002
3.364268e+002, 1.277398e+002
3.369090e+002, 1.275626e+002
3.373911e+002, 1.273213e+002
3.378732e+002, 1.271597e+002
3.383553e+002, 1.270824e+002
3.388374e+002, 1.270797e+002
3.393195e+002, 1.271931e+002
3.398017e+002, 1.274139e+002
3.402838e+002, 1.274784e+002
3.407659e+002, 1.273639e+002
3.412480e+002, 1.271542e+002
3.417301e+002, 1.269053e+002
3.422122e+002, 1.266126e+002
3.426944e+002, 1.263717e+002
3.431765e+002, 1.262146e+002
3.436586e+002, 1.261178e+002
3.441407e+002, 1.259622e+002
3.446228e+002, 1.257309e+002
3.451049e+002, 1.256281e+002
3.455871e+002, 1.259274e+002
3.460692e+002, 1.265549e+002
3.465513e+002, 1.269678e+002
3.470334e+002, 1.270656e+002
3.475155e+002, 1.269849e+002
3.479977e+002, 1.269713e+002
3.484798e+002, 1.270040e+002
3.489619e+002, 1.269122e+002
3.494440e+002, 1.263877e+002
3.499261e+002, 1.256906e+002
3.504082e+002, 1.254677e+002
3.508904e+002, 1.258022e+002
3.513725e+002, 1.263172e+002
3.518546e+002, 1.267534e+002
3.523367e+002, 1.270734e+002
3.528188e+002, 1.271857e+002
3.533009e+002, 1.269399e+002
3.537831e+002, 1.265231e+002
3.542652e+002, 1.260950e+002
3.547473e+002, 1.256621e+002
3.552294e+002, 1.253421e+002
3.557115e+002, 1.252897e+002
3.561936e+002, 1.253807e+002
3.566758e+002, 1.254511e+002
3.571579e+002, 1.254274e+002
3.576400e+002, 1.254037e+002
3.581221e+002, 1.254973e+002
3.586042e+002, 1.256620e+002
3.590863e+002, 1.257324e+002
3.595685e+002, 1.254656e+002
3.600506e+002, 1.251730e+002
3.605327e+002, 1.251327e+002
3.610148e+002, 1.255291e+002
3.614969e+002, 1.258077e+002
3.619790e+002, 1.256034e+002
3.624612e+002, 1.251501e+002
3.629433e+002, 1.248404e+002
3.634254e+002, 1.249623e+002
3.639075e+002, 1.251006e+002
3.643896e+002, 1.250539e+002
3.648717e+002, 1.247724e+002
3.653539e+002, 1.245835e+002
3.658360e+002, 1.247430e+002
3.663181e+002, 1.249311e+002
3.668002e+002, 1.248588e+002
3.672823e+002, 1.239482e+002
3.677644e+002, 1.233743e+002
3.682466e+002, 1.234983e+002
3.687287e+002, 1.242464e+002
3.692108e+002, 1.247163e+002
3.696929e+002, 1.247501e+002
3.701750e+002, 1.246488e+002
3.706571e+002, 1.245736e+002
3.711393e+002, 1.246701e+002
3.716214e+002, 1.245216e+002
3.721035e+002, 1.239516e+002
3.725856e+002, 1.231909e+002
3.730677e+002, 1.227954e+002
3.735498e+002, 1.229414e+002
3.740320e+002, 1.231115e+002
3.745141e+002, 1.231098e+002
3.749962e+002, 1.229114e+002
3.754783e+002, 1.227605e+002
3.759604e+002, 1.226517e+002
3.764425e+002, 1.226014e+002
3.769247e+002, 1.226460e+002
3.774068e+002, 1.227995e+002
3.778889e+002, 1.229671e+002
3.783710e+002, 1.231647e+002
3.788531e+002, 1.233492e+002
3.793352e+002, 1.232804e+002
3.798174e+002, 1.229194e+002
3.802995e+002, 1.225729e+002
3.807816e+002, 1.225151e+002
3.812637e+002, 1.227126e+002
3.817458e+002, 1.229335e+002
3.822279e+002, 1.232134e+002
3.827101e+002, 1.233669e+002
3.831922e+002, 1.229105e+002
3.836743e+002, 1.219448e+002
3.841564e+002, 1.211957e+002
3.846385e+002, 1.211737e+002
3.851206e+002, 1.216131e+002
3.856028e+002, 1.220472e+002
3.860849e+002, 1.224688e+002
3.865670e+002, 1.227318e+002
3.870491e+002, 1.225670e+002
3.875312e+002, 1.221545e+002
3.880133e+002, 1.218557e+002
3.884955e+002, 1.219233e+002
3.889776e+002, 1.220587e+002
3.894597e+002, 1.219640e+002
3.899418e+002, 1.216727e+002
3.904239e+002, 1.213892e+002
3.909060e+002, 1.211826e+002
3.913882e+002, 1.210666e+002
3.918703e+002, 1.210596e+002
3.923524e+002, 1.211871e+002
3.928345e+002, 1.213767e+002
3.933166e+002, 1.217046e+002
3.937987e+002, 1.220656e+002
3.942809e+002, 1.222448e+002
3.947630e+002, 1.219713e+002
3.952451e+002, 1.216760e+002
3.957272e+002, 1.215830e+002
3.962093e+002, 1.217601e+002
3.966914e+002, 1.218137e+002
3.971736e+002, 1.215403e+002
3.976557e+002, 1.211674e+002
3.981378e+002, 1.209033e+002
3.986199e+002, 1.208971e+002
3.991020e+002, 1.208577e+002
3.995841e+002, 1.207389e+002
4.000663e+002, 1.205511e+002
4.005484e+002, 1.203729e+002
4.010305e+002, 1.203042e+002
4.015126e+002, 1.201381e+002
4.019947e+002, 1.197420e+002
4.024768e+002, 1.189389e+002
4.029590e+002, 1.183382e+002
4.034411e+002, 1.179632e+002
4.039232e+002, 1.177762e+002
4.044053e+002, 1.177627e+002
4.048874e+002, 1.180260e+002
4.053695e+002, 1.181500e+002
4.058517e+002, 1.179441e+002
4.063338e+002, 1.174416e+002
4.068159e+002, 1.171216e+002
4.072980e+002, 1.170175e+002
4.077801e+002, 1.169814e+002
4.082622e+002, 1.168875e+002
4.087444e+002, 1.167366e+002
4.092265e+002, 1.165511e+002
4.097086e+002, 1.163258e+002
4.101907e+002, 1.160761e+002
4.106728e+002, 1.157628e+002
4.111549e+002, 1.154020e+002
4.116371e+002, 1.152106e+002
4.121192e+002, 1.155643e+002
4.126013e+002, 1.161490e+002
4.130834e+002, 1.161686e+002
4.135655e+002, 1.154937e+002
4.140476e+002, 1.147786e+002
4.145298e+002, 1.147123e+002
4.150119e+002, 1.150658e+002
4.154940e+002, 1.153801e+002
4.159761e+002, 1.155507e+002
4.164582e+002, 1.155428e+002
4.169403e+002, 1.151684e+002
4.174225e+002, 1.145056e+002
4.179046e+002, 1.140380e+002
4.183867e+002, 1.142100e+002
4.188688e+002, 1.146127e+002
4.193509e+002, 1.149142e+002
4.198330e+002, 1.150379e+002
4.203152e+002, 1.150876e+002
4.207973e+002, 1.151400e+002
4.212794e+002, 1.151431e+002
4.217615e+002, 1.150038e+002
4.222436e+002, 1.143689e+002
4.227257e+002, 1.138985e+002
4.232079e+002, 1.139239e+002
4.236900e+002, 1.145502e+002
4.241721e+002, 1.149243e+002
4.246542e+002, 1.146228e+002
4.251363e+002, 1.142673e+002
4.256184e+002, 1.143371e+002
4.261006e+002, 1.154041e+002
4.265827e+002, 1.159969e+002
4.270648e+002, 1.158242e+002
4.275469e+002, 1.151044e+002
4.280290e+002, 1.145927e+002
4.285111e+002, 1.143303e+002
4.289933e+002, 1.141912e+002
4.294754e+002, 1.141284e+002
4.299575e+002, 1.141414e+002
4.304396e+002, 1.142135e+002
4.309217e+002, 1.143254e+002
4.314038e+002, 1.145316e+002
4.318860e+002, 1.149643e+002
4.323681e+002, 1.156358e+002
4.328502e+002, 1.161927e+002
4.333323e+002, 1.165130e+002
4.338144e+002, 1.166790e+002
4.342965e+002, 1.169651e+002
4.347787e+002, 1.173688e+002
4.352608e+002, 1.176262e+002
4.357429e+002, 1.174150e+002
4.362250e+002, 1.169245e+002
4.367071e+002, 1.166145e+002
4.371892e+002, 1.165461e+002
4.376714e+002, 1.166407e+002
4.381535e+002, 1.168719e+002
4.386356e+002, 1.172024e+002
4.391177e+002, 1.175480e+002
4.395998e+002, 1.178040e+002
4.400819e+002, 1.181051e+002
4.405641e+002, 1.186203e+002
4.410462e+002, 1.193254e+002
4.415283e+002, 1.199770e+002
4.420104e+002, 1.203740e+002
4.424925e+002, 1.206890e+002
4.429746e+002, 1.210704e+002
4.434568e+002, 1.216348e+002
4.439389e+002, 1.221137e+002
4.444210e+002, 1.223929e+002
4.449031e+002, 1.225328e+002
4.453852e+002, 1.226499e+002
4.458673e+002, 1.227671e+002
4.463495e+002, 1.228641e+002
4.468316e+002, 1.229596e+002
4.473137e+002, 1.230712e+002
4.477958e+002, 1.230467e+002
4.482779e+002, 1.227228e+002
4.487600e+002, 1.224030e+002
4.492422e+002, 1.223266e+002
4.497243e+002, 1.226373e+002
4.502064e+002, 1.228995e+002
4.506885e+002, 1.230985e+002
4.511706e+002, 1.232239e+002
4.516527e+002, 1.232746e+002
4.521349e+002, 1.232935e+002
4.526170e+002, 1.230776e+002
4.530991e+002, 1.223724e+002
4.535812e+002, 1.212060e+002
4.540633e+002, 1.206239e+002
4.545454e+002, 1.206721e+002
4.550276e+002, 1.210283e+002
4.555097e+002, 1.214973e+002
4.559918e+002, 1.220293e+002
4.564739e+002, 1.223093e+002
4.569560e+002, 1.222576e+002
4.574381e+002, 1.219320e+002
4.579203e+002, 1.212439e+002
4.584024e+002, 1.202955e+002
4.588845e+002, 1.195460e+002
4.593666e+002, 1.194363e+002
4.598488e+002, 1.196131e+002
4.603309e+002, 1.196314e+002
4.608130e+002, 1.194382e+002
4.612951e+002, 1.192902e+002
4.617772e+002, 1.195650e+002
4.622593e+002, 1.199196e+002
4.627415e+002, 1.199422e+002
4.632236e+002, 1.189791e+002
4.637057e+002, 1.181912e+002
4.641878e+002, 1.182103e+002
4.646699e+002, 1.188173e+002
4.651520e+002, 1.192409e+002
4.656342e+002, 1.190692e+002
4.661163e+002, 1.188413e+002
4.665984e+002, 1.187995e+002
4.670805e+002, 1.190427e+002
4.675626e+002, 1.192421e+002
4.680447e+002, 1.194474e+002
4.685269e+002, 1.195718e+002
4.690090e+002, 1.195002e+002
4.694911e+002, 1.190353e+002
4.699732e+002, 1.187554e+002
4.704553e+002, 1.187976e+002
4.709374e+002, 1.190831e+002
4.714196e+002, 1.192418e+002
4.719017e+002, 1.191938e+002
4.723838e+002, 1.192588e+002
4.728659e+002, 1.197611e+002
4.733480e+002, 1.207016e+002
4.738301e+002, 1.210629e+002
4.743123e+002, 1.207431e+002
4.747944e+002, 1.201866e+002
4.752765e+002, 1.199156e+002
4.757586e+002, 1.198816e+002
4.762407e+002, 1.198502e+002
4.767228e+002, 1.198219e+002
4.772050e+002, 1.196799e+002
4.776871e+002, 1.190481e+002
4.781692e+002, 1.180567e+002
4.786513e+002, 1.173512e+002
4.791334e+002, 1.176372e+002
4.796155e+002, 1.182648e+002
4.800977e+002, 1.185282e+002
4.805798e+002, 1.183157e+002
4.810619e+002, 1.179993e+002
4.815440e+002, 1.176993e+002
4.820261e+002, 1.174609e+002
4.825082e+002, 1.173334e+002
4.829904e+002, 1.175988e+002
4.834725e+002, 1.176988e+002
4.839546e+002, 1.172715e+002
4.844367e+002, 1.164750e+002
4.849188e+002, 1.160156e+002
4.854009e+002, 1.163512e+002
4.858831e+002, 1.167215e+002
4.863652e+002, 1.168072e+002
4.868473e+002, 1.164909e+002
4.873294e+002, 1.163143e+002
4.878115e+002, 1.163651e+002
4.882936e+002, 1.164703e+002
4.887758e+002, 1.164253e+002
4.892579e+002, 1.161435e+002
4.897400e+002, 1.159931e+002
4.902221e+002, 1.160723e+002
4.907042e+002, 1.162965e+002
4.911863e+002, 1.164355e+002
4.916685e+002, 1.164938e+002
4.921506e+002, 1.164364e+002
4.926327e+002, 1.162678e+002
4.931148e+002, 1.159720e+002
4.935969e+002, 1.153868e+002
4.940790e+002, 1.144686e+002
4.945612e+002, 1.136520e+002
4.950433e+002, 1.134523e+002
4.955254e+002, 1.136645e+002
4.960075e+002, 1.138509e+002
4.964896e+002, 1.139346e+002
4.969717e+002, 1.138787e+002
4.974539e+002, 1.135785e+002
4.979360e+002, 1.131027e+002
4.984181e+002, 1.126398e+002
4.989002e+002, 1.121521e+002
4.993823e+002, 1.117968e+002
4.998644e+002, 1.117253e+002
5.003466e+002, 1.119654e+002
5.008287e+002, 1.121718e+002
5.013108e+002, 1.122057e+002
5.017929e+002, 1.121807e+002
5.022750e+002, 1.121831e+002
5.027571e+002, 1.122510e+002
5.032393e+002, 1.123075e+002
5.037214e+002, 1.123545e+002
5.042035e+002, 1.123852e+002
5.046856e+002, 1.124065e+002
5.051677e+002, 1.125234e+002
5.056498e+002, 1.124202e+002
5.061320e+002, 1.118924e+002
5.066141e+002, 1.109666e+002
5.070962e+002, 1.104847e+002
5.075783e+002, 1.105261e+002
5.080604e+002, 1.107525e+002
5.085425e+002, 1.109927e+002
5.090247e+002, 1.112278e+002
5.095068e+002, 1.111476e+002
5.099889e+002, 1.106528e+002
5.104710e+002, 1.100328e+002
5.109531e+002, 1.096379e+002
5.114352e+002, 1.094521e+002
5.119174e+002, 1.094197e+002
5.123995e+002, 1.096628e+002
5.128816e+002, 1.099475e+002
5.133637e+002, 1.099550e+002
5.138458e+002, 1.097306e+002
5.143279e+002, 1.095524e+002
5.148101e+002, 1.096259e+002
5.152922e+002, 1.097845e+002
5.157743e+002, 1.098867e+002
5.162564e+002, 1.098848e+002
5.167385e+002, 1.099127e+002
5.172206e+002, 1.101774e+002
5.177028e+002, 1.104328e+002
5.181849e+002, 1.103968e+002
5.186670e+002, 1.096944e+002
5.191491e+002, 1.090802e+002
5.196312e+002, 1.086220e+002
5.201133e+002, 1.083315e+002
5.205955e+002, 1.082724e+002
5.210776e+002, 1.086171e+002
5.215597e+002, 1.089103e+002
5.220418e+002, 1.089448e+002
5.225239e+002, 1.086952e+002
5.230060e+002, 1.084686e+002
5.234882e+002, 1.082592e+002
5.239703e+002, 1.080907e+002
5.244524e+002, 1.079719e+002
5.249345e+002, 1.079072e+002
5.254166e+002, 1.079825e+002
5.258987e+002, 1.082900e+002
5.263809e+002, 1.085922e+002
5.268630e+002, 1.083603e+002
5.273451e+002, 1.077434e+002
5.278272e+002, 1.073617e+002
5.283093e+002, 1.078653e+002
5.287914e+002, 1.085616e+002
5.292736e+002, 1.085997e+002
5.297557e+002, 1.080098e+002
5.302378e+002, 1.074640e+002
5.307199e+002, 1.073967e+002
5.312020e+002, 1.075009e+002
5.316841e+002, 1.074994e+002
5.321663e+002, 1.072060e+002
5.326484e+002, 1.071081e+002
5.331305e+002, 1.075937e+002
5.336126e+002, 1.082692e+002
5.340947e+002, 1.085742e+002
5.345768e+002, 1.081429e+002
5.350590e+002, 1.077258e+002
5.355411e+002, 1.073793e+002
5.360232e+002, 1.071257e+002
5.365053e+002, 1.071319e+002
5.369874e+002, 1.074774e+002
5.374695e+002, 1.079094e+002
5.379517e+002, 1.083579e+002
5.384338e+002, 1.088401e+002
5.389159e+002, 1.090476e+002
5.393980e+002, 1.089492e+002
5.398801e+002, 1.087022e+002
5.403622e+002, 1.083941e+002
5.408444e+002, 1.080651e+002
5.413265e+002, 1.078912e+002
5.418086e+002, 1.079092e+002
5.422907e+002, 1.080969e+002
5.427728e+002, 1.085425e+002
5.432549e+002, 1.091507e+002
5.437371e+002, 1.096385e+002
5.442192e+002, 1.098492e+002
5.447013e+002, 1.098931e+002
5.451834e+002, 1.097728e+002
5.456655e+002, 1.095091e+002
5.461476e+002, 1.093653e+002
5.466298e+002, 1.094812e+002
5.471119e+002, 1.097354e+002
5.475940e+002, 1.100828e+002
5.480761e+002, 1.106987e+002
5.485582e+002, 1.110331e+002
5.490403e+002, 1.108230e+002
5.495225e+002, 1.104262e+002
5.500046e+002, 1.102766e+002
5.504867e+002, 1.105034e+002
5.509688e+002, 1.107155e+002
5.514509e+002, 1.108430e+002
5.519330e+002, 1.109092e+002
5.524152e+002, 1.109836e+002
5.528973e+002, 1.110578e+002
5.533794e+002, 1.111827e+002
5.538615e+002, 1.114241e+002
5.543436e+002, 1.117483e+002
5.548257e+002, 1.120084e+002
5.553079e+002, 1.122061e+002
5.557900e+002, 1.122611e+002
5.562721e+002, 1.119057e+002
5.567542e+002, 1.113938e+002
5.572363e+002, 1.112468e+002
5.577184e+002, 1.116933e+002
5.582006e+002, 1.121762e+002
5.586827e+002, 1.122060e+002
5.591648e+002, 1.119846e+002
5.596469e+002, 1.118548e+002
5.601290e+002, 1.120126e+002
5.606111e+002, 1.122201e+002
5.610933e+002, 1.124773e+002
5.615754e+002, 1.127453e+002
5.620575e+002, 1.127746e+002
5.625396e+002, 1.120667e+002
5.630217e+002, 1.115482e+002
5.635038e+002, 1.116931e+002
5.639860e+002, 1.127754e+002
5.644681e+002, 1.131651e+002
5.649502e+002, 1.125396e+002
5.654323e+002, 1.117205e+002
5.659144e+002, 1.116047e+002
5.663965e+002, 1.122734e+002
5.668787e+002, 1.126166e+002
5.673608e+002, 1.123969e+002
5.678429e+002, 1.119513e+002
5.683250e+002, 1.119456e+002
5.688071e+002, 1.122857e+002
5.692892e+002, 1.124540e+002
5.697714e+002, 1.120274e+002
5.702535e+002, 1.114283e+002
5.707356e+002, 1.112650e+002
5.712177e+002, 1.114777e+002
5.716998e+002, 1.117273e+002
5.721819e+002, 1.117985e+002
5.726641e+002, 1.118390e+002
5.731462e+002, 1.119621e+002
5.736283e+002, 1.121904e+002
5.741104e+002, 1.124528e+002
5.745925e+002, 1.128693e+002
5.750746e+002, 1.132353e+002
5.755568e+002, 1.133626e+002
5.760389e+002, 1.127922e+002
5.765210e+002, 1.126156e+002
5.770031e+002, 1.130893e+002
5.774852e+002, 1.138912e+002
5.779673e+002, 1.143236e+002
5.784495e+002, 1.142474e+002
5.789316e+002, 1.142460e+002
5.794137e+002, 1.144323e+002
5.798958e+002, 1.148424e+002
5.803779e+002, 1.159318e+002
5.808600e+002, 1.177414e+002
5.813422e+002, 1.190973e+002
5.818243e+002, 1.187591e+002
5.823064e+002, 1.174450e+002
5.827885e+002, 1.167908e+002
5.832706e+002, 1.169316e+002
5.837527e+002, 1.174342e+002
5.842349e+002, 1.181752e+002
5.847170e+002, 1.189812e+002
5.851991e+002, 1.196239e+002
5.856812e+002, 1.199649e+002
5.861633e+002, 1.202798e+002
5.866454e+002, 1.206269e+002
5.871276e+002, 1.210363e+002
5.876097e+002, 1.215566e+002
5.880918e+002, 1.224019e+002
5.885739e+002, 1.231294e+002
5.890560e+002, 1.235674e+002
5.895381e+002, 1.237753e+002
5.900203e+002, 1.242167e+002
5.905024e+002, 1.250426e+002
5.909845e+002, 1.258067e+002
5.914666e+002, 1.262732e+002
5.919487e+002, 1.264433e+002
5.924308e+002, 1.265808e+002
5.929130e+002, 1.266853e+002
5.933951e+002, 1.267704e+002
5.938772e+002, 1.269088e+002
5.943593e+002, 1.270458e+002
5.948414e+002, 1.269610e+002
5.953235e+002, 1.265674e+002
5.958057e+002, 1.261149e+002
5.962878e+002, 1.258555e+002
5.967699e+002, 1.257187e+002
5.972520e+002, 1.255765e+002
5.977341e+002, 1.254435e+002
5.982162e+002, 1.252245e+002
5.986984e+002, 1.247984e+002
5.991805e+002, 1.242322e+002
5.996626e+002, 1.237509e+002
6.001447e+002, 1.235095e+002
6.006268e+002, 1.232573e+002
6.011089e+002, 1.229003e+002
6.015911e+002, 1.224283e+002
6.020732e+002, 1.219495e+002
6.025553e+002, 1.214444e+002
6.030374e+002, 1.209707e+002
6.035195e+002, 1.205606e+002
6.040016e+002, 1.202111e+002
6.044838e+002, 1.200002e+002
6.049659e+002, 1.199596e+002
6.054480e+002, 1.199761e+002
6.059301e+002, 1.199529e+002
6.064122e+002, 1.198737e+002
6.068943e+002, 1.196316e+002
6.073765e+002, 1.190611e+002
6.078586e+002, 1.185561e+002
6.083407e+002, 1.187682e+002
6.088228e+002, 1.194043e+002
6.093049e+002, 1.197397e+002
6.097870e+002, 1.190308e+002
6.102692e+002, 1.183007e+002
6.107513e+002, 1.182044e+002
6.112334e+002, 1.186920e+002
6.117155e+002, 1.189843e+002
6.121976e+002, 1.187277e+002
6.126797e+002, 1.184189e+002
6.131619e+002, 1.182480e+002
6.136440e+002, 1.181909e+002
6.141261e+002, 1.184326e+002
6.146082e+002, 1.191844e+002
6.150903e+002, 1.199089e+002
6.155724e+002, 1.200390e+002
6.160546e+002, 1.195482e+002
6.165367e+002, 1.192044e+002
6.170188e+002, 1.190834e+002
6.175009e+002, 1.191856e+002
6.179830e+002, 1.196507e+002
6.184651e+002, 1.203655e+002
6.189473e+002, 1.209425e+002
6.194294e+002, 1.212412e+002
6.199115e+002, 1.213423e+002
6.203936e+002, 1.212158e+002
6.208757e+002, 1.209413e+002
6.213578e+002, 1.207563e+002
6.218400e+002, 1.207004e+002
6.223221e+002, 1.208198e+002
6.228042e+002, 1.212567e+002
6.232863e+002, 1.220207e+002
6.237684e+002, 1.225145e+002
6.242505e+002, 1.225069e+002
6.247327e+002, 1.223879e+002
6.252148e+002, 1.223429e+002
6.256969e+002, 1.224006e+002
6.261790e+002, 1.224294e+002
6.266611e+002, 1.224489e+002
6.271432e+002, 1.224004e+002
6.276254e+002, 1.221942e+002
6.281075e+002, 1.218401e+002
6.285896e+002, 1.215091e+002
6.290717e+002, 1.212555e+002
6.295538e+002, 1.209661e+002
6.300359e+002, 1.203518e+002
6.305181e+002, 1.195787e+002
6.310002e+002, 1.190542e+002
6.314823e+002, 1.191130e+002
6.319644e+002, 1.193094e+002
6.324465e+002, 1.193465e+002
6.329286e+002, 1.192648e+002
6.334108e+002, 1.191923e+002
6.338929e+002, 1.193198e+002
6.343750e+002, 1.193251e+002
6.348571e+002, 1.190031e+002
6.353392e+002, 1.183284e+002
6.358214e+002, 1.178371e+002
6.363035e+002, 1.176014e+002
6.367856e+002, 1.174432e+002
6.372677e+002, 1.172304e+002
6.377498e+002, 1.169268e+002
6.382319e+002, 1.169563e+002
6.387141e+002, 1.174241e+002
6.391962e+002, 1.178291e+002
6.396783e+002, 1.175135e+002
6.401604e+002, 1.166677e+002
6.406425e+002, 1.160386e+002
6.411246e+002, 1.157834e+002
6.416068e+002, 1.156881e+002
6.420889e+002, 1.155528e+002
6.425710e+002, 1.154181e+002
6.430531e+002, 1.153562e+002
6.435352e+002, 1.154369e+002
6.440173e+002, 1.155489e+002
6.444995e+002, 1.157076e+002
6.449816e+002, 1.158656e+002
6.454637e+002, 1.158934e+002
6.459458e+002, 1.156533e+002
6.464279e+002, 1.154039e+002
6.469100e+002, 1.151862e+002
6.473922e+002, 1.150023e+002
6.478743e+002, 1.149452e+002
6.483564e+002, 1.150903e+002
6.488385e+002, 1.151339e+002
6.493206e+002, 1.147647e+002
6.498027e+002, 1.140617e+002
6.502849e+002, 1.138326e+002
6.507670e+002, 1.140996e+002
6.512491e+002, 1.144956e+002
6.517312e+002, 1.147321e+002
6.522133e+002, 1.148628e+002
6.526954e+002, 1.149942e+002
6.531776e+002, 1.151698e+002
6.536597e+002, 1.152364e+002
6.541418e+002, 1.150229e+002
6.546239e+002, 1.146819e+002
6.551060e+002, 1.143909e+002
6.555881e+002, 1.142172e+002
6.560703e+002, 1.140667e+002
6.565524e+002, 1.139147e+002
6.570345e+002, 1.137823e+002
6.575166e+002, 1.137143e+002
6.579987e+002, 1.137333e+002
6.584808e+002, 1.137562e+002
6.589630e+002, 1.137548e+002
6.594451e+002, 1.137477e+002
6.599272e+002, 1.137820e+002
6.604093e+002, 1.138577e+002
6.608914e+002, 1.140228e+002
6.613735e+002, 1.144772e+002
6.618557e+002, 1.149751e+002
6.623378e+002, 1.149994e+002
6.628199e+002, 1.145946e+002
6.633020e+002, 1.141635e+002
6.637841e+002, 1.138825e+002
6.642662e+002, 1.137373e+002
6.647484e+002, 1.137556e+002
6.652305e+002, 1.139701e+002
6.657126e+002, 1.141410e+002
6.661947e+002, 1.141179e+002
6.666768e+002, 1.140947e+002
6.671589e+002, 1.142288e+002
6.676411e+002, 1.147203e+002
6.681232e+002, 1.148956e+002
6.686053e+002, 1.145965e+002
6.690874e+002, 1.141942e+002
6.695695e+002, 1.142366e+002
6.700516e+002, 1.147169e+002
6.705338e+002, 1.149808e+002
6.710159e+002, 1.148429e+002
6.714980e+002, 1.145683e+002
6.719801e+002, 1.146012e+002
6.724622e+002, 1.148256e+002
6.729443e+002, 1.149202e+002
6.734265e+002, 1.145812e+002
6.739086e+002, 1.142314e+002
6.743907e+002, 1.141980e+002
6.748728e+002, 1.143922e+002
6.753549e+002, 1.145392e+002
6.758370e+002, 1.145557e+002
6.763192e+002, 1.145147e+002
6.768013e+002, 1.143450e+002
6.772834e+002, 1.140781e+002
6.777655e+002, 1.141996e+002
6.782476e+002, 1.149355e+002
6.787297e+002, 1.155921e+002
6.792119e+002, 1.157942e+002
6.796940e+002, 1.155633e+002
6.801761e+002, 1.152497e+002
6.806582e+002, 1.148429e+002
6.811403e+002, 1.144744e+002
6.816224e+002, 1.142263e+002
6.821046e+002, 1.141000e+002
6.825867e+002, 1.141496e+002
6.830688e+002, 1.144054e+002
6.835509e+002, 1.146235e+002
6.840330e+002, 1.144916e+002
6.845151e+002, 1.143106e+002
6.849973e+002, 1.144035e+002
6.854794e+002, 1.150906e+002
6.859615e+002, 1.156302e+002
6.864436e+002, 1.158581e+002
6.869257e+002, 1.159055e+002
6.874078e+002, 1.159035e+002
6.878900e+002, 1.158169e+002
6.883721e+002, 1.157963e+002
6.888542e+002, 1.159160e+002
6.893363e+002, 1.160503e+002
6.898184e+002, 1.158688e+002
6.903005e+002, 1.154036e+002
6.907827e+002, 1.150378e+002
6.912648e+002, 1.149272e+002
6.917469e+002, 1.149886e+002
6.922290e+002, 1.151680e+002
6.927111e+002, 1.154296e+002
6.931932e+002, 1.156516e+002
6.936754e+002, 1.157482e+002
6.941575e+002, 1.158079e+002
6.946396e+002, 1.159116e+002
6.951217e+002, 1.160469e+002
6.956038e+002, 1.160514e+002
6.960859e+002, 1.157487e+002
6.965681e+002, 1.154667e+002
6.970502e+002, 1.153105e+002
6.975323e+002, 1.152802e+002
6.980144e+002, 1.154215e+002
6.984965e+002, 1.158014e+002
6.989786e+002, 1.161147e+002
6.994608e+002, 1.160192e+002
6.999429e+002, 1.156407e+002
7.004250e+002, 1.156053e+002
7.009071e+002, 1.159661e+002
7.013892e+002, 1.163397e+002
7.018713e+002, 1.163253e+002
7.023535e+002, 1.161566e+002
7.028356e+002, 1.161567e+002
7.033177e+002, 1.164799e+002
7.037998e+002, 1.166828e+002
7.042819e+002, 1.164660e+002
7.047640e+002, 1.161051e+002
7.052462e+002, 1.158947e+002
7.057283e+002, 1.158754e+002
7.062104e+002, 1.159644e+002
7.066925e+002, 1.161630e+002
7.071746e+002, 1.164630e+002
7.076567e+002, 1.169740e+002
7.081389e+002, 1.177316e+002
7.086210e+002, 1.180061e+002
7.091031e+002, 1.174839e+002
7.095852e+002, 1.166713e+002
7.100673e+002, 1.164169e+002
7.105494e+002, 1.165797e+002
7.110316e+002, 1.167231e+002
7.115137e+002, 1.164720e+002
7.119958e+002, 1.162947e+002
7.124779e+002, 1.166270e+002
7.129600e+002, 1.173009e+002
7.134421e+002, 1.177954e+002
7.139243e+002, 1.179957e+002
7.144064e+002, 1.179634e+002
7.148885e+002, 1.175743e+002
7.153706e+002, 1.169113e+002
7.158527e+002, 1.166956e+002
7.163348e+002, 1.170598e+002
7.168170e+002, 1.174740e+002
7.172991e+002, 1.177120e+002
7.177812e+002, 1.177881e+002
7.182633e+002, 1.177180e+002
7.187454e+002, 1.175048e+002
7.192275e+002, 1.173236e+002
7.197097e+002, 1.173118e+002
7.201918e+002, 1.173913e+002
7.206739e+002, 1.174546e+002
7.211560e+002, 1.174926e+002
7.216381e+002, 1.176106e+002
7.221202e+002, 1.179128e+002
7.226024e+002, 1.182731e+002
7.230845e+002, 1.186453e+002
7.235666e+002, 1.191224e+002
7.240487e+002, 1.192595e+002
7.245308e+002, 1.188187e+002
7.250129e+002, 1.183559e+002
7.254951e+002, 1.184051e+002
7.259772e+002, 1.190057e+002
7.264593e+002, 1.193866e+002
7.269414e+002, 1.194771e+002
7.274235e+002, 1.194171e+002
7.279056e+002, 1.193274e+002
7.283878e+002, 1.192120e+002
7.288699e+002, 1.190637e+002
7.293520e+002, 1.188432e+002
7.298341e+002, 1.186949e+002
7.303162e+002, 1.187937e+002
7.307983e+002, 1.189927e+002
7.312805e+002, 1.191080e+002
7.317626e+002, 1.189175e+002
7.322447e+002, 1.188831e+002
7.327268e+002, 1.191630e+002
7.332089e+002, 1.195560e+002
7.336910e+002, 1.197226e+002
7.341732e+002, 1.196172e+002
7.346553e+002, 1.194897e+002
7.351374e+002, 1.193881e+002
7.356195e+002, 1.193007e+002
7.361016e+002, 1.191263e+002
7.365837e+002, 1.189223e+002
7.370659e+002, 1.189505e+002
7.375480e+002, 1.195272e+002
7.380301e+002, 1.201638e+002
7.385122e+002, 1.204360e+002
7.389943e+002, 1.204164e+002
7.394764e+002, 1.202870e+002
7.399586e+002, 1.198063e+002
7.404407e+002, 1.195424e+002
7.409228e+002, 1.198874e+002
7.414049e+002, 1.206508e+002
7.418870e+002, 1.209651e+002
7.423691e+002, 1.206511e+002
7.428513e+002, 1.203523e+002
7.433334e+002, 1.203165e+002
7.438155e+002, 1.204870e+002
7.442976e+002, 1.206823e+002
7.447797e+002, 1.208954e+002
7.452618e+002, 1.209776e+002
7.457440e+002, 1.206079e+002
7.462261e+002, 1.201983e+002
7.467082e+002, 1.203286e+002
7.471903e+002, 1.209489e+002
7.476724e+002, 1.214742e+002
7.481545e+002, 1.216025e+002
7.486367e+002, 1.216012e+002
7.491188e+002, 1.216201e+002
7.496009e+002, 1.216779e+002
7.500830e+002, 1.215988e+002
7.505651e+002, 1.213037e+002
7.510472e+002, 1.210109e+002
7.515294e+002, 1.207831e+002
7.520115e+002, 1.206267e+002
7.524936e+002, 1.209690e+002
7.529757e+002, 1.218507e+002
7.534578e+002, 1.225795e+002
7.539399e+002, 1.224559e+002
7.544221e+002, 1.218351e+002
7.549042e+002, 1.210991e+002
7.553863e+002, 1.202531e+002
7.558684e+002, 1.198026e+002
7.563505e+002, 1.204333e+002
7.568326e+002, 1.212760e+002
7.573148e+002, 1.216179e+002
7.577969e+002, 1.210947e+002
7.582790e+002, 1.208563e+002
7.587611e+002, 1.209924e+002
7.592432e+002, 1.212908e+002
7.597253e+002, 1.216594e+002
7.602075e+002, 1.221093e+002
7.606896e+002, 1.221175e+002
7.611717e+002, 1.215624e+002
7.616538e+002, 1.209895e+002
7.621359e+002, 1.209948e+002
7.626180e+002, 1.213916e+002
7.631002e+002, 1.219098e+002
7.635823e+002, 1.225850e+002
7.640644e+002, 1.230436e+002
7.645465e+002, 1.229841e+002
7.650286e+002, 1.226545e+002
7.655107e+002, 1.223196e+002
7.659929e+002, 1.218487e+002
7.664750e+002, 1.216388e+002
7.669571e+002, 1.217633e+002
7.674392e+002, 1.220763e+002
7.679213e+002, 1.224060e+002
7.684034e+002, 1.227517e+002
7.688856e+002, 1.231802e+002
7.693677e+002, 1.237547e+002
7.698498e+002, 1.242288e+002
7.703319e+002, 1.242057e+002
7.708140e+002, 1.238520e+002
7.712961e+002, 1.235151e+002
7.717783e+002, 1.232972e+002
7.722604e+002, 1.231210e+002
7.727425e+002, 1.228618e+002
7.732246e+002, 1.226436e+002
7.737067e+002, 1.226595e+002
7.741888e+002, 1.231450e+002
7.746710e+002, 1.235477e+002
7.751531e+002, 1.238241e+002
7.756352e+002, 1.239946e+002
7.761173e+002, 1.240576e+002
7.765994e+002, 1.240087e+002
7.770815e+002, 1.240713e+002
7.775637e+002, 1.243949e+002
7.780458e+002, 1.246545e+002
7.785279e+002, 1.241619e+002
7.790100e+002, 1.232538e+002
7.794921e+002, 1.226927e+002
7.799742e+002, 1.229999e+002
7.804564e+002, 1.234787e+002
7.809385e+002, 1.239459e+002
7.814206e+002, 1.243520e+002
7.819027e+002, 1.245796e+002
7.823848e+002, 1.245365e+002
7.828669e+002, 1.244636e+002
7.833491e+002, 1.243717e+002
7.838312e+002, 1.242931e+002
7.843133e+002, 1.243104e+002
7.847954e+002, 1.244230e+002
7.852775e+002, 1.245969e+002
7.857596e+002, 1.248741e+002
7.862418e+002, 1.251276e+002
7.867239e+002, 1.251788e+002
7.872060e+002, 1.250644e+002
7.876881e+002, 1.248738e+002
7.881702e+002, 1.244504e+002
7.886523e+002, 1.241712e+002
7.891345e+002, 1.242983e+002
7.896166e+002, 1.246901e+002
7.900987e+002, 1.249054e+002
7.905808e+002, 1.247947e+002
7.910629e+002, 1.247995e+002
7.915450e+002, 1.250730e+002
7.920272e+002, 1.254889e+002
7.925093e+002, 1.256264e+002
7.929914e+002, 1.255171e+002
7.934735e+002, 1.255326e+002
7.939556e+002, 1.260495e+002
7.944377e+002, 1.265310e+002
7.949199e+002, 1.261212e+002
7.954020e+002, 1.251455e+002
7.958841e+002, 1.244824e+002
7.963662e+002, 1.247222e+002
7.968483e+002, 1.250559e+002
7.973304e+002, 1.252360e+002
7.978126e+002, 1.252971e+002
7.982947e+002, 1.253534e+002
7.987768e+002, 1.254181e+002
7.992589e+002, 1.254306e+002
7.997410e+002, 1.253303e+002
8.002231e+002, 1.252064e+002
8.007053e+002, 1.253172e+002
8.011874e+002, 1.256301e+002
8.016695e+002, 1.259674e+002
8.021516e+002, 1.263622e+002
8.026337e+002, 1.266342e+002
8.031158e+002, 1.265646e+002
8.035980e+002, 1.262405e+002
8.040801e+002, 1.258975e+002
8.045622e+002, 1.253135e+002
8.050443e+002, 1.250804e+002
8.055264e+002, 1.255454e+002
8.060085e+002, 1.264286e+002
8.064907e+002, 1.267350e+002
8.069728e+002, 1.263044e+002
8.074549e+002, 1.261682e+002
8.079370e+002, 1.268440e+002
8.084191e+002, 1.278280e+002
8.089012e+002, 1.280002e+002
8.093834e+002, 1.275513e+002
8.098655e+002, 1.271662e+002
8.103476e+002, 1.272954e+002
8.108297e+002, 1.274857e+002
8.113118e+002, 1.274362e+002
8.117939e+002, 1.272252e+002
8.122761e+002, 1.270908e+002
8.127582e+002, 1.271585e+002
8.132403e+002, 1.271767e+002
8.137224e+002, 1.270680e+002
8.142045e+002, 1.268911e+002
8.146866e+002, 1.268514e+002
8.151688e+002, 1.269522e+002
8.156509e+002, 1.269509e+002
8.161330e+002, 1.266512e+002
8.166151e+002, 1.263376e+002
8.170972e+002, 1.265126e+002
8.175793e+002, 1.270128e+002
8.180615e+002, 1.274225e+002
8.185436e+002, 1.274235e+002
8.190257e+002, 1.274412e+002
8.195078e+002, 1.277746e+002
8.199899e+002, 1.282365e+002
8.204720e+002, 1.282637e+002
8.209542e+002, 1.275189e+002
8.214363e+002, 1.271936e+002
8.219184e+002, 1.277066e+002
8.224005e+002, 1.286085e+002
8.228826e+002, 1.288707e+002
8.233647e+002, 1.285806e+002
8.238469e+002, 1.282060e+002
8.243290e+002, 1.277931e+002
8.248111e+002, 1.275458e+002
8.252932e+002, 1.278733e+002
8.257753e+002, 1.284710e+002
8.262574e+002, 1.287288e+002
8.267396e+002, 1.279097e+002
8.272217e+002, 1.274647e+002
8.277038e+002, 1.278672e+002
8.281859e+002, 1.286546e+002
8.286681e+002, 1.288825e+002
8.291502e+002, 1.284283e+002
8.296323e+002, 1.283347e+002
8.301144e+002, 1.289876e+002
8.305966e+002, 1.297780e+002
8.310787e+002, 1.297005e+002
8.315608e+002, 1.290364e+002
8.320429e+002, 1.284514e+002
8.325250e+002, 1.281912e+002
8.330071e+002, 1.280417e+002
8.334893e+002, 1.278914e+002
8.339714e+002, 1.277832e+002
8.344535e+002, 1.277900e+002
8.349356e+002, 1.279701e+002
8.354177e+002, 1.281477e+002
8.358998e+002, 1.283098e+002
8.363820e+002, 1.284598e+002
8.368641e+002, 1.286556e+002
8.373462e+002, 1.288717e+002
8.378283e+002, 1.288525e+002
8.383104e+002, 1.284802e+002
8.387925e+002, 1.281000e+002
8.392747e+002, 1.281021e+002
8.397568e+002, 1.282881e+002
8.402389e+002, 1.283821e+002
8.407210e+002, 1.282512e+002
8.412031e+002, 1.281387e+002
8.416852e+002, 1.281460e+002
8.421674e+002, 1.281555e+002
8.426495e+002, 1.279952e+002
8.431316e+002, 1.275753e+002
8.436137e+002, 1.276180e+002
8.440958e+002, 1.283018e+002
8.445779e+002, 1.289675e+002
8.450601e+002, 1.285900e+002
8.455422e+002, 1.276839e+002
8.460243e+002, 1.274084e+002
8.465064e+002, 1.280751e+002
8.469885e+002, 1.287137e+002
8.474706e+002, 1.287730e+002
8.479528e+002, 1.285732e+002
8.484349e+002, 1.283421e+002
8.489170e+002, 1.279803e+002
8.493991e+002, 1.279985e+002
8.498812e+002, 1.285960e+002
8.503633e+002, 1.291744e+002
8.508455e+002, 1.291740e+002
8.513276e+002, 1.286788e+002
8.518097e+002, 1.282517e+002
8.522918e+002, 1.279181e+002
8.527739e+002, 1.276493e+002
8.532560e+002, 1.273546e+002
8.537382e+002, 1.271560e+002
8.542203e+002, 1.272736e+002
8.547024e+002, 1.277808e+002
8.551845e+002, 1.279690e+002
8.556666e+002, 1.273768e+002
8.561487e+002, 1.267748e+002
8.566309e+002, 1.265012e+002
8.571130e+002, 1.265571e+002
8.575951e+002, 1.268199e+002
8.580772e+002, 1.273215e+002
8.585593e+002, 1.276447e+002
8.590414e+002, 1.273845e+002
8.595236e+002, 1.268306e+002
8.600057e+002, 1.263392e+002
8.604878e+002, 1.259456e+002
8.609699e+002, 1.257939e+002
8.614520e+002, 1.261765e+002
8.619341e+002, 1.265940e+002
8.624163e+002, 1.268475e+002
8.628984e+002, 1.269417e+002
8.633805e+002, 1.268743e+002
8.638626e+002, 1.266036e+002
8.643447e+002, 1.263044e+002
8.648268e+002, 1.260314e+002
8.653090e+002, 1.257823e+002
8.657911e+002, 1.254976e+002
8.662732e+002, 1.252186e+002
8.667553e+002, 1.251283e+002
8.672374e+002, 1.256148e+002
8.677195e+002, 1.260274e+002
8.682017e+002, 1.258837e+002
8.686838e+002, 1.253525e+002
8.691659e+002, 1.249205e+002
8.696480e+002, 1.246217e+002
8.701301e+002, 1.244172e+002
8.706122e+002, 1.242537e+002
8.710944e+002, 1.242321e+002
8.715765e+002, 1.248445e+002
8.720586e+002, 1.259406e+002
8.725407e+002, 1.262767e+002
8.730228e+002, 1.252028e+002
8.735049e+002, 1.238780e+002
8.739871e+002, 1.233987e+002
8.744692e+002, 1.233980e+002
8.749513e+002, 1.233143e+002
8.754334e+002, 1.229865e+002
8.759155e+002, 1.225627e+002
8.763976e+002, 1.219043e+002
8.768798e+002, 1.213031e+002
8.773619e+002, 1.211778e+002
8.778440e+002, 1.215663e+002
8.783261e+002, 1.217190e+002
8.788082e+002, 1.215232e+002
8.792903e+002, 1.212241e+002
8.797725e+002, 1.210272e+002
8.802546e+002, 1.209162e+002
8.807367e+002, 1.209060e+002
8.812188e+002, 1.210420e+002
8.817009e+002, 1.210529e+002
8.821830e+002, 1.207581e+002
8.826652e+002, 1.203629e+002
8.831473e+002, 1.199650e+002
8.836294e+002, 1.195105e+002
8.841115e+002, 1.194857e+002
8.845936e+002, 1.199969e+002
8.850757e+002, 1.204196e+002
8.855579e+002, 1.202305e+002
8.860400e+002, 1.196283e+002
8.865221e+002, 1.188509e+002
8.870042e+002, 1.179593e+002
8.874863e+002, 1.174017e+002
8.879684e+002, 1.177712e+002
8.884506e+002, 1.182323e+002
8.889327e+002, 1.183784e+002
8.894148e+002, 1.181984e+002
8.898969e+002, 1.176483e+002
8.903790e+002, 1.165154e+002
8.908611e+002, 1.156735e+002
8.913433e+002, 1.155623e+002
8.918254e+002, 1.159336e+002
8.923075e+002, 1.162804e+002
8.927896e+002, 1.165583e+002
8.932717e+002, 1.165763e+002
8.937538e+002, 1.159663e+002
8.942360e+002, 1.153335e+002
8.947181e+002, 1.150432e+002
8.952002e+002, 1.150043e+002
8.956823e+002, 1.149965e+002
8.961644e+002, 1.150853e+002
8.966465e+002, 1.150173e+002
8.971287e+002, 1.146944e+002
8.976108e+002, 1.142794e+002
8.980929e+002, 1.140826e+002
8.985750e+002, 1.140677e+002
8.990571e+002, 1.140749e+002
8.995392e+002, 1.140852e+002
9.000214e+002, 1.140453e+002
9.005035e+002, 1.137927e+002
9.009856e+002, 1.135235e+002
9.014677e+002, 1.134797e+002
9.019498e+002, 1.140304e+002
9.024319e+002, 1.142097e+002
9.029141e+002, 1.138737e+002
9.033962e+002, 1.133702e+002
9.038783e+002, 1.130207e+002
9.043604e+002, 1.128036e+002
9.048425e+002, 1.124372e+002
9.053246e+002, 1.118886e+002
9.058068e+002, 1.114362e+002
9.062889e+002, 1.113290e+002
9.067710e+002, 1.114032e+002
9.072531e+002, 1.115526e+002
9.077352e+002, 1.117729e+002
9.082173e+002, 1.118992e+002
9.086995e+002, 1.118844e+002
9.091816e+002, 1.118081e+002
9.096637e+002, 1.116870e+002
9.101458e+002, 1.115314e+002
9.106279e+002, 1.113763e+002
9.111100e+002, 1.112281e+002
9.115922e+002, 1.112120e+002
9.120743e+002, 1.116327e+002
9.125564e+002, 1.120392e+002
9.130385e+002, 1.118397e+002
9.135206e+002, 1.112328e+002
9.140027e+002, 1.108239e+002
9.144849e+002, 1.109767e+002
9.149670e+002, 1.110991e+002
9.154491e+002, 1.110671e+002
9.159312e+002, 1.109539e+002
9.164133e+002, 1.108943e+002
9.168954e+002, 1.108888e+002
9.173776e+002, 1.109743e+002
9.178597e+002, 1.111910e+002
9.183418e+002, 1.114054e+002
9.188239e+002, 1.113516e+002
9.193060e+002, 1.112459e+002
9.197881e+002, 1.114383e+002
9.202703e+002, 1.123610e+002
9.207524e+002, 1.128432e+002
9.212345e+002, 1.124905e+002
9.217166e+002, 1.118948e+002
9.221987e+002, 1.114652e+002
9.226808e+002, 1.111970e+002
9.231630e+002, 1.113177e+002
9.236451e+002, 1.118694e+002
9.241272e+002, 1.123808e+002
9.246093e+002, 1.123201e+002
9.250914e+002, 1.120766e+002
9.255735e+002, 1.121310e+002
9.260557e+002, 1.125125e+002
9.265378e+002, 1.128041e+002
9.270199e+002, 1.129195e+002
9.275020e+002, 1.128742e+002
9.279841e+002, 1.125813e+002
9.284662e+002, 1.121236e+002
9.289484e+002, 1.119952e+002
9.294305e+002, 1.121931e+002
9.299126e+002, 1.125730e+002
9.303947e+002, 1.132368e+002
9.308768e+002, 1.138662e+002
9.313589e+002, 1.139644e+002
9.318411e+002, 1.137453e+002
9.323232e+002, 1.136761e+002
9.328053e+002, 1.142097e+002
9.332874e+002, 1.144837e+002
9.337695e+002, 1.142119e+002
9.342516e+002, 1.137646e+002
9.347338e+002, 1.137625e+002
9.352159e+002, 1.142033e+002
9.356980e+002, 1.144067e+002
9.361801e+002, 1.142184e+002
9.366622e+002, 1.140315e+002
9.371443e+002, 1.142610e+002
9.376265e+002, 1.147156e+002
9.381086e+002, 1.152080e+002
9.385907e+002, 1.157712e+002
9.390728e+002, 1.160905e+002
9.395549e+002, 1.159504e+002
9.400370e+002, 1.157607e+002
9.405192e+002, 1.157395e+002
9.410013e+002, 1.158811e+002
9.414834e+002, 1.160958e+002
9.419655e+002, 1.163843e+002
9.424476e+002, 1.167184e+002
9.429297e+002, 1.172184e+002
9.434119e+002, 1.176485e+002
9.438940e+002, 1.176396e+002
9.443761e+002, 1.173177e+002
9.448582e+002, 1.172720e+002
9.453403e+002, 1.178883e+002
9.458224e+002, 1.184616e+002
9.463046e+002, 1.188873e+002
9.467867e+002, 1.191601e+002
9.472688e+002, 1.191395e+002
9.477509e+002, 1.188870e+002
9.482330e+002, 1.189516e+002
9.487151e+002, 1.196015e+002
9.491973e+002, 1.203043e+002
9.496794e+002, 1.205149e+002
9.501615e+002, 1.205283e+002
9.506436e+002, 1.207167e+002
9.511257e+002, 1.213473e+002
9.516078e+002, 1.217381e+002
9.520900e+002, 1.217543e+002
9.525721e+002, 1.217423e+002
9.530542e+002, 1.219809e+002
9.535363e+002, 1.224480e+002
9.540184e+002, 1.230768e+002
9.545005e+002, 1.238497e+002
9.549827e+002, 1.245341e+002
9.554648e+002, 1.249258e+002
9.559469e+002, 1.251973e+002
9.564290e+002, 1.253488e+002
9.569111e+002, 1.254286e+002
9.573932e+002, 1.259463e+002
9.578754e+002, 1.271980e+002
9.583575e+002, 1.282287e+002
9.588396e+002, 1.286893e+002
9.593217e+002, 1.287877e+002
9.598038e+002, 1.289299e+002
9.602859e+002, 1.291220e+002
9.607681e+002, 1.294010e+002
9.612502e+002, 1.298801e+002
9.617323e+002, 1.302822e+002
9.622144e+002, 1.303225e+002
9.626965e+002, 1.302570e+002
9.631786e+002, 1.304366e+002
9.636608e+002, 1.310075e+002
9.641429e+002, 1.314376e+002
9.646250e+002, 1.316988e+002
9.651071e+002, 1.318514e+002
9.655892e+002, 1.318797e+002
9.660714e+002, 1.318641e+002
9.665535e+002, 1.319879e+002
9.670356e+002, 1.322640e+002
9.675177e+002, 1.325887e+002
9.679998e+002, 1.331021e+002
9.684819e+002, 1.334634e+002
9.689641e+002, 1.333886e+002
9.694462e+002, 1.329662e+002
9.699283e+002, 1.328099e+002
9.704104e+002, 1.329313e+002
9.708925e+002, 1.332553e+002
9.713746e+002, 1.339152e+002
9.718568e+002, 1.345406e+002
9.723389e+002, 1.344191e+002
9.728210e+002, 1.338522e+002
9.733031e+002, 1.334819e+002
9.737852e+002, 1.336054e+002
9.742673e+002, 1.338599e+002
9.747495e+002, 1.343697e+002
9.752316e+002, 1.348179e+002
9.757137e+002, 1.347765e+002
9.761958e+002, 1.342160e+002
9.766779e+002, 1.339905e+002
9.771600e+002, 1.341842e+002
9.776422e+002, 1.344833e+002
9.781243e+002, 1.347910e+002
9.786064e+002, 1.349485e+002
9.790885e+002, 1.346393e+002
9.795706e+002, 1.338368e+002
9.800527e+002, 1.334407e+002
9.805349e+002, 1.339032e+002
9.810170e+002, 1.343305e+002
9.814991e+002, 1.344553e+002
9.819812e+002, 1.342952e+002
9.824633e+002, 1.338040e+002
9.829454e+002, 1.330402e+002
9.834276e+002, 1.323682e+002
9.839097e+002, 1.319676e+002
9.843918e+002, 1.316549e+002
9.848739e+002, 1.313984e+002
9.853560e+002, 1.311037e+002
9.858381e+002, 1.306094e+002
9.863203e+002, 1.298257e+002
9.868024e+002, 1.290339e+002
9.872845e+002, 1.282361e+002
9.877666e+002, 1.274561e+002
9.882487e+002, 1.265759e+002
9.887308e+002, 1.257603e+002
9.892130e+002, 1.255677e+002
9.896951e+002, 1.260199e+002
9.901772e+002, 1.263025e+002
9.906593e+002, 1.258484e+002
9.911414e+002, 1.252231e+002
9.916235e+002, 1.247882e+002
9.921057e+002, 1.244734e+002
9.925878e+002, 1.236612e+002
9.930699e+002, 1.222247e+002
9.935520e+002, 1.212567e+002
9.940341e+002, 1.213203e+002
9.945162e+002, 1.217370e+002
9.949984e+002, 1.215575e+002
9.954805e+002, 1.210047e+002
9.959626e+002, 1.204924e+002
9.964447e+002, 1.200232e+002
9.969268e+002, 1.198300e+002
9.974089e+002, 1.202339e+002
9.978911e+002, 1.206093e+002
9.983732e+002, 1.202704e+002
9.988553e+002, 1.192555e+002
9.993374e+002, 1.186740e+002
9.998195e+002, 1.185780e+002
1.000302e+003, 1.185113e+002
1.000784e+003, 1.180006e+002
1.001266e+003, 1.174719e+002
1.001748e+003, 1.173460e+002
1.002230e+003, 1.175873e+002
1.002712e+003, 1.176443e+002
1.003194e+003, 1.174007e+002
1.003676e+003, 1.171334e+002
1.004159e+003, 1.168629e+002
1.004641e+003, 1.166744e+002
1.005123e+003, 1.168929e+002
1.005605e+003, 1.173409e+002
1.006087e+003, 1.174412e+002
1.006569e+003, 1.168754e+002
1.007051e+003, 1.163455e+002
1.007533e+003, 1.161339e+002
1.008016e+003, 1.161680e+002
1.008498e+003, 1.164152e+002
1.008980e+003, 1.169617e+002
1.009462e+003, 1.171697e+002
1.009944e+003, 1.169934e+002
1.010426e+003, 1.168357e+002
1.010908e+003, 1.170453e+002
1.011390e+003, 1.174182e+002
1.011872e+003, 1.177344e+002
1.012355e+003, 1.179776e+002
1.012837e+003, 1.181208e+002
1.013319e+003, 1.180420e+002
1.013801e+003, 1.180087e+002
1.014283e+003, 1.181117e+002
1.014765e+003, 1.182509e+002
1.015247e+003, 1.181455e+002
1.015729e+003, 1.178587e+002
1.016211e+003, 1.179385e+002
1.016694e+003, 1.185536e+002
1.017176e+003, 1.192246e+002
1.017658e+003, 1.195348e+002
1.018140e+003, 1.197421e+002
1.018622e+003, 1.201007e+002
1.019104e+003, 1.206677e+002
1.019586e+003, 1.211722e+002
1.020068e+003, 1.216419e+002
1.020551e+003, 1.219559e+002
1.021033e+003, 1.219224e+002
1.021515e+003, 1.217722e+002
1.021997e+003, 1.220537e+002
1.022479e+003, 1.226565e+002
1.022961e+003, 1.232546e+002
1.023443e+003, 1.236934e+002
1.023925e+003, 1.241251e+002
1.024407e+003, 1.245312e+002
1.024890e+003, 1.249936e+002
1.025372e+003, 1.256305e+002
1.025854e+003, 1.264391e+002
1.026336e+003, 1.273484e+002
1.026818e+003, 1.283728e+002
1.027300e+003, 1.292846e+002
1.027782e+003, 1.296861e+002
1.028264e+003, 1.300291e+002
1.028746e+003, 1.308091e+002
1.029229e+003, 1.320615e+002
1.029711e+003, 1.331826e+002
1.030193e+003, 1.340817e+002
1.030675e+003, 1.349632e+002
1.031157e+003, 1.358828e+002
1.031639e+003, 1.368404e+002
1.032121e+003, 1.378194e+002
1.032603e+003, 1.388611e+002
1.033086e+003, 1.400496e+002
1.033568e+003, 1.414334e+002
1.034050e+003, 1.429678e+002
1.034532e+003, 1.449669e+002
1.035014e+003, 1.468441e+002
1.035496e+003, 1.479913e+002
1.035978e+003, 1.482267e+002
1.036460e+003, 1.490469e+002
1.036943e+003, 1.504741e+002
1.037425e+003, 1.519419e+002
1.037907e+003, 1.530098e+002
1.038389e+003, 1.539077e+002
1.038871e+003, 1.548914e+002
1.039353e+003, 1.559209e+002
1.039835e+003, 1.567776e+002
1.040317e+003, 1.574839e+002
1.040799e+003, 1.578923e+002
1.041281e+003, 1.579387e+002
1.041764e+003, 1.577413e+002
1.042246e+003, 1.574558e+002
1.042728e+003, 1.570849e+002
1.043210e+003, 1.567201e+002
1.043692e+003, 1.564164e+002
1.044174e+003, 1.557318e+002
1.044656e+003, 1.543004e+002
1.045138e+003, 1.524836e+002
1.045621e+003, 1.503967e+002
1.046103e+003, 1.481001e+002
1.046585e+003, 1.462973e+002
1.047067e+003, 1.450344e+002
1.047549e+003, 1.437344e+002
1.048031e+003, 1.421873e+002
1.048513e+003, 1.404370e+002
1.048995e+003, 1.384401e+002
1.049478e+003, 1.363291e+002
1.049960e+003, 1.343290e+002
1.050442e+003, 1.324120e+002
1.050924e+003, 1.307733e+002
1.051406e+003, 1.294485e+002
1.051888e+003, 1.283075e+002
1.052370e+003, 1.272770e+002
1.052852e+003, 1.263114e+002
1.053334e+003, 1.252603e+002
1.053817e+003, 1.241196e+002
1.054299e+003, 1.229133e+002
1.054781e+003, 1.213395e+002
1.055263e+003, 1.200464e+002
1.055745e+003, 1.195375e+002
1.056227e+003, 1.194477e+002
1.056709e+003, 1.189033e+002
1.057191e+003, 1.178738e+002
1.057673e+003, 1.169602e+002
1.058156e+003, 1.162825e+002
1.058638e+003, 1.157563e+002
1.059120e+003, 1.153159e+002
1.059602e+003, 1.149545e+002
1.060084e+003, 1.147174e+002
1.060566e+003, 1.146649e+002
1.061048e+003, 1.143058e+002
1.061530e+003, 1.134220e+002
1.062013e+003, 1.127347e+002
1.062495e+003, 1.127270e+002
1.062977e+003, 1.130425e+002
1.063459e+003, 1.126998e+002
1.063941e+003, 1.119263e+002
1.064423e+003, 1.113711e+002
1.064905e+003, 1.115143e+002
1.065387e+003, 1.115985e+002
1.065870e+003, 1.113511e+002
1.066352e+003, 1.109742e+002
1.066834e+003, 1.106253e+002
1.067316e+003, 1.103073e+002
1.067798e+003, 1.099611e+002
1.068280e+003, 1.095835e+002
1.068762e+003, 1.092886e+002
1.069244e+003, 1.091103e+002
1.069726e+003, 1.090869e+002
1.070208e+003, 1.094473e+002
1.070691e+003, 1.100202e+002
1.071173e+003, 1.100545e+002
1.071655e+003, 1.093588e+002
1.072137e+003, 1.086641e+002
1.072619e+003, 1.080498e+002
1.073101e+003, 1.076177e+002
1.073583e+003, 1.076489e+002
1.074065e+003, 1.078920e+002
1.074548e+003, 1.079322e+002
1.075030e+003, 1.076820e+002
1.075512e+003, 1.074025e+002
1.075994e+003, 1.070713e+002
1.076476e+003, 1.068455e+002
1.076958e+003, 1.068104e+002
1.077440e+003, 1.069246e+002
1.077922e+003, 1.070958e+002
1.078405e+003, 1.072922e+002
1.078887e+003, 1.073463e+002
1.079369e+003, 1.071062e+002
1.079851e+003, 1.068655e+002
1.080333e+003, 1.067727e+002
1.080815e+003, 1.067784e+002
1.081297e+003, 1.068484e+002
1.081779e+003, 1.070245e+002
1.082261e+003, 1.069810e+002
1.082744e+003, 1.066973e+002
1.083226e+003, 1.064506e+002
1.083708e+003, 1.065087e+002
1.084190e+003, 1.066523e+002
1.084672e+003, 1.066482e+002
1.085154e+003, 1.065319e+002
1.085636e+003, 1.064365e+002
1.086118e+003, 1.063415e+002
1.086601e+003, 1.063607e+002
1.087083e+003, 1.065400e+002
1.087565e+003, 1.067593e+002
1.088047e+003, 1.068815e+002
1.088529e+003, 1.069246e+002
1.089011e+003, 1.069419e+002
1.089493e+003, 1.069390e+002
1.089975e+003, 1.068353e+002
1.090458e+003, 1.062875e+002
1.090940e+003, 1.060197e+002
1.091422e+003, 1.064377e+002
1.091904e+003, 1.072368e+002
1.092386e+003, 1.074175e+002
1.092868e+003, 1.070747e+002
1.093350e+003, 1.068141e+002
1.093832e+003, 1.068539e+002
1.094314e+003, 1.068707e+002
1.094797e+003, 1.065592e+002
1.095279e+003, 1.061808e+002
1.095761e+003, 1.059577e+002
1.096243e+003, 1.058946e+002
1.096725e+003, 1.060592e+002
1.097207e+003, 1.064818e+002
1.097689e+003, 1.067930e+002
1.098171e+003, 1.066517e+002
1.098653e+003, 1.064332e+002
1.099136e+003, 1.066645e+002
1.099618e+003, 1.071185e+002
1.100100e+003, 1.073462e+002
1.100582e+003, 1.071108e+002
1.101064e+003, 1.069168e+002
1.101546e+003, 1.067901e+002
1.102028e+003, 1.066690e+002
1.102510e+003, 1.063772e+002
1.102993e+003, 1.060887e+002
1.103475e+003, 1.063048e+002
1.103957e+003, 1.069436e+002
1.104439e+003, 1.073960e+002
1.104921e+003, 1.073429e+002
1.105403e+003, 1.071196e+002
1.105885e+003, 1.066864e+002
1.106367e+003, 1.062737e+002
1.106849e+003, 1.063778e+002
1.107332e+003, 1.068954e+002
1.107814e+003, 1.072371e+002
1.108296e+003, 1.072980e+002
1.108778e+003, 1.074549e+002
1.109260e+003, 1.082938e+002
1.109742e+003, 1.089871e+002
1.110224e+003, 1.089428e+002
1.110706e+003, 1.082917e+002
1.111188e+003, 1.075864e+002
1.111671e+003, 1.068133e+002
1.112153e+003, 1.063732e+002
1.112635e+003, 1.064607e+002
1.113117e+003, 1.067378e+002
1.113599e+003, 1.069750e+002
1.114081e+003, 1.071520e+002
1.114563e+003, 1.072335e+002
1.115045e+003, 1.072098e+002
1.115528e+003, 1.071059e+002
1.116010e+003, 1.068828e+002
1.116492e+003, 1.067501e+002
1.116974e+003, 1.069522e+002
1.117456e+003, 1.072056e+002
1.117938e+003, 1.069017e+002
1.118420e+003, 1.063180e+002
1.118902e+003, 1.060469e+002
1.119385e+003, 1.065652e+002
1.119867e+003, 1.069896e+002
1.120349e+003, 1.073564e+002
1.120831e+003, 1.074721e+002
1.121313e+003, 1.069325e+002
1.121795e+003, 1.060407e+002
1.122277e+003, 1.057100e+002
1.122759e+003, 1.058951e+002
1.123241e+003, 1.061509e+002
1.123724e+003, 1.063029e+002
1.124206e+003, 1.064585e+002
1.124688e+003, 1.066768e+002
1.125170e+003, 1.068884e+002
1.125652e+003, 1.069924e+002
1.126134e+003, 1.069917e+002
1.126616e+003, 1.068543e+002
1.127098e+003, 1.065705e+002
1.127580e+003, 1.063872e+002
1.128063e+003, 1.065495e+002
1.128545e+003, 1.067949e+002
1.129027e+003, 1.070352e+002
1.129509e+003, 1.072191e+002
1.129991e+003, 1.070957e+002
1.130473e+003, 1.066574e+002
1.130955e+003, 1.062967e+002
1.131437e+003, 1.061033e+002
1.131920e+003, 1.060514e+002
1.132402e+003, 1.061954e+002
1.132884e+003, 1.064131e+002
1.133366e+003, 1.066059e+002
1.133848e+003, 1.067663e+002
1.134330e+003, 1.067983e+002
1.134812e+003, 1.066628e+002
1.135294e+003, 1.066198e+002
1.135776e+003, 1.068333e+002
1.136259e+003, 1.071101e+002
1.136741e+003, 1.072737e+002
1.137223e+003, 1.072937e+002
1.137705e+003, 1.071073e+002
1.138187e+003, 1.065433e+002
1.138669e+003, 1.061153e+002
1.139151e+003, 1.058098e+002
1.139633e+003, 1.056857e+002
1.140115e+003, 1.059158e+002
1.140598e+003, 1.062842e+002
1.141080e+003, 1.063525e+002
1.141562e+003, 1.061750e+002
1.142044e+003, 1.059051e+002
1.142526e+003, 1.053908e+002
1.143008e+003, 1.051079e+002
1.143490e+003, 1.051732e+002
1.143972e+003, 1.053682e+002
1.144455e+003, 1.055459e+002
1.144937e+003, 1.056685e+002
1.145419e+003, 1.055273e+002
1.145901e+003, 1.051642e+002
1.146383e+003, 1.049146e+002
1.146865e+003, 1.050860e+002
1.147347e+003, 1.052276e+002
1.147829e+003, 1.052139e+002
1.148312e+003, 1.050895e+002
1.148794e+003, 1.048489e+002
1.149276e+003, 1.045345e+002
1.149758e+003, 1.045081e+002
1.150240e+003, 1.048158e+002
1.150722e+003, 1.050563e+002
1.151204e+003, 1.048923e+002
1.151686e+003, 1.046681e+002
1.152168e+003, 1.045995e+002
1.152651e+003, 1.046114e+002
1.153133e+003, 1.044379e+002
1.153615e+003, 1.040917e+002
1.154097e+003, 1.038814e+002
1.154579e+003, 1.038911e+002
1.155061e+003, 1.039847e+002
1.155543e+003, 1.042479e+002
1.156025e+003, 1.043960e+002
1.156507e+003, 1.040210e+002
1.156990e+003, 1.032159e+002
1.157472e+003, 1.029461e+002
1.157954e+003, 1.032442e+002
1.158436e+003, 1.036001e+002
1.158918e+003, 1.038914e+002
1.159400e+003, 1.040468e+002
1.159882e+003, 1.038908e+002
1.160364e+003, 1.036178e+002
1.160847e+003, 1.034728e+002
1.161329e+003, 1.035129e+002
1.161811e+003, 1.034400e+002
1.162293e+003, 1.032555e+002
1.162775e+003, 1.029285e+002
1.163257e+003, 1.022161e+002
1.163739e+003, 1.016312e+002
1.164221e+003, 1.020176e+002
1.164703e+003, 1.029118e+002
1.165186e+003, 1.035445e+002
1.165668e+003, 1.037379e+002
1.166150e+003, 1.036886e+002
1.166632e+003, 1.033283e+002
1.167114e+003, 1.029776e+002
1.167596e+003, 1.028777e+002
1.168078e+003, 1.029302e+002
1.168560e+003, 1.030591e+002
1.169042e+003, 1.032054e+002
1.169525e+003, 1.032113e+002
1.170007e+003, 1.028737e+002
1.170489e+003, 1.026605e+002
1.170971e+003, 1.026013e+002
1.171453e+003, 1.026524e+002
1.171935e+003, 1.028723e+002
1.172417e+003, 1.031291e+002
1.172899e+003, 1.031171e+002
1.173382e+003, 1.028829e+002
1.173864e+003, 1.027080e+002
1.174346e+003, 1.027830e+002
1.174828e+003, 1.027564e+002
1.175310e+003, 1.024892e+002
1.175792e+003, 1.022720e+002
1.176274e+003, 1.026373e+002
1.176756e+003, 1.032960e+002
1.177239e+003, 1.035425e+002
1.177721e+003, 1.033382e+002
1.178203e+003, 1.031131e+002
1.178685e+003, 1.030556e+002
1.179167e+003, 1.029591e+002
1.179649e+003, 1.027326e+002
1.180131e+003, 1.024938e+002
1.180613e+003, 1.024758e+002
1.181095e+003, 1.026162e+002
1.181578e+003, 1.027402e+002
1.182060e+003, 1.028219e+002
1.182542e+003, 1.028955e+002
1.183024e+003, 1.030239e+002
1.183506e+003, 1.030879e+002
1.183988e+003, 1.030461e+002
1.184470e+003, 1.029157e+002
1.184952e+003, 1.027621e+002
1.185434e+003, 1.025598e+002
1.185917e+003, 1.021732e+002
1.186399e+003, 1.015260e+002
1.186881e+003, 1.009513e+002
1.187363e+003, 1.006049e+002
1.187845e+003, 1.003857e+002
1.188327e+003, 1.002594e+002
1.188809e+003, 1.002060e+002
1.189291e+003, 1.001379e+002
1.189774e+003, 1.000703e+002
1.190256e+003, 1.000819e+002
1.190738e+003, 1.002217e+002
1.191220e+003, 1.003718e+002
1.191702e+003, 1.006387e+002
1.192184e+003, 1.007204e+002
1.192666e+003, 1.003483e+002
1.193148e+003, 9.962202e+001
1.193630e+003, 9.918617e+001
1.194113e+003, 9.901753e+001
1.194595e+003, 9.899068e+001
1.195077e+003, 9.912981e+001
1.195559e+003, 9.926059e+001
1.196041e+003, 9.929333e+001
1.196523e+003, 9.928410e+001
1.197005e+003, 9.928916e+001
1.197487e+003, 9.930251e+001
1.197969e+003, 9.918326e+001
1.198452e+003, 9.895123e+001
1.198934e+003, 9.874720e+001
1.199416e+003, 9.864900e+001
1.199898e+003, 9.859354e+001
1.200380e+003, 9.857069e+001
1.200862e+003, 9.856392e+001
1.201344e+003, 9.851554e+001
1.201826e+003, 9.842612e+001
1.202309e+003, 9.866680e+001
1.202791e+003, 9.920873e+001
1.203273e+003, 9.968175e+001
1.203755e+003, 9.988938e+001
1.204237e+003, 9.995641e+001
1.204719e+003, 9.987819e+001
1.205201e+003, 9.972978e+001
1.205683e+003, 9.961010e+001
1.206166e+003, 9.951849e+001
1.206648e+003, 9.924866e+001
1.207130e+003, 9.881296e+001
1.207612e+003, 9.851848e+001
1.208094e+003, 9.847735e+001
1.208576e+003, 9.872776e+001
1.209058e+003, 9.961495e+001
1.209540e+003, 1.006311e+002
1.210022e+003, 1.010166e+002
1.210505e+003, 1.007975e+002
1.210987e+003, 1.006851e+002
1.211469e+003, 1.007269e+002
1.211951e+003, 1.007071e+002
1.212433e+003, 1.003922e+002
1.212915e+003, 1.000684e+002
1.213397e+003, 9.984306e+001
1.213879e+003, 9.974474e+001
1.214361e+003, 9.992888e+001
1.214844e+003, 1.003629e+002
1.215326e+003, 1.004712e+002
1.215808e+003, 1.001857e+002
1.216290e+003, 9.994307e+001
1.216772e+003, 1.001304e+002
1.217254e+003, 1.003466e+002
1.217736e+003, 1.003408e+002
1.218218e+003, 1.002278e+002
1.218701e+003, 1.003097e+002
1.219183e+003, 1.005498e+002
1.219665e+003, 1.004827e+002
1.220147e+003, 1.000238e+002
1.220629e+003, 9.956875e+001
1.221111e+003, 9.929795e+001
1.221593e+003, 9.918649e+001
1.222075e+003, 9.924907e+001
1.222557e+003, 9.943169e+001
1.223040e+003, 9.962646e+001
1.223522e+003, 9.983100e+001
1.224004e+003, 1.000391e+002
1.224486e+003, 1.002607e+002
1.224968e+003, 1.003791e+002
1.225450e+003, 1.002032e+002
1.225932e+003, 1.000324e+002
1.226414e+003, 1.000095e+002
1.226896e+003, 1.001102e+002
1.227379e+003, 1.003397e+002
1.227861e+003, 1.006449e+002
1.228343e+003, 1.006980e+002
1.228825e+003, 1.003782e+002
1.229307e+003, 1.001315e+002
1.229789e+003, 1.003262e+002
1.230271e+003, 1.005274e+002
1.230753e+003, 1.005231e+002
1.231236e+003, 1.003556e+002
1.231718e+003, 1.000827e+002
1.232200e+003, 9.976401e+001
1.232682e+003, 9.970614e+001
1.233164e+003, 1.000623e+002
1.233646e+003, 1.003029e+002
1.234128e+003, 1.000834e+002
1.234610e+003, 9.976958e+001
1.235093e+003, 9.948080e+001
1.235575e+003, 9.925932e+001
1.236057e+003, 9.930418e+001
1.236539e+003, 9.954092e+001
1.237021e+003, 9.972408e+001
1.237503e+003, 9.977750e+001
1.237985e+003, 9.980110e+001
1.238467e+003, 9.981744e+001
1.238949e+003, 9.982883e+001
1.239432e+003, 9.984792e+001
1.239914e+003, 9.985303e+001
1.240396e+003, 9.981377e+001
1.240878e+003, 9.970354e+001
1.241360e+003, 9.941006e+001
1.241842e+003, 9.876708e+001
1.242324e+003, 9.837158e+001
1.242806e+003, 9.844256e+001
1.243288e+003, 9.862536e+001
1.243771e+003, 9.879063e+001
1.244253e+003, 9.891173e+001
1.244735e+003, 9.886898e+001
1.245217e+003, 9.873856e+001
1.245699e+003, 9.871603e+001
1.246181e+003, 9.893449e+001
1.246663e+003, 9.902876e+001
1.247145e+003, 9.892628e+001
1.247628e+003, 9.878312e+001
1.248110e+003, 9.870458e+001
1.248592e+003, 9.861940e+001
1.249074e+003, 9.820705e+001
1.249556e+003, 9.772141e+001
1.250038e+003, 9.770610e+001
1.250520e+003, 9.869534e+001
1.251002e+003, 9.906471e+001
1.251484e+003, 9.855437e+001
1.251967e+003, 9.805552e+001
1.252449e+003, 9.820016e+001
1.252931e+003, 9.853318e+001
1.253413e+003, 9.814494e+001
1.253895e+003, 9.747058e+001
1.254377e+003, 9.733270e+001
1.254859e+003, 9.823087e+001
1.255341e+003, 9.866466e+001
1.255823e+003, 9.853572e+001
1.256306e+003, 9.841180e+001
1.256788e+003, 9.872974e+001
1.257270e+003, 9.910476e+001
1.257752e+003, 9.897494e+001
1.258234e+003, 9.862073e+001
1.258716e+003, 9.850973e+001
1.259198e+003, 9.875107e+001
1.259680e+003, 9.896243e+001
1.260163e+003, 9.916115e+001
1.260645e+003, 9.916594e+001
1.261127e+003, 9.866101e+001
1.261609e+003, 9.818474e+001
1.262091e+003, 9.837586e+001
1.262573e+003, 9.881893e+001
1.263055e+003, 9.891010e+001
1.263537e+003, 9.856364e+001
1.264020e+003, 9.842833e+001
1.264502e+003, 9.850039e+001
1.264984e+003, 9.862553e+001
1.265466e+003, 9.878767e+001
1.265948e+003, 9.887878e+001
1.266430e+003, 9.873392e+001
1.266912e+003, 9.854078e+001
1.267394e+003, 9.852541e+001
1.267876e+003, 9.869080e+001
1.268359e+003, 9.882533e+001
1.268841e+003, 9.891485e+001
1.269323e+003, 9.882552e+001
1.269805e+003, 9.815876e+001
1.270287e+003, 9.773454e+001
1.270769e+003, 9.822936e+001
1.271251e+003, 9.885998e+001
1.271733e+003, 9.896945e+001
1.272215e+003, 9.863975e+001
1.272698e+003, 9.856690e+001
1.273180e+003, 9.869498e+001
1.273662e+003, 9.876554e+001
1.274144e+003, 9.859105e+001
1.274626e+003, 9.843839e+001
1.275108e+003, 9.830059e+001
1.275590e+003, 9.828948e+001
1.276072e+003, 9.859480e+001
1.276555e+003, 9.907959e+001
1.277037e+003, 9.932655e+001
1.277519e+003, 9.934360e+001
1.278001e+003, 9.915353e+001
1.278483e+003, 9.831209e+001
1.278965e+003, 9.803545e+001
1.279447e+003, 9.854250e+001
1.279929e+003, 9.922217e+001
1.280411e+003, 9.974963e+001
1.280894e+003, 1.000461e+002
1.281376e+003, 9.974733e+001
1.281858e+003, 9.914011e+001
1.282340e+003, 9.888736e+001
1.282822e+003, 9.945251e+001
1.283304e+003, 9.968022e+001
1.283786e+003, 9.951943e+001
1.284268e+003, 9.927662e+001
1.284750e+003, 9.912382e+001
1.285233e+003, 9.903306e+001
1.285715e+003, 9.896816e+001
1.286197e+003, 9.894447e+001
1.286679e+003, 9.901855e+001
1.287161e+003, 9.927372e+001
1.287643e+003, 9.918002e+001
1.288125e+003, 9.871704e+001
1.288607e+003, 9.841537e+001
1.289090e+003, 9.876534e+001
1.289572e+003, 9.921339e+001
1.290054e+003, 9.941257e+001
1.290536e+003, 9.945228e+001
1.291018e+003, 9.940673e+001
1.291500e+003, 9.926218e+001
1.291982e+003, 9.960269e+001
1.292464e+003, 1.003396e+002
1.292947e+003, 1.006841e+002
1.293429e+003, 9.988997e+001
1.293911e+003, 9.907882e+001
1.294393e+003, 9.864394e+001
1.294875e+003, 9.848772e+001
1.295357e+003, 9.859297e+001
1.295839e+003, 9.893356e+001
1.296321e+003, 9.949196e+001
1.296803e+003, 1.001775e+002
1.297286e+003, 1.006400e+002
1.297768e+003, 1.006001e+002
1.298250e+003, 1.005592e+002
1.298732e+003, 1.006368e+002
1.299214e+003, 1.006593e+002
1.299696e+003, 1.004048e+002
1.300178e+003, 1.000618e+002
1.300660e+003, 1.000188e+002
##END=



