##NAMES=Alluaudite
##RRUFFID=R160081
##IDEAL CHEMISTRY=NaMn^2+^Fe^3+^_2_(PO_4_)_3_
##LOCALITY=Green Monster mine, Trimble, South Dakota, USA
##OWNER=UAMM
##SOURCE=Rock Currier
##DESCRIPTION=Dark green massive.
##STATUS=The identification of this mineral has been confirmed only by single crystal X-ray diffraction.
##URL=rruff.info/R160081
##MEASURED CHEMISTRY=(Na_0.97_Ca_0.06_)_∑=1.03_(Mn_0.81_Fe^2+^_0.12_Mg_0.02_)_∑=0.95_Fe^3+^_2_(PO_4_)_3_
8.806445e+001, 7.691722e+002
8.854657e+001, 7.644729e+002
8.902869e+001, 7.628777e+002
8.951080e+001, 7.657722e+002
8.999292e+001, 7.711373e+002
9.047504e+001, 7.773674e+002
9.095715e+001, 7.843157e+002
9.143927e+001, 7.910471e+002
9.192139e+001, 7.962739e+002
9.240350e+001, 8.001243e+002
9.288562e+001, 8.031573e+002
9.336774e+001, 7.999228e+002
9.384985e+001, 7.857813e+002
9.433197e+001, 7.629197e+002
9.481409e+001, 7.427761e+002
9.529620e+001, 7.226336e+002
9.577832e+001, 7.043583e+002
9.626044e+001, 6.882014e+002
9.674255e+001, 6.744471e+002
9.722467e+001, 6.637702e+002
9.770679e+001, 6.569923e+002
9.818890e+001, 6.500015e+002
9.867102e+001, 6.416673e+002
9.915314e+001, 6.328890e+002
9.963525e+001, 6.240234e+002
1.001174e+002, 6.151381e+002
1.005995e+002, 6.065480e+002
1.010816e+002, 5.994887e+002
1.015637e+002, 5.942200e+002
1.020458e+002, 5.902180e+002
1.025280e+002, 5.874888e+002
1.030101e+002, 5.858008e+002
1.034922e+002, 5.847557e+002
1.039743e+002, 5.839818e+002
1.044564e+002, 5.834894e+002
1.049385e+002, 5.852734e+002
1.054207e+002, 5.907591e+002
1.059028e+002, 5.966607e+002
1.063849e+002, 6.010736e+002
1.068670e+002, 6.039734e+002
1.073491e+002, 6.068303e+002
1.078312e+002, 6.110844e+002
1.083134e+002, 6.166697e+002
1.087955e+002, 6.221478e+002
1.092776e+002, 6.290205e+002
1.097597e+002, 6.352112e+002
1.102418e+002, 6.380021e+002
1.107239e+002, 6.372883e+002
1.112061e+002, 6.321662e+002
1.116882e+002, 6.209445e+002
1.121703e+002, 6.046688e+002
1.126524e+002, 5.875387e+002
1.131345e+002, 5.713953e+002
1.136166e+002, 5.562154e+002
1.140988e+002, 5.422369e+002
1.145809e+002, 5.294672e+002
1.150630e+002, 5.181157e+002
1.155451e+002, 5.085738e+002
1.160272e+002, 5.007569e+002
1.165093e+002, 4.941870e+002
1.169915e+002, 4.883363e+002
1.174736e+002, 4.832950e+002
1.179557e+002, 4.788379e+002
1.184378e+002, 4.746622e+002
1.189199e+002, 4.711076e+002
1.194020e+002, 4.684077e+002
1.198842e+002, 4.666401e+002
1.203663e+002, 4.657374e+002
1.208484e+002, 4.655561e+002
1.213305e+002, 4.675493e+002
1.218126e+002, 4.686183e+002
1.222947e+002, 4.681574e+002
1.227769e+002, 4.668457e+002
1.232590e+002, 4.654604e+002
1.237411e+002, 4.643495e+002
1.242232e+002, 4.635402e+002
1.247053e+002, 4.631739e+002
1.251874e+002, 4.636214e+002
1.256696e+002, 4.640093e+002
1.261517e+002, 4.644086e+002
1.266338e+002, 4.646338e+002
1.271159e+002, 4.639047e+002
1.275980e+002, 4.615938e+002
1.280801e+002, 4.578534e+002
1.285623e+002, 4.537655e+002
1.290444e+002, 4.490398e+002
1.295265e+002, 4.442069e+002
1.300086e+002, 4.399357e+002
1.304907e+002, 4.364185e+002
1.309728e+002, 4.325449e+002
1.314550e+002, 4.267820e+002
1.319371e+002, 4.203128e+002
1.324192e+002, 4.148636e+002
1.329013e+002, 4.114706e+002
1.333834e+002, 4.095280e+002
1.338655e+002, 4.072101e+002
1.343477e+002, 4.041021e+002
1.348298e+002, 4.012378e+002
1.353119e+002, 3.989937e+002
1.357940e+002, 3.972769e+002
1.362761e+002, 3.959262e+002
1.367582e+002, 3.948755e+002
1.372404e+002, 3.941383e+002
1.377225e+002, 3.934332e+002
1.382046e+002, 3.933196e+002
1.386867e+002, 3.927436e+002
1.391688e+002, 3.911849e+002
1.396509e+002, 3.887785e+002
1.401331e+002, 3.860279e+002
1.406152e+002, 3.833595e+002
1.410973e+002, 3.806801e+002
1.415794e+002, 3.785845e+002
1.420615e+002, 3.773231e+002
1.425436e+002, 3.763237e+002
1.430258e+002, 3.753078e+002
1.435079e+002, 3.742009e+002
1.439900e+002, 3.729803e+002
1.444721e+002, 3.715602e+002
1.449542e+002, 3.696773e+002
1.454363e+002, 3.683515e+002
1.459185e+002, 3.682153e+002
1.464006e+002, 3.684200e+002
1.468827e+002, 3.678698e+002
1.473648e+002, 3.661622e+002
1.478469e+002, 3.640307e+002
1.483290e+002, 3.627302e+002
1.488112e+002, 3.622589e+002
1.492933e+002, 3.619176e+002
1.497754e+002, 3.614903e+002
1.502575e+002, 3.610046e+002
1.507396e+002, 3.605486e+002
1.512217e+002, 3.601969e+002
1.517039e+002, 3.598246e+002
1.521860e+002, 3.592813e+002
1.526681e+002, 3.585484e+002
1.531502e+002, 3.577924e+002
1.536323e+002, 3.572512e+002
1.541144e+002, 3.569469e+002
1.545966e+002, 3.562945e+002
1.550787e+002, 3.547360e+002
1.555608e+002, 3.529966e+002
1.560429e+002, 3.515195e+002
1.565250e+002, 3.503859e+002
1.570071e+002, 3.495518e+002
1.574893e+002, 3.489795e+002
1.579714e+002, 3.487257e+002
1.584535e+002, 3.486004e+002
1.589356e+002, 3.485033e+002
1.594177e+002, 3.485297e+002
1.598998e+002, 3.488096e+002
1.603820e+002, 3.493875e+002
1.608641e+002, 3.501267e+002
1.613462e+002, 3.507035e+002
1.618283e+002, 3.510333e+002
1.623104e+002, 3.512918e+002
1.627925e+002, 3.512063e+002
1.632747e+002, 3.511632e+002
1.637568e+002, 3.516427e+002
1.642389e+002, 3.528921e+002
1.647210e+002, 3.547068e+002
1.652031e+002, 3.562263e+002
1.656852e+002, 3.574343e+002
1.661674e+002, 3.583781e+002
1.666495e+002, 3.590497e+002
1.671316e+002, 3.594646e+002
1.676137e+002, 3.596591e+002
1.680958e+002, 3.596725e+002
1.685779e+002, 3.594626e+002
1.690601e+002, 3.587684e+002
1.695422e+002, 3.576020e+002
1.700243e+002, 3.560773e+002
1.705064e+002, 3.540361e+002
1.709885e+002, 3.516005e+002
1.714706e+002, 3.491851e+002
1.719528e+002, 3.469436e+002
1.724349e+002, 3.449929e+002
1.729170e+002, 3.435348e+002
1.733991e+002, 3.427608e+002
1.738812e+002, 3.423094e+002
1.743633e+002, 3.419597e+002
1.748455e+002, 3.417123e+002
1.753276e+002, 3.414953e+002
1.758097e+002, 3.412121e+002
1.762918e+002, 3.409442e+002
1.767739e+002, 3.408584e+002
1.772560e+002, 3.411658e+002
1.777382e+002, 3.415481e+002
1.782203e+002, 3.415004e+002
1.787024e+002, 3.408931e+002
1.791845e+002, 3.402886e+002
1.796666e+002, 3.401102e+002
1.801487e+002, 3.400895e+002
1.806309e+002, 3.398852e+002
1.811130e+002, 3.393405e+002
1.815951e+002, 3.385268e+002
1.820772e+002, 3.376120e+002
1.825593e+002, 3.365509e+002
1.830414e+002, 3.354589e+002
1.835236e+002, 3.341631e+002
1.840057e+002, 3.329030e+002
1.844878e+002, 3.320448e+002
1.849699e+002, 3.318661e+002
1.854520e+002, 3.322512e+002
1.859341e+002, 3.324682e+002
1.864163e+002, 3.324820e+002
1.868984e+002, 3.323322e+002
1.873805e+002, 3.319138e+002
1.878626e+002, 3.313511e+002
1.883447e+002, 3.308167e+002
1.888268e+002, 3.304048e+002
1.893090e+002, 3.301230e+002
1.897911e+002, 3.301912e+002
1.902732e+002, 3.311274e+002
1.907553e+002, 3.318927e+002
1.912374e+002, 3.322552e+002
1.917195e+002, 3.322237e+002
1.922017e+002, 3.318749e+002
1.926838e+002, 3.312503e+002
1.931659e+002, 3.303340e+002
1.936480e+002, 3.293875e+002
1.941301e+002, 3.284536e+002
1.946122e+002, 3.274586e+002
1.950944e+002, 3.263619e+002
1.955765e+002, 3.251742e+002
1.960586e+002, 3.239392e+002
1.965407e+002, 3.227189e+002
1.970228e+002, 3.215030e+002
1.975049e+002, 3.200352e+002
1.979871e+002, 3.176655e+002
1.984692e+002, 3.155813e+002
1.989513e+002, 3.146106e+002
1.994334e+002, 3.147347e+002
1.999155e+002, 3.153157e+002
2.003976e+002, 3.160085e+002
2.008798e+002, 3.167617e+002
2.013619e+002, 3.171659e+002
2.018440e+002, 3.168004e+002
2.023261e+002, 3.163338e+002
2.028082e+002, 3.164884e+002
2.032903e+002, 3.173290e+002
2.037725e+002, 3.181082e+002
2.042546e+002, 3.181736e+002
2.047367e+002, 3.177044e+002
2.052188e+002, 3.171963e+002
2.057009e+002, 3.169398e+002
2.061830e+002, 3.166074e+002
2.066652e+002, 3.156393e+002
2.071473e+002, 3.138658e+002
2.076294e+002, 3.121073e+002
2.081115e+002, 3.109800e+002
2.085936e+002, 3.102338e+002
2.090757e+002, 3.095185e+002
2.095579e+002, 3.087251e+002
2.100400e+002, 3.078823e+002
2.105221e+002, 3.070266e+002
2.110042e+002, 3.061300e+002
2.114863e+002, 3.052859e+002
2.119685e+002, 3.044164e+002
2.124506e+002, 3.036358e+002
2.129327e+002, 3.031784e+002
2.134148e+002, 3.033183e+002
2.138969e+002, 3.037742e+002
2.143790e+002, 3.035766e+002
2.148612e+002, 3.020783e+002
2.153433e+002, 3.010100e+002
2.158254e+002, 3.011010e+002
2.163075e+002, 3.018937e+002
2.167896e+002, 3.028049e+002
2.172717e+002, 3.035623e+002
2.177539e+002, 3.041530e+002
2.182360e+002, 3.044810e+002
2.187181e+002, 3.042760e+002
2.192002e+002, 3.041544e+002
2.196823e+002, 3.042475e+002
2.201644e+002, 3.045136e+002
2.206466e+002, 3.049358e+002
2.211287e+002, 3.055370e+002
2.216108e+002, 3.062364e+002
2.220929e+002, 3.065595e+002
2.225750e+002, 3.061038e+002
2.230571e+002, 3.056806e+002
2.235393e+002, 3.054539e+002
2.240214e+002, 3.053388e+002
2.245035e+002, 3.052365e+002
2.249856e+002, 3.051034e+002
2.254677e+002, 3.049024e+002
2.259498e+002, 3.043878e+002
2.264320e+002, 3.030225e+002
2.269141e+002, 3.019248e+002
2.273962e+002, 3.013401e+002
2.278783e+002, 3.011327e+002
2.283604e+002, 3.011364e+002
2.288425e+002, 3.012856e+002
2.293247e+002, 3.015008e+002
2.298068e+002, 3.013062e+002
2.302889e+002, 3.001527e+002
2.307710e+002, 2.992427e+002
2.312531e+002, 2.990047e+002
2.317352e+002, 2.991604e+002
2.322174e+002, 2.992317e+002
2.326995e+002, 2.989713e+002
2.331816e+002, 2.984186e+002
2.336637e+002, 2.977241e+002
2.341458e+002, 2.965926e+002
2.346279e+002, 2.956758e+002
2.351101e+002, 2.952426e+002
2.355922e+002, 2.951346e+002
2.360743e+002, 2.951185e+002
2.365564e+002, 2.951569e+002
2.370385e+002, 2.950871e+002
2.375206e+002, 2.942890e+002
2.380028e+002, 2.920758e+002
2.384849e+002, 2.903424e+002
2.389670e+002, 2.901208e+002
2.394491e+002, 2.908620e+002
2.399312e+002, 2.912715e+002
2.404133e+002, 2.907042e+002
2.408955e+002, 2.896558e+002
2.413776e+002, 2.892696e+002
2.418597e+002, 2.897610e+002
2.423418e+002, 2.902399e+002
2.428239e+002, 2.902164e+002
2.433060e+002, 2.898800e+002
2.437882e+002, 2.897847e+002
2.442703e+002, 2.902038e+002
2.447524e+002, 2.908394e+002
2.452345e+002, 2.911405e+002
2.457166e+002, 2.910109e+002
2.461987e+002, 2.910456e+002
2.466809e+002, 2.916769e+002
2.471630e+002, 2.927305e+002
2.476451e+002, 2.936444e+002
2.481272e+002, 2.942663e+002
2.486093e+002, 2.946652e+002
2.490914e+002, 2.948089e+002
2.495736e+002, 2.946755e+002
2.500557e+002, 2.948351e+002
2.505378e+002, 2.958149e+002
2.510199e+002, 2.974066e+002
2.515020e+002, 2.987603e+002
2.519841e+002, 2.996799e+002
2.524663e+002, 3.003559e+002
2.529484e+002, 3.010625e+002
2.534305e+002, 3.017715e+002
2.539126e+002, 3.022298e+002
2.543947e+002, 3.022373e+002
2.548768e+002, 3.018526e+002
2.553590e+002, 3.012963e+002
2.558411e+002, 3.003545e+002
2.563232e+002, 2.995905e+002
2.568053e+002, 2.994793e+002
2.572874e+002, 2.998712e+002
2.577695e+002, 3.002280e+002
2.582516e+002, 3.002314e+002
2.587338e+002, 2.999229e+002
2.592159e+002, 2.995254e+002
2.596980e+002, 2.990423e+002
2.601801e+002, 2.984581e+002
2.606622e+002, 2.977944e+002
2.611443e+002, 2.970439e+002
2.616265e+002, 2.961864e+002
2.621086e+002, 2.951878e+002
2.625907e+002, 2.940697e+002
2.630728e+002, 2.929358e+002
2.635549e+002, 2.916935e+002
2.640370e+002, 2.905836e+002
2.645192e+002, 2.895317e+002
2.650013e+002, 2.886740e+002
2.654834e+002, 2.882766e+002
2.659655e+002, 2.886158e+002
2.664476e+002, 2.894310e+002
2.669297e+002, 2.897439e+002
2.674119e+002, 2.890914e+002
2.678940e+002, 2.886898e+002
2.683761e+002, 2.889575e+002
2.688582e+002, 2.896297e+002
2.693403e+002, 2.903637e+002
2.698224e+002, 2.909735e+002
2.703046e+002, 2.915975e+002
2.707867e+002, 2.926588e+002
2.712688e+002, 2.944685e+002
2.717509e+002, 2.961753e+002
2.722330e+002, 2.974975e+002
2.727151e+002, 2.986941e+002
2.731973e+002, 3.000272e+002
2.736794e+002, 3.016035e+002
2.741615e+002, 3.033492e+002
2.746436e+002, 3.052024e+002
2.751257e+002, 3.075200e+002
2.756078e+002, 3.091900e+002
2.760900e+002, 3.101166e+002
2.765721e+002, 3.104518e+002
2.770542e+002, 3.101823e+002
2.775363e+002, 3.093409e+002
2.780184e+002, 3.082022e+002
2.785005e+002, 3.073581e+002
2.789827e+002, 3.074633e+002
2.794648e+002, 3.063128e+002
2.799469e+002, 3.028693e+002
2.804290e+002, 2.990136e+002
2.809111e+002, 2.960525e+002
2.813932e+002, 2.941855e+002
2.818754e+002, 2.926831e+002
2.823575e+002, 2.905407e+002
2.828396e+002, 2.873770e+002
2.833217e+002, 2.846958e+002
2.838038e+002, 2.828122e+002
2.842859e+002, 2.810826e+002
2.847681e+002, 2.791665e+002
2.852502e+002, 2.770549e+002
2.857323e+002, 2.749641e+002
2.862144e+002, 2.731401e+002
2.866965e+002, 2.716539e+002
2.871786e+002, 2.700085e+002
2.876608e+002, 2.678116e+002
2.881429e+002, 2.658257e+002
2.886250e+002, 2.644106e+002
2.891071e+002, 2.634930e+002
2.895892e+002, 2.627881e+002
2.900714e+002, 2.620741e+002
2.905535e+002, 2.613537e+002
2.910356e+002, 2.606630e+002
2.915177e+002, 2.601431e+002
2.919998e+002, 2.595108e+002
2.924819e+002, 2.585617e+002
2.929641e+002, 2.574483e+002
2.934462e+002, 2.564763e+002
2.939283e+002, 2.558546e+002
2.944104e+002, 2.555115e+002
2.948925e+002, 2.549262e+002
2.953746e+002, 2.535083e+002
2.958568e+002, 2.525066e+002
2.963389e+002, 2.524074e+002
2.968210e+002, 2.527437e+002
2.973031e+002, 2.528803e+002
2.977852e+002, 2.525097e+002
2.982673e+002, 2.517791e+002
2.987495e+002, 2.511308e+002
2.992316e+002, 2.505171e+002
2.997137e+002, 2.500564e+002
3.001958e+002, 2.499325e+002
3.006779e+002, 2.498737e+002
3.011600e+002, 2.495458e+002
3.016422e+002, 2.488539e+002
3.021243e+002, 2.480515e+002
3.026064e+002, 2.476309e+002
3.030885e+002, 2.480786e+002
3.035706e+002, 2.480318e+002
3.040527e+002, 2.470466e+002
3.045349e+002, 2.459087e+002
3.050170e+002, 2.452586e+002
3.054991e+002, 2.451791e+002
3.059812e+002, 2.452695e+002
3.064633e+002, 2.450346e+002
3.069454e+002, 2.443587e+002
3.074276e+002, 2.437494e+002
3.079097e+002, 2.430946e+002
3.083918e+002, 2.425926e+002
3.088739e+002, 2.424543e+002
3.093560e+002, 2.426089e+002
3.098381e+002, 2.427737e+002
3.103203e+002, 2.427035e+002
3.108024e+002, 2.423872e+002
3.112845e+002, 2.420141e+002
3.117666e+002, 2.415583e+002
3.122487e+002, 2.410819e+002
3.127308e+002, 2.405023e+002
3.132130e+002, 2.399157e+002
3.136951e+002, 2.395281e+002
3.141772e+002, 2.394833e+002
3.146593e+002, 2.397305e+002
3.151414e+002, 2.399241e+002
3.156235e+002, 2.403809e+002
3.161057e+002, 2.404117e+002
3.165878e+002, 2.395921e+002
3.170699e+002, 2.383629e+002
3.175520e+002, 2.372562e+002
3.180341e+002, 2.365112e+002
3.185162e+002, 2.361042e+002
3.189984e+002, 2.359928e+002
3.194805e+002, 2.365137e+002
3.199626e+002, 2.369082e+002
3.204447e+002, 2.372254e+002
3.209268e+002, 2.373846e+002
3.214089e+002, 2.372467e+002
3.218911e+002, 2.367983e+002
3.223732e+002, 2.362350e+002
3.228553e+002, 2.358257e+002
3.233374e+002, 2.355688e+002
3.238195e+002, 2.355146e+002
3.243016e+002, 2.358238e+002
3.247838e+002, 2.361814e+002
3.252659e+002, 2.364048e+002
3.257480e+002, 2.364769e+002
3.262301e+002, 2.364670e+002
3.267122e+002, 2.364339e+002
3.271943e+002, 2.363694e+002
3.276765e+002, 2.363445e+002
3.281586e+002, 2.361308e+002
3.286407e+002, 2.361700e+002
3.291228e+002, 2.368647e+002
3.296049e+002, 2.379517e+002
3.300870e+002, 2.388420e+002
3.305692e+002, 2.391221e+002
3.310513e+002, 2.388766e+002
3.315334e+002, 2.387600e+002
3.320155e+002, 2.387766e+002
3.324976e+002, 2.389314e+002
3.329797e+002, 2.392916e+002
3.334619e+002, 2.397733e+002
3.339440e+002, 2.403005e+002
3.344261e+002, 2.408408e+002
3.349082e+002, 2.413537e+002
3.353904e+002, 2.417452e+002
3.358725e+002, 2.419564e+002
3.363546e+002, 2.421270e+002
3.368367e+002, 2.422752e+002
3.373188e+002, 2.423852e+002
3.378009e+002, 2.424321e+002
3.382831e+002, 2.424167e+002
3.387652e+002, 2.423722e+002
3.392473e+002, 2.423320e+002
3.397294e+002, 2.422674e+002
3.402115e+002, 2.423025e+002
3.406936e+002, 2.427009e+002
3.411758e+002, 2.429538e+002
3.416579e+002, 2.427497e+002
3.421400e+002, 2.421481e+002
3.426221e+002, 2.414078e+002
3.431042e+002, 2.407128e+002
3.435863e+002, 2.400626e+002
3.440685e+002, 2.396410e+002
3.445506e+002, 2.398893e+002
3.450327e+002, 2.399209e+002
3.455148e+002, 2.393169e+002
3.459969e+002, 2.384058e+002
3.464790e+002, 2.377289e+002
3.469612e+002, 2.375904e+002
3.474433e+002, 2.378235e+002
3.479254e+002, 2.378908e+002
3.484075e+002, 2.376696e+002
3.488896e+002, 2.374737e+002
3.493717e+002, 2.373743e+002
3.498539e+002, 2.373035e+002
3.503360e+002, 2.371164e+002
3.508181e+002, 2.367934e+002
3.513002e+002, 2.365875e+002
3.517823e+002, 2.370022e+002
3.522644e+002, 2.383889e+002
3.527466e+002, 2.392379e+002
3.532287e+002, 2.390501e+002
3.537108e+002, 2.386619e+002
3.541929e+002, 2.384364e+002
3.546750e+002, 2.384103e+002
3.551571e+002, 2.384733e+002
3.556393e+002, 2.385439e+002
3.561214e+002, 2.386226e+002
3.566035e+002, 2.387098e+002
3.570856e+002, 2.390068e+002
3.575677e+002, 2.390501e+002
3.580498e+002, 2.383624e+002
3.585320e+002, 2.373685e+002
3.590141e+002, 2.368640e+002
3.594962e+002, 2.374266e+002
3.599783e+002, 2.385299e+002
3.604604e+002, 2.386571e+002
3.609425e+002, 2.372716e+002
3.614247e+002, 2.361587e+002
3.619068e+002, 2.360324e+002
3.623889e+002, 2.362912e+002
3.628710e+002, 2.364463e+002
3.633531e+002, 2.363666e+002
3.638352e+002, 2.361545e+002
3.643174e+002, 2.359257e+002
3.647995e+002, 2.356833e+002
3.652816e+002, 2.353738e+002
3.657637e+002, 2.348946e+002
3.662458e+002, 2.344281e+002
3.667279e+002, 2.341486e+002
3.672101e+002, 2.340230e+002
3.676922e+002, 2.338210e+002
3.681743e+002, 2.332641e+002
3.686564e+002, 2.324666e+002
3.691385e+002, 2.319868e+002
3.696206e+002, 2.319718e+002
3.701028e+002, 2.320279e+002
3.705849e+002, 2.321061e+002
3.710670e+002, 2.320717e+002
3.715491e+002, 2.315971e+002
3.720312e+002, 2.302205e+002
3.725133e+002, 2.286973e+002
3.729955e+002, 2.282242e+002
3.734776e+002, 2.289150e+002
3.739597e+002, 2.295722e+002
3.744418e+002, 2.297171e+002
3.749239e+002, 2.295398e+002
3.754060e+002, 2.293179e+002
3.758882e+002, 2.291115e+002
3.763703e+002, 2.286943e+002
3.768524e+002, 2.276828e+002
3.773345e+002, 2.262693e+002
3.778166e+002, 2.252421e+002
3.782987e+002, 2.248120e+002
3.787809e+002, 2.247644e+002
3.792630e+002, 2.250218e+002
3.797451e+002, 2.255370e+002
3.802272e+002, 2.258494e+002
3.807093e+002, 2.257125e+002
3.811914e+002, 2.253344e+002
3.816736e+002, 2.249294e+002
3.821557e+002, 2.245114e+002
3.826378e+002, 2.242053e+002
3.831199e+002, 2.241655e+002
3.836020e+002, 2.243230e+002
3.840841e+002, 2.243391e+002
3.845663e+002, 2.240632e+002
3.850484e+002, 2.237886e+002
3.855305e+002, 2.237434e+002
3.860126e+002, 2.238479e+002
3.864947e+002, 2.238334e+002
3.869768e+002, 2.235656e+002
3.874590e+002, 2.231686e+002
3.879411e+002, 2.229043e+002
3.884232e+002, 2.227905e+002
3.889053e+002, 2.227172e+002
3.893874e+002, 2.226042e+002
3.898695e+002, 2.225485e+002
3.903517e+002, 2.227173e+002
3.908338e+002, 2.231311e+002
3.913159e+002, 2.235609e+002
3.917980e+002, 2.237605e+002
3.922801e+002, 2.236900e+002
3.927622e+002, 2.237314e+002
3.932444e+002, 2.239512e+002
3.937265e+002, 2.242086e+002
3.942086e+002, 2.245859e+002
3.946907e+002, 2.249521e+002
3.951728e+002, 2.249583e+002
3.956549e+002, 2.243662e+002
3.961371e+002, 2.233531e+002
3.966192e+002, 2.226485e+002
3.971013e+002, 2.222969e+002
3.975834e+002, 2.222192e+002
3.980655e+002, 2.226341e+002
3.985476e+002, 2.232096e+002
3.990298e+002, 2.236211e+002
3.995119e+002, 2.237812e+002
3.999940e+002, 2.238180e+002
4.004761e+002, 2.239283e+002
4.009582e+002, 2.242275e+002
4.014403e+002, 2.241760e+002
4.019225e+002, 2.235963e+002
4.024046e+002, 2.228847e+002
4.028867e+002, 2.222197e+002
4.033688e+002, 2.215762e+002
4.038509e+002, 2.208410e+002
4.043330e+002, 2.199332e+002
4.048152e+002, 2.188634e+002
4.052973e+002, 2.176895e+002
4.057794e+002, 2.162884e+002
4.062615e+002, 2.149615e+002
4.067436e+002, 2.136682e+002
4.072257e+002, 2.125125e+002
4.077079e+002, 2.116604e+002
4.081900e+002, 2.111491e+002
4.086721e+002, 2.107570e+002
4.091542e+002, 2.101510e+002
4.096363e+002, 2.092634e+002
4.101184e+002, 2.085177e+002
4.106006e+002, 2.080371e+002
4.110827e+002, 2.076443e+002
4.115648e+002, 2.072505e+002
4.120469e+002, 2.068654e+002
4.125290e+002, 2.065499e+002
4.130111e+002, 2.063845e+002
4.134933e+002, 2.063120e+002
4.139754e+002, 2.061467e+002
4.144575e+002, 2.058752e+002
4.149396e+002, 2.055495e+002
4.154217e+002, 2.049837e+002
4.159038e+002, 2.044578e+002
4.163860e+002, 2.044035e+002
4.168681e+002, 2.050590e+002
4.173502e+002, 2.057353e+002
4.178323e+002, 2.056558e+002
4.183144e+002, 2.049195e+002
4.187965e+002, 2.043949e+002
4.192787e+002, 2.043653e+002
4.197608e+002, 2.045172e+002
4.202429e+002, 2.045246e+002
4.207250e+002, 2.043977e+002
4.212071e+002, 2.042234e+002
4.216892e+002, 2.039381e+002
4.221714e+002, 2.036642e+002
4.226535e+002, 2.036323e+002
4.231356e+002, 2.038595e+002
4.236177e+002, 2.040012e+002
4.240998e+002, 2.037232e+002
4.245819e+002, 2.031927e+002
4.250641e+002, 2.031227e+002
4.255462e+002, 2.039492e+002
4.260283e+002, 2.046788e+002
4.265104e+002, 2.048181e+002
4.269925e+002, 2.045723e+002
4.274746e+002, 2.043327e+002
4.279568e+002, 2.042306e+002
4.284389e+002, 2.041627e+002
4.289210e+002, 2.039622e+002
4.294031e+002, 2.035487e+002
4.298852e+002, 2.032325e+002
4.303673e+002, 2.030240e+002
4.308495e+002, 2.029033e+002
4.313316e+002, 2.029159e+002
4.318137e+002, 2.030183e+002
4.322958e+002, 2.030496e+002
4.327779e+002, 2.028720e+002
4.332600e+002, 2.025328e+002
4.337422e+002, 2.024223e+002
4.342243e+002, 2.027196e+002
4.347064e+002, 2.030412e+002
4.351885e+002, 2.034271e+002
4.356706e+002, 2.037732e+002
4.361527e+002, 2.038649e+002
4.366349e+002, 2.036759e+002
4.371170e+002, 2.035398e+002
4.375991e+002, 2.039787e+002
4.380812e+002, 2.051765e+002
4.385633e+002, 2.062697e+002
4.390454e+002, 2.071784e+002
4.395276e+002, 2.080462e+002
4.400097e+002, 2.090498e+002
4.404918e+002, 2.100520e+002
4.409739e+002, 2.107044e+002
4.414560e+002, 2.106556e+002
4.419381e+002, 2.102776e+002
4.424203e+002, 2.107061e+002
4.429024e+002, 2.121927e+002
4.433845e+002, 2.138193e+002
4.438666e+002, 2.156770e+002
4.443487e+002, 2.173394e+002
4.448308e+002, 2.182112e+002
4.453130e+002, 2.181961e+002
4.457951e+002, 2.184087e+002
4.462772e+002, 2.201481e+002
4.467593e+002, 2.230440e+002
4.472414e+002, 2.250761e+002
4.477235e+002, 2.257452e+002
4.482057e+002, 2.260960e+002
4.486878e+002, 2.268317e+002
4.491699e+002, 2.278609e+002
4.496520e+002, 2.290056e+002
4.501341e+002, 2.303822e+002
4.506162e+002, 2.317129e+002
4.510984e+002, 2.327079e+002
4.515805e+002, 2.334059e+002
4.520626e+002, 2.340794e+002
4.525447e+002, 2.348992e+002
4.530268e+002, 2.356634e+002
4.535089e+002, 2.358932e+002
4.539911e+002, 2.354836e+002
4.544732e+002, 2.351925e+002
4.549553e+002, 2.354746e+002
4.554374e+002, 2.357897e+002
4.559195e+002, 2.355580e+002
4.564016e+002, 2.347324e+002
4.568838e+002, 2.335984e+002
4.573659e+002, 2.323222e+002
4.578480e+002, 2.309237e+002
4.583301e+002, 2.297429e+002
4.588122e+002, 2.290206e+002
4.592943e+002, 2.281880e+002
4.597765e+002, 2.270713e+002
4.602586e+002, 2.257734e+002
4.607407e+002, 2.243664e+002
4.612228e+002, 2.228979e+002
4.617049e+002, 2.215042e+002
4.621870e+002, 2.204088e+002
4.626692e+002, 2.197390e+002
4.631513e+002, 2.189762e+002
4.636334e+002, 2.179440e+002
4.641155e+002, 2.170036e+002
4.645976e+002, 2.162648e+002
4.650797e+002, 2.157448e+002
4.655619e+002, 2.154427e+002
4.660440e+002, 2.153789e+002
4.665261e+002, 2.154954e+002
4.670082e+002, 2.156505e+002
4.674903e+002, 2.158780e+002
4.679724e+002, 2.160532e+002
4.684546e+002, 2.159049e+002
4.689367e+002, 2.158547e+002
4.694188e+002, 2.163778e+002
4.699009e+002, 2.174711e+002
4.703830e+002, 2.184117e+002
4.708651e+002, 2.184530e+002
4.713473e+002, 2.178742e+002
4.718294e+002, 2.177597e+002
4.723115e+002, 2.183203e+002
4.727936e+002, 2.188684e+002
4.732757e+002, 2.188555e+002
4.737578e+002, 2.185347e+002
4.742400e+002, 2.183980e+002
4.747221e+002, 2.186934e+002
4.752042e+002, 2.188945e+002
4.756863e+002, 2.185391e+002
4.761684e+002, 2.177961e+002
4.766505e+002, 2.171716e+002
4.771327e+002, 2.168259e+002
4.776148e+002, 2.165553e+002
4.780969e+002, 2.160300e+002
4.785790e+002, 2.151729e+002
4.790611e+002, 2.147362e+002
4.795432e+002, 2.151691e+002
4.800254e+002, 2.156766e+002
4.805075e+002, 2.156774e+002
4.809896e+002, 2.153100e+002
4.814717e+002, 2.151047e+002
4.819538e+002, 2.153781e+002
4.824359e+002, 2.158946e+002
4.829181e+002, 2.159700e+002
4.834002e+002, 2.151338e+002
4.838823e+002, 2.145293e+002
4.843644e+002, 2.144161e+002
4.848465e+002, 2.143412e+002
4.853286e+002, 2.140005e+002
4.858108e+002, 2.133652e+002
4.862929e+002, 2.125423e+002
4.867750e+002, 2.115804e+002
4.872571e+002, 2.105113e+002
4.877392e+002, 2.095901e+002
4.882213e+002, 2.088285e+002
4.887035e+002, 2.082080e+002
4.891856e+002, 2.078792e+002
4.896677e+002, 2.075835e+002
4.901498e+002, 2.070217e+002
4.906319e+002, 2.061200e+002
4.911140e+002, 2.051341e+002
4.915962e+002, 2.043520e+002
4.920783e+002, 2.037355e+002
4.925604e+002, 2.029444e+002
4.930425e+002, 2.017873e+002
4.935246e+002, 2.007675e+002
4.940067e+002, 2.005134e+002
4.944889e+002, 2.006689e+002
4.949710e+002, 2.003970e+002
4.954531e+002, 1.991516e+002
4.959352e+002, 1.978387e+002
4.964173e+002, 1.972599e+002
4.968994e+002, 1.972402e+002
4.973816e+002, 1.971359e+002
4.978637e+002, 1.967345e+002
4.983458e+002, 1.961672e+002
4.988279e+002, 1.955815e+002
4.993100e+002, 1.949414e+002
4.997921e+002, 1.944818e+002
5.002743e+002, 1.944803e+002
5.007564e+002, 1.944386e+002
5.012385e+002, 1.939553e+002
5.017206e+002, 1.931356e+002
5.022027e+002, 1.923177e+002
5.026848e+002, 1.916778e+002
5.031670e+002, 1.912362e+002
5.036491e+002, 1.910940e+002
5.041312e+002, 1.917255e+002
5.046133e+002, 1.918674e+002
5.050954e+002, 1.910736e+002
5.055775e+002, 1.901524e+002
5.060597e+002, 1.896021e+002
5.065418e+002, 1.894558e+002
5.070239e+002, 1.895515e+002
5.075060e+002, 1.898686e+002
5.079881e+002, 1.902827e+002
5.084702e+002, 1.901110e+002
5.089524e+002, 1.890029e+002
5.094345e+002, 1.881064e+002
5.099166e+002, 1.881631e+002
5.103987e+002, 1.883911e+002
5.108808e+002, 1.879641e+002
5.113629e+002, 1.867485e+002
5.118451e+002, 1.856358e+002
5.123271e+002, 1.854553e+002
5.128093e+002, 1.858858e+002
5.132914e+002, 1.860648e+002
5.137735e+002, 1.859255e+002
5.142556e+002, 1.854552e+002
5.147377e+002, 1.844059e+002
5.152198e+002, 1.830303e+002
5.157020e+002, 1.821987e+002
5.161841e+002, 1.822798e+002
5.166662e+002, 1.824050e+002
5.171483e+002, 1.822696e+002
5.176304e+002, 1.819067e+002
5.181125e+002, 1.812725e+002
5.185947e+002, 1.803669e+002
5.190768e+002, 1.795108e+002
5.195589e+002, 1.790641e+002
5.200410e+002, 1.790716e+002
5.205231e+002, 1.790500e+002
5.210052e+002, 1.791833e+002
5.214874e+002, 1.790880e+002
5.219695e+002, 1.784207e+002
5.224516e+002, 1.775240e+002
5.229337e+002, 1.768957e+002
5.234158e+002, 1.767129e+002
5.238979e+002, 1.767660e+002
5.243801e+002, 1.767824e+002
5.248622e+002, 1.767832e+002
5.253443e+002, 1.766368e+002
5.258264e+002, 1.762343e+002
5.263085e+002, 1.757925e+002
5.267906e+002, 1.753229e+002
5.272728e+002, 1.748955e+002
5.277549e+002, 1.746683e+002
5.282370e+002, 1.747910e+002
5.287191e+002, 1.749456e+002
5.292012e+002, 1.746259e+002
5.296833e+002, 1.738745e+002
5.301655e+002, 1.733490e+002
5.306476e+002, 1.732717e+002
5.311297e+002, 1.733723e+002
5.316118e+002, 1.733908e+002
5.320939e+002, 1.733356e+002
5.325760e+002, 1.732297e+002
5.330582e+002, 1.730418e+002
5.335403e+002, 1.728353e+002
5.340224e+002, 1.726095e+002
5.345045e+002, 1.724017e+002
5.349866e+002, 1.723337e+002
5.354688e+002, 1.724682e+002
5.359509e+002, 1.727130e+002
5.364330e+002, 1.728965e+002
5.369151e+002, 1.729818e+002
5.373972e+002, 1.730933e+002
5.378793e+002, 1.734278e+002
5.383615e+002, 1.736067e+002
5.388436e+002, 1.732654e+002
5.393257e+002, 1.726043e+002
5.398078e+002, 1.720930e+002
5.402899e+002, 1.719980e+002
5.407720e+002, 1.721812e+002
5.412542e+002, 1.723324e+002
5.417363e+002, 1.724295e+002
5.422184e+002, 1.725645e+002
5.427005e+002, 1.728033e+002
5.431826e+002, 1.730370e+002
5.436647e+002, 1.732416e+002
5.441469e+002, 1.733928e+002
5.446290e+002, 1.734223e+002
5.451111e+002, 1.732276e+002
5.455932e+002, 1.729412e+002
5.460753e+002, 1.727981e+002
5.465574e+002, 1.727907e+002
5.470396e+002, 1.726253e+002
5.475217e+002, 1.720351e+002
5.480038e+002, 1.714475e+002
5.484859e+002, 1.716886e+002
5.489680e+002, 1.728376e+002
5.494501e+002, 1.737286e+002
5.499323e+002, 1.739696e+002
5.504144e+002, 1.740251e+002
5.508965e+002, 1.742069e+002
5.513786e+002, 1.745257e+002
5.518607e+002, 1.749130e+002
5.523428e+002, 1.753347e+002
5.528250e+002, 1.757909e+002
5.533071e+002, 1.762865e+002
5.537892e+002, 1.768918e+002
5.542713e+002, 1.774125e+002
5.547534e+002, 1.776833e+002
5.552355e+002, 1.780319e+002
5.557177e+002, 1.787694e+002
5.561998e+002, 1.797490e+002
5.566819e+002, 1.805774e+002
5.571640e+002, 1.810257e+002
5.576461e+002, 1.811660e+002
5.581282e+002, 1.811486e+002
5.586104e+002, 1.809824e+002
5.590925e+002, 1.805844e+002
5.595746e+002, 1.797259e+002
5.600567e+002, 1.788328e+002
5.605388e+002, 1.783079e+002
5.610209e+002, 1.781086e+002
5.615031e+002, 1.779046e+002
5.619852e+002, 1.776198e+002
5.624673e+002, 1.772440e+002
5.629494e+002, 1.767393e+002
5.634315e+002, 1.761247e+002
5.639136e+002, 1.754358e+002
5.643958e+002, 1.746309e+002
5.648779e+002, 1.739359e+002
5.653600e+002, 1.737940e+002
5.658421e+002, 1.745590e+002
5.663242e+002, 1.748513e+002
5.668063e+002, 1.741933e+002
5.672885e+002, 1.735231e+002
5.677706e+002, 1.735244e+002
5.682527e+002, 1.739071e+002
5.687348e+002, 1.739136e+002
5.692169e+002, 1.731577e+002
5.696990e+002, 1.721485e+002
5.701812e+002, 1.720035e+002
5.706633e+002, 1.730702e+002
5.711454e+002, 1.735814e+002
5.716275e+002, 1.728365e+002
5.721096e+002, 1.720906e+002
5.725917e+002, 1.720473e+002
5.730739e+002, 1.724807e+002
5.735560e+002, 1.728085e+002
5.740381e+002, 1.727135e+002
5.745202e+002, 1.726001e+002
5.750023e+002, 1.730077e+002
5.754844e+002, 1.738378e+002
5.759666e+002, 1.745152e+002
5.764487e+002, 1.748686e+002
5.769308e+002, 1.751408e+002
5.774129e+002, 1.755840e+002
5.778950e+002, 1.762054e+002
5.783771e+002, 1.768184e+002
5.788593e+002, 1.774877e+002
5.793414e+002, 1.780754e+002
5.798235e+002, 1.783312e+002
5.803056e+002, 1.785216e+002
5.807877e+002, 1.790923e+002
5.812698e+002, 1.801723e+002
5.817520e+002, 1.815081e+002
5.822341e+002, 1.827941e+002
5.827162e+002, 1.840360e+002
5.831984e+002, 1.852597e+002
5.836805e+002, 1.862829e+002
5.841626e+002, 1.875246e+002
5.846447e+002, 1.890709e+002
5.851268e+002, 1.909067e+002
5.856089e+002, 1.930390e+002
5.860911e+002, 1.954722e+002
5.865732e+002, 1.980649e+002
5.870553e+002, 2.006042e+002
5.875374e+002, 2.031960e+002
5.880195e+002, 2.063228e+002
5.885016e+002, 2.101821e+002
5.889838e+002, 2.138006e+002
5.894659e+002, 2.164837e+002
5.899480e+002, 2.184788e+002
5.904301e+002, 2.206426e+002
5.909122e+002, 2.232466e+002
5.913943e+002, 2.254834e+002
5.918765e+002, 2.274195e+002
5.923586e+002, 2.286940e+002
5.928407e+002, 2.287631e+002
5.933228e+002, 2.276832e+002
5.938049e+002, 2.260559e+002
5.942870e+002, 2.242913e+002
5.947692e+002, 2.223836e+002
5.952513e+002, 2.202767e+002
5.957334e+002, 2.180591e+002
5.962155e+002, 2.154708e+002
5.966976e+002, 2.121763e+002
5.971797e+002, 2.088055e+002
5.976619e+002, 2.057005e+002
5.981440e+002, 2.029003e+002
5.986261e+002, 2.003194e+002
5.991082e+002, 1.979009e+002
5.995903e+002, 1.956738e+002
6.000724e+002, 1.937158e+002
6.005546e+002, 1.920268e+002
6.010367e+002, 1.904599e+002
6.015188e+002, 1.889407e+002
6.020009e+002, 1.875659e+002
6.024830e+002, 1.865893e+002
6.029651e+002, 1.860001e+002
6.034473e+002, 1.850852e+002
6.039294e+002, 1.833748e+002
6.044115e+002, 1.816723e+002
6.048936e+002, 1.802832e+002
6.053757e+002, 1.793090e+002
6.058578e+002, 1.791374e+002
6.063400e+002, 1.798796e+002
6.068221e+002, 1.806706e+002
6.073042e+002, 1.801697e+002
6.077863e+002, 1.780842e+002
6.082684e+002, 1.766408e+002
6.087505e+002, 1.762908e+002
6.092327e+002, 1.760953e+002
6.097148e+002, 1.757283e+002
6.101969e+002, 1.753834e+002
6.106790e+002, 1.753742e+002
6.111611e+002, 1.757950e+002
6.116432e+002, 1.762512e+002
6.121254e+002, 1.764153e+002
6.126075e+002, 1.763367e+002
6.130896e+002, 1.761058e+002
6.135717e+002, 1.756940e+002
6.140538e+002, 1.754094e+002
6.145359e+002, 1.754718e+002
6.150181e+002, 1.757772e+002
6.155002e+002, 1.760390e+002
6.159823e+002, 1.763277e+002
6.164644e+002, 1.764264e+002
6.169465e+002, 1.759995e+002
6.174286e+002, 1.755799e+002
6.179108e+002, 1.756976e+002
6.183929e+002, 1.762719e+002
6.188750e+002, 1.768778e+002
6.193571e+002, 1.772543e+002
6.198392e+002, 1.774636e+002
6.203214e+002, 1.776613e+002
6.208035e+002, 1.778447e+002
6.212856e+002, 1.780286e+002
6.217677e+002, 1.782682e+002
6.222498e+002, 1.784566e+002
6.227319e+002, 1.784941e+002
6.232141e+002, 1.784379e+002
6.236962e+002, 1.784482e+002
6.241783e+002, 1.786505e+002
6.246604e+002, 1.788244e+002
6.251425e+002, 1.787439e+002
6.256246e+002, 1.784554e+002
6.261068e+002, 1.780716e+002
6.265889e+002, 1.775977e+002
6.270710e+002, 1.771965e+002
6.275531e+002, 1.770333e+002
6.280352e+002, 1.770984e+002
6.285173e+002, 1.771629e+002
6.289995e+002, 1.774978e+002
6.294816e+002, 1.774872e+002
6.299637e+002, 1.767204e+002
6.304458e+002, 1.757283e+002
6.309279e+002, 1.750831e+002
6.314100e+002, 1.748059e+002
6.318922e+002, 1.744406e+002
6.323743e+002, 1.735410e+002
6.328564e+002, 1.723140e+002
6.333385e+002, 1.715967e+002
6.338206e+002, 1.715440e+002
6.343027e+002, 1.713491e+002
6.347849e+002, 1.705954e+002
6.352670e+002, 1.697913e+002
6.357491e+002, 1.695055e+002
6.362312e+002, 1.696768e+002
6.367133e+002, 1.696823e+002
6.371954e+002, 1.691132e+002
6.376776e+002, 1.684993e+002
6.381597e+002, 1.683183e+002
6.386418e+002, 1.684268e+002
6.391239e+002, 1.685180e+002
6.396060e+002, 1.684911e+002
6.400881e+002, 1.682168e+002
6.405703e+002, 1.674595e+002
6.410524e+002, 1.661404e+002
6.415345e+002, 1.652905e+002
6.420166e+002, 1.654743e+002
6.424987e+002, 1.654762e+002
6.429808e+002, 1.649515e+002
6.434630e+002, 1.641935e+002
6.439451e+002, 1.634527e+002
6.444272e+002, 1.627988e+002
6.449093e+002, 1.622558e+002
6.453914e+002, 1.619251e+002
6.458735e+002, 1.617012e+002
6.463557e+002, 1.612872e+002
6.468378e+002, 1.606677e+002
6.473199e+002, 1.601566e+002
6.478020e+002, 1.599480e+002
6.482841e+002, 1.598161e+002
6.487662e+002, 1.593457e+002
6.492484e+002, 1.584416e+002
6.497305e+002, 1.577420e+002
6.502126e+002, 1.574094e+002
6.506947e+002, 1.571814e+002
6.511768e+002, 1.569489e+002
6.516589e+002, 1.567084e+002
6.521411e+002, 1.564454e+002
6.526232e+002, 1.561631e+002
6.531053e+002, 1.559675e+002
6.535874e+002, 1.561103e+002
6.540695e+002, 1.566001e+002
6.545516e+002, 1.564961e+002
6.550338e+002, 1.553970e+002
6.555159e+002, 1.545096e+002
6.559980e+002, 1.547098e+002
6.564801e+002, 1.552244e+002
6.569622e+002, 1.551408e+002
6.574443e+002, 1.543116e+002
6.579265e+002, 1.535945e+002
6.584086e+002, 1.534830e+002
6.588907e+002, 1.535999e+002
6.593728e+002, 1.535592e+002
6.598549e+002, 1.533655e+002
6.603370e+002, 1.531445e+002
6.608192e+002, 1.529508e+002
6.613013e+002, 1.527855e+002
6.617834e+002, 1.526477e+002
6.622655e+002, 1.525217e+002
6.627476e+002, 1.524807e+002
6.632297e+002, 1.526596e+002
6.637119e+002, 1.527755e+002
6.641940e+002, 1.527095e+002
6.646761e+002, 1.525444e+002
6.651582e+002, 1.523999e+002
6.656403e+002, 1.523080e+002
6.661224e+002, 1.521853e+002
6.666046e+002, 1.519510e+002
6.670867e+002, 1.516379e+002
6.675688e+002, 1.512658e+002
6.680509e+002, 1.508375e+002
6.685330e+002, 1.506111e+002
6.690151e+002, 1.507980e+002
6.694973e+002, 1.511388e+002
6.699794e+002, 1.510996e+002
6.704615e+002, 1.504964e+002
6.709436e+002, 1.500013e+002
6.714257e+002, 1.496801e+002
6.719078e+002, 1.494124e+002
6.723900e+002, 1.490973e+002
6.728721e+002, 1.488034e+002
6.733542e+002, 1.486850e+002
6.738363e+002, 1.487895e+002
6.743184e+002, 1.489328e+002
6.748005e+002, 1.488455e+002
6.752827e+002, 1.485646e+002
6.757648e+002, 1.484709e+002
6.762469e+002, 1.485933e+002
6.767290e+002, 1.488448e+002
6.772111e+002, 1.493365e+002
6.776932e+002, 1.498361e+002
6.781754e+002, 1.499122e+002
6.786575e+002, 1.494795e+002
6.791396e+002, 1.491101e+002
6.796217e+002, 1.490426e+002
6.801038e+002, 1.489914e+002
6.805859e+002, 1.487072e+002
6.810681e+002, 1.482701e+002
6.815502e+002, 1.478499e+002
6.820323e+002, 1.475213e+002
6.825144e+002, 1.473494e+002
6.829965e+002, 1.474212e+002
6.834786e+002, 1.477352e+002
6.839608e+002, 1.483766e+002
6.844429e+002, 1.497395e+002
6.849250e+002, 1.507106e+002
6.854071e+002, 1.507657e+002
6.858892e+002, 1.502328e+002
6.863713e+002, 1.492154e+002
6.868535e+002, 1.476853e+002
6.873356e+002, 1.465892e+002
6.878177e+002, 1.466967e+002
6.882998e+002, 1.471697e+002
6.887819e+002, 1.471579e+002
6.892640e+002, 1.467553e+002
6.897462e+002, 1.463962e+002
6.902283e+002, 1.462483e+002
6.907104e+002, 1.462018e+002
6.911925e+002, 1.460932e+002
6.916746e+002, 1.459026e+002
6.921567e+002, 1.458288e+002
6.926389e+002, 1.459248e+002
6.931210e+002, 1.460713e+002
6.936031e+002, 1.463014e+002
6.940852e+002, 1.465253e+002
6.945673e+002, 1.466565e+002
6.950494e+002, 1.466846e+002
6.955316e+002, 1.466461e+002
6.960137e+002, 1.465251e+002
6.964958e+002, 1.463734e+002
6.969779e+002, 1.462656e+002
6.974600e+002, 1.461919e+002
6.979421e+002, 1.461204e+002
6.984243e+002, 1.460494e+002
6.989064e+002, 1.458934e+002
6.993885e+002, 1.455135e+002
6.998706e+002, 1.448780e+002
7.003527e+002, 1.444376e+002
7.008348e+002, 1.442550e+002
7.013170e+002, 1.441996e+002
7.017991e+002, 1.443323e+002
7.022812e+002, 1.445287e+002
7.027633e+002, 1.447557e+002
7.032454e+002, 1.449614e+002
7.037275e+002, 1.449419e+002
7.042097e+002, 1.443464e+002
7.046918e+002, 1.436421e+002
7.051739e+002, 1.437128e+002
7.056560e+002, 1.444097e+002
7.061381e+002, 1.446966e+002
7.066202e+002, 1.442193e+002
7.071024e+002, 1.436597e+002
7.075845e+002, 1.437620e+002
7.080666e+002, 1.445098e+002
7.085487e+002, 1.448997e+002
7.090308e+002, 1.446632e+002
7.095129e+002, 1.444428e+002
7.099951e+002, 1.442872e+002
7.104772e+002, 1.442163e+002
7.109593e+002, 1.443046e+002
7.114414e+002, 1.445023e+002
7.119235e+002, 1.446230e+002
7.124056e+002, 1.445220e+002
7.128878e+002, 1.443625e+002
7.133699e+002, 1.444735e+002
7.138520e+002, 1.447939e+002
7.143341e+002, 1.448647e+002
7.148162e+002, 1.445751e+002
7.152983e+002, 1.441390e+002
7.157805e+002, 1.436421e+002
7.162626e+002, 1.431470e+002
7.167447e+002, 1.430148e+002
7.172268e+002, 1.436599e+002
7.177089e+002, 1.440519e+002
7.181910e+002, 1.439032e+002
7.186732e+002, 1.436552e+002
7.191553e+002, 1.435925e+002
7.196374e+002, 1.437014e+002
7.201195e+002, 1.438858e+002
7.206016e+002, 1.441155e+002
7.210837e+002, 1.442983e+002
7.215659e+002, 1.443063e+002
7.220480e+002, 1.441560e+002
7.225301e+002, 1.439170e+002
7.230122e+002, 1.435802e+002
7.234943e+002, 1.432312e+002
7.239764e+002, 1.428576e+002
7.244586e+002, 1.425508e+002
7.249407e+002, 1.425646e+002
7.254228e+002, 1.430329e+002
7.259049e+002, 1.434824e+002
7.263870e+002, 1.440933e+002
7.268691e+002, 1.444731e+002
7.273513e+002, 1.442609e+002
7.278334e+002, 1.437117e+002
7.283155e+002, 1.432262e+002
7.287976e+002, 1.429433e+002
7.292797e+002, 1.428096e+002
7.297618e+002, 1.428254e+002
7.302440e+002, 1.429469e+002
7.307261e+002, 1.430345e+002
7.312082e+002, 1.430900e+002
7.316903e+002, 1.430128e+002
7.321724e+002, 1.426823e+002
7.326545e+002, 1.423441e+002
7.331367e+002, 1.424205e+002
7.336188e+002, 1.430487e+002
7.341009e+002, 1.432893e+002
7.345830e+002, 1.427605e+002
7.350651e+002, 1.423058e+002
7.355472e+002, 1.422533e+002
7.360294e+002, 1.424054e+002
7.365115e+002, 1.425897e+002
7.369936e+002, 1.427383e+002
7.374757e+002, 1.427574e+002
7.379578e+002, 1.425114e+002
7.384399e+002, 1.421525e+002
7.389221e+002, 1.419814e+002
7.394042e+002, 1.419917e+002
7.398863e+002, 1.421128e+002
7.403684e+002, 1.423686e+002
7.408505e+002, 1.425681e+002
7.413326e+002, 1.425092e+002
7.418148e+002, 1.422181e+002
7.422969e+002, 1.419981e+002
7.427790e+002, 1.418373e+002
7.432611e+002, 1.417583e+002
7.437432e+002, 1.419159e+002
7.442253e+002, 1.420301e+002
7.447075e+002, 1.417430e+002
7.451896e+002, 1.412355e+002
7.456717e+002, 1.410685e+002
7.461538e+002, 1.415773e+002
7.466359e+002, 1.422080e+002
7.471180e+002, 1.421896e+002
7.476002e+002, 1.417305e+002
7.480823e+002, 1.416436e+002
7.485644e+002, 1.420356e+002
7.490465e+002, 1.424058e+002
7.495286e+002, 1.424753e+002
7.500107e+002, 1.423077e+002
7.504929e+002, 1.420338e+002
7.509750e+002, 1.415288e+002
7.514571e+002, 1.412302e+002
7.519392e+002, 1.412445e+002
7.524213e+002, 1.413288e+002
7.529034e+002, 1.415295e+002
7.533856e+002, 1.416763e+002
7.538677e+002, 1.414639e+002
7.543498e+002, 1.408476e+002
7.548319e+002, 1.403119e+002
7.553140e+002, 1.402988e+002
7.557961e+002, 1.405515e+002
7.562783e+002, 1.407092e+002
7.567604e+002, 1.407552e+002
7.572425e+002, 1.405952e+002
7.577246e+002, 1.401766e+002
7.582067e+002, 1.397641e+002
7.586888e+002, 1.396880e+002
7.591710e+002, 1.399447e+002
7.596531e+002, 1.401013e+002
7.601352e+002, 1.400995e+002
7.606173e+002, 1.400822e+002
7.610994e+002, 1.400357e+002
7.615815e+002, 1.400097e+002
7.620637e+002, 1.400440e+002
7.625458e+002, 1.401312e+002
7.630279e+002, 1.402409e+002
7.635100e+002, 1.403752e+002
7.639921e+002, 1.405014e+002
7.644742e+002, 1.405844e+002
7.649564e+002, 1.406441e+002
7.654385e+002, 1.407439e+002
7.659206e+002, 1.408760e+002
7.664027e+002, 1.409111e+002
7.668848e+002, 1.407544e+002
7.673669e+002, 1.405106e+002
7.678491e+002, 1.404394e+002
7.683312e+002, 1.405988e+002
7.688133e+002, 1.407283e+002
7.692954e+002, 1.409360e+002
7.697775e+002, 1.409498e+002
7.702596e+002, 1.404973e+002
7.707418e+002, 1.398623e+002
7.712239e+002, 1.393840e+002
7.717060e+002, 1.390930e+002
7.721881e+002, 1.389890e+002
7.726702e+002, 1.392279e+002
7.731523e+002, 1.395110e+002
7.736345e+002, 1.396042e+002
7.741166e+002, 1.395523e+002
7.745987e+002, 1.394269e+002
7.750808e+002, 1.392668e+002
7.755629e+002, 1.391803e+002
7.760450e+002, 1.392921e+002
7.765272e+002, 1.395594e+002
7.770093e+002, 1.397842e+002
7.774914e+002, 1.399662e+002
7.779735e+002, 1.401247e+002
7.784556e+002, 1.403291e+002
7.789377e+002, 1.404105e+002
7.794199e+002, 1.400611e+002
7.799020e+002, 1.394242e+002
7.803841e+002, 1.392015e+002
7.808662e+002, 1.395099e+002
7.813483e+002, 1.400986e+002
7.818304e+002, 1.415461e+002
7.823126e+002, 1.427272e+002
7.827947e+002, 1.423533e+002
7.832768e+002, 1.409393e+002
7.837589e+002, 1.399772e+002
7.842410e+002, 1.401482e+002
7.847231e+002, 1.406510e+002
7.852053e+002, 1.404595e+002
7.856874e+002, 1.397708e+002
7.861695e+002, 1.393437e+002
7.866516e+002, 1.392215e+002
7.871337e+002, 1.393232e+002
7.876158e+002, 1.396732e+002
7.880980e+002, 1.400954e+002
7.885801e+002, 1.403453e+002
7.890622e+002, 1.404284e+002
7.895443e+002, 1.402907e+002
7.900264e+002, 1.396412e+002
7.905085e+002, 1.391536e+002
7.909907e+002, 1.390401e+002
7.914728e+002, 1.391030e+002
7.919549e+002, 1.391669e+002
7.924370e+002, 1.392245e+002
7.929191e+002, 1.393724e+002
7.934012e+002, 1.397514e+002
7.938834e+002, 1.400902e+002
7.943655e+002, 1.400619e+002
7.948476e+002, 1.398099e+002
7.953297e+002, 1.396306e+002
7.958118e+002, 1.395651e+002
7.962939e+002, 1.395099e+002
7.967761e+002, 1.393832e+002
7.972582e+002, 1.392814e+002
7.977403e+002, 1.395280e+002
7.982224e+002, 1.403421e+002
7.987045e+002, 1.405073e+002
7.991866e+002, 1.393210e+002
7.996688e+002, 1.385486e+002
8.001509e+002, 1.395788e+002
8.006330e+002, 1.411717e+002
8.011151e+002, 1.418600e+002
8.015972e+002, 1.415185e+002
8.020793e+002, 1.408179e+002
8.025615e+002, 1.394913e+002
8.030436e+002, 1.383380e+002
8.035257e+002, 1.378951e+002
8.040078e+002, 1.379321e+002
8.044899e+002, 1.382021e+002
8.049720e+002, 1.385853e+002
8.054542e+002, 1.388754e+002
8.059363e+002, 1.388732e+002
8.064184e+002, 1.387375e+002
8.069005e+002, 1.388758e+002
8.073826e+002, 1.392690e+002
8.078647e+002, 1.394788e+002
8.083469e+002, 1.394106e+002
8.088290e+002, 1.392496e+002
8.093111e+002, 1.391080e+002
8.097932e+002, 1.389774e+002
8.102753e+002, 1.388297e+002
8.107574e+002, 1.385955e+002
8.112396e+002, 1.384879e+002
8.117217e+002, 1.385727e+002
8.122038e+002, 1.387073e+002
8.126859e+002, 1.389255e+002
8.131680e+002, 1.391126e+002
8.136501e+002, 1.390962e+002
8.141323e+002, 1.388531e+002
8.146144e+002, 1.385795e+002
8.150965e+002, 1.382900e+002
8.155786e+002, 1.381161e+002
8.160607e+002, 1.383289e+002
8.165428e+002, 1.387704e+002
8.170250e+002, 1.390321e+002
8.175071e+002, 1.390203e+002
8.179892e+002, 1.388582e+002
8.184713e+002, 1.386254e+002
8.189534e+002, 1.383663e+002
8.194355e+002, 1.382675e+002
8.199177e+002, 1.383816e+002
8.203998e+002, 1.383899e+002
8.208819e+002, 1.381427e+002
8.213640e+002, 1.379836e+002
8.218461e+002, 1.383173e+002
8.223282e+002, 1.388127e+002
8.228104e+002, 1.387375e+002
8.232925e+002, 1.378391e+002
8.237746e+002, 1.372971e+002
8.242567e+002, 1.376219e+002
8.247388e+002, 1.380656e+002
8.252209e+002, 1.382832e+002
8.257031e+002, 1.383088e+002
8.261852e+002, 1.381821e+002
8.266673e+002, 1.379410e+002
8.271494e+002, 1.377123e+002
8.276315e+002, 1.376158e+002
8.281136e+002, 1.375649e+002
8.285958e+002, 1.373840e+002
8.290779e+002, 1.371073e+002
8.295600e+002, 1.368668e+002
8.300421e+002, 1.366839e+002
8.305242e+002, 1.367091e+002
8.310063e+002, 1.371035e+002
8.314885e+002, 1.377017e+002
8.319706e+002, 1.379728e+002
8.324527e+002, 1.377481e+002
8.329348e+002, 1.376460e+002
8.334169e+002, 1.378108e+002
8.338990e+002, 1.379189e+002
8.343812e+002, 1.377761e+002
8.348633e+002, 1.375460e+002
8.353454e+002, 1.374393e+002
8.358275e+002, 1.374791e+002
8.363096e+002, 1.375132e+002
8.367917e+002, 1.374526e+002
8.372739e+002, 1.374148e+002
8.377560e+002, 1.375829e+002
8.382381e+002, 1.377640e+002
8.387202e+002, 1.376468e+002
8.392023e+002, 1.372299e+002
8.396844e+002, 1.367449e+002
8.401666e+002, 1.363101e+002
8.406487e+002, 1.360239e+002
8.411308e+002, 1.361612e+002
8.416129e+002, 1.366478e+002
8.420950e+002, 1.369717e+002
8.425771e+002, 1.370768e+002
8.430593e+002, 1.370364e+002
8.435414e+002, 1.368525e+002
8.440235e+002, 1.366257e+002
8.445056e+002, 1.365578e+002
8.449877e+002, 1.367115e+002
8.454698e+002, 1.367060e+002
8.459520e+002, 1.362380e+002
8.464341e+002, 1.360170e+002
8.469162e+002, 1.365491e+002
8.473983e+002, 1.371260e+002
8.478804e+002, 1.370348e+002
8.483625e+002, 1.363673e+002
8.488447e+002, 1.358273e+002
8.493268e+002, 1.356011e+002
8.498089e+002, 1.356060e+002
8.502910e+002, 1.360123e+002
8.507731e+002, 1.364802e+002
8.512552e+002, 1.365379e+002
8.517374e+002, 1.362746e+002
8.522195e+002, 1.361606e+002
8.527016e+002, 1.364121e+002
8.531837e+002, 1.366410e+002
8.536658e+002, 1.361614e+002
8.541479e+002, 1.351994e+002
8.546301e+002, 1.349497e+002
8.551122e+002, 1.354455e+002
8.555943e+002, 1.357274e+002
8.560764e+002, 1.354276e+002
8.565585e+002, 1.349893e+002
8.570406e+002, 1.349341e+002
8.575228e+002, 1.352012e+002
8.580049e+002, 1.350203e+002
8.584870e+002, 1.338141e+002
8.589691e+002, 1.331511e+002
8.594512e+002, 1.335561e+002
8.599333e+002, 1.341181e+002
8.604155e+002, 1.345254e+002
8.608976e+002, 1.347060e+002
8.613797e+002, 1.344764e+002
8.618618e+002, 1.336989e+002
8.623439e+002, 1.331573e+002
8.628260e+002, 1.333434e+002
8.633082e+002, 1.337334e+002
8.637903e+002, 1.340638e+002
8.642724e+002, 1.342444e+002
8.647545e+002, 1.340990e+002
8.652366e+002, 1.336392e+002
8.657188e+002, 1.331535e+002
8.662009e+002, 1.328326e+002
8.666830e+002, 1.326785e+002
8.671651e+002, 1.327711e+002
8.676472e+002, 1.330579e+002
8.681293e+002, 1.332155e+002
8.686115e+002, 1.331938e+002
8.690936e+002, 1.330735e+002
8.695757e+002, 1.328852e+002
8.700578e+002, 1.326728e+002
8.705399e+002, 1.325381e+002
8.710220e+002, 1.325181e+002
8.715042e+002, 1.323808e+002
8.719863e+002, 1.320139e+002
8.724684e+002, 1.317125e+002
8.729505e+002, 1.316083e+002
8.734326e+002, 1.315796e+002
8.739147e+002, 1.315017e+002
8.743969e+002, 1.313956e+002
8.748790e+002, 1.314148e+002
8.753611e+002, 1.318287e+002
8.758432e+002, 1.320334e+002
8.763253e+002, 1.316860e+002
8.768074e+002, 1.311548e+002
8.772896e+002, 1.306031e+002
8.777717e+002, 1.301666e+002
8.782538e+002, 1.301250e+002
8.787359e+002, 1.305742e+002
8.792180e+002, 1.310561e+002
8.797001e+002, 1.311671e+002
8.801823e+002, 1.310148e+002
8.806644e+002, 1.306647e+002
8.811465e+002, 1.302118e+002
8.816286e+002, 1.301376e+002
8.821107e+002, 1.305526e+002
8.825928e+002, 1.308914e+002
8.830750e+002, 1.306224e+002
8.835571e+002, 1.299658e+002
8.840392e+002, 1.297144e+002
8.845213e+002, 1.299657e+002
8.850034e+002, 1.300510e+002
8.854855e+002, 1.298559e+002
8.859677e+002, 1.296277e+002
8.864498e+002, 1.294859e+002
8.869319e+002, 1.293925e+002
8.874140e+002, 1.292840e+002
8.878961e+002, 1.291575e+002
8.883782e+002, 1.290442e+002
8.888604e+002, 1.288712e+002
8.893425e+002, 1.288100e+002
8.898246e+002, 1.291088e+002
8.903067e+002, 1.293803e+002
8.907888e+002, 1.292280e+002
8.912709e+002, 1.287434e+002
8.917531e+002, 1.282851e+002
8.922352e+002, 1.279366e+002
8.927173e+002, 1.277769e+002
8.931994e+002, 1.280864e+002
8.936815e+002, 1.284483e+002
8.941636e+002, 1.283067e+002
8.946458e+002, 1.277983e+002
8.951279e+002, 1.272988e+002
8.956100e+002, 1.269529e+002
8.960921e+002, 1.268697e+002
8.965742e+002, 1.272799e+002
8.970563e+002, 1.278984e+002
8.975385e+002, 1.278618e+002
8.980206e+002, 1.272325e+002
8.985027e+002, 1.268805e+002
8.989848e+002, 1.269837e+002
8.994669e+002, 1.270524e+002
8.999490e+002, 1.267355e+002
9.004312e+002, 1.262397e+002
9.009133e+002, 1.260619e+002
9.013954e+002, 1.263117e+002
9.018775e+002, 1.263707e+002
9.023596e+002, 1.261608e+002
9.028417e+002, 1.258891e+002
9.033239e+002, 1.254599e+002
9.038060e+002, 1.251270e+002
9.042881e+002, 1.252556e+002
9.047702e+002, 1.257445e+002
9.052523e+002, 1.259348e+002
9.057344e+002, 1.253753e+002
9.062166e+002, 1.250646e+002
9.066987e+002, 1.255827e+002
9.071808e+002, 1.261064e+002
9.076629e+002, 1.258937e+002
9.081450e+002, 1.252990e+002
9.086271e+002, 1.250924e+002
9.091093e+002, 1.254588e+002
9.095914e+002, 1.257743e+002
9.100735e+002, 1.254802e+002
9.105556e+002, 1.250286e+002
9.110377e+002, 1.248862e+002
9.115198e+002, 1.249785e+002
9.120020e+002, 1.251936e+002
9.124841e+002, 1.254814e+002
9.129662e+002, 1.257361e+002
9.134483e+002, 1.258884e+002
9.139304e+002, 1.259935e+002
9.144125e+002, 1.262065e+002
9.148947e+002, 1.264852e+002
9.153768e+002, 1.264489e+002
9.158589e+002, 1.260690e+002
9.163410e+002, 1.256461e+002
9.168231e+002, 1.252423e+002
9.173052e+002, 1.250486e+002
9.177874e+002, 1.253547e+002
9.182695e+002, 1.260757e+002
9.187516e+002, 1.263389e+002
9.192337e+002, 1.258470e+002
9.197158e+002, 1.256228e+002
9.201979e+002, 1.259706e+002
9.206801e+002, 1.263345e+002
9.211622e+002, 1.263345e+002
9.216443e+002, 1.261869e+002
9.221264e+002, 1.262520e+002
9.226085e+002, 1.265759e+002
9.230906e+002, 1.268436e+002
9.235728e+002, 1.268909e+002
9.240549e+002, 1.270241e+002
9.245370e+002, 1.274849e+002
9.250191e+002, 1.279816e+002
9.255012e+002, 1.281540e+002
9.259833e+002, 1.281061e+002
9.264655e+002, 1.282741e+002
9.269476e+002, 1.288775e+002
9.274297e+002, 1.294735e+002
9.279118e+002, 1.296686e+002
9.283939e+002, 1.297636e+002
9.288760e+002, 1.302012e+002
9.293582e+002, 1.307927e+002
9.298403e+002, 1.310242e+002
9.303224e+002, 1.308029e+002
9.308045e+002, 1.305089e+002
9.312866e+002, 1.304099e+002
9.317687e+002, 1.305022e+002
9.322509e+002, 1.309026e+002
9.327330e+002, 1.315066e+002
9.332151e+002, 1.317660e+002
9.336972e+002, 1.316403e+002
9.341793e+002, 1.315853e+002
9.346614e+002, 1.318129e+002
9.351436e+002, 1.323307e+002
9.356257e+002, 1.332504e+002
9.361078e+002, 1.345246e+002
9.365899e+002, 1.350542e+002
9.370720e+002, 1.345783e+002
9.375541e+002, 1.344239e+002
9.380363e+002, 1.349672e+002
9.385184e+002, 1.356618e+002
9.390005e+002, 1.361306e+002
9.394826e+002, 1.364463e+002
9.399647e+002, 1.368205e+002
9.404468e+002, 1.372749e+002
9.409290e+002, 1.377220e+002
9.414111e+002, 1.381886e+002
9.418932e+002, 1.386158e+002
9.423753e+002, 1.388900e+002
9.428574e+002, 1.391910e+002
9.433395e+002, 1.397955e+002
9.438217e+002, 1.406083e+002
9.443038e+002, 1.411210e+002
9.447859e+002, 1.410426e+002
9.452680e+002, 1.410014e+002
9.457501e+002, 1.412024e+002
9.462322e+002, 1.415432e+002
9.467144e+002, 1.421001e+002
9.471965e+002, 1.426781e+002
9.476786e+002, 1.428762e+002
9.481607e+002, 1.426743e+002
9.486428e+002, 1.426672e+002
9.491249e+002, 1.434287e+002
9.496071e+002, 1.442953e+002
9.500892e+002, 1.443920e+002
9.505713e+002, 1.442221e+002
9.510534e+002, 1.447036e+002
9.515355e+002, 1.457918e+002
9.520176e+002, 1.469080e+002
9.524998e+002, 1.477884e+002
9.529819e+002, 1.484395e+002
9.534640e+002, 1.486475e+002
9.539461e+002, 1.487131e+002
9.544282e+002, 1.497363e+002
9.549103e+002, 1.515750e+002
9.553925e+002, 1.530233e+002
9.558746e+002, 1.538341e+002
9.563567e+002, 1.547673e+002
9.568388e+002, 1.563947e+002
9.573209e+002, 1.583374e+002
9.578030e+002, 1.596831e+002
9.582852e+002, 1.603281e+002
9.587673e+002, 1.616618e+002
9.592494e+002, 1.638818e+002
9.597315e+002, 1.659583e+002
9.602136e+002, 1.674475e+002
9.606957e+002, 1.689720e+002
9.611779e+002, 1.711322e+002
9.616600e+002, 1.738370e+002
9.621421e+002, 1.765550e+002
9.626242e+002, 1.792983e+002
9.631063e+002, 1.820307e+002
9.635884e+002, 1.848323e+002
9.640706e+002, 1.875106e+002
9.645527e+002, 1.902485e+002
9.650348e+002, 1.926628e+002
9.655169e+002, 1.941972e+002
9.659990e+002, 1.948997e+002
9.664811e+002, 1.956253e+002
9.669633e+002, 1.968988e+002
9.674454e+002, 1.976179e+002
9.679275e+002, 1.976037e+002
9.684096e+002, 1.968913e+002
9.688917e+002, 1.950919e+002
9.693738e+002, 1.927865e+002
9.698560e+002, 1.908161e+002
9.703381e+002, 1.893517e+002
9.708202e+002, 1.882269e+002
9.713023e+002, 1.876257e+002
9.717844e+002, 1.870368e+002
9.722665e+002, 1.859830e+002
9.727487e+002, 1.848533e+002
9.732308e+002, 1.841757e+002
9.737129e+002, 1.838568e+002
9.741950e+002, 1.834351e+002
9.746771e+002, 1.827344e+002
9.751592e+002, 1.821527e+002
9.756414e+002, 1.819767e+002
9.761235e+002, 1.821845e+002
9.766056e+002, 1.828857e+002
9.770877e+002, 1.839101e+002
9.775698e+002, 1.848300e+002
9.780519e+002, 1.856095e+002
9.785341e+002, 1.865499e+002
9.790162e+002, 1.878356e+002
9.794983e+002, 1.892607e+002
9.799804e+002, 1.906256e+002
9.804625e+002, 1.918762e+002
9.809446e+002, 1.928234e+002
9.814268e+002, 1.934590e+002
9.819089e+002, 1.938292e+002
9.823910e+002, 1.939492e+002
9.828731e+002, 1.934822e+002
9.833552e+002, 1.921103e+002
9.838373e+002, 1.901121e+002
9.843195e+002, 1.881650e+002
9.848016e+002, 1.862801e+002
9.852837e+002, 1.843163e+002
9.857658e+002, 1.823219e+002
9.862479e+002, 1.799340e+002
9.867300e+002, 1.769390e+002
9.872122e+002, 1.737409e+002
9.876943e+002, 1.706669e+002
9.881764e+002, 1.677318e+002
9.886585e+002, 1.650234e+002
9.891406e+002, 1.625463e+002
9.896227e+002, 1.602423e+002
9.901049e+002, 1.579511e+002
9.905870e+002, 1.561360e+002
9.910691e+002, 1.552345e+002
9.915512e+002, 1.546680e+002
9.920333e+002, 1.537435e+002
9.925154e+002, 1.524748e+002
9.929976e+002, 1.512261e+002
9.934797e+002, 1.498553e+002
9.939618e+002, 1.487217e+002
9.944439e+002, 1.480251e+002
9.949260e+002, 1.473603e+002
9.954081e+002, 1.465114e+002
9.958903e+002, 1.455921e+002
9.963724e+002, 1.447013e+002
9.968545e+002, 1.438539e+002
9.973366e+002, 1.432727e+002
9.978187e+002, 1.431245e+002
9.983008e+002, 1.430752e+002
9.987830e+002, 1.432052e+002
9.992651e+002, 1.432304e+002
9.997472e+002, 1.427455e+002
1.000229e+003, 1.420903e+002
1.000711e+003, 1.419165e+002
1.001194e+003, 1.423382e+002
1.001676e+003, 1.427180e+002
1.002158e+003, 1.425222e+002
1.002640e+003, 1.425184e+002
1.003122e+003, 1.433522e+002
1.003604e+003, 1.444409e+002
1.004086e+003, 1.451983e+002
1.004568e+003, 1.456825e+002
1.005050e+003, 1.461917e+002
1.005533e+003, 1.468205e+002
1.006015e+003, 1.474717e+002
1.006497e+003, 1.480133e+002
1.006979e+003, 1.486098e+002
1.007461e+003, 1.495469e+002
1.007943e+003, 1.505797e+002
1.008425e+003, 1.513906e+002
1.008907e+003, 1.519184e+002
1.009390e+003, 1.521186e+002
1.009872e+003, 1.519754e+002
1.010354e+003, 1.516413e+002
1.010836e+003, 1.511006e+002
1.011318e+003, 1.505729e+002
1.011800e+003, 1.505376e+002
1.012282e+003, 1.507788e+002
1.012764e+003, 1.508030e+002
1.013246e+003, 1.505221e+002
1.013729e+003, 1.499549e+002
1.014211e+003, 1.491002e+002
1.014693e+003, 1.482236e+002
1.015175e+003, 1.475970e+002
1.015657e+003, 1.472419e+002
1.016139e+003, 1.473257e+002
1.016621e+003, 1.477625e+002
1.017103e+003, 1.481451e+002
1.017586e+003, 1.483866e+002
1.018068e+003, 1.484585e+002
1.018550e+003, 1.483208e+002
1.019032e+003, 1.482097e+002
1.019514e+003, 1.486812e+002
1.019996e+003, 1.495805e+002
1.020478e+003, 1.496622e+002
1.020960e+003, 1.489520e+002
1.021442e+003, 1.484740e+002
1.021925e+003, 1.484871e+002
1.022407e+003, 1.482598e+002
1.022889e+003, 1.472196e+002
1.023371e+003, 1.458770e+002
1.023853e+003, 1.452942e+002
1.024335e+003, 1.454796e+002
1.024817e+003, 1.455578e+002
1.025299e+003, 1.455145e+002
1.025781e+003, 1.454076e+002
1.026264e+003, 1.451665e+002
1.026746e+003, 1.452378e+002
1.027228e+003, 1.460073e+002
1.027710e+003, 1.472141e+002
1.028192e+003, 1.482326e+002
1.028674e+003, 1.490076e+002
1.029156e+003, 1.499876e+002
1.029638e+003, 1.511881e+002
1.030120e+003, 1.524910e+002
1.030603e+003, 1.537357e+002
1.031085e+003, 1.553530e+002
1.031567e+003, 1.576115e+002
1.032049e+003, 1.605304e+002
1.032531e+003, 1.642147e+002
1.033013e+003, 1.687784e+002
1.033495e+003, 1.736464e+002
1.033977e+003, 1.788887e+002
1.034460e+003, 1.842497e+002
1.034942e+003, 1.892975e+002
1.035424e+003, 1.949699e+002
1.035906e+003, 2.020495e+002
1.036388e+003, 2.102685e+002
1.036870e+003, 2.189267e+002
1.037352e+003, 2.281028e+002
1.037834e+003, 2.373276e+002
1.038317e+003, 2.475921e+002
1.038799e+003, 2.563494e+002
1.039281e+003, 2.629942e+002
1.039763e+003, 2.679972e+002
1.040245e+003, 2.720237e+002
1.040727e+003, 2.746747e+002
1.041209e+003, 2.748932e+002
1.041691e+003, 2.724903e+002
1.042173e+003, 2.682503e+002
1.042656e+003, 2.616650e+002
1.043138e+003, 2.538971e+002
1.043620e+003, 2.446391e+002
1.044102e+003, 2.348309e+002
1.044584e+003, 2.247133e+002
1.045066e+003, 2.146515e+002
1.045548e+003, 2.056824e+002
1.046030e+003, 1.981139e+002
1.046512e+003, 1.906693e+002
1.046995e+003, 1.827822e+002
1.047477e+003, 1.755719e+002
1.047959e+003, 1.692787e+002
1.048441e+003, 1.638565e+002
1.048923e+003, 1.595860e+002
1.049405e+003, 1.561043e+002
1.049887e+003, 1.525894e+002
1.050369e+003, 1.488611e+002
1.050852e+003, 1.455195e+002
1.051334e+003, 1.425909e+002
1.051816e+003, 1.401626e+002
1.052298e+003, 1.384387e+002
1.052780e+003, 1.370555e+002
1.053262e+003, 1.358218e+002
1.053744e+003, 1.346613e+002
1.054226e+003, 1.334472e+002
1.054708e+003, 1.321379e+002
1.055191e+003, 1.309140e+002
1.055673e+003, 1.298548e+002
1.056155e+003, 1.288473e+002
1.056637e+003, 1.277959e+002
1.057119e+003, 1.268248e+002
1.057601e+003, 1.260168e+002
1.058083e+003, 1.253758e+002
1.058565e+003, 1.248966e+002
1.059047e+003, 1.245825e+002
1.059530e+003, 1.243885e+002
1.060012e+003, 1.244486e+002
1.060494e+003, 1.244364e+002
1.060976e+003, 1.242794e+002
1.061458e+003, 1.239347e+002
1.061940e+003, 1.231461e+002
1.062422e+003, 1.222225e+002
1.062904e+003, 1.218015e+002
1.063387e+003, 1.220003e+002
1.063869e+003, 1.221106e+002
1.064351e+003, 1.217523e+002
1.064833e+003, 1.214035e+002
1.065315e+003, 1.213486e+002
1.065797e+003, 1.213250e+002
1.066279e+003, 1.211089e+002
1.066761e+003, 1.207640e+002
1.067244e+003, 1.204222e+002
1.067726e+003, 1.201101e+002
1.068208e+003, 1.198089e+002
1.068690e+003, 1.194735e+002
1.069172e+003, 1.191969e+002
1.069654e+003, 1.189877e+002
1.070136e+003, 1.188876e+002
1.070618e+003, 1.190645e+002
1.071100e+003, 1.193114e+002
1.071583e+003, 1.192444e+002
1.072065e+003, 1.188469e+002
1.072547e+003, 1.185456e+002
1.073029e+003, 1.185581e+002
1.073511e+003, 1.186164e+002
1.073993e+003, 1.186216e+002
1.074475e+003, 1.185965e+002
1.074957e+003, 1.185770e+002
1.075439e+003, 1.185286e+002
1.075922e+003, 1.183893e+002
1.076404e+003, 1.181622e+002
1.076886e+003, 1.178975e+002
1.077368e+003, 1.175077e+002
1.077850e+003, 1.173262e+002
1.078332e+003, 1.177747e+002
1.078814e+003, 1.182060e+002
1.079297e+003, 1.180402e+002
1.079779e+003, 1.176378e+002
1.080261e+003, 1.175079e+002
1.080743e+003, 1.176505e+002
1.081225e+003, 1.177430e+002
1.081707e+003, 1.176503e+002
1.082189e+003, 1.175913e+002
1.082671e+003, 1.177133e+002
1.083153e+003, 1.178479e+002
1.083635e+003, 1.177676e+002
1.084118e+003, 1.177241e+002
1.084600e+003, 1.181285e+002
1.085082e+003, 1.188387e+002
1.085564e+003, 1.192986e+002
1.086046e+003, 1.193168e+002
1.086528e+003, 1.192728e+002
1.087010e+003, 1.193933e+002
1.087492e+003, 1.194172e+002
1.087975e+003, 1.190670e+002
1.088457e+003, 1.186555e+002
1.088939e+003, 1.185687e+002
1.089421e+003, 1.186755e+002
1.089903e+003, 1.185543e+002
1.090385e+003, 1.180859e+002
1.090867e+003, 1.177083e+002
1.091349e+003, 1.174928e+002
1.091832e+003, 1.175282e+002
1.092314e+003, 1.181213e+002
1.092796e+003, 1.187399e+002
1.093278e+003, 1.189049e+002
1.093760e+003, 1.187629e+002
1.094242e+003, 1.186066e+002
1.094724e+003, 1.184912e+002
1.095206e+003, 1.184992e+002
1.095688e+003, 1.186865e+002
1.096171e+003, 1.189605e+002
1.096653e+003, 1.195467e+002
1.097135e+003, 1.199423e+002
1.097617e+003, 1.195407e+002
1.098099e+003, 1.188658e+002
1.098581e+003, 1.187567e+002
1.099063e+003, 1.192463e+002
1.099545e+003, 1.196203e+002
1.100027e+003, 1.196602e+002
1.100510e+003, 1.196505e+002
1.100992e+003, 1.194054e+002
1.101474e+003, 1.194252e+002
1.101956e+003, 1.204165e+002
1.102438e+003, 1.215116e+002
1.102920e+003, 1.214808e+002
1.103402e+003, 1.205547e+002
1.103884e+003, 1.202723e+002
1.104367e+003, 1.212913e+002
1.104849e+003, 1.219140e+002
1.105331e+003, 1.215991e+002
1.105813e+003, 1.211510e+002
1.106295e+003, 1.207325e+002
1.106777e+003, 1.204378e+002
1.107259e+003, 1.203798e+002
1.107741e+003, 1.205047e+002
1.108224e+003, 1.205785e+002
1.108706e+003, 1.203945e+002
1.109188e+003, 1.209228e+002
1.109670e+003, 1.234599e+002
1.110152e+003, 1.250310e+002
1.110634e+003, 1.244025e+002
1.111116e+003, 1.231617e+002
1.111598e+003, 1.221393e+002
1.112080e+003, 1.213124e+002
1.112563e+003, 1.206234e+002
1.113045e+003, 1.200784e+002
1.113527e+003, 1.196131e+002
1.114009e+003, 1.190471e+002
1.114491e+003, 1.188569e+002
1.114973e+003, 1.192694e+002
1.115455e+003, 1.198361e+002
1.115937e+003, 1.205835e+002
1.116419e+003, 1.211613e+002
1.116902e+003, 1.209130e+002
1.117384e+003, 1.199630e+002
1.117866e+003, 1.198417e+002
1.118348e+003, 1.210752e+002
1.118830e+003, 1.219158e+002
1.119312e+003, 1.222312e+002
1.119794e+003, 1.222880e+002
1.120276e+003, 1.220626e+002
1.120759e+003, 1.217803e+002
1.121241e+003, 1.215630e+002
1.121723e+003, 1.215076e+002
1.122205e+003, 1.220307e+002
1.122687e+003, 1.233810e+002
1.123169e+003, 1.241053e+002
1.123651e+003, 1.239636e+002
1.124133e+003, 1.239972e+002
1.124615e+003, 1.244727e+002
1.125098e+003, 1.251380e+002
1.125580e+003, 1.258287e+002
1.126062e+003, 1.265796e+002
1.126544e+003, 1.274541e+002
1.127026e+003, 1.284489e+002
1.127508e+003, 1.295960e+002
1.127990e+003, 1.309566e+002
1.128472e+003, 1.318244e+002
1.128954e+003, 1.319765e+002
1.129437e+003, 1.325767e+002
1.129919e+003, 1.342825e+002
1.130401e+003, 1.362547e+002
1.130883e+003, 1.374890e+002
1.131365e+003, 1.381153e+002
1.131847e+003, 1.386258e+002
1.132329e+003, 1.390281e+002
1.132811e+003, 1.395170e+002
1.133294e+003, 1.400965e+002
1.133776e+003, 1.403074e+002
1.134258e+003, 1.399963e+002
1.134740e+003, 1.394956e+002
1.135222e+003, 1.390955e+002
1.135704e+003, 1.386330e+002
1.136186e+003, 1.378136e+002
1.136668e+003, 1.366561e+002
1.137151e+003, 1.351404e+002
1.137633e+003, 1.333529e+002
1.138115e+003, 1.316706e+002
1.138597e+003, 1.301799e+002
1.139079e+003, 1.287766e+002
1.139561e+003, 1.274121e+002
1.140043e+003, 1.260875e+002
1.140525e+003, 1.246509e+002
1.141007e+003, 1.233676e+002
1.141490e+003, 1.229777e+002
1.141972e+003, 1.230610e+002
1.142454e+003, 1.226748e+002
1.142936e+003, 1.218106e+002
1.143418e+003, 1.208638e+002
1.143900e+003, 1.199885e+002
1.144382e+003, 1.191854e+002
1.144864e+003, 1.183738e+002
1.145346e+003, 1.178065e+002
1.145829e+003, 1.180743e+002
1.146311e+003, 1.184964e+002
1.146793e+003, 1.180475e+002
1.147275e+003, 1.171293e+002
1.147757e+003, 1.166321e+002
1.148239e+003, 1.166454e+002
1.148721e+003, 1.167149e+002
1.149203e+003, 1.166897e+002
1.149686e+003, 1.164519e+002
1.150168e+003, 1.156033e+002
1.150650e+003, 1.148792e+002
1.151132e+003, 1.149922e+002
1.151614e+003, 1.153934e+002
1.152096e+003, 1.155172e+002
1.152578e+003, 1.153596e+002
1.153060e+003, 1.150235e+002
1.153542e+003, 1.145214e+002
1.154025e+003, 1.142430e+002
1.154507e+003, 1.144974e+002
1.154989e+003, 1.147535e+002
1.155471e+003, 1.150143e+002
1.155953e+003, 1.150144e+002
1.156435e+003, 1.143270e+002
1.156917e+003, 1.134295e+002
1.157399e+003, 1.129285e+002
1.157881e+003, 1.128552e+002
1.158364e+003, 1.130450e+002
1.158846e+003, 1.138038e+002
1.159328e+003, 1.142087e+002
1.159810e+003, 1.141396e+002
1.160292e+003, 1.137826e+002
1.160774e+003, 1.128965e+002
1.161256e+003, 1.120683e+002
1.161738e+003, 1.117804e+002
1.162221e+003, 1.118806e+002
1.162703e+003, 1.120461e+002
1.163185e+003, 1.123207e+002
1.163667e+003, 1.122691e+002
1.164149e+003, 1.117094e+002
1.164631e+003, 1.113621e+002
1.165113e+003, 1.113697e+002
1.165595e+003, 1.115201e+002
1.166078e+003, 1.117815e+002
1.166560e+003, 1.119488e+002
1.167042e+003, 1.117553e+002
1.167524e+003, 1.112593e+002
1.168006e+003, 1.106550e+002
1.168488e+003, 1.099197e+002
1.168970e+003, 1.097124e+002
1.169452e+003, 1.100861e+002
1.169934e+003, 1.102072e+002
1.170417e+003, 1.098228e+002
1.170899e+003, 1.096478e+002
1.171381e+003, 1.102497e+002
1.171863e+003, 1.110671e+002
1.172345e+003, 1.111218e+002
1.172827e+003, 1.106134e+002
1.173309e+003, 1.101101e+002
1.173791e+003, 1.096824e+002
1.174273e+003, 1.097304e+002
1.174756e+003, 1.101810e+002
1.175238e+003, 1.103531e+002
1.175720e+003, 1.100016e+002
1.176202e+003, 1.096777e+002
1.176684e+003, 1.099522e+002
1.177166e+003, 1.103031e+002
1.177648e+003, 1.099950e+002
1.178130e+003, 1.093997e+002
1.178613e+003, 1.090279e+002
1.179095e+003, 1.088235e+002
1.179577e+003, 1.085907e+002
1.180059e+003, 1.083060e+002
1.180541e+003, 1.080580e+002
1.181023e+003, 1.078857e+002
1.181505e+003, 1.077548e+002
1.181987e+003, 1.076580e+002
1.182469e+003, 1.075788e+002
1.182952e+003, 1.074507e+002
1.183434e+003, 1.073839e+002
1.183916e+003, 1.075782e+002
1.184398e+003, 1.078811e+002
1.184880e+003, 1.079811e+002
1.185362e+003, 1.078363e+002
1.185844e+003, 1.076574e+002
1.186326e+003, 1.074720e+002
1.186808e+003, 1.072891e+002
1.187291e+003, 1.070591e+002
1.187773e+003, 1.068953e+002
1.188255e+003, 1.068260e+002
1.188737e+003, 1.068661e+002
1.189219e+003, 1.071711e+002
1.189701e+003, 1.075650e+002
1.190183e+003, 1.074833e+002
1.190665e+003, 1.068259e+002
1.191148e+003, 1.061905e+002
1.191630e+003, 1.054976e+002
1.192112e+003, 1.050441e+002
1.192594e+003, 1.048888e+002
1.193076e+003, 1.049790e+002
1.193558e+003, 1.053519e+002
1.194040e+003, 1.057727e+002
1.194522e+003, 1.059384e+002
1.195005e+003, 1.059003e+002
1.195487e+003, 1.058877e+002
1.195969e+003, 1.058944e+002
1.196451e+003, 1.056817e+002
1.196933e+003, 1.052540e+002
1.197415e+003, 1.049704e+002
1.197897e+003, 1.049225e+002
1.198379e+003, 1.050432e+002
1.198861e+003, 1.053027e+002
1.199344e+003, 1.055513e+002
1.199826e+003, 1.056686e+002
1.200308e+003, 1.055791e+002
1.200790e+003, 1.048828e+002
1.201272e+003, 1.039591e+002
1.201754e+003, 1.037041e+002
1.202236e+003, 1.040202e+002
1.202718e+003, 1.043155e+002
1.203200e+003, 1.044240e+002
1.203683e+003, 1.045585e+002
1.204165e+003, 1.048816e+002
1.204647e+003, 1.051703e+002
1.205129e+003, 1.052670e+002
1.205611e+003, 1.052478e+002
1.206093e+003, 1.051067e+002
1.206575e+003, 1.049398e+002
1.207057e+003, 1.048715e+002
1.207540e+003, 1.048733e+002
1.208022e+003, 1.047931e+002
1.208504e+003, 1.045774e+002
1.208986e+003, 1.046002e+002
1.209468e+003, 1.054211e+002
1.209950e+003, 1.057854e+002
1.210432e+003, 1.049827e+002
1.210914e+003, 1.041754e+002
1.211396e+003, 1.039509e+002
1.211879e+003, 1.040126e+002
1.212361e+003, 1.041306e+002
1.212843e+003, 1.042619e+002
1.213325e+003, 1.041824e+002
1.213807e+003, 1.037338e+002
1.214289e+003, 1.039404e+002
1.214771e+003, 1.050983e+002
1.215253e+003, 1.056483e+002
1.215735e+003, 1.051512e+002
1.216218e+003, 1.046803e+002
1.216700e+003, 1.048371e+002
1.217182e+003, 1.051675e+002
1.217664e+003, 1.050986e+002
1.218146e+003, 1.047647e+002
1.218628e+003, 1.045625e+002
1.219110e+003, 1.044811e+002
1.219592e+003, 1.045030e+002
1.220075e+003, 1.045936e+002
1.220557e+003, 1.045772e+002
1.221039e+003, 1.044331e+002
1.221521e+003, 1.043377e+002
1.222003e+003, 1.043937e+002
1.222485e+003, 1.044153e+002
1.222967e+003, 1.040827e+002
1.223449e+003, 1.037484e+002
1.223932e+003, 1.039887e+002
1.224414e+003, 1.043444e+002
1.224896e+003, 1.040742e+002
1.225378e+003, 1.034899e+002
1.225860e+003, 1.033138e+002
1.226342e+003, 1.036278e+002
1.226824e+003, 1.040351e+002
1.227306e+003, 1.045114e+002
1.227788e+003, 1.047471e+002
1.228271e+003, 1.044832e+002
1.228753e+003, 1.041612e+002
1.229235e+003, 1.038431e+002
1.229717e+003, 1.036636e+002
1.230199e+003, 1.038437e+002
1.230681e+003, 1.041751e+002
1.231163e+003, 1.042419e+002
1.231645e+003, 1.040536e+002
1.232127e+003, 1.041174e+002
1.232610e+003, 1.046568e+002
1.233092e+003, 1.046990e+002
1.233574e+003, 1.039844e+002
1.234056e+003, 1.035772e+002
1.234538e+003, 1.038709e+002
1.235020e+003, 1.042014e+002
1.235502e+003, 1.040745e+002
1.235984e+003, 1.037150e+002
1.236467e+003, 1.034640e+002
1.236949e+003, 1.033392e+002
1.237431e+003, 1.035024e+002
1.237913e+003, 1.038647e+002
1.238395e+003, 1.039905e+002
1.238877e+003, 1.038951e+002
1.239359e+003, 1.039210e+002
1.239841e+003, 1.041384e+002
1.240323e+003, 1.042192e+002
1.240806e+003, 1.039123e+002
1.241288e+003, 1.036095e+002
1.241770e+003, 1.037337e+002
1.242252e+003, 1.039917e+002
1.242734e+003, 1.042079e+002
1.243216e+003, 1.042981e+002
1.243698e+003, 1.041181e+002
1.244180e+003, 1.037605e+002
1.244662e+003, 1.033543e+002
1.245145e+003, 1.029497e+002
1.245627e+003, 1.028277e+002
1.246109e+003, 1.033873e+002
1.246591e+003, 1.036364e+002
1.247073e+003, 1.031582e+002
1.247555e+003, 1.026803e+002
1.248037e+003, 1.023662e+002
1.248519e+003, 1.022388e+002
1.249002e+003, 1.023773e+002
1.249484e+003, 1.026553e+002
1.249966e+003, 1.028522e+002
1.250448e+003, 1.029693e+002
1.250930e+003, 1.030305e+002
1.251412e+003, 1.030312e+002
1.251894e+003, 1.030050e+002
1.252376e+003, 1.029499e+002
1.252859e+003, 1.029969e+002
1.253341e+003, 1.031847e+002
1.253823e+003, 1.034714e+002
1.254305e+003, 1.038464e+002
1.254787e+003, 1.041154e+002
1.255269e+003, 1.038195e+002
1.255751e+003, 1.033794e+002
1.256233e+003, 1.038033e+002
1.256715e+003, 1.045377e+002
1.257198e+003, 1.044343e+002
1.257680e+003, 1.037566e+002
1.258162e+003, 1.034046e+002
1.258644e+003, 1.035258e+002
1.259126e+003, 1.036682e+002
1.259608e+003, 1.036641e+002
1.260090e+003, 1.035730e+002
1.260572e+003, 1.033749e+002
1.261054e+003, 1.031608e+002
1.261537e+003, 1.028907e+002
1.262019e+003, 1.027081e+002
1.262501e+003, 1.026909e+002
1.262983e+003, 1.028517e+002
1.263465e+003, 1.033391e+002
1.263947e+003, 1.040562e+002
1.264429e+003, 1.042121e+002
1.264911e+003, 1.035161e+002
1.265394e+003, 1.033205e+002
1.265876e+003, 1.038143e+002
1.266358e+003, 1.039092e+002
1.266840e+003, 1.032892e+002
1.267322e+003, 1.027830e+002
1.267804e+003, 1.028535e+002
1.268286e+003, 1.031846e+002
1.268768e+003, 1.034394e+002
1.269250e+003, 1.035889e+002
1.269733e+003, 1.035283e+002
1.270215e+003, 1.033271e+002
1.270697e+003, 1.030854e+002
1.271179e+003, 1.028775e+002
1.271661e+003, 1.029191e+002
1.272143e+003, 1.031672e+002
1.272625e+003, 1.033335e+002
1.273107e+003, 1.033099e+002
1.273589e+003, 1.032173e+002
1.274072e+003, 1.029563e+002
1.274554e+003, 1.028839e+002
1.275036e+003, 1.034995e+002
1.275518e+003, 1.039968e+002
1.276000e+003, 1.037153e+002
1.276482e+003, 1.031251e+002
1.276964e+003, 1.027070e+002
1.277446e+003, 1.024693e+002
1.277929e+003, 1.022786e+002
1.278411e+003, 1.021077e+002
1.278893e+003, 1.023076e+002
1.279375e+003, 1.030456e+002
1.279857e+003, 1.035460e+002
1.280339e+003, 1.037231e+002
1.280821e+003, 1.036711e+002
1.281303e+003, 1.034045e+002
1.281786e+003, 1.031718e+002
1.282268e+003, 1.031441e+002
##END=



