##NAMES=Almandine
##RRUFFID=R120152
##IDEAL CHEMISTRY=Fe^2+^_3_Al_2_(SiO_4_)_3_
##LOCALITY=The garnet schist, Roxbury, Litchfield County, Connecticut, USA
##OWNER=RRUFF
##SOURCE=Eric Van Valkenburg
##DESCRIPTION=Dark brown dodecahedra
##STATUS=The identification of this mineral has been confirmed only by single crystal X-ray diffraction.
##URL=rruff.info/R120152
8.936163e+001, 0.000000e+000
8.984375e+001, 2.023889e+002
9.032587e+001, 2.026232e+002
9.080798e+001, 2.027439e+002
9.129010e+001, 2.029369e+002
9.177222e+001, 2.027922e+002
9.225433e+001, 2.016163e+002
9.273645e+001, 1.994777e+002
9.321857e+001, 1.971435e+002
9.370068e+001, 1.956100e+002
9.418280e+001, 1.944973e+002
9.466492e+001, 1.925352e+002
9.514703e+001, 1.886834e+002
9.562915e+001, 1.838138e+002
9.611127e+001, 1.803285e+002
9.659338e+001, 1.783680e+002
9.707550e+001, 1.772114e+002
9.755762e+001, 1.760610e+002
9.803973e+001, 1.749096e+002
9.852185e+001, 1.739490e+002
9.900397e+001, 1.735414e+002
9.948608e+001, 1.737138e+002
9.996820e+001, 1.728578e+002
1.004503e+002, 1.707049e+002
1.009324e+002, 1.678101e+002
1.014146e+002, 1.653290e+002
1.018967e+002, 1.633770e+002
1.023788e+002, 1.614490e+002
1.028609e+002, 1.591439e+002
1.033430e+002, 1.561949e+002
1.038251e+002, 1.538151e+002
1.043073e+002, 1.522440e+002
1.047894e+002, 1.513402e+002
1.052715e+002, 1.504117e+002
1.057536e+002, 1.496013e+002
1.062357e+002, 1.486013e+002
1.067178e+002, 1.471061e+002
1.072000e+002, 1.442855e+002
1.076821e+002, 1.422151e+002
1.081642e+002, 1.416381e+002
1.086463e+002, 1.427484e+002
1.091284e+002, 1.426543e+002
1.096105e+002, 1.405534e+002
1.100927e+002, 1.375890e+002
1.105748e+002, 1.348482e+002
1.110569e+002, 1.317052e+002
1.115390e+002, 1.293905e+002
1.120211e+002, 1.285103e+002
1.125032e+002, 1.296221e+002
1.129854e+002, 1.301488e+002
1.134675e+002, 1.296655e+002
1.139496e+002, 1.284144e+002
1.144317e+002, 1.267323e+002
1.149138e+002, 1.237465e+002
1.153959e+002, 1.210587e+002
1.158781e+002, 1.195655e+002
1.163602e+002, 1.200885e+002
1.168423e+002, 1.203238e+002
1.173244e+002, 1.191483e+002
1.178065e+002, 1.170309e+002
1.182886e+002, 1.151652e+002
1.187708e+002, 1.142822e+002
1.192529e+002, 1.137327e+002
1.197350e+002, 1.130043e+002
1.202171e+002, 1.117378e+002
1.206992e+002, 1.105304e+002
1.211813e+002, 1.098842e+002
1.216635e+002, 1.097015e+002
1.221456e+002, 1.094626e+002
1.226277e+002, 1.090353e+002
1.231098e+002, 1.083146e+002
1.235919e+002, 1.071541e+002
1.240740e+002, 1.051702e+002
1.245562e+002, 1.029159e+002
1.250383e+002, 1.008468e+002
1.255204e+002, 9.895306e+001
1.260025e+002, 9.748437e+001
1.264846e+002, 9.683687e+001
1.269667e+002, 9.680569e+001
1.274489e+002, 9.687859e+001
1.279310e+002, 9.711790e+001
1.284131e+002, 9.726636e+001
1.288952e+002, 9.665866e+001
1.293773e+002, 9.515170e+001
1.298594e+002, 9.348394e+001
1.303416e+002, 9.263625e+001
1.308237e+002, 9.251358e+001
1.313058e+002, 9.236681e+001
1.317879e+002, 9.180775e+001
1.322700e+002, 9.089058e+001
1.327521e+002, 8.984760e+001
1.332343e+002, 8.864404e+001
1.337164e+002, 8.740562e+001
1.341985e+002, 8.629004e+001
1.346806e+002, 8.529588e+001
1.351627e+002, 8.444045e+001
1.356448e+002, 8.381847e+001
1.361270e+002, 8.343208e+001
1.366091e+002, 8.291257e+001
1.370912e+002, 8.215290e+001
1.375733e+002, 8.126270e+001
1.380554e+002, 8.059758e+001
1.385375e+002, 8.022498e+001
1.390197e+002, 7.987618e+001
1.395018e+002, 7.927197e+001
1.399839e+002, 7.830804e+001
1.404660e+002, 7.759767e+001
1.409481e+002, 7.738377e+001
1.414302e+002, 7.759789e+001
1.419124e+002, 7.727560e+001
1.423945e+002, 7.619361e+001
1.428766e+002, 7.488876e+001
1.433587e+002, 7.387576e+001
1.438408e+002, 7.322990e+001
1.443229e+002, 7.274900e+001
1.448051e+002, 7.246472e+001
1.452872e+002, 7.242753e+001
1.457693e+002, 7.215523e+001
1.462514e+002, 7.145480e+001
1.467335e+002, 7.063698e+001
1.472156e+002, 7.010108e+001
1.476978e+002, 7.012410e+001
1.481799e+002, 7.009338e+001
1.486620e+002, 6.981673e+001
1.491441e+002, 6.913371e+001
1.496262e+002, 6.865141e+001
1.501083e+002, 6.868954e+001
1.505905e+002, 6.888452e+001
1.510726e+002, 6.859129e+001
1.515547e+002, 6.716827e+001
1.520368e+002, 6.581664e+001
1.525189e+002, 6.490658e+001
1.530010e+002, 6.474142e+001
1.534832e+002, 6.451863e+001
1.539653e+002, 6.416677e+001
1.544474e+002, 6.372203e+001
1.549295e+002, 6.327137e+001
1.554116e+002, 6.278776e+001
1.558937e+002, 6.232729e+001
1.563759e+002, 6.191349e+001
1.568580e+002, 6.147747e+001
1.573401e+002, 6.118530e+001
1.578222e+002, 6.116833e+001
1.583043e+002, 6.134912e+001
1.587864e+002, 6.144213e+001
1.592686e+002, 6.137476e+001
1.597507e+002, 6.119263e+001
1.602328e+002, 6.092509e+001
1.607149e+002, 6.061525e+001
1.611970e+002, 6.018446e+001
1.616791e+002, 5.945024e+001
1.621613e+002, 5.849393e+001
1.626434e+002, 5.778467e+001
1.631255e+002, 5.764118e+001
1.636076e+002, 5.778306e+001
1.640897e+002, 5.796059e+001
1.645718e+002, 5.828759e+001
1.650540e+002, 5.847123e+001
1.655361e+002, 5.821643e+001
1.660182e+002, 5.754628e+001
1.665003e+002, 5.705720e+001
1.669824e+002, 5.726903e+001
1.674645e+002, 5.779065e+001
1.679467e+002, 5.813590e+001
1.684288e+002, 5.782560e+001
1.689109e+002, 5.747776e+001
1.693930e+002, 5.755518e+001
1.698751e+002, 5.808630e+001
1.703572e+002, 5.875360e+001
1.708394e+002, 5.964030e+001
1.713215e+002, 6.049683e+001
1.718036e+002, 6.089293e+001
1.722857e+002, 6.019427e+001
1.727678e+002, 5.918342e+001
1.732499e+002, 5.861240e+001
1.737321e+002, 5.854519e+001
1.742142e+002, 5.877351e+001
1.746963e+002, 5.939144e+001
1.751784e+002, 6.019477e+001
1.756605e+002, 6.070139e+001
1.761426e+002, 6.030082e+001
1.766248e+002, 5.957687e+001
1.771069e+002, 5.939331e+001
1.775890e+002, 5.991522e+001
1.780711e+002, 6.059796e+001
1.785532e+002, 6.083038e+001
1.790353e+002, 6.071820e+001
1.795175e+002, 6.063157e+001
1.799996e+002, 6.084142e+001
1.804817e+002, 6.121064e+001
1.809638e+002, 6.147439e+001
1.814459e+002, 6.158968e+001
1.819280e+002, 6.162766e+001
1.824102e+002, 6.162464e+001
1.828923e+002, 6.159956e+001
1.833744e+002, 6.167230e+001
1.838565e+002, 6.195244e+001
1.843386e+002, 6.239384e+001
1.848207e+002, 6.287171e+001
1.853029e+002, 6.339959e+001
1.857850e+002, 6.390923e+001
1.862671e+002, 6.427549e+001
1.867492e+002, 6.450230e+001
1.872313e+002, 6.471110e+001
1.877134e+002, 6.484301e+001
1.881956e+002, 6.497984e+001
1.886777e+002, 6.556142e+001
1.891598e+002, 6.680559e+001
1.896419e+002, 6.836575e+001
1.901240e+002, 6.953482e+001
1.906061e+002, 7.031825e+001
1.910883e+002, 7.087403e+001
1.915704e+002, 7.121636e+001
1.920525e+002, 7.138233e+001
1.925346e+002, 7.171089e+001
1.930167e+002, 7.227204e+001
1.934988e+002, 7.297341e+001
1.939810e+002, 7.345949e+001
1.944631e+002, 7.366109e+001
1.949452e+002, 7.393083e+001
1.954273e+002, 7.422157e+001
1.959094e+002, 7.453300e+001
1.963915e+002, 7.504420e+001
1.968737e+002, 7.587363e+001
1.973558e+002, 7.688749e+001
1.978379e+002, 7.759605e+001
1.983200e+002, 7.795447e+001
1.988021e+002, 7.822623e+001
1.992842e+002, 7.864927e+001
1.997664e+002, 7.923530e+001
2.002485e+002, 7.977884e+001
2.007306e+002, 8.022301e+001
2.012127e+002, 8.059605e+001
2.016948e+002, 8.105399e+001
2.021769e+002, 8.159866e+001
2.026591e+002, 8.222410e+001
2.031412e+002, 8.293809e+001
2.036233e+002, 8.375768e+001
2.041054e+002, 8.454288e+001
2.045875e+002, 8.515498e+001
2.050696e+002, 8.565970e+001
2.055518e+002, 8.679060e+001
2.060339e+002, 8.874404e+001
2.065160e+002, 9.086581e+001
2.069981e+002, 9.242791e+001
2.074802e+002, 9.327974e+001
2.079623e+002, 9.422081e+001
2.084445e+002, 9.543765e+001
2.089266e+002, 9.692583e+001
2.094087e+002, 9.850827e+001
2.098908e+002, 1.002654e+002
2.103729e+002, 1.019908e+002
2.108550e+002, 1.034726e+002
2.113372e+002, 1.046836e+002
2.118193e+002, 1.057052e+002
2.123014e+002, 1.065137e+002
2.127835e+002, 1.071027e+002
2.132656e+002, 1.078158e+002
2.137477e+002, 1.088439e+002
2.142299e+002, 1.097342e+002
2.147120e+002, 1.099172e+002
2.151941e+002, 1.092444e+002
2.156762e+002, 1.082877e+002
2.161583e+002, 1.070937e+002
2.166404e+002, 1.056482e+002
2.171226e+002, 1.044620e+002
2.176047e+002, 1.037245e+002
2.180868e+002, 1.030196e+002
2.185689e+002, 1.018139e+002
2.190510e+002, 9.995440e+001
2.195331e+002, 9.793379e+001
2.200153e+002, 9.579041e+001
2.204974e+002, 9.348755e+001
2.209795e+002, 9.137447e+001
2.214616e+002, 8.940881e+001
2.219437e+002, 8.765428e+001
2.224258e+002, 8.623107e+001
2.229080e+002, 8.541837e+001
2.233901e+002, 8.434457e+001
2.238722e+002, 8.266399e+001
2.243543e+002, 8.022231e+001
2.248364e+002, 7.838111e+001
2.253185e+002, 7.731510e+001
2.258007e+002, 7.669836e+001
2.262828e+002, 7.615955e+001
2.267649e+002, 7.581673e+001
2.272470e+002, 7.532047e+001
2.277291e+002, 7.458504e+001
2.282112e+002, 7.358511e+001
2.286934e+002, 7.242583e+001
2.291755e+002, 7.093188e+001
2.296576e+002, 6.942905e+001
2.301397e+002, 6.840154e+001
2.306218e+002, 6.810406e+001
2.311039e+002, 6.778994e+001
2.315861e+002, 6.724928e+001
2.320682e+002, 6.642425e+001
2.325503e+002, 6.574047e+001
2.330324e+002, 6.524799e+001
2.335145e+002, 6.485827e+001
2.339966e+002, 6.445872e+001
2.344788e+002, 6.405244e+001
2.349609e+002, 6.363660e+001
2.354430e+002, 6.319505e+001
2.359251e+002, 6.271227e+001
2.364072e+002, 6.232093e+001
2.368893e+002, 6.207629e+001
2.373715e+002, 6.187611e+001
2.378536e+002, 6.159619e+001
2.383357e+002, 6.121387e+001
2.388178e+002, 6.077528e+001
2.392999e+002, 6.021285e+001
2.397820e+002, 5.946339e+001
2.402642e+002, 5.914858e+001
2.407463e+002, 5.962026e+001
2.412284e+002, 6.022843e+001
2.417105e+002, 6.010958e+001
2.421926e+002, 5.874223e+001
2.426747e+002, 5.760413e+001
2.431569e+002, 5.715094e+001
2.436390e+002, 5.749920e+001
2.441211e+002, 5.754164e+001
2.446032e+002, 5.713262e+001
2.450853e+002, 5.654966e+001
2.455674e+002, 5.611443e+001
2.460496e+002, 5.589481e+001
2.465317e+002, 5.569981e+001
2.470138e+002, 5.550053e+001
2.474959e+002, 5.530136e+001
2.479780e+002, 5.503437e+001
2.484601e+002, 5.463472e+001
2.489423e+002, 5.423089e+001
2.494244e+002, 5.399326e+001
2.499065e+002, 5.408148e+001
2.503886e+002, 5.401353e+001
2.508707e+002, 5.359086e+001
2.513528e+002, 5.278713e+001
2.518350e+002, 5.234195e+001
2.523171e+002, 5.241972e+001
2.527992e+002, 5.268039e+001
2.532813e+002, 5.279875e+001
2.537634e+002, 5.277937e+001
2.542455e+002, 5.259325e+001
2.547277e+002, 5.214335e+001
2.552098e+002, 5.141840e+001
2.556919e+002, 5.103092e+001
2.561740e+002, 5.114599e+001
2.566561e+002, 5.138946e+001
2.571382e+002, 5.138041e+001
2.576204e+002, 5.096832e+001
2.581025e+002, 5.067234e+001
2.585846e+002, 5.062984e+001
2.590667e+002, 5.082483e+001
2.595488e+002, 5.093008e+001
2.600309e+002, 5.094658e+001
2.605131e+002, 5.087071e+001
2.609952e+002, 5.067672e+001
2.614773e+002, 5.030421e+001
2.619594e+002, 4.998418e+001
2.624415e+002, 4.977526e+001
2.629236e+002, 4.966245e+001
2.634058e+002, 4.948971e+001
2.638879e+002, 4.919478e+001
2.643700e+002, 4.894347e+001
2.648521e+002, 4.889589e+001
2.653342e+002, 4.914116e+001
2.658163e+002, 4.928931e+001
2.662985e+002, 4.926723e+001
2.667806e+002, 4.910058e+001
2.672627e+002, 4.889965e+001
2.677448e+002, 4.860273e+001
2.682269e+002, 4.840352e+001
2.687090e+002, 4.850959e+001
2.691912e+002, 4.903861e+001
2.696733e+002, 4.935756e+001
2.701554e+002, 4.933418e+001
2.706375e+002, 4.905793e+001
2.711196e+002, 4.887140e+001
2.716017e+002, 4.877155e+001
2.720839e+002, 4.876780e+001
2.725660e+002, 4.897022e+001
2.730481e+002, 4.947095e+001
2.735302e+002, 4.953249e+001
2.740123e+002, 4.891821e+001
2.744944e+002, 4.792725e+001
2.749766e+002, 4.745743e+001
2.754587e+002, 4.760238e+001
2.759408e+002, 4.790390e+001
2.764229e+002, 4.811341e+001
2.769050e+002, 4.822990e+001
2.773871e+002, 4.828856e+001
2.778693e+002, 4.828820e+001
2.783514e+002, 4.823659e+001
2.788335e+002, 4.811194e+001
2.793156e+002, 4.788667e+001
2.797977e+002, 4.774553e+001
2.802798e+002, 4.780833e+001
2.807620e+002, 4.807505e+001
2.812441e+002, 4.836246e+001
2.817262e+002, 4.864125e+001
2.822083e+002, 4.897334e+001
2.826904e+002, 4.966286e+001
2.831725e+002, 5.076701e+001
2.836547e+002, 5.140804e+001
2.841368e+002, 5.077804e+001
2.846189e+002, 4.904154e+001
2.851010e+002, 4.820656e+001
2.855831e+002, 4.846332e+001
2.860652e+002, 4.920847e+001
2.865474e+002, 4.962877e+001
2.870295e+002, 4.972892e+001
2.875116e+002, 4.972955e+001
2.879937e+002, 4.967273e+001
2.884758e+002, 4.957995e+001
2.889579e+002, 4.957910e+001
2.894401e+002, 4.967452e+001
2.899222e+002, 4.983519e+001
2.904043e+002, 5.007103e+001
2.908864e+002, 5.036573e+001
2.913685e+002, 5.058384e+001
2.918506e+002, 5.061609e+001
2.923328e+002, 5.053954e+001
2.928149e+002, 5.056137e+001
2.932970e+002, 5.068009e+001
2.937791e+002, 5.090576e+001
2.942612e+002, 5.131765e+001
2.947433e+002, 5.186538e+001
2.952255e+002, 5.233790e+001
2.957076e+002, 5.260878e+001
2.961897e+002, 5.279034e+001
2.966718e+002, 5.312181e+001
2.971539e+002, 5.359755e+001
2.976360e+002, 5.406385e+001
2.981182e+002, 5.428347e+001
2.986003e+002, 5.438523e+001
2.990824e+002, 5.469835e+001
2.995645e+002, 5.533106e+001
3.000466e+002, 5.619908e+001
3.005287e+002, 5.735329e+001
3.010109e+002, 5.872901e+001
3.014930e+002, 5.990306e+001
3.019751e+002, 6.033728e+001
3.024572e+002, 6.039721e+001
3.029393e+002, 6.068962e+001
3.034214e+002, 6.137386e+001
3.039036e+002, 6.228303e+001
3.043857e+002, 6.320693e+001
3.048678e+002, 6.418766e+001
3.053499e+002, 6.540684e+001
3.058320e+002, 6.730069e+001
3.063141e+002, 6.936304e+001
3.067963e+002, 7.081808e+001
3.072784e+002, 7.130659e+001
3.077605e+002, 7.191785e+001
3.082426e+002, 7.371025e+001
3.087247e+002, 7.634073e+001
3.092068e+002, 7.898674e+001
3.096890e+002, 8.119051e+001
3.101711e+002, 8.325036e+001
3.106532e+002, 8.551751e+001
3.111353e+002, 8.813500e+001
3.116174e+002, 9.035754e+001
3.120995e+002, 9.146357e+001
3.125817e+002, 9.186337e+001
3.130638e+002, 9.224050e+001
3.135459e+002, 9.310674e+001
3.140280e+002, 9.386614e+001
3.145101e+002, 9.419704e+001
3.149922e+002, 9.407833e+001
3.154744e+002, 9.355143e+001
3.159565e+002, 9.219469e+001
3.164386e+002, 9.058508e+001
3.169207e+002, 8.939566e+001
3.174028e+002, 8.913596e+001
3.178849e+002, 8.905092e+001
3.183671e+002, 8.884426e+001
3.188492e+002, 8.851598e+001
3.193313e+002, 8.825896e+001
3.198134e+002, 8.799757e+001
3.202955e+002, 8.790526e+001
3.207776e+002, 8.812080e+001
3.212598e+002, 8.854969e+001
3.217419e+002, 8.941602e+001
3.222240e+002, 9.105448e+001
3.227061e+002, 9.329061e+001
3.231882e+002, 9.522086e+001
3.236703e+002, 9.629709e+001
3.241525e+002, 9.728327e+001
3.246346e+002, 9.857690e+001
3.251167e+002, 1.002208e+002
3.255988e+002, 1.021827e+002
3.260809e+002, 1.047070e+002
3.265630e+002, 1.075715e+002
3.270452e+002, 1.101766e+002
3.275273e+002, 1.120629e+002
3.280094e+002, 1.140222e+002
3.284915e+002, 1.163793e+002
3.289736e+002, 1.193998e+002
3.294557e+002, 1.221626e+002
3.299379e+002, 1.243668e+002
3.304200e+002, 1.264196e+002
3.309021e+002, 1.289232e+002
3.313842e+002, 1.319202e+002
3.318663e+002, 1.353322e+002
3.323484e+002, 1.392203e+002
3.328306e+002, 1.435622e+002
3.333127e+002, 1.480046e+002
3.337948e+002, 1.522973e+002
3.342769e+002, 1.569339e+002
3.347590e+002, 1.624072e+002
3.352411e+002, 1.688957e+002
3.357233e+002, 1.759109e+002
3.362054e+002, 1.832534e+002
3.366875e+002, 1.910073e+002
3.371696e+002, 1.994549e+002
3.376517e+002, 2.085624e+002
3.381339e+002, 2.183953e+002
3.386160e+002, 2.288228e+002
3.390981e+002, 2.398419e+002
3.395802e+002, 2.518822e+002
3.400623e+002, 2.652293e+002
3.405444e+002, 2.795421e+002
3.410266e+002, 2.929131e+002
3.415087e+002, 3.054505e+002
3.419908e+002, 3.173987e+002
3.424729e+002, 3.294774e+002
3.429550e+002, 3.415707e+002
3.434371e+002, 3.518166e+002
3.439193e+002, 3.601301e+002
3.444014e+002, 3.662217e+002
3.448835e+002, 3.695749e+002
3.453656e+002, 3.701895e+002
3.458477e+002, 3.677707e+002
3.463298e+002, 3.620673e+002
3.468120e+002, 3.531696e+002
3.472941e+002, 3.412740e+002
3.477762e+002, 3.260145e+002
3.482583e+002, 3.092150e+002
3.487404e+002, 2.925407e+002
3.492225e+002, 2.760123e+002
3.497047e+002, 2.596861e+002
3.501868e+002, 2.431245e+002
3.506689e+002, 2.270440e+002
3.511510e+002, 2.124569e+002
3.516331e+002, 1.994223e+002
3.521152e+002, 1.875959e+002
3.525974e+002, 1.768450e+002
3.530795e+002, 1.670786e+002
3.535616e+002, 1.581312e+002
3.540437e+002, 1.499515e+002
3.545258e+002, 1.426072e+002
3.550079e+002, 1.361009e+002
3.554901e+002, 1.304449e+002
3.559722e+002, 1.255496e+002
3.564543e+002, 1.215668e+002
3.569364e+002, 1.182306e+002
3.574185e+002, 1.152413e+002
3.579006e+002, 1.125784e+002
3.583828e+002, 1.101843e+002
3.588649e+002, 1.079400e+002
3.593470e+002, 1.059251e+002
3.598291e+002, 1.042775e+002
3.603112e+002, 1.031622e+002
3.607933e+002, 1.023551e+002
3.612755e+002, 1.017239e+002
3.617576e+002, 1.012545e+002
3.622397e+002, 1.009689e+002
3.627218e+002, 1.009707e+002
3.632039e+002, 1.011253e+002
3.636860e+002, 1.012829e+002
3.641682e+002, 1.014182e+002
3.646503e+002, 1.015376e+002
3.651324e+002, 1.015808e+002
3.656145e+002, 1.015578e+002
3.660966e+002, 1.017060e+002
3.665787e+002, 1.022050e+002
3.670609e+002, 1.027999e+002
3.675430e+002, 1.033274e+002
3.680251e+002, 1.037280e+002
3.685072e+002, 1.041199e+002
3.689893e+002, 1.045988e+002
3.694714e+002, 1.050877e+002
3.699536e+002, 1.053239e+002
3.704357e+002, 1.054687e+002
3.709178e+002, 1.051872e+002
3.713999e+002, 1.042954e+002
3.718820e+002, 1.025148e+002
3.723641e+002, 1.008325e+002
3.728463e+002, 9.934367e+001
3.733284e+002, 9.790844e+001
3.738105e+002, 9.625103e+001
3.742926e+002, 9.418872e+001
3.747747e+002, 9.233115e+001
3.752568e+002, 9.103991e+001
3.757390e+002, 9.032144e+001
3.762211e+002, 8.857872e+001
3.767032e+002, 8.546545e+001
3.771853e+002, 8.200764e+001
3.776674e+002, 7.914027e+001
3.781495e+002, 7.691912e+001
3.786317e+002, 7.469197e+001
3.791138e+002, 7.226083e+001
3.795959e+002, 6.976940e+001
3.800780e+002, 6.760182e+001
3.805601e+002, 6.578570e+001
3.810422e+002, 6.411325e+001
3.815244e+002, 6.245361e+001
3.820065e+002, 6.080799e+001
3.824886e+002, 5.927401e+001
3.829707e+002, 5.785328e+001
3.834528e+002, 5.652979e+001
3.839349e+002, 5.519373e+001
3.844171e+002, 5.388231e+001
3.848992e+002, 5.279988e+001
3.853813e+002, 5.227008e+001
3.858634e+002, 5.194795e+001
3.863455e+002, 5.114352e+001
3.868276e+002, 4.982105e+001
3.873098e+002, 4.848103e+001
3.877919e+002, 4.752618e+001
3.882740e+002, 4.684367e+001
3.887561e+002, 4.623623e+001
3.892382e+002, 4.561141e+001
3.897203e+002, 4.505096e+001
3.902025e+002, 4.462476e+001
3.906846e+002, 4.432845e+001
3.911667e+002, 4.413448e+001
3.916488e+002, 4.407198e+001
3.921309e+002, 4.408411e+001
3.926130e+002, 4.419884e+001
3.930952e+002, 4.465686e+001
3.935773e+002, 4.468679e+001
3.940594e+002, 4.356836e+001
3.945415e+002, 4.183109e+001
3.950236e+002, 4.045749e+001
3.955057e+002, 3.998362e+001
3.959879e+002, 3.972166e+001
3.964700e+002, 3.942388e+001
3.969521e+002, 3.906585e+001
3.974342e+002, 3.870962e+001
3.979163e+002, 3.830225e+001
3.983984e+002, 3.793102e+001
3.988806e+002, 3.767546e+001
3.993627e+002, 3.765105e+001
3.998448e+002, 3.761762e+001
4.003269e+002, 3.756663e+001
4.008090e+002, 3.749194e+001
4.012911e+002, 3.734863e+001
4.017733e+002, 3.708995e+001
4.022554e+002, 3.681666e+001
4.027375e+002, 3.658548e+001
4.032196e+002, 3.642936e+001
4.037017e+002, 3.622026e+001
4.041838e+002, 3.590728e+001
4.046660e+002, 3.558069e+001
4.051481e+002, 3.544173e+001
4.056302e+002, 3.554192e+001
4.061123e+002, 3.563265e+001
4.065944e+002, 3.558429e+001
4.070765e+002, 3.541172e+001
4.075587e+002, 3.550469e+001
4.080408e+002, 3.594289e+001
4.085229e+002, 3.634478e+001
4.090050e+002, 3.620988e+001
4.094871e+002, 3.558342e+001
4.099692e+002, 3.512862e+001
4.104514e+002, 3.502320e+001
4.109335e+002, 3.512931e+001
4.114156e+002, 3.522620e+001
4.118977e+002, 3.530564e+001
4.123798e+002, 3.528196e+001
4.128619e+002, 3.503282e+001
4.133441e+002, 3.465328e+001
4.138262e+002, 3.432978e+001
4.143083e+002, 3.409132e+001
4.147904e+002, 3.386433e+001
4.152725e+002, 3.346458e+001
4.157546e+002, 3.302393e+001
4.162368e+002, 3.280630e+001
4.167189e+002, 3.319081e+001
4.172010e+002, 3.366337e+001
4.176831e+002, 3.382150e+001
4.181652e+002, 3.366747e+001
4.186473e+002, 3.340616e+001
4.191295e+002, 3.296206e+001
4.196116e+002, 3.255479e+001
4.200937e+002, 3.240288e+001
4.205758e+002, 3.277619e+001
4.210579e+002, 3.309058e+001
4.215400e+002, 3.311065e+001
4.220222e+002, 3.293243e+001
4.225043e+002, 3.279350e+001
4.229864e+002, 3.278352e+001
4.234685e+002, 3.279281e+001
4.239506e+002, 3.276881e+001
4.244327e+002, 3.267800e+001
4.249149e+002, 3.266102e+001
4.253970e+002, 3.276566e+001
4.258791e+002, 3.292148e+001
4.263612e+002, 3.305511e+001
4.268433e+002, 3.309201e+001
4.273254e+002, 3.323893e+001
4.278076e+002, 3.364505e+001
4.282897e+002, 3.422858e+001
4.287718e+002, 3.427093e+001
4.292539e+002, 3.339676e+001
4.297360e+002, 3.273829e+001
4.302181e+002, 3.324973e+001
4.307003e+002, 3.525500e+001
4.311824e+002, 3.615713e+001
4.316645e+002, 3.557641e+001
4.321466e+002, 3.432519e+001
4.326287e+002, 3.380188e+001
4.331108e+002, 3.402518e+001
4.335930e+002, 3.422537e+001
4.340751e+002, 3.408388e+001
4.345572e+002, 3.369950e+001
4.350393e+002, 3.336306e+001
4.355214e+002, 3.307446e+001
4.360035e+002, 3.287792e+001
4.364857e+002, 3.288124e+001
4.369678e+002, 3.300887e+001
4.374499e+002, 3.306195e+001
4.379320e+002, 3.295301e+001
4.384141e+002, 3.284364e+001
4.388962e+002, 3.300061e+001
4.393784e+002, 3.331900e+001
4.398605e+002, 3.349133e+001
4.403426e+002, 3.321122e+001
4.408247e+002, 3.280335e+001
4.413068e+002, 3.248953e+001
4.417889e+002, 3.228421e+001
4.422711e+002, 3.226797e+001
4.427532e+002, 3.273206e+001
4.432353e+002, 3.330439e+001
4.437174e+002, 3.359855e+001
4.441995e+002, 3.329828e+001
4.446816e+002, 3.292437e+001
4.451638e+002, 3.246427e+001
4.456459e+002, 3.200179e+001
4.461280e+002, 3.188882e+001
4.466101e+002, 3.257980e+001
4.470922e+002, 3.329780e+001
4.475743e+002, 3.369712e+001
4.480565e+002, 3.363369e+001
4.485386e+002, 3.360020e+001
4.490207e+002, 3.361811e+001
4.495028e+002, 3.365274e+001
4.499849e+002, 3.364726e+001
4.504670e+002, 3.354668e+001
4.509492e+002, 3.353394e+001
4.514313e+002, 3.367400e+001
4.519134e+002, 3.394264e+001
4.523955e+002, 3.416273e+001
4.528776e+002, 3.432567e+001
4.533597e+002, 3.445823e+001
4.538419e+002, 3.458967e+001
4.543240e+002, 3.471761e+001
4.548061e+002, 3.473602e+001
4.552882e+002, 3.458317e+001
4.557703e+002, 3.445697e+001
4.562524e+002, 3.473402e+001
4.567346e+002, 3.535829e+001
4.572167e+002, 3.592822e+001
4.576988e+002, 3.628074e+001
4.581809e+002, 3.647657e+001
4.586630e+002, 3.655341e+001
4.591451e+002, 3.652320e+001
4.596273e+002, 3.659369e+001
4.601094e+002, 3.700046e+001
4.605915e+002, 3.757386e+001
4.610736e+002, 3.808914e+001
4.615557e+002, 3.847598e+001
4.620378e+002, 3.885544e+001
4.625200e+002, 3.926434e+001
4.630021e+002, 3.972737e+001
4.634842e+002, 4.028463e+001
4.639663e+002, 4.112136e+001
4.644484e+002, 4.191364e+001
4.649305e+002, 4.245264e+001
4.654127e+002, 4.271378e+001
4.658948e+002, 4.303236e+001
4.663769e+002, 4.335789e+001
4.668590e+002, 4.383376e+001
4.673411e+002, 4.456348e+001
4.678232e+002, 4.584703e+001
4.683054e+002, 4.701263e+001
4.687875e+002, 4.796849e+001
4.692696e+002, 4.879497e+001
4.697517e+002, 4.967044e+001
4.702338e+002, 5.049604e+001
4.707159e+002, 5.154900e+001
4.711981e+002, 5.296825e+001
4.716802e+002, 5.476774e+001
4.721623e+002, 5.657954e+001
4.726444e+002, 5.837653e+001
4.731265e+002, 6.019778e+001
4.736086e+002, 6.209568e+001
4.740908e+002, 6.406661e+001
4.745729e+002, 6.593705e+001
4.750550e+002, 6.774545e+001
4.755371e+002, 6.932729e+001
4.760192e+002, 7.035989e+001
4.765013e+002, 7.086781e+001
4.769835e+002, 7.102773e+001
4.774656e+002, 7.099548e+001
4.779477e+002, 7.066392e+001
4.784298e+002, 6.978497e+001
4.789119e+002, 6.834007e+001
4.793940e+002, 6.667747e+001
4.798762e+002, 6.497810e+001
4.803583e+002, 6.325325e+001
4.808404e+002, 6.150161e+001
4.813225e+002, 5.957267e+001
4.818046e+002, 5.780282e+001
4.822867e+002, 5.629677e+001
4.827689e+002, 5.507896e+001
4.832510e+002, 5.421171e+001
4.837331e+002, 5.377900e+001
4.842152e+002, 5.364813e+001
4.846973e+002, 5.377295e+001
4.851794e+002, 5.415772e+001
4.856616e+002, 5.474960e+001
4.861437e+002, 5.558681e+001
4.866258e+002, 5.660530e+001
4.871079e+002, 5.774987e+001
4.875900e+002, 5.885300e+001
4.880721e+002, 6.040447e+001
4.885543e+002, 6.253814e+001
4.890364e+002, 6.511319e+001
4.895185e+002, 6.766569e+001
4.900006e+002, 7.004945e+001
4.904827e+002, 7.279996e+001
4.909648e+002, 7.609071e+001
4.914470e+002, 7.992862e+001
4.919291e+002, 8.428598e+001
4.924112e+002, 8.915401e+001
4.928933e+002, 9.448722e+001
4.933754e+002, 1.002299e+002
4.938575e+002, 1.063987e+002
4.943397e+002, 1.129964e+002
4.948218e+002, 1.199515e+002
4.953039e+002, 1.273611e+002
4.957860e+002, 1.355933e+002
4.962681e+002, 1.443833e+002
4.967502e+002, 1.527874e+002
4.972324e+002, 1.608609e+002
4.977145e+002, 1.680607e+002
4.981966e+002, 1.742166e+002
4.986787e+002, 1.793682e+002
4.991608e+002, 1.823939e+002
4.996429e+002, 1.830536e+002
5.001251e+002, 1.811776e+002
5.006072e+002, 1.765439e+002
5.010893e+002, 1.675508e+002
5.015714e+002, 1.580019e+002
5.020535e+002, 1.483086e+002
5.025356e+002, 1.385981e+002
5.030178e+002, 1.291071e+002
5.034999e+002, 1.192085e+002
5.039820e+002, 1.100673e+002
5.044641e+002, 1.021537e+002
5.049462e+002, 9.549752e+001
5.054283e+002, 8.898772e+001
5.059105e+002, 8.235503e+001
5.063926e+002, 7.636299e+001
5.068747e+002, 7.174478e+001
5.073568e+002, 6.870902e+001
5.078389e+002, 6.566465e+001
5.083210e+002, 6.243668e+001
5.088032e+002, 5.930272e+001
5.092853e+002, 5.679293e+001
5.097674e+002, 5.488690e+001
5.102495e+002, 5.327007e+001
5.107316e+002, 5.185910e+001
5.112137e+002, 5.061449e+001
5.116959e+002, 4.944524e+001
5.121780e+002, 4.835987e+001
5.126601e+002, 4.734614e+001
5.131422e+002, 4.625768e+001
5.136243e+002, 4.529339e+001
5.141064e+002, 4.484652e+001
5.145886e+002, 4.519638e+001
5.150707e+002, 4.528746e+001
5.155528e+002, 4.398405e+001
5.160349e+002, 4.213276e+001
5.165170e+002, 4.093678e+001
5.169991e+002, 4.150832e+001
5.174813e+002, 4.205580e+001
5.179634e+002, 4.194322e+001
5.184455e+002, 4.123866e+001
5.189276e+002, 4.059783e+001
5.194097e+002, 4.000014e+001
5.198918e+002, 3.957442e+001
5.203740e+002, 3.942989e+001
5.208561e+002, 3.972668e+001
5.213382e+002, 3.975337e+001
5.218203e+002, 3.936903e+001
5.223024e+002, 3.887596e+001
5.227845e+002, 3.864960e+001
5.232667e+002, 3.875122e+001
5.237488e+002, 3.876165e+001
5.242309e+002, 3.856466e+001
5.247130e+002, 3.825787e+001
5.251951e+002, 3.810383e+001
5.256772e+002, 3.809859e+001
5.261594e+002, 3.807913e+001
5.266415e+002, 3.788303e+001
5.271236e+002, 3.761890e+001
5.276057e+002, 3.758269e+001
5.280878e+002, 3.778719e+001
5.285699e+002, 3.796595e+001
5.290521e+002, 3.775621e+001
5.295342e+002, 3.743557e+001
5.300163e+002, 3.740287e+001
5.304984e+002, 3.793621e+001
5.309805e+002, 3.845524e+001
5.314626e+002, 3.857360e+001
5.319448e+002, 3.845460e+001
5.324269e+002, 3.841466e+001
5.329090e+002, 3.865748e+001
5.333911e+002, 3.888387e+001
5.338732e+002, 3.893434e+001
5.343553e+002, 3.879335e+001
5.348375e+002, 3.885506e+001
5.353196e+002, 3.918880e+001
5.358017e+002, 3.966266e+001
5.362838e+002, 4.022617e+001
5.367659e+002, 4.095574e+001
5.372480e+002, 4.156628e+001
5.377302e+002, 4.202387e+001
5.382123e+002, 4.240385e+001
5.386944e+002, 4.276123e+001
5.391765e+002, 4.308654e+001
5.396586e+002, 4.357021e+001
5.401407e+002, 4.424897e+001
5.406229e+002, 4.512452e+001
5.411050e+002, 4.627113e+001
5.415871e+002, 4.766020e+001
5.420692e+002, 4.899443e+001
5.425513e+002, 4.996092e+001
5.430334e+002, 5.082154e+001
5.435156e+002, 5.198503e+001
5.439977e+002, 5.348600e+001
5.444798e+002, 5.510078e+001
5.449619e+002, 5.661464e+001
5.454440e+002, 5.816675e+001
5.459261e+002, 5.991404e+001
5.464083e+002, 6.197328e+001
5.468904e+002, 6.411977e+001
5.473725e+002, 6.610479e+001
5.478546e+002, 6.811331e+001
5.483367e+002, 7.058207e+001
5.488188e+002, 7.377601e+001
5.493010e+002, 7.723589e+001
5.497831e+002, 8.097156e+001
5.502652e+002, 8.497411e+001
5.507473e+002, 8.866962e+001
5.512294e+002, 9.205850e+001
5.517115e+002, 9.514636e+001
5.521937e+002, 9.789639e+001
5.526758e+002, 1.002647e+002
5.531579e+002, 1.028508e+002
5.536400e+002, 1.058599e+002
5.541221e+002, 1.085979e+002
5.546042e+002, 1.102579e+002
5.550864e+002, 1.108559e+002
5.555685e+002, 1.104482e+002
5.560506e+002, 1.089378e+002
5.565327e+002, 1.065885e+002
5.570148e+002, 1.035736e+002
5.574969e+002, 9.998800e+001
5.579791e+002, 9.617563e+001
5.584612e+002, 9.237054e+001
5.589433e+002, 8.842113e+001
5.594254e+002, 8.414632e+001
5.599075e+002, 7.950811e+001
5.603896e+002, 7.505919e+001
5.608718e+002, 7.092616e+001
5.613539e+002, 6.717696e+001
5.618360e+002, 6.388160e+001
5.623181e+002, 6.115281e+001
5.628002e+002, 5.872726e+001
5.632823e+002, 5.676310e+001
5.637645e+002, 5.500840e+001
5.642466e+002, 5.303725e+001
5.647287e+002, 5.061171e+001
5.652108e+002, 4.855268e+001
5.656929e+002, 4.706987e+001
5.661750e+002, 4.610132e+001
5.666572e+002, 4.540281e+001
5.671393e+002, 4.502399e+001
5.676214e+002, 4.457888e+001
5.681035e+002, 4.365721e+001
5.685856e+002, 4.245755e+001
5.690677e+002, 4.177567e+001
5.695499e+002, 4.166588e+001
5.700320e+002, 4.171322e+001
5.705141e+002, 4.150635e+001
5.709962e+002, 4.120597e+001
5.714783e+002, 4.108263e+001
5.719604e+002, 4.124805e+001
5.724426e+002, 4.150600e+001
5.729247e+002, 4.172964e+001
5.734068e+002, 4.195857e+001
5.738889e+002, 4.226908e+001
5.743710e+002, 4.263945e+001
5.748531e+002, 4.314035e+001
5.753353e+002, 4.388168e+001
5.758174e+002, 4.483400e+001
5.762995e+002, 4.561644e+001
5.767816e+002, 4.595683e+001
5.772637e+002, 4.642724e+001
5.777458e+002, 4.733775e+001
5.782280e+002, 4.880286e+001
5.787101e+002, 5.007648e+001
5.791922e+002, 5.113071e+001
5.796743e+002, 5.205516e+001
5.801564e+002, 5.301360e+001
5.806385e+002, 5.398406e+001
5.811207e+002, 5.463717e+001
5.816028e+002, 5.494296e+001
5.820849e+002, 5.482751e+001
5.825670e+002, 5.396183e+001
5.830491e+002, 5.254652e+001
5.835313e+002, 5.118457e+001
5.840134e+002, 5.047107e+001
5.844955e+002, 4.973092e+001
5.849776e+002, 4.813274e+001
5.854597e+002, 4.584892e+001
5.859418e+002, 4.386097e+001
5.864240e+002, 4.278881e+001
5.869061e+002, 4.203402e+001
5.873882e+002, 4.121091e+001
5.878703e+002, 4.021381e+001
5.883524e+002, 3.942804e+001
5.888345e+002, 3.904688e+001
5.893167e+002, 3.879823e+001
5.897988e+002, 3.848279e+001
5.902809e+002, 3.809730e+001
5.907630e+002, 3.762848e+001
5.912451e+002, 3.699812e+001
5.917272e+002, 3.635840e+001
5.922094e+002, 3.599982e+001
5.926915e+002, 3.593382e+001
5.931736e+002, 3.602273e+001
5.936557e+002, 3.628623e+001
5.941378e+002, 3.663076e+001
5.946199e+002, 3.691710e+001
5.951021e+002, 3.712040e+001
5.955842e+002, 3.705561e+001
5.960663e+002, 3.632656e+001
5.965484e+002, 3.540779e+001
5.970305e+002, 3.491061e+001
5.975126e+002, 3.489925e+001
5.979948e+002, 3.482061e+001
5.984769e+002, 3.425495e+001
5.989590e+002, 3.355068e+001
5.994411e+002, 3.301457e+001
5.999232e+002, 3.289373e+001
6.004053e+002, 3.263060e+001
6.008875e+002, 3.192055e+001
6.013696e+002, 3.110414e+001
6.018517e+002, 3.069262e+001
6.023338e+002, 3.098592e+001
6.028159e+002, 3.108473e+001
6.032980e+002, 3.074076e+001
6.037802e+002, 3.011078e+001
6.042623e+002, 2.976904e+001
6.047444e+002, 2.974514e+001
6.052265e+002, 2.977929e+001
6.057086e+002, 2.975811e+001
6.061907e+002, 2.968888e+001
6.066729e+002, 2.957632e+001
6.071550e+002, 2.942198e+001
6.076371e+002, 2.929624e+001
6.081192e+002, 2.931729e+001
6.086013e+002, 2.937653e+001
6.090834e+002, 2.929648e+001
6.095656e+002, 2.899439e+001
6.100477e+002, 2.878146e+001
6.105298e+002, 2.882108e+001
6.110119e+002, 2.904432e+001
6.114940e+002, 2.937577e+001
6.119761e+002, 3.010604e+001
6.124583e+002, 3.057282e+001
6.129404e+002, 3.048236e+001
6.134225e+002, 3.009665e+001
6.139046e+002, 2.999572e+001
6.143867e+002, 3.029306e+001
6.148688e+002, 3.064194e+001
6.153510e+002, 3.094633e+001
6.158331e+002, 3.121998e+001
6.163152e+002, 3.156690e+001
6.167973e+002, 3.199104e+001
6.172794e+002, 3.243034e+001
6.177615e+002, 3.283142e+001
6.182437e+002, 3.320976e+001
6.187258e+002, 3.360352e+001
6.192079e+002, 3.401527e+001
6.196900e+002, 3.449212e+001
6.201721e+002, 3.509045e+001
6.206542e+002, 3.577128e+001
6.211364e+002, 3.643663e+001
6.216185e+002, 3.690828e+001
6.221006e+002, 3.774081e+001
6.225827e+002, 3.977013e+001
6.230648e+002, 4.213439e+001
6.235469e+002, 4.362945e+001
6.240291e+002, 4.284837e+001
6.245112e+002, 4.263776e+001
6.249933e+002, 4.354120e+001
6.254754e+002, 4.529069e+001
6.259575e+002, 4.699202e+001
6.264396e+002, 4.867598e+001
6.269218e+002, 5.024970e+001
6.274039e+002, 5.163089e+001
6.278860e+002, 5.286507e+001
6.283681e+002, 5.428700e+001
6.288502e+002, 5.590783e+001
6.293323e+002, 5.742332e+001
6.298145e+002, 5.875014e+001
6.302966e+002, 5.977098e+001
6.307787e+002, 6.023175e+001
6.312608e+002, 6.008754e+001
6.317429e+002, 5.965875e+001
6.322250e+002, 5.931934e+001
6.327072e+002, 5.875917e+001
6.331893e+002, 5.760460e+001
6.336714e+002, 5.547569e+001
6.341535e+002, 5.325970e+001
6.346356e+002, 5.099963e+001
6.351177e+002, 4.885283e+001
6.355999e+002, 4.703196e+001
6.360820e+002, 4.571215e+001
6.365641e+002, 4.444209e+001
6.370462e+002, 4.318025e+001
6.375283e+002, 4.190885e+001
6.380104e+002, 4.049200e+001
6.384926e+002, 3.886325e+001
6.389747e+002, 3.744285e+001
6.394568e+002, 3.645844e+001
6.399389e+002, 3.580625e+001
6.404210e+002, 3.521381e+001
6.409031e+002, 3.467020e+001
6.413853e+002, 3.406614e+001
6.418674e+002, 3.316719e+001
6.423495e+002, 3.223713e+001
6.428316e+002, 3.165870e+001
6.433137e+002, 3.150107e+001
6.437958e+002, 3.133706e+001
6.442780e+002, 3.088047e+001
6.447601e+002, 3.035575e+001
6.452422e+002, 2.996424e+001
6.457243e+002, 2.983187e+001
6.462064e+002, 2.969599e+001
6.466885e+002, 2.960087e+001
6.471707e+002, 2.945879e+001
6.476528e+002, 2.909772e+001
6.481349e+002, 2.835529e+001
6.486170e+002, 2.791375e+001
6.490991e+002, 2.792253e+001
6.495812e+002, 2.827473e+001
6.500634e+002, 2.895320e+001
6.505455e+002, 2.990754e+001
6.510276e+002, 3.030783e+001
6.515097e+002, 2.910940e+001
6.519918e+002, 2.752950e+001
6.524739e+002, 2.781885e+001
6.529561e+002, 2.962076e+001
6.534382e+002, 3.108701e+001
6.539203e+002, 3.103662e+001
6.544024e+002, 3.033607e+001
6.548845e+002, 2.943360e+001
6.553666e+002, 2.834566e+001
6.558488e+002, 2.744694e+001
6.563309e+002, 2.685399e+001
6.568130e+002, 2.645731e+001
6.572951e+002, 2.621064e+001
6.577772e+002, 2.621512e+001
6.582593e+002, 2.607327e+001
6.587415e+002, 2.569680e+001
6.592236e+002, 2.531649e+001
6.597057e+002, 2.526689e+001
6.601878e+002, 2.553815e+001
6.606699e+002, 2.563075e+001
6.611520e+002, 2.541109e+001
6.616342e+002, 2.509043e+001
6.621163e+002, 2.498166e+001
6.625984e+002, 2.501356e+001
6.630805e+002, 2.499539e+001
6.635626e+002, 2.475850e+001
6.640447e+002, 2.453906e+001
6.645269e+002, 2.454610e+001
6.650090e+002, 2.470903e+001
6.654911e+002, 2.482108e+001
6.659732e+002, 2.478888e+001
6.664553e+002, 2.472453e+001
6.669374e+002, 2.463718e+001
6.674196e+002, 2.453376e+001
6.679017e+002, 2.453745e+001
6.683838e+002, 2.472513e+001
6.688659e+002, 2.487639e+001
6.693480e+002, 2.485965e+001
6.698301e+002, 2.467800e+001
6.703123e+002, 2.457274e+001
6.707944e+002, 2.455721e+001
6.712765e+002, 2.451283e+001
6.717586e+002, 2.424140e+001
6.722407e+002, 2.387525e+001
6.727228e+002, 2.375427e+001
6.732050e+002, 2.395932e+001
6.736871e+002, 2.417059e+001
6.741692e+002, 2.411386e+001
6.746513e+002, 2.394357e+001
6.751334e+002, 2.383533e+001
6.756155e+002, 2.379736e+001
6.760977e+002, 2.387756e+001
6.765798e+002, 2.420577e+001
6.770619e+002, 2.461873e+001
6.775440e+002, 2.487649e+001
6.780261e+002, 2.495541e+001
6.785082e+002, 2.490854e+001
6.789904e+002, 2.467768e+001
6.794725e+002, 2.437442e+001
6.799546e+002, 2.433483e+001
6.804367e+002, 2.456285e+001
6.809188e+002, 2.472144e+001
6.814009e+002, 2.463128e+001
6.818831e+002, 2.440582e+001
6.823652e+002, 2.418419e+001
6.828473e+002, 2.399060e+001
6.833294e+002, 2.395538e+001
6.838115e+002, 2.439139e+001
6.842936e+002, 2.483091e+001
6.847758e+002, 2.488820e+001
6.852579e+002, 2.454141e+001
6.857400e+002, 2.423798e+001
6.862221e+002, 2.406951e+001
6.867042e+002, 2.399965e+001
6.871863e+002, 2.402545e+001
6.876685e+002, 2.418599e+001
6.881506e+002, 2.425839e+001
6.886327e+002, 2.420015e+001
6.891148e+002, 2.414172e+001
6.895969e+002, 2.424716e+001
6.900790e+002, 2.449792e+001
6.905612e+002, 2.456516e+001
6.910433e+002, 2.438434e+001
6.915254e+002, 2.417660e+001
6.920075e+002, 2.427821e+001
6.924896e+002, 2.452261e+001
6.929717e+002, 2.458658e+001
6.934539e+002, 2.429485e+001
6.939360e+002, 2.397756e+001
6.944181e+002, 2.378789e+001
6.949002e+002, 2.370597e+001
6.953823e+002, 2.370094e+001
6.958644e+002, 2.385786e+001
6.963466e+002, 2.398114e+001
6.968287e+002, 2.404184e+001
6.973108e+002, 2.405299e+001
6.977929e+002, 2.402615e+001
6.982750e+002, 2.392872e+001
6.987571e+002, 2.391960e+001
6.992393e+002, 2.406165e+001
6.997214e+002, 2.432249e+001
7.002035e+002, 2.446610e+001
7.006856e+002, 2.454707e+001
7.011677e+002, 2.505187e+001
7.016498e+002, 2.721853e+001
7.021320e+002, 2.937428e+001
7.026141e+002, 2.914727e+001
7.030962e+002, 2.677475e+001
7.035783e+002, 2.479081e+001
7.040604e+002, 2.467587e+001
7.045425e+002, 2.501790e+001
7.050247e+002, 2.499146e+001
7.055068e+002, 2.440848e+001
7.059889e+002, 2.421116e+001
7.064710e+002, 2.469262e+001
7.069531e+002, 2.518422e+001
7.074352e+002, 2.518769e+001
7.079174e+002, 2.463899e+001
7.083995e+002, 2.436968e+001
7.088816e+002, 2.443361e+001
7.093637e+002, 2.458485e+001
7.098458e+002, 2.450025e+001
7.103279e+002, 2.430863e+001
7.108101e+002, 2.439950e+001
7.112922e+002, 2.492660e+001
7.117743e+002, 2.535557e+001
7.122564e+002, 2.509631e+001
7.127385e+002, 2.458418e+001
7.132206e+002, 2.434629e+001
7.137028e+002, 2.482117e+001
7.141849e+002, 2.516650e+001
7.146670e+002, 2.520004e+001
7.151491e+002, 2.502917e+001
7.156312e+002, 2.472808e+001
7.161133e+002, 2.412385e+001
7.165955e+002, 2.391929e+001
7.170776e+002, 2.436166e+001
7.175597e+002, 2.511694e+001
7.180418e+002, 2.544811e+001
7.185239e+002, 2.539468e+001
7.190060e+002, 2.532569e+001
7.194882e+002, 2.543876e+001
7.199703e+002, 2.555063e+001
7.204524e+002, 2.531802e+001
7.209345e+002, 2.488070e+001
7.214166e+002, 2.464593e+001
7.218987e+002, 2.504186e+001
7.223809e+002, 2.546076e+001
7.228630e+002, 2.558827e+001
7.233451e+002, 2.545110e+001
7.238272e+002, 2.536330e+001
7.243093e+002, 2.539061e+001
7.247914e+002, 2.539036e+001
7.252736e+002, 2.528357e+001
7.257557e+002, 2.508776e+001
7.262378e+002, 2.505321e+001
7.267199e+002, 2.520227e+001
7.272020e+002, 2.532147e+001
7.276841e+002, 2.518592e+001
7.281663e+002, 2.493881e+001
7.286484e+002, 2.490671e+001
7.291305e+002, 2.509651e+001
7.296126e+002, 2.537140e+001
7.300947e+002, 2.581326e+001
7.305768e+002, 2.618375e+001
7.310590e+002, 2.620839e+001
7.315411e+002, 2.574299e+001
7.320232e+002, 2.552479e+001
7.325053e+002, 2.603417e+001
7.329874e+002, 2.654568e+001
7.334695e+002, 2.658592e+001
7.339517e+002, 2.596528e+001
7.344338e+002, 2.552267e+001
7.349159e+002, 2.525979e+001
7.353980e+002, 2.516152e+001
7.358801e+002, 2.527667e+001
7.363622e+002, 2.555532e+001
7.368444e+002, 2.582550e+001
7.373265e+002, 2.608899e+001
7.378086e+002, 2.619383e+001
7.382907e+002, 2.578660e+001
7.387728e+002, 2.521364e+001
7.392549e+002, 2.494725e+001
7.397371e+002, 2.532839e+001
7.402192e+002, 2.565531e+001
7.407013e+002, 2.568195e+001
7.411834e+002, 2.556812e+001
7.416655e+002, 2.552632e+001
7.421476e+002, 2.556699e+001
7.426298e+002, 2.566475e+001
7.431119e+002, 2.584503e+001
7.435940e+002, 2.604267e+001
7.440761e+002, 2.613312e+001
7.445582e+002, 2.612329e+001
7.450403e+002, 2.609260e+001
7.455225e+002, 2.605514e+001
7.460046e+002, 2.602224e+001
7.464867e+002, 2.603201e+001
7.469688e+002, 2.605526e+001
7.474509e+002, 2.602911e+001
7.479330e+002, 2.590197e+001
7.484152e+002, 2.574739e+001
7.488973e+002, 2.549826e+001
7.493794e+002, 2.523745e+001
7.498615e+002, 2.524324e+001
7.503436e+002, 2.571140e+001
7.508257e+002, 2.609949e+001
7.513079e+002, 2.627725e+001
7.517900e+002, 2.627696e+001
7.522721e+002, 2.613108e+001
7.527542e+002, 2.583917e+001
7.532363e+002, 2.570789e+001
7.537184e+002, 2.603725e+001
7.542006e+002, 2.652028e+001
7.546827e+002, 2.664306e+001
7.551648e+002, 2.647742e+001
7.556469e+002, 2.631697e+001
7.561290e+002, 2.632700e+001
7.566111e+002, 2.636943e+001
7.570933e+002, 2.638874e+001
7.575754e+002, 2.637896e+001
7.580575e+002, 2.631440e+001
7.585396e+002, 2.618404e+001
7.590217e+002, 2.601182e+001
7.595038e+002, 2.575405e+001
7.599860e+002, 2.543792e+001
7.604681e+002, 2.541457e+001
7.609502e+002, 2.570936e+001
7.614323e+002, 2.599699e+001
7.619144e+002, 2.602719e+001
7.623965e+002, 2.591633e+001
7.628787e+002, 2.584174e+001
7.633608e+002, 2.581500e+001
7.638429e+002, 2.588480e+001
7.643250e+002, 2.619631e+001
7.648071e+002, 2.652646e+001
7.652892e+002, 2.669181e+001
7.657714e+002, 2.664819e+001
7.662535e+002, 2.671755e+001
7.667356e+002, 2.706491e+001
7.672177e+002, 2.733680e+001
7.676998e+002, 2.729920e+001
7.681819e+002, 2.692705e+001
7.686641e+002, 2.669990e+001
7.691462e+002, 2.664089e+001
7.696283e+002, 2.656575e+001
7.701104e+002, 2.622260e+001
7.705925e+002, 2.578157e+001
7.710746e+002, 2.559535e+001
7.715568e+002, 2.570411e+001
7.720389e+002, 2.586694e+001
7.725210e+002, 2.604221e+001
7.730031e+002, 2.613758e+001
7.734852e+002, 2.603370e+001
7.739673e+002, 2.557126e+001
7.744495e+002, 2.539776e+001
7.749316e+002, 2.571788e+001
7.754137e+002, 2.610470e+001
7.758958e+002, 2.621282e+001
7.763779e+002, 2.601273e+001
7.768600e+002, 2.594659e+001
7.773422e+002, 2.605112e+001
7.778243e+002, 2.615568e+001
7.783064e+002, 2.603208e+001
7.787885e+002, 2.580065e+001
7.792706e+002, 2.567783e+001
7.797527e+002, 2.569835e+001
7.802349e+002, 2.583562e+001
7.807170e+002, 2.625878e+001
7.811991e+002, 2.668279e+001
7.816812e+002, 2.684228e+001
7.821633e+002, 2.650947e+001
7.826454e+002, 2.626621e+001
7.831276e+002, 2.611020e+001
7.836097e+002, 2.604683e+001
7.840918e+002, 2.611238e+001
7.845739e+002, 2.630934e+001
7.850560e+002, 2.645840e+001
7.855381e+002, 2.653705e+001
7.860203e+002, 2.658821e+001
7.865024e+002, 2.671402e+001
7.869845e+002, 2.682958e+001
7.874666e+002, 2.674142e+001
7.879487e+002, 2.630121e+001
7.884308e+002, 2.600193e+001
7.889130e+002, 2.629503e+001
7.893951e+002, 2.673558e+001
7.898772e+002, 2.685294e+001
7.903593e+002, 2.631486e+001
7.908414e+002, 2.599452e+001
7.913235e+002, 2.594106e+001
7.918057e+002, 2.605088e+001
7.922878e+002, 2.622543e+001
7.927699e+002, 2.646328e+001
7.932520e+002, 2.671453e+001
7.937341e+002, 2.697610e+001
7.942162e+002, 2.723999e+001
7.946984e+002, 2.761584e+001
7.951805e+002, 2.795588e+001
7.956626e+002, 2.800987e+001
7.961447e+002, 2.762428e+001
7.966268e+002, 2.717246e+001
7.971089e+002, 2.663027e+001
7.975911e+002, 2.617216e+001
7.980732e+002, 2.598689e+001
7.985553e+002, 2.616042e+001
7.990374e+002, 2.642508e+001
7.995195e+002, 2.682644e+001
8.000016e+002, 2.720721e+001
8.004838e+002, 2.729703e+001
8.009659e+002, 2.716317e+001
8.014480e+002, 2.721915e+001
8.019301e+002, 2.757600e+001
8.024122e+002, 2.798612e+001
8.028943e+002, 2.824437e+001
8.033765e+002, 2.839294e+001
8.038586e+002, 2.849368e+001
8.043407e+002, 2.858961e+001
8.048228e+002, 2.858741e+001
8.053049e+002, 2.830436e+001
8.057870e+002, 2.801118e+001
8.062692e+002, 2.802003e+001
8.067513e+002, 2.846089e+001
8.072334e+002, 2.862826e+001
8.077155e+002, 2.835933e+001
8.081976e+002, 2.808715e+001
8.086797e+002, 2.851988e+001
8.091619e+002, 2.940849e+001
8.096440e+002, 3.002885e+001
8.101261e+002, 3.020695e+001
8.106082e+002, 3.017353e+001
8.110903e+002, 2.993806e+001
8.115724e+002, 2.965954e+001
8.120546e+002, 2.951876e+001
8.125367e+002, 2.970212e+001
8.130188e+002, 2.976702e+001
8.135009e+002, 2.958330e+001
8.139830e+002, 2.938623e+001
8.144651e+002, 2.947855e+001
8.149473e+002, 2.988694e+001
8.154294e+002, 3.016198e+001
8.159115e+002, 3.026373e+001
8.163936e+002, 3.020964e+001
8.168757e+002, 2.982762e+001
8.173578e+002, 2.935690e+001
8.178400e+002, 2.926049e+001
8.183221e+002, 2.975335e+001
8.188042e+002, 3.021492e+001
8.192863e+002, 3.028633e+001
8.197684e+002, 3.021985e+001
8.202505e+002, 3.026195e+001
8.207327e+002, 3.052016e+001
8.212148e+002, 3.065561e+001
8.216969e+002, 3.061522e+001
8.221790e+002, 3.054703e+001
8.226611e+002, 3.065818e+001
8.231432e+002, 3.090330e+001
8.236254e+002, 3.095200e+001
8.241075e+002, 3.074924e+001
8.245896e+002, 3.053041e+001
8.250717e+002, 3.041030e+001
8.255538e+002, 3.044644e+001
8.260359e+002, 3.076476e+001
8.265181e+002, 3.151139e+001
8.270002e+002, 3.209054e+001
8.274823e+002, 3.227218e+001
8.279644e+002, 3.231957e+001
8.284465e+002, 3.238815e+001
8.289286e+002, 3.247723e+001
8.294108e+002, 3.258339e+001
8.298929e+002, 3.269806e+001
8.303750e+002, 3.287000e+001
8.308571e+002, 3.325282e+001
8.313392e+002, 3.370129e+001
8.318214e+002, 3.383942e+001
8.323035e+002, 3.361633e+001
8.327856e+002, 3.345688e+001
8.332677e+002, 3.362178e+001
8.337498e+002, 3.395856e+001
8.342319e+002, 3.438670e+001
8.347141e+002, 3.494284e+001
8.351962e+002, 3.538387e+001
8.356783e+002, 3.567076e+001
8.361604e+002, 3.590511e+001
8.366425e+002, 3.614192e+001
8.371246e+002, 3.638049e+001
8.376068e+002, 3.659506e+001
8.380889e+002, 3.678493e+001
8.385710e+002, 3.703263e+001
8.390531e+002, 3.738862e+001
8.395352e+002, 3.784431e+001
8.400173e+002, 3.844050e+001
8.404995e+002, 3.917805e+001
8.409816e+002, 3.982718e+001
8.414637e+002, 4.011187e+001
8.419458e+002, 4.049428e+001
8.424279e+002, 4.124250e+001
8.429100e+002, 4.234584e+001
8.433922e+002, 4.319640e+001
8.438743e+002, 4.376939e+001
8.443564e+002, 4.422266e+001
8.448385e+002, 4.450674e+001
8.453206e+002, 4.478018e+001
8.458027e+002, 4.541542e+001
8.462849e+002, 4.638454e+001
8.467670e+002, 4.752525e+001
8.472491e+002, 4.902197e+001
8.477312e+002, 5.041124e+001
8.482133e+002, 5.132414e+001
8.486954e+002, 5.182085e+001
8.491776e+002, 5.251410e+001
8.496597e+002, 5.333008e+001
8.501418e+002, 5.455805e+001
8.506239e+002, 5.643254e+001
8.511060e+002, 5.870718e+001
8.515881e+002, 6.044370e+001
8.520703e+002, 6.171410e+001
8.525524e+002, 6.312762e+001
8.530345e+002, 6.510880e+001
8.535166e+002, 6.723209e+001
8.539987e+002, 6.898116e+001
8.544808e+002, 7.057561e+001
8.549630e+002, 7.258208e+001
8.554451e+002, 7.567674e+001
8.559272e+002, 7.854148e+001
8.564093e+002, 8.085445e+001
8.568914e+002, 8.279115e+001
8.573735e+002, 8.481365e+001
8.578557e+002, 8.692604e+001
8.583378e+002, 8.923234e+001
8.588199e+002, 9.194136e+001
8.593020e+002, 9.453072e+001
8.597841e+002, 9.609610e+001
8.602662e+002, 9.695715e+001
8.607484e+002, 9.775350e+001
8.612305e+002, 9.897343e+001
8.617126e+002, 9.976823e+001
8.621947e+002, 9.971726e+001
8.626768e+002, 9.907457e+001
8.631589e+002, 9.825000e+001
8.636411e+002, 9.726376e+001
8.641232e+002, 9.599848e+001
8.646053e+002, 9.440766e+001
8.650874e+002, 9.262828e+001
8.655695e+002, 9.071498e+001
8.660516e+002, 8.874519e+001
8.665338e+002, 8.700770e+001
8.670159e+002, 8.560911e+001
8.674980e+002, 8.409005e+001
8.679801e+002, 8.168826e+001
8.684622e+002, 7.923708e+001
8.689443e+002, 7.756664e+001
8.694265e+002, 7.721214e+001
8.699086e+002, 7.663673e+001
8.703907e+002, 7.576904e+001
8.708728e+002, 7.478377e+001
8.713549e+002, 7.378802e+001
8.718370e+002, 7.278818e+001
8.723192e+002, 7.186888e+001
8.728013e+002, 7.101793e+001
8.732834e+002, 7.039726e+001
8.737655e+002, 7.027035e+001
8.742476e+002, 7.035046e+001
8.747297e+002, 7.031175e+001
8.752119e+002, 7.011624e+001
8.756940e+002, 7.013053e+001
8.761761e+002, 7.055538e+001
8.766582e+002, 7.110185e+001
8.771403e+002, 7.171911e+001
8.776224e+002, 7.238759e+001
8.781046e+002, 7.275211e+001
8.785867e+002, 7.279024e+001
8.790688e+002, 7.298404e+001
8.795509e+002, 7.358472e+001
8.800330e+002, 7.452953e+001
8.805151e+002, 7.585451e+001
8.809973e+002, 7.747356e+001
8.814794e+002, 7.905795e+001
8.819615e+002, 8.022681e+001
8.824436e+002, 8.160412e+001
8.829257e+002, 8.360686e+001
8.834078e+002, 8.596127e+001
8.838900e+002, 8.796489e+001
8.843721e+002, 8.952898e+001
8.848542e+002, 9.120229e+001
8.853363e+002, 9.312283e+001
8.858184e+002, 9.526631e+001
8.863005e+002, 9.758534e+001
8.867827e+002, 1.001026e+002
8.872648e+002, 1.028450e+002
8.877469e+002, 1.058536e+002
8.882290e+002, 1.090258e+002
8.887111e+002, 1.122660e+002
8.891932e+002, 1.156636e+002
8.896754e+002, 1.193489e+002
8.901575e+002, 1.232771e+002
8.906396e+002, 1.275565e+002
8.911217e+002, 1.322616e+002
8.916038e+002, 1.370826e+002
8.920859e+002, 1.416161e+002
8.925681e+002, 1.459855e+002
8.930502e+002, 1.505717e+002
8.935323e+002, 1.553947e+002
8.940144e+002, 1.604568e+002
8.944965e+002, 1.661521e+002
8.949786e+002, 1.717466e+002
8.954608e+002, 1.765797e+002
8.959429e+002, 1.802525e+002
8.964250e+002, 1.842297e+002
8.969071e+002, 1.884768e+002
8.973892e+002, 1.930316e+002
8.978713e+002, 1.979815e+002
8.983535e+002, 2.032749e+002
8.988356e+002, 2.081049e+002
8.993177e+002, 2.125415e+002
8.997998e+002, 2.176596e+002
9.002819e+002, 2.244683e+002
9.007640e+002, 2.320511e+002
9.012462e+002, 2.396023e+002
9.017283e+002, 2.471593e+002
9.022104e+002, 2.561315e+002
9.026925e+002, 2.665162e+002
9.031746e+002, 2.781463e+002
9.036567e+002, 2.910897e+002
9.041389e+002, 3.052377e+002
9.046210e+002, 3.205509e+002
9.051031e+002, 3.370362e+002
9.055852e+002, 3.552014e+002
9.060673e+002, 3.751503e+002
9.065494e+002, 3.970088e+002
9.070316e+002, 4.211438e+002
9.075137e+002, 4.471089e+002
9.079958e+002, 4.744973e+002
9.084779e+002, 5.031747e+002
9.089600e+002, 5.331636e+002
9.094421e+002, 5.649172e+002
9.099243e+002, 5.972920e+002
9.104064e+002, 6.299237e+002
9.108885e+002, 6.626306e+002
9.113706e+002, 6.949074e+002
9.118527e+002, 7.269454e+002
9.123348e+002, 7.568298e+002
9.128170e+002, 7.839536e+002
9.132991e+002, 8.072443e+002
9.137812e+002, 8.258215e+002
9.142633e+002, 8.399958e+002
9.147454e+002, 8.472543e+002
9.152275e+002, 8.473229e+002
9.157097e+002, 8.406902e+002
9.161918e+002, 8.272277e+002
9.166739e+002, 8.069630e+002
9.171560e+002, 7.810065e+002
9.176381e+002, 7.495413e+002
9.181202e+002, 7.149230e+002
9.186024e+002, 6.772281e+002
9.190845e+002, 6.384012e+002
9.195666e+002, 5.998336e+002
9.200487e+002, 5.620381e+002
9.205308e+002, 5.255628e+002
9.210129e+002, 4.898405e+002
9.214951e+002, 4.564969e+002
9.219772e+002, 4.258125e+002
9.224593e+002, 3.975507e+002
9.229414e+002, 3.708989e+002
9.234235e+002, 3.460702e+002
9.239056e+002, 3.232688e+002
9.243878e+002, 3.026701e+002
9.248699e+002, 2.839261e+002
9.253520e+002, 2.665463e+002
9.258341e+002, 2.505416e+002
9.263162e+002, 2.356322e+002
9.267983e+002, 2.215369e+002
9.272805e+002, 2.089602e+002
9.277626e+002, 1.981556e+002
9.282447e+002, 1.883949e+002
9.287268e+002, 1.790049e+002
9.292089e+002, 1.700177e+002
9.296910e+002, 1.619891e+002
9.301732e+002, 1.550698e+002
9.306553e+002, 1.486461e+002
9.311374e+002, 1.421389e+002
9.316195e+002, 1.358771e+002
9.321016e+002, 1.302007e+002
9.325837e+002, 1.252670e+002
9.330659e+002, 1.202921e+002
9.335480e+002, 1.147246e+002
9.340301e+002, 1.095980e+002
9.345122e+002, 1.054828e+002
9.349943e+002, 1.021920e+002
9.354764e+002, 9.865800e+001
9.359586e+002, 9.485201e+001
9.364407e+002, 9.134257e+001
9.369228e+002, 8.846925e+001
9.374049e+002, 8.587406e+001
9.378870e+002, 8.321336e+001
9.383691e+002, 8.051904e+001
9.388513e+002, 7.793375e+001
9.393334e+002, 7.533033e+001
9.398155e+002, 7.304762e+001
9.402976e+002, 7.127976e+001
9.407797e+002, 6.971827e+001
9.412618e+002, 6.783007e+001
9.417440e+002, 6.566483e+001
9.422261e+002, 6.395994e+001
9.427082e+002, 6.289290e+001
9.431903e+002, 6.190831e+001
9.436724e+002, 6.039294e+001
9.441545e+002, 5.873936e+001
9.446367e+002, 5.734830e+001
9.451188e+002, 5.634128e+001
9.456009e+002, 5.540588e+001
9.460830e+002, 5.447170e+001
9.465651e+002, 5.365764e+001
9.470472e+002, 5.311492e+001
9.475294e+002, 5.277739e+001
9.480115e+002, 5.206984e+001
9.484936e+002, 5.102924e+001
9.489757e+002, 5.011720e+001
9.494578e+002, 4.970317e+001
9.499399e+002, 4.946294e+001
9.504221e+002, 4.918676e+001
9.509042e+002, 4.887626e+001
9.513863e+002, 4.857273e+001
9.518684e+002, 4.833596e+001
9.523505e+002, 4.799232e+001
9.528326e+002, 4.746099e+001
9.533148e+002, 4.687831e+001
9.537969e+002, 4.657449e+001
9.542790e+002, 4.646233e+001
9.547611e+002, 4.609754e+001
9.552432e+002, 4.525887e+001
9.557253e+002, 4.457247e+001
9.562075e+002, 4.470586e+001
9.566896e+002, 4.508792e+001
9.571717e+002, 4.511436e+001
9.576538e+002, 4.455439e+001
9.581359e+002, 4.425307e+001
9.586180e+002, 4.433675e+001
9.591002e+002, 4.435473e+001
9.595823e+002, 4.385763e+001
9.600644e+002, 4.304595e+001
9.605465e+002, 4.247617e+001
9.610286e+002, 4.216228e+001
9.615107e+002, 4.212699e+001
9.619929e+002, 4.273230e+001
9.624750e+002, 4.327053e+001
9.629571e+002, 4.334878e+001
9.634392e+002, 4.304400e+001
9.639213e+002, 4.264100e+001
9.644034e+002, 4.207487e+001
9.648856e+002, 4.169834e+001
9.653677e+002, 4.163249e+001
9.658498e+002, 4.172223e+001
9.663319e+002, 4.176217e+001
9.668140e+002, 4.176099e+001
9.672961e+002, 4.172190e+001
9.677783e+002, 4.160329e+001
9.682604e+002, 4.156348e+001
9.687425e+002, 4.176558e+001
9.692246e+002, 4.199163e+001
9.697067e+002, 4.206984e+001
9.701888e+002, 4.197984e+001
9.706710e+002, 4.187064e+001
9.711531e+002, 4.173976e+001
9.716352e+002, 4.161913e+001
9.721173e+002, 4.159127e+001
9.725994e+002, 4.155412e+001
9.730815e+002, 4.124744e+001
9.735637e+002, 4.075503e+001
9.740458e+002, 4.056878e+001
9.745279e+002, 4.122252e+001
9.750100e+002, 4.175178e+001
9.754921e+002, 4.189307e+001
9.759742e+002, 4.177647e+001
9.764564e+002, 4.169819e+001
9.769385e+002, 4.165793e+001
9.774206e+002, 4.169257e+001
9.779027e+002, 4.188375e+001
9.783848e+002, 4.192835e+001
9.788669e+002, 4.130253e+001
9.793491e+002, 4.047549e+001
9.798312e+002, 4.003318e+001
9.803133e+002, 4.028641e+001
9.807954e+002, 4.040795e+001
9.812775e+002, 4.033440e+001
9.817596e+002, 4.018821e+001
9.822418e+002, 4.002168e+001
9.827239e+002, 3.985053e+001
9.832060e+002, 3.977807e+001
9.836881e+002, 3.979439e+001
9.841702e+002, 3.981321e+001
9.846523e+002, 3.968253e+001
9.851345e+002, 3.963330e+001
9.856166e+002, 4.001115e+001
9.860987e+002, 4.059029e+001
9.865808e+002, 4.053239e+001
9.870629e+002, 3.954835e+001
9.875450e+002, 3.886419e+001
9.880272e+002, 3.877618e+001
9.885093e+002, 3.894116e+001
9.889914e+002, 3.882915e+001
9.894735e+002, 3.858296e+001
9.899556e+002, 3.853481e+001
9.904377e+002, 3.882994e+001
9.909199e+002, 3.900724e+001
9.914020e+002, 3.868594e+001
9.918841e+002, 3.834681e+001
9.923662e+002, 3.835286e+001
9.928483e+002, 3.872039e+001
9.933304e+002, 3.881936e+001
9.938126e+002, 3.863436e+001
9.942947e+002, 3.844834e+001
9.947768e+002, 3.845146e+001
9.952589e+002, 3.854100e+001
9.957410e+002, 3.862735e+001
9.962231e+002, 3.869749e+001
9.967053e+002, 3.872024e+001
9.971874e+002, 3.855194e+001
9.976695e+002, 3.853167e+001
9.981516e+002, 3.877649e+001
9.986337e+002, 3.910338e+001
9.991158e+002, 3.921605e+001
9.995980e+002, 3.914691e+001
1.000080e+003, 3.911442e+001
1.000562e+003, 3.914972e+001
1.001044e+003, 3.923521e+001
1.001526e+003, 3.931808e+001
1.002009e+003, 3.947530e+001
1.002491e+003, 3.982320e+001
1.002973e+003, 4.040339e+001
1.003455e+003, 4.078212e+001
1.003937e+003, 4.091862e+001
1.004419e+003, 4.097289e+001
1.004901e+003, 4.094724e+001
1.005383e+003, 4.094964e+001
1.005865e+003, 4.127650e+001
1.006348e+003, 4.183227e+001
1.006830e+003, 4.235423e+001
1.007312e+003, 4.277101e+001
1.007794e+003, 4.307763e+001
1.008276e+003, 4.322136e+001
1.008758e+003, 4.328904e+001
1.009240e+003, 4.332386e+001
1.009722e+003, 4.329855e+001
1.010205e+003, 4.354436e+001
1.010687e+003, 4.409965e+001
1.011169e+003, 4.479348e+001
1.011651e+003, 4.569690e+001
1.012133e+003, 4.651350e+001
1.012615e+003, 4.685067e+001
1.013097e+003, 4.670921e+001
1.013579e+003, 4.664679e+001
1.014061e+003, 4.661933e+001
1.014544e+003, 4.691989e+001
1.015026e+003, 4.775045e+001
1.015508e+003, 4.885298e+001
1.015990e+003, 4.960976e+001
1.016472e+003, 5.008787e+001
1.016954e+003, 5.054487e+001
1.017436e+003, 5.102814e+001
1.017918e+003, 5.160280e+001
1.018401e+003, 5.238643e+001
1.018883e+003, 5.323378e+001
1.019365e+003, 5.399884e+001
1.019847e+003, 5.464396e+001
1.020329e+003, 5.534148e+001
1.020811e+003, 5.606736e+001
1.021293e+003, 5.697906e+001
1.021775e+003, 5.828509e+001
1.022257e+003, 5.979354e+001
1.022740e+003, 6.128066e+001
1.023222e+003, 6.272835e+001
1.023704e+003, 6.409050e+001
1.024186e+003, 6.511469e+001
1.024668e+003, 6.637081e+001
1.025150e+003, 6.804700e+001
1.025632e+003, 6.993111e+001
1.026114e+003, 7.165101e+001
1.026596e+003, 7.321426e+001
1.027079e+003, 7.494136e+001
1.027561e+003, 7.687849e+001
1.028043e+003, 7.899976e+001
1.028525e+003, 8.144007e+001
1.029007e+003, 8.395106e+001
1.029489e+003, 8.620139e+001
1.029971e+003, 8.813362e+001
1.030453e+003, 9.064443e+001
1.030936e+003, 9.398547e+001
1.031418e+003, 9.705637e+001
1.031900e+003, 9.919477e+001
1.032382e+003, 1.010449e+002
1.032864e+003, 1.040414e+002
1.033346e+003, 1.077442e+002
1.033828e+003, 1.110400e+002
1.034310e+003, 1.132913e+002
1.034792e+003, 1.154512e+002
1.035275e+003, 1.178879e+002
1.035757e+003, 1.202001e+002
1.036239e+003, 1.221437e+002
1.036721e+003, 1.237053e+002
1.037203e+003, 1.245094e+002
1.037685e+003, 1.245363e+002
1.038167e+003, 1.243158e+002
1.038649e+003, 1.244463e+002
1.039132e+003, 1.243047e+002
1.039614e+003, 1.233300e+002
1.040096e+003, 1.215969e+002
1.040578e+003, 1.196483e+002
1.041060e+003, 1.175201e+002
1.041542e+003, 1.151191e+002
1.042024e+003, 1.123237e+002
1.042506e+003, 1.093914e+002
1.042989e+003, 1.067546e+002
1.043471e+003, 1.042144e+002
1.043953e+003, 1.013118e+002
1.044435e+003, 9.787011e+001
1.044917e+003, 9.437914e+001
1.045399e+003, 9.099686e+001
1.045881e+003, 8.759011e+001
1.046363e+003, 8.402213e+001
1.046845e+003, 8.037428e+001
1.047328e+003, 7.742848e+001
1.047810e+003, 7.511050e+001
1.048292e+003, 7.272219e+001
1.048774e+003, 6.963895e+001
1.049256e+003, 6.674030e+001
1.049738e+003, 6.507773e+001
1.050220e+003, 6.392673e+001
1.050702e+003, 6.203797e+001
1.051184e+003, 5.868817e+001
1.051667e+003, 5.615354e+001
1.052149e+003, 5.460450e+001
1.052631e+003, 5.344989e+001
1.053113e+003, 5.226092e+001
1.053595e+003, 5.102434e+001
1.054077e+003, 4.958143e+001
1.054559e+003, 4.800032e+001
1.055041e+003, 4.674171e+001
1.055523e+003, 4.634069e+001
1.056006e+003, 4.586728e+001
1.056488e+003, 4.505104e+001
1.056970e+003, 4.402061e+001
1.057452e+003, 4.294318e+001
1.057934e+003, 4.185074e+001
1.058416e+003, 4.107361e+001
1.058898e+003, 4.070811e+001
1.059380e+003, 4.044433e+001
1.059863e+003, 4.012291e+001
1.060345e+003, 3.973852e+001
1.060827e+003, 3.925386e+001
1.061309e+003, 3.866452e+001
1.061791e+003, 3.817220e+001
1.062273e+003, 3.778103e+001
1.062755e+003, 3.748194e+001
1.063237e+003, 3.737009e+001
1.063719e+003, 3.721975e+001
1.064202e+003, 3.644182e+001
1.064684e+003, 3.541257e+001
1.065166e+003, 3.487831e+001
1.065648e+003, 3.563266e+001
1.066130e+003, 3.586795e+001
1.066612e+003, 3.520331e+001
1.067094e+003, 3.430140e+001
1.067576e+003, 3.359178e+001
1.068059e+003, 3.309530e+001
1.068541e+003, 3.313638e+001
1.069023e+003, 3.363362e+001
1.069505e+003, 3.392065e+001
1.069987e+003, 3.320731e+001
1.070469e+003, 3.259630e+001
1.070951e+003, 3.294459e+001
1.071433e+003, 3.369964e+001
1.071916e+003, 3.376828e+001
1.072398e+003, 3.305182e+001
1.072880e+003, 3.253269e+001
1.073362e+003, 3.236157e+001
1.073844e+003, 3.229784e+001
1.074326e+003, 3.211971e+001
1.074808e+003, 3.191128e+001
1.075290e+003, 3.173348e+001
1.075772e+003, 3.159621e+001
1.076255e+003, 3.162200e+001
1.076737e+003, 3.194193e+001
1.077219e+003, 3.211641e+001
1.077701e+003, 3.197303e+001
1.078183e+003, 3.164728e+001
1.078665e+003, 3.131914e+001
1.079147e+003, 3.103140e+001
1.079629e+003, 3.087382e+001
1.080111e+003, 3.084657e+001
1.080594e+003, 3.101839e+001
1.081076e+003, 3.180076e+001
1.081558e+003, 3.240573e+001
1.082040e+003, 3.224584e+001
1.082522e+003, 3.142977e+001
1.083004e+003, 3.117188e+001
1.083486e+003, 3.140793e+001
1.083968e+003, 3.154460e+001
1.084450e+003, 3.106234e+001
1.084933e+003, 3.059052e+001
1.085415e+003, 3.059509e+001
1.085897e+003, 3.084341e+001
1.086379e+003, 3.096066e+001
1.086861e+003, 3.092522e+001
1.087343e+003, 3.078392e+001
1.087825e+003, 3.051642e+001
1.088307e+003, 3.029404e+001
1.088790e+003, 3.029367e+001
1.089272e+003, 3.040574e+001
1.089754e+003, 3.055775e+001
1.090236e+003, 3.071602e+001
1.090718e+003, 3.072152e+001
1.091200e+003, 3.035976e+001
1.091682e+003, 3.021180e+001
1.092164e+003, 3.046461e+001
1.092646e+003, 3.080708e+001
1.093129e+003, 3.069317e+001
1.093611e+003, 3.030346e+001
1.094093e+003, 3.008280e+001
1.094575e+003, 3.010587e+001
1.095057e+003, 3.018394e+001
1.095539e+003, 3.035211e+001
1.096021e+003, 3.041901e+001
1.096503e+003, 3.028112e+001
1.096986e+003, 2.999049e+001
1.097468e+003, 2.967608e+001
1.097950e+003, 2.936065e+001
1.098432e+003, 2.926954e+001
1.098914e+003, 2.955290e+001
1.099396e+003, 2.986078e+001
1.099878e+003, 2.993618e+001
1.100360e+003, 2.991380e+001
1.100843e+003, 2.993685e+001
1.101325e+003, 3.002477e+001
1.101807e+003, 3.000174e+001
1.102289e+003, 2.985733e+001
1.102771e+003, 2.971394e+001
1.103253e+003, 2.963991e+001
1.103735e+003, 2.960535e+001
1.104217e+003, 2.961634e+001
1.104699e+003, 2.963263e+001
1.105182e+003, 2.957311e+001
1.105664e+003, 2.933373e+001
1.106146e+003, 2.919131e+001
1.106628e+003, 2.917465e+001
1.107110e+003, 2.919531e+001
1.107592e+003, 2.922330e+001
1.108074e+003, 2.921202e+001
1.108556e+003, 2.896463e+001
1.109038e+003, 2.855085e+001
1.109521e+003, 2.835222e+001
1.110003e+003, 2.879987e+001
1.110485e+003, 2.909472e+001
1.110967e+003, 2.902912e+001
1.111449e+003, 2.878910e+001
1.111931e+003, 2.857146e+001
1.112413e+003, 2.841553e+001
1.112895e+003, 2.860489e+001
1.113377e+003, 2.918166e+001
1.113860e+003, 2.957045e+001
1.114342e+003, 2.907995e+001
1.114824e+003, 2.865803e+001
1.115306e+003, 2.893089e+001
1.115788e+003, 2.965639e+001
1.116270e+003, 3.005058e+001
1.116752e+003, 3.012089e+001
1.117234e+003, 3.011292e+001
1.117717e+003, 3.009786e+001
1.118199e+003, 2.998315e+001
1.118681e+003, 2.956350e+001
1.119163e+003, 2.909031e+001
1.119645e+003, 2.879099e+001
1.120127e+003, 2.867894e+001
1.120609e+003, 2.874656e+001
1.121091e+003, 2.904200e+001
1.121573e+003, 2.920223e+001
1.122056e+003, 2.901929e+001
1.122538e+003, 2.871291e+001
1.123020e+003, 2.847135e+001
1.123502e+003, 2.833081e+001
1.123984e+003, 2.837097e+001
1.124466e+003, 2.879678e+001
1.124948e+003, 2.890864e+001
1.125430e+003, 2.855678e+001
1.125913e+003, 2.826105e+001
1.126395e+003, 2.844879e+001
1.126877e+003, 2.889954e+001
1.127359e+003, 2.917334e+001
1.127841e+003, 2.928731e+001
1.128323e+003, 2.928320e+001
1.128805e+003, 2.910651e+001
1.129287e+003, 2.889530e+001
1.129770e+003, 2.859760e+001
1.130252e+003, 2.837795e+001
1.130734e+003, 2.844337e+001
1.131216e+003, 2.872272e+001
1.131698e+003, 2.895636e+001
1.132180e+003, 2.913077e+001
1.132662e+003, 2.923332e+001
1.133144e+003, 2.911877e+001
1.133626e+003, 2.910314e+001
1.134109e+003, 2.940639e+001
1.134591e+003, 2.978702e+001
1.135073e+003, 2.983893e+001
1.135555e+003, 2.959214e+001
1.136037e+003, 2.940201e+001
1.136519e+003, 2.930751e+001
1.137001e+003, 2.929674e+001
1.137483e+003, 2.947861e+001
1.137965e+003, 2.962962e+001
1.138448e+003, 2.955282e+001
1.138930e+003, 2.933405e+001
1.139412e+003, 2.923800e+001
1.139894e+003, 2.927013e+001
1.140376e+003, 2.929408e+001
1.140858e+003, 2.926518e+001
1.141340e+003, 2.931129e+001
1.141822e+003, 2.965400e+001
1.142304e+003, 3.005335e+001
1.142787e+003, 3.032783e+001
1.143269e+003, 3.045305e+001
1.143751e+003, 3.028815e+001
1.144233e+003, 2.973478e+001
1.144715e+003, 2.947035e+001
1.145197e+003, 2.982109e+001
1.145679e+003, 3.034078e+001
1.146161e+003, 3.045941e+001
1.146644e+003, 3.038894e+001
1.147126e+003, 3.042502e+001
1.147608e+003, 3.068107e+001
1.148090e+003, 3.075434e+001
1.148572e+003, 3.057626e+001
1.149054e+003, 3.040977e+001
1.149536e+003, 3.037025e+001
1.150018e+003, 3.043460e+001
1.150500e+003, 3.059312e+001
1.150983e+003, 3.081886e+001
1.151465e+003, 3.108642e+001
1.151947e+003, 3.163778e+001
1.152429e+003, 3.161007e+001
1.152911e+003, 3.065132e+001
1.153393e+003, 2.976760e+001
1.153875e+003, 2.974388e+001
1.154357e+003, 3.028274e+001
1.154840e+003, 3.062204e+001
1.155322e+003, 3.082350e+001
1.155804e+003, 3.106738e+001
1.156286e+003, 3.167874e+001
1.156768e+003, 3.194413e+001
1.157250e+003, 3.158365e+001
1.157732e+003, 3.115167e+001
1.158214e+003, 3.118495e+001
1.158697e+003, 3.158804e+001
1.159179e+003, 3.205088e+001
1.159661e+003, 3.252135e+001
1.160143e+003, 3.275608e+001
1.160625e+003, 3.240608e+001
1.161107e+003, 3.208210e+001
1.161589e+003, 3.191742e+001
1.162071e+003, 3.191572e+001
1.162553e+003, 3.217060e+001
1.163036e+003, 3.262603e+001
1.163518e+003, 3.286197e+001
1.164000e+003, 3.286103e+001
1.164482e+003, 3.284422e+001
1.164964e+003, 3.297760e+001
1.165446e+003, 3.309115e+001
1.165928e+003, 3.308266e+001
1.166410e+003, 3.301442e+001
1.166892e+003, 3.304763e+001
1.167375e+003, 3.316191e+001
1.167857e+003, 3.297285e+001
1.168339e+003, 3.241215e+001
1.168821e+003, 3.197592e+001
1.169303e+003, 3.217595e+001
1.169785e+003, 3.247191e+001
1.170267e+003, 3.244775e+001
1.170749e+003, 3.225048e+001
1.171231e+003, 3.234916e+001
1.171714e+003, 3.274088e+001
1.172196e+003, 3.307051e+001
1.172678e+003, 3.326513e+001
1.173160e+003, 3.336940e+001
1.173642e+003, 3.334457e+001
1.174124e+003, 3.330406e+001
1.174606e+003, 3.336242e+001
1.175088e+003, 3.349718e+001
1.175571e+003, 3.356636e+001
1.176053e+003, 3.356994e+001
1.176535e+003, 3.351558e+001
1.177017e+003, 3.339337e+001
1.177499e+003, 3.325548e+001
1.177981e+003, 3.316453e+001
1.178463e+003, 3.307410e+001
1.178945e+003, 3.291082e+001
1.179427e+003, 3.267364e+001
1.179910e+003, 3.254373e+001
1.180392e+003, 3.251900e+001
1.180874e+003, 3.264090e+001
1.181356e+003, 3.301508e+001
1.181838e+003, 3.333131e+001
1.182320e+003, 3.301311e+001
1.182802e+003, 3.259061e+001
1.183284e+003, 3.281601e+001
1.183767e+003, 3.389338e+001
1.184249e+003, 3.434464e+001
1.184731e+003, 3.408889e+001
1.185213e+003, 3.378337e+001
1.185695e+003, 3.376070e+001
1.186177e+003, 3.380782e+001
1.186659e+003, 3.366814e+001
1.187141e+003, 3.344267e+001
1.187624e+003, 3.326886e+001
1.188106e+003, 3.314780e+001
1.188588e+003, 3.316008e+001
1.189070e+003, 3.332451e+001
1.189552e+003, 3.351654e+001
1.190034e+003, 3.368430e+001
1.190516e+003, 3.382031e+001
1.190998e+003, 3.398967e+001
1.191480e+003, 3.409654e+001
1.191963e+003, 3.393732e+001
1.192445e+003, 3.323104e+001
1.192927e+003, 3.295980e+001
1.193409e+003, 3.319683e+001
1.193891e+003, 3.353172e+001
1.194373e+003, 3.373670e+001
1.194855e+003, 3.383563e+001
1.195337e+003, 3.381882e+001
1.195819e+003, 3.372696e+001
1.196302e+003, 3.364579e+001
1.196784e+003, 3.354914e+001
1.197266e+003, 3.358058e+001
1.197748e+003, 3.378306e+001
1.198230e+003, 3.394110e+001
1.198712e+003, 3.386904e+001
1.199194e+003, 3.365905e+001
1.199676e+003, 3.334344e+001
1.200158e+003, 3.299994e+001
1.200641e+003, 3.284620e+001
1.201123e+003, 3.299646e+001
1.201605e+003, 3.314584e+001
1.202087e+003, 3.328285e+001
1.202569e+003, 3.340324e+001
1.203051e+003, 3.355823e+001
1.203533e+003, 3.365504e+001
1.204015e+003, 3.342842e+001
1.204498e+003, 3.302489e+001
1.204980e+003, 3.300014e+001
1.205462e+003, 3.371803e+001
1.205944e+003, 3.408603e+001
1.206426e+003, 3.396709e+001
1.206908e+003, 3.367553e+001
1.207390e+003, 3.336935e+001
1.207872e+003, 3.317963e+001
1.208354e+003, 3.344673e+001
1.208837e+003, 3.402422e+001
1.209319e+003, 3.417732e+001
1.209801e+003, 3.365795e+001
1.210283e+003, 3.315419e+001
1.210765e+003, 3.270008e+001
1.211247e+003, 3.244276e+001
1.211729e+003, 3.266616e+001
1.212211e+003, 3.307927e+001
1.212694e+003, 3.336510e+001
1.213176e+003, 3.350167e+001
1.213658e+003, 3.345016e+001
1.214140e+003, 3.308067e+001
1.214622e+003, 3.296320e+001
1.215104e+003, 3.322202e+001
1.215586e+003, 3.356864e+001
1.216068e+003, 3.373755e+001
1.216551e+003, 3.378733e+001
1.217033e+003, 3.376643e+001
1.217515e+003, 3.368719e+001
1.217997e+003, 3.360633e+001
1.218479e+003, 3.353155e+001
1.218961e+003, 3.343494e+001
1.219443e+003, 3.329811e+001
1.219925e+003, 3.319292e+001
1.220407e+003, 3.326506e+001
1.220890e+003, 3.336712e+001
1.221372e+003, 3.328680e+001
1.221854e+003, 3.304312e+001
1.222336e+003, 3.294462e+001
1.222818e+003, 3.301350e+001
1.223300e+003, 3.319713e+001
1.223782e+003, 3.351301e+001
1.224264e+003, 3.381411e+001
1.224746e+003, 3.394739e+001
1.225229e+003, 3.397404e+001
1.225711e+003, 3.388185e+001
1.226193e+003, 3.371241e+001
1.226675e+003, 3.386707e+001
1.227157e+003, 3.447675e+001
1.227639e+003, 3.466032e+001
1.228121e+003, 3.416070e+001
1.228603e+003, 3.352943e+001
1.229085e+003, 3.321363e+001
1.229568e+003, 3.315894e+001
1.230050e+003, 3.334461e+001
1.230532e+003, 3.376841e+001
1.231014e+003, 3.446493e+001
1.231496e+003, 3.553761e+001
1.231978e+003, 3.592385e+001
1.232460e+003, 3.527770e+001
1.232942e+003, 3.441075e+001
1.233425e+003, 3.381850e+001
1.233907e+003, 3.358161e+001
1.234389e+003, 3.399279e+001
1.234871e+003, 3.488380e+001
1.235353e+003, 3.519749e+001
1.235835e+003, 3.489830e+001
1.236317e+003, 3.485780e+001
1.236799e+003, 3.535506e+001
1.237281e+003, 3.575658e+001
1.237764e+003, 3.533278e+001
1.238246e+003, 3.476100e+001
1.238728e+003, 3.461928e+001
1.239210e+003, 3.480827e+001
1.239692e+003, 3.486979e+001
1.240174e+003, 3.481330e+001
1.240656e+003, 3.495794e+001
1.241138e+003, 3.542008e+001
1.241621e+003, 3.583743e+001
1.242103e+003, 3.597177e+001
1.242585e+003, 3.591977e+001
1.243067e+003, 3.563325e+001
1.243549e+003, 3.524963e+001
1.244031e+003, 3.540202e+001
1.244513e+003, 3.598996e+001
1.244995e+003, 3.608943e+001
1.245478e+003, 3.536332e+001
1.245960e+003, 3.491856e+001
1.246442e+003, 3.598328e+001
1.246924e+003, 3.690222e+001
1.247406e+003, 3.663805e+001
1.247888e+003, 3.566570e+001
1.248370e+003, 3.545901e+001
1.248852e+003, 3.586164e+001
1.249334e+003, 3.622402e+001
1.249817e+003, 3.639677e+001
1.250299e+003, 3.653794e+001
1.250781e+003, 3.677681e+001
1.251263e+003, 3.692948e+001
1.251745e+003, 3.691427e+001
1.252227e+003, 3.677692e+001
1.252709e+003, 3.658091e+001
1.253191e+003, 3.635992e+001
1.253673e+003, 3.619512e+001
1.254156e+003, 3.609517e+001
1.254638e+003, 3.612327e+001
1.255120e+003, 3.645861e+001
1.255602e+003, 3.666055e+001
1.256084e+003, 3.648599e+001
1.256566e+003, 3.623277e+001
1.257048e+003, 3.658962e+001
1.257530e+003, 3.729463e+001
1.258012e+003, 3.783961e+001
1.258495e+003, 3.814247e+001
1.258977e+003, 3.821063e+001
1.259459e+003, 3.791120e+001
1.259941e+003, 3.773461e+001
1.260423e+003, 3.787400e+001
1.260905e+003, 3.813147e+001
1.261387e+003, 3.826536e+001
1.261869e+003, 3.827363e+001
1.262352e+003, 3.806205e+001
1.262834e+003, 3.759520e+001
1.263316e+003, 3.756879e+001
1.263798e+003, 3.817812e+001
1.264280e+003, 3.861608e+001
1.264762e+003, 3.864026e+001
1.265244e+003, 3.841668e+001
1.265726e+003, 3.798172e+001
1.266208e+003, 3.752130e+001
1.266691e+003, 3.719433e+001
1.267173e+003, 3.703802e+001
1.267655e+003, 3.725565e+001
1.268137e+003, 3.790281e+001
1.268619e+003, 3.850964e+001
1.269101e+003, 3.899544e+001
1.269583e+003, 3.920057e+001
1.270065e+003, 3.868927e+001
1.270548e+003, 3.806139e+001
1.271030e+003, 3.784730e+001
1.271512e+003, 3.799815e+001
1.271994e+003, 3.843687e+001
1.272476e+003, 3.914641e+001
1.272958e+003, 3.934190e+001
1.273440e+003, 3.877388e+001
1.273922e+003, 3.825466e+001
1.274405e+003, 3.844621e+001
1.274887e+003, 3.879906e+001
1.275369e+003, 3.902229e+001
1.275851e+003, 3.913105e+001
1.276333e+003, 3.912874e+001
1.276815e+003, 3.905021e+001
1.277297e+003, 3.913316e+001
1.277779e+003, 3.944206e+001
1.278261e+003, 3.956675e+001
1.278744e+003, 3.900851e+001
1.279226e+003, 3.859020e+001
1.279708e+003, 3.867979e+001
1.280190e+003, 3.898177e+001
1.280672e+003, 3.882550e+001
1.281154e+003, 3.843946e+001
1.281636e+003, 3.850353e+001
1.282118e+003, 3.911024e+001
1.282600e+003, 3.948112e+001
1.283083e+003, 3.924313e+001
1.283565e+003, 3.898576e+001
1.284047e+003, 3.881901e+001
1.284529e+003, 3.873424e+001
1.285011e+003, 3.878825e+001
1.285493e+003, 3.887960e+001
1.285975e+003, 3.878482e+001
1.286457e+003, 3.851446e+001
1.286939e+003, 3.852867e+001
1.287422e+003, 3.897996e+001
1.287904e+003, 3.928244e+001
1.288386e+003, 3.931797e+001
1.288868e+003, 3.921187e+001
1.289350e+003, 3.902719e+001
1.289832e+003, 3.882630e+001
1.290314e+003, 3.862085e+001
1.290796e+003, 3.845875e+001
1.291279e+003, 3.853651e+001
1.291761e+003, 3.889277e+001
1.292243e+003, 3.905131e+001
1.292725e+003, 3.893469e+001
1.293207e+003, 3.878850e+001
1.293689e+003, 3.843007e+001
1.294171e+003, 3.849429e+001
1.294653e+003, 4.011914e+001
1.295135e+003, 4.210632e+001
1.295618e+003, 4.214281e+001
1.296100e+003, 4.046754e+001
1.296582e+003, 3.935965e+001
1.297064e+003, 3.902540e+001
1.297546e+003, 3.901260e+001
1.298028e+003, 3.944500e+001
1.298510e+003, 3.961338e+001
1.298992e+003, 3.915385e+001
1.299475e+003, 3.857954e+001
1.299957e+003, 3.869307e+001
1.300439e+003, 3.920887e+001
1.300921e+003, 3.917118e+001
1.301403e+003, 3.865808e+001
1.301885e+003, 3.843853e+001
##END=



