##NAMES=Almandine
##RRUFFID=R120145
##IDEAL CHEMISTRY=Fe^2+^_3_Al_2_(SiO_4_)_3_
##LOCALITY=Zagi Mountain, Hameed Abad Kafoor Dheri, Peshawar, Khyber Pakhtunkhwa, Pakistan
##OWNER=RRUFF
##SOURCE=Ikram Mineralogy
##DESCRIPTION=Brown crystal fragment
##STATUS=The identification of this mineral has been confirmed only by single crystal X-ray diffraction.
##URL=rruff.info/R120145
8.975323e+001, 0.000000e+000
9.023535e+001, 1.087662e+002
9.071747e+001, 1.099720e+002
9.119958e+001, 1.099871e+002
9.168170e+001, 1.098094e+002
9.216382e+001, 1.086660e+002
9.264594e+001, 1.069124e+002
9.312805e+001, 1.050534e+002
9.361017e+001, 1.032196e+002
9.409229e+001, 1.009687e+002
9.457440e+001, 9.783195e+001
9.505651e+001, 9.508150e+001
9.553863e+001, 9.276649e+001
9.602074e+001, 9.082328e+001
9.650286e+001, 8.926467e+001
9.698498e+001, 8.803905e+001
9.746709e+001, 8.685876e+001
9.794921e+001, 8.552632e+001
9.843133e+001, 8.406344e+001
9.891344e+001, 8.249882e+001
9.939556e+001, 8.057302e+001
9.987768e+001, 7.846679e+001
1.003598e+002, 7.675302e+001
1.008419e+002, 7.582275e+001
1.013240e+002, 7.557389e+001
1.018061e+002, 7.529777e+001
1.022883e+002, 7.498653e+001
1.027704e+002, 7.464219e+001
1.032525e+002, 7.425609e+001
1.037346e+002, 7.381503e+001
1.042167e+002, 7.337141e+001
1.046988e+002, 7.301550e+001
1.051810e+002, 7.265949e+001
1.056631e+002, 7.215120e+001
1.061452e+002, 7.133604e+001
1.066273e+002, 7.029808e+001
1.071094e+002, 6.938161e+001
1.075915e+002, 6.861349e+001
1.080737e+002, 6.794751e+001
1.085558e+002, 6.735041e+001
1.090379e+002, 6.682359e+001
1.095200e+002, 6.638173e+001
1.100021e+002, 6.603700e+001
1.104842e+002, 6.579321e+001
1.109664e+002, 6.563979e+001
1.114485e+002, 6.560366e+001
1.119306e+002, 6.562528e+001
1.124127e+002, 6.571183e+001
1.128948e+002, 6.584702e+001
1.133769e+002, 6.597897e+001
1.138591e+002, 6.602953e+001
1.143412e+002, 6.593062e+001
1.148233e+002, 6.586550e+001
1.153054e+002, 6.593359e+001
1.157875e+002, 6.598974e+001
1.162696e+002, 6.585805e+001
1.167517e+002, 6.546651e+001
1.172339e+002, 6.494296e+001
1.177160e+002, 6.458462e+001
1.181981e+002, 6.436629e+001
1.186802e+002, 6.429346e+001
1.191623e+002, 6.442207e+001
1.196444e+002, 6.470604e+001
1.201266e+002, 6.505204e+001
1.206087e+002, 6.551365e+001
1.210908e+002, 6.591650e+001
1.215729e+002, 6.595904e+001
1.220550e+002, 6.549226e+001
1.225371e+002, 6.492103e+001
1.230193e+002, 6.459543e+001
1.235014e+002, 6.453672e+001
1.239835e+002, 6.453277e+001
1.244656e+002, 6.446664e+001
1.249477e+002, 6.441196e+001
1.254298e+002, 6.443974e+001
1.259120e+002, 6.457338e+001
1.263941e+002, 6.480489e+001
1.268762e+002, 6.512969e+001
1.273583e+002, 6.562183e+001
1.278404e+002, 6.608906e+001
1.283225e+002, 6.651933e+001
1.288047e+002, 6.688862e+001
1.292868e+002, 6.715695e+001
1.297689e+002, 6.728916e+001
1.302510e+002, 6.729521e+001
1.307331e+002, 6.731753e+001
1.312152e+002, 6.716916e+001
1.316974e+002, 6.722339e+001
1.321795e+002, 6.775085e+001
1.326616e+002, 6.859136e+001
1.331437e+002, 6.935452e+001
1.336258e+002, 6.967912e+001
1.341079e+002, 6.946390e+001
1.345901e+002, 6.947871e+001
1.350722e+002, 6.974538e+001
1.355543e+002, 7.016983e+001
1.360364e+002, 7.077270e+001
1.365185e+002, 7.152634e+001
1.370006e+002, 7.228397e+001
1.374828e+002, 7.286507e+001
1.379649e+002, 7.323250e+001
1.384470e+002, 7.359309e+001
1.389291e+002, 7.399436e+001
1.394112e+002, 7.438171e+001
1.398933e+002, 7.465567e+001
1.403755e+002, 7.476416e+001
1.408576e+002, 7.487398e+001
1.413397e+002, 7.522617e+001
1.418218e+002, 7.579365e+001
1.423039e+002, 7.639256e+001
1.427860e+002, 7.693497e+001
1.432681e+002, 7.744504e+001
1.437503e+002, 7.799527e+001
1.442324e+002, 7.851871e+001
1.447145e+002, 7.920562e+001
1.451966e+002, 8.032435e+001
1.456787e+002, 8.186598e+001
1.461608e+002, 8.329778e+001
1.466430e+002, 8.402946e+001
1.471251e+002, 8.396487e+001
1.476072e+002, 8.414924e+001
1.480893e+002, 8.500964e+001
1.485714e+002, 8.604827e+001
1.490535e+002, 8.707047e+001
1.495357e+002, 8.801815e+001
1.500178e+002, 8.886634e+001
1.504999e+002, 8.952904e+001
1.509820e+002, 8.984862e+001
1.514641e+002, 9.034673e+001
1.519462e+002, 9.119195e+001
1.524284e+002, 9.213270e+001
1.529105e+002, 9.299458e+001
1.533926e+002, 9.370512e+001
1.538747e+002, 9.429504e+001
1.543568e+002, 9.483868e+001
1.548389e+002, 9.539980e+001
1.553211e+002, 9.581465e+001
1.558032e+002, 9.610786e+001
1.562853e+002, 9.624578e+001
1.567674e+002, 9.611996e+001
1.572495e+002, 9.565662e+001
1.577316e+002, 9.498667e+001
1.582138e+002, 9.468542e+001
1.586959e+002, 9.517646e+001
1.591780e+002, 9.550655e+001
1.596601e+002, 9.542313e+001
1.601422e+002, 9.500525e+001
1.606243e+002, 9.439067e+001
1.611065e+002, 9.357738e+001
1.615886e+002, 9.268476e+001
1.620707e+002, 9.220202e+001
1.625528e+002, 9.235583e+001
1.630349e+002, 9.266020e+001
1.635170e+002, 9.283855e+001
1.639991e+002, 9.290774e+001
1.644813e+002, 9.305470e+001
1.649634e+002, 9.357536e+001
1.654455e+002, 9.419674e+001
1.659276e+002, 9.432761e+001
1.664097e+002, 9.381894e+001
1.668918e+002, 9.286230e+001
1.673740e+002, 9.163596e+001
1.678561e+002, 9.012836e+001
1.683382e+002, 8.841425e+001
1.688203e+002, 8.643031e+001
1.693024e+002, 8.430076e+001
1.697845e+002, 8.214190e+001
1.702667e+002, 7.998734e+001
1.707488e+002, 7.784572e+001
1.712309e+002, 7.572059e+001
1.717130e+002, 7.354990e+001
1.721951e+002, 7.152782e+001
1.726772e+002, 6.966191e+001
1.731594e+002, 6.795837e+001
1.736415e+002, 6.644163e+001
1.741236e+002, 6.518349e+001
1.746057e+002, 6.412293e+001
1.750878e+002, 6.287798e+001
1.755699e+002, 6.096074e+001
1.760521e+002, 5.943280e+001
1.765342e+002, 5.880483e+001
1.770163e+002, 5.874560e+001
1.774984e+002, 5.867499e+001
1.779805e+002, 5.815644e+001
1.784626e+002, 5.718409e+001
1.789448e+002, 5.635275e+001
1.794269e+002, 5.560363e+001
1.799090e+002, 5.504723e+001
1.803911e+002, 5.477859e+001
1.808732e+002, 5.474615e+001
1.813553e+002, 5.483864e+001
1.818375e+002, 5.497575e+001
1.823196e+002, 5.516988e+001
1.828017e+002, 5.527320e+001
1.832838e+002, 5.518128e+001
1.837659e+002, 5.511065e+001
1.842480e+002, 5.518356e+001
1.847301e+002, 5.539039e+001
1.852123e+002, 5.562618e+001
1.856944e+002, 5.578034e+001
1.861765e+002, 5.583324e+001
1.866586e+002, 5.603534e+001
1.871407e+002, 5.649242e+001
1.876228e+002, 5.701437e+001
1.881050e+002, 5.744368e+001
1.885871e+002, 5.776568e+001
1.890692e+002, 5.810899e+001
1.895513e+002, 5.861631e+001
1.900334e+002, 5.928324e+001
1.905155e+002, 5.992662e+001
1.909977e+002, 6.046199e+001
1.914798e+002, 6.099190e+001
1.919619e+002, 6.167321e+001
1.924440e+002, 6.255470e+001
1.929261e+002, 6.342979e+001
1.934082e+002, 6.402323e+001
1.938904e+002, 6.442704e+001
1.943725e+002, 6.492400e+001
1.948546e+002, 6.568813e+001
1.953367e+002, 6.659116e+001
1.958188e+002, 6.735719e+001
1.963009e+002, 6.789190e+001
1.967831e+002, 6.845190e+001
1.972652e+002, 6.927231e+001
1.977473e+002, 7.027386e+001
1.982294e+002, 7.124345e+001
1.987115e+002, 7.206239e+001
1.991936e+002, 7.276144e+001
1.996758e+002, 7.344632e+001
2.001579e+002, 7.404259e+001
2.006400e+002, 7.474910e+001
2.011221e+002, 7.572408e+001
2.016042e+002, 7.688155e+001
2.020863e+002, 7.799748e+001
2.025685e+002, 7.887865e+001
2.030506e+002, 7.954545e+001
2.035327e+002, 8.033057e+001
2.040148e+002, 8.141045e+001
2.044969e+002, 8.242241e+001
2.049790e+002, 8.314934e+001
2.054612e+002, 8.368315e+001
2.059433e+002, 8.426704e+001
2.064254e+002, 8.513585e+001
2.069075e+002, 8.631432e+001
2.073896e+002, 8.729039e+001
2.078717e+002, 8.789171e+001
2.083539e+002, 8.843520e+001
2.088360e+002, 8.897225e+001
2.093181e+002, 8.952661e+001
2.098002e+002, 9.012980e+001
2.102823e+002, 9.083454e+001
2.107644e+002, 9.167050e+001
2.112466e+002, 9.230141e+001
2.117287e+002, 9.256051e+001
2.122108e+002, 9.279142e+001
2.126929e+002, 9.318788e+001
2.131750e+002, 9.369721e+001
2.136571e+002, 9.412310e+001
2.141393e+002, 9.428043e+001
2.146214e+002, 9.413496e+001
2.151035e+002, 9.393310e+001
2.155856e+002, 9.375220e+001
2.160677e+002, 9.346471e+001
2.165498e+002, 9.299118e+001
2.170320e+002, 9.234383e+001
2.175141e+002, 9.158693e+001
2.179962e+002, 9.077489e+001
2.184783e+002, 8.990182e+001
2.189604e+002, 8.899787e+001
2.194425e+002, 8.800725e+001
2.199247e+002, 8.702994e+001
2.204068e+002, 8.616474e+001
2.208889e+002, 8.539640e+001
2.213710e+002, 8.458456e+001
2.218531e+002, 8.358914e+001
2.223352e+002, 8.239601e+001
2.228174e+002, 8.129877e+001
2.232995e+002, 8.044691e+001
2.237816e+002, 7.957991e+001
2.242637e+002, 7.847463e+001
2.247458e+002, 7.712638e+001
2.252279e+002, 7.574570e+001
2.257100e+002, 7.451939e+001
2.261922e+002, 7.342261e+001
2.266743e+002, 7.221500e+001
2.271564e+002, 7.073040e+001
2.276385e+002, 6.922599e+001
2.281206e+002, 6.794843e+001
2.286027e+002, 6.691352e+001
2.290849e+002, 6.601388e+001
2.295670e+002, 6.522946e+001
2.300491e+002, 6.453215e+001
2.305312e+002, 6.383654e+001
2.310133e+002, 6.309153e+001
2.314954e+002, 6.236612e+001
2.319776e+002, 6.178650e+001
2.324597e+002, 6.138383e+001
2.329418e+002, 6.090785e+001
2.334239e+002, 6.007400e+001
2.339060e+002, 5.908136e+001
2.343881e+002, 5.823711e+001
2.348703e+002, 5.767381e+001
2.353524e+002, 5.724479e+001
2.358345e+002, 5.674661e+001
2.363166e+002, 5.615660e+001
2.367987e+002, 5.557916e+001
2.372808e+002, 5.505855e+001
2.377630e+002, 5.458094e+001
2.382451e+002, 5.414495e+001
2.387272e+002, 5.377722e+001
2.392093e+002, 5.341109e+001
2.396914e+002, 5.290407e+001
2.401735e+002, 5.217588e+001
2.406557e+002, 5.156144e+001
2.411378e+002, 5.129140e+001
2.416199e+002, 5.115011e+001
2.421020e+002, 5.093726e+001
2.425841e+002, 5.057709e+001
2.430662e+002, 5.014662e+001
2.435484e+002, 4.977988e+001
2.440305e+002, 4.950330e+001
2.445126e+002, 4.922087e+001
2.449947e+002, 4.892396e+001
2.454768e+002, 4.860290e+001
2.459589e+002, 4.820528e+001
2.464410e+002, 4.770333e+001
2.469232e+002, 4.723438e+001
2.474053e+002, 4.709379e+001
2.478874e+002, 4.752645e+001
2.483695e+002, 4.769186e+001
2.488516e+002, 4.725433e+001
2.493337e+002, 4.664001e+001
2.498159e+002, 4.617101e+001
2.502980e+002, 4.594447e+001
2.507801e+002, 4.583455e+001
2.512622e+002, 4.563052e+001
2.517443e+002, 4.529556e+001
2.522264e+002, 4.494656e+001
2.527086e+002, 4.452967e+001
2.531907e+002, 4.414561e+001
2.536728e+002, 4.388980e+001
2.541549e+002, 4.377721e+001
2.546370e+002, 4.371619e+001
2.551191e+002, 4.356438e+001
2.556013e+002, 4.327880e+001
2.560834e+002, 4.299092e+001
2.565655e+002, 4.263372e+001
2.570476e+002, 4.232400e+001
2.575297e+002, 4.218335e+001
2.580118e+002, 4.221092e+001
2.584940e+002, 4.226159e+001
2.589761e+002, 4.211155e+001
2.594582e+002, 4.157528e+001
2.599403e+002, 4.132222e+001
2.604224e+002, 4.159176e+001
2.609045e+002, 4.189685e+001
2.613867e+002, 4.192503e+001
2.618688e+002, 4.165416e+001
2.623509e+002, 4.127003e+001
2.628330e+002, 4.097129e+001
2.633151e+002, 4.075176e+001
2.637972e+002, 4.066121e+001
2.642794e+002, 4.086953e+001
2.647615e+002, 4.104045e+001
2.652436e+002, 4.092318e+001
2.657257e+002, 4.055515e+001
2.662078e+002, 4.018674e+001
2.666899e+002, 4.006822e+001
2.671721e+002, 4.024443e+001
2.676542e+002, 4.040292e+001
2.681363e+002, 4.057402e+001
2.686184e+002, 4.070522e+001
2.691005e+002, 4.077753e+001
2.695826e+002, 4.078740e+001
2.700648e+002, 4.073065e+001
2.705469e+002, 4.059756e+001
2.710290e+002, 4.038612e+001
2.715111e+002, 4.017413e+001
2.719932e+002, 3.981242e+001
2.724753e+002, 3.959245e+001
2.729575e+002, 3.976617e+001
2.734396e+002, 4.020422e+001
2.739217e+002, 4.055090e+001
2.744038e+002, 4.055685e+001
2.748859e+002, 4.025200e+001
2.753680e+002, 3.999903e+001
2.758501e+002, 3.975110e+001
2.763322e+002, 3.958790e+001
2.768144e+002, 3.955846e+001
2.772965e+002, 3.963387e+001
2.777786e+002, 3.975434e+001
2.782607e+002, 3.989089e+001
2.787428e+002, 4.004250e+001
2.792249e+002, 4.020860e+001
2.797071e+002, 4.038103e+001
2.801892e+002, 4.057402e+001
2.806713e+002, 4.083813e+001
2.811534e+002, 4.112011e+001
2.816355e+002, 4.132029e+001
2.821176e+002, 4.139130e+001
2.825998e+002, 4.137138e+001
2.830819e+002, 4.134557e+001
2.835640e+002, 4.127043e+001
2.840461e+002, 4.126714e+001
2.845282e+002, 4.140673e+001
2.850103e+002, 4.162126e+001
2.854925e+002, 4.180757e+001
2.859746e+002, 4.192968e+001
2.864567e+002, 4.203110e+001
2.869388e+002, 4.219427e+001
2.874209e+002, 4.244408e+001
2.879030e+002, 4.266341e+001
2.883852e+002, 4.275700e+001
2.888673e+002, 4.284052e+001
2.893494e+002, 4.308900e+001
2.898315e+002, 4.354811e+001
2.903136e+002, 4.404162e+001
2.907957e+002, 4.432865e+001
2.912779e+002, 4.436602e+001
2.917600e+002, 4.453575e+001
2.922421e+002, 4.495571e+001
2.927242e+002, 4.547898e+001
2.932063e+002, 4.597959e+001
2.936884e+002, 4.644178e+001
2.941706e+002, 4.687632e+001
2.946527e+002, 4.730812e+001
2.951348e+002, 4.773023e+001
2.956169e+002, 4.804491e+001
2.960990e+002, 4.804055e+001
2.965811e+002, 4.807820e+001
2.970633e+002, 4.851945e+001
2.975454e+002, 4.934031e+001
2.980275e+002, 5.014956e+001
2.985096e+002, 5.067196e+001
2.989917e+002, 5.093596e+001
2.994738e+002, 5.123566e+001
2.999560e+002, 5.149876e+001
3.004381e+002, 5.185804e+001
3.009202e+002, 5.249440e+001
3.014023e+002, 5.333529e+001
3.018844e+002, 5.403358e+001
3.023665e+002, 5.434162e+001
3.028487e+002, 5.443568e+001
3.033308e+002, 5.484565e+001
3.038129e+002, 5.566653e+001
3.042950e+002, 5.660658e+001
3.047771e+002, 5.768028e+001
3.052592e+002, 5.878511e+001
3.057414e+002, 5.960997e+001
3.062235e+002, 5.996792e+001
3.067056e+002, 6.011909e+001
3.071877e+002, 6.056799e+001
3.076698e+002, 6.134313e+001
3.081519e+002, 6.219013e+001
3.086341e+002, 6.297581e+001
3.091162e+002, 6.378952e+001
3.095983e+002, 6.485261e+001
3.100804e+002, 6.627287e+001
3.105625e+002, 6.770864e+001
3.110446e+002, 6.864053e+001
3.115268e+002, 6.906943e+001
3.120089e+002, 6.948678e+001
3.124910e+002, 6.998685e+001
3.129731e+002, 7.052424e+001
3.134552e+002, 7.105479e+001
3.139373e+002, 7.157112e+001
3.144195e+002, 7.207751e+001
3.149016e+002, 7.260754e+001
3.153837e+002, 7.314861e+001
3.158658e+002, 7.355175e+001
3.163479e+002, 7.358439e+001
3.168300e+002, 7.363048e+001
3.173121e+002, 7.401907e+001
3.177943e+002, 7.474990e+001
3.182764e+002, 7.561805e+001
3.187585e+002, 7.651305e+001
3.192406e+002, 7.743928e+001
3.197227e+002, 7.841171e+001
3.202048e+002, 7.949383e+001
3.206870e+002, 8.056313e+001
3.211691e+002, 8.138234e+001
3.216512e+002, 8.208727e+001
3.221333e+002, 8.319878e+001
3.226154e+002, 8.499888e+001
3.230975e+002, 8.730686e+001
3.235797e+002, 8.959958e+001
3.240618e+002, 9.178551e+001
3.245439e+002, 9.415476e+001
3.250260e+002, 9.686405e+001
3.255081e+002, 9.982198e+001
3.259902e+002, 1.028996e+002
3.264724e+002, 1.060739e+002
3.269545e+002, 1.093102e+002
3.274366e+002, 1.125511e+002
3.279187e+002, 1.157658e+002
3.284008e+002, 1.191188e+002
3.288829e+002, 1.227257e+002
3.293651e+002, 1.264359e+002
3.298472e+002, 1.300563e+002
3.303293e+002, 1.335533e+002
3.308114e+002, 1.370503e+002
3.312935e+002, 1.406735e+002
3.317756e+002, 1.444315e+002
3.322578e+002, 1.483233e+002
3.327399e+002, 1.522967e+002
3.332220e+002, 1.564150e+002
3.337041e+002, 1.608011e+002
3.341862e+002, 1.654055e+002
3.346683e+002, 1.700676e+002
3.351505e+002, 1.746290e+002
3.356326e+002, 1.791439e+002
3.361147e+002, 1.838408e+002
3.365968e+002, 1.886957e+002
3.370789e+002, 1.937781e+002
3.375610e+002, 1.991665e+002
3.380432e+002, 2.048225e+002
3.385253e+002, 2.106209e+002
3.390074e+002, 2.165174e+002
3.394895e+002, 2.224790e+002
3.399716e+002, 2.283924e+002
3.404537e+002, 2.342117e+002
3.409359e+002, 2.400568e+002
3.414180e+002, 2.458991e+002
3.419001e+002, 2.518064e+002
3.423822e+002, 2.579626e+002
3.428643e+002, 2.643983e+002
3.433464e+002, 2.707417e+002
3.438286e+002, 2.765350e+002
3.443107e+002, 2.818466e+002
3.447928e+002, 2.860522e+002
3.452749e+002, 2.892221e+002
3.457570e+002, 2.911949e+002
3.462391e+002, 2.919606e+002
3.467213e+002, 2.914595e+002
3.472034e+002, 2.894215e+002
3.476855e+002, 2.855840e+002
3.481676e+002, 2.798584e+002
3.486497e+002, 2.728190e+002
3.491318e+002, 2.640725e+002
3.496140e+002, 2.546710e+002
3.500961e+002, 2.449840e+002
3.505782e+002, 2.350642e+002
3.510603e+002, 2.247734e+002
3.515424e+002, 2.140168e+002
3.520245e+002, 2.030058e+002
3.525067e+002, 1.925448e+002
3.529888e+002, 1.824799e+002
3.534709e+002, 1.731747e+002
3.539530e+002, 1.646427e+002
3.544351e+002, 1.569229e+002
3.549172e+002, 1.501549e+002
3.553994e+002, 1.443787e+002
3.558815e+002, 1.392215e+002
3.563636e+002, 1.339665e+002
3.568457e+002, 1.281273e+002
3.573278e+002, 1.232882e+002
3.578099e+002, 1.199605e+002
3.582920e+002, 1.171405e+002
3.587741e+002, 1.141212e+002
3.592563e+002, 1.108672e+002
3.597384e+002, 1.078622e+002
3.602205e+002, 1.055927e+002
3.607026e+002, 1.041363e+002
3.611847e+002, 1.026791e+002
3.616668e+002, 1.013172e+002
3.621490e+002, 9.986066e+001
3.626311e+002, 9.807656e+001
3.631132e+002, 9.615767e+001
3.635953e+002, 9.451301e+001
3.640774e+002, 9.340468e+001
3.645595e+002, 9.270137e+001
3.650417e+002, 9.183825e+001
3.655238e+002, 9.060523e+001
3.660059e+002, 8.950174e+001
3.664880e+002, 8.863605e+001
3.669701e+002, 8.789759e+001
3.674522e+002, 8.718987e+001
3.679344e+002, 8.648151e+001
3.684165e+002, 8.577623e+001
3.688986e+002, 8.510636e+001
3.693807e+002, 8.456290e+001
3.698628e+002, 8.379820e+001
3.703449e+002, 8.258334e+001
3.708271e+002, 8.134105e+001
3.713092e+002, 8.029012e+001
3.717913e+002, 7.942870e+001
3.722734e+002, 7.860725e+001
3.727555e+002, 7.772755e+001
3.732376e+002, 7.678969e+001
3.737198e+002, 7.570699e+001
3.742019e+002, 7.434036e+001
3.746840e+002, 7.299183e+001
3.751661e+002, 7.180530e+001
3.756482e+002, 7.068993e+001
3.761303e+002, 6.950907e+001
3.766125e+002, 6.817955e+001
3.770946e+002, 6.676737e+001
3.775767e+002, 6.540666e+001
3.780588e+002, 6.409792e+001
3.785409e+002, 6.284068e+001
3.790230e+002, 6.166278e+001
3.795052e+002, 6.051666e+001
3.799873e+002, 5.936646e+001
3.804694e+002, 5.820498e+001
3.809515e+002, 5.704888e+001
3.814336e+002, 5.593933e+001
3.819157e+002, 5.487225e+001
3.823979e+002, 5.373865e+001
3.828800e+002, 5.241713e+001
3.833621e+002, 5.115936e+001
3.838442e+002, 5.013866e+001
3.843263e+002, 4.931915e+001
3.848084e+002, 4.853821e+001
3.852906e+002, 4.771338e+001
3.857727e+002, 4.687476e+001
3.862548e+002, 4.608022e+001
3.867369e+002, 4.533030e+001
3.872190e+002, 4.463264e+001
3.877011e+002, 4.406424e+001
3.881833e+002, 4.352907e+001
3.886654e+002, 4.287050e+001
3.891475e+002, 4.199506e+001
3.896296e+002, 4.110835e+001
3.901117e+002, 4.039248e+001
3.905938e+002, 3.983081e+001
3.910760e+002, 3.931945e+001
3.915581e+002, 3.883809e+001
3.920402e+002, 3.837835e+001
3.925223e+002, 3.793657e+001
3.930044e+002, 3.751700e+001
3.934865e+002, 3.707093e+001
3.939687e+002, 3.654513e+001
3.944508e+002, 3.599294e+001
3.949329e+002, 3.550161e+001
3.954150e+002, 3.508001e+001
3.958971e+002, 3.471077e+001
3.963792e+002, 3.437629e+001
3.968614e+002, 3.408160e+001
3.973435e+002, 3.383835e+001
3.978256e+002, 3.367479e+001
3.983077e+002, 3.353566e+001
3.987898e+002, 3.342891e+001
3.992719e+002, 3.332543e+001
3.997540e+002, 3.310692e+001
4.002361e+002, 3.268581e+001
4.007183e+002, 3.215735e+001
4.012004e+002, 3.181890e+001
4.016825e+002, 3.182393e+001
4.021646e+002, 3.171872e+001
4.026467e+002, 3.125064e+001
4.031288e+002, 3.071107e+001
4.036110e+002, 3.049189e+001
4.040931e+002, 3.066671e+001
4.045752e+002, 3.093581e+001
4.050573e+002, 3.094742e+001
4.055394e+002, 3.064246e+001
4.060215e+002, 3.035429e+001
4.065037e+002, 3.004745e+001
4.069858e+002, 2.978915e+001
4.074679e+002, 2.964869e+001
4.079500e+002, 2.958515e+001
4.084321e+002, 2.948717e+001
4.089142e+002, 2.927645e+001
4.093964e+002, 2.899395e+001
4.098785e+002, 2.882918e+001
4.103606e+002, 2.899265e+001
4.108427e+002, 2.899829e+001
4.113248e+002, 2.867062e+001
4.118069e+002, 2.824444e+001
4.122891e+002, 2.794207e+001
4.127712e+002, 2.782075e+001
4.132533e+002, 2.778764e+001
4.137354e+002, 2.771457e+001
4.142175e+002, 2.757259e+001
4.146996e+002, 2.750645e+001
4.151818e+002, 2.764568e+001
4.156639e+002, 2.774139e+001
4.161460e+002, 2.765723e+001
4.166281e+002, 2.744820e+001
4.171102e+002, 2.726864e+001
4.175923e+002, 2.723971e+001
4.180745e+002, 2.729037e+001
4.185566e+002, 2.713873e+001
4.190387e+002, 2.663211e+001
4.195208e+002, 2.626788e+001
4.200029e+002, 2.632330e+001
4.204850e+002, 2.651507e+001
4.209672e+002, 2.658038e+001
4.214493e+002, 2.645430e+001
4.219314e+002, 2.628143e+001
4.224135e+002, 2.623091e+001
4.228956e+002, 2.629335e+001
4.233777e+002, 2.626101e+001
4.238599e+002, 2.604042e+001
4.243420e+002, 2.580503e+001
4.248241e+002, 2.569062e+001
4.253062e+002, 2.567294e+001
4.257883e+002, 2.566521e+001
4.262704e+002, 2.562428e+001
4.267526e+002, 2.557572e+001
4.272347e+002, 2.556478e+001
4.277168e+002, 2.559415e+001
4.281989e+002, 2.561801e+001
4.286810e+002, 2.561854e+001
4.291631e+002, 2.559298e+001
4.296453e+002, 2.553935e+001
4.301274e+002, 2.544166e+001
4.306095e+002, 2.535191e+001
4.310916e+002, 2.531076e+001
4.315737e+002, 2.529366e+001
4.320558e+002, 2.523808e+001
4.325380e+002, 2.512210e+001
4.330201e+002, 2.501387e+001
4.335022e+002, 2.499908e+001
4.339843e+002, 2.509249e+001
4.344664e+002, 2.517471e+001
4.349485e+002, 2.526015e+001
4.354307e+002, 2.531756e+001
4.359128e+002, 2.530702e+001
4.363949e+002, 2.524615e+001
4.368770e+002, 2.520344e+001
4.373591e+002, 2.522720e+001
4.378412e+002, 2.528222e+001
4.383234e+002, 2.523248e+001
4.388055e+002, 2.487602e+001
4.392876e+002, 2.467460e+001
4.397697e+002, 2.472850e+001
4.402518e+002, 2.491187e+001
4.407339e+002, 2.514480e+001
4.412160e+002, 2.539175e+001
4.416982e+002, 2.560588e+001
4.421803e+002, 2.572406e+001
4.426624e+002, 2.572936e+001
4.431445e+002, 2.576517e+001
4.436266e+002, 2.594166e+001
4.441087e+002, 2.603355e+001
4.445909e+002, 2.587263e+001
4.450730e+002, 2.559858e+001
4.455551e+002, 2.544675e+001
4.460372e+002, 2.554607e+001
4.465193e+002, 2.579480e+001
4.470014e+002, 2.596553e+001
4.474836e+002, 2.602335e+001
4.479657e+002, 2.610701e+001
4.484478e+002, 2.628912e+001
4.489299e+002, 2.647108e+001
4.494120e+002, 2.657275e+001
4.498941e+002, 2.659922e+001
4.503763e+002, 2.663933e+001
4.508584e+002, 2.679164e+001
4.513405e+002, 2.701995e+001
4.518226e+002, 2.714138e+001
4.523047e+002, 2.708871e+001
4.527868e+002, 2.708812e+001
4.532690e+002, 2.736386e+001
4.537511e+002, 2.775442e+001
4.542332e+002, 2.802090e+001
4.547153e+002, 2.806139e+001
4.551974e+002, 2.806741e+001
4.556795e+002, 2.816421e+001
4.561617e+002, 2.835303e+001
4.566438e+002, 2.866101e+001
4.571259e+002, 2.913089e+001
4.576080e+002, 2.964951e+001
4.580901e+002, 3.006747e+001
4.585722e+002, 3.038749e+001
4.590544e+002, 3.070272e+001
4.595365e+002, 3.098813e+001
4.600186e+002, 3.130414e+001
4.605007e+002, 3.173289e+001
4.609828e+002, 3.225580e+001
4.614649e+002, 3.275835e+001
4.619471e+002, 3.317039e+001
4.624292e+002, 3.351219e+001
4.629113e+002, 3.387743e+001
4.633934e+002, 3.434157e+001
4.638755e+002, 3.472966e+001
4.643576e+002, 3.490072e+001
4.648398e+002, 3.505520e+001
4.653219e+002, 3.545263e+001
4.658040e+002, 3.611552e+001
4.662861e+002, 3.678844e+001
4.667682e+002, 3.716745e+001
4.672503e+002, 3.720549e+001
4.677325e+002, 3.743299e+001
4.682146e+002, 3.795474e+001
4.686967e+002, 3.855968e+001
4.691788e+002, 3.929617e+001
4.696609e+002, 4.005262e+001
4.701430e+002, 4.063723e+001
4.706252e+002, 4.095842e+001
4.711073e+002, 4.119567e+001
4.715894e+002, 4.167158e+001
4.720715e+002, 4.242839e+001
4.725536e+002, 4.323592e+001
4.730357e+002, 4.412688e+001
4.735179e+002, 4.500359e+001
4.740000e+002, 4.587095e+001
4.744821e+002, 4.668692e+001
4.749642e+002, 4.733216e+001
4.754463e+002, 4.770502e+001
4.759284e+002, 4.786491e+001
4.764106e+002, 4.791425e+001
4.768927e+002, 4.783587e+001
4.773748e+002, 4.776227e+001
4.778569e+002, 4.784280e+001
4.783390e+002, 4.790839e+001
4.788211e+002, 4.764310e+001
4.793033e+002, 4.690350e+001
4.797854e+002, 4.631641e+001
4.802675e+002, 4.629546e+001
4.807496e+002, 4.661419e+001
4.812317e+002, 4.684481e+001
4.817138e+002, 4.690718e+001
4.821959e+002, 4.700858e+001
4.826780e+002, 4.733430e+001
4.831602e+002, 4.788999e+001
4.836423e+002, 4.850126e+001
4.841244e+002, 4.913390e+001
4.846065e+002, 4.985232e+001
4.850886e+002, 5.066389e+001
4.855707e+002, 5.158727e+001
4.860529e+002, 5.270035e+001
4.865350e+002, 5.403252e+001
4.870171e+002, 5.541175e+001
4.874992e+002, 5.651973e+001
4.879813e+002, 5.716543e+001
4.884634e+002, 5.809344e+001
4.889456e+002, 5.936006e+001
4.894277e+002, 6.080060e+001
4.899098e+002, 6.234417e+001
4.903919e+002, 6.399220e+001
4.908740e+002, 6.575574e+001
4.913561e+002, 6.762656e+001
4.918383e+002, 6.964137e+001
4.923204e+002, 7.190361e+001
4.928025e+002, 7.442255e+001
4.932846e+002, 7.714829e+001
4.937667e+002, 8.018051e+001
4.942488e+002, 8.332151e+001
4.947310e+002, 8.650215e+001
4.952131e+002, 8.968787e+001
4.956952e+002, 9.279726e+001
4.961773e+002, 9.572053e+001
4.966594e+002, 9.850584e+001
4.971415e+002, 1.013623e+002
4.976237e+002, 1.043979e+002
4.981058e+002, 1.070411e+002
4.985879e+002, 1.092010e+002
4.990700e+002, 1.106512e+002
4.995521e+002, 1.110852e+002
5.000342e+002, 1.104761e+002
5.005164e+002, 1.088872e+002
5.009985e+002, 1.061919e+002
5.014806e+002, 1.025752e+002
5.019627e+002, 9.817143e+001
5.024448e+002, 9.300921e+001
5.029269e+002, 8.755547e+001
5.034091e+002, 8.219892e+001
5.038912e+002, 7.690431e+001
5.043733e+002, 7.195129e+001
5.048554e+002, 6.729233e+001
5.053375e+002, 6.298466e+001
5.058196e+002, 5.904114e+001
5.063018e+002, 5.545811e+001
5.067839e+002, 5.225465e+001
5.072660e+002, 4.943542e+001
5.077481e+002, 4.700530e+001
5.082302e+002, 4.501797e+001
5.087123e+002, 4.356316e+001
5.091945e+002, 4.222114e+001
5.096766e+002, 4.108543e+001
5.101587e+002, 3.997279e+001
5.106408e+002, 3.874070e+001
5.111229e+002, 3.748713e+001
5.116050e+002, 3.640240e+001
5.120872e+002, 3.558683e+001
5.125693e+002, 3.496163e+001
5.130514e+002, 3.440055e+001
5.135335e+002, 3.390559e+001
5.140156e+002, 3.344699e+001
5.144977e+002, 3.305484e+001
5.149799e+002, 3.265727e+001
5.154620e+002, 3.216012e+001
5.159441e+002, 3.158754e+001
5.164262e+002, 3.110107e+001
5.169083e+002, 3.079940e+001
5.173904e+002, 3.060055e+001
5.178726e+002, 3.042036e+001
5.183547e+002, 3.025418e+001
5.188368e+002, 3.006268e+001
5.193189e+002, 2.980882e+001
5.198010e+002, 2.953994e+001
5.202831e+002, 2.937329e+001
5.207653e+002, 2.932133e+001
5.212474e+002, 2.930456e+001
5.217295e+002, 2.933906e+001
5.222116e+002, 2.938330e+001
5.226937e+002, 2.938744e+001
5.231758e+002, 2.935962e+001
5.236580e+002, 2.935826e+001
5.241401e+002, 2.942943e+001
5.246222e+002, 2.955612e+001
5.251043e+002, 2.965032e+001
5.255864e+002, 2.965432e+001
5.260685e+002, 2.970910e+001
5.265507e+002, 2.983341e+001
5.270328e+002, 3.000563e+001
5.275149e+002, 3.025261e+001
5.279970e+002, 3.054885e+001
5.284791e+002, 3.077223e+001
5.289612e+002, 3.073463e+001
5.294434e+002, 3.051743e+001
5.299255e+002, 3.066403e+001
5.304076e+002, 3.133640e+001
5.308897e+002, 3.199610e+001
5.313718e+002, 3.232220e+001
5.318539e+002, 3.256026e+001
5.323361e+002, 3.298102e+001
5.328182e+002, 3.364380e+001
5.333003e+002, 3.434908e+001
5.337824e+002, 3.490209e+001
5.342645e+002, 3.541842e+001
5.347466e+002, 3.617144e+001
5.352288e+002, 3.720500e+001
5.357109e+002, 3.835886e+001
5.361930e+002, 3.954301e+001
5.366751e+002, 4.074655e+001
5.371572e+002, 4.188064e+001
5.376393e+002, 4.293416e+001
5.381215e+002, 4.394334e+001
5.386036e+002, 4.487832e+001
5.390857e+002, 4.579766e+001
5.395678e+002, 4.674931e+001
5.400499e+002, 4.775317e+001
5.405320e+002, 4.887026e+001
5.410142e+002, 5.018562e+001
5.414963e+002, 5.170943e+001
5.419784e+002, 5.307494e+001
5.424604e+002, 5.393364e+001
5.429426e+002, 5.504614e+001
5.434247e+002, 5.673689e+001
5.439068e+002, 5.867232e+001
5.443889e+002, 6.048825e+001
5.448710e+002, 6.208472e+001
5.453531e+002, 6.356452e+001
5.458353e+002, 6.485851e+001
5.463174e+002, 6.602659e+001
5.467995e+002, 6.780795e+001
5.472816e+002, 7.051476e+001
5.477637e+002, 7.324485e+001
5.482458e+002, 7.536012e+001
5.487280e+002, 7.713885e+001
5.492101e+002, 7.905260e+001
5.496922e+002, 8.127455e+001
5.501743e+002, 8.341639e+001
5.506564e+002, 8.526142e+001
5.511385e+002, 8.685371e+001
5.516207e+002, 8.833485e+001
5.521028e+002, 8.973901e+001
5.525849e+002, 9.087919e+001
5.530670e+002, 9.161166e+001
5.535491e+002, 9.193343e+001
5.540313e+002, 9.168671e+001
5.545134e+002, 9.093214e+001
5.549955e+002, 8.963754e+001
5.554776e+002, 8.765281e+001
5.559597e+002, 8.518020e+001
5.564418e+002, 8.245515e+001
5.569240e+002, 7.953899e+001
5.574061e+002, 7.641887e+001
5.578882e+002, 7.299329e+001
5.583703e+002, 6.926253e+001
5.588524e+002, 6.573191e+001
5.593345e+002, 6.244526e+001
5.598167e+002, 5.935335e+001
5.602988e+002, 5.636698e+001
5.607809e+002, 5.356383e+001
5.612630e+002, 5.104028e+001
5.617451e+002, 4.883994e+001
5.622272e+002, 4.679682e+001
5.627094e+002, 4.470693e+001
5.631915e+002, 4.265368e+001
5.636736e+002, 4.092523e+001
5.641557e+002, 3.956044e+001
5.646378e+002, 3.846952e+001
5.651199e+002, 3.768746e+001
5.656021e+002, 3.713409e+001
5.660842e+002, 3.641784e+001
5.665663e+002, 3.524581e+001
5.670484e+002, 3.432836e+001
5.675305e+002, 3.412503e+001
5.680126e+002, 3.420717e+001
5.684948e+002, 3.399657e+001
5.689769e+002, 3.341835e+001
5.694590e+002, 3.282817e+001
5.699411e+002, 3.258285e+001
5.704232e+002, 3.265448e+001
5.709053e+002, 3.251689e+001
5.713875e+002, 3.183585e+001
5.718696e+002, 3.139905e+001
5.723517e+002, 3.143537e+001
5.728338e+002, 3.168834e+001
5.733159e+002, 3.198128e+001
5.737980e+002, 3.225745e+001
5.742802e+002, 3.244419e+001
5.747623e+002, 3.237834e+001
5.752444e+002, 3.215792e+001
5.757265e+002, 3.224055e+001
5.762086e+002, 3.270753e+001
5.766907e+002, 3.313463e+001
5.771729e+002, 3.329469e+001
5.776550e+002, 3.330691e+001
5.781371e+002, 3.336726e+001
5.786192e+002, 3.348677e+001
5.791013e+002, 3.361897e+001
5.795834e+002, 3.389791e+001
5.800656e+002, 3.409068e+001
5.805477e+002, 3.384511e+001
5.810298e+002, 3.319942e+001
5.815119e+002, 3.255254e+001
5.819940e+002, 3.216958e+001
5.824761e+002, 3.194462e+001
5.829583e+002, 3.150780e+001
5.834404e+002, 3.057258e+001
5.839225e+002, 2.985968e+001
5.844046e+002, 2.955981e+001
5.848867e+002, 2.931925e+001
5.853688e+002, 2.891709e+001
5.858510e+002, 2.836050e+001
5.863331e+002, 2.774387e+001
5.868152e+002, 2.709697e+001
5.872973e+002, 2.648292e+001
5.877794e+002, 2.607063e+001
5.882615e+002, 2.588335e+001
5.887437e+002, 2.573632e+001
5.892258e+002, 2.558206e+001
5.897079e+002, 2.545938e+001
5.901900e+002, 2.544358e+001
5.906721e+002, 2.550907e+001
5.911542e+002, 2.548409e+001
5.916364e+002, 2.521478e+001
5.921185e+002, 2.492109e+001
5.926006e+002, 2.481672e+001
5.930827e+002, 2.484657e+001
5.935648e+002, 2.483657e+001
5.940469e+002, 2.472259e+001
5.945291e+002, 2.456569e+001
5.950112e+002, 2.444823e+001
5.954933e+002, 2.437590e+001
5.959754e+002, 2.431929e+001
5.964575e+002, 2.438090e+001
5.969396e+002, 2.434352e+001
5.974218e+002, 2.409350e+001
5.979039e+002, 2.370999e+001
5.983860e+002, 2.328636e+001
5.988681e+002, 2.285749e+001
5.993502e+002, 2.245835e+001
5.998323e+002, 2.213829e+001
6.003145e+002, 2.189346e+001
6.007966e+002, 2.163746e+001
6.012787e+002, 2.131799e+001
6.017608e+002, 2.109299e+001
6.022429e+002, 2.113818e+001
6.027250e+002, 2.131168e+001
6.032072e+002, 2.139963e+001
6.036893e+002, 2.135565e+001
6.041714e+002, 2.128994e+001
6.046535e+002, 2.125614e+001
6.051356e+002, 2.123554e+001
6.056177e+002, 2.118616e+001
6.060999e+002, 2.111003e+001
6.065820e+002, 2.107010e+001
6.070641e+002, 2.111496e+001
6.075462e+002, 2.122897e+001
6.080283e+002, 2.134191e+001
6.085104e+002, 2.142246e+001
6.089926e+002, 2.154908e+001
6.094747e+002, 2.173242e+001
6.099568e+002, 2.195465e+001
6.104389e+002, 2.224627e+001
6.109210e+002, 2.257086e+001
6.114031e+002, 2.281021e+001
6.118853e+002, 2.284608e+001
6.123674e+002, 2.282404e+001
6.128495e+002, 2.308308e+001
6.133316e+002, 2.365093e+001
6.138137e+002, 2.420291e+001
6.142958e+002, 2.470581e+001
6.147780e+002, 2.510956e+001
6.152601e+002, 2.532420e+001
6.157422e+002, 2.538184e+001
6.162243e+002, 2.546334e+001
6.167064e+002, 2.552163e+001
6.171885e+002, 2.569646e+001
6.176707e+002, 2.613310e+001
6.181528e+002, 2.674155e+001
6.186349e+002, 2.734855e+001
6.191170e+002, 2.790126e+001
6.195991e+002, 2.843939e+001
6.200812e+002, 2.901212e+001
6.205634e+002, 2.962624e+001
6.210455e+002, 3.020339e+001
6.215276e+002, 3.070599e+001
6.220097e+002, 3.121746e+001
6.224918e+002, 3.174545e+001
6.229739e+002, 3.229354e+001
6.234561e+002, 3.289321e+001
6.239382e+002, 3.353658e+001
6.244203e+002, 3.411541e+001
6.249023e+002, 3.438195e+001
6.253845e+002, 3.453606e+001
6.258666e+002, 3.522021e+001
6.263487e+002, 3.650140e+001
6.268308e+002, 3.766154e+001
6.273129e+002, 3.834037e+001
6.277950e+002, 3.874648e+001
6.282772e+002, 3.932005e+001
6.287593e+002, 4.015626e+001
6.292414e+002, 4.069843e+001
6.297235e+002, 4.077399e+001
6.302056e+002, 4.061419e+001
6.306877e+002, 4.035575e+001
6.311699e+002, 3.999579e+001
6.316520e+002, 3.948367e+001
6.321341e+002, 3.879847e+001
6.326162e+002, 3.798102e+001
6.330983e+002, 3.710980e+001
6.335804e+002, 3.619775e+001
6.340626e+002, 3.513736e+001
6.345447e+002, 3.383139e+001
6.350268e+002, 3.250629e+001
6.355089e+002, 3.117967e+001
6.359910e+002, 2.992687e+001
6.364731e+002, 2.888055e+001
6.369553e+002, 2.810486e+001
6.374374e+002, 2.740606e+001
6.379195e+002, 2.658530e+001
6.384016e+002, 2.577160e+001
6.388837e+002, 2.526914e+001
6.393658e+002, 2.510099e+001
6.398480e+002, 2.489845e+001
6.403301e+002, 2.441035e+001
6.408122e+002, 2.372460e+001
6.412943e+002, 2.312906e+001
6.417764e+002, 2.260833e+001
6.422585e+002, 2.221644e+001
6.427407e+002, 2.205384e+001
6.432228e+002, 2.193069e+001
6.437049e+002, 2.174548e+001
6.441870e+002, 2.149596e+001
6.446691e+002, 2.120494e+001
6.451512e+002, 2.088035e+001
6.456334e+002, 2.054588e+001
6.461155e+002, 2.022165e+001
6.465976e+002, 1.990835e+001
6.470797e+002, 1.970120e+001
6.475618e+002, 1.967355e+001
6.480439e+002, 1.962882e+001
6.485261e+002, 1.935309e+001
6.490082e+002, 1.893937e+001
6.494903e+002, 1.869361e+001
6.499724e+002, 1.876555e+001
6.504545e+002, 1.881147e+001
6.509366e+002, 1.869344e+001
6.514188e+002, 1.847889e+001
6.519009e+002, 1.820507e+001
6.523830e+002, 1.790414e+001
6.528651e+002, 1.767623e+001
6.533472e+002, 1.760669e+001
6.538293e+002, 1.764318e+001
6.543115e+002, 1.757545e+001
6.547936e+002, 1.732124e+001
6.552757e+002, 1.716293e+001
6.557578e+002, 1.721493e+001
6.562399e+002, 1.730967e+001
6.567220e+002, 1.737636e+001
6.572042e+002, 1.741161e+001
6.576863e+002, 1.742714e+001
6.581684e+002, 1.745510e+001
6.586505e+002, 1.742101e+001
6.591326e+002, 1.715680e+001
6.596147e+002, 1.677717e+001
6.600969e+002, 1.665902e+001
6.605790e+002, 1.689181e+001
6.610611e+002, 1.711136e+001
6.615432e+002, 1.697058e+001
6.620253e+002, 1.651669e+001
6.625074e+002, 1.626321e+001
6.629896e+002, 1.634055e+001
6.634717e+002, 1.645108e+001
6.639538e+002, 1.666889e+001
6.644359e+002, 1.683556e+001
6.649180e+002, 1.677610e+001
6.654001e+002, 1.653645e+001
6.658823e+002, 1.632808e+001
6.663644e+002, 1.628484e+001
6.668465e+002, 1.634011e+001
6.673286e+002, 1.638123e+001
6.678107e+002, 1.640865e+001
6.682928e+002, 1.644204e+001
6.687750e+002, 1.649610e+001
6.692571e+002, 1.653153e+001
6.697392e+002, 1.650379e+001
6.702213e+002, 1.641777e+001
6.707034e+002, 1.633965e+001
6.711855e+002, 1.622583e+001
6.716677e+002, 1.617472e+001
6.721498e+002, 1.626291e+001
6.726319e+002, 1.640303e+001
6.731140e+002, 1.652548e+001
6.735961e+002, 1.660525e+001
6.740782e+002, 1.661468e+001
6.745604e+002, 1.652519e+001
6.750425e+002, 1.636216e+001
6.755246e+002, 1.619575e+001
6.760067e+002, 1.601250e+001
6.764888e+002, 1.588810e+001
6.769709e+002, 1.586226e+001
6.774531e+002, 1.587264e+001
6.779352e+002, 1.586516e+001
6.784173e+002, 1.584979e+001
6.788994e+002, 1.586513e+001
6.793815e+002, 1.596276e+001
6.798636e+002, 1.603835e+001
6.803458e+002, 1.602549e+001
6.808279e+002, 1.595299e+001
6.813100e+002, 1.582504e+001
6.817921e+002, 1.566329e+001
6.822742e+002, 1.560017e+001
6.827563e+002, 1.577054e+001
6.832385e+002, 1.609798e+001
6.837206e+002, 1.618441e+001
6.842027e+002, 1.586058e+001
6.846848e+002, 1.566573e+001
6.851669e+002, 1.582716e+001
6.856490e+002, 1.599994e+001
6.861312e+002, 1.594492e+001
6.866133e+002, 1.573289e+001
6.870954e+002, 1.560859e+001
6.875775e+002, 1.572009e+001
6.880596e+002, 1.584747e+001
6.885417e+002, 1.572988e+001
6.890239e+002, 1.548962e+001
6.895060e+002, 1.545709e+001
6.899881e+002, 1.568566e+001
6.904702e+002, 1.588505e+001
6.909523e+002, 1.581126e+001
6.914344e+002, 1.553226e+001
6.919166e+002, 1.539263e+001
6.923987e+002, 1.551721e+001
6.928808e+002, 1.558412e+001
6.933629e+002, 1.553794e+001
6.938450e+002, 1.547032e+001
6.943271e+002, 1.538921e+001
6.948093e+002, 1.533536e+001
6.952914e+002, 1.541634e+001
6.957735e+002, 1.572773e+001
6.962556e+002, 1.603661e+001
6.967377e+002, 1.601534e+001
6.972198e+002, 1.577011e+001
6.977020e+002, 1.572016e+001
6.981841e+002, 1.594448e+001
6.986662e+002, 1.611326e+001
6.991483e+002, 1.596718e+001
6.996304e+002, 1.560449e+001
7.001125e+002, 1.540053e+001
7.005947e+002, 1.543389e+001
7.010768e+002, 1.551380e+001
7.015589e+002, 1.572350e+001
7.020410e+002, 1.590016e+001
7.025231e+002, 1.592796e+001
7.030052e+002, 1.584670e+001
7.034874e+002, 1.574699e+001
7.039695e+002, 1.566454e+001
7.044516e+002, 1.560742e+001
7.049337e+002, 1.558491e+001
7.054158e+002, 1.559694e+001
7.058979e+002, 1.566258e+001
7.063801e+002, 1.579693e+001
7.068622e+002, 1.588646e+001
7.073442e+002, 1.584910e+001
7.078264e+002, 1.573416e+001
7.083085e+002, 1.565881e+001
7.087906e+002, 1.559938e+001
7.092727e+002, 1.563594e+001
7.097548e+002, 1.592554e+001
7.102369e+002, 1.616478e+001
7.107191e+002, 1.612500e+001
7.112012e+002, 1.591936e+001
7.116833e+002, 1.575395e+001
7.121654e+002, 1.570417e+001
7.126475e+002, 1.572607e+001
7.131296e+002, 1.580877e+001
7.136118e+002, 1.592816e+001
7.140939e+002, 1.593236e+001
7.145760e+002, 1.579731e+001
7.150581e+002, 1.567441e+001
7.155402e+002, 1.563688e+001
7.160223e+002, 1.564556e+001
7.165045e+002, 1.563230e+001
7.169866e+002, 1.558899e+001
7.174687e+002, 1.557428e+001
7.179508e+002, 1.558974e+001
7.184329e+002, 1.563855e+001
7.189150e+002, 1.579141e+001
7.193972e+002, 1.594973e+001
7.198793e+002, 1.592963e+001
7.203614e+002, 1.570839e+001
7.208435e+002, 1.550950e+001
7.213256e+002, 1.558127e+001
7.218077e+002, 1.584584e+001
7.222899e+002, 1.598746e+001
7.227720e+002, 1.599183e+001
7.232541e+002, 1.600273e+001
7.237362e+002, 1.608347e+001
7.242183e+002, 1.616089e+001
7.247004e+002, 1.612091e+001
7.251826e+002, 1.596721e+001
7.256647e+002, 1.590970e+001
7.261468e+002, 1.608496e+001
7.266289e+002, 1.620760e+001
7.271110e+002, 1.610836e+001
7.275931e+002, 1.594182e+001
7.280753e+002, 1.588484e+001
7.285574e+002, 1.595410e+001
7.290395e+002, 1.606284e+001
7.295216e+002, 1.616028e+001
7.300037e+002, 1.623263e+001
7.304858e+002, 1.623964e+001
7.309680e+002, 1.617910e+001
7.314501e+002, 1.610750e+001
7.319322e+002, 1.601924e+001
7.324143e+002, 1.596167e+001
7.328964e+002, 1.599886e+001
7.333785e+002, 1.610397e+001
7.338607e+002, 1.613482e+001
7.343428e+002, 1.604470e+001
7.348249e+002, 1.595317e+001
7.353070e+002, 1.583118e+001
7.357891e+002, 1.575925e+001
7.362712e+002, 1.585529e+001
7.367534e+002, 1.605913e+001
7.372355e+002, 1.619344e+001
7.377176e+002, 1.616709e+001
7.381997e+002, 1.607662e+001
7.386818e+002, 1.606603e+001
7.391639e+002, 1.612620e+001
7.396461e+002, 1.616956e+001
7.401282e+002, 1.618803e+001
7.406103e+002, 1.619154e+001
7.410924e+002, 1.616686e+001
7.415745e+002, 1.614404e+001
7.420566e+002, 1.620939e+001
7.425388e+002, 1.641850e+001
7.430209e+002, 1.651890e+001
7.435030e+002, 1.638235e+001
7.439851e+002, 1.624466e+001
7.444672e+002, 1.622271e+001
7.449493e+002, 1.628457e+001
7.454315e+002, 1.638837e+001
7.459136e+002, 1.651431e+001
7.463957e+002, 1.661911e+001
7.468778e+002, 1.665020e+001
7.473599e+002, 1.662889e+001
7.478420e+002, 1.663441e+001
7.483242e+002, 1.666877e+001
7.488063e+002, 1.662468e+001
7.492884e+002, 1.643618e+001
7.497705e+002, 1.622996e+001
7.502526e+002, 1.615771e+001
7.507347e+002, 1.622823e+001
7.512169e+002, 1.628651e+001
7.516990e+002, 1.637580e+001
7.521811e+002, 1.639814e+001
7.526632e+002, 1.624346e+001
7.531453e+002, 1.607696e+001
7.536274e+002, 1.605567e+001
7.541096e+002, 1.617262e+001
7.545917e+002, 1.632592e+001
7.550738e+002, 1.647981e+001
7.555559e+002, 1.659797e+001
7.560380e+002, 1.662388e+001
7.565201e+002, 1.656866e+001
7.570023e+002, 1.645231e+001
7.574844e+002, 1.627020e+001
7.579665e+002, 1.615294e+001
7.584486e+002, 1.620637e+001
7.589307e+002, 1.638166e+001
7.594128e+002, 1.651974e+001
7.598950e+002, 1.667262e+001
7.603771e+002, 1.668833e+001
7.608592e+002, 1.640684e+001
7.613413e+002, 1.616615e+001
7.618234e+002, 1.616805e+001
7.623055e+002, 1.630155e+001
7.627877e+002, 1.636983e+001
7.632698e+002, 1.631564e+001
7.637519e+002, 1.627937e+001
7.642340e+002, 1.641486e+001
7.647161e+002, 1.660794e+001
7.651982e+002, 1.666811e+001
7.656804e+002, 1.660849e+001
7.661625e+002, 1.653460e+001
7.666446e+002, 1.648449e+001
7.671267e+002, 1.646767e+001
7.676088e+002, 1.650675e+001
7.680909e+002, 1.660663e+001
7.685731e+002, 1.663917e+001
7.690552e+002, 1.657642e+001
7.695373e+002, 1.649075e+001
7.700194e+002, 1.633785e+001
7.705015e+002, 1.621589e+001
7.709836e+002, 1.621813e+001
7.714658e+002, 1.632921e+001
7.719479e+002, 1.645418e+001
7.724300e+002, 1.660650e+001
7.729121e+002, 1.670063e+001
7.733942e+002, 1.662929e+001
7.738763e+002, 1.648157e+001
7.743585e+002, 1.636463e+001
7.748406e+002, 1.631037e+001
7.753227e+002, 1.638177e+001
7.758048e+002, 1.663719e+001
7.762869e+002, 1.696541e+001
7.767690e+002, 1.708510e+001
7.772512e+002, 1.696013e+001
7.777333e+002, 1.687053e+001
7.782154e+002, 1.683883e+001
7.786975e+002, 1.683368e+001
7.791796e+002, 1.681896e+001
7.796617e+002, 1.683005e+001
7.801439e+002, 1.696060e+001
7.806260e+002, 1.726886e+001
7.811081e+002, 1.742193e+001
7.815902e+002, 1.718086e+001
7.820723e+002, 1.691866e+001
7.825544e+002, 1.688997e+001
7.830366e+002, 1.700044e+001
7.835187e+002, 1.706955e+001
7.840008e+002, 1.705369e+001
7.844829e+002, 1.704440e+001
7.849650e+002, 1.712992e+001
7.854471e+002, 1.728384e+001
7.859293e+002, 1.744685e+001
7.864114e+002, 1.761950e+001
7.868935e+002, 1.771814e+001
7.873756e+002, 1.771537e+001
7.878577e+002, 1.764829e+001
7.883398e+002, 1.752156e+001
7.888220e+002, 1.735263e+001
7.893040e+002, 1.729448e+001
7.897861e+002, 1.743017e+001
7.902682e+002, 1.755166e+001
7.907504e+002, 1.767547e+001
7.912325e+002, 1.775143e+001
7.917146e+002, 1.769274e+001
7.921967e+002, 1.757217e+001
7.926788e+002, 1.754107e+001
7.931609e+002, 1.765756e+001
7.936431e+002, 1.783731e+001
7.941252e+002, 1.810861e+001
7.946073e+002, 1.835103e+001
7.950894e+002, 1.824882e+001
7.955715e+002, 1.785001e+001
7.960536e+002, 1.757483e+001
7.965358e+002, 1.759854e+001
7.970179e+002, 1.778262e+001
7.975000e+002, 1.791506e+001
7.979821e+002, 1.798277e+001
7.984642e+002, 1.839557e+001
7.989464e+002, 1.952995e+001
7.994285e+002, 2.032967e+001
7.999106e+002, 2.044705e+001
8.003927e+002, 2.019701e+001
8.008748e+002, 1.963173e+001
8.013569e+002, 1.885191e+001
8.018391e+002, 1.827462e+001
8.023212e+002, 1.796867e+001
8.028033e+002, 1.794391e+001
8.032854e+002, 1.845797e+001
8.037675e+002, 1.910107e+001
8.042496e+002, 1.934725e+001
8.047318e+002, 1.923602e+001
8.052139e+002, 1.913413e+001
8.056960e+002, 1.924010e+001
8.061781e+002, 1.943554e+001
8.066602e+002, 1.952383e+001
8.071423e+002, 1.951593e+001
8.076245e+002, 1.957629e+001
8.081066e+002, 1.973295e+001
8.085887e+002, 1.984348e+001
8.090708e+002, 1.982274e+001
8.095529e+002, 1.975271e+001
8.100350e+002, 1.975071e+001
8.105172e+002, 1.982354e+001
8.109993e+002, 1.993024e+001
8.114814e+002, 2.010712e+001
8.119635e+002, 2.027055e+001
8.124456e+002, 2.035182e+001
8.129277e+002, 2.044217e+001
8.134099e+002, 2.066663e+001
8.138920e+002, 2.099216e+001
8.143741e+002, 2.123959e+001
8.148562e+002, 2.128276e+001
8.153383e+002, 2.129231e+001
8.158204e+002, 2.147725e+001
8.163026e+002, 2.175343e+001
8.167847e+002, 2.191785e+001
8.172668e+002, 2.195897e+001
8.177489e+002, 2.200950e+001
8.182310e+002, 2.214489e+001
8.187131e+002, 2.233405e+001
8.191953e+002, 2.251781e+001
8.196774e+002, 2.269311e+001
8.201595e+002, 2.288959e+001
8.206416e+002, 2.314883e+001
8.211237e+002, 2.335205e+001
8.216058e+002, 2.340256e+001
8.220880e+002, 2.341090e+001
8.225701e+002, 2.352481e+001
8.230522e+002, 2.373901e+001
8.235343e+002, 2.385696e+001
8.240164e+002, 2.371189e+001
8.244985e+002, 2.361605e+001
8.249807e+002, 2.368991e+001
8.254628e+002, 2.389441e+001
8.259449e+002, 2.426436e+001
8.264270e+002, 2.472865e+001
8.269091e+002, 2.506051e+001
8.273912e+002, 2.511263e+001
8.278734e+002, 2.508182e+001
8.283555e+002, 2.526175e+001
8.288376e+002, 2.560161e+001
8.293197e+002, 2.588513e+001
8.298018e+002, 2.609161e+001
8.302839e+002, 2.631075e+001
8.307661e+002, 2.659513e+001
8.312482e+002, 2.688838e+001
8.317303e+002, 2.710060e+001
8.322124e+002, 2.722470e+001
8.326945e+002, 2.730529e+001
8.331766e+002, 2.716524e+001
8.336588e+002, 2.724261e+001
8.341409e+002, 2.774398e+001
8.346230e+002, 2.839698e+001
8.351051e+002, 2.905963e+001
8.355872e+002, 2.968800e+001
8.360693e+002, 3.016152e+001
8.365515e+002, 3.033318e+001
8.370336e+002, 3.051904e+001
8.375157e+002, 3.083731e+001
8.379978e+002, 3.129975e+001
8.384799e+002, 3.196603e+001
8.389620e+002, 3.279167e+001
8.394442e+002, 3.365945e+001
8.399263e+002, 3.451332e+001
8.404084e+002, 3.533407e+001
8.408905e+002, 3.602993e+001
8.413726e+002, 3.664747e+001
8.418547e+002, 3.747789e+001
8.423369e+002, 3.853321e+001
8.428190e+002, 3.960777e+001
8.433011e+002, 4.062950e+001
8.437832e+002, 4.161115e+001
8.442653e+002, 4.253722e+001
8.447474e+002, 4.341329e+001
8.452296e+002, 4.442210e+001
8.457117e+002, 4.573414e+001
8.461938e+002, 4.692110e+001
8.466759e+002, 4.777063e+001
8.471580e+002, 4.865620e+001
8.476401e+002, 4.985230e+001
8.481223e+002, 5.126270e+001
8.486044e+002, 5.263807e+001
8.490865e+002, 5.389027e+001
8.495686e+002, 5.521540e+001
8.500507e+002, 5.689912e+001
8.505328e+002, 5.857108e+001
8.510150e+002, 5.981252e+001
8.514971e+002, 6.074863e+001
8.519792e+002, 6.171355e+001
8.524613e+002, 6.280342e+001
8.529434e+002, 6.391002e+001
8.534255e+002, 6.492505e+001
8.539077e+002, 6.585897e+001
8.543898e+002, 6.675561e+001
8.548719e+002, 6.761669e+001
8.553540e+002, 6.827801e+001
8.558361e+002, 6.868296e+001
8.563182e+002, 6.898668e+001
8.568004e+002, 6.933878e+001
8.572825e+002, 6.964870e+001
8.577646e+002, 6.961658e+001
8.582467e+002, 6.910303e+001
8.587288e+002, 6.854457e+001
8.592109e+002, 6.803060e+001
8.596931e+002, 6.736950e+001
8.601752e+002, 6.635110e+001
8.606573e+002, 6.522647e+001
8.611394e+002, 6.434267e+001
8.616215e+002, 6.371885e+001
8.621036e+002, 6.297968e+001
8.625858e+002, 6.185699e+001
8.630679e+002, 6.068540e+001
8.635500e+002, 5.958104e+001
8.640321e+002, 5.863204e+001
8.645142e+002, 5.810143e+001
8.649963e+002, 5.788799e+001
8.654785e+002, 5.747441e+001
8.659606e+002, 5.653141e+001
8.664427e+002, 5.546772e+001
8.669248e+002, 5.497449e+001
8.674069e+002, 5.493874e+001
8.678890e+002, 5.468646e+001
8.683712e+002, 5.416630e+001
8.688533e+002, 5.393579e+001
8.693354e+002, 5.427857e+001
8.698175e+002, 5.482426e+001
8.702996e+002, 5.506643e+001
8.707817e+002, 5.500172e+001
8.712639e+002, 5.508081e+001
8.717459e+002, 5.529047e+001
8.722280e+002, 5.566755e+001
8.727101e+002, 5.638567e+001
8.731923e+002, 5.711611e+001
8.736744e+002, 5.758079e+001
8.741565e+002, 5.791461e+001
8.746386e+002, 5.847689e+001
8.751207e+002, 5.938087e+001
8.756028e+002, 6.033113e+001
8.760850e+002, 6.116950e+001
8.765671e+002, 6.206535e+001
8.770492e+002, 6.321185e+001
8.775313e+002, 6.447852e+001
8.780134e+002, 6.557181e+001
8.784955e+002, 6.646663e+001
8.789777e+002, 6.752396e+001
8.794598e+002, 6.904000e+001
8.799419e+002, 7.086372e+001
8.804240e+002, 7.282064e+001
8.809061e+002, 7.488020e+001
8.813882e+002, 7.691355e+001
8.818704e+002, 7.890122e+001
8.823525e+002, 8.084864e+001
8.828346e+002, 8.272637e+001
8.833167e+002, 8.467212e+001
8.837988e+002, 8.699344e+001
8.842809e+002, 8.975442e+001
8.847631e+002, 9.244246e+001
8.852452e+002, 9.504030e+001
8.857273e+002, 9.759840e+001
8.862094e+002, 1.000048e+002
8.866915e+002, 1.025210e+002
8.871736e+002, 1.055270e+002
8.876558e+002, 1.089874e+002
8.881379e+002, 1.124589e+002
8.886200e+002, 1.157214e+002
8.891021e+002, 1.192808e+002
8.895842e+002, 1.233124e+002
8.900663e+002, 1.276040e+002
8.905485e+002, 1.320760e+002
8.910306e+002, 1.366725e+002
8.915127e+002, 1.412412e+002
8.919948e+002, 1.457619e+002
8.924769e+002, 1.504904e+002
8.929590e+002, 1.554368e+002
8.934412e+002, 1.608181e+002
8.939233e+002, 1.668510e+002
8.944054e+002, 1.734847e+002
8.948875e+002, 1.805726e+002
8.953696e+002, 1.880410e+002
8.958517e+002, 1.958649e+002
8.963339e+002, 2.039601e+002
8.968160e+002, 2.124389e+002
8.972981e+002, 2.215358e+002
8.977802e+002, 2.311995e+002
8.982623e+002, 2.412261e+002
8.987444e+002, 2.515573e+002
8.992266e+002, 2.624412e+002
8.997087e+002, 2.740006e+002
9.001908e+002, 2.863423e+002
9.006729e+002, 2.997911e+002
9.011550e+002, 3.144162e+002
9.016371e+002, 3.284617e+002
9.021193e+002, 3.411210e+002
9.026014e+002, 3.548116e+002
9.030835e+002, 3.701880e+002
9.035656e+002, 3.865806e+002
9.040477e+002, 4.038769e+002
9.045298e+002, 4.217447e+002
9.050120e+002, 4.390748e+002
9.054941e+002, 4.554444e+002
9.059762e+002, 4.719876e+002
9.064583e+002, 4.895055e+002
9.069404e+002, 5.066387e+002
9.074225e+002, 5.229417e+002
9.079047e+002, 5.379680e+002
9.083868e+002, 5.516536e+002
9.088689e+002, 5.637004e+002
9.093510e+002, 5.731455e+002
9.098331e+002, 5.792082e+002
9.103152e+002, 5.826622e+002
9.107974e+002, 5.847392e+002
9.112795e+002, 5.846066e+002
9.117616e+002, 5.806722e+002
9.122437e+002, 5.729257e+002
9.127258e+002, 5.621506e+002
9.132079e+002, 5.487169e+002
9.136901e+002, 5.325913e+002
9.141722e+002, 5.131270e+002
9.146543e+002, 4.908605e+002
9.151364e+002, 4.681263e+002
9.156185e+002, 4.448692e+002
9.161006e+002, 4.215180e+002
9.165828e+002, 3.978561e+002
9.170649e+002, 3.746635e+002
9.175470e+002, 3.523578e+002
9.180291e+002, 3.309547e+002
9.185112e+002, 3.103849e+002
9.189933e+002, 2.902562e+002
9.194755e+002, 2.715410e+002
9.199576e+002, 2.543023e+002
9.204397e+002, 2.383971e+002
9.209218e+002, 2.238889e+002
9.214039e+002, 2.106209e+002
9.218860e+002, 1.987407e+002
9.223682e+002, 1.882041e+002
9.228503e+002, 1.781175e+002
9.233324e+002, 1.682211e+002
9.238145e+002, 1.589500e+002
9.242966e+002, 1.505343e+002
9.247787e+002, 1.427226e+002
9.252609e+002, 1.353987e+002
9.257430e+002, 1.285317e+002
9.262251e+002, 1.221024e+002
9.267072e+002, 1.161011e+002
9.271893e+002, 1.106668e+002
9.276714e+002, 1.061843e+002
9.281536e+002, 1.020960e+002
9.286357e+002, 9.776376e+001
9.291178e+002, 9.338097e+001
9.295999e+002, 8.928764e+001
9.300820e+002, 8.554158e+001
9.305641e+002, 8.213226e+001
9.310463e+002, 7.907820e+001
9.315284e+002, 7.620877e+001
9.320105e+002, 7.329115e+001
9.324926e+002, 7.034728e+001
9.329747e+002, 6.738580e+001
9.334568e+002, 6.443446e+001
9.339390e+002, 6.186306e+001
9.344211e+002, 5.984372e+001
9.349032e+002, 5.809698e+001
9.353853e+002, 5.634700e+001
9.358674e+002, 5.459257e+001
9.363495e+002, 5.279248e+001
9.368317e+002, 5.087708e+001
9.373138e+002, 4.922691e+001
9.377959e+002, 4.795118e+001
9.382780e+002, 4.678304e+001
9.387601e+002, 4.554830e+001
9.392422e+002, 4.433964e+001
9.397244e+002, 4.335767e+001
9.402065e+002, 4.268312e+001
9.406886e+002, 4.176651e+001
9.411707e+002, 4.022763e+001
9.416528e+002, 3.897074e+001
9.421349e+002, 3.837121e+001
9.426171e+002, 3.792441e+001
9.430992e+002, 3.720370e+001
9.435813e+002, 3.634192e+001
9.440634e+002, 3.577123e+001
9.445455e+002, 3.567878e+001
9.450276e+002, 3.547564e+001
9.455098e+002, 3.491456e+001
9.459919e+002, 3.421511e+001
9.464740e+002, 3.340622e+001
9.469561e+002, 3.261940e+001
9.474382e+002, 3.200996e+001
9.479203e+002, 3.159772e+001
9.484025e+002, 3.133522e+001
9.488846e+002, 3.127056e+001
9.493667e+002, 3.115635e+001
9.498488e+002, 3.062516e+001
9.503309e+002, 2.996585e+001
9.508130e+002, 2.968188e+001
9.512952e+002, 2.968708e+001
9.517773e+002, 2.958367e+001
9.522594e+002, 2.923809e+001
9.527415e+002, 2.879455e+001
9.532236e+002, 2.834769e+001
9.537057e+002, 2.795263e+001
9.541878e+002, 2.782449e+001
9.546699e+002, 2.789972e+001
9.551520e+002, 2.769757e+001
9.556342e+002, 2.715093e+001
9.561163e+002, 2.670622e+001
9.565984e+002, 2.661397e+001
9.570805e+002, 2.668056e+001
9.575626e+002, 2.658981e+001
9.580447e+002, 2.634583e+001
9.585269e+002, 2.623125e+001
9.590090e+002, 2.629395e+001
9.594911e+002, 2.627018e+001
9.599732e+002, 2.606822e+001
9.604553e+002, 2.585126e+001
9.609374e+002, 2.575754e+001
9.614196e+002, 2.573051e+001
9.619017e+002, 2.560834e+001
9.623838e+002, 2.535804e+001
9.628659e+002, 2.511212e+001
9.633480e+002, 2.478229e+001
9.638301e+002, 2.457908e+001
9.643123e+002, 2.463898e+001
9.647944e+002, 2.477818e+001
9.652765e+002, 2.487175e+001
9.657586e+002, 2.491047e+001
9.662407e+002, 2.487365e+001
9.667228e+002, 2.471798e+001
9.672050e+002, 2.457004e+001
9.676871e+002, 2.444067e+001
9.681692e+002, 2.434337e+001
9.686513e+002, 2.429650e+001
9.691334e+002, 2.428106e+001
9.696155e+002, 2.427617e+001
9.700977e+002, 2.427775e+001
9.705798e+002, 2.429045e+001
9.710619e+002, 2.436739e+001
9.715440e+002, 2.437335e+001
9.720261e+002, 2.413119e+001
9.725082e+002, 2.384717e+001
9.729904e+002, 2.378856e+001
9.734725e+002, 2.386456e+001
9.739546e+002, 2.382732e+001
9.744367e+002, 2.360755e+001
9.749188e+002, 2.333349e+001
9.754009e+002, 2.304888e+001
9.758831e+002, 2.283008e+001
9.763652e+002, 2.283930e+001
9.768473e+002, 2.297278e+001
9.773294e+002, 2.300217e+001
9.778115e+002, 2.291735e+001
9.782936e+002, 2.285245e+001
9.787758e+002, 2.287052e+001
9.792579e+002, 2.284814e+001
9.797400e+002, 2.256149e+001
9.802221e+002, 2.213538e+001
9.807042e+002, 2.205647e+001
9.811863e+002, 2.227235e+001
9.816685e+002, 2.235211e+001
9.821506e+002, 2.221085e+001
9.826327e+002, 2.198303e+001
9.831148e+002, 2.174710e+001
9.835969e+002, 2.152008e+001
9.840790e+002, 2.132485e+001
9.845612e+002, 2.116129e+001
9.850433e+002, 2.111066e+001
9.855254e+002, 2.120559e+001
9.860075e+002, 2.119454e+001
9.864896e+002, 2.095914e+001
9.869717e+002, 2.078357e+001
9.874539e+002, 2.094887e+001
9.879360e+002, 2.130329e+001
9.884181e+002, 2.133995e+001
9.889002e+002, 2.089785e+001
9.893823e+002, 2.072438e+001
9.898644e+002, 2.099405e+001
9.903466e+002, 2.119421e+001
9.908287e+002, 2.113088e+001
9.913108e+002, 2.097264e+001
9.917929e+002, 2.085451e+001
9.922750e+002, 2.077812e+001
9.927571e+002, 2.075821e+001
9.932393e+002, 2.088011e+001
9.937214e+002, 2.090518e+001
9.942035e+002, 2.066095e+001
9.946856e+002, 2.052233e+001
9.951677e+002, 2.055136e+001
9.956498e+002, 2.081422e+001
9.961320e+002, 2.162734e+001
9.966141e+002, 2.284335e+001
9.970962e+002, 2.339581e+001
9.975783e+002, 2.256984e+001
9.980604e+002, 2.192388e+001
9.985425e+002, 2.195716e+001
9.990247e+002, 2.217419e+001
9.995068e+002, 2.232873e+001
9.999889e+002, 2.243814e+001
1.000471e+003, 2.256644e+001
1.000953e+003, 2.271645e+001
1.001435e+003, 2.281812e+001
1.001917e+003, 2.273204e+001
1.002399e+003, 2.275899e+001
1.002882e+003, 2.319598e+001
1.003364e+003, 2.370365e+001
1.003846e+003, 2.394367e+001
1.004328e+003, 2.401385e+001
1.004810e+003, 2.416640e+001
1.005292e+003, 2.445688e+001
1.005774e+003, 2.473990e+001
1.006256e+003, 2.489121e+001
1.006739e+003, 2.504370e+001
1.007221e+003, 2.533172e+001
1.007703e+003, 2.569221e+001
1.008185e+003, 2.606713e+001
1.008667e+003, 2.642780e+001
1.009149e+003, 2.672582e+001
1.009631e+003, 2.694511e+001
1.010113e+003, 2.711921e+001
1.010595e+003, 2.719573e+001
1.011078e+003, 2.733179e+001
1.011560e+003, 2.787789e+001
1.012042e+003, 2.863634e+001
1.012524e+003, 2.909911e+001
1.013006e+003, 2.927873e+001
1.013488e+003, 2.954541e+001
1.013970e+003, 3.006243e+001
1.014452e+003, 3.069108e+001
1.014935e+003, 3.128065e+001
1.015417e+003, 3.186353e+001
1.015899e+003, 3.254882e+001
1.016381e+003, 3.330711e+001
1.016863e+003, 3.395990e+001
1.017345e+003, 3.449363e+001
1.017827e+003, 3.511147e+001
1.018309e+003, 3.592284e+001
1.018791e+003, 3.676072e+001
1.019274e+003, 3.733062e+001
1.019756e+003, 3.774611e+001
1.020238e+003, 3.863275e+001
1.020720e+003, 3.996925e+001
1.021202e+003, 4.129663e+001
1.021684e+003, 4.254416e+001
1.022166e+003, 4.362283e+001
1.022648e+003, 4.445575e+001
1.023130e+003, 4.522236e+001
1.023613e+003, 4.622703e+001
1.024095e+003, 4.745536e+001
1.024577e+003, 4.861843e+001
1.025059e+003, 4.969181e+001
1.025541e+003, 5.087972e+001
1.026023e+003, 5.224650e+001
1.026505e+003, 5.362553e+001
1.026987e+003, 5.490337e+001
1.027469e+003, 5.616003e+001
1.027952e+003, 5.755807e+001
1.028434e+003, 5.912091e+001
1.028916e+003, 6.046928e+001
1.029398e+003, 6.158629e+001
1.029880e+003, 6.254319e+001
1.030362e+003, 6.328392e+001
1.030844e+003, 6.404350e+001
1.031326e+003, 6.500460e+001
1.031809e+003, 6.606069e+001
1.032291e+003, 6.704520e+001
1.032773e+003, 6.800771e+001
1.033255e+003, 6.845377e+001
1.033737e+003, 6.814104e+001
1.034219e+003, 6.784750e+001
1.034701e+003, 6.777502e+001
1.035183e+003, 6.767855e+001
1.035666e+003, 6.752316e+001
1.036148e+003, 6.716171e+001
1.036630e+003, 6.624802e+001
1.037112e+003, 6.469292e+001
1.037594e+003, 6.308376e+001
1.038076e+003, 6.128040e+001
1.038558e+003, 5.966774e+001
1.039040e+003, 5.857364e+001
1.039522e+003, 5.741119e+001
1.040005e+003, 5.579129e+001
1.040487e+003, 5.383928e+001
1.040969e+003, 5.178543e+001
1.041451e+003, 4.956205e+001
1.041933e+003, 4.755821e+001
1.042415e+003, 4.596090e+001
1.042897e+003, 4.431885e+001
1.043379e+003, 4.247895e+001
1.043861e+003, 4.064009e+001
1.044344e+003, 3.884294e+001
1.044826e+003, 3.717365e+001
1.045308e+003, 3.587432e+001
1.045790e+003, 3.504574e+001
1.046272e+003, 3.400334e+001
1.046754e+003, 3.243915e+001
1.047236e+003, 3.098063e+001
1.047718e+003, 2.975137e+001
1.048201e+003, 2.871143e+001
1.048683e+003, 2.790496e+001
1.049165e+003, 2.723493e+001
1.049647e+003, 2.649775e+001
1.050129e+003, 2.566058e+001
1.050611e+003, 2.494138e+001
1.051093e+003, 2.451796e+001
1.051575e+003, 2.403696e+001
1.052057e+003, 2.326038e+001
1.052540e+003, 2.251790e+001
1.053022e+003, 2.212173e+001
1.053504e+003, 2.190326e+001
1.053986e+003, 2.152655e+001
1.054468e+003, 2.093861e+001
1.054950e+003, 2.038064e+001
1.055432e+003, 1.985414e+001
1.055914e+003, 1.945144e+001
1.056396e+003, 1.927024e+001
1.056879e+003, 1.916015e+001
1.057361e+003, 1.902741e+001
1.057843e+003, 1.887930e+001
1.058325e+003, 1.876438e+001
1.058807e+003, 1.868664e+001
1.059289e+003, 1.852015e+001
1.059771e+003, 1.813431e+001
1.060253e+003, 1.777390e+001
1.060736e+003, 1.750812e+001
1.061218e+003, 1.732383e+001
1.061700e+003, 1.730930e+001
1.062182e+003, 1.732146e+001
1.062664e+003, 1.707149e+001
1.063146e+003, 1.654576e+001
1.063628e+003, 1.617469e+001
1.064110e+003, 1.619529e+001
1.064593e+003, 1.628116e+001
1.065075e+003, 1.643014e+001
1.065557e+003, 1.646320e+001
1.066039e+003, 1.609590e+001
1.066521e+003, 1.559426e+001
1.067003e+003, 1.540016e+001
1.067485e+003, 1.554832e+001
1.067967e+003, 1.568711e+001
1.068449e+003, 1.569914e+001
1.068932e+003, 1.565546e+001
1.069414e+003, 1.556864e+001
1.069896e+003, 1.545736e+001
1.070378e+003, 1.532135e+001
1.070860e+003, 1.517783e+001
1.071342e+003, 1.503117e+001
1.071824e+003, 1.489388e+001
1.072306e+003, 1.482128e+001
1.072788e+003, 1.487943e+001
1.073271e+003, 1.489940e+001
1.073753e+003, 1.479001e+001
1.074235e+003, 1.462687e+001
1.074717e+003, 1.438551e+001
1.075199e+003, 1.417358e+001
1.075681e+003, 1.415846e+001
1.076163e+003, 1.431424e+001
1.076645e+003, 1.444813e+001
1.077127e+003, 1.451362e+001
1.077610e+003, 1.448988e+001
1.078092e+003, 1.428090e+001
1.078574e+003, 1.407408e+001
1.079056e+003, 1.400900e+001
1.079538e+003, 1.400869e+001
1.080020e+003, 1.396491e+001
1.080502e+003, 1.389050e+001
1.080984e+003, 1.389217e+001
1.081467e+003, 1.403508e+001
1.081949e+003, 1.409012e+001
1.082431e+003, 1.385702e+001
1.082913e+003, 1.361820e+001
1.083395e+003, 1.356287e+001
1.083877e+003, 1.357917e+001
1.084359e+003, 1.353863e+001
1.084841e+003, 1.345825e+001
1.085323e+003, 1.342968e+001
1.085806e+003, 1.348424e+001
1.086288e+003, 1.351406e+001
1.086770e+003, 1.346889e+001
1.087252e+003, 1.339332e+001
1.087734e+003, 1.326386e+001
1.088216e+003, 1.315432e+001
1.088698e+003, 1.314505e+001
1.089180e+003, 1.320595e+001
1.089662e+003, 1.328631e+001
1.090145e+003, 1.337621e+001
1.090627e+003, 1.338183e+001
1.091109e+003, 1.314514e+001
1.091591e+003, 1.298079e+001
1.092073e+003, 1.313554e+001
1.092555e+003, 1.330622e+001
1.093037e+003, 1.321139e+001
1.093519e+003, 1.298178e+001
1.094002e+003, 1.286316e+001
1.094484e+003, 1.288523e+001
1.094966e+003, 1.290013e+001
1.095448e+003, 1.291360e+001
1.095930e+003, 1.283596e+001
1.096412e+003, 1.245718e+001
1.096894e+003, 1.217260e+001
1.097376e+003, 1.235457e+001
1.097859e+003, 1.270800e+001
1.098341e+003, 1.283169e+001
1.098823e+003, 1.271227e+001
1.099305e+003, 1.257704e+001
1.099787e+003, 1.245942e+001
1.100269e+003, 1.236791e+001
1.100751e+003, 1.228496e+001
1.101233e+003, 1.225271e+001
1.101715e+003, 1.232434e+001
1.102198e+003, 1.243216e+001
1.102680e+003, 1.252708e+001
1.103162e+003, 1.259454e+001
1.103644e+003, 1.260271e+001
1.104126e+003, 1.253685e+001
1.104608e+003, 1.244486e+001
1.105090e+003, 1.225898e+001
1.105572e+003, 1.214785e+001
1.106054e+003, 1.220249e+001
1.106537e+003, 1.232412e+001
1.107019e+003, 1.249322e+001
1.107501e+003, 1.265312e+001
1.107983e+003, 1.266270e+001
1.108465e+003, 1.247928e+001
1.108947e+003, 1.233568e+001
1.109429e+003, 1.223837e+001
1.109911e+003, 1.220194e+001
1.110394e+003, 1.230756e+001
1.110876e+003, 1.239269e+001
1.111358e+003, 1.232742e+001
1.111840e+003, 1.219429e+001
1.112322e+003, 1.214769e+001
1.112804e+003, 1.219773e+001
1.113286e+003, 1.215032e+001
1.113768e+003, 1.183749e+001
1.114250e+003, 1.170939e+001
1.114733e+003, 1.192407e+001
1.115215e+003, 1.215484e+001
1.115697e+003, 1.228517e+001
1.116179e+003, 1.234242e+001
1.116661e+003, 1.232953e+001
1.117143e+003, 1.226463e+001
1.117625e+003, 1.229306e+001
1.118107e+003, 1.253394e+001
1.118589e+003, 1.256854e+001
1.119072e+003, 1.223749e+001
1.119554e+003, 1.202056e+001
1.120036e+003, 1.212400e+001
1.120518e+003, 1.230072e+001
1.121000e+003, 1.235500e+001
1.121482e+003, 1.230846e+001
1.121964e+003, 1.220915e+001
1.122446e+003, 1.202813e+001
1.122929e+003, 1.199695e+001
1.123411e+003, 1.220594e+001
1.123893e+003, 1.223236e+001
1.124375e+003, 1.191743e+001
1.124857e+003, 1.160765e+001
1.125339e+003, 1.150953e+001
1.125821e+003, 1.158086e+001
1.126303e+003, 1.178237e+001
1.126786e+003, 1.209867e+001
1.127268e+003, 1.222645e+001
1.127750e+003, 1.214021e+001
1.128232e+003, 1.208624e+001
1.128714e+003, 1.209561e+001
1.129196e+003, 1.216348e+001
1.129678e+003, 1.230721e+001
1.130160e+003, 1.238064e+001
1.130642e+003, 1.218065e+001
1.131125e+003, 1.183162e+001
1.131607e+003, 1.180876e+001
1.132089e+003, 1.208971e+001
1.132571e+003, 1.228808e+001
1.133053e+003, 1.238205e+001
1.133535e+003, 1.239162e+001
1.134017e+003, 1.232338e+001
1.134499e+003, 1.224847e+001
1.134981e+003, 1.222169e+001
1.135464e+003, 1.222308e+001
1.135946e+003, 1.220470e+001
1.136428e+003, 1.218478e+001
1.136910e+003, 1.226273e+001
1.137392e+003, 1.240965e+001
1.137874e+003, 1.247614e+001
1.138356e+003, 1.244288e+001
1.138838e+003, 1.237912e+001
1.139321e+003, 1.231984e+001
1.139803e+003, 1.231081e+001
1.140285e+003, 1.243175e+001
1.140767e+003, 1.261029e+001
1.141249e+003, 1.272953e+001
1.141731e+003, 1.279705e+001
1.142213e+003, 1.282208e+001
1.142695e+003, 1.281120e+001
1.143177e+003, 1.274818e+001
1.143660e+003, 1.264550e+001
1.144142e+003, 1.264801e+001
1.144624e+003, 1.293143e+001
1.145106e+003, 1.318523e+001
1.145588e+003, 1.294107e+001
1.146070e+003, 1.259573e+001
1.146552e+003, 1.269248e+001
1.147034e+003, 1.305308e+001
1.147516e+003, 1.336157e+001
1.147999e+003, 1.353244e+001
1.148481e+003, 1.350343e+001
1.148963e+003, 1.320315e+001
1.149445e+003, 1.298613e+001
1.149927e+003, 1.314359e+001
1.150409e+003, 1.338735e+001
1.150891e+003, 1.355326e+001
1.151373e+003, 1.365899e+001
1.151856e+003, 1.370034e+001
1.152338e+003, 1.371281e+001
1.152820e+003, 1.376441e+001
1.153302e+003, 1.386937e+001
1.153784e+003, 1.399221e+001
1.154266e+003, 1.416951e+001
1.154748e+003, 1.429457e+001
1.155230e+003, 1.435440e+001
1.155713e+003, 1.432738e+001
1.156195e+003, 1.406887e+001
1.156677e+003, 1.380107e+001
1.157159e+003, 1.389003e+001
1.157641e+003, 1.427558e+001
1.158123e+003, 1.440681e+001
1.158605e+003, 1.400423e+001
1.159087e+003, 1.383884e+001
1.159569e+003, 1.412940e+001
1.160052e+003, 1.443017e+001
1.160534e+003, 1.472654e+001
1.161016e+003, 1.487411e+001
1.161498e+003, 1.464850e+001
1.161980e+003, 1.426611e+001
1.162462e+003, 1.423244e+001
1.162944e+003, 1.459969e+001
1.163426e+003, 1.473330e+001
1.163908e+003, 1.451171e+001
1.164391e+003, 1.441899e+001
1.164873e+003, 1.455640e+001
1.165355e+003, 1.472292e+001
1.165837e+003, 1.484544e+001
1.166319e+003, 1.489697e+001
1.166801e+003, 1.483321e+001
1.167283e+003, 1.468505e+001
1.167765e+003, 1.455878e+001
1.168247e+003, 1.445107e+001
1.168730e+003, 1.451102e+001
1.169212e+003, 1.475212e+001
1.169694e+003, 1.484853e+001
1.170176e+003, 1.470684e+001
1.170658e+003, 1.462958e+001
1.171140e+003, 1.484176e+001
1.171622e+003, 1.511405e+001
1.172104e+003, 1.504351e+001
1.172587e+003, 1.474566e+001
1.173069e+003, 1.456652e+001
1.173551e+003, 1.450669e+001
1.174033e+003, 1.462076e+001
1.174515e+003, 1.486774e+001
1.174997e+003, 1.503762e+001
1.175479e+003, 1.505272e+001
1.175961e+003, 1.499501e+001
1.176443e+003, 1.493005e+001
1.176926e+003, 1.483206e+001
1.177408e+003, 1.456563e+001
1.177890e+003, 1.432193e+001
1.178372e+003, 1.449177e+001
1.178854e+003, 1.485759e+001
1.179336e+003, 1.495573e+001
1.179818e+003, 1.476015e+001
1.180300e+003, 1.451892e+001
1.180782e+003, 1.431323e+001
1.181265e+003, 1.424757e+001
1.181747e+003, 1.459130e+001
1.182229e+003, 1.484856e+001
1.182711e+003, 1.452289e+001
1.183193e+003, 1.411026e+001
1.183675e+003, 1.411826e+001
1.184157e+003, 1.439067e+001
1.184639e+003, 1.459689e+001
1.185122e+003, 1.468490e+001
1.185604e+003, 1.469366e+001
1.186086e+003, 1.453491e+001
1.186568e+003, 1.445530e+001
1.187050e+003, 1.460021e+001
1.187532e+003, 1.470188e+001
1.188014e+003, 1.456927e+001
1.188496e+003, 1.441320e+001
1.188979e+003, 1.447386e+001
1.189461e+003, 1.465251e+001
1.189943e+003, 1.464432e+001
1.190425e+003, 1.439226e+001
1.190907e+003, 1.429963e+001
1.191389e+003, 1.443937e+001
1.191871e+003, 1.453572e+001
1.192353e+003, 1.454382e+001
1.192835e+003, 1.450507e+001
1.193318e+003, 1.443169e+001
1.193800e+003, 1.434768e+001
1.194282e+003, 1.428887e+001
1.194764e+003, 1.423656e+001
1.195246e+003, 1.408248e+001
1.195728e+003, 1.383596e+001
1.196210e+003, 1.377114e+001
1.196692e+003, 1.389435e+001
1.197174e+003, 1.409432e+001
1.197657e+003, 1.433334e+001
1.198139e+003, 1.447510e+001
1.198621e+003, 1.443147e+001
1.199103e+003, 1.429623e+001
1.199585e+003, 1.412904e+001
1.200067e+003, 1.400770e+001
1.200549e+003, 1.421560e+001
1.201031e+003, 1.453764e+001
1.201514e+003, 1.437229e+001
1.201996e+003, 1.388522e+001
1.202478e+003, 1.379121e+001
1.202960e+003, 1.422318e+001
1.203442e+003, 1.459151e+001
1.203924e+003, 1.455141e+001
1.204406e+003, 1.435347e+001
1.204888e+003, 1.404738e+001
1.205370e+003, 1.381230e+001
1.205853e+003, 1.386810e+001
1.206335e+003, 1.403108e+001
1.206817e+003, 1.410596e+001
1.207299e+003, 1.408258e+001
1.207781e+003, 1.398847e+001
1.208263e+003, 1.382319e+001
1.208745e+003, 1.369633e+001
1.209227e+003, 1.358926e+001
1.209709e+003, 1.359106e+001
1.210192e+003, 1.385302e+001
1.210674e+003, 1.406986e+001
1.211156e+003, 1.398422e+001
1.211638e+003, 1.387560e+001
1.212120e+003, 1.410685e+001
1.212602e+003, 1.453265e+001
1.213084e+003, 1.456616e+001
1.213566e+003, 1.408340e+001
1.214049e+003, 1.383535e+001
1.214531e+003, 1.386123e+001
1.215013e+003, 1.399603e+001
1.215495e+003, 1.425232e+001
1.215977e+003, 1.439145e+001
1.216459e+003, 1.426928e+001
1.216941e+003, 1.406048e+001
1.217423e+003, 1.396828e+001
1.217906e+003, 1.397657e+001
1.218388e+003, 1.410476e+001
1.218870e+003, 1.429265e+001
1.219352e+003, 1.415456e+001
1.219834e+003, 1.375852e+001
1.220316e+003, 1.356502e+001
1.220798e+003, 1.365712e+001
1.221280e+003, 1.381915e+001
1.221762e+003, 1.393873e+001
1.222245e+003, 1.399810e+001
1.222727e+003, 1.392085e+001
1.223209e+003, 1.383343e+001
1.223691e+003, 1.389739e+001
1.224173e+003, 1.402645e+001
1.224655e+003, 1.414826e+001
1.225137e+003, 1.422574e+001
1.225619e+003, 1.416186e+001
1.226101e+003, 1.398558e+001
1.226584e+003, 1.395065e+001
1.227066e+003, 1.422578e+001
1.227548e+003, 1.440705e+001
1.228030e+003, 1.427328e+001
1.228512e+003, 1.412739e+001
1.228994e+003, 1.410486e+001
1.229476e+003, 1.411075e+001
1.229958e+003, 1.404486e+001
1.230441e+003, 1.396740e+001
1.230923e+003, 1.400673e+001
1.231405e+003, 1.415727e+001
1.231887e+003, 1.420611e+001
1.232369e+003, 1.406166e+001
1.232851e+003, 1.412045e+001
1.233333e+003, 1.448235e+001
1.233815e+003, 1.475891e+001
1.234297e+003, 1.484004e+001
1.234780e+003, 1.476108e+001
1.235262e+003, 1.452229e+001
1.235744e+003, 1.424088e+001
1.236226e+003, 1.409568e+001
1.236708e+003, 1.409172e+001
1.237190e+003, 1.434582e+001
1.237672e+003, 1.476023e+001
1.238154e+003, 1.485512e+001
1.238636e+003, 1.465571e+001
1.239119e+003, 1.453321e+001
1.239601e+003, 1.458875e+001
1.240083e+003, 1.466513e+001
1.240565e+003, 1.466299e+001
1.241047e+003, 1.464945e+001
1.241529e+003, 1.472366e+001
1.242011e+003, 1.478178e+001
1.242493e+003, 1.461613e+001
1.242975e+003, 1.445766e+001
1.243458e+003, 1.470789e+001
1.243940e+003, 1.515452e+001
1.244422e+003, 1.526455e+001
1.244904e+003, 1.497969e+001
1.245386e+003, 1.478611e+001
1.245868e+003, 1.484948e+001
1.246350e+003, 1.493844e+001
1.246832e+003, 1.501845e+001
1.247315e+003, 1.511308e+001
1.247797e+003, 1.524652e+001
1.248279e+003, 1.537934e+001
1.248761e+003, 1.550374e+001
1.249243e+003, 1.558877e+001
1.249725e+003, 1.556490e+001
1.250207e+003, 1.544108e+001
1.250689e+003, 1.538165e+001
1.251172e+003, 1.539314e+001
1.251654e+003, 1.540176e+001
1.252136e+003, 1.540272e+001
1.252618e+003, 1.535460e+001
1.253100e+003, 1.524562e+001
1.253582e+003, 1.520537e+001
1.254064e+003, 1.532933e+001
1.254546e+003, 1.549879e+001
1.255028e+003, 1.555923e+001
1.255510e+003, 1.554292e+001
1.255993e+003, 1.546305e+001
1.256475e+003, 1.537741e+001
1.256957e+003, 1.541891e+001
1.257439e+003, 1.554457e+001
1.257921e+003, 1.562348e+001
1.258403e+003, 1.563581e+001
1.258885e+003, 1.565143e+001
1.259367e+003, 1.568207e+001
1.259850e+003, 1.578799e+001
1.260332e+003, 1.618753e+001
1.260814e+003, 1.641822e+001
1.261296e+003, 1.604623e+001
1.261778e+003, 1.564071e+001
1.262260e+003, 1.571648e+001
1.262742e+003, 1.600193e+001
1.263224e+003, 1.601910e+001
1.263707e+003, 1.580719e+001
1.264189e+003, 1.572340e+001
1.264671e+003, 1.580449e+001
1.265153e+003, 1.589755e+001
1.265635e+003, 1.601705e+001
1.266117e+003, 1.607327e+001
1.266599e+003, 1.603997e+001
1.267081e+003, 1.597493e+001
1.267563e+003, 1.590465e+001
1.268046e+003, 1.587413e+001
1.268528e+003, 1.596143e+001
1.269010e+003, 1.608024e+001
1.269492e+003, 1.596216e+001
1.269974e+003, 1.574541e+001
1.270456e+003, 1.583790e+001
1.270938e+003, 1.612653e+001
1.271420e+003, 1.623637e+001
1.271902e+003, 1.615545e+001
1.272385e+003, 1.613038e+001
1.272867e+003, 1.625552e+001
1.273349e+003, 1.639991e+001
1.273831e+003, 1.654096e+001
1.274313e+003, 1.660497e+001
1.274795e+003, 1.653835e+001
1.275277e+003, 1.640241e+001
1.275759e+003, 1.614758e+001
1.276242e+003, 1.591655e+001
1.276724e+003, 1.588717e+001
1.277206e+003, 1.601327e+001
1.277688e+003, 1.614569e+001
1.278170e+003, 1.630375e+001
1.278652e+003, 1.625765e+001
1.279134e+003, 1.590145e+001
1.279616e+003, 1.574929e+001
1.280099e+003, 1.589941e+001
1.280581e+003, 1.600899e+001
1.281063e+003, 1.594777e+001
1.281545e+003, 1.588115e+001
1.282027e+003, 1.594770e+001
1.282509e+003, 1.604177e+001
1.282991e+003, 1.595061e+001
1.283473e+003, 1.576987e+001
1.283955e+003, 1.570778e+001
##END=



