##NAMES=Almandine
##RRUFFID=R120152
##IDEAL CHEMISTRY=Fe^2+^_3_Al_2_(SiO_4_)_3_
##LOCALITY=The garnet schist, Roxbury, Litchfield County, Connecticut, USA
##OWNER=RRUFF
##SOURCE=Eric Van Valkenburg
##DESCRIPTION=Dark brown dodecahedra
##STATUS=The identification of this mineral has been confirmed only by single crystal X-ray diffraction.
##URL=rruff.info/R120152
8.975323e+001, 0.000000e+000
9.023535e+001, 4.094479e+002
9.071747e+001, 4.149422e+002
9.119958e+001, 4.153401e+002
9.168170e+001, 4.143949e+002
9.216382e+001, 4.091757e+002
9.264594e+001, 4.008114e+002
9.312805e+001, 3.913094e+002
9.361017e+001, 3.816104e+002
9.409229e+001, 3.707744e+002
9.457440e+001, 3.576239e+002
9.505651e+001, 3.453330e+002
9.553863e+001, 3.334994e+002
9.602074e+001, 3.228301e+002
9.650286e+001, 3.142312e+002
9.698498e+001, 3.078775e+002
9.746709e+001, 3.024883e+002
9.794921e+001, 2.965535e+002
9.843133e+001, 2.893134e+002
9.891344e+001, 2.825708e+002
9.939556e+001, 2.768491e+002
9.987768e+001, 2.718845e+002
1.003598e+002, 2.670699e+002
1.008419e+002, 2.618950e+002
1.013240e+002, 2.566251e+002
1.018061e+002, 2.521834e+002
1.022883e+002, 2.487518e+002
1.027704e+002, 2.459371e+002
1.032525e+002, 2.436030e+002
1.037346e+002, 2.418511e+002
1.042167e+002, 2.399231e+002
1.046988e+002, 2.370606e+002
1.051810e+002, 2.336502e+002
1.056631e+002, 2.302578e+002
1.061452e+002, 2.274081e+002
1.066273e+002, 2.248033e+002
1.071094e+002, 2.210574e+002
1.075915e+002, 2.148116e+002
1.080737e+002, 2.090564e+002
1.085558e+002, 2.050925e+002
1.090379e+002, 2.025866e+002
1.095200e+002, 2.006770e+002
1.100021e+002, 1.986047e+002
1.104842e+002, 1.962802e+002
1.109664e+002, 1.943160e+002
1.114485e+002, 1.928387e+002
1.119306e+002, 1.915739e+002
1.124127e+002, 1.904859e+002
1.128948e+002, 1.895290e+002
1.133769e+002, 1.885890e+002
1.138591e+002, 1.875168e+002
1.143412e+002, 1.862573e+002
1.148233e+002, 1.849076e+002
1.153054e+002, 1.833254e+002
1.157875e+002, 1.817126e+002
1.162696e+002, 1.803257e+002
1.167517e+002, 1.792661e+002
1.172339e+002, 1.783194e+002
1.177160e+002, 1.769035e+002
1.181981e+002, 1.746361e+002
1.186802e+002, 1.727539e+002
1.191623e+002, 1.716130e+002
1.196444e+002, 1.711296e+002
1.201266e+002, 1.711808e+002
1.206087e+002, 1.720631e+002
1.210908e+002, 1.731656e+002
1.215729e+002, 1.733306e+002
1.220550e+002, 1.722687e+002
1.225371e+002, 1.707700e+002
1.230193e+002, 1.695101e+002
1.235014e+002, 1.685251e+002
1.239835e+002, 1.674440e+002
1.244656e+002, 1.660147e+002
1.249477e+002, 1.644291e+002
1.254298e+002, 1.627716e+002
1.259120e+002, 1.609766e+002
1.263941e+002, 1.592656e+002
1.268762e+002, 1.582313e+002
1.273583e+002, 1.583476e+002
1.278404e+002, 1.583730e+002
1.283225e+002, 1.581300e+002
1.288047e+002, 1.575507e+002
1.292868e+002, 1.564870e+002
1.297689e+002, 1.547566e+002
1.302510e+002, 1.524328e+002
1.307331e+002, 1.505933e+002
1.312152e+002, 1.497652e+002
1.316974e+002, 1.489334e+002
1.321795e+002, 1.477473e+002
1.326616e+002, 1.463332e+002
1.331437e+002, 1.450912e+002
1.336258e+002, 1.444257e+002
1.341079e+002, 1.445140e+002
1.345901e+002, 1.439125e+002
1.350722e+002, 1.420539e+002
1.355543e+002, 1.400995e+002
1.360364e+002, 1.386327e+002
1.365185e+002, 1.377376e+002
1.370006e+002, 1.372881e+002
1.374828e+002, 1.372988e+002
1.379649e+002, 1.379530e+002
1.384470e+002, 1.379797e+002
1.389291e+002, 1.368272e+002
1.394112e+002, 1.352008e+002
1.398933e+002, 1.339540e+002
1.403755e+002, 1.333296e+002
1.408576e+002, 1.328847e+002
1.413397e+002, 1.320545e+002
1.418218e+002, 1.308839e+002
1.423039e+002, 1.296362e+002
1.427860e+002, 1.281345e+002
1.432681e+002, 1.265741e+002
1.437503e+002, 1.257002e+002
1.442324e+002, 1.259640e+002
1.447145e+002, 1.266952e+002
1.451966e+002, 1.273632e+002
1.456787e+002, 1.279506e+002
1.461608e+002, 1.283095e+002
1.466430e+002, 1.282167e+002
1.471251e+002, 1.276167e+002
1.476072e+002, 1.271014e+002
1.480893e+002, 1.266837e+002
1.485714e+002, 1.264520e+002
1.490535e+002, 1.265536e+002
1.495357e+002, 1.270007e+002
1.500178e+002, 1.275647e+002
1.504999e+002, 1.278869e+002
1.509820e+002, 1.278204e+002
1.514641e+002, 1.278324e+002
1.519462e+002, 1.278127e+002
1.524284e+002, 1.279522e+002
1.529105e+002, 1.284529e+002
1.533926e+002, 1.293797e+002
1.538747e+002, 1.305822e+002
1.543568e+002, 1.316845e+002
1.548389e+002, 1.325705e+002
1.553211e+002, 1.334801e+002
1.558032e+002, 1.343351e+002
1.562853e+002, 1.352451e+002
1.567674e+002, 1.363306e+002
1.572495e+002, 1.376529e+002
1.577316e+002, 1.391899e+002
1.582138e+002, 1.408688e+002
1.586959e+002, 1.424348e+002
1.591780e+002, 1.443895e+002
1.596601e+002, 1.469003e+002
1.601422e+002, 1.498928e+002
1.606243e+002, 1.531522e+002
1.611065e+002, 1.564508e+002
1.615886e+002, 1.600161e+002
1.620707e+002, 1.645236e+002
1.625528e+002, 1.696867e+002
1.630349e+002, 1.758953e+002
1.635170e+002, 1.836495e+002
1.639991e+002, 1.928544e+002
1.644813e+002, 2.025832e+002
1.649634e+002, 2.132944e+002
1.654455e+002, 2.237962e+002
1.659276e+002, 2.317374e+002
1.664097e+002, 2.374981e+002
1.668918e+002, 2.401316e+002
1.673740e+002, 2.381637e+002
1.678561e+002, 2.311785e+002
1.683382e+002, 2.215713e+002
1.688203e+002, 2.088113e+002
1.693024e+002, 1.947505e+002
1.697845e+002, 1.814482e+002
1.702667e+002, 1.694881e+002
1.707488e+002, 1.589265e+002
1.712309e+002, 1.500391e+002
1.717130e+002, 1.433739e+002
1.721951e+002, 1.375388e+002
1.726772e+002, 1.318139e+002
1.731594e+002, 1.263798e+002
1.736415e+002, 1.214490e+002
1.741236e+002, 1.171257e+002
1.746057e+002, 1.134247e+002
1.750878e+002, 1.105494e+002
1.755699e+002, 1.093820e+002
1.760521e+002, 1.081053e+002
1.765342e+002, 1.060433e+002
1.770163e+002, 1.035365e+002
1.774984e+002, 1.012547e+002
1.779805e+002, 9.971239e+001
1.784626e+002, 9.891439e+001
1.789448e+002, 9.789542e+001
1.794269e+002, 9.628022e+001
1.799090e+002, 9.481047e+001
1.803911e+002, 9.375403e+001
1.808732e+002, 9.304334e+001
1.813553e+002, 9.247864e+001
1.818375e+002, 9.190144e+001
1.823196e+002, 9.131456e+001
1.828017e+002, 9.067561e+001
1.832838e+002, 8.983900e+001
1.837659e+002, 8.908597e+001
1.842480e+002, 8.859804e+001
1.847301e+002, 8.835191e+001
1.852123e+002, 8.817802e+001
1.856944e+002, 8.793501e+001
1.861765e+002, 8.761316e+001
1.866586e+002, 8.723328e+001
1.871407e+002, 8.660342e+001
1.876228e+002, 8.605280e+001
1.881050e+002, 8.592000e+001
1.885871e+002, 8.622353e+001
1.890692e+002, 8.655085e+001
1.895513e+002, 8.642967e+001
1.900334e+002, 8.588010e+001
1.905155e+002, 8.560069e+001
1.909977e+002, 8.587913e+001
1.914798e+002, 8.636683e+001
1.919619e+002, 8.667537e+001
1.924440e+002, 8.674551e+001
1.929261e+002, 8.672210e+001
1.934082e+002, 8.671399e+001
1.938904e+002, 8.671816e+001
1.943725e+002, 8.672937e+001
1.948546e+002, 8.670924e+001
1.953367e+002, 8.670095e+001
1.958188e+002, 8.680457e+001
1.963009e+002, 8.706657e+001
1.967831e+002, 8.735839e+001
1.972652e+002, 8.761364e+001
1.977473e+002, 8.782935e+001
1.982294e+002, 8.798115e+001
1.987115e+002, 8.787708e+001
1.991936e+002, 8.765298e+001
1.996758e+002, 8.794421e+001
2.001579e+002, 8.911452e+001
2.006400e+002, 9.033781e+001
2.011221e+002, 9.114531e+001
2.016042e+002, 9.164376e+001
2.020863e+002, 9.209495e+001
2.025685e+002, 9.263097e+001
2.030506e+002, 9.325645e+001
2.035327e+002, 9.406676e+001
2.040148e+002, 9.542516e+001
2.044969e+002, 9.657761e+001
2.049790e+002, 9.703801e+001
2.054612e+002, 9.703526e+001
2.059433e+002, 9.714931e+001
2.064254e+002, 9.794022e+001
2.069075e+002, 9.946469e+001
2.073896e+002, 1.005528e+002
2.078717e+002, 1.005026e+002
2.083539e+002, 1.006373e+002
2.088360e+002, 1.014548e+002
2.093181e+002, 1.028411e+002
2.098002e+002, 1.044075e+002
2.102823e+002, 1.058515e+002
2.107644e+002, 1.071841e+002
2.112466e+002, 1.082109e+002
2.117287e+002, 1.086897e+002
2.122108e+002, 1.091202e+002
2.126929e+002, 1.097097e+002
2.131750e+002, 1.104372e+002
2.136571e+002, 1.112115e+002
2.141393e+002, 1.120153e+002
2.146214e+002, 1.129659e+002
2.151035e+002, 1.129899e+002
2.155856e+002, 1.116078e+002
2.160677e+002, 1.099558e+002
2.165498e+002, 1.083708e+002
2.170320e+002, 1.069791e+002
2.175141e+002, 1.059538e+002
2.179962e+002, 1.055272e+002
2.184783e+002, 1.058032e+002
2.189604e+002, 1.057390e+002
2.194425e+002, 1.051003e+002
2.199247e+002, 1.043560e+002
2.204068e+002, 1.038914e+002
2.208889e+002, 1.036701e+002
2.213710e+002, 1.032363e+002
2.218531e+002, 1.020892e+002
2.223352e+002, 1.001827e+002
2.228174e+002, 9.884677e+001
2.232995e+002, 9.851582e+001
2.237816e+002, 9.842562e+001
2.242637e+002, 9.806933e+001
2.247458e+002, 9.741082e+001
2.252279e+002, 9.655708e+001
2.257100e+002, 9.544701e+001
2.261922e+002, 9.417292e+001
2.266743e+002, 9.332610e+001
2.271564e+002, 9.323341e+001
2.276385e+002, 9.340490e+001
2.281206e+002, 9.349178e+001
2.286027e+002, 9.348307e+001
2.290849e+002, 9.323985e+001
2.295670e+002, 9.243827e+001
2.300491e+002, 9.132111e+001
2.305312e+002, 9.056260e+001
2.310133e+002, 9.031568e+001
2.314954e+002, 9.045621e+001
2.319776e+002, 9.100289e+001
2.324597e+002, 9.203482e+001
2.329418e+002, 9.291957e+001
2.334239e+002, 9.325799e+001
2.339060e+002, 9.317799e+001
2.343881e+002, 9.278732e+001
2.348703e+002, 9.189120e+001
2.353524e+002, 9.088161e+001
2.358345e+002, 9.031768e+001
2.363166e+002, 9.028005e+001
2.367987e+002, 9.034405e+001
2.372808e+002, 9.027703e+001
2.377630e+002, 9.019321e+001
2.382451e+002, 9.023861e+001
2.387272e+002, 9.049828e+001
2.392093e+002, 9.084774e+001
2.396914e+002, 9.114153e+001
2.401735e+002, 9.144465e+001
2.406557e+002, 9.147401e+001
2.411378e+002, 9.083201e+001
2.416199e+002, 8.999671e+001
2.421020e+002, 8.937941e+001
2.425841e+002, 8.910053e+001
2.430662e+002, 8.916115e+001
2.435484e+002, 8.972814e+001
2.440305e+002, 9.117802e+001
2.445126e+002, 9.208050e+001
2.449947e+002, 9.176925e+001
2.454768e+002, 9.093584e+001
2.459589e+002, 9.009312e+001
2.464410e+002, 8.940622e+001
2.469232e+002, 8.883567e+001
2.474053e+002, 8.831174e+001
2.478874e+002, 8.784846e+001
2.483695e+002, 8.740406e+001
2.488516e+002, 8.694259e+001
2.493337e+002, 8.651072e+001
2.498159e+002, 8.619595e+001
2.502980e+002, 8.601590e+001
2.507801e+002, 8.582655e+001
2.512622e+002, 8.535722e+001
2.517443e+002, 8.445296e+001
2.522264e+002, 8.361788e+001
2.527086e+002, 8.299022e+001
2.531907e+002, 8.237815e+001
2.536728e+002, 8.160161e+001
2.541549e+002, 8.063276e+001
2.546370e+002, 7.962570e+001
2.551191e+002, 7.878619e+001
2.556013e+002, 7.806551e+001
2.560834e+002, 7.766342e+001
2.565655e+002, 7.779514e+001
2.570476e+002, 7.802740e+001
2.575297e+002, 7.806641e+001
2.580118e+002, 7.786586e+001
2.584940e+002, 7.758943e+001
2.589761e+002, 7.746252e+001
2.594582e+002, 7.756445e+001
2.599403e+002, 7.762074e+001
2.604224e+002, 7.763386e+001
2.609045e+002, 7.761129e+001
2.613867e+002, 7.760574e+001
2.618688e+002, 7.759525e+001
2.623509e+002, 7.746174e+001
2.628330e+002, 7.704044e+001
2.633151e+002, 7.619702e+001
2.637972e+002, 7.555830e+001
2.642794e+002, 7.526466e+001
2.647615e+002, 7.501707e+001
2.652436e+002, 7.458096e+001
2.657257e+002, 7.399818e+001
2.662078e+002, 7.352262e+001
2.666899e+002, 7.341410e+001
2.671721e+002, 7.372997e+001
2.676542e+002, 7.408308e+001
2.681363e+002, 7.452605e+001
2.686184e+002, 7.495101e+001
2.691005e+002, 7.536716e+001
2.695826e+002, 7.573239e+001
2.700648e+002, 7.592231e+001
2.705469e+002, 7.580563e+001
2.710290e+002, 7.536690e+001
2.715111e+002, 7.509921e+001
2.719932e+002, 7.500810e+001
2.724753e+002, 7.503962e+001
2.729575e+002, 7.531255e+001
2.734396e+002, 7.571016e+001
2.739217e+002, 7.592461e+001
2.744038e+002, 7.572034e+001
2.748859e+002, 7.514165e+001
2.753680e+002, 7.474100e+001
2.758501e+002, 7.437236e+001
2.763322e+002, 7.428026e+001
2.768144e+002, 7.472820e+001
2.772965e+002, 7.551948e+001
2.777786e+002, 7.625159e+001
2.782607e+002, 7.672707e+001
2.787428e+002, 7.695004e+001
2.792249e+002, 7.690249e+001
2.797071e+002, 7.612588e+001
2.801892e+002, 7.566532e+001
2.806713e+002, 7.598711e+001
2.811534e+002, 7.677634e+001
2.816355e+002, 7.750639e+001
2.821176e+002, 7.796473e+001
2.825998e+002, 7.819547e+001
2.830819e+002, 7.827087e+001
2.835640e+002, 7.811439e+001
2.840461e+002, 7.797697e+001
2.845282e+002, 7.782793e+001
2.850103e+002, 7.774915e+001
2.854925e+002, 7.788371e+001
2.859746e+002, 7.829015e+001
2.864567e+002, 7.885596e+001
2.869388e+002, 7.942278e+001
2.874209e+002, 8.001652e+001
2.879030e+002, 8.052126e+001
2.883852e+002, 8.081705e+001
2.888673e+002, 8.105164e+001
2.893494e+002, 8.142939e+001
2.898315e+002, 8.200167e+001
2.903136e+002, 8.260770e+001
2.907957e+002, 8.306127e+001
2.912779e+002, 8.334669e+001
2.917600e+002, 8.356539e+001
2.922421e+002, 8.365952e+001
2.927242e+002, 8.372831e+001
2.932063e+002, 8.384405e+001
2.936884e+002, 8.401863e+001
2.941706e+002, 8.429514e+001
2.946527e+002, 8.477873e+001
2.951348e+002, 8.546371e+001
2.956169e+002, 8.590956e+001
2.960990e+002, 8.578313e+001
2.965811e+002, 8.564256e+001
2.970633e+002, 8.606529e+001
2.975454e+002, 8.700945e+001
2.980275e+002, 8.777695e+001
2.985096e+002, 8.774549e+001
2.989917e+002, 8.709858e+001
2.994738e+002, 8.705191e+001
2.999560e+002, 8.816573e+001
3.004381e+002, 8.935547e+001
3.009202e+002, 8.987431e+001
3.014023e+002, 8.987248e+001
3.018844e+002, 9.010508e+001
3.023665e+002, 9.107039e+001
3.028487e+002, 9.246719e+001
3.033308e+002, 9.336114e+001
3.038129e+002, 9.342409e+001
3.042950e+002, 9.357401e+001
3.047771e+002, 9.419094e+001
3.052592e+002, 9.520436e+001
3.057414e+002, 9.653541e+001
3.062235e+002, 9.829591e+001
3.067056e+002, 1.000950e+002
3.071877e+002, 1.009465e+002
3.076698e+002, 1.004758e+002
3.081519e+002, 1.006559e+002
3.086341e+002, 1.024765e+002
3.091162e+002, 1.052857e+002
3.095983e+002, 1.080170e+002
3.100804e+002, 1.104119e+002
3.105625e+002, 1.125979e+002
3.110446e+002, 1.146806e+002
3.115268e+002, 1.166693e+002
3.120089e+002, 1.186111e+002
3.124910e+002, 1.203770e+002
3.129731e+002, 1.221620e+002
3.134552e+002, 1.242466e+002
3.139373e+002, 1.266724e+002
3.144195e+002, 1.292289e+002
3.149016e+002, 1.318537e+002
3.153837e+002, 1.345101e+002
3.158658e+002, 1.367334e+002
3.163479e+002, 1.379871e+002
3.168300e+002, 1.391463e+002
3.173121e+002, 1.408416e+002
3.177943e+002, 1.431081e+002
3.182764e+002, 1.458604e+002
3.187585e+002, 1.491588e+002
3.192406e+002, 1.529164e+002
3.197227e+002, 1.566306e+002
3.202048e+002, 1.600296e+002
3.206870e+002, 1.636702e+002
3.211691e+002, 1.679720e+002
3.216512e+002, 1.727915e+002
3.221333e+002, 1.776972e+002
3.226154e+002, 1.824497e+002
3.230975e+002, 1.871782e+002
3.235797e+002, 1.921138e+002
3.240618e+002, 1.973775e+002
3.245439e+002, 2.025821e+002
3.250260e+002, 2.078092e+002
3.255081e+002, 2.128651e+002
3.259902e+002, 2.173839e+002
3.264724e+002, 2.212141e+002
3.269545e+002, 2.246289e+002
3.274366e+002, 2.280743e+002
3.279187e+002, 2.316334e+002
3.284008e+002, 2.347994e+002
3.288829e+002, 2.374386e+002
3.293651e+002, 2.396402e+002
3.298472e+002, 2.413316e+002
3.303293e+002, 2.424992e+002
3.308114e+002, 2.436717e+002
3.312935e+002, 2.453179e+002
3.317756e+002, 2.474877e+002
3.322578e+002, 2.501579e+002
3.327399e+002, 2.533847e+002
3.332220e+002, 2.570478e+002
3.337041e+002, 2.608793e+002
3.341862e+002, 2.649515e+002
3.346683e+002, 2.699247e+002
3.351505e+002, 2.762870e+002
3.356326e+002, 2.839904e+002
3.361147e+002, 2.920795e+002
3.365968e+002, 2.994533e+002
3.370789e+002, 3.083592e+002
3.375610e+002, 3.200878e+002
3.380432e+002, 3.341078e+002
3.385253e+002, 3.490218e+002
3.390074e+002, 3.641542e+002
3.394895e+002, 3.798119e+002
3.399716e+002, 3.969355e+002
3.404537e+002, 4.159878e+002
3.409359e+002, 4.353281e+002
3.414180e+002, 4.551255e+002
3.419001e+002, 4.748998e+002
3.423822e+002, 4.944161e+002
3.428643e+002, 5.135426e+002
3.433464e+002, 5.311501e+002
3.438286e+002, 5.458256e+002
3.443107e+002, 5.575459e+002
3.447928e+002, 5.648542e+002
3.452749e+002, 5.673826e+002
3.457570e+002, 5.656657e+002
3.462391e+002, 5.600966e+002
3.467213e+002, 5.507438e+002
3.472034e+002, 5.370743e+002
3.476855e+002, 5.183140e+002
3.481676e+002, 4.940971e+002
3.486497e+002, 4.698070e+002
3.491318e+002, 4.450443e+002
3.496140e+002, 4.206288e+002
3.500961e+002, 3.966157e+002
3.505782e+002, 3.734142e+002
3.510603e+002, 3.515641e+002
3.515424e+002, 3.314243e+002
3.520245e+002, 3.130993e+002
3.525067e+002, 2.969656e+002
3.529888e+002, 2.836936e+002
3.534709e+002, 2.717986e+002
3.539530e+002, 2.611871e+002
3.544351e+002, 2.518550e+002
3.549172e+002, 2.437915e+002
3.553994e+002, 2.370062e+002
3.558815e+002, 2.314250e+002
3.563636e+002, 2.269084e+002
3.568457e+002, 2.238520e+002
3.573278e+002, 2.212010e+002
3.578099e+002, 2.188404e+002
3.582920e+002, 2.169186e+002
3.587741e+002, 2.154208e+002
3.592563e+002, 2.144172e+002
3.597384e+002, 2.141648e+002
3.602205e+002, 2.149422e+002
3.607026e+002, 2.168120e+002
3.611847e+002, 2.191597e+002
3.616668e+002, 2.222512e+002
3.621490e+002, 2.255011e+002
3.626311e+002, 2.285511e+002
3.631132e+002, 2.316425e+002
3.635953e+002, 2.352276e+002
3.640774e+002, 2.396141e+002
3.645595e+002, 2.446280e+002
3.650417e+002, 2.495186e+002
3.655238e+002, 2.539435e+002
3.660059e+002, 2.587328e+002
3.664880e+002, 2.643132e+002
3.669701e+002, 2.700961e+002
3.674522e+002, 2.755630e+002
3.679344e+002, 2.805136e+002
3.684165e+002, 2.850568e+002
3.688986e+002, 2.896034e+002
3.693807e+002, 2.948857e+002
3.698628e+002, 2.980328e+002
3.703449e+002, 2.980474e+002
3.708271e+002, 2.968401e+002
3.713092e+002, 2.952853e+002
3.717913e+002, 2.934415e+002
3.722734e+002, 2.909408e+002
3.727555e+002, 2.875126e+002
3.732376e+002, 2.831682e+002
3.737198e+002, 2.778671e+002
3.742019e+002, 2.711765e+002
3.746840e+002, 2.639449e+002
3.751661e+002, 2.565629e+002
3.756482e+002, 2.488397e+002
3.761303e+002, 2.404651e+002
3.766125e+002, 2.311449e+002
3.770946e+002, 2.212934e+002
3.775767e+002, 2.117116e+002
3.780588e+002, 2.023194e+002
3.785409e+002, 1.934415e+002
3.790230e+002, 1.852725e+002
3.795052e+002, 1.775676e+002
3.799873e+002, 1.701900e+002
3.804694e+002, 1.631106e+002
3.809515e+002, 1.563128e+002
3.814336e+002, 1.498365e+002
3.819157e+002, 1.436667e+002
3.823979e+002, 1.377078e+002
3.828800e+002, 1.318196e+002
3.833621e+002, 1.263382e+002
3.838442e+002, 1.213816e+002
3.843263e+002, 1.169536e+002
3.848084e+002, 1.129252e+002
3.852906e+002, 1.094984e+002
3.857727e+002, 1.064206e+002
3.862548e+002, 1.029818e+002
3.867369e+002, 9.900883e+001
3.872190e+002, 9.534114e+001
3.877011e+002, 9.269489e+001
3.881833e+002, 9.058824e+001
3.886654e+002, 8.835100e+001
3.891475e+002, 8.576475e+001
3.896296e+002, 8.319570e+001
3.901117e+002, 8.103311e+001
3.905938e+002, 7.921610e+001
3.910760e+002, 7.730000e+001
3.915581e+002, 7.501672e+001
3.920402e+002, 7.273365e+001
3.925223e+002, 7.099588e+001
3.930044e+002, 6.983120e+001
3.934865e+002, 6.868063e+001
3.939687e+002, 6.728017e+001
3.944508e+002, 6.577663e+001
3.949329e+002, 6.439494e+001
3.954150e+002, 6.315197e+001
3.958971e+002, 6.207415e+001
3.963792e+002, 6.127592e+001
3.968614e+002, 6.071156e+001
3.973435e+002, 5.987371e+001
3.978256e+002, 5.826312e+001
3.983077e+002, 5.678097e+001
3.987898e+002, 5.613433e+001
3.992719e+002, 5.614913e+001
3.997540e+002, 5.617674e+001
4.002361e+002, 5.590873e+001
4.007183e+002, 5.541945e+001
4.012004e+002, 5.491805e+001
4.016825e+002, 5.444091e+001
4.021646e+002, 5.389181e+001
4.026467e+002, 5.312339e+001
4.031288e+002, 5.233337e+001
4.036110e+002, 5.180417e+001
4.040931e+002, 5.158710e+001
4.045752e+002, 5.143147e+001
4.050573e+002, 5.103008e+001
4.055394e+002, 5.030724e+001
4.060215e+002, 4.973140e+001
4.065037e+002, 4.935816e+001
4.069858e+002, 4.906013e+001
4.074679e+002, 4.879503e+001
4.079500e+002, 4.855242e+001
4.084321e+002, 4.833515e+001
4.089142e+002, 4.814884e+001
4.093964e+002, 4.797289e+001
4.098785e+002, 4.770424e+001
4.103606e+002, 4.711535e+001
4.108427e+002, 4.673777e+001
4.113248e+002, 4.690291e+001
4.118069e+002, 4.713794e+001
4.122891e+002, 4.691851e+001
4.127712e+002, 4.614213e+001
4.132533e+002, 4.520379e+001
4.137354e+002, 4.465435e+001
4.142175e+002, 4.462123e+001
4.146996e+002, 4.445594e+001
4.151818e+002, 4.392103e+001
4.156639e+002, 4.347460e+001
4.161460e+002, 4.333764e+001
4.166281e+002, 4.343768e+001
4.171102e+002, 4.358665e+001
4.175923e+002, 4.368536e+001
4.180745e+002, 4.372605e+001
4.185566e+002, 4.369218e+001
4.190387e+002, 4.361316e+001
4.195208e+002, 4.338794e+001
4.200029e+002, 4.289979e+001
4.204850e+002, 4.230977e+001
4.209672e+002, 4.170663e+001
4.214493e+002, 4.110527e+001
4.219314e+002, 4.066476e+001
4.224135e+002, 4.060350e+001
4.228956e+002, 4.090505e+001
4.233777e+002, 4.123829e+001
4.238599e+002, 4.163196e+001
4.243420e+002, 4.193528e+001
4.248241e+002, 4.202313e+001
4.253062e+002, 4.193372e+001
4.257883e+002, 4.180021e+001
4.262704e+002, 4.158551e+001
4.267526e+002, 4.140063e+001
4.272347e+002, 4.152111e+001
4.277168e+002, 4.197854e+001
4.281989e+002, 4.218922e+001
4.286810e+002, 4.165593e+001
4.291631e+002, 4.076727e+001
4.296453e+002, 4.041890e+001
4.301274e+002, 4.084815e+001
4.306095e+002, 4.128357e+001
4.310916e+002, 4.130708e+001
4.315737e+002, 4.107275e+001
4.320558e+002, 4.087984e+001
4.325380e+002, 4.080256e+001
4.330201e+002, 4.078072e+001
4.335022e+002, 4.077504e+001
4.339843e+002, 4.079803e+001
4.344664e+002, 4.067072e+001
4.349485e+002, 4.017077e+001
4.354307e+002, 3.970212e+001
4.359128e+002, 3.958891e+001
4.363949e+002, 3.975554e+001
4.368770e+002, 3.990767e+001
4.373591e+002, 3.987533e+001
4.378412e+002, 3.969847e+001
4.383234e+002, 3.952846e+001
4.388055e+002, 3.940995e+001
4.392876e+002, 3.923995e+001
4.397697e+002, 3.896965e+001
4.402518e+002, 3.866956e+001
4.407339e+002, 3.832662e+001
4.412160e+002, 3.798040e+001
4.416982e+002, 3.783756e+001
4.421803e+002, 3.822769e+001
4.426624e+002, 3.931240e+001
4.431445e+002, 3.975201e+001
4.436266e+002, 3.893053e+001
4.441087e+002, 3.809221e+001
4.445909e+002, 3.748571e+001
4.450730e+002, 3.714640e+001
4.455551e+002, 3.712197e+001
4.460372e+002, 3.746936e+001
4.465193e+002, 3.799283e+001
4.470014e+002, 3.824677e+001
4.474836e+002, 3.814501e+001
4.479657e+002, 3.802917e+001
4.484478e+002, 3.787671e+001
4.489299e+002, 3.779239e+001
4.494120e+002, 3.789268e+001
4.498941e+002, 3.816033e+001
4.503763e+002, 3.841954e+001
4.508584e+002, 3.847599e+001
4.513405e+002, 3.840063e+001
4.518226e+002, 3.853473e+001
4.523047e+002, 3.898726e+001
4.527868e+002, 3.938894e+001
4.532690e+002, 3.948152e+001
4.537511e+002, 3.939405e+001
4.542332e+002, 3.927702e+001
4.547153e+002, 3.911716e+001
4.551974e+002, 3.902140e+001
4.556795e+002, 3.908978e+001
4.561617e+002, 3.930126e+001
4.566438e+002, 3.957954e+001
4.571259e+002, 3.992677e+001
4.576080e+002, 4.028437e+001
4.580901e+002, 4.056669e+001
4.585722e+002, 4.077493e+001
4.590544e+002, 4.099549e+001
4.595365e+002, 4.125869e+001
4.600186e+002, 4.152897e+001
4.605007e+002, 4.173907e+001
4.609828e+002, 4.191125e+001
4.614649e+002, 4.217316e+001
4.619471e+002, 4.261792e+001
4.624292e+002, 4.320001e+001
4.629113e+002, 4.374214e+001
4.633934e+002, 4.446849e+001
4.638755e+002, 4.486866e+001
4.643576e+002, 4.465841e+001
4.648398e+002, 4.421977e+001
4.653219e+002, 4.389109e+001
4.658040e+002, 4.376081e+001
4.662861e+002, 4.380315e+001
4.667682e+002, 4.401067e+001
4.672503e+002, 4.440940e+001
4.677325e+002, 4.473554e+001
4.682146e+002, 4.510007e+001
4.686967e+002, 4.526676e+001
4.691788e+002, 4.482548e+001
4.696609e+002, 4.423764e+001
4.701430e+002, 4.422467e+001
4.706252e+002, 4.511777e+001
4.711073e+002, 4.648215e+001
4.715894e+002, 4.758685e+001
4.720715e+002, 4.839850e+001
4.725536e+002, 4.909080e+001
4.730357e+002, 4.958416e+001
4.735179e+002, 5.004383e+001
4.740000e+002, 5.052429e+001
4.744821e+002, 5.104296e+001
4.749642e+002, 5.165705e+001
4.754463e+002, 5.255086e+001
4.759284e+002, 5.350616e+001
4.764106e+002, 5.402801e+001
4.768927e+002, 5.407128e+001
4.773748e+002, 5.395931e+001
4.778569e+002, 5.390450e+001
4.783390e+002, 5.372698e+001
4.788211e+002, 5.313141e+001
4.793033e+002, 5.200474e+001
4.797854e+002, 5.083707e+001
4.802675e+002, 4.984756e+001
4.807496e+002, 4.898881e+001
4.812317e+002, 4.815796e+001
4.817138e+002, 4.733416e+001
4.821959e+002, 4.660096e+001
4.826780e+002, 4.602647e+001
4.831602e+002, 4.562114e+001
4.836423e+002, 4.533072e+001
4.841244e+002, 4.524880e+001
4.846065e+002, 4.517302e+001
4.850886e+002, 4.493117e+001
4.855707e+002, 4.465798e+001
4.860529e+002, 4.457373e+001
4.865350e+002, 4.476045e+001
4.870171e+002, 4.518322e+001
4.874992e+002, 4.578341e+001
4.879813e+002, 4.657163e+001
4.884634e+002, 4.753946e+001
4.889456e+002, 4.876573e+001
4.894277e+002, 5.006155e+001
4.899098e+002, 5.131529e+001
4.903919e+002, 5.256081e+001
4.908740e+002, 5.385786e+001
4.913561e+002, 5.521191e+001
4.918383e+002, 5.671428e+001
4.923204e+002, 5.860801e+001
4.928025e+002, 6.089203e+001
4.932846e+002, 6.355818e+001
4.937667e+002, 6.671884e+001
4.942488e+002, 7.016874e+001
4.947310e+002, 7.374818e+001
4.952131e+002, 7.746196e+001
4.956952e+002, 8.152695e+001
4.961773e+002, 8.642778e+001
4.966594e+002, 9.173779e+001
4.971415e+002, 9.632942e+001
4.976237e+002, 1.001988e+002
4.981058e+002, 1.032964e+002
4.985879e+002, 1.058173e+002
4.990700e+002, 1.074080e+002
4.995521e+002, 1.074513e+002
5.000342e+002, 1.055469e+002
5.005164e+002, 1.030087e+002
5.009985e+002, 1.006387e+002
5.014806e+002, 9.802512e+001
5.019627e+002, 9.418102e+001
5.024448e+002, 8.890055e+001
5.029269e+002, 8.326717e+001
5.034091e+002, 7.826306e+001
5.038912e+002, 7.388003e+001
5.043733e+002, 6.976189e+001
5.048554e+002, 6.560712e+001
5.053375e+002, 6.201646e+001
5.058196e+002, 5.939069e+001
5.063018e+002, 5.740541e+001
5.067839e+002, 5.562453e+001
5.072660e+002, 5.388261e+001
5.077481e+002, 5.224169e+001
5.082302e+002, 5.082285e+001
5.087123e+002, 4.968585e+001
5.091945e+002, 4.855016e+001
5.096766e+002, 4.718375e+001
5.101587e+002, 4.605514e+001
5.106408e+002, 4.547639e+001
5.111229e+002, 4.524784e+001
5.116050e+002, 4.495330e+001
5.120872e+002, 4.434824e+001
5.125693e+002, 4.370223e+001
5.130514e+002, 4.366423e+001
5.135335e+002, 4.438203e+001
5.140156e+002, 4.451501e+001
5.144977e+002, 4.316833e+001
5.149799e+002, 4.175568e+001
5.154620e+002, 4.161671e+001
5.159441e+002, 4.256643e+001
5.164262e+002, 4.330458e+001
5.169083e+002, 4.310221e+001
5.173904e+002, 4.249959e+001
5.178726e+002, 4.216279e+001
5.183547e+002, 4.208801e+001
5.188368e+002, 4.206476e+001
5.193189e+002, 4.201853e+001
5.198010e+002, 4.193501e+001
5.202831e+002, 4.173792e+001
5.207653e+002, 4.129784e+001
5.212474e+002, 4.112775e+001
5.217295e+002, 4.154422e+001
5.222116e+002, 4.210448e+001
5.226937e+002, 4.243616e+001
5.231758e+002, 4.252068e+001
5.236580e+002, 4.254171e+001
5.241401e+002, 4.265106e+001
5.246222e+002, 4.277869e+001
5.251043e+002, 4.252570e+001
5.255864e+002, 4.120036e+001
5.260685e+002, 4.050899e+001
5.265507e+002, 4.115605e+001
5.270328e+002, 4.207056e+001
5.275149e+002, 4.227497e+001
5.279970e+002, 4.173843e+001
5.284791e+002, 4.122843e+001
5.289612e+002, 4.150116e+001
5.294434e+002, 4.239922e+001
5.299255e+002, 4.295702e+001
5.304076e+002, 4.308190e+001
5.308897e+002, 4.307639e+001
5.313718e+002, 4.294978e+001
5.318539e+002, 4.281556e+001
5.323361e+002, 4.278620e+001
5.328182e+002, 4.287956e+001
5.333003e+002, 4.307272e+001
5.337824e+002, 4.330394e+001
5.342645e+002, 4.363292e+001
5.347466e+002, 4.428107e+001
5.352288e+002, 4.530552e+001
5.357109e+002, 4.625222e+001
5.361930e+002, 4.673313e+001
5.366751e+002, 4.683329e+001
5.371572e+002, 4.710807e+001
5.376393e+002, 4.754609e+001
5.381215e+002, 4.815419e+001
5.386036e+002, 4.898225e+001
5.390857e+002, 4.996201e+001
5.395678e+002, 5.101945e+001
5.400499e+002, 5.213311e+001
5.405320e+002, 5.331467e+001
5.410142e+002, 5.456755e+001
5.414963e+002, 5.589101e+001
5.419784e+002, 5.730906e+001
5.424604e+002, 5.879894e+001
5.429426e+002, 6.041238e+001
5.434247e+002, 6.213328e+001
5.439068e+002, 6.399089e+001
5.443889e+002, 6.602668e+001
5.448710e+002, 6.824766e+001
5.453531e+002, 7.058248e+001
5.458353e+002, 7.275008e+001
5.463174e+002, 7.483034e+001
5.467995e+002, 7.772651e+001
5.472816e+002, 8.166999e+001
5.477637e+002, 8.602155e+001
5.482458e+002, 9.039030e+001
5.487280e+002, 9.490125e+001
5.492101e+002, 9.990642e+001
5.496922e+002, 1.056887e+002
5.501743e+002, 1.114454e+002
5.506564e+002, 1.164263e+002
5.511385e+002, 1.210828e+002
5.516207e+002, 1.266551e+002
5.521028e+002, 1.334325e+002
5.525849e+002, 1.400031e+002
5.530670e+002, 1.451142e+002
5.535491e+002, 1.487674e+002
5.540313e+002, 1.514198e+002
5.545134e+002, 1.534145e+002
5.549955e+002, 1.541786e+002
5.554776e+002, 1.533855e+002
5.559597e+002, 1.513603e+002
5.564418e+002, 1.485346e+002
5.569240e+002, 1.449966e+002
5.574061e+002, 1.405006e+002
5.578882e+002, 1.345538e+002
5.583703e+002, 1.271334e+002
5.588524e+002, 1.198010e+002
5.593345e+002, 1.121960e+002
5.598167e+002, 1.053295e+002
5.602988e+002, 9.975675e+001
5.607809e+002, 9.490105e+001
5.612630e+002, 9.002607e+001
5.617451e+002, 8.495239e+001
5.622272e+002, 7.997398e+001
5.627094e+002, 7.516212e+001
5.631915e+002, 7.064050e+001
5.636736e+002, 6.688544e+001
5.641557e+002, 6.399730e+001
5.646378e+002, 6.158288e+001
5.651199e+002, 5.949228e+001
5.656021e+002, 5.765806e+001
5.660842e+002, 5.572290e+001
5.665663e+002, 5.340973e+001
5.670484e+002, 5.139092e+001
5.675305e+002, 5.001485e+001
5.680126e+002, 4.900470e+001
5.684948e+002, 4.798510e+001
5.689769e+002, 4.690843e+001
5.694590e+002, 4.599200e+001
5.699411e+002, 4.548719e+001
5.704232e+002, 4.536045e+001
5.709053e+002, 4.500077e+001
5.713875e+002, 4.418472e+001
5.718696e+002, 4.342655e+001
5.723517e+002, 4.266870e+001
5.728338e+002, 4.208221e+001
5.733159e+002, 4.195704e+001
5.737980e+002, 4.226728e+001
5.742802e+002, 4.250819e+001
5.747623e+002, 4.198620e+001
5.752444e+002, 4.099680e+001
5.757265e+002, 4.086540e+001
5.762086e+002, 4.176845e+001
5.766907e+002, 4.279956e+001
5.771729e+002, 4.363572e+001
5.776550e+002, 4.427992e+001
5.781371e+002, 4.473896e+001
5.786192e+002, 4.498040e+001
5.791013e+002, 4.518404e+001
5.795834e+002, 4.544506e+001
5.800656e+002, 4.568719e+001
5.805477e+002, 4.576434e+001
5.810298e+002, 4.570560e+001
5.815119e+002, 4.578806e+001
5.819940e+002, 4.624301e+001
5.824761e+002, 4.685851e+001
5.829583e+002, 4.690679e+001
5.834404e+002, 4.592567e+001
5.839225e+002, 4.505360e+001
5.844046e+002, 4.440281e+001
5.848867e+002, 4.377906e+001
5.853688e+002, 4.292592e+001
5.858510e+002, 4.196844e+001
5.863331e+002, 4.131303e+001
5.868152e+002, 4.125683e+001
5.872973e+002, 4.157991e+001
5.877794e+002, 4.180416e+001
5.882615e+002, 4.191988e+001
5.887437e+002, 4.198926e+001
5.892258e+002, 4.192144e+001
5.897079e+002, 4.193380e+001
5.901900e+002, 4.223662e+001
5.906721e+002, 4.279779e+001
5.911542e+002, 4.342033e+001
5.916364e+002, 4.396884e+001
5.921185e+002, 4.461773e+001
5.926006e+002, 4.567992e+001
5.930827e+002, 4.697019e+001
5.935648e+002, 4.791359e+001
5.940469e+002, 4.828570e+001
5.945291e+002, 4.838646e+001
5.950112e+002, 4.863132e+001
5.954933e+002, 4.906898e+001
5.959754e+002, 4.943390e+001
5.964575e+002, 5.011913e+001
5.969396e+002, 5.031327e+001
5.974218e+002, 4.963029e+001
5.979039e+002, 4.831471e+001
5.983860e+002, 4.659168e+001
5.988681e+002, 4.455891e+001
5.993502e+002, 4.257174e+001
5.998323e+002, 4.109607e+001
6.003145e+002, 4.010844e+001
6.007966e+002, 3.910065e+001
6.012787e+002, 3.799908e+001
6.017608e+002, 3.699695e+001
6.022429e+002, 3.631403e+001
6.027250e+002, 3.577101e+001
6.032072e+002, 3.509234e+001
6.036893e+002, 3.417582e+001
6.041714e+002, 3.332220e+001
6.046535e+002, 3.268594e+001
6.051356e+002, 3.219983e+001
6.056177e+002, 3.179300e+001
6.060999e+002, 3.144840e+001
6.065820e+002, 3.111944e+001
6.070641e+002, 3.076720e+001
6.075462e+002, 3.041339e+001
6.080283e+002, 3.015319e+001
6.085104e+002, 3.001240e+001
6.089926e+002, 2.993924e+001
6.094747e+002, 3.007132e+001
6.099568e+002, 3.015524e+001
6.104389e+002, 2.994410e+001
6.109210e+002, 2.950802e+001
6.114031e+002, 2.912149e+001
6.118853e+002, 2.894611e+001
6.123674e+002, 2.894543e+001
6.128495e+002, 2.909021e+001
6.133316e+002, 2.940078e+001
6.138137e+002, 2.961645e+001
6.142958e+002, 2.962136e+001
6.147780e+002, 2.958124e+001
6.152601e+002, 2.966498e+001
6.157422e+002, 2.985421e+001
6.162243e+002, 3.004980e+001
6.167064e+002, 3.028951e+001
6.171885e+002, 3.047238e+001
6.176707e+002, 3.038152e+001
6.181528e+002, 3.021426e+001
6.186349e+002, 3.046730e+001
6.191170e+002, 3.126966e+001
6.195991e+002, 3.211846e+001
6.200812e+002, 3.240290e+001
6.205634e+002, 3.208262e+001
6.210455e+002, 3.181672e+001
6.215276e+002, 3.134501e+001
6.220097e+002, 3.127176e+001
6.224918e+002, 3.200305e+001
6.229739e+002, 3.302644e+001
6.234561e+002, 3.378038e+001
6.239382e+002, 3.417146e+001
6.244203e+002, 3.459239e+001
6.249023e+002, 3.541075e+001
6.253845e+002, 3.649154e+001
6.258666e+002, 3.745274e+001
6.263487e+002, 3.827434e+001
6.268308e+002, 3.916777e+001
6.273129e+002, 4.031875e+001
6.277950e+002, 4.151768e+001
6.282772e+002, 4.228949e+001
6.287593e+002, 4.249525e+001
6.292414e+002, 4.299688e+001
6.297235e+002, 4.442717e+001
6.302056e+002, 4.574348e+001
6.306877e+002, 4.616912e+001
6.311699e+002, 4.589533e+001
6.316520e+002, 4.547773e+001
6.321341e+002, 4.517249e+001
6.326162e+002, 4.485667e+001
6.330983e+002, 4.432438e+001
6.335804e+002, 4.355257e+001
6.340626e+002, 4.267683e+001
6.345447e+002, 4.179786e+001
6.350268e+002, 4.067576e+001
6.355089e+002, 3.888279e+001
6.359910e+002, 3.691420e+001
6.364731e+002, 3.560394e+001
6.369553e+002, 3.527977e+001
6.374374e+002, 3.504353e+001
6.379195e+002, 3.408172e+001
6.384016e+002, 3.282664e+001
6.388837e+002, 3.218238e+001
6.393658e+002, 3.223276e+001
6.398480e+002, 3.228021e+001
6.403301e+002, 3.186318e+001
6.408122e+002, 3.111843e+001
6.412943e+002, 3.049647e+001
6.417764e+002, 2.994895e+001
6.422585e+002, 2.961881e+001
6.427407e+002, 2.965454e+001
6.432228e+002, 2.977443e+001
6.437049e+002, 2.996772e+001
6.441870e+002, 3.008612e+001
6.446691e+002, 2.975664e+001
6.451512e+002, 2.870648e+001
6.456334e+002, 2.749722e+001
6.461155e+002, 2.716578e+001
6.465976e+002, 2.770289e+001
6.470797e+002, 2.792614e+001
6.475618e+002, 2.754865e+001
6.480439e+002, 2.707288e+001
6.485261e+002, 2.690499e+001
6.490082e+002, 2.694457e+001
6.494903e+002, 2.687534e+001
6.499724e+002, 2.654326e+001
6.504545e+002, 2.630196e+001
6.509366e+002, 2.640378e+001
6.514188e+002, 2.660945e+001
6.519009e+002, 2.663965e+001
6.523830e+002, 2.646469e+001
6.528651e+002, 2.617141e+001
6.533472e+002, 2.579467e+001
6.538293e+002, 2.541317e+001
6.543115e+002, 2.538882e+001
6.547936e+002, 2.604186e+001
6.552757e+002, 2.627271e+001
6.557578e+002, 2.537049e+001
6.562399e+002, 2.448730e+001
6.567220e+002, 2.436656e+001
6.572042e+002, 2.480335e+001
6.576863e+002, 2.508855e+001
6.581684e+002, 2.488401e+001
6.586505e+002, 2.454631e+001
6.591326e+002, 2.445282e+001
6.596147e+002, 2.449448e+001
6.600969e+002, 2.430581e+001
6.605790e+002, 2.380087e+001
6.610611e+002, 2.333307e+001
6.615432e+002, 2.322690e+001
6.620253e+002, 2.344544e+001
6.625074e+002, 2.358934e+001
6.629896e+002, 2.361318e+001
6.634717e+002, 2.362069e+001
6.639538e+002, 2.354469e+001
6.644359e+002, 2.351380e+001
6.649180e+002, 2.369059e+001
6.654001e+002, 2.402142e+001
6.658823e+002, 2.428629e+001
6.663644e+002, 2.435844e+001
6.668465e+002, 2.427379e+001
6.673286e+002, 2.408430e+001
6.678107e+002, 2.379105e+001
6.682928e+002, 2.338581e+001
6.687750e+002, 2.277120e+001
6.692571e+002, 2.228098e+001
6.697392e+002, 2.230701e+001
6.702213e+002, 2.279733e+001
6.707034e+002, 2.313514e+001
6.711855e+002, 2.324627e+001
6.716677e+002, 2.328328e+001
6.721498e+002, 2.319558e+001
6.726319e+002, 2.311449e+001
6.731140e+002, 2.324337e+001
6.735961e+002, 2.355673e+001
6.740782e+002, 2.379979e+001
6.745604e+002, 2.376495e+001
6.750425e+002, 2.353995e+001
6.755246e+002, 2.340636e+001
6.760067e+002, 2.337624e+001
6.764888e+002, 2.339468e+001
6.769709e+002, 2.355181e+001
6.774531e+002, 2.363814e+001
6.779352e+002, 2.337697e+001
6.784173e+002, 2.289483e+001
6.788994e+002, 2.265579e+001
6.793815e+002, 2.290477e+001
6.798636e+002, 2.324230e+001
6.803458e+002, 2.348465e+001
6.808279e+002, 2.364427e+001
6.813100e+002, 2.376296e+001
6.817921e+002, 2.383685e+001
6.822742e+002, 2.377173e+001
6.827563e+002, 2.346231e+001
6.832385e+002, 2.298296e+001
6.837206e+002, 2.270471e+001
6.842027e+002, 2.270852e+001
6.846848e+002, 2.273704e+001
6.851669e+002, 2.273782e+001
6.856490e+002, 2.277159e+001
6.861312e+002, 2.290656e+001
6.866133e+002, 2.310595e+001
6.870954e+002, 2.326181e+001
6.875775e+002, 2.332866e+001
6.880596e+002, 2.334740e+001
6.885417e+002, 2.337498e+001
6.890239e+002, 2.337894e+001
6.895060e+002, 2.324552e+001
6.899881e+002, 2.295846e+001
6.904702e+002, 2.269985e+001
6.909523e+002, 2.261758e+001
6.914344e+002, 2.267669e+001
6.919166e+002, 2.270059e+001
6.923987e+002, 2.268806e+001
6.928808e+002, 2.263939e+001
6.933629e+002, 2.253934e+001
6.938450e+002, 2.242033e+001
6.943271e+002, 2.217975e+001
6.948093e+002, 2.194247e+001
6.952914e+002, 2.204484e+001
6.957735e+002, 2.273032e+001
6.962556e+002, 2.350082e+001
6.967377e+002, 2.380349e+001
6.972198e+002, 2.372851e+001
6.977020e+002, 2.358450e+001
6.981841e+002, 2.341613e+001
6.986662e+002, 2.318212e+001
6.991483e+002, 2.280648e+001
6.996304e+002, 2.237178e+001
7.001125e+002, 2.220170e+001
7.005947e+002, 2.258316e+001
7.010768e+002, 2.279314e+001
7.015589e+002, 2.256970e+001
7.020410e+002, 2.240757e+001
7.025231e+002, 2.277140e+001
7.030052e+002, 2.340984e+001
7.034874e+002, 2.375211e+001
7.039695e+002, 2.354110e+001
7.044516e+002, 2.307211e+001
7.049337e+002, 2.259834e+001
7.054158e+002, 2.216001e+001
7.058979e+002, 2.197673e+001
7.063801e+002, 2.209107e+001
7.068622e+002, 2.233227e+001
7.073442e+002, 2.269121e+001
7.078264e+002, 2.304457e+001
7.083085e+002, 2.303069e+001
7.087906e+002, 2.238888e+001
7.092727e+002, 2.206481e+001
7.097548e+002, 2.245150e+001
7.102369e+002, 2.284817e+001
7.107191e+002, 2.283899e+001
7.112012e+002, 2.254264e+001
7.116833e+002, 2.214489e+001
7.121654e+002, 2.172187e+001
7.126475e+002, 2.147689e+001
7.131296e+002, 2.178025e+001
7.136118e+002, 2.250242e+001
7.140939e+002, 2.290820e+001
7.145760e+002, 2.293799e+001
7.150581e+002, 2.288437e+001
7.155402e+002, 2.284921e+001
7.160223e+002, 2.283312e+001
7.165045e+002, 2.284610e+001
7.169866e+002, 2.289768e+001
7.174687e+002, 2.291912e+001
7.179508e+002, 2.286673e+001
7.184329e+002, 2.282339e+001
7.189150e+002, 2.280754e+001
7.193972e+002, 2.283603e+001
7.198793e+002, 2.297050e+001
7.203614e+002, 2.320534e+001
7.208435e+002, 2.338826e+001
7.213256e+002, 2.333936e+001
7.218077e+002, 2.312446e+001
7.222899e+002, 2.300856e+001
7.227720e+002, 2.300214e+001
7.232541e+002, 2.299116e+001
7.237362e+002, 2.289995e+001
7.242183e+002, 2.284972e+001
7.247004e+002, 2.301434e+001
7.251826e+002, 2.339034e+001
7.256647e+002, 2.371337e+001
7.261468e+002, 2.405003e+001
7.266289e+002, 2.423712e+001
7.271110e+002, 2.408267e+001
7.275931e+002, 2.382701e+001
7.280753e+002, 2.379156e+001
7.285574e+002, 2.396924e+001
7.290395e+002, 2.406026e+001
7.295216e+002, 2.382187e+001
7.300037e+002, 2.339767e+001
7.304858e+002, 2.308749e+001
7.309680e+002, 2.289176e+001
7.314501e+002, 2.281811e+001
7.319322e+002, 2.285483e+001
7.324143e+002, 2.305869e+001
7.328964e+002, 2.364609e+001
7.333785e+002, 2.446295e+001
7.338607e+002, 2.472888e+001
7.343428e+002, 2.398733e+001
7.348249e+002, 2.340436e+001
7.353070e+002, 2.327444e+001
7.357891e+002, 2.334338e+001
7.362712e+002, 2.353871e+001
7.367534e+002, 2.373947e+001
7.372355e+002, 2.366490e+001
7.377176e+002, 2.314916e+001
7.381997e+002, 2.255412e+001
7.386818e+002, 2.245564e+001
7.391639e+002, 2.280093e+001
7.396461e+002, 2.309752e+001
7.401282e+002, 2.331549e+001
7.406103e+002, 2.343565e+001
7.410924e+002, 2.340772e+001
7.415745e+002, 2.330219e+001
7.420566e+002, 2.329910e+001
7.425388e+002, 2.347979e+001
7.430209e+002, 2.347871e+001
7.435030e+002, 2.303624e+001
7.439851e+002, 2.264445e+001
7.444672e+002, 2.257902e+001
7.449493e+002, 2.272941e+001
7.454315e+002, 2.291899e+001
7.459136e+002, 2.309205e+001
7.463957e+002, 2.327868e+001
7.468778e+002, 2.355927e+001
7.473599e+002, 2.386640e+001
7.478420e+002, 2.392918e+001
7.483242e+002, 2.373889e+001
7.488063e+002, 2.370140e+001
7.492884e+002, 2.400571e+001
7.497705e+002, 2.438395e+001
7.502526e+002, 2.454149e+001
7.507347e+002, 2.446902e+001
7.512169e+002, 2.427711e+001
7.516990e+002, 2.381620e+001
7.521811e+002, 2.344086e+001
7.526632e+002, 2.326611e+001
7.531453e+002, 2.318117e+001
7.536274e+002, 2.308875e+001
7.541096e+002, 2.298484e+001
7.545917e+002, 2.290842e+001
7.550738e+002, 2.286805e+001
7.555559e+002, 2.289430e+001
7.560380e+002, 2.309776e+001
7.565201e+002, 2.341773e+001
7.570023e+002, 2.355741e+001
7.574844e+002, 2.345939e+001
7.579665e+002, 2.333200e+001
7.584486e+002, 2.330855e+001
7.589307e+002, 2.338015e+001
7.594128e+002, 2.352509e+001
7.598950e+002, 2.389250e+001
7.603771e+002, 2.405763e+001
7.608592e+002, 2.385081e+001
7.613413e+002, 2.363422e+001
7.618234e+002, 2.357589e+001
7.623055e+002, 2.362228e+001
7.627877e+002, 2.367609e+001
7.632698e+002, 2.371070e+001
7.637519e+002, 2.375427e+001
7.642340e+002, 2.388805e+001
7.647161e+002, 2.401251e+001
7.651982e+002, 2.397518e+001
7.656804e+002, 2.377786e+001
7.661625e+002, 2.341842e+001
7.666446e+002, 2.287820e+001
7.671267e+002, 2.239910e+001
7.676088e+002, 2.234098e+001
7.680909e+002, 2.272953e+001
7.685731e+002, 2.283860e+001
7.690552e+002, 2.232767e+001
7.695373e+002, 2.209817e+001
7.700194e+002, 2.266229e+001
7.705015e+002, 2.331917e+001
7.709836e+002, 2.348014e+001
7.714658e+002, 2.320757e+001
7.719479e+002, 2.298740e+001
7.724300e+002, 2.306708e+001
7.729121e+002, 2.314254e+001
7.733942e+002, 2.298416e+001
7.738763e+002, 2.269327e+001
7.743585e+002, 2.232322e+001
7.748406e+002, 2.194932e+001
7.753227e+002, 2.189451e+001
7.758048e+002, 2.241249e+001
7.762869e+002, 2.318830e+001
7.767690e+002, 2.342028e+001
7.772512e+002, 2.300005e+001
7.777333e+002, 2.278412e+001
7.782154e+002, 2.294528e+001
7.786975e+002, 2.309118e+001
7.791796e+002, 2.289340e+001
7.796617e+002, 2.259912e+001
7.801439e+002, 2.269536e+001
7.806260e+002, 2.333324e+001
7.811081e+002, 2.367502e+001
7.815902e+002, 2.327560e+001
7.820723e+002, 2.276147e+001
7.825544e+002, 2.245698e+001
7.830366e+002, 2.234369e+001
7.835187e+002, 2.243514e+001
7.840008e+002, 2.268817e+001
7.844829e+002, 2.282004e+001
7.849650e+002, 2.247707e+001
7.854471e+002, 2.187182e+001
7.859293e+002, 2.165930e+001
7.864114e+002, 2.184456e+001
7.868935e+002, 2.215657e+001
7.873756e+002, 2.258208e+001
7.878577e+002, 2.294941e+001
7.883398e+002, 2.305208e+001
7.888220e+002, 2.293852e+001
7.893040e+002, 2.301697e+001
7.897861e+002, 2.366953e+001
7.902682e+002, 2.395635e+001
7.907504e+002, 2.366998e+001
7.912325e+002, 2.312565e+001
7.917146e+002, 2.224904e+001
7.921967e+002, 2.133126e+001
7.926788e+002, 2.092500e+001
7.931609e+002, 2.125828e+001
7.936431e+002, 2.188344e+001
7.941252e+002, 2.265357e+001
7.946073e+002, 2.334813e+001
7.950894e+002, 2.339950e+001
7.955715e+002, 2.288934e+001
7.960536e+002, 2.253784e+001
7.965358e+002, 2.264585e+001
7.970179e+002, 2.299616e+001
7.975000e+002, 2.332186e+001
7.979821e+002, 2.363055e+001
7.984642e+002, 2.374390e+001
7.989464e+002, 2.355271e+001
7.994285e+002, 2.336467e+001
7.999106e+002, 2.324174e+001
8.003927e+002, 2.316010e+001
8.008748e+002, 2.312146e+001
8.013569e+002, 2.311497e+001
8.018391e+002, 2.308640e+001
8.023212e+002, 2.287221e+001
8.028033e+002, 2.285096e+001
8.032854e+002, 2.343528e+001
8.037675e+002, 2.418467e+001
8.042496e+002, 2.459332e+001
8.047318e+002, 2.465105e+001
8.052139e+002, 2.454564e+001
8.056960e+002, 2.436678e+001
8.061781e+002, 2.421917e+001
8.066602e+002, 2.431996e+001
8.071423e+002, 2.464379e+001
8.076245e+002, 2.483988e+001
8.081066e+002, 2.489102e+001
8.085887e+002, 2.480743e+001
8.090708e+002, 2.449839e+001
8.095529e+002, 2.418987e+001
8.100350e+002, 2.429230e+001
8.105172e+002, 2.492545e+001
8.109993e+002, 2.515788e+001
8.114814e+002, 2.445757e+001
8.119635e+002, 2.403804e+001
8.124456e+002, 2.454034e+001
8.129277e+002, 2.524679e+001
8.134099e+002, 2.538298e+001
8.138920e+002, 2.502594e+001
8.143741e+002, 2.488010e+001
8.148562e+002, 2.540842e+001
8.153383e+002, 2.604115e+001
8.158204e+002, 2.619061e+001
8.163026e+002, 2.599132e+001
8.167847e+002, 2.567616e+001
8.172668e+002, 2.529946e+001
8.177489e+002, 2.498164e+001
8.182310e+002, 2.478823e+001
8.187131e+002, 2.470938e+001
8.191953e+002, 2.469123e+001
8.196774e+002, 2.468261e+001
8.201595e+002, 2.512964e+001
8.206416e+002, 2.646902e+001
8.211237e+002, 2.744151e+001
8.216058e+002, 2.734274e+001
8.220880e+002, 2.680195e+001
8.225701e+002, 2.644129e+001
8.230522e+002, 2.626950e+001
8.235343e+002, 2.624847e+001
8.240164e+002, 2.647696e+001
8.244985e+002, 2.672836e+001
8.249807e+002, 2.705491e+001
8.254628e+002, 2.725551e+001
8.259449e+002, 2.689267e+001
8.264270e+002, 2.615077e+001
8.269091e+002, 2.581842e+001
8.273912e+002, 2.639334e+001
8.278734e+002, 2.729643e+001
8.283555e+002, 2.771362e+001
8.288376e+002, 2.775078e+001
8.293197e+002, 2.784051e+001
8.298018e+002, 2.802033e+001
8.302839e+002, 2.821272e+001
8.307661e+002, 2.837942e+001
8.312482e+002, 2.853684e+001
8.317303e+002, 2.871437e+001
8.322124e+002, 2.891432e+001
8.326945e+002, 2.911251e+001
8.331766e+002, 2.935496e+001
8.336588e+002, 2.952475e+001
8.341409e+002, 2.953178e+001
8.346230e+002, 2.951054e+001
8.351051e+002, 2.950617e+001
8.355872e+002, 2.956015e+001
8.360693e+002, 2.983336e+001
8.365515e+002, 3.054419e+001
8.370336e+002, 3.121178e+001
8.375157e+002, 3.161083e+001
8.379978e+002, 3.180434e+001
8.384799e+002, 3.175930e+001
8.389620e+002, 3.157631e+001
8.394442e+002, 3.152037e+001
8.399263e+002, 3.171653e+001
8.404084e+002, 3.204631e+001
8.408905e+002, 3.236773e+001
8.413726e+002, 3.268235e+001
8.418547e+002, 3.299199e+001
8.423369e+002, 3.329383e+001
8.428190e+002, 3.358709e+001
8.433011e+002, 3.382555e+001
8.437832e+002, 3.418791e+001
8.442653e+002, 3.493813e+001
8.447474e+002, 3.606236e+001
8.452296e+002, 3.690248e+001
8.457117e+002, 3.722704e+001
8.461938e+002, 3.759649e+001
8.466759e+002, 3.799607e+001
8.471580e+002, 3.851416e+001
8.476401e+002, 3.924268e+001
8.481223e+002, 4.012759e+001
8.486044e+002, 4.108069e+001
8.490865e+002, 4.212370e+001
8.495686e+002, 4.303360e+001
8.500507e+002, 4.350640e+001
8.505328e+002, 4.393930e+001
8.510150e+002, 4.477220e+001
8.514971e+002, 4.589961e+001
8.519792e+002, 4.699794e+001
8.524613e+002, 4.797533e+001
8.529434e+002, 4.905933e+001
8.534255e+002, 5.050322e+001
8.539077e+002, 5.217966e+001
8.543898e+002, 5.362545e+001
8.548719e+002, 5.484340e+001
8.553540e+002, 5.624953e+001
8.558361e+002, 5.795353e+001
8.563182e+002, 5.972015e+001
8.568004e+002, 6.139488e+001
8.572825e+002, 6.297020e+001
8.577646e+002, 6.443958e+001
8.582467e+002, 6.583114e+001
8.587288e+002, 6.704131e+001
8.592109e+002, 6.797459e+001
8.596931e+002, 6.884267e+001
8.601752e+002, 6.993243e+001
8.606573e+002, 7.088037e+001
8.611394e+002, 7.106938e+001
8.616215e+002, 7.049395e+001
8.621036e+002, 7.021713e+001
8.625858e+002, 7.119711e+001
8.630679e+002, 7.204390e+001
8.635500e+002, 7.171626e+001
8.640321e+002, 7.071372e+001
8.645142e+002, 6.967655e+001
8.649963e+002, 6.869873e+001
8.654785e+002, 6.761488e+001
8.659606e+002, 6.630569e+001
8.664427e+002, 6.501983e+001
8.669248e+002, 6.422166e+001
8.674069e+002, 6.381241e+001
8.678890e+002, 6.322370e+001
8.683712e+002, 6.241606e+001
8.688533e+002, 6.171577e+001
8.693354e+002, 6.126633e+001
8.698175e+002, 6.094783e+001
8.702996e+002, 6.062212e+001
8.707817e+002, 6.028912e+001
8.712639e+002, 5.987035e+001
8.717459e+002, 5.924612e+001
8.722280e+002, 5.874701e+001
8.727101e+002, 5.832988e+001
8.731923e+002, 5.815172e+001
8.736744e+002, 5.843546e+001
8.741565e+002, 5.901868e+001
8.746386e+002, 5.949007e+001
8.751207e+002, 5.969535e+001
8.756028e+002, 6.005504e+001
8.760850e+002, 6.097351e+001
8.765671e+002, 6.184779e+001
8.770492e+002, 6.203992e+001
8.775313e+002, 6.194365e+001
8.780134e+002, 6.227495e+001
8.784955e+002, 6.317634e+001
8.789777e+002, 6.424232e+001
8.794598e+002, 6.518214e+001
8.799419e+002, 6.607733e+001
8.804240e+002, 6.708327e+001
8.809061e+002, 6.816580e+001
8.813882e+002, 6.916663e+001
8.818704e+002, 7.006828e+001
8.823525e+002, 7.096793e+001
8.828346e+002, 7.188293e+001
8.833167e+002, 7.301024e+001
8.837988e+002, 7.486234e+001
8.842809e+002, 7.759920e+001
8.847631e+002, 7.984801e+001
8.852452e+002, 8.140807e+001
8.857273e+002, 8.295984e+001
8.862094e+002, 8.458652e+001
8.866915e+002, 8.646876e+001
8.871736e+002, 8.889947e+001
8.876558e+002, 9.184562e+001
8.881379e+002, 9.487313e+001
8.886200e+002, 9.812907e+001
8.891021e+002, 1.012357e+002
8.895842e+002, 1.037610e+002
8.900663e+002, 1.064787e+002
8.905485e+002, 1.100881e+002
8.910306e+002, 1.142433e+002
8.915127e+002, 1.180860e+002
8.919948e+002, 1.213800e+002
8.924769e+002, 1.250052e+002
8.929590e+002, 1.297103e+002
8.934412e+002, 1.348837e+002
8.939233e+002, 1.400250e+002
8.944054e+002, 1.450687e+002
8.948875e+002, 1.497190e+002
8.953696e+002, 1.540045e+002
8.958517e+002, 1.585563e+002
8.963339e+002, 1.638195e+002
8.968160e+002, 1.695993e+002
8.972981e+002, 1.754812e+002
8.977802e+002, 1.814731e+002
8.982623e+002, 1.878481e+002
8.987444e+002, 1.946058e+002
8.992266e+002, 2.018098e+002
8.997087e+002, 2.094196e+002
9.001908e+002, 2.177955e+002
9.006729e+002, 2.275040e+002
9.011550e+002, 2.385665e+002
9.016371e+002, 2.504014e+002
9.021193e+002, 2.626787e+002
9.026014e+002, 2.764388e+002
9.030835e+002, 2.918866e+002
9.035656e+002, 3.089377e+002
9.040477e+002, 3.272702e+002
9.045298e+002, 3.471066e+002
9.050120e+002, 3.687234e+002
9.054941e+002, 3.918321e+002
9.059762e+002, 4.174272e+002
9.064583e+002, 4.459690e+002
9.069404e+002, 4.767183e+002
9.074225e+002, 5.091468e+002
9.079047e+002, 5.432249e+002
9.083868e+002, 5.792681e+002
9.088689e+002, 6.171140e+002
9.093510e+002, 6.565988e+002
9.098331e+002, 6.982025e+002
9.103152e+002, 7.400982e+002
9.107974e+002, 7.812975e+002
9.112795e+002, 8.213517e+002
9.117616e+002, 8.604376e+002
9.122437e+002, 8.975226e+002
9.127258e+002, 9.296721e+002
9.132079e+002, 9.554609e+002
9.136901e+002, 9.746793e+002
9.141722e+002, 9.874889e+002
9.146543e+002, 9.935243e+002
9.151364e+002, 9.912156e+002
9.156185e+002, 9.805148e+002
9.161006e+002, 9.614159e+002
9.165828e+002, 9.332057e+002
9.170649e+002, 8.988651e+002
9.175470e+002, 8.600625e+002
9.180291e+002, 8.174203e+002
9.185112e+002, 7.727978e+002
9.189933e+002, 7.241151e+002
9.194755e+002, 6.778489e+002
9.199576e+002, 6.347961e+002
9.204397e+002, 5.930540e+002
9.209218e+002, 5.509011e+002
9.214039e+002, 5.103244e+002
9.218860e+002, 4.738698e+002
9.223682e+002, 4.415082e+002
9.228503e+002, 4.115088e+002
9.233324e+002, 3.837697e+002
9.238145e+002, 3.581897e+002
9.242966e+002, 3.350506e+002
9.247787e+002, 3.138763e+002
9.252609e+002, 2.946405e+002
9.257430e+002, 2.770686e+002
9.262251e+002, 2.608711e+002
9.267072e+002, 2.459721e+002
9.271893e+002, 2.320646e+002
9.276714e+002, 2.187522e+002
9.281536e+002, 2.066181e+002
9.286357e+002, 1.965374e+002
9.291178e+002, 1.878664e+002
9.295999e+002, 1.793167e+002
9.300820e+002, 1.706729e+002
9.305641e+002, 1.625497e+002
9.310463e+002, 1.553739e+002
9.315284e+002, 1.487149e+002
9.320105e+002, 1.418251e+002
9.324926e+002, 1.349086e+002
9.329747e+002, 1.289699e+002
9.334568e+002, 1.240152e+002
9.339390e+002, 1.189413e+002
9.344211e+002, 1.133380e+002
9.349032e+002, 1.079535e+002
9.353853e+002, 1.036721e+002
9.358674e+002, 1.002966e+002
9.363495e+002, 9.663339e+001
9.368317e+002, 9.254259e+001
9.373138e+002, 8.873727e+001
9.377959e+002, 8.523637e+001
9.382780e+002, 8.215123e+001
9.387601e+002, 7.964176e+001
9.392422e+002, 7.746744e+001
9.397244e+002, 7.519306e+001
9.402065e+002, 7.280021e+001
9.406886e+002, 7.043657e+001
9.411707e+002, 6.797853e+001
9.416528e+002, 6.570686e+001
9.421349e+002, 6.356933e+001
9.426171e+002, 6.172839e+001
9.430992e+002, 6.055099e+001
9.435813e+002, 5.973115e+001
9.440634e+002, 5.841265e+001
9.445455e+002, 5.616979e+001
9.450276e+002, 5.442555e+001
9.455098e+002, 5.418988e+001
9.459919e+002, 5.406945e+001
9.464740e+002, 5.306372e+001
9.469561e+002, 5.165558e+001
9.474382e+002, 5.050206e+001
9.479203e+002, 4.970777e+001
9.484025e+002, 4.906654e+001
9.488846e+002, 4.848969e+001
9.493667e+002, 4.797469e+001
9.498488e+002, 4.768382e+001
9.503309e+002, 4.735514e+001
9.508130e+002, 4.637202e+001
9.512952e+002, 4.496737e+001
9.517773e+002, 4.400380e+001
9.522594e+002, 4.375541e+001
9.527415e+002, 4.375175e+001
9.532236e+002, 4.356009e+001
9.537057e+002, 4.326740e+001
9.541878e+002, 4.317744e+001
9.546699e+002, 4.321530e+001
9.551520e+002, 4.278201e+001
9.556342e+002, 4.179377e+001
9.561163e+002, 4.095400e+001
9.565984e+002, 4.066236e+001
9.570805e+002, 4.057441e+001
9.575626e+002, 4.010610e+001
9.580447e+002, 3.926659e+001
9.585269e+002, 3.877503e+001
9.590090e+002, 3.870551e+001
9.594911e+002, 3.866557e+001
9.599732e+002, 3.858262e+001
9.604553e+002, 3.848615e+001
9.609374e+002, 3.840180e+001
9.614196e+002, 3.831794e+001
9.619017e+002, 3.819140e+001
9.623838e+002, 3.796545e+001
9.628659e+002, 3.787592e+001
9.633480e+002, 3.819938e+001
9.638301e+002, 3.828076e+001
9.643123e+002, 3.766614e+001
9.647944e+002, 3.697332e+001
9.652765e+002, 3.679821e+001
9.657586e+002, 3.702794e+001
9.662407e+002, 3.708107e+001
9.667228e+002, 3.675068e+001
9.672050e+002, 3.651691e+001
9.676871e+002, 3.662931e+001
9.681692e+002, 3.670562e+001
9.686513e+002, 3.648882e+001
9.691334e+002, 3.612565e+001
9.696155e+002, 3.578259e+001
9.700977e+002, 3.550110e+001
9.705798e+002, 3.533237e+001
9.710619e+002, 3.536999e+001
9.715440e+002, 3.541253e+001
9.720261e+002, 3.530273e+001
9.725082e+002, 3.515785e+001
9.729904e+002, 3.509586e+001
9.734725e+002, 3.510688e+001
9.739546e+002, 3.516999e+001
9.744367e+002, 3.526575e+001
9.749188e+002, 3.528487e+001
9.754009e+002, 3.502612e+001
9.758831e+002, 3.476996e+001
9.763652e+002, 3.503350e+001
9.768473e+002, 3.553966e+001
9.773294e+002, 3.569738e+001
9.778115e+002, 3.546801e+001
9.782936e+002, 3.505190e+001
9.787758e+002, 3.454423e+001
9.792579e+002, 3.410904e+001
9.797400e+002, 3.402974e+001
9.802221e+002, 3.415752e+001
9.807042e+002, 3.392510e+001
9.811863e+002, 3.339430e+001
9.816685e+002, 3.310022e+001
9.821506e+002, 3.314892e+001
9.826327e+002, 3.320530e+001
9.831148e+002, 3.305442e+001
9.835969e+002, 3.277143e+001
9.840790e+002, 3.249314e+001
9.845612e+002, 3.222041e+001
9.850433e+002, 3.188513e+001
9.855254e+002, 3.144731e+001
9.860075e+002, 3.121067e+001
9.864896e+002, 3.130125e+001
9.869717e+002, 3.145352e+001
9.874539e+002, 3.143083e+001
9.879360e+002, 3.132566e+001
9.884181e+002, 3.146992e+001
9.889002e+002, 3.204709e+001
9.893823e+002, 3.219417e+001
9.898644e+002, 3.165338e+001
9.903466e+002, 3.117495e+001
9.908287e+002, 3.096678e+001
9.913108e+002, 3.094080e+001
9.917929e+002, 3.106744e+001
9.922750e+002, 3.131489e+001
9.927571e+002, 3.148980e+001
9.932393e+002, 3.150047e+001
9.937214e+002, 3.160375e+001
9.942035e+002, 3.208718e+001
9.946856e+002, 3.232487e+001
9.951677e+002, 3.179130e+001
9.956498e+002, 3.108965e+001
9.961320e+002, 3.086807e+001
9.966141e+002, 3.111175e+001
9.970962e+002, 3.144584e+001
9.975783e+002, 3.199386e+001
9.980604e+002, 3.230385e+001
9.985425e+002, 3.214252e+001
9.990247e+002, 3.183242e+001
9.995068e+002, 3.147155e+001
9.999889e+002, 3.114462e+001
1.000471e+003, 3.089350e+001
1.000953e+003, 3.075156e+001
1.001435e+003, 3.091008e+001
1.001917e+003, 3.185830e+001
1.002399e+003, 3.249882e+001
1.002882e+003, 3.185760e+001
1.003364e+003, 3.096516e+001
1.003846e+003, 3.067172e+001
1.004328e+003, 3.092367e+001
1.004810e+003, 3.159185e+001
1.005292e+003, 3.256142e+001
1.005774e+003, 3.324764e+001
1.006256e+003, 3.312008e+001
1.006739e+003, 3.277917e+001
1.007221e+003, 3.270332e+001
1.007703e+003, 3.282093e+001
1.008185e+003, 3.315572e+001
1.008667e+003, 3.357894e+001
1.009149e+003, 3.369233e+001
1.009631e+003, 3.339392e+001
1.010113e+003, 3.322522e+001
1.010595e+003, 3.374135e+001
1.011078e+003, 3.457365e+001
1.011560e+003, 3.532694e+001
1.012042e+003, 3.591316e+001
1.012524e+003, 3.598323e+001
1.013006e+003, 3.563845e+001
1.013488e+003, 3.547325e+001
1.013970e+003, 3.574870e+001
1.014452e+003, 3.629852e+001
1.014935e+003, 3.708870e+001
1.015417e+003, 3.789479e+001
1.015899e+003, 3.800840e+001
1.016381e+003, 3.760356e+001
1.016863e+003, 3.747595e+001
1.017345e+003, 3.774000e+001
1.017827e+003, 3.825459e+001
1.018309e+003, 3.896231e+001
1.018791e+003, 3.961782e+001
1.019274e+003, 3.979737e+001
1.019756e+003, 3.965700e+001
1.020238e+003, 4.008199e+001
1.020720e+003, 4.103823e+001
1.021202e+003, 4.153941e+001
1.021684e+003, 4.138290e+001
1.022166e+003, 4.140013e+001
1.022648e+003, 4.207659e+001
1.023130e+003, 4.316289e+001
1.023613e+003, 4.431688e+001
1.024095e+003, 4.552510e+001
1.024577e+003, 4.649728e+001
1.025059e+003, 4.719353e+001
1.025541e+003, 4.796202e+001
1.026023e+003, 4.888153e+001
1.026505e+003, 4.981166e+001
1.026987e+003, 5.063767e+001
1.027469e+003, 5.148294e+001
1.027952e+003, 5.256961e+001
1.028434e+003, 5.391121e+001
1.028916e+003, 5.537109e+001
1.029398e+003, 5.701561e+001
1.029880e+003, 5.856388e+001
1.030362e+003, 5.996822e+001
1.030844e+003, 6.124862e+001
1.031326e+003, 6.232626e+001
1.031809e+003, 6.339433e+001
1.032291e+003, 6.488165e+001
1.032773e+003, 6.685337e+001
1.033255e+003, 6.868169e+001
1.033737e+003, 7.037870e+001
1.034219e+003, 7.192292e+001
1.034701e+003, 7.339157e+001
1.035183e+003, 7.457944e+001
1.035666e+003, 7.523878e+001
1.036148e+003, 7.558082e+001
1.036630e+003, 7.607547e+001
1.037112e+003, 7.681230e+001
1.037594e+003, 7.718973e+001
1.038076e+003, 7.700828e+001
1.038558e+003, 7.678342e+001
1.039040e+003, 7.675753e+001
1.039522e+003, 7.654386e+001
1.040005e+003, 7.592357e+001
1.040487e+003, 7.492794e+001
1.040969e+003, 7.357130e+001
1.041451e+003, 7.175236e+001
1.041933e+003, 7.008537e+001
1.042415e+003, 6.878735e+001
1.042897e+003, 6.734373e+001
1.043379e+003, 6.555947e+001
1.043861e+003, 6.370288e+001
1.044344e+003, 6.203141e+001
1.044826e+003, 6.038916e+001
1.045308e+003, 5.843563e+001
1.045790e+003, 5.609789e+001
1.046272e+003, 5.387902e+001
1.046754e+003, 5.170191e+001
1.047236e+003, 4.983178e+001
1.047718e+003, 4.860283e+001
1.048201e+003, 4.744794e+001
1.048683e+003, 4.590668e+001
1.049165e+003, 4.418290e+001
1.049647e+003, 4.265807e+001
1.050129e+003, 4.139226e+001
1.050611e+003, 4.021284e+001
1.051093e+003, 3.902119e+001
1.051575e+003, 3.800917e+001
1.052057e+003, 3.740667e+001
1.052540e+003, 3.683533e+001
1.053022e+003, 3.589681e+001
1.053504e+003, 3.483895e+001
1.053986e+003, 3.423491e+001
1.054468e+003, 3.417945e+001
1.054950e+003, 3.380258e+001
1.055432e+003, 3.256166e+001
1.055914e+003, 3.138830e+001
1.056396e+003, 3.043363e+001
1.056879e+003, 2.982348e+001
1.057361e+003, 2.992871e+001
1.057843e+003, 3.032907e+001
1.058325e+003, 3.023677e+001
1.058807e+003, 2.954618e+001
1.059289e+003, 2.907506e+001
1.059771e+003, 2.957526e+001
1.060253e+003, 2.968356e+001
1.060736e+003, 2.829480e+001
1.061218e+003, 2.689515e+001
1.061700e+003, 2.690022e+001
1.062182e+003, 2.755369e+001
1.062664e+003, 2.739221e+001
1.063146e+003, 2.625733e+001
1.063628e+003, 2.541967e+001
1.064110e+003, 2.553481e+001
1.064593e+003, 2.574811e+001
1.065075e+003, 2.590823e+001
1.065557e+003, 2.583608e+001
1.066039e+003, 2.511191e+001
1.066521e+003, 2.420514e+001
1.067003e+003, 2.391276e+001
1.067485e+003, 2.428028e+001
1.067967e+003, 2.455251e+001
1.068449e+003, 2.425970e+001
1.068932e+003, 2.415354e+001
1.069414e+003, 2.495126e+001
1.069896e+003, 2.567528e+001
1.070378e+003, 2.545988e+001
1.070860e+003, 2.477438e+001
1.071342e+003, 2.431699e+001
1.071824e+003, 2.416103e+001
1.072306e+003, 2.398115e+001
1.072788e+003, 2.362140e+001
1.073271e+003, 2.330692e+001
1.073753e+003, 2.305454e+001
1.074235e+003, 2.297766e+001
1.074717e+003, 2.335157e+001
1.075199e+003, 2.382978e+001
1.075681e+003, 2.391414e+001
1.076163e+003, 2.363388e+001
1.076645e+003, 2.344517e+001
1.077127e+003, 2.357289e+001
1.077610e+003, 2.358188e+001
1.078092e+003, 2.311757e+001
1.078574e+003, 2.263246e+001
1.079056e+003, 2.236660e+001
1.079538e+003, 2.229886e+001
1.080020e+003, 2.245173e+001
1.080502e+003, 2.275625e+001
1.080984e+003, 2.304845e+001
1.081467e+003, 2.331123e+001
1.081949e+003, 2.338647e+001
1.082431e+003, 2.297169e+001
1.082913e+003, 2.261739e+001
1.083395e+003, 2.279340e+001
1.083877e+003, 2.310242e+001
1.084359e+003, 2.313529e+001
1.084841e+003, 2.291210e+001
1.085323e+003, 2.255537e+001
1.085806e+003, 2.206064e+001
1.086288e+003, 2.181309e+001
1.086770e+003, 2.219003e+001
1.087252e+003, 2.258834e+001
1.087734e+003, 2.269853e+001
1.088216e+003, 2.268471e+001
1.088698e+003, 2.274138e+001
1.089180e+003, 2.279251e+001
1.089662e+003, 2.261709e+001
1.090145e+003, 2.216781e+001
1.090627e+003, 2.175490e+001
1.091109e+003, 2.142662e+001
1.091591e+003, 2.124579e+001
1.092073e+003, 2.140603e+001
1.092555e+003, 2.156249e+001
1.093037e+003, 2.132499e+001
1.093519e+003, 2.094662e+001
1.094002e+003, 2.089322e+001
1.094484e+003, 2.121328e+001
1.094966e+003, 2.155164e+001
1.095448e+003, 2.202022e+001
1.095930e+003, 2.215841e+001
1.096412e+003, 2.141331e+001
1.096894e+003, 2.072395e+001
1.097376e+003, 2.075729e+001
1.097859e+003, 2.116464e+001
1.098341e+003, 2.156383e+001
1.098823e+003, 2.186071e+001
1.099305e+003, 2.183766e+001
1.099787e+003, 2.118351e+001
1.100269e+003, 2.075565e+001
1.100751e+003, 2.098739e+001
1.101233e+003, 2.124321e+001
1.101715e+003, 2.107822e+001
1.102198e+003, 2.088131e+001
1.102680e+003, 2.114876e+001
1.103162e+003, 2.176686e+001
1.103644e+003, 2.222724e+001
1.104126e+003, 2.247743e+001
1.104608e+003, 2.250544e+001
1.105090e+003, 2.219940e+001
1.105572e+003, 2.181206e+001
1.106054e+003, 2.129821e+001
1.106537e+003, 2.085812e+001
1.107019e+003, 2.064870e+001
1.107501e+003, 2.063525e+001
1.107983e+003, 2.077899e+001
1.108465e+003, 2.115552e+001
1.108947e+003, 2.122999e+001
1.109429e+003, 2.061714e+001
1.109911e+003, 2.018066e+001
1.110394e+003, 2.018749e+001
1.110876e+003, 2.031892e+001
1.111358e+003, 2.051604e+001
1.111840e+003, 2.065171e+001
1.112322e+003, 2.040485e+001
1.112804e+003, 1.973345e+001
1.113286e+003, 1.954375e+001
1.113768e+003, 2.020008e+001
1.114250e+003, 2.073870e+001
1.114733e+003, 2.118692e+001
1.115215e+003, 2.138058e+001
1.115697e+003, 2.115134e+001
1.116179e+003, 2.071884e+001
1.116661e+003, 2.025867e+001
1.117143e+003, 1.980581e+001
1.117625e+003, 1.963492e+001
1.118107e+003, 1.992475e+001
1.118589e+003, 2.006767e+001
1.119072e+003, 1.998581e+001
1.119554e+003, 1.989339e+001
1.120036e+003, 1.979127e+001
1.120518e+003, 1.982323e+001
1.121000e+003, 2.020722e+001
1.121482e+003, 2.075187e+001
1.121964e+003, 2.085435e+001
1.122446e+003, 2.040216e+001
1.122929e+003, 2.021320e+001
1.123411e+003, 2.038928e+001
1.123893e+003, 2.046100e+001
1.124375e+003, 2.027312e+001
1.124857e+003, 2.012890e+001
1.125339e+003, 2.021317e+001
1.125821e+003, 2.048293e+001
1.126303e+003, 2.093032e+001
1.126786e+003, 2.152151e+001
1.127268e+003, 2.154037e+001
1.127750e+003, 2.088912e+001
1.128232e+003, 2.058758e+001
1.128714e+003, 2.081562e+001
1.129196e+003, 2.104396e+001
1.129678e+003, 2.103988e+001
1.130160e+003, 2.088113e+001
1.130642e+003, 2.060331e+001
1.131125e+003, 2.032306e+001
1.131607e+003, 2.059097e+001
1.132089e+003, 2.135084e+001
1.132571e+003, 2.146784e+001
1.133053e+003, 2.090316e+001
1.133535e+003, 2.072182e+001
1.134017e+003, 2.124830e+001
1.134499e+003, 2.179547e+001
1.134981e+003, 2.183056e+001
1.135464e+003, 2.156845e+001
1.135946e+003, 2.131449e+001
1.136428e+003, 2.110637e+001
1.136910e+003, 2.114551e+001
1.137392e+003, 2.137567e+001
1.137874e+003, 2.160036e+001
1.138356e+003, 2.173717e+001
1.138838e+003, 2.143799e+001
1.139321e+003, 2.052020e+001
1.139803e+003, 1.968076e+001
1.140285e+003, 1.980313e+001
1.140767e+003, 2.041904e+001
1.141249e+003, 2.064232e+001
1.141731e+003, 2.069636e+001
1.142213e+003, 2.124893e+001
1.142695e+003, 2.210943e+001
1.143177e+003, 2.234376e+001
1.143660e+003, 2.173938e+001
1.144142e+003, 2.117317e+001
1.144624e+003, 2.129492e+001
1.145106e+003, 2.163561e+001
1.145588e+003, 2.181693e+001
1.146070e+003, 2.184195e+001
1.146552e+003, 2.155904e+001
1.147034e+003, 2.119421e+001
1.147516e+003, 2.116998e+001
1.147999e+003, 2.149626e+001
1.148481e+003, 2.189283e+001
1.148963e+003, 2.226925e+001
1.149445e+003, 2.253442e+001
1.149927e+003, 2.252645e+001
1.150409e+003, 2.250524e+001
1.150891e+003, 2.274946e+001
1.151373e+003, 2.300640e+001
1.151856e+003, 2.292747e+001
1.152338e+003, 2.264786e+001
1.152820e+003, 2.259054e+001
1.153302e+003, 2.284129e+001
1.153784e+003, 2.284552e+001
1.154266e+003, 2.189923e+001
1.154748e+003, 2.141405e+001
1.155230e+003, 2.230542e+001
1.155713e+003, 2.330293e+001
1.156195e+003, 2.362785e+001
1.156677e+003, 2.358726e+001
1.157159e+003, 2.355564e+001
1.157641e+003, 2.357555e+001
1.158123e+003, 2.371732e+001
1.158605e+003, 2.413530e+001
1.159087e+003, 2.435973e+001
1.159569e+003, 2.417673e+001
1.160052e+003, 2.405091e+001
1.160534e+003, 2.406830e+001
1.161016e+003, 2.423522e+001
1.161498e+003, 2.476040e+001
1.161980e+003, 2.531760e+001
1.162462e+003, 2.508361e+001
1.162944e+003, 2.391993e+001
1.163426e+003, 2.350026e+001
1.163908e+003, 2.414975e+001
1.164391e+003, 2.459004e+001
1.164873e+003, 2.460233e+001
1.165355e+003, 2.452347e+001
1.165837e+003, 2.445518e+001
1.166319e+003, 2.454309e+001
1.166801e+003, 2.505722e+001
1.167283e+003, 2.577085e+001
1.167765e+003, 2.557880e+001
1.168247e+003, 2.442779e+001
1.168730e+003, 2.411088e+001
1.169212e+003, 2.472603e+001
1.169694e+003, 2.540839e+001
1.170176e+003, 2.592838e+001
1.170658e+003, 2.615219e+001
1.171140e+003, 2.596167e+001
1.171622e+003, 2.560216e+001
1.172104e+003, 2.546426e+001
1.172587e+003, 2.548063e+001
1.173069e+003, 2.539993e+001
1.173551e+003, 2.527229e+001
1.174033e+003, 2.528487e+001
1.174515e+003, 2.545277e+001
1.174997e+003, 2.576126e+001
1.175479e+003, 2.618488e+001
1.175961e+003, 2.649006e+001
1.176443e+003, 2.648015e+001
1.176926e+003, 2.627163e+001
1.177408e+003, 2.585090e+001
1.177890e+003, 2.544055e+001
1.178372e+003, 2.539412e+001
1.178854e+003, 2.560316e+001
1.179336e+003, 2.581486e+001
1.179818e+003, 2.600796e+001
1.180300e+003, 2.637597e+001
1.180782e+003, 2.705355e+001
1.181265e+003, 2.746036e+001
1.181747e+003, 2.705329e+001
1.182229e+003, 2.648739e+001
1.182711e+003, 2.606324e+001
1.183193e+003, 2.579867e+001
1.183675e+003, 2.578738e+001
1.184157e+003, 2.590095e+001
1.184639e+003, 2.590520e+001
1.185122e+003, 2.577268e+001
1.185604e+003, 2.566790e+001
1.186086e+003, 2.555019e+001
1.186568e+003, 2.558797e+001
1.187050e+003, 2.601000e+001
1.187532e+003, 2.634285e+001
1.188014e+003, 2.636090e+001
1.188496e+003, 2.621997e+001
1.188979e+003, 2.597215e+001
1.189461e+003, 2.570830e+001
1.189943e+003, 2.572979e+001
1.190425e+003, 2.612238e+001
1.190907e+003, 2.629452e+001
1.191389e+003, 2.621622e+001
1.191871e+003, 2.594288e+001
1.192353e+003, 2.530295e+001
1.192835e+003, 2.506250e+001
1.193318e+003, 2.574928e+001
1.193800e+003, 2.659040e+001
1.194282e+003, 2.662140e+001
1.194764e+003, 2.603973e+001
1.195246e+003, 2.552835e+001
1.195728e+003, 2.509835e+001
1.196210e+003, 2.521798e+001
1.196692e+003, 2.586773e+001
1.197174e+003, 2.621474e+001
1.197657e+003, 2.605866e+001
1.198139e+003, 2.572606e+001
1.198621e+003, 2.540656e+001
1.199103e+003, 2.518671e+001
1.199585e+003, 2.519359e+001
1.200067e+003, 2.537188e+001
1.200549e+003, 2.577077e+001
1.201031e+003, 2.618823e+001
1.201514e+003, 2.601648e+001
1.201996e+003, 2.546204e+001
1.202478e+003, 2.539614e+001
1.202960e+003, 2.595604e+001
1.203442e+003, 2.623154e+001
1.203924e+003, 2.553210e+001
1.204406e+003, 2.488803e+001
1.204888e+003, 2.523922e+001
1.205370e+003, 2.579747e+001
1.205853e+003, 2.598506e+001
1.206335e+003, 2.593883e+001
1.206817e+003, 2.576779e+001
1.207299e+003, 2.556555e+001
1.207781e+003, 2.550738e+001
1.208263e+003, 2.563557e+001
1.208745e+003, 2.576465e+001
1.209227e+003, 2.593756e+001
1.209709e+003, 2.597566e+001
1.210192e+003, 2.563854e+001
1.210674e+003, 2.540006e+001
1.211156e+003, 2.564927e+001
1.211638e+003, 2.598133e+001
1.212120e+003, 2.604253e+001
1.212602e+003, 2.583554e+001
1.213084e+003, 2.528885e+001
1.213566e+003, 2.417343e+001
1.214049e+003, 2.396746e+001
1.214531e+003, 2.497528e+001
1.215013e+003, 2.567416e+001
1.215495e+003, 2.574660e+001
1.215977e+003, 2.564541e+001
1.216459e+003, 2.560395e+001
1.216941e+003, 2.551093e+001
1.217423e+003, 2.517443e+001
1.217906e+003, 2.477178e+001
1.218388e+003, 2.495499e+001
1.218870e+003, 2.557976e+001
1.219352e+003, 2.590574e+001
1.219834e+003, 2.594879e+001
1.220316e+003, 2.606459e+001
1.220798e+003, 2.629733e+001
1.221280e+003, 2.630590e+001
1.221762e+003, 2.589507e+001
1.222245e+003, 2.549167e+001
1.222727e+003, 2.563639e+001
1.223209e+003, 2.590215e+001
1.223691e+003, 2.567832e+001
1.224173e+003, 2.537138e+001
1.224655e+003, 2.551787e+001
1.225137e+003, 2.601000e+001
1.225619e+003, 2.674239e+001
1.226101e+003, 2.754370e+001
1.226584e+003, 2.769239e+001
1.227066e+003, 2.659815e+001
1.227548e+003, 2.584516e+001
1.228030e+003, 2.650745e+001
1.228512e+003, 2.692082e+001
1.228994e+003, 2.578694e+001
1.229476e+003, 2.472567e+001
1.229958e+003, 2.545918e+001
1.230441e+003, 2.691164e+001
1.230923e+003, 2.700509e+001
1.231405e+003, 2.579478e+001
1.231887e+003, 2.520259e+001
1.232369e+003, 2.535605e+001
1.232851e+003, 2.581004e+001
1.233333e+003, 2.673830e+001
1.233815e+003, 2.723129e+001
1.234297e+003, 2.691870e+001
1.234780e+003, 2.655957e+001
1.235262e+003, 2.672700e+001
1.235744e+003, 2.707058e+001
1.236226e+003, 2.695755e+001
1.236708e+003, 2.652175e+001
1.237190e+003, 2.630072e+001
1.237672e+003, 2.627040e+001
1.238154e+003, 2.635818e+001
1.238636e+003, 2.652829e+001
1.239119e+003, 2.664795e+001
1.239601e+003, 2.669695e+001
1.240083e+003, 2.683316e+001
1.240565e+003, 2.716317e+001
1.241047e+003, 2.758074e+001
1.241529e+003, 2.813468e+001
1.242011e+003, 2.856946e+001
1.242493e+003, 2.853320e+001
1.242975e+003, 2.831433e+001
1.243458e+003, 2.824662e+001
1.243940e+003, 2.830259e+001
1.244422e+003, 2.834408e+001
1.244904e+003, 2.834880e+001
1.245386e+003, 2.836646e+001
1.245868e+003, 2.836474e+001
1.246350e+003, 2.846063e+001
1.246832e+003, 2.893973e+001
1.247315e+003, 2.915457e+001
1.247797e+003, 2.871264e+001
1.248279e+003, 2.814527e+001
1.248761e+003, 2.778965e+001
1.249243e+003, 2.756862e+001
1.249725e+003, 2.726307e+001
1.250207e+003, 2.692064e+001
1.250689e+003, 2.754397e+001
1.251172e+003, 2.929580e+001
1.251654e+003, 3.018937e+001
1.252136e+003, 3.005670e+001
1.252618e+003, 2.953137e+001
1.253100e+003, 2.880730e+001
1.253582e+003, 2.827367e+001
1.254064e+003, 2.819828e+001
1.254546e+003, 2.846430e+001
1.255028e+003, 2.916870e+001
1.255510e+003, 2.990902e+001
1.255993e+003, 2.979242e+001
1.256475e+003, 2.921972e+001
1.256957e+003, 2.880665e+001
1.257439e+003, 2.864406e+001
1.257921e+003, 2.880942e+001
1.258403e+003, 2.924893e+001
1.258885e+003, 2.962921e+001
1.259367e+003, 2.979250e+001
1.259850e+003, 2.994280e+001
1.260332e+003, 3.024790e+001
1.260814e+003, 3.046605e+001
1.261296e+003, 3.054037e+001
1.261778e+003, 3.042599e+001
1.262260e+003, 2.997565e+001
1.262742e+003, 2.937741e+001
1.263224e+003, 2.877573e+001
1.263707e+003, 2.824972e+001
1.264189e+003, 2.859222e+001
1.264671e+003, 3.041221e+001
1.265153e+003, 3.087988e+001
1.265635e+003, 2.955959e+001
1.266117e+003, 2.883763e+001
1.266599e+003, 2.932955e+001
1.267081e+003, 2.987570e+001
1.267563e+003, 2.982479e+001
1.268046e+003, 2.958231e+001
1.268528e+003, 2.963949e+001
1.269010e+003, 2.984029e+001
1.269492e+003, 2.980246e+001
1.269974e+003, 2.962783e+001
1.270456e+003, 2.957300e+001
1.270938e+003, 2.961033e+001
1.271420e+003, 2.958954e+001
1.271902e+003, 2.953011e+001
1.272385e+003, 2.961731e+001
1.272867e+003, 2.992256e+001
1.273349e+003, 3.028573e+001
1.273831e+003, 3.086388e+001
1.274313e+003, 3.112652e+001
1.274795e+003, 3.052410e+001
1.275277e+003, 2.984308e+001
1.275759e+003, 2.945742e+001
1.276242e+003, 2.939375e+001
1.276724e+003, 2.987888e+001
1.277206e+003, 3.065044e+001
1.277688e+003, 3.084180e+001
1.278170e+003, 3.036207e+001
1.278652e+003, 3.011365e+001
1.279134e+003, 3.006921e+001
1.279616e+003, 3.047391e+001
1.280099e+003, 3.153967e+001
1.280581e+003, 3.195456e+001
1.281063e+003, 3.116627e+001
1.281545e+003, 3.035641e+001
1.282027e+003, 3.049836e+001
1.282509e+003, 3.093007e+001
1.282991e+003, 3.026999e+001
1.283473e+003, 2.919168e+001
1.283955e+003, 2.914566e+001
##END=



