##NAMES=Alstonite
##RRUFFID=R090049
##IDEAL CHEMISTRY=BaCa(CO_3_)_2_
##LOCALITY=Admiralty flats, Haggs mine, Nentsberry, Cumbria, England
##OWNER=RRUFF
##SOURCE=Bob Jenkins
##DESCRIPTION=Clusters of colorless pyramidal crystals. We have posted cell parameters that match those in the literature, but do not represent the correct cell. The crystals are twinned.
##STATUS=The identification of this mineral is confirmed by single-crystal X-ray diffraction and chemical analysis.
##URL=rruff.info/R090049
##MEASURED CHEMISTRY=Ba_0.99_(Ca_0.99_Sr_0.05_)_Î£=1.04_(CO_3_)_2_
92.02539, 1310.284
92.50751, 1285.355
92.98962, 1283.056
93.47174, 1296.215
93.95386, 1321.936
94.43597, 1348.907
94.91809, 1374.676
95.40021, 1400.590
95.88232, 1426.037
96.36444, 1449.219
96.84656, 1474.412
97.32867, 1502.686
97.81078, 1534.266
98.29290, 1569.147
98.77502, 1606.395
99.25713, 1643.443
99.73925, 1682.755
100.2214, 1728.687
100.7035, 1773.704
101.1856, 1816.431
101.6677, 1855.805
102.1498, 1889.448
102.6320, 1915.006
103.1141, 1933.422
103.5962, 1936.941
104.0783, 1922.395
104.5604, 1894.525
105.0425, 1856.266
105.5247, 1806.885
106.0068, 1752.432
106.4889, 1701.647
106.9710, 1652.874
107.4531, 1610.431
107.9352, 1575.817
108.4173, 1548.841
108.8995, 1528.539
109.3816, 1515.525
109.8637, 1509.238
110.3458, 1508.640
110.8279, 1514.016
111.3100, 1523.632
111.7922, 1535.697
112.2743, 1550.234
112.7564, 1567.141
113.2385, 1584.668
113.7206, 1604.913
114.2027, 1629.627
114.6849, 1659.304
115.1670, 1694.426
115.6491, 1736.210
116.1312, 1789.552
116.6133, 1845.377
117.0954, 1903.471
117.5776, 1962.916
118.0597, 2023.228
118.5418, 2084.683
119.0239, 2147.490
119.5060, 2203.512
119.9881, 2255.556
120.4703, 2300.125
120.9524, 2334.935
121.4345, 2360.419
121.9166, 2378.956
122.3987, 2391.711
122.8808, 2397.472
123.3630, 2403.298
123.8451, 2408.142
124.3272, 2413.567
124.8093, 2422.156
125.2914, 2434.939
125.7735, 2447.190
126.2557, 2453.172
126.7378, 2454.053
127.2199, 2452.095
127.7020, 2448.285
128.1841, 2442.301
128.6662, 2432.584
129.1483, 2415.920
129.6305, 2399.017
130.1126, 2386.096
130.5947, 2377.163
131.0768, 2371.594
131.5589, 2367.813
132.0410, 2365.165
132.5232, 2369.813
133.0053, 2381.595
133.4874, 2401.966
133.9695, 2433.013
134.4516, 2475.000
134.9337, 2525.684
135.4159, 2581.563
135.8980, 2640.657
136.3801, 2711.054
136.8622, 2794.636
137.3443, 2886.710
137.8264, 2984.169
138.3086, 3085.722
138.7907, 3190.740
139.2728, 3295.216
139.7549, 3405.886
140.2370, 3508.582
140.7191, 3607.111
141.2013, 3696.558
141.6834, 3770.366
142.1655, 3825.026
142.6476, 3860.533
143.1297, 3876.150
143.6118, 3865.707
144.0939, 3847.081
144.5761, 3825.378
145.0582, 3800.813
145.5403, 3774.029
146.0224, 3744.778
146.5045, 3713.601
146.9866, 3682.789
147.4688, 3656.792
147.9509, 3627.672
148.4330, 3589.644
148.9151, 3543.122
149.3972, 3484.467
149.8793, 3411.453
150.3615, 3324.217
150.8436, 3218.149
151.3257, 3087.839
151.8078, 2939.721
152.2899, 2788.313
152.7720, 2626.536
153.2542, 2472.262
153.7363, 2327.279
154.2184, 2193.078
154.7005, 2070.648
155.1826, 1961.815
155.6647, 1865.966
156.1469, 1779.222
156.6290, 1702.976
157.1111, 1636.654
157.5932, 1581.231
158.0753, 1535.599
158.5574, 1498.433
159.0396, 1468.940
159.5217, 1447.578
160.0038, 1430.327
160.4859, 1417.835
160.9680, 1408.122
161.4501, 1400.670
161.9323, 1395.366
162.4144, 1392.309
162.8965, 1391.716
163.3786, 1394.101
163.8607, 1397.538
164.3428, 1402.740
164.8250, 1408.390
165.3071, 1413.229
165.7892, 1417.136
166.2713, 1421.316
166.7534, 1427.214
167.2355, 1434.965
167.7177, 1443.755
168.1998, 1452.852
168.6819, 1463.225
169.1640, 1476.656
169.6461, 1493.999
170.1282, 1512.521
170.6104, 1529.836
171.0925, 1546.098
171.5746, 1559.119
172.0567, 1570.489
172.5388, 1578.201
173.0209, 1575.978
173.5031, 1560.917
173.9852, 1536.911
174.4673, 1507.767
174.9494, 1473.829
175.4315, 1437.337
175.9136, 1398.580
176.3958, 1357.634
176.8779, 1319.283
177.3600, 1285.101
177.8421, 1253.196
178.3242, 1222.203
178.8063, 1192.125
179.2885, 1164.638
179.7706, 1141.307
180.2527, 1122.359
180.7348, 1106.675
181.2169, 1096.269
181.6990, 1087.434
182.1812, 1078.610
182.6633, 1069.410
183.1454, 1060.264
183.6275, 1051.731
184.1096, 1043.898
184.5917, 1036.596
185.0738, 1030.333
185.5560, 1024.152
186.0381, 1016.846
186.5202, 1008.322
187.0023, 1000.080
187.4844, 994.7461
187.9665, 994.1656
188.4487, 993.9350
188.9308, 993.8512
189.4129, 994.1906
189.8950, 995.0057
190.3771, 996.3245
190.8592, 998.5475
191.3414, 1002.531
191.8235, 1008.367
192.3056, 1015.809
192.7877, 1026.428
193.2698, 1038.181
193.7519, 1048.534
194.2341, 1056.642
194.7162, 1062.870
195.1983, 1068.103
195.6804, 1073.516
196.1625, 1075.433
196.6446, 1072.539
197.1268, 1065.343
197.6089, 1054.780
198.0910, 1040.736
198.5731, 1023.871
199.0552, 1005.149
199.5373, 984.2057
200.0195, 963.2216
200.5016, 942.5067
200.9837, 922.3199
201.4658, 904.3290
201.9479, 889.5408
202.4300, 876.7694
202.9122, 864.0508
203.3943, 851.0928
203.8764, 840.2351
204.3585, 833.8369
204.8406, 831.8584
205.3227, 830.7672
205.8048, 829.6151
206.2870, 829.3159
206.7691, 830.8973
207.2512, 834.4374
207.7333, 838.3820
208.2154, 840.9580
208.6975, 841.8783
209.1797, 843.1337
209.6618, 845.4525
210.1439, 847.9376
210.6260, 850.7922
211.1081, 853.8116
211.5902, 855.5050
212.0724, 853.5721
212.5545, 846.8014
213.0366, 840.0197
213.5187, 834.2561
214.0008, 828.1487
214.4829, 820.6752
214.9651, 811.7302
215.4472, 802.0066
215.9293, 792.4473
216.4114, 782.8815
216.8935, 773.8882
217.3756, 765.7338
217.8578, 757.8359
218.3399, 749.5234
218.8220, 740.7864
219.3041, 732.2668
219.7862, 725.0486
220.2683, 719.8666
220.7505, 714.7252
221.2326, 709.2400
221.7147, 704.0023
222.1968, 699.4803
222.6789, 695.7756
223.1610, 692.6635
223.6432, 689.8669
224.1253, 687.7838
224.6074, 685.1402
225.0895, 680.8994
225.5716, 676.6666
226.0537, 674.3026
226.5358, 674.1687
227.0180, 674.5533
227.5001, 672.9047
227.9822, 668.2338
228.4643, 664.6823
228.9464, 662.5881
229.4285, 661.6895
229.9107, 662.2919
230.3928, 664.5276
230.8749, 666.7603
231.3570, 666.5986
231.8391, 663.8127
232.3212, 661.4071
232.8034, 659.6071
233.2855, 658.5322
233.7676, 658.6869
234.2497, 660.3535
234.7318, 662.1171
235.2139, 661.9039
235.6961, 660.0048
236.1782, 659.0019
236.6603, 659.8243
237.1424, 661.8456
237.6245, 664.1981
238.1066, 666.8370
238.5888, 669.6472
239.0709, 672.7019
239.5530, 675.8911
240.0351, 678.8782
240.5172, 681.2543
240.9993, 683.4105
241.4815, 686.0251
241.9636, 689.1237
242.4457, 692.7707
242.9278, 697.4390
243.4099, 702.6802
243.8920, 707.5416
244.3742, 711.0934
244.8563, 714.0593
245.3384, 718.4150
245.8205, 725.0627
246.3026, 731.0217
246.7847, 734.8291
247.2668, 736.9060
247.7490, 737.7089
248.2311, 737.2152
248.7132, 735.6991
249.1953, 734.0432
249.6774, 733.0576
250.1595, 730.1110
250.6417, 722.9484
251.1238, 713.7827
251.6059, 705.5037
252.0880, 699.6693
252.5701, 695.2009
253.0522, 689.3038
253.5344, 681.5428
254.0165, 673.1657
254.4986, 664.1351
254.9807, 654.9714
255.4628, 646.0096
255.9449, 637.3387
256.4271, 629.3173
256.9092, 622.9061
257.3913, 619.1439
257.8734, 615.1163
258.3555, 609.3232
258.8376, 603.4564
259.3198, 599.2625
259.8019, 597.4543
260.2840, 596.9796
260.7661, 595.5672
261.2482, 592.3114
261.7303, 589.8611
262.2125, 588.7076
262.6946, 588.1971
263.1767, 587.9263
263.6588, 587.7297
264.1409, 587.4769
264.6230, 586.8925
265.1052, 585.6594
265.5873, 584.7096
266.0694, 584.1378
266.5515, 583.7737
267.0336, 583.5061
267.5157, 583.3055
267.9979, 583.2030
268.4800, 583.2435
268.9621, 583.4247
269.4442, 583.7853
269.9263, 584.1161
270.4084, 584.7391
270.8906, 585.9747
271.3727, 587.8039
271.8548, 589.8915
272.3369, 591.9080
272.8190, 594.0499
273.3011, 595.3549
273.7833, 595.4203
274.2654, 595.1699
274.7475, 594.9504
275.2296, 594.8763
275.7117, 595.0116
276.1938, 595.3955
276.6760, 595.9864
277.1581, 597.1689
277.6402, 599.8967
278.1223, 602.2104
278.6044, 602.7614
279.0865, 601.9654
279.5686, 601.4016
280.0508, 602.4452
280.5329, 605.1476
281.0150, 606.7531
281.4971, 606.5789
281.9792, 606.2410
282.4613, 606.7432
282.9435, 607.5877
283.4256, 607.4164
283.9077, 605.2150
284.3898, 601.2874
284.8719, 598.5238
285.3540, 597.6970
285.8362, 596.9432
286.3183, 595.7341
286.8004, 594.2658
287.2825, 592.9081
287.7646, 591.8411
288.2467, 591.0402
288.7289, 590.4202
289.2110, 590.4903
289.6931, 590.1155
290.1752, 588.4157
290.6573, 586.3551
291.1394, 585.4823
291.6216, 586.4450
292.1037, 588.3375
292.5858, 589.4021
293.0679, 590.0897
293.5500, 589.0555
294.0321, 584.8045
294.5143, 579.3497
294.9964, 574.7892
295.4785, 571.6756
295.9606, 569.6174
296.4427, 568.1652
296.9248, 567.5805
297.4070, 566.8543
297.8891, 565.9066
298.3712, 564.8310
298.8533, 563.7041
299.3354, 562.5421
299.8175, 561.2889
300.2997, 559.8061
300.7818, 558.0143
301.2639, 556.8047
301.7460, 556.6757
302.2281, 556.7307
302.7102, 556.4169
303.1924, 555.7032
303.6745, 554.7439
304.1566, 553.5613
304.6387, 552.1983
305.1208, 551.2592
305.6029, 551.2462
306.0851, 551.1237
306.5672, 549.9963
307.0493, 548.2420
307.5314, 547.1476
308.0135, 547.5471
308.4956, 549.0802
308.9778, 550.1569
309.4599, 550.9625
309.9420, 551.2060
310.4241, 550.3040
310.9062, 548.8105
311.3883, 547.8976
311.8705, 548.1269
312.3526, 548.9309
312.8347, 549.0319
313.3168, 548.2359
313.7989, 547.3512
314.2810, 546.0173
314.7632, 544.8610
315.2453, 545.0873
315.7274, 547.0992
316.2095, 549.3422
316.6916, 549.5587
317.1737, 547.1874
317.6559, 545.2198
318.1380, 544.2475
318.6201, 543.5643
319.1022, 542.6036
319.5843, 541.2701
320.0664, 539.5644
320.5485, 537.2451
321.0306, 534.2702
321.5128, 532.6086
321.9949, 533.6060
322.4770, 534.7344
322.9591, 534.0983
323.4412, 531.9705
323.9233, 530.1054
324.4055, 529.8155
324.8876, 530.7709
325.3697, 530.5967
325.8518, 527.6744
326.3339, 525.5400
326.8160, 526.4905
327.2982, 529.1863
327.7803, 530.5555
328.2624, 529.0178
328.7445, 525.7003
329.2266, 523.6406
329.7087, 523.6031
330.1909, 523.2460
330.6730, 521.6584
331.1551, 519.6877
331.6372, 518.5849
332.1193, 518.7255
332.6014, 519.2552
333.0836, 518.9304
333.5657, 517.3882
334.0478, 515.9937
334.5299, 514.5925
335.0120, 513.4877
335.4941, 512.9489
335.9763, 512.9993
336.4584, 513.4629
336.9405, 514.2070
337.4226, 515.2598
337.9047, 516.4091
338.3868, 518.9694
338.8690, 520.4224
339.3511, 518.6016
339.8332, 514.4114
340.3153, 510.7327
340.7974, 509.4820
341.2795, 510.1898
341.7617, 509.8631
342.2438, 507.1027
342.7259, 505.1166
343.2080, 505.3032
343.6901, 506.5470
344.1722, 507.1520
344.6544, 506.4125
345.1365, 504.8697
345.6186, 503.6273
346.1007, 502.7177
346.5828, 502.1274
347.0649, 501.9225
347.5471, 502.0058
348.0292, 502.5031
348.5113, 503.3455
348.9934, 504.0217
349.4755, 503.8588
349.9576, 502.5610
350.4398, 501.6138
350.9219, 501.2412
351.4040, 500.9514
351.8861, 500.4966
352.3682, 499.8962
352.8503, 499.2402
353.3325, 498.5456
353.8146, 497.8521
354.2967, 497.8419
354.7788, 499.3643
355.2609, 500.5909
355.7430, 501.1705
356.2252, 501.2118
356.7073, 500.8452
357.1894, 500.1262
357.6715, 499.1666
358.1536, 498.1947
358.6357, 496.6752
359.1179, 496.0440
359.5999, 496.9608
360.0821, 498.3252
360.5642, 499.4265
361.0463, 500.0434
361.5284, 500.1423
362.0105, 499.6474
362.4926, 498.4533
362.9748, 497.0558
363.4569, 494.9487
363.9390, 493.1270
364.4211, 492.1425
364.9032, 491.8308
365.3853, 491.6901
365.8675, 491.3305
366.3496, 490.7964
366.8317, 490.5203
367.3138, 490.5981
367.7959, 490.8402
368.2780, 491.2129
368.7602, 491.7098
369.2423, 492.3777
369.7244, 493.2426
370.2065, 494.1502
370.6886, 494.8440
371.1707, 495.4135
371.6529, 495.5009
372.1350, 494.8156
372.6171, 493.8424
373.0992, 492.7376
373.5813, 491.5935
374.0634, 490.6316
374.5456, 490.1269
375.0277, 490.0978
375.5098, 490.1660
375.9919, 490.7274
376.4740, 490.9014
376.9561, 489.8877
377.4383, 488.1896
377.9204, 486.9865
378.4025, 487.1187
378.8846, 488.1075
379.3667, 488.6061
379.8488, 488.4627
380.3310, 488.2163
380.8131, 488.3207
381.2952, 488.3343
381.7773, 487.6063
382.2594, 485.8078
382.7415, 484.0100
383.2237, 483.6082
383.7058, 484.5901
384.1879, 485.2217
384.6700, 485.0328
385.1521, 484.3825
385.6342, 483.4000
386.1164, 482.1502
386.5985, 481.3469
387.0806, 481.7394
387.5627, 482.8356
388.0448, 483.3924
388.5269, 483.1667
389.0091, 482.8911
389.4912, 483.3164
389.9733, 484.0955
390.4554, 484.4398
390.9375, 484.1586
391.4196, 483.4162
391.9018, 482.0680
392.3839, 480.2100
392.8660, 478.7198
393.3481, 477.8243
393.8302, 477.7115
394.3123, 478.9380
394.7945, 482.1782
395.2766, 484.4952
395.7587, 484.3368
396.2408, 482.6027
396.7229, 480.5467
397.2050, 478.3499
397.6872, 476.5681
398.1693, 475.9335
398.6514, 476.5717
399.1335, 477.0443
399.6156, 477.1512
400.0977, 477.1876
400.5798, 477.5439
401.0620, 478.0841
401.5441, 478.1253
402.0262, 477.1260
402.5083, 475.3859
402.9904, 474.4616
403.4725, 474.7462
403.9547, 475.2202
404.4368, 475.7622
404.9189, 476.3657
405.4010, 477.0881
405.8831, 477.9322
406.3652, 478.7362
406.8474, 479.3177
407.3295, 479.8916
407.8116, 479.4854
408.2937, 476.8170
408.7758, 474.4186
409.2579, 474.1728
409.7401, 475.5721
410.2222, 476.6364
410.7043, 475.8185
411.1864, 473.4078
411.6685, 471.9441
412.1506, 472.3782
412.6328, 472.6485
413.1149, 471.8965
413.5970, 471.0767
414.0791, 471.5776
414.5612, 473.8036
415.0433, 476.3703
415.5255, 476.9307
416.0076, 474.7419
416.4897, 473.1206
416.9718, 472.8981
417.4539, 472.7512
417.9360, 471.8521
418.4182, 470.4174
418.9003, 469.3556
419.3824, 469.4626
419.8645, 470.4477
420.3466, 471.0017
420.8287, 470.9609
421.3109, 470.8095
421.7930, 470.8624
422.2751, 470.8684
422.7572, 470.3984
423.2393, 469.2092
423.7214, 468.1248
424.2036, 468.1843
424.6857, 469.3424
425.1678, 470.4637
425.6499, 471.6095
426.1320, 472.2198
426.6141, 471.5470
427.0963, 469.7715
427.5784, 468.2826
428.0605, 468.0326
428.5426, 468.2745
429.0247, 467.7767
429.5068, 466.4335
429.9890, 465.0502
430.4711, 463.9986
430.9532, 463.3517
431.4353, 463.1372
431.9174, 463.2839
432.3995, 463.9694
432.8817, 465.9884
433.3638, 468.5396
433.8459, 469.8006
434.3280, 469.1194
434.8101, 467.5359
435.2922, 466.4850
435.7744, 466.1983
436.2565, 465.4563
436.7386, 463.6180
437.2207, 461.7857
437.7028, 460.6381
438.1849, 460.2054
438.6671, 460.3821
439.1492, 461.1866
439.6313, 462.4476
440.1134, 463.1358
440.5955, 462.5748
441.0776, 462.2758
441.5598, 462.8088
442.0418, 463.4795
442.5240, 463.4529
443.0061, 462.5709
443.4882, 461.4620
443.9703, 460.9518
444.4524, 461.1659
444.9345, 461.3974
445.4167, 461.7735
445.8988, 462.0421
446.3809, 462.1267
446.8630, 462.0316
447.3451, 461.7237
447.8272, 461.1243
448.3094, 460.4474
448.7915, 460.2958
449.2736, 460.8835
449.7557, 461.3761
450.2378, 461.7965
450.7199, 461.8893
451.2021, 461.0875
451.6842, 459.4414
452.1663, 458.2574
452.6484, 459.0337
453.1305, 461.2475
453.6126, 462.6490
454.0948, 463.1533
454.5769, 462.7025
455.0590, 460.1899
455.5411, 456.8211
456.0232, 454.8255
456.5053, 455.2710
456.9875, 456.4398
457.4696, 457.0446
457.9517, 457.1654
458.4338, 457.1520
458.9159, 457.0845
459.3980, 457.0005
459.8802, 457.0348
460.3623, 457.2462
460.8444, 457.0900
461.3265, 455.9958
461.8086, 454.8130
462.2907, 454.3114
462.7729, 454.4943
463.2550, 455.0224
463.7371, 455.7785
464.2192, 456.6219
464.7013, 456.7431
465.1834, 455.0887
465.6656, 454.1027
466.1477, 454.8185
466.6298, 456.0239
467.1119, 456.4585
467.5940, 455.8150
468.0761, 454.4787
468.5583, 452.7308
469.0404, 450.2985
469.5225, 449.1661
470.0046, 451.1225
470.4867, 452.5360
470.9688, 451.5851
471.4510, 449.4997
471.9331, 448.4116
472.4152, 449.3839
472.8973, 451.4598
473.3794, 452.9512
473.8615, 453.8499
474.3437, 454.1867
474.8258, 453.7914
475.3079, 452.9237
475.7900, 451.4745
476.2721, 449.5981
476.7542, 447.9446
477.2364, 446.9093
477.7185, 446.3869
478.2006, 446.2741
478.6827, 446.6754
479.1648, 446.8406
479.6469, 446.0937
480.1291, 445.0072
480.6112, 444.6309
481.0933, 445.2060
481.5754, 445.9425
482.0575, 446.5541
482.5396, 447.0331
483.0217, 447.4136
483.5038, 447.7106
483.9860, 447.7212
484.4681, 447.1313
484.9502, 445.9156
485.4323, 445.1983
485.9144, 445.5830
486.3965, 445.7920
486.8787, 444.8178
487.3608, 443.3694
487.8429, 442.9243
488.3250, 444.0693
488.8071, 445.8347
489.2892, 446.4228
489.7714, 445.0271
490.2535, 444.4426
490.7356, 445.9048
491.2177, 446.8965
491.6998, 445.5053
492.1819, 442.5609
492.6641, 440.2508
493.1462, 440.0019
493.6283, 441.2269
494.1104, 442.3705
494.5925, 443.6871
495.0746, 444.2217
495.5568, 442.9549
496.0389, 441.3714
496.5210, 440.4176
497.0031, 440.1869
497.4852, 440.3459
497.9673, 441.1161
498.4495, 442.0706
498.9316, 441.8655
499.4137, 440.2430
499.8958, 438.4384
500.3779, 436.9254
500.8600, 435.7801
501.3422, 435.1020
501.8243, 434.9059
502.3064, 435.1489
502.7885, 436.1106
503.2706, 437.4219
503.7527, 438.5896
504.2349, 439.5131
504.7170, 439.7836
505.1991, 438.8237
505.6812, 436.5308
506.1633, 435.0002
506.6454, 434.6216
507.1276, 434.4799
507.6097, 433.9911
508.0918, 433.5922
508.5739, 434.3313
509.0560, 436.5308
509.5381, 438.8615
510.0203, 439.0810
510.5024, 436.4833
510.9845, 434.1941
511.4666, 431.8110
511.9487, 430.1465
512.4308, 429.7140
512.9130, 430.2177
513.3951, 431.1637
513.8772, 432.4169
514.3593, 433.6487
514.8414, 434.1339
515.3235, 433.7440
515.8057, 433.6462
516.2878, 434.6450
516.7699, 435.4512
517.2520, 434.7257
517.7341, 432.6914
518.2162, 431.0001
518.6984, 430.6829
519.1805, 430.8847
519.6626, 430.3926
520.1447, 429.2533
520.6268, 428.3857
521.1089, 428.2392
521.5911, 428.6123
522.0732, 429.1538
522.5553, 430.0836
523.0374, 430.5529
523.5195, 430.2124
524.0016, 429.5000
524.4838, 428.6431
524.9659, 427.7532
525.4480, 427.0066
525.9301, 426.5099
526.4122, 426.2976
526.8943, 426.5911
527.3765, 428.2643
527.8586, 429.1646
528.3407, 428.4753
528.8228, 427.4318
529.3049, 427.1809
529.7870, 427.7410
530.2692, 428.1459
530.7513, 427.3112
531.2334, 425.5616
531.7155, 425.0023
532.1976, 426.3062
532.6797, 427.2352
533.1619, 426.1161
533.6440, 424.5014
534.1261, 424.1101
534.6082, 425.3397
535.0903, 426.6116
535.5724, 427.1193
536.0546, 426.8974
536.5367, 425.6662
537.0188, 423.2860
537.5009, 421.3745
537.9830, 421.3511
538.4651, 422.8195
538.9473, 423.4530
539.4294, 422.4064
539.9115, 421.6662
540.3936, 421.9212
540.8757, 422.7177
541.3578, 423.6527
541.8400, 424.5749
542.3221, 425.2977
542.8042, 425.6642
543.2863, 425.6794
543.7684, 425.0363
544.2505, 423.0237
544.7326, 421.1934
545.2147, 419.6480
545.6968, 418.5315
546.1790, 418.1350
546.6611, 418.4850
547.1432, 419.0211
547.6253, 419.1306
548.1074, 418.8548
548.5895, 418.6419
549.0717, 418.4977
549.5538, 418.4445
550.0359, 418.6289
550.5180, 418.8784
551.0001, 418.8730
551.4822, 418.3864
551.9644, 418.0665
552.4465, 418.6927
552.9286, 419.7008
553.4107, 419.6870
553.8928, 418.3522
554.3749, 417.1166
554.8571, 417.3563
555.3392, 419.0199
555.8213, 420.0502
556.3034, 420.5282
556.7855, 420.3835
557.2676, 419.0225
557.7498, 417.3040
558.2319, 416.1641
558.7140, 415.8485
559.1961, 416.1908
559.6782, 417.2665
560.1603, 419.0960
560.6425, 419.4589
561.1246, 416.8540
561.6067, 414.9846
562.0888, 415.7956
562.5709, 417.4636
563.0530, 417.7331
563.5352, 416.0242
564.0173, 414.1667
564.4994, 413.8855
564.9815, 414.7180
565.4636, 415.1195
565.9457, 414.8840
566.4279, 414.5548
566.9100, 414.5602
567.3921, 414.7386
567.8742, 414.4944
568.3563, 413.2769
568.8384, 412.5526
569.3206, 413.3447
569.8027, 414.6352
570.2848, 415.1324
570.7669, 414.6868
571.2490, 413.9893
571.7311, 413.6019
572.2133, 413.5175
572.6954, 413.6893
573.1775, 414.4865
573.6596, 415.0299
574.1417, 415.6298
574.6238, 415.6683
575.1060, 414.1087
575.5881, 411.1362
576.0702, 408.5527
576.5523, 408.0187
577.0344, 409.0552
577.5165, 410.0089
577.9987, 410.9513
578.4808, 411.4784
578.9629, 411.1643
579.4450, 410.4930
579.9271, 410.1195
580.4092, 410.0674
580.8914, 410.2188
581.3735, 410.7135
581.8556, 411.2739
582.3377, 411.6238
582.8198, 411.7433
583.3019, 411.6816
583.7841, 411.4561
584.2662, 411.0873
584.7483, 410.6173
585.2304, 409.7432
585.7125, 409.2810
586.1946, 409.6713
586.6768, 410.0549
587.1589, 409.8973
587.6410, 409.2729
588.1231, 408.4805
588.6052, 407.6497
589.0873, 406.8844
589.5695, 406.4536
590.0516, 406.4062
590.5337, 406.3036
591.0158, 405.7858
591.4979, 405.5331
591.9800, 406.4633
592.4622, 408.2052
592.9443, 409.2077
593.4264, 408.3423
593.9085, 407.1587
594.3906, 407.0025
594.8727, 407.5517
595.3549, 407.9709
595.8370, 408.0084
596.3191, 407.7066
596.8012, 407.0620
597.2833, 405.9955
597.7654, 405.1430
598.2476, 404.3902
598.7297, 403.9468
599.2118, 404.0979
599.6939, 404.4994
600.1760, 404.6574
600.6581, 404.4529
601.1403, 404.2676
601.6224, 404.5179
602.1045, 405.1944
602.5866, 406.0492
603.0687, 406.9910
603.5508, 408.3133
604.0330, 411.2998
604.5151, 414.2545
604.9972, 414.5374
605.4793, 411.2635
605.9614, 408.3271
606.4435, 408.3754
606.9257, 409.5688
607.4078, 409.2414
607.8899, 407.2791
608.3720, 405.0446
608.8541, 403.3115
609.3362, 402.0844
609.8184, 401.3720
610.3005, 401.2562
610.7826, 401.5981
611.2647, 403.2330
611.7468, 404.5839
612.2289, 404.4230
612.7111, 403.1017
613.1932, 401.7525
613.6753, 401.0049
614.1574, 400.6087
614.6395, 400.0087
615.1216, 399.1527
615.6038, 398.8570
616.0859, 399.7884
616.5680, 400.5630
617.0501, 399.4682
617.5322, 397.1625
618.0143, 395.9528
618.4965, 397.2023
618.9786, 398.6549
619.4607, 398.9343
619.9428, 398.4789
620.4249, 397.9694
620.9070, 397.6006
621.3892, 397.5970
621.8713, 398.3243
622.3534, 399.7619
622.8355, 400.1323
623.3176, 398.2898
623.7997, 396.8294
624.2819, 396.2489
624.7640, 396.1343
625.2461, 396.2274
625.7282, 396.4330
626.2103, 396.5941
626.6924, 396.4580
627.1745, 396.2394
627.6566, 396.7021
628.1387, 397.9396
628.6208, 398.4941
629.1030, 397.5718
629.5851, 396.0020
630.0672, 394.9641
630.5493, 394.4606
631.0314, 394.0542
631.5135, 393.3806
631.9957, 393.0664
632.4778, 393.6534
632.9599, 394.8759
633.4420, 396.3917
633.9241, 398.0253
634.4063, 399.2101
634.8884, 398.9362
635.3705, 396.9267
635.8526, 395.8123
636.3347, 396.5439
636.8168, 396.8397
637.2990, 395.4150
637.7811, 393.4068
638.2632, 392.1703
638.7453, 392.0010
639.2274, 392.2543
639.7095, 392.8261
640.1917, 393.4044
640.6738, 393.2169
641.1559, 392.2675
641.6380, 391.7427
642.1201, 392.4832
642.6022, 393.6955
643.0844, 393.5073
643.5665, 390.8169
644.0486, 388.9957
644.5307, 388.0763
645.0128, 387.9878
645.4949, 389.4225
645.9771, 391.5233
646.4592, 392.6232
646.9413, 391.9619
647.4234, 390.6150
647.9055, 390.1246
648.3876, 390.4703
648.8698, 390.6888
649.3519, 390.7517
649.8340, 390.5591
650.3161, 389.5616
650.7982, 388.3986
651.2803, 388.5777
651.7625, 391.0533
652.2446, 392.6537
652.7267, 391.3417
653.2088, 389.0283
653.6909, 387.7583
654.1730, 387.6102
654.6552, 387.8208
655.1373, 387.9804
655.6194, 387.9350
656.1015, 387.0997
656.5836, 384.6800
657.0657, 383.5381
657.5479, 385.3848
658.0300, 387.0540
658.5121, 386.9556
658.9942, 385.7265
659.4763, 384.7344
659.9584, 384.4590
660.4406, 384.4265
660.9227, 384.3721
661.4048, 384.2147
661.8869, 383.5248
662.3690, 382.2242
662.8511, 381.4147
663.3333, 382.0767
663.8154, 383.7187
664.2975, 384.2726
664.7796, 382.2704
665.2617, 381.2485
665.7438, 382.0836
666.2260, 383.2257
666.7081, 383.6381
667.1902, 383.4536
667.6723, 383.3077
668.1544, 383.5407
668.6365, 383.9139
669.1187, 384.1308
669.6008, 384.1850
670.0829, 383.8233
670.5650, 382.8256
671.0471, 381.8680
671.5292, 381.0266
672.0114, 380.6852
672.4935, 382.1135
672.9756, 386.8748
673.4577, 390.6902
673.9398, 391.6709
674.4219, 391.5367
674.9041, 391.8525
675.3862, 392.6984
675.8683, 393.3633
676.3504, 393.3483
676.8325, 393.2031
677.3146, 394.4512
677.7968, 397.5371
678.2789, 399.7846
678.7610, 400.0794
679.2431, 400.5978
679.7252, 403.0058
680.2073, 406.4772
680.6895, 409.2999
681.1716, 410.9104
681.6537, 412.3815
682.1358, 414.0752
682.6179, 416.1233
683.1000, 418.5030
683.5822, 421.3339
684.0643, 425.2278
684.5464, 430.5631
685.0285, 437.3174
685.5106, 445.3623
685.9927, 454.1974
686.4749, 465.4533
686.9570, 478.8531
687.4391, 495.0244
687.9212, 515.2800
688.4033, 538.2853
688.8854, 562.3372
689.3676, 587.3986
689.8497, 610.8795
690.3318, 631.7524
690.8139, 649.0972
691.2960, 660.6413
691.7781, 666.2414
692.2603, 666.9457
692.7424, 662.8105
693.2245, 655.2972
693.7066, 648.3206
694.1887, 644.0660
694.6708, 635.7333
695.1530, 622.2272
695.6351, 606.1682
696.1172, 587.2208
696.5993, 566.9739
697.0814, 547.1207
697.5635, 528.0905
698.0457, 512.5051
698.5278, 502.8124
699.0099, 498.6624
699.4920, 499.4667
699.9741, 505.3452
700.4562, 513.8191
700.9384, 524.7603
701.4205, 536.0613
701.9026, 543.5029
702.3847, 547.5119
702.8668, 545.8045
703.3489, 535.4440
703.8311, 522.3847
704.3132, 507.9274
704.7953, 493.3280
705.2774, 479.6049
705.7595, 467.2501
706.2416, 456.7798
706.7238, 449.0652
707.2059, 443.8623
707.6880, 440.3009
708.1701, 438.5253
708.6522, 437.3066
709.1343, 436.3611
709.6164, 435.4360
710.0985, 434.3961
710.5806, 433.4758
711.0627, 430.7985
711.5449, 425.3724
712.0270, 419.0736
712.5091, 412.0041
712.9912, 404.9789
713.4733, 399.1282
713.9554, 394.6332
714.4376, 390.7396
714.9197, 386.5273
715.4018, 383.7745
715.8839, 379.8170
716.3660, 379.1322
716.8481, 378.4351
717.3303, 377.1450
717.8124, 375.6529
718.2945, 374.2868
718.7766, 373.0598
719.2587, 372.2140
719.7408, 371.9876
720.2230, 371.8959
720.7051, 371.8520
721.1872, 371.7813
721.6693, 371.4775
722.1514, 371.0085
722.6335, 370.8425
723.1157, 371.4486
723.5978, 372.4007
724.0799, 372.4624
724.5620, 371.5365
725.0441, 370.7574
725.5262, 370.4868
726.0084, 370.1397
726.4905, 368.9588
726.9726, 367.2741
727.4547, 366.4356
727.9368, 367.2487
728.4189, 367.7527
728.9011, 366.8055
729.3832, 365.7022
729.8653, 365.7793
730.3474, 366.8872
730.8295, 368.1384
731.3116, 369.0709
731.7938, 369.6549
732.2759, 369.8062
732.7580, 369.5205
733.2401, 369.0181
733.7222, 368.3004
734.2043, 367.3773
734.6865, 365.9071
735.1686, 364.3883
735.6507, 364.0263
736.1328, 365.3558
736.6149, 365.9864
737.0970, 364.5584
737.5792, 363.0909
738.0613, 363.0624
738.5434, 364.0359
739.0255, 365.0570
739.5076, 365.7778
739.9897, 366.3004
740.4719, 366.7187
740.9540, 367.0405
741.4361, 367.4131
741.9182, 367.9340
742.4003, 367.9447
742.8824, 366.9229
743.3646, 365.5973
743.8467, 365.1095
744.3288, 365.4805
744.8109, 365.1585
745.2930, 362.8905
745.7751, 361.2256
746.2573, 361.8290
746.7394, 363.2449
747.2215, 363.5034
747.7036, 362.5352
748.1857, 362.0159
748.6678, 363.4961
749.1500, 365.7735
749.6321, 365.8900
750.1142, 363.8479
750.5963, 362.1872
751.0784, 361.4194
751.5605, 361.1009
752.0427, 361.0261
752.5248, 361.1110
753.0069, 360.8686
753.4890, 359.5612
753.9711, 359.0944
754.4532, 360.6486
754.9354, 362.2874
755.4175, 362.5687
755.8996, 361.7975
756.3817, 360.8902
756.8638, 360.2130
757.3459, 359.7194
757.8281, 359.1743
758.3102, 358.7551
758.7923, 359.5507
759.2744, 361.7238
759.7565, 362.9009
760.2386, 361.6582
760.7208, 359.3007
761.2029, 358.0914
761.6850, 358.3924
762.1671, 358.3751
762.6492, 357.3006
763.1313, 356.8190
763.6135, 358.3450
764.0956, 360.1950
764.5777, 360.2809
765.0598, 358.4977
765.5419, 356.7096
766.0240, 356.0644
766.5062, 356.1490
766.9883, 356.5226
767.4704, 357.1357
767.9525, 357.8505
768.4346, 358.6472
768.9167, 359.2228
769.3989, 359.2841
769.8810, 358.9010
770.3631, 358.4856
770.8452, 357.8494
771.3273, 357.5240
771.8094, 357.7045
772.2916, 358.0332
772.7737, 358.2740
773.2558, 358.5319
773.7379, 359.2295
774.2200, 360.7608
774.7021, 361.5468
775.1843, 359.8168
775.6664, 357.1529
776.1485, 355.5215
776.6306, 355.0107
777.1127, 355.3231
777.5948, 356.3465
778.0770, 357.5806
778.5591, 358.2829
779.0412, 358.4372
779.5233, 358.4003
780.0054, 357.9635
780.4875, 357.7952
780.9697, 358.8155
781.4518, 359.6500
781.9339, 358.3303
782.4160, 355.1340
782.8981, 353.5511
783.3802, 356.0444
783.8624, 358.4776
784.3445, 358.5641
784.8266, 357.4706
785.3087, 356.6284
785.7908, 356.2269
786.2729, 355.6917
786.7551, 354.5575
787.2372, 353.4124
787.7193, 353.7180
788.2014, 355.4496
788.6835, 356.4472
789.1656, 356.2553
789.6478, 356.1216
790.1299, 356.9166
790.6120, 358.2029
791.0941, 358.8841
791.5762, 358.7018
792.0583, 358.7314
792.5404, 359.5222
793.0225, 359.9991
793.5046, 359.5891
793.9868, 358.5991
794.4689, 357.2296
794.9510, 355.6432
795.4331, 354.5096
795.9152, 354.7476
796.3973, 355.4561
796.8795, 354.8227
797.3616, 353.2145
797.8437, 352.5650
798.3258, 353.3734
798.8079, 354.6376
799.2900, 355.6186
799.7722, 356.2079
800.2543, 355.6184
800.7364, 352.3519
801.2185, 350.9656
801.7006, 354.2124
802.1827, 357.0025
802.6649, 356.1296
803.1470, 353.3718
803.6291, 352.2270
804.1112, 353.7121
804.5933, 355.0629
805.0754, 354.6242
805.5576, 353.6192
806.0397, 353.1993
806.5218, 353.2519
807.0039, 353.1780
807.4860, 352.8174
807.9681, 352.8698
808.4503, 354.4662
808.9324, 357.0566
809.4145, 357.2540
809.8966, 354.5259
810.3787, 352.7965
810.8608, 353.4461
811.3430, 354.6097
811.8251, 354.5936
812.3072, 353.5837
812.7893, 352.9579
813.2714, 352.7975
813.7535, 352.8883
814.2357, 353.5483
814.7178, 354.1299
815.1999, 354.0518
815.6820, 353.5740
816.1641, 353.3742
816.6462, 353.7004
817.1284, 353.8311
817.6105, 352.7005
818.0926, 351.0957
818.5747, 350.4232
819.0568, 350.7155
819.5389, 352.0832
820.0211, 354.6451
820.5032, 357.0777
820.9853, 357.8103
821.4674, 356.9499
821.9495, 356.1950
822.4316, 355.8518
822.9138, 354.9097
823.3959, 352.4627
823.8780, 350.0975
824.3601, 348.7719
824.8422, 348.3413
825.3243, 348.4580
825.8065, 349.2516
826.2886, 350.1302
826.7707, 351.1787
827.2528, 351.9608
827.7349, 351.8667
828.2170, 351.2308
828.6992, 350.8271
829.1813, 350.9223
829.6634, 351.1733
830.1455, 351.0732
830.6276, 350.8621
831.1097, 351.6738
831.5919, 353.4737
832.0740, 354.3347
832.5561, 353.6094
833.0382, 352.1348
833.5203, 350.4568
834.0024, 348.7325
834.4846, 348.1606
834.9667, 349.8090
835.4488, 350.8616
835.9309, 350.6567
836.4130, 350.3958
836.8951, 350.8779
837.3773, 351.6794
837.8594, 352.0193
838.3415, 351.7133
838.8236, 351.0896
839.3057, 349.7629
839.7878, 348.6656
840.2700, 348.9998
840.7521, 350.2110
841.2342, 351.0460
841.7163, 351.1844
842.1984, 351.1359
842.6805, 351.3489
843.1627, 351.7467
843.6448, 352.3161
844.1269, 353.0905
844.6090, 352.6298
845.0911, 350.2762
845.5732, 348.1864
846.0554, 348.1601
846.5375, 349.2865
847.0196, 348.8340
847.5017, 345.3291
847.9838, 343.6430
848.4659, 345.3778
848.9481, 346.9944
849.4302, 347.0919
849.9123, 346.3610
850.3944, 345.3364
850.8765, 344.2463
851.3586, 344.0310
851.8408, 346.0434
852.3229, 348.2465
852.8050, 348.8510
853.2871, 348.4835
853.7692, 348.0911
854.2513, 347.8620
854.7335, 347.7303
855.2156, 347.6703
855.6977, 347.5906
856.1798, 347.1591
856.6619, 346.4067
857.1440, 346.5638
857.6262, 347.9673
858.1083, 348.7472
858.5904, 347.8236
859.0725, 346.3203
859.5546, 345.8599
860.0367, 346.5761
860.5189, 346.7909
861.0010, 345.7978
861.4831, 345.2884
861.9652, 345.9136
862.4473, 346.7831
862.9294, 347.1689
863.4116, 347.2326
863.8937, 347.6633
864.3758, 348.9191
864.8579, 349.7256
865.3400, 349.0531
865.8221, 347.6826
866.3043, 346.1516
866.7864, 344.7278
867.2685, 344.0510
867.7506, 344.2749
868.2327, 344.6198
868.7148, 344.1909
869.1970, 343.2996
869.6791, 343.0998
870.1612, 343.5910
870.6433, 343.7405
871.1254, 343.2414
871.6075, 342.7938
872.0897, 342.9190
872.5718, 343.5096
873.0539, 344.2660
873.5360, 345.5436
874.0181, 346.1718
874.5002, 345.5336
874.9823, 344.9474
875.4644, 345.0836
875.9465, 345.3464
876.4286, 344.9075
876.9108, 343.7558
877.3929, 342.8995
877.8750, 342.9185
878.3571, 343.0493
878.8392, 342.7877
879.3214, 342.4576
879.8035, 342.4983
880.2856, 342.8603
880.7677, 343.2516
881.2498, 343.5455
881.7319, 343.5917
882.2141, 343.0883
882.6962, 342.2036
883.1783, 341.2420
883.6604, 340.2896
884.1425, 340.0846
884.6246, 340.9006
885.1068, 342.5449
885.5889, 345.0402
886.0710, 348.1096
886.5531, 349.4457
887.0352, 348.5654
887.5173, 347.3193
887.9995, 345.6988
888.4816, 344.0895
888.9637, 342.5966
889.4458, 341.3095
889.9279, 340.3965
890.4100, 339.8798
890.8922, 339.6573
891.3743, 339.6685
891.8564, 340.0214
892.3385, 341.2673
892.8206, 342.5617
893.3027, 342.5925
893.7849, 341.5918
894.2670, 341.2958
894.7491, 342.7270
895.2312, 344.8228
895.7133, 347.2444
896.1954, 349.3596
896.6776, 349.5685
897.1597, 348.3331
897.6418, 347.7444
898.1239, 348.7137
898.6060, 351.0028
899.0881, 354.5416
899.5703, 359.1164
900.0524, 364.1181
900.5345, 369.6515
901.0166, 373.4672
901.4987, 375.2202
901.9808, 374.3622
902.4630, 369.9886
902.9451, 363.0025
903.4272, 356.5311
903.9093, 350.4921
904.3914, 345.0823
904.8735, 339.6623
905.3557, 335.7044
905.8378, 334.1090
906.3199, 333.9510
906.8020, 334.6547
907.2841, 336.0712
907.7662, 336.9540
908.2484, 336.5095
908.7305, 336.1086
909.2126, 336.3831
909.6947, 336.8760
910.1768, 337.4254
910.6589, 337.7787
911.1411, 337.2512
911.6232, 335.5536
912.1053, 334.2189
912.5874, 335.1837
913.0695, 336.9435
913.5516, 336.9992
914.0338, 335.8337
914.5159, 335.1615
914.9980, 335.3435
915.4801, 335.4745
915.9622, 334.8231
916.4443, 333.7140
916.9265, 332.8035
917.4086, 332.0924
917.8907, 331.9243
918.3728, 332.3658
918.8549, 333.1934
919.3370, 334.5277
919.8192, 335.7408
920.3013, 335.9464
920.7834, 335.1248
921.2655, 334.0842
921.7476, 332.3107
922.2297, 331.2099
922.7119, 331.5354
923.1940, 332.0339
923.6761, 331.7519
924.1582, 331.1940
924.6403, 331.6566
925.1224, 333.7340
925.6046, 334.6566
926.0867, 332.7013
926.5688, 330.5966
927.0509, 329.6380
927.5330, 329.4295
928.0151, 329.4628
928.4973, 329.6861
928.9794, 330.3847
929.4615, 331.9498
929.9436, 333.3078
930.4257, 333.4465
930.9078, 332.8453
931.3900, 331.8199
931.8721, 330.7249
932.3542, 330.6294
932.8363, 331.8060
933.3184, 333.0545
933.8005, 333.2799
934.2827, 332.5890
934.7648, 330.5904
935.2469, 327.5996
935.7290, 327.1129
936.2111, 329.8057
936.6932, 332.3186
937.1754, 332.6578
937.6575, 331.7504
938.1396, 331.2639
938.6217, 331.2396
939.1038, 331.0650
939.5859, 330.5499
940.0681, 330.4637
940.5502, 331.5934
941.0323, 332.3644
941.5144, 330.9359
941.9965, 328.0285
942.4786, 326.7697
942.9608, 328.1871
943.4429, 329.0402
943.9250, 328.9705
944.4071, 328.5912
944.8892, 327.7590
945.3713, 327.0007
945.8535, 327.0495
946.3356, 327.8385
946.8177, 328.4147
947.2998, 328.3571
947.7819, 328.2050
948.2640, 328.1120
948.7462, 328.1281
949.2283, 328.5248
949.7104, 329.0082
950.1925, 328.7783
950.6746, 327.6797
951.1567, 326.9419
951.6389, 327.8593
952.1210, 329.3529
952.6031, 330.2388
953.0852, 330.5749
953.5673, 330.1347
954.0494, 329.1620
954.5316, 329.0899
955.0137, 330.7380
955.4958, 332.5615
955.9779, 331.7094
956.4600, 332.8048
956.9421, 333.3613
957.4242, 332.1984
957.9063, 333.4171
958.3884, 331.6045
958.8705, 329.1371
959.3527, 327.8400
959.8348, 327.4995
960.3169, 327.6975
960.7990, 328.6851
961.2811, 328.6840
961.7632, 327.0461
962.2454, 326.2295
962.7275, 327.6549
963.2096, 329.5573
963.6917, 329.9945
964.1738, 329.0938
964.6559, 328.2442
965.1381, 327.2368
965.6202, 326.6352
966.1023, 326.6398
966.5844, 326.8348
967.0665, 327.2411
967.5486, 327.6269
968.0308, 327.6702
968.5129, 327.3542
968.9950, 326.9718
969.4771, 326.4505
969.9592, 326.0475
970.4413, 325.6336
970.9235, 325.5642
971.4056, 326.7154
971.8877, 328.2593
972.3698, 328.3483
972.8519, 326.4818
973.3340, 324.7344
973.8162, 324.2914
974.2983, 324.4205
974.7804, 324.7853
975.2625, 325.1976
975.7446, 325.3929
976.2267, 325.3888
976.7089, 325.2979
977.1910, 325.1534
977.6731, 325.3125
978.1552, 326.7245
978.6373, 328.3510
979.1194, 328.0530
979.6016, 326.4115
980.0837, 325.1915
980.5658, 324.8264
981.0479, 325.2836
981.5300, 326.6110
982.0121, 328.2682
982.4943, 329.3023
982.9764, 329.7920
983.4585, 330.3164
983.9406, 330.8646
984.4227, 330.5582
984.9048, 329.0678
985.3870, 327.2539
985.8691, 325.7939
986.3512, 324.8139
986.8333, 324.9565
987.3154, 326.4559
987.7975, 327.0716
988.2797, 326.5233
988.7618, 325.6870
989.2439, 324.6617
989.7260, 324.0534
990.2081, 324.8369
990.6902, 326.7451
991.1724, 327.1049
991.6545, 324.6400
992.1366, 323.6769
992.6187, 325.7290
993.1008, 327.4176
993.5829, 326.6628
994.0651, 325.0634
994.5472, 325.0445
995.0293, 326.6463
995.5114, 327.2444
995.9935, 325.6418
996.4756, 324.7279
996.9578, 325.5444
997.4399, 326.4271
997.9220, 326.5853
998.4041, 326.1363
998.8862, 325.0514
999.3683, 323.3161
999.8505, 322.3663
1000.333, 322.9701
1000.815, 323.8806
1001.297, 324.9569
1001.779, 325.8786
1002.261, 326.3248
1002.743, 326.4338
1003.225, 326.4804
1003.707, 326.5311
1004.190, 326.6166
1004.672, 326.6302
1005.154, 326.8213
1005.636, 328.0004
1006.118, 329.0004
1006.600, 327.8017
1007.082, 325.2187
1007.564, 324.0103
1008.046, 325.1949
1008.529, 326.6052
1009.011, 326.2782
1009.493, 327.2027
1009.975, 326.1566
1010.457, 327.2964
1010.939, 327.3348
1011.421, 326.2955
1011.903, 325.2467
1012.385, 324.7017
1012.868, 324.6129
1013.350, 325.2515
1013.832, 326.1346
1014.314, 326.1926
1014.796, 325.7378
1015.278, 325.6870
1015.760, 326.2030
1016.242, 327.1637
1016.725, 328.5435
1017.207, 329.7199
1017.689, 329.5136
1018.171, 330.0334
1018.653, 328.2650
1019.135, 328.9135
1019.617, 328.2359
1020.099, 325.8436
1020.581, 324.0170
1021.064, 324.3610
1021.546, 325.9254
1022.028, 327.1365
1022.510, 327.9802
1022.992, 328.2500
1023.474, 327.9347
1023.956, 327.5385
1024.438, 327.1530
1024.921, 327.1640
1025.403, 328.0161
1025.885, 329.0249
1026.367, 328.2220
1026.849, 325.3847
1027.331, 324.6344
1027.813, 326.4065
1028.295, 327.7148
1028.777, 327.6071
1029.260, 327.4055
1029.742, 328.3237
1030.224, 329.7379
1030.706, 329.6804
1031.188, 327.6144
1031.670, 327.1256
1032.152, 328.9455
1032.634, 330.1867
1033.116, 329.8969
1033.599, 329.0523
1034.081, 328.3169
1034.563, 327.7347
1035.045, 327.3924
1035.527, 327.0970
1036.009, 327.8187
1036.491, 330.5226
1036.973, 332.3721
1037.456, 332.1750
1037.938, 331.3531
1038.420, 330.7969
1038.902, 330.6083
1039.384, 331.1931
1039.866, 332.9090
1040.348, 334.3767
1040.830, 334.9621
1041.313, 336.2065
1041.795, 339.5023
1042.277, 342.7054
1042.759, 343.5659
1043.241, 342.9608
1043.723, 343.8655
1044.205, 347.7204
1044.687, 349.1538
1045.169, 346.2220
1045.651, 343.1081
1046.134, 340.0959
1046.616, 338.1185
1047.098, 338.0454
1047.580, 339.6104
1048.062, 341.9648
1048.544, 344.9539
1049.026, 349.0058
1049.508, 354.1703
1049.991, 360.4053
1050.473, 365.5678
1050.955, 373.6597
1051.437, 389.3799
1051.919, 410.5966
1052.401, 432.1314
1052.883, 454.0031
1053.365, 472.4790
1053.848, 485.6486
1054.330, 496.7574
1054.812, 504.6474
1055.294, 513.1043
1055.776, 523.5011
1056.258, 537.4364
1056.740, 557.5784
1057.222, 584.2499
1057.704, 618.1423
1058.187, 658.1924
1058.669, 707.0610
1059.151, 763.4721
1059.633, 831.0941
1060.115, 905.5918
1060.597, 996.0316
1061.079, 1114.166
1061.561, 1259.859
1062.043, 1467.686
1062.526, 1766.563
1063.008, 2109.079
1063.490, 2585.336
1063.972, 2999.362
1064.454, 3223.243
1064.936, 3235.742
1065.418, 2986.026
1065.900, 2460.804
1066.383, 1929.278
1066.865, 1433.320
1067.347, 1034.220
1067.829, 782.0042
1068.311, 618.9531
1068.793, 520.1269
1069.275, 464.8999
1069.757, 430.0887
1070.240, 410.1822
1070.722, 396.2419
1071.204, 386.5533
1071.686, 379.4056
1072.168, 374.6317
1072.650, 371.4211
1073.132, 369.2328
1073.614, 368.0184
1074.096, 367.9943
1074.578, 369.0854
1075.061, 370.3464
1075.543, 370.4413
1076.025, 372.1421
1076.507, 377.2846
1076.989, 384.0461
1077.471, 391.7820
1077.953, 399.7857
1078.435, 407.0471
1078.918, 413.5788
1079.400, 420.3297
1079.882, 427.4904
1080.364, 435.3765
1080.846, 442.8693
1081.328, 452.5159
1081.810, 465.9468
1082.292, 482.8745
1082.774, 502.5302
1083.257, 525.0726
1083.739, 551.1716
1084.221, 579.6393
1084.703, 616.2659
1085.185, 665.0989
1085.667, 721.2872
1086.149, 780.4553
1086.631, 845.9123
1087.114, 918.6844
1087.596, 1001.838
1088.078, 1109.147
1088.560, 1253.958
1089.042, 1376.726
1089.524, 1479.351
1090.006, 1522.920
1090.488, 1464.032
1090.970, 1352.068
1091.453, 1218.950
1091.935, 1079.301
1092.417, 955.1127
1092.899, 851.1309
1093.381, 759.7372
1093.863, 678.6488
1094.345, 608.7668
1094.827, 552.5871
1095.309, 506.8359
1095.792, 470.4681
1096.274, 441.8181
1096.756, 418.8089
1097.238, 401.1204
1097.720, 386.5994
1098.202, 375.3002
1098.684, 366.0790
1099.166, 358.6170
1099.649, 352.9122
1100.131, 349.6541
1100.613, 347.7782
1101.095, 345.9295
1101.577, 343.9159
1102.059, 341.6946
1102.541, 338.6211
1103.023, 336.3892
1103.505, 336.0728
1103.988, 335.9039
1104.470, 335.0502
1104.952, 333.7505
1105.434, 332.0363
1105.916, 330.1243
1106.398, 328.9370
1106.880, 328.7131
1107.362, 328.9831
1107.844, 330.1365
1108.327, 331.1790
1108.809, 331.8626
1109.291, 332.1797
1109.773, 331.8537
1110.255, 331.1950
1110.737, 331.2090
1111.219, 332.3516
1111.701, 332.6559
1112.184, 331.0746
1112.666, 329.9164
1113.148, 330.2307
1113.630, 330.5614
1114.112, 329.5125
1114.594, 328.0105
1115.076, 327.9464
1115.558, 329.5297
1116.041, 330.4586
1116.523, 330.6279
1117.005, 330.2789
1117.487, 328.6386
1117.969, 327.6354
1118.451, 328.7227
1118.933, 330.4343
1119.415, 330.9301
1119.897, 330.2907
1120.380, 329.3305
1120.862, 327.3739
1121.344, 326.8740
1121.826, 328.6700
1122.308, 330.3275
1122.790, 331.1424
1123.272, 331.2296
1123.754, 330.5134
1124.236, 329.2755
1124.719, 328.4048
1125.201, 327.7984
1125.683, 328.2662
1126.165, 330.2531
1126.647, 331.5670
1127.129, 331.5446
1127.611, 331.2038
1128.093, 331.1708
1128.576, 331.4310
1129.058, 332.1344
1129.540, 333.2042
1130.022, 332.6616
1130.504, 330.2965
1130.986, 328.8900
1131.468, 328.9234
1131.950, 329.2632
1132.432, 329.3994
1132.915, 329.3815
1133.397, 329.2958
1133.879, 329.0676
1134.361, 328.1534
1134.843, 326.6870
1135.325, 326.4219
1135.807, 327.4450
1136.289, 329.1024
1136.771, 331.1600
1137.254, 332.8111
1137.736, 333.4022
1138.218, 333.2123
1138.700, 332.2054
1139.182, 330.9495
1139.664, 331.8793
1140.146, 334.3816
1140.628, 335.6301
1141.111, 335.1802
1141.593, 334.0419
1142.075, 332.7246
1142.557, 331.7838
1143.039, 332.1219
1143.521, 333.0130
1144.003, 333.2957
1144.485, 333.1740
1144.968, 333.0128
1145.450, 332.8591
1145.932, 332.6558
1146.414, 332.3953
1146.896, 332.2392
1147.378, 332.5749
1147.860, 332.4892
1148.342, 330.1809
1148.824, 327.7357
1149.307, 327.8882
1149.789, 329.6154
1150.271, 331.2422
1150.753, 332.2665
1151.235, 332.1276
1151.717, 330.1924
1152.199, 329.0590
1152.681, 331.0739
1153.163, 333.3698
1153.646, 334.4673
1154.128, 334.5307
1154.610, 333.0102
1155.092, 330.9012
1155.574, 330.4858
1156.056, 332.2433
1156.538, 333.6358
1157.020, 333.7641
1157.503, 333.6710
1157.985, 333.6482
1158.467, 333.4942
1158.949, 332.7466
1159.431, 332.0095
1159.913, 332.1911
1160.395, 333.1971
1160.877, 333.9831
1161.359, 334.5020
1161.842, 334.7721
1162.324, 334.8248
1162.806, 334.5495
1163.288, 333.3345
1163.770, 332.5791
1164.252, 333.7649
1164.734, 335.8145
1165.216, 336.2302
1165.698, 334.8437
1166.181, 334.0588
1166.663, 333.9137
1167.145, 334.3185
1167.627, 335.4227
1168.109, 336.4960
1168.591, 337.1806
1169.073, 337.8060
1169.555, 338.9322
1170.037, 340.0829
1170.520, 339.0628
1171.002, 335.9591
1171.484, 334.2527
1171.966, 334.0778
1172.448, 334.1272
1172.930, 334.0639
1173.412, 334.9718
1173.894, 337.7157
1174.377, 340.5200
1174.859, 340.5189
1175.341, 338.6055
1175.823, 336.7946
1176.305, 335.2813
1176.787, 334.7925
1177.269, 335.2335
1177.751, 335.9386
1178.234, 336.6289
1178.716, 337.1215
1179.198, 337.0792
1179.680, 337.2121
1180.162, 338.8973
1180.644, 340.7227
1181.126, 340.4891
1181.608, 339.2542
1182.090, 338.9811
1182.573, 339.8301
1183.055, 341.0231
1183.537, 342.3717
1184.019, 343.2912
1184.501, 343.7497
1184.983, 343.3402
1185.465, 340.7073
1185.947, 338.1749
1186.429, 337.8945
1186.912, 339.0893
1187.394, 340.4656
1187.876, 341.8057
1188.358, 342.2288
1188.840, 340.5613
1189.322, 339.6217
1189.804, 340.4028
1190.286, 341.0150
1190.769, 340.3823
1191.251, 339.7990
1191.733, 340.6421
1192.215, 342.2122
1192.697, 342.6060
1193.179, 341.6257
1193.661, 341.2603
1194.143, 341.8759
1194.625, 341.6063
1195.108, 339.8978
1195.590, 338.4361
1196.072, 337.9914
1196.554, 338.3867
1197.036, 339.6023
1197.518, 341.1576
1198.000, 341.2237
1198.482, 342.2788
1198.964, 342.7565
1199.447, 342.6103
1199.929, 343.1041
1200.411, 341.6013
1200.893, 340.6481
1201.375, 341.7325
1201.857, 343.3666
1202.339, 343.9511
1202.821, 343.8785
1203.304, 343.3631
1203.786, 342.9093
1204.268, 343.7885
1204.750, 345.4463
1205.232, 346.2881
1205.714, 345.9951
1206.196, 345.3348
1206.678, 344.5136
1207.161, 344.0004
1207.643, 344.2415
1208.125, 344.7251
1208.607, 345.1615
1209.089, 345.6038
1209.571, 346.5459
1210.053, 347.4359
1210.535, 346.6930
1211.017, 343.9634
1211.500, 342.3582
1211.982, 343.1990
1212.464, 343.8295
1212.946, 343.0393
1213.428, 343.1834
1213.910, 346.1953
1214.392, 349.2158
1214.874, 349.3082
1215.356, 347.4044
1215.839, 346.3436
1216.321, 346.2234
1216.803, 345.9099
1217.285, 345.2737
1217.767, 345.4999
1218.249, 346.9220
1218.731, 347.8126
1219.213, 347.2902
1219.696, 346.5290
1220.178, 346.8533
1220.660, 347.7792
1221.142, 348.3278
1221.624, 348.4943
1222.106, 348.1194
1222.588, 347.3494
1223.070, 346.3594
1223.552, 345.4463
1224.035, 345.7856
1224.517, 347.9292
1224.999, 350.4799
1225.481, 352.4259
1225.963, 354.0579
1226.445, 355.8388
1226.927, 357.2319
1227.409, 357.7686
1227.891, 357.4348
1228.374, 355.9250
1228.856, 353.5350
1229.338, 351.7305
1229.820, 351.1686
1230.302, 350.2638
1230.784, 347.6891
1231.266, 346.0568
1231.748, 346.7457
1232.231, 348.0238
1232.713, 349.1552
1233.195, 349.9430
1233.677, 350.0501
1234.159, 349.5364
1234.641, 348.7910
1235.123, 347.5156
1235.605, 347.5800
1236.088, 349.2951
1236.570, 350.8815
1237.052, 351.9267
1237.534, 352.3001
1238.016, 351.8681
1238.498, 351.0941
1238.980, 350.6236
1239.462, 350.3172
1239.944, 349.6714
1240.427, 348.8972
1240.909, 348.6667
1241.391, 348.8939
1241.873, 349.2361
1242.355, 349.5222
1242.837, 349.3303
1243.319, 348.3170
1243.801, 347.6647
1244.283, 348.6627
1244.766, 349.8981
1245.248, 350.3654
1245.730, 350.4758
1246.212, 350.5291
1246.694, 350.6115
1247.176, 350.8628
1247.658, 351.2555
1248.140, 351.4085
1248.622, 351.1448
1249.105, 350.8858
1249.587, 350.2476
1250.069, 350.3415
1250.551, 352.0610
1251.033, 353.4025
1251.515, 352.9288
1251.997, 351.7193
1252.479, 351.4569
1252.962, 351.8692
1253.444, 351.1226
1253.926, 351.1810
1254.408, 351.4624
1254.890, 350.9199
1255.372, 352.1659
1255.854, 352.4118
1256.336, 352.8786
1256.818, 354.2846
1257.301, 355.2959
1257.783, 353.9198
1258.265, 351.9256
1258.747, 351.8628
1259.229, 352.6060
1259.711, 352.3882
1260.193, 351.8425
1260.675, 352.7995
1261.157, 354.9939
1261.640, 355.8664
1262.122, 354.2303
1262.604, 353.2949
1263.086, 354.0389
1263.568, 355.6733
1264.050, 359.3169
1264.532, 362.1924
1265.014, 362.3505
1265.497, 361.2079
1265.979, 360.3134
1266.461, 359.5034
1266.943, 357.9230
1267.425, 355.2859
1267.907, 354.1105
1268.389, 354.4706
1268.871, 355.8452
1269.354, 358.1748
1269.836, 359.4012
1270.318, 358.5782
1270.800, 357.2922
1271.282, 357.0722
1271.764, 357.3434
1272.246, 357.2586
1272.728, 356.9651
1273.210, 356.5015
1273.693, 356.1454
1274.175, 356.5301
1274.657, 357.4688
1275.139, 358.1601
1275.621, 358.4030
1276.103, 358.8288
1276.585, 360.1310
1277.067, 360.9468
1277.549, 360.3615
1278.032, 359.7790
1278.514, 360.2974
1278.996, 360.6817
1279.478, 359.5960
1279.960, 357.8358
1280.442, 356.8593
1280.924, 356.6640
1281.406, 357.3377
1281.889, 359.0404
1282.371, 360.6386
1282.853, 362.1145
1283.335, 362.0556
1283.817, 360.0894
1284.299, 358.2631
1284.781, 357.8786
1285.263, 358.3155
1285.745, 358.9124
1286.228, 359.6659
##END=



