##NAMES=Aluminium
##RRUFFID=R070230
##IDEAL CHEMISTRY=Al
##LOCALITY=Mud Volcano, Bulla Apsheren penninsula, Caspian Sea, Qobustan (Gobustan; Kobustan) Rayonu, Azerbaijan
##OWNER=Michael Scott
##SOURCE=Michael Scott
##DESCRIPTION=Metallic gray blebs in matrix embedded in epoxy, no Raman activity because of crystal symmetry
##STATUS=The identification of this mineral is not yet confirmed.
##URL=rruff.info/R070230
129.6975, 2055.673
130.1796, 2168.631
130.6617, 2288.407
131.1439, 2397.284
131.6260, 2486.254
132.1081, 2553.536
132.5902, 2584.494
133.0723, 2543.229
133.5544, 2499.932
134.0366, 2462.126
134.5187, 2431.682
135.0008, 2410.852
135.4829, 2402.718
135.9650, 2406.129
136.4471, 2395.011
136.9293, 2354.035
137.4114, 2315.726
137.8935, 2284.866
138.3756, 2264.077
138.8577, 2257.017
139.3398, 2267.279
139.8220, 2295.148
140.3041, 2326.708
140.7862, 2357.864
141.2683, 2395.399
141.7504, 2441.331
142.2325, 2495.880
142.7147, 2559.484
143.1968, 2634.271
143.6789, 2720.303
144.1610, 2802.738
144.6431, 2882.673
145.1252, 2958.325
145.6074, 3026.036
146.0895, 3087.023
146.5716, 3149.513
147.0537, 3222.932
147.5358, 3306.394
148.0179, 3371.344
148.5001, 3417.827
148.9822, 3446.421
149.4643, 3450.815
149.9464, 3432.126
150.4285, 3411.340
150.9106, 3408.091
151.3928, 3419.778
151.8749, 3417.355
152.3570, 3397.244
152.8391, 3363.496
153.3212, 3314.663
153.8033, 3250.207
154.2855, 3185.847
154.7676, 3133.739
155.2497, 3092.106
155.7318, 3053.871
156.2139, 3013.845
156.6960, 2978.757
157.1782, 2958.765
157.6603, 2956.028
158.1424, 2957.092
158.6245, 2951.917
159.1066, 2942.656
159.5887, 2934.306
160.0709, 2926.085
160.5530, 2920.237
161.0351, 2921.558
161.5172, 2931.943
161.9993, 2942.745
162.4814, 2948.738
162.9636, 2950.775
163.4457, 2949.441
163.9278, 2938.793
164.4099, 2926.556
164.8920, 2930.542
165.3741, 2958.218
165.8563, 2980.972
166.3384, 2974.988
166.8205, 2952.696
167.3026, 2934.457
167.7847, 2931.186
168.2668, 2936.265
168.7490, 2934.339
169.2311, 2921.613
169.7132, 2910.494
170.1953, 2910.193
170.6774, 2915.303
171.1595, 2917.563
171.6417, 2913.610
172.1238, 2904.222
172.6059, 2889.810
173.0880, 2865.870
173.5701, 2846.197
174.0522, 2839.625
174.5344, 2840.023
175.0165, 2838.693
175.4986, 2830.488
175.9807, 2818.362
176.4628, 2811.158
176.9449, 2813.121
177.4271, 2812.042
177.9092, 2799.487
178.3913, 2782.404
178.8734, 2771.031
179.3555, 2772.315
179.8376, 2780.586
180.3197, 2777.454
180.8019, 2752.669
181.2840, 2734.833
181.7661, 2736.326
182.2482, 2747.696
182.7303, 2757.654
183.2124, 2760.827
183.6946, 2758.984
184.1767, 2757.177
184.6588, 2756.269
185.1409, 2753.743
185.6230, 2747.535
186.1051, 2740.141
186.5873, 2734.867
187.0694, 2733.671
187.5515, 2734.271
188.0336, 2729.891
188.5157, 2715.766
188.9978, 2705.017
189.4800, 2700.729
189.9621, 2700.561
190.4442, 2703.201
190.9263, 2708.470
191.4084, 2713.854
191.8905, 2712.248
192.3727, 2696.476
192.8548, 2686.648
193.3369, 2688.316
193.8190, 2695.407
194.3011, 2703.436
194.7832, 2710.717
195.2654, 2715.567
195.7475, 2713.060
196.2296, 2695.156
196.7117, 2685.268
197.1938, 2692.583
197.6759, 2704.429
198.1581, 2709.519
198.6402, 2704.123
199.1223, 2693.175
199.6044, 2686.042
200.0865, 2685.965
200.5686, 2683.181
201.0508, 2672.629
201.5329, 2662.060
202.0150, 2658.833
202.4971, 2664.535
202.9792, 2673.363
203.4613, 2675.427
203.9435, 2666.140
204.4256, 2660.377
204.9077, 2662.825
205.3898, 2665.721
205.8719, 2663.957
206.3540, 2656.478
206.8362, 2645.476
207.3183, 2632.949
207.8004, 2616.579
208.2825, 2605.135
208.7646, 2604.227
209.2467, 2603.343
209.7289, 2594.206
210.2110, 2577.201
210.6931, 2560.552
211.1752, 2554.543
211.6573, 2562.587
212.1395, 2569.014
212.6216, 2572.285
213.1037, 2575.344
213.5858, 2580.147
214.0679, 2586.320
214.5500, 2591.851
215.0322, 2594.636
215.5143, 2594.285
215.9964, 2593.658
216.4785, 2595.275
216.9606, 2594.303
217.4427, 2587.239
217.9249, 2575.604
218.4070, 2563.410
218.8891, 2553.243
219.3712, 2544.976
219.8533, 2543.400
220.3354, 2554.152
220.8176, 2566.555
221.2997, 2582.240
221.7818, 2597.364
222.2639, 2604.517
222.7460, 2597.084
223.2281, 2576.965
223.7103, 2565.305
224.1924, 2569.534
224.6745, 2574.879
225.1566, 2581.109
225.6387, 2585.980
226.1208, 2585.533
226.6030, 2576.670
227.0851, 2562.648
227.5672, 2557.952
228.0493, 2576.485
228.5314, 2585.353
229.0135, 2568.969
229.4957, 2544.254
229.9778, 2532.636
230.4599, 2544.219
230.9420, 2567.752
231.4241, 2574.358
231.9062, 2549.839
232.3884, 2532.371
232.8705, 2530.275
233.3526, 2534.361
233.8347, 2536.781
234.3168, 2534.936
234.7989, 2531.315
235.2811, 2530.075
235.7632, 2531.671
236.2453, 2534.746
236.7274, 2542.683
237.2095, 2549.511
237.6916, 2549.927
238.1738, 2543.506
238.6559, 2535.527
239.1380, 2533.203
239.6201, 2538.875
240.1022, 2541.484
240.5843, 2536.002
241.0665, 2531.182
241.5486, 2531.149
242.0307, 2536.041
242.5128, 2543.720
242.9949, 2553.665
243.4770, 2566.527
243.9592, 2573.753
244.4413, 2568.592
244.9234, 2563.948
245.4055, 2566.787
245.8876, 2574.387
246.3697, 2579.120
246.8519, 2574.788
247.3340, 2562.415
247.8161, 2550.805
248.2982, 2534.171
248.7803, 2526.971
249.2624, 2541.829
249.7446, 2567.165
250.2267, 2583.464
250.7088, 2577.967
251.1909, 2559.318
251.6730, 2553.245
252.1551, 2566.086
252.6373, 2578.906
253.1194, 2587.080
253.6015, 2591.510
254.0836, 2592.188
254.5657, 2588.446
255.0478, 2583.498
255.5300, 2583.064
256.0121, 2588.661
256.4942, 2593.018
256.9763, 2594.181
257.4584, 2593.198
257.9406, 2589.028
258.4227, 2581.249
258.9048, 2575.583
259.3869, 2581.060
259.8690, 2598.476
260.3511, 2608.133
260.8333, 2599.222
261.3154, 2587.543
261.7975, 2584.368
262.2796, 2589.902
262.7617, 2598.031
263.2438, 2606.973
263.7260, 2615.765
264.2081, 2617.633
264.6902, 2607.178
265.1723, 2596.962
265.6544, 2597.059
266.1365, 2605.016
266.6187, 2612.959
267.1008, 2617.314
267.5829, 2619.127
268.0650, 2620.979
268.5471, 2623.569
269.0292, 2624.114
269.5114, 2618.638
269.9935, 2609.941
270.4756, 2602.534
270.9577, 2596.958
271.4398, 2593.653
271.9219, 2594.491
272.4041, 2599.638
272.8862, 2603.047
273.3683, 2600.132
273.8504, 2594.303
274.3325, 2592.240
274.8146, 2595.580
275.2968, 2600.280
275.7789, 2605.833
276.2610, 2611.124
276.7431, 2610.415
277.2252, 2598.915
277.7073, 2584.253
278.1895, 2579.918
278.6716, 2587.627
279.1537, 2594.866
279.6358, 2598.133
280.1179, 2597.788
280.6000, 2593.209
281.0822, 2583.618
281.5643, 2573.649
282.0464, 2568.520
282.5285, 2568.390
283.0106, 2571.376
283.4927, 2582.023
283.9749, 2592.710
284.4570, 2595.951
284.9391, 2591.440
285.4212, 2584.120
285.9033, 2576.910
286.3854, 2570.125
286.8676, 2568.423
287.3497, 2580.552
287.8318, 2588.857
288.3139, 2578.435
288.7960, 2556.571
289.2781, 2544.337
289.7603, 2554.838
290.2424, 2581.381
290.7245, 2595.557
291.2066, 2589.933
291.6887, 2582.166
292.1708, 2570.334
292.6530, 2559.364
293.1351, 2557.884
293.6172, 2568.646
294.0993, 2582.540
294.5814, 2582.698
295.0635, 2556.067
295.5457, 2540.300
296.0278, 2545.207
296.5099, 2553.137
296.9920, 2548.447
297.4741, 2531.521
297.9562, 2516.963
298.4384, 2521.389
298.9205, 2548.925
299.4026, 2566.803
299.8847, 2568.478
300.3668, 2567.373
300.8489, 2567.044
301.3311, 2567.531
301.8131, 2567.427
302.2953, 2565.340
302.7774, 2562.412
303.2595, 2565.150
303.7416, 2581.064
304.2237, 2591.379
304.7058, 2591.384
305.1880, 2584.882
305.6701, 2574.262
306.1522, 2560.177
306.6343, 2546.844
307.1164, 2542.256
307.5985, 2549.149
308.0807, 2554.658
308.5628, 2556.883
309.0449, 2556.718
309.5270, 2554.265
310.0091, 2549.613
310.4912, 2543.240
310.9734, 2533.142
311.4555, 2520.162
311.9376, 2514.763
312.4197, 2522.348
312.9018, 2531.026
313.3839, 2535.255
313.8661, 2534.939
314.3482, 2529.285
314.8303, 2511.811
315.3124, 2491.459
315.7945, 2486.093
316.2766, 2498.195
316.7588, 2510.916
317.2409, 2517.432
317.7230, 2517.821
318.2051, 2511.463
318.6872, 2494.739
319.1693, 2477.518
319.6515, 2466.423
320.1336, 2460.974
320.6157, 2459.556
321.0978, 2463.189
321.5799, 2468.233
322.0620, 2468.072
322.5442, 2461.766
323.0263, 2457.336
323.5084, 2458.312
323.9905, 2461.874
324.4726, 2464.515
324.9547, 2465.654
325.4369, 2466.326
325.9190, 2467.888
326.4011, 2470.500
326.8832, 2470.084
327.3653, 2462.128
327.8474, 2455.381
328.3296, 2455.787
328.8117, 2461.716
329.2938, 2468.102
329.7759, 2472.274
330.2580, 2474.146
330.7401, 2473.169
331.2223, 2466.357
331.7044, 2460.367
332.1865, 2452.759
332.6686, 2447.709
333.1507, 2452.589
333.6328, 2468.719
334.1150, 2486.445
334.5971, 2490.371
335.0792, 2473.024
335.5613, 2462.006
336.0434, 2458.722
336.5255, 2459.664
337.0077, 2447.413
337.4898, 2466.707
337.9719, 2477.627
338.4540, 2480.623
338.9361, 2451.965
339.4182, 2464.182
339.9004, 2460.018
340.3825, 2455.183
340.8646, 2473.154
341.3467, 2449.099
341.8288, 2466.708
342.3109, 2467.686
342.7931, 2476.276
343.2752, 2468.383
343.7573, 2470.152
344.2394, 2474.347
344.7215, 2466.448
345.2036, 2456.068
345.6858, 2450.582
346.1679, 2450.339
346.6500, 2452.093
347.1321, 2456.422
347.6142, 2461.159
348.0963, 2458.298
348.5785, 2443.985
349.0606, 2431.661
349.5427, 2435.424
350.0248, 2450.135
350.5069, 2460.768
350.9890, 2461.052
351.4712, 2459.247
351.9533, 2463.499
352.4354, 2472.331
352.9175, 2477.368
353.3996, 2473.600
353.8817, 2464.836
354.3639, 2461.737
354.8460, 2468.676
355.3281, 2471.016
355.8102, 2461.175
356.2923, 2446.983
356.7744, 2436.978
357.2566, 2433.113
357.7387, 2434.323
358.2208, 2440.268
358.7029, 2452.701
359.1850, 2459.874
359.6671, 2457.973
360.1493, 2455.425
360.6314, 2456.721
361.1135, 2460.310
361.5956, 2462.096
362.0777, 2459.522
362.5598, 2453.884
363.0420, 2449.727
363.5241, 2446.209
364.0062, 2445.863
364.4883, 2453.348
364.9704, 2461.045
365.4525, 2461.318
365.9347, 2453.093
366.4168, 2443.095
366.8989, 2439.154
367.3810, 2441.641
367.8631, 2443.691
368.3452, 2446.547
368.8274, 2446.943
369.3095, 2440.784
369.7916, 2431.072
370.2737, 2424.892
370.7558, 2425.565
371.2379, 2431.635
371.7201, 2443.044
372.2022, 2460.804
372.6843, 2473.927
373.1664, 2476.325
373.6485, 2471.897
374.1306, 2466.835
374.6128, 2461.070
375.0949, 2455.552
375.5770, 2446.932
376.0591, 2439.585
376.5412, 2445.018
377.0233, 2466.917
377.5055, 2491.237
377.9876, 2503.991
378.4697, 2503.712
378.9518, 2501.490
379.4339, 2497.564
379.9160, 2491.600
380.3982, 2481.083
380.8803, 2468.160
381.3624, 2458.721
381.8445, 2456.126
382.3266, 2458.529
382.8087, 2460.355
383.2909, 2461.073
383.7730, 2461.848
384.2551, 2464.513
384.7372, 2466.082
385.2193, 2462.995
385.7014, 2455.376
386.1836, 2447.083
386.6657, 2440.967
387.1478, 2436.708
387.6299, 2441.705
388.1120, 2469.526
388.5941, 2490.887
389.0763, 2495.365
389.5584, 2487.632
390.0405, 2473.323
390.5226, 2452.302
391.0047, 2432.987
391.4868, 2431.263
391.9690, 2449.286
392.4511, 2464.708
392.9332, 2473.578
393.4153, 2475.422
393.8974, 2467.111
394.3795, 2448.908
394.8617, 2435.431
395.3438, 2435.848
395.8259, 2444.839
396.3080, 2455.130
396.7901, 2466.307
397.2722, 2474.920
397.7544, 2477.901
398.2365, 2476.090
398.7186, 2475.096
399.2007, 2477.337
399.6828, 2477.710
400.1649, 2471.756
400.6471, 2463.209
401.1292, 2459.338
401.6113, 2462.548
402.0934, 2467.147
402.5755, 2463.866
403.0576, 2446.903
403.5398, 2440.261
404.0219, 2454.774
404.5040, 2468.026
404.9861, 2465.410
405.4682, 2451.711
405.9503, 2440.488
406.4325, 2440.276
406.9146, 2448.939
407.3967, 2460.370
407.8788, 2480.354
408.3609, 2490.806
408.8430, 2478.311
409.3252, 2462.308
409.8073, 2459.148
410.2894, 2470.897
410.7715, 2485.746
411.2536, 2494.821
411.7357, 2498.642
412.2179, 2498.689
412.7000, 2493.281
413.1821, 2488.370
413.6642, 2490.143
414.1463, 2495.224
414.6284, 2496.584
415.1106, 2489.464
415.5927, 2482.518
416.0748, 2483.778
416.5569, 2490.589
417.0390, 2493.271
417.5211, 2487.217
418.0033, 2481.017
418.4854, 2490.104
418.9675, 2524.136
419.4496, 2539.053
419.9317, 2517.330
420.4138, 2489.078
420.8960, 2470.143
421.3781, 2462.422
421.8602, 2466.879
422.3423, 2486.096
422.8244, 2513.694
423.3065, 2521.084
423.7887, 2487.761
424.2708, 2466.039
424.7529, 2465.110
425.2350, 2474.193
425.7171, 2488.771
426.1992, 2506.063
426.6814, 2518.538
427.1635, 2517.001
427.6456, 2502.679
428.1277, 2490.115
428.6098, 2478.921
429.0919, 2470.336
429.5741, 2464.308
430.0562, 2461.305
430.5383, 2462.793
431.0204, 2470.264
431.5025, 2479.796
431.9846, 2490.237
432.4668, 2500.402
432.9489, 2505.083
433.4310, 2501.845
433.9131, 2496.559
434.3952, 2496.223
434.8773, 2501.404
435.3595, 2506.033
435.8416, 2511.009
436.3237, 2514.249
436.8058, 2513.271
437.2879, 2509.496
437.7701, 2506.222
438.2522, 2505.055
438.7343, 2505.976
439.2164, 2509.567
439.6985, 2522.203
440.1806, 2525.692
440.6628, 2510.642
441.1449, 2494.963
441.6270, 2490.458
442.1091, 2496.539
442.5912, 2505.704
443.0733, 2513.180
443.5555, 2519.006
444.0376, 2523.020
444.5197, 2524.523
445.0018, 2526.195
445.4839, 2530.408
445.9660, 2534.582
446.4482, 2537.041
446.9303, 2537.983
447.4124, 2533.876
447.8945, 2512.648
448.3766, 2486.758
448.8587, 2487.697
449.3409, 2521.519
449.8230, 2555.510
450.3051, 2563.563
450.7872, 2547.927
451.2693, 2536.790
451.7514, 2533.031
452.2336, 2530.040
452.7157, 2522.886
453.1978, 2516.219
453.6799, 2518.791
454.1620, 2532.420
454.6441, 2547.862
455.1263, 2552.860
455.6084, 2545.482
456.0905, 2538.611
456.5726, 2528.822
457.0547, 2523.309
457.5368, 2529.259
458.0190, 2539.797
458.5011, 2543.099
458.9832, 2533.228
459.4653, 2519.084
459.9474, 2513.745
460.4295, 2517.367
460.9117, 2520.609
461.3938, 2522.292
461.8759, 2522.264
462.3580, 2518.298
462.8401, 2511.677
463.3222, 2509.787
463.8044, 2516.302
464.2865, 2527.063
464.7686, 2541.532
465.2507, 2557.751
465.7328, 2568.223
466.2149, 2569.269
466.6971, 2564.330
467.1792, 2559.827
467.6613, 2555.180
468.1434, 2552.394
468.6255, 2552.706
469.1076, 2553.757
469.5898, 2556.255
470.0719, 2558.334
470.5540, 2554.447
471.0361, 2539.696
471.5182, 2520.367
472.0003, 2517.270
472.4825, 2539.962
472.9646, 2552.813
473.4467, 2538.544
473.9288, 2518.776
474.4109, 2504.434
474.8930, 2496.989
475.3752, 2497.303
475.8573, 2513.479
476.3394, 2534.713
476.8215, 2540.156
477.3036, 2529.200
477.7857, 2519.598
478.2679, 2521.132
478.7500, 2528.848
479.2321, 2529.380
479.7142, 2516.027
480.1963, 2512.868
480.6784, 2537.195
481.1606, 2565.135
481.6427, 2573.710
482.1248, 2562.876
482.6069, 2546.281
483.0890, 2533.151
483.5711, 2523.834
484.0533, 2520.133
484.5354, 2523.721
485.0175, 2530.609
485.4996, 2544.715
485.9817, 2558.309
486.4638, 2563.834
486.9460, 2561.293
487.4281, 2558.247
487.9102, 2563.044
488.3923, 2571.773
488.8744, 2571.152
489.3565, 2559.462
489.8387, 2547.622
490.3208, 2539.570
490.8029, 2535.841
491.2850, 2537.509
491.7671, 2547.228
492.2492, 2554.603
492.7314, 2554.603
493.2135, 2551.250
493.6956, 2550.081
494.1777, 2550.996
494.6598, 2547.570
495.1419, 2533.124
495.6241, 2511.352
496.1062, 2506.486
496.5883, 2537.478
497.0704, 2559.101
497.5525, 2560.893
498.0346, 2556.237
498.5168, 2555.604
498.9989, 2560.387
499.4810, 2566.230
499.9631, 2568.706
500.4452, 2569.407
500.9273, 2575.882
501.4095, 2590.478
501.8916, 2600.815
502.3737, 2599.808
502.8558, 2592.213
503.3379, 2585.679
503.8200, 2580.460
504.3022, 2575.872
504.7843, 2571.768
505.2664, 2568.117
505.7485, 2564.654
506.2306, 2561.510
506.7127, 2559.305
507.1949, 2558.165
507.6770, 2558.675
508.1591, 2563.616
508.6412, 2580.701
509.1233, 2590.773
509.6054, 2585.978
510.0876, 2579.429
510.5697, 2583.144
511.0518, 2595.475
511.5339, 2603.971
512.0161, 2597.653
512.4982, 2582.392
512.9803, 2574.330
513.4624, 2574.454
513.9445, 2576.192
514.4266, 2577.515
514.9088, 2579.248
515.3909, 2584.000
515.8730, 2592.501
516.3551, 2595.109
516.8372, 2581.646
517.3193, 2566.391
517.8015, 2564.527
518.2836, 2573.696
518.7657, 2581.004
519.2478, 2579.410
519.7299, 2572.753
520.2120, 2570.330
520.6942, 2575.610
521.1763, 2578.513
521.6584, 2576.813
522.1405, 2575.099
522.6226, 2577.662
523.1047, 2582.246
523.5869, 2582.446
524.0690, 2573.647
524.5511, 2561.615
525.0332, 2554.985
525.5153, 2553.750
525.9974, 2557.535
526.4796, 2569.258
526.9617, 2581.111
527.4438, 2583.764
527.9259, 2578.335
528.4080, 2572.988
528.8901, 2564.086
529.3723, 2560.271
529.8544, 2570.771
530.3365, 2589.264
530.8186, 2603.870
531.3007, 2610.541
531.7828, 2612.226
532.2650, 2613.147
532.7471, 2613.897
533.2292, 2609.984
533.7113, 2591.854
534.1934, 2580.206
534.6755, 2587.028
535.1577, 2601.735
535.6398, 2609.436
536.1219, 2605.434
536.6040, 2598.590
537.0861, 2596.924
537.5682, 2599.045
538.0504, 2601.256
538.5325, 2603.496
539.0146, 2602.579
539.4967, 2593.999
539.9788, 2580.534
540.4609, 2576.053
540.9431, 2587.781
541.4252, 2597.467
541.9073, 2597.510
542.3894, 2596.399
542.8715, 2605.115
543.3536, 2622.492
543.8358, 2635.624
544.3179, 2632.434
544.8000, 2618.482
545.2821, 2620.729
545.7642, 2648.712
546.2463, 2666.685
546.7285, 2658.085
547.2106, 2641.412
547.6927, 2628.796
548.1748, 2620.937
548.6569, 2616.669
549.1390, 2615.380
549.6211, 2617.597
550.1032, 2628.102
550.5853, 2643.771
551.0674, 2649.412
551.5496, 2637.632
552.0317, 2620.305
552.5138, 2617.274
552.9959, 2634.743
553.4780, 2645.587
553.9601, 2643.689
554.4423, 2642.748
554.9244, 2648.738
555.4065, 2659.169
555.8886, 2671.011
556.3707, 2683.360
556.8528, 2692.169
557.3350, 2691.759
557.8171, 2682.938
558.2992, 2670.241
558.7813, 2650.709
559.2634, 2638.315
559.7455, 2646.907
560.2277, 2669.383
560.7098, 2681.959
561.1919, 2679.661
561.6740, 2675.940
562.1561, 2673.663
562.6382, 2672.841
563.1204, 2674.188
563.6025, 2677.253
564.0846, 2680.142
564.5667, 2681.606
565.0488, 2681.612
565.5309, 2679.912
566.0131, 2675.884
566.4952, 2671.691
566.9773, 2662.631
567.4594, 2657.800
567.9415, 2668.899
568.4236, 2691.290
568.9058, 2703.398
569.3879, 2686.005
569.8700, 2663.517
570.3521, 2662.969
570.8342, 2678.472
571.3163, 2690.263
571.7985, 2692.230
572.2806, 2689.685
572.7627, 2688.916
573.2448, 2690.317
573.7269, 2689.686
574.2090, 2689.557
574.6912, 2684.471
575.1733, 2665.546
575.6554, 2644.891
576.1375, 2636.952
576.6196, 2644.372
577.1017, 2656.610
577.5839, 2665.829
578.0660, 2672.201
578.5481, 2674.906
579.0302, 2661.948
579.5123, 2681.222
579.9944, 2692.122
580.4766, 2695.098
580.9587, 2666.420
581.4408, 2678.617
581.9229, 2674.433
582.4050, 2669.578
582.8871, 2687.528
583.3693, 2663.454
583.8514, 2681.043
584.3335, 2682.001
584.8156, 2690.570
585.2977, 2682.657
585.7798, 2679.835
586.2620, 2693.501
586.7441, 2698.037
587.2262, 2688.227
587.7083, 2676.815
588.1904, 2687.890
588.6725, 2701.141
589.1547, 2702.068
589.6368, 2682.485
590.1189, 2667.238
590.6010, 2673.512
591.0831, 2688.003
591.5652, 2691.653
592.0474, 2684.865
592.5295, 2683.608
593.0116, 2699.892
593.4937, 2724.976
593.9758, 2730.445
594.4579, 2705.225
594.9401, 2686.684
595.4222, 2681.297
595.9043, 2680.344
596.3864, 2681.648
596.8685, 2683.993
597.3506, 2684.959
597.8328, 2682.853
598.3149, 2680.658
598.7970, 2681.098
599.2791, 2683.551
599.7612, 2687.194
600.2433, 2691.893
600.7255, 2694.260
601.2076, 2689.938
601.6897, 2680.816
602.1718, 2682.531
602.6539, 2713.018
603.1360, 2729.643
603.6182, 2719.366
604.1003, 2702.121
604.5824, 2690.651
605.0645, 2686.183
605.5466, 2685.489
606.0287, 2686.598
606.5109, 2690.584
606.9930, 2704.024
607.4751, 2724.391
607.9572, 2728.421
608.4393, 2706.636
608.9214, 2681.898
609.4036, 2678.216
609.8857, 2695.719
610.3678, 2706.242
610.8499, 2706.876
611.3320, 2704.928
611.8141, 2695.782
612.2963, 2688.797
612.7784, 2699.209
613.2605, 2724.320
613.7426, 2740.933
614.2247, 2727.093
614.7068, 2696.034
615.1890, 2680.502
615.6711, 2681.058
616.1532, 2685.401
616.6353, 2692.237
617.1174, 2697.621
617.5995, 2696.064
618.0817, 2687.387
618.5638, 2680.834
619.0459, 2673.347
619.5280, 2671.968
620.0101, 2684.631
620.4922, 2702.369
620.9744, 2714.126
621.4565, 2717.881
621.9386, 2719.092
622.4207, 2724.123
622.9028, 2729.921
623.3849, 2721.037
623.8671, 2678.081
624.3492, 2696.891
624.8313, 2707.327
625.3134, 2709.839
625.7955, 2680.697
626.2776, 2692.430
626.7598, 2687.782
627.2419, 2682.463
627.7240, 2699.949
628.2061, 2675.411
628.6882, 2692.536
629.1703, 2693.030
629.6525, 2701.135
630.1346, 2692.758
630.6167, 2689.472
631.0988, 2702.673
631.5809, 2706.745
632.0630, 2696.471
632.5452, 2705.060
633.0273, 2679.946
633.5094, 2684.407
633.9915, 2701.628
634.4736, 2698.240
634.9557, 2703.757
635.4379, 2692.960
635.9200, 2683.731
636.4021, 2690.090
636.8842, 2703.123
637.3663, 2707.477
637.8484, 2700.205
638.3306, 2691.437
638.8127, 2691.979
639.2948, 2699.685
639.7769, 2700.560
640.2590, 2692.116
640.7411, 2685.758
641.2233, 2685.926
641.7054, 2688.398
642.1875, 2688.106
642.6696, 2685.438
643.1517, 2685.568
643.6339, 2689.167
644.1160, 2696.241
644.5981, 2713.886
645.0802, 2732.219
645.5623, 2732.450
646.0444, 2712.916
646.5266, 2693.182
647.0087, 2692.649
647.4908, 2706.430
647.9729, 2710.211
648.4550, 2700.429
648.9371, 2695.359
649.4193, 2704.517
649.9014, 2714.650
650.3835, 2710.046
650.8656, 2693.384
651.3477, 2683.826
651.8298, 2692.318
652.3120, 2699.741
652.7941, 2692.733
653.2762, 2681.450
653.7583, 2682.403
654.2404, 2696.052
654.7225, 2706.360
655.2047, 2698.715
655.6868, 2680.101
656.1689, 2674.169
656.6510, 2682.645
657.1331, 2694.167
657.6152, 2710.875
658.0974, 2723.498
658.5795, 2721.699
659.0616, 2708.051
659.5437, 2693.226
660.0258, 2666.868
660.5079, 2653.472
660.9901, 2677.024
661.4722, 2707.664
661.9543, 2708.161
662.4364, 2681.564
662.9185, 2661.235
663.4006, 2670.477
663.8828, 2696.241
664.3649, 2711.258
664.8470, 2715.260
665.3291, 2716.087
665.8112, 2712.313
666.2933, 2712.226
666.7755, 2727.231
667.2576, 2751.105
667.7397, 2757.093
668.2218, 2732.154
668.7039, 2710.735
669.1860, 2697.188
669.6682, 2691.437
670.1503, 2695.688
670.6324, 2707.551
671.1145, 2722.416
671.5966, 2738.694
672.0787, 2752.359
672.5609, 2757.008
673.0430, 2753.591
673.5251, 2748.586
674.0072, 2742.400
674.4893, 2735.041
674.9714, 2723.947
675.4536, 2713.668
675.9357, 2717.305
676.4178, 2746.465
676.8999, 2764.089
677.3820, 2763.075
677.8641, 2756.620
678.3463, 2749.411
678.8284, 2742.244
679.3105, 2733.518
679.7926, 2722.760
680.2747, 2718.018
680.7568, 2733.004
681.2390, 2758.158
681.7211, 2770.753
682.2032, 2770.135
682.6853, 2762.675
683.1674, 2749.714
683.6495, 2735.616
684.1317, 2726.980
684.6138, 2724.375
685.0959, 2724.401
685.5780, 2729.269
686.0601, 2734.156
686.5422, 2740.868
687.0244, 2745.239
687.5065, 2741.359
687.9886, 2729.298
688.4707, 2717.767
688.9528, 2704.364
689.4349, 2699.592
689.9171, 2727.088
690.3992, 2773.164
690.8813, 2794.296
691.3634, 2779.098
691.8455, 2755.328
692.3276, 2751.222
692.8098, 2763.966
693.2919, 2768.814
693.7740, 2763.629
694.2561, 2755.109
694.7382, 2737.917
695.2203, 2723.703
695.7025, 2722.666
696.1846, 2731.667
696.6667, 2738.395
697.1488, 2737.203
697.6309, 2737.041
698.1130, 2741.856
698.5952, 2750.841
699.0773, 2766.841
699.5594, 2786.976
700.0415, 2800.133
700.5236, 2799.244
701.0057, 2788.816
701.4879, 2775.352
701.9700, 2758.219
702.4521, 2751.095
702.9342, 2756.848
703.4163, 2768.871
703.8984, 2788.241
704.3806, 2809.256
704.8627, 2818.563
705.3448, 2814.623
705.8269, 2804.532
706.3090, 2776.454
706.7911, 2755.201
707.2733, 2761.809
707.7554, 2783.409
708.2375, 2797.604
708.7196, 2797.697
709.2017, 2793.824
709.6838, 2796.999
710.1660, 2803.181
710.6481, 2800.161
711.1302, 2788.479
711.6123, 2780.443
712.0944, 2780.904
712.5765, 2784.602
713.0587, 2785.327
713.5408, 2783.007
714.0229, 2779.083
714.5050, 2764.802
714.9871, 2761.254
715.4692, 2783.687
715.9514, 2808.500
716.4335, 2815.603
716.9156, 2806.671
717.3977, 2796.683
717.8798, 2790.379
718.3619, 2786.856
718.8441, 2787.042
719.3262, 2788.868
719.8083, 2787.333
720.2904, 2782.824
720.7725, 2782.354
721.2546, 2791.159
721.7368, 2804.846
722.2189, 2813.116
722.7010, 2815.597
723.1831, 2814.634
723.6652, 2807.962
724.1473, 2802.669
724.6295, 2804.061
725.1116, 2809.008
725.5937, 2811.533
726.0758, 2812.083
726.5579, 2808.442
727.0400, 2797.302
727.5222, 2784.808
728.0043, 2768.568
728.4864, 2755.680
728.9685, 2760.002
729.4506, 2783.679
729.9327, 2809.226
730.4149, 2822.992
730.8970, 2826.433
731.3791, 2819.412
731.8612, 2803.292
732.3433, 2791.289
732.8254, 2787.447
733.3076, 2786.986
733.7897, 2784.639
734.2718, 2780.938
734.7539, 2783.052
735.2360, 2795.286
735.7181, 2806.211
736.2003, 2815.455
736.6824, 2822.280
737.1645, 2825.739
737.6466, 2826.454
738.1287, 2826.324
738.6108, 2826.769
739.0930, 2824.184
739.5751, 2814.989
740.0572, 2802.716
740.5393, 2787.766
741.0214, 2773.461
741.5035, 2769.394
741.9857, 2780.166
742.4678, 2797.217
742.9499, 2810.504
743.4320, 2819.766
743.9141, 2819.296
744.3962, 2806.110
744.8784, 2800.410
745.3605, 2814.586
745.8426, 2832.902
746.3247, 2832.231
746.8068, 2809.477
747.2889, 2796.774
747.7711, 2796.353
748.2532, 2802.301
748.7353, 2822.990
749.2174, 2842.209
749.6995, 2841.430
750.1816, 2824.485
750.6638, 2813.251
751.1459, 2821.869
751.6280, 2832.494
752.1101, 2824.950
752.5922, 2809.023
753.0743, 2804.176
753.5565, 2811.444
754.0386, 2820.333
754.5207, 2824.968
755.0028, 2825.716
755.4849, 2821.375
755.9670, 2810.583
756.4492, 2808.316
756.9313, 2817.408
757.4134, 2828.834
757.8955, 2841.386
758.3776, 2852.215
758.8597, 2856.837
759.3419, 2855.137
759.8240, 2850.381
760.3061, 2837.732
760.7882, 2828.142
761.2703, 2827.638
761.7524, 2830.995
762.2346, 2834.700
762.7167, 2836.904
763.1988, 2832.920
763.6809, 2814.608
764.1630, 2798.780
764.6451, 2811.409
765.1273, 2840.491
765.6094, 2855.631
766.0915, 2853.370
766.5736, 2846.773
767.0557, 2843.534
767.5378, 2842.491
768.0200, 2841.671
768.5021, 2841.617
768.9842, 2837.938
769.4663, 2827.806
769.9484, 2819.904
770.4305, 2817.144
770.9127, 2819.309
771.3948, 2827.376
771.8769, 2841.922
772.3590, 2853.854
772.8411, 2864.662
773.3232, 2869.563
773.8054, 2861.549
774.2875, 2850.114
774.7696, 2844.188
775.2517, 2844.956
775.7338, 2851.034
776.2159, 2865.145
776.6981, 2876.832
777.1802, 2870.527
777.6623, 2853.771
778.1444, 2842.507
778.6265, 2838.948
779.1086, 2843.456
779.5908, 2857.248
780.0729, 2871.942
780.5550, 2869.037
781.0371, 2845.482
781.5192, 2835.861
782.0013, 2844.322
782.4835, 2856.057
782.9656, 2868.850
783.4477, 2879.028
783.9298, 2880.158
784.4119, 2871.994
784.8940, 2867.187
785.3762, 2868.960
785.8583, 2870.662
786.3404, 2870.756
786.8225, 2869.856
787.3046, 2869.277
787.7867, 2868.256
788.2689, 2863.557
788.7510, 2852.057
789.2331, 2842.333
789.7152, 2843.756
790.1973, 2850.484
790.6794, 2853.962
791.1616, 2853.709
791.6437, 2849.855
792.1258, 2842.430
792.6079, 2838.927
793.0900, 2854.121
793.5721, 2884.291
794.0543, 2886.621
794.5364, 2854.197
795.0185, 2840.331
795.5006, 2868.983
795.9827, 2901.973
796.4648, 2898.292
796.9470, 2862.701
797.4291, 2846.630
797.9112, 2870.789
798.3933, 2884.996
798.8754, 2881.440
799.3575, 2872.995
799.8397, 2861.997
800.3218, 2852.902
800.8039, 2855.128
801.2860, 2873.062
801.7681, 2886.214
802.2502, 2877.700
802.7324, 2865.745
803.2145, 2868.884
803.6966, 2880.465
804.1787, 2886.368
804.6608, 2883.313
805.1429, 2877.772
805.6251, 2875.144
806.1072, 2873.701
806.5893, 2867.287
807.0714, 2857.491
807.5535, 2858.992
808.0356, 2875.091
808.5178, 2888.784
808.9999, 2888.077
809.4820, 2878.931
809.9641, 2876.506
810.4462, 2882.882
810.9283, 2888.326
811.4105, 2892.087
811.8926, 2896.289
812.3747, 2907.883
812.8568, 2916.162
813.3389, 2903.886
813.8210, 2871.214
814.3032, 2851.434
814.7853, 2857.821
815.2674, 2867.153
815.7495, 2875.532
816.2316, 2880.309
816.7137, 2877.125
817.1959, 2868.367
817.6780, 2860.077
818.1601, 2853.514
818.6422, 2854.108
819.1243, 2877.054
819.6064, 2904.155
820.0886, 2899.762
820.5707, 2872.633
821.0528, 2862.124
821.5349, 2881.572
822.0170, 2906.835
822.4991, 2910.996
822.9813, 2899.013
823.4634, 2891.936
823.9455, 2889.949
824.4276, 2886.678
824.9097, 2878.889
825.3918, 2878.392
825.8740, 2898.076
826.3561, 2928.897
826.8382, 2939.918
827.3203, 2924.463
827.8024, 2904.292
828.2845, 2866.365
828.7667, 2839.948
829.2488, 2839.157
829.7309, 2853.052
830.2130, 2872.115
830.6951, 2895.450
831.1772, 2912.614
831.6594, 2922.977
832.1415, 2924.399
832.6236, 2903.212
833.1057, 2882.002
833.5878, 2890.549
834.0699, 2920.620
834.5521, 2938.022
835.0342, 2925.930
835.5163, 2906.791
835.9984, 2898.953
836.4805, 2898.890
836.9626, 2902.753
837.4448, 2909.086
837.9269, 2915.212
838.4090, 2920.006
838.8911, 2920.956
839.3732, 2913.969
839.8553, 2902.226
840.3375, 2898.867
840.8196, 2904.136
841.3017, 2903.212
841.7838, 2891.172
842.2659, 2885.210
842.7480, 2899.866
843.2302, 2924.817
843.7123, 2932.773
844.1944, 2915.173
844.6765, 2909.767
845.1586, 2927.525
845.6407, 2941.116
846.1229, 2936.824
846.6050, 2927.333
847.0871, 2926.013
847.5692, 2932.113
848.0513, 2933.679
848.5334, 2927.664
849.0156, 2918.861
849.4977, 2900.314
849.9798, 2886.826
850.4619, 2895.305
850.9440, 2916.674
851.4261, 2930.204
851.9083, 2929.340
852.3904, 2924.783
852.8725, 2921.612
853.3546, 2919.919
853.8367, 2919.665
854.3188, 2920.977
854.8010, 2925.658
855.2831, 2932.986
855.7652, 2936.834
856.2473, 2931.683
856.7294, 2923.498
857.2115, 2923.415
857.6937, 2929.639
858.1758, 2933.704
858.6579, 2934.939
859.1400, 2939.264
859.6221, 2950.184
860.1042, 2960.010
860.5864, 2956.134
861.0685, 2939.383
861.5506, 2933.078
862.0327, 2939.945
862.5148, 2946.580
862.9969, 2949.716
863.4791, 2952.992
863.9612, 2961.153
864.4433, 2971.249
864.9254, 2971.841
865.4075, 2952.919
865.8896, 2945.472
866.3718, 2960.767
866.8539, 2973.554
867.3360, 2971.962
867.8181, 2965.269
868.3002, 2965.034
868.7823, 2971.333
869.2645, 2973.623
869.7466, 2963.160
870.2287, 2956.088
870.7108, 2964.585
871.1929, 2974.103
871.6750, 2967.795
872.1572, 2952.404
872.6393, 2947.673
873.1214, 2960.723
873.6035, 2970.760
874.0856, 2954.581
874.5677, 2934.325
875.0499, 2937.521
875.5320, 2955.264
876.0141, 2970.438
876.4962, 2978.365
876.9783, 2976.781
877.4604, 2961.998
877.9426, 2945.810
878.4247, 2951.839
878.9068, 2972.737
879.3889, 2978.414
879.8710, 2968.351
880.3531, 2963.953
880.8353, 2974.244
881.3174, 2986.768
881.7995, 2985.998
882.2816, 2974.600
882.7637, 2970.664
883.2458, 2975.914
883.7280, 2974.442
884.2101, 2960.576
884.6922, 2950.265
885.1743, 2955.129
885.6564, 2968.739
886.1385, 2976.639
886.6207, 2976.195
887.1028, 2982.312
887.5849, 3003.417
888.0670, 3017.355
888.5491, 3013.593
889.0313, 3004.519
889.5134, 2999.190
889.9955, 2997.519
890.4776, 2999.557
890.9597, 3013.890
891.4418, 3016.363
891.9240, 2986.911
892.4061, 2963.091
892.8882, 2971.323
893.3703, 2993.646
893.8524, 3006.965
894.3345, 3007.783
894.8167, 3000.458
895.2988, 2976.742
895.7809, 2957.470
896.2630, 2958.351
896.7451, 2965.672
897.2272, 2961.512
897.7094, 2951.656
898.1915, 2957.864
898.6736, 2988.078
899.1557, 3013.642
899.6378, 3006.195
900.1199, 2985.697
900.6021, 2971.312
901.0842, 2964.781
901.5663, 2975.092
902.0484, 2998.501
902.5305, 3008.285
903.0126, 2985.801
903.4948, 2954.153
903.9769, 2944.856
904.4590, 2954.372
904.9411, 2978.954
905.4232, 3014.604
905.9053, 3034.437
906.3875, 3029.803
906.8696, 3016.447
907.3517, 3008.451
907.8338, 3005.091
908.3159, 3004.944
908.7980, 3008.044
909.2802, 3008.993
909.7623, 3006.968
910.2444, 3004.440
910.7265, 3002.056
911.2086, 3001.538
911.6907, 3005.921
912.1729, 3015.122
912.6550, 3021.826
913.1371, 3024.775
913.6192, 3030.399
914.1013, 3045.787
914.5834, 3051.638
915.0656, 3025.860
915.5477, 2987.868
916.0298, 2986.505
916.5119, 3040.826
916.9940, 3059.660
917.4761, 3009.957
917.9583, 2971.558
918.4404, 2967.147
918.9225, 2977.031
919.4046, 2992.116
919.8867, 3008.972
920.3688, 3015.249
920.8510, 3001.887
921.3331, 2996.175
921.8152, 3007.330
922.2973, 3020.779
922.7794, 3032.179
923.2615, 3040.733
923.7437, 3045.526
924.2258, 3046.756
924.7079, 3045.982
925.1900, 3043.833
925.6721, 3039.497
926.1542, 3029.341
926.6364, 3019.976
927.1185, 3016.986
927.6006, 3018.540
928.0827, 3022.054
928.5648, 3026.484
929.0469, 3028.404
929.5291, 3023.433
930.0112, 3018.122
930.4933, 3016.872
930.9754, 3018.426
931.4575, 3019.536
931.9396, 3022.169
932.4218, 3035.354
932.9039, 3062.021
933.3860, 3082.344
933.8681, 3074.488
934.3502, 3054.528
934.8323, 3039.786
935.3145, 3030.039
935.7966, 3025.039
936.2787, 3024.454
936.7608, 3028.704
937.2429, 3038.393
937.7250, 3046.753
938.2072, 3041.415
938.6893, 3030.277
939.1714, 3034.209
939.6535, 3049.221
940.1356, 3058.417
940.6177, 3058.155
941.0999, 3054.124
941.5820, 3050.221
942.0641, 3045.492
942.5462, 3035.944
943.0283, 3023.693
943.5104, 3021.370
943.9926, 3028.699
944.4747, 3035.149
944.9568, 3037.487
945.4389, 3037.483
945.9210, 3035.791
946.4031, 3035.097
946.8853, 3046.468
947.3674, 3069.783
947.8495, 3076.825
948.3316, 3064.175
948.8137, 3055.234
949.2958, 3060.032
949.7780, 3066.009
950.2601, 3056.955
950.7422, 3038.429
951.2243, 3042.755
951.7064, 3074.539
952.1885, 3101.155
952.6707, 3122.557
953.1528, 3124.402
953.6349, 3092.503
954.1170, 3053.749
954.5991, 3046.359
955.0812, 3068.448
955.5634, 3075.712
956.0455, 3059.965
956.5276, 3055.469
957.0097, 3072.073
957.4918, 3088.559
957.9739, 3093.832
958.4561, 3091.855
958.9382, 3088.208
959.4203, 3082.544
959.9024, 3080.052
960.3845, 3081.767
960.8666, 3084.661
961.3488, 3089.252
961.8309, 3093.740
962.3130, 3099.338
962.7951, 3102.883
963.2772, 3096.952
963.7593, 3078.908
964.2415, 3065.428
964.7236, 3052.732
965.2057, 3050.119
965.6878, 3069.929
966.1699, 3089.811
966.6520, 3094.335
967.1342, 3088.753
967.6163, 3084.559
968.0984, 3081.894
968.5805, 3081.173
969.0626, 3088.936
969.5447, 3089.896
970.0269, 3069.544
970.5090, 3050.705
970.9911, 3052.660
971.4732, 3069.677
971.9553, 3086.979
972.4374, 3106.450
972.9196, 3114.557
973.4017, 3094.632
973.8838, 3082.090
974.3659, 3101.256
974.8480, 3123.107
975.3301, 3117.578
975.8123, 3092.919
976.2944, 3078.625
976.7765, 3081.253
977.2586, 3087.878
977.7407, 3102.201
978.2228, 3111.966
978.7050, 3109.302
979.1871, 3101.414
979.6692, 3092.022
980.1513, 3083.942
980.6334, 3084.750
981.1155, 3099.389
981.5977, 3112.531
982.0798, 3120.042
982.5619, 3124.466
983.0440, 3128.535
983.5261, 3129.237
984.0082, 3120.227
984.4904, 3104.506
984.9725, 3093.850
985.4546, 3091.393
985.9367, 3094.043
986.4188, 3107.333
986.9009, 3117.924
987.3831, 3110.976
987.8652, 3101.826
988.3473, 3112.756
988.8294, 3139.720
989.3115, 3157.290
989.7936, 3155.420
990.2758, 3150.736
990.7579, 3149.139
991.2400, 3147.869
991.7221, 3143.205
992.2042, 3139.130
992.6863, 3142.681
993.1685, 3152.010
993.6506, 3156.445
994.1327, 3150.716
994.6148, 3144.873
995.0969, 3144.258
995.5790, 3144.082
996.0612, 3140.593
996.5433, 3135.939
997.0254, 3132.944
997.5075, 3131.688
997.9896, 3129.724
998.4717, 3123.210
998.9539, 3125.059
999.4360, 3156.309
999.9181, 3181.917
1000.400, 3171.820
1000.882, 3145.003
1001.364, 3122.348
1001.847, 3107.829
1002.329, 3101.960
1002.811, 3106.292
1003.293, 3114.926
1003.775, 3131.995
1004.257, 3144.998
1004.739, 3140.184
1005.221, 3129.463
1005.703, 3130.438
1006.186, 3140.874
1006.668, 3142.276
1007.150, 3123.482
1007.632, 3112.280
1008.114, 3127.756
1008.596, 3147.870
1009.078, 3160.960
1009.560, 3168.656
1010.043, 3173.013
1010.525, 3174.818
1011.007, 3174.398
1011.489, 3169.999
1011.971, 3170.368
1012.453, 3185.230
1012.935, 3199.195
1013.417, 3207.497
1013.899, 3206.422
1014.382, 3182.483
1014.864, 3145.947
1015.346, 3132.110
1015.828, 3157.057
1016.310, 3177.113
1016.792, 3171.691
1017.274, 3161.574
1017.756, 3153.490
1018.239, 3149.991
1018.721, 3154.542
1019.203, 3165.391
1019.685, 3179.276
1020.167, 3198.497
1020.649, 3205.005
1021.131, 3177.588
1021.613, 3155.233
1022.095, 3158.545
1022.578, 3172.809
1023.060, 3191.356
1023.542, 3207.713
1024.024, 3205.579
1024.506, 3176.741
1024.988, 3164.087
1025.470, 3198.958
1025.952, 3225.391
1026.435, 3215.169
1026.917, 3195.143
1027.399, 3185.140
1027.881, 3182.873
1028.363, 3180.026
1028.845, 3175.109
1029.327, 3173.525
1029.809, 3182.651
1030.292, 3186.351
1030.774, 3172.189
1031.256, 3159.373
1031.738, 3161.147
1032.220, 3173.245
1032.702, 3189.509
1033.184, 3210.244
1033.666, 3223.712
1034.148, 3227.774
1034.630, 3225.819
1035.113, 3213.743
1035.595, 3200.809
1036.077, 3191.993
1036.559, 3185.535
1037.041, 3178.475
1037.523, 3170.660
1038.005, 3165.475
1038.487, 3156.467
1038.970, 3160.759
1039.452, 3193.576
1039.934, 3221.361
1040.416, 3227.257
1040.898, 3222.424
1041.380, 3219.857
1041.862, 3219.019
1042.344, 3213.663
1042.826, 3202.774
1043.309, 3189.045
1043.791, 3166.837
1044.273, 3152.128
1044.755, 3148.693
1045.237, 3158.905
1045.719, 3192.220
1046.201, 3239.550
1046.683, 3256.922
1047.166, 3232.525
1047.648, 3218.998
1048.130, 3219.692
1048.612, 3222.701
1049.094, 3225.235
1049.576, 3226.994
1050.058, 3227.276
1050.540, 3227.162
1051.022, 3229.699
1051.505, 3235.119
1051.987, 3242.611
1052.469, 3254.217
1052.951, 3251.806
1053.433, 3227.610
1053.915, 3208.675
1054.397, 3214.046
1054.879, 3232.452
1055.361, 3244.175
1055.844, 3249.517
1056.326, 3250.836
1056.808, 3248.179
1057.290, 3251.355
1057.772, 3262.113
1058.254, 3272.236
1058.736, 3277.641
1059.218, 3277.448
1059.701, 3268.042
1060.183, 3254.090
1060.665, 3255.028
1061.147, 3266.713
1061.629, 3263.890
1062.111, 3245.873
1062.593, 3231.252
1063.075, 3227.320
1063.557, 3230.169
1064.040, 3237.999
1064.522, 3246.333
1065.004, 3246.349
1065.486, 3240.608
1065.968, 3231.756
1066.450, 3223.179
1066.932, 3228.263
1067.414, 3247.702
1067.896, 3260.006
1068.379, 3248.882
1068.861, 3230.874
1069.343, 3221.337
1069.825, 3219.015
1070.307, 3221.542
1070.789, 3230.146
1071.271, 3255.158
1071.753, 3290.248
1072.236, 3305.300
1072.718, 3284.495
1073.200, 3258.461
1073.682, 3246.676
1074.164, 3241.866
1074.646, 3240.380
1075.128, 3240.427
1075.610, 3241.121
1076.093, 3241.483
1076.575, 3237.670
1077.057, 3228.279
1077.539, 3227.536
1078.021, 3247.079
1078.503, 3269.407
1078.985, 3297.028
1079.467, 3314.106
1079.949, 3298.366
1080.432, 3268.715
1080.914, 3256.990
1081.396, 3266.115
1081.878, 3275.568
1082.360, 3280.459
1082.842, 3287.382
1083.324, 3304.551
1083.806, 3315.260
1084.288, 3307.238
1084.771, 3292.470
1085.253, 3281.243
1085.735, 3274.400
1086.217, 3276.909
1086.699, 3297.616
1087.181, 3303.241
1087.663, 3283.668
1088.145, 3269.921
1088.628, 3273.382
1089.110, 3277.939
1089.592, 3269.639
1090.074, 3257.042
1090.556, 3259.442
1091.038, 3277.422
1091.520, 3294.841
1092.002, 3313.209
1092.484, 3318.211
1092.967, 3305.025
1093.449, 3296.823
1093.931, 3306.942
1094.413, 3318.024
1094.895, 3306.073
1095.377, 3279.238
1095.859, 3266.899
1096.341, 3267.896
1096.823, 3275.238
1097.306, 3287.625
1097.788, 3299.954
1098.270, 3310.572
1098.752, 3322.455
1099.234, 3339.601
1099.716, 3352.059
1100.198, 3337.337
1100.680, 3310.700
1101.163, 3304.421
1101.645, 3312.739
1102.127, 3319.197
1102.609, 3320.759
1103.091, 3321.024
1103.573, 3321.671
1104.055, 3320.933
1104.537, 3315.413
1105.020, 3309.927
1105.502, 3307.727
1105.984, 3309.055
1106.466, 3316.065
1106.948, 3326.126
1107.430, 3333.900
1107.912, 3338.274
1108.394, 3341.623
1108.876, 3348.346
1109.359, 3349.014
1109.841, 3337.441
1110.323, 3321.783
1110.805, 3298.515
1111.287, 3279.924
1111.769, 3283.856
1112.251, 3306.705
1112.733, 3326.347
1113.215, 3342.219
1113.698, 3351.292
1114.180, 3352.058
1114.662, 3347.854
1115.144, 3330.793
1115.626, 3322.280
1116.108, 3345.770
1116.590, 3377.549
1117.072, 3369.119
1117.555, 3320.159
1118.037, 3301.175
1118.519, 3319.194
1119.001, 3325.679
1119.483, 3312.230
1119.965, 3305.972
1120.447, 3318.861
1120.929, 3340.086
1121.411, 3360.165
1121.894, 3376.177
1122.376, 3379.375
1122.858, 3371.255
1123.340, 3354.474
1123.822, 3333.019
1124.304, 3328.430
1124.786, 3343.593
1125.268, 3361.307
1125.750, 3372.199
1126.233, 3374.955
1126.715, 3358.116
1127.197, 3340.672
1127.679, 3358.639
1128.161, 3388.295
1128.643, 3388.105
1129.125, 3365.673
1129.607, 3351.455
1130.090, 3353.229
1130.572, 3358.935
1131.054, 3361.825
1131.536, 3368.480
1132.018, 3390.813
1132.500, 3408.735
1132.982, 3402.636
1133.464, 3388.594
1133.947, 3384.969
1134.429, 3391.681
1134.911, 3403.325
1135.393, 3425.884
1135.875, 3430.544
1136.357, 3395.827
1136.839, 3371.433
1137.321, 3367.574
1137.803, 3373.883
1138.286, 3390.671
1138.768, 3406.680
1139.250, 3403.289
1139.732, 3383.329
1140.214, 3373.437
1140.696, 3374.281
1141.178, 3383.441
1141.660, 3402.861
1142.142, 3401.858
1142.625, 3368.799
1143.107, 3346.467
1143.589, 3370.471
1144.071, 3412.438
1144.553, 3420.915
1145.035, 3407.895
1145.517, 3411.665
1145.999, 3425.312
1146.482, 3425.881
1146.964, 3412.563
1147.446, 3393.469
1147.928, 3373.005
1148.410, 3365.721
1148.892, 3389.144
1149.374, 3418.485
1149.856, 3433.604
1150.339, 3442.043
1150.821, 3452.369
1151.303, 3460.428
1151.785, 3457.715
1152.267, 3445.756
1152.749, 3433.994
1153.231, 3423.079
1153.713, 3419.105
1154.195, 3431.222
1154.677, 3439.596
1155.160, 3437.062
1155.642, 3430.127
1156.124, 3417.243
1156.606, 3407.308
1157.088, 3417.634
1157.570, 3444.956
1158.052, 3447.207
1158.534, 3413.961
1159.017, 3406.511
1159.499, 3433.230
1159.981, 3453.675
1160.463, 3455.661
1160.945, 3449.503
1161.427, 3441.850
1161.909, 3434.852
1162.391, 3430.550
1162.874, 3430.406
1163.356, 3444.813
1163.838, 3466.668
1164.320, 3471.887
1164.802, 3460.772
1165.284, 3443.554
1165.766, 3425.344
1166.248, 3417.432
1166.730, 3430.142
1167.213, 3448.270
1167.695, 3471.529
1168.177, 3481.920
1168.659, 3441.630
1169.141, 3394.627
1169.623, 3403.706
1170.105, 3453.970
1170.587, 3486.995
1171.069, 3490.540
1171.552, 3493.983
1172.034, 3507.079
1172.516, 3512.881
1172.998, 3504.700
1173.480, 3494.962
1173.962, 3490.131
1174.444, 3483.623
1174.926, 3464.961
1175.409, 3441.889
1175.891, 3444.328
1176.373, 3474.843
1176.855, 3495.461
1177.337, 3506.243
1177.819, 3504.239
1178.301, 3489.313
1178.783, 3477.537
1179.266, 3476.747
1179.748, 3477.250
1180.230, 3467.199
1180.712, 3455.438
1181.194, 3460.906
1181.676, 3471.711
1182.158, 3461.203
1182.640, 3442.069
1183.122, 3445.544
1183.604, 3471.160
1184.087, 3494.893
1184.569, 3508.479
1185.051, 3515.656
1185.533, 3517.050
1186.015, 3513.876
1186.497, 3499.612
1186.979, 3488.447
1187.461, 3490.675
1187.944, 3501.789
1188.426, 3519.975
1188.908, 3541.655
1189.390, 3543.606
1189.872, 3517.232
1190.354, 3500.478
1190.836, 3492.167
1191.318, 3502.443
1191.801, 3537.476
1192.283, 3562.398
1192.765, 3556.168
1193.247, 3540.360
1193.729, 3544.007
1194.211, 3554.876
1194.693, 3534.656
1195.175, 3500.367
1195.657, 3505.216
1196.140, 3535.545
1196.622, 3540.887
1197.104, 3516.993
1197.586, 3497.042
1198.068, 3495.206
1198.550, 3503.448
1199.032, 3528.319
1199.514, 3546.787
1199.996, 3539.782
1200.479, 3527.422
1200.961, 3522.036
1201.443, 3523.712
1201.925, 3535.073
1202.407, 3553.474
1202.889, 3559.802
1203.371, 3547.008
1203.853, 3545.851
1204.336, 3562.744
1204.818, 3569.835
1205.300, 3560.068
1205.782, 3545.638
1206.264, 3531.913
1206.746, 3524.025
1207.228, 3529.227
1207.710, 3542.542
1208.193, 3555.205
1208.675, 3564.462
1209.157, 3557.164
1209.639, 3540.283
1210.121, 3537.581
1210.603, 3548.604
1211.085, 3550.299
1211.567, 3533.209
1212.049, 3522.316
1212.531, 3539.960
1213.014, 3558.389
1213.496, 3559.476
1213.978, 3560.028
1214.460, 3575.875
1214.942, 3594.913
1215.424, 3602.670
1215.906, 3599.892
1216.388, 3590.848
1216.871, 3573.661
1217.353, 3561.366
1217.835, 3553.240
1218.317, 3554.801
1218.799, 3568.835
1219.281, 3577.899
1219.763, 3574.532
1220.245, 3566.638
1220.728, 3560.216
1221.210, 3558.506
1221.692, 3571.482
1222.174, 3590.720
1222.656, 3599.859
1223.138, 3601.029
1223.620, 3598.689
1224.102, 3593.575
1224.584, 3582.916
1225.067, 3567.191
1225.549, 3559.077
##END=



