##NAMES=Alum-(K)
##RRUFFID=R060528
##IDEAL CHEMISTRY=KAl(S^6+^O_4_)_2_&#183;12H_2_O
##LOCALITY=El Desierto mine fumaroles, Potos√≠, Bolivia
##OWNER=Michael Scott
##SOURCE=Michael Scott
##DESCRIPTION=Colorless thin tabular crystals associated with yellow sulfur and colorless tamarugite
##STATUS=The identification of this mineral has been confirmed by single-crystal X-ray diffraction.
##URL=rruff.info/R060528
9.059570e+001, 1.002433e+003
9.107782e+001, 1.002667e+003
9.155994e+001, 1.002798e+003
9.204205e+001, 1.003860e+003
9.252417e+001, 1.004064e+003
9.300629e+001, 1.001980e+003
9.348840e+001, 9.924818e+002
9.397052e+001, 9.712114e+002
9.445264e+001, 9.393967e+002
9.493475e+001, 9.102404e+002
9.541687e+001, 8.843179e+002
9.589898e+001, 8.621913e+002
9.638110e+001, 8.430981e+002
9.686321e+001, 8.261352e+002
9.734533e+001, 8.102366e+002
9.782745e+001, 7.943343e+002
9.830956e+001, 7.830781e+002
9.879168e+001, 7.773613e+002
9.927380e+001, 7.737733e+002
9.975591e+001, 7.720308e+002
1.002380e+002, 7.716095e+002
1.007201e+002, 7.714386e+002
1.012023e+002, 7.710339e+002
1.016844e+002, 7.702814e+002
1.021665e+002, 7.690692e+002
1.026486e+002, 7.672352e+002
1.031307e+002, 7.649568e+002
1.036128e+002, 7.621257e+002
1.040950e+002, 7.585038e+002
1.045771e+002, 7.552659e+002
1.050592e+002, 7.521741e+002
1.055413e+002, 7.497747e+002
1.060234e+002, 7.493333e+002
1.065055e+002, 7.513548e+002
1.069877e+002, 7.556970e+002
1.074698e+002, 7.621476e+002
1.079519e+002, 7.726917e+002
1.084340e+002, 7.829254e+002
1.089161e+002, 7.913594e+002
1.093982e+002, 7.980751e+002
1.098804e+002, 8.034336e+002
1.103625e+002, 8.078881e+002
1.108446e+002, 8.116317e+002
1.113267e+002, 8.131727e+002
1.118088e+002, 8.130807e+002
1.122909e+002, 8.106400e+002
1.127731e+002, 8.048947e+002
1.132552e+002, 7.960018e+002
1.137373e+002, 7.851271e+002
1.142194e+002, 7.739915e+002
1.147015e+002, 7.623324e+002
1.151836e+002, 7.506314e+002
1.156658e+002, 7.395365e+002
1.161479e+002, 7.280870e+002
1.166300e+002, 7.150352e+002
1.171121e+002, 6.998254e+002
1.175942e+002, 6.835020e+002
1.180763e+002, 6.686948e+002
1.185584e+002, 6.558292e+002
1.190406e+002, 6.431014e+002
1.195227e+002, 6.296765e+002
1.200048e+002, 6.159573e+002
1.204869e+002, 6.029794e+002
1.209690e+002, 5.914026e+002
1.214511e+002, 5.808568e+002
1.219333e+002, 5.702535e+002
1.224154e+002, 5.594326e+002
1.228975e+002, 5.488154e+002
1.233796e+002, 5.390552e+002
1.238617e+002, 5.302375e+002
1.243438e+002, 5.213126e+002
1.248260e+002, 5.117436e+002
1.253081e+002, 5.018639e+002
1.257902e+002, 4.917473e+002
1.262723e+002, 4.812751e+002
1.267544e+002, 4.708870e+002
1.272365e+002, 4.616679e+002
1.277187e+002, 4.536645e+002
1.282008e+002, 4.469293e+002
1.286829e+002, 4.417496e+002
1.291650e+002, 4.375101e+002
1.296471e+002, 4.334489e+002
1.301292e+002, 4.290841e+002
1.306114e+002, 4.244501e+002
1.310935e+002, 4.200397e+002
1.315756e+002, 4.159401e+002
1.320577e+002, 4.119731e+002
1.325398e+002, 4.081935e+002
1.330219e+002, 4.045311e+002
1.335041e+002, 4.008350e+002
1.339862e+002, 3.969001e+002
1.344683e+002, 3.925698e+002
1.349504e+002, 3.890978e+002
1.354325e+002, 3.866614e+002
1.359146e+002, 3.847368e+002
1.363968e+002, 3.831347e+002
1.368789e+002, 3.817962e+002
1.373610e+002, 3.806448e+002
1.378431e+002, 3.796390e+002
1.383252e+002, 3.788063e+002
1.388073e+002, 3.779721e+002
1.392895e+002, 3.771262e+002
1.397716e+002, 3.762704e+002
1.402537e+002, 3.754062e+002
1.407358e+002, 3.745385e+002
1.412179e+002, 3.736583e+002
1.417000e+002, 3.727173e+002
1.421821e+002, 3.717188e+002
1.426643e+002, 3.708243e+002
1.431464e+002, 3.700479e+002
1.436285e+002, 3.694174e+002
1.441106e+002, 3.690131e+002
1.445927e+002, 3.688026e+002
1.450748e+002, 3.689369e+002
1.455570e+002, 3.695512e+002
1.460391e+002, 3.706407e+002
1.465212e+002, 3.718584e+002
1.470033e+002, 3.729081e+002
1.474854e+002, 3.737693e+002
1.479675e+002, 3.746740e+002
1.484497e+002, 3.759620e+002
1.489318e+002, 3.771200e+002
1.494139e+002, 3.778491e+002
1.498960e+002, 3.780854e+002
1.503781e+002, 3.779796e+002
1.508602e+002, 3.776537e+002
1.513424e+002, 3.767734e+002
1.518245e+002, 3.764406e+002
1.523066e+002, 3.770086e+002
1.527887e+002, 3.779029e+002
1.532708e+002, 3.786599e+002
1.537529e+002, 3.791061e+002
1.542351e+002, 3.794238e+002
1.547172e+002, 3.800784e+002
1.551993e+002, 3.817505e+002
1.556814e+002, 3.829332e+002
1.561635e+002, 3.837565e+002
1.566456e+002, 3.840084e+002
1.571278e+002, 3.832911e+002
1.576099e+002, 3.813612e+002
1.580920e+002, 3.785418e+002
1.585741e+002, 3.762022e+002
1.590562e+002, 3.744987e+002
1.595383e+002, 3.730061e+002
1.600205e+002, 3.714722e+002
1.605026e+002, 3.700651e+002
1.609847e+002, 3.692082e+002
1.614668e+002, 3.692138e+002
1.619489e+002, 3.699541e+002
1.624310e+002, 3.706882e+002
1.629131e+002, 3.715276e+002
1.633953e+002, 3.722588e+002
1.638774e+002, 3.726553e+002
1.643595e+002, 3.727560e+002
1.648416e+002, 3.729322e+002
1.653237e+002, 3.734021e+002
1.658058e+002, 3.741299e+002
1.662880e+002, 3.750319e+002
1.667701e+002, 3.765647e+002
1.672522e+002, 3.779067e+002
1.677343e+002, 3.781212e+002
1.682164e+002, 3.771217e+002
1.686985e+002, 3.753995e+002
1.691807e+002, 3.729787e+002
1.696628e+002, 3.700809e+002
1.701449e+002, 3.668929e+002
1.706270e+002, 3.635456e+002
1.711091e+002, 3.599274e+002
1.715912e+002, 3.557753e+002
1.720734e+002, 3.510194e+002
1.725555e+002, 3.457847e+002
1.730376e+002, 3.398896e+002
1.735197e+002, 3.336532e+002
1.740018e+002, 3.274291e+002
1.744839e+002, 3.213202e+002
1.749661e+002, 3.154256e+002
1.754482e+002, 3.104719e+002
1.759303e+002, 3.073163e+002
1.764124e+002, 3.042229e+002
1.768945e+002, 3.006444e+002
1.773766e+002, 2.967990e+002
1.778588e+002, 2.931573e+002
1.783409e+002, 2.900638e+002
1.788230e+002, 2.875172e+002
1.793051e+002, 2.849464e+002
1.797872e+002, 2.824044e+002
1.802693e+002, 2.797824e+002
1.807515e+002, 2.768730e+002
1.812336e+002, 2.738250e+002
1.817157e+002, 2.710593e+002
1.821978e+002, 2.689947e+002
1.826799e+002, 2.677619e+002
1.831620e+002, 2.658973e+002
1.836441e+002, 2.628057e+002
1.841263e+002, 2.597550e+002
1.846084e+002, 2.574547e+002
1.850905e+002, 2.558578e+002
1.855726e+002, 2.544129e+002
1.860547e+002, 2.526234e+002
1.865368e+002, 2.504261e+002
1.870190e+002, 2.483518e+002
1.875011e+002, 2.464458e+002
1.879832e+002, 2.446418e+002
1.884653e+002, 2.429075e+002
1.889474e+002, 2.412445e+002
1.894296e+002, 2.396331e+002
1.899117e+002, 2.381052e+002
1.903938e+002, 2.366557e+002
1.908759e+002, 2.350313e+002
1.913580e+002, 2.329276e+002
1.918401e+002, 2.307719e+002
1.923223e+002, 2.291447e+002
1.928044e+002, 2.281989e+002
1.932865e+002, 2.273068e+002
1.937686e+002, 2.257009e+002
1.942507e+002, 2.236057e+002
1.947328e+002, 2.217142e+002
1.952150e+002, 2.202705e+002
1.956971e+002, 2.191600e+002
1.961792e+002, 2.182119e+002
1.966613e+002, 2.175240e+002
1.971434e+002, 2.167483e+002
1.976255e+002, 2.155880e+002
1.981077e+002, 2.141389e+002
1.985898e+002, 2.126465e+002
1.990719e+002, 2.110778e+002
1.995540e+002, 2.095210e+002
2.000361e+002, 2.084109e+002
2.005182e+002, 2.080100e+002
2.010004e+002, 2.077276e+002
2.014825e+002, 2.072629e+002
2.019646e+002, 2.066553e+002
2.024467e+002, 2.060173e+002
2.029288e+002, 2.054292e+002
2.034109e+002, 2.048858e+002
2.038930e+002, 2.043033e+002
2.043752e+002, 2.035760e+002
2.048573e+002, 2.029302e+002
2.053394e+002, 2.025380e+002
2.058215e+002, 2.023091e+002
2.063036e+002, 2.020266e+002
2.067857e+002, 2.015173e+002
2.072679e+002, 2.007744e+002
2.077500e+002, 1.999457e+002
2.082321e+002, 1.987646e+002
2.087142e+002, 1.977394e+002
2.091963e+002, 1.970611e+002
2.096784e+002, 1.966914e+002
2.101606e+002, 1.964841e+002
2.106427e+002, 1.963086e+002
2.111248e+002, 1.961507e+002
2.116069e+002, 1.961605e+002
2.120890e+002, 1.966447e+002
2.125711e+002, 1.969974e+002
2.130533e+002, 1.968728e+002
2.135354e+002, 1.963651e+002
2.140175e+002, 1.958303e+002
2.144996e+002, 1.955988e+002
2.149817e+002, 1.957226e+002
2.154638e+002, 1.958013e+002
2.159460e+002, 1.959738e+002
2.164281e+002, 1.959967e+002
2.169102e+002, 1.956954e+002
2.173923e+002, 1.951067e+002
2.178744e+002, 1.944046e+002
2.183565e+002, 1.937208e+002
2.188387e+002, 1.930470e+002
2.193208e+002, 1.925865e+002
2.198029e+002, 1.925661e+002
2.202850e+002, 1.925466e+002
2.207671e+002, 1.922821e+002
2.212492e+002, 1.917587e+002
2.217314e+002, 1.910611e+002
2.222135e+002, 1.902131e+002
2.226956e+002, 1.892074e+002
2.231777e+002, 1.883737e+002
2.236598e+002, 1.877874e+002
2.241419e+002, 1.873128e+002
2.246240e+002, 1.868208e+002
2.251062e+002, 1.863111e+002
2.255883e+002, 1.859374e+002
2.260704e+002, 1.858703e+002
2.265525e+002, 1.860834e+002
2.270346e+002, 1.862605e+002
2.275167e+002, 1.862924e+002
2.279989e+002, 1.863380e+002
2.284810e+002, 1.866032e+002
2.289631e+002, 1.871055e+002
2.294452e+002, 1.875562e+002
2.299273e+002, 1.877477e+002
2.304094e+002, 1.877157e+002
2.308916e+002, 1.875635e+002
2.313737e+002, 1.872005e+002
2.318558e+002, 1.867818e+002
2.323379e+002, 1.864955e+002
2.328200e+002, 1.863592e+002
2.333021e+002, 1.862328e+002
2.337843e+002, 1.860440e+002
2.342664e+002, 1.858024e+002
2.347485e+002, 1.855240e+002
2.352306e+002, 1.852753e+002
2.357127e+002, 1.849377e+002
2.361948e+002, 1.842138e+002
2.366770e+002, 1.829386e+002
2.371591e+002, 1.819521e+002
2.376412e+002, 1.820221e+002
2.381233e+002, 1.825187e+002
2.386054e+002, 1.827244e+002
2.390875e+002, 1.822755e+002
2.395697e+002, 1.816517e+002
2.400518e+002, 1.817305e+002
2.405339e+002, 1.827963e+002
2.410160e+002, 1.836515e+002
2.414981e+002, 1.837479e+002
2.419802e+002, 1.834551e+002
2.424624e+002, 1.830081e+002
2.429445e+002, 1.824194e+002
2.434266e+002, 1.819194e+002
2.439087e+002, 1.819989e+002
2.443908e+002, 1.829385e+002
2.448729e+002, 1.836886e+002
2.453550e+002, 1.837922e+002
2.458372e+002, 1.836831e+002
2.463193e+002, 1.837505e+002
2.468014e+002, 1.841348e+002
2.472835e+002, 1.846187e+002
2.477656e+002, 1.847818e+002
2.482477e+002, 1.843980e+002
2.487299e+002, 1.842388e+002
2.492120e+002, 1.847257e+002
2.496941e+002, 1.852942e+002
2.501762e+002, 1.855410e+002
2.506583e+002, 1.853389e+002
2.511404e+002, 1.847829e+002
2.516226e+002, 1.839541e+002
2.521047e+002, 1.826072e+002
2.525868e+002, 1.815690e+002
2.530689e+002, 1.812674e+002
2.535510e+002, 1.810227e+002
2.540331e+002, 1.802818e+002
2.545153e+002, 1.789352e+002
2.549974e+002, 1.773548e+002
2.554795e+002, 1.761063e+002
2.559616e+002, 1.753729e+002
2.564437e+002, 1.746012e+002
2.569258e+002, 1.737540e+002
2.574080e+002, 1.728919e+002
2.578901e+002, 1.720767e+002
2.583722e+002, 1.713083e+002
2.588543e+002, 1.705014e+002
2.593364e+002, 1.694853e+002
2.598185e+002, 1.679607e+002
2.603007e+002, 1.670262e+002
2.607828e+002, 1.670939e+002
2.612649e+002, 1.672954e+002
2.617470e+002, 1.670759e+002
2.622291e+002, 1.663938e+002
2.627112e+002, 1.655815e+002
2.631934e+002, 1.650038e+002
2.636755e+002, 1.646876e+002
2.641576e+002, 1.645422e+002
2.646397e+002, 1.648303e+002
2.651218e+002, 1.650380e+002
2.656039e+002, 1.647974e+002
2.660861e+002, 1.641565e+002
2.665682e+002, 1.634531e+002
2.670503e+002, 1.630045e+002
2.675324e+002, 1.628315e+002
2.680145e+002, 1.628365e+002
2.684966e+002, 1.632393e+002
2.689788e+002, 1.635844e+002
2.694609e+002, 1.635790e+002
2.699430e+002, 1.632879e+002
2.704251e+002, 1.629965e+002
2.709072e+002, 1.629388e+002
2.713893e+002, 1.631237e+002
2.718715e+002, 1.633082e+002
2.723536e+002, 1.633836e+002
2.728357e+002, 1.635614e+002
2.733178e+002, 1.639141e+002
2.737999e+002, 1.644408e+002
2.742820e+002, 1.651322e+002
2.747642e+002, 1.659983e+002
2.752463e+002, 1.670257e+002
2.757284e+002, 1.680344e+002
2.762105e+002, 1.690937e+002
2.766926e+002, 1.700698e+002
2.771747e+002, 1.708263e+002
2.776568e+002, 1.714673e+002
2.781389e+002, 1.722144e+002
2.786211e+002, 1.731915e+002
2.791032e+002, 1.743599e+002
2.795853e+002, 1.755780e+002
2.800674e+002, 1.767767e+002
2.805495e+002, 1.780950e+002
2.810316e+002, 1.796492e+002
2.815138e+002, 1.813384e+002
2.819959e+002, 1.829783e+002
2.824780e+002, 1.844815e+002
2.829601e+002, 1.859156e+002
2.834422e+002, 1.874123e+002
2.839243e+002, 1.889200e+002
2.844065e+002, 1.905768e+002
2.848886e+002, 1.925669e+002
2.853707e+002, 1.946842e+002
2.858528e+002, 1.965783e+002
2.863349e+002, 1.981149e+002
2.868170e+002, 1.995400e+002
2.872992e+002, 2.013142e+002
2.877813e+002, 2.035350e+002
2.882634e+002, 2.057095e+002
2.887455e+002, 2.073798e+002
2.892276e+002, 2.091077e+002
2.897097e+002, 2.115966e+002
2.901919e+002, 2.150154e+002
2.906740e+002, 2.189895e+002
2.911561e+002, 2.232687e+002
2.916382e+002, 2.279189e+002
2.921203e+002, 2.321950e+002
2.926024e+002, 2.360402e+002
2.930846e+002, 2.394686e+002
2.935667e+002, 2.422284e+002
2.940488e+002, 2.443236e+002
2.945309e+002, 2.465842e+002
2.950130e+002, 2.498394e+002
2.954951e+002, 2.541349e+002
2.959773e+002, 2.583640e+002
2.964594e+002, 2.624967e+002
2.969415e+002, 2.665446e+002
2.974236e+002, 2.707033e+002
2.979057e+002, 2.749008e+002
2.983878e+002, 2.786082e+002
2.988700e+002, 2.814637e+002
2.993521e+002, 2.834206e+002
2.998342e+002, 2.848566e+002
3.003163e+002, 2.856361e+002
3.007984e+002, 2.860243e+002
3.012805e+002, 2.859899e+002
3.017627e+002, 2.856289e+002
3.022448e+002, 2.853678e+002
3.027269e+002, 2.854389e+002
3.032090e+002, 2.857621e+002
3.036911e+002, 2.860498e+002
3.041732e+002, 2.861451e+002
3.046554e+002, 2.864539e+002
3.051375e+002, 2.869894e+002
3.056196e+002, 2.878651e+002
3.061017e+002, 2.893410e+002
3.065838e+002, 2.914692e+002
3.070659e+002, 2.943406e+002
3.075481e+002, 2.982188e+002
3.080302e+002, 3.031311e+002
3.085123e+002, 3.085041e+002
3.089944e+002, 3.142571e+002
3.094765e+002, 3.203235e+002
3.099586e+002, 3.265927e+002
3.104408e+002, 3.330498e+002
3.109229e+002, 3.395453e+002
3.114050e+002, 3.458497e+002
3.118871e+002, 3.519985e+002
3.123692e+002, 3.579196e+002
3.128513e+002, 3.640232e+002
3.133335e+002, 3.696861e+002
3.138156e+002, 3.743815e+002
3.142977e+002, 3.780352e+002
3.147798e+002, 3.803600e+002
3.152619e+002, 3.811153e+002
3.157440e+002, 3.801933e+002
3.162262e+002, 3.775101e+002
3.167083e+002, 3.727920e+002
3.171904e+002, 3.664846e+002
3.176725e+002, 3.586334e+002
3.181546e+002, 3.493036e+002
3.186367e+002, 3.392843e+002
3.191188e+002, 3.287286e+002
3.196010e+002, 3.179616e+002
3.200831e+002, 3.081382e+002
3.205652e+002, 2.999019e+002
3.210473e+002, 2.918876e+002
3.215294e+002, 2.830987e+002
3.220115e+002, 2.738600e+002
3.224937e+002, 2.651540e+002
3.229758e+002, 2.574855e+002
3.234579e+002, 2.506675e+002
3.239400e+002, 2.444160e+002
3.244221e+002, 2.388363e+002
3.249042e+002, 2.334184e+002
3.253864e+002, 2.279164e+002
3.258685e+002, 2.224536e+002
3.263506e+002, 2.172661e+002
3.268327e+002, 2.124668e+002
3.273148e+002, 2.077935e+002
3.277969e+002, 2.026989e+002
3.282791e+002, 1.970132e+002
3.287612e+002, 1.919146e+002
3.292433e+002, 1.878844e+002
3.297254e+002, 1.844503e+002
3.302075e+002, 1.809945e+002
3.306896e+002, 1.774099e+002
3.311718e+002, 1.741756e+002
3.316539e+002, 1.718310e+002
3.321360e+002, 1.704699e+002
3.326181e+002, 1.691180e+002
3.331002e+002, 1.673003e+002
3.335823e+002, 1.658289e+002
3.340645e+002, 1.653593e+002
3.345466e+002, 1.658599e+002
3.350287e+002, 1.668524e+002
3.355108e+002, 1.680844e+002
3.359929e+002, 1.695357e+002
3.364750e+002, 1.709736e+002
3.369572e+002, 1.720814e+002
3.374393e+002, 1.735135e+002
3.379214e+002, 1.756861e+002
3.384035e+002, 1.784024e+002
3.388856e+002, 1.812187e+002
3.393677e+002, 1.839656e+002
3.398499e+002, 1.865995e+002
3.403320e+002, 1.889937e+002
3.408141e+002, 1.913708e+002
3.412962e+002, 1.931707e+002
3.417783e+002, 1.943603e+002
3.422604e+002, 1.948891e+002
3.427426e+002, 1.946082e+002
3.432247e+002, 1.934773e+002
3.437068e+002, 1.917342e+002
3.441889e+002, 1.896613e+002
3.446710e+002, 1.871225e+002
3.451531e+002, 1.846005e+002
3.456353e+002, 1.821555e+002
3.461174e+002, 1.797086e+002
3.465995e+002, 1.772560e+002
3.470816e+002, 1.747838e+002
3.475637e+002, 1.721295e+002
3.480458e+002, 1.691321e+002
3.485280e+002, 1.657533e+002
3.490101e+002, 1.626966e+002
3.494922e+002, 1.602245e+002
3.499743e+002, 1.577543e+002
3.504564e+002, 1.550226e+002
3.509385e+002, 1.521185e+002
3.514207e+002, 1.492055e+002
3.519028e+002, 1.463602e+002
3.523849e+002, 1.436600e+002
3.528670e+002, 1.414303e+002
3.533491e+002, 1.400766e+002
3.538312e+002, 1.386933e+002
3.543134e+002, 1.370613e+002
3.547955e+002, 1.353907e+002
3.552776e+002, 1.339706e+002
3.557597e+002, 1.328955e+002
3.562418e+002, 1.319477e+002
3.567239e+002, 1.307338e+002
3.572061e+002, 1.290067e+002
3.576882e+002, 1.275194e+002
3.581703e+002, 1.263912e+002
3.586524e+002, 1.253861e+002
3.591345e+002, 1.243708e+002
3.596166e+002, 1.233182e+002
3.600987e+002, 1.222597e+002
3.605808e+002, 1.212082e+002
3.610630e+002, 1.201506e+002
3.615451e+002, 1.192294e+002
3.620272e+002, 1.184986e+002
3.625093e+002, 1.178388e+002
3.629914e+002, 1.172789e+002
3.634735e+002, 1.167542e+002
3.639557e+002, 1.161365e+002
3.644378e+002, 1.153292e+002
3.649199e+002, 1.144228e+002
3.654020e+002, 1.138154e+002
3.658841e+002, 1.138067e+002
3.663662e+002, 1.136998e+002
3.668484e+002, 1.133468e+002
3.673305e+002, 1.128976e+002
3.678126e+002, 1.124894e+002
3.682947e+002, 1.121705e+002
3.687768e+002, 1.119116e+002
3.692589e+002, 1.116756e+002
3.697411e+002, 1.114823e+002
3.702232e+002, 1.112577e+002
3.707053e+002, 1.109202e+002
3.711874e+002, 1.106175e+002
3.716695e+002, 1.104891e+002
3.721516e+002, 1.104918e+002
3.726338e+002, 1.104201e+002
3.731159e+002, 1.100264e+002
3.735980e+002, 1.093291e+002
3.740801e+002, 1.089423e+002
3.745622e+002, 1.089453e+002
3.750443e+002, 1.092028e+002
3.755265e+002, 1.099411e+002
3.760086e+002, 1.108271e+002
3.764907e+002, 1.113187e+002
3.769728e+002, 1.110953e+002
3.774549e+002, 1.104755e+002
3.779370e+002, 1.101554e+002
3.784192e+002, 1.101950e+002
3.789013e+002, 1.103720e+002
3.793834e+002, 1.108730e+002
3.798655e+002, 1.113372e+002
3.803476e+002, 1.113922e+002
3.808297e+002, 1.109712e+002
3.813119e+002, 1.105162e+002
3.817940e+002, 1.104459e+002
3.822761e+002, 1.107559e+002
3.827582e+002, 1.112652e+002
3.832403e+002, 1.120578e+002
3.837224e+002, 1.129335e+002
3.842046e+002, 1.139000e+002
3.846867e+002, 1.148639e+002
3.851688e+002, 1.155215e+002
3.856509e+002, 1.155029e+002
3.861330e+002, 1.150933e+002
3.866151e+002, 1.149272e+002
3.870973e+002, 1.150304e+002
3.875794e+002, 1.152871e+002
3.880615e+002, 1.156959e+002
3.885436e+002, 1.162058e+002
3.890257e+002, 1.167537e+002
3.895078e+002, 1.173232e+002
3.899900e+002, 1.179359e+002
3.904721e+002, 1.186461e+002
3.909542e+002, 1.194385e+002
3.914363e+002, 1.201676e+002
3.919184e+002, 1.207648e+002
3.924005e+002, 1.213030e+002
3.928827e+002, 1.218726e+002
3.933648e+002, 1.224697e+002
3.938469e+002, 1.231161e+002
3.943290e+002, 1.236692e+002
3.948111e+002, 1.243248e+002
3.952932e+002, 1.254843e+002
3.957754e+002, 1.272546e+002
3.962575e+002, 1.291091e+002
3.967396e+002, 1.306226e+002
3.972217e+002, 1.318011e+002
3.977038e+002, 1.329139e+002
3.981859e+002, 1.338753e+002
3.986681e+002, 1.348718e+002
3.991501e+002, 1.359712e+002
3.996323e+002, 1.371992e+002
4.001144e+002, 1.386304e+002
4.005965e+002, 1.403001e+002
4.010786e+002, 1.421972e+002
4.015607e+002, 1.443040e+002
4.020428e+002, 1.467829e+002
4.025250e+002, 1.491545e+002
4.030071e+002, 1.512068e+002
4.034892e+002, 1.531696e+002
4.039713e+002, 1.552689e+002
4.044534e+002, 1.575546e+002
4.049355e+002, 1.600184e+002
4.054177e+002, 1.626801e+002
4.058998e+002, 1.655899e+002
4.063819e+002, 1.683593e+002
4.068640e+002, 1.707872e+002
4.073461e+002, 1.732721e+002
4.078282e+002, 1.761068e+002
4.083104e+002, 1.791752e+002
4.087925e+002, 1.821826e+002
4.092746e+002, 1.849818e+002
4.097567e+002, 1.875722e+002
4.102388e+002, 1.899962e+002
4.107209e+002, 1.920241e+002
4.112031e+002, 1.941743e+002
4.116852e+002, 1.966570e+002
4.121673e+002, 1.991881e+002
4.126494e+002, 2.016004e+002
4.131315e+002, 2.038105e+002
4.136136e+002, 2.056676e+002
4.140958e+002, 2.068799e+002
4.145779e+002, 2.072433e+002
4.150600e+002, 2.078028e+002
4.155421e+002, 2.088404e+002
4.160242e+002, 2.098134e+002
4.165063e+002, 2.105498e+002
4.169885e+002, 2.110520e+002
4.174706e+002, 2.113864e+002
4.179527e+002, 2.116453e+002
4.184348e+002, 2.117295e+002
4.189169e+002, 2.111552e+002
4.193990e+002, 2.093997e+002
4.198812e+002, 2.081679e+002
4.203633e+002, 2.082391e+002
4.208454e+002, 2.089004e+002
4.213275e+002, 2.095530e+002
4.218096e+002, 2.100525e+002
4.222917e+002, 2.105671e+002
4.227739e+002, 2.112721e+002
4.232560e+002, 2.121592e+002
4.237381e+002, 2.130666e+002
4.242202e+002, 2.138290e+002
4.247023e+002, 2.148158e+002
4.251844e+002, 2.165083e+002
4.256666e+002, 2.186892e+002
4.261487e+002, 2.205751e+002
4.266308e+002, 2.214384e+002
4.271129e+002, 2.220011e+002
4.275950e+002, 2.233632e+002
4.280771e+002, 2.255702e+002
4.285593e+002, 2.280035e+002
4.290414e+002, 2.302757e+002
4.295235e+002, 2.326183e+002
4.300056e+002, 2.354896e+002
4.304877e+002, 2.391145e+002
4.309698e+002, 2.427686e+002
4.314520e+002, 2.458214e+002
4.319341e+002, 2.486762e+002
4.324162e+002, 2.521638e+002
4.328983e+002, 2.564817e+002
4.333804e+002, 2.613946e+002
4.338625e+002, 2.667390e+002
4.343447e+002, 2.725791e+002
4.348268e+002, 2.783261e+002
4.353089e+002, 2.834570e+002
4.357910e+002, 2.889183e+002
4.362731e+002, 2.953988e+002
4.367552e+002, 3.027570e+002
4.372374e+002, 3.103919e+002
4.377195e+002, 3.179213e+002
4.382016e+002, 3.255141e+002
4.386837e+002, 3.336991e+002
4.391658e+002, 3.429544e+002
4.396479e+002, 3.522314e+002
4.401301e+002, 3.613593e+002
4.406122e+002, 3.705091e+002
4.410943e+002, 3.799012e+002
4.415764e+002, 3.894900e+002
4.420585e+002, 3.989588e+002
4.425406e+002, 4.077930e+002
4.430227e+002, 4.158566e+002
4.435049e+002, 4.244523e+002
4.439870e+002, 4.337511e+002
4.444691e+002, 4.433994e+002
4.449512e+002, 4.536007e+002
4.454333e+002, 4.639603e+002
4.459154e+002, 4.738510e+002
4.463976e+002, 4.827830e+002
4.468797e+002, 4.914977e+002
4.473618e+002, 5.016975e+002
4.478439e+002, 5.137443e+002
4.483260e+002, 5.261848e+002
4.488081e+002, 5.384743e+002
4.492903e+002, 5.513679e+002
4.497724e+002, 5.655394e+002
4.502545e+002, 5.809501e+002
4.507366e+002, 5.969034e+002
4.512187e+002, 6.125209e+002
4.517008e+002, 6.281729e+002
4.521830e+002, 6.452103e+002
4.526651e+002, 6.639544e+002
4.531472e+002, 6.831348e+002
4.536293e+002, 7.022498e+002
4.541114e+002, 7.212640e+002
4.545935e+002, 7.402962e+002
4.550757e+002, 7.597914e+002
4.555578e+002, 7.783199e+002
4.560399e+002, 7.950880e+002
4.565220e+002, 8.099843e+002
4.570041e+002, 8.228860e+002
4.574862e+002, 8.338526e+002
4.579684e+002, 8.426187e+002
4.584505e+002, 8.488598e+002
4.589326e+002, 8.528308e+002
4.594147e+002, 8.535405e+002
4.598968e+002, 8.501477e+002
4.603789e+002, 8.438779e+002
4.608611e+002, 8.357415e+002
4.613432e+002, 8.257463e+002
4.618253e+002, 8.133940e+002
4.623074e+002, 7.981219e+002
4.627895e+002, 7.804134e+002
4.632716e+002, 7.618010e+002
4.637538e+002, 7.418994e+002
4.642359e+002, 7.216723e+002
4.647180e+002, 7.008387e+002
4.652001e+002, 6.797454e+002
4.656822e+002, 6.586298e+002
4.661643e+002, 6.375367e+002
4.666465e+002, 6.168748e+002
4.671286e+002, 5.971337e+002
4.676107e+002, 5.782109e+002
4.680928e+002, 5.596916e+002
4.685749e+002, 5.406187e+002
4.690570e+002, 5.229911e+002
4.695392e+002, 5.074943e+002
4.700213e+002, 4.938061e+002
4.705034e+002, 4.817052e+002
4.709855e+002, 4.711168e+002
4.714676e+002, 4.615358e+002
4.719497e+002, 4.520171e+002
4.724319e+002, 4.424022e+002
4.729140e+002, 4.336087e+002
4.733961e+002, 4.259488e+002
4.738782e+002, 4.191098e+002
4.743603e+002, 4.129125e+002
4.748424e+002, 4.074098e+002
4.753246e+002, 4.026827e+002
4.758067e+002, 3.989478e+002
4.762888e+002, 3.960048e+002
4.767709e+002, 3.934966e+002
4.772530e+002, 3.915044e+002
4.777351e+002, 3.894880e+002
4.782173e+002, 3.870126e+002
4.786994e+002, 3.844766e+002
4.791815e+002, 3.825935e+002
4.796636e+002, 3.816140e+002
4.801457e+002, 3.804776e+002
4.806278e+002, 3.786010e+002
4.811100e+002, 3.762207e+002
4.815920e+002, 3.738614e+002
4.820742e+002, 3.716331e+002
4.825563e+002, 3.690081e+002
4.830384e+002, 3.655460e+002
4.835205e+002, 3.611962e+002
4.840026e+002, 3.560886e+002
4.844847e+002, 3.496552e+002
4.849669e+002, 3.431443e+002
4.854490e+002, 3.372544e+002
4.859311e+002, 3.315585e+002
4.864132e+002, 3.252464e+002
4.868953e+002, 3.180000e+002
4.873774e+002, 3.102852e+002
4.878596e+002, 3.029403e+002
4.883417e+002, 2.961364e+002
4.888238e+002, 2.890822e+002
4.893059e+002, 2.815363e+002
4.897880e+002, 2.740317e+002
4.902701e+002, 2.666895e+002
4.907523e+002, 2.596289e+002
4.912344e+002, 2.530886e+002
4.917165e+002, 2.472773e+002
4.921986e+002, 2.419713e+002
4.926807e+002, 2.365179e+002
4.931628e+002, 2.307592e+002
4.936450e+002, 2.253310e+002
4.941271e+002, 2.203343e+002
4.946092e+002, 2.157835e+002
4.950913e+002, 2.118527e+002
4.955734e+002, 2.084911e+002
4.960555e+002, 2.052284e+002
4.965377e+002, 2.016759e+002
4.970198e+002, 1.980072e+002
4.975019e+002, 1.946886e+002
4.979840e+002, 1.917183e+002
4.984661e+002, 1.891438e+002
4.989482e+002, 1.870833e+002
4.994304e+002, 1.853981e+002
4.999125e+002, 1.837595e+002
5.003946e+002, 1.820012e+002
5.008767e+002, 1.806433e+002
5.013588e+002, 1.803915e+002
5.018409e+002, 1.805882e+002
5.023231e+002, 1.798564e+002
5.028052e+002, 1.779046e+002
5.032873e+002, 1.759258e+002
5.037694e+002, 1.750896e+002
5.042515e+002, 1.754429e+002
5.047336e+002, 1.756210e+002
5.052158e+002, 1.755626e+002
5.056979e+002, 1.754203e+002
5.061800e+002, 1.750836e+002
5.066621e+002, 1.747467e+002
5.071442e+002, 1.747045e+002
5.076263e+002, 1.750595e+002
5.081085e+002, 1.756733e+002
5.085906e+002, 1.763320e+002
5.090727e+002, 1.770076e+002
5.095548e+002, 1.778299e+002
5.100369e+002, 1.787975e+002
5.105190e+002, 1.799109e+002
5.110012e+002, 1.813533e+002
5.114833e+002, 1.829215e+002
5.119654e+002, 1.841865e+002
5.124475e+002, 1.848615e+002
5.129296e+002, 1.853820e+002
5.134117e+002, 1.866161e+002
5.138939e+002, 1.886772e+002
5.143760e+002, 1.906026e+002
5.148581e+002, 1.920096e+002
5.153402e+002, 1.934106e+002
5.158223e+002, 1.953514e+002
5.163044e+002, 1.977296e+002
5.167866e+002, 1.998420e+002
5.172687e+002, 2.011025e+002
5.177508e+002, 2.021147e+002
5.182329e+002, 2.037225e+002
5.187150e+002, 2.058934e+002
5.191971e+002, 2.080451e+002
5.196793e+002, 2.099458e+002
5.201614e+002, 2.116162e+002
5.206435e+002, 2.130120e+002
5.211256e+002, 2.140386e+002
5.216077e+002, 2.151449e+002
5.220898e+002, 2.166458e+002
5.225720e+002, 2.180839e+002
5.230541e+002, 2.191493e+002
5.235362e+002, 2.197659e+002
5.240183e+002, 2.198384e+002
5.245004e+002, 2.192445e+002
5.249825e+002, 2.181201e+002
5.254647e+002, 2.171496e+002
5.259468e+002, 2.165275e+002
5.264289e+002, 2.157941e+002
5.269110e+002, 2.151224e+002
5.273931e+002, 2.141843e+002
5.278752e+002, 2.127360e+002
5.283574e+002, 2.107429e+002
5.288395e+002, 2.082874e+002
5.293216e+002, 2.053359e+002
5.298037e+002, 2.019741e+002
5.302858e+002, 1.986513e+002
5.307679e+002, 1.953293e+002
5.312501e+002, 1.921589e+002
5.317322e+002, 1.894094e+002
5.322143e+002, 1.867536e+002
5.326964e+002, 1.838207e+002
5.331785e+002, 1.805451e+002
5.336606e+002, 1.770906e+002
5.341428e+002, 1.734416e+002
5.346249e+002, 1.697043e+002
5.351070e+002, 1.660393e+002
5.355891e+002, 1.624612e+002
5.360712e+002, 1.590426e+002
5.365533e+002, 1.558836e+002
5.370355e+002, 1.529462e+002
5.375176e+002, 1.500275e+002
5.379997e+002, 1.469575e+002
5.384818e+002, 1.440994e+002
5.389639e+002, 1.417110e+002
5.394460e+002, 1.395067e+002
5.399282e+002, 1.369929e+002
5.404103e+002, 1.341357e+002
5.408924e+002, 1.314945e+002
5.413745e+002, 1.297360e+002
5.418566e+002, 1.288947e+002
5.423387e+002, 1.277278e+002
5.428209e+002, 1.259374e+002
5.433029e+002, 1.241694e+002
5.437850e+002, 1.224902e+002
5.442672e+002, 1.209340e+002
5.447493e+002, 1.195127e+002
5.452314e+002, 1.182330e+002
5.457135e+002, 1.171634e+002
5.461956e+002, 1.165978e+002
5.466777e+002, 1.164520e+002
5.471599e+002, 1.156421e+002
5.476420e+002, 1.137548e+002
5.481241e+002, 1.119658e+002
5.486062e+002, 1.111718e+002
5.490883e+002, 1.109295e+002
5.495704e+002, 1.105170e+002
5.500526e+002, 1.096489e+002
5.505347e+002, 1.089614e+002
5.510168e+002, 1.091069e+002
5.514989e+002, 1.096741e+002
5.519810e+002, 1.097257e+002
5.524631e+002, 1.090559e+002
5.529453e+002, 1.082792e+002
5.534274e+002, 1.079865e+002
5.539095e+002, 1.081799e+002
5.543916e+002, 1.081946e+002
5.548737e+002, 1.078333e+002
5.553558e+002, 1.075564e+002
5.558380e+002, 1.074563e+002
5.563201e+002, 1.075241e+002
5.568022e+002, 1.078099e+002
5.572843e+002, 1.082963e+002
5.577664e+002, 1.087899e+002
5.582485e+002, 1.090610e+002
5.587307e+002, 1.091000e+002
5.592128e+002, 1.091475e+002
5.596949e+002, 1.091844e+002
5.601770e+002, 1.092601e+002
5.606591e+002, 1.093117e+002
5.611412e+002, 1.094401e+002
5.616234e+002, 1.097985e+002
5.621055e+002, 1.104384e+002
5.625876e+002, 1.111564e+002
5.630697e+002, 1.118263e+002
5.635518e+002, 1.124347e+002
5.640339e+002, 1.129006e+002
5.645161e+002, 1.131857e+002
5.649982e+002, 1.134894e+002
5.654803e+002, 1.139572e+002
5.659624e+002, 1.145659e+002
5.664445e+002, 1.151788e+002
5.669266e+002, 1.157647e+002
5.674088e+002, 1.163977e+002
5.678909e+002, 1.171373e+002
5.683730e+002, 1.179211e+002
5.688551e+002, 1.186436e+002
5.693372e+002, 1.192993e+002
5.698193e+002, 1.200391e+002
5.703015e+002, 1.210189e+002
5.707836e+002, 1.222215e+002
5.712657e+002, 1.232337e+002
5.717478e+002, 1.237398e+002
5.722299e+002, 1.244895e+002
5.727120e+002, 1.257750e+002
5.731942e+002, 1.272362e+002
5.736763e+002, 1.284780e+002
5.741584e+002, 1.294762e+002
5.746405e+002, 1.305872e+002
5.751226e+002, 1.321459e+002
5.756047e+002, 1.340792e+002
5.760869e+002, 1.360893e+002
5.765690e+002, 1.381642e+002
5.770511e+002, 1.403612e+002
5.775332e+002, 1.427671e+002
5.780153e+002, 1.452578e+002
5.784974e+002, 1.475974e+002
5.789796e+002, 1.497314e+002
5.794617e+002, 1.519456e+002
5.799438e+002, 1.543096e+002
5.804259e+002, 1.568313e+002
5.809080e+002, 1.595351e+002
5.813901e+002, 1.624140e+002
5.818723e+002, 1.654928e+002
5.823544e+002, 1.688062e+002
5.828365e+002, 1.722981e+002
5.833186e+002, 1.757920e+002
5.838007e+002, 1.793018e+002
5.842828e+002, 1.828145e+002
5.847650e+002, 1.862428e+002
5.852471e+002, 1.897625e+002
5.857292e+002, 1.934718e+002
5.862113e+002, 1.973809e+002
5.866934e+002, 2.014988e+002
5.871755e+002, 2.058760e+002
5.876577e+002, 2.103738e+002
5.881398e+002, 2.145205e+002
5.886219e+002, 2.182121e+002
5.891040e+002, 2.223413e+002
5.895861e+002, 2.273720e+002
5.900682e+002, 2.326733e+002
5.905504e+002, 2.374833e+002
5.910325e+002, 2.419224e+002
5.915146e+002, 2.467604e+002
5.919967e+002, 2.523967e+002
5.924788e+002, 2.583656e+002
5.929609e+002, 2.642117e+002
5.934431e+002, 2.700023e+002
5.939252e+002, 2.760313e+002
5.944073e+002, 2.823933e+002
5.948894e+002, 2.889109e+002
5.953715e+002, 2.952915e+002
5.958536e+002, 3.013158e+002
5.963358e+002, 3.083062e+002
5.968179e+002, 3.170927e+002
5.973000e+002, 3.257709e+002
5.977821e+002, 3.335323e+002
5.982642e+002, 3.408488e+002
5.987463e+002, 3.486045e+002
5.992285e+002, 3.570879e+002
5.997106e+002, 3.654581e+002
6.001927e+002, 3.729370e+002
6.006748e+002, 3.795371e+002
6.011569e+002, 3.848297e+002
6.016390e+002, 3.886427e+002
6.021212e+002, 3.914295e+002
6.026033e+002, 3.932473e+002
6.030854e+002, 3.942248e+002
6.035675e+002, 3.944615e+002
6.040496e+002, 3.940150e+002
6.045317e+002, 3.926997e+002
6.050139e+002, 3.901488e+002
6.054960e+002, 3.867862e+002
6.059781e+002, 3.830861e+002
6.064602e+002, 3.791708e+002
6.069423e+002, 3.752975e+002
6.074244e+002, 3.716890e+002
6.079066e+002, 3.682729e+002
6.083887e+002, 3.646714e+002
6.088708e+002, 3.607519e+002
6.093529e+002, 3.568493e+002
6.098350e+002, 3.530258e+002
6.103171e+002, 3.491879e+002
6.107993e+002, 3.450307e+002
6.112814e+002, 3.407646e+002
6.117635e+002, 3.370575e+002
6.122456e+002, 3.344065e+002
6.127277e+002, 3.324424e+002
6.132098e+002, 3.303834e+002
6.136920e+002, 3.281963e+002
6.141741e+002, 3.261211e+002
6.146562e+002, 3.240079e+002
6.151383e+002, 3.222902e+002
6.156204e+002, 3.214243e+002
6.161025e+002, 3.213212e+002
6.165847e+002, 3.216405e+002
6.170668e+002, 3.224167e+002
6.175489e+002, 3.234880e+002
6.180310e+002, 3.249331e+002
6.185131e+002, 3.265655e+002
6.189952e+002, 3.279638e+002
6.194774e+002, 3.290141e+002
6.199595e+002, 3.300611e+002
6.204416e+002, 3.315190e+002
6.209237e+002, 3.334203e+002
6.214058e+002, 3.353316e+002
6.218879e+002, 3.373760e+002
6.223701e+002, 3.392780e+002
6.228522e+002, 3.412975e+002
6.233343e+002, 3.429669e+002
6.238164e+002, 3.435929e+002
6.242985e+002, 3.431220e+002
6.247806e+002, 3.425277e+002
6.252628e+002, 3.429745e+002
6.257448e+002, 3.438481e+002
6.262269e+002, 3.433844e+002
6.267090e+002, 3.414670e+002
6.271912e+002, 3.391196e+002
6.276733e+002, 3.366513e+002
6.281554e+002, 3.341620e+002
6.286375e+002, 3.317649e+002
6.291196e+002, 3.293864e+002
6.296017e+002, 3.273941e+002
6.300839e+002, 3.261446e+002
6.305660e+002, 3.250185e+002
6.310481e+002, 3.234740e+002
6.315302e+002, 3.217011e+002
6.320123e+002, 3.202878e+002
6.324944e+002, 3.195109e+002
6.329766e+002, 3.188968e+002
6.334587e+002, 3.177021e+002
6.339408e+002, 3.159150e+002
6.344229e+002, 3.135869e+002
6.349050e+002, 3.108961e+002
6.353871e+002, 3.073911e+002
6.358693e+002, 3.029377e+002
6.363514e+002, 2.976292e+002
6.368335e+002, 2.915087e+002
6.373156e+002, 2.845148e+002
6.377977e+002, 2.771532e+002
6.382798e+002, 2.698738e+002
6.387620e+002, 2.625096e+002
6.392441e+002, 2.543958e+002
6.397262e+002, 2.455398e+002
6.402083e+002, 2.370334e+002
6.406904e+002, 2.296192e+002
6.411725e+002, 2.230510e+002
6.416547e+002, 2.164356e+002
6.421368e+002, 2.093842e+002
6.426189e+002, 2.029212e+002
6.431010e+002, 1.970137e+002
6.435831e+002, 1.917303e+002
6.440652e+002, 1.872768e+002
6.445474e+002, 1.834619e+002
6.450295e+002, 1.797432e+002
6.455116e+002, 1.757903e+002
6.459937e+002, 1.721181e+002
6.464758e+002, 1.697070e+002
6.469579e+002, 1.685478e+002
6.474401e+002, 1.674985e+002
6.479222e+002, 1.664211e+002
6.484043e+002, 1.653800e+002
6.488864e+002, 1.644119e+002
6.493685e+002, 1.635227e+002
6.498506e+002, 1.627436e+002
6.503328e+002, 1.619037e+002
6.508149e+002, 1.614446e+002
6.512970e+002, 1.618719e+002
6.517791e+002, 1.625958e+002
6.522612e+002, 1.628444e+002
6.527433e+002, 1.625921e+002
6.532255e+002, 1.623798e+002
6.537076e+002, 1.626206e+002
6.541897e+002, 1.631828e+002
6.546718e+002, 1.635783e+002
6.551539e+002, 1.637481e+002
6.556360e+002, 1.638887e+002
6.561182e+002, 1.642712e+002
6.566003e+002, 1.644055e+002
6.570824e+002, 1.639449e+002
6.575645e+002, 1.629932e+002
6.580466e+002, 1.619144e+002
6.585287e+002, 1.608964e+002
6.590109e+002, 1.597124e+002
6.594930e+002, 1.579659e+002
6.599751e+002, 1.558891e+002
6.604572e+002, 1.541849e+002
6.609393e+002, 1.530198e+002
6.614214e+002, 1.518880e+002
6.619036e+002, 1.503772e+002
6.623857e+002, 1.484918e+002
6.628678e+002, 1.463148e+002
6.633499e+002, 1.430640e+002
6.638320e+002, 1.405742e+002
6.643141e+002, 1.397007e+002
6.647963e+002, 1.391026e+002
6.652784e+002, 1.377009e+002
6.657605e+002, 1.355378e+002
6.662426e+002, 1.332834e+002
6.667247e+002, 1.312973e+002
6.672068e+002, 1.295237e+002
6.676890e+002, 1.279103e+002
6.681711e+002, 1.264491e+002
6.686532e+002, 1.247777e+002
6.691353e+002, 1.226698e+002
6.696174e+002, 1.207147e+002
6.700995e+002, 1.196713e+002
6.705817e+002, 1.194060e+002
6.710638e+002, 1.185698e+002
6.715459e+002, 1.165992e+002
6.720280e+002, 1.147242e+002
6.725101e+002, 1.134282e+002
6.729922e+002, 1.123809e+002
6.734744e+002, 1.111963e+002
6.739565e+002, 1.098516e+002
6.744386e+002, 1.085807e+002
6.749207e+002, 1.075629e+002
6.754028e+002, 1.067358e+002
6.758849e+002, 1.058782e+002
6.763671e+002, 1.049578e+002
6.768492e+002, 1.041560e+002
6.773313e+002, 1.035716e+002
6.778134e+002, 1.030411e+002
6.782955e+002, 1.024701e+002
6.787776e+002, 1.018494e+002
6.792598e+002, 1.011397e+002
6.797419e+002, 1.002503e+002
6.802240e+002, 9.937508e+001
6.807061e+002, 9.860830e+001
6.811882e+002, 9.793799e+001
6.816703e+002, 9.737535e+001
6.821525e+002, 9.690614e+001
6.826346e+002, 9.640055e+001
6.831167e+002, 9.572713e+001
6.835988e+002, 9.496059e+001
6.840809e+002, 9.451728e+001
6.845630e+002, 9.473902e+001
6.850452e+002, 9.453756e+001
6.855273e+002, 9.322541e+001
6.860094e+002, 9.193151e+001
6.864915e+002, 9.139162e+001
6.869736e+002, 9.142075e+001
6.874557e+002, 9.136568e+001
6.879379e+002, 9.091262e+001
6.884200e+002, 9.042435e+001
6.889021e+002, 9.033665e+001
6.893842e+002, 9.044215e+001
6.898663e+002, 9.019463e+001
6.903484e+002, 8.950254e+001
6.908306e+002, 8.879296e+001
6.913127e+002, 8.839082e+001
6.917948e+002, 8.825224e+001
6.922769e+002, 8.815423e+001
6.927590e+002, 8.817529e+001
6.932411e+002, 8.811010e+001
6.937233e+002, 8.793505e+001
6.942054e+002, 8.769300e+001
6.946875e+002, 8.742782e+001
6.951696e+002, 8.711623e+001
6.956517e+002, 8.666405e+001
6.961339e+002, 8.596909e+001
6.966160e+002, 8.531301e+001
6.970981e+002, 8.503686e+001
6.975802e+002, 8.506250e+001
6.980623e+002, 8.515695e+001
6.985444e+002, 8.529716e+001
6.990266e+002, 8.531997e+001
6.995087e+002, 8.506923e+001
6.999908e+002, 8.463712e+001
7.004729e+002, 8.438100e+001
7.009550e+002, 8.445804e+001
7.014371e+002, 8.447371e+001
7.019193e+002, 8.453976e+001
7.024014e+002, 8.443456e+001
7.028835e+002, 8.380143e+001
7.033656e+002, 8.292528e+001
7.038477e+002, 8.241891e+001
7.043298e+002, 8.256705e+001
7.048120e+002, 8.297937e+001
7.052941e+002, 8.325917e+001
7.057762e+002, 8.340282e+001
7.062583e+002, 8.333273e+001
7.067404e+002, 8.299986e+001
7.072225e+002, 8.276059e+001
7.077046e+002, 8.287301e+001
7.081867e+002, 8.318022e+001
7.086688e+002, 8.328273e+001
7.091509e+002, 8.312891e+001
7.096331e+002, 8.291492e+001
7.101152e+002, 8.251994e+001
7.105973e+002, 8.219582e+001
7.110794e+002, 8.213346e+001
7.115615e+002, 8.223707e+001
7.120436e+002, 8.232581e+001
7.125258e+002, 8.233409e+001
7.130079e+002, 8.232793e+001
7.134900e+002, 8.238731e+001
7.139721e+002, 8.250069e+001
7.144542e+002, 8.262621e+001
7.149363e+002, 8.277767e+001
7.154185e+002, 8.282829e+001
7.159006e+002, 8.264926e+001
7.163827e+002, 8.241008e+001
7.168648e+002, 8.243478e+001
7.173469e+002, 8.278294e+001
7.178290e+002, 8.300692e+001
7.183112e+002, 8.303669e+001
7.187933e+002, 8.296913e+001
7.192754e+002, 8.276210e+001
7.197575e+002, 8.252603e+001
7.202396e+002, 8.241357e+001
7.207217e+002, 8.246059e+001
7.212039e+002, 8.258762e+001
7.216860e+002, 8.277100e+001
7.221681e+002, 8.296000e+001
7.226502e+002, 8.287951e+001
7.231323e+002, 8.247202e+001
7.236144e+002, 8.229809e+001
7.240966e+002, 8.265258e+001
7.245787e+002, 8.313501e+001
7.250608e+002, 8.323643e+001
7.255429e+002, 8.296799e+001
7.260250e+002, 8.285852e+001
7.265071e+002, 8.312420e+001
7.269893e+002, 8.332818e+001
7.274714e+002, 8.322175e+001
7.279535e+002, 8.302544e+001
7.284356e+002, 8.298458e+001
7.289177e+002, 8.312748e+001
7.293998e+002, 8.334518e+001
7.298820e+002, 8.356499e+001
7.303641e+002, 8.379403e+001
7.308462e+002, 8.405589e+001
7.313283e+002, 8.435109e+001
7.318104e+002, 8.465807e+001
7.322925e+002, 8.501199e+001
7.327747e+002, 8.527946e+001
7.332568e+002, 8.528877e+001
7.337389e+002, 8.510629e+001
7.342210e+002, 8.509238e+001
7.347031e+002, 8.534335e+001
7.351852e+002, 8.561023e+001
7.356674e+002, 8.586584e+001
7.361495e+002, 8.610002e+001
7.366316e+002, 8.631871e+001
7.371137e+002, 8.650948e+001
7.375958e+002, 8.665782e+001
7.380779e+002, 8.676241e+001
7.385601e+002, 8.677626e+001
7.390422e+002, 8.652149e+001
7.395243e+002, 8.605418e+001
7.400064e+002, 8.598692e+001
7.404885e+002, 8.646831e+001
7.409706e+002, 8.687065e+001
7.414528e+002, 8.673652e+001
7.419349e+002, 8.637904e+001
7.424170e+002, 8.655278e+001
7.428991e+002, 8.747427e+001
7.433812e+002, 8.813156e+001
7.438633e+002, 8.833761e+001
7.443455e+002, 8.837257e+001
7.448276e+002, 8.826028e+001
7.453097e+002, 8.812233e+001
7.457918e+002, 8.814385e+001
7.462739e+002, 8.836546e+001
7.467560e+002, 8.862260e+001
7.472382e+002, 8.870584e+001
7.477203e+002, 8.870893e+001
7.482024e+002, 8.897878e+001
7.486845e+002, 8.952527e+001
7.491666e+002, 8.992642e+001
7.496487e+002, 8.998423e+001
7.501309e+002, 8.998717e+001
7.506130e+002, 9.030408e+001
7.510951e+002, 9.095885e+001
7.515772e+002, 9.144650e+001
7.520593e+002, 9.179243e+001
7.525414e+002, 9.195105e+001
7.530236e+002, 9.169335e+001
7.535057e+002, 9.140092e+001
7.539878e+002, 9.145018e+001
7.544699e+002, 9.181198e+001
7.549520e+002, 9.219838e+001
7.554341e+002, 9.246680e+001
7.559163e+002, 9.264162e+001
7.563984e+002, 9.268836e+001
7.568805e+002, 9.265898e+001
7.573626e+002, 9.280740e+001
7.578447e+002, 9.318433e+001
7.583268e+002, 9.360314e+001
7.588090e+002, 9.395985e+001
7.592911e+002, 9.423425e+001
7.597732e+002, 9.435336e+001
7.602553e+002, 9.419126e+001
7.607374e+002, 9.410650e+001
7.612195e+002, 9.423682e+001
7.617017e+002, 9.429797e+001
7.621838e+002, 9.398911e+001
7.626659e+002, 9.358387e+001
7.631480e+002, 9.360790e+001
7.636301e+002, 9.422735e+001
7.641122e+002, 9.474245e+001
7.645944e+002, 9.439844e+001
7.650765e+002, 9.374644e+001
7.655586e+002, 9.375669e+001
7.660407e+002, 9.433257e+001
7.665228e+002, 9.474925e+001
7.670049e+002, 9.472830e+001
7.674871e+002, 9.444320e+001
7.679692e+002, 9.408711e+001
7.684513e+002, 9.364713e+001
7.689334e+002, 9.338424e+001
7.694155e+002, 9.334409e+001
7.698976e+002, 9.340709e+001
7.703798e+002, 9.372054e+001
7.708619e+002, 9.398531e+001
7.713440e+002, 9.391513e+001
7.718261e+002, 9.355932e+001
7.723082e+002, 9.323384e+001
7.727903e+002, 9.311929e+001
7.732725e+002, 9.297249e+001
7.737546e+002, 9.243275e+001
7.742367e+002, 9.183667e+001
7.747188e+002, 9.185201e+001
7.752009e+002, 9.245009e+001
7.756830e+002, 9.291700e+001
7.761652e+002, 9.276814e+001
7.766473e+002, 9.226333e+001
7.771294e+002, 9.205154e+001
7.776115e+002, 9.220826e+001
7.780936e+002, 9.212543e+001
7.785757e+002, 9.160606e+001
7.790579e+002, 9.114029e+001
7.795400e+002, 9.109560e+001
7.800221e+002, 9.122788e+001
7.805042e+002, 9.109187e+001
7.809863e+002, 9.058827e+001
7.814684e+002, 9.024649e+001
7.819506e+002, 9.041296e+001
7.824327e+002, 9.056115e+001
7.829148e+002, 9.024313e+001
7.833969e+002, 8.971098e+001
7.838790e+002, 8.944801e+001
7.843611e+002, 8.955224e+001
7.848433e+002, 8.966809e+001
7.853254e+002, 8.940543e+001
7.858075e+002, 8.894328e+001
7.862896e+002, 8.890084e+001
7.867717e+002, 8.928690e+001
7.872538e+002, 8.946976e+001
7.877360e+002, 8.926012e+001
7.882181e+002, 8.890444e+001
7.887002e+002, 8.860583e+001
7.891823e+002, 8.835925e+001
7.896644e+002, 8.813186e+001
7.901465e+002, 8.791779e+001
7.906286e+002, 8.772956e+001
7.911107e+002, 8.748421e+001
7.915928e+002, 8.734312e+001
7.920750e+002, 8.749381e+001
7.925571e+002, 8.781351e+001
7.930392e+002, 8.807020e+001
7.935213e+002, 8.819198e+001
7.940034e+002, 8.813258e+001
7.944855e+002, 8.766541e+001
7.949677e+002, 8.706550e+001
7.954498e+002, 8.694025e+001
7.959319e+002, 8.724099e+001
7.964140e+002, 8.742387e+001
7.968961e+002, 8.726136e+001
7.973782e+002, 8.691115e+001
7.978604e+002, 8.655603e+001
7.983425e+002, 8.618455e+001
7.988246e+002, 8.606581e+001
7.993067e+002, 8.637899e+001
7.997888e+002, 8.661866e+001
8.002709e+002, 8.658573e+001
8.007531e+002, 8.649214e+001
8.012352e+002, 8.652923e+001
8.017173e+002, 8.665618e+001
8.021994e+002, 8.664957e+001
8.026815e+002, 8.636820e+001
8.031636e+002, 8.606361e+001
8.036458e+002, 8.579717e+001
8.041279e+002, 8.562462e+001
8.046100e+002, 8.565968e+001
8.050921e+002, 8.585970e+001
8.055742e+002, 8.607400e+001
8.060563e+002, 8.622435e+001
8.065385e+002, 8.629668e+001
8.070206e+002, 8.626549e+001
8.075027e+002, 8.613329e+001
8.079848e+002, 8.588252e+001
8.084669e+002, 8.545995e+001
8.089490e+002, 8.520265e+001
8.094312e+002, 8.532731e+001
8.099133e+002, 8.560291e+001
8.103954e+002, 8.568259e+001
8.108775e+002, 8.552961e+001
8.113596e+002, 8.541194e+001
8.118417e+002, 8.538473e+001
8.123239e+002, 8.532314e+001
8.128060e+002, 8.507214e+001
8.132881e+002, 8.485904e+001
8.137702e+002, 8.500406e+001
8.142523e+002, 8.542070e+001
8.147344e+002, 8.565126e+001
8.152166e+002, 8.539451e+001
8.156987e+002, 8.502213e+001
8.161808e+002, 8.491239e+001
8.166629e+002, 8.498259e+001
8.171450e+002, 8.511402e+001
8.176271e+002, 8.526333e+001
8.181093e+002, 8.521232e+001
8.185914e+002, 8.480665e+001
8.190735e+002, 8.430499e+001
8.195556e+002, 8.424283e+001
8.200377e+002, 8.470908e+001
8.205198e+002, 8.505315e+001
8.210020e+002, 8.525439e+001
8.214841e+002, 8.536464e+001
8.219662e+002, 8.503963e+001
8.224483e+002, 8.489571e+001
8.229304e+002, 8.599923e+001
8.234125e+002, 8.827613e+001
8.238947e+002, 8.943542e+001
8.243768e+002, 8.809379e+001
8.248589e+002, 8.666312e+001
8.253410e+002, 8.618581e+001
8.258231e+002, 8.617136e+001
8.263052e+002, 8.612003e+001
8.267874e+002, 8.596679e+001
8.272695e+002, 8.581848e+001
8.277516e+002, 8.571964e+001
8.282337e+002, 8.572340e+001
8.287158e+002, 8.596854e+001
8.291979e+002, 8.638734e+001
8.296801e+002, 8.672410e+001
8.301622e+002, 8.695528e+001
8.306443e+002, 8.698270e+001
8.311264e+002, 8.669019e+001
8.316085e+002, 8.637064e+001
8.320906e+002, 8.656007e+001
8.325728e+002, 8.738083e+001
8.330549e+002, 8.780006e+001
8.335370e+002, 8.746367e+001
8.340191e+002, 8.722758e+001
8.345012e+002, 8.737298e+001
8.349833e+002, 8.761472e+001
8.354655e+002, 8.770201e+001
8.359476e+002, 8.766369e+001
8.364297e+002, 8.771499e+001
8.369118e+002, 8.799822e+001
8.373939e+002, 8.826064e+001
8.378760e+002, 8.835135e+001
8.383582e+002, 8.835775e+001
8.388403e+002, 8.838232e+001
8.393224e+002, 8.842106e+001
8.398045e+002, 8.837782e+001
8.402866e+002, 8.820572e+001
8.407687e+002, 8.810258e+001
8.412509e+002, 8.846146e+001
8.417330e+002, 8.916075e+001
8.422151e+002, 8.941275e+001
8.426972e+002, 8.916926e+001
8.431793e+002, 8.907227e+001
8.436614e+002, 8.938838e+001
8.441436e+002, 8.983538e+001
8.446257e+002, 9.011279e+001
8.451078e+002, 9.022108e+001
8.455899e+002, 9.017160e+001
8.460720e+002, 8.967021e+001
8.465541e+002, 8.944540e+001
8.470363e+002, 8.961675e+001
8.475184e+002, 9.001895e+001
8.480005e+002, 9.081180e+001
8.484826e+002, 9.170821e+001
8.489647e+002, 9.205202e+001
8.494468e+002, 9.155833e+001
8.499290e+002, 9.104245e+001
8.504111e+002, 9.086954e+001
8.508932e+002, 9.094852e+001
8.513753e+002, 9.136179e+001
8.518574e+002, 9.191644e+001
8.523395e+002, 9.216981e+001
8.528217e+002, 9.200732e+001
8.533038e+002, 9.172115e+001
8.537859e+002, 9.154482e+001
8.542680e+002, 9.151180e+001
8.547501e+002, 9.185075e+001
8.552322e+002, 9.256220e+001
8.557144e+002, 9.288754e+001
8.561965e+002, 9.261131e+001
8.566786e+002, 9.220089e+001
8.571607e+002, 9.197083e+001
8.576428e+002, 9.189536e+001
8.581249e+002, 9.189476e+001
8.586071e+002, 9.198915e+001
8.590892e+002, 9.211492e+001
8.595713e+002, 9.236199e+001
8.600534e+002, 9.253355e+001
8.605355e+002, 9.245071e+001
8.610176e+002, 9.231651e+001
8.614998e+002, 9.242465e+001
8.619819e+002, 9.278990e+001
8.624640e+002, 9.305456e+001
8.629461e+002, 9.295174e+001
8.634282e+002, 9.283627e+001
8.639103e+002, 9.303151e+001
8.643925e+002, 9.332225e+001
8.648746e+002, 9.336890e+001
8.653567e+002, 9.318079e+001
8.658388e+002, 9.301110e+001
8.663209e+002, 9.300581e+001
8.668030e+002, 9.309957e+001
8.672852e+002, 9.326838e+001
8.677673e+002, 9.346340e+001
8.682494e+002, 9.335802e+001
8.687315e+002, 9.292262e+001
8.692136e+002, 9.256751e+001
8.696957e+002, 9.245706e+001
8.701779e+002, 9.252153e+001
8.706600e+002, 9.269667e+001
8.711421e+002, 9.298472e+001
8.716242e+002, 9.315444e+001
8.721063e+002, 9.319554e+001
8.725884e+002, 9.313569e+001
8.730705e+002, 9.287267e+001
8.735526e+002, 9.260773e+001
8.740347e+002, 9.247860e+001
8.745168e+002, 9.243848e+001
8.749990e+002, 9.234998e+001
8.754811e+002, 9.214333e+001
8.759632e+002, 9.203851e+001
8.764453e+002, 9.221465e+001
8.769274e+002, 9.242203e+001
8.774095e+002, 9.245026e+001
8.778917e+002, 9.238846e+001
8.783738e+002, 9.245813e+001
8.788559e+002, 9.267664e+001
8.793380e+002, 9.276321e+001
8.798201e+002, 9.242136e+001
8.803022e+002, 9.191390e+001
8.807844e+002, 9.168569e+001
8.812665e+002, 9.166602e+001
8.817486e+002, 9.162061e+001
8.822307e+002, 9.150723e+001
8.827128e+002, 9.126922e+001
8.831949e+002, 9.083604e+001
8.836771e+002, 9.041105e+001
8.841592e+002, 9.050618e+001
8.846413e+002, 9.124981e+001
8.851234e+002, 9.148869e+001
8.856055e+002, 9.094579e+001
8.860876e+002, 9.059373e+001
8.865698e+002, 9.092223e+001
8.870519e+002, 9.142725e+001
8.875340e+002, 9.153017e+001
8.880161e+002, 9.125753e+001
8.884982e+002, 9.104552e+001
8.889803e+002, 9.093041e+001
8.894625e+002, 9.084216e+001
8.899446e+002, 9.081355e+001
8.904267e+002, 9.076578e+001
8.909088e+002, 9.057931e+001
8.913909e+002, 9.035189e+001
8.918730e+002, 9.029737e+001
8.923552e+002, 9.048060e+001
8.928373e+002, 9.067611e+001
8.933194e+002, 9.078566e+001
8.938015e+002, 9.079870e+001
8.942836e+002, 9.063957e+001
8.947657e+002, 9.039309e+001
8.952479e+002, 9.020848e+001
8.957300e+002, 9.013029e+001
8.962121e+002, 9.018275e+001
8.966942e+002, 9.040087e+001
8.971763e+002, 9.070064e+001
8.976584e+002, 9.091319e+001
8.981406e+002, 9.104576e+001
8.986227e+002, 9.116902e+001
8.991048e+002, 9.128344e+001
8.995869e+002, 9.145798e+001
9.000690e+002, 9.173720e+001
9.005511e+002, 9.206339e+001
9.010333e+002, 9.236268e+001
9.015154e+002, 9.263761e+001
9.019975e+002, 9.280946e+001
9.024796e+002, 9.273592e+001
9.029617e+002, 9.282703e+001
9.034438e+002, 9.326411e+001
9.039260e+002, 9.378891e+001
9.044081e+002, 9.435143e+001
9.048902e+002, 9.485267e+001
9.053723e+002, 9.495856e+001
9.058544e+002, 9.434937e+001
9.063365e+002, 9.416131e+001
9.068187e+002, 9.503323e+001
9.073008e+002, 9.601853e+001
9.077829e+002, 9.658116e+001
9.082650e+002, 9.688331e+001
9.087471e+002, 9.711730e+001
9.092292e+002, 9.736201e+001
9.097114e+002, 9.777859e+001
9.101935e+002, 9.859190e+001
9.106756e+002, 9.940443e+001
9.111577e+002, 9.970798e+001
9.116398e+002, 9.976694e+001
9.121219e+002, 1.000567e+002
9.126041e+002, 1.006030e+002
9.130862e+002, 1.012763e+002
9.135683e+002, 1.020160e+002
9.140504e+002, 1.026457e+002
9.145325e+002, 1.027886e+002
9.150146e+002, 1.026038e+002
9.154968e+002, 1.031613e+002
9.159789e+002, 1.044996e+002
9.164610e+002, 1.054156e+002
9.169431e+002, 1.055101e+002
9.174252e+002, 1.056311e+002
9.179073e+002, 1.065668e+002
9.183895e+002, 1.080136e+002
9.188716e+002, 1.088186e+002
9.193537e+002, 1.085669e+002
9.198358e+002, 1.087504e+002
9.203179e+002, 1.095697e+002
9.208000e+002, 1.105415e+002
9.212822e+002, 1.116535e+002
9.217643e+002, 1.127076e+002
9.222464e+002, 1.133279e+002
9.227285e+002, 1.135491e+002
9.232106e+002, 1.142309e+002
9.236927e+002, 1.157513e+002
9.241749e+002, 1.173910e+002
9.246570e+002, 1.191777e+002
9.251391e+002, 1.208028e+002
9.256212e+002, 1.219545e+002
9.261033e+002, 1.227684e+002
9.265854e+002, 1.234726e+002
9.270676e+002, 1.241252e+002
9.275497e+002, 1.250081e+002
9.280318e+002, 1.263280e+002
9.285139e+002, 1.279413e+002
9.289960e+002, 1.299266e+002
9.294781e+002, 1.320324e+002
9.299603e+002, 1.336838e+002
9.304424e+002, 1.349016e+002
9.309245e+002, 1.363136e+002
9.314066e+002, 1.383311e+002
9.318887e+002, 1.406722e+002
9.323708e+002, 1.428766e+002
9.328530e+002, 1.450082e+002
9.333351e+002, 1.474422e+002
9.338172e+002, 1.501589e+002
9.342993e+002, 1.525339e+002
9.347814e+002, 1.542945e+002
9.352635e+002, 1.558536e+002
9.357457e+002, 1.576009e+002
9.362278e+002, 1.595705e+002
9.367099e+002, 1.620322e+002
9.371920e+002, 1.651324e+002
9.376741e+002, 1.681034e+002
9.381563e+002, 1.708701e+002
9.386384e+002, 1.734760e+002
9.391205e+002, 1.758353e+002
9.396026e+002, 1.781734e+002
9.400847e+002, 1.809580e+002
9.405668e+002, 1.842982e+002
9.410490e+002, 1.874093e+002
9.415311e+002, 1.903924e+002
9.420132e+002, 1.930321e+002
9.424953e+002, 1.948886e+002
9.429774e+002, 1.967511e+002
9.434595e+002, 1.992486e+002
9.439417e+002, 2.022149e+002
9.444238e+002, 2.051411e+002
9.449059e+002, 2.079391e+002
9.453880e+002, 2.106771e+002
9.458701e+002, 2.135670e+002
9.463522e+002, 2.162269e+002
9.468344e+002, 2.183259e+002
9.473165e+002, 2.200546e+002
9.477986e+002, 2.215805e+002
9.482807e+002, 2.229935e+002
9.487628e+002, 2.244756e+002
9.492449e+002, 2.261046e+002
9.497271e+002, 2.278878e+002
9.502092e+002, 2.301570e+002
9.506913e+002, 2.324080e+002
9.511734e+002, 2.336752e+002
9.516555e+002, 2.342043e+002
9.521376e+002, 2.350374e+002
9.526198e+002, 2.365025e+002
9.531019e+002, 2.379807e+002
9.535840e+002, 2.388374e+002
9.540661e+002, 2.393480e+002
9.545482e+002, 2.402932e+002
9.550303e+002, 2.415581e+002
9.555124e+002, 2.422592e+002
9.559945e+002, 2.422784e+002
9.564766e+002, 2.424713e+002
9.569587e+002, 2.433131e+002
9.574409e+002, 2.445008e+002
9.579230e+002, 2.455648e+002
9.584051e+002, 2.465134e+002
9.588872e+002, 2.473821e+002
9.593693e+002, 2.480952e+002
9.598514e+002, 2.490820e+002
9.603336e+002, 2.504925e+002
9.608157e+002, 2.520579e+002
9.612978e+002, 2.535704e+002
9.617799e+002, 2.550775e+002
9.622620e+002, 2.567155e+002
9.627441e+002, 2.585142e+002
9.632263e+002, 2.603401e+002
9.637084e+002, 2.618777e+002
9.641905e+002, 2.638718e+002
9.646726e+002, 2.666247e+002
9.651547e+002, 2.698069e+002
9.656368e+002, 2.730338e+002
9.661190e+002, 2.764327e+002
9.666011e+002, 2.806183e+002
9.670832e+002, 2.861032e+002
9.675653e+002, 2.915072e+002
9.680474e+002, 2.956910e+002
9.685295e+002, 3.006406e+002
9.690117e+002, 3.078620e+002
9.694938e+002, 3.163138e+002
9.699759e+002, 3.242592e+002
9.704580e+002, 3.317089e+002
9.709401e+002, 3.404739e+002
9.714222e+002, 3.516913e+002
9.719044e+002, 3.638191e+002
9.723865e+002, 3.755744e+002
9.728686e+002, 3.879975e+002
9.733507e+002, 4.019223e+002
9.738328e+002, 4.174494e+002
9.743149e+002, 4.343203e+002
9.747971e+002, 4.525175e+002
9.752792e+002, 4.729651e+002
9.757613e+002, 4.960695e+002
9.762434e+002, 5.220385e+002
9.767255e+002, 5.507888e+002
9.772076e+002, 5.827048e+002
9.776898e+002, 6.185726e+002
9.781719e+002, 6.588234e+002
9.786540e+002, 7.038904e+002
9.791361e+002, 7.542234e+002
9.796182e+002, 8.082809e+002
9.801003e+002, 8.636789e+002
9.805825e+002, 9.216512e+002
9.810646e+002, 9.845751e+002
9.815467e+002, 1.052353e+003
9.820288e+002, 1.124714e+003
9.825109e+002, 1.201321e+003
9.829930e+002, 1.285347e+003
9.834752e+002, 1.378110e+003
9.839573e+002, 1.481301e+003
9.844394e+002, 1.597209e+003
9.849215e+002, 1.725563e+003
9.854036e+002, 1.871044e+003
9.858857e+002, 2.032467e+003
9.863679e+002, 2.217856e+003
9.868500e+002, 2.428800e+003
9.873321e+002, 2.667531e+003
9.878142e+002, 2.935998e+003
9.882963e+002, 3.233643e+003
9.887784e+002, 3.561917e+003
9.892606e+002, 3.929712e+003
9.897427e+002, 4.294930e+003
9.902248e+002, 4.677938e+003
9.907069e+002, 5.021579e+003
9.911890e+002, 5.335256e+003
9.916711e+002, 5.575326e+003
9.921533e+002, 5.710486e+003
9.926354e+002, 5.738327e+003
9.931175e+002, 5.639845e+003
9.935996e+002, 5.386897e+003
9.940817e+002, 5.060021e+003
9.945638e+002, 4.620909e+003
9.950460e+002, 4.152663e+003
9.955281e+002, 3.656646e+003
9.960102e+002, 3.170280e+003
9.964923e+002, 2.725919e+003
9.969744e+002, 2.325832e+003
9.974565e+002, 1.978732e+003
9.979387e+002, 1.694176e+003
9.984208e+002, 1.451737e+003
9.989029e+002, 1.256655e+003
9.993850e+002, 1.092773e+003
9.998671e+002, 9.581856e+002
1.000349e+003, 8.461425e+002
1.000831e+003, 7.516025e+002
1.001313e+003, 6.726288e+002
1.001796e+003, 6.049963e+002
1.002278e+003, 5.494431e+002
1.002760e+003, 5.015444e+002
1.003242e+003, 4.604157e+002
1.003724e+003, 4.246564e+002
1.004206e+003, 3.932313e+002
1.004688e+003, 3.657543e+002
1.005170e+003, 3.416392e+002
1.005653e+003, 3.206024e+002
1.006135e+003, 3.017276e+002
1.006617e+003, 2.844479e+002
1.007099e+003, 2.688932e+002
1.007581e+003, 2.556669e+002
1.008063e+003, 2.439922e+002
1.008545e+003, 2.328838e+002
1.009027e+003, 2.223266e+002
1.009509e+003, 2.126759e+002
1.009992e+003, 2.040778e+002
1.010474e+003, 1.961886e+002
1.010956e+003, 1.887381e+002
1.011438e+003, 1.818766e+002
1.011920e+003, 1.759837e+002
1.012402e+003, 1.708346e+002
1.012884e+003, 1.658311e+002
1.013366e+003, 1.609795e+002
1.013849e+003, 1.567844e+002
1.014331e+003, 1.534361e+002
1.014813e+003, 1.503569e+002
1.015295e+003, 1.468451e+002
1.015777e+003, 1.431531e+002
1.016259e+003, 1.399215e+002
1.016741e+003, 1.370813e+002
1.017223e+003, 1.343424e+002
1.017705e+003, 1.316836e+002
1.018188e+003, 1.293083e+002
1.018670e+003, 1.273295e+002
1.019152e+003, 1.255783e+002
1.019634e+003, 1.238433e+002
1.020116e+003, 1.221312e+002
1.020598e+003, 1.203634e+002
1.021080e+003, 1.185614e+002
1.021562e+003, 1.172345e+002
1.022044e+003, 1.164956e+002
1.022527e+003, 1.157116e+002
1.023009e+003, 1.144964e+002
1.023491e+003, 1.131411e+002
1.023973e+003, 1.121301e+002
1.024455e+003, 1.114345e+002
1.024937e+003, 1.105442e+002
1.025419e+003, 1.094084e+002
1.025901e+003, 1.085732e+002
1.026384e+003, 1.081925e+002
1.026866e+003, 1.078690e+002
1.027348e+003, 1.073521e+002
1.027830e+003, 1.067475e+002
1.028312e+003, 1.062565e+002
1.028794e+003, 1.058817e+002
1.029276e+003, 1.054672e+002
1.029758e+003, 1.049498e+002
1.030240e+003, 1.046113e+002
1.030723e+003, 1.045087e+002
1.031205e+003, 1.045955e+002
1.031687e+003, 1.049124e+002
1.032169e+003, 1.053235e+002
1.032651e+003, 1.055572e+002
1.033133e+003, 1.056011e+002
1.033615e+003, 1.055315e+002
1.034097e+003, 1.051087e+002
1.034579e+003, 1.051210e+002
1.035062e+003, 1.059821e+002
1.035544e+003, 1.069054e+002
1.036026e+003, 1.073377e+002
1.036508e+003, 1.074920e+002
1.036990e+003, 1.077740e+002
1.037472e+003, 1.081480e+002
1.037954e+003, 1.088541e+002
1.038436e+003, 1.102057e+002
1.038919e+003, 1.113787e+002
1.039401e+003, 1.121873e+002
1.039883e+003, 1.128204e+002
1.040365e+003, 1.131765e+002
1.040847e+003, 1.135114e+002
1.041329e+003, 1.144296e+002
1.041811e+003, 1.160919e+002
1.042293e+003, 1.175014e+002
1.042776e+003, 1.183750e+002
1.043258e+003, 1.193768e+002
1.043740e+003, 1.205475e+002
1.044222e+003, 1.219646e+002
1.044704e+003, 1.237618e+002
1.045186e+003, 1.258088e+002
1.045668e+003, 1.278200e+002
1.046150e+003, 1.297328e+002
1.046632e+003, 1.318825e+002
1.047115e+003, 1.343966e+002
1.047597e+003, 1.370217e+002
1.048079e+003, 1.395467e+002
1.048561e+003, 1.422985e+002
1.049043e+003, 1.457003e+002
1.049525e+003, 1.494209e+002
1.050007e+003, 1.527840e+002
1.050489e+003, 1.556231e+002
1.050971e+003, 1.589967e+002
1.051454e+003, 1.632870e+002
1.051936e+003, 1.678675e+002
1.052418e+003, 1.722222e+002
1.052900e+003, 1.771293e+002
1.053382e+003, 1.837569e+002
1.053864e+003, 1.911138e+002
1.054346e+003, 1.972259e+002
1.054828e+003, 2.018024e+002
1.055311e+003, 2.067782e+002
1.055793e+003, 2.127033e+002
1.056275e+003, 2.190570e+002
1.056757e+003, 2.255562e+002
1.057239e+003, 2.325224e+002
1.057721e+003, 2.404459e+002
1.058203e+003, 2.488642e+002
1.058685e+003, 2.570418e+002
1.059167e+003, 2.648649e+002
1.059650e+003, 2.727299e+002
1.060132e+003, 2.809513e+002
1.060614e+003, 2.889917e+002
1.061096e+003, 2.964387e+002
1.061578e+003, 3.038721e+002
1.062060e+003, 3.119702e+002
1.062542e+003, 3.203109e+002
1.063024e+003, 3.282977e+002
1.063506e+003, 3.357804e+002
1.063989e+003, 3.423773e+002
1.064471e+003, 3.481207e+002
1.064953e+003, 3.527559e+002
1.065435e+003, 3.560914e+002
1.065917e+003, 3.583687e+002
1.066399e+003, 3.597381e+002
1.066881e+003, 3.601942e+002
1.067363e+003, 3.598031e+002
1.067846e+003, 3.585098e+002
1.068328e+003, 3.558541e+002
1.068810e+003, 3.513222e+002
1.069292e+003, 3.460037e+002
1.069774e+003, 3.400983e+002
1.070256e+003, 3.338839e+002
1.070738e+003, 3.277240e+002
1.071220e+003, 3.212870e+002
1.071703e+003, 3.138182e+002
1.072185e+003, 3.054234e+002
1.072667e+003, 2.970601e+002
1.073149e+003, 2.888470e+002
1.073631e+003, 2.812746e+002
1.074113e+003, 2.749839e+002
1.074595e+003, 2.689807e+002
1.075077e+003, 2.625188e+002
1.075559e+003, 2.559181e+002
1.076042e+003, 2.495288e+002
1.076524e+003, 2.434372e+002
1.077006e+003, 2.376677e+002
1.077488e+003, 2.321202e+002
1.077970e+003, 2.271847e+002
1.078452e+003, 2.232723e+002
1.078934e+003, 2.197499e+002
1.079416e+003, 2.161357e+002
1.079898e+003, 2.126749e+002
1.080380e+003, 2.096538e+002
1.080863e+003, 2.070717e+002
1.081345e+003, 2.047523e+002
1.081827e+003, 2.026028e+002
1.082309e+003, 2.009503e+002
1.082791e+003, 2.000730e+002
1.083273e+003, 1.995716e+002
1.083755e+003, 1.993231e+002
1.084237e+003, 1.992332e+002
1.084720e+003, 1.991168e+002
1.085202e+003, 1.990960e+002
1.085684e+003, 1.995833e+002
1.086166e+003, 2.007434e+002
1.086648e+003, 2.018095e+002
1.087130e+003, 2.020755e+002
1.087612e+003, 2.026382e+002
1.088094e+003, 2.045798e+002
1.088577e+003, 2.066459e+002
1.089059e+003, 2.074528e+002
1.089541e+003, 2.075049e+002
1.090023e+003, 2.080585e+002
1.090505e+003, 2.093805e+002
1.090987e+003, 2.106895e+002
1.091469e+003, 2.117029e+002
1.091951e+003, 2.126452e+002
1.092433e+003, 2.136906e+002
1.092916e+003, 2.146322e+002
1.093398e+003, 2.152725e+002
1.093880e+003, 2.156995e+002
1.094362e+003, 2.161753e+002
1.094844e+003, 2.166940e+002
1.095326e+003, 2.167031e+002
1.095808e+003, 2.158601e+002
1.096290e+003, 2.147306e+002
1.096772e+003, 2.138130e+002
1.097255e+003, 2.123307e+002
1.097737e+003, 2.092973e+002
1.098219e+003, 2.056828e+002
1.098701e+003, 2.029772e+002
1.099183e+003, 2.010963e+002
1.099665e+003, 1.984085e+002
1.100147e+003, 1.940073e+002
1.100629e+003, 1.898877e+002
1.101112e+003, 1.865352e+002
1.101594e+003, 1.836321e+002
1.102076e+003, 1.811301e+002
1.102558e+003, 1.788979e+002
1.103040e+003, 1.768427e+002
1.103522e+003, 1.749510e+002
1.104004e+003, 1.731738e+002
1.104486e+003, 1.713557e+002
1.104969e+003, 1.701096e+002
1.105451e+003, 1.699660e+002
1.105933e+003, 1.698687e+002
1.106415e+003, 1.694178e+002
1.106897e+003, 1.688988e+002
1.107379e+003, 1.685726e+002
1.107861e+003, 1.683573e+002
1.108343e+003, 1.680733e+002
1.108825e+003, 1.677463e+002
1.109307e+003, 1.671201e+002
1.109790e+003, 1.660735e+002
1.110272e+003, 1.648650e+002
1.110754e+003, 1.637307e+002
1.111236e+003, 1.622598e+002
1.111718e+003, 1.601304e+002
1.112200e+003, 1.575346e+002
1.112682e+003, 1.548044e+002
1.113164e+003, 1.519602e+002
1.113647e+003, 1.487686e+002
1.114129e+003, 1.447029e+002
1.114611e+003, 1.411956e+002
1.115093e+003, 1.387973e+002
1.115575e+003, 1.363597e+002
1.116057e+003, 1.332528e+002
1.116539e+003, 1.299944e+002
1.117021e+003, 1.271012e+002
1.117504e+003, 1.245803e+002
1.117986e+003, 1.225027e+002
1.118468e+003, 1.210618e+002
1.118950e+003, 1.196203e+002
1.119432e+003, 1.181032e+002
1.119914e+003, 1.167267e+002
1.120396e+003, 1.155247e+002
1.120878e+003, 1.145392e+002
1.121360e+003, 1.138631e+002
1.121843e+003, 1.133781e+002
1.122325e+003, 1.126725e+002
1.122807e+003, 1.115862e+002
1.123289e+003, 1.113107e+002
1.123771e+003, 1.120639e+002
1.124253e+003, 1.128703e+002
1.124735e+003, 1.134706e+002
1.125217e+003, 1.142938e+002
1.125699e+003, 1.157188e+002
1.126182e+003, 1.172838e+002
1.126664e+003, 1.181000e+002
1.127146e+003, 1.182386e+002
1.127628e+003, 1.190476e+002
1.128110e+003, 1.205895e+002
1.128592e+003, 1.221728e+002
1.129074e+003, 1.236746e+002
1.129556e+003, 1.254282e+002
1.130039e+003, 1.275952e+002
1.130521e+003, 1.299572e+002
1.131003e+003, 1.322692e+002
1.131485e+003, 1.345648e+002
1.131967e+003, 1.369309e+002
1.132449e+003, 1.393698e+002
1.132931e+003, 1.418918e+002
1.133413e+003, 1.445202e+002
1.133896e+003, 1.474624e+002
1.134378e+003, 1.507836e+002
1.134860e+003, 1.540980e+002
1.135342e+003, 1.571104e+002
1.135824e+003, 1.599169e+002
1.136306e+003, 1.627392e+002
1.136788e+003, 1.654998e+002
1.137270e+003, 1.677788e+002
1.137752e+003, 1.696973e+002
1.138234e+003, 1.719336e+002
1.138717e+003, 1.745483e+002
1.139199e+003, 1.770260e+002
1.139681e+003, 1.791157e+002
1.140163e+003, 1.807104e+002
1.140645e+003, 1.815204e+002
1.141127e+003, 1.819472e+002
1.141609e+003, 1.827861e+002
1.142091e+003, 1.838010e+002
1.142574e+003, 1.844246e+002
1.143056e+003, 1.847121e+002
1.143538e+003, 1.851773e+002
1.144020e+003, 1.859118e+002
1.144502e+003, 1.862031e+002
1.144984e+003, 1.853192e+002
1.145466e+003, 1.843373e+002
1.145948e+003, 1.846334e+002
1.146431e+003, 1.852818e+002
1.146913e+003, 1.851141e+002
1.147395e+003, 1.844010e+002
1.147877e+003, 1.837725e+002
1.148359e+003, 1.832845e+002
1.148841e+003, 1.825733e+002
1.149323e+003, 1.814312e+002
1.149805e+003, 1.803755e+002
1.150287e+003, 1.799266e+002
1.150770e+003, 1.794575e+002
1.151252e+003, 1.786226e+002
1.151734e+003, 1.774420e+002
1.152216e+003, 1.759027e+002
1.152698e+003, 1.740660e+002
1.153180e+003, 1.720334e+002
1.153662e+003, 1.698272e+002
1.154144e+003, 1.674654e+002
1.154626e+003, 1.648915e+002
1.155109e+003, 1.622368e+002
1.155591e+003, 1.595601e+002
1.156073e+003, 1.568031e+002
1.156555e+003, 1.537854e+002
1.157037e+003, 1.507465e+002
1.157519e+003, 1.479933e+002
1.158001e+003, 1.454997e+002
1.158483e+003, 1.429902e+002
1.158966e+003, 1.403260e+002
1.159448e+003, 1.378421e+002
1.159930e+003, 1.357850e+002
1.160412e+003, 1.335813e+002
1.160894e+003, 1.308255e+002
1.161376e+003, 1.281426e+002
1.161858e+003, 1.260766e+002
1.162340e+003, 1.243700e+002
1.162822e+003, 1.224566e+002
1.163305e+003, 1.203006e+002
1.163787e+003, 1.182948e+002
1.164269e+003, 1.165386e+002
1.164751e+003, 1.146380e+002
1.165233e+003, 1.124943e+002
1.165715e+003, 1.103541e+002
1.166197e+003, 1.082892e+002
1.166679e+003, 1.064086e+002
1.167161e+003, 1.049466e+002
1.167644e+003, 1.036605e+002
1.168126e+003, 1.014069e+002
1.168608e+003, 9.814514e+001
1.169090e+003, 9.502697e+001
1.169572e+003, 9.209303e+001
1.170054e+003, 9.018997e+001
1.170536e+003, 8.958569e+001
1.171018e+003, 8.873264e+001
1.171500e+003, 8.651881e+001
1.171983e+003, 8.379066e+001
1.172465e+003, 8.191668e+001
1.172947e+003, 8.063264e+001
1.173429e+003, 7.895616e+001
1.173911e+003, 7.707124e+001
1.174393e+003, 7.577169e+001
1.174875e+003, 7.502488e+001
1.175357e+003, 7.410864e+001
1.175840e+003, 7.275766e+001
1.176322e+003, 7.135076e+001
1.176804e+003, 7.012302e+001
1.177286e+003, 6.915050e+001
1.177768e+003, 6.874866e+001
1.178250e+003, 6.849958e+001
1.178732e+003, 6.773252e+001
1.179214e+003, 6.666054e+001
1.179697e+003, 6.576096e+001
1.180179e+003, 6.508271e+001
1.180661e+003, 6.441601e+001
1.181143e+003, 6.366162e+001
1.181625e+003, 6.301114e+001
1.182107e+003, 6.268744e+001
1.182589e+003, 6.238201e+001
1.183071e+003, 6.189573e+001
1.183553e+003, 6.133214e+001
1.184036e+003, 6.074561e+001
1.184518e+003, 6.018277e+001
1.185000e+003, 5.967190e+001
1.185482e+003, 5.922736e+001
1.185964e+003, 5.898119e+001
1.186446e+003, 5.928611e+001
1.186928e+003, 5.926726e+001
1.187410e+003, 5.838650e+001
1.187892e+003, 5.764482e+001
1.188375e+003, 5.751389e+001
1.188857e+003, 5.766952e+001
1.189339e+003, 5.784068e+001
1.189821e+003, 5.804897e+001
1.190303e+003, 5.843959e+001
1.190785e+003, 5.919129e+001
1.191267e+003, 5.899959e+001
1.191749e+003, 5.741677e+001
1.192232e+003, 5.614203e+001
1.192714e+003, 5.545176e+001
1.193196e+003, 5.510148e+001
1.193678e+003, 5.503619e+001
1.194160e+003, 5.505237e+001
1.194642e+003, 5.487827e+001
1.195124e+003, 5.460760e+001
1.195606e+003, 5.466557e+001
1.196089e+003, 5.503347e+001
1.196571e+003, 5.521736e+001
1.197053e+003, 5.519748e+001
1.197535e+003, 5.505912e+001
1.198017e+003, 5.483036e+001
1.198499e+003, 5.458818e+001
1.198981e+003, 5.437754e+001
1.199463e+003, 5.421932e+001
1.199945e+003, 5.414426e+001
1.200427e+003, 5.413999e+001
1.200910e+003, 5.428147e+001
1.201392e+003, 5.443191e+001
1.201874e+003, 5.417519e+001
1.202356e+003, 5.365514e+001
1.202838e+003, 5.341811e+001
1.203320e+003, 5.358259e+001
1.203802e+003, 5.379974e+001
1.204284e+003, 5.387708e+001
1.204767e+003, 5.391497e+001
1.205249e+003, 5.403413e+001
1.205731e+003, 5.409683e+001
1.206213e+003, 5.393044e+001
1.206695e+003, 5.368361e+001
1.207177e+003, 5.350616e+001
1.207659e+003, 5.341526e+001
1.208141e+003, 5.345084e+001
1.208624e+003, 5.364061e+001
1.209106e+003, 5.359868e+001
1.209588e+003, 5.291949e+001
1.210070e+003, 5.247120e+001
1.210552e+003, 5.264643e+001
1.211034e+003, 5.283768e+001
1.211516e+003, 5.275750e+001
1.211998e+003, 5.253123e+001
1.212480e+003, 5.221883e+001
1.212963e+003, 5.187703e+001
1.213445e+003, 5.174860e+001
1.213927e+003, 5.190844e+001
1.214409e+003, 5.187919e+001
1.214891e+003, 5.158549e+001
1.215373e+003, 5.141106e+001
1.215855e+003, 5.144784e+001
1.216337e+003, 5.150698e+001
1.216819e+003, 5.148452e+001
1.217302e+003, 5.147350e+001
1.217784e+003, 5.162179e+001
1.218266e+003, 5.181525e+001
1.218748e+003, 5.162136e+001
1.219230e+003, 5.114565e+001
1.219712e+003, 5.093909e+001
1.220194e+003, 5.097914e+001
1.220676e+003, 5.100542e+001
1.221159e+003, 5.094669e+001
1.221641e+003, 5.076573e+001
1.222123e+003, 5.043399e+001
1.222605e+003, 5.017673e+001
1.223087e+003, 5.030312e+001
1.223569e+003, 5.053896e+001
1.224051e+003, 5.061430e+001
1.224533e+003, 5.057296e+001
1.225016e+003, 5.040030e+001
1.225498e+003, 5.018828e+001
1.225980e+003, 5.012379e+001
1.226462e+003, 5.020631e+001
1.226944e+003, 5.021798e+001
1.227426e+003, 5.003600e+001
1.227908e+003, 4.991813e+001
1.228390e+003, 4.992857e+001
1.228872e+003, 5.005181e+001
1.229354e+003, 5.037274e+001
1.229837e+003, 5.071502e+001
1.230319e+003, 5.108962e+001
1.230801e+003, 5.131329e+001
1.231283e+003, 5.097846e+001
1.231765e+003, 5.011095e+001
1.232247e+003, 4.963512e+001
1.232729e+003, 4.964273e+001
1.233211e+003, 4.979284e+001
1.233694e+003, 5.014675e+001
1.234176e+003, 5.036235e+001
1.234658e+003, 5.031068e+001
1.235140e+003, 5.021457e+001
1.235622e+003, 5.023197e+001
1.236104e+003, 5.031453e+001
1.236586e+003, 5.039390e+001
1.237068e+003, 5.045987e+001
1.237551e+003, 5.045861e+001
1.238033e+003, 5.040562e+001
1.238515e+003, 5.034031e+001
1.238997e+003, 5.028989e+001
1.239479e+003, 5.040324e+001
1.239961e+003, 5.068196e+001
1.240443e+003, 5.080517e+001
1.240925e+003, 5.053557e+001
1.241407e+003, 5.022400e+001
1.241890e+003, 5.022500e+001
1.242372e+003, 5.032912e+001
1.242854e+003, 5.039308e+001
1.243336e+003, 5.038810e+001
1.243818e+003, 5.022557e+001
1.244300e+003, 4.999694e+001
1.244782e+003, 4.985692e+001
1.245264e+003, 4.984106e+001
1.245746e+003, 5.002563e+001
1.246229e+003, 5.075996e+001
1.246711e+003, 5.108434e+001
1.247193e+003, 5.025771e+001
1.247675e+003, 4.979181e+001
1.248157e+003, 5.060100e+001
1.248639e+003, 5.144335e+001
1.249121e+003, 5.141748e+001
1.249603e+003, 5.088777e+001
1.250085e+003, 5.046147e+001
1.250568e+003, 5.014623e+001
1.251050e+003, 5.008490e+001
1.251532e+003, 5.029879e+001
1.252014e+003, 5.057643e+001
1.252496e+003, 5.091106e+001
1.252978e+003, 5.103156e+001
1.253460e+003, 5.085751e+001
1.253942e+003, 5.057256e+001
1.254425e+003, 5.028304e+001
1.254907e+003, 5.016847e+001
1.255389e+003, 5.063994e+001
1.255871e+003, 5.133949e+001
1.256353e+003, 5.165867e+001
1.256835e+003, 5.166558e+001
1.257317e+003, 5.127314e+001
1.257799e+003, 5.073947e+001
1.258281e+003, 5.069551e+001
1.258764e+003, 5.118346e+001
1.259246e+003, 5.158604e+001
1.259728e+003, 5.160101e+001
1.260210e+003, 5.165952e+001
1.260692e+003, 5.202244e+001
1.261174e+003, 5.239621e+001
1.261656e+003, 5.281063e+001
1.262138e+003, 5.301217e+001
1.262620e+003, 5.254914e+001
1.263103e+003, 5.189839e+001
1.263585e+003, 5.179835e+001
1.264067e+003, 5.221507e+001
1.264549e+003, 5.290382e+001
1.265031e+003, 5.415266e+001
1.265513e+003, 5.459731e+001
1.265995e+003, 5.396953e+001
1.266477e+003, 5.372316e+001
1.266960e+003, 5.421515e+001
1.267442e+003, 5.498285e+001
1.267924e+003, 5.582850e+001
1.268406e+003, 5.626756e+001
1.268888e+003, 5.559570e+001
1.269370e+003, 5.434612e+001
1.269852e+003, 5.361427e+001
1.270334e+003, 5.334614e+001
1.270817e+003, 5.352520e+001
1.271299e+003, 5.401302e+001
1.271781e+003, 5.457377e+001
1.272263e+003, 5.508835e+001
1.272745e+003, 5.531873e+001
1.273227e+003, 5.517255e+001
1.273709e+003, 5.506157e+001
1.274191e+003, 5.535111e+001
1.274673e+003, 5.557168e+001
1.275156e+003, 5.528255e+001
1.275638e+003, 5.508017e+001
1.276120e+003, 5.549764e+001
1.276602e+003, 5.611058e+001
1.277084e+003, 5.640845e+001
1.277566e+003, 5.648121e+001
1.278048e+003, 5.670154e+001
1.278530e+003, 5.710223e+001
1.279012e+003, 5.734309e+001
1.279495e+003, 5.735094e+001
1.279977e+003, 5.747347e+001
1.280459e+003, 5.778651e+001
1.280941e+003, 5.799314e+001
1.281423e+003, 5.796872e+001
1.281905e+003, 5.796098e+001
1.282387e+003, 5.816317e+001
1.282869e+003, 5.852102e+001
1.283352e+003, 5.897314e+001
1.283834e+003, 5.948640e+001
1.284316e+003, 5.998388e+001
1.284798e+003, 6.046889e+001
##END=



