##NAMES=Ammineite
##RRUFFID=R120154
##IDEAL CHEMISTRY=Cu^2+^Cl_2_(N^3-^H_3_)_2_
##LOCALITY=Rowley mine, Maricopa County, Arizona, USA
##OWNER=RRUFF
##SOURCE=Ron Gibbs
##DESCRIPTION=Blue massive coating
##STATUS=The identification of this mineral has been confirmed by single-crystal X-ray diffraction.
##URL=rruff.info/R120154
8.936163e+001, 0.000000e+000
8.984375e+001, 2.657922e+002
9.032587e+001, 2.681353e+002
9.080798e+001, 2.685792e+002
9.129010e+001, 2.663503e+002
9.177222e+001, 2.631209e+002
9.225433e+001, 2.610076e+002
9.273645e+001, 2.599049e+002
9.321857e+001, 2.587717e+002
9.370068e+001, 2.569607e+002
9.418280e+001, 2.544705e+002
9.466492e+001, 2.512424e+002
9.514703e+001, 2.465976e+002
9.562915e+001, 2.413271e+002
9.611127e+001, 2.377402e+002
9.659338e+001, 2.360644e+002
9.707550e+001, 2.350553e+002
9.755762e+001, 2.332398e+002
9.803973e+001, 2.305948e+002
9.852185e+001, 2.278649e+002
9.900397e+001, 2.251098e+002
9.948608e+001, 2.223037e+002
9.996820e+001, 2.205298e+002
1.004503e+002, 2.202382e+002
1.009324e+002, 2.204387e+002
1.014146e+002, 2.188684e+002
1.018967e+002, 2.149478e+002
1.023788e+002, 2.108726e+002
1.028609e+002, 2.076926e+002
1.033430e+002, 2.055414e+002
1.038251e+002, 2.040395e+002
1.043073e+002, 2.036242e+002
1.047894e+002, 2.039187e+002
1.052715e+002, 2.028569e+002
1.057536e+002, 1.995372e+002
1.062357e+002, 1.958449e+002
1.067178e+002, 1.930411e+002
1.072000e+002, 1.916073e+002
1.076821e+002, 1.904089e+002
1.081642e+002, 1.894603e+002
1.086463e+002, 1.888044e+002
1.091284e+002, 1.878010e+002
1.096105e+002, 1.864665e+002
1.100927e+002, 1.847720e+002
1.105748e+002, 1.827069e+002
1.110569e+002, 1.794586e+002
1.115390e+002, 1.766033e+002
1.120211e+002, 1.746262e+002
1.125032e+002, 1.738004e+002
1.129854e+002, 1.729022e+002
1.134675e+002, 1.720551e+002
1.139496e+002, 1.709946e+002
1.144317e+002, 1.693194e+002
1.149138e+002, 1.658482e+002
1.153959e+002, 1.625589e+002
1.158781e+002, 1.604667e+002
1.163602e+002, 1.602561e+002
1.168423e+002, 1.600728e+002
1.173244e+002, 1.593623e+002
1.178065e+002, 1.581958e+002
1.182886e+002, 1.567547e+002
1.187708e+002, 1.546942e+002
1.192529e+002, 1.525986e+002
1.197350e+002, 1.509540e+002
1.202171e+002, 1.500263e+002
1.206992e+002, 1.494026e+002
1.211813e+002, 1.490765e+002
1.216635e+002, 1.489539e+002
1.221456e+002, 1.485157e+002
1.226277e+002, 1.472590e+002
1.231098e+002, 1.455344e+002
1.235919e+002, 1.437998e+002
1.240740e+002, 1.420733e+002
1.245562e+002, 1.404896e+002
1.250383e+002, 1.392993e+002
1.255204e+002, 1.384943e+002
1.260025e+002, 1.377272e+002
1.264846e+002, 1.365277e+002
1.269667e+002, 1.351105e+002
1.274489e+002, 1.340125e+002
1.279310e+002, 1.338254e+002
1.284131e+002, 1.340563e+002
1.288952e+002, 1.336558e+002
1.293773e+002, 1.325040e+002
1.298594e+002, 1.311551e+002
1.303416e+002, 1.304363e+002
1.308237e+002, 1.302407e+002
1.313058e+002, 1.297396e+002
1.317879e+002, 1.281188e+002
1.322700e+002, 1.256894e+002
1.327521e+002, 1.240478e+002
1.332343e+002, 1.234615e+002
1.337164e+002, 1.234406e+002
1.341985e+002, 1.231190e+002
1.346806e+002, 1.224870e+002
1.351627e+002, 1.216781e+002
1.356448e+002, 1.207338e+002
1.361270e+002, 1.196479e+002
1.366091e+002, 1.186115e+002
1.370912e+002, 1.176820e+002
1.375733e+002, 1.168057e+002
1.380554e+002, 1.156358e+002
1.385375e+002, 1.140136e+002
1.390197e+002, 1.125526e+002
1.395018e+002, 1.118387e+002
1.399839e+002, 1.121049e+002
1.404660e+002, 1.121187e+002
1.409481e+002, 1.116072e+002
1.414302e+002, 1.106169e+002
1.419124e+002, 1.097381e+002
1.423945e+002, 1.089941e+002
1.428766e+002, 1.083328e+002
1.433587e+002, 1.077023e+002
1.438408e+002, 1.070918e+002
1.443229e+002, 1.065577e+002
1.448051e+002, 1.062221e+002
1.452872e+002, 1.061720e+002
1.457693e+002, 1.055594e+002
1.462514e+002, 1.038780e+002
1.467335e+002, 1.019435e+002
1.472156e+002, 1.007975e+002
1.476978e+002, 1.010367e+002
1.481799e+002, 1.013461e+002
1.486620e+002, 1.014419e+002
1.491441e+002, 1.013526e+002
1.496262e+002, 1.009614e+002
1.501083e+002, 9.996629e+001
1.505905e+002, 9.872402e+001
1.510726e+002, 9.785722e+001
1.515547e+002, 9.765034e+001
1.520368e+002, 9.757932e+001
1.525189e+002, 9.753088e+001
1.530010e+002, 9.774526e+001
1.534832e+002, 9.755077e+001
1.539653e+002, 9.657666e+001
1.544474e+002, 9.514546e+001
1.549295e+002, 9.403139e+001
1.554116e+002, 9.344460e+001
1.558937e+002, 9.311125e+001
1.563759e+002, 9.291432e+001
1.568580e+002, 9.279221e+001
1.573401e+002, 9.286629e+001
1.578222e+002, 9.325362e+001
1.583043e+002, 9.388274e+001
1.587864e+002, 9.448978e+001
1.592686e+002, 9.463335e+001
1.597507e+002, 9.494795e+001
1.602328e+002, 9.583959e+001
1.607149e+002, 9.763451e+001
1.611970e+002, 9.978692e+001
1.616791e+002, 1.018804e+002
1.621613e+002, 1.040181e+002
1.626434e+002, 1.071006e+002
1.631255e+002, 1.114995e+002
1.636076e+002, 1.169811e+002
1.640897e+002, 1.233375e+002
1.645718e+002, 1.308551e+002
1.650540e+002, 1.389404e+002
1.655361e+002, 1.470560e+002
1.660182e+002, 1.552811e+002
1.665003e+002, 1.645387e+002
1.669824e+002, 1.750763e+002
1.674645e+002, 1.871233e+002
1.679467e+002, 2.007948e+002
1.684288e+002, 2.156302e+002
1.689109e+002, 2.325673e+002
1.693930e+002, 2.519053e+002
1.698751e+002, 2.737179e+002
1.703572e+002, 2.988661e+002
1.708394e+002, 3.276691e+002
1.713215e+002, 3.605660e+002
1.718036e+002, 3.977679e+002
1.722857e+002, 4.397612e+002
1.727678e+002, 4.862186e+002
1.732499e+002, 5.366364e+002
1.737321e+002, 5.913740e+002
1.742142e+002, 6.503763e+002
1.746963e+002, 7.172000e+002
1.751784e+002, 7.895599e+002
1.756605e+002, 8.623545e+002
1.761426e+002, 9.336980e+002
1.766248e+002, 1.003052e+003
1.771069e+002, 1.070244e+003
1.775890e+002, 1.136285e+003
1.780711e+002, 1.196798e+003
1.785532e+002, 1.248286e+003
1.790353e+002, 1.291107e+003
1.795175e+002, 1.324585e+003
1.799996e+002, 1.348384e+003
1.804817e+002, 1.362859e+003
1.809638e+002, 1.368686e+003
1.814459e+002, 1.365266e+003
1.819280e+002, 1.354932e+003
1.824102e+002, 1.338722e+003
1.828923e+002, 1.317491e+003
1.833744e+002, 1.294674e+003
1.838565e+002, 1.271521e+003
1.843386e+002, 1.248457e+003
1.848207e+002, 1.227422e+003
1.853029e+002, 1.208452e+003
1.857850e+002, 1.191626e+003
1.862671e+002, 1.176323e+003
1.867492e+002, 1.162677e+003
1.872313e+002, 1.151830e+003
1.877134e+002, 1.144948e+003
1.881956e+002, 1.141635e+003
1.886777e+002, 1.140364e+003
1.891598e+002, 1.140935e+003
1.896419e+002, 1.143345e+003
1.901240e+002, 1.148117e+003
1.906061e+002, 1.155413e+003
1.910883e+002, 1.163098e+003
1.915704e+002, 1.169824e+003
1.920525e+002, 1.175676e+003
1.925346e+002, 1.180897e+003
1.930167e+002, 1.185465e+003
1.934988e+002, 1.188620e+003
1.939810e+002, 1.186802e+003
1.944631e+002, 1.179078e+003
1.949452e+002, 1.170691e+003
1.954273e+002, 1.160891e+003
1.959094e+002, 1.149713e+003
1.963915e+002, 1.138267e+003
1.968737e+002, 1.126901e+003
1.973558e+002, 1.115460e+003
1.978379e+002, 1.102997e+003
1.983200e+002, 1.089517e+003
1.988021e+002, 1.075437e+003
1.992842e+002, 1.061026e+003
1.997664e+002, 1.046177e+003
2.002485e+002, 1.032017e+003
2.007306e+002, 1.018514e+003
2.012127e+002, 1.005804e+003
2.016948e+002, 9.941912e+002
2.021769e+002, 9.835153e+002
2.026591e+002, 9.742889e+002
2.031412e+002, 9.672350e+002
2.036233e+002, 9.624149e+002
2.041054e+002, 9.586779e+002
2.045875e+002, 9.556760e+002
2.050696e+002, 9.534559e+002
2.055518e+002, 9.525065e+002
2.060339e+002, 9.525700e+002
2.065160e+002, 9.543284e+002
2.069981e+002, 9.585313e+002
2.074802e+002, 9.651996e+002
2.079623e+002, 9.737268e+002
2.084445e+002, 9.838568e+002
2.089266e+002, 9.956425e+002
2.094087e+002, 1.009622e+003
2.098908e+002, 1.025874e+003
2.103729e+002, 1.044199e+003
2.108550e+002, 1.064490e+003
2.113372e+002, 1.086540e+003
2.118193e+002, 1.110500e+003
2.123014e+002, 1.136771e+003
2.127835e+002, 1.165120e+003
2.132656e+002, 1.193889e+003
2.137477e+002, 1.223084e+003
2.142299e+002, 1.252814e+003
2.147120e+002, 1.282905e+003
2.151941e+002, 1.313851e+003
2.156762e+002, 1.344435e+003
2.161583e+002, 1.374357e+003
2.166404e+002, 1.403229e+003
2.171226e+002, 1.433574e+003
2.176047e+002, 1.465687e+003
2.180868e+002, 1.498906e+003
2.185689e+002, 1.532756e+003
2.190510e+002, 1.567000e+003
2.195331e+002, 1.602798e+003
2.200153e+002, 1.640620e+003
2.204974e+002, 1.680527e+003
2.209795e+002, 1.723515e+003
2.214616e+002, 1.769752e+003
2.219437e+002, 1.819258e+003
2.224258e+002, 1.872970e+003
2.229080e+002, 1.930418e+003
2.233901e+002, 1.992463e+003
2.238722e+002, 2.058646e+003
2.243543e+002, 2.129988e+003
2.248364e+002, 2.202298e+003
2.253185e+002, 2.275669e+003
2.258007e+002, 2.349002e+003
2.262828e+002, 2.423084e+003
2.267649e+002, 2.501753e+003
2.272470e+002, 2.572822e+003
2.277291e+002, 2.633763e+003
2.282112e+002, 2.686821e+003
2.286934e+002, 2.720118e+003
2.291755e+002, 2.735699e+003
2.296576e+002, 2.730100e+003
2.301397e+002, 2.698587e+003
2.306218e+002, 2.638575e+003
2.311039e+002, 2.556424e+003
2.315861e+002, 2.452911e+003
2.320682e+002, 2.324768e+003
2.325503e+002, 2.188125e+003
2.330324e+002, 2.038169e+003
2.335145e+002, 1.884498e+003
2.339966e+002, 1.736219e+003
2.344788e+002, 1.591867e+003
2.349609e+002, 1.457168e+003
2.354430e+002, 1.333430e+003
2.359251e+002, 1.220680e+003
2.364072e+002, 1.118108e+003
2.368893e+002, 1.026091e+003
2.373715e+002, 9.437464e+002
2.378536e+002, 8.705137e+002
2.383357e+002, 8.067589e+002
2.388178e+002, 7.500232e+002
2.392999e+002, 6.999363e+002
2.397820e+002, 6.572745e+002
2.402642e+002, 6.185233e+002
2.407463e+002, 5.840994e+002
2.412284e+002, 5.531882e+002
2.417105e+002, 5.248583e+002
2.421926e+002, 4.992576e+002
2.426747e+002, 4.760255e+002
2.431569e+002, 4.554138e+002
2.436390e+002, 4.374882e+002
2.441211e+002, 4.211508e+002
2.446032e+002, 4.066576e+002
2.450853e+002, 3.933815e+002
2.455674e+002, 3.805388e+002
2.460496e+002, 3.676449e+002
2.465317e+002, 3.560721e+002
2.470138e+002, 3.462770e+002
2.474959e+002, 3.383784e+002
2.479780e+002, 3.305093e+002
2.484601e+002, 3.223433e+002
2.489423e+002, 3.144677e+002
2.494244e+002, 3.075920e+002
2.499065e+002, 3.021400e+002
2.503886e+002, 2.968528e+002
2.508707e+002, 2.913762e+002
2.513528e+002, 2.857275e+002
2.518350e+002, 2.805845e+002
2.523171e+002, 2.761999e+002
2.527992e+002, 2.721070e+002
2.532813e+002, 2.677680e+002
2.537634e+002, 2.628828e+002
2.542455e+002, 2.584960e+002
2.547277e+002, 2.549323e+002
2.552098e+002, 2.521895e+002
2.556919e+002, 2.492766e+002
2.561740e+002, 2.460000e+002
2.566561e+002, 2.427871e+002
2.571382e+002, 2.401563e+002
2.576204e+002, 2.383784e+002
2.581025e+002, 2.364607e+002
2.585846e+002, 2.341748e+002
2.590667e+002, 2.315371e+002
2.595488e+002, 2.291184e+002
2.600309e+002, 2.270792e+002
2.605131e+002, 2.250981e+002
2.609952e+002, 2.228922e+002
2.614773e+002, 2.202935e+002
2.619594e+002, 2.179099e+002
2.624415e+002, 2.158996e+002
2.629236e+002, 2.142167e+002
2.634058e+002, 2.125696e+002
2.638879e+002, 2.109329e+002
2.643700e+002, 2.093506e+002
2.648521e+002, 2.078637e+002
2.653342e+002, 2.065819e+002
2.658163e+002, 2.050307e+002
2.662985e+002, 2.029707e+002
2.667806e+002, 2.005783e+002
2.672627e+002, 1.989319e+002
2.677448e+002, 1.983641e+002
2.682269e+002, 1.978618e+002
2.687090e+002, 1.965508e+002
2.691912e+002, 1.941111e+002
2.696733e+002, 1.922210e+002
2.701554e+002, 1.912862e+002
2.706375e+002, 1.909929e+002
2.711196e+002, 1.900289e+002
2.716017e+002, 1.881529e+002
2.720839e+002, 1.862741e+002
2.725660e+002, 1.851151e+002
2.730481e+002, 1.848018e+002
2.735302e+002, 1.843363e+002
2.740123e+002, 1.835965e+002
2.744944e+002, 1.826596e+002
2.749766e+002, 1.817055e+002
2.754587e+002, 1.807128e+002
2.759408e+002, 1.797998e+002
2.764229e+002, 1.791105e+002
2.769050e+002, 1.786699e+002
2.773871e+002, 1.781143e+002
2.778693e+002, 1.774189e+002
2.783514e+002, 1.765978e+002
2.788335e+002, 1.756072e+002
2.793156e+002, 1.743860e+002
2.797977e+002, 1.733062e+002
2.802798e+002, 1.726732e+002
2.807620e+002, 1.724956e+002
2.812441e+002, 1.720544e+002
2.817262e+002, 1.712570e+002
2.822083e+002, 1.702860e+002
2.826904e+002, 1.694589e+002
2.831725e+002, 1.687823e+002
2.836547e+002, 1.681357e+002
2.841368e+002, 1.674129e+002
2.846189e+002, 1.666384e+002
2.851010e+002, 1.660647e+002
2.855831e+002, 1.657281e+002
2.860652e+002, 1.655037e+002
2.865474e+002, 1.652561e+002
2.870295e+002, 1.649838e+002
2.875116e+002, 1.646090e+002
2.879937e+002, 1.640974e+002
2.884758e+002, 1.634487e+002
2.889579e+002, 1.626673e+002
2.894401e+002, 1.617240e+002
2.899222e+002, 1.607633e+002
2.904043e+002, 1.599675e+002
2.908864e+002, 1.593217e+002
2.913685e+002, 1.586999e+002
2.918506e+002, 1.580468e+002
2.923328e+002, 1.573851e+002
2.928149e+002, 1.567771e+002
2.932970e+002, 1.562140e+002
2.937791e+002, 1.557629e+002
2.942612e+002, 1.556527e+002
2.947433e+002, 1.557643e+002
2.952255e+002, 1.556131e+002
2.957076e+002, 1.549505e+002
2.961897e+002, 1.539768e+002
2.966718e+002, 1.530390e+002
2.971539e+002, 1.521415e+002
2.976360e+002, 1.513341e+002
2.981182e+002, 1.506589e+002
2.986003e+002, 1.501115e+002
2.990824e+002, 1.496768e+002
2.995645e+002, 1.494040e+002
3.000466e+002, 1.491829e+002
3.005287e+002, 1.488907e+002
3.010109e+002, 1.485247e+002
3.014930e+002, 1.480479e+002
3.019751e+002, 1.472714e+002
3.024572e+002, 1.463981e+002
3.029393e+002, 1.458304e+002
3.034214e+002, 1.457790e+002
3.039036e+002, 1.458163e+002
3.043857e+002, 1.454322e+002
3.048678e+002, 1.447276e+002
3.053499e+002, 1.440595e+002
3.058320e+002, 1.437275e+002
3.063141e+002, 1.435285e+002
3.067963e+002, 1.432546e+002
3.072784e+002, 1.429014e+002
3.077605e+002, 1.423710e+002
3.082426e+002, 1.413198e+002
3.087247e+002, 1.400023e+002
3.092068e+002, 1.390300e+002
3.096890e+002, 1.390819e+002
3.101711e+002, 1.393988e+002
3.106532e+002, 1.392885e+002
3.111353e+002, 1.386025e+002
3.116174e+002, 1.378609e+002
3.120995e+002, 1.373645e+002
3.125817e+002, 1.370405e+002
3.130638e+002, 1.367639e+002
3.135459e+002, 1.363045e+002
3.140280e+002, 1.360081e+002
3.145101e+002, 1.362991e+002
3.149922e+002, 1.372620e+002
3.154744e+002, 1.378215e+002
3.159565e+002, 1.371354e+002
3.164386e+002, 1.358753e+002
3.169207e+002, 1.348166e+002
3.174028e+002, 1.345551e+002
3.178849e+002, 1.342152e+002
3.183671e+002, 1.333462e+002
3.188492e+002, 1.319657e+002
3.193313e+002, 1.307049e+002
3.198134e+002, 1.297630e+002
3.202955e+002, 1.290267e+002
3.207776e+002, 1.284148e+002
3.212598e+002, 1.279924e+002
3.217419e+002, 1.275921e+002
3.222240e+002, 1.272804e+002
3.227061e+002, 1.269996e+002
3.231882e+002, 1.264570e+002
3.236703e+002, 1.253170e+002
3.241525e+002, 1.240862e+002
3.246346e+002, 1.230449e+002
3.251167e+002, 1.221439e+002
3.255988e+002, 1.215271e+002
3.260809e+002, 1.215243e+002
3.265630e+002, 1.218459e+002
3.270452e+002, 1.216952e+002
3.275273e+002, 1.205171e+002
3.280094e+002, 1.193029e+002
3.284915e+002, 1.183926e+002
3.289736e+002, 1.179070e+002
3.294557e+002, 1.174829e+002
3.299379e+002, 1.172095e+002
3.304200e+002, 1.169676e+002
3.309021e+002, 1.165724e+002
3.313842e+002, 1.159786e+002
3.318663e+002, 1.152807e+002
3.323484e+002, 1.144206e+002
3.328306e+002, 1.133368e+002
3.333127e+002, 1.126059e+002
3.337948e+002, 1.124284e+002
3.342769e+002, 1.124214e+002
3.347590e+002, 1.121617e+002
3.352411e+002, 1.115525e+002
3.357233e+002, 1.108949e+002
3.362054e+002, 1.101995e+002
3.366875e+002, 1.094776e+002
3.371696e+002, 1.090326e+002
3.376517e+002, 1.089734e+002
3.381339e+002, 1.089865e+002
3.386160e+002, 1.087973e+002
3.390981e+002, 1.083519e+002
3.395802e+002, 1.079799e+002
3.400623e+002, 1.077597e+002
3.405444e+002, 1.076298e+002
3.410266e+002, 1.073622e+002
3.415087e+002, 1.069096e+002
3.419908e+002, 1.065190e+002
3.424729e+002, 1.063943e+002
3.429550e+002, 1.065331e+002
3.434371e+002, 1.065729e+002
3.439193e+002, 1.064895e+002
3.444014e+002, 1.062840e+002
3.448835e+002, 1.058198e+002
3.453656e+002, 1.051010e+002
3.458477e+002, 1.046595e+002
3.463298e+002, 1.050353e+002
3.468120e+002, 1.059747e+002
3.472941e+002, 1.062904e+002
3.477762e+002, 1.058909e+002
3.482583e+002, 1.052406e+002
3.487404e+002, 1.047659e+002
3.492225e+002, 1.044793e+002
3.497047e+002, 1.044402e+002
3.501868e+002, 1.048454e+002
3.506689e+002, 1.054327e+002
3.511510e+002, 1.057302e+002
3.516331e+002, 1.057394e+002
3.521152e+002, 1.056569e+002
3.525974e+002, 1.055462e+002
3.530795e+002, 1.054704e+002
3.535616e+002, 1.055744e+002
3.540437e+002, 1.060469e+002
3.545258e+002, 1.065210e+002
3.550079e+002, 1.065261e+002
3.554901e+002, 1.061649e+002
3.559722e+002, 1.058990e+002
3.564543e+002, 1.060946e+002
3.569364e+002, 1.064920e+002
3.574185e+002, 1.068449e+002
3.579006e+002, 1.071267e+002
3.583828e+002, 1.073124e+002
3.588649e+002, 1.072812e+002
3.593470e+002, 1.071464e+002
3.598291e+002, 1.071365e+002
3.603112e+002, 1.073655e+002
3.607933e+002, 1.077381e+002
3.612755e+002, 1.082764e+002
3.617576e+002, 1.090262e+002
3.622397e+002, 1.096020e+002
3.627218e+002, 1.095872e+002
3.632039e+002, 1.094159e+002
3.636860e+002, 1.095726e+002
3.641682e+002, 1.103924e+002
3.646503e+002, 1.113608e+002
3.651324e+002, 1.124003e+002
3.656145e+002, 1.135040e+002
3.660966e+002, 1.144114e+002
3.665787e+002, 1.149130e+002
3.670609e+002, 1.153101e+002
3.675430e+002, 1.157960e+002
3.680251e+002, 1.162901e+002
3.685072e+002, 1.169973e+002
3.689893e+002, 1.180553e+002
3.694714e+002, 1.193511e+002
3.699536e+002, 1.204900e+002
3.704357e+002, 1.214061e+002
3.709178e+002, 1.222374e+002
3.713999e+002, 1.229900e+002
3.718820e+002, 1.235188e+002
3.723641e+002, 1.243726e+002
3.728463e+002, 1.256749e+002
3.733284e+002, 1.272100e+002
3.738105e+002, 1.286675e+002
3.742926e+002, 1.300331e+002
3.747747e+002, 1.313597e+002
3.752568e+002, 1.326856e+002
3.757390e+002, 1.340161e+002
3.762211e+002, 1.351830e+002
3.767032e+002, 1.361080e+002
3.771853e+002, 1.370548e+002
3.776674e+002, 1.383513e+002
3.781495e+002, 1.400476e+002
3.786317e+002, 1.416971e+002
3.791138e+002, 1.432574e+002
3.795959e+002, 1.447007e+002
3.800780e+002, 1.458974e+002
3.805601e+002, 1.468096e+002
3.810422e+002, 1.478491e+002
3.815244e+002, 1.494271e+002
3.820065e+002, 1.514386e+002
3.824886e+002, 1.531682e+002
3.829707e+002, 1.545000e+002
3.834528e+002, 1.557178e+002
3.839349e+002, 1.572401e+002
3.844171e+002, 1.590382e+002
3.848992e+002, 1.609189e+002
3.853813e+002, 1.628530e+002
3.858634e+002, 1.648135e+002
3.863455e+002, 1.667686e+002
3.868276e+002, 1.687044e+002
3.873098e+002, 1.707238e+002
3.877919e+002, 1.728639e+002
3.882740e+002, 1.751814e+002
3.887561e+002, 1.777579e+002
3.892382e+002, 1.806883e+002
3.897203e+002, 1.838430e+002
3.902025e+002, 1.872090e+002
3.906846e+002, 1.907102e+002
3.911667e+002, 1.940878e+002
3.916488e+002, 1.969071e+002
3.921309e+002, 1.996594e+002
3.926130e+002, 2.027598e+002
3.930952e+002, 2.062597e+002
3.935773e+002, 2.100869e+002
3.940594e+002, 2.143115e+002
3.945415e+002, 2.188064e+002
3.950236e+002, 2.233349e+002
3.955057e+002, 2.277931e+002
3.959879e+002, 2.323037e+002
3.964700e+002, 2.368006e+002
3.969521e+002, 2.411947e+002
3.974342e+002, 2.461602e+002
3.979163e+002, 2.519248e+002
3.983984e+002, 2.582491e+002
3.988806e+002, 2.649147e+002
3.993627e+002, 2.717948e+002
3.998448e+002, 2.791506e+002
4.003269e+002, 2.869966e+002
4.008090e+002, 2.953688e+002
4.012911e+002, 3.041801e+002
4.017733e+002, 3.133122e+002
4.022554e+002, 3.230947e+002
4.027375e+002, 3.336695e+002
4.032196e+002, 3.449653e+002
4.037017e+002, 3.572463e+002
4.041838e+002, 3.702558e+002
4.046660e+002, 3.843822e+002
4.051481e+002, 4.001054e+002
4.056302e+002, 4.176569e+002
4.061123e+002, 4.362314e+002
4.065944e+002, 4.554422e+002
4.070765e+002, 4.754177e+002
4.075587e+002, 4.969611e+002
4.080408e+002, 5.203049e+002
4.085229e+002, 5.447297e+002
4.090050e+002, 5.699444e+002
4.094871e+002, 5.957764e+002
4.099692e+002, 6.210875e+002
4.104514e+002, 6.454039e+002
4.109335e+002, 6.695526e+002
4.114156e+002, 6.951913e+002
4.118977e+002, 7.220841e+002
4.123798e+002, 7.502773e+002
4.128619e+002, 7.791160e+002
4.133441e+002, 8.090048e+002
4.138262e+002, 8.410217e+002
4.143083e+002, 8.753845e+002
4.147904e+002, 9.119190e+002
4.152725e+002, 9.504047e+002
4.157546e+002, 9.911378e+002
4.162368e+002, 1.035736e+003
4.167189e+002, 1.085686e+003
4.172010e+002, 1.138578e+003
4.176831e+002, 1.193656e+003
4.181652e+002, 1.250355e+003
4.186473e+002, 1.308158e+003
4.191295e+002, 1.368618e+003
4.196116e+002, 1.428651e+003
4.200937e+002, 1.484801e+003
4.205758e+002, 1.538728e+003
4.210579e+002, 1.586039e+003
4.215400e+002, 1.629682e+003
4.220222e+002, 1.666337e+003
4.225043e+002, 1.689066e+003
4.229864e+002, 1.698597e+003
4.234685e+002, 1.691604e+003
4.239506e+002, 1.666982e+003
4.244327e+002, 1.624713e+003
4.249149e+002, 1.564245e+003
4.253970e+002, 1.479260e+003
4.258791e+002, 1.380270e+003
4.263612e+002, 1.275513e+003
4.268433e+002, 1.159883e+003
4.273254e+002, 1.047410e+003
4.278076e+002, 9.388173e+002
4.282897e+002, 8.340466e+002
4.287718e+002, 7.391170e+002
4.292539e+002, 6.553121e+002
4.297360e+002, 5.809064e+002
4.302181e+002, 5.165506e+002
4.307003e+002, 4.628419e+002
4.311824e+002, 4.154001e+002
4.316645e+002, 3.744614e+002
4.321466e+002, 3.391131e+002
4.326287e+002, 3.092227e+002
4.331108e+002, 2.850905e+002
4.335930e+002, 2.637330e+002
4.340751e+002, 2.441894e+002
4.345572e+002, 2.265723e+002
4.350393e+002, 2.114847e+002
4.355214e+002, 1.990016e+002
4.360035e+002, 1.880823e+002
4.364857e+002, 1.780396e+002
4.369678e+002, 1.690230e+002
4.374499e+002, 1.612180e+002
4.379320e+002, 1.548423e+002
4.384141e+002, 1.493487e+002
4.388962e+002, 1.443728e+002
4.393784e+002, 1.398244e+002
4.398605e+002, 1.354415e+002
4.403426e+002, 1.307148e+002
4.408247e+002, 1.263332e+002
4.413068e+002, 1.229768e+002
4.417889e+002, 1.208072e+002
4.422711e+002, 1.187232e+002
4.427532e+002, 1.160739e+002
4.432353e+002, 1.132692e+002
4.437174e+002, 1.107346e+002
4.441995e+002, 1.086775e+002
4.446816e+002, 1.068130e+002
4.451638e+002, 1.050760e+002
4.456459e+002, 1.034709e+002
4.461280e+002, 1.019465e+002
4.466101e+002, 1.003784e+002
4.470922e+002, 9.898868e+001
4.475743e+002, 9.790836e+001
4.480565e+002, 9.732561e+001
4.485386e+002, 9.659160e+001
4.490207e+002, 9.559667e+001
4.495028e+002, 9.452361e+001
4.499849e+002, 9.362273e+001
4.504670e+002, 9.292117e+001
4.509492e+002, 9.231761e+001
4.514313e+002, 9.180648e+001
4.519134e+002, 9.138139e+001
4.523955e+002, 9.105078e+001
4.528776e+002, 9.087737e+001
4.533597e+002, 9.060947e+001
4.538419e+002, 8.996964e+001
4.543240e+002, 8.897799e+001
4.548061e+002, 8.825906e+001
4.552882e+002, 8.791093e+001
4.557703e+002, 8.774406e+001
4.562524e+002, 8.750060e+001
4.567346e+002, 8.718810e+001
4.572167e+002, 8.688320e+001
4.576988e+002, 8.660143e+001
4.581809e+002, 8.634880e+001
4.586630e+002, 8.617907e+001
4.591451e+002, 8.608260e+001
4.596273e+002, 8.589314e+001
4.601094e+002, 8.531679e+001
4.605915e+002, 8.463229e+001
4.610736e+002, 8.424627e+001
4.615557e+002, 8.439870e+001
4.620378e+002, 8.451962e+001
4.625200e+002, 8.410235e+001
4.630021e+002, 8.339735e+001
4.634842e+002, 8.290038e+001
4.639663e+002, 8.317314e+001
4.644484e+002, 8.337742e+001
4.649305e+002, 8.303696e+001
4.654127e+002, 8.209622e+001
4.658948e+002, 8.125256e+001
4.663769e+002, 8.059161e+001
4.668590e+002, 8.011794e+001
4.673411e+002, 7.983997e+001
4.678232e+002, 8.003908e+001
4.683054e+002, 8.005407e+001
4.687875e+002, 7.976599e+001
4.692696e+002, 7.929859e+001
4.697517e+002, 7.896064e+001
4.702338e+002, 7.882373e+001
4.707159e+002, 7.868949e+001
4.711981e+002, 7.851805e+001
4.716802e+002, 7.831426e+001
4.721623e+002, 7.783766e+001
4.726444e+002, 7.694089e+001
4.731265e+002, 7.618409e+001
4.736086e+002, 7.639946e+001
4.740908e+002, 7.756129e+001
4.745729e+002, 7.805424e+001
4.750550e+002, 7.743825e+001
4.755371e+002, 7.624383e+001
4.760192e+002, 7.535196e+001
4.765013e+002, 7.474979e+001
4.769835e+002, 7.436356e+001
4.774656e+002, 7.436553e+001
4.779477e+002, 7.447702e+001
4.784298e+002, 7.415552e+001
4.789119e+002, 7.336600e+001
4.793940e+002, 7.261234e+001
4.798762e+002, 7.234396e+001
4.803583e+002, 7.233357e+001
4.808404e+002, 7.228983e+001
4.813225e+002, 7.220232e+001
4.818046e+002, 7.196392e+001
4.822867e+002, 7.137597e+001
4.827689e+002, 7.058544e+001
4.832510e+002, 6.996936e+001
4.837331e+002, 6.987309e+001
4.842152e+002, 6.978893e+001
4.846973e+002, 6.947498e+001
4.851794e+002, 6.886292e+001
4.856616e+002, 6.828715e+001
4.861437e+002, 6.758576e+001
4.866258e+002, 6.704978e+001
4.871079e+002, 6.695435e+001
4.875900e+002, 6.786974e+001
4.880721e+002, 6.818475e+001
4.885543e+002, 6.751375e+001
4.890364e+002, 6.622843e+001
4.895185e+002, 6.540040e+001
4.900006e+002, 6.512163e+001
4.904827e+002, 6.503134e+001
4.909648e+002, 6.506816e+001
4.914470e+002, 6.521428e+001
4.919291e+002, 6.505283e+001
4.924112e+002, 6.454262e+001
4.928933e+002, 6.392508e+001
4.933754e+002, 6.335863e+001
4.938575e+002, 6.287195e+001
4.943397e+002, 6.264724e+001
4.948218e+002, 6.282814e+001
4.953039e+002, 6.309559e+001
4.957860e+002, 6.293770e+001
4.962681e+002, 6.247472e+001
4.967502e+002, 6.211705e+001
4.972324e+002, 6.226886e+001
4.977145e+002, 6.250861e+001
4.981966e+002, 6.240344e+001
4.986787e+002, 6.192822e+001
4.991608e+002, 6.144623e+001
4.996429e+002, 6.111401e+001
5.001251e+002, 6.087654e+001
5.006072e+002, 6.067495e+001
5.010893e+002, 6.047367e+001
5.015714e+002, 6.034076e+001
5.020535e+002, 6.035998e+001
5.025356e+002, 6.045401e+001
5.030178e+002, 6.044643e+001
5.034999e+002, 6.018754e+001
5.039820e+002, 5.997414e+001
5.044641e+002, 5.989147e+001
5.049462e+002, 5.994462e+001
5.054283e+002, 6.001441e+001
5.059105e+002, 6.017361e+001
5.063926e+002, 6.023761e+001
5.068747e+002, 5.999148e+001
5.073568e+002, 5.935560e+001
5.078389e+002, 5.899878e+001
5.083210e+002, 5.906703e+001
5.088032e+002, 5.930012e+001
5.092853e+002, 5.918299e+001
5.097674e+002, 5.874244e+001
5.102495e+002, 5.843947e+001
5.107316e+002, 5.861475e+001
5.112137e+002, 5.898526e+001
5.116959e+002, 5.888939e+001
5.121780e+002, 5.835640e+001
5.126601e+002, 5.776766e+001
5.131422e+002, 5.730794e+001
5.136243e+002, 5.699445e+001
5.141064e+002, 5.691845e+001
5.145886e+002, 5.719486e+001
5.150707e+002, 5.734364e+001
5.155528e+002, 5.681514e+001
5.160349e+002, 5.603623e+001
5.165170e+002, 5.561531e+001
5.169991e+002, 5.623997e+001
5.174813e+002, 5.675340e+001
5.179634e+002, 5.665106e+001
5.184455e+002, 5.601940e+001
5.189276e+002, 5.561654e+001
5.194097e+002, 5.584018e+001
5.198918e+002, 5.603941e+001
5.203740e+002, 5.592165e+001
5.208561e+002, 5.532785e+001
5.213382e+002, 5.494625e+001
5.218203e+002, 5.485908e+001
5.223024e+002, 5.488717e+001
5.227845e+002, 5.484884e+001
5.232667e+002, 5.475361e+001
5.237488e+002, 5.449456e+001
5.242309e+002, 5.394121e+001
5.247130e+002, 5.331391e+001
5.251951e+002, 5.324923e+001
5.256772e+002, 5.373637e+001
5.261594e+002, 5.423987e+001
5.266415e+002, 5.448011e+001
5.271236e+002, 5.451970e+001
5.276057e+002, 5.449958e+001
5.280878e+002, 5.442627e+001
5.285699e+002, 5.424682e+001
5.290521e+002, 5.380540e+001
5.295342e+002, 5.327217e+001
5.300163e+002, 5.286709e+001
5.304984e+002, 5.264948e+001
5.309805e+002, 5.257515e+001
5.314626e+002, 5.276880e+001
5.319448e+002, 5.307720e+001
5.324269e+002, 5.320307e+001
5.329090e+002, 5.273512e+001
5.333911e+002, 5.238768e+001
5.338732e+002, 5.251849e+001
5.343553e+002, 5.315913e+001
5.348375e+002, 5.347886e+001
5.353196e+002, 5.315498e+001
5.358017e+002, 5.280553e+001
5.362838e+002, 5.279981e+001
5.367659e+002, 5.333549e+001
5.372480e+002, 5.366322e+001
5.377302e+002, 5.376608e+001
5.382123e+002, 5.367469e+001
5.386944e+002, 5.331975e+001
5.391765e+002, 5.266058e+001
5.396586e+002, 5.230218e+001
5.401407e+002, 5.249643e+001
5.406229e+002, 5.302004e+001
5.411050e+002, 5.339732e+001
5.415871e+002, 5.363094e+001
5.420692e+002, 5.373804e+001
5.425513e+002, 5.367551e+001
5.430334e+002, 5.351601e+001
5.435156e+002, 5.337597e+001
5.439977e+002, 5.326609e+001
5.444798e+002, 5.312426e+001
5.449619e+002, 5.278673e+001
5.454440e+002, 5.244583e+001
5.459261e+002, 5.232633e+001
5.464083e+002, 5.269534e+001
5.468904e+002, 5.299261e+001
5.473725e+002, 5.299897e+001
5.478546e+002, 5.280073e+001
5.483367e+002, 5.258453e+001
5.488188e+002, 5.221299e+001
5.493010e+002, 5.200290e+001
5.497831e+002, 5.209230e+001
5.502652e+002, 5.247509e+001
5.507473e+002, 5.272776e+001
5.512294e+002, 5.281351e+001
5.517115e+002, 5.283162e+001
5.521937e+002, 5.284013e+001
5.526758e+002, 5.284093e+001
5.531579e+002, 5.281767e+001
5.536400e+002, 5.276520e+001
5.541221e+002, 5.270444e+001
5.546042e+002, 5.266075e+001
5.550864e+002, 5.263335e+001
5.555685e+002, 5.261078e+001
5.560506e+002, 5.257073e+001
5.565327e+002, 5.255823e+001
5.570148e+002, 5.268123e+001
5.574969e+002, 5.289994e+001
5.579791e+002, 5.306636e+001
5.584612e+002, 5.313686e+001
5.589433e+002, 5.308943e+001
5.594254e+002, 5.278747e+001
5.599075e+002, 5.221462e+001
5.603896e+002, 5.190542e+001
5.608718e+002, 5.247019e+001
5.613539e+002, 5.314408e+001
5.618360e+002, 5.333709e+001
5.623181e+002, 5.233165e+001
5.628002e+002, 5.181721e+001
5.632823e+002, 5.222046e+001
5.637645e+002, 5.301227e+001
5.642466e+002, 5.337346e+001
5.647287e+002, 5.310749e+001
5.652108e+002, 5.285012e+001
5.656929e+002, 5.275356e+001
5.661750e+002, 5.277629e+001
5.666572e+002, 5.272026e+001
5.671393e+002, 5.257574e+001
5.676214e+002, 5.242183e+001
5.681035e+002, 5.223479e+001
5.685856e+002, 5.206747e+001
5.690677e+002, 5.217133e+001
5.695499e+002, 5.256758e+001
5.700320e+002, 5.300751e+001
5.705141e+002, 5.329850e+001
5.709962e+002, 5.346377e+001
5.714783e+002, 5.352225e+001
5.719604e+002, 5.341721e+001
5.724426e+002, 5.333701e+001
5.729247e+002, 5.348901e+001
5.734068e+002, 5.373736e+001
5.738889e+002, 5.384215e+001
5.743710e+002, 5.356770e+001
5.748531e+002, 5.329495e+001
5.753353e+002, 5.315366e+001
5.758174e+002, 5.314081e+001
5.762995e+002, 5.313401e+001
5.767816e+002, 5.308096e+001
5.772637e+002, 5.308847e+001
5.777458e+002, 5.315954e+001
5.782280e+002, 5.323573e+001
5.787101e+002, 5.381917e+001
5.791922e+002, 5.518470e+001
5.796743e+002, 5.645398e+001
5.801564e+002, 5.652565e+001
5.806385e+002, 5.547243e+001
5.811207e+002, 5.459988e+001
5.816028e+002, 5.415367e+001
5.820849e+002, 5.395043e+001
5.825670e+002, 5.372176e+001
5.830491e+002, 5.350526e+001
5.835313e+002, 5.341364e+001
5.840134e+002, 5.359610e+001
5.844955e+002, 5.386114e+001
5.849776e+002, 5.405141e+001
5.854597e+002, 5.417228e+001
5.859418e+002, 5.426081e+001
5.864240e+002, 5.431398e+001
5.869061e+002, 5.435515e+001
5.873882e+002, 5.442400e+001
5.878703e+002, 5.456739e+001
5.883524e+002, 5.456262e+001
5.888345e+002, 5.415308e+001
5.893167e+002, 5.373586e+001
5.897988e+002, 5.363456e+001
5.902809e+002, 5.400295e+001
5.907630e+002, 5.434387e+001
5.912451e+002, 5.463693e+001
5.917272e+002, 5.487287e+001
5.922094e+002, 5.500883e+001
5.926915e+002, 5.503568e+001
5.931736e+002, 5.509280e+001
5.936557e+002, 5.523302e+001
5.941378e+002, 5.543055e+001
5.946199e+002, 5.568001e+001
5.951021e+002, 5.596060e+001
5.955842e+002, 5.611829e+001
5.960663e+002, 5.600774e+001
5.965484e+002, 5.574234e+001
5.970305e+002, 5.535910e+001
5.975126e+002, 5.485040e+001
5.979948e+002, 5.457312e+001
5.984769e+002, 5.493206e+001
5.989590e+002, 5.549748e+001
5.994411e+002, 5.589895e+001
5.999232e+002, 5.594076e+001
6.004053e+002, 5.602402e+001
6.008875e+002, 5.620040e+001
6.013696e+002, 5.645264e+001
6.018517e+002, 5.678603e+001
6.023338e+002, 5.735833e+001
6.028159e+002, 5.768209e+001
6.032980e+002, 5.759693e+001
6.037802e+002, 5.722325e+001
6.042623e+002, 5.696033e+001
6.047444e+002, 5.680570e+001
6.052265e+002, 5.679782e+001
6.057086e+002, 5.700031e+001
6.061907e+002, 5.736656e+001
6.066729e+002, 5.778434e+001
6.071550e+002, 5.824907e+001
6.076371e+002, 5.863160e+001
6.081192e+002, 5.878409e+001
6.086013e+002, 5.880565e+001
6.090834e+002, 5.878985e+001
6.095656e+002, 5.871875e+001
6.100477e+002, 5.875892e+001
6.105298e+002, 5.900901e+001
6.110119e+002, 5.941577e+001
6.114940e+002, 5.992403e+001
6.119761e+002, 6.079838e+001
6.124583e+002, 6.143839e+001
6.129404e+002, 6.164994e+001
6.134225e+002, 6.159057e+001
6.139046e+002, 6.159916e+001
6.143867e+002, 6.170256e+001
6.148688e+002, 6.181648e+001
6.153510e+002, 6.190186e+001
6.158331e+002, 6.197559e+001
6.163152e+002, 6.212711e+001
6.167973e+002, 6.234817e+001
6.172794e+002, 6.270523e+001
6.177615e+002, 6.337096e+001
6.182437e+002, 6.419388e+001
6.187258e+002, 6.472274e+001
6.192079e+002, 6.492797e+001
6.196900e+002, 6.509269e+001
6.201721e+002, 6.550623e+001
6.206542e+002, 6.600129e+001
6.211364e+002, 6.632558e+001
6.216185e+002, 6.626344e+001
6.221006e+002, 6.639621e+001
6.225827e+002, 6.719827e+001
6.230648e+002, 6.828477e+001
6.235469e+002, 6.911787e+001
6.240291e+002, 6.967844e+001
6.245112e+002, 6.986834e+001
6.249933e+002, 6.936913e+001
6.254754e+002, 6.851041e+001
6.259575e+002, 6.848408e+001
6.264396e+002, 6.956184e+001
6.269218e+002, 7.067899e+001
6.274039e+002, 7.143851e+001
6.278860e+002, 7.189265e+001
6.283681e+002, 7.231053e+001
6.288502e+002, 7.268790e+001
6.293323e+002, 7.313729e+001
6.298145e+002, 7.386401e+001
6.302966e+002, 7.468918e+001
6.307787e+002, 7.521524e+001
6.312608e+002, 7.537789e+001
6.317429e+002, 7.559861e+001
6.322250e+002, 7.627187e+001
6.327072e+002, 7.713052e+001
6.331893e+002, 7.789709e+001
6.336714e+002, 7.845525e+001
6.341535e+002, 7.898204e+001
6.346356e+002, 7.944707e+001
6.351177e+002, 7.992689e+001
6.355999e+002, 8.054192e+001
6.360820e+002, 8.121014e+001
6.365641e+002, 8.218584e+001
6.370462e+002, 8.377760e+001
6.375283e+002, 8.563271e+001
6.380104e+002, 8.645030e+001
6.384926e+002, 8.607005e+001
6.389747e+002, 8.571867e+001
6.394568e+002, 8.597031e+001
6.399389e+002, 8.667294e+001
6.404210e+002, 8.733061e+001
6.409031e+002, 8.795292e+001
6.413853e+002, 8.859364e+001
6.418674e+002, 8.933570e+001
6.423495e+002, 9.010104e+001
6.428316e+002, 9.080290e+001
6.433137e+002, 9.144352e+001
6.437958e+002, 9.196243e+001
6.442780e+002, 9.218702e+001
6.447601e+002, 9.236245e+001
6.452422e+002, 9.270486e+001
6.457243e+002, 9.338726e+001
6.462064e+002, 9.402422e+001
6.466885e+002, 9.454092e+001
6.471707e+002, 9.503303e+001
6.476528e+002, 9.562675e+001
6.481349e+002, 9.636576e+001
6.486170e+002, 9.707665e+001
6.490991e+002, 9.773219e+001
6.495812e+002, 9.834565e+001
6.500634e+002, 9.897565e+001
6.505455e+002, 9.962398e+001
6.510276e+002, 1.002322e+002
6.515097e+002, 1.006466e+002
6.519918e+002, 1.010901e+002
6.524739e+002, 1.018945e+002
6.529561e+002, 1.030341e+002
6.534382e+002, 1.044413e+002
6.539203e+002, 1.063685e+002
6.544024e+002, 1.083075e+002
6.548845e+002, 1.098291e+002
6.553666e+002, 1.108292e+002
6.558488e+002, 1.121020e+002
6.563309e+002, 1.137097e+002
6.568130e+002, 1.157469e+002
6.572951e+002, 1.183113e+002
6.577772e+002, 1.216848e+002
6.582593e+002, 1.247948e+002
6.587415e+002, 1.275021e+002
6.592236e+002, 1.301712e+002
6.597057e+002, 1.331809e+002
6.601878e+002, 1.365160e+002
6.606699e+002, 1.402021e+002
6.611520e+002, 1.442296e+002
6.616342e+002, 1.484829e+002
6.621163e+002, 1.527761e+002
6.625984e+002, 1.571458e+002
6.630805e+002, 1.616865e+002
6.635626e+002, 1.663867e+002
6.640447e+002, 1.713207e+002
6.645269e+002, 1.765624e+002
6.650090e+002, 1.820582e+002
6.654911e+002, 1.877964e+002
6.659732e+002, 1.937363e+002
6.664553e+002, 1.999473e+002
6.669374e+002, 2.065634e+002
6.674196e+002, 2.135817e+002
6.679017e+002, 2.204421e+002
6.683838e+002, 2.270493e+002
6.688659e+002, 2.337974e+002
6.693480e+002, 2.411516e+002
6.698301e+002, 2.490950e+002
6.703123e+002, 2.560573e+002
6.707944e+002, 2.619728e+002
6.712765e+002, 2.675941e+002
6.717586e+002, 2.738457e+002
6.722407e+002, 2.803513e+002
6.727228e+002, 2.862055e+002
6.732050e+002, 2.913391e+002
6.736871e+002, 2.958008e+002
6.741692e+002, 2.998693e+002
6.746513e+002, 3.032524e+002
6.751334e+002, 3.055688e+002
6.756155e+002, 3.066824e+002
6.760977e+002, 3.068238e+002
6.765798e+002, 3.059354e+002
6.770619e+002, 3.041041e+002
6.775440e+002, 3.015107e+002
6.780261e+002, 2.983882e+002
6.785082e+002, 2.940374e+002
6.789904e+002, 2.881215e+002
6.794725e+002, 2.810752e+002
6.799546e+002, 2.737746e+002
6.804367e+002, 2.663439e+002
6.809188e+002, 2.584785e+002
6.814009e+002, 2.500632e+002
6.818831e+002, 2.412176e+002
6.823652e+002, 2.321790e+002
6.828473e+002, 2.229529e+002
6.833294e+002, 2.140023e+002
6.838115e+002, 2.054637e+002
6.842936e+002, 1.973064e+002
6.847758e+002, 1.892336e+002
6.852579e+002, 1.813027e+002
6.857400e+002, 1.738358e+002
6.862221e+002, 1.670793e+002
6.867042e+002, 1.607902e+002
6.871863e+002, 1.547964e+002
6.876685e+002, 1.491453e+002
6.881506e+002, 1.436267e+002
6.886327e+002, 1.380768e+002
6.891148e+002, 1.328045e+002
6.895969e+002, 1.281025e+002
6.900790e+002, 1.239160e+002
6.905612e+002, 1.200624e+002
6.910433e+002, 1.165674e+002
6.915254e+002, 1.132093e+002
6.920075e+002, 1.098003e+002
6.924896e+002, 1.064135e+002
6.929717e+002, 1.031883e+002
6.934539e+002, 1.000920e+002
6.939360e+002, 9.732127e+001
6.944181e+002, 9.521194e+001
6.949002e+002, 9.347581e+001
6.953823e+002, 9.165778e+001
6.958644e+002, 8.953660e+001
6.963466e+002, 8.751000e+001
6.968287e+002, 8.562037e+001
6.973108e+002, 8.386244e+001
6.977929e+002, 8.228796e+001
6.982750e+002, 8.093700e+001
6.987571e+002, 7.962691e+001
6.992393e+002, 7.829699e+001
6.997214e+002, 7.696416e+001
7.002035e+002, 7.567909e+001
7.006856e+002, 7.444315e+001
7.011677e+002, 7.331987e+001
7.016498e+002, 7.244811e+001
7.021320e+002, 7.164489e+001
7.026141e+002, 7.066478e+001
7.030962e+002, 6.952334e+001
7.035783e+002, 6.845525e+001
7.040604e+002, 6.750954e+001
7.045425e+002, 6.669856e+001
7.050247e+002, 6.607390e+001
7.055068e+002, 6.567936e+001
7.059889e+002, 6.521413e+001
7.064710e+002, 6.461567e+001
7.069531e+002, 6.402263e+001
7.074352e+002, 6.355764e+001
7.079174e+002, 6.324529e+001
7.083995e+002, 6.280125e+001
7.088816e+002, 6.221316e+001
7.093637e+002, 6.153370e+001
7.098458e+002, 6.075145e+001
7.103279e+002, 5.992879e+001
7.108101e+002, 5.921421e+001
7.112922e+002, 5.865911e+001
7.117743e+002, 5.812844e+001
7.122564e+002, 5.745503e+001
7.127385e+002, 5.676916e+001
7.132206e+002, 5.622832e+001
7.137028e+002, 5.601295e+001
7.141849e+002, 5.576051e+001
7.146670e+002, 5.544451e+001
7.151491e+002, 5.504272e+001
7.156312e+002, 5.448774e+001
7.161133e+002, 5.369265e+001
7.165955e+002, 5.300132e+001
7.170776e+002, 5.249160e+001
7.175597e+002, 5.209991e+001
7.180418e+002, 5.168797e+001
7.185239e+002, 5.126337e+001
7.190060e+002, 5.094933e+001
7.194882e+002, 5.087571e+001
7.199703e+002, 5.084559e+001
7.204524e+002, 5.061887e+001
7.209345e+002, 5.023176e+001
7.214166e+002, 4.978553e+001
7.218987e+002, 4.917838e+001
7.223809e+002, 4.866643e+001
7.228630e+002, 4.842184e+001
7.233451e+002, 4.841838e+001
7.238272e+002, 4.840605e+001
7.243093e+002, 4.843966e+001
7.247914e+002, 4.836704e+001
7.252736e+002, 4.812226e+001
7.257557e+002, 4.771559e+001
7.262378e+002, 4.721659e+001
7.267199e+002, 4.659468e+001
7.272020e+002, 4.610059e+001
7.276841e+002, 4.593943e+001
7.281663e+002, 4.600973e+001
7.286484e+002, 4.614812e+001
7.291305e+002, 4.634129e+001
7.296126e+002, 4.644638e+001
7.300947e+002, 4.642135e+001
7.305768e+002, 4.623074e+001
7.310590e+002, 4.576723e+001
7.315411e+002, 4.492598e+001
7.320232e+002, 4.430562e+001
7.325053e+002, 4.413544e+001
7.329874e+002, 4.412114e+001
7.334695e+002, 4.408302e+001
7.339517e+002, 4.397281e+001
7.344338e+002, 4.404776e+001
7.349159e+002, 4.437392e+001
7.353980e+002, 4.469744e+001
7.358801e+002, 4.468193e+001
7.363622e+002, 4.441671e+001
7.368444e+002, 4.429173e+001
7.373265e+002, 4.438881e+001
7.378086e+002, 4.452377e+001
7.382907e+002, 4.460699e+001
7.387728e+002, 4.459305e+001
7.392549e+002, 4.440453e+001
7.397371e+002, 4.387635e+001
7.402192e+002, 4.342365e+001
7.407013e+002, 4.309545e+001
7.411834e+002, 4.294086e+001
7.416655e+002, 4.304225e+001
7.421476e+002, 4.359795e+001
7.426298e+002, 4.391788e+001
7.431119e+002, 4.386129e+001
7.435940e+002, 4.361001e+001
7.440761e+002, 4.344269e+001
7.445582e+002, 4.336422e+001
7.450403e+002, 4.344608e+001
7.455225e+002, 4.380856e+001
7.460046e+002, 4.416747e+001
7.464867e+002, 4.414492e+001
7.469688e+002, 4.385418e+001
7.474509e+002, 4.353845e+001
7.479330e+002, 4.318480e+001
7.484152e+002, 4.294504e+001
7.488973e+002, 4.288420e+001
7.493794e+002, 4.298670e+001
7.498615e+002, 4.321161e+001
7.503436e+002, 4.377848e+001
7.508257e+002, 4.405800e+001
7.513079e+002, 4.381855e+001
7.517900e+002, 4.320895e+001
7.522721e+002, 4.270518e+001
7.527542e+002, 4.230461e+001
7.532363e+002, 4.211723e+001
7.537184e+002, 4.232000e+001
7.542006e+002, 4.269072e+001
7.546827e+002, 4.293274e+001
7.551648e+002, 4.304620e+001
7.556469e+002, 4.302098e+001
7.561290e+002, 4.275377e+001
7.566111e+002, 4.243707e+001
7.570933e+002, 4.209828e+001
7.575754e+002, 4.176258e+001
7.580575e+002, 4.167343e+001
7.585396e+002, 4.199963e+001
7.590217e+002, 4.233095e+001
7.595038e+002, 4.252124e+001
7.599860e+002, 4.257678e+001
7.604681e+002, 4.259070e+001
7.609502e+002, 4.256392e+001
7.614323e+002, 4.247643e+001
7.619144e+002, 4.223954e+001
7.623965e+002, 4.196006e+001
7.628787e+002, 4.185492e+001
7.633608e+002, 4.191816e+001
7.638429e+002, 4.200031e+001
7.643250e+002, 4.198781e+001
7.648071e+002, 4.198222e+001
7.652892e+002, 4.207785e+001
7.657714e+002, 4.230653e+001
7.662535e+002, 4.243945e+001
7.667356e+002, 4.245075e+001
7.672177e+002, 4.238541e+001
7.676998e+002, 4.224449e+001
7.681819e+002, 4.201856e+001
7.686641e+002, 4.187595e+001
7.691462e+002, 4.182697e+001
7.696283e+002, 4.179272e+001
7.701104e+002, 4.172514e+001
7.705925e+002, 4.162056e+001
7.710746e+002, 4.142753e+001
7.715568e+002, 4.113492e+001
7.720389e+002, 4.094973e+001
7.725210e+002, 4.109542e+001
7.730031e+002, 4.133667e+001
7.734852e+002, 4.149178e+001
7.739673e+002, 4.151223e+001
7.744495e+002, 4.151896e+001
7.749316e+002, 4.149475e+001
7.754137e+002, 4.148442e+001
7.758958e+002, 4.154177e+001
7.763779e+002, 4.167844e+001
7.768600e+002, 4.174100e+001
7.773422e+002, 4.173009e+001
7.778243e+002, 4.161427e+001
7.783064e+002, 4.128619e+001
7.787885e+002, 4.085041e+001
7.792706e+002, 4.051681e+001
7.797527e+002, 4.033915e+001
7.802349e+002, 4.015371e+001
7.807170e+002, 3.971626e+001
7.811991e+002, 3.931746e+001
7.816812e+002, 3.923572e+001
7.821633e+002, 3.977124e+001
7.826454e+002, 4.012129e+001
7.831276e+002, 4.021791e+001
7.836097e+002, 4.021088e+001
7.840918e+002, 4.028506e+001
7.845739e+002, 4.044586e+001
7.850560e+002, 4.034234e+001
7.855381e+002, 3.990453e+001
7.860203e+002, 3.940040e+001
7.865024e+002, 3.899737e+001
7.869845e+002, 3.877050e+001
7.874666e+002, 3.892877e+001
7.879487e+002, 3.969902e+001
7.884308e+002, 4.026394e+001
7.889130e+002, 3.994642e+001
7.893951e+002, 3.937539e+001
7.898772e+002, 3.922065e+001
7.903593e+002, 4.004212e+001
7.908414e+002, 4.031597e+001
7.913235e+002, 3.980552e+001
7.918057e+002, 3.905395e+001
7.922878e+002, 3.871549e+001
7.927699e+002, 3.876313e+001
7.932520e+002, 3.889204e+001
7.937341e+002, 3.909520e+001
7.942162e+002, 3.919917e+001
7.946984e+002, 3.882532e+001
7.951805e+002, 3.828584e+001
7.956626e+002, 3.812336e+001
7.961447e+002, 3.870820e+001
7.966268e+002, 3.911595e+001
7.971089e+002, 3.878174e+001
7.975911e+002, 3.822511e+001
7.980732e+002, 3.804812e+001
7.985553e+002, 3.850512e+001
7.990374e+002, 3.875332e+001
7.995195e+002, 3.872462e+001
8.000016e+002, 3.852729e+001
8.004838e+002, 3.819263e+001
8.009659e+002, 3.777761e+001
8.014480e+002, 3.763654e+001
8.019301e+002, 3.788332e+001
8.024122e+002, 3.820765e+001
8.028943e+002, 3.830453e+001
8.033765e+002, 3.829670e+001
8.038586e+002, 3.835537e+001
8.043407e+002, 3.861470e+001
8.048228e+002, 3.877478e+001
8.053049e+002, 3.865633e+001
8.057870e+002, 3.847925e+001
8.062692e+002, 3.849643e+001
8.067513e+002, 3.881489e+001
8.072334e+002, 3.885791e+001
8.077155e+002, 3.850155e+001
8.081976e+002, 3.806700e+001
8.086797e+002, 3.798122e+001
8.091619e+002, 3.815687e+001
8.096440e+002, 3.834076e+001
8.101261e+002, 3.847245e+001
8.106082e+002, 3.863090e+001
8.110903e+002, 3.899263e+001
8.115724e+002, 3.935496e+001
8.120546e+002, 3.948755e+001
8.125367e+002, 3.916430e+001
8.130188e+002, 3.890459e+001
8.135009e+002, 3.875176e+001
8.139830e+002, 3.865352e+001
8.144651e+002, 3.855006e+001
8.149473e+002, 3.843745e+001
8.154294e+002, 3.837087e+001
8.159115e+002, 3.834768e+001
8.163936e+002, 3.840912e+001
8.168757e+002, 3.869567e+001
8.173578e+002, 3.907426e+001
8.178400e+002, 3.931146e+001
8.183221e+002, 3.933512e+001
8.188042e+002, 3.929202e+001
8.192863e+002, 3.918577e+001
8.197684e+002, 3.908348e+001
8.202505e+002, 3.905462e+001
8.207327e+002, 3.913803e+001
8.212148e+002, 3.921167e+001
8.216969e+002, 3.928520e+001
8.221790e+002, 3.932904e+001
8.226611e+002, 3.926458e+001
8.231432e+002, 3.912308e+001
8.236254e+002, 3.912836e+001
8.241075e+002, 3.931427e+001
8.245896e+002, 3.955259e+001
8.250717e+002, 3.973274e+001
8.255538e+002, 3.989542e+001
8.260359e+002, 4.010686e+001
8.265181e+002, 4.042854e+001
8.270002e+002, 4.062176e+001
8.274823e+002, 4.055397e+001
8.279644e+002, 4.040349e+001
8.284465e+002, 4.027770e+001
8.289286e+002, 4.018485e+001
8.294108e+002, 4.007112e+001
8.298929e+002, 3.992112e+001
8.303750e+002, 3.982565e+001
8.308571e+002, 3.993612e+001
8.313392e+002, 4.014843e+001
8.318214e+002, 4.024920e+001
8.323035e+002, 4.021554e+001
8.327856e+002, 4.008260e+001
8.332677e+002, 3.975488e+001
8.337498e+002, 3.941925e+001
8.342319e+002, 3.919983e+001
8.347141e+002, 3.910785e+001
8.351962e+002, 3.920061e+001
8.356783e+002, 3.961655e+001
8.361604e+002, 3.998067e+001
8.366425e+002, 4.005459e+001
8.371246e+002, 3.984668e+001
8.376068e+002, 3.938896e+001
8.380889e+002, 3.867921e+001
8.385710e+002, 3.811612e+001
8.390531e+002, 3.805877e+001
8.395352e+002, 3.827797e+001
8.400173e+002, 3.863038e+001
8.404995e+002, 3.909559e+001
8.409816e+002, 3.933528e+001
8.414637e+002, 3.870748e+001
8.419458e+002, 3.837144e+001
8.424279e+002, 3.908416e+001
8.429100e+002, 4.080831e+001
8.433922e+002, 4.126402e+001
8.438743e+002, 4.022766e+001
8.443564e+002, 3.914615e+001
8.448385e+002, 3.901115e+001
8.453206e+002, 3.941466e+001
8.458027e+002, 3.936518e+001
8.462849e+002, 3.894532e+001
8.467670e+002, 3.861930e+001
8.472491e+002, 3.875270e+001
8.477312e+002, 3.895768e+001
8.482133e+002, 3.904043e+001
8.486954e+002, 3.899541e+001
8.491776e+002, 3.887590e+001
8.496597e+002, 3.859135e+001
8.501418e+002, 3.842696e+001
8.506239e+002, 3.851752e+001
8.511060e+002, 3.877818e+001
8.515881e+002, 3.892784e+001
8.520703e+002, 3.897626e+001
8.525524e+002, 3.900344e+001
8.530345e+002, 3.905405e+001
8.535166e+002, 3.909550e+001
8.539987e+002, 3.906971e+001
8.544808e+002, 3.901074e+001
8.549630e+002, 3.900574e+001
8.554451e+002, 3.920995e+001
8.559272e+002, 3.930262e+001
8.564093e+002, 3.914962e+001
8.568914e+002, 3.888122e+001
8.573735e+002, 3.882354e+001
8.578557e+002, 3.900076e+001
8.583378e+002, 3.907756e+001
8.588199e+002, 3.893020e+001
8.593020e+002, 3.871467e+001
8.597841e+002, 3.858525e+001
8.602662e+002, 3.857362e+001
8.607484e+002, 3.876604e+001
8.612305e+002, 3.943944e+001
8.617126e+002, 3.994971e+001
8.621947e+002, 3.985125e+001
8.626768e+002, 3.953507e+001
8.631589e+002, 3.960056e+001
8.636411e+002, 4.033259e+001
8.641232e+002, 4.058852e+001
8.646053e+002, 4.015591e+001
8.650874e+002, 3.949033e+001
8.655695e+002, 3.912286e+001
8.660516e+002, 3.901505e+001
8.665338e+002, 3.908063e+001
8.670159e+002, 3.934378e+001
8.674980e+002, 3.956981e+001
8.679801e+002, 3.954418e+001
8.684622e+002, 3.942942e+001
8.689443e+002, 3.939481e+001
8.694265e+002, 3.954892e+001
8.699086e+002, 3.956739e+001
8.703907e+002, 3.939167e+001
8.708728e+002, 3.917163e+001
8.713549e+002, 3.898657e+001
8.718370e+002, 3.884790e+001
8.723192e+002, 3.898964e+001
8.728013e+002, 3.943085e+001
8.732834e+002, 3.971772e+001
8.737655e+002, 3.922854e+001
8.742476e+002, 3.856210e+001
8.747297e+002, 3.837794e+001
8.752119e+002, 3.874792e+001
8.756940e+002, 3.901834e+001
8.761761e+002, 3.900219e+001
8.766582e+002, 3.887318e+001
8.771403e+002, 3.865180e+001
8.776224e+002, 3.835358e+001
8.781046e+002, 3.822927e+001
8.785867e+002, 3.828894e+001
8.790688e+002, 3.831409e+001
8.795509e+002, 3.812243e+001
8.800330e+002, 3.784993e+001
8.805151e+002, 3.766891e+001
8.809973e+002, 3.757463e+001
8.814794e+002, 3.754440e+001
8.819615e+002, 3.769849e+001
8.824436e+002, 3.777575e+001
8.829257e+002, 3.764524e+001
8.834078e+002, 3.737025e+001
8.838900e+002, 3.708239e+001
8.843721e+002, 3.675181e+001
8.848542e+002, 3.657295e+001
8.853363e+002, 3.662724e+001
8.858184e+002, 3.681970e+001
8.863005e+002, 3.707386e+001
8.867827e+002, 3.733051e+001
8.872648e+002, 3.742698e+001
8.877469e+002, 3.717900e+001
8.882290e+002, 3.694928e+001
8.887111e+002, 3.695392e+001
8.891932e+002, 3.704884e+001
8.896754e+002, 3.699683e+001
8.901575e+002, 3.663137e+001
8.906396e+002, 3.661503e+001
8.911217e+002, 3.714364e+001
8.916038e+002, 3.768712e+001
8.920859e+002, 3.741272e+001
8.925681e+002, 3.661227e+001
8.930502e+002, 3.622625e+001
8.935323e+002, 3.645617e+001
8.940144e+002, 3.674546e+001
8.944965e+002, 3.680822e+001
8.949786e+002, 3.669628e+001
8.954608e+002, 3.639585e+001
8.959429e+002, 3.578741e+001
8.964250e+002, 3.547193e+001
8.969071e+002, 3.550924e+001
8.973892e+002, 3.572440e+001
8.978713e+002, 3.611969e+001
8.983535e+002, 3.662155e+001
8.988356e+002, 3.671597e+001
8.993177e+002, 3.642332e+001
8.997998e+002, 3.609213e+001
9.002819e+002, 3.588541e+001
9.007640e+002, 3.578796e+001
9.012462e+002, 3.585372e+001
9.017283e+002, 3.605448e+001
9.022104e+002, 3.611350e+001
9.026925e+002, 3.585588e+001
9.031746e+002, 3.571847e+001
9.036567e+002, 3.591016e+001
9.041389e+002, 3.626750e+001
9.046210e+002, 3.618850e+001
9.051031e+002, 3.572896e+001
9.055852e+002, 3.540049e+001
9.060673e+002, 3.554320e+001
9.065494e+002, 3.572028e+001
9.070316e+002, 3.538006e+001
9.075137e+002, 3.482790e+001
9.079958e+002, 3.459947e+001
9.084779e+002, 3.525127e+001
9.089600e+002, 3.565659e+001
9.094421e+002, 3.564323e+001
9.099243e+002, 3.542541e+001
9.104064e+002, 3.522065e+001
9.108885e+002, 3.504131e+001
9.113706e+002, 3.517756e+001
9.118527e+002, 3.574055e+001
9.123348e+002, 3.617910e+001
9.128170e+002, 3.572967e+001
9.132991e+002, 3.498528e+001
9.137812e+002, 3.465778e+001
9.142633e+002, 3.499250e+001
9.147454e+002, 3.519671e+001
9.152275e+002, 3.507944e+001
9.157097e+002, 3.488682e+001
9.161918e+002, 3.471954e+001
9.166739e+002, 3.457983e+001
9.171560e+002, 3.467926e+001
9.176381e+002, 3.501948e+001
9.181202e+002, 3.529253e+001
9.186024e+002, 3.524275e+001
9.190845e+002, 3.504229e+001
9.195666e+002, 3.486147e+001
9.200487e+002, 3.469896e+001
9.205308e+002, 3.450038e+001
9.210129e+002, 3.406355e+001
9.214951e+002, 3.383212e+001
9.219772e+002, 3.402506e+001
9.224593e+002, 3.445053e+001
9.229414e+002, 3.447599e+001
9.234235e+002, 3.410998e+001
9.239056e+002, 3.383290e+001
9.243878e+002, 3.382399e+001
9.248699e+002, 3.392329e+001
9.253520e+002, 3.402961e+001
9.258341e+002, 3.409475e+001
9.263162e+002, 3.403924e+001
9.267983e+002, 3.366514e+001
9.272805e+002, 3.344737e+001
9.277626e+002, 3.357062e+001
9.282447e+002, 3.372949e+001
9.287268e+002, 3.357138e+001
9.292089e+002, 3.309513e+001
9.296910e+002, 3.272963e+001
9.301732e+002, 3.250825e+001
9.306553e+002, 3.239373e+001
9.311374e+002, 3.249054e+001
9.316195e+002, 3.259550e+001
9.321016e+002, 3.243743e+001
9.325837e+002, 3.197707e+001
9.330659e+002, 3.157102e+001
9.335480e+002, 3.126488e+001
9.340301e+002, 3.107816e+001
9.345122e+002, 3.106223e+001
9.349943e+002, 3.118137e+001
9.354764e+002, 3.122022e+001
9.359586e+002, 3.117667e+001
9.364407e+002, 3.100894e+001
9.369228e+002, 3.057245e+001
9.374049e+002, 3.011441e+001
9.378870e+002, 2.997398e+001
9.383691e+002, 3.000449e+001
9.388513e+002, 2.987117e+001
9.393334e+002, 2.925014e+001
9.398155e+002, 2.877008e+001
9.402976e+002, 2.855345e+001
9.407797e+002, 2.847782e+001
9.412618e+002, 2.836010e+001
9.417440e+002, 2.820701e+001
9.422261e+002, 2.812959e+001
9.427082e+002, 2.816863e+001
9.431903e+002, 2.815730e+001
9.436724e+002, 2.789971e+001
9.441545e+002, 2.753020e+001
9.446367e+002, 2.715161e+001
9.451188e+002, 2.673337e+001
9.456009e+002, 2.654329e+001
9.460830e+002, 2.677476e+001
9.465651e+002, 2.694976e+001
9.470472e+002, 2.673697e+001
9.475294e+002, 2.619389e+001
9.480115e+002, 2.583941e+001
9.484936e+002, 2.565911e+001
9.489757e+002, 2.550903e+001
9.494578e+002, 2.521080e+001
9.499399e+002, 2.498481e+001
9.504221e+002, 2.511627e+001
9.509042e+002, 2.548631e+001
9.513863e+002, 2.560871e+001
9.518684e+002, 2.529954e+001
9.523505e+002, 2.501474e+001
9.528326e+002, 2.484338e+001
9.533148e+002, 2.472813e+001
9.537969e+002, 2.454415e+001
9.542790e+002, 2.431694e+001
9.547611e+002, 2.414775e+001
9.552432e+002, 2.405436e+001
9.557253e+002, 2.405548e+001
9.562075e+002, 2.430252e+001
9.566896e+002, 2.457015e+001
9.571717e+002, 2.462339e+001
9.576538e+002, 2.438590e+001
9.581359e+002, 2.410410e+001
9.586180e+002, 2.374807e+001
9.591002e+002, 2.341819e+001
9.595823e+002, 2.315966e+001
9.600644e+002, 2.298748e+001
9.605465e+002, 2.299471e+001
9.610286e+002, 2.316108e+001
9.615107e+002, 2.332234e+001
9.619929e+002, 2.349103e+001
9.624750e+002, 2.352699e+001
9.629571e+002, 2.324049e+001
9.634392e+002, 2.275249e+001
9.639213e+002, 2.250184e+001
9.644034e+002, 2.254496e+001
9.648856e+002, 2.261654e+001
9.653677e+002, 2.266697e+001
9.658498e+002, 2.268661e+001
9.663319e+002, 2.261976e+001
9.668140e+002, 2.251826e+001
9.672961e+002, 2.250965e+001
9.677783e+002, 2.269170e+001
9.682604e+002, 2.279382e+001
9.687425e+002, 2.267893e+001
9.692246e+002, 2.246636e+001
9.697067e+002, 2.222517e+001
9.701888e+002, 2.193818e+001
9.706710e+002, 2.179291e+001
9.711531e+002, 2.180201e+001
9.716352e+002, 2.184134e+001
9.721173e+002, 2.184765e+001
9.725994e+002, 2.180878e+001
9.730815e+002, 2.167285e+001
9.735637e+002, 2.146244e+001
9.740458e+002, 2.130579e+001
9.745279e+002, 2.127741e+001
9.750100e+002, 2.127210e+001
9.754921e+002, 2.126404e+001
9.759742e+002, 2.126057e+001
9.764564e+002, 2.131455e+001
9.769385e+002, 2.141759e+001
9.774206e+002, 2.137289e+001
9.779027e+002, 2.107960e+001
9.783848e+002, 2.078517e+001
9.788669e+002, 2.072639e+001
9.793491e+002, 2.080266e+001
9.798312e+002, 2.091318e+001
9.803133e+002, 2.111878e+001
9.807954e+002, 2.111680e+001
9.812775e+002, 2.076735e+001
9.817596e+002, 2.044135e+001
9.822418e+002, 2.044979e+001
9.827239e+002, 2.071684e+001
9.832060e+002, 2.087752e+001
9.836881e+002, 2.092523e+001
9.841702e+002, 2.082897e+001
9.846523e+002, 2.028723e+001
9.851345e+002, 1.986913e+001
9.856166e+002, 2.006652e+001
9.860987e+002, 2.068253e+001
9.865808e+002, 2.095652e+001
9.870629e+002, 2.079690e+001
9.875450e+002, 2.056392e+001
9.880272e+002, 2.030330e+001
9.885093e+002, 2.005399e+001
9.889914e+002, 1.986640e+001
9.894735e+002, 1.973874e+001
9.899556e+002, 1.970252e+001
9.904377e+002, 1.981429e+001
9.909199e+002, 1.980073e+001
9.914020e+002, 1.931312e+001
9.918841e+002, 1.886721e+001
9.923662e+002, 1.882711e+001
9.928483e+002, 1.920594e+001
9.933304e+002, 1.956525e+001
9.938126e+002, 1.991118e+001
9.942947e+002, 2.013147e+001
9.947768e+002, 2.010655e+001
9.952589e+002, 1.995236e+001
9.957410e+002, 1.975575e+001
9.962231e+002, 1.954471e+001
9.967053e+002, 1.939031e+001
9.971874e+002, 1.930588e+001
9.976695e+002, 1.930711e+001
9.981516e+002, 1.944864e+001
9.986337e+002, 1.961428e+001
9.991158e+002, 1.960989e+001
9.995980e+002, 1.945869e+001
1.000080e+003, 1.934054e+001
1.000562e+003, 1.928845e+001
1.001044e+003, 1.919903e+001
1.001526e+003, 1.890395e+001
1.002009e+003, 1.860063e+001
1.002491e+003, 1.844543e+001
1.002973e+003, 1.845782e+001
1.003455e+003, 1.863458e+001
1.003937e+003, 1.907128e+001
1.004419e+003, 1.936603e+001
1.004901e+003, 1.928845e+001
1.005383e+003, 1.899335e+001
1.005865e+003, 1.872380e+001
1.006348e+003, 1.851840e+001
1.006830e+003, 1.848043e+001
1.007312e+003, 1.885408e+001
1.007794e+003, 1.915732e+001
1.008276e+003, 1.920746e+001
1.008758e+003, 1.913583e+001
1.009240e+003, 1.908335e+001
1.009722e+003, 1.906155e+001
1.010205e+003, 1.891250e+001
1.010687e+003, 1.861072e+001
1.011169e+003, 1.831247e+001
1.011651e+003, 1.809411e+001
1.012133e+003, 1.799104e+001
1.012615e+003, 1.813870e+001
1.013097e+003, 1.851703e+001
1.013579e+003, 1.864213e+001
1.014061e+003, 1.825241e+001
1.014544e+003, 1.789105e+001
1.015026e+003, 1.761283e+001
1.015508e+003, 1.755811e+001
1.015990e+003, 1.833002e+001
1.016472e+003, 1.968017e+001
1.016954e+003, 2.058221e+001
1.017436e+003, 2.066999e+001
1.017918e+003, 2.039361e+001
1.018401e+003, 1.980002e+001
1.018883e+003, 1.912883e+001
1.019365e+003, 1.861062e+001
1.019847e+003, 1.826739e+001
1.020329e+003, 1.798859e+001
1.020811e+003, 1.777301e+001
1.021293e+003, 1.762885e+001
1.021775e+003, 1.757094e+001
1.022257e+003, 1.758347e+001
1.022740e+003, 1.769449e+001
1.023222e+003, 1.786272e+001
1.023704e+003, 1.793620e+001
1.024186e+003, 1.775640e+001
1.024668e+003, 1.760517e+001
1.025150e+003, 1.752027e+001
1.025632e+003, 1.751202e+001
1.026114e+003, 1.766278e+001
1.026596e+003, 1.793807e+001
1.027079e+003, 1.795907e+001
1.027561e+003, 1.761118e+001
1.028043e+003, 1.746406e+001
1.028525e+003, 1.847201e+001
1.029007e+003, 1.952751e+001
1.029489e+003, 1.950404e+001
1.029971e+003, 1.823944e+001
1.030453e+003, 1.748989e+001
1.030936e+003, 1.736135e+001
1.031418e+003, 1.740032e+001
1.031900e+003, 1.744184e+001
1.032382e+003, 1.749865e+001
1.032864e+003, 1.761275e+001
1.033346e+003, 1.776067e+001
1.033828e+003, 1.788518e+001
1.034310e+003, 1.797695e+001
1.034792e+003, 1.802723e+001
1.035275e+003, 1.811456e+001
1.035757e+003, 1.808735e+001
1.036239e+003, 1.769821e+001
1.036721e+003, 1.695022e+001
1.037203e+003, 1.668139e+001
1.037685e+003, 1.691886e+001
1.038167e+003, 1.719625e+001
1.038649e+003, 1.711720e+001
1.039132e+003, 1.698592e+001
1.039614e+003, 1.706612e+001
1.040096e+003, 1.732323e+001
1.040578e+003, 1.753841e+001
1.041060e+003, 1.776115e+001
1.041542e+003, 1.775990e+001
1.042024e+003, 1.742036e+001
1.042506e+003, 1.700137e+001
1.042989e+003, 1.687051e+001
1.043471e+003, 1.695599e+001
1.043953e+003, 1.714798e+001
1.044435e+003, 1.746488e+001
1.044917e+003, 1.765402e+001
1.045399e+003, 1.755245e+001
1.045881e+003, 1.735582e+001
1.046363e+003, 1.711271e+001
1.046845e+003, 1.685088e+001
1.047328e+003, 1.685438e+001
1.047810e+003, 1.710424e+001
1.048292e+003, 1.726801e+001
1.048774e+003, 1.712264e+001
1.049256e+003, 1.693113e+001
1.049738e+003, 1.688312e+001
1.050220e+003, 1.693580e+001
1.050702e+003, 1.702561e+001
1.051184e+003, 1.715996e+001
1.051667e+003, 1.728951e+001
1.052149e+003, 1.741076e+001
1.052631e+003, 1.753566e+001
1.053113e+003, 1.779488e+001
1.053595e+003, 1.801995e+001
1.054077e+003, 1.778110e+001
1.054559e+003, 1.713912e+001
1.055041e+003, 1.660238e+001
1.055523e+003, 1.638581e+001
1.056006e+003, 1.631256e+001
1.056488e+003, 1.639572e+001
1.056970e+003, 1.652619e+001
1.057452e+003, 1.644787e+001
1.057934e+003, 1.618867e+001
1.058416e+003, 1.601533e+001
1.058898e+003, 1.599078e+001
1.059380e+003, 1.597943e+001
1.059863e+003, 1.582366e+001
1.060345e+003, 1.567133e+001
1.060827e+003, 1.568069e+001
1.061309e+003, 1.586418e+001
1.061791e+003, 1.593277e+001
1.062273e+003, 1.586430e+001
1.062755e+003, 1.578318e+001
1.063237e+003, 1.573802e+001
1.063719e+003, 1.571830e+001
1.064202e+003, 1.569879e+001
1.064684e+003, 1.569405e+001
1.065166e+003, 1.574208e+001
1.065648e+003, 1.601528e+001
1.066130e+003, 1.602976e+001
1.066612e+003, 1.559997e+001
1.067094e+003, 1.512242e+001
1.067576e+003, 1.493306e+001
1.068059e+003, 1.498334e+001
1.068541e+003, 1.496992e+001
1.069023e+003, 1.491171e+001
1.069505e+003, 1.500156e+001
1.069987e+003, 1.561556e+001
1.070469e+003, 1.613108e+001
1.070951e+003, 1.609737e+001
1.071433e+003, 1.577553e+001
1.071916e+003, 1.564801e+001
1.072398e+003, 1.573927e+001
1.072880e+003, 1.583370e+001
1.073362e+003, 1.591319e+001
1.073844e+003, 1.591854e+001
1.074326e+003, 1.573001e+001
1.074808e+003, 1.547466e+001
1.075290e+003, 1.525027e+001
1.075772e+003, 1.507101e+001
1.076255e+003, 1.507231e+001
1.076737e+003, 1.535991e+001
1.077219e+003, 1.558776e+001
1.077701e+003, 1.565443e+001
1.078183e+003, 1.558069e+001
1.078665e+003, 1.531171e+001
1.079147e+003, 1.494826e+001
1.079629e+003, 1.472222e+001
1.080111e+003, 1.469959e+001
1.080594e+003, 1.479926e+001
1.081076e+003, 1.518462e+001
1.081558e+003, 1.549868e+001
1.082040e+003, 1.550616e+001
1.082522e+003, 1.523832e+001
1.083004e+003, 1.497247e+001
1.083486e+003, 1.471600e+001
1.083968e+003, 1.456077e+001
1.084450e+003, 1.462842e+001
1.084933e+003, 1.473420e+001
1.085415e+003, 1.474129e+001
1.085897e+003, 1.472032e+001
1.086379e+003, 1.480047e+001
1.086861e+003, 1.504024e+001
1.087343e+003, 1.514433e+001
1.087825e+003, 1.508967e+001
1.088307e+003, 1.496783e+001
1.088790e+003, 1.481417e+001
1.089272e+003, 1.466925e+001
1.089754e+003, 1.459388e+001
1.090236e+003, 1.457661e+001
1.090718e+003, 1.454231e+001
1.091200e+003, 1.446985e+001
1.091682e+003, 1.438103e+001
1.092164e+003, 1.424559e+001
1.092646e+003, 1.415818e+001
1.093129e+003, 1.438167e+001
1.093611e+003, 1.474700e+001
1.094093e+003, 1.476401e+001
1.094575e+003, 1.432729e+001
1.095057e+003, 1.405017e+001
1.095539e+003, 1.449493e+001
1.096021e+003, 1.483876e+001
1.096503e+003, 1.466243e+001
1.096986e+003, 1.413501e+001
1.097468e+003, 1.389374e+001
1.097950e+003, 1.391274e+001
1.098432e+003, 1.399687e+001
1.098914e+003, 1.413959e+001
1.099396e+003, 1.417942e+001
1.099878e+003, 1.378631e+001
1.100360e+003, 1.337804e+001
1.100843e+003, 1.343106e+001
1.101325e+003, 1.402154e+001
1.101807e+003, 1.431917e+001
1.102289e+003, 1.431132e+001
1.102771e+003, 1.416569e+001
1.103253e+003, 1.389991e+001
1.103735e+003, 1.362278e+001
1.104217e+003, 1.341815e+001
1.104699e+003, 1.331052e+001
1.105182e+003, 1.335425e+001
1.105664e+003, 1.371490e+001
1.106146e+003, 1.393197e+001
1.106628e+003, 1.397180e+001
1.107110e+003, 1.392981e+001
1.107592e+003, 1.384012e+001
1.108074e+003, 1.375104e+001
1.108556e+003, 1.380162e+001
1.109038e+003, 1.396092e+001
1.109521e+003, 1.404575e+001
1.110003e+003, 1.396005e+001
1.110485e+003, 1.379713e+001
1.110967e+003, 1.342973e+001
1.111449e+003, 1.317287e+001
1.111931e+003, 1.359649e+001
1.112413e+003, 1.456390e+001
1.112895e+003, 1.555394e+001
1.113377e+003, 1.651767e+001
1.113860e+003, 1.713113e+001
1.114342e+003, 1.725922e+001
1.114824e+003, 1.689260e+001
1.115306e+003, 1.573648e+001
1.115788e+003, 1.416190e+001
1.116270e+003, 1.343385e+001
1.116752e+003, 1.353308e+001
1.117234e+003, 1.372234e+001
1.117717e+003, 1.384529e+001
1.118199e+003, 1.388621e+001
1.118681e+003, 1.379792e+001
1.119163e+003, 1.364389e+001
1.119645e+003, 1.345237e+001
1.120127e+003, 1.322243e+001
1.120609e+003, 1.313576e+001
1.121091e+003, 1.321420e+001
1.121573e+003, 1.329587e+001
1.122056e+003, 1.330024e+001
1.122538e+003, 1.329329e+001
1.123020e+003, 1.342726e+001
1.123502e+003, 1.358404e+001
1.123984e+003, 1.356216e+001
1.124466e+003, 1.316041e+001
1.124948e+003, 1.297935e+001
1.125430e+003, 1.311164e+001
1.125913e+003, 1.324271e+001
1.126395e+003, 1.310853e+001
1.126877e+003, 1.285148e+001
1.127359e+003, 1.278349e+001
1.127841e+003, 1.286533e+001
1.128323e+003, 1.298997e+001
1.128805e+003, 1.317580e+001
1.129287e+003, 1.332274e+001
1.129770e+003, 1.344152e+001
1.130252e+003, 1.348844e+001
1.130734e+003, 1.340049e+001
1.131216e+003, 1.320462e+001
1.131698e+003, 1.294544e+001
1.132180e+003, 1.265262e+001
1.132662e+003, 1.252381e+001
1.133144e+003, 1.286928e+001
1.133626e+003, 1.315203e+001
1.134109e+003, 1.315209e+001
1.134591e+003, 1.300559e+001
1.135073e+003, 1.288601e+001
1.135555e+003, 1.279841e+001
1.136037e+003, 1.283036e+001
1.136519e+003, 1.299620e+001
1.137001e+003, 1.310415e+001
1.137483e+003, 1.295972e+001
1.137965e+003, 1.276767e+001
1.138448e+003, 1.264393e+001
1.138930e+003, 1.257951e+001
1.139412e+003, 1.253698e+001
1.139894e+003, 1.251368e+001
1.140376e+003, 1.260560e+001
1.140858e+003, 1.287438e+001
1.141340e+003, 1.303809e+001
1.141822e+003, 1.265988e+001
1.142304e+003, 1.218197e+001
1.142787e+003, 1.203986e+001
1.143269e+003, 1.226174e+001
1.143751e+003, 1.240622e+001
1.144233e+003, 1.245955e+001
1.144715e+003, 1.250615e+001
1.145197e+003, 1.257865e+001
1.145679e+003, 1.264353e+001
1.146161e+003, 1.266148e+001
1.146644e+003, 1.264192e+001
1.147126e+003, 1.258420e+001
1.147608e+003, 1.246175e+001
1.148090e+003, 1.241158e+001
1.148572e+003, 1.242525e+001
1.149054e+003, 1.255713e+001
1.149536e+003, 1.293972e+001
1.150018e+003, 1.333401e+001
1.150500e+003, 1.325651e+001
1.150983e+003, 1.288817e+001
1.151465e+003, 1.258510e+001
1.151947e+003, 1.244510e+001
1.152429e+003, 1.238001e+001
1.152911e+003, 1.236500e+001
1.153393e+003, 1.245106e+001
1.153875e+003, 1.276967e+001
1.154357e+003, 1.317994e+001
1.154840e+003, 1.330033e+001
1.155322e+003, 1.317825e+001
1.155804e+003, 1.296107e+001
1.156286e+003, 1.263284e+001
1.156768e+003, 1.230592e+001
1.157250e+003, 1.191041e+001
1.157732e+003, 1.164137e+001
1.158214e+003, 1.174721e+001
1.158697e+003, 1.213749e+001
1.159179e+003, 1.245825e+001
1.159661e+003, 1.269627e+001
1.160143e+003, 1.283359e+001
1.160625e+003, 1.280878e+001
1.161107e+003, 1.274566e+001
1.161589e+003, 1.269601e+001
1.162071e+003, 1.261656e+001
1.162553e+003, 1.237679e+001
1.163036e+003, 1.202983e+001
1.163518e+003, 1.200884e+001
1.164000e+003, 1.232373e+001
1.164482e+003, 1.260585e+001
1.164964e+003, 1.265782e+001
1.165446e+003, 1.259043e+001
1.165928e+003, 1.240818e+001
1.166410e+003, 1.217135e+001
1.166892e+003, 1.193943e+001
1.167375e+003, 1.172435e+001
1.167857e+003, 1.177298e+001
1.168339e+003, 1.212775e+001
1.168821e+003, 1.248783e+001
1.169303e+003, 1.273599e+001
1.169785e+003, 1.282106e+001
1.170267e+003, 1.256102e+001
1.170749e+003, 1.213798e+001
1.171231e+003, 1.211398e+001
1.171714e+003, 1.248468e+001
1.172196e+003, 1.271233e+001
1.172678e+003, 1.267214e+001
1.173160e+003, 1.255738e+001
1.173642e+003, 1.244138e+001
1.174124e+003, 1.239117e+001
1.174606e+003, 1.253057e+001
1.175088e+003, 1.280543e+001
1.175571e+003, 1.288466e+001
1.176053e+003, 1.275989e+001
1.176535e+003, 1.259481e+001
1.177017e+003, 1.239539e+001
1.177499e+003, 1.230795e+001
1.177981e+003, 1.261172e+001
1.178463e+003, 1.299826e+001
1.178945e+003, 1.315482e+001
1.179427e+003, 1.306712e+001
1.179910e+003, 1.297794e+001
1.180392e+003, 1.288931e+001
1.180874e+003, 1.275871e+001
1.181356e+003, 1.253304e+001
1.181838e+003, 1.234523e+001
1.182320e+003, 1.234995e+001
1.182802e+003, 1.246523e+001
1.183284e+003, 1.261579e+001
1.183767e+003, 1.280467e+001
1.184249e+003, 1.291110e+001
1.184731e+003, 1.292247e+001
1.185213e+003, 1.295017e+001
1.185695e+003, 1.309122e+001
1.186177e+003, 1.320501e+001
1.186659e+003, 1.305130e+001
1.187141e+003, 1.279757e+001
1.187624e+003, 1.270190e+001
1.188106e+003, 1.285603e+001
1.188588e+003, 1.292484e+001
1.189070e+003, 1.289445e+001
1.189552e+003, 1.285816e+001
1.190034e+003, 1.289913e+001
1.190516e+003, 1.293117e+001
1.190998e+003, 1.266191e+001
1.191480e+003, 1.236644e+001
1.191963e+003, 1.258484e+001
1.192445e+003, 1.385804e+001
1.192927e+003, 1.437242e+001
1.193409e+003, 1.400541e+001
1.193891e+003, 1.343880e+001
1.194373e+003, 1.306035e+001
1.194855e+003, 1.281221e+001
1.195337e+003, 1.261900e+001
1.195819e+003, 1.249639e+001
1.196302e+003, 1.249199e+001
1.196784e+003, 1.268509e+001
1.197266e+003, 1.281477e+001
1.197748e+003, 1.286343e+001
1.198230e+003, 1.290379e+001
1.198712e+003, 1.305331e+001
1.199194e+003, 1.318644e+001
1.199676e+003, 1.306137e+001
1.200158e+003, 1.278218e+001
1.200641e+003, 1.264394e+001
1.201123e+003, 1.275909e+001
1.201605e+003, 1.286415e+001
1.202087e+003, 1.295107e+001
1.202569e+003, 1.300562e+001
1.203051e+003, 1.306891e+001
1.203533e+003, 1.305461e+001
1.204015e+003, 1.270478e+001
1.204498e+003, 1.216588e+001
1.204980e+003, 1.197661e+001
1.205462e+003, 1.239888e+001
1.205944e+003, 1.270135e+001
1.206426e+003, 1.281654e+001
1.206908e+003, 1.283768e+001
1.207390e+003, 1.284207e+001
1.207872e+003, 1.281850e+001
1.208354e+003, 1.270751e+001
1.208837e+003, 1.254488e+001
1.209319e+003, 1.251491e+001
1.209801e+003, 1.273429e+001
1.210283e+003, 1.280749e+001
1.210765e+003, 1.265845e+001
1.211247e+003, 1.247004e+001
1.211729e+003, 1.243528e+001
1.212211e+003, 1.247108e+001
1.212694e+003, 1.244448e+001
1.213176e+003, 1.237831e+001
1.213658e+003, 1.245841e+001
1.214140e+003, 1.274068e+001
1.214622e+003, 1.303982e+001
1.215104e+003, 1.334667e+001
1.215586e+003, 1.359047e+001
1.216068e+003, 1.370572e+001
1.216551e+003, 1.370967e+001
1.217033e+003, 1.356676e+001
1.217515e+003, 1.330886e+001
1.217997e+003, 1.318744e+001
1.218479e+003, 1.328425e+001
1.218961e+003, 1.325173e+001
1.219443e+003, 1.299469e+001
1.219925e+003, 1.274857e+001
1.220407e+003, 1.282985e+001
1.220890e+003, 1.303122e+001
1.221372e+003, 1.311464e+001
1.221854e+003, 1.307531e+001
1.222336e+003, 1.307609e+001
1.222818e+003, 1.312147e+001
1.223300e+003, 1.320226e+001
1.223782e+003, 1.330727e+001
1.224264e+003, 1.349001e+001
1.224746e+003, 1.401579e+001
1.225229e+003, 1.450030e+001
1.225711e+003, 1.444108e+001
1.226193e+003, 1.386477e+001
1.226675e+003, 1.356098e+001
1.227157e+003, 1.357570e+001
1.227639e+003, 1.365230e+001
1.228121e+003, 1.374439e+001
1.228603e+003, 1.384496e+001
1.229085e+003, 1.398565e+001
1.229568e+003, 1.410013e+001
1.230050e+003, 1.409484e+001
1.230532e+003, 1.398381e+001
1.231014e+003, 1.394422e+001
1.231496e+003, 1.398064e+001
1.231978e+003, 1.405194e+001
1.232460e+003, 1.415705e+001
1.232942e+003, 1.425322e+001
1.233425e+003, 1.425670e+001
1.233907e+003, 1.426813e+001
1.234389e+003, 1.440956e+001
1.234871e+003, 1.465257e+001
1.235353e+003, 1.478314e+001
1.235835e+003, 1.479195e+001
1.236317e+003, 1.488532e+001
1.236799e+003, 1.511771e+001
1.237281e+003, 1.541202e+001
1.237764e+003, 1.576127e+001
1.238246e+003, 1.609920e+001
1.238728e+003, 1.632088e+001
1.239210e+003, 1.648081e+001
1.239692e+003, 1.684500e+001
1.240174e+003, 1.739872e+001
1.240656e+003, 1.790118e+001
1.241138e+003, 1.828289e+001
1.241621e+003, 1.865133e+001
1.242103e+003, 1.896775e+001
1.242585e+003, 1.941379e+001
1.243067e+003, 2.014330e+001
1.243549e+003, 2.107828e+001
1.244031e+003, 2.189268e+001
1.244513e+003, 2.263465e+001
1.244995e+003, 2.369614e+001
1.245478e+003, 2.524468e+001
1.245960e+003, 2.669026e+001
1.246442e+003, 2.787247e+001
1.246924e+003, 2.863055e+001
1.247406e+003, 2.893134e+001
1.247888e+003, 2.879071e+001
1.248370e+003, 2.808195e+001
1.248852e+003, 2.694301e+001
1.249334e+003, 2.596851e+001
1.249817e+003, 2.533443e+001
1.250299e+003, 2.461325e+001
1.250781e+003, 2.347463e+001
1.251263e+003, 2.234300e+001
1.251745e+003, 2.134338e+001
1.252227e+003, 2.051121e+001
1.252709e+003, 1.999660e+001
1.253191e+003, 1.970762e+001
1.253673e+003, 1.934570e+001
1.254156e+003, 1.882219e+001
1.254638e+003, 1.845331e+001
1.255120e+003, 1.839879e+001
1.255602e+003, 1.843271e+001
1.256084e+003, 1.852672e+001
1.256566e+003, 1.860690e+001
1.257048e+003, 1.844042e+001
1.257530e+003, 1.817285e+001
1.258012e+003, 1.812182e+001
1.258495e+003, 1.836064e+001
1.258977e+003, 1.860659e+001
1.259459e+003, 1.882352e+001
1.259941e+003, 1.901557e+001
1.260423e+003, 1.917045e+001
1.260905e+003, 1.932981e+001
1.261387e+003, 1.958900e+001
1.261869e+003, 1.988140e+001
1.262352e+003, 2.011002e+001
1.262834e+003, 2.025658e+001
1.263316e+003, 2.037644e+001
1.263798e+003, 2.042717e+001
1.264280e+003, 2.064112e+001
1.264762e+003, 2.113353e+001
1.265244e+003, 2.166298e+001
1.265726e+003, 2.170027e+001
1.266208e+003, 2.177302e+001
1.266691e+003, 2.271883e+001
1.267173e+003, 2.455539e+001
1.267655e+003, 2.532873e+001
1.268137e+003, 2.487212e+001
1.268619e+003, 2.479161e+001
1.269101e+003, 2.556214e+001
1.269583e+003, 2.657560e+001
1.270065e+003, 2.732819e+001
1.270548e+003, 2.801607e+001
1.271030e+003, 2.878591e+001
1.271512e+003, 2.964119e+001
1.271994e+003, 3.056105e+001
1.272476e+003, 3.154418e+001
1.272958e+003, 3.266173e+001
1.273440e+003, 3.392044e+001
1.273922e+003, 3.534560e+001
1.274405e+003, 3.701336e+001
1.274887e+003, 3.878895e+001
1.275369e+003, 4.047771e+001
1.275851e+003, 4.228104e+001
1.276333e+003, 4.489024e+001
1.276815e+003, 4.817346e+001
1.277297e+003, 5.153249e+001
1.277779e+003, 5.482134e+001
1.278261e+003, 5.829567e+001
1.278744e+003, 6.184080e+001
1.279226e+003, 6.587654e+001
1.279708e+003, 7.058323e+001
1.280190e+003, 7.582655e+001
1.280672e+003, 8.157202e+001
1.281154e+003, 8.778834e+001
1.281636e+003, 9.434132e+001
1.282118e+003, 1.012652e+002
1.282600e+003, 1.090066e+002
1.283083e+003, 1.179020e+002
1.283565e+003, 1.273036e+002
1.284047e+003, 1.370588e+002
1.284529e+003, 1.473054e+002
1.285011e+003, 1.581777e+002
1.285493e+003, 1.697232e+002
1.285975e+003, 1.819387e+002
1.286457e+003, 1.947976e+002
1.286939e+003, 2.079184e+002
1.287422e+003, 2.208454e+002
1.287904e+003, 2.349890e+002
1.288386e+003, 2.507888e+002
1.288868e+003, 2.666340e+002
1.289350e+003, 2.817668e+002
1.289832e+003, 2.952920e+002
1.290314e+003, 3.066978e+002
1.290796e+003, 3.154296e+002
1.291279e+003, 3.210012e+002
1.291761e+003, 3.234551e+002
1.292243e+003, 3.220713e+002
1.292725e+003, 3.166934e+002
1.293207e+003, 3.082730e+002
1.293689e+003, 2.966084e+002
1.294171e+003, 2.830718e+002
1.294653e+003, 2.676944e+002
1.295135e+003, 2.516017e+002
1.295618e+003, 2.366760e+002
1.296100e+003, 2.228168e+002
1.296582e+003, 2.088242e+002
1.297064e+003, 1.946662e+002
1.297546e+003, 1.814860e+002
1.298028e+003, 1.702102e+002
1.298510e+003, 1.598764e+002
1.298992e+003, 1.502644e+002
1.299475e+003, 1.412853e+002
1.299957e+003, 1.329324e+002
1.300439e+003, 1.251421e+002
1.300921e+003, 1.176399e+002
1.301403e+003, 1.105542e+002
1.301885e+003, 1.039866e+002
##END=



