##NAMES=Ammineite
##RRUFFID=R120155
##IDEAL CHEMISTRY=Cu^2+^Cl_2_(N^3-^H_3_)_2_
##LOCALITY=Caleta Pabellon de Pica, Punta Colina, Iquique, I Region, Chile
##OWNER=RRUFF
##SOURCE=Marcus Origlieri
##DESCRIPTION=Blue massive to granular associated with colorless halite
##STATUS=The identification of this mineral has been confirmed by single-crystal X-ray diffraction.
##URL=rruff.info/R120155
8.936163e+001, 0.000000e+000
8.984375e+001, 1.702715e+002
9.032587e+001, 1.709778e+002
9.080798e+001, 1.711257e+002
9.129010e+001, 1.705225e+002
9.177222e+001, 1.695836e+002
9.225433e+001, 1.689949e+002
9.273645e+001, 1.686911e+002
9.321857e+001, 1.679622e+002
9.370068e+001, 1.659108e+002
9.418280e+001, 1.628842e+002
9.466492e+001, 1.600104e+002
9.514703e+001, 1.575113e+002
9.562915e+001, 1.554517e+002
9.611127e+001, 1.540683e+002
9.659338e+001, 1.534515e+002
9.707550e+001, 1.531061e+002
9.755762e+001, 1.525504e+002
9.803973e+001, 1.517819e+002
9.852185e+001, 1.507006e+002
9.900397e+001, 1.490045e+002
9.948608e+001, 1.466603e+002
9.996820e+001, 1.451077e+002
1.004503e+002, 1.446314e+002
1.009324e+002, 1.446036e+002
1.014146e+002, 1.436358e+002
1.018967e+002, 1.414421e+002
1.023788e+002, 1.391011e+002
1.028609e+002, 1.371031e+002
1.033430e+002, 1.354725e+002
1.038251e+002, 1.342009e+002
1.043073e+002, 1.334828e+002
1.047894e+002, 1.331598e+002
1.052715e+002, 1.323947e+002
1.057536e+002, 1.309879e+002
1.062357e+002, 1.293524e+002
1.067178e+002, 1.277242e+002
1.072000e+002, 1.259330e+002
1.076821e+002, 1.244188e+002
1.081642e+002, 1.232830e+002
1.086463e+002, 1.225436e+002
1.091284e+002, 1.219346e+002
1.096105e+002, 1.218993e+002
1.100927e+002, 1.217998e+002
1.105748e+002, 1.210444e+002
1.110569e+002, 1.187207e+002
1.115390e+002, 1.165905e+002
1.120211e+002, 1.151297e+002
1.125032e+002, 1.145542e+002
1.129854e+002, 1.139171e+002
1.134675e+002, 1.134332e+002
1.139496e+002, 1.127572e+002
1.144317e+002, 1.113761e+002
1.149138e+002, 1.080159e+002
1.153959e+002, 1.047875e+002
1.158781e+002, 1.027533e+002
1.163602e+002, 1.025753e+002
1.168423e+002, 1.024869e+002
1.173244e+002, 1.018423e+002
1.178065e+002, 1.008106e+002
1.182886e+002, 9.982178e+001
1.187708e+002, 9.915134e+001
1.192529e+002, 9.854671e+001
1.197350e+002, 9.778631e+001
1.202171e+002, 9.651496e+001
1.206992e+002, 9.543010e+001
1.211813e+002, 9.530405e+001
1.216635e+002, 9.593404e+001
1.221456e+002, 9.620048e+001
1.226277e+002, 9.507218e+001
1.231098e+002, 9.323987e+001
1.235919e+002, 9.161233e+001
1.240740e+002, 9.050769e+001
1.245562e+002, 8.974961e+001
1.250383e+002, 8.929390e+001
1.255204e+002, 8.913625e+001
1.260025e+002, 8.893011e+001
1.264846e+002, 8.826829e+001
1.269667e+002, 8.731091e+001
1.274489e+002, 8.645832e+001
1.279310e+002, 8.602031e+001
1.284131e+002, 8.578182e+001
1.288952e+002, 8.528249e+001
1.293773e+002, 8.446727e+001
1.298594e+002, 8.358955e+001
1.303416e+002, 8.301469e+001
1.308237e+002, 8.269907e+001
1.313058e+002, 8.228622e+001
1.317879e+002, 8.147476e+001
1.322700e+002, 8.036692e+001
1.327521e+002, 7.948984e+001
1.332343e+002, 7.893217e+001
1.337164e+002, 7.852827e+001
1.341985e+002, 7.789074e+001
1.346806e+002, 7.699451e+001
1.351627e+002, 7.619383e+001
1.356448e+002, 7.586681e+001
1.361270e+002, 7.602393e+001
1.366091e+002, 7.579325e+001
1.370912e+002, 7.492565e+001
1.375733e+002, 7.366985e+001
1.380554e+002, 7.283624e+001
1.385375e+002, 7.251405e+001
1.390197e+002, 7.235041e+001
1.395018e+002, 7.208850e+001
1.399839e+002, 7.172156e+001
1.404660e+002, 7.128978e+001
1.409481e+002, 7.076192e+001
1.414302e+002, 7.015510e+001
1.419124e+002, 6.970210e+001
1.423945e+002, 6.953460e+001
1.428766e+002, 6.934274e+001
1.433587e+002, 6.874162e+001
1.438408e+002, 6.737801e+001
1.443229e+002, 6.635586e+001
1.448051e+002, 6.607979e+001
1.452872e+002, 6.672269e+001
1.457693e+002, 6.672871e+001
1.462514e+002, 6.563166e+001
1.467335e+002, 6.419105e+001
1.472156e+002, 6.338041e+001
1.476978e+002, 6.371361e+001
1.481799e+002, 6.405455e+001
1.486620e+002, 6.412434e+001
1.491441e+002, 6.384352e+001
1.496262e+002, 6.350207e+001
1.501083e+002, 6.302726e+001
1.505905e+002, 6.250837e+001
1.510726e+002, 6.210046e+001
1.515547e+002, 6.195340e+001
1.520368e+002, 6.179202e+001
1.525189e+002, 6.154657e+001
1.530010e+002, 6.128067e+001
1.534832e+002, 6.081516e+001
1.539653e+002, 5.985279e+001
1.544474e+002, 5.866605e+001
1.549295e+002, 5.790913e+001
1.554116e+002, 5.820976e+001
1.558937e+002, 5.856158e+001
1.563759e+002, 5.848473e+001
1.568580e+002, 5.740166e+001
1.573401e+002, 5.657698e+001
1.578222e+002, 5.633899e+001
1.583043e+002, 5.657436e+001
1.587864e+002, 5.686514e+001
1.592686e+002, 5.705459e+001
1.597507e+002, 5.728944e+001
1.602328e+002, 5.766605e+001
1.607149e+002, 5.847290e+001
1.611970e+002, 5.915682e+001
1.616791e+002, 5.922383e+001
1.621613e+002, 5.883408e+001
1.626434e+002, 5.906039e+001
1.631255e+002, 6.053208e+001
1.636076e+002, 6.273126e+001
1.640897e+002, 6.519662e+001
1.645718e+002, 6.811603e+001
1.650540e+002, 7.098949e+001
1.655361e+002, 7.334106e+001
1.660182e+002, 7.521886e+001
1.665003e+002, 7.752154e+001
1.669824e+002, 8.079043e+001
1.674645e+002, 8.478171e+001
1.679467e+002, 8.914184e+001
1.684288e+002, 9.344802e+001
1.689109e+002, 9.830999e+001
1.693930e+002, 1.039812e+002
1.698751e+002, 1.104847e+002
1.703572e+002, 1.182224e+002
1.708394e+002, 1.275633e+002
1.713215e+002, 1.384209e+002
1.718036e+002, 1.504779e+002
1.722857e+002, 1.637837e+002
1.727678e+002, 1.782302e+002
1.732499e+002, 1.937391e+002
1.737321e+002, 2.104603e+002
1.742142e+002, 2.280357e+002
1.746963e+002, 2.471653e+002
1.751784e+002, 2.673051e+002
1.756605e+002, 2.872513e+002
1.761426e+002, 3.065589e+002
1.766248e+002, 3.250763e+002
1.771069e+002, 3.426889e+002
1.775890e+002, 3.596136e+002
1.780711e+002, 3.749264e+002
1.785532e+002, 3.880121e+002
1.790353e+002, 3.988856e+002
1.795175e+002, 4.071037e+002
1.799996e+002, 4.119400e+002
1.804817e+002, 4.140881e+002
1.809638e+002, 4.149212e+002
1.814459e+002, 4.145404e+002
1.819280e+002, 4.130089e+002
1.824102e+002, 4.098694e+002
1.828923e+002, 4.053903e+002
1.833744e+002, 4.008915e+002
1.838565e+002, 3.972516e+002
1.843386e+002, 3.942645e+002
1.848207e+002, 3.913723e+002
1.853029e+002, 3.883178e+002
1.857850e+002, 3.856106e+002
1.862671e+002, 3.840986e+002
1.867492e+002, 3.837658e+002
1.872313e+002, 3.840448e+002
1.877134e+002, 3.845794e+002
1.881956e+002, 3.854026e+002
1.886777e+002, 3.866241e+002
1.891598e+002, 3.882410e+002
1.896419e+002, 3.903113e+002
1.901240e+002, 3.932757e+002
1.906061e+002, 3.972252e+002
1.910883e+002, 4.009192e+002
1.915704e+002, 4.032643e+002
1.920525e+002, 4.044118e+002
1.925346e+002, 4.056918e+002
1.930167e+002, 4.074490e+002
1.934988e+002, 4.091143e+002
1.939810e+002, 4.086147e+002
1.944631e+002, 4.056082e+002
1.949452e+002, 4.021193e+002
1.954273e+002, 3.980003e+002
1.959094e+002, 3.932686e+002
1.963915e+002, 3.884607e+002
1.968737e+002, 3.836670e+002
1.973558e+002, 3.789047e+002
1.978379e+002, 3.741297e+002
1.983200e+002, 3.693799e+002
1.988021e+002, 3.645769e+002
1.992842e+002, 3.595046e+002
1.997664e+002, 3.540874e+002
2.002485e+002, 3.494271e+002
2.007306e+002, 3.458729e+002
2.012127e+002, 3.432321e+002
2.016948e+002, 3.402537e+002
2.021769e+002, 3.367719e+002
2.026591e+002, 3.334633e+002
2.031412e+002, 3.309716e+002
2.036233e+002, 3.292969e+002
2.041054e+002, 3.281811e+002
2.045875e+002, 3.275156e+002
2.050696e+002, 3.273194e+002
2.055518e+002, 3.278618e+002
2.060339e+002, 3.291276e+002
2.065160e+002, 3.311047e+002
2.069981e+002, 3.338069e+002
2.074802e+002, 3.372108e+002
2.079623e+002, 3.412372e+002
2.084445e+002, 3.458394e+002
2.089266e+002, 3.510368e+002
2.094087e+002, 3.568596e+002
2.098908e+002, 3.632394e+002
2.103729e+002, 3.703860e+002
2.108550e+002, 3.787843e+002
2.113372e+002, 3.887486e+002
2.118193e+002, 3.985344e+002
2.123014e+002, 4.076281e+002
2.127835e+002, 4.159525e+002
2.132656e+002, 4.248092e+002
2.137477e+002, 4.343577e+002
2.142299e+002, 4.442481e+002
2.147120e+002, 4.539530e+002
2.151941e+002, 4.635200e+002
2.156762e+002, 4.729848e+002
2.161583e+002, 4.823715e+002
2.166404e+002, 4.915681e+002
2.171226e+002, 5.011515e+002
2.176047e+002, 5.111698e+002
2.180868e+002, 5.215125e+002
2.185689e+002, 5.321878e+002
2.190510e+002, 5.432652e+002
2.195331e+002, 5.546188e+002
2.200153e+002, 5.661946e+002
2.204974e+002, 5.779493e+002
2.209795e+002, 5.909591e+002
2.214616e+002, 6.053685e+002
2.219437e+002, 6.209893e+002
2.224258e+002, 6.379469e+002
2.229080e+002, 6.563066e+002
2.233901e+002, 6.756722e+002
2.238722e+002, 6.957133e+002
2.243543e+002, 7.167145e+002
2.248364e+002, 7.378156e+002
2.253185e+002, 7.595815e+002
2.258007e+002, 7.806645e+002
2.262828e+002, 7.999586e+002
2.267649e+002, 8.183034e+002
2.272470e+002, 8.329867e+002
2.277291e+002, 8.434749e+002
2.282112e+002, 8.502296e+002
2.286934e+002, 8.506743e+002
2.291755e+002, 8.452045e+002
2.296576e+002, 8.331870e+002
2.301397e+002, 8.136956e+002
2.306218e+002, 7.849424e+002
2.311039e+002, 7.514526e+002
2.315861e+002, 7.141023e+002
2.320682e+002, 6.718065e+002
2.325503e+002, 6.295770e+002
2.330324e+002, 5.865748e+002
2.335145e+002, 5.445159e+002
2.339966e+002, 5.049463e+002
2.344788e+002, 4.681831e+002
2.349609e+002, 4.337693e+002
2.354430e+002, 4.013839e+002
2.359251e+002, 3.708042e+002
2.364072e+002, 3.437177e+002
2.368893e+002, 3.206479e+002
2.373715e+002, 3.005858e+002
2.378536e+002, 2.824601e+002
2.383357e+002, 2.663979e+002
2.388178e+002, 2.516725e+002
2.392999e+002, 2.380078e+002
2.397820e+002, 2.254696e+002
2.402642e+002, 2.143462e+002
2.407463e+002, 2.047862e+002
2.412284e+002, 1.964993e+002
2.417105e+002, 1.892336e+002
2.421926e+002, 1.834248e+002
2.426747e+002, 1.778548e+002
2.431569e+002, 1.722629e+002
2.436390e+002, 1.665887e+002
2.441211e+002, 1.611922e+002
2.446032e+002, 1.559067e+002
2.450853e+002, 1.509986e+002
2.455674e+002, 1.468158e+002
2.460496e+002, 1.436018e+002
2.465317e+002, 1.406575e+002
2.470138e+002, 1.378217e+002
2.474959e+002, 1.350796e+002
2.479780e+002, 1.325243e+002
2.484601e+002, 1.301521e+002
2.489423e+002, 1.279510e+002
2.494244e+002, 1.259313e+002
2.499065e+002, 1.241943e+002
2.503886e+002, 1.224381e+002
2.508707e+002, 1.205420e+002
2.513528e+002, 1.185058e+002
2.518350e+002, 1.167032e+002
2.523171e+002, 1.151923e+002
2.527992e+002, 1.138714e+002
2.532813e+002, 1.126575e+002
2.537634e+002, 1.116085e+002
2.542455e+002, 1.105640e+002
2.547277e+002, 1.094946e+002
2.552098e+002, 1.083939e+002
2.556919e+002, 1.072621e+002
2.561740e+002, 1.060251e+002
2.566561e+002, 1.048455e+002
2.571382e+002, 1.039013e+002
2.576204e+002, 1.032369e+002
2.581025e+002, 1.026915e+002
2.585846e+002, 1.023190e+002
2.590667e+002, 1.020986e+002
2.595488e+002, 1.015655e+002
2.600309e+002, 1.005844e+002
2.605131e+002, 9.950596e+001
2.609952e+002, 9.867582e+001
2.614773e+002, 9.820242e+001
2.619594e+002, 9.765668e+001
2.624415e+002, 9.695154e+001
2.629236e+002, 9.610181e+001
2.634058e+002, 9.532298e+001
2.638879e+002, 9.462923e+001
2.643700e+002, 9.397084e+001
2.648521e+002, 9.324902e+001
2.653342e+002, 9.238095e+001
2.658163e+002, 9.176876e+001
2.662985e+002, 9.156857e+001
2.667806e+002, 9.168608e+001
2.672627e+002, 9.158559e+001
2.677448e+002, 9.124979e+001
2.682269e+002, 9.073011e+001
2.687090e+002, 8.996275e+001
2.691912e+002, 8.879467e+001
2.696733e+002, 8.803914e+001
2.701554e+002, 8.794225e+001
2.706375e+002, 8.829194e+001
2.711196e+002, 8.820187e+001
2.716017e+002, 8.754166e+001
2.720839e+002, 8.680227e+001
2.725660e+002, 8.633969e+001
2.730481e+002, 8.619787e+001
2.735302e+002, 8.602911e+001
2.740123e+002, 8.580231e+001
2.744944e+002, 8.552581e+001
2.749766e+002, 8.521583e+001
2.754587e+002, 8.487027e+001
2.759408e+002, 8.450584e+001
2.764229e+002, 8.410793e+001
2.769050e+002, 8.366213e+001
2.773871e+002, 8.336084e+001
2.778693e+002, 8.326047e+001
2.783514e+002, 8.326376e+001
2.788335e+002, 8.313332e+001
2.793156e+002, 8.284071e+001
2.797977e+002, 8.257710e+001
2.802798e+002, 8.250803e+001
2.807620e+002, 8.263609e+001
2.812441e+002, 8.253911e+001
2.817262e+002, 8.213403e+001
2.822083e+002, 8.160866e+001
2.826904e+002, 8.136465e+001
2.831725e+002, 8.143050e+001
2.836547e+002, 8.136034e+001
2.841368e+002, 8.084225e+001
2.846189e+002, 7.992688e+001
2.851010e+002, 7.915958e+001
2.855831e+002, 7.855394e+001
2.860652e+002, 7.809128e+001
2.865474e+002, 7.777372e+001
2.870295e+002, 7.759928e+001
2.875116e+002, 7.747374e+001
2.879937e+002, 7.743092e+001
2.884758e+002, 7.742713e+001
2.889579e+002, 7.716108e+001
2.894401e+002, 7.658758e+001
2.899222e+002, 7.597662e+001
2.904043e+002, 7.572044e+001
2.908864e+002, 7.577016e+001
2.913685e+002, 7.572890e+001
2.918506e+002, 7.541611e+001
2.923328e+002, 7.490417e+001
2.928149e+002, 7.440600e+001
2.932970e+002, 7.392056e+001
2.937791e+002, 7.342947e+001
2.942612e+002, 7.282670e+001
2.947433e+002, 7.217690e+001
2.952255e+002, 7.176228e+001
2.957076e+002, 7.178686e+001
2.961897e+002, 7.204499e+001
2.966718e+002, 7.218956e+001
2.971539e+002, 7.221998e+001
2.976360e+002, 7.209544e+001
2.981182e+002, 7.162890e+001
2.986003e+002, 7.097432e+001
2.990824e+002, 7.051826e+001
2.995645e+002, 7.043663e+001
3.000466e+002, 7.052406e+001
3.005287e+002, 7.052047e+001
3.010109e+002, 7.043069e+001
3.014930e+002, 7.028484e+001
3.019751e+002, 7.016814e+001
3.024572e+002, 6.999912e+001
3.029393e+002, 6.960215e+001
3.034214e+002, 6.882073e+001
3.039036e+002, 6.801266e+001
3.043857e+002, 6.757733e+001
3.048678e+002, 6.745049e+001
3.053499e+002, 6.738922e+001
3.058320e+002, 6.732721e+001
3.063141e+002, 6.721848e+001
3.067963e+002, 6.699688e+001
3.072784e+002, 6.662691e+001
3.077605e+002, 6.620943e+001
3.082426e+002, 6.576163e+001
3.087247e+002, 6.532358e+001
3.092068e+002, 6.499200e+001
3.096890e+002, 6.485749e+001
3.101711e+002, 6.482472e+001
3.106532e+002, 6.484621e+001
3.111353e+002, 6.493759e+001
3.116174e+002, 6.496202e+001
3.120995e+002, 6.474935e+001
3.125817e+002, 6.442224e+001
3.130638e+002, 6.417649e+001
3.135459e+002, 6.419832e+001
3.140280e+002, 6.424437e+001
3.145101e+002, 6.416281e+001
3.149922e+002, 6.393964e+001
3.154744e+002, 6.367792e+001
3.159565e+002, 6.336217e+001
3.164386e+002, 6.305820e+001
3.169207e+002, 6.284444e+001
3.174028e+002, 6.284507e+001
3.178849e+002, 6.284844e+001
3.183671e+002, 6.280225e+001
3.188492e+002, 6.270122e+001
3.193313e+002, 6.248783e+001
3.198134e+002, 6.206429e+001
3.202955e+002, 6.155964e+001
3.207776e+002, 6.108172e+001
3.212598e+002, 6.051628e+001
3.217419e+002, 6.011882e+001
3.222240e+002, 6.008379e+001
3.227061e+002, 6.032227e+001
3.231882e+002, 6.037317e+001
3.236703e+002, 6.004725e+001
3.241525e+002, 5.957701e+001
3.246346e+002, 5.908839e+001
3.251167e+002, 5.852715e+001
3.255988e+002, 5.803595e+001
3.260809e+002, 5.768095e+001
3.265630e+002, 5.741045e+001
3.270452e+002, 5.708062e+001
3.275273e+002, 5.647487e+001
3.280094e+002, 5.599413e+001
3.284915e+002, 5.581153e+001
3.289736e+002, 5.614272e+001
3.294557e+002, 5.629934e+001
3.299379e+002, 5.626692e+001
3.304200e+002, 5.606314e+001
3.309021e+002, 5.569895e+001
3.313842e+002, 5.492418e+001
3.318663e+002, 5.431584e+001
3.323484e+002, 5.405182e+001
3.328306e+002, 5.418368e+001
3.333127e+002, 5.436336e+001
3.337948e+002, 5.470204e+001
3.342769e+002, 5.498836e+001
3.347590e+002, 5.495292e+001
3.352411e+002, 5.441928e+001
3.357233e+002, 5.396366e+001
3.362054e+002, 5.374049e+001
3.366875e+002, 5.372859e+001
3.371696e+002, 5.359697e+001
3.376517e+002, 5.331034e+001
3.381339e+002, 5.297514e+001
3.386160e+002, 5.267765e+001
3.390981e+002, 5.242084e+001
3.395802e+002, 5.217125e+001
3.400623e+002, 5.190162e+001
3.405444e+002, 5.164659e+001
3.410266e+002, 5.157375e+001
3.415087e+002, 5.172234e+001
3.419908e+002, 5.185489e+001
3.424729e+002, 5.178559e+001
3.429550e+002, 5.151585e+001
3.434371e+002, 5.133854e+001
3.439193e+002, 5.129824e+001
3.444014e+002, 5.132022e+001
3.448835e+002, 5.123915e+001
3.453656e+002, 5.105647e+001
3.458477e+002, 5.095766e+001
3.463298e+002, 5.112559e+001
3.468120e+002, 5.147646e+001
3.472941e+002, 5.161407e+001
3.477762e+002, 5.150766e+001
3.482583e+002, 5.131691e+001
3.487404e+002, 5.122447e+001
3.492225e+002, 5.121111e+001
3.497047e+002, 5.119096e+001
3.501868e+002, 5.107456e+001
3.506689e+002, 5.095612e+001
3.511510e+002, 5.103304e+001
3.516331e+002, 5.130186e+001
3.521152e+002, 5.160354e+001
3.525974e+002, 5.179813e+001
3.530795e+002, 5.193242e+001
3.535616e+002, 5.209975e+001
3.540437e+002, 5.236302e+001
3.545258e+002, 5.262037e+001
3.550079e+002, 5.277894e+001
3.554901e+002, 5.284477e+001
3.559722e+002, 5.284949e+001
3.564543e+002, 5.269867e+001
3.569364e+002, 5.255090e+001
3.574185e+002, 5.258679e+001
3.579006e+002, 5.289105e+001
3.583828e+002, 5.323853e+001
3.588649e+002, 5.347353e+001
3.593470e+002, 5.365205e+001
3.598291e+002, 5.388914e+001
3.603112e+002, 5.433978e+001
3.607933e+002, 5.478502e+001
3.612755e+002, 5.508308e+001
3.617576e+002, 5.520202e+001
3.622397e+002, 5.531049e+001
3.627218e+002, 5.536250e+001
3.632039e+002, 5.547615e+001
3.636860e+002, 5.578342e+001
3.641682e+002, 5.666872e+001
3.646503e+002, 5.741539e+001
3.651324e+002, 5.767199e+001
3.656145e+002, 5.746387e+001
3.660966e+002, 5.743798e+001
3.665787e+002, 5.793066e+001
3.670609e+002, 5.849499e+001
3.675430e+002, 5.884467e+001
3.680251e+002, 5.847444e+001
3.685072e+002, 5.846297e+001
3.689893e+002, 5.906092e+001
3.694714e+002, 6.009499e+001
3.699536e+002, 6.099221e+001
3.704357e+002, 6.165291e+001
3.709178e+002, 6.228493e+001
3.713999e+002, 6.295678e+001
3.718820e+002, 6.366787e+001
3.723641e+002, 6.444942e+001
3.728463e+002, 6.540421e+001
3.733284e+002, 6.635312e+001
3.738105e+002, 6.698982e+001
3.742926e+002, 6.715151e+001
3.747747e+002, 6.736831e+001
3.752568e+002, 6.780246e+001
3.757390e+002, 6.845813e+001
3.762211e+002, 6.910124e+001
3.767032e+002, 6.970422e+001
3.771853e+002, 7.036482e+001
3.776674e+002, 7.124415e+001
3.781495e+002, 7.238151e+001
3.786317e+002, 7.340152e+001
3.791138e+002, 7.420369e+001
3.795959e+002, 7.486605e+001
3.800780e+002, 7.566945e+001
3.805601e+002, 7.662177e+001
3.810422e+002, 7.759307e+001
3.815244e+002, 7.843023e+001
3.820065e+002, 7.919021e+001
3.824886e+002, 8.018587e+001
3.829707e+002, 8.152014e+001
3.834528e+002, 8.291764e+001
3.839349e+002, 8.390271e+001
3.844171e+002, 8.457000e+001
3.848992e+002, 8.541502e+001
3.853813e+002, 8.689025e+001
3.858634e+002, 8.864712e+001
3.863455e+002, 9.009451e+001
3.868276e+002, 9.119872e+001
3.873098e+002, 9.222292e+001
3.877919e+002, 9.328572e+001
3.882740e+002, 9.445372e+001
3.887561e+002, 9.583143e+001
3.892382e+002, 9.745058e+001
3.897203e+002, 9.930593e+001
3.902025e+002, 1.015484e+002
3.906846e+002, 1.040681e+002
3.911667e+002, 1.064105e+002
3.916488e+002, 1.080617e+002
3.921309e+002, 1.095409e+002
3.926130e+002, 1.112926e+002
3.930952e+002, 1.134331e+002
3.935773e+002, 1.157342e+002
3.940594e+002, 1.180585e+002
3.945415e+002, 1.204645e+002
3.950236e+002, 1.230609e+002
3.955057e+002, 1.259609e+002
3.959879e+002, 1.289892e+002
3.964700e+002, 1.320270e+002
3.969521e+002, 1.350211e+002
3.974342e+002, 1.383321e+002
3.979163e+002, 1.421382e+002
3.983984e+002, 1.462281e+002
3.988806e+002, 1.504088e+002
3.993627e+002, 1.545243e+002
3.998448e+002, 1.588957e+002
4.003269e+002, 1.634962e+002
4.008090e+002, 1.683726e+002
4.012911e+002, 1.736772e+002
4.017733e+002, 1.795143e+002
4.022554e+002, 1.856999e+002
4.027375e+002, 1.920749e+002
4.032196e+002, 1.983477e+002
4.037017e+002, 2.055948e+002
4.041838e+002, 2.138897e+002
4.046660e+002, 2.230753e+002
4.051481e+002, 2.326465e+002
4.056302e+002, 2.426063e+002
4.061123e+002, 2.531327e+002
4.065944e+002, 2.644123e+002
4.070765e+002, 2.764600e+002
4.075587e+002, 2.883509e+002
4.080408e+002, 3.000462e+002
4.085229e+002, 3.119629e+002
4.090050e+002, 3.248244e+002
4.094871e+002, 3.384914e+002
4.099692e+002, 3.516019e+002
4.104514e+002, 3.636088e+002
4.109335e+002, 3.752942e+002
4.114156e+002, 3.882716e+002
4.118977e+002, 4.023888e+002
4.123798e+002, 4.172876e+002
4.128619e+002, 4.325828e+002
4.133441e+002, 4.483124e+002
4.138262e+002, 4.646530e+002
4.143083e+002, 4.816241e+002
4.147904e+002, 4.994741e+002
4.152725e+002, 5.187546e+002
4.157546e+002, 5.391891e+002
4.162368e+002, 5.607039e+002
4.167189e+002, 5.837481e+002
4.172010e+002, 6.071959e+002
4.176831e+002, 6.308468e+002
4.181652e+002, 6.544162e+002
4.186473e+002, 6.770583e+002
4.191295e+002, 6.986288e+002
4.196116e+002, 7.187023e+002
4.200937e+002, 7.367308e+002
4.205758e+002, 7.544092e+002
4.210579e+002, 7.677015e+002
4.215400e+002, 7.766103e+002
4.220222e+002, 7.804127e+002
4.225043e+002, 7.775820e+002
4.229864e+002, 7.674310e+002
4.234685e+002, 7.509092e+002
4.239506e+002, 7.279518e+002
4.244327e+002, 6.980858e+002
4.249149e+002, 6.635886e+002
4.253970e+002, 6.224805e+002
4.258791e+002, 5.781546e+002
4.263612e+002, 5.331061e+002
4.268433e+002, 4.855711e+002
4.273254e+002, 4.405363e+002
4.278076e+002, 3.985687e+002
4.282897e+002, 3.594219e+002
4.287718e+002, 3.239069e+002
4.292539e+002, 2.926281e+002
4.297360e+002, 2.645679e+002
4.302181e+002, 2.396851e+002
4.307003e+002, 2.181224e+002
4.311824e+002, 1.988374e+002
4.316645e+002, 1.819224e+002
4.321466e+002, 1.670804e+002
4.326287e+002, 1.543683e+002
4.331108e+002, 1.439130e+002
4.335930e+002, 1.345031e+002
4.340751e+002, 1.256956e+002
4.345572e+002, 1.175973e+002
4.350393e+002, 1.106789e+002
4.355214e+002, 1.049774e+002
4.360035e+002, 9.992971e+001
4.364857e+002, 9.509361e+001
4.369678e+002, 9.060793e+001
4.374499e+002, 8.673779e+001
4.379320e+002, 8.366633e+001
4.384141e+002, 8.098438e+001
4.388962e+002, 7.828967e+001
4.393784e+002, 7.562181e+001
4.398605e+002, 7.309863e+001
4.403426e+002, 7.077837e+001
4.408247e+002, 6.863579e+001
4.413068e+002, 6.659206e+001
4.417889e+002, 6.465028e+001
4.422711e+002, 6.292921e+001
4.427532e+002, 6.169950e+001
4.432353e+002, 6.063923e+001
4.437174e+002, 5.941417e+001
4.441995e+002, 5.753772e+001
4.446816e+002, 5.589802e+001
4.451638e+002, 5.486579e+001
4.456459e+002, 5.431961e+001
4.461280e+002, 5.364891e+001
4.466101e+002, 5.256893e+001
4.470922e+002, 5.151020e+001
4.475743e+002, 5.067407e+001
4.480565e+002, 5.019636e+001
4.485386e+002, 4.961680e+001
4.490207e+002, 4.887090e+001
4.495028e+002, 4.806697e+001
4.499849e+002, 4.734995e+001
4.504670e+002, 4.670990e+001
4.509492e+002, 4.616868e+001
4.514313e+002, 4.574763e+001
4.519134e+002, 4.543541e+001
4.523955e+002, 4.519331e+001
4.528776e+002, 4.506507e+001
4.533597e+002, 4.487484e+001
4.538419e+002, 4.443524e+001
4.543240e+002, 4.375945e+001
4.548061e+002, 4.325529e+001
4.552882e+002, 4.299070e+001
4.557703e+002, 4.282857e+001
4.562524e+002, 4.257050e+001
4.567346e+002, 4.222694e+001
4.572167e+002, 4.189405e+001
4.576988e+002, 4.158160e+001
4.581809e+002, 4.131287e+001
4.586630e+002, 4.117513e+001
4.591451e+002, 4.115744e+001
4.596273e+002, 4.107026e+001
4.601094e+002, 4.061678e+001
4.605915e+002, 4.006256e+001
4.610736e+002, 3.979120e+001
4.615557e+002, 4.002175e+001
4.620378e+002, 4.024213e+001
4.625200e+002, 4.008025e+001
4.630021e+002, 3.967344e+001
4.634842e+002, 3.929142e+001
4.639663e+002, 3.903820e+001
4.644484e+002, 3.883290e+001
4.649305e+002, 3.866041e+001
4.654127e+002, 3.852202e+001
4.658948e+002, 3.835584e+001
4.663769e+002, 3.811984e+001
4.668590e+002, 3.787097e+001
4.673411e+002, 3.765089e+001
4.678232e+002, 3.742409e+001
4.683054e+002, 3.727339e+001
4.687875e+002, 3.722782e+001
4.692696e+002, 3.725561e+001
4.697517e+002, 3.729026e+001
4.702338e+002, 3.736910e+001
4.707159e+002, 3.738243e+001
4.711981e+002, 3.727684e+001
4.716802e+002, 3.704704e+001
4.721623e+002, 3.683056e+001
4.726444e+002, 3.663417e+001
4.731265e+002, 3.643951e+001
4.736086e+002, 3.622118e+001
4.740908e+002, 3.598003e+001
4.745729e+002, 3.577578e+001
4.750550e+002, 3.562490e+001
4.755371e+002, 3.550661e+001
4.760192e+002, 3.539394e+001
4.765013e+002, 3.528343e+001
4.769835e+002, 3.515533e+001
4.774656e+002, 3.499268e+001
4.779477e+002, 3.480609e+001
4.784298e+002, 3.461992e+001
4.789119e+002, 3.443589e+001
4.793940e+002, 3.422090e+001
4.798762e+002, 3.388680e+001
4.803583e+002, 3.352549e+001
4.808404e+002, 3.326027e+001
4.813225e+002, 3.316728e+001
4.818046e+002, 3.311956e+001
4.822867e+002, 3.304506e+001
4.827689e+002, 3.296552e+001
4.832510e+002, 3.293627e+001
4.837331e+002, 3.313779e+001
4.842152e+002, 3.325554e+001
4.846973e+002, 3.309535e+001
4.851794e+002, 3.256144e+001
4.856616e+002, 3.218155e+001
4.861437e+002, 3.210316e+001
4.866258e+002, 3.213480e+001
4.871079e+002, 3.214154e+001
4.875900e+002, 3.218229e+001
4.880721e+002, 3.208007e+001
4.885543e+002, 3.174381e+001
4.890364e+002, 3.127827e+001
4.895185e+002, 3.100272e+001
4.900006e+002, 3.096964e+001
4.904827e+002, 3.096504e+001
4.909648e+002, 3.088873e+001
4.914470e+002, 3.074602e+001
4.919291e+002, 3.066493e+001
4.924112e+002, 3.065445e+001
4.928933e+002, 3.066482e+001
4.933754e+002, 3.066156e+001
4.938575e+002, 3.064042e+001
4.943397e+002, 3.057731e+001
4.948218e+002, 3.046010e+001
4.953039e+002, 3.031420e+001
4.957860e+002, 3.016052e+001
4.962681e+002, 3.000572e+001
4.967502e+002, 2.987234e+001
4.972324e+002, 2.977944e+001
4.977145e+002, 2.970773e+001
4.981966e+002, 2.965557e+001
4.986787e+002, 2.962194e+001
4.991608e+002, 2.954867e+001
4.996429e+002, 2.935433e+001
5.001251e+002, 2.913231e+001
5.006072e+002, 2.895907e+001
5.010893e+002, 2.885122e+001
5.015714e+002, 2.879694e+001
5.020535e+002, 2.884970e+001
5.025356e+002, 2.895170e+001
5.030178e+002, 2.897087e+001
5.034999e+002, 2.876352e+001
5.039820e+002, 2.861967e+001
5.044641e+002, 2.864075e+001
5.049462e+002, 2.883610e+001
5.054283e+002, 2.894675e+001
5.059105e+002, 2.893985e+001
5.063926e+002, 2.889893e+001
5.068747e+002, 2.890416e+001
5.073568e+002, 2.897719e+001
5.078389e+002, 2.894467e+001
5.083210e+002, 2.877398e+001
5.088032e+002, 2.852242e+001
5.092853e+002, 2.823362e+001
5.097674e+002, 2.791726e+001
5.102495e+002, 2.774584e+001
5.107316e+002, 2.789578e+001
5.112137e+002, 2.819054e+001
5.116959e+002, 2.821328e+001
5.121780e+002, 2.798282e+001
5.126601e+002, 2.775216e+001
5.131422e+002, 2.776504e+001
5.136243e+002, 2.786339e+001
5.141064e+002, 2.782705e+001
5.145886e+002, 2.758077e+001
5.150707e+002, 2.733490e+001
5.155528e+002, 2.721314e+001
5.160349e+002, 2.717669e+001
5.165170e+002, 2.716701e+001
5.169991e+002, 2.723613e+001
5.174813e+002, 2.725887e+001
5.179634e+002, 2.715559e+001
5.184455e+002, 2.694715e+001
5.189276e+002, 2.680519e+001
5.194097e+002, 2.676663e+001
5.198918e+002, 2.678679e+001
5.203740e+002, 2.686257e+001
5.208561e+002, 2.703064e+001
5.213382e+002, 2.714153e+001
5.218203e+002, 2.721605e+001
5.223024e+002, 2.720806e+001
5.227845e+002, 2.701013e+001
5.232667e+002, 2.655993e+001
5.237488e+002, 2.627950e+001
5.242309e+002, 2.629679e+001
5.247130e+002, 2.649484e+001
5.251951e+002, 2.658778e+001
5.256772e+002, 2.657753e+001
5.261594e+002, 2.654706e+001
5.266415e+002, 2.654753e+001
5.271236e+002, 2.656106e+001
5.276057e+002, 2.654015e+001
5.280878e+002, 2.648322e+001
5.285699e+002, 2.643044e+001
5.290521e+002, 2.644511e+001
5.295342e+002, 2.647476e+001
5.300163e+002, 2.644351e+001
5.304984e+002, 2.629780e+001
5.309805e+002, 2.615093e+001
5.314626e+002, 2.603861e+001
5.319448e+002, 2.597248e+001
5.324269e+002, 2.597505e+001
5.329090e+002, 2.616917e+001
5.333911e+002, 2.631890e+001
5.338732e+002, 2.632859e+001
5.343553e+002, 2.618948e+001
5.348375e+002, 2.605413e+001
5.353196e+002, 2.585083e+001
5.358017e+002, 2.572753e+001
5.362838e+002, 2.579478e+001
5.367659e+002, 2.618351e+001
5.372480e+002, 2.638214e+001
5.377302e+002, 2.632993e+001
5.382123e+002, 2.616441e+001
5.386944e+002, 2.607821e+001
5.391765e+002, 2.607402e+001
5.396586e+002, 2.610770e+001
5.401407e+002, 2.618449e+001
5.406229e+002, 2.627678e+001
5.411050e+002, 2.630434e+001
5.415871e+002, 2.627413e+001
5.420692e+002, 2.625212e+001
5.425513e+002, 2.627901e+001
5.430334e+002, 2.634151e+001
5.435156e+002, 2.645488e+001
5.439977e+002, 2.662597e+001
5.444798e+002, 2.670856e+001
5.449619e+002, 2.649341e+001
5.454440e+002, 2.617779e+001
5.459261e+002, 2.598237e+001
5.464083e+002, 2.606089e+001
5.468904e+002, 2.612934e+001
5.473725e+002, 2.605894e+001
5.478546e+002, 2.591339e+001
5.483367e+002, 2.582791e+001
5.488188e+002, 2.586080e+001
5.493010e+002, 2.591472e+001
5.497831e+002, 2.596236e+001
5.502652e+002, 2.600405e+001
5.507473e+002, 2.609179e+001
5.512294e+002, 2.627444e+001
5.517115e+002, 2.642069e+001
5.521937e+002, 2.642845e+001
5.526758e+002, 2.627810e+001
5.531579e+002, 2.618476e+001
5.536400e+002, 2.616777e+001
5.541221e+002, 2.618128e+001
5.546042e+002, 2.612099e+001
5.550864e+002, 2.601559e+001
5.555685e+002, 2.606750e+001
5.560506e+002, 2.643836e+001
5.565327e+002, 2.686337e+001
5.570148e+002, 2.691572e+001
5.574969e+002, 2.667839e+001
5.579791e+002, 2.646365e+001
5.584612e+002, 2.657544e+001
5.589433e+002, 2.669751e+001
5.594254e+002, 2.647705e+001
5.599075e+002, 2.588245e+001
5.603896e+002, 2.548281e+001
5.608718e+002, 2.576242e+001
5.613539e+002, 2.617465e+001
5.618360e+002, 2.630151e+001
5.623181e+002, 2.568734e+001
5.628002e+002, 2.539631e+001
5.632823e+002, 2.571371e+001
5.637645e+002, 2.628195e+001
5.642466e+002, 2.654207e+001
5.647287e+002, 2.633998e+001
5.652108e+002, 2.617398e+001
5.656929e+002, 2.616607e+001
5.661750e+002, 2.628040e+001
5.666572e+002, 2.636884e+001
5.671393e+002, 2.643387e+001
5.676214e+002, 2.644942e+001
5.681035e+002, 2.633733e+001
5.685856e+002, 2.615523e+001
5.690677e+002, 2.615395e+001
5.695499e+002, 2.635123e+001
5.700320e+002, 2.657477e+001
5.705141e+002, 2.666656e+001
5.709962e+002, 2.667431e+001
5.714783e+002, 2.667481e+001
5.719604e+002, 2.668901e+001
5.724426e+002, 2.669585e+001
5.729247e+002, 2.665563e+001
5.734068e+002, 2.660263e+001
5.738889e+002, 2.659742e+001
5.743710e+002, 2.674499e+001
5.748531e+002, 2.685881e+001
5.753353e+002, 2.687327e+001
5.758174e+002, 2.679103e+001
5.762995e+002, 2.667364e+001
5.767816e+002, 2.641804e+001
5.772637e+002, 2.625353e+001
5.777458e+002, 2.632035e+001
5.782280e+002, 2.669432e+001
5.787101e+002, 2.688230e+001
5.791922e+002, 2.684300e+001
5.796743e+002, 2.670847e+001
5.801564e+002, 2.655392e+001
5.806385e+002, 2.638980e+001
5.811207e+002, 2.646350e+001
5.816028e+002, 2.690811e+001
5.820849e+002, 2.740227e+001
5.825670e+002, 2.736133e+001
5.830491e+002, 2.694095e+001
5.835313e+002, 2.664347e+001
5.840134e+002, 2.680049e+001
5.844955e+002, 2.712217e+001
5.849776e+002, 2.738873e+001
5.854597e+002, 2.759805e+001
5.859418e+002, 2.775015e+001
5.864240e+002, 2.784534e+001
5.869061e+002, 2.788250e+001
5.873882e+002, 2.784339e+001
5.878703e+002, 2.769400e+001
5.883524e+002, 2.759547e+001
5.888345e+002, 2.762406e+001
5.893167e+002, 2.767325e+001
5.897988e+002, 2.764834e+001
5.902809e+002, 2.746470e+001
5.907630e+002, 2.741562e+001
5.912451e+002, 2.758018e+001
5.917272e+002, 2.782971e+001
5.922094e+002, 2.788455e+001
5.926915e+002, 2.772691e+001
5.931736e+002, 2.766161e+001
5.936557e+002, 2.785449e+001
5.941378e+002, 2.816511e+001
5.946199e+002, 2.820203e+001
5.951021e+002, 2.800179e+001
5.955842e+002, 2.786549e+001
5.960663e+002, 2.812611e+001
5.965484e+002, 2.848577e+001
5.970305e+002, 2.856531e+001
5.975126e+002, 2.832574e+001
5.979948e+002, 2.808158e+001
5.984769e+002, 2.791880e+001
5.989590e+002, 2.788148e+001
5.994411e+002, 2.802551e+001
5.999232e+002, 2.856637e+001
6.004053e+002, 2.895244e+001
6.008875e+002, 2.899183e+001
6.013696e+002, 2.886774e+001
6.018517e+002, 2.882758e+001
6.023338e+002, 2.890037e+001
6.028159e+002, 2.900446e+001
6.032980e+002, 2.914185e+001
6.037802e+002, 2.929494e+001
6.042623e+002, 2.941202e+001
6.047444e+002, 2.949421e+001
6.052265e+002, 2.952147e+001
6.057086e+002, 2.937914e+001
6.061907e+002, 2.917196e+001
6.066729e+002, 2.936169e+001
6.071550e+002, 2.993785e+001
6.076371e+002, 3.044257e+001
6.081192e+002, 3.039399e+001
6.086013e+002, 3.009722e+001
6.090834e+002, 2.994296e+001
6.095656e+002, 3.000803e+001
6.100477e+002, 3.016162e+001
6.105298e+002, 3.038991e+001
6.110119e+002, 3.064329e+001
6.114940e+002, 3.086893e+001
6.119761e+002, 3.107265e+001
6.124583e+002, 3.122392e+001
6.129404e+002, 3.125887e+001
6.134225e+002, 3.124841e+001
6.139046e+002, 3.136130e+001
6.143867e+002, 3.166046e+001
6.148688e+002, 3.195002e+001
6.153510e+002, 3.218614e+001
6.158331e+002, 3.236744e+001
6.163152e+002, 3.247002e+001
6.167973e+002, 3.248296e+001
6.172794e+002, 3.251564e+001
6.177615e+002, 3.266540e+001
6.182437e+002, 3.288848e+001
6.187258e+002, 3.305253e+001
6.192079e+002, 3.314858e+001
6.196900e+002, 3.326340e+001
6.201721e+002, 3.352673e+001
6.206542e+002, 3.382977e+001
6.211364e+002, 3.401383e+001
6.216185e+002, 3.395756e+001
6.221006e+002, 3.397856e+001
6.225827e+002, 3.426585e+001
6.230648e+002, 3.470024e+001
6.235469e+002, 3.511511e+001
6.240291e+002, 3.560415e+001
6.245112e+002, 3.591828e+001
6.249933e+002, 3.592183e+001
6.254754e+002, 3.573422e+001
6.259575e+002, 3.577607e+001
6.264396e+002, 3.612631e+001
6.269218e+002, 3.647500e+001
6.274039e+002, 3.668500e+001
6.278860e+002, 3.678975e+001
6.283681e+002, 3.701491e+001
6.288502e+002, 3.736542e+001
6.293323e+002, 3.770228e+001
6.298145e+002, 3.784305e+001
6.302966e+002, 3.791560e+001
6.307787e+002, 3.821156e+001
6.312608e+002, 3.877510e+001
6.317429e+002, 3.932743e+001
6.322250e+002, 3.963641e+001
6.327072e+002, 3.983403e+001
6.331893e+002, 4.007061e+001
6.336714e+002, 4.042077e+001
6.341535e+002, 4.074127e+001
6.346356e+002, 4.098462e+001
6.351177e+002, 4.117664e+001
6.355999e+002, 4.135973e+001
6.360820e+002, 4.148402e+001
6.365641e+002, 4.168539e+001
6.370462e+002, 4.201281e+001
6.375283e+002, 4.242556e+001
6.380104e+002, 4.281118e+001
6.384926e+002, 4.318363e+001
6.389747e+002, 4.345942e+001
6.394568e+002, 4.356478e+001
6.399389e+002, 4.355414e+001
6.404210e+002, 4.359169e+001
6.409031e+002, 4.367842e+001
6.413853e+002, 4.381893e+001
6.418674e+002, 4.405030e+001
6.423495e+002, 4.432137e+001
6.428316e+002, 4.457921e+001
6.433137e+002, 4.482355e+001
6.437958e+002, 4.501825e+001
6.442780e+002, 4.516668e+001
6.447601e+002, 4.524794e+001
6.452422e+002, 4.523450e+001
6.457243e+002, 4.495823e+001
6.462064e+002, 4.484787e+001
6.466885e+002, 4.503790e+001
6.471707e+002, 4.533106e+001
6.476528e+002, 4.543814e+001
6.481349e+002, 4.526446e+001
6.486170e+002, 4.522520e+001
6.490991e+002, 4.544468e+001
6.495812e+002, 4.579258e+001
6.500634e+002, 4.596054e+001
6.505455e+002, 4.596012e+001
6.510276e+002, 4.593593e+001
6.515097e+002, 4.589381e+001
6.519918e+002, 4.590560e+001
6.524739e+002, 4.607703e+001
6.529561e+002, 4.640038e+001
6.534382e+002, 4.685128e+001
6.539203e+002, 4.753716e+001
6.544024e+002, 4.824746e+001
6.548845e+002, 4.885088e+001
6.553666e+002, 4.932743e+001
6.558488e+002, 4.974262e+001
6.563309e+002, 4.990969e+001
6.568130e+002, 5.017768e+001
6.572951e+002, 5.078284e+001
6.577772e+002, 5.192012e+001
6.582593e+002, 5.284905e+001
6.587415e+002, 5.347792e+001
6.592236e+002, 5.404655e+001
6.597057e+002, 5.484809e+001
6.601878e+002, 5.587384e+001
6.606699e+002, 5.688154e+001
6.611520e+002, 5.778224e+001
6.616342e+002, 5.872203e+001
6.621163e+002, 5.999523e+001
6.625984e+002, 6.147492e+001
6.630805e+002, 6.281931e+001
6.635626e+002, 6.367506e+001
6.640447e+002, 6.456910e+001
6.645269e+002, 6.601735e+001
6.650090e+002, 6.781156e+001
6.654911e+002, 6.938215e+001
6.659732e+002, 7.022160e+001
6.664553e+002, 7.113302e+001
6.669374e+002, 7.246688e+001
6.674196e+002, 7.419762e+001
6.679017e+002, 7.583922e+001
6.683838e+002, 7.742754e+001
6.688659e+002, 7.888757e+001
6.693480e+002, 8.017915e+001
6.698301e+002, 8.130450e+001
6.703123e+002, 8.234485e+001
6.707944e+002, 8.328690e+001
6.712765e+002, 8.427803e+001
6.717586e+002, 8.569124e+001
6.722407e+002, 8.722990e+001
6.727228e+002, 8.812794e+001
6.732050e+002, 8.821307e+001
6.736871e+002, 8.815831e+001
6.741692e+002, 8.858909e+001
6.746513e+002, 8.911520e+001
6.751334e+002, 8.927426e+001
6.756155e+002, 8.880034e+001
6.760977e+002, 8.817613e+001
6.765798e+002, 8.744878e+001
6.770619e+002, 8.665750e+001
6.775440e+002, 8.589360e+001
6.780261e+002, 8.532108e+001
6.785082e+002, 8.443649e+001
6.789904e+002, 8.309195e+001
6.794725e+002, 8.143156e+001
6.799546e+002, 7.972569e+001
6.804367e+002, 7.800153e+001
6.809188e+002, 7.636713e+001
6.814009e+002, 7.502528e+001
6.818831e+002, 7.371916e+001
6.823652e+002, 7.192226e+001
6.828473e+002, 6.970876e+001
6.833294e+002, 6.753416e+001
6.838115e+002, 6.560695e+001
6.842936e+002, 6.384135e+001
6.847758e+002, 6.215929e+001
6.852579e+002, 6.056848e+001
6.857400e+002, 5.897080e+001
6.862221e+002, 5.729028e+001
6.867042e+002, 5.566264e+001
6.871863e+002, 5.415517e+001
6.876685e+002, 5.280963e+001
6.881506e+002, 5.140878e+001
6.886327e+002, 4.989685e+001
6.891148e+002, 4.839500e+001
6.895969e+002, 4.696322e+001
6.900790e+002, 4.560007e+001
6.905612e+002, 4.452010e+001
6.910433e+002, 4.378926e+001
6.915254e+002, 4.312310e+001
6.920075e+002, 4.216033e+001
6.924896e+002, 4.105224e+001
6.929717e+002, 4.009489e+001
6.934539e+002, 3.943379e+001
6.939360e+002, 3.881562e+001
6.944181e+002, 3.808840e+001
6.949002e+002, 3.731943e+001
6.953823e+002, 3.661032e+001
6.958644e+002, 3.600848e+001
6.963466e+002, 3.545207e+001
6.968287e+002, 3.494321e+001
6.973108e+002, 3.447001e+001
6.977929e+002, 3.402295e+001
6.982750e+002, 3.361808e+001
6.987571e+002, 3.317933e+001
6.992393e+002, 3.266433e+001
6.997214e+002, 3.210730e+001
7.002035e+002, 3.159934e+001
7.006856e+002, 3.114219e+001
7.011677e+002, 3.077368e+001
7.016498e+002, 3.058142e+001
7.021320e+002, 3.044883e+001
7.026141e+002, 3.027754e+001
7.030962e+002, 3.005519e+001
7.035783e+002, 2.972842e+001
7.040604e+002, 2.908084e+001
7.045425e+002, 2.847207e+001
7.050247e+002, 2.814218e+001
7.055068e+002, 2.816990e+001
7.059889e+002, 2.812554e+001
7.064710e+002, 2.796073e+001
7.069531e+002, 2.778220e+001
7.074352e+002, 2.768386e+001
7.079174e+002, 2.768450e+001
7.083995e+002, 2.754813e+001
7.088816e+002, 2.725760e+001
7.093637e+002, 2.689549e+001
7.098458e+002, 2.648030e+001
7.103279e+002, 2.606703e+001
7.108101e+002, 2.580459e+001
7.112922e+002, 2.575001e+001
7.117743e+002, 2.572102e+001
7.122564e+002, 2.558739e+001
7.127385e+002, 2.539622e+001
7.132206e+002, 2.520227e+001
7.137028e+002, 2.501627e+001
7.141849e+002, 2.483646e+001
7.146670e+002, 2.466398e+001
7.151491e+002, 2.449913e+001
7.156312e+002, 2.434300e+001
7.161133e+002, 2.420432e+001
7.165955e+002, 2.404704e+001
7.170776e+002, 2.384870e+001
7.175597e+002, 2.364939e+001
7.180418e+002, 2.356029e+001
7.185239e+002, 2.356848e+001
7.190060e+002, 2.355576e+001
7.194882e+002, 2.346456e+001
7.199703e+002, 2.334094e+001
7.204524e+002, 2.325280e+001
7.209345e+002, 2.318077e+001
7.214166e+002, 2.306520e+001
7.218987e+002, 2.279512e+001
7.223809e+002, 2.255447e+001
7.228630e+002, 2.245944e+001
7.233451e+002, 2.249325e+001
7.238272e+002, 2.249143e+001
7.243093e+002, 2.245840e+001
7.247914e+002, 2.237180e+001
7.252736e+002, 2.220395e+001
7.257557e+002, 2.196537e+001
7.262378e+002, 2.176577e+001
7.267199e+002, 2.159611e+001
7.272020e+002, 2.153007e+001
7.276841e+002, 2.172638e+001
7.281663e+002, 2.203432e+001
7.286484e+002, 2.206711e+001
7.291305e+002, 2.182351e+001
7.296126e+002, 2.160448e+001
7.300947e+002, 2.168253e+001
7.305768e+002, 2.182349e+001
7.310590e+002, 2.182133e+001
7.315411e+002, 2.161417e+001
7.320232e+002, 2.145599e+001
7.325053e+002, 2.148834e+001
7.329874e+002, 2.150419e+001
7.334695e+002, 2.134973e+001
7.339517e+002, 2.092540e+001
7.344338e+002, 2.070124e+001
7.349159e+002, 2.071777e+001
7.353980e+002, 2.081453e+001
7.358801e+002, 2.080842e+001
7.363622e+002, 2.073211e+001
7.368444e+002, 2.074729e+001
7.373265e+002, 2.090348e+001
7.378086e+002, 2.102736e+001
7.382907e+002, 2.089139e+001
7.387728e+002, 2.064912e+001
7.392549e+002, 2.050324e+001
7.397371e+002, 2.055256e+001
7.402192e+002, 2.062620e+001
7.407013e+002, 2.066738e+001
7.411834e+002, 2.071242e+001
7.416655e+002, 2.082821e+001
7.421476e+002, 2.111996e+001
7.426298e+002, 2.121303e+001
7.431119e+002, 2.100889e+001
7.435940e+002, 2.065763e+001
7.440761e+002, 2.037284e+001
7.445582e+002, 2.016608e+001
7.450403e+002, 2.016706e+001
7.455225e+002, 2.052754e+001
7.460046e+002, 2.091642e+001
7.464867e+002, 2.085936e+001
7.469688e+002, 2.052380e+001
7.474509e+002, 2.027027e+001
7.479330e+002, 2.023260e+001
7.484152e+002, 2.032155e+001
7.488973e+002, 2.062345e+001
7.493794e+002, 2.103558e+001
7.498615e+002, 2.121068e+001
7.503436e+002, 2.098738e+001
7.508257e+002, 2.082332e+001
7.513079e+002, 2.088165e+001
7.517900e+002, 2.106224e+001
7.522721e+002, 2.097254e+001
7.527542e+002, 2.061323e+001
7.532363e+002, 2.024029e+001
7.537184e+002, 1.990608e+001
7.542006e+002, 1.968341e+001
7.546827e+002, 1.976797e+001
7.551648e+002, 2.009156e+001
7.556469e+002, 2.036611e+001
7.561290e+002, 2.042090e+001
7.566111e+002, 2.040982e+001
7.570933e+002, 2.041046e+001
7.575754e+002, 2.042437e+001
7.580575e+002, 2.040979e+001
7.585396e+002, 2.034749e+001
7.590217e+002, 2.027901e+001
7.595038e+002, 2.018625e+001
7.599860e+002, 2.008554e+001
7.604681e+002, 2.023859e+001
7.609502e+002, 2.067544e+001
7.614323e+002, 2.099442e+001
7.619144e+002, 2.079792e+001
7.623965e+002, 2.035037e+001
7.628787e+002, 2.014330e+001
7.633608e+002, 2.017626e+001
7.638429e+002, 2.024158e+001
7.643250e+002, 2.020271e+001
7.648071e+002, 2.016368e+001
7.652892e+002, 2.021789e+001
7.657714e+002, 2.039458e+001
7.662535e+002, 2.047975e+001
7.667356e+002, 2.039460e+001
7.672177e+002, 2.030626e+001
7.676998e+002, 2.033464e+001
7.681819e+002, 2.049526e+001
7.686641e+002, 2.047617e+001
7.691462e+002, 2.025618e+001
7.696283e+002, 2.002048e+001
7.701104e+002, 1.992822e+001
7.705925e+002, 1.992957e+001
7.710746e+002, 1.993872e+001
7.715568e+002, 1.994789e+001
7.720389e+002, 1.994701e+001
7.725210e+002, 1.987819e+001
7.730031e+002, 1.983133e+001
7.734852e+002, 1.989678e+001
7.739673e+002, 2.015346e+001
7.744495e+002, 2.030081e+001
7.749316e+002, 2.029872e+001
7.754137e+002, 2.022264e+001
7.758958e+002, 2.009926e+001
7.763779e+002, 1.991687e+001
7.768600e+002, 1.986923e+001
7.773422e+002, 1.998547e+001
7.778243e+002, 2.009492e+001
7.783064e+002, 1.997037e+001
7.787885e+002, 1.973083e+001
7.792706e+002, 1.962470e+001
7.797527e+002, 1.971846e+001
7.802349e+002, 1.977843e+001
7.807170e+002, 1.960798e+001
7.811991e+002, 1.937603e+001
7.816812e+002, 1.922610e+001
7.821633e+002, 1.917054e+001
7.826454e+002, 1.923963e+001
7.831276e+002, 1.952248e+001
7.836097e+002, 1.982388e+001
7.840918e+002, 1.996307e+001
7.845739e+002, 1.993974e+001
7.850560e+002, 1.975507e+001
7.855381e+002, 1.938128e+001
7.860203e+002, 1.900381e+001
7.865024e+002, 1.878866e+001
7.869845e+002, 1.872461e+001
7.874666e+002, 1.882452e+001
7.879487e+002, 1.916372e+001
7.884308e+002, 1.943021e+001
7.889130e+002, 1.939506e+001
7.893951e+002, 1.925427e+001
7.898772e+002, 1.921493e+001
7.903593e+002, 1.942402e+001
7.908414e+002, 1.948350e+001
7.913235e+002, 1.931740e+001
7.918057e+002, 1.910163e+001
7.922878e+002, 1.907223e+001
7.927699e+002, 1.921408e+001
7.932520e+002, 1.929804e+001
7.937341e+002, 1.928932e+001
7.942162e+002, 1.922749e+001
7.946984e+002, 1.910397e+001
7.951805e+002, 1.897151e+001
7.956626e+002, 1.891849e+001
7.961447e+002, 1.899271e+001
7.966268e+002, 1.908370e+001
7.971089e+002, 1.917905e+001
7.975911e+002, 1.925735e+001
7.980732e+002, 1.929760e+001
7.985553e+002, 1.929917e+001
7.990374e+002, 1.926338e+001
7.995195e+002, 1.918270e+001
8.000016e+002, 1.907957e+001
8.004838e+002, 1.895902e+001
8.009659e+002, 1.883303e+001
8.014480e+002, 1.877275e+001
8.019301e+002, 1.879997e+001
8.024122e+002, 1.885858e+001
8.028943e+002, 1.892379e+001
8.033765e+002, 1.897583e+001
8.038586e+002, 1.898325e+001
8.043407e+002, 1.888303e+001
8.048228e+002, 1.883843e+001
8.053049e+002, 1.891087e+001
8.057870e+002, 1.903902e+001
8.062692e+002, 1.918208e+001
8.067513e+002, 1.937048e+001
8.072334e+002, 1.943913e+001
8.077155e+002, 1.935111e+001
8.081976e+002, 1.920195e+001
8.086797e+002, 1.909035e+001
8.091619e+002, 1.901793e+001
8.096440e+002, 1.898669e+001
8.101261e+002, 1.899289e+001
8.106082e+002, 1.905676e+001
8.110903e+002, 1.930646e+001
8.115724e+002, 1.956764e+001
8.120546e+002, 1.964247e+001
8.125367e+002, 1.933695e+001
8.130188e+002, 1.909455e+001
8.135009e+002, 1.893021e+001
8.139830e+002, 1.884205e+001
8.144651e+002, 1.884989e+001
8.149473e+002, 1.896145e+001
8.154294e+002, 1.903733e+001
8.159115e+002, 1.905668e+001
8.163936e+002, 1.907305e+001
8.168757e+002, 1.916724e+001
8.173578e+002, 1.929615e+001
8.178400e+002, 1.938556e+001
8.183221e+002, 1.941507e+001
8.188042e+002, 1.941981e+001
8.192863e+002, 1.940539e+001
8.197684e+002, 1.938021e+001
8.202505e+002, 1.934743e+001
8.207327e+002, 1.927171e+001
8.212148e+002, 1.927487e+001
8.216969e+002, 1.938864e+001
8.221790e+002, 1.952314e+001
8.226611e+002, 1.958368e+001
8.231432e+002, 1.957803e+001
8.236254e+002, 1.954161e+001
8.241075e+002, 1.947409e+001
8.245896e+002, 1.941223e+001
8.250717e+002, 1.934470e+001
8.255538e+002, 1.932496e+001
8.260359e+002, 1.944308e+001
8.265181e+002, 1.977778e+001
8.270002e+002, 2.002337e+001
8.274823e+002, 2.007570e+001
8.279644e+002, 2.004420e+001
8.284465e+002, 1.999430e+001
8.289286e+002, 1.993031e+001
8.294108e+002, 1.981645e+001
8.298929e+002, 1.963726e+001
8.303750e+002, 1.948117e+001
8.308571e+002, 1.948598e+001
8.313392e+002, 1.956241e+001
8.318214e+002, 1.946710e+001
8.323035e+002, 1.916784e+001
8.327856e+002, 1.896760e+001
8.332677e+002, 1.922675e+001
8.337498e+002, 1.953940e+001
8.342319e+002, 1.956388e+001
8.347141e+002, 1.914992e+001
8.351962e+002, 1.893306e+001
8.356783e+002, 1.899097e+001
8.361604e+002, 1.911406e+001
8.366425e+002, 1.917584e+001
8.371246e+002, 1.917929e+001
8.376068e+002, 1.917103e+001
8.380889e+002, 1.915128e+001
8.385710e+002, 1.911777e+001
8.390531e+002, 1.901769e+001
8.395352e+002, 1.893480e+001
8.400173e+002, 1.898484e+001
8.404995e+002, 1.917266e+001
8.409816e+002, 1.933718e+001
8.414637e+002, 1.948325e+001
8.419458e+002, 1.953071e+001
8.424279e+002, 1.940375e+001
8.429100e+002, 1.910809e+001
8.433922e+002, 1.900042e+001
8.438743e+002, 1.911874e+001
8.443564e+002, 1.921571e+001
8.448385e+002, 1.912197e+001
8.453206e+002, 1.890609e+001
8.458027e+002, 1.868212e+001
8.462849e+002, 1.846655e+001
8.467670e+002, 1.835957e+001
8.472491e+002, 1.853433e+001
8.477312e+002, 1.872626e+001
8.482133e+002, 1.877164e+001
8.486954e+002, 1.868174e+001
8.491776e+002, 1.863738e+001
8.496597e+002, 1.868823e+001
8.501418e+002, 1.868929e+001
8.506239e+002, 1.855758e+001
8.511060e+002, 1.835952e+001
8.515881e+002, 1.835172e+001
8.520703e+002, 1.851145e+001
8.525524e+002, 1.864652e+001
8.530345e+002, 1.864028e+001
8.535166e+002, 1.858529e+001
8.539987e+002, 1.854176e+001
8.544808e+002, 1.851629e+001
8.549630e+002, 1.852594e+001
8.554451e+002, 1.862298e+001
8.559272e+002, 1.869639e+001
8.564093e+002, 1.871257e+001
8.568914e+002, 1.869665e+001
8.573735e+002, 1.871912e+001
8.578557e+002, 1.878702e+001
8.583378e+002, 1.879693e+001
8.588199e+002, 1.870093e+001
8.593020e+002, 1.857697e+001
8.597841e+002, 1.858252e+001
8.602662e+002, 1.864289e+001
8.607484e+002, 1.859406e+001
8.612305e+002, 1.823197e+001
8.617126e+002, 1.797408e+001
8.621947e+002, 1.804004e+001
8.626768e+002, 1.827843e+001
8.631589e+002, 1.848056e+001
8.636411e+002, 1.867822e+001
8.641232e+002, 1.873176e+001
8.646053e+002, 1.858541e+001
8.650874e+002, 1.839686e+001
8.655695e+002, 1.839131e+001
8.660516e+002, 1.851560e+001
8.665338e+002, 1.860859e+001
8.670159e+002, 1.864420e+001
8.674980e+002, 1.862959e+001
8.679801e+002, 1.849705e+001
8.684622e+002, 1.835891e+001
8.689443e+002, 1.834736e+001
8.694265e+002, 1.863462e+001
8.699086e+002, 1.864103e+001
8.703907e+002, 1.819750e+001
8.708728e+002, 1.773749e+001
8.713549e+002, 1.766760e+001
8.718370e+002, 1.794763e+001
8.723192e+002, 1.809587e+001
8.728013e+002, 1.809455e+001
8.732834e+002, 1.803882e+001
8.737655e+002, 1.796897e+001
8.742476e+002, 1.790838e+001
8.747297e+002, 1.790104e+001
8.752119e+002, 1.795274e+001
8.756940e+002, 1.794476e+001
8.761761e+002, 1.780487e+001
8.766582e+002, 1.764189e+001
8.771403e+002, 1.748153e+001
8.776224e+002, 1.732825e+001
8.781046e+002, 1.724355e+001
8.785867e+002, 1.722783e+001
8.790688e+002, 1.727150e+001
8.795509e+002, 1.744169e+001
8.800330e+002, 1.762505e+001
8.805151e+002, 1.763328e+001
8.809973e+002, 1.750490e+001
8.814794e+002, 1.738900e+001
8.819615e+002, 1.738454e+001
8.824436e+002, 1.736398e+001
8.829257e+002, 1.725625e+001
8.834078e+002, 1.709992e+001
8.838900e+002, 1.700471e+001
8.843721e+002, 1.698373e+001
8.848542e+002, 1.695048e+001
8.853363e+002, 1.686756e+001
8.858184e+002, 1.677975e+001
8.863005e+002, 1.680201e+001
8.867827e+002, 1.688214e+001
8.872648e+002, 1.687931e+001
8.877469e+002, 1.663999e+001
8.882290e+002, 1.646275e+001
8.887111e+002, 1.654569e+001
8.891932e+002, 1.674353e+001
8.896754e+002, 1.684213e+001
8.901575e+002, 1.679831e+001
8.906396e+002, 1.675528e+001
8.911217e+002, 1.672330e+001
8.916038e+002, 1.669695e+001
8.920859e+002, 1.664482e+001
8.925681e+002, 1.659255e+001
8.930502e+002, 1.666093e+001
8.935323e+002, 1.689752e+001
8.940144e+002, 1.703641e+001
8.944965e+002, 1.680564e+001
8.949786e+002, 1.645353e+001
8.954608e+002, 1.617854e+001
8.959429e+002, 1.600996e+001
8.964250e+002, 1.591043e+001
8.969071e+002, 1.588817e+001
8.973892e+002, 1.591990e+001
8.978713e+002, 1.599060e+001
8.983535e+002, 1.610199e+001
8.988356e+002, 1.633177e+001
8.993177e+002, 1.666171e+001
8.997998e+002, 1.682270e+001
9.002819e+002, 1.645124e+001
9.007640e+002, 1.599304e+001
9.012462e+002, 1.578914e+001
9.017283e+002, 1.583386e+001
9.022104e+002, 1.587854e+001
9.026925e+002, 1.589323e+001
9.031746e+002, 1.590894e+001
9.036567e+002, 1.594303e+001
9.041389e+002, 1.598020e+001
9.046210e+002, 1.594239e+001
9.051031e+002, 1.584440e+001
9.055852e+002, 1.582924e+001
9.060673e+002, 1.606876e+001
9.065494e+002, 1.625722e+001
9.070316e+002, 1.598721e+001
9.075137e+002, 1.549874e+001
9.079958e+002, 1.521203e+001
9.084779e+002, 1.545028e+001
9.089600e+002, 1.560385e+001
9.094421e+002, 1.559053e+001
9.099243e+002, 1.550173e+001
9.104064e+002, 1.544768e+001
9.108885e+002, 1.542878e+001
9.113706e+002, 1.545476e+001
9.118527e+002, 1.553396e+001
9.123348e+002, 1.561371e+001
9.128170e+002, 1.567668e+001
9.132991e+002, 1.569431e+001
9.137812e+002, 1.561773e+001
9.142633e+002, 1.540823e+001
9.147454e+002, 1.523692e+001
9.152275e+002, 1.512601e+001
9.157097e+002, 1.506248e+001
9.161918e+002, 1.503531e+001
9.166739e+002, 1.504504e+001
9.171560e+002, 1.515724e+001
9.176381e+002, 1.537217e+001
9.181202e+002, 1.554693e+001
9.186024e+002, 1.555973e+001
9.190845e+002, 1.549558e+001
9.195666e+002, 1.541165e+001
9.200487e+002, 1.532399e+001
9.205308e+002, 1.529669e+001
9.210129e+002, 1.548981e+001
9.214951e+002, 1.556653e+001
9.219772e+002, 1.538540e+001
9.224593e+002, 1.505455e+001
9.229414e+002, 1.490944e+001
9.234235e+002, 1.494789e+001
9.239056e+002, 1.500418e+001
9.243878e+002, 1.503220e+001
9.248699e+002, 1.504013e+001
9.253520e+002, 1.503091e+001
9.258341e+002, 1.501032e+001
9.263162e+002, 1.498729e+001
9.267983e+002, 1.496153e+001
9.272805e+002, 1.494263e+001
9.277626e+002, 1.499187e+001
9.282447e+002, 1.498950e+001
9.287268e+002, 1.475261e+001
9.292089e+002, 1.427949e+001
9.296910e+002, 1.403741e+001
9.301732e+002, 1.407652e+001
9.306553e+002, 1.416758e+001
9.311374e+002, 1.408514e+001
9.316195e+002, 1.395136e+001
9.321016e+002, 1.391437e+001
9.325837e+002, 1.399577e+001
9.330659e+002, 1.405237e+001
9.335480e+002, 1.403370e+001
9.340301e+002, 1.400508e+001
9.345122e+002, 1.399613e+001
9.349943e+002, 1.399904e+001
9.354764e+002, 1.394992e+001
9.359586e+002, 1.384983e+001
9.364407e+002, 1.377071e+001
9.369228e+002, 1.379555e+001
9.374049e+002, 1.381245e+001
9.378870e+002, 1.366679e+001
9.383691e+002, 1.342508e+001
9.388513e+002, 1.324475e+001
9.393334e+002, 1.326596e+001
9.398155e+002, 1.321176e+001
9.402976e+002, 1.300219e+001
9.407797e+002, 1.274846e+001
9.412618e+002, 1.261863e+001
9.417440e+002, 1.260943e+001
9.422261e+002, 1.271553e+001
9.427082e+002, 1.297162e+001
9.431903e+002, 1.314645e+001
9.436724e+002, 1.289275e+001
9.441545e+002, 1.251411e+001
9.446367e+002, 1.233858e+001
9.451188e+002, 1.247858e+001
9.456009e+002, 1.258607e+001
9.460830e+002, 1.263466e+001
9.465651e+002, 1.264066e+001
9.470472e+002, 1.260130e+001
9.475294e+002, 1.252295e+001
9.480115e+002, 1.247641e+001
9.484936e+002, 1.245667e+001
9.489757e+002, 1.240831e+001
9.494578e+002, 1.225882e+001
9.499399e+002, 1.210040e+001
9.504221e+002, 1.200136e+001
9.509042e+002, 1.195413e+001
9.513863e+002, 1.192686e+001
9.518684e+002, 1.193185e+001
9.523505e+002, 1.192738e+001
9.528326e+002, 1.191477e+001
9.533148e+002, 1.187833e+001
9.537969e+002, 1.172446e+001
9.542790e+002, 1.150699e+001
9.547611e+002, 1.149338e+001
9.552432e+002, 1.181396e+001
9.557253e+002, 1.211348e+001
9.562075e+002, 1.210824e+001
9.566896e+002, 1.197173e+001
9.571717e+002, 1.187689e+001
9.576538e+002, 1.186220e+001
9.581359e+002, 1.181695e+001
9.586180e+002, 1.173700e+001
9.591002e+002, 1.163470e+001
9.595823e+002, 1.149430e+001
9.600644e+002, 1.134143e+001
9.605465e+002, 1.125004e+001
9.610286e+002, 1.122134e+001
9.615107e+002, 1.125315e+001
9.619929e+002, 1.147089e+001
9.624750e+002, 1.162328e+001
9.629571e+002, 1.151988e+001
9.634392e+002, 1.123636e+001
9.639213e+002, 1.104981e+001
9.644034e+002, 1.097132e+001
9.648856e+002, 1.096095e+001
9.653677e+002, 1.102968e+001
9.658498e+002, 1.111988e+001
9.663319e+002, 1.111075e+001
9.668140e+002, 1.105897e+001
9.672961e+002, 1.109874e+001
9.677783e+002, 1.132436e+001
9.682604e+002, 1.148456e+001
9.687425e+002, 1.147859e+001
9.692246e+002, 1.137029e+001
9.697067e+002, 1.118248e+001
9.701888e+002, 1.088784e+001
9.706710e+002, 1.074629e+001
9.711531e+002, 1.076907e+001
9.716352e+002, 1.084752e+001
9.721173e+002, 1.095941e+001
9.725994e+002, 1.104041e+001
9.730815e+002, 1.095909e+001
9.735637e+002, 1.074852e+001
9.740458e+002, 1.061222e+001
9.745279e+002, 1.071188e+001
9.750100e+002, 1.077647e+001
9.754921e+002, 1.070609e+001
9.759742e+002, 1.057766e+001
9.764564e+002, 1.062044e+001
9.769385e+002, 1.082078e+001
9.774206e+002, 1.090280e+001
9.779027e+002, 1.077015e+001
9.783848e+002, 1.057592e+001
9.788669e+002, 1.042736e+001
9.793491e+002, 1.031987e+001
9.798312e+002, 1.025551e+001
9.803133e+002, 1.027411e+001
9.807954e+002, 1.021651e+001
9.812775e+002, 9.995815e+000
9.817596e+002, 9.840758e+000
9.822418e+002, 9.997747e+000
9.827239e+002, 1.037564e+001
9.832060e+002, 1.044612e+001
9.836881e+002, 1.023838e+001
9.841702e+002, 1.003598e+001
9.846523e+002, 1.003915e+001
9.851345e+002, 1.007473e+001
9.856166e+002, 1.000767e+001
9.860987e+002, 9.886026e+000
9.865808e+002, 9.901433e+000
9.870629e+002, 1.012268e+001
9.875450e+002, 1.025467e+001
9.880272e+002, 1.021979e+001
9.885093e+002, 1.012232e+001
9.889914e+002, 1.013365e+001
9.894735e+002, 1.019849e+001
9.899556e+002, 1.019507e+001
9.904377e+002, 1.007900e+001
9.909199e+002, 9.973010e+000
9.914020e+002, 9.922662e+000
9.918841e+002, 9.906177e+000
9.923662e+002, 9.912606e+000
9.928483e+002, 9.942692e+000
9.933304e+002, 9.979335e+000
9.938126e+002, 1.002582e+001
9.942947e+002, 1.002187e+001
9.947768e+002, 9.833401e+000
9.952589e+002, 9.643404e+000
9.957410e+002, 9.733868e+000
9.962231e+002, 1.000698e+001
9.967053e+002, 1.018039e+001
9.971874e+002, 1.003652e+001
9.976695e+002, 9.975904e+000
9.981516e+002, 1.010348e+001
9.986337e+002, 1.027733e+001
9.991158e+002, 1.025340e+001
9.995980e+002, 1.006401e+001
1.000080e+003, 9.944950e+000
1.000562e+003, 9.934314e+000
1.001044e+003, 9.952536e+000
1.001526e+003, 9.982889e+000
1.002009e+003, 9.983191e+000
1.002491e+003, 9.875834e+000
1.002973e+003, 9.633078e+000
1.003455e+003, 9.609397e+000
1.003937e+003, 9.889365e+000
1.004419e+003, 1.012001e+001
1.004901e+003, 1.012047e+001
1.005383e+003, 9.985960e+000
1.005865e+003, 9.897840e+000
1.006348e+003, 9.850030e+000
1.006830e+003, 9.822691e+000
1.007312e+003, 9.812646e+000
1.007794e+003, 9.815932e+000
1.008276e+003, 9.875281e+000
1.008758e+003, 9.918512e+000
1.009240e+003, 9.841696e+000
1.009722e+003, 9.623399e+000
1.010205e+003, 9.521459e+000
1.010687e+003, 9.559228e+000
1.011169e+003, 9.634786e+000
1.011651e+003, 9.668413e+000
1.012133e+003, 9.683780e+000
1.012615e+003, 9.730438e+000
1.013097e+003, 9.804060e+000
1.013579e+003, 9.771596e+000
1.014061e+003, 9.502546e+000
1.014544e+003, 9.314788e+000
1.015026e+003, 9.327975e+000
1.015508e+003, 9.454615e+000
1.015990e+003, 9.473151e+000
1.016472e+003, 9.411691e+000
1.016954e+003, 9.380229e+000
1.017436e+003, 9.400869e+000
1.017918e+003, 9.488450e+000
1.018401e+003, 9.779109e+000
1.018883e+003, 1.005874e+001
1.019365e+003, 1.009122e+001
1.019847e+003, 9.800492e+000
1.020329e+003, 9.651260e+000
1.020811e+003, 9.673501e+000
1.021293e+003, 9.673716e+000
1.021775e+003, 9.425913e+000
1.022257e+003, 9.117391e+000
1.022740e+003, 9.052667e+000
1.023222e+003, 9.191356e+000
1.023704e+003, 9.361024e+000
1.024186e+003, 9.613246e+000
1.024668e+003, 9.732856e+000
1.025150e+003, 9.623493e+000
1.025632e+003, 9.416742e+000
1.026114e+003, 9.328191e+000
1.026596e+003, 9.348743e+000
1.027079e+003, 9.383605e+000
1.027561e+003, 9.416690e+000
1.028043e+003, 9.472654e+000
1.028525e+003, 9.634852e+000
1.029007e+003, 9.782977e+000
1.029489e+003, 9.799574e+000
1.029971e+003, 9.667816e+000
1.030453e+003, 9.528581e+000
1.030936e+003, 9.358685e+000
1.031418e+003, 9.263299e+000
1.031900e+003, 9.315248e+000
1.032382e+003, 9.436129e+000
1.032864e+003, 9.464841e+000
1.033346e+003, 9.437990e+000
1.033828e+003, 9.443786e+000
1.034310e+003, 9.571303e+000
1.034792e+003, 9.645156e+000
1.035275e+003, 9.596767e+000
1.035757e+003, 9.501163e+000
1.036239e+003, 9.416850e+000
1.036721e+003, 9.344522e+000
1.037203e+003, 9.247407e+000
1.037685e+003, 9.126517e+000
1.038167e+003, 9.074862e+000
1.038649e+003, 9.197296e+000
1.039132e+003, 9.387003e+000
1.039614e+003, 9.613417e+000
1.040096e+003, 9.841763e+000
1.040578e+003, 9.926915e+000
1.041060e+003, 9.811563e+000
1.041542e+003, 9.693274e+000
1.042024e+003, 9.600809e+000
1.042506e+003, 9.538245e+000
1.042989e+003, 9.476789e+000
1.043471e+003, 9.456826e+000
1.043953e+003, 9.612410e+000
1.044435e+003, 1.002434e+001
1.044917e+003, 1.027913e+001
1.045399e+003, 1.003314e+001
1.045881e+003, 9.777130e+000
1.046363e+003, 9.774003e+000
1.046845e+003, 9.984998e+000
1.047328e+003, 1.008153e+001
1.047810e+003, 1.007405e+001
1.048292e+003, 1.012547e+001
1.048774e+003, 1.040548e+001
1.049256e+003, 1.064408e+001
1.049738e+003, 1.054589e+001
1.050220e+003, 1.029060e+001
1.050702e+003, 1.017588e+001
1.051184e+003, 1.031854e+001
1.051667e+003, 1.037751e+001
1.052149e+003, 1.033753e+001
1.052631e+003, 1.024109e+001
1.053113e+003, 1.011545e+001
1.053595e+003, 9.962346e+000
1.054077e+003, 9.765773e+000
1.054559e+003, 9.535898e+000
1.055041e+003, 9.338972e+000
1.055523e+003, 9.156656e+000
1.056006e+003, 9.081133e+000
1.056488e+003, 9.199473e+000
1.056970e+003, 9.379411e+000
1.057452e+003, 9.317189e+000
1.057934e+003, 9.043313e+000
1.058416e+003, 8.826055e+000
1.058898e+003, 8.710739e+000
1.059380e+003, 8.697448e+000
1.059863e+003, 8.880986e+000
1.060345e+003, 9.096778e+000
1.060827e+003, 9.210776e+000
1.061309e+003, 9.214748e+000
1.061791e+003, 9.134354e+000
1.062273e+003, 8.933852e+000
1.062755e+003, 8.825815e+000
1.063237e+003, 8.952966e+000
1.063719e+003, 9.158221e+000
1.064202e+003, 9.221122e+000
1.064684e+003, 9.175970e+000
1.065166e+003, 9.083198e+000
1.065648e+003, 8.892942e+000
1.066130e+003, 8.779631e+000
1.066612e+003, 8.765126e+000
1.067094e+003, 8.816935e+000
1.067576e+003, 8.957951e+000
1.068059e+003, 9.153001e+000
1.068541e+003, 9.154691e+000
1.069023e+003, 8.984360e+000
1.069505e+003, 8.838490e+000
1.069987e+003, 8.873546e+000
1.070469e+003, 8.921772e+000
1.070951e+003, 8.879071e+000
1.071433e+003, 8.795899e+000
1.071916e+003, 8.771903e+000
1.072398e+003, 8.814947e+000
1.072880e+003, 8.854745e+000
1.073362e+003, 8.885408e+000
1.073844e+003, 8.887059e+000
1.074326e+003, 8.813645e+000
1.074808e+003, 8.717530e+000
1.075290e+003, 8.635895e+000
1.075772e+003, 8.574616e+000
1.076255e+003, 8.608205e+000
1.076737e+003, 8.786677e+000
1.077219e+003, 8.951468e+000
1.077701e+003, 9.074267e+000
1.078183e+003, 9.118690e+000
1.078665e+003, 8.940836e+000
1.079147e+003, 8.638418e+000
1.079629e+003, 8.438308e+000
1.080111e+003, 8.411279e+000
1.080594e+003, 8.453681e+000
1.081076e+003, 8.616934e+000
1.081558e+003, 8.755643e+000
1.082040e+003, 8.776120e+000
1.082522e+003, 8.689856e+000
1.083004e+003, 8.586730e+000
1.083486e+003, 8.474033e+000
1.083968e+003, 8.430355e+000
1.084450e+003, 8.610243e+000
1.084933e+003, 8.750408e+000
1.085415e+003, 8.574324e+000
1.085897e+003, 8.297040e+000
1.086379e+003, 8.287089e+000
1.086861e+003, 8.668916e+000
1.087343e+003, 8.809825e+000
1.087825e+003, 8.650890e+000
1.088307e+003, 8.459362e+000
1.088790e+003, 8.521306e+000
1.089272e+003, 8.648019e+000
1.089754e+003, 8.592469e+000
1.090236e+003, 8.378613e+000
1.090718e+003, 8.196030e+000
1.091200e+003, 8.059018e+000
1.091682e+003, 7.994072e+000
1.092164e+003, 8.014897e+000
1.092646e+003, 8.093266e+000
1.093129e+003, 8.248120e+000
1.093611e+003, 8.415014e+000
1.094093e+003, 8.391047e+000
1.094575e+003, 8.128019e+000
1.095057e+003, 7.960159e+000
1.095539e+003, 8.179575e+000
1.096021e+003, 8.371255e+000
1.096503e+003, 8.333756e+000
1.096986e+003, 8.137856e+000
1.097468e+003, 8.045938e+000
1.097950e+003, 8.049853e+000
1.098432e+003, 8.092498e+000
1.098914e+003, 8.185697e+000
1.099396e+003, 8.231138e+000
1.099878e+003, 8.089796e+000
1.100360e+003, 7.910686e+000
1.100843e+003, 7.836197e+000
1.101325e+003, 7.870671e+000
1.101807e+003, 8.008286e+000
1.102289e+003, 8.266634e+000
1.102771e+003, 8.447559e+000
1.103253e+003, 8.405918e+000
1.103735e+003, 8.258965e+000
1.104217e+003, 8.075461e+000
1.104699e+003, 7.905027e+000
1.105182e+003, 7.835755e+000
1.105664e+003, 7.737235e+000
1.106146e+003, 8.130647e+000
1.106628e+003, 9.295307e+000
1.107110e+003, 1.024854e+001
1.107592e+003, 9.814693e+000
1.108074e+003, 8.661146e+000
1.108556e+003, 8.183967e+000
1.109038e+003, 8.321010e+000
1.109521e+003, 8.429023e+000
1.110003e+003, 8.207290e+000
1.110485e+003, 7.993882e+000
1.110967e+003, 7.823213e+000
1.111449e+003, 7.737172e+000
1.111931e+003, 7.871671e+000
1.112413e+003, 8.156828e+000
1.112895e+003, 8.249287e+000
1.113377e+003, 8.106698e+000
1.113860e+003, 7.952779e+000
1.114342e+003, 7.932930e+000
1.114824e+003, 7.929235e+000
1.115306e+003, 7.858971e+000
1.115788e+003, 7.757669e+000
1.116270e+003, 7.775920e+000
1.116752e+003, 7.910275e+000
1.117234e+003, 7.941844e+000
1.117717e+003, 7.783662e+000
1.118199e+003, 7.641229e+000
1.118681e+003, 7.804621e+000
1.119163e+003, 7.995759e+000
1.119645e+003, 7.872515e+000
1.120127e+003, 7.401281e+000
1.120609e+003, 7.278631e+000
1.121091e+003, 7.553582e+000
1.121573e+003, 7.882301e+000
1.122056e+003, 8.180989e+000
1.122538e+003, 8.361255e+000
1.123020e+003, 8.183439e+000
1.123502e+003, 7.861537e+000
1.123984e+003, 7.743279e+000
1.124466e+003, 8.058493e+000
1.124948e+003, 8.206643e+000
1.125430e+003, 8.140637e+000
1.125913e+003, 8.010537e+000
1.126395e+003, 7.905570e+000
1.126877e+003, 7.812142e+000
1.127359e+003, 7.650554e+000
1.127841e+003, 7.472754e+000
1.128323e+003, 7.425958e+000
1.128805e+003, 7.705751e+000
1.129287e+003, 7.926110e+000
1.129770e+003, 8.055858e+000
1.130252e+003, 8.087359e+000
1.130734e+003, 7.962010e+000
1.131216e+003, 7.731905e+000
1.131698e+003, 7.594259e+000
1.132180e+003, 7.554347e+000
1.132662e+003, 7.588441e+000
1.133144e+003, 7.781662e+000
1.133626e+003, 7.930407e+000
1.134109e+003, 7.976099e+000
1.134591e+003, 7.930065e+000
1.135073e+003, 7.736834e+000
1.135555e+003, 7.425262e+000
1.136037e+003, 7.379845e+000
1.136519e+003, 7.650862e+000
1.137001e+003, 7.905857e+000
1.137483e+003, 7.879606e+000
1.137965e+003, 7.785052e+000
1.138448e+003, 7.751536e+000
1.138930e+003, 7.760788e+000
1.139412e+003, 7.746932e+000
1.139894e+003, 7.708708e+000
1.140376e+003, 7.680570e+000
1.140858e+003, 7.677186e+000
1.141340e+003, 7.645735e+000
1.141822e+003, 7.468491e+000
1.142304e+003, 7.289857e+000
1.142787e+003, 7.255395e+000
1.143269e+003, 7.374502e+000
1.143751e+003, 7.491448e+000
1.144233e+003, 7.609277e+000
1.144715e+003, 7.700156e+000
1.145197e+003, 7.745203e+000
1.145679e+003, 7.776430e+000
1.146161e+003, 7.865084e+000
1.146644e+003, 7.948756e+000
1.147126e+003, 7.931832e+000
1.147608e+003, 7.755462e+000
1.148090e+003, 7.643867e+000
1.148572e+003, 7.601815e+000
1.149054e+003, 7.625262e+000
1.149536e+003, 7.748434e+000
1.150018e+003, 7.894042e+000
1.150500e+003, 7.933279e+000
1.150983e+003, 7.891239e+000
1.151465e+003, 7.814957e+000
1.151947e+003, 7.687434e+000
1.152429e+003, 7.586359e+000
1.152911e+003, 7.504727e+000
1.153393e+003, 7.473253e+000
1.153875e+003, 7.530652e+000
1.154357e+003, 7.647600e+000
1.154840e+003, 7.794887e+000
1.155322e+003, 7.936923e+000
1.155804e+003, 7.954556e+000
1.156286e+003, 7.660320e+000
1.156768e+003, 7.438330e+000
1.157250e+003, 7.346419e+000
1.157732e+003, 7.331437e+000
1.158214e+003, 7.355583e+000
1.158697e+003, 7.415116e+000
1.159179e+003, 7.510732e+000
1.159661e+003, 7.632187e+000
1.160143e+003, 7.720972e+000
1.160625e+003, 7.727647e+000
1.161107e+003, 7.723176e+000
1.161589e+003, 7.749819e+000
1.162071e+003, 7.757286e+000
1.162553e+003, 7.630585e+000
1.163036e+003, 7.407652e+000
1.163518e+003, 7.389469e+000
1.164000e+003, 7.585135e+000
1.164482e+003, 7.773736e+000
1.164964e+003, 7.856430e+000
1.165446e+003, 7.857988e+000
1.165928e+003, 7.741842e+000
1.166410e+003, 7.581511e+000
1.166892e+003, 7.503472e+000
1.167375e+003, 7.505392e+000
1.167857e+003, 7.579440e+000
1.168339e+003, 7.728308e+000
1.168821e+003, 7.860417e+000
1.169303e+003, 7.940761e+000
1.169785e+003, 7.952199e+000
1.170267e+003, 7.835866e+000
1.170749e+003, 7.650096e+000
1.171231e+003, 7.543650e+000
1.171714e+003, 7.515666e+000
1.172196e+003, 7.572229e+000
1.172678e+003, 7.729422e+000
1.173160e+003, 7.870739e+000
1.173642e+003, 7.670169e+000
1.174124e+003, 7.597658e+000
1.174606e+003, 8.351954e+000
1.175088e+003, 9.678452e+000
1.175571e+003, 9.867855e+000
1.176053e+003, 8.856336e+000
1.176535e+003, 7.999209e+000
1.177017e+003, 7.674230e+000
1.177499e+003, 7.616731e+000
1.177981e+003, 7.712097e+000
1.178463e+003, 7.847525e+000
1.178945e+003, 7.901903e+000
1.179427e+003, 7.869755e+000
1.179910e+003, 7.900776e+000
1.180392e+003, 8.006185e+000
1.180874e+003, 8.063088e+000
1.181356e+003, 8.020474e+000
1.181838e+003, 7.923419e+000
1.182320e+003, 7.743615e+000
1.182802e+003, 7.580852e+000
1.183284e+003, 7.582420e+000
1.183767e+003, 7.791197e+000
1.184249e+003, 7.872814e+000
1.184731e+003, 7.800900e+000
1.185213e+003, 7.799196e+000
1.185695e+003, 8.058250e+000
1.186177e+003, 8.306685e+000
1.186659e+003, 8.135550e+000
1.187141e+003, 7.789630e+000
1.187624e+003, 7.634456e+000
1.188106e+003, 7.775111e+000
1.188588e+003, 7.876290e+000
1.189070e+003, 7.935721e+000
1.189552e+003, 7.964695e+000
1.190034e+003, 7.962821e+000
1.190516e+003, 7.941134e+000
1.190998e+003, 7.889722e+000
1.191480e+003, 7.836075e+000
1.191963e+003, 7.828568e+000
1.192445e+003, 7.880963e+000
1.192927e+003, 7.981321e+000
1.193409e+003, 8.153545e+000
1.193891e+003, 8.263701e+000
1.194373e+003, 8.145061e+000
1.194855e+003, 7.968721e+000
1.195337e+003, 8.000064e+000
1.195819e+003, 8.141653e+000
1.196302e+003, 8.170092e+000
1.196784e+003, 7.954688e+000
1.197266e+003, 7.864272e+000
1.197748e+003, 7.932939e+000
1.198230e+003, 8.009444e+000
1.198712e+003, 7.935999e+000
1.199194e+003, 7.824659e+000
1.199676e+003, 7.842514e+000
1.200158e+003, 7.947833e+000
1.200641e+003, 8.021152e+000
1.201123e+003, 8.030288e+000
1.201605e+003, 8.038916e+000
1.202087e+003, 8.052604e+000
1.202569e+003, 8.056996e+000
1.203051e+003, 8.040959e+000
1.203533e+003, 8.006698e+000
1.204015e+003, 7.925208e+000
1.204498e+003, 7.825686e+000
1.204980e+003, 7.812622e+000
1.205462e+003, 7.934952e+000
1.205944e+003, 8.058706e+000
1.206426e+003, 8.178416e+000
1.206908e+003, 8.279512e+000
1.207390e+003, 8.372327e+000
1.207872e+003, 8.421706e+000
1.208354e+003, 8.348249e+000
1.208837e+003, 8.181684e+000
1.209319e+003, 8.067171e+000
1.209801e+003, 8.015413e+000
1.210283e+003, 8.034852e+000
1.210765e+003, 8.144735e+000
1.211247e+003, 8.255616e+000
1.211729e+003, 8.279180e+000
1.212211e+003, 8.246870e+000
1.212694e+003, 8.155368e+000
1.213176e+003, 8.031597e+000
1.213658e+003, 8.032265e+000
1.214140e+003, 8.209446e+000
1.214622e+003, 8.380525e+000
1.215104e+003, 8.524571e+000
1.215586e+003, 8.634696e+000
1.216068e+003, 8.729276e+000
1.216551e+003, 8.769778e+000
1.217033e+003, 8.659273e+000
1.217515e+003, 8.426689e+000
1.217997e+003, 8.326954e+000
1.218479e+003, 8.410894e+000
1.218961e+003, 8.494885e+000
1.219443e+003, 8.551525e+000
1.219925e+003, 8.587041e+000
1.220407e+003, 8.621119e+000
1.220890e+003, 8.629452e+000
1.221372e+003, 8.550058e+000
1.221854e+003, 8.400335e+000
1.222336e+003, 8.358784e+000
1.222818e+003, 8.455063e+000
1.223300e+003, 8.570009e+000
1.223782e+003, 8.692632e+000
1.224264e+003, 8.773467e+000
1.224746e+003, 8.731312e+000
1.225229e+003, 8.638021e+000
1.225711e+003, 8.537390e+000
1.226193e+003, 8.449090e+000
1.226675e+003, 8.487983e+000
1.227157e+003, 8.689381e+000
1.227639e+003, 8.811734e+000
1.228121e+003, 8.781991e+000
1.228603e+003, 8.767215e+000
1.229085e+003, 9.032629e+000
1.229568e+003, 9.330824e+000
1.230050e+003, 9.380139e+000
1.230532e+003, 9.200541e+000
1.231014e+003, 9.167708e+000
1.231496e+003, 9.304636e+000
1.231978e+003, 9.374482e+000
1.232460e+003, 9.311106e+000
1.232942e+003, 9.229302e+000
1.233425e+003, 9.243488e+000
1.233907e+003, 9.285718e+000
1.234389e+003, 9.279131e+000
1.234871e+003, 9.239440e+000
1.235353e+003, 9.277174e+000
1.235835e+003, 9.392644e+000
1.236317e+003, 9.602774e+000
1.236799e+003, 9.944559e+000
1.237281e+003, 1.019393e+001
1.237764e+003, 1.001852e+001
1.238246e+003, 9.797741e+000
1.238728e+003, 9.868557e+000
1.239210e+003, 1.016157e+001
1.239692e+003, 1.037758e+001
1.240174e+003, 1.051866e+001
1.240656e+003, 1.075113e+001
1.241138e+003, 1.113451e+001
1.241621e+003, 1.147779e+001
1.242103e+003, 1.157184e+001
1.242585e+003, 1.163589e+001
1.243067e+003, 1.181123e+001
1.243549e+003, 1.207561e+001
1.244031e+003, 1.235975e+001
1.244513e+003, 1.266140e+001
1.244995e+003, 1.294860e+001
1.245478e+003, 1.322010e+001
1.245960e+003, 1.345297e+001
1.246442e+003, 1.369234e+001
1.246924e+003, 1.381842e+001
1.247406e+003, 1.375254e+001
1.247888e+003, 1.355383e+001
1.248370e+003, 1.336942e+001
1.248852e+003, 1.321234e+001
1.249334e+003, 1.317657e+001
1.249817e+003, 1.332071e+001
1.250299e+003, 1.332565e+001
1.250781e+003, 1.285613e+001
1.251263e+003, 1.242868e+001
1.251745e+003, 1.225833e+001
1.252227e+003, 1.225835e+001
1.252709e+003, 1.224210e+001
1.253191e+003, 1.221363e+001
1.253673e+003, 1.218225e+001
1.254156e+003, 1.214843e+001
1.254638e+003, 1.212150e+001
1.255120e+003, 1.205155e+001
1.255602e+003, 1.208002e+001
1.256084e+003, 1.229883e+001
1.256566e+003, 1.257996e+001
1.257048e+003, 1.263241e+001
1.257530e+003, 1.256286e+001
1.258012e+003, 1.258007e+001
1.258495e+003, 1.272150e+001
1.258977e+003, 1.294816e+001
1.259459e+003, 1.330499e+001
1.259941e+003, 1.361014e+001
1.260423e+003, 1.379037e+001
1.260905e+003, 1.392356e+001
1.261387e+003, 1.414488e+001
1.261869e+003, 1.439462e+001
1.262352e+003, 1.456532e+001
1.262834e+003, 1.463413e+001
1.263316e+003, 1.481133e+001
1.263798e+003, 1.512727e+001
1.264280e+003, 1.547973e+001
1.264762e+003, 1.585254e+001
1.265244e+003, 1.620066e+001
1.265726e+003, 1.635440e+001
1.266208e+003, 1.653365e+001
1.266691e+003, 1.707558e+001
1.267173e+003, 1.799225e+001
1.267655e+003, 1.854392e+001
1.268137e+003, 1.867117e+001
1.268619e+003, 1.894455e+001
1.269101e+003, 1.951595e+001
1.269583e+003, 2.025299e+001
1.270065e+003, 2.111075e+001
1.270548e+003, 2.202234e+001
1.271030e+003, 2.290210e+001
1.271512e+003, 2.377475e+001
1.271994e+003, 2.477406e+001
1.272476e+003, 2.589335e+001
1.272958e+003, 2.696903e+001
1.273440e+003, 2.794301e+001
1.273922e+003, 2.900469e+001
1.274405e+003, 3.026275e+001
1.274887e+003, 3.167962e+001
1.275369e+003, 3.315822e+001
1.275851e+003, 3.481469e+001
1.276333e+003, 3.713255e+001
1.276815e+003, 3.997553e+001
1.277297e+003, 4.266763e+001
1.277779e+003, 4.503973e+001
1.278261e+003, 4.760011e+001
1.278744e+003, 5.043026e+001
1.279226e+003, 5.372807e+001
1.279708e+003, 5.767641e+001
1.280190e+003, 6.198371e+001
1.280672e+003, 6.623561e+001
1.281154e+003, 7.051437e+001
1.281636e+003, 7.499840e+001
1.282118e+003, 7.974867e+001
1.282600e+003, 8.496565e+001
1.283083e+003, 9.098132e+001
1.283565e+003, 9.699258e+001
1.284047e+003, 1.027535e+002
1.284529e+003, 1.086025e+002
1.285011e+003, 1.150649e+002
1.285493e+003, 1.219238e+002
1.285975e+003, 1.288168e+002
1.286457e+003, 1.356951e+002
1.286939e+003, 1.425485e+002
1.287422e+003, 1.495394e+002
1.287904e+003, 1.558448e+002
1.288386e+003, 1.613694e+002
1.288868e+003, 1.656872e+002
1.289350e+003, 1.683049e+002
1.289832e+003, 1.695093e+002
1.290314e+003, 1.697322e+002
1.290796e+003, 1.686953e+002
1.291279e+003, 1.655847e+002
1.291761e+003, 1.602691e+002
1.292243e+003, 1.541145e+002
1.292725e+003, 1.472877e+002
1.293207e+003, 1.399456e+002
1.293689e+003, 1.317760e+002
1.294171e+003, 1.235449e+002
1.294653e+003, 1.157187e+002
1.295135e+003, 1.082910e+002
1.295618e+003, 1.013609e+002
1.296100e+003, 9.491268e+001
1.296582e+003, 8.872085e+001
1.297064e+003, 8.278986e+001
1.297546e+003, 7.742345e+001
1.298028e+003, 7.311394e+001
1.298510e+003, 6.904948e+001
1.298992e+003, 6.490843e+001
1.299475e+003, 6.098777e+001
1.299957e+003, 5.778690e+001
1.300439e+003, 5.511691e+001
1.300921e+003, 5.244027e+001
1.301403e+003, 4.977503e+001
1.301885e+003, 4.718196e+001
##END=



