##NAMES=Ammoniomathesiusite
##RRUFFID=R200003
##IDEAL CHEMISTRY=(N^3-^H_4_)_5_(U^6+^O_2_)_4_(S^6+^O_4_)_4_(V^5+^O_5_)&#183;4H_2_O
##LOCALITY=Burro mine, Slick Rock, Colorado, USA
##OWNER=RRUFF
##SOURCE=Travis Olds
##DESCRIPTION=Yellow-green tetragonal prismatic crystals, associated with needles of gypsum
##STATUS=The identification of this mineral has been confirmed by single-crystal X-ray diffraction.
##URL=rruff.info/R200003
8.758203e+001, 3.341436e+002
8.806415e+001, 3.269562e+002
8.854626e+001, 3.256948e+002
8.902838e+001, 3.328199e+002
8.951050e+001, 3.419281e+002
8.999261e+001, 3.509557e+002
9.047473e+001, 3.597034e+002
9.095685e+001, 3.683316e+002
9.143896e+001, 3.770091e+002
9.192108e+001, 3.857448e+002
9.240320e+001, 3.942220e+002
9.288531e+001, 3.983710e+002
9.336743e+001, 3.947049e+002
9.384955e+001, 3.837754e+002
9.433167e+001, 3.708969e+002
9.481378e+001, 3.574974e+002
9.529590e+001, 3.476455e+002
9.577802e+001, 3.406113e+002
9.626013e+001, 3.340823e+002
9.674225e+001, 3.267116e+002
9.722437e+001, 3.185076e+002
9.770648e+001, 3.104768e+002
9.818860e+001, 3.016027e+002
9.867072e+001, 2.936982e+002
9.915283e+001, 2.879371e+002
9.963495e+001, 2.842430e+002
1.001171e+002, 2.814298e+002
1.005992e+002, 2.779388e+002
1.010813e+002, 2.730594e+002
1.015634e+002, 2.690258e+002
1.020455e+002, 2.662729e+002
1.025277e+002, 2.638780e+002
1.030098e+002, 2.609653e+002
1.034919e+002, 2.571829e+002
1.039740e+002, 2.529893e+002
1.044561e+002, 2.499329e+002
1.049382e+002, 2.492127e+002
1.054204e+002, 2.482428e+002
1.059025e+002, 2.467455e+002
1.063846e+002, 2.447972e+002
1.068667e+002, 2.425569e+002
1.073488e+002, 2.400941e+002
1.078309e+002, 2.374057e+002
1.083131e+002, 2.346041e+002
1.087952e+002, 2.311326e+002
1.092773e+002, 2.280015e+002
1.097594e+002, 2.260004e+002
1.102415e+002, 2.250876e+002
1.107236e+002, 2.243482e+002
1.112058e+002, 2.229928e+002
1.116879e+002, 2.212372e+002
1.121700e+002, 2.197900e+002
1.126521e+002, 2.190226e+002
1.131342e+002, 2.185877e+002
1.136163e+002, 2.178596e+002
1.140985e+002, 2.166302e+002
1.145806e+002, 2.155069e+002
1.150627e+002, 2.149353e+002
1.155448e+002, 2.147683e+002
1.160269e+002, 2.146668e+002
1.165090e+002, 2.145430e+002
1.169912e+002, 2.143915e+002
1.174733e+002, 2.138233e+002
1.179554e+002, 2.118780e+002
1.184375e+002, 2.103132e+002
1.189196e+002, 2.100893e+002
1.194017e+002, 2.110637e+002
1.198839e+002, 2.123374e+002
1.203660e+002, 2.128003e+002
1.208481e+002, 2.118705e+002
1.213302e+002, 2.115642e+002
1.218123e+002, 2.123240e+002
1.222944e+002, 2.132548e+002
1.227766e+002, 2.137303e+002
1.232587e+002, 2.135932e+002
1.237408e+002, 2.131803e+002
1.242229e+002, 2.131266e+002
1.247050e+002, 2.136505e+002
1.251871e+002, 2.142973e+002
1.256693e+002, 2.149599e+002
1.261514e+002, 2.157689e+002
1.266335e+002, 2.169434e+002
1.271156e+002, 2.186254e+002
1.275977e+002, 2.206230e+002
1.280798e+002, 2.224032e+002
1.285620e+002, 2.242221e+002
1.290441e+002, 2.255783e+002
1.295262e+002, 2.259019e+002
1.300083e+002, 2.254576e+002
1.304904e+002, 2.253458e+002
1.309725e+002, 2.261591e+002
1.314547e+002, 2.277134e+002
1.319368e+002, 2.294626e+002
1.324189e+002, 2.315459e+002
1.329010e+002, 2.336270e+002
1.333831e+002, 2.353022e+002
1.338652e+002, 2.364854e+002
1.343474e+002, 2.377204e+002
1.348295e+002, 2.392309e+002
1.353116e+002, 2.409569e+002
1.357937e+002, 2.429392e+002
1.362758e+002, 2.453620e+002
1.367579e+002, 2.479281e+002
1.372401e+002, 2.497948e+002
1.377222e+002, 2.504724e+002
1.382043e+002, 2.511592e+002
1.386864e+002, 2.521969e+002
1.391685e+002, 2.535083e+002
1.396507e+002, 2.549969e+002
1.401328e+002, 2.566331e+002
1.406149e+002, 2.584120e+002
1.410970e+002, 2.599850e+002
1.415791e+002, 2.610989e+002
1.420612e+002, 2.622316e+002
1.425434e+002, 2.638056e+002
1.430255e+002, 2.655600e+002
1.435076e+002, 2.668176e+002
1.439897e+002, 2.668539e+002
1.444718e+002, 2.653047e+002
1.449539e+002, 2.646253e+002
1.454361e+002, 2.658485e+002
1.459182e+002, 2.669256e+002
1.464003e+002, 2.667487e+002
1.468824e+002, 2.651996e+002
1.473645e+002, 2.627510e+002
1.478466e+002, 2.596957e+002
1.483288e+002, 2.555013e+002
1.488109e+002, 2.530042e+002
1.492930e+002, 2.534098e+002
1.497751e+002, 2.550026e+002
1.502572e+002, 2.561550e+002
1.507393e+002, 2.565364e+002
1.512215e+002, 2.562911e+002
1.517036e+002, 2.552080e+002
1.521857e+002, 2.532932e+002
1.526678e+002, 2.518781e+002
1.531499e+002, 2.520683e+002
1.536320e+002, 2.531040e+002
1.541142e+002, 2.528480e+002
1.545963e+002, 2.499324e+002
1.550784e+002, 2.468462e+002
1.555605e+002, 2.464484e+002
1.560426e+002, 2.487171e+002
1.565247e+002, 2.511019e+002
1.570069e+002, 2.514946e+002
1.574890e+002, 2.499458e+002
1.579711e+002, 2.490926e+002
1.584532e+002, 2.498910e+002
1.589353e+002, 2.513401e+002
1.594174e+002, 2.529121e+002
1.598996e+002, 2.545289e+002
1.603817e+002, 2.561542e+002
1.608638e+002, 2.576518e+002
1.613459e+002, 2.588235e+002
1.618280e+002, 2.605626e+002
1.623102e+002, 2.630086e+002
1.627923e+002, 2.659796e+002
1.632744e+002, 2.695701e+002
1.637565e+002, 2.737773e+002
1.642386e+002, 2.781571e+002
1.647207e+002, 2.819333e+002
1.652029e+002, 2.846891e+002
1.656850e+002, 2.874013e+002
1.661671e+002, 2.902535e+002
1.666492e+002, 2.930302e+002
1.671313e+002, 2.956217e+002
1.676134e+002, 2.979569e+002
1.680956e+002, 2.999769e+002
1.685777e+002, 3.014986e+002
1.690598e+002, 3.020724e+002
1.695419e+002, 3.026260e+002
1.700240e+002, 3.025140e+002
1.705061e+002, 3.025652e+002
1.709883e+002, 3.041690e+002
1.714704e+002, 3.081723e+002
1.719525e+002, 3.138519e+002
1.724346e+002, 3.180898e+002
1.729167e+002, 3.197372e+002
1.733988e+002, 3.216059e+002
1.738810e+002, 3.247231e+002
1.743631e+002, 3.287327e+002
1.748452e+002, 3.327462e+002
1.753273e+002, 3.363450e+002
1.758094e+002, 3.395104e+002
1.762915e+002, 3.423200e+002
1.767737e+002, 3.457082e+002
1.772558e+002, 3.478125e+002
1.777379e+002, 3.471736e+002
1.782200e+002, 3.439497e+002
1.787021e+002, 3.398268e+002
1.791842e+002, 3.352963e+002
1.796664e+002, 3.305778e+002
1.801485e+002, 3.260792e+002
1.806306e+002, 3.218567e+002
1.811127e+002, 3.178500e+002
1.815948e+002, 3.138741e+002
1.820769e+002, 3.097993e+002
1.825591e+002, 3.064902e+002
1.830412e+002, 3.042991e+002
1.835233e+002, 3.031811e+002
1.840054e+002, 3.033624e+002
1.844875e+002, 3.051154e+002
1.849696e+002, 3.079816e+002
1.854518e+002, 3.111592e+002
1.859339e+002, 3.146212e+002
1.864160e+002, 3.184974e+002
1.868981e+002, 3.228445e+002
1.873802e+002, 3.275583e+002
1.878623e+002, 3.325099e+002
1.883445e+002, 3.375540e+002
1.888266e+002, 3.428625e+002
1.893087e+002, 3.489040e+002
1.897908e+002, 3.558273e+002
1.902729e+002, 3.635242e+002
1.907550e+002, 3.719440e+002
1.912372e+002, 3.810367e+002
1.917193e+002, 3.906539e+002
1.922014e+002, 4.006727e+002
1.926835e+002, 4.111718e+002
1.931656e+002, 4.225877e+002
1.936477e+002, 4.364179e+002
1.941299e+002, 4.496506e+002
1.946120e+002, 4.619749e+002
1.950941e+002, 4.733547e+002
1.955762e+002, 4.836646e+002
1.960583e+002, 4.927897e+002
1.965404e+002, 5.007815e+002
1.970226e+002, 5.085150e+002
1.975047e+002, 5.174724e+002
1.979868e+002, 5.246577e+002
1.984689e+002, 5.290853e+002
1.989510e+002, 5.310143e+002
1.994331e+002, 5.309307e+002
1.999153e+002, 5.289308e+002
2.003974e+002, 5.250901e+002
2.008795e+002, 5.224655e+002
2.013616e+002, 5.226333e+002
2.018437e+002, 5.222308e+002
2.023258e+002, 5.193618e+002
2.028080e+002, 5.144830e+002
2.032901e+002, 5.093721e+002
2.037722e+002, 5.049196e+002
2.042543e+002, 5.013911e+002
2.047364e+002, 4.998840e+002
2.052185e+002, 5.004362e+002
2.057007e+002, 5.027507e+002
2.061828e+002, 5.062822e+002
2.066649e+002, 5.111574e+002
2.071470e+002, 5.186844e+002
2.076291e+002, 5.305950e+002
2.081112e+002, 5.462196e+002
2.085934e+002, 5.611992e+002
2.090755e+002, 5.755080e+002
2.095576e+002, 5.889974e+002
2.100397e+002, 6.026861e+002
2.105218e+002, 6.167762e+002
2.110039e+002, 6.268766e+002
2.114861e+002, 6.297706e+002
2.119682e+002, 6.262890e+002
2.124503e+002, 6.179693e+002
2.129324e+002, 6.037372e+002
2.134145e+002, 5.856855e+002
2.138967e+002, 5.658528e+002
2.143788e+002, 5.439471e+002
2.148609e+002, 5.214569e+002
2.153430e+002, 4.972176e+002
2.158251e+002, 4.732411e+002
2.163072e+002, 4.524292e+002
2.167894e+002, 4.360455e+002
2.172715e+002, 4.226882e+002
2.177536e+002, 4.097108e+002
2.182357e+002, 3.966125e+002
2.187178e+002, 3.854326e+002
2.191999e+002, 3.771653e+002
2.196821e+002, 3.710175e+002
2.201642e+002, 3.665045e+002
2.206463e+002, 3.637297e+002
2.211284e+002, 3.620412e+002
2.216105e+002, 3.598097e+002
2.220926e+002, 3.563270e+002
2.225748e+002, 3.538090e+002
2.230569e+002, 3.535275e+002
2.235390e+002, 3.542051e+002
2.240211e+002, 3.544227e+002
2.245032e+002, 3.534904e+002
2.249853e+002, 3.518152e+002
2.254675e+002, 3.506104e+002
2.259496e+002, 3.508035e+002
2.264317e+002, 3.499092e+002
2.269138e+002, 3.472455e+002
2.273959e+002, 3.434645e+002
2.278780e+002, 3.392650e+002
2.283602e+002, 3.349765e+002
2.288423e+002, 3.304662e+002
2.293244e+002, 3.252527e+002
2.298065e+002, 3.187413e+002
2.302886e+002, 3.122947e+002
2.307707e+002, 3.056993e+002
2.312529e+002, 2.993503e+002
2.317350e+002, 2.939929e+002
2.322171e+002, 2.900175e+002
2.326992e+002, 2.865908e+002
2.331813e+002, 2.810232e+002
2.336634e+002, 2.708077e+002
2.341456e+002, 2.612158e+002
2.346277e+002, 2.526096e+002
2.351098e+002, 2.448123e+002
2.355919e+002, 2.376276e+002
2.360740e+002, 2.309688e+002
2.365561e+002, 2.247990e+002
2.370383e+002, 2.190069e+002
2.375204e+002, 2.136618e+002
2.380025e+002, 2.087030e+002
2.384846e+002, 2.040861e+002
2.389667e+002, 1.998655e+002
2.394488e+002, 1.961303e+002
2.399310e+002, 1.928974e+002
2.404131e+002, 1.901578e+002
2.408952e+002, 1.878993e+002
2.413773e+002, 1.861214e+002
2.418594e+002, 1.848155e+002
2.423415e+002, 1.842653e+002
2.428237e+002, 1.841091e+002
2.433058e+002, 1.840229e+002
2.437879e+002, 1.839151e+002
2.442700e+002, 1.835548e+002
2.447521e+002, 1.823549e+002
2.452342e+002, 1.799155e+002
2.457164e+002, 1.775045e+002
2.461985e+002, 1.753795e+002
2.466806e+002, 1.733593e+002
2.471627e+002, 1.712635e+002
2.476448e+002, 1.690417e+002
2.481269e+002, 1.665884e+002
2.486091e+002, 1.635815e+002
2.490912e+002, 1.598431e+002
2.495733e+002, 1.562638e+002
2.500554e+002, 1.532758e+002
2.505375e+002, 1.504537e+002
2.510196e+002, 1.469382e+002
2.515018e+002, 1.423525e+002
2.519839e+002, 1.377632e+002
2.524660e+002, 1.350815e+002
2.529481e+002, 1.343886e+002
2.534302e+002, 1.333152e+002
2.539123e+002, 1.304532e+002
2.543945e+002, 1.270875e+002
2.548766e+002, 1.253754e+002
2.553587e+002, 1.259989e+002
2.558408e+002, 1.273864e+002
2.563229e+002, 1.276617e+002
2.568051e+002, 1.269882e+002
2.572872e+002, 1.263850e+002
2.577693e+002, 1.259217e+002
2.582514e+002, 1.257599e+002
2.587335e+002, 1.263374e+002
2.592156e+002, 1.278970e+002
2.596978e+002, 1.295108e+002
2.601799e+002, 1.301383e+002
2.606620e+002, 1.300447e+002
2.611441e+002, 1.299859e+002
2.616262e+002, 1.300460e+002
2.621083e+002, 1.303253e+002
2.625905e+002, 1.310950e+002
2.630726e+002, 1.324926e+002
2.635547e+002, 1.339199e+002
2.640368e+002, 1.349327e+002
2.645189e+002, 1.356312e+002
2.650010e+002, 1.361286e+002
2.654832e+002, 1.362151e+002
2.659653e+002, 1.362170e+002
2.664474e+002, 1.368152e+002
2.669295e+002, 1.382464e+002
2.674116e+002, 1.393933e+002
2.678937e+002, 1.395286e+002
2.683759e+002, 1.389503e+002
2.688580e+002, 1.378890e+002
2.693401e+002, 1.360906e+002
2.698222e+002, 1.341388e+002
2.703043e+002, 1.329901e+002
2.707864e+002, 1.328284e+002
2.712686e+002, 1.326765e+002
2.717507e+002, 1.320816e+002
2.722328e+002, 1.312258e+002
2.727149e+002, 1.302260e+002
2.731970e+002, 1.290381e+002
2.736791e+002, 1.278665e+002
2.741613e+002, 1.270194e+002
2.746434e+002, 1.265413e+002
2.751255e+002, 1.261180e+002
2.756076e+002, 1.257329e+002
2.760897e+002, 1.252996e+002
2.765718e+002, 1.247747e+002
2.770540e+002, 1.241640e+002
2.775361e+002, 1.233566e+002
2.780182e+002, 1.220889e+002
2.785003e+002, 1.202636e+002
2.789824e+002, 1.186805e+002
2.794645e+002, 1.178310e+002
2.799467e+002, 1.171197e+002
2.804288e+002, 1.161040e+002
2.809109e+002, 1.147241e+002
2.813930e+002, 1.133653e+002
2.818751e+002, 1.123957e+002
2.823572e+002, 1.118280e+002
2.828394e+002, 1.115056e+002
2.833215e+002, 1.115659e+002
2.838036e+002, 1.117612e+002
2.842857e+002, 1.120632e+002
2.847678e+002, 1.124198e+002
2.852499e+002, 1.126223e+002
2.857321e+002, 1.123948e+002
2.862142e+002, 1.117242e+002
2.866963e+002, 1.111887e+002
2.871784e+002, 1.108012e+002
2.876605e+002, 1.105928e+002
2.881426e+002, 1.105400e+002
2.886248e+002, 1.106630e+002
2.891069e+002, 1.110255e+002
2.895890e+002, 1.117826e+002
2.900711e+002, 1.128905e+002
2.905532e+002, 1.137870e+002
2.910353e+002, 1.147344e+002
2.915175e+002, 1.150719e+002
2.919996e+002, 1.142137e+002
2.924817e+002, 1.126366e+002
2.929638e+002, 1.112323e+002
2.934459e+002, 1.105792e+002
2.939280e+002, 1.105083e+002
2.944102e+002, 1.103209e+002
2.948923e+002, 1.101771e+002
2.953744e+002, 1.096218e+002
2.958565e+002, 1.085484e+002
2.963386e+002, 1.070497e+002
2.968207e+002, 1.050542e+002
2.973029e+002, 1.023703e+002
2.977850e+002, 9.962355e+001
2.982671e+002, 9.861653e+001
2.987492e+002, 1.006107e+002
2.992313e+002, 1.018120e+002
2.997134e+002, 1.010089e+002
3.001956e+002, 9.932473e+001
3.006777e+002, 9.765346e+001
3.011598e+002, 9.628988e+001
3.016419e+002, 9.522734e+001
3.021240e+002, 9.455544e+001
3.026061e+002, 9.451085e+001
3.030883e+002, 9.418075e+001
3.035704e+002, 9.321318e+001
3.040525e+002, 9.207756e+001
3.045346e+002, 9.095753e+001
3.050167e+002, 8.993268e+001
3.054988e+002, 8.918220e+001
3.059810e+002, 8.908214e+001
3.064631e+002, 8.987206e+001
3.069452e+002, 9.019813e+001
3.074273e+002, 8.973773e+001
3.079094e+002, 8.896884e+001
3.083915e+002, 8.783659e+001
3.088737e+002, 8.650359e+001
3.093558e+002, 8.543217e+001
3.098379e+002, 8.512968e+001
3.103200e+002, 8.563344e+001
3.108021e+002, 8.613391e+001
3.112842e+002, 8.705869e+001
3.117664e+002, 8.750895e+001
3.122485e+002, 8.686681e+001
3.127306e+002, 8.550096e+001
3.132127e+002, 8.417021e+001
3.136948e+002, 8.331654e+001
3.141769e+002, 8.294744e+001
3.146591e+002, 8.319580e+001
3.151412e+002, 8.488689e+001
3.156233e+002, 8.603416e+001
3.161054e+002, 8.574754e+001
3.165875e+002, 8.473029e+001
3.170696e+002, 8.390636e+001
3.175518e+002, 8.372347e+001
3.180339e+002, 8.397221e+001
3.185160e+002, 8.413419e+001
3.189981e+002, 8.414635e+001
3.194802e+002, 8.420367e+001
3.199623e+002, 8.438274e+001
3.204445e+002, 8.460121e+001
3.209266e+002, 8.480034e+001
3.214087e+002, 8.496212e+001
3.218908e+002, 8.507237e+001
3.223729e+002, 8.515849e+001
3.228550e+002, 8.530854e+001
3.233372e+002, 8.511514e+001
3.238193e+002, 8.432248e+001
3.243014e+002, 8.332137e+001
3.247835e+002, 8.205503e+001
3.252656e+002, 8.065045e+001
3.257477e+002, 7.966950e+001
3.262299e+002, 7.991951e+001
3.267120e+002, 8.155866e+001
3.271941e+002, 8.275245e+001
3.276762e+002, 8.329134e+001
3.281583e+002, 8.348125e+001
3.286404e+002, 8.329939e+001
3.291226e+002, 8.286114e+001
3.296047e+002, 8.243360e+001
3.300868e+002, 8.221773e+001
3.305689e+002, 8.217927e+001
3.310510e+002, 8.207178e+001
3.315331e+002, 8.175816e+001
3.320153e+002, 8.159220e+001
3.324974e+002, 8.179808e+001
3.329795e+002, 8.218932e+001
3.334616e+002, 8.251450e+001
3.339437e+002, 8.267612e+001
3.344258e+002, 8.267082e+001
3.349080e+002, 8.243497e+001
3.353901e+002, 8.182703e+001
3.358722e+002, 8.136267e+001
3.363543e+002, 8.118259e+001
3.368365e+002, 8.120790e+001
3.373186e+002, 8.142483e+001
3.378007e+002, 8.183730e+001
3.382828e+002, 8.232013e+001
3.387649e+002, 8.276701e+001
3.392470e+002, 8.319602e+001
3.397292e+002, 8.343848e+001
3.402113e+002, 8.334065e+001
3.406934e+002, 8.312280e+001
3.411755e+002, 8.291505e+001
3.416576e+002, 8.272332e+001
3.421397e+002, 8.248811e+001
3.426219e+002, 8.205692e+001
3.431040e+002, 8.147182e+001
3.435861e+002, 8.122286e+001
3.440682e+002, 8.155196e+001
3.445503e+002, 8.194118e+001
3.450324e+002, 8.217833e+001
3.455146e+002, 8.224046e+001
3.459967e+002, 8.205299e+001
3.464788e+002, 8.134177e+001
3.469609e+002, 8.042962e+001
3.474430e+002, 8.014757e+001
3.479251e+002, 8.065260e+001
3.484073e+002, 8.136194e+001
3.488894e+002, 8.241219e+001
3.493715e+002, 8.336310e+001
3.498536e+002, 8.352834e+001
3.503357e+002, 8.243129e+001
3.508178e+002, 8.108977e+001
3.513000e+002, 8.080765e+001
3.517821e+002, 8.163965e+001
3.522642e+002, 8.243141e+001
3.527463e+002, 8.273871e+001
3.532284e+002, 8.288496e+001
3.537105e+002, 8.319476e+001
3.541927e+002, 8.369405e+001
3.546748e+002, 8.429024e+001
3.551569e+002, 8.500273e+001
3.556390e+002, 8.578362e+001
3.561211e+002, 8.637874e+001
3.566032e+002, 8.660815e+001
3.570854e+002, 8.687939e+001
3.575675e+002, 8.771268e+001
3.580496e+002, 8.898167e+001
3.585317e+002, 9.002242e+001
3.590138e+002, 9.030055e+001
3.594959e+002, 9.029555e+001
3.599781e+002, 9.078201e+001
3.604602e+002, 9.182919e+001
3.609423e+002, 9.315376e+001
3.614244e+002, 9.462566e+001
3.619065e+002, 9.622375e+001
3.623886e+002, 9.791008e+001
3.628708e+002, 9.977700e+001
3.633529e+002, 1.016246e+002
3.638350e+002, 1.031959e+002
3.643171e+002, 1.045418e+002
3.647992e+002, 1.060638e+002
3.652813e+002, 1.080129e+002
3.657635e+002, 1.101517e+002
3.662456e+002, 1.120448e+002
3.667277e+002, 1.136693e+002
3.672098e+002, 1.151191e+002
3.676919e+002, 1.164910e+002
3.681740e+002, 1.177022e+002
3.686562e+002, 1.185224e+002
3.691383e+002, 1.188450e+002
3.696204e+002, 1.190370e+002
3.701025e+002, 1.197704e+002
3.705846e+002, 1.211451e+002
3.710667e+002, 1.214440e+002
3.715489e+002, 1.198471e+002
3.720310e+002, 1.174854e+002
3.725131e+002, 1.152681e+002
3.729952e+002, 1.132700e+002
3.734773e+002, 1.113082e+002
3.739594e+002, 1.092102e+002
3.744416e+002, 1.070121e+002
3.749237e+002, 1.051820e+002
3.754058e+002, 1.042976e+002
3.758879e+002, 1.031294e+002
3.763700e+002, 1.009334e+002
3.768521e+002, 9.810533e+001
3.773343e+002, 9.544809e+001
3.778164e+002, 9.330107e+001
3.782985e+002, 9.159962e+001
3.787806e+002, 9.022208e+001
3.792627e+002, 8.937336e+001
3.797448e+002, 8.850804e+001
3.802270e+002, 8.738856e+001
3.807091e+002, 8.635464e+001
3.811912e+002, 8.580405e+001
3.816733e+002, 8.577684e+001
3.821554e+002, 8.590475e+001
3.826375e+002, 8.575479e+001
3.831197e+002, 8.521867e+001
3.836018e+002, 8.496855e+001
3.840839e+002, 8.530713e+001
3.845660e+002, 8.558592e+001
3.850481e+002, 8.553587e+001
3.855302e+002, 8.518153e+001
3.860124e+002, 8.458217e+001
3.864945e+002, 8.372765e+001
3.869766e+002, 8.275084e+001
3.874587e+002, 8.236372e+001
3.879408e+002, 8.327882e+001
3.884229e+002, 8.395746e+001
3.889051e+002, 8.396241e+001
3.893872e+002, 8.379260e+001
3.898693e+002, 8.401336e+001
3.903514e+002, 8.479552e+001
3.908335e+002, 8.582063e+001
3.913156e+002, 8.652657e+001
3.917978e+002, 8.664623e+001
3.922799e+002, 8.719081e+001
3.927620e+002, 8.857748e+001
3.932441e+002, 9.001625e+001
3.937262e+002, 9.113908e+001
3.942083e+002, 9.194818e+001
3.946905e+002, 9.262895e+001
3.951726e+002, 9.335783e+001
3.956547e+002, 9.410607e+001
3.961368e+002, 9.453516e+001
3.966189e+002, 9.425342e+001
3.971010e+002, 9.422234e+001
3.975832e+002, 9.515057e+001
3.980653e+002, 9.633882e+001
3.985474e+002, 9.688198e+001
3.990295e+002, 9.640702e+001
3.995116e+002, 9.524413e+001
3.999937e+002, 9.380040e+001
4.004759e+002, 9.199167e+001
4.009580e+002, 9.035597e+001
4.014401e+002, 8.927885e+001
4.019222e+002, 8.823781e+001
4.024043e+002, 8.667070e+001
4.028864e+002, 8.461082e+001
4.033686e+002, 8.291975e+001
4.038507e+002, 8.258422e+001
4.043328e+002, 8.323009e+001
4.048149e+002, 8.312936e+001
4.052970e+002, 8.186762e+001
4.057791e+002, 8.048225e+001
4.062613e+002, 7.965049e+001
4.067434e+002, 7.921010e+001
4.072255e+002, 7.886557e+001
4.077076e+002, 7.861620e+001
4.081897e+002, 7.834628e+001
4.086718e+002, 7.791980e+001
4.091540e+002, 7.733965e+001
4.096361e+002, 7.667429e+001
4.101182e+002, 7.581071e+001
4.106003e+002, 7.501188e+001
4.110824e+002, 7.475962e+001
4.115645e+002, 7.520040e+001
4.120467e+002, 7.557351e+001
4.125288e+002, 7.550352e+001
4.130109e+002, 7.515892e+001
4.134930e+002, 7.481996e+001
4.139751e+002, 7.454013e+001
4.144572e+002, 7.427748e+001
4.149394e+002, 7.391672e+001
4.154215e+002, 7.345939e+001
4.159036e+002, 7.342237e+001
4.163857e+002, 7.417033e+001
4.168678e+002, 7.504787e+001
4.173499e+002, 7.575300e+001
4.178321e+002, 7.623740e+001
4.183142e+002, 7.636575e+001
4.187963e+002, 7.598466e+001
4.192784e+002, 7.532967e+001
4.197605e+002, 7.522675e+001
4.202426e+002, 7.616429e+001
4.207248e+002, 7.696067e+001
4.212069e+002, 7.751438e+001
4.216890e+002, 7.785567e+001
4.221711e+002, 7.799144e+001
4.226532e+002, 7.793171e+001
4.231353e+002, 7.771675e+001
4.236175e+002, 7.737064e+001
4.240996e+002, 7.684187e+001
4.245817e+002, 7.645360e+001
4.250638e+002, 7.608018e+001
4.255459e+002, 7.595036e+001
4.260280e+002, 7.628791e+001
4.265102e+002, 7.692960e+001
4.269923e+002, 7.755592e+001
4.274744e+002, 7.797681e+001
4.279565e+002, 7.826494e+001
4.284386e+002, 7.865737e+001
4.289207e+002, 7.922978e+001
4.294029e+002, 7.977425e+001
4.298850e+002, 8.031245e+001
4.303671e+002, 8.078354e+001
4.308492e+002, 8.103697e+001
4.313313e+002, 8.109345e+001
4.318134e+002, 8.124868e+001
4.322956e+002, 8.194753e+001
4.327777e+002, 8.321397e+001
4.332598e+002, 8.402312e+001
4.337419e+002, 8.382748e+001
4.342241e+002, 8.386696e+001
4.347062e+002, 8.489214e+001
4.351883e+002, 8.652125e+001
4.356704e+002, 8.804955e+001
4.361525e+002, 8.925016e+001
4.366346e+002, 9.009050e+001
4.371168e+002, 9.021741e+001
4.375989e+002, 8.949200e+001
4.380810e+002, 8.954728e+001
4.385631e+002, 9.147077e+001
4.390452e+002, 9.407169e+001
4.395273e+002, 9.590302e+001
4.400095e+002, 9.684689e+001
4.404916e+002, 9.792494e+001
4.409737e+002, 9.968884e+001
4.414558e+002, 1.019699e+002
4.419379e+002, 1.044127e+002
4.424200e+002, 1.069791e+002
4.429022e+002, 1.097389e+002
4.433843e+002, 1.129328e+002
4.438664e+002, 1.164389e+002
4.443485e+002, 1.195686e+002
4.448306e+002, 1.218400e+002
4.453127e+002, 1.241676e+002
4.457949e+002, 1.271596e+002
4.462770e+002, 1.306358e+002
4.467591e+002, 1.340549e+002
4.472412e+002, 1.371688e+002
4.477233e+002, 1.403129e+002
4.482054e+002, 1.441587e+002
4.486876e+002, 1.491047e+002
4.491697e+002, 1.539378e+002
4.496518e+002, 1.582199e+002
4.501339e+002, 1.626383e+002
4.506160e+002, 1.679127e+002
4.510981e+002, 1.739126e+002
4.515803e+002, 1.799310e+002
4.520624e+002, 1.853851e+002
4.525445e+002, 1.902845e+002
4.530266e+002, 1.945943e+002
4.535087e+002, 1.981872e+002
4.539908e+002, 2.012537e+002
4.544730e+002, 2.035438e+002
4.549551e+002, 2.054126e+002
4.554372e+002, 2.074122e+002
4.559193e+002, 2.096555e+002
4.564014e+002, 2.114718e+002
4.568835e+002, 2.120016e+002
4.573657e+002, 2.112567e+002
4.578478e+002, 2.091121e+002
4.583299e+002, 2.043910e+002
4.588120e+002, 1.993046e+002
4.592941e+002, 1.952408e+002
4.597762e+002, 1.915371e+002
4.602584e+002, 1.864686e+002
4.607405e+002, 1.787604e+002
4.612226e+002, 1.694888e+002
4.617047e+002, 1.605684e+002
4.621868e+002, 1.517985e+002
4.626689e+002, 1.442068e+002
4.631511e+002, 1.387694e+002
4.636332e+002, 1.343335e+002
4.641153e+002, 1.296859e+002
4.645974e+002, 1.246765e+002
4.650795e+002, 1.201406e+002
4.655616e+002, 1.165732e+002
4.660438e+002, 1.138228e+002
4.665259e+002, 1.117088e+002
4.670080e+002, 1.103448e+002
4.674901e+002, 1.088440e+002
4.679722e+002, 1.063419e+002
4.684543e+002, 1.030815e+002
4.689365e+002, 1.003220e+002
4.694186e+002, 9.807278e+001
4.699007e+002, 9.637508e+001
4.703828e+002, 9.555080e+001
4.708649e+002, 9.529048e+001
4.713470e+002, 9.485699e+001
4.718292e+002, 9.396471e+001
4.723113e+002, 9.305785e+001
4.727934e+002, 9.286377e+001
4.732755e+002, 9.378459e+001
4.737576e+002, 9.426571e+001
4.742397e+002, 9.373936e+001
4.747219e+002, 9.328723e+001
4.752040e+002, 9.354133e+001
4.756861e+002, 9.443755e+001
4.761682e+002, 9.568456e+001
4.766503e+002, 9.713017e+001
4.771324e+002, 9.866850e+001
4.776146e+002, 9.986663e+001
4.780967e+002, 1.006903e+002
4.785788e+002, 1.012030e+002
4.790609e+002, 1.013282e+002
4.795430e+002, 1.012476e+002
4.800251e+002, 1.010865e+002
4.805073e+002, 1.008703e+002
4.809894e+002, 1.005693e+002
4.814715e+002, 1.001433e+002
4.819536e+002, 9.959941e+001
4.824357e+002, 9.909795e+001
4.829178e+002, 9.897874e+001
4.834000e+002, 9.827848e+001
4.838821e+002, 9.604381e+001
4.843642e+002, 9.321787e+001
4.848463e+002, 9.106502e+001
4.853284e+002, 8.999812e+001
4.858105e+002, 8.936700e+001
4.862927e+002, 8.871031e+001
4.867748e+002, 8.798595e+001
4.872569e+002, 8.685331e+001
4.877390e+002, 8.502528e+001
4.882211e+002, 8.320412e+001
4.887032e+002, 8.228219e+001
4.891854e+002, 8.209805e+001
4.896675e+002, 8.187550e+001
4.901496e+002, 8.154442e+001
4.906317e+002, 8.105746e+001
4.911138e+002, 8.023739e+001
4.915959e+002, 7.919930e+001
4.920781e+002, 7.836586e+001
4.925602e+002, 7.795644e+001
4.930423e+002, 7.782688e+001
4.935244e+002, 7.768840e+001
4.940065e+002, 7.775679e+001
4.944886e+002, 7.737073e+001
4.949708e+002, 7.583916e+001
4.954529e+002, 7.435191e+001
4.959350e+002, 7.402864e+001
4.964171e+002, 7.469162e+001
4.968992e+002, 7.520570e+001
4.973813e+002, 7.465074e+001
4.978635e+002, 7.326064e+001
4.983456e+002, 7.251211e+001
4.988277e+002, 7.287579e+001
4.993098e+002, 7.320295e+001
4.997919e+002, 7.335911e+001
5.002740e+002, 7.338414e+001
5.007562e+002, 7.327161e+001
5.012383e+002, 7.304111e+001
5.017204e+002, 7.281001e+001
5.022025e+002, 7.279159e+001
5.026846e+002, 7.294302e+001
5.031667e+002, 7.267683e+001
5.036489e+002, 7.170343e+001
5.041310e+002, 7.086095e+001
5.046131e+002, 7.059036e+001
5.050952e+002, 7.072981e+001
5.055773e+002, 7.113383e+001
5.060594e+002, 7.189260e+001
5.065416e+002, 7.260217e+001
5.070237e+002, 7.295000e+001
5.075058e+002, 7.297647e+001
5.079879e+002, 7.273125e+001
5.084700e+002, 7.213340e+001
5.089521e+002, 7.161719e+001
5.094343e+002, 7.179024e+001
5.099164e+002, 7.264684e+001
5.103985e+002, 7.300374e+001
5.108806e+002, 7.230943e+001
5.113627e+002, 7.156825e+001
5.118448e+002, 7.139031e+001
5.123270e+002, 7.159996e+001
5.128091e+002, 7.174442e+001
5.132912e+002, 7.162797e+001
5.137733e+002, 7.139715e+001
5.142554e+002, 7.132106e+001
5.147375e+002, 7.146827e+001
5.152197e+002, 7.161896e+001
5.157018e+002, 7.168691e+001
5.161839e+002, 7.183714e+001
5.166660e+002, 7.221470e+001
5.171481e+002, 7.274590e+001
5.176302e+002, 7.321989e+001
5.181124e+002, 7.348546e+001
5.185945e+002, 7.369208e+001
5.190766e+002, 7.436956e+001
5.195587e+002, 7.587434e+001
5.200408e+002, 7.667751e+001
5.205229e+002, 7.559673e+001
5.210051e+002, 7.432915e+001
5.214872e+002, 7.414857e+001
5.219693e+002, 7.494622e+001
5.224514e+002, 7.554286e+001
5.229335e+002, 7.500168e+001
5.234156e+002, 7.389253e+001
5.238978e+002, 7.321532e+001
5.243799e+002, 7.298351e+001
5.248620e+002, 7.311425e+001
5.253441e+002, 7.361320e+001
5.258262e+002, 7.443472e+001
5.263083e+002, 7.558772e+001
5.267905e+002, 7.737755e+001
5.272726e+002, 7.850578e+001
5.277547e+002, 7.796954e+001
5.282368e+002, 7.694040e+001
5.287189e+002, 7.662999e+001
5.292010e+002, 7.716472e+001
5.296832e+002, 7.820692e+001
5.301653e+002, 7.960410e+001
5.306474e+002, 8.124361e+001
5.311295e+002, 8.241119e+001
5.316116e+002, 8.256011e+001
5.320938e+002, 8.289928e+001
5.325759e+002, 8.365546e+001
5.330580e+002, 8.455930e+001
5.335401e+002, 8.526448e+001
5.340222e+002, 8.578526e+001
5.345043e+002, 8.654381e+001
5.349865e+002, 8.800536e+001
5.354686e+002, 9.010719e+001
5.359507e+002, 9.209254e+001
5.364328e+002, 9.394345e+001
5.369149e+002, 9.572354e+001
5.373970e+002, 9.743518e+001
5.378792e+002, 9.911043e+001
5.383613e+002, 1.007333e+002
5.388434e+002, 1.022929e+002
5.393255e+002, 1.039198e+002
5.398076e+002, 1.058375e+002
5.402897e+002, 1.078885e+002
5.407719e+002, 1.096360e+002
5.412540e+002, 1.109970e+002
5.417361e+002, 1.122259e+002
5.422182e+002, 1.133689e+002
5.427003e+002, 1.145373e+002
5.431824e+002, 1.161989e+002
5.436646e+002, 1.188405e+002
5.441467e+002, 1.213224e+002
5.446288e+002, 1.234621e+002
5.451109e+002, 1.251384e+002
5.455930e+002, 1.260055e+002
5.460751e+002, 1.260633e+002
5.465573e+002, 1.259411e+002
5.470394e+002, 1.262924e+002
5.475215e+002, 1.271317e+002
5.480036e+002, 1.278356e+002
5.484857e+002, 1.285018e+002
5.489678e+002, 1.289062e+002
5.494500e+002, 1.290091e+002
5.499321e+002, 1.288252e+002
5.504142e+002, 1.283052e+002
5.508963e+002, 1.274562e+002
5.513784e+002, 1.264924e+002
5.518605e+002, 1.256421e+002
5.523427e+002, 1.248958e+002
5.528248e+002, 1.240657e+002
5.533069e+002, 1.229949e+002
5.537890e+002, 1.221529e+002
5.542711e+002, 1.224655e+002
5.547532e+002, 1.229909e+002
5.552354e+002, 1.221749e+002
5.557175e+002, 1.193316e+002
5.561996e+002, 1.163006e+002
5.566817e+002, 1.140662e+002
5.571638e+002, 1.125181e+002
5.576459e+002, 1.114520e+002
5.581281e+002, 1.108382e+002
5.586102e+002, 1.106220e+002
5.590923e+002, 1.108718e+002
5.595744e+002, 1.115473e+002
5.600565e+002, 1.117715e+002
5.605386e+002, 1.113421e+002
5.610208e+002, 1.107950e+002
5.615029e+002, 1.101803e+002
5.619850e+002, 1.095485e+002
5.624671e+002, 1.088794e+002
5.629492e+002, 1.082054e+002
5.634313e+002, 1.077251e+002
5.639135e+002, 1.077526e+002
5.643956e+002, 1.082680e+002
5.648777e+002, 1.081478e+002
5.653598e+002, 1.068130e+002
5.658419e+002, 1.057615e+002
5.663240e+002, 1.054552e+002
5.668062e+002, 1.056219e+002
5.672883e+002, 1.061018e+002
5.677704e+002, 1.068671e+002
5.682525e+002, 1.075426e+002
5.687346e+002, 1.077869e+002
5.692167e+002, 1.077188e+002
5.696989e+002, 1.076781e+002
5.701810e+002, 1.077092e+002
5.706631e+002, 1.076382e+002
5.711452e+002, 1.073178e+002
5.716273e+002, 1.068197e+002
5.721094e+002, 1.063970e+002
5.725916e+002, 1.059953e+002
5.730737e+002, 1.057577e+002
5.735558e+002, 1.058597e+002
5.740379e+002, 1.060648e+002
5.745200e+002, 1.061679e+002
5.750021e+002, 1.061203e+002
5.754843e+002, 1.058357e+002
5.759664e+002, 1.051591e+002
5.764485e+002, 1.042628e+002
5.769306e+002, 1.042784e+002
5.774127e+002, 1.059849e+002
5.778948e+002, 1.073692e+002
5.783770e+002, 1.077654e+002
5.788591e+002, 1.080591e+002
5.793412e+002, 1.090463e+002
5.798233e+002, 1.106886e+002
5.803054e+002, 1.122574e+002
5.807875e+002, 1.131343e+002
5.812697e+002, 1.135915e+002
5.817518e+002, 1.142167e+002
5.822339e+002, 1.149871e+002
5.827161e+002, 1.162291e+002
5.831982e+002, 1.185683e+002
5.836803e+002, 1.209770e+002
5.841624e+002, 1.217365e+002
5.846445e+002, 1.206844e+002
5.851266e+002, 1.198979e+002
5.856088e+002, 1.202311e+002
5.860909e+002, 1.208178e+002
5.865730e+002, 1.208913e+002
5.870551e+002, 1.205259e+002
5.875372e+002, 1.201311e+002
5.880193e+002, 1.199097e+002
5.885015e+002, 1.198627e+002
5.889836e+002, 1.200615e+002
5.894657e+002, 1.209959e+002
5.899478e+002, 1.210813e+002
5.904299e+002, 1.200150e+002
5.909120e+002, 1.184944e+002
5.913942e+002, 1.166216e+002
5.918763e+002, 1.145847e+002
5.923584e+002, 1.126627e+002
5.928405e+002, 1.109723e+002
5.933226e+002, 1.095030e+002
5.938047e+002, 1.082701e+002
5.942869e+002, 1.072656e+002
5.947690e+002, 1.063949e+002
5.952511e+002, 1.058138e+002
5.957332e+002, 1.050429e+002
5.962153e+002, 1.033832e+002
5.966974e+002, 1.011311e+002
5.971796e+002, 9.932648e+001
5.976617e+002, 9.859628e+001
5.981438e+002, 9.782417e+001
5.986259e+002, 9.585388e+001
5.991080e+002, 9.358099e+001
5.995901e+002, 9.285443e+001
6.000723e+002, 9.405663e+001
6.005544e+002, 9.556716e+001
6.010365e+002, 9.556277e+001
6.015186e+002, 9.398891e+001
6.020007e+002, 9.340742e+001
6.024828e+002, 9.521082e+001
6.029650e+002, 9.632365e+001
6.034471e+002, 9.574022e+001
6.039292e+002, 9.452145e+001
6.044113e+002, 9.366166e+001
6.048934e+002, 9.336800e+001
6.053755e+002, 9.332451e+001
6.058577e+002, 9.357222e+001
6.063398e+002, 9.386439e+001
6.068219e+002, 9.321819e+001
6.073040e+002, 9.152770e+001
6.077861e+002, 8.945332e+001
6.082682e+002, 8.700978e+001
6.087504e+002, 8.454208e+001
6.092325e+002, 8.258922e+001
6.097146e+002, 8.116148e+001
6.101967e+002, 8.011620e+001
6.106788e+002, 7.906499e+001
6.111609e+002, 7.864095e+001
6.116431e+002, 7.973495e+001
6.121252e+002, 8.201211e+001
6.126073e+002, 8.436343e+001
6.130894e+002, 8.622614e+001
6.135715e+002, 8.768195e+001
6.140536e+002, 8.889371e+001
6.145358e+002, 8.981084e+001
6.150179e+002, 9.059352e+001
6.155000e+002, 9.130040e+001
6.159821e+002, 9.181634e+001
6.164642e+002, 9.204913e+001
6.169464e+002, 9.206325e+001
6.174285e+002, 9.190913e+001
6.179106e+002, 9.152312e+001
6.183927e+002, 9.130866e+001
6.188748e+002, 9.189433e+001
6.193569e+002, 9.311201e+001
6.198391e+002, 9.407839e+001
6.203212e+002, 9.464534e+001
6.208033e+002, 9.499830e+001
6.212854e+002, 9.539342e+001
6.217675e+002, 9.569450e+001
6.222496e+002, 9.524477e+001
6.227318e+002, 9.347383e+001
6.232139e+002, 9.171908e+001
6.236960e+002, 9.046320e+001
6.241781e+002, 8.933810e+001
6.246602e+002, 8.795271e+001
6.251423e+002, 8.627290e+001
6.256245e+002, 8.451797e+001
6.261066e+002, 8.286894e+001
6.265887e+002, 8.127945e+001
6.270708e+002, 7.940176e+001
6.275529e+002, 7.682882e+001
6.280350e+002, 7.497858e+001
6.285172e+002, 7.485393e+001
6.289993e+002, 7.499513e+001
6.294814e+002, 7.441899e+001
6.299635e+002, 7.321376e+001
6.304456e+002, 7.211351e+001
6.309277e+002, 7.161008e+001
6.314099e+002, 7.122124e+001
6.318920e+002, 7.012751e+001
6.323741e+002, 6.861563e+001
6.328562e+002, 6.804637e+001
6.333383e+002, 6.896453e+001
6.338204e+002, 7.013876e+001
6.343026e+002, 6.996997e+001
6.347847e+002, 6.820061e+001
6.352668e+002, 6.754921e+001
6.357489e+002, 6.941872e+001
6.362310e+002, 7.056454e+001
6.367131e+002, 6.922380e+001
6.371953e+002, 6.707334e+001
6.376774e+002, 6.621553e+001
6.381595e+002, 6.701328e+001
6.386416e+002, 6.809737e+001
6.391237e+002, 6.795116e+001
6.396058e+002, 6.694807e+001
6.400880e+002, 6.716787e+001
6.405701e+002, 6.893382e+001
6.410522e+002, 7.066029e+001
6.415343e+002, 7.200371e+001
6.420164e+002, 7.277310e+001
6.424985e+002, 7.256450e+001
6.429807e+002, 7.128381e+001
6.434628e+002, 7.044240e+001
6.439449e+002, 7.064397e+001
6.444270e+002, 7.129102e+001
6.449091e+002, 7.214024e+001
6.453912e+002, 7.302055e+001
6.458734e+002, 7.363774e+001
6.463555e+002, 7.387025e+001
6.468376e+002, 7.365063e+001
6.473197e+002, 7.277048e+001
6.478018e+002, 7.102547e+001
6.482839e+002, 6.976994e+001
6.487661e+002, 6.945259e+001
6.492482e+002, 6.908257e+001
6.497303e+002, 6.815710e+001
6.502124e+002, 6.710736e+001
6.506945e+002, 6.650495e+001
6.511766e+002, 6.648375e+001
6.516588e+002, 6.661225e+001
6.521409e+002, 6.678288e+001
6.526230e+002, 6.681225e+001
6.531051e+002, 6.612783e+001
6.535872e+002, 6.472890e+001
6.540693e+002, 6.359875e+001
6.545515e+002, 6.331160e+001
6.550336e+002, 6.349941e+001
6.555157e+002, 6.336953e+001
6.559978e+002, 6.263033e+001
6.564799e+002, 6.227431e+001
6.569620e+002, 6.271941e+001
6.574442e+002, 6.314141e+001
6.579263e+002, 6.281755e+001
6.584084e+002, 6.222264e+001
6.588905e+002, 6.238126e+001
6.593726e+002, 6.370091e+001
6.598547e+002, 6.523548e+001
6.603369e+002, 6.555621e+001
6.608190e+002, 6.477494e+001
6.613011e+002, 6.462820e+001
6.617832e+002, 6.542742e+001
6.622653e+002, 6.623607e+001
6.627474e+002, 6.647623e+001
6.632296e+002, 6.641637e+001
6.637117e+002, 6.661769e+001
6.641938e+002, 6.720422e+001
6.646759e+002, 6.766969e+001
6.651580e+002, 6.745179e+001
6.656401e+002, 6.735245e+001
6.661223e+002, 6.818234e+001
6.666044e+002, 6.981218e+001
6.670865e+002, 7.179675e+001
6.675686e+002, 7.394420e+001
6.680507e+002, 7.583650e+001
6.685328e+002, 7.647614e+001
6.690150e+002, 7.536344e+001
6.694971e+002, 7.516234e+001
6.699792e+002, 7.631903e+001
6.704613e+002, 7.791544e+001
6.709434e+002, 7.963420e+001
6.714255e+002, 8.146680e+001
6.719077e+002, 8.338855e+001
6.723898e+002, 8.536995e+001
6.728719e+002, 8.759106e+001
6.733540e+002, 9.052833e+001
6.738361e+002, 9.361449e+001
6.743182e+002, 9.582233e+001
6.748004e+002, 9.718324e+001
6.752825e+002, 9.857393e+001
6.757646e+002, 1.004851e+002
6.762467e+002, 1.027320e+002
6.767288e+002, 1.048396e+002
6.772109e+002, 1.062592e+002
6.776931e+002, 1.088845e+002
6.781752e+002, 1.137650e+002
6.786573e+002, 1.186519e+002
6.791394e+002, 1.226300e+002
6.796215e+002, 1.259431e+002
6.801036e+002, 1.288671e+002
6.805858e+002, 1.314311e+002
6.810679e+002, 1.343301e+002
6.815500e+002, 1.385414e+002
6.820321e+002, 1.435565e+002
6.825142e+002, 1.481305e+002
6.829963e+002, 1.521537e+002
6.834785e+002, 1.553707e+002
6.839606e+002, 1.575451e+002
6.844427e+002, 1.589499e+002
6.849248e+002, 1.602231e+002
6.854069e+002, 1.613625e+002
6.858890e+002, 1.623577e+002
6.863712e+002, 1.635458e+002
6.868533e+002, 1.642569e+002
6.873354e+002, 1.644434e+002
6.878175e+002, 1.638152e+002
6.882996e+002, 1.616219e+002
6.887817e+002, 1.576072e+002
6.892639e+002, 1.532488e+002
6.897460e+002, 1.506460e+002
6.902281e+002, 1.494318e+002
6.907102e+002, 1.469797e+002
6.911923e+002, 1.428809e+002
6.916744e+002, 1.390227e+002
6.921566e+002, 1.366308e+002
6.926387e+002, 1.348639e+002
6.931208e+002, 1.320736e+002
6.936029e+002, 1.280581e+002
6.940850e+002, 1.240516e+002
6.945671e+002, 1.200531e+002
6.950493e+002, 1.163154e+002
6.955314e+002, 1.130434e+002
6.960135e+002, 1.101493e+002
6.964956e+002, 1.074749e+002
6.969777e+002, 1.049568e+002
6.974598e+002, 1.025180e+002
6.979420e+002, 1.000165e+002
6.984241e+002, 9.746773e+001
6.989062e+002, 9.539762e+001
6.993883e+002, 9.411766e+001
6.998704e+002, 9.241638e+001
7.003525e+002, 8.929897e+001
7.008347e+002, 8.584389e+001
7.013168e+002, 8.355266e+001
7.017989e+002, 8.253337e+001
7.022810e+002, 8.159541e+001
7.027631e+002, 8.036880e+001
7.032452e+002, 7.918406e+001
7.037274e+002, 7.837936e+001
7.042095e+002, 7.777811e+001
7.046916e+002, 7.704131e+001
7.051737e+002, 7.605816e+001
7.056558e+002, 7.487326e+001
7.061379e+002, 7.344792e+001
7.066201e+002, 7.182169e+001
7.071022e+002, 7.076634e+001
7.075843e+002, 7.042799e+001
7.080664e+002, 7.031697e+001
7.085485e+002, 7.064959e+001
7.090306e+002, 7.087004e+001
7.095128e+002, 7.041597e+001
7.099949e+002, 6.930988e+001
7.104770e+002, 6.808568e+001
7.109591e+002, 6.664151e+001
7.114412e+002, 6.539872e+001
7.119233e+002, 6.478416e+001
7.124055e+002, 6.456548e+001
7.128876e+002, 6.428645e+001
7.133697e+002, 6.384478e+001
7.138518e+002, 6.350865e+001
7.143339e+002, 6.361092e+001
7.148160e+002, 6.402908e+001
7.152982e+002, 6.381679e+001
7.157803e+002, 6.272675e+001
7.162624e+002, 6.157128e+001
7.167445e+002, 6.007668e+001
7.172266e+002, 5.896317e+001
7.177087e+002, 5.902211e+001
7.181909e+002, 5.995931e+001
7.186730e+002, 6.052383e+001
7.191551e+002, 6.001343e+001
7.196372e+002, 5.944380e+001
7.201193e+002, 5.972684e+001
7.206014e+002, 6.033452e+001
7.210836e+002, 6.021052e+001
7.215657e+002, 5.928561e+001
7.220478e+002, 5.850985e+001
7.225299e+002, 5.864013e+001
7.230120e+002, 5.937584e+001
7.234941e+002, 5.959452e+001
7.239763e+002, 5.903367e+001
7.244584e+002, 5.869419e+001
7.249405e+002, 5.892678e+001
7.254226e+002, 5.912933e+001
7.259047e+002, 5.886301e+001
7.263868e+002, 5.835399e+001
7.268690e+002, 5.809233e+001
7.273511e+002, 5.823762e+001
7.278332e+002, 5.851576e+001
7.283153e+002, 5.887043e+001
7.287974e+002, 5.920348e+001
7.292795e+002, 5.936160e+001
7.297617e+002, 5.935622e+001
7.302438e+002, 5.932647e+001
7.307259e+002, 5.935169e+001
7.312080e+002, 5.936736e+001
7.316901e+002, 5.924386e+001
7.321722e+002, 5.896882e+001
7.326544e+002, 5.858848e+001
7.331365e+002, 5.785154e+001
7.336186e+002, 5.736105e+001
7.341007e+002, 5.748275e+001
7.345828e+002, 5.791193e+001
7.350649e+002, 5.827709e+001
7.355471e+002, 5.852248e+001
7.360292e+002, 5.879113e+001
7.365113e+002, 5.932073e+001
7.369934e+002, 5.976878e+001
7.374755e+002, 5.969733e+001
7.379576e+002, 5.925599e+001
7.384398e+002, 5.888295e+001
7.389219e+002, 5.873436e+001
7.394040e+002, 5.871907e+001
7.398861e+002, 5.877628e+001
7.403682e+002, 5.889888e+001
7.408503e+002, 5.858644e+001
7.413325e+002, 5.743290e+001
7.418146e+002, 5.669981e+001
7.422967e+002, 5.706285e+001
7.427788e+002, 5.775411e+001
7.432609e+002, 5.822009e+001
7.437430e+002, 5.844521e+001
7.442252e+002, 5.850920e+001
7.447073e+002, 5.808718e+001
7.451894e+002, 5.788051e+001
7.456715e+002, 5.879019e+001
7.461536e+002, 6.003309e+001
7.466357e+002, 6.016668e+001
7.471179e+002, 5.909428e+001
7.476000e+002, 5.802183e+001
7.480821e+002, 5.789023e+001
7.485642e+002, 5.843660e+001
7.490463e+002, 5.876268e+001
7.495284e+002, 5.875560e+001
7.500106e+002, 5.907717e+001
7.504927e+002, 6.004499e+001
7.509748e+002, 6.104515e+001
7.514569e+002, 6.174857e+001
7.519390e+002, 6.216961e+001
7.524211e+002, 6.224107e+001
7.529033e+002, 6.165771e+001
7.533854e+002, 6.143563e+001
7.538675e+002, 6.220472e+001
7.543496e+002, 6.329823e+001
7.548317e+002, 6.417528e+001
7.553138e+002, 6.481575e+001
7.557960e+002, 6.536379e+001
7.562781e+002, 6.588577e+001
7.567602e+002, 6.631093e+001
7.572423e+002, 6.638509e+001
7.577244e+002, 6.613399e+001
7.582065e+002, 6.664197e+001
7.586887e+002, 6.825757e+001
7.591708e+002, 6.946986e+001
7.596529e+002, 6.953191e+001
7.601350e+002, 6.893539e+001
7.606171e+002, 6.824254e+001
7.610992e+002, 6.740175e+001
7.615814e+002, 6.706781e+001
7.620635e+002, 6.798609e+001
7.625456e+002, 6.867802e+001
7.630277e+002, 6.838502e+001
7.635098e+002, 6.751085e+001
7.639919e+002, 6.656786e+001
7.644741e+002, 6.566095e+001
7.649562e+002, 6.458039e+001
7.654383e+002, 6.296936e+001
7.659204e+002, 6.133668e+001
7.664025e+002, 6.112975e+001
7.668846e+002, 6.228594e+001
7.673668e+002, 6.287785e+001
7.678489e+002, 6.242864e+001
7.683310e+002, 6.159725e+001
7.688131e+002, 6.086366e+001
7.692952e+002, 6.021069e+001
7.697773e+002, 5.953483e+001
7.702595e+002, 5.842982e+001
7.707416e+002, 5.789094e+001
7.712237e+002, 5.852686e+001
7.717058e+002, 5.923372e+001
7.721879e+002, 5.942129e+001
7.726700e+002, 5.911165e+001
7.731522e+002, 5.841273e+001
7.736343e+002, 5.733859e+001
7.741164e+002, 5.621550e+001
7.745985e+002, 5.520256e+001
7.750806e+002, 5.441214e+001
7.755627e+002, 5.416386e+001
7.760449e+002, 5.444417e+001
7.765270e+002, 5.493994e+001
7.770091e+002, 5.555039e+001
7.774912e+002, 5.615298e+001
7.779733e+002, 5.655831e+001
7.784554e+002, 5.675196e+001
7.789376e+002, 5.689213e+001
7.794197e+002, 5.692803e+001
7.799019e+002, 5.698038e+001
7.803840e+002, 5.714017e+001
7.808661e+002, 5.727825e+001
7.813482e+002, 5.728983e+001
7.818303e+002, 5.716958e+001
7.823124e+002, 5.694237e+001
7.827946e+002, 5.639011e+001
7.832767e+002, 5.601302e+001
7.837588e+002, 5.639013e+001
7.842409e+002, 5.716320e+001
7.847230e+002, 5.761717e+001
7.852051e+002, 5.770435e+001
7.856873e+002, 5.803225e+001
7.861694e+002, 5.908636e+001
7.866515e+002, 6.040518e+001
7.871336e+002, 6.068156e+001
7.876157e+002, 5.965493e+001
7.880978e+002, 5.902208e+001
7.885800e+002, 5.895361e+001
7.890621e+002, 5.919413e+001
7.895442e+002, 5.991244e+001
7.900263e+002, 6.072784e+001
7.905084e+002, 6.091152e+001
7.909905e+002, 6.022201e+001
7.914727e+002, 6.000718e+001
7.919548e+002, 6.122413e+001
7.924369e+002, 6.238590e+001
7.929190e+002, 6.217710e+001
7.934011e+002, 6.140845e+001
7.938832e+002, 6.157388e+001
7.943654e+002, 6.295965e+001
7.948475e+002, 6.452223e+001
7.953296e+002, 6.530162e+001
7.958117e+002, 6.560661e+001
7.962938e+002, 6.630508e+001
7.967759e+002, 6.738508e+001
7.972581e+002, 6.824214e+001
7.977402e+002, 6.869209e+001
7.982223e+002, 6.902522e+001
7.987044e+002, 6.942665e+001
7.991865e+002, 6.992558e+001
7.996686e+002, 7.068726e+001
8.001508e+002, 7.216113e+001
8.006329e+002, 7.325132e+001
8.011150e+002, 7.369035e+001
8.015971e+002, 7.399033e+001
8.020792e+002, 7.432753e+001
8.025613e+002, 7.477266e+001
8.030435e+002, 7.550608e+001
8.035256e+002, 7.661562e+001
8.040077e+002, 7.750682e+001
8.044898e+002, 7.742260e+001
8.049719e+002, 7.704174e+001
8.054540e+002, 7.732369e+001
8.059362e+002, 7.822099e+001
8.064183e+002, 7.930990e+001
8.069004e+002, 8.044109e+001
8.073825e+002, 8.188625e+001
8.078646e+002, 8.403291e+001
8.083467e+002, 8.680907e+001
8.088289e+002, 8.923973e+001
8.093110e+002, 9.110294e+001
8.097931e+002, 9.321935e+001
8.102752e+002, 9.566304e+001
8.107573e+002, 9.851695e+001
8.112394e+002, 1.019110e+002
8.117216e+002, 1.057437e+002
8.122037e+002, 1.096793e+002
8.126858e+002, 1.139707e+002
8.131679e+002, 1.178510e+002
8.136500e+002, 1.206996e+002
8.141321e+002, 1.233157e+002
8.146143e+002, 1.262477e+002
8.150964e+002, 1.295364e+002
8.155785e+002, 1.330889e+002
8.160606e+002, 1.368592e+002
8.165427e+002, 1.409761e+002
8.170248e+002, 1.454574e+002
8.175070e+002, 1.504110e+002
8.179891e+002, 1.562401e+002
8.184712e+002, 1.629707e+002
8.189533e+002, 1.701297e+002
8.194354e+002, 1.772780e+002
8.199175e+002, 1.856975e+002
8.203997e+002, 1.968979e+002
8.208818e+002, 2.108538e+002
8.213639e+002, 2.261131e+002
8.218460e+002, 2.425051e+002
8.223281e+002, 2.605455e+002
8.228102e+002, 2.791465e+002
8.232924e+002, 3.004438e+002
8.237745e+002, 3.255172e+002
8.242566e+002, 3.544248e+002
8.247387e+002, 3.863723e+002
8.252208e+002, 4.204558e+002
8.257029e+002, 4.603599e+002
8.261851e+002, 5.087455e+002
8.266672e+002, 5.638019e+002
8.271493e+002, 6.199968e+002
8.276314e+002, 6.813436e+002
8.281135e+002, 7.574635e+002
8.285956e+002, 8.525665e+002
8.290778e+002, 9.674592e+002
8.295599e+002, 1.103301e+003
8.300420e+002, 1.259544e+003
8.305241e+002, 1.439063e+003
8.310062e+002, 1.644437e+003
8.314883e+002, 1.857192e+003
8.319705e+002, 2.094543e+003
8.324526e+002, 2.293365e+003
8.329347e+002, 2.406528e+003
8.334168e+002, 2.430949e+003
8.338989e+002, 2.336559e+003
8.343810e+002, 2.054058e+003
8.348632e+002, 1.764537e+003
8.353453e+002, 1.451843e+003
8.358274e+002, 1.166697e+003
8.363095e+002, 9.376800e+002
8.367916e+002, 7.592607e+002
8.372737e+002, 6.184507e+002
8.377559e+002, 5.114308e+002
8.382380e+002, 4.295170e+002
8.387201e+002, 3.725386e+002
8.392022e+002, 3.326734e+002
8.396843e+002, 3.021229e+002
8.401664e+002, 2.794064e+002
8.406486e+002, 2.614103e+002
8.411307e+002, 2.471836e+002
8.416128e+002, 2.363228e+002
8.420949e+002, 2.286730e+002
8.425770e+002, 2.238949e+002
8.430591e+002, 2.208314e+002
8.435413e+002, 2.198604e+002
8.440234e+002, 2.189117e+002
8.445055e+002, 2.187262e+002
8.449876e+002, 2.165061e+002
8.454697e+002, 2.102021e+002
8.459518e+002, 2.003941e+002
8.464340e+002, 1.888000e+002
8.469161e+002, 1.749251e+002
8.473982e+002, 1.607344e+002
8.478803e+002, 1.449361e+002
8.483624e+002, 1.304229e+002
8.488445e+002, 1.185938e+002
8.493267e+002, 1.089531e+002
8.498088e+002, 1.009599e+002
8.502909e+002, 9.437027e+001
8.507730e+002, 8.877611e+001
8.512551e+002, 8.403678e+001
8.517372e+002, 8.001806e+001
8.522194e+002, 7.665975e+001
8.527015e+002, 7.384626e+001
8.531836e+002, 7.139854e+001
8.536657e+002, 6.923483e+001
8.541478e+002, 6.698940e+001
8.546299e+002, 6.433565e+001
8.551121e+002, 6.174790e+001
8.555942e+002, 6.041232e+001
8.560763e+002, 6.052771e+001
8.565584e+002, 6.027956e+001
8.570405e+002, 5.950830e+001
8.575226e+002, 5.862608e+001
8.580048e+002, 5.760522e+001
8.584869e+002, 5.673604e+001
8.589690e+002, 5.657354e+001
8.594511e+002, 5.717745e+001
8.599332e+002, 5.740641e+001
8.604153e+002, 5.678472e+001
8.608975e+002, 5.634299e+001
8.613796e+002, 5.681438e+001
8.618617e+002, 5.722298e+001
8.623438e+002, 5.647887e+001
8.628259e+002, 5.490199e+001
8.633080e+002, 5.364991e+001
8.637902e+002, 5.318796e+001
8.642723e+002, 5.317672e+001
8.647544e+002, 5.364748e+001
8.652365e+002, 5.421204e+001
8.657186e+002, 5.419962e+001
8.662007e+002, 5.369864e+001
8.666829e+002, 5.322054e+001
8.671650e+002, 5.295853e+001
8.676471e+002, 5.269139e+001
8.681292e+002, 5.210017e+001
8.686113e+002, 5.129443e+001
8.690934e+002, 5.098112e+001
8.695756e+002, 5.123193e+001
8.700577e+002, 5.144960e+001
8.705398e+002, 5.148064e+001
8.710219e+002, 5.153645e+001
8.715040e+002, 5.193217e+001
8.719861e+002, 5.244918e+001
8.724683e+002, 5.224611e+001
8.729504e+002, 5.069651e+001
8.734325e+002, 4.959344e+001
8.739146e+002, 4.914680e+001
8.743967e+002, 4.892450e+001
8.748788e+002, 4.893407e+001
8.753610e+002, 4.896032e+001
8.758431e+002, 4.864536e+001
8.763252e+002, 4.798438e+001
8.768073e+002, 4.756268e+001
8.772894e+002, 4.781848e+001
8.777715e+002, 4.824712e+001
8.782537e+002, 4.862876e+001
8.787358e+002, 4.884634e+001
8.792179e+002, 4.861137e+001
8.797000e+002, 4.800076e+001
8.801821e+002, 4.744895e+001
8.806642e+002, 4.720068e+001
8.811464e+002, 4.714103e+001
8.816285e+002, 4.705515e+001
8.821106e+002, 4.699104e+001
8.825927e+002, 4.730225e+001
8.830748e+002, 4.801502e+001
8.835569e+002, 4.862281e+001
8.840391e+002, 4.891160e+001
8.845212e+002, 4.910394e+001
8.850033e+002, 4.943832e+001
8.854854e+002, 4.991690e+001
8.859675e+002, 5.064373e+001
8.864496e+002, 5.186111e+001
8.869318e+002, 5.283461e+001
8.874139e+002, 5.311232e+001
8.878960e+002, 5.350623e+001
8.883781e+002, 5.460593e+001
8.888602e+002, 5.610529e+001
8.893423e+002, 5.725282e+001
8.898245e+002, 5.769691e+001
8.903066e+002, 5.903532e+001
8.907887e+002, 6.234145e+001
8.912708e+002, 6.598351e+001
8.917529e+002, 6.926405e+001
8.922350e+002, 7.214526e+001
8.927172e+002, 7.463362e+001
8.931993e+002, 7.672768e+001
8.936814e+002, 7.838236e+001
8.941635e+002, 7.932683e+001
8.946456e+002, 8.032124e+001
8.951277e+002, 8.266764e+001
8.956099e+002, 8.563711e+001
8.960920e+002, 8.766740e+001
8.965741e+002, 8.860100e+001
8.970562e+002, 8.870987e+001
8.975383e+002, 8.812592e+001
8.980204e+002, 8.675605e+001
8.985026e+002, 8.409660e+001
8.989847e+002, 8.036777e+001
8.994668e+002, 7.869679e+001
8.999489e+002, 7.948927e+001
9.004310e+002, 7.998898e+001
9.009131e+002, 7.940573e+001
9.013953e+002, 7.857606e+001
9.018774e+002, 7.830499e+001
9.023595e+002, 7.836942e+001
9.028416e+002, 7.778030e+001
9.033237e+002, 7.667123e+001
9.038058e+002, 7.464215e+001
9.042880e+002, 7.101237e+001
9.047701e+002, 6.729073e+001
9.052522e+002, 6.374984e+001
9.057343e+002, 6.063297e+001
9.062164e+002, 5.840773e+001
9.066985e+002, 5.704524e+001
9.071807e+002, 5.555582e+001
9.076628e+002, 5.339051e+001
9.081449e+002, 5.123735e+001
9.086270e+002, 4.917110e+001
9.091091e+002, 4.752687e+001
9.095912e+002, 4.685520e+001
9.100734e+002, 4.696357e+001
9.105555e+002, 4.722228e+001
9.110376e+002, 4.736309e+001
9.115197e+002, 4.735170e+001
9.120018e+002, 4.700842e+001
9.124839e+002, 4.654622e+001
9.129661e+002, 4.647002e+001
9.134482e+002, 4.670806e+001
9.139303e+002, 4.682081e+001
9.144124e+002, 4.669388e+001
9.148945e+002, 4.666472e+001
9.153766e+002, 4.709100e+001
9.158588e+002, 4.771406e+001
9.163409e+002, 4.762342e+001
9.168230e+002, 4.671479e+001
9.173051e+002, 4.610241e+001
9.177872e+002, 4.592684e+001
9.182693e+002, 4.593322e+001
9.187515e+002, 4.617033e+001
9.192336e+002, 4.629132e+001
9.197157e+002, 4.563201e+001
9.201978e+002, 4.404309e+001
9.206799e+002, 4.313585e+001
9.211620e+002, 4.348315e+001
9.216442e+002, 4.372528e+001
9.221263e+002, 4.328092e+001
9.226084e+002, 4.305282e+001
9.230905e+002, 4.407754e+001
9.235726e+002, 4.571092e+001
9.240547e+002, 4.631329e+001
9.245369e+002, 4.527039e+001
9.250190e+002, 4.450739e+001
9.255011e+002, 4.506740e+001
9.259832e+002, 4.575292e+001
9.264653e+002, 4.574275e+001
9.269474e+002, 4.536808e+001
9.274296e+002, 4.509834e+001
9.279117e+002, 4.503062e+001
9.283938e+002, 4.509016e+001
9.288759e+002, 4.527046e+001
9.293580e+002, 4.547257e+001
9.298401e+002, 4.542368e+001
9.303223e+002, 4.538805e+001
9.308044e+002, 4.594342e+001
9.312865e+002, 4.702476e+001
9.317686e+002, 4.825279e+001
9.322507e+002, 4.945680e+001
9.327328e+002, 5.037290e+001
9.332150e+002, 5.059078e+001
9.336971e+002, 5.034022e+001
9.341792e+002, 5.061575e+001
9.346613e+002, 5.141488e+001
9.351434e+002, 5.176464e+001
9.356255e+002, 5.140736e+001
9.361077e+002, 5.115304e+001
9.365898e+002, 5.158845e+001
9.370719e+002, 5.236872e+001
9.375540e+002, 5.270216e+001
9.380361e+002, 5.246369e+001
9.385182e+002, 5.249067e+001
9.390004e+002, 5.307887e+001
9.394825e+002, 5.332827e+001
9.399646e+002, 5.245116e+001
9.404467e+002, 5.167225e+001
9.409288e+002, 5.263206e+001
9.414109e+002, 5.476075e+001
9.418931e+002, 5.543856e+001
9.423752e+002, 5.338575e+001
9.428573e+002, 5.208595e+001
9.433394e+002, 5.268234e+001
9.438215e+002, 5.331113e+001
9.443036e+002, 5.275856e+001
9.447858e+002, 5.182390e+001
9.452679e+002, 5.168761e+001
9.457500e+002, 5.242828e+001
9.462321e+002, 5.308055e+001
9.467142e+002, 5.319619e+001
9.471964e+002, 5.316451e+001
9.476785e+002, 5.295223e+001
9.481606e+002, 5.291431e+001
9.486427e+002, 5.380370e+001
9.491248e+002, 5.517589e+001
9.496069e+002, 5.562460e+001
9.500891e+002, 5.468325e+001
9.505712e+002, 5.393404e+001
9.510533e+002, 5.520781e+001
9.515354e+002, 5.735350e+001
9.520175e+002, 5.834322e+001
9.524996e+002, 5.862704e+001
9.529818e+002, 5.951808e+001
9.534639e+002, 6.122030e+001
9.539460e+002, 6.317200e+001
9.544281e+002, 6.502097e+001
9.549102e+002, 6.694328e+001
9.553923e+002, 6.927699e+001
9.558745e+002, 7.198772e+001
9.563566e+002, 7.467645e+001
9.568387e+002, 7.734879e+001
9.573208e+002, 7.982026e+001
9.578029e+002, 8.203159e+001
9.582850e+002, 8.408827e+001
9.587672e+002, 8.608048e+001
9.592493e+002, 8.800688e+001
9.597314e+002, 8.997997e+001
9.602135e+002, 9.231818e+001
9.606956e+002, 9.351094e+001
9.611777e+002, 9.314933e+001
9.616599e+002, 9.233768e+001
9.621420e+002, 9.135362e+001
9.626241e+002, 9.031013e+001
9.631062e+002, 8.912949e+001
9.635883e+002, 8.781862e+001
9.640704e+002, 8.762795e+001
9.645526e+002, 8.873030e+001
9.650347e+002, 9.064458e+001
9.655168e+002, 9.390369e+001
9.659989e+002, 9.735796e+001
9.664810e+002, 9.999523e+001
9.669631e+002, 1.026022e+002
9.674453e+002, 1.060977e+002
9.679274e+002, 1.105827e+002
9.684095e+002, 1.172838e+002
9.688916e+002, 1.274475e+002
9.693737e+002, 1.388022e+002
9.698558e+002, 1.498536e+002
9.703380e+002, 1.621011e+002
9.708201e+002, 1.762701e+002
9.713022e+002, 1.929380e+002
9.717843e+002, 2.127140e+002
9.722664e+002, 2.356014e+002
9.727485e+002, 2.635030e+002
9.732307e+002, 2.985407e+002
9.737128e+002, 3.382868e+002
9.741949e+002, 3.827999e+002
9.746770e+002, 4.291535e+002
9.751591e+002, 4.768038e+002
9.756412e+002, 5.223783e+002
9.761234e+002, 5.564835e+002
9.766055e+002, 5.747242e+002
9.770876e+002, 5.747147e+002
9.775698e+002, 5.495796e+002
9.780519e+002, 5.056755e+002
9.785340e+002, 4.517389e+002
9.790161e+002, 3.914326e+002
9.794982e+002, 3.357298e+002
9.799803e+002, 2.876818e+002
9.804625e+002, 2.469989e+002
9.809446e+002, 2.136234e+002
9.814267e+002, 1.867100e+002
9.819088e+002, 1.651127e+002
9.823909e+002, 1.485187e+002
9.828730e+002, 1.335177e+002
9.833552e+002, 1.199391e+002
9.838373e+002, 1.083582e+002
9.843194e+002, 9.900666e+001
9.848015e+002, 9.168816e+001
9.852836e+002, 8.633418e+001
9.857657e+002, 8.266792e+001
9.862479e+002, 7.929356e+001
9.867300e+002, 7.620531e+001
9.872121e+002, 7.341543e+001
9.876942e+002, 7.087303e+001
9.881763e+002, 6.873224e+001
9.886584e+002, 6.711169e+001
9.891406e+002, 6.585805e+001
9.896227e+002, 6.471777e+001
9.901048e+002, 6.368999e+001
9.905869e+002, 6.343909e+001
9.910690e+002, 6.430964e+001
9.915511e+002, 6.528436e+001
9.920333e+002, 6.628558e+001
9.925154e+002, 6.735792e+001
9.929975e+002, 6.833347e+001
9.934796e+002, 6.948945e+001
9.939617e+002, 7.133980e+001
9.944438e+002, 7.396143e+001
9.949260e+002, 7.650754e+001
9.954081e+002, 7.847641e+001
9.958902e+002, 8.099078e+001
9.963723e+002, 8.379506e+001
9.968544e+002, 8.769171e+001
9.973365e+002, 9.386907e+001
9.978187e+002, 1.013304e+002
9.983008e+002, 1.080213e+002
9.987829e+002, 1.135341e+002
9.992650e+002, 1.195553e+002
9.997471e+002, 1.271707e+002
1.000229e+003, 1.346924e+002
1.000711e+003, 1.405208e+002
1.001193e+003, 1.465820e+002
1.001676e+003, 1.549038e+002
1.002158e+003, 1.650986e+002
1.002640e+003, 1.752057e+002
1.003122e+003, 1.843952e+002
1.003604e+003, 1.962280e+002
1.004086e+003, 2.137116e+002
1.004568e+003, 2.336861e+002
1.005050e+003, 2.542556e+002
1.005533e+003, 2.753567e+002
1.006015e+003, 2.991230e+002
1.006497e+003, 3.235709e+002
1.006979e+003, 3.429485e+002
1.007461e+003, 3.549477e+002
1.007943e+003, 3.588666e+002
1.008425e+003, 3.531429e+002
1.008907e+003, 3.396899e+002
1.009389e+003, 3.187276e+002
1.009872e+003, 2.927593e+002
1.010354e+003, 2.654647e+002
1.010836e+003, 2.384220e+002
1.011318e+003, 2.144348e+002
1.011800e+003, 1.953379e+002
1.012282e+003, 1.787735e+002
1.012764e+003, 1.614714e+002
1.013246e+003, 1.445986e+002
1.013729e+003, 1.306007e+002
1.014211e+003, 1.192805e+002
1.014693e+003, 1.100447e+002
1.015175e+003, 1.026230e+002
1.015657e+003, 9.635642e+001
1.016139e+003, 9.082977e+001
1.016621e+003, 8.594469e+001
1.017103e+003, 8.152122e+001
1.017585e+003, 7.759138e+001
1.018068e+003, 7.441649e+001
1.018550e+003, 7.195744e+001
1.019032e+003, 6.949702e+001
1.019514e+003, 6.685372e+001
1.019996e+003, 6.472506e+001
1.020478e+003, 6.372737e+001
1.020960e+003, 6.348660e+001
1.021442e+003, 6.327741e+001
1.021924e+003, 6.308553e+001
1.022407e+003, 6.241549e+001
1.022889e+003, 6.121843e+001
1.023371e+003, 6.014027e+001
1.023853e+003, 5.937475e+001
1.024335e+003, 5.883038e+001
1.024817e+003, 5.847295e+001
1.025299e+003, 5.818626e+001
1.025781e+003, 5.755186e+001
1.026264e+003, 5.649445e+001
1.026746e+003, 5.564996e+001
1.027228e+003, 5.497610e+001
1.027710e+003, 5.487618e+001
1.028192e+003, 5.567554e+001
1.028674e+003, 5.655545e+001
1.029156e+003, 5.669140e+001
1.029638e+003, 5.628988e+001
1.030120e+003, 5.620324e+001
1.030603e+003, 5.654054e+001
1.031085e+003, 5.676664e+001
1.031567e+003, 5.675927e+001
1.032049e+003, 5.694532e+001
1.032531e+003, 5.760769e+001
1.033013e+003, 5.829325e+001
1.033495e+003, 5.848256e+001
1.033977e+003, 5.831226e+001
1.034459e+003, 5.847062e+001
1.034942e+003, 5.901778e+001
1.035424e+003, 5.978220e+001
1.035906e+003, 6.114656e+001
1.036388e+003, 6.205032e+001
1.036870e+003, 6.166412e+001
1.037352e+003, 6.115440e+001
1.037834e+003, 6.174619e+001
1.038316e+003, 6.325954e+001
1.038799e+003, 6.463096e+001
1.039281e+003, 6.619243e+001
1.039763e+003, 6.696623e+001
1.040245e+003, 6.569044e+001
1.040727e+003, 6.525581e+001
1.041209e+003, 6.737516e+001
1.041691e+003, 7.012657e+001
1.042173e+003, 7.154581e+001
1.042656e+003, 7.195346e+001
1.043138e+003, 7.301073e+001
1.043620e+003, 7.501409e+001
1.044102e+003, 7.719324e+001
1.044584e+003, 7.990340e+001
1.045066e+003, 8.228572e+001
1.045548e+003, 8.342577e+001
1.046030e+003, 8.454831e+001
1.046512e+003, 8.708118e+001
1.046995e+003, 9.071373e+001
1.047477e+003, 9.381505e+001
1.047959e+003, 9.577678e+001
1.048441e+003, 9.821198e+001
1.048923e+003, 1.016532e+002
1.049405e+003, 1.052364e+002
1.049887e+003, 1.082125e+002
1.050369e+003, 1.114707e+002
1.050851e+003, 1.164008e+002
1.051334e+003, 1.224717e+002
1.051816e+003, 1.273022e+002
1.052298e+003, 1.300548e+002
1.052780e+003, 1.328416e+002
1.053262e+003, 1.361162e+002
1.053744e+003, 1.395779e+002
1.054226e+003, 1.430901e+002
1.054708e+003, 1.467225e+002
1.055191e+003, 1.507057e+002
1.055673e+003, 1.548617e+002
1.056155e+003, 1.587211e+002
1.056637e+003, 1.624674e+002
1.057119e+003, 1.649170e+002
1.057601e+003, 1.654958e+002
1.058083e+003, 1.649541e+002
1.058565e+003, 1.633783e+002
1.059047e+003, 1.610916e+002
1.059530e+003, 1.582570e+002
1.060012e+003, 1.549833e+002
1.060494e+003, 1.514366e+002
1.060976e+003, 1.476789e+002
1.061458e+003, 1.435994e+002
1.061940e+003, 1.385223e+002
1.062422e+003, 1.338258e+002
1.062904e+003, 1.305537e+002
1.063386e+003, 1.277570e+002
1.063869e+003, 1.244046e+002
1.064351e+003, 1.206760e+002
1.064833e+003, 1.173340e+002
1.065315e+003, 1.145886e+002
1.065797e+003, 1.120678e+002
1.066279e+003, 1.099145e+002
1.066761e+003, 1.076115e+002
1.067243e+003, 1.048324e+002
1.067726e+003, 1.018297e+002
1.068208e+003, 9.894473e+001
1.068690e+003, 9.604016e+001
1.069172e+003, 9.255371e+001
1.069654e+003, 8.832059e+001
1.070136e+003, 8.443056e+001
1.070618e+003, 8.145148e+001
1.071100e+003, 7.883994e+001
1.071583e+003, 7.634547e+001
1.072065e+003, 7.405842e+001
1.072547e+003, 7.208033e+001
1.073029e+003, 7.036668e+001
1.073511e+003, 6.885818e+001
1.073993e+003, 6.753932e+001
1.074475e+003, 6.611748e+001
1.074957e+003, 6.406116e+001
1.075439e+003, 6.238705e+001
1.075922e+003, 6.187781e+001
1.076404e+003, 6.172512e+001
1.076886e+003, 6.132549e+001
1.077368e+003, 6.068727e+001
1.077850e+003, 5.979565e+001
1.078332e+003, 5.871006e+001
1.078814e+003, 5.814243e+001
1.079296e+003, 5.904919e+001
1.079779e+003, 5.963189e+001
1.080261e+003, 5.851268e+001
1.080743e+003, 5.722298e+001
1.081225e+003, 5.701052e+001
1.081707e+003, 5.750383e+001
1.082189e+003, 5.806202e+001
1.082671e+003, 5.855289e+001
1.083153e+003, 5.901899e+001
1.083635e+003, 5.956476e+001
1.084118e+003, 5.991901e+001
1.084600e+003, 5.950823e+001
1.085082e+003, 5.932978e+001
1.085564e+003, 6.042149e+001
1.086046e+003, 6.201662e+001
1.086528e+003, 6.300132e+001
1.087010e+003, 6.335441e+001
1.087492e+003, 6.381806e+001
1.087974e+003, 6.468910e+001
1.088457e+003, 6.555635e+001
1.088939e+003, 6.630808e+001
1.089421e+003, 6.694144e+001
1.089903e+003, 6.755193e+001
1.090385e+003, 6.797852e+001
1.090867e+003, 6.783742e+001
1.091349e+003, 6.733500e+001
1.091831e+003, 6.726864e+001
1.092314e+003, 6.796888e+001
1.092796e+003, 6.861336e+001
1.093278e+003, 6.909704e+001
1.093760e+003, 6.920960e+001
1.094242e+003, 6.871529e+001
1.094724e+003, 6.790351e+001
1.095206e+003, 6.694691e+001
1.095688e+003, 6.592814e+001
1.096171e+003, 6.498457e+001
1.096653e+003, 6.416142e+001
1.097135e+003, 6.326443e+001
1.097617e+003, 6.205494e+001
1.098099e+003, 6.099225e+001
1.098581e+003, 6.027418e+001
1.099063e+003, 5.974971e+001
1.099545e+003, 5.943121e+001
1.100027e+003, 5.916541e+001
1.100510e+003, 5.863186e+001
1.100992e+003, 5.777725e+001
1.101474e+003, 5.716727e+001
1.101956e+003, 5.707465e+001
1.102438e+003, 5.703660e+001
1.102920e+003, 5.693672e+001
1.103402e+003, 5.685287e+001
1.103884e+003, 5.694644e+001
1.104366e+003, 5.702306e+001
1.104849e+003, 5.668981e+001
1.105331e+003, 5.597731e+001
1.105813e+003, 5.563240e+001
1.106295e+003, 5.614192e+001
1.106777e+003, 5.642825e+001
1.107259e+003, 5.632485e+001
1.107741e+003, 5.599493e+001
1.108223e+003, 5.530886e+001
1.108706e+003, 5.458231e+001
1.109188e+003, 5.411459e+001
1.109670e+003, 5.389786e+001
1.110152e+003, 5.389165e+001
1.110634e+003, 5.451392e+001
1.111116e+003, 5.439185e+001
1.111598e+003, 5.253270e+001
1.112080e+003, 5.114959e+001
1.112563e+003, 5.127726e+001
1.113045e+003, 5.175358e+001
1.113527e+003, 5.169547e+001
1.114009e+003, 5.127730e+001
1.114491e+003, 5.099729e+001
1.114973e+003, 5.097848e+001
1.115455e+003, 5.055833e+001
1.115937e+003, 4.941976e+001
1.116419e+003, 4.843250e+001
1.116901e+003, 4.775647e+001
1.117384e+003, 4.726308e+001
1.117866e+003, 4.694722e+001
1.118348e+003, 4.669954e+001
1.118830e+003, 4.628809e+001
1.119312e+003, 4.569868e+001
1.119794e+003, 4.548833e+001
1.120276e+003, 4.583247e+001
1.120758e+003, 4.608829e+001
1.121241e+003, 4.611633e+001
1.121723e+003, 4.622953e+001
1.122205e+003, 4.660427e+001
1.122687e+003, 4.708656e+001
1.123169e+003, 4.758682e+001
1.123651e+003, 4.800553e+001
1.124133e+003, 4.766099e+001
1.124615e+003, 4.630827e+001
1.125098e+003, 4.537049e+001
1.125580e+003, 4.492553e+001
1.126062e+003, 4.484964e+001
1.126544e+003, 4.522384e+001
1.127026e+003, 4.551364e+001
1.127508e+003, 4.522299e+001
1.127990e+003, 4.462173e+001
1.128472e+003, 4.436619e+001
1.128954e+003, 4.446220e+001
1.129437e+003, 4.476062e+001
1.129919e+003, 4.528785e+001
1.130401e+003, 4.561562e+001
1.130883e+003, 4.565344e+001
1.131365e+003, 4.546503e+001
1.131847e+003, 4.504565e+001
1.132329e+003, 4.471012e+001
1.132811e+003, 4.501971e+001
1.133293e+003, 4.577965e+001
1.133776e+003, 4.603018e+001
1.134258e+003, 4.582877e+001
1.134740e+003, 4.569655e+001
1.135222e+003, 4.569474e+001
1.135704e+003, 4.575805e+001
1.136186e+003, 4.585752e+001
1.136668e+003, 4.585518e+001
1.137150e+003, 4.559034e+001
1.137633e+003, 4.520364e+001
1.138115e+003, 4.488551e+001
1.138597e+003, 4.470165e+001
1.139079e+003, 4.509542e+001
1.139561e+003, 4.582885e+001
1.140043e+003, 4.574561e+001
1.140525e+003, 4.469138e+001
1.141007e+003, 4.374868e+001
1.141490e+003, 4.360680e+001
1.141972e+003, 4.387882e+001
1.142454e+003, 4.420818e+001
1.142936e+003, 4.457186e+001
1.143418e+003, 4.492140e+001
1.143900e+003, 4.527851e+001
1.144382e+003, 4.581674e+001
1.144864e+003, 4.641621e+001
1.145346e+003, 4.652372e+001
1.145828e+003, 4.594132e+001
1.146311e+003, 4.544588e+001
1.146793e+003, 4.578946e+001
1.147275e+003, 4.631003e+001
1.147757e+003, 4.657862e+001
1.148239e+003, 4.653519e+001
1.148721e+003, 4.585249e+001
1.149203e+003, 4.489985e+001
1.149685e+003, 4.432749e+001
1.150168e+003, 4.427057e+001
1.150650e+003, 4.454478e+001
1.151132e+003, 4.528960e+001
1.151614e+003, 4.583185e+001
1.152096e+003, 4.547850e+001
1.152578e+003, 4.518923e+001
1.153060e+003, 4.574679e+001
1.153542e+003, 4.664651e+001
1.154025e+003, 4.744923e+001
1.154507e+003, 4.801295e+001
1.154989e+003, 4.807941e+001
1.155471e+003, 4.747808e+001
1.155953e+003, 4.699219e+001
1.156435e+003, 4.665052e+001
1.156917e+003, 4.666029e+001
1.157399e+003, 4.757694e+001
1.157881e+003, 4.836646e+001
1.158364e+003, 4.801878e+001
1.158846e+003, 4.721934e+001
1.159328e+003, 4.718233e+001
1.159810e+003, 4.796664e+001
1.160292e+003, 4.861921e+001
1.160774e+003, 4.929586e+001
1.161256e+003, 4.952326e+001
1.161738e+003, 4.893671e+001
1.162220e+003, 4.846570e+001
1.162703e+003, 4.848728e+001
1.163185e+003, 4.869896e+001
1.163667e+003, 4.879219e+001
1.164149e+003, 4.886543e+001
1.164631e+003, 4.933284e+001
1.165113e+003, 5.038334e+001
1.165595e+003, 5.051888e+001
1.166077e+003, 4.938278e+001
1.166560e+003, 4.893390e+001
1.167042e+003, 4.965136e+001
1.167524e+003, 5.083247e+001
1.168006e+003, 5.215392e+001
1.168488e+003, 5.333788e+001
1.168970e+003, 5.394860e+001
1.169452e+003, 5.404918e+001
1.169934e+003, 5.377731e+001
1.170417e+003, 5.319399e+001
1.170899e+003, 5.330021e+001
1.171381e+003, 5.414582e+001
1.171863e+003, 5.503529e+001
1.172345e+003, 5.571961e+001
1.172827e+003, 5.605834e+001
1.173309e+003, 5.585720e+001
1.173791e+003, 5.560875e+001
1.174273e+003, 5.635044e+001
1.174755e+003, 5.757289e+001
1.175238e+003, 5.801911e+001
1.175720e+003, 5.790345e+001
1.176202e+003, 5.771899e+001
1.176684e+003, 5.770423e+001
1.177166e+003, 5.849045e+001
1.177648e+003, 6.033746e+001
1.178130e+003, 6.196284e+001
1.178612e+003, 6.197468e+001
1.179095e+003, 6.162086e+001
1.179577e+003, 6.198014e+001
1.180059e+003, 6.283854e+001
1.180541e+003, 6.419969e+001
1.181023e+003, 6.574171e+001
1.181505e+003, 6.697104e+001
1.181987e+003, 6.779306e+001
1.182469e+003, 6.825768e+001
1.182952e+003, 6.801715e+001
1.183434e+003, 6.845815e+001
1.183916e+003, 7.096693e+001
1.184398e+003, 7.338960e+001
1.184880e+003, 7.409618e+001
1.185362e+003, 7.452870e+001
1.185844e+003, 7.651119e+001
1.186326e+003, 7.927039e+001
1.186808e+003, 8.057207e+001
1.187291e+003, 7.995778e+001
1.187773e+003, 8.012965e+001
1.188255e+003, 8.183759e+001
1.188737e+003, 8.359253e+001
1.189219e+003, 8.561935e+001
1.189701e+003, 8.712068e+001
1.190183e+003, 8.749651e+001
1.190665e+003, 8.747608e+001
1.191147e+003, 8.773533e+001
1.191630e+003, 8.829631e+001
1.192112e+003, 8.937864e+001
1.192594e+003, 9.130913e+001
1.193076e+003, 9.199708e+001
1.193558e+003, 9.118124e+001
1.194040e+003, 9.037352e+001
1.194522e+003, 8.982340e+001
1.195004e+003, 8.999872e+001
1.195487e+003, 9.134209e+001
1.195969e+003, 9.270825e+001
1.196451e+003, 9.246243e+001
1.196933e+003, 9.093211e+001
1.197415e+003, 8.912457e+001
1.197897e+003, 8.715681e+001
1.198379e+003, 8.581596e+001
1.198861e+003, 8.506514e+001
1.199344e+003, 8.431409e+001
1.199826e+003, 8.338912e+001
1.200308e+003, 8.254017e+001
1.200790e+003, 8.197052e+001
1.201272e+003, 8.129997e+001
1.201754e+003, 7.978774e+001
1.202236e+003, 7.812279e+001
1.202718e+003, 7.741132e+001
1.203200e+003, 7.718240e+001
1.203682e+003, 7.688475e+001
1.204165e+003, 7.623903e+001
1.204647e+003, 7.460188e+001
1.205129e+003, 7.190141e+001
1.205611e+003, 6.963471e+001
1.206093e+003, 6.884755e+001
1.206575e+003, 6.828112e+001
1.207057e+003, 6.719991e+001
1.207539e+003, 6.622087e+001
1.208022e+003, 6.573973e+001
1.208504e+003, 6.561153e+001
1.208986e+003, 6.583398e+001
1.209468e+003, 6.621957e+001
1.209950e+003, 6.622890e+001
1.210432e+003, 6.581109e+001
1.210914e+003, 6.497846e+001
1.211396e+003, 6.278454e+001
1.211879e+003, 6.169532e+001
1.212361e+003, 6.286068e+001
1.212843e+003, 6.391707e+001
1.213325e+003, 6.356120e+001
1.213807e+003, 6.268649e+001
1.214289e+003, 6.240909e+001
1.214771e+003, 6.253664e+001
1.215253e+003, 6.199056e+001
1.215735e+003, 6.060159e+001
1.216218e+003, 6.019637e+001
1.216700e+003, 6.087367e+001
1.217182e+003, 6.195512e+001
1.217664e+003, 6.333209e+001
1.218146e+003, 6.376436e+001
1.218628e+003, 6.245156e+001
1.219110e+003, 6.070405e+001
1.219592e+003, 6.022039e+001
1.220074e+003, 6.056750e+001
1.220557e+003, 6.095759e+001
1.221039e+003, 6.126521e+001
1.221521e+003, 6.104792e+001
1.222003e+003, 6.045036e+001
1.222485e+003, 5.994855e+001
1.222967e+003, 5.969143e+001
1.223449e+003, 5.977341e+001
1.223931e+003, 6.033884e+001
1.224414e+003, 6.066210e+001
1.224896e+003, 5.979983e+001
1.225378e+003, 5.888964e+001
1.225860e+003, 5.875480e+001
1.226342e+003, 5.914524e+001
1.226824e+003, 6.028063e+001
1.227306e+003, 6.149935e+001
1.227788e+003, 6.146622e+001
1.228271e+003, 6.009718e+001
1.228753e+003, 5.893569e+001
1.229235e+003, 5.806467e+001
1.229717e+003, 5.783826e+001
1.230199e+003, 5.883984e+001
1.230681e+003, 5.977356e+001
1.231163e+003, 6.026152e+001
1.231645e+003, 6.052178e+001
1.232127e+003, 6.069179e+001
1.232609e+003, 6.075996e+001
1.233092e+003, 6.069679e+001
1.233574e+003, 6.050266e+001
1.234056e+003, 6.019113e+001
1.234538e+003, 5.968985e+001
1.235020e+003, 5.976322e+001
1.235502e+003, 6.052774e+001
1.235984e+003, 6.112835e+001
1.236466e+003, 6.126958e+001
1.236949e+003, 6.112793e+001
1.237431e+003, 6.080724e+001
1.237913e+003, 6.049134e+001
1.238395e+003, 6.057960e+001
1.238877e+003, 6.084635e+001
1.239359e+003, 6.064634e+001
1.239841e+003, 6.022295e+001
1.240323e+003, 6.019738e+001
1.240806e+003, 6.051997e+001
1.241288e+003, 6.086841e+001
1.241770e+003, 6.110024e+001
1.242252e+003, 6.093274e+001
1.242734e+003, 5.990250e+001
1.243216e+003, 5.926011e+001
1.243698e+003, 6.036558e+001
1.244180e+003, 6.150091e+001
1.244662e+003, 6.123804e+001
1.245145e+003, 6.060221e+001
1.245627e+003, 6.074508e+001
1.246109e+003, 6.137496e+001
1.246591e+003, 6.165316e+001
1.247073e+003, 6.148017e+001
1.247555e+003, 6.130249e+001
1.248037e+003, 6.118104e+001
1.248519e+003, 6.096432e+001
1.249001e+003, 6.041595e+001
1.249484e+003, 6.029327e+001
1.249966e+003, 6.105223e+001
1.250448e+003, 6.180910e+001
1.250930e+003, 6.185738e+001
1.251412e+003, 6.147495e+001
1.251894e+003, 6.112045e+001
1.252376e+003, 6.083944e+001
1.252858e+003, 6.115519e+001
1.253341e+003, 6.195052e+001
1.253823e+003, 6.200718e+001
1.254305e+003, 6.136373e+001
1.254787e+003, 6.138028e+001
1.255269e+003, 6.236607e+001
1.255751e+003, 6.295123e+001
1.256233e+003, 6.215377e+001
1.256715e+003, 6.111694e+001
1.257198e+003, 6.112559e+001
1.257680e+003, 6.148877e+001
1.258162e+003, 6.131427e+001
1.258644e+003, 6.110353e+001
1.259126e+003, 6.173100e+001
1.259608e+003, 6.278197e+001
1.260090e+003, 6.325245e+001
1.260572e+003, 6.303146e+001
1.261054e+003, 6.286041e+001
1.261536e+003, 6.309180e+001
1.262019e+003, 6.303359e+001
1.262501e+003, 6.198241e+001
1.262983e+003, 6.142159e+001
1.263465e+003, 6.199934e+001
1.263947e+003, 6.296978e+001
1.264429e+003, 6.419862e+001
1.264911e+003, 6.515919e+001
1.265393e+003, 6.492934e+001
1.265876e+003, 6.373702e+001
1.266358e+003, 6.318351e+001
1.266840e+003, 6.331077e+001
1.267322e+003, 6.327227e+001
1.267804e+003, 6.303777e+001
1.268286e+003, 6.336153e+001
1.268768e+003, 6.437611e+001
1.269250e+003, 6.507861e+001
1.269733e+003, 6.491129e+001
1.270215e+003, 6.450145e+001
1.270697e+003, 6.460411e+001
1.271179e+003, 6.474057e+001
1.271661e+003, 6.380614e+001
1.272143e+003, 6.278842e+001
1.272625e+003, 6.354501e+001
1.273107e+003, 6.507278e+001
1.273589e+003, 6.531041e+001
1.274072e+003, 6.432603e+001
1.274554e+003, 6.356826e+001
1.275036e+003, 6.340986e+001
1.275518e+003, 6.374194e+001
1.276000e+003, 6.533987e+001
1.276482e+003, 6.621754e+001
1.276964e+003, 6.507202e+001
1.277446e+003, 6.407228e+001
1.277929e+003, 6.442916e+001
1.278411e+003, 6.513576e+001
1.278893e+003, 6.528123e+001
1.279375e+003, 6.500435e+001
1.279857e+003, 6.459650e+001
1.280339e+003, 6.404898e+001
1.280821e+003, 6.418263e+001
1.281303e+003, 6.501925e+001
1.281786e+003, 6.569814e+001
1.282268e+003, 6.610411e+001
##END=



