##NAMES=Analcime
##RRUFFID=R120095
##IDEAL CHEMISTRY=NaAlSi_2_O_6_&#183;H_2_O
##LOCALITY=Daye area, Hubei, China
##OWNER=RRUFF
##SOURCE=Robert Lavinsky
##DESCRIPTION=Colorless trapezohedra
##STATUS=The identification of this mineral has been confirmed by single-crystal X-ray diffraction.
##URL=rruff.info/R120095
9.112140e+001, 0.000000e+000
9.160352e+001, 2.611934e+002
9.208563e+001, 2.553884e+002
9.256775e+001, 2.547444e+002
9.304987e+001, 2.623129e+002
9.353198e+001, 2.709203e+002
9.401410e+001, 2.750909e+002
9.449622e+001, 2.754590e+002
9.497833e+001, 2.741112e+002
9.546045e+001, 2.726465e+002
9.594257e+001, 2.710490e+002
9.642468e+001, 2.691584e+002
9.690680e+001, 2.665846e+002
9.738892e+001, 2.644681e+002
9.787103e+001, 2.635736e+002
9.835315e+001, 2.633324e+002
9.883527e+001, 2.626080e+002
9.931738e+001, 2.608956e+002
9.979950e+001, 2.577975e+002
1.002816e+002, 2.554540e+002
1.007637e+002, 2.539929e+002
1.012458e+002, 2.530026e+002
1.017280e+002, 2.521259e+002
1.022101e+002, 2.512413e+002
1.026922e+002, 2.504936e+002
1.031743e+002, 2.502213e+002
1.036564e+002, 2.504198e+002
1.041385e+002, 2.505130e+002
1.046207e+002, 2.501005e+002
1.051028e+002, 2.493601e+002
1.055849e+002, 2.489581e+002
1.060670e+002, 2.493118e+002
1.065491e+002, 2.497895e+002
1.070313e+002, 2.497333e+002
1.075134e+002, 2.490703e+002
1.079955e+002, 2.480899e+002
1.084776e+002, 2.470017e+002
1.089597e+002, 2.457416e+002
1.094418e+002, 2.446151e+002
1.099240e+002, 2.438363e+002
1.104061e+002, 2.431422e+002
1.108882e+002, 2.423033e+002
1.113703e+002, 2.412151e+002
1.118524e+002, 2.400346e+002
1.123345e+002, 2.391752e+002
1.128167e+002, 2.386671e+002
1.132988e+002, 2.385139e+002
1.137809e+002, 2.389611e+002
1.142630e+002, 2.396780e+002
1.147451e+002, 2.402655e+002
1.152272e+002, 2.404678e+002
1.157094e+002, 2.403025e+002
1.161915e+002, 2.400717e+002
1.166736e+002, 2.395386e+002
1.171557e+002, 2.391715e+002
1.176378e+002, 2.391913e+002
1.181199e+002, 2.395378e+002
1.186021e+002, 2.399921e+002
1.190842e+002, 2.403993e+002
1.195663e+002, 2.407447e+002
1.200484e+002, 2.409668e+002
1.205305e+002, 2.409045e+002
1.210126e+002, 2.408139e+002
1.214948e+002, 2.409524e+002
1.219769e+002, 2.413689e+002
1.224590e+002, 2.418371e+002
1.229411e+002, 2.421318e+002
1.234232e+002, 2.422896e+002
1.239053e+002, 2.423853e+002
1.243875e+002, 2.423186e+002
1.248696e+002, 2.421982e+002
1.253517e+002, 2.423554e+002
1.258338e+002, 2.429848e+002
1.263159e+002, 2.436941e+002
1.267980e+002, 2.440825e+002
1.272802e+002, 2.442394e+002
1.277623e+002, 2.445763e+002
1.282444e+002, 2.456676e+002
1.287265e+002, 2.476443e+002
1.292086e+002, 2.489369e+002
1.296907e+002, 2.483969e+002
1.301729e+002, 2.478736e+002
1.306550e+002, 2.483964e+002
1.311371e+002, 2.500031e+002
1.316192e+002, 2.518640e+002
1.321013e+002, 2.527094e+002
1.325834e+002, 2.515408e+002
1.330656e+002, 2.513765e+002
1.335477e+002, 2.530680e+002
1.340298e+002, 2.551266e+002
1.345119e+002, 2.563441e+002
1.349940e+002, 2.563339e+002
1.354761e+002, 2.556513e+002
1.359583e+002, 2.555481e+002
1.364404e+002, 2.563471e+002
1.369225e+002, 2.573781e+002
1.374046e+002, 2.589972e+002
1.378867e+002, 2.607612e+002
1.383688e+002, 2.619824e+002
1.388510e+002, 2.623076e+002
1.393331e+002, 2.619792e+002
1.398152e+002, 2.617873e+002
1.402973e+002, 2.619051e+002
1.407794e+002, 2.618886e+002
1.412615e+002, 2.616185e+002
1.417437e+002, 2.610830e+002
1.422258e+002, 2.601853e+002
1.427079e+002, 2.586834e+002
1.431900e+002, 2.568668e+002
1.436721e+002, 2.554032e+002
1.441542e+002, 2.546022e+002
1.446364e+002, 2.538113e+002
1.451185e+002, 2.522354e+002
1.456006e+002, 2.497181e+002
1.460827e+002, 2.473739e+002
1.465648e+002, 2.461662e+002
1.470469e+002, 2.453119e+002
1.475291e+002, 2.439519e+002
1.480112e+002, 2.416134e+002
1.484933e+002, 2.387769e+002
1.489754e+002, 2.366118e+002
1.494575e+002, 2.356951e+002
1.499396e+002, 2.344291e+002
1.504218e+002, 2.321347e+002
1.509039e+002, 2.292753e+002
1.513860e+002, 2.264665e+002
1.518681e+002, 2.240665e+002
1.523502e+002, 2.220148e+002
1.528323e+002, 2.199203e+002
1.533145e+002, 2.177772e+002
1.537966e+002, 2.155817e+002
1.542787e+002, 2.133829e+002
1.547608e+002, 2.111206e+002
1.552429e+002, 2.086375e+002
1.557250e+002, 2.057470e+002
1.562072e+002, 2.023961e+002
1.566893e+002, 1.995512e+002
1.571714e+002, 1.974135e+002
1.576535e+002, 1.954672e+002
1.581356e+002, 1.935346e+002
1.586177e+002, 1.915959e+002
1.590999e+002, 1.896834e+002
1.595820e+002, 1.878384e+002
1.600641e+002, 1.860694e+002
1.605462e+002, 1.842455e+002
1.610283e+002, 1.822230e+002
1.615104e+002, 1.802532e+002
1.619926e+002, 1.784964e+002
1.624747e+002, 1.769796e+002
1.629568e+002, 1.757056e+002
1.634389e+002, 1.748525e+002
1.639210e+002, 1.743866e+002
1.644031e+002, 1.736211e+002
1.648853e+002, 1.721120e+002
1.653674e+002, 1.703321e+002
1.658495e+002, 1.690408e+002
1.663316e+002, 1.684409e+002
1.668137e+002, 1.680569e+002
1.672958e+002, 1.675662e+002
1.677780e+002, 1.669585e+002
1.682601e+002, 1.660848e+002
1.687422e+002, 1.645662e+002
1.692243e+002, 1.626424e+002
1.697064e+002, 1.613397e+002
1.701885e+002, 1.610451e+002
1.706707e+002, 1.610882e+002
1.711528e+002, 1.610603e+002
1.716349e+002, 1.609608e+002
1.721170e+002, 1.608281e+002
1.725991e+002, 1.607091e+002
1.730812e+002, 1.606088e+002
1.735634e+002, 1.604165e+002
1.740455e+002, 1.599473e+002
1.745276e+002, 1.595249e+002
1.750097e+002, 1.592111e+002
1.754918e+002, 1.590476e+002
1.759739e+002, 1.591198e+002
1.764561e+002, 1.596238e+002
1.769382e+002, 1.608198e+002
1.774203e+002, 1.615579e+002
1.779024e+002, 1.614509e+002
1.783845e+002, 1.612417e+002
1.788666e+002, 1.612894e+002
1.793488e+002, 1.616515e+002
1.798309e+002, 1.621932e+002
1.803130e+002, 1.627417e+002
1.807951e+002, 1.633340e+002
1.812772e+002, 1.638361e+002
1.817593e+002, 1.642613e+002
1.822415e+002, 1.646027e+002
1.827236e+002, 1.647974e+002
1.832057e+002, 1.648489e+002
1.836878e+002, 1.648907e+002
1.841699e+002, 1.651318e+002
1.846520e+002, 1.657135e+002
1.851342e+002, 1.662349e+002
1.856163e+002, 1.666872e+002
1.860984e+002, 1.670779e+002
1.865805e+002, 1.674586e+002
1.870626e+002, 1.678545e+002
1.875447e+002, 1.681335e+002
1.880269e+002, 1.679898e+002
1.885090e+002, 1.673136e+002
1.889911e+002, 1.667493e+002
1.894732e+002, 1.665222e+002
1.899553e+002, 1.664856e+002
1.904374e+002, 1.664174e+002
1.909196e+002, 1.662846e+002
1.914017e+002, 1.660222e+002
1.918838e+002, 1.654875e+002
1.923659e+002, 1.646700e+002
1.928480e+002, 1.638656e+002
1.933301e+002, 1.632383e+002
1.938123e+002, 1.627402e+002
1.942944e+002, 1.622287e+002
1.947765e+002, 1.618032e+002
1.952586e+002, 1.611558e+002
1.957407e+002, 1.599492e+002
1.962228e+002, 1.581775e+002
1.967050e+002, 1.563491e+002
1.971871e+002, 1.548768e+002
1.976692e+002, 1.537403e+002
1.981513e+002, 1.524716e+002
1.986334e+002, 1.508976e+002
1.991155e+002, 1.492249e+002
1.995977e+002, 1.475048e+002
2.000798e+002, 1.457611e+002
2.005619e+002, 1.441880e+002
2.010440e+002, 1.431103e+002
2.015261e+002, 1.426517e+002
2.020082e+002, 1.418177e+002
2.024904e+002, 1.400725e+002
2.029725e+002, 1.382009e+002
2.034546e+002, 1.365059e+002
2.039367e+002, 1.350553e+002
2.044188e+002, 1.338211e+002
2.049009e+002, 1.328067e+002
2.053831e+002, 1.320811e+002
2.058652e+002, 1.313745e+002
2.063473e+002, 1.307158e+002
2.068294e+002, 1.300434e+002
2.073115e+002, 1.292681e+002
2.077936e+002, 1.284049e+002
2.082758e+002, 1.275874e+002
2.087579e+002, 1.270198e+002
2.092400e+002, 1.268254e+002
2.097221e+002, 1.266310e+002
2.102042e+002, 1.263909e+002
2.106863e+002, 1.261814e+002
2.111685e+002, 1.261105e+002
2.116506e+002, 1.261740e+002
2.121327e+002, 1.262143e+002
2.126148e+002, 1.259814e+002
2.130969e+002, 1.252246e+002
2.135790e+002, 1.247313e+002
2.140612e+002, 1.246896e+002
2.145433e+002, 1.247742e+002
2.150254e+002, 1.246994e+002
2.155075e+002, 1.244077e+002
2.159896e+002, 1.240806e+002
2.164717e+002, 1.239886e+002
2.169539e+002, 1.242824e+002
2.174360e+002, 1.244610e+002
2.179181e+002, 1.245112e+002
2.184002e+002, 1.244459e+002
2.188823e+002, 1.242039e+002
2.193644e+002, 1.237689e+002
2.198466e+002, 1.233569e+002
2.203287e+002, 1.233107e+002
2.208108e+002, 1.237135e+002
2.212929e+002, 1.239947e+002
2.217750e+002, 1.240707e+002
2.222571e+002, 1.239891e+002
2.227393e+002, 1.237247e+002
2.232214e+002, 1.232329e+002
2.237035e+002, 1.227995e+002
2.241856e+002, 1.229283e+002
2.246677e+002, 1.235723e+002
2.251498e+002, 1.240053e+002
2.256320e+002, 1.239857e+002
2.261141e+002, 1.236549e+002
2.265962e+002, 1.232227e+002
2.270783e+002, 1.227069e+002
2.275604e+002, 1.221319e+002
2.280425e+002, 1.214768e+002
2.285247e+002, 1.207679e+002
2.290068e+002, 1.201016e+002
2.294889e+002, 1.195267e+002
2.299710e+002, 1.190246e+002
2.304531e+002, 1.185663e+002
2.309352e+002, 1.181862e+002
2.314174e+002, 1.177739e+002
2.318995e+002, 1.172782e+002
2.323816e+002, 1.166976e+002
2.328637e+002, 1.160071e+002
2.333458e+002, 1.151519e+002
2.338279e+002, 1.141732e+002
2.343101e+002, 1.131388e+002
2.347922e+002, 1.118822e+002
2.352743e+002, 1.108969e+002
2.357564e+002, 1.106439e+002
2.362385e+002, 1.108266e+002
2.367206e+002, 1.108293e+002
2.372028e+002, 1.101442e+002
2.376849e+002, 1.089926e+002
2.381670e+002, 1.083708e+002
2.386491e+002, 1.087296e+002
2.391312e+002, 1.089546e+002
2.396133e+002, 1.085080e+002
2.400955e+002, 1.076471e+002
2.405776e+002, 1.067954e+002
2.410597e+002, 1.061939e+002
2.415418e+002, 1.058037e+002
2.420239e+002, 1.054652e+002
2.425060e+002, 1.052818e+002
2.429882e+002, 1.049989e+002
2.434703e+002, 1.044861e+002
2.439524e+002, 1.038480e+002
2.444345e+002, 1.032365e+002
2.449166e+002, 1.027444e+002
2.453987e+002, 1.023394e+002
2.458809e+002, 1.018916e+002
2.463630e+002, 1.015126e+002
2.468451e+002, 1.009202e+002
2.473272e+002, 9.989833e+001
2.478093e+002, 9.868735e+001
2.482914e+002, 9.759789e+001
2.487736e+002, 9.680003e+001
2.492557e+002, 9.623117e+001
2.497378e+002, 9.565356e+001
2.502199e+002, 9.520316e+001
2.507020e+002, 9.455196e+001
2.511841e+002, 9.348376e+001
2.516663e+002, 9.225865e+001
2.521484e+002, 9.119198e+001
2.526305e+002, 9.043140e+001
2.531126e+002, 8.990067e+001
2.535947e+002, 8.933902e+001
2.540768e+002, 8.857310e+001
2.545590e+002, 8.800713e+001
2.550411e+002, 8.773314e+001
2.555232e+002, 8.764089e+001
2.560053e+002, 8.762392e+001
2.564874e+002, 8.763718e+001
2.569695e+002, 8.767515e+001
2.574517e+002, 8.772498e+001
2.579338e+002, 8.793795e+001
2.584159e+002, 8.796680e+001
2.588980e+002, 8.764441e+001
2.593801e+002, 8.720784e+001
2.598622e+002, 8.686885e+001
2.603444e+002, 8.670422e+001
2.608265e+002, 8.671407e+001
2.613086e+002, 8.690820e+001
2.617907e+002, 8.748867e+001
2.622728e+002, 8.794160e+001
2.627549e+002, 8.817143e+001
2.632371e+002, 8.831570e+001
2.637192e+002, 8.850816e+001
2.642013e+002, 8.878524e+001
2.646834e+002, 8.909379e+001
2.651655e+002, 8.935083e+001
2.656476e+002, 8.950807e+001
2.661298e+002, 8.973608e+001
2.666119e+002, 9.002213e+001
2.670940e+002, 9.039066e+001
2.675761e+002, 9.094046e+001
2.680582e+002, 9.167944e+001
2.685403e+002, 9.237003e+001
2.690225e+002, 9.271468e+001
2.695046e+002, 9.261234e+001
2.699867e+002, 9.257402e+001
2.704688e+002, 9.277636e+001
2.709509e+002, 9.294400e+001
2.714330e+002, 9.281214e+001
2.719152e+002, 9.235825e+001
2.723973e+002, 9.176745e+001
2.728794e+002, 9.114465e+001
2.733615e+002, 9.049550e+001
2.738436e+002, 9.016851e+001
2.743257e+002, 9.045760e+001
2.748079e+002, 9.086488e+001
2.752900e+002, 9.093245e+001
2.757721e+002, 9.066193e+001
2.762542e+002, 9.046782e+001
2.767363e+002, 9.069024e+001
2.772184e+002, 9.129611e+001
2.777006e+002, 9.180097e+001
2.781827e+002, 9.224196e+001
2.786648e+002, 9.254716e+001
2.791469e+002, 9.253242e+001
2.796290e+002, 9.225314e+001
2.801111e+002, 9.213490e+001
2.805933e+002, 9.245216e+001
2.810754e+002, 9.313942e+001
2.815575e+002, 9.386012e+001
2.820396e+002, 9.470576e+001
2.825217e+002, 9.547395e+001
2.830038e+002, 9.590888e+001
2.834860e+002, 9.609978e+001
2.839681e+002, 9.651179e+001
2.844502e+002, 9.734502e+001
2.849323e+002, 9.856289e+001
2.854144e+002, 1.000580e+002
2.858965e+002, 1.019820e+002
2.863787e+002, 1.038053e+002
2.868608e+002, 1.050068e+002
2.873429e+002, 1.058094e+002
2.878250e+002, 1.070853e+002
2.883071e+002, 1.092453e+002
2.887892e+002, 1.118408e+002
2.892714e+002, 1.141418e+002
2.897535e+002, 1.160710e+002
2.902356e+002, 1.182564e+002
2.907177e+002, 1.211140e+002
2.911998e+002, 1.244543e+002
2.916819e+002, 1.278114e+002
2.921641e+002, 1.310782e+002
2.926462e+002, 1.343647e+002
2.931283e+002, 1.379611e+002
2.936104e+002, 1.418061e+002
2.940925e+002, 1.452758e+002
2.945746e+002, 1.479752e+002
2.950568e+002, 1.501444e+002
2.955389e+002, 1.524331e+002
2.960210e+002, 1.551720e+002
2.965031e+002, 1.572513e+002
2.969852e+002, 1.575510e+002
2.974673e+002, 1.564471e+002
2.979495e+002, 1.546164e+002
2.984316e+002, 1.521799e+002
2.989137e+002, 1.491852e+002
2.993958e+002, 1.456092e+002
2.998779e+002, 1.413753e+002
3.003600e+002, 1.369215e+002
3.008422e+002, 1.322468e+002
3.013243e+002, 1.275959e+002
3.018064e+002, 1.235228e+002
3.022885e+002, 1.203420e+002
3.027706e+002, 1.175473e+002
3.032527e+002, 1.144570e+002
3.037349e+002, 1.110123e+002
3.042170e+002, 1.079427e+002
3.046991e+002, 1.057161e+002
3.051812e+002, 1.040375e+002
3.056633e+002, 1.025070e+002
3.061454e+002, 1.010792e+002
3.066276e+002, 9.981123e+001
3.071097e+002, 9.879391e+001
3.075918e+002, 9.801824e+001
3.080739e+002, 9.729695e+001
3.085560e+002, 9.660267e+001
3.090381e+002, 9.592104e+001
3.095203e+002, 9.521591e+001
3.100024e+002, 9.447469e+001
3.104845e+002, 9.380065e+001
3.109666e+002, 9.328991e+001
3.114487e+002, 9.291540e+001
3.119308e+002, 9.255434e+001
3.124130e+002, 9.219659e+001
3.128951e+002, 9.182919e+001
3.133772e+002, 9.142046e+001
3.138593e+002, 9.098044e+001
3.143414e+002, 9.059624e+001
3.148235e+002, 9.028556e+001
3.153057e+002, 9.006230e+001
3.157878e+002, 9.001883e+001
3.162699e+002, 9.028163e+001
3.167520e+002, 9.043526e+001
3.172341e+002, 8.998446e+001
3.177162e+002, 8.919279e+001
3.181984e+002, 8.864213e+001
3.186805e+002, 8.875948e+001
3.191626e+002, 8.913885e+001
3.196447e+002, 8.907544e+001
3.201268e+002, 8.846957e+001
3.206089e+002, 8.792368e+001
3.210911e+002, 8.781871e+001
3.215732e+002, 8.797865e+001
3.220553e+002, 8.819389e+001
3.225374e+002, 8.845560e+001
3.230195e+002, 8.870940e+001
3.235016e+002, 8.884721e+001
3.239838e+002, 8.886773e+001
3.244659e+002, 8.904337e+001
3.249480e+002, 8.973257e+001
3.254301e+002, 9.043484e+001
3.259122e+002, 9.043769e+001
3.263943e+002, 8.955810e+001
3.268765e+002, 8.875436e+001
3.273586e+002, 8.881792e+001
3.278407e+002, 8.960236e+001
3.283228e+002, 9.030777e+001
3.288049e+002, 9.077486e+001
3.292870e+002, 9.106918e+001
3.297692e+002, 9.120923e+001
3.302513e+002, 9.121188e+001
3.307334e+002, 9.128832e+001
3.312155e+002, 9.157088e+001
3.316976e+002, 9.199679e+001
3.321797e+002, 9.243813e+001
3.326619e+002, 9.290179e+001
3.331440e+002, 9.332381e+001
3.336261e+002, 9.358017e+001
3.341082e+002, 9.374651e+001
3.345903e+002, 9.401709e+001
3.350724e+002, 9.448679e+001
3.355546e+002, 9.507076e+001
3.360367e+002, 9.571731e+001
3.365188e+002, 9.644109e+001
3.370009e+002, 9.703147e+001
3.374830e+002, 9.724717e+001
3.379651e+002, 9.728328e+001
3.384473e+002, 9.751630e+001
3.389294e+002, 9.808190e+001
3.394115e+002, 9.869999e+001
3.398936e+002, 9.918777e+001
3.403757e+002, 9.954691e+001
3.408578e+002, 9.974123e+001
3.413400e+002, 9.963484e+001
3.418221e+002, 9.948703e+001
3.423042e+002, 9.969369e+001
3.427863e+002, 1.002976e+002
3.432684e+002, 1.009773e+002
3.437505e+002, 1.016070e+002
3.442327e+002, 1.021953e+002
3.447148e+002, 1.027614e+002
3.451969e+002, 1.033074e+002
3.456790e+002, 1.038365e+002
3.461611e+002, 1.043555e+002
3.466432e+002, 1.048644e+002
3.471254e+002, 1.053456e+002
3.476075e+002, 1.056835e+002
3.480896e+002, 1.060443e+002
3.485717e+002, 1.066834e+002
3.490538e+002, 1.076348e+002
3.495359e+002, 1.085918e+002
3.500181e+002, 1.093557e+002
3.505002e+002, 1.099332e+002
3.509823e+002, 1.104178e+002
3.514644e+002, 1.106571e+002
3.519465e+002, 1.109364e+002
3.524286e+002, 1.114273e+002
3.529108e+002, 1.121185e+002
3.533929e+002, 1.129859e+002
3.538750e+002, 1.140599e+002
3.543571e+002, 1.152600e+002
3.548392e+002, 1.163836e+002
3.553214e+002, 1.174007e+002
3.558035e+002, 1.184183e+002
3.562856e+002, 1.194616e+002
3.567677e+002, 1.205296e+002
3.572498e+002, 1.216533e+002
3.577319e+002, 1.228612e+002
3.582141e+002, 1.240165e+002
3.586962e+002, 1.248403e+002
3.591783e+002, 1.252068e+002
3.596604e+002, 1.260470e+002
3.601425e+002, 1.278377e+002
3.606246e+002, 1.299248e+002
3.611068e+002, 1.317179e+002
3.615889e+002, 1.331706e+002
3.620710e+002, 1.344721e+002
3.625531e+002, 1.357431e+002
3.630352e+002, 1.369968e+002
3.635173e+002, 1.383943e+002
3.639995e+002, 1.399356e+002
3.644816e+002, 1.416101e+002
3.649637e+002, 1.434608e+002
3.654458e+002, 1.454401e+002
3.659279e+002, 1.474051e+002
3.664100e+002, 1.492543e+002
3.668922e+002, 1.510965e+002
3.673743e+002, 1.532763e+002
3.678564e+002, 1.560206e+002
3.683385e+002, 1.587558e+002
3.688206e+002, 1.614550e+002
3.693027e+002, 1.640908e+002
3.697849e+002, 1.665601e+002
3.702670e+002, 1.688372e+002
3.707491e+002, 1.711118e+002
3.712312e+002, 1.736616e+002
3.717133e+002, 1.766070e+002
3.721954e+002, 1.794209e+002
3.726776e+002, 1.821608e+002
3.731597e+002, 1.847246e+002
3.736418e+002, 1.869968e+002
3.741239e+002, 1.890237e+002
3.746060e+002, 1.909843e+002
3.750881e+002, 1.930373e+002
3.755703e+002, 1.951733e+002
3.760524e+002, 1.973264e+002
3.765345e+002, 1.995175e+002
3.770166e+002, 2.017148e+002
3.774987e+002, 2.041504e+002
3.779808e+002, 2.065345e+002
3.784630e+002, 2.083921e+002
3.789451e+002, 2.095013e+002
3.794272e+002, 2.101794e+002
3.799093e+002, 2.111940e+002
3.803914e+002, 2.129208e+002
3.808735e+002, 2.143635e+002
3.813557e+002, 2.154534e+002
3.818378e+002, 2.163050e+002
3.823199e+002, 2.169778e+002
3.828020e+002, 2.174988e+002
3.832841e+002, 2.178959e+002
3.837662e+002, 2.182145e+002
3.842484e+002, 2.184763e+002
3.847305e+002, 2.185055e+002
3.852126e+002, 2.182683e+002
3.856947e+002, 2.178093e+002
3.861768e+002, 2.170319e+002
3.866589e+002, 2.160416e+002
3.871411e+002, 2.150578e+002
3.876232e+002, 2.142446e+002
3.881053e+002, 2.134744e+002
3.885874e+002, 2.122742e+002
3.890695e+002, 2.104400e+002
3.895516e+002, 2.085451e+002
3.900338e+002, 2.063848e+002
3.905159e+002, 2.044015e+002
3.909980e+002, 2.031794e+002
3.914801e+002, 2.028637e+002
3.919622e+002, 2.027162e+002
3.924443e+002, 2.017644e+002
3.929265e+002, 1.999199e+002
3.934086e+002, 1.981529e+002
3.938907e+002, 1.965639e+002
3.943728e+002, 1.951121e+002
3.948549e+002, 1.938860e+002
3.953370e+002, 1.928072e+002
3.958192e+002, 1.916094e+002
3.963013e+002, 1.900295e+002
3.967834e+002, 1.882002e+002
3.972655e+002, 1.865895e+002
3.977476e+002, 1.852711e+002
3.982297e+002, 1.839883e+002
3.987119e+002, 1.825871e+002
3.991940e+002, 1.811430e+002
3.996761e+002, 1.797774e+002
4.001582e+002, 1.785677e+002
4.006403e+002, 1.773358e+002
4.011224e+002, 1.759526e+002
4.016046e+002, 1.744028e+002
4.020867e+002, 1.726044e+002
4.025688e+002, 1.704619e+002
4.030509e+002, 1.681216e+002
4.035330e+002, 1.657551e+002
4.040151e+002, 1.633632e+002
4.044973e+002, 1.609622e+002
4.049794e+002, 1.586718e+002
4.054615e+002, 1.563457e+002
4.059436e+002, 1.536626e+002
4.064257e+002, 1.505670e+002
4.069078e+002, 1.474039e+002
4.073900e+002, 1.444912e+002
4.078721e+002, 1.417797e+002
4.083542e+002, 1.389388e+002
4.088363e+002, 1.358267e+002
4.093184e+002, 1.326980e+002
4.098005e+002, 1.296651e+002
4.102827e+002, 1.267539e+002
4.107648e+002, 1.241245e+002
4.112469e+002, 1.218924e+002
4.117290e+002, 1.198946e+002
4.122111e+002, 1.177688e+002
4.126932e+002, 1.154498e+002
4.131754e+002, 1.131936e+002
4.136575e+002, 1.110501e+002
4.141396e+002, 1.089898e+002
4.146217e+002, 1.068963e+002
4.151038e+002, 1.047813e+002
4.155859e+002, 1.029001e+002
4.160681e+002, 1.015706e+002
4.165502e+002, 1.008769e+002
4.170323e+002, 9.978867e+001
4.175144e+002, 9.788190e+001
4.179965e+002, 9.608938e+001
4.184786e+002, 9.478841e+001
4.189608e+002, 9.388115e+001
4.194429e+002, 9.314737e+001
4.199250e+002, 9.248132e+001
4.204071e+002, 9.186398e+001
4.208892e+002, 9.124882e+001
4.213713e+002, 9.074239e+001
4.218535e+002, 9.006809e+001
4.223356e+002, 8.887815e+001
4.228177e+002, 8.776047e+001
4.232998e+002, 8.728355e+001
4.237819e+002, 8.744395e+001
4.242640e+002, 8.771792e+001
4.247462e+002, 8.752815e+001
4.252283e+002, 8.682471e+001
4.257104e+002, 8.639040e+001
4.261925e+002, 8.639939e+001
4.266746e+002, 8.651200e+001
4.271567e+002, 8.671348e+001
4.276389e+002, 8.693528e+001
4.281210e+002, 8.704958e+001
4.286031e+002, 8.696863e+001
4.290852e+002, 8.685983e+001
4.295673e+002, 8.714684e+001
4.300494e+002, 8.802108e+001
4.305316e+002, 8.860280e+001
4.310137e+002, 8.825564e+001
4.314958e+002, 8.783786e+001
4.319779e+002, 8.789803e+001
4.324600e+002, 8.846699e+001
4.329421e+002, 8.922255e+001
4.334243e+002, 9.006286e+001
4.339064e+002, 9.091746e+001
4.343885e+002, 9.142228e+001
4.348706e+002, 9.139605e+001
4.353527e+002, 9.140903e+001
4.358348e+002, 9.192204e+001
4.363170e+002, 9.270686e+001
4.367991e+002, 9.337930e+001
4.372812e+002, 9.370302e+001
4.377633e+002, 9.408397e+001
4.382454e+002, 9.507225e+001
4.387275e+002, 9.655454e+001
4.392097e+002, 9.766546e+001
4.396918e+002, 9.796197e+001
4.401739e+002, 9.796889e+001
4.406560e+002, 9.851511e+001
4.411381e+002, 9.963223e+001
4.416202e+002, 1.006765e+002
4.421024e+002, 1.012827e+002
4.425845e+002, 1.018246e+002
4.430666e+002, 1.027973e+002
4.435487e+002, 1.042211e+002
4.440308e+002, 1.056354e+002
4.445129e+002, 1.066493e+002
4.449951e+002, 1.073317e+002
4.454772e+002, 1.083884e+002
4.459593e+002, 1.101364e+002
4.464414e+002, 1.118232e+002
4.469235e+002, 1.130708e+002
4.474056e+002, 1.141586e+002
4.478878e+002, 1.155072e+002
4.483699e+002, 1.172601e+002
4.488520e+002, 1.192839e+002
4.493341e+002, 1.213894e+002
4.498162e+002, 1.235444e+002
4.502983e+002, 1.258792e+002
4.507805e+002, 1.283282e+002
4.512626e+002, 1.309786e+002
4.517447e+002, 1.338987e+002
4.522268e+002, 1.370673e+002
4.527089e+002, 1.404144e+002
4.531910e+002, 1.438561e+002
4.536732e+002, 1.474697e+002
4.541553e+002, 1.515667e+002
4.546374e+002, 1.562769e+002
4.551195e+002, 1.613010e+002
4.556016e+002, 1.666479e+002
4.560837e+002, 1.721827e+002
4.565659e+002, 1.776040e+002
4.570480e+002, 1.829612e+002
4.575301e+002, 1.887200e+002
4.580122e+002, 1.953955e+002
4.584943e+002, 2.030036e+002
4.589764e+002, 2.109899e+002
4.594586e+002, 2.191246e+002
4.599407e+002, 2.280075e+002
4.604228e+002, 2.379535e+002
4.609049e+002, 2.487274e+002
4.613870e+002, 2.599034e+002
4.618691e+002, 2.711905e+002
4.623513e+002, 2.830404e+002
4.628334e+002, 2.960106e+002
4.633155e+002, 3.100776e+002
4.637976e+002, 3.246548e+002
4.642797e+002, 3.396668e+002
4.647618e+002, 3.550084e+002
4.652440e+002, 3.703768e+002
4.657261e+002, 3.857531e+002
4.662082e+002, 4.019264e+002
4.666903e+002, 4.192086e+002
4.671724e+002, 4.374689e+002
4.676545e+002, 4.566664e+002
4.681367e+002, 4.767045e+002
4.686188e+002, 4.974379e+002
4.691009e+002, 5.186433e+002
4.695830e+002, 5.403228e+002
4.700651e+002, 5.630912e+002
4.705472e+002, 5.863399e+002
4.710294e+002, 6.110424e+002
4.715115e+002, 6.374889e+002
4.719936e+002, 6.654513e+002
4.724757e+002, 6.950964e+002
4.729578e+002, 7.263019e+002
4.734399e+002, 7.583333e+002
4.739221e+002, 7.903398e+002
4.744042e+002, 8.222754e+002
4.748863e+002, 8.543782e+002
4.753684e+002, 8.869346e+002
4.758505e+002, 9.196049e+002
4.763326e+002, 9.524568e+002
4.768148e+002, 9.852125e+002
4.772969e+002, 1.017749e+003
4.777790e+002, 1.049855e+003
4.782611e+002, 1.080818e+003
4.787432e+002, 1.109019e+003
4.792253e+002, 1.134901e+003
4.797075e+002, 1.156349e+003
4.801896e+002, 1.173752e+003
4.806717e+002, 1.186011e+003
4.811538e+002, 1.192547e+003
4.816359e+002, 1.193178e+003
4.821180e+002, 1.187717e+003
4.826002e+002, 1.175782e+003
4.830823e+002, 1.157831e+003
4.835644e+002, 1.134488e+003
4.840465e+002, 1.105455e+003
4.845286e+002, 1.072378e+003
4.850107e+002, 1.034197e+003
4.854929e+002, 9.931194e+002
4.859750e+002, 9.511552e+002
4.864571e+002, 9.085768e+002
4.869392e+002, 8.661345e+002
4.874213e+002, 8.238565e+002
4.879034e+002, 7.820638e+002
4.883856e+002, 7.418332e+002
4.888677e+002, 7.030672e+002
4.893498e+002, 6.656123e+002
4.898319e+002, 6.293311e+002
4.903140e+002, 5.943480e+002
4.907961e+002, 5.615474e+002
4.912783e+002, 5.306753e+002
4.917604e+002, 5.019259e+002
4.922425e+002, 4.753229e+002
4.927246e+002, 4.507707e+002
4.932067e+002, 4.281357e+002
4.936888e+002, 4.074468e+002
4.941710e+002, 3.881873e+002
4.946531e+002, 3.699038e+002
4.951352e+002, 3.526219e+002
4.956173e+002, 3.364019e+002
4.960994e+002, 3.213275e+002
4.965815e+002, 3.070681e+002
4.970637e+002, 2.935783e+002
4.975458e+002, 2.808243e+002
4.980279e+002, 2.687647e+002
4.985100e+002, 2.573517e+002
4.989921e+002, 2.466783e+002
4.994742e+002, 2.368017e+002
4.999564e+002, 2.278592e+002
5.004385e+002, 2.194326e+002
5.009206e+002, 2.115824e+002
5.014027e+002, 2.040690e+002
5.018848e+002, 1.967549e+002
5.023669e+002, 1.896628e+002
5.028491e+002, 1.830941e+002
5.033312e+002, 1.774462e+002
5.038133e+002, 1.724208e+002
5.042954e+002, 1.672007e+002
5.047775e+002, 1.617314e+002
5.052596e+002, 1.564183e+002
5.057418e+002, 1.514460e+002
5.062239e+002, 1.467925e+002
5.067060e+002, 1.423539e+002
5.071881e+002, 1.381089e+002
5.076702e+002, 1.342046e+002
5.081523e+002, 1.309016e+002
5.086345e+002, 1.279263e+002
5.091166e+002, 1.247910e+002
5.095987e+002, 1.214098e+002
5.100808e+002, 1.180911e+002
5.105629e+002, 1.150330e+002
5.110450e+002, 1.122624e+002
5.115272e+002, 1.098537e+002
5.120093e+002, 1.081050e+002
5.124914e+002, 1.062984e+002
5.129735e+002, 1.040993e+002
5.134556e+002, 1.017668e+002
5.139377e+002, 9.961185e+001
5.144199e+002, 9.773625e+001
5.149020e+002, 9.604429e+001
5.153841e+002, 9.448752e+001
5.158662e+002, 9.313264e+001
5.163483e+002, 9.147421e+001
5.168304e+002, 8.900156e+001
5.173126e+002, 8.677198e+001
5.177947e+002, 8.516048e+001
5.182768e+002, 8.396312e+001
5.187589e+002, 8.290120e+001
5.192410e+002, 8.187141e+001
5.197231e+002, 8.083925e+001
5.202053e+002, 7.977543e+001
5.206874e+002, 7.868940e+001
5.211695e+002, 7.742647e+001
5.216516e+002, 7.573324e+001
5.221337e+002, 7.416466e+001
5.226158e+002, 7.317456e+001
5.230980e+002, 7.259765e+001
5.235801e+002, 7.195705e+001
5.240622e+002, 7.102402e+001
5.245443e+002, 7.002053e+001
5.250264e+002, 6.918333e+001
5.255085e+002, 6.848721e+001
5.259907e+002, 6.783955e+001
5.264728e+002, 6.722778e+001
5.269549e+002, 6.659767e+001
5.274370e+002, 6.586359e+001
5.279191e+002, 6.500948e+001
5.284012e+002, 6.412505e+001
5.288834e+002, 6.304876e+001
5.293655e+002, 6.209037e+001
5.298476e+002, 6.152744e+001
5.303297e+002, 6.127056e+001
5.308118e+002, 6.108655e+001
5.312939e+002, 6.086518e+001
5.317761e+002, 6.053886e+001
5.322582e+002, 5.990402e+001
5.327403e+002, 5.862202e+001
5.332224e+002, 5.766035e+001
5.337045e+002, 5.729033e+001
5.341866e+002, 5.697990e+001
5.346688e+002, 5.635160e+001
5.351509e+002, 5.548806e+001
5.356330e+002, 5.473742e+001
5.361151e+002, 5.435974e+001
5.365972e+002, 5.420467e+001
5.370793e+002, 5.385244e+001
5.375615e+002, 5.325749e+001
5.380436e+002, 5.265960e+001
5.385257e+002, 5.209093e+001
5.390078e+002, 5.158379e+001
5.394899e+002, 5.119828e+001
5.399720e+002, 5.092634e+001
5.404542e+002, 5.062376e+001
5.409363e+002, 5.017633e+001
5.414184e+002, 4.968076e+001
5.419005e+002, 4.930083e+001
5.423826e+002, 4.903399e+001
5.428647e+002, 4.871421e+001
5.433469e+002, 4.822844e+001
5.438290e+002, 4.765886e+001
5.443111e+002, 4.722854e+001
5.447932e+002, 4.702077e+001
5.452753e+002, 4.673851e+001
5.457574e+002, 4.632798e+001
5.462396e+002, 4.583253e+001
5.467217e+002, 4.519927e+001
5.472038e+002, 4.449271e+001
5.476859e+002, 4.395671e+001
5.481680e+002, 4.378260e+001
5.486501e+002, 4.386945e+001
5.491323e+002, 4.375715e+001
5.496144e+002, 4.326503e+001
5.500965e+002, 4.288743e+001
5.505786e+002, 4.274433e+001
5.510607e+002, 4.266725e+001
5.515428e+002, 4.259146e+001
5.520250e+002, 4.247828e+001
5.525071e+002, 4.223588e+001
5.529892e+002, 4.170757e+001
5.534713e+002, 4.102998e+001
5.539534e+002, 4.061726e+001
5.544355e+002, 4.051553e+001
5.549177e+002, 4.045649e+001
5.553998e+002, 4.038835e+001
5.558819e+002, 4.026599e+001
5.563640e+002, 4.001391e+001
5.568461e+002, 3.961113e+001
5.573282e+002, 3.924325e+001
5.578104e+002, 3.899097e+001
5.582925e+002, 3.880430e+001
5.587746e+002, 3.863515e+001
5.592567e+002, 3.847644e+001
5.597388e+002, 3.833178e+001
5.602209e+002, 3.820851e+001
5.607031e+002, 3.809030e+001
5.611852e+002, 3.792415e+001
5.616673e+002, 3.759322e+001
5.621494e+002, 3.738020e+001
5.626315e+002, 3.752492e+001
5.631136e+002, 3.760411e+001
5.635958e+002, 3.715026e+001
5.640779e+002, 3.630402e+001
5.645600e+002, 3.566611e+001
5.650421e+002, 3.569679e+001
5.655242e+002, 3.618041e+001
5.660063e+002, 3.637896e+001
5.664885e+002, 3.617776e+001
5.669706e+002, 3.602423e+001
5.674527e+002, 3.610743e+001
5.679348e+002, 3.620906e+001
5.684169e+002, 3.618075e+001
5.688990e+002, 3.602428e+001
5.693812e+002, 3.582399e+001
5.698633e+002, 3.553437e+001
5.703454e+002, 3.527483e+001
5.708275e+002, 3.529377e+001
5.713096e+002, 3.556693e+001
5.717917e+002, 3.571086e+001
5.722739e+002, 3.551863e+001
5.727560e+002, 3.518721e+001
5.732381e+002, 3.509071e+001
5.737202e+002, 3.531328e+001
5.742023e+002, 3.542158e+001
5.746844e+002, 3.520284e+001
5.751666e+002, 3.500811e+001
5.756487e+002, 3.516253e+001
5.761308e+002, 3.554449e+001
5.766129e+002, 3.579545e+001
5.770950e+002, 3.572466e+001
5.775771e+002, 3.547251e+001
5.780593e+002, 3.534451e+001
5.785414e+002, 3.537087e+001
5.790235e+002, 3.543921e+001
5.795056e+002, 3.560258e+001
5.799877e+002, 3.575308e+001
5.804698e+002, 3.581939e+001
5.809520e+002, 3.583537e+001
5.814341e+002, 3.588904e+001
5.819162e+002, 3.603474e+001
5.823983e+002, 3.620292e+001
5.828804e+002, 3.627563e+001
5.833625e+002, 3.626719e+001
5.838447e+002, 3.634967e+001
5.843268e+002, 3.660886e+001
5.848089e+002, 3.686361e+001
5.852910e+002, 3.689942e+001
5.857731e+002, 3.673893e+001
5.862552e+002, 3.661536e+001
5.867374e+002, 3.641633e+001
5.872195e+002, 3.639744e+001
5.877016e+002, 3.683037e+001
5.881837e+002, 3.749823e+001
5.886658e+002, 3.803087e+001
5.891479e+002, 3.831655e+001
5.896301e+002, 3.848242e+001
5.901122e+002, 3.869074e+001
5.905943e+002, 3.895729e+001
5.910764e+002, 3.910564e+001
5.915585e+002, 3.879066e+001
5.920406e+002, 3.877253e+001
5.925228e+002, 3.951690e+001
5.930049e+002, 4.051692e+001
5.934870e+002, 4.115800e+001
5.939691e+002, 4.128881e+001
5.944512e+002, 4.125547e+001
5.949333e+002, 4.131055e+001
5.954155e+002, 4.146709e+001
5.958976e+002, 4.179452e+001
5.963797e+002, 4.231383e+001
5.968618e+002, 4.292710e+001
5.973439e+002, 4.360777e+001
5.978260e+002, 4.433378e+001
5.983082e+002, 4.505017e+001
5.987903e+002, 4.578170e+001
5.992724e+002, 4.644136e+001
5.997545e+002, 4.689780e+001
6.002366e+002, 4.733311e+001
6.007188e+002, 4.802879e+001
6.012009e+002, 4.893919e+001
6.016830e+002, 4.966000e+001
6.021651e+002, 4.987880e+001
6.026472e+002, 4.980522e+001
6.031293e+002, 5.025039e+001
6.036115e+002, 5.166227e+001
6.040936e+002, 5.276951e+001
6.045757e+002, 5.329305e+001
6.050578e+002, 5.368825e+001
6.055399e+002, 5.426018e+001
6.060220e+002, 5.495388e+001
6.065042e+002, 5.554166e+001
6.069863e+002, 5.593624e+001
6.074684e+002, 5.609230e+001
6.079505e+002, 5.583896e+001
6.084326e+002, 5.518763e+001
6.089147e+002, 5.464406e+001
6.093969e+002, 5.440063e+001
6.098790e+002, 5.419545e+001
6.103611e+002, 5.379910e+001
6.108432e+002, 5.321082e+001
6.113253e+002, 5.234269e+001
6.118074e+002, 5.088136e+001
6.122896e+002, 4.945483e+001
6.127717e+002, 4.838152e+001
6.132538e+002, 4.757000e+001
6.137359e+002, 4.689537e+001
6.142180e+002, 4.630582e+001
6.147001e+002, 4.571388e+001
6.151823e+002, 4.498646e+001
6.156644e+002, 4.410685e+001
6.161465e+002, 4.344054e+001
6.166286e+002, 4.311141e+001
6.171107e+002, 4.283855e+001
6.175928e+002, 4.260608e+001
6.180750e+002, 4.236029e+001
6.185571e+002, 4.196839e+001
6.190392e+002, 4.142422e+001
6.195213e+002, 4.106195e+001
6.200034e+002, 4.129924e+001
6.204855e+002, 4.185872e+001
6.209677e+002, 4.208685e+001
6.214498e+002, 4.194654e+001
6.219319e+002, 4.178577e+001
6.224140e+002, 4.173329e+001
6.228961e+002, 4.180916e+001
6.233782e+002, 4.211236e+001
6.238604e+002, 4.277681e+001
6.243425e+002, 4.321819e+001
6.248246e+002, 4.312068e+001
6.253067e+002, 4.299960e+001
6.257888e+002, 4.322255e+001
6.262709e+002, 4.371027e+001
6.267531e+002, 4.422531e+001
6.272352e+002, 4.465044e+001
6.277173e+002, 4.500087e+001
6.281994e+002, 4.523865e+001
6.286815e+002, 4.528771e+001
6.291636e+002, 4.566703e+001
6.296458e+002, 4.667076e+001
6.301279e+002, 4.766381e+001
6.306100e+002, 4.827002e+001
6.310921e+002, 4.866883e+001
6.315742e+002, 4.917338e+001
6.320563e+002, 4.987552e+001
6.325385e+002, 5.065087e+001
6.330206e+002, 5.152180e+001
6.335027e+002, 5.237318e+001
6.339848e+002, 5.292837e+001
6.344669e+002, 5.315355e+001
6.349490e+002, 5.333937e+001
6.354312e+002, 5.370458e+001
6.359133e+002, 5.420004e+001
6.363954e+002, 5.459656e+001
6.368775e+002, 5.482219e+001
6.373596e+002, 5.503753e+001
6.378417e+002, 5.531609e+001
6.383239e+002, 5.552876e+001
6.388060e+002, 5.558768e+001
6.392881e+002, 5.549543e+001
6.397702e+002, 5.530188e+001
6.402523e+002, 5.504488e+001
6.407344e+002, 5.468392e+001
6.412166e+002, 5.410628e+001
6.416987e+002, 5.329921e+001
6.421808e+002, 5.252775e+001
6.426629e+002, 5.189366e+001
6.431450e+002, 5.121868e+001
6.436271e+002, 5.029408e+001
6.441093e+002, 4.918194e+001
6.445914e+002, 4.811481e+001
6.450735e+002, 4.709486e+001
6.455556e+002, 4.616568e+001
6.460377e+002, 4.545117e+001
6.465198e+002, 4.479717e+001
6.470020e+002, 4.392412e+001
6.474841e+002, 4.281777e+001
6.479662e+002, 4.177869e+001
6.484483e+002, 4.109771e+001
6.489304e+002, 4.071315e+001
6.494125e+002, 4.013300e+001
6.498947e+002, 3.915846e+001
6.503768e+002, 3.837281e+001
6.508589e+002, 3.806937e+001
6.513410e+002, 3.782825e+001
6.518231e+002, 3.732415e+001
6.523052e+002, 3.659163e+001
6.527874e+002, 3.591003e+001
6.532695e+002, 3.538765e+001
6.537516e+002, 3.501482e+001
6.542337e+002, 3.488507e+001
6.547158e+002, 3.492596e+001
6.551979e+002, 3.475499e+001
6.556801e+002, 3.422865e+001
6.561622e+002, 3.367736e+001
6.566443e+002, 3.350292e+001
6.571264e+002, 3.373950e+001
6.576085e+002, 3.369407e+001
6.580906e+002, 3.302799e+001
6.585728e+002, 3.254449e+001
6.590549e+002, 3.251970e+001
6.595370e+002, 3.271608e+001
6.600191e+002, 3.294291e+001
6.605012e+002, 3.313428e+001
6.609833e+002, 3.322983e+001
6.614655e+002, 3.316245e+001
6.619476e+002, 3.297245e+001
6.624297e+002, 3.274990e+001
6.629118e+002, 3.247408e+001
6.633939e+002, 3.234566e+001
6.638760e+002, 3.250729e+001
6.643582e+002, 3.274598e+001
6.648403e+002, 3.278000e+001
6.653224e+002, 3.262922e+001
6.658045e+002, 3.255656e+001
6.662866e+002, 3.270732e+001
6.667687e+002, 3.283778e+001
6.672509e+002, 3.280401e+001
6.677330e+002, 3.266173e+001
6.682151e+002, 3.244928e+001
6.686972e+002, 3.220167e+001
6.691793e+002, 3.208949e+001
6.696614e+002, 3.235525e+001
6.701436e+002, 3.294738e+001
6.706257e+002, 3.308858e+001
6.711078e+002, 3.250516e+001
6.715899e+002, 3.203783e+001
6.720720e+002, 3.199018e+001
6.725541e+002, 3.209806e+001
6.730363e+002, 3.225000e+001
6.735184e+002, 3.240637e+001
6.740005e+002, 3.234882e+001
6.744826e+002, 3.175128e+001
6.749647e+002, 3.108324e+001
6.754468e+002, 3.086169e+001
6.759290e+002, 3.096171e+001
6.764111e+002, 3.099050e+001
6.768932e+002, 3.082523e+001
6.773753e+002, 3.060973e+001
6.778574e+002, 3.052648e+001
6.783395e+002, 3.058613e+001
6.788217e+002, 3.050238e+001
6.793038e+002, 3.014936e+001
6.797859e+002, 2.980879e+001
6.802680e+002, 2.954763e+001
6.807501e+002, 2.930798e+001
6.812322e+002, 2.903456e+001
6.817144e+002, 2.872603e+001
6.821965e+002, 2.841295e+001
6.826786e+002, 2.805568e+001
6.831607e+002, 2.775098e+001
6.836428e+002, 2.772988e+001
6.841249e+002, 2.795252e+001
6.846071e+002, 2.807779e+001
6.850892e+002, 2.800027e+001
6.855713e+002, 2.779961e+001
6.860534e+002, 2.755090e+001
6.865355e+002, 2.725207e+001
6.870176e+002, 2.695236e+001
6.874998e+002, 2.668197e+001
6.879819e+002, 2.637446e+001
6.884640e+002, 2.589053e+001
6.889461e+002, 2.543868e+001
6.894282e+002, 2.528164e+001
6.899103e+002, 2.540844e+001
6.903925e+002, 2.554034e+001
6.908746e+002, 2.544631e+001
6.913567e+002, 2.523094e+001
6.918388e+002, 2.518667e+001
6.923209e+002, 2.532586e+001
6.928030e+002, 2.530930e+001
6.932852e+002, 2.500763e+001
6.937673e+002, 2.459543e+001
6.942494e+002, 2.419630e+001
6.947315e+002, 2.382113e+001
6.952136e+002, 2.361089e+001
6.956957e+002, 2.371872e+001
6.961779e+002, 2.381153e+001
6.966600e+002, 2.377724e+001
6.971421e+002, 2.366752e+001
6.976242e+002, 2.348651e+001
6.981063e+002, 2.327508e+001
6.985884e+002, 2.319087e+001
6.990706e+002, 2.340476e+001
6.995527e+002, 2.374330e+001
7.000348e+002, 2.362182e+001
7.005169e+002, 2.292774e+001
7.009990e+002, 2.250930e+001
7.014811e+002, 2.261338e+001
7.019633e+002, 2.291813e+001
7.024454e+002, 2.327072e+001
7.029275e+002, 2.361613e+001
7.034096e+002, 2.374894e+001
7.038917e+002, 2.351220e+001
7.043738e+002, 2.323766e+001
7.048560e+002, 2.302731e+001
7.053381e+002, 2.287348e+001
7.058202e+002, 2.275904e+001
7.063023e+002, 2.268730e+001
7.067844e+002, 2.269909e+001
7.072665e+002, 2.283738e+001
7.077487e+002, 2.302377e+001
7.082308e+002, 2.301010e+001
7.087129e+002, 2.272846e+001
7.091950e+002, 2.256962e+001
7.096771e+002, 2.264188e+001
7.101592e+002, 2.276362e+001
7.106414e+002, 2.290641e+001
7.111235e+002, 2.300083e+001
7.116056e+002, 2.284136e+001
7.120877e+002, 2.219217e+001
7.125698e+002, 2.176643e+001
7.130519e+002, 2.216911e+001
7.135341e+002, 2.282803e+001
7.140162e+002, 2.305409e+001
7.144983e+002, 2.284937e+001
7.149804e+002, 2.256712e+001
7.154625e+002, 2.240061e+001
7.159446e+002, 2.232448e+001
7.164268e+002, 2.228898e+001
7.169089e+002, 2.229975e+001
7.173910e+002, 2.232213e+001
7.178731e+002, 2.231980e+001
7.183552e+002, 2.238059e+001
7.188373e+002, 2.269739e+001
7.193195e+002, 2.303900e+001
7.198016e+002, 2.301000e+001
7.202837e+002, 2.247945e+001
7.207658e+002, 2.202487e+001
7.212479e+002, 2.198801e+001
7.217300e+002, 2.211853e+001
7.222122e+002, 2.214886e+001
7.226943e+002, 2.209731e+001
7.231764e+002, 2.212827e+001
7.236585e+002, 2.231581e+001
7.241406e+002, 2.249187e+001
7.246227e+002, 2.235074e+001
7.251049e+002, 2.182633e+001
7.255870e+002, 2.162897e+001
7.260691e+002, 2.201029e+001
7.265512e+002, 2.231227e+001
7.270333e+002, 2.223167e+001
7.275154e+002, 2.201610e+001
7.279976e+002, 2.189814e+001
7.284797e+002, 2.189862e+001
7.289618e+002, 2.192993e+001
7.294439e+002, 2.204846e+001
7.299260e+002, 2.210229e+001
7.304081e+002, 2.184851e+001
7.308903e+002, 2.143308e+001
7.313724e+002, 2.123347e+001
7.318545e+002, 2.135023e+001
7.323366e+002, 2.154844e+001
7.328187e+002, 2.158176e+001
7.333008e+002, 2.146415e+001
7.337830e+002, 2.136199e+001
7.342651e+002, 2.126692e+001
7.347472e+002, 2.120617e+001
7.352293e+002, 2.125408e+001
7.357114e+002, 2.128179e+001
7.361935e+002, 2.113943e+001
7.366757e+002, 2.088063e+001
7.371578e+002, 2.075518e+001
7.376399e+002, 2.096316e+001
7.381220e+002, 2.116400e+001
7.386041e+002, 2.109391e+001
7.390862e+002, 2.088311e+001
7.395684e+002, 2.074000e+001
7.400505e+002, 2.069035e+001
7.405326e+002, 2.061436e+001
7.410147e+002, 2.040079e+001
7.414968e+002, 2.016989e+001
7.419789e+002, 2.038117e+001
7.424611e+002, 2.128938e+001
7.429432e+002, 2.167044e+001
7.434253e+002, 2.098852e+001
7.439074e+002, 2.028913e+001
7.443895e+002, 2.024447e+001
7.448716e+002, 2.057053e+001
7.453538e+002, 2.074225e+001
7.458359e+002, 2.063840e+001
7.463180e+002, 2.051216e+001
7.468001e+002, 2.045005e+001
7.472822e+002, 2.044123e+001
7.477643e+002, 2.047287e+001
7.482465e+002, 2.054772e+001
7.487286e+002, 2.072006e+001
7.492107e+002, 2.101447e+001
7.496928e+002, 2.126240e+001
7.501749e+002, 2.114360e+001
7.506570e+002, 2.062776e+001
7.511392e+002, 2.041459e+001
7.516213e+002, 2.064552e+001
7.521034e+002, 2.085242e+001
7.525855e+002, 2.082729e+001
7.530676e+002, 2.069971e+001
7.535497e+002, 2.062314e+001
7.540319e+002, 2.060093e+001
7.545140e+002, 2.058349e+001
7.549961e+002, 2.048275e+001
7.554782e+002, 2.046284e+001
7.559603e+002, 2.078888e+001
7.564424e+002, 2.119303e+001
7.569246e+002, 2.116764e+001
7.574067e+002, 2.067335e+001
7.578888e+002, 2.024157e+001
7.583709e+002, 2.037212e+001
7.588530e+002, 2.086446e+001
7.593351e+002, 2.099287e+001
7.598173e+002, 2.069807e+001
7.602994e+002, 2.055854e+001
7.607815e+002, 2.076209e+001
7.612636e+002, 2.102914e+001
7.617457e+002, 2.110340e+001
7.622278e+002, 2.103574e+001
7.627100e+002, 2.108236e+001
7.631921e+002, 2.138937e+001
7.636742e+002, 2.159159e+001
7.641563e+002, 2.151920e+001
7.646384e+002, 2.137960e+001
7.651205e+002, 2.132067e+001
7.656027e+002, 2.134583e+001
7.660848e+002, 2.141035e+001
7.665669e+002, 2.149401e+001
7.670490e+002, 2.160187e+001
7.675311e+002, 2.178293e+001
7.680132e+002, 2.200545e+001
7.684954e+002, 2.205204e+001
7.689775e+002, 2.188221e+001
7.694596e+002, 2.177522e+001
7.699417e+002, 2.186346e+001
7.704238e+002, 2.209472e+001
7.709059e+002, 2.241319e+001
7.713881e+002, 2.289127e+001
7.718702e+002, 2.314415e+001
7.723523e+002, 2.294308e+001
7.728344e+002, 2.279788e+001
7.733165e+002, 2.296567e+001
7.737986e+002, 2.323245e+001
7.742808e+002, 2.332923e+001
7.747629e+002, 2.323759e+001
7.752450e+002, 2.316937e+001
7.757271e+002, 2.326553e+001
7.762092e+002, 2.346563e+001
7.766913e+002, 2.373956e+001
7.771735e+002, 2.404848e+001
7.776556e+002, 2.418393e+001
7.781377e+002, 2.409079e+001
7.786198e+002, 2.403638e+001
7.791019e+002, 2.426854e+001
7.795840e+002, 2.471716e+001
7.800662e+002, 2.502027e+001
7.805483e+002, 2.511202e+001
7.810304e+002, 2.518152e+001
7.815125e+002, 2.511785e+001
7.819946e+002, 2.515779e+001
7.824767e+002, 2.552857e+001
7.829589e+002, 2.605895e+001
7.834410e+002, 2.641974e+001
7.839231e+002, 2.651656e+001
7.844052e+002, 2.652230e+001
7.848873e+002, 2.651650e+001
7.853694e+002, 2.649328e+001
7.858516e+002, 2.642880e+001
7.863337e+002, 2.633906e+001
7.868158e+002, 2.624583e+001
7.872979e+002, 2.616003e+001
7.877800e+002, 2.619121e+001
7.882621e+002, 2.654404e+001
7.887443e+002, 2.719810e+001
7.892264e+002, 2.751627e+001
7.897085e+002, 2.734345e+001
7.901906e+002, 2.727585e+001
7.906727e+002, 2.761788e+001
7.911548e+002, 2.800690e+001
7.916370e+002, 2.810276e+001
7.921191e+002, 2.792725e+001
7.926012e+002, 2.760642e+001
7.930833e+002, 2.693988e+001
7.935654e+002, 2.640167e+001
7.940475e+002, 2.627548e+001
7.945297e+002, 2.629342e+001
7.950118e+002, 2.621859e+001
7.954939e+002, 2.601918e+001
7.959760e+002, 2.571937e+001
7.964581e+002, 2.531904e+001
7.969402e+002, 2.491240e+001
7.974224e+002, 2.466893e+001
7.979045e+002, 2.455791e+001
7.983866e+002, 2.435908e+001
7.988687e+002, 2.404047e+001
7.993508e+002, 2.376736e+001
7.998329e+002, 2.362151e+001
8.003151e+002, 2.357664e+001
8.007972e+002, 2.360674e+001
8.012793e+002, 2.376844e+001
8.017614e+002, 2.377829e+001
8.022435e+002, 2.356507e+001
8.027256e+002, 2.330328e+001
8.032078e+002, 2.294528e+001
8.036899e+002, 2.262726e+001
8.041720e+002, 2.251895e+001
8.046541e+002, 2.260996e+001
8.051362e+002, 2.270497e+001
8.056183e+002, 2.273984e+001
8.061005e+002, 2.268560e+001
8.065826e+002, 2.239490e+001
8.070647e+002, 2.201658e+001
8.075468e+002, 2.195016e+001
8.080289e+002, 2.223011e+001
8.085110e+002, 2.250144e+001
8.089932e+002, 2.252106e+001
8.094753e+002, 2.233332e+001
8.099574e+002, 2.200985e+001
8.104395e+002, 2.147174e+001
8.109216e+002, 2.115825e+001
8.114037e+002, 2.118881e+001
8.118859e+002, 2.128398e+001
8.123680e+002, 2.133176e+001
8.128501e+002, 2.134859e+001
8.133322e+002, 2.136865e+001
8.138143e+002, 2.140344e+001
8.142964e+002, 2.136480e+001
8.147786e+002, 2.117929e+001
8.152607e+002, 2.097126e+001
8.157428e+002, 2.078925e+001
8.162249e+002, 2.064178e+001
8.167070e+002, 2.053497e+001
8.171891e+002, 2.047050e+001
8.176713e+002, 2.044247e+001
8.181534e+002, 2.042749e+001
8.186355e+002, 2.047598e+001
8.191176e+002, 2.078731e+001
8.195997e+002, 2.130079e+001
8.200818e+002, 2.149301e+001
8.205640e+002, 2.124320e+001
8.210461e+002, 2.093026e+001
8.215282e+002, 2.082600e+001
8.220103e+002, 2.084747e+001
8.224924e+002, 2.073866e+001
8.229745e+002, 2.040583e+001
8.234567e+002, 2.014973e+001
8.239388e+002, 1.994704e+001
8.244209e+002, 1.984586e+001
8.249030e+002, 1.995331e+001
8.253851e+002, 2.012557e+001
8.258672e+002, 2.016320e+001
8.263494e+002, 2.004102e+001
8.268315e+002, 1.994361e+001
8.273136e+002, 1.988153e+001
8.277957e+002, 1.995079e+001
8.282778e+002, 2.039613e+001
8.287599e+002, 2.097702e+001
8.292421e+002, 2.128416e+001
8.297242e+002, 2.123089e+001
8.302063e+002, 2.086957e+001
8.306884e+002, 2.016969e+001
8.311705e+002, 1.938049e+001
8.316526e+002, 1.917565e+001
8.321348e+002, 1.957525e+001
8.326169e+002, 1.999069e+001
8.330990e+002, 2.043307e+001
8.335811e+002, 2.061034e+001
8.340632e+002, 2.023767e+001
8.345453e+002, 1.957014e+001
8.350275e+002, 1.915080e+001
8.355096e+002, 1.902484e+001
8.359917e+002, 1.903841e+001
8.364738e+002, 1.927520e+001
8.369559e+002, 1.955102e+001
8.374380e+002, 1.991371e+001
8.379202e+002, 2.020947e+001
8.384023e+002, 2.023613e+001
8.388844e+002, 2.000049e+001
8.393665e+002, 1.973715e+001
8.398486e+002, 1.959542e+001
8.403307e+002, 1.945047e+001
8.408129e+002, 1.905109e+001
8.412950e+002, 1.859452e+001
8.417771e+002, 1.855129e+001
8.422592e+002, 1.893129e+001
8.427413e+002, 1.931771e+001
8.432234e+002, 1.944631e+001
8.437056e+002, 1.942604e+001
8.441877e+002, 1.950290e+001
8.446698e+002, 1.969979e+001
8.451519e+002, 1.966664e+001
8.456340e+002, 1.927299e+001
8.461161e+002, 1.900172e+001
8.465983e+002, 1.913803e+001
8.470804e+002, 1.942220e+001
8.475625e+002, 1.950518e+001
8.480446e+002, 1.938136e+001
8.485267e+002, 1.916608e+001
8.490089e+002, 1.864682e+001
8.494910e+002, 1.831638e+001
8.499731e+002, 1.847580e+001
8.504552e+002, 1.875468e+001
8.509373e+002, 1.882296e+001
8.514194e+002, 1.870008e+001
8.519016e+002, 1.858960e+001
8.523837e+002, 1.860184e+001
8.528658e+002, 1.856712e+001
8.533479e+002, 1.822074e+001
8.538300e+002, 1.777140e+001
8.543121e+002, 1.763007e+001
8.547943e+002, 1.776363e+001
8.552764e+002, 1.785769e+001
8.557585e+002, 1.777623e+001
8.562406e+002, 1.766357e+001
8.567227e+002, 1.771803e+001
8.572048e+002, 1.792366e+001
8.576870e+002, 1.809732e+001
8.581691e+002, 1.826904e+001
8.586512e+002, 1.826536e+001
8.591333e+002, 1.794792e+001
8.596154e+002, 1.759260e+001
8.600975e+002, 1.742763e+001
8.605797e+002, 1.743400e+001
8.610618e+002, 1.749097e+001
8.615439e+002, 1.770381e+001
8.620260e+002, 1.779075e+001
8.625081e+002, 1.766121e+001
8.629902e+002, 1.745998e+001
8.634724e+002, 1.716483e+001
8.639545e+002, 1.689925e+001
8.644366e+002, 1.687016e+001
8.649187e+002, 1.712276e+001
8.654008e+002, 1.742605e+001
8.658829e+002, 1.773319e+001
8.663651e+002, 1.792723e+001
8.668472e+002, 1.778227e+001
8.673293e+002, 1.743439e+001
8.678114e+002, 1.718384e+001
8.682935e+002, 1.710460e+001
8.687756e+002, 1.718908e+001
8.692578e+002, 1.746464e+001
8.697399e+002, 1.779014e+001
8.702220e+002, 1.775231e+001
8.707041e+002, 1.732584e+001
8.711862e+002, 1.709370e+001
8.716683e+002, 1.714751e+001
8.721505e+002, 1.724741e+001
8.726326e+002, 1.731002e+001
8.731147e+002, 1.730235e+001
8.735968e+002, 1.713830e+001
8.740789e+002, 1.675787e+001
8.745610e+002, 1.654865e+001
8.750432e+002, 1.669062e+001
8.755253e+002, 1.676034e+001
8.760074e+002, 1.644376e+001
8.764895e+002, 1.619205e+001
8.769716e+002, 1.660325e+001
8.774537e+002, 1.744718e+001
8.779359e+002, 1.778704e+001
8.784180e+002, 1.712190e+001
8.789001e+002, 1.636826e+001
8.793822e+002, 1.606140e+001
8.798643e+002, 1.598269e+001
8.803464e+002, 1.590594e+001
8.808286e+002, 1.583142e+001
8.813107e+002, 1.583866e+001
8.817928e+002, 1.595246e+001
8.822749e+002, 1.610104e+001
8.827570e+002, 1.621691e+001
8.832391e+002, 1.630225e+001
8.837213e+002, 1.638733e+001
8.842034e+002, 1.646571e+001
8.846855e+002, 1.639347e+001
8.851676e+002, 1.611854e+001
8.856497e+002, 1.581675e+001
8.861318e+002, 1.561141e+001
8.866140e+002, 1.549898e+001
8.870961e+002, 1.546958e+001
8.875782e+002, 1.553384e+001
8.880603e+002, 1.566907e+001
8.885424e+002, 1.612020e+001
8.890245e+002, 1.630193e+001
8.895067e+002, 1.565714e+001
8.899888e+002, 1.481608e+001
8.904709e+002, 1.452623e+001
8.909530e+002, 1.481329e+001
8.914351e+002, 1.514727e+001
8.919172e+002, 1.559564e+001
8.923994e+002, 1.585238e+001
8.928815e+002, 1.566071e+001
8.933636e+002, 1.531989e+001
8.938457e+002, 1.508272e+001
8.943278e+002, 1.496955e+001
8.948099e+002, 1.492632e+001
8.952921e+002, 1.493430e+001
8.957742e+002, 1.497126e+001
8.962563e+002, 1.503559e+001
8.967384e+002, 1.510494e+001
8.972205e+002, 1.514847e+001
8.977026e+002, 1.516129e+001
8.981848e+002, 1.509922e+001
8.986669e+002, 1.495615e+001
8.991490e+002, 1.489472e+001
8.996311e+002, 1.511763e+001
9.001132e+002, 1.548999e+001
9.005953e+002, 1.543285e+001
9.010775e+002, 1.489291e+001
9.015596e+002, 1.455315e+001
9.020417e+002, 1.455486e+001
9.025238e+002, 1.460593e+001
9.030059e+002, 1.453211e+001
9.034880e+002, 1.439882e+001
9.039702e+002, 1.434599e+001
9.044523e+002, 1.440703e+001
9.049344e+002, 1.441384e+001
9.054165e+002, 1.437916e+001
9.058986e+002, 1.427332e+001
9.063807e+002, 1.395930e+001
9.068629e+002, 1.367346e+001
9.073450e+002, 1.362910e+001
9.078271e+002, 1.379997e+001
9.083092e+002, 1.404369e+001
9.087913e+002, 1.442144e+001
9.092734e+002, 1.466812e+001
9.097556e+002, 1.457591e+001
9.102377e+002, 1.438132e+001
9.107198e+002, 1.431594e+001
9.112019e+002, 1.430881e+001
9.116840e+002, 1.412768e+001
9.121661e+002, 1.373275e+001
9.126483e+002, 1.344632e+001
9.131304e+002, 1.361894e+001
9.136125e+002, 1.399005e+001
9.140946e+002, 1.409690e+001
9.145767e+002, 1.404227e+001
9.150588e+002, 1.425402e+001
9.155410e+002, 1.475712e+001
9.160231e+002, 1.498656e+001
9.165052e+002, 1.455339e+001
9.169873e+002, 1.382617e+001
9.174694e+002, 1.351669e+001
9.179515e+002, 1.363867e+001
9.184337e+002, 1.383013e+001
9.189158e+002, 1.413043e+001
9.193979e+002, 1.429471e+001
9.198800e+002, 1.418036e+001
9.203621e+002, 1.402012e+001
9.208442e+002, 1.409118e+001
9.213264e+002, 1.435736e+001
9.218085e+002, 1.442957e+001
9.222906e+002, 1.409930e+001
9.227727e+002, 1.391691e+001
9.232548e+002, 1.406994e+001
9.237369e+002, 1.419104e+001
9.242191e+002, 1.405279e+001
9.247012e+002, 1.379896e+001
9.251833e+002, 1.363664e+001
9.256654e+002, 1.358946e+001
9.261475e+002, 1.362738e+001
9.266296e+002, 1.386034e+001
9.271118e+002, 1.403670e+001
9.275939e+002, 1.392461e+001
9.280760e+002, 1.376348e+001
9.285581e+002, 1.384766e+001
9.290402e+002, 1.413737e+001
9.295223e+002, 1.439332e+001
9.300045e+002, 1.450966e+001
9.304866e+002, 1.457911e+001
9.309687e+002, 1.469227e+001
9.314508e+002, 1.480984e+001
9.319329e+002, 1.491123e+001
9.324150e+002, 1.496038e+001
9.328972e+002, 1.481715e+001
9.333793e+002, 1.446384e+001
9.338614e+002, 1.409557e+001
9.343435e+002, 1.386297e+001
9.348256e+002, 1.377931e+001
9.353077e+002, 1.396732e+001
9.357899e+002, 1.439423e+001
9.362720e+002, 1.454386e+001
9.367541e+002, 1.433834e+001
9.372362e+002, 1.410234e+001
9.377183e+002, 1.397093e+001
9.382004e+002, 1.397175e+001
9.386826e+002, 1.417273e+001
9.391647e+002, 1.458090e+001
9.396468e+002, 1.488822e+001
9.401289e+002, 1.512019e+001
9.406110e+002, 1.517692e+001
9.410931e+002, 1.489097e+001
9.415753e+002, 1.461808e+001
9.420574e+002, 1.464866e+001
9.425395e+002, 1.487379e+001
9.430216e+002, 1.499962e+001
9.435037e+002, 1.501286e+001
9.439858e+002, 1.496607e+001
9.444680e+002, 1.478949e+001
9.449501e+002, 1.464374e+001
9.454322e+002, 1.457680e+001
9.459143e+002, 1.457798e+001
9.463964e+002, 1.465076e+001
9.468785e+002, 1.478156e+001
9.473607e+002, 1.492129e+001
9.478428e+002, 1.505977e+001
9.483249e+002, 1.519366e+001
9.488070e+002, 1.533339e+001
9.492891e+002, 1.545670e+001
9.497712e+002, 1.555074e+001
9.502534e+002, 1.560856e+001
9.507355e+002, 1.561128e+001
9.512176e+002, 1.555883e+001
9.516997e+002, 1.548717e+001
9.521818e+002, 1.541645e+001
9.526639e+002, 1.535037e+001
9.531461e+002, 1.530816e+001
9.536282e+002, 1.527123e+001
9.541103e+002, 1.516770e+001
9.545924e+002, 1.501245e+001
9.550745e+002, 1.492267e+001
9.555566e+002, 1.495595e+001
9.560388e+002, 1.509527e+001
9.565209e+002, 1.537890e+001
9.570030e+002, 1.574515e+001
9.574851e+002, 1.585436e+001
9.579672e+002, 1.570821e+001
9.584493e+002, 1.550525e+001
9.589315e+002, 1.527201e+001
9.594136e+002, 1.513246e+001
9.598957e+002, 1.518680e+001
9.603778e+002, 1.537981e+001
9.608599e+002, 1.559749e+001
9.613420e+002, 1.588357e+001
9.618242e+002, 1.594175e+001
9.623063e+002, 1.565269e+001
9.627884e+002, 1.542941e+001
9.632705e+002, 1.542270e+001
9.637526e+002, 1.551443e+001
9.642347e+002, 1.562681e+001
9.647169e+002, 1.574350e+001
9.651990e+002, 1.574397e+001
9.656811e+002, 1.545226e+001
9.661632e+002, 1.531529e+001
9.666453e+002, 1.542433e+001
9.671274e+002, 1.558397e+001
9.676096e+002, 1.575183e+001
9.680917e+002, 1.590181e+001
9.685738e+002, 1.598839e+001
9.690559e+002, 1.601481e+001
9.695380e+002, 1.607506e+001
9.700201e+002, 1.627816e+001
9.705023e+002, 1.640446e+001
9.709844e+002, 1.621696e+001
9.714665e+002, 1.606665e+001
9.719486e+002, 1.633803e+001
9.724307e+002, 1.683842e+001
9.729128e+002, 1.714845e+001
9.733950e+002, 1.715982e+001
9.738771e+002, 1.710266e+001
9.743592e+002, 1.704870e+001
9.748413e+002, 1.705045e+001
9.753234e+002, 1.722893e+001
9.758055e+002, 1.745125e+001
9.762877e+002, 1.745976e+001
9.767698e+002, 1.730825e+001
9.772519e+002, 1.729133e+001
9.777340e+002, 1.754831e+001
9.782161e+002, 1.792351e+001
9.786982e+002, 1.831482e+001
9.791804e+002, 1.867331e+001
9.796625e+002, 1.882888e+001
9.801446e+002, 1.886441e+001
9.806267e+002, 1.913205e+001
9.811088e+002, 1.966721e+001
9.815909e+002, 2.008340e+001
9.820731e+002, 2.010468e+001
9.825552e+002, 1.991842e+001
9.830373e+002, 1.982131e+001
9.835194e+002, 1.981732e+001
9.840015e+002, 1.997437e+001
9.844836e+002, 2.029310e+001
9.849658e+002, 2.050687e+001
9.854479e+002, 2.051441e+001
9.859300e+002, 2.057904e+001
9.864121e+002, 2.098706e+001
9.868942e+002, 2.157744e+001
9.873763e+002, 2.169199e+001
9.878585e+002, 2.120726e+001
9.883406e+002, 2.108457e+001
9.888227e+002, 2.145755e+001
9.893048e+002, 2.192027e+001
9.897869e+002, 2.238213e+001
9.902690e+002, 2.270789e+001
9.907512e+002, 2.264666e+001
9.912333e+002, 2.225978e+001
9.917154e+002, 2.235672e+001
9.921975e+002, 2.335277e+001
9.926796e+002, 2.394152e+001
9.931617e+002, 2.375071e+001
9.936439e+002, 2.353759e+001
9.941260e+002, 2.372937e+001
9.946081e+002, 2.406311e+001
9.950902e+002, 2.414195e+001
9.955723e+002, 2.395526e+001
9.960544e+002, 2.384336e+001
9.965366e+002, 2.381570e+001
9.970187e+002, 2.386794e+001
9.975008e+002, 2.406652e+001
9.979829e+002, 2.427665e+001
9.984650e+002, 2.440148e+001
9.989471e+002, 2.448896e+001
9.994293e+002, 2.463268e+001
9.999114e+002, 2.484881e+001
1.000393e+003, 2.503667e+001
1.000876e+003, 2.511599e+001
1.001358e+003, 2.522768e+001
1.001840e+003, 2.542099e+001
1.002322e+003, 2.567835e+001
1.002804e+003, 2.605618e+001
1.003286e+003, 2.646752e+001
1.003768e+003, 2.671527e+001
1.004250e+003, 2.673614e+001
1.004733e+003, 2.675402e+001
1.005215e+003, 2.691780e+001
1.005697e+003, 2.709081e+001
1.006179e+003, 2.713794e+001
1.006661e+003, 2.715355e+001
1.007143e+003, 2.728631e+001
1.007625e+003, 2.750842e+001
1.008107e+003, 2.765937e+001
1.008589e+003, 2.766246e+001
1.009072e+003, 2.771320e+001
1.009554e+003, 2.807036e+001
1.010036e+003, 2.848514e+001
1.010518e+003, 2.868347e+001
1.011000e+003, 2.870037e+001
1.011482e+003, 2.853557e+001
1.011964e+003, 2.826501e+001
1.012446e+003, 2.818723e+001
1.012929e+003, 2.848391e+001
1.013411e+003, 2.884767e+001
1.013893e+003, 2.889744e+001
1.014375e+003, 2.875532e+001
1.014857e+003, 2.864367e+001
1.015339e+003, 2.856508e+001
1.015821e+003, 2.845819e+001
1.016303e+003, 2.833130e+001
1.016785e+003, 2.837444e+001
1.017268e+003, 2.874076e+001
1.017750e+003, 2.919723e+001
1.018232e+003, 2.940448e+001
1.018714e+003, 2.937435e+001
1.019196e+003, 2.902020e+001
1.019678e+003, 2.841247e+001
1.020160e+003, 2.821092e+001
1.020642e+003, 2.859351e+001
1.021125e+003, 2.905151e+001
1.021607e+003, 2.919544e+001
1.022089e+003, 2.907977e+001
1.022571e+003, 2.873912e+001
1.023053e+003, 2.819587e+001
1.023535e+003, 2.794892e+001
1.024017e+003, 2.802318e+001
1.024499e+003, 2.824472e+001
1.024981e+003, 2.858964e+001
1.025464e+003, 2.883553e+001
1.025946e+003, 2.875496e+001
1.026428e+003, 2.846524e+001
1.026910e+003, 2.833221e+001
1.027392e+003, 2.836823e+001
1.027874e+003, 2.843354e+001
1.028356e+003, 2.850692e+001
1.028838e+003, 2.871999e+001
1.029321e+003, 2.918273e+001
1.029803e+003, 2.960736e+001
1.030285e+003, 2.969228e+001
1.030767e+003, 2.951934e+001
1.031249e+003, 2.945879e+001
1.031731e+003, 2.954293e+001
1.032213e+003, 2.962316e+001
1.032695e+003, 2.972363e+001
1.033177e+003, 2.972978e+001
1.033660e+003, 2.951229e+001
1.034142e+003, 2.932480e+001
1.034624e+003, 2.942502e+001
1.035106e+003, 2.978913e+001
1.035588e+003, 3.028594e+001
1.036070e+003, 3.109079e+001
1.036552e+003, 3.159289e+001
1.037034e+003, 3.159738e+001
1.037516e+003, 3.161420e+001
1.037999e+003, 3.182360e+001
1.038481e+003, 3.214029e+001
1.038963e+003, 3.253507e+001
1.039445e+003, 3.297544e+001
1.039927e+003, 3.320030e+001
1.040409e+003, 3.289137e+001
1.040891e+003, 3.293401e+001
1.041373e+003, 3.370361e+001
1.041855e+003, 3.434889e+001
1.042338e+003, 3.442751e+001
1.042820e+003, 3.432555e+001
1.043302e+003, 3.442036e+001
1.043784e+003, 3.469330e+001
1.044266e+003, 3.499384e+001
1.044748e+003, 3.549226e+001
1.045230e+003, 3.572240e+001
1.045712e+003, 3.543227e+001
1.046195e+003, 3.514347e+001
1.046677e+003, 3.500351e+001
1.047159e+003, 3.500911e+001
1.047641e+003, 3.522815e+001
1.048123e+003, 3.561092e+001
1.048605e+003, 3.584967e+001
1.049087e+003, 3.591520e+001
1.049569e+003, 3.583004e+001
1.050052e+003, 3.541332e+001
1.050534e+003, 3.506280e+001
1.051016e+003, 3.501344e+001
1.051498e+003, 3.508715e+001
1.051980e+003, 3.508686e+001
1.052462e+003, 3.501405e+001
1.052944e+003, 3.498021e+001
1.053426e+003, 3.510358e+001
1.053908e+003, 3.506533e+001
1.054391e+003, 3.462154e+001
1.054873e+003, 3.419884e+001
1.055355e+003, 3.393982e+001
1.055837e+003, 3.386768e+001
1.056319e+003, 3.403710e+001
1.056801e+003, 3.441315e+001
1.057283e+003, 3.484621e+001
1.057765e+003, 3.538280e+001
1.058248e+003, 3.577586e+001
1.058730e+003, 3.595308e+001
1.059212e+003, 3.597051e+001
1.059694e+003, 3.571240e+001
1.060176e+003, 3.541462e+001
1.060658e+003, 3.533220e+001
1.061140e+003, 3.546302e+001
1.061622e+003, 3.566876e+001
1.062104e+003, 3.590514e+001
1.062587e+003, 3.623368e+001
1.063069e+003, 3.676099e+001
1.063551e+003, 3.728855e+001
1.064033e+003, 3.773347e+001
1.064515e+003, 3.809226e+001
1.064997e+003, 3.832235e+001
1.065479e+003, 3.846834e+001
1.065961e+003, 3.868823e+001
1.066443e+003, 3.905148e+001
1.066926e+003, 3.939986e+001
1.067408e+003, 3.952696e+001
1.067890e+003, 3.978156e+001
1.068372e+003, 4.040092e+001
1.068854e+003, 4.124218e+001
1.069336e+003, 4.227308e+001
1.069818e+003, 4.335994e+001
1.070300e+003, 4.413468e+001
1.070782e+003, 4.440326e+001
1.071265e+003, 4.481764e+001
1.071747e+003, 4.574236e+001
1.072229e+003, 4.681396e+001
1.072711e+003, 4.781073e+001
1.073193e+003, 4.884198e+001
1.073675e+003, 5.005629e+001
1.074157e+003, 5.140443e+001
1.074639e+003, 5.272586e+001
1.075122e+003, 5.397411e+001
1.075604e+003, 5.522242e+001
1.076086e+003, 5.652748e+001
1.076568e+003, 5.781662e+001
1.077050e+003, 5.892595e+001
1.077532e+003, 6.009510e+001
1.078014e+003, 6.163365e+001
1.078496e+003, 6.342794e+001
1.078979e+003, 6.514329e+001
1.079461e+003, 6.669370e+001
1.079943e+003, 6.820678e+001
1.080425e+003, 6.965438e+001
1.080907e+003, 7.116790e+001
1.081389e+003, 7.278666e+001
1.081871e+003, 7.452277e+001
1.082353e+003, 7.664198e+001
1.082835e+003, 7.880867e+001
1.083318e+003, 8.018011e+001
1.083800e+003, 8.058239e+001
1.084282e+003, 8.130221e+001
1.084764e+003, 8.311755e+001
1.085246e+003, 8.510020e+001
1.085728e+003, 8.709770e+001
1.086210e+003, 8.878026e+001
1.086692e+003, 8.964635e+001
1.087175e+003, 9.008308e+001
1.087657e+003, 9.078571e+001
1.088139e+003, 9.186872e+001
1.088621e+003, 9.294102e+001
1.089103e+003, 9.398936e+001
1.089585e+003, 9.479617e+001
1.090067e+003, 9.501278e+001
1.090549e+003, 9.520498e+001
1.091031e+003, 9.588280e+001
1.091514e+003, 9.678406e+001
1.091996e+003, 9.746500e+001
1.092478e+003, 9.789007e+001
1.092960e+003, 9.835201e+001
1.093442e+003, 9.905425e+001
1.093924e+003, 9.960750e+001
1.094406e+003, 9.989668e+001
1.094888e+003, 9.996342e+001
1.095370e+003, 9.967033e+001
1.095853e+003, 9.928024e+001
1.096335e+003, 9.915404e+001
1.096817e+003, 9.926230e+001
1.097299e+003, 9.926187e+001
1.097781e+003, 9.901939e+001
1.098263e+003, 9.877732e+001
1.098745e+003, 9.866670e+001
1.099227e+003, 9.851337e+001
1.099709e+003, 9.825453e+001
1.100192e+003, 9.788475e+001
1.100674e+003, 9.736097e+001
1.101156e+003, 9.672762e+001
1.101638e+003, 9.615650e+001
1.102120e+003, 9.576160e+001
1.102602e+003, 9.510749e+001
1.103084e+003, 9.374792e+001
1.103566e+003, 9.254056e+001
1.104049e+003, 9.203458e+001
1.104531e+003, 9.162594e+001
1.105013e+003, 9.074558e+001
1.105495e+003, 8.955556e+001
1.105977e+003, 8.849186e+001
1.106459e+003, 8.760605e+001
1.106941e+003, 8.682165e+001
1.107423e+003, 8.629990e+001
1.107906e+003, 8.563468e+001
1.108388e+003, 8.464977e+001
1.108870e+003, 8.356466e+001
1.109352e+003, 8.248584e+001
1.109834e+003, 8.142654e+001
1.110316e+003, 8.044995e+001
1.110798e+003, 7.956418e+001
1.111280e+003, 7.848103e+001
1.111762e+003, 7.686625e+001
1.112245e+003, 7.551952e+001
1.112727e+003, 7.473824e+001
1.113209e+003, 7.400912e+001
1.113691e+003, 7.312173e+001
1.114173e+003, 7.213004e+001
1.114655e+003, 7.103690e+001
1.115137e+003, 6.986652e+001
1.115619e+003, 6.889165e+001
1.116102e+003, 6.826687e+001
1.116584e+003, 6.757191e+001
1.117066e+003, 6.689294e+001
1.117548e+003, 6.599862e+001
1.118030e+003, 6.460506e+001
1.118512e+003, 6.317635e+001
1.118994e+003, 6.217386e+001
1.119476e+003, 6.149405e+001
1.119958e+003, 6.071368e+001
1.120441e+003, 5.976563e+001
1.120923e+003, 5.894432e+001
1.121405e+003, 5.836947e+001
1.121887e+003, 5.764682e+001
1.122369e+003, 5.656567e+001
1.122851e+003, 5.552855e+001
1.123333e+003, 5.486844e+001
1.123815e+003, 5.442264e+001
1.124297e+003, 5.382993e+001
1.124780e+003, 5.308214e+001
1.125262e+003, 5.233688e+001
1.125744e+003, 5.163819e+001
1.126226e+003, 5.072741e+001
1.126708e+003, 4.941015e+001
1.127190e+003, 4.841864e+001
1.127672e+003, 4.825882e+001
1.128154e+003, 4.837959e+001
1.128636e+003, 4.795361e+001
1.129119e+003, 4.706437e+001
1.129601e+003, 4.647768e+001
1.130083e+003, 4.624401e+001
1.130565e+003, 4.565827e+001
1.131047e+003, 4.460381e+001
1.131529e+003, 4.367923e+001
1.132011e+003, 4.315247e+001
1.132493e+003, 4.265281e+001
1.132976e+003, 4.177954e+001
1.133458e+003, 4.070227e+001
1.133940e+003, 3.990572e+001
1.134422e+003, 3.937221e+001
1.134904e+003, 3.892575e+001
1.135386e+003, 3.855373e+001
1.135868e+003, 3.817615e+001
1.136350e+003, 3.776902e+001
1.136833e+003, 3.723503e+001
1.137315e+003, 3.648657e+001
1.137797e+003, 3.567818e+001
1.138279e+003, 3.503331e+001
1.138761e+003, 3.455273e+001
1.139243e+003, 3.437569e+001
1.139725e+003, 3.437817e+001
1.140207e+003, 3.394254e+001
1.140689e+003, 3.305230e+001
1.141172e+003, 3.232183e+001
1.141654e+003, 3.203967e+001
1.142136e+003, 3.189910e+001
1.142618e+003, 3.155817e+001
1.143100e+003, 3.117073e+001
1.143582e+003, 3.109707e+001
1.144064e+003, 3.113189e+001
1.144546e+003, 3.085088e+001
1.145029e+003, 3.026772e+001
1.145511e+003, 2.946708e+001
1.145993e+003, 2.853716e+001
1.146475e+003, 2.789706e+001
1.146957e+003, 2.793098e+001
1.147439e+003, 2.810681e+001
1.147921e+003, 2.799738e+001
1.148403e+003, 2.765211e+001
1.148885e+003, 2.696805e+001
1.149368e+003, 2.617475e+001
1.149850e+003, 2.568491e+001
1.150332e+003, 2.549493e+001
1.150814e+003, 2.525703e+001
1.151296e+003, 2.480481e+001
1.151778e+003, 2.445816e+001
1.152260e+003, 2.465304e+001
1.152742e+003, 2.473861e+001
1.153224e+003, 2.414116e+001
1.153707e+003, 2.330910e+001
1.154189e+003, 2.257141e+001
1.154671e+003, 2.205304e+001
1.155153e+003, 2.199758e+001
1.155635e+003, 2.245950e+001
1.156117e+003, 2.272344e+001
1.156599e+003, 2.243405e+001
1.157081e+003, 2.209988e+001
1.157563e+003, 2.184427e+001
1.158046e+003, 2.162890e+001
1.158528e+003, 2.150747e+001
1.159010e+003, 2.136345e+001
1.159492e+003, 2.102133e+001
1.159974e+003, 2.049865e+001
1.160456e+003, 1.999026e+001
1.160938e+003, 1.937879e+001
1.161420e+003, 1.904244e+001
1.161903e+003, 1.919617e+001
1.162385e+003, 1.934327e+001
1.162867e+003, 1.940522e+001
1.163349e+003, 1.934756e+001
1.163831e+003, 1.911381e+001
1.164313e+003, 1.875548e+001
1.164795e+003, 1.838060e+001
1.165277e+003, 1.796648e+001
1.165760e+003, 1.772923e+001
1.166242e+003, 1.772606e+001
1.166724e+003, 1.771214e+001
1.167206e+003, 1.763258e+001
1.167688e+003, 1.761553e+001
1.168170e+003, 1.776953e+001
1.168652e+003, 1.789367e+001
1.169134e+003, 1.771349e+001
1.169616e+003, 1.729573e+001
1.170099e+003, 1.693772e+001
1.170581e+003, 1.663889e+001
1.171063e+003, 1.643598e+001
1.171545e+003, 1.633126e+001
1.172027e+003, 1.614965e+001
1.172509e+003, 1.583379e+001
1.172991e+003, 1.562615e+001
1.173473e+003, 1.573153e+001
1.173956e+003, 1.593017e+001
1.174438e+003, 1.582119e+001
1.174920e+003, 1.550064e+001
1.175402e+003, 1.523587e+001
1.175884e+003, 1.504405e+001
1.176366e+003, 1.504975e+001
1.176848e+003, 1.520124e+001
1.177330e+003, 1.515485e+001
1.177813e+003, 1.477036e+001
1.178295e+003, 1.430292e+001
1.178777e+003, 1.387632e+001
1.179259e+003, 1.363271e+001
1.179741e+003, 1.398037e+001
1.180223e+003, 1.445813e+001
1.180705e+003, 1.429841e+001
1.181187e+003, 1.376105e+001
1.181669e+003, 1.353838e+001
1.182151e+003, 1.368788e+001
1.182634e+003, 1.365353e+001
1.183116e+003, 1.308243e+001
1.183598e+003, 1.268090e+001
1.184080e+003, 1.318359e+001
1.184562e+003, 1.362350e+001
1.185044e+003, 1.323986e+001
1.185526e+003, 1.255808e+001
1.186008e+003, 1.200280e+001
1.186490e+003, 1.165844e+001
1.186973e+003, 1.162844e+001
1.187455e+003, 1.195081e+001
1.187937e+003, 1.218911e+001
1.188419e+003, 1.231033e+001
1.188901e+003, 1.226316e+001
1.189383e+003, 1.177776e+001
1.189865e+003, 1.142600e+001
1.190347e+003, 1.168405e+001
1.190830e+003, 1.207275e+001
1.191312e+003, 1.202129e+001
1.191794e+003, 1.164796e+001
1.192276e+003, 1.155064e+001
1.192758e+003, 1.183757e+001
1.193240e+003, 1.204578e+001
1.193722e+003, 1.220824e+001
1.194204e+003, 1.217332e+001
1.194687e+003, 1.185846e+001
1.195169e+003, 1.147800e+001
1.195651e+003, 1.113501e+001
1.196133e+003, 1.089673e+001
1.196615e+003, 1.090576e+001
1.197097e+003, 1.110110e+001
1.197579e+003, 1.106345e+001
1.198061e+003, 1.081288e+001
1.198543e+003, 1.077241e+001
1.199026e+003, 1.096636e+001
1.199508e+003, 1.115117e+001
1.199990e+003, 1.123970e+001
1.200472e+003, 1.120736e+001
1.200954e+003, 1.101662e+001
1.201436e+003, 1.078036e+001
1.201918e+003, 1.066031e+001
1.202400e+003, 1.062230e+001
1.202883e+003, 1.068134e+001
1.203365e+003, 1.073582e+001
1.203847e+003, 1.044871e+001
1.204329e+003, 9.925275e+000
1.204811e+003, 9.705017e+000
1.205293e+003, 9.976254e+000
1.205775e+003, 1.027188e+001
1.206257e+003, 1.024780e+001
1.206740e+003, 1.016909e+001
1.207222e+003, 1.000183e+001
1.207704e+003, 1.008601e+001
1.208186e+003, 1.119686e+001
1.208668e+003, 1.248611e+001
1.209150e+003, 1.256193e+001
1.209632e+003, 1.153964e+001
1.210114e+003, 1.074015e+001
1.210596e+003, 1.049189e+001
1.211078e+003, 1.035490e+001
1.211561e+003, 1.031573e+001
1.212043e+003, 1.027186e+001
1.212525e+003, 1.020825e+001
1.213007e+003, 1.011074e+001
1.213489e+003, 9.900220e+000
1.213971e+003, 9.704987e+000
1.214453e+003, 9.773293e+000
1.214935e+003, 1.007932e+001
1.215417e+003, 1.011909e+001
1.215900e+003, 9.764238e+000
1.216382e+003, 9.660153e+000
1.216864e+003, 9.917003e+000
1.217346e+003, 1.009148e+001
1.217828e+003, 1.004583e+001
1.218310e+003, 9.852285e+000
1.218792e+003, 9.526508e+000
1.219274e+003, 9.239824e+000
1.219757e+003, 9.378442e+000
1.220239e+003, 9.818991e+000
1.220721e+003, 9.950442e+000
1.221203e+003, 9.832317e+000
1.221685e+003, 9.742953e+000
1.222167e+003, 9.716192e+000
1.222649e+003, 9.701567e+000
1.223131e+003, 9.682270e+000
1.223614e+003, 9.695149e+000
1.224096e+003, 9.795682e+000
1.224578e+003, 9.854822e+000
1.225060e+003, 9.628895e+000
1.225542e+003, 9.372384e+000
1.226024e+003, 9.422266e+000
1.226506e+003, 9.635559e+000
1.226988e+003, 9.864316e+000
1.227470e+003, 1.001311e+001
1.227953e+003, 9.830153e+000
1.228435e+003, 9.225296e+000
1.228917e+003, 8.930379e+000
1.229399e+003, 9.598087e+000
1.229881e+003, 1.008506e+001
1.230363e+003, 9.867701e+000
1.230845e+003, 9.536237e+000
1.231327e+003, 9.348762e+000
1.231810e+003, 9.302037e+000
1.232292e+003, 9.488235e+000
1.232774e+003, 9.798209e+000
1.233256e+003, 9.772258e+000
1.233738e+003, 9.268078e+000
1.234220e+003, 9.049354e+000
1.234702e+003, 9.188675e+000
1.235184e+003, 9.414201e+000
1.235667e+003, 9.745106e+000
1.236149e+003, 9.853147e+000
1.236631e+003, 9.516547e+000
1.237113e+003, 9.125662e+000
1.237595e+003, 9.167388e+000
1.238077e+003, 9.482311e+000
1.238559e+003, 9.622054e+000
1.239041e+003, 9.601343e+000
1.239523e+003, 9.447494e+000
1.240005e+003, 9.202515e+000
1.240488e+003, 9.037452e+000
1.240970e+003, 8.990584e+000
1.241452e+003, 9.057611e+000
1.241934e+003, 9.238153e+000
1.242416e+003, 9.399641e+000
1.242898e+003, 9.432331e+000
1.243380e+003, 9.373746e+000
1.243862e+003, 9.140399e+000
1.244344e+003, 8.941110e+000
1.244827e+003, 9.114755e+000
1.245309e+003, 9.441040e+000
1.245791e+003, 9.517590e+000
1.246273e+003, 9.334521e+000
1.246755e+003, 9.161658e+000
1.247237e+003, 9.064274e+000
1.247719e+003, 8.989512e+000
1.248201e+003, 8.963269e+000
1.248684e+003, 8.904241e+000
1.249166e+003, 8.624936e+000
1.249648e+003, 8.506571e+000
1.250130e+003, 8.914222e+000
1.250612e+003, 9.448803e+000
1.251094e+003, 9.551638e+000
1.251576e+003, 9.300435e+000
1.252058e+003, 9.210666e+000
1.252541e+003, 9.318940e+000
1.253023e+003, 9.287433e+000
1.253505e+003, 9.082683e+000
1.253987e+003, 9.121813e+000
1.254469e+003, 9.512227e+000
1.254951e+003, 9.559184e+000
1.255433e+003, 8.834658e+000
1.255915e+003, 8.108035e+000
1.256397e+003, 8.444432e+000
1.256880e+003, 9.228876e+000
1.257362e+003, 9.209386e+000
1.257844e+003, 8.763277e+000
1.258326e+003, 8.606746e+000
1.258808e+003, 8.683964e+000
1.259290e+003, 8.744521e+000
1.259772e+003, 8.725785e+000
1.260254e+003, 8.614654e+000
1.260737e+003, 8.382041e+000
1.261219e+003, 8.252649e+000
1.261701e+003, 8.411688e+000
1.262183e+003, 8.613236e+000
1.262665e+003, 8.859138e+000
1.263147e+003, 8.976899e+000
1.263629e+003, 8.659804e+000
1.264111e+003, 8.255764e+000
1.264594e+003, 8.309557e+000
1.265076e+003, 8.745843e+000
1.265558e+003, 9.055902e+000
1.266040e+003, 9.258926e+000
1.266522e+003, 9.239776e+000
1.267004e+003, 8.910392e+000
1.267486e+003, 8.662206e+000
1.267968e+003, 8.564679e+000
1.268450e+003, 8.590633e+000
1.268932e+003, 8.737623e+000
1.269415e+003, 8.938124e+000
1.269897e+003, 9.147321e+000
1.270379e+003, 9.286325e+000
1.270861e+003, 9.049991e+000
1.271343e+003, 8.623581e+000
1.271825e+003, 8.616116e+000
1.272307e+003, 8.915105e+000
1.272789e+003, 9.161856e+000
1.273271e+003, 9.276414e+000
1.273754e+003, 9.240206e+000
1.274236e+003, 9.052859e+000
1.274718e+003, 8.893824e+000
1.275200e+003, 8.919566e+000
1.275682e+003, 8.948604e+000
1.276164e+003, 8.932450e+000
1.276646e+003, 8.815283e+000
1.277128e+003, 8.400315e+000
1.277611e+003, 7.984649e+000
1.278093e+003, 7.924326e+000
1.278575e+003, 8.153500e+000
1.279057e+003, 8.453082e+000
1.279539e+003, 8.857568e+000
1.280021e+003, 8.943891e+000
1.280503e+003, 8.519874e+000
1.280985e+003, 8.347521e+000
1.281468e+003, 8.593489e+000
1.281950e+003, 8.733779e+000
1.282432e+003, 8.544728e+000
1.282914e+003, 8.373895e+000
1.283396e+003, 8.514869e+000
1.283878e+003, 8.835543e+000
1.284360e+003, 9.196616e+000
1.284842e+003, 9.497426e+000
1.285324e+003, 9.456546e+000
##END=



