##NAMES=Analcime
##RRUFFID=R120095
##IDEAL CHEMISTRY=NaAlSi_2_O_6_&#183;H_2_O
##LOCALITY=Daye area, Hubei, China
##OWNER=RRUFF
##SOURCE=Robert Lavinsky
##DESCRIPTION=Colorless trapezohedra
##STATUS=The identification of this mineral has been confirmed by single-crystal X-ray diffraction.
##URL=rruff.info/R120095
9.001007e+001, 0.000000e+000
9.049219e+001, 1.680460e+001
9.097430e+001, 1.684593e+001
9.145642e+001, 1.684153e+001
9.193854e+001, 1.679399e+001
9.242065e+001, 1.672506e+001
9.290277e+001, 1.668504e+001
9.338489e+001, 1.663954e+001
9.386700e+001, 1.650212e+001
9.434912e+001, 1.616012e+001
9.483124e+001, 1.573274e+001
9.531335e+001, 1.544490e+001
9.579547e+001, 1.529346e+001
9.627759e+001, 1.530413e+001
9.675970e+001, 1.564298e+001
9.724182e+001, 1.627467e+001
9.772394e+001, 1.673428e+001
9.820605e+001, 1.679144e+001
9.868817e+001, 1.646942e+001
9.917029e+001, 1.602357e+001
9.965240e+001, 1.539115e+001
1.001345e+002, 1.473790e+001
1.006166e+002, 1.443426e+001
1.010988e+002, 1.454739e+001
1.015809e+002, 1.470470e+001
1.020630e+002, 1.464558e+001
1.025451e+002, 1.426984e+001
1.030272e+002, 1.418536e+001
1.035093e+002, 1.447898e+001
1.039915e+002, 1.508540e+001
1.044736e+002, 1.579865e+001
1.049557e+002, 1.677812e+001
1.054378e+002, 1.762462e+001
1.059199e+002, 1.806150e+001
1.064020e+002, 1.798713e+001
1.068842e+002, 1.768832e+001
1.073663e+002, 1.709594e+001
1.078484e+002, 1.620888e+001
1.083305e+002, 1.551442e+001
1.088126e+002, 1.513958e+001
1.092947e+002, 1.489073e+001
1.097769e+002, 1.459067e+001
1.102590e+002, 1.420131e+001
1.107411e+002, 1.379909e+001
1.112232e+002, 1.338900e+001
1.117053e+002, 1.296286e+001
1.121874e+002, 1.257085e+001
1.126696e+002, 1.223398e+001
1.131517e+002, 1.193103e+001
1.136338e+002, 1.163451e+001
1.141159e+002, 1.125805e+001
1.145980e+002, 1.095580e+001
1.150801e+002, 1.078397e+001
1.155623e+002, 1.077427e+001
1.160444e+002, 1.083980e+001
1.165265e+002, 1.102019e+001
1.170086e+002, 1.126272e+001
1.174907e+002, 1.145107e+001
1.179728e+002, 1.155813e+001
1.184550e+002, 1.159184e+001
1.189371e+002, 1.154849e+001
1.194192e+002, 1.138249e+001
1.199013e+002, 1.120908e+001
1.203834e+002, 1.105407e+001
1.208655e+002, 1.093009e+001
1.213477e+002, 1.088636e+001
1.218298e+002, 1.101151e+001
1.223119e+002, 1.120961e+001
1.227940e+002, 1.138008e+001
1.232761e+002, 1.149070e+001
1.237582e+002, 1.156408e+001
1.242404e+002, 1.162178e+001
1.247225e+002, 1.166248e+001
1.252046e+002, 1.166961e+001
1.256867e+002, 1.161348e+001
1.261688e+002, 1.151575e+001
1.266509e+002, 1.141595e+001
1.271331e+002, 1.131468e+001
1.276152e+002, 1.122523e+001
1.280973e+002, 1.115182e+001
1.285794e+002, 1.109088e+001
1.290615e+002, 1.108940e+001
1.295436e+002, 1.133411e+001
1.300258e+002, 1.173604e+001
1.305079e+002, 1.190402e+001
1.309900e+002, 1.135223e+001
1.314721e+002, 1.040227e+001
1.319542e+002, 1.014939e+001
1.324363e+002, 1.076890e+001
1.329185e+002, 1.164767e+001
1.334006e+002, 1.179054e+001
1.338827e+002, 1.119859e+001
1.343648e+002, 1.063653e+001
1.348469e+002, 1.054719e+001
1.353290e+002, 1.089796e+001
1.358112e+002, 1.124204e+001
1.362933e+002, 1.158455e+001
1.367754e+002, 1.185583e+001
1.372575e+002, 1.179772e+001
1.377396e+002, 1.131659e+001
1.382217e+002, 1.092946e+001
1.387039e+002, 1.104875e+001
1.391860e+002, 1.177539e+001
1.396681e+002, 1.229273e+001
1.401502e+002, 1.247743e+001
1.406323e+002, 1.239366e+001
1.411144e+002, 1.233795e+001
1.415966e+002, 1.235486e+001
1.420787e+002, 1.231298e+001
1.425608e+002, 1.204832e+001
1.430429e+002, 1.138657e+001
1.435250e+002, 1.100725e+001
1.440071e+002, 1.109923e+001
1.444893e+002, 1.163807e+001
1.449714e+002, 1.204131e+001
1.454535e+002, 1.235099e+001
1.459356e+002, 1.247897e+001
1.464177e+002, 1.229427e+001
1.468998e+002, 1.142549e+001
1.473820e+002, 1.082820e+001
1.478641e+002, 1.075676e+001
1.483462e+002, 1.131066e+001
1.488283e+002, 1.170085e+001
1.493104e+002, 1.186851e+001
1.497925e+002, 1.190229e+001
1.502747e+002, 1.190613e+001
1.507568e+002, 1.188924e+001
1.512389e+002, 1.183315e+001
1.517210e+002, 1.172752e+001
1.522031e+002, 1.156035e+001
1.526852e+002, 1.138472e+001
1.531674e+002, 1.118455e+001
1.536495e+002, 1.097884e+001
1.541316e+002, 1.079376e+001
1.546137e+002, 1.065176e+001
1.550958e+002, 1.051306e+001
1.555779e+002, 1.035804e+001
1.560601e+002, 1.015897e+001
1.565422e+002, 1.000634e+001
1.570243e+002, 9.971889e+000
1.575064e+002, 9.991017e+000
1.579885e+002, 9.938663e+000
1.584706e+002, 9.617940e+000
1.589528e+002, 9.344112e+000
1.594349e+002, 9.286474e+000
1.599170e+002, 9.627460e+000
1.603991e+002, 9.907192e+000
1.608812e+002, 9.887017e+000
1.613633e+002, 9.695333e+000
1.618455e+002, 9.669239e+000
1.623276e+002, 9.995196e+000
1.628097e+002, 1.048065e+001
1.632918e+002, 1.102117e+001
1.637739e+002, 1.165126e+001
1.642560e+002, 1.224772e+001
1.647382e+002, 1.264209e+001
1.652203e+002, 1.291979e+001
1.657024e+002, 1.340768e+001
1.661845e+002, 1.451317e+001
1.666666e+002, 1.579072e+001
1.671487e+002, 1.681911e+001
1.676309e+002, 1.724813e+001
1.681130e+002, 1.765804e+001
1.685951e+002, 1.836289e+001
1.690772e+002, 1.934749e+001
1.695593e+002, 2.051056e+001
1.700414e+002, 2.201409e+001
1.705236e+002, 2.360351e+001
1.710057e+002, 2.494947e+001
1.714878e+002, 2.574883e+001
1.719699e+002, 2.643407e+001
1.724520e+002, 2.742750e+001
1.729341e+002, 2.870244e+001
1.734163e+002, 2.986524e+001
1.738984e+002, 3.036730e+001
1.743805e+002, 3.060153e+001
1.748626e+002, 3.120170e+001
1.753447e+002, 3.284985e+001
1.758268e+002, 3.475678e+001
1.763090e+002, 3.595659e+001
1.767911e+002, 3.643293e+001
1.772732e+002, 3.682839e+001
1.777553e+002, 3.744180e+001
1.782374e+002, 3.820823e+001
1.787195e+002, 3.915382e+001
1.792017e+002, 4.049931e+001
1.796838e+002, 4.196630e+001
1.801659e+002, 4.309285e+001
1.806480e+002, 4.388067e+001
1.811301e+002, 4.449910e+001
1.816122e+002, 4.504081e+001
1.820944e+002, 4.554413e+001
1.825765e+002, 4.612114e+001
1.830586e+002, 4.676163e+001
1.835407e+002, 4.751419e+001
1.840228e+002, 4.857810e+001
1.845049e+002, 4.998058e+001
1.849871e+002, 5.148061e+001
1.854692e+002, 5.285373e+001
1.859513e+002, 5.409983e+001
1.864334e+002, 5.512892e+001
1.869155e+002, 5.570882e+001
1.873976e+002, 5.602451e+001
1.878798e+002, 5.676617e+001
1.883619e+002, 5.801824e+001
1.888440e+002, 5.943864e+001
1.893261e+002, 6.055213e+001
1.898082e+002, 6.138391e+001
1.902903e+002, 6.211340e+001
1.907725e+002, 6.276358e+001
1.912546e+002, 6.337212e+001
1.917367e+002, 6.410423e+001
1.922188e+002, 6.497420e+001
1.927009e+002, 6.595200e+001
1.931830e+002, 6.708615e+001
1.936652e+002, 6.837658e+001
1.941473e+002, 6.944486e+001
1.946294e+002, 6.994588e+001
1.951115e+002, 6.993440e+001
1.955936e+002, 7.014980e+001
1.960757e+002, 7.071281e+001
1.965579e+002, 7.138209e+001
1.970400e+002, 7.172884e+001
1.975221e+002, 7.175031e+001
1.980042e+002, 7.151494e+001
1.984863e+002, 7.082480e+001
1.989684e+002, 6.966993e+001
1.994506e+002, 6.925864e+001
1.999327e+002, 6.991209e+001
2.004148e+002, 7.104448e+001
2.008969e+002, 7.133891e+001
2.013790e+002, 7.069154e+001
2.018611e+002, 6.979914e+001
2.023433e+002, 6.897373e+001
2.028254e+002, 6.819909e+001
2.033075e+002, 6.769248e+001
2.037896e+002, 6.753625e+001
2.042717e+002, 6.760126e+001
2.047538e+002, 6.753812e+001
2.052360e+002, 6.729192e+001
2.057181e+002, 6.711448e+001
2.062002e+002, 6.719606e+001
2.066823e+002, 6.758736e+001
2.071644e+002, 6.789594e+001
2.076465e+002, 6.808096e+001
2.081287e+002, 6.816756e+001
2.086108e+002, 6.821392e+001
2.090929e+002, 6.818806e+001
2.095750e+002, 6.820781e+001
2.100571e+002, 6.833051e+001
2.105392e+002, 6.854745e+001
2.110214e+002, 6.893227e+001
2.115035e+002, 6.959371e+001
2.119856e+002, 7.039451e+001
2.124677e+002, 7.087045e+001
2.129498e+002, 7.097273e+001
2.134319e+002, 7.086881e+001
2.139140e+002, 7.062901e+001
2.143962e+002, 7.020933e+001
2.148783e+002, 6.979453e+001
2.153604e+002, 6.932486e+001
2.158425e+002, 6.888225e+001
2.163246e+002, 6.886047e+001
2.168067e+002, 6.942208e+001
2.172889e+002, 7.008720e+001
2.177710e+002, 7.059836e+001
2.182531e+002, 7.097723e+001
2.187352e+002, 7.111726e+001
2.192173e+002, 7.091249e+001
2.196994e+002, 7.045832e+001
2.201816e+002, 7.024092e+001
2.206637e+002, 7.037827e+001
2.211458e+002, 7.053758e+001
2.216279e+002, 7.047903e+001
2.221100e+002, 7.005775e+001
2.225921e+002, 6.980435e+001
2.230743e+002, 6.980119e+001
2.235564e+002, 6.999936e+001
2.240385e+002, 7.018958e+001
2.245206e+002, 7.041553e+001
2.250027e+002, 7.056312e+001
2.254848e+002, 7.053439e+001
2.259670e+002, 7.021397e+001
2.264491e+002, 7.000975e+001
2.269312e+002, 7.001158e+001
2.274133e+002, 7.016006e+001
2.278954e+002, 7.014052e+001
2.283775e+002, 6.982108e+001
2.288597e+002, 6.952764e+001
2.293418e+002, 6.951891e+001
2.298239e+002, 7.008444e+001
2.303060e+002, 7.024187e+001
2.307881e+002, 6.975997e+001
2.312702e+002, 6.879228e+001
2.317524e+002, 6.811082e+001
2.322345e+002, 6.790603e+001
2.327166e+002, 6.772477e+001
2.331987e+002, 6.727016e+001
2.336808e+002, 6.630280e+001
2.341629e+002, 6.560104e+001
2.346451e+002, 6.530596e+001
2.351272e+002, 6.531650e+001
2.356093e+002, 6.518207e+001
2.360914e+002, 6.483846e+001
2.365735e+002, 6.443890e+001
2.370556e+002, 6.403818e+001
2.375378e+002, 6.351772e+001
2.380199e+002, 6.327379e+001
2.385020e+002, 6.345630e+001
2.389841e+002, 6.393592e+001
2.394662e+002, 6.418877e+001
2.399483e+002, 6.419402e+001
2.404305e+002, 6.400678e+001
2.409126e+002, 6.362637e+001
2.413947e+002, 6.291980e+001
2.418768e+002, 6.230452e+001
2.423589e+002, 6.173909e+001
2.428410e+002, 6.128088e+001
2.433232e+002, 6.118054e+001
2.438053e+002, 6.173936e+001
2.442874e+002, 6.224117e+001
2.447695e+002, 6.229635e+001
2.452516e+002, 6.167212e+001
2.457337e+002, 6.112128e+001
2.462159e+002, 6.068452e+001
2.466980e+002, 6.032967e+001
2.471801e+002, 5.995483e+001
2.476622e+002, 5.949682e+001
2.481443e+002, 5.910592e+001
2.486264e+002, 5.887078e+001
2.491086e+002, 5.887114e+001
2.495907e+002, 5.882483e+001
2.500728e+002, 5.868377e+001
2.505549e+002, 5.850616e+001
2.510370e+002, 5.846592e+001
2.515191e+002, 5.867426e+001
2.520013e+002, 5.884595e+001
2.524834e+002, 5.885295e+001
2.529655e+002, 5.864644e+001
2.534476e+002, 5.838591e+001
2.539297e+002, 5.796498e+001
2.544118e+002, 5.753866e+001
2.548940e+002, 5.750169e+001
2.553761e+002, 5.812354e+001
2.558582e+002, 5.865707e+001
2.563403e+002, 5.872184e+001
2.568224e+002, 5.807128e+001
2.573046e+002, 5.778180e+001
2.577867e+002, 5.797618e+001
2.582688e+002, 5.845270e+001
2.587509e+002, 5.883567e+001
2.592330e+002, 5.910967e+001
2.597151e+002, 5.931138e+001
2.601973e+002, 5.944179e+001
2.606794e+002, 5.947959e+001
2.611615e+002, 5.951305e+001
2.616436e+002, 5.948246e+001
2.621257e+002, 5.949844e+001
2.626078e+002, 5.980748e+001
2.630900e+002, 6.058458e+001
2.635721e+002, 6.123039e+001
2.640542e+002, 6.147634e+001
2.645363e+002, 6.123678e+001
2.650184e+002, 6.118524e+001
2.655005e+002, 6.130898e+001
2.659827e+002, 6.163241e+001
2.664648e+002, 6.226968e+001
2.669469e+002, 6.337351e+001
2.674290e+002, 6.433533e+001
2.679111e+002, 6.495293e+001
2.683932e+002, 6.520267e+001
2.688754e+002, 6.543538e+001
2.693575e+002, 6.566280e+001
2.698396e+002, 6.585227e+001
2.703217e+002, 6.594465e+001
2.708038e+002, 6.591276e+001
2.712859e+002, 6.588781e+001
2.717681e+002, 6.593951e+001
2.722502e+002, 6.605934e+001
2.727323e+002, 6.598088e+001
2.732144e+002, 6.565641e+001
2.736965e+002, 6.523177e+001
2.741786e+002, 6.484943e+001
2.746608e+002, 6.450581e+001
2.751429e+002, 6.420589e+001
2.756250e+002, 6.394735e+001
2.761071e+002, 6.373331e+001
2.765892e+002, 6.361714e+001
2.770714e+002, 6.365259e+001
2.775535e+002, 6.363781e+001
2.780356e+002, 6.328820e+001
2.785177e+002, 6.254722e+001
2.789998e+002, 6.206444e+001
2.794819e+002, 6.202393e+001
2.799641e+002, 6.233023e+001
2.804462e+002, 6.259466e+001
2.809283e+002, 6.281835e+001
2.814104e+002, 6.299701e+001
2.818925e+002, 6.306459e+001
2.823746e+002, 6.301690e+001
2.828568e+002, 6.317052e+001
2.833389e+002, 6.361252e+001
2.838210e+002, 6.426191e+001
2.843031e+002, 6.487430e+001
2.847852e+002, 6.543802e+001
2.852673e+002, 6.609987e+001
2.857495e+002, 6.704012e+001
2.862316e+002, 6.823308e+001
2.867137e+002, 6.929991e+001
2.871958e+002, 7.014038e+001
2.876779e+002, 7.091272e+001
2.881600e+002, 7.187609e+001
2.886422e+002, 7.302851e+001
2.891243e+002, 7.448350e+001
2.896064e+002, 7.636098e+001
2.900885e+002, 7.861108e+001
2.905706e+002, 8.087841e+001
2.910527e+002, 8.308680e+001
2.915349e+002, 8.540699e+001
2.920170e+002, 8.816723e+001
2.924991e+002, 9.131838e+001
2.929812e+002, 9.461182e+001
2.934633e+002, 9.788660e+001
2.939454e+002, 1.011727e+002
2.944276e+002, 1.045921e+002
2.949097e+002, 1.081630e+002
2.953918e+002, 1.116684e+002
2.958739e+002, 1.150524e+002
2.963560e+002, 1.181902e+002
2.968381e+002, 1.206460e+002
2.973203e+002, 1.222483e+002
2.978024e+002, 1.229944e+002
2.982845e+002, 1.228556e+002
2.987666e+002, 1.218156e+002
2.992487e+002, 1.200083e+002
2.997308e+002, 1.173452e+002
3.002130e+002, 1.139677e+002
3.006951e+002, 1.103291e+002
3.011772e+002, 1.065639e+002
3.016593e+002, 1.026765e+002
3.021414e+002, 9.842115e+001
3.026235e+002, 9.384837e+001
3.031057e+002, 8.956799e+001
3.035878e+002, 8.616532e+001
3.040699e+002, 8.343599e+001
3.045520e+002, 8.108857e+001
3.050341e+002, 7.915269e+001
3.055162e+002, 7.744283e+001
3.059984e+002, 7.579769e+001
3.064805e+002, 7.422147e+001
3.069626e+002, 7.263293e+001
3.074447e+002, 7.079735e+001
3.079268e+002, 6.898432e+001
3.084089e+002, 6.758521e+001
3.088911e+002, 6.679308e+001
3.093732e+002, 6.629335e+001
3.098553e+002, 6.601672e+001
3.103374e+002, 6.587245e+001
3.108195e+002, 6.554422e+001
3.113016e+002, 6.457023e+001
3.117838e+002, 6.348296e+001
3.122659e+002, 6.279111e+001
3.127480e+002, 6.274233e+001
3.132301e+002, 6.274712e+001
3.137122e+002, 6.243586e+001
3.141943e+002, 6.191915e+001
3.146765e+002, 6.143641e+001
3.151586e+002, 6.114182e+001
3.156407e+002, 6.088354e+001
3.161228e+002, 6.052409e+001
3.166049e+002, 5.999428e+001
3.170870e+002, 5.959967e+001
3.175692e+002, 5.966602e+001
3.180513e+002, 5.991003e+001
3.185334e+002, 5.993484e+001
3.190155e+002, 5.933971e+001
3.194976e+002, 5.873277e+001
3.199797e+002, 5.834850e+001
3.204619e+002, 5.820591e+001
3.209440e+002, 5.825635e+001
3.214261e+002, 5.871945e+001
3.219082e+002, 5.926735e+001
3.223903e+002, 5.958744e+001
3.228724e+002, 5.940760e+001
3.233546e+002, 5.919960e+001
3.238367e+002, 5.911287e+001
3.243188e+002, 5.914223e+001
3.248009e+002, 5.906834e+001
3.252830e+002, 5.868363e+001
3.257651e+002, 5.829274e+001
3.262473e+002, 5.809414e+001
3.267294e+002, 5.826954e+001
3.272115e+002, 5.845127e+001
3.276936e+002, 5.864845e+001
3.281757e+002, 5.884136e+001
3.286578e+002, 5.893675e+001
3.291400e+002, 5.875154e+001
3.296221e+002, 5.862361e+001
3.301042e+002, 5.870010e+001
3.305863e+002, 5.911104e+001
3.310684e+002, 5.951311e+001
3.315505e+002, 5.986463e+001
3.320327e+002, 6.021171e+001
3.325148e+002, 6.067492e+001
3.329969e+002, 6.146666e+001
3.334790e+002, 6.208226e+001
3.339611e+002, 6.229297e+001
3.344432e+002, 6.192773e+001
3.349254e+002, 6.185468e+001
3.354075e+002, 6.222449e+001
3.358896e+002, 6.275633e+001
3.363717e+002, 6.302760e+001
3.368538e+002, 6.286937e+001
3.373359e+002, 6.284971e+001
3.378180e+002, 6.312623e+001
3.383001e+002, 6.369350e+001
3.387823e+002, 6.444185e+001
3.392644e+002, 6.552227e+001
3.397465e+002, 6.647507e+001
3.402286e+002, 6.670013e+001
3.407107e+002, 6.601830e+001
3.411928e+002, 6.570455e+001
3.416750e+002, 6.612669e+001
3.421571e+002, 6.706114e+001
3.426392e+002, 6.757713e+001
3.431213e+002, 6.761324e+001
3.436034e+002, 6.758663e+001
3.440855e+002, 6.783542e+001
3.445677e+002, 6.834340e+001
3.450498e+002, 6.875477e+001
3.455319e+002, 6.901844e+001
3.460140e+002, 6.917710e+001
3.464961e+002, 6.923755e+001
3.469782e+002, 6.920773e+001
3.474604e+002, 6.931402e+001
3.479425e+002, 6.972256e+001
3.484246e+002, 7.037831e+001
3.489067e+002, 7.108977e+001
3.493888e+002, 7.185770e+001
3.498709e+002, 7.262870e+001
3.503531e+002, 7.334657e+001
3.508352e+002, 7.401462e+001
3.513173e+002, 7.464259e+001
3.517994e+002, 7.521659e+001
3.522815e+002, 7.576389e+001
3.527636e+002, 7.636804e+001
3.532458e+002, 7.702805e+001
3.537279e+002, 7.761010e+001
3.542100e+002, 7.782919e+001
3.546921e+002, 7.791690e+001
3.551742e+002, 7.829651e+001
3.556563e+002, 7.934078e+001
3.561385e+002, 8.047527e+001
3.566206e+002, 8.105325e+001
3.571027e+002, 8.119170e+001
3.575848e+002, 8.145794e+001
3.580669e+002, 8.230254e+001
3.585490e+002, 8.338391e+001
3.590312e+002, 8.438696e+001
3.595133e+002, 8.526390e+001
3.599954e+002, 8.604808e+001
3.604775e+002, 8.667043e+001
3.609596e+002, 8.721992e+001
3.614417e+002, 8.787292e+001
3.619239e+002, 8.865652e+001
3.624060e+002, 8.960461e+001
3.628881e+002, 9.079471e+001
3.633702e+002, 9.229211e+001
3.638523e+002, 9.371993e+001
3.643344e+002, 9.483522e+001
3.648166e+002, 9.585883e+001
3.652987e+002, 9.705276e+001
3.657808e+002, 9.871564e+001
3.662629e+002, 1.002854e+002
3.667450e+002, 1.014266e+002
3.672271e+002, 1.021442e+002
3.677093e+002, 1.033567e+002
3.681914e+002, 1.056588e+002
3.686735e+002, 1.081800e+002
3.691556e+002, 1.103680e+002
3.696377e+002, 1.115489e+002
3.701198e+002, 1.131593e+002
3.706020e+002, 1.155431e+002
3.710841e+002, 1.184342e+002
3.715662e+002, 1.208648e+002
3.720483e+002, 1.225038e+002
3.725304e+002, 1.240479e+002
3.730125e+002, 1.257895e+002
3.734947e+002, 1.278063e+002
3.739768e+002, 1.297633e+002
3.744589e+002, 1.316790e+002
3.749410e+002, 1.335421e+002
3.754231e+002, 1.352670e+002
3.759052e+002, 1.367648e+002
3.763874e+002, 1.384284e+002
3.768695e+002, 1.404693e+002
3.773516e+002, 1.428960e+002
3.778337e+002, 1.448201e+002
3.783158e+002, 1.461573e+002
3.787979e+002, 1.473126e+002
3.792801e+002, 1.487007e+002
3.797622e+002, 1.503527e+002
3.802443e+002, 1.518519e+002
3.807264e+002, 1.531320e+002
3.812085e+002, 1.542168e+002
3.816906e+002, 1.551409e+002
3.821728e+002, 1.558970e+002
3.826549e+002, 1.566275e+002
3.831370e+002, 1.575050e+002
3.836191e+002, 1.584483e+002
3.841012e+002, 1.591028e+002
3.845833e+002, 1.594203e+002
3.850655e+002, 1.594933e+002
3.855476e+002, 1.594045e+002
3.860297e+002, 1.591653e+002
3.865118e+002, 1.588268e+002
3.869939e+002, 1.585097e+002
3.874760e+002, 1.580664e+002
3.879582e+002, 1.572662e+002
3.884403e+002, 1.560983e+002
3.889224e+002, 1.547106e+002
3.894045e+002, 1.529209e+002
3.898866e+002, 1.510816e+002
3.903687e+002, 1.497107e+002
3.908509e+002, 1.494296e+002
3.913330e+002, 1.492075e+002
3.918151e+002, 1.483549e+002
3.922972e+002, 1.469477e+002
3.927793e+002, 1.452855e+002
3.932614e+002, 1.431567e+002
3.937436e+002, 1.410666e+002
3.942257e+002, 1.393806e+002
3.947078e+002, 1.383592e+002
3.951899e+002, 1.372912e+002
3.956720e+002, 1.358767e+002
3.961541e+002, 1.342626e+002
3.966363e+002, 1.326861e+002
3.971184e+002, 1.311238e+002
3.976005e+002, 1.296814e+002
3.980826e+002, 1.284811e+002
3.985647e+002, 1.275809e+002
3.990468e+002, 1.264513e+002
3.995290e+002, 1.247446e+002
4.000111e+002, 1.229557e+002
4.004932e+002, 1.214838e+002
4.009753e+002, 1.206501e+002
4.014574e+002, 1.197021e+002
4.019395e+002, 1.185580e+002
4.024217e+002, 1.172497e+002
4.029038e+002, 1.159502e+002
4.033859e+002, 1.147033e+002
4.038680e+002, 1.134025e+002
4.043501e+002, 1.119908e+002
4.048322e+002, 1.104709e+002
4.053144e+002, 1.088535e+002
4.057965e+002, 1.070966e+002
4.062786e+002, 1.053141e+002
4.067607e+002, 1.037143e+002
4.072428e+002, 1.023250e+002
4.077249e+002, 1.009685e+002
4.082071e+002, 9.966927e+001
4.086892e+002, 9.837511e+001
4.091713e+002, 9.669377e+001
4.096534e+002, 9.455081e+001
4.101355e+002, 9.240964e+001
4.106176e+002, 9.078752e+001
4.110998e+002, 8.957837e+001
4.115819e+002, 8.815653e+001
4.120640e+002, 8.627565e+001
4.125461e+002, 8.433607e+001
4.130282e+002, 8.304592e+001
4.135103e+002, 8.231618e+001
4.139925e+002, 8.158952e+001
4.144746e+002, 8.049050e+001
4.149567e+002, 7.919317e+001
4.154388e+002, 7.798246e+001
4.159209e+002, 7.687579e+001
4.164030e+002, 7.580284e+001
4.168852e+002, 7.467093e+001
4.173673e+002, 7.352668e+001
4.178494e+002, 7.244235e+001
4.183315e+002, 7.142111e+001
4.188136e+002, 7.048074e+001
4.192957e+002, 6.958650e+001
4.197779e+002, 6.876172e+001
4.202600e+002, 6.809801e+001
4.207421e+002, 6.776589e+001
4.212242e+002, 6.753922e+001
4.217063e+002, 6.725648e+001
4.221884e+002, 6.681754e+001
4.226706e+002, 6.644698e+001
4.231527e+002, 6.618301e+001
4.236348e+002, 6.602360e+001
4.241169e+002, 6.596159e+001
4.245990e+002, 6.615048e+001
4.250811e+002, 6.628654e+001
4.255633e+002, 6.626637e+001
4.260454e+002, 6.606882e+001
4.265275e+002, 6.585024e+001
4.270096e+002, 6.550311e+001
4.274917e+002, 6.521571e+001
4.279738e+002, 6.514349e+001
4.284560e+002, 6.533578e+001
4.289381e+002, 6.565212e+001
4.294202e+002, 6.616244e+001
4.299023e+002, 6.676374e+001
4.303844e+002, 6.709415e+001
4.308665e+002, 6.706432e+001
4.313487e+002, 6.701125e+001
4.318308e+002, 6.704948e+001
4.323129e+002, 6.716928e+001
4.327950e+002, 6.762458e+001
4.332771e+002, 6.851647e+001
4.337592e+002, 6.947904e+001
4.342414e+002, 6.998484e+001
4.347235e+002, 7.007568e+001
4.352056e+002, 7.025576e+001
4.356877e+002, 7.072320e+001
4.361698e+002, 7.135154e+001
4.366519e+002, 7.185054e+001
4.371341e+002, 7.223180e+001
4.376162e+002, 7.268422e+001
4.380983e+002, 7.339418e+001
4.385804e+002, 7.426377e+001
4.390625e+002, 7.516544e+001
4.395446e+002, 7.612730e+001
4.400268e+002, 7.695203e+001
4.405089e+002, 7.734266e+001
4.409910e+002, 7.747102e+001
4.414731e+002, 7.768256e+001
4.419552e+002, 7.819929e+001
4.424373e+002, 7.879871e+001
4.429195e+002, 7.932933e+001
4.434016e+002, 7.978867e+001
4.438837e+002, 8.031139e+001
4.443658e+002, 8.102009e+001
4.448479e+002, 8.177784e+001
4.453300e+002, 8.246409e+001
4.458122e+002, 8.288923e+001
4.462943e+002, 8.346531e+001
4.467764e+002, 8.433276e+001
4.472585e+002, 8.540491e+001
4.477406e+002, 8.646066e+001
4.482227e+002, 8.744707e+001
4.487049e+002, 8.845154e+001
4.491870e+002, 8.943845e+001
4.496691e+002, 9.032150e+001
4.501512e+002, 9.169044e+001
4.506333e+002, 9.378006e+001
4.511154e+002, 9.608235e+001
4.515976e+002, 9.807779e+001
4.520797e+002, 9.959063e+001
4.525618e+002, 1.013237e+002
4.530439e+002, 1.034048e+002
4.535260e+002, 1.057585e+002
4.540081e+002, 1.082977e+002
4.544903e+002, 1.110449e+002
4.549724e+002, 1.139020e+002
4.554545e+002, 1.168229e+002
4.559366e+002, 1.198028e+002
4.564187e+002, 1.229727e+002
4.569008e+002, 1.262886e+002
4.573830e+002, 1.299212e+002
4.578651e+002, 1.339639e+002
4.583472e+002, 1.384315e+002
4.588293e+002, 1.431636e+002
4.593114e+002, 1.480293e+002
4.597935e+002, 1.532657e+002
4.602757e+002, 1.593707e+002
4.607578e+002, 1.662293e+002
4.612399e+002, 1.733858e+002
4.617220e+002, 1.803261e+002
4.622041e+002, 1.875665e+002
4.626862e+002, 1.955347e+002
4.631684e+002, 2.043123e+002
4.636505e+002, 2.136129e+002
4.641326e+002, 2.230080e+002
4.646147e+002, 2.328048e+002
4.650968e+002, 2.435836e+002
4.655789e+002, 2.556373e+002
4.660611e+002, 2.682706e+002
4.665432e+002, 2.815030e+002
4.670253e+002, 2.952552e+002
4.675074e+002, 3.092595e+002
4.679895e+002, 3.223198e+002
4.684716e+002, 3.366033e+002
4.689538e+002, 3.531420e+002
4.694359e+002, 3.725842e+002
4.699180e+002, 3.923834e+002
4.704001e+002, 4.124675e+002
4.708822e+002, 4.331568e+002
4.713643e+002, 4.550470e+002
4.718465e+002, 4.782015e+002
4.723286e+002, 5.023245e+002
4.728107e+002, 5.272756e+002
4.732928e+002, 5.528942e+002
4.737749e+002, 5.807084e+002
4.742570e+002, 6.108282e+002
4.747392e+002, 6.418456e+002
4.752213e+002, 6.725812e+002
4.757034e+002, 7.032076e+002
4.761855e+002, 7.350079e+002
4.766676e+002, 7.682294e+002
4.771497e+002, 8.024061e+002
4.776319e+002, 8.376625e+002
4.781140e+002, 8.733165e+002
4.785961e+002, 9.066221e+002
4.790782e+002, 9.359166e+002
4.795603e+002, 9.625444e+002
4.800424e+002, 9.889662e+002
4.805246e+002, 1.014840e+003
4.810067e+002, 1.036507e+003
4.814888e+002, 1.052778e+003
4.819709e+002, 1.063286e+003
4.824530e+002, 1.067510e+003
4.829352e+002, 1.065011e+003
4.834173e+002, 1.057054e+003
4.838994e+002, 1.043808e+003
4.843815e+002, 1.025399e+003
4.848636e+002, 1.002182e+003
4.853457e+002, 9.725299e+002
4.858279e+002, 9.399707e+002
4.863100e+002, 9.046491e+002
4.867921e+002, 8.664465e+002
4.872742e+002, 8.284918e+002
4.877563e+002, 7.906298e+002
4.882384e+002, 7.527672e+002
4.887206e+002, 7.148874e+002
4.892027e+002, 6.763411e+002
4.896848e+002, 6.399677e+002
4.901669e+002, 6.058651e+002
4.906490e+002, 5.738713e+002
4.911311e+002, 5.429919e+002
4.916133e+002, 5.134114e+002
4.920954e+002, 4.854851e+002
4.925775e+002, 4.592188e+002
4.930596e+002, 4.347324e+002
4.935417e+002, 4.122365e+002
4.940238e+002, 3.918197e+002
4.945060e+002, 3.726729e+002
4.949881e+002, 3.542066e+002
4.954702e+002, 3.366745e+002
4.959523e+002, 3.201944e+002
4.964344e+002, 3.048816e+002
4.969165e+002, 2.906555e+002
4.973987e+002, 2.776889e+002
4.978808e+002, 2.656791e+002
4.983629e+002, 2.543150e+002
4.988450e+002, 2.434953e+002
4.993271e+002, 2.332254e+002
4.998092e+002, 2.237222e+002
5.002914e+002, 2.148266e+002
5.007735e+002, 2.064485e+002
5.012556e+002, 1.985359e+002
5.017377e+002, 1.909330e+002
5.022198e+002, 1.834882e+002
5.027019e+002, 1.758745e+002
5.031841e+002, 1.690347e+002
5.036662e+002, 1.634112e+002
5.041483e+002, 1.584752e+002
5.046304e+002, 1.536855e+002
5.051125e+002, 1.490803e+002
5.055946e+002, 1.446649e+002
5.060768e+002, 1.404615e+002
5.065589e+002, 1.364345e+002
5.070410e+002, 1.322580e+002
5.075231e+002, 1.277888e+002
5.080052e+002, 1.235823e+002
5.084873e+002, 1.199387e+002
5.089695e+002, 1.169074e+002
5.094516e+002, 1.138669e+002
5.099337e+002, 1.107803e+002
5.104158e+002, 1.078193e+002
5.108979e+002, 1.052336e+002
5.113800e+002, 1.029475e+002
5.118622e+002, 1.007331e+002
5.123443e+002, 9.852364e+001
5.128264e+002, 9.635806e+001
5.133085e+002, 9.428159e+001
5.137906e+002, 9.227168e+001
5.142728e+002, 9.024612e+001
5.147549e+002, 8.796748e+001
5.152370e+002, 8.577872e+001
5.157191e+002, 8.408356e+001
5.162012e+002, 8.293344e+001
5.166833e+002, 8.167874e+001
5.171655e+002, 7.973717e+001
5.176476e+002, 7.769453e+001
5.181297e+002, 7.605474e+001
5.186118e+002, 7.528246e+001
5.190939e+002, 7.446975e+001
5.195760e+002, 7.346436e+001
5.200582e+002, 7.232957e+001
5.205403e+002, 7.119289e+001
5.210224e+002, 7.009505e+001
5.215045e+002, 6.895075e+001
5.219866e+002, 6.768232e+001
5.224688e+002, 6.628526e+001
5.229509e+002, 6.515248e+001
5.234330e+002, 6.432573e+001
5.239151e+002, 6.364600e+001
5.243972e+002, 6.301342e+001
5.248793e+002, 6.243113e+001
5.253615e+002, 6.186497e+001
5.258436e+002, 6.132138e+001
5.263257e+002, 6.075327e+001
5.268078e+002, 6.011473e+001
5.272899e+002, 5.940091e+001
5.277720e+002, 5.858860e+001
5.282542e+002, 5.757447e+001
5.287363e+002, 5.654171e+001
5.292184e+002, 5.573135e+001
5.297005e+002, 5.512658e+001
5.301826e+002, 5.459530e+001
5.306647e+002, 5.409810e+001
5.311469e+002, 5.361760e+001
5.316290e+002, 5.312203e+001
5.321111e+002, 5.259894e+001
5.325932e+002, 5.212062e+001
5.330753e+002, 5.175676e+001
5.335574e+002, 5.143415e+001
5.340396e+002, 5.108287e+001
5.345217e+002, 5.082025e+001
5.350038e+002, 5.037135e+001
5.354859e+002, 4.949648e+001
5.359680e+002, 4.839405e+001
5.364501e+002, 4.769583e+001
5.369323e+002, 4.757219e+001
5.374144e+002, 4.757136e+001
5.378965e+002, 4.760353e+001
5.383786e+002, 4.767694e+001
5.388607e+002, 4.741261e+001
5.393428e+002, 4.674174e+001
5.398250e+002, 4.594987e+001
5.403071e+002, 4.526789e+001
5.407892e+002, 4.470103e+001
5.412713e+002, 4.423643e+001
5.417534e+002, 4.389563e+001
5.422355e+002, 4.360290e+001
5.427177e+002, 4.326547e+001
5.431998e+002, 4.288831e+001
5.436819e+002, 4.249594e+001
5.441640e+002, 4.202822e+001
5.446461e+002, 4.160580e+001
5.451282e+002, 4.136914e+001
5.456104e+002, 4.129587e+001
5.460925e+002, 4.123692e+001
5.465746e+002, 4.114482e+001
5.470567e+002, 4.102045e+001
5.475388e+002, 4.087035e+001
5.480209e+002, 4.070916e+001
5.485031e+002, 4.047469e+001
5.489852e+002, 4.006789e+001
5.494673e+002, 3.962067e+001
5.499494e+002, 3.927700e+001
5.504315e+002, 3.916755e+001
5.509136e+002, 3.895359e+001
5.513958e+002, 3.853543e+001
5.518779e+002, 3.800461e+001
5.523600e+002, 3.766047e+001
5.528421e+002, 3.755381e+001
5.533242e+002, 3.744596e+001
5.538063e+002, 3.720900e+001
5.542885e+002, 3.687193e+001
5.547706e+002, 3.670671e+001
5.552527e+002, 3.673219e+001
5.557348e+002, 3.673165e+001
5.562169e+002, 3.647671e+001
5.566990e+002, 3.605166e+001
5.571812e+002, 3.567286e+001
5.576633e+002, 3.538615e+001
5.581454e+002, 3.510606e+001
5.586275e+002, 3.470195e+001
5.591096e+002, 3.425525e+001
5.595917e+002, 3.390044e+001
5.600739e+002, 3.375764e+001
5.605560e+002, 3.366299e+001
5.610381e+002, 3.350006e+001
5.615202e+002, 3.330560e+001
5.620023e+002, 3.323629e+001
5.624844e+002, 3.350764e+001
5.629666e+002, 3.376136e+001
5.634487e+002, 3.382354e+001
5.639308e+002, 3.365369e+001
5.644129e+002, 3.348801e+001
5.648950e+002, 3.331612e+001
5.653771e+002, 3.315914e+001
5.658593e+002, 3.304787e+001
5.663414e+002, 3.300907e+001
5.668235e+002, 3.287698e+001
5.673056e+002, 3.258413e+001
5.677877e+002, 3.226753e+001
5.682698e+002, 3.222397e+001
5.687520e+002, 3.243504e+001
5.692341e+002, 3.258902e+001
5.697162e+002, 3.251351e+001
5.701983e+002, 3.234545e+001
5.706804e+002, 3.240816e+001
5.711625e+002, 3.265491e+001
5.716447e+002, 3.276137e+001
5.721268e+002, 3.223524e+001
5.726089e+002, 3.162878e+001
5.730910e+002, 3.160407e+001
5.735731e+002, 3.233081e+001
5.740552e+002, 3.286107e+001
5.745374e+002, 3.258880e+001
5.750195e+002, 3.200603e+001
5.755016e+002, 3.157267e+001
5.759837e+002, 3.130910e+001
5.764658e+002, 3.128606e+001
5.769479e+002, 3.176049e+001
5.774301e+002, 3.241917e+001
5.779122e+002, 3.260845e+001
5.783943e+002, 3.202068e+001
5.788764e+002, 3.158581e+001
5.793585e+002, 3.162121e+001
5.798406e+002, 3.203846e+001
5.803228e+002, 3.218092e+001
5.808049e+002, 3.200555e+001
5.812870e+002, 3.183287e+001
5.817691e+002, 3.190329e+001
5.822512e+002, 3.216049e+001
5.827333e+002, 3.240245e+001
5.832155e+002, 3.262623e+001
5.836975e+002, 3.276026e+001
5.841796e+002, 3.264180e+001
5.846617e+002, 3.241415e+001
5.851439e+002, 3.232660e+001
5.856260e+002, 3.252331e+001
5.861081e+002, 3.273784e+001
5.865902e+002, 3.276922e+001
5.870723e+002, 3.270754e+001
5.875544e+002, 3.272536e+001
5.880366e+002, 3.285484e+001
5.885187e+002, 3.308876e+001
5.890008e+002, 3.349897e+001
5.894829e+002, 3.406703e+001
5.899650e+002, 3.446821e+001
5.904471e+002, 3.461671e+001
5.909293e+002, 3.470770e+001
5.914114e+002, 3.482737e+001
5.918935e+002, 3.498172e+001
5.923756e+002, 3.509578e+001
5.928577e+002, 3.512745e+001
5.933398e+002, 3.523346e+001
5.938220e+002, 3.568556e+001
5.943041e+002, 3.641919e+001
5.947862e+002, 3.690250e+001
5.952683e+002, 3.699118e+001
5.957504e+002, 3.692963e+001
5.962325e+002, 3.692373e+001
5.967147e+002, 3.701817e+001
5.971968e+002, 3.732508e+001
5.976789e+002, 3.804233e+001
5.981610e+002, 3.886752e+001
5.986431e+002, 3.960966e+001
5.991252e+002, 4.027662e+001
5.996074e+002, 4.092412e+001
6.000895e+002, 4.161792e+001
6.005716e+002, 4.226469e+001
6.010537e+002, 4.276499e+001
6.015358e+002, 4.302638e+001
6.020179e+002, 4.356524e+001
6.025001e+002, 4.464561e+001
6.029822e+002, 4.574915e+001
6.034643e+002, 4.643645e+001
6.039464e+002, 4.653748e+001
6.044285e+002, 4.694078e+001
6.049106e+002, 4.777633e+001
6.053928e+002, 4.879498e+001
6.058749e+002, 4.969127e+001
6.063570e+002, 5.046344e+001
6.068391e+002, 5.103592e+001
6.073212e+002, 5.132855e+001
6.078033e+002, 5.148336e+001
6.082855e+002, 5.181592e+001
6.087676e+002, 5.222621e+001
6.092497e+002, 5.235836e+001
6.097318e+002, 5.179749e+001
6.102139e+002, 5.103645e+001
6.106960e+002, 5.047089e+001
6.111782e+002, 5.011273e+001
6.116603e+002, 4.970120e+001
6.121424e+002, 4.922786e+001
6.126245e+002, 4.860716e+001
6.131066e+002, 4.776731e+001
6.135887e+002, 4.657137e+001
6.140709e+002, 4.543243e+001
6.145530e+002, 4.424471e+001
6.150351e+002, 4.319899e+001
6.155172e+002, 4.256022e+001
6.159993e+002, 4.246996e+001
6.164814e+002, 4.207217e+001
6.169636e+002, 4.112401e+001
6.174457e+002, 3.999479e+001
6.179278e+002, 3.945412e+001
6.184099e+002, 3.944693e+001
6.188920e+002, 3.939829e+001
6.193741e+002, 3.903946e+001
6.198563e+002, 3.852157e+001
6.203384e+002, 3.794527e+001
6.208205e+002, 3.736488e+001
6.213026e+002, 3.705416e+001
6.217847e+002, 3.738192e+001
6.222668e+002, 3.788771e+001
6.227490e+002, 3.825633e+001
6.232311e+002, 3.845745e+001
6.237132e+002, 3.855003e+001
6.241953e+002, 3.836896e+001
6.246774e+002, 3.820929e+001
6.251595e+002, 3.828867e+001
6.256417e+002, 3.879757e+001
6.261238e+002, 3.916206e+001
6.266059e+002, 3.927901e+001
6.270880e+002, 3.936142e+001
6.275701e+002, 3.972066e+001
6.280522e+002, 4.038846e+001
6.285344e+002, 4.103836e+001
6.290165e+002, 4.162004e+001
6.294986e+002, 4.212078e+001
6.299807e+002, 4.246718e+001
6.304628e+002, 4.269020e+001
6.309449e+002, 4.294768e+001
6.314271e+002, 4.334539e+001
6.319092e+002, 4.380159e+001
6.323913e+002, 4.418353e+001
6.328734e+002, 4.452132e+001
6.333555e+002, 4.499187e+001
6.338376e+002, 4.579613e+001
6.343198e+002, 4.667525e+001
6.348019e+002, 4.750513e+001
6.352840e+002, 4.828806e+001
6.357661e+002, 4.894601e+001
6.362482e+002, 4.937369e+001
6.367303e+002, 4.976353e+001
6.372125e+002, 5.027935e+001
6.376946e+002, 5.106774e+001
6.381767e+002, 5.154072e+001
6.386588e+002, 5.161528e+001
6.391409e+002, 5.147832e+001
6.396230e+002, 5.138015e+001
6.401052e+002, 5.131554e+001
6.405873e+002, 5.121398e+001
6.410694e+002, 5.108714e+001
6.415515e+002, 5.086632e+001
6.420336e+002, 5.038036e+001
6.425157e+002, 4.970901e+001
6.429979e+002, 4.907508e+001
6.434800e+002, 4.875293e+001
6.439621e+002, 4.837627e+001
6.444442e+002, 4.761917e+001
6.449263e+002, 4.654517e+001
6.454084e+002, 4.555759e+001
6.458906e+002, 4.495530e+001
6.463727e+002, 4.432872e+001
6.468548e+002, 4.343151e+001
6.473369e+002, 4.220683e+001
6.478190e+002, 4.117878e+001
6.483011e+002, 4.040594e+001
6.487833e+002, 3.975492e+001
6.492654e+002, 3.915785e+001
6.497475e+002, 3.861237e+001
6.502296e+002, 3.806199e+001
6.507117e+002, 3.750445e+001
6.511938e+002, 3.693220e+001
6.516760e+002, 3.627076e+001
6.521581e+002, 3.558384e+001
6.526402e+002, 3.511032e+001
6.531223e+002, 3.498306e+001
6.536044e+002, 3.493556e+001
6.540865e+002, 3.473684e+001
6.545687e+002, 3.443951e+001
6.550508e+002, 3.414518e+001
6.555329e+002, 3.385192e+001
6.560150e+002, 3.360529e+001
6.564971e+002, 3.346875e+001
6.569792e+002, 3.340900e+001
6.574614e+002, 3.325120e+001
6.579435e+002, 3.293062e+001
6.584256e+002, 3.259153e+001
6.589077e+002, 3.225355e+001
6.593898e+002, 3.192156e+001
6.598719e+002, 3.172042e+001
6.603541e+002, 3.165599e+001
6.608362e+002, 3.169415e+001
6.613183e+002, 3.186379e+001
6.618004e+002, 3.212262e+001
6.622825e+002, 3.231561e+001
6.627646e+002, 3.243380e+001
6.632468e+002, 3.249586e+001
6.637289e+002, 3.249207e+001
6.642110e+002, 3.245267e+001
6.646931e+002, 3.240828e+001
6.651752e+002, 3.234529e+001
6.656573e+002, 3.233334e+001
6.661395e+002, 3.249537e+001
6.666216e+002, 3.269048e+001
6.671037e+002, 3.274516e+001
6.675858e+002, 3.238593e+001
6.680679e+002, 3.221760e+001
6.685500e+002, 3.241972e+001
6.690322e+002, 3.277986e+001
6.695143e+002, 3.277749e+001
6.699964e+002, 3.231308e+001
6.704785e+002, 3.198498e+001
6.709606e+002, 3.203288e+001
6.714427e+002, 3.230006e+001
6.719249e+002, 3.234371e+001
6.724070e+002, 3.218740e+001
6.728891e+002, 3.201786e+001
6.733712e+002, 3.194723e+001
6.738533e+002, 3.192234e+001
6.743354e+002, 3.188783e+001
6.748176e+002, 3.184276e+001
6.752997e+002, 3.179925e+001
6.757818e+002, 3.176295e+001
6.762639e+002, 3.173116e+001
6.767460e+002, 3.172905e+001
6.772281e+002, 3.180662e+001
6.777103e+002, 3.170406e+001
6.781924e+002, 3.122953e+001
6.786745e+002, 3.076161e+001
6.791566e+002, 3.062466e+001
6.796387e+002, 3.093533e+001
6.801208e+002, 3.100314e+001
6.806030e+002, 3.075878e+001
6.810851e+002, 3.035713e+001
6.815672e+002, 2.990647e+001
6.820493e+002, 2.944526e+001
6.825314e+002, 2.914546e+001
6.830135e+002, 2.911042e+001
6.834957e+002, 2.910942e+001
6.839778e+002, 2.887280e+001
6.844599e+002, 2.849887e+001
6.849420e+002, 2.818218e+001
6.854241e+002, 2.800411e+001
6.859063e+002, 2.788066e+001
6.863884e+002, 2.782117e+001
6.868705e+002, 2.779646e+001
6.873526e+002, 2.770123e+001
6.878347e+002, 2.743587e+001
6.883168e+002, 2.723960e+001
6.887990e+002, 2.720776e+001
6.892811e+002, 2.730569e+001
6.897632e+002, 2.733770e+001
6.902453e+002, 2.731945e+001
6.907274e+002, 2.713414e+001
6.912095e+002, 2.654720e+001
6.916917e+002, 2.575464e+001
6.921738e+002, 2.537829e+001
6.926559e+002, 2.541523e+001
6.931380e+002, 2.552978e+001
6.936201e+002, 2.551379e+001
6.941022e+002, 2.543434e+001
6.945844e+002, 2.535189e+001
6.950665e+002, 2.527502e+001
6.955486e+002, 2.519124e+001
6.960307e+002, 2.510457e+001
6.965128e+002, 2.500345e+001
6.969949e+002, 2.487505e+001
6.974771e+002, 2.469459e+001
6.979592e+002, 2.454067e+001
6.984413e+002, 2.441887e+001
6.989234e+002, 2.431871e+001
6.994055e+002, 2.425384e+001
6.998876e+002, 2.422700e+001
7.003698e+002, 2.407745e+001
7.008519e+002, 2.373325e+001
7.013340e+002, 2.338300e+001
7.018161e+002, 2.335365e+001
7.022982e+002, 2.353080e+001
7.027803e+002, 2.362063e+001
7.032625e+002, 2.339786e+001
7.037446e+002, 2.319504e+001
7.042267e+002, 2.327807e+001
7.047088e+002, 2.354288e+001
7.051909e+002, 2.376154e+001
7.056730e+002, 2.393132e+001
7.061552e+002, 2.397413e+001
7.066373e+002, 2.378794e+001
7.071194e+002, 2.344970e+001
7.076015e+002, 2.335991e+001
7.080836e+002, 2.363923e+001
7.085657e+002, 2.378666e+001
7.090479e+002, 2.347428e+001
7.095300e+002, 2.287870e+001
7.100121e+002, 2.284625e+001
7.104942e+002, 2.335492e+001
7.109763e+002, 2.385363e+001
7.114584e+002, 2.394974e+001
7.119406e+002, 2.383774e+001
7.124227e+002, 2.371877e+001
7.129048e+002, 2.360886e+001
7.133869e+002, 2.357210e+001
7.138690e+002, 2.382955e+001
7.143511e+002, 2.403134e+001
7.148333e+002, 2.387626e+001
7.153154e+002, 2.310196e+001
7.157975e+002, 2.278141e+001
7.162796e+002, 2.326045e+001
7.167617e+002, 2.377444e+001
7.172438e+002, 2.361547e+001
7.177260e+002, 2.268592e+001
7.182081e+002, 2.220406e+001
7.186902e+002, 2.230509e+001
7.191723e+002, 2.260895e+001
7.196544e+002, 2.272063e+001
7.201365e+002, 2.268420e+001
7.206187e+002, 2.258799e+001
7.211008e+002, 2.241242e+001
7.215829e+002, 2.229907e+001
7.220650e+002, 2.238650e+001
7.225471e+002, 2.258845e+001
7.230292e+002, 2.279168e+001
7.235114e+002, 2.308583e+001
7.239935e+002, 2.322135e+001
7.244756e+002, 2.303139e+001
7.249577e+002, 2.270788e+001
7.254398e+002, 2.258098e+001
7.259219e+002, 2.272029e+001
7.264041e+002, 2.285396e+001
7.268862e+002, 2.294396e+001
7.273683e+002, 2.297106e+001
7.278504e+002, 2.282210e+001
7.283325e+002, 2.253271e+001
7.288146e+002, 2.234920e+001
7.292968e+002, 2.245194e+001
7.297789e+002, 2.265974e+001
7.302610e+002, 2.280693e+001
7.307431e+002, 2.289207e+001
7.312252e+002, 2.291041e+001
7.317073e+002, 2.285242e+001
7.321895e+002, 2.273459e+001
7.326716e+002, 2.254008e+001
7.331537e+002, 2.227549e+001
7.336358e+002, 2.203069e+001
7.341179e+002, 2.175066e+001
7.346000e+002, 2.158467e+001
7.350822e+002, 2.163672e+001
7.355643e+002, 2.187713e+001
7.360464e+002, 2.200610e+001
7.365285e+002, 2.202030e+001
7.370106e+002, 2.199285e+001
7.374927e+002, 2.194278e+001
7.379749e+002, 2.189799e+001
7.384570e+002, 2.193811e+001
7.389391e+002, 2.206181e+001
7.394212e+002, 2.212390e+001
7.399033e+002, 2.189667e+001
7.403854e+002, 2.167686e+001
7.408676e+002, 2.173720e+001
7.413497e+002, 2.224505e+001
7.418318e+002, 2.246034e+001
7.423139e+002, 2.216406e+001
7.427960e+002, 2.177017e+001
7.432781e+002, 2.155541e+001
7.437603e+002, 2.154624e+001
7.442424e+002, 2.151348e+001
7.447245e+002, 2.143287e+001
7.452066e+002, 2.140673e+001
7.456887e+002, 2.166947e+001
7.461708e+002, 2.206363e+001
7.466530e+002, 2.212159e+001
7.471351e+002, 2.170365e+001
7.476172e+002, 2.127349e+001
7.480993e+002, 2.117486e+001
7.485814e+002, 2.125098e+001
7.490635e+002, 2.132663e+001
7.495457e+002, 2.132049e+001
7.500278e+002, 2.138334e+001
7.505099e+002, 2.159987e+001
7.509920e+002, 2.184870e+001
7.514741e+002, 2.198303e+001
7.519562e+002, 2.197429e+001
7.524384e+002, 2.196970e+001
7.529205e+002, 2.199920e+001
7.534026e+002, 2.201643e+001
7.538847e+002, 2.191100e+001
7.543668e+002, 2.172061e+001
7.548489e+002, 2.159905e+001
7.553311e+002, 2.161647e+001
7.558132e+002, 2.167411e+001
7.562953e+002, 2.170100e+001
7.567774e+002, 2.170498e+001
7.572595e+002, 2.169929e+001
7.577416e+002, 2.165289e+001
7.582238e+002, 2.163850e+001
7.587059e+002, 2.162671e+001
7.591880e+002, 2.166841e+001
7.596701e+002, 2.193062e+001
7.601522e+002, 2.256347e+001
7.606343e+002, 2.291341e+001
7.611165e+002, 2.271836e+001
7.615986e+002, 2.224247e+001
7.620807e+002, 2.215603e+001
7.625628e+002, 2.239903e+001
7.630449e+002, 2.262171e+001
7.635270e+002, 2.267226e+001
7.640092e+002, 2.262058e+001
7.644913e+002, 2.244765e+001
7.649734e+002, 2.221578e+001
7.654555e+002, 2.211576e+001
7.659376e+002, 2.229067e+001
7.664197e+002, 2.253265e+001
7.669019e+002, 2.285217e+001
7.673840e+002, 2.319689e+001
7.678661e+002, 2.329556e+001
7.683482e+002, 2.307040e+001
7.688303e+002, 2.282065e+001
7.693124e+002, 2.263232e+001
7.697946e+002, 2.252209e+001
7.702767e+002, 2.260411e+001
7.707588e+002, 2.285381e+001
7.712409e+002, 2.304203e+001
7.717230e+002, 2.297500e+001
7.722051e+002, 2.281803e+001
7.726873e+002, 2.268320e+001
7.731694e+002, 2.258862e+001
7.736515e+002, 2.262271e+001
7.741336e+002, 2.293245e+001
7.746157e+002, 2.326678e+001
7.750978e+002, 2.355309e+001
7.755800e+002, 2.378830e+001
7.760621e+002, 2.383927e+001
7.765442e+002, 2.362729e+001
7.770263e+002, 2.345624e+001
7.775084e+002, 2.354941e+001
7.779905e+002, 2.382858e+001
7.784727e+002, 2.390099e+001
7.789548e+002, 2.377663e+001
7.794369e+002, 2.363657e+001
7.799190e+002, 2.354240e+001
7.804011e+002, 2.353943e+001
7.808832e+002, 2.372950e+001
7.813654e+002, 2.411165e+001
7.818475e+002, 2.440548e+001
7.823296e+002, 2.439300e+001
7.828117e+002, 2.438707e+001
7.832938e+002, 2.457219e+001
7.837759e+002, 2.497772e+001
7.842581e+002, 2.522187e+001
7.847402e+002, 2.526309e+001
7.852223e+002, 2.526893e+001
7.857044e+002, 2.533612e+001
7.861865e+002, 2.546287e+001
7.866686e+002, 2.568261e+001
7.871508e+002, 2.599483e+001
7.876329e+002, 2.624637e+001
7.881150e+002, 2.626920e+001
7.885971e+002, 2.621415e+001
7.890792e+002, 2.622575e+001
7.895613e+002, 2.632774e+001
7.900435e+002, 2.642188e+001
7.905256e+002, 2.648263e+001
7.910077e+002, 2.653104e+001
7.914898e+002, 2.658719e+001
7.919719e+002, 2.666126e+001
7.924540e+002, 2.666168e+001
7.929362e+002, 2.658279e+001
7.934183e+002, 2.645205e+001
7.939004e+002, 2.621340e+001
7.943825e+002, 2.594709e+001
7.948646e+002, 2.595740e+001
7.953467e+002, 2.626997e+001
7.958289e+002, 2.650286e+001
7.963110e+002, 2.639411e+001
7.967931e+002, 2.607482e+001
7.972752e+002, 2.558885e+001
7.977573e+002, 2.485080e+001
7.982394e+002, 2.436514e+001
7.987216e+002, 2.433871e+001
7.992037e+002, 2.440514e+001
7.996858e+002, 2.432700e+001
8.001679e+002, 2.407130e+001
8.006500e+002, 2.395690e+001
8.011321e+002, 2.400767e+001
8.016143e+002, 2.404097e+001
8.020964e+002, 2.386017e+001
8.025785e+002, 2.355314e+001
8.030606e+002, 2.325549e+001
8.035427e+002, 2.297790e+001
8.040248e+002, 2.280445e+001
8.045070e+002, 2.288933e+001
8.049891e+002, 2.302238e+001
8.054712e+002, 2.301875e+001
8.059533e+002, 2.276176e+001
8.064354e+002, 2.271280e+001
8.069175e+002, 2.305224e+001
8.073997e+002, 2.333863e+001
8.078818e+002, 2.314239e+001
8.083639e+002, 2.248201e+001
8.088460e+002, 2.219138e+001
8.093281e+002, 2.231668e+001
8.098102e+002, 2.258331e+001
8.102924e+002, 2.288300e+001
8.107745e+002, 2.310918e+001
8.112566e+002, 2.305436e+001
8.117387e+002, 2.265753e+001
8.122208e+002, 2.234217e+001
8.127029e+002, 2.236033e+001
8.131851e+002, 2.246469e+001
8.136672e+002, 2.250491e+001
8.141493e+002, 2.249974e+001
8.146314e+002, 2.229261e+001
8.151135e+002, 2.177789e+001
8.155956e+002, 2.132917e+001
8.160778e+002, 2.130598e+001
8.165599e+002, 2.162018e+001
8.170420e+002, 2.189458e+001
8.175241e+002, 2.211017e+001
8.180062e+002, 2.225364e+001
8.184883e+002, 2.232215e+001
8.189705e+002, 2.231108e+001
8.194526e+002, 2.216107e+001
8.199347e+002, 2.182700e+001
8.204168e+002, 2.166576e+001
8.208989e+002, 2.201567e+001
8.213810e+002, 2.231039e+001
8.218632e+002, 2.218603e+001
8.223453e+002, 2.155957e+001
8.228274e+002, 2.143760e+001
8.233095e+002, 2.191477e+001
8.237916e+002, 2.233190e+001
8.242737e+002, 2.197847e+001
8.247559e+002, 2.124292e+001
8.252380e+002, 2.092401e+001
8.257201e+002, 2.106503e+001
8.262022e+002, 2.131666e+001
8.266843e+002, 2.167301e+001
8.271664e+002, 2.190831e+001
8.276486e+002, 2.179162e+001
8.281307e+002, 2.122153e+001
8.286128e+002, 2.093082e+001
8.290949e+002, 2.105215e+001
8.295770e+002, 2.122278e+001
8.300591e+002, 2.121218e+001
8.305413e+002, 2.104960e+001
8.310234e+002, 2.114267e+001
8.315055e+002, 2.148621e+001
8.319876e+002, 2.170121e+001
8.324697e+002, 2.130587e+001
8.329518e+002, 2.077469e+001
8.334340e+002, 2.065883e+001
8.339161e+002, 2.096430e+001
8.343982e+002, 2.127072e+001
8.348803e+002, 2.159011e+001
8.353624e+002, 2.171029e+001
8.358445e+002, 2.143898e+001
8.363267e+002, 2.080844e+001
8.368088e+002, 2.061774e+001
8.372909e+002, 2.095334e+001
8.377730e+002, 2.134103e+001
8.382551e+002, 2.156005e+001
8.387372e+002, 2.162805e+001
8.392194e+002, 2.156286e+001
8.397015e+002, 2.137661e+001
8.401836e+002, 2.113916e+001
8.406657e+002, 2.074101e+001
8.411478e+002, 2.043796e+001
8.416299e+002, 2.044071e+001
8.421121e+002, 2.072112e+001
8.425942e+002, 2.096975e+001
8.430763e+002, 2.118979e+001
8.435584e+002, 2.134140e+001
8.440405e+002, 2.142197e+001
8.445226e+002, 2.142120e+001
8.450048e+002, 2.129923e+001
8.454869e+002, 2.105669e+001
8.459690e+002, 2.069761e+001
8.464511e+002, 1.998268e+001
8.469332e+002, 1.936017e+001
8.474153e+002, 1.948389e+001
8.478975e+002, 2.011416e+001
8.483796e+002, 2.057292e+001
8.488617e+002, 2.050377e+001
8.493438e+002, 2.036551e+001
8.498259e+002, 2.025264e+001
8.503080e+002, 2.017295e+001
8.507902e+002, 2.015597e+001
8.512723e+002, 2.021249e+001
8.517544e+002, 2.027496e+001
8.522365e+002, 2.034432e+001
8.527186e+002, 2.037822e+001
8.532007e+002, 2.027807e+001
8.536829e+002, 2.007919e+001
8.541650e+002, 1.987416e+001
8.546471e+002, 1.962216e+001
8.551292e+002, 1.946913e+001
8.556113e+002, 1.955616e+001
8.560934e+002, 1.977270e+001
8.565756e+002, 1.991476e+001
8.570577e+002, 1.993589e+001
8.575398e+002, 1.996649e+001
8.580219e+002, 2.004371e+001
8.585040e+002, 2.010158e+001
8.589861e+002, 2.003613e+001
8.594683e+002, 1.985604e+001
8.599504e+002, 1.957704e+001
8.604325e+002, 1.915778e+001
8.609146e+002, 1.879905e+001
8.613967e+002, 1.868602e+001
8.618788e+002, 1.874462e+001
8.623610e+002, 1.889634e+001
8.628431e+002, 1.926327e+001
8.633252e+002, 1.946456e+001
8.638073e+002, 1.941607e+001
8.642894e+002, 1.925503e+001
8.647715e+002, 1.910611e+001
8.652537e+002, 1.897071e+001
8.657358e+002, 1.881448e+001
8.662179e+002, 1.862682e+001
8.667000e+002, 1.846611e+001
8.671821e+002, 1.838065e+001
8.676642e+002, 1.836354e+001
8.681464e+002, 1.844638e+001
8.686285e+002, 1.866473e+001
8.691106e+002, 1.876283e+001
8.695927e+002, 1.849302e+001
8.700748e+002, 1.819236e+001
8.705569e+002, 1.807829e+001
8.710391e+002, 1.816978e+001
8.715212e+002, 1.835406e+001
8.720033e+002, 1.867548e+001
8.724854e+002, 1.890446e+001
8.729675e+002, 1.880676e+001
8.734496e+002, 1.849969e+001
8.739318e+002, 1.820759e+001
8.744139e+002, 1.795026e+001
8.748960e+002, 1.784300e+001
8.753781e+002, 1.810686e+001
8.758602e+002, 1.840945e+001
8.763423e+002, 1.853089e+001
8.768245e+002, 1.845918e+001
8.773066e+002, 1.844723e+001
8.777887e+002, 1.853082e+001
8.782708e+002, 1.859890e+001
8.787529e+002, 1.863011e+001
8.792350e+002, 1.860378e+001
8.797172e+002, 1.839203e+001
8.801993e+002, 1.802923e+001
8.806814e+002, 1.771915e+001
8.811635e+002, 1.763794e+001
8.816456e+002, 1.759230e+001
8.821277e+002, 1.737725e+001
8.826099e+002, 1.707692e+001
8.830920e+002, 1.694766e+001
8.835741e+002, 1.721361e+001
8.840562e+002, 1.740952e+001
8.845383e+002, 1.746446e+001
8.850204e+002, 1.740698e+001
8.855026e+002, 1.726901e+001
8.859847e+002, 1.705736e+001
8.864668e+002, 1.686766e+001
8.869489e+002, 1.670095e+001
8.874310e+002, 1.662736e+001
8.879131e+002, 1.681054e+001
8.883953e+002, 1.711143e+001
8.888774e+002, 1.732276e+001
8.893595e+002, 1.736864e+001
8.898416e+002, 1.734599e+001
8.903237e+002, 1.726200e+001
8.908058e+002, 1.712527e+001
8.912880e+002, 1.691447e+001
8.917701e+002, 1.661759e+001
8.922522e+002, 1.641234e+001
8.927343e+002, 1.631132e+001
8.932164e+002, 1.630835e+001
8.936985e+002, 1.644986e+001
8.941807e+002, 1.666276e+001
8.946628e+002, 1.687196e+001
8.951449e+002, 1.708092e+001
8.956270e+002, 1.715765e+001
8.961091e+002, 1.695003e+001
8.965912e+002, 1.668317e+001
8.970734e+002, 1.646765e+001
8.975555e+002, 1.629815e+001
8.980376e+002, 1.632026e+001
8.985197e+002, 1.657999e+001
8.990018e+002, 1.675304e+001
8.994839e+002, 1.652084e+001
8.999661e+002, 1.608336e+001
9.004482e+002, 1.578238e+001
9.009303e+002, 1.561862e+001
9.014124e+002, 1.555321e+001
9.018945e+002, 1.561157e+001
9.023766e+002, 1.571782e+001
9.028588e+002, 1.586647e+001
9.033409e+002, 1.603753e+001
9.038230e+002, 1.614760e+001
9.043051e+002, 1.618250e+001
9.047872e+002, 1.621461e+001
9.052693e+002, 1.627062e+001
9.057515e+002, 1.633469e+001
9.062336e+002, 1.640609e+001
9.067157e+002, 1.646078e+001
9.071978e+002, 1.642536e+001
9.076799e+002, 1.613884e+001
9.081620e+002, 1.592162e+001
9.086442e+002, 1.601236e+001
9.091263e+002, 1.623296e+001
9.096084e+002, 1.628642e+001
9.100905e+002, 1.612128e+001
9.105726e+002, 1.589080e+001
9.110547e+002, 1.556015e+001
9.115369e+002, 1.527746e+001
9.120190e+002, 1.531255e+001
9.125011e+002, 1.554958e+001
9.129832e+002, 1.564423e+001
9.134653e+002, 1.551848e+001
9.139474e+002, 1.537769e+001
9.144296e+002, 1.526917e+001
9.149117e+002, 1.525734e+001
9.153938e+002, 1.546121e+001
9.158759e+002, 1.600770e+001
9.163580e+002, 1.616860e+001
9.168401e+002, 1.578339e+001
9.173223e+002, 1.540894e+001
9.178044e+002, 1.554936e+001
9.182865e+002, 1.601427e+001
9.187686e+002, 1.600989e+001
9.192507e+002, 1.558635e+001
9.197328e+002, 1.526406e+001
9.202150e+002, 1.546631e+001
9.206971e+002, 1.578423e+001
9.211792e+002, 1.597012e+001
9.216613e+002, 1.603353e+001
9.221434e+002, 1.615255e+001
9.226255e+002, 1.642273e+001
9.231077e+002, 1.652989e+001
9.235898e+002, 1.634242e+001
9.240719e+002, 1.598090e+001
9.245540e+002, 1.565577e+001
9.250361e+002, 1.538865e+001
9.255182e+002, 1.527988e+001
9.260004e+002, 1.542564e+001
9.264825e+002, 1.563850e+001
9.269646e+002, 1.586989e+001
9.274467e+002, 1.607094e+001
9.279288e+002, 1.615879e+001
9.284109e+002, 1.609455e+001
9.288931e+002, 1.598166e+001
9.293752e+002, 1.578046e+001
9.298573e+002, 1.562442e+001
9.303394e+002, 1.574230e+001
9.308215e+002, 1.603674e+001
9.313036e+002, 1.612763e+001
9.317858e+002, 1.595783e+001
9.322679e+002, 1.579366e+001
9.327500e+002, 1.585549e+001
9.332321e+002, 1.597114e+001
9.337142e+002, 1.601011e+001
9.341964e+002, 1.595114e+001
9.346785e+002, 1.586992e+001
9.351606e+002, 1.571319e+001
9.356427e+002, 1.567337e+001
9.361248e+002, 1.593741e+001
9.366069e+002, 1.637255e+001
9.370891e+002, 1.647370e+001
9.375712e+002, 1.630204e+001
9.380533e+002, 1.615652e+001
9.385354e+002, 1.621620e+001
9.390175e+002, 1.633290e+001
9.394996e+002, 1.647669e+001
9.399818e+002, 1.660950e+001
9.404639e+002, 1.661999e+001
9.409460e+002, 1.644182e+001
9.414281e+002, 1.630794e+001
9.419102e+002, 1.625309e+001
9.423923e+002, 1.627236e+001
9.428745e+002, 1.642743e+001
9.433566e+002, 1.665019e+001
9.438387e+002, 1.672592e+001
9.443208e+002, 1.657277e+001
9.448029e+002, 1.638000e+001
9.452850e+002, 1.618879e+001
9.457672e+002, 1.604939e+001
9.462493e+002, 1.601113e+001
9.467314e+002, 1.607766e+001
9.472135e+002, 1.623807e+001
9.476956e+002, 1.652797e+001
9.481777e+002, 1.679014e+001
9.486599e+002, 1.688370e+001
9.491420e+002, 1.685947e+001
9.496241e+002, 1.678804e+001
9.501062e+002, 1.669034e+001
9.505883e+002, 1.669994e+001
9.510704e+002, 1.706050e+001
9.515526e+002, 1.737866e+001
9.520347e+002, 1.740258e+001
9.525168e+002, 1.721082e+001
9.529989e+002, 1.708809e+001
9.534810e+002, 1.704408e+001
9.539631e+002, 1.702693e+001
9.544453e+002, 1.703146e+001
9.549274e+002, 1.703788e+001
9.554095e+002, 1.698577e+001
9.558916e+002, 1.691455e+001
9.563737e+002, 1.691090e+001
9.568558e+002, 1.703184e+001
9.573380e+002, 1.716819e+001
9.578201e+002, 1.732297e+001
9.583022e+002, 1.744940e+001
9.587843e+002, 1.749537e+001
9.592664e+002, 1.744233e+001
9.597485e+002, 1.741383e+001
9.602307e+002, 1.741495e+001
9.607128e+002, 1.743009e+001
9.611949e+002, 1.749297e+001
9.616770e+002, 1.753675e+001
9.621591e+002, 1.743607e+001
9.626412e+002, 1.719237e+001
9.631234e+002, 1.698205e+001
9.636055e+002, 1.674995e+001
9.640876e+002, 1.670435e+001
9.645697e+002, 1.698548e+001
9.650518e+002, 1.749648e+001
9.655339e+002, 1.784217e+001
9.660161e+002, 1.802270e+001
9.664982e+002, 1.803935e+001
9.669803e+002, 1.781390e+001
9.674624e+002, 1.755500e+001
9.679445e+002, 1.748676e+001
9.684266e+002, 1.755218e+001
9.689088e+002, 1.765832e+001
9.693909e+002, 1.797465e+001
9.698730e+002, 1.801740e+001
9.703551e+002, 1.754098e+001
9.708372e+002, 1.706740e+001
9.713193e+002, 1.724968e+001
9.718015e+002, 1.799516e+001
9.722836e+002, 1.840822e+001
9.727657e+002, 1.841206e+001
9.732478e+002, 1.832195e+001
9.737299e+002, 1.832357e+001
9.742120e+002, 1.838294e+001
9.746942e+002, 1.847522e+001
9.751763e+002, 1.859933e+001
9.756584e+002, 1.876179e+001
9.761405e+002, 1.900063e+001
9.766226e+002, 1.919154e+001
9.771047e+002, 1.925678e+001
9.775869e+002, 1.926991e+001
9.780690e+002, 1.950867e+001
9.785511e+002, 1.988589e+001
9.790332e+002, 2.006221e+001
9.795153e+002, 1.962927e+001
9.799974e+002, 1.936162e+001
9.804796e+002, 1.992786e+001
9.809617e+002, 2.079688e+001
9.814438e+002, 2.121276e+001
9.819259e+002, 2.102593e+001
9.824080e+002, 2.076583e+001
9.828901e+002, 2.040019e+001
9.833723e+002, 2.017754e+001
9.838544e+002, 2.050406e+001
9.843365e+002, 2.109590e+001
9.848186e+002, 2.139174e+001
9.853007e+002, 2.135225e+001
9.857828e+002, 2.132277e+001
9.862650e+002, 2.134480e+001
9.867471e+002, 2.154327e+001
9.872292e+002, 2.210142e+001
9.877113e+002, 2.288124e+001
9.881934e+002, 2.306148e+001
9.886755e+002, 2.261237e+001
9.891577e+002, 2.226826e+001
9.896398e+002, 2.236380e+001
9.901219e+002, 2.260678e+001
9.906040e+002, 2.263866e+001
9.910861e+002, 2.257379e+001
9.915682e+002, 2.260482e+001
9.920504e+002, 2.278175e+001
9.925325e+002, 2.308386e+001
9.930146e+002, 2.360455e+001
9.934967e+002, 2.411504e+001
9.939788e+002, 2.436814e+001
9.944609e+002, 2.440139e+001
9.949431e+002, 2.459333e+001
9.954252e+002, 2.496285e+001
9.959073e+002, 2.521674e+001
9.963894e+002, 2.496827e+001
9.968715e+002, 2.466954e+001
9.973536e+002, 2.469280e+001
9.978358e+002, 2.502851e+001
9.983179e+002, 2.526574e+001
9.988000e+002, 2.539031e+001
9.992821e+002, 2.540710e+001
9.997642e+002, 2.523691e+001
1.000246e+003, 2.507887e+001
1.000728e+003, 2.545040e+001
1.001211e+003, 2.615575e+001
1.001693e+003, 2.667010e+001
1.002175e+003, 2.674964e+001
1.002657e+003, 2.680876e+001
1.003139e+003, 2.706156e+001
1.003621e+003, 2.734652e+001
1.004103e+003, 2.753068e+001
1.004585e+003, 2.762008e+001
1.005068e+003, 2.749165e+001
1.005550e+003, 2.710470e+001
1.006032e+003, 2.688579e+001
1.006514e+003, 2.737843e+001
1.006996e+003, 2.807987e+001
1.007478e+003, 2.832729e+001
1.007960e+003, 2.817896e+001
1.008442e+003, 2.810582e+001
1.008924e+003, 2.826068e+001
1.009407e+003, 2.849468e+001
1.009889e+003, 2.885188e+001
1.010371e+003, 2.920577e+001
1.010853e+003, 2.920079e+001
1.011335e+003, 2.891352e+001
1.011817e+003, 2.888842e+001
1.012299e+003, 2.931892e+001
1.012781e+003, 2.973371e+001
1.013263e+003, 2.976221e+001
1.013746e+003, 2.961750e+001
1.014228e+003, 2.950227e+001
1.014710e+003, 2.944983e+001
1.015192e+003, 2.932443e+001
1.015674e+003, 2.908063e+001
1.016156e+003, 2.891693e+001
1.016638e+003, 2.897764e+001
1.017120e+003, 2.918887e+001
1.017603e+003, 2.945529e+001
1.018085e+003, 2.974181e+001
1.018567e+003, 2.991671e+001
1.019049e+003, 2.987076e+001
1.019531e+003, 2.976098e+001
1.020013e+003, 2.961698e+001
1.020495e+003, 2.944680e+001
1.020977e+003, 2.920626e+001
1.021459e+003, 2.888787e+001
1.021942e+003, 2.888191e+001
1.022424e+003, 2.928024e+001
1.022906e+003, 2.965463e+001
1.023388e+003, 2.953835e+001
1.023870e+003, 2.924731e+001
1.024352e+003, 2.910426e+001
1.024834e+003, 2.915776e+001
1.025316e+003, 2.914428e+001
1.025799e+003, 2.895640e+001
1.026281e+003, 2.889190e+001
1.026763e+003, 2.911338e+001
1.027245e+003, 2.950130e+001
1.027727e+003, 2.981437e+001
1.028209e+003, 3.003712e+001
1.028691e+003, 3.009796e+001
1.029173e+003, 2.975961e+001
1.029656e+003, 2.958917e+001
1.030138e+003, 3.007238e+001
1.030620e+003, 3.071601e+001
1.031102e+003, 3.100684e+001
1.031584e+003, 3.089891e+001
1.032066e+003, 3.060727e+001
1.032548e+003, 3.009800e+001
1.033030e+003, 2.975748e+001
1.033512e+003, 3.003134e+001
1.033995e+003, 3.057256e+001
1.034477e+003, 3.104080e+001
1.034959e+003, 3.140670e+001
1.035441e+003, 3.163137e+001
1.035923e+003, 3.165001e+001
1.036405e+003, 3.159061e+001
1.036887e+003, 3.141143e+001
1.037369e+003, 3.124763e+001
1.037851e+003, 3.142425e+001
1.038334e+003, 3.185237e+001
1.038816e+003, 3.219892e+001
1.039298e+003, 3.237746e+001
1.039780e+003, 3.252542e+001
1.040262e+003, 3.278666e+001
1.040744e+003, 3.300744e+001
1.041226e+003, 3.303535e+001
1.041708e+003, 3.285558e+001
1.042191e+003, 3.278442e+001
1.042673e+003, 3.282247e+001
1.043155e+003, 3.295605e+001
1.043637e+003, 3.323683e+001
1.044119e+003, 3.355903e+001
1.044601e+003, 3.378057e+001
1.045083e+003, 3.393053e+001
1.045565e+003, 3.406718e+001
1.046047e+003, 3.424922e+001
1.046530e+003, 3.433804e+001
1.047012e+003, 3.422281e+001
1.047494e+003, 3.415894e+001
1.047976e+003, 3.456084e+001
1.048458e+003, 3.529035e+001
1.048940e+003, 3.562140e+001
1.049422e+003, 3.550893e+001
1.049904e+003, 3.531321e+001
1.050386e+003, 3.513308e+001
1.050869e+003, 3.505654e+001
1.051351e+003, 3.528125e+001
1.051833e+003, 3.567070e+001
1.052315e+003, 3.560120e+001
1.052797e+003, 3.498907e+001
1.053279e+003, 3.454435e+001
1.053761e+003, 3.445554e+001
1.054243e+003, 3.459861e+001
1.054726e+003, 3.497573e+001
1.055208e+003, 3.541417e+001
1.055690e+003, 3.565236e+001
1.056172e+003, 3.555402e+001
1.056654e+003, 3.553013e+001
1.057136e+003, 3.567456e+001
1.057618e+003, 3.579044e+001
1.058100e+003, 3.571879e+001
1.058583e+003, 3.553112e+001
1.059065e+003, 3.549877e+001
1.059547e+003, 3.560769e+001
1.060029e+003, 3.579421e+001
1.060511e+003, 3.617073e+001
1.060993e+003, 3.644635e+001
1.061475e+003, 3.627772e+001
1.061957e+003, 3.605250e+001
1.062439e+003, 3.634172e+001
1.062922e+003, 3.721261e+001
1.063404e+003, 3.803588e+001
1.063886e+003, 3.877044e+001
1.064368e+003, 3.933982e+001
1.064850e+003, 3.958546e+001
1.065332e+003, 3.970398e+001
1.065814e+003, 3.981103e+001
1.066296e+003, 3.993834e+001
1.066778e+003, 4.035962e+001
1.067261e+003, 4.121888e+001
1.067743e+003, 4.207185e+001
1.068225e+003, 4.280040e+001
1.068707e+003, 4.347039e+001
1.069189e+003, 4.413683e+001
1.069671e+003, 4.483633e+001
1.070153e+003, 4.566828e+001
1.070635e+003, 4.668116e+001
1.071118e+003, 4.770945e+001
1.071600e+003, 4.861568e+001
1.072082e+003, 4.956072e+001
1.072564e+003, 5.063761e+001
1.073046e+003, 5.183132e+001
1.073528e+003, 5.309895e+001
1.074010e+003, 5.442294e+001
1.074492e+003, 5.569077e+001
1.074974e+003, 5.681632e+001
1.075457e+003, 5.787705e+001
1.075939e+003, 5.883416e+001
1.076421e+003, 5.979415e+001
1.076903e+003, 6.096326e+001
1.077385e+003, 6.238421e+001
1.077867e+003, 6.386070e+001
1.078349e+003, 6.537979e+001
1.078831e+003, 6.694098e+001
1.079313e+003, 6.849417e+001
1.079796e+003, 7.011481e+001
1.080278e+003, 7.204402e+001
1.080760e+003, 7.422192e+001
1.081242e+003, 7.608886e+001
1.081724e+003, 7.715314e+001
1.082206e+003, 7.829482e+001
1.082688e+003, 7.964645e+001
1.083170e+003, 8.117583e+001
1.083652e+003, 8.286626e+001
1.084135e+003, 8.468827e+001
1.084617e+003, 8.644545e+001
1.085099e+003, 8.808052e+001
1.085581e+003, 8.982419e+001
1.086063e+003, 9.212716e+001
1.086545e+003, 9.428204e+001
1.087027e+003, 9.595927e+001
1.087509e+003, 9.715000e+001
1.087992e+003, 9.765072e+001
1.088474e+003, 9.745208e+001
1.088956e+003, 9.738904e+001
1.089438e+003, 9.779662e+001
1.089920e+003, 9.848607e+001
1.090402e+003, 9.948599e+001
1.090884e+003, 1.005633e+002
1.091366e+003, 1.013809e+002
1.091849e+003, 1.017877e+002
1.092331e+003, 1.022291e+002
1.092813e+003, 1.027070e+002
1.093295e+003, 1.032140e+002
1.093777e+003, 1.038927e+002
1.094259e+003, 1.045233e+002
1.094741e+003, 1.045389e+002
1.095223e+003, 1.041265e+002
1.095705e+003, 1.039528e+002
1.096188e+003, 1.044301e+002
1.096670e+003, 1.049604e+002
1.097152e+003, 1.055038e+002
1.097634e+003, 1.059731e+002
1.098116e+003, 1.063170e+002
1.098598e+003, 1.065022e+002
1.099080e+003, 1.063055e+002
1.099562e+003, 1.057127e+002
1.100044e+003, 1.050877e+002
1.100527e+003, 1.045919e+002
1.101009e+003, 1.041899e+002
1.101491e+003, 1.039165e+002
1.101973e+003, 1.037098e+002
1.102455e+003, 1.034188e+002
1.102937e+003, 1.030455e+002
1.103419e+003, 1.024928e+002
1.103901e+003, 1.017500e+002
1.104384e+003, 1.007932e+002
1.104866e+003, 9.934753e+001
1.105348e+003, 9.785571e+001
1.105830e+003, 9.680978e+001
1.106312e+003, 9.633572e+001
1.106794e+003, 9.567165e+001
1.107276e+003, 9.479465e+001
1.107758e+003, 9.378878e+001
1.108240e+003, 9.257908e+001
1.108723e+003, 9.138613e+001
1.109205e+003, 9.071968e+001
1.109687e+003, 9.025926e+001
1.110169e+003, 8.936731e+001
1.110651e+003, 8.743980e+001
1.111133e+003, 8.585715e+001
1.111615e+003, 8.481253e+001
1.112097e+003, 8.391697e+001
1.112579e+003, 8.288472e+001
1.113062e+003, 8.175243e+001
1.113544e+003, 8.063611e+001
1.114026e+003, 7.953182e+001
1.114508e+003, 7.846094e+001
1.114990e+003, 7.747340e+001
1.115472e+003, 7.646980e+001
1.115954e+003, 7.548088e+001
1.116436e+003, 7.443172e+001
1.116919e+003, 7.312733e+001
1.117401e+003, 7.160074e+001
1.117883e+003, 7.055308e+001
1.118365e+003, 7.004631e+001
1.118847e+003, 6.947498e+001
1.119329e+003, 6.835022e+001
1.119811e+003, 6.706793e+001
1.120293e+003, 6.577311e+001
1.120776e+003, 6.454166e+001
1.121258e+003, 6.365324e+001
1.121740e+003, 6.315196e+001
1.122222e+003, 6.256476e+001
1.122704e+003, 6.179725e+001
1.123186e+003, 6.088777e+001
1.123668e+003, 5.961613e+001
1.124150e+003, 5.836605e+001
1.124632e+003, 5.760809e+001
1.125115e+003, 5.745520e+001
1.125597e+003, 5.714539e+001
1.126079e+003, 5.670300e+001
1.126561e+003, 5.595668e+001
1.127043e+003, 5.468452e+001
1.127525e+003, 5.332313e+001
1.128007e+003, 5.273151e+001
1.128489e+003, 5.251495e+001
1.128971e+003, 5.196419e+001
1.129454e+003, 5.068265e+001
1.129936e+003, 4.969139e+001
1.130418e+003, 4.913170e+001
1.130900e+003, 4.877549e+001
1.131382e+003, 4.862969e+001
1.131864e+003, 4.851980e+001
1.132346e+003, 4.779491e+001
1.132828e+003, 4.661948e+001
1.133311e+003, 4.553685e+001
1.133793e+003, 4.474178e+001
1.134275e+003, 4.412951e+001
1.134757e+003, 4.374572e+001
1.135239e+003, 4.342711e+001
1.135721e+003, 4.300282e+001
1.136203e+003, 4.249716e+001
1.136685e+003, 4.212600e+001
1.137167e+003, 4.187827e+001
1.137650e+003, 4.159192e+001
1.138132e+003, 4.125033e+001
1.138614e+003, 4.075862e+001
1.139096e+003, 3.992314e+001
1.139578e+003, 3.896784e+001
1.140060e+003, 3.825467e+001
1.140542e+003, 3.778260e+001
1.141024e+003, 3.738600e+001
1.141506e+003, 3.705162e+001
1.141989e+003, 3.672406e+001
1.142471e+003, 3.642107e+001
1.142953e+003, 3.605084e+001
1.143435e+003, 3.549559e+001
1.143917e+003, 3.479951e+001
1.144399e+003, 3.413081e+001
1.144881e+003, 3.346437e+001
1.145363e+003, 3.307477e+001
1.145846e+003, 3.308820e+001
1.146328e+003, 3.313714e+001
1.146810e+003, 3.277759e+001
1.147292e+003, 3.226892e+001
1.147774e+003, 3.190635e+001
1.148256e+003, 3.174185e+001
1.148738e+003, 3.141491e+001
1.149220e+003, 3.089337e+001
1.149703e+003, 3.029578e+001
1.150185e+003, 2.962610e+001
1.150667e+003, 2.897676e+001
1.151149e+003, 2.841791e+001
1.151631e+003, 2.799194e+001
1.152113e+003, 2.780133e+001
1.152595e+003, 2.798236e+001
1.153077e+003, 2.799183e+001
1.153559e+003, 2.780242e+001
1.154042e+003, 2.742203e+001
1.154524e+003, 2.673769e+001
1.155006e+003, 2.596479e+001
1.155488e+003, 2.557438e+001
1.155970e+003, 2.548502e+001
1.156452e+003, 2.552964e+001
1.156934e+003, 2.587465e+001
1.157416e+003, 2.591690e+001
1.157898e+003, 2.547547e+001
1.158381e+003, 2.493370e+001
1.158863e+003, 2.455826e+001
1.159345e+003, 2.432109e+001
1.159827e+003, 2.414432e+001
1.160309e+003, 2.401352e+001
1.160791e+003, 2.387375e+001
1.161273e+003, 2.374497e+001
1.161755e+003, 2.353732e+001
1.162238e+003, 2.317583e+001
1.162720e+003, 2.278829e+001
1.163202e+003, 2.251427e+001
1.163684e+003, 2.233841e+001
1.164166e+003, 2.217305e+001
1.164648e+003, 2.200791e+001
1.165130e+003, 2.179793e+001
1.165612e+003, 2.149906e+001
1.166094e+003, 2.116729e+001
1.166577e+003, 2.078439e+001
1.167059e+003, 2.041422e+001
1.167541e+003, 2.016122e+001
1.168023e+003, 2.002049e+001
1.168505e+003, 1.997918e+001
1.168987e+003, 2.003626e+001
1.169469e+003, 2.007189e+001
1.169951e+003, 2.001400e+001
1.170433e+003, 1.989793e+001
1.170916e+003, 1.972365e+001
1.171398e+003, 1.951165e+001
1.171880e+003, 1.928881e+001
1.172362e+003, 1.905494e+001
1.172844e+003, 1.890486e+001
1.173326e+003, 1.887530e+001
1.173808e+003, 1.879230e+001
1.174290e+003, 1.837259e+001
1.174773e+003, 1.795888e+001
1.175255e+003, 1.791282e+001
1.175737e+003, 1.813667e+001
1.176219e+003, 1.809192e+001
1.176701e+003, 1.776550e+001
1.177183e+003, 1.742643e+001
1.177665e+003, 1.713086e+001
1.178147e+003, 1.689530e+001
1.178630e+003, 1.671446e+001
1.179112e+003, 1.661495e+001
1.179594e+003, 1.668923e+001
1.180076e+003, 1.693501e+001
1.180558e+003, 1.690788e+001
1.181040e+003, 1.657681e+001
1.181522e+003, 1.627246e+001
1.182004e+003, 1.612652e+001
1.182486e+003, 1.604699e+001
1.182969e+003, 1.595635e+001
1.183451e+003, 1.586290e+001
1.183933e+003, 1.577395e+001
1.184415e+003, 1.568860e+001
1.184897e+003, 1.563699e+001
1.185379e+003, 1.563509e+001
1.185861e+003, 1.555256e+001
1.186343e+003, 1.525417e+001
1.186825e+003, 1.493582e+001
1.187308e+003, 1.488308e+001
1.187790e+003, 1.494860e+001
1.188272e+003, 1.489698e+001
1.188754e+003, 1.464920e+001
1.189236e+003, 1.440635e+001
1.189718e+003, 1.415180e+001
1.190200e+003, 1.399944e+001
1.190682e+003, 1.412525e+001
1.191165e+003, 1.431115e+001
1.191647e+003, 1.427162e+001
1.192129e+003, 1.407946e+001
1.192611e+003, 1.386895e+001
1.193093e+003, 1.357320e+001
1.193575e+003, 1.351293e+001
1.194057e+003, 1.376177e+001
1.194539e+003, 1.396215e+001
1.195021e+003, 1.371482e+001
1.195504e+003, 1.333526e+001
1.195986e+003, 1.328652e+001
1.196468e+003, 1.346918e+001
1.196950e+003, 1.357153e+001
1.197432e+003, 1.347448e+001
1.197914e+003, 1.347977e+001
1.198396e+003, 1.366628e+001
1.198878e+003, 1.373362e+001
1.199360e+003, 1.319329e+001
1.199843e+003, 1.248436e+001
1.200325e+003, 1.228297e+001
1.200807e+003, 1.250172e+001
1.201289e+003, 1.269289e+001
1.201771e+003, 1.276416e+001
1.202253e+003, 1.285329e+001
1.202735e+003, 1.300883e+001
1.203217e+003, 1.307542e+001
1.203700e+003, 1.272655e+001
1.204182e+003, 1.227137e+001
1.204664e+003, 1.222873e+001
1.205146e+003, 1.255247e+001
1.205628e+003, 1.269499e+001
1.206110e+003, 1.242566e+001
1.206592e+003, 1.232706e+001
1.207074e+003, 1.253985e+001
1.207557e+003, 1.280297e+001
1.208039e+003, 1.281481e+001
1.208521e+003, 1.265367e+001
1.209003e+003, 1.235385e+001
1.209485e+003, 1.194110e+001
1.209967e+003, 1.175635e+001
1.210449e+003, 1.196337e+001
1.210931e+003, 1.206902e+001
1.211413e+003, 1.194157e+001
1.211896e+003, 1.175595e+001
1.212378e+003, 1.171247e+001
1.212860e+003, 1.178029e+001
1.213342e+003, 1.195717e+001
1.213824e+003, 1.224207e+001
1.214306e+003, 1.242067e+001
1.214788e+003, 1.247309e+001
1.215270e+003, 1.242405e+001
1.215752e+003, 1.225132e+001
1.216235e+003, 1.205444e+001
1.216717e+003, 1.197521e+001
1.217199e+003, 1.196323e+001
1.217681e+003, 1.198479e+001
1.218163e+003, 1.204467e+001
1.218645e+003, 1.187412e+001
1.219127e+003, 1.132106e+001
1.219609e+003, 1.097391e+001
1.220092e+003, 1.106626e+001
1.220574e+003, 1.133748e+001
1.221056e+003, 1.144090e+001
1.221538e+003, 1.145018e+001
1.222020e+003, 1.146985e+001
1.222502e+003, 1.151993e+001
1.222984e+003, 1.153768e+001
1.223466e+003, 1.150802e+001
1.223948e+003, 1.149191e+001
1.224431e+003, 1.152312e+001
1.224913e+003, 1.155450e+001
1.225395e+003, 1.149401e+001
1.225877e+003, 1.140117e+001
1.226359e+003, 1.135497e+001
1.226841e+003, 1.137405e+001
1.227323e+003, 1.144408e+001
1.227805e+003, 1.159295e+001
1.228287e+003, 1.167131e+001
1.228770e+003, 1.159319e+001
1.229252e+003, 1.145753e+001
1.229734e+003, 1.138318e+001
1.230216e+003, 1.134572e+001
1.230698e+003, 1.130718e+001
1.231180e+003, 1.125115e+001
1.231662e+003, 1.127213e+001
1.232144e+003, 1.138458e+001
1.232627e+003, 1.150039e+001
1.233109e+003, 1.162584e+001
1.233591e+003, 1.165695e+001
1.234073e+003, 1.131924e+001
1.234555e+003, 1.088701e+001
1.235037e+003, 1.078276e+001
1.235519e+003, 1.113185e+001
1.236001e+003, 1.117822e+001
1.236484e+003, 1.087695e+001
1.236966e+003, 1.067878e+001
1.237448e+003, 1.087604e+001
1.237930e+003, 1.117352e+001
1.238412e+003, 1.131444e+001
1.238894e+003, 1.135221e+001
1.239376e+003, 1.136060e+001
1.239858e+003, 1.135984e+001
1.240340e+003, 1.119524e+001
1.240823e+003, 1.085589e+001
1.241305e+003, 1.065462e+001
1.241787e+003, 1.085207e+001
1.242269e+003, 1.112253e+001
1.242751e+003, 1.127593e+001
1.243233e+003, 1.128322e+001
1.243715e+003, 1.106509e+001
1.244197e+003, 1.058026e+001
1.244679e+003, 1.039031e+001
1.245162e+003, 1.048855e+001
1.245644e+003, 1.061540e+001
1.246126e+003, 1.063232e+001
1.246608e+003, 1.063035e+001
1.247090e+003, 1.064437e+001
1.247572e+003, 1.069466e+001
1.248054e+003, 1.083532e+001
1.248536e+003, 1.107965e+001
1.249019e+003, 1.101394e+001
1.249501e+003, 1.067395e+001
1.249983e+003, 1.044360e+001
1.250465e+003, 1.062117e+001
1.250947e+003, 1.085612e+001
1.251429e+003, 1.106230e+001
1.251911e+003, 1.116259e+001
1.252393e+003, 1.102708e+001
1.252875e+003, 1.067789e+001
1.253358e+003, 1.056232e+001
1.253840e+003, 1.065314e+001
1.254322e+003, 1.076359e+001
1.254804e+003, 1.082117e+001
1.255286e+003, 1.084884e+001
1.255768e+003, 1.085539e+001
1.256250e+003, 1.083457e+001
1.256732e+003, 1.073318e+001
1.257214e+003, 1.058941e+001
1.257697e+003, 1.069513e+001
1.258179e+003, 1.099341e+001
1.258661e+003, 1.121621e+001
1.259143e+003, 1.128769e+001
1.259625e+003, 1.118304e+001
1.260107e+003, 1.077128e+001
1.260589e+003, 1.040540e+001
1.261071e+003, 1.047695e+001
1.261554e+003, 1.081433e+001
1.262036e+003, 1.085962e+001
1.262518e+003, 1.068016e+001
1.263000e+003, 1.052274e+001
1.263482e+003, 1.051392e+001
1.263964e+003, 1.047989e+001
1.264446e+003, 1.040890e+001
1.264928e+003, 1.030292e+001
1.265411e+003, 1.006190e+001
1.265893e+003, 9.842443e+000
1.266375e+003, 1.004442e+001
1.266857e+003, 1.051693e+001
1.267339e+003, 1.084609e+001
1.267821e+003, 1.084582e+001
1.268303e+003, 1.083378e+001
1.268785e+003, 1.081712e+001
1.269267e+003, 1.079070e+001
1.269750e+003, 1.073693e+001
1.270232e+003, 1.068205e+001
1.270714e+003, 1.071209e+001
1.271196e+003, 1.075805e+001
1.271678e+003, 1.062491e+001
1.272160e+003, 1.013887e+001
1.272642e+003, 1.006032e+001
1.273124e+003, 1.046275e+001
1.273606e+003, 1.079473e+001
1.274089e+003, 1.050449e+001
1.274571e+003, 1.011477e+001
1.275053e+003, 1.013193e+001
1.275535e+003, 1.036345e+001
1.276017e+003, 1.045517e+001
1.276499e+003, 1.037812e+001
1.276981e+003, 1.027591e+001
1.277463e+003, 1.015298e+001
1.277946e+003, 1.009334e+001
1.278428e+003, 1.021681e+001
1.278910e+003, 1.034973e+001
1.279392e+003, 1.041558e+001
1.279874e+003, 1.040692e+001
1.280356e+003, 1.025191e+001
1.280838e+003, 9.962367e+000
1.281320e+003, 1.006114e+001
1.281802e+003, 1.050867e+001
1.282285e+003, 1.090305e+001
1.282767e+003, 1.110188e+001
1.283249e+003, 1.110487e+001
1.283731e+003, 1.078447e+001
1.284213e+003, 1.040894e+001
1.284695e+003, 1.017498e+001
1.285177e+003, 1.008484e+001
1.285659e+003, 1.022076e+001
1.286141e+003, 1.052450e+001
1.286624e+003, 1.075713e+001
1.287106e+003, 1.082592e+001
1.287588e+003, 1.077727e+001
1.288070e+003, 1.056236e+001
1.288552e+003, 1.036821e+001
1.289034e+003, 1.036471e+001
1.289516e+003, 1.048881e+001
1.289998e+003, 1.063392e+001
1.290481e+003, 1.078418e+001
1.290963e+003, 1.090152e+001
1.291445e+003, 1.096269e+001
1.291927e+003, 1.101042e+001
1.292409e+003, 1.104974e+001
1.292891e+003, 1.105638e+001
1.293373e+003, 1.102571e+001
1.293855e+003, 1.094214e+001
1.294338e+003, 1.071214e+001
1.294820e+003, 1.043671e+001
1.295302e+003, 1.032115e+001
1.295784e+003, 1.039927e+001
1.296266e+003, 1.055624e+001
1.296748e+003, 1.080348e+001
1.297230e+003, 1.092205e+001
1.297712e+003, 1.067128e+001
1.298194e+003, 1.036460e+001
1.298677e+003, 1.021727e+001
1.299159e+003, 1.018155e+001
1.299641e+003, 1.018953e+001
1.300123e+003, 1.024075e+001
1.300605e+003, 1.033936e+001
1.301087e+003, 1.047971e+001
1.301569e+003, 1.061380e+001
1.302051e+003, 1.073098e+001
1.302533e+003, 1.080876e+001
1.303016e+003, 1.083562e+001
##END=



