##NAMES=Anatase
##RRUFFID=R120013
##IDEAL CHEMISTRY=Ti^4+^O_2_
##LOCALITY=Governor's Lake pegmatite, Halifax County, Nova Scotia, Canada
##OWNER=RRUFF
##SOURCE=Donald Doell
##DESCRIPTION=Black tabular crystals associated with metatorbernite R120014
##STATUS=The identification of this mineral has been confirmed by single-crystal X-ray diffraction.
##URL=rruff.info/R120013
9.112140e+001, 0.000000e+000
9.160352e+001, 5.536800e+002
9.208563e+001, 5.494366e+002
9.256775e+001, 5.490275e+002
9.304987e+001, 5.548954e+002
9.353198e+001, 5.612225e+002
9.401410e+001, 5.589099e+002
9.449622e+001, 5.498178e+002
9.497833e+001, 5.385852e+002
9.546045e+001, 5.285854e+002
9.594257e+001, 5.196882e+002
9.642468e+001, 5.116422e+002
9.690680e+001, 5.051730e+002
9.738892e+001, 4.992386e+002
9.787103e+001, 4.935928e+002
9.835315e+001, 4.876070e+002
9.883527e+001, 4.809829e+002
9.931738e+001, 4.746714e+002
9.979950e+001, 4.684989e+002
1.002816e+002, 4.640719e+002
1.007637e+002, 4.625123e+002
1.012458e+002, 4.616890e+002
1.017280e+002, 4.594062e+002
1.022101e+002, 4.549410e+002
1.026922e+002, 4.500050e+002
1.031743e+002, 4.473008e+002
1.036564e+002, 4.465202e+002
1.041385e+002, 4.468000e+002
1.046207e+002, 4.480465e+002
1.051028e+002, 4.501205e+002
1.055849e+002, 4.527490e+002
1.060670e+002, 4.564110e+002
1.065491e+002, 4.598312e+002
1.070313e+002, 4.617912e+002
1.075134e+002, 4.621598e+002
1.079955e+002, 4.615140e+002
1.084776e+002, 4.601045e+002
1.089597e+002, 4.576227e+002
1.094418e+002, 4.556729e+002
1.099240e+002, 4.543252e+002
1.104061e+002, 4.538041e+002
1.108882e+002, 4.544224e+002
1.113703e+002, 4.563110e+002
1.118524e+002, 4.592773e+002
1.123345e+002, 4.628424e+002
1.128167e+002, 4.672455e+002
1.132988e+002, 4.720424e+002
1.137809e+002, 4.772589e+002
1.142630e+002, 4.827601e+002
1.147451e+002, 4.884347e+002
1.152272e+002, 4.941645e+002
1.157094e+002, 5.000006e+002
1.161915e+002, 5.060328e+002
1.166736e+002, 5.116305e+002
1.171557e+002, 5.180145e+002
1.176378e+002, 5.257222e+002
1.181199e+002, 5.346356e+002
1.186021e+002, 5.442026e+002
1.190842e+002, 5.538411e+002
1.195663e+002, 5.636186e+002
1.200484e+002, 5.747313e+002
1.205305e+002, 5.871724e+002
1.210126e+002, 6.009254e+002
1.214948e+002, 6.161076e+002
1.219769e+002, 6.327943e+002
1.224590e+002, 6.503985e+002
1.229411e+002, 6.680543e+002
1.234232e+002, 6.859131e+002
1.239053e+002, 7.051645e+002
1.243875e+002, 7.263103e+002
1.248696e+002, 7.491503e+002
1.253517e+002, 7.728607e+002
1.258338e+002, 7.971119e+002
1.263159e+002, 8.229246e+002
1.267980e+002, 8.506203e+002
1.272802e+002, 8.801661e+002
1.277623e+002, 9.110140e+002
1.282444e+002, 9.432520e+002
1.287265e+002, 9.768658e+002
1.292086e+002, 1.010574e+003
1.296907e+002, 1.044831e+003
1.301729e+002, 1.078849e+003
1.306550e+002, 1.112075e+003
1.311371e+002, 1.144488e+003
1.316192e+002, 1.176466e+003
1.321013e+002, 1.208272e+003
1.325834e+002, 1.239628e+003
1.330656e+002, 1.272119e+003
1.335477e+002, 1.305164e+003
1.340298e+002, 1.339425e+003
1.345119e+002, 1.375685e+003
1.349940e+002, 1.414067e+003
1.354761e+002, 1.453985e+003
1.359583e+002, 1.493768e+003
1.364404e+002, 1.531635e+003
1.369225e+002, 1.571450e+003
1.374046e+002, 1.613389e+003
1.378867e+002, 1.657558e+003
1.383688e+002, 1.703409e+003
1.388510e+002, 1.750827e+003
1.393331e+002, 1.800228e+003
1.398152e+002, 1.852656e+003
1.402973e+002, 1.908841e+003
1.407794e+002, 1.966278e+003
1.412615e+002, 2.024116e+003
1.417437e+002, 2.082228e+003
1.422258e+002, 2.141470e+003
1.427079e+002, 2.202819e+003
1.431900e+002, 2.264884e+003
1.436721e+002, 2.325415e+003
1.441542e+002, 2.385444e+003
1.446364e+002, 2.442627e+003
1.451185e+002, 2.496140e+003
1.456006e+002, 2.546700e+003
1.460827e+002, 2.588993e+003
1.465648e+002, 2.621371e+003
1.470469e+002, 2.643757e+003
1.475291e+002, 2.654608e+003
1.480112e+002, 2.654102e+003
1.484933e+002, 2.641035e+003
1.489754e+002, 2.612323e+003
1.494575e+002, 2.565114e+003
1.499396e+002, 2.504228e+003
1.504218e+002, 2.431523e+003
1.509039e+002, 2.348858e+003
1.513860e+002, 2.258502e+003
1.518681e+002, 2.160847e+003
1.523502e+002, 2.056062e+003
1.528323e+002, 1.951404e+003
1.533145e+002, 1.844272e+003
1.537966e+002, 1.739750e+003
1.542787e+002, 1.636910e+003
1.547608e+002, 1.537015e+003
1.552429e+002, 1.441353e+003
1.557250e+002, 1.350290e+003
1.562072e+002, 1.263947e+003
1.566893e+002, 1.184514e+003
1.571714e+002, 1.111548e+003
1.576535e+002, 1.043862e+003
1.581356e+002, 9.809167e+002
1.586177e+002, 9.226859e+002
1.590999e+002, 8.689224e+002
1.595820e+002, 8.196056e+002
1.600641e+002, 7.752309e+002
1.605462e+002, 7.342526e+002
1.610283e+002, 6.971262e+002
1.615104e+002, 6.630261e+002
1.619926e+002, 6.316746e+002
1.624747e+002, 6.030665e+002
1.629568e+002, 5.765126e+002
1.634389e+002, 5.519680e+002
1.639210e+002, 5.293184e+002
1.644031e+002, 5.080953e+002
1.648853e+002, 4.884052e+002
1.653674e+002, 4.700688e+002
1.658495e+002, 4.532697e+002
1.663316e+002, 4.380860e+002
1.668137e+002, 4.241187e+002
1.672958e+002, 4.110877e+002
1.677780e+002, 3.988482e+002
1.682601e+002, 3.872379e+002
1.687422e+002, 3.761981e+002
1.692243e+002, 3.657259e+002
1.697064e+002, 3.560600e+002
1.701885e+002, 3.475246e+002
1.706707e+002, 3.395279e+002
1.711528e+002, 3.315186e+002
1.716349e+002, 3.235784e+002
1.721170e+002, 3.160029e+002
1.725991e+002, 3.091115e+002
1.730812e+002, 3.029323e+002
1.735634e+002, 2.968378e+002
1.740455e+002, 2.904603e+002
1.745276e+002, 2.844249e+002
1.750097e+002, 2.791390e+002
1.754918e+002, 2.745319e+002
1.759739e+002, 2.702184e+002
1.764561e+002, 2.657436e+002
1.769382e+002, 2.608296e+002
1.774203e+002, 2.566250e+002
1.779024e+002, 2.535257e+002
1.783845e+002, 2.507399e+002
1.788666e+002, 2.480346e+002
1.793488e+002, 2.453054e+002
1.798309e+002, 2.423894e+002
1.803130e+002, 2.390274e+002
1.807951e+002, 2.346580e+002
1.812772e+002, 2.312030e+002
1.817593e+002, 2.291130e+002
1.822415e+002, 2.275186e+002
1.827236e+002, 2.257937e+002
1.832057e+002, 2.237917e+002
1.836878e+002, 2.218067e+002
1.841699e+002, 2.203169e+002
1.846520e+002, 2.197881e+002
1.851342e+002, 2.188324e+002
1.856163e+002, 2.171217e+002
1.860984e+002, 2.151081e+002
1.865805e+002, 2.132632e+002
1.870626e+002, 2.117290e+002
1.875447e+002, 2.103539e+002
1.880269e+002, 2.088768e+002
1.885090e+002, 2.072443e+002
1.889911e+002, 2.057250e+002
1.894732e+002, 2.043681e+002
1.899553e+002, 2.031654e+002
1.904374e+002, 2.020747e+002
1.909196e+002, 2.010129e+002
1.914017e+002, 2.002066e+002
1.918838e+002, 2.000592e+002
1.923659e+002, 2.005869e+002
1.928480e+002, 2.011478e+002
1.933301e+002, 2.013999e+002
1.938123e+002, 2.014337e+002
1.942944e+002, 2.015680e+002
1.947765e+002, 2.018206e+002
1.952586e+002, 2.023001e+002
1.957407e+002, 2.029995e+002
1.962228e+002, 2.039146e+002
1.967050e+002, 2.051718e+002
1.971871e+002, 2.069811e+002
1.976692e+002, 2.093190e+002
1.981513e+002, 2.116555e+002
1.986334e+002, 2.139449e+002
1.991155e+002, 2.161505e+002
1.995977e+002, 2.183816e+002
2.000798e+002, 2.206150e+002
2.005619e+002, 2.224963e+002
2.010440e+002, 2.237895e+002
2.015261e+002, 2.245392e+002
2.020082e+002, 2.244250e+002
2.024904e+002, 2.231471e+002
2.029725e+002, 2.211262e+002
2.034546e+002, 2.183859e+002
2.039367e+002, 2.149848e+002
2.044188e+002, 2.111266e+002
2.049009e+002, 2.069695e+002
2.053831e+002, 2.023211e+002
2.058652e+002, 1.979926e+002
2.063473e+002, 1.939285e+002
2.068294e+002, 1.902150e+002
2.073115e+002, 1.869526e+002
2.077936e+002, 1.841500e+002
2.082758e+002, 1.817201e+002
2.087579e+002, 1.796142e+002
2.092400e+002, 1.780878e+002
2.097221e+002, 1.763306e+002
2.102042e+002, 1.739765e+002
2.106863e+002, 1.716897e+002
2.111685e+002, 1.699366e+002
2.116506e+002, 1.687961e+002
2.121327e+002, 1.679995e+002
2.126148e+002, 1.671541e+002
2.130969e+002, 1.661824e+002
2.135790e+002, 1.653557e+002
2.140612e+002, 1.647896e+002
2.145433e+002, 1.642875e+002
2.150254e+002, 1.636800e+002
2.155075e+002, 1.629345e+002
2.159896e+002, 1.621298e+002
2.164717e+002, 1.613742e+002
2.169539e+002, 1.606447e+002
2.174360e+002, 1.600429e+002
2.179181e+002, 1.596868e+002
2.184002e+002, 1.594000e+002
2.188823e+002, 1.589937e+002
2.193644e+002, 1.584228e+002
2.198466e+002, 1.577963e+002
2.203287e+002, 1.572639e+002
2.208108e+002, 1.568403e+002
2.212929e+002, 1.564101e+002
2.217750e+002, 1.560224e+002
2.222571e+002, 1.555963e+002
2.227393e+002, 1.549545e+002
2.232214e+002, 1.540210e+002
2.237035e+002, 1.531140e+002
2.241856e+002, 1.527215e+002
2.246677e+002, 1.527984e+002
2.251498e+002, 1.528430e+002
2.256320e+002, 1.527864e+002
2.261141e+002, 1.526056e+002
2.265962e+002, 1.522131e+002
2.270783e+002, 1.515310e+002
2.275604e+002, 1.508228e+002
2.280425e+002, 1.503447e+002
2.285247e+002, 1.500580e+002
2.290068e+002, 1.498502e+002
2.294889e+002, 1.497343e+002
2.299710e+002, 1.496654e+002
2.304531e+002, 1.495333e+002
2.309352e+002, 1.493012e+002
2.314174e+002, 1.490610e+002
2.318995e+002, 1.489405e+002
2.323816e+002, 1.488810e+002
2.328637e+002, 1.487092e+002
2.333458e+002, 1.482772e+002
2.338279e+002, 1.476622e+002
2.343101e+002, 1.470840e+002
2.347922e+002, 1.464867e+002
2.352743e+002, 1.460552e+002
2.357564e+002, 1.459258e+002
2.362385e+002, 1.460111e+002
2.367206e+002, 1.461413e+002
2.372028e+002, 1.462362e+002
2.376849e+002, 1.463008e+002
2.381670e+002, 1.463828e+002
2.386491e+002, 1.466262e+002
2.391312e+002, 1.466468e+002
2.396133e+002, 1.461487e+002
2.400955e+002, 1.453742e+002
2.405776e+002, 1.447200e+002
2.410597e+002, 1.444266e+002
2.415418e+002, 1.444391e+002
2.420239e+002, 1.445261e+002
2.425060e+002, 1.448818e+002
2.429882e+002, 1.450269e+002
2.434703e+002, 1.446505e+002
2.439524e+002, 1.440317e+002
2.444345e+002, 1.435901e+002
2.449166e+002, 1.435952e+002
2.453987e+002, 1.439290e+002
2.458809e+002, 1.440276e+002
2.463630e+002, 1.436384e+002
2.468451e+002, 1.433286e+002
2.473272e+002, 1.432077e+002
2.478093e+002, 1.432296e+002
2.482914e+002, 1.433930e+002
2.487736e+002, 1.437214e+002
2.492557e+002, 1.440936e+002
2.497378e+002, 1.439862e+002
2.502199e+002, 1.425517e+002
2.507020e+002, 1.417012e+002
2.511841e+002, 1.422193e+002
2.516663e+002, 1.432661e+002
2.521484e+002, 1.437962e+002
2.526305e+002, 1.432995e+002
2.531126e+002, 1.421248e+002
2.535947e+002, 1.413630e+002
2.540768e+002, 1.415824e+002
2.545590e+002, 1.415606e+002
2.550411e+002, 1.411045e+002
2.555232e+002, 1.404192e+002
2.560053e+002, 1.396783e+002
2.564874e+002, 1.389593e+002
2.569695e+002, 1.383186e+002
2.574517e+002, 1.378923e+002
2.579338e+002, 1.377967e+002
2.584159e+002, 1.378072e+002
2.588980e+002, 1.380659e+002
2.593801e+002, 1.383671e+002
2.598622e+002, 1.384747e+002
2.603444e+002, 1.383094e+002
2.608265e+002, 1.380007e+002
2.613086e+002, 1.377857e+002
2.617907e+002, 1.376225e+002
2.622728e+002, 1.376481e+002
2.627549e+002, 1.381429e+002
2.632371e+002, 1.386915e+002
2.637192e+002, 1.388507e+002
2.642013e+002, 1.385082e+002
2.646834e+002, 1.379034e+002
2.651655e+002, 1.373614e+002
2.656476e+002, 1.368377e+002
2.661298e+002, 1.365398e+002
2.666119e+002, 1.365927e+002
2.670940e+002, 1.368058e+002
2.675761e+002, 1.370805e+002
2.680582e+002, 1.373853e+002
2.685403e+002, 1.375667e+002
2.690225e+002, 1.374011e+002
2.695046e+002, 1.367679e+002
2.699867e+002, 1.363431e+002
2.704688e+002, 1.362856e+002
2.709509e+002, 1.363545e+002
2.714330e+002, 1.363657e+002
2.719152e+002, 1.362937e+002
2.723973e+002, 1.361758e+002
2.728794e+002, 1.360517e+002
2.733615e+002, 1.359177e+002
2.738436e+002, 1.357173e+002
2.743257e+002, 1.352672e+002
2.748079e+002, 1.348767e+002
2.752900e+002, 1.348308e+002
2.757721e+002, 1.351284e+002
2.762542e+002, 1.355452e+002
2.767363e+002, 1.360226e+002
2.772184e+002, 1.364785e+002
2.777006e+002, 1.365227e+002
2.781827e+002, 1.357112e+002
2.786648e+002, 1.348384e+002
2.791469e+002, 1.344935e+002
2.796290e+002, 1.346332e+002
2.801111e+002, 1.348428e+002
2.805933e+002, 1.348936e+002
2.810754e+002, 1.348243e+002
2.815575e+002, 1.347960e+002
2.820396e+002, 1.348358e+002
2.825217e+002, 1.348839e+002
2.830038e+002, 1.349131e+002
2.834860e+002, 1.349228e+002
2.839681e+002, 1.349145e+002
2.844502e+002, 1.349080e+002
2.849323e+002, 1.348623e+002
2.854144e+002, 1.346701e+002
2.858965e+002, 1.342094e+002
2.863787e+002, 1.338962e+002
2.868608e+002, 1.340711e+002
2.873429e+002, 1.346083e+002
2.878250e+002, 1.350643e+002
2.883071e+002, 1.353131e+002
2.887892e+002, 1.353854e+002
2.892714e+002, 1.353010e+002
2.897535e+002, 1.350369e+002
2.902356e+002, 1.348194e+002
2.907177e+002, 1.347234e+002
2.911998e+002, 1.347519e+002
2.916819e+002, 1.349521e+002
2.921641e+002, 1.354163e+002
2.926462e+002, 1.358943e+002
2.931283e+002, 1.361034e+002
2.936104e+002, 1.360744e+002
2.940925e+002, 1.359765e+002
2.945746e+002, 1.357218e+002
2.950568e+002, 1.354685e+002
2.955389e+002, 1.355315e+002
2.960210e+002, 1.359628e+002
2.965031e+002, 1.366663e+002
2.969852e+002, 1.379859e+002
2.974673e+002, 1.395993e+002
2.979495e+002, 1.404949e+002
2.984316e+002, 1.398386e+002
2.989137e+002, 1.384703e+002
2.993958e+002, 1.376561e+002
2.998779e+002, 1.375145e+002
3.003600e+002, 1.374873e+002
3.008422e+002, 1.371302e+002
3.013243e+002, 1.366504e+002
3.018064e+002, 1.364252e+002
3.022885e+002, 1.366166e+002
3.027706e+002, 1.370157e+002
3.032527e+002, 1.374541e+002
3.037349e+002, 1.379457e+002
3.042170e+002, 1.382966e+002
3.046991e+002, 1.383231e+002
3.051812e+002, 1.381928e+002
3.056633e+002, 1.381264e+002
3.061454e+002, 1.381521e+002
3.066276e+002, 1.382395e+002
3.071097e+002, 1.383264e+002
3.075918e+002, 1.384208e+002
3.080739e+002, 1.387048e+002
3.085560e+002, 1.394172e+002
3.090381e+002, 1.401820e+002
3.095203e+002, 1.405224e+002
3.100024e+002, 1.403851e+002
3.104845e+002, 1.402727e+002
3.109666e+002, 1.405457e+002
3.114487e+002, 1.411417e+002
3.119308e+002, 1.417834e+002
3.124130e+002, 1.425026e+002
3.128951e+002, 1.431166e+002
3.133772e+002, 1.434748e+002
3.138593e+002, 1.435970e+002
3.143414e+002, 1.435655e+002
3.148235e+002, 1.431792e+002
3.153057e+002, 1.426777e+002
3.157878e+002, 1.427834e+002
3.162699e+002, 1.437977e+002
3.167520e+002, 1.448353e+002
3.172341e+002, 1.451741e+002
3.177162e+002, 1.450457e+002
3.181984e+002, 1.449171e+002
3.186805e+002, 1.449738e+002
3.191626e+002, 1.451174e+002
3.196447e+002, 1.451700e+002
3.201268e+002, 1.451019e+002
3.206089e+002, 1.450940e+002
3.210911e+002, 1.452564e+002
3.215732e+002, 1.455469e+002
3.220553e+002, 1.459348e+002
3.225374e+002, 1.464700e+002
3.230195e+002, 1.470132e+002
3.235016e+002, 1.474100e+002
3.239838e+002, 1.476619e+002
3.244659e+002, 1.478898e+002
3.249480e+002, 1.481613e+002
3.254301e+002, 1.484090e+002
3.259122e+002, 1.485206e+002
3.263943e+002, 1.484565e+002
3.268765e+002, 1.484407e+002
3.273586e+002, 1.487543e+002
3.278407e+002, 1.493073e+002
3.283228e+002, 1.495558e+002
3.288049e+002, 1.492240e+002
3.292870e+002, 1.487568e+002
3.297692e+002, 1.486390e+002
3.302513e+002, 1.488391e+002
3.307334e+002, 1.490224e+002
3.312155e+002, 1.489246e+002
3.316976e+002, 1.487038e+002
3.321797e+002, 1.487747e+002
3.326619e+002, 1.492700e+002
3.331440e+002, 1.498045e+002
3.336261e+002, 1.500009e+002
3.341082e+002, 1.499868e+002
3.345903e+002, 1.500620e+002
3.350724e+002, 1.504552e+002
3.355546e+002, 1.509150e+002
3.360367e+002, 1.510361e+002
3.365188e+002, 1.507748e+002
3.370009e+002, 1.506310e+002
3.374830e+002, 1.510079e+002
3.379651e+002, 1.516613e+002
3.384473e+002, 1.521092e+002
3.389294e+002, 1.521731e+002
3.394115e+002, 1.522254e+002
3.398936e+002, 1.525591e+002
3.403757e+002, 1.531516e+002
3.408578e+002, 1.538274e+002
3.413400e+002, 1.545456e+002
3.418221e+002, 1.553024e+002
3.423042e+002, 1.560242e+002
3.427863e+002, 1.566524e+002
3.432684e+002, 1.575501e+002
3.437505e+002, 1.593507e+002
3.442327e+002, 1.615380e+002
3.447148e+002, 1.627227e+002
3.451969e+002, 1.623809e+002
3.456790e+002, 1.616110e+002
3.461611e+002, 1.616671e+002
3.466432e+002, 1.624181e+002
3.471254e+002, 1.632608e+002
3.476075e+002, 1.639939e+002
3.480896e+002, 1.647569e+002
3.485717e+002, 1.657335e+002
3.490538e+002, 1.669480e+002
3.495359e+002, 1.682377e+002
3.500181e+002, 1.695213e+002
3.505002e+002, 1.707890e+002
3.509823e+002, 1.720076e+002
3.514644e+002, 1.732168e+002
3.519465e+002, 1.743340e+002
3.524286e+002, 1.751064e+002
3.529108e+002, 1.756591e+002
3.533929e+002, 1.766603e+002
3.538750e+002, 1.785559e+002
3.543571e+002, 1.809769e+002
3.548392e+002, 1.829991e+002
3.553214e+002, 1.845200e+002
3.558035e+002, 1.859472e+002
3.562856e+002, 1.872523e+002
3.567677e+002, 1.885864e+002
3.572498e+002, 1.902750e+002
3.577319e+002, 1.924486e+002
3.582141e+002, 1.947965e+002
3.586962e+002, 1.968951e+002
3.591783e+002, 1.986780e+002
3.596604e+002, 2.006430e+002
3.601425e+002, 2.029972e+002
3.606246e+002, 2.054767e+002
3.611068e+002, 2.077966e+002
3.615889e+002, 2.099587e+002
3.620710e+002, 2.121248e+002
3.625531e+002, 2.143772e+002
3.630352e+002, 2.167514e+002
3.635173e+002, 2.195481e+002
3.639995e+002, 2.231146e+002
3.644816e+002, 2.267298e+002
3.649637e+002, 2.300280e+002
3.654458e+002, 2.330905e+002
3.659279e+002, 2.361164e+002
3.664100e+002, 2.391712e+002
3.668922e+002, 2.423370e+002
3.673743e+002, 2.458568e+002
3.678564e+002, 2.498365e+002
3.683385e+002, 2.539911e+002
3.688206e+002, 2.584095e+002
3.693027e+002, 2.629362e+002
3.697849e+002, 2.673148e+002
3.702670e+002, 2.714696e+002
3.707491e+002, 2.756467e+002
3.712312e+002, 2.801826e+002
3.717133e+002, 2.851307e+002
3.721954e+002, 2.902538e+002
3.726776e+002, 2.959001e+002
3.731597e+002, 3.013983e+002
3.736418e+002, 3.061351e+002
3.741239e+002, 3.102807e+002
3.746060e+002, 3.146320e+002
3.750881e+002, 3.199277e+002
3.755703e+002, 3.261111e+002
3.760524e+002, 3.318321e+002
3.765345e+002, 3.365344e+002
3.770166e+002, 3.414564e+002
3.774987e+002, 3.470136e+002
3.779808e+002, 3.529501e+002
3.784630e+002, 3.589273e+002
3.789451e+002, 3.647906e+002
3.794272e+002, 3.705463e+002
3.799093e+002, 3.761936e+002
3.803914e+002, 3.817125e+002
3.808735e+002, 3.871922e+002
3.813557e+002, 3.927873e+002
3.818378e+002, 3.982408e+002
3.823199e+002, 4.032607e+002
3.828020e+002, 4.078947e+002
3.832841e+002, 4.125433e+002
3.837662e+002, 4.177730e+002
3.842484e+002, 4.238195e+002
3.847305e+002, 4.289105e+002
3.852126e+002, 4.322729e+002
3.856947e+002, 4.353917e+002
3.861768e+002, 4.386857e+002
3.866589e+002, 4.420855e+002
3.871411e+002, 4.454130e+002
3.876232e+002, 4.486140e+002
3.881053e+002, 4.516105e+002
3.885874e+002, 4.541357e+002
3.890695e+002, 4.563185e+002
3.895516e+002, 4.577075e+002
3.900338e+002, 4.580074e+002
3.905159e+002, 4.577139e+002
3.909980e+002, 4.572894e+002
3.914801e+002, 4.568597e+002
3.919622e+002, 4.561701e+002
3.924443e+002, 4.549057e+002
3.929265e+002, 4.530524e+002
3.934086e+002, 4.508092e+002
3.938907e+002, 4.481331e+002
3.943728e+002, 4.450948e+002
3.948549e+002, 4.418496e+002
3.953370e+002, 4.383303e+002
3.958192e+002, 4.343070e+002
3.963013e+002, 4.296538e+002
3.967834e+002, 4.243745e+002
3.972655e+002, 4.184616e+002
3.977476e+002, 4.117992e+002
3.982297e+002, 4.048321e+002
3.987119e+002, 3.975197e+002
3.991940e+002, 3.901122e+002
3.996761e+002, 3.829887e+002
4.001582e+002, 3.763061e+002
4.006403e+002, 3.697804e+002
4.011224e+002, 3.632327e+002
4.016046e+002, 3.566027e+002
4.020867e+002, 3.497363e+002
4.025688e+002, 3.424690e+002
4.030509e+002, 3.350595e+002
4.035330e+002, 3.277593e+002
4.040151e+002, 3.205643e+002
4.044973e+002, 3.135682e+002
4.049794e+002, 3.067889e+002
4.054615e+002, 3.002421e+002
4.059436e+002, 2.939997e+002
4.064257e+002, 2.881339e+002
4.069078e+002, 2.823471e+002
4.073900e+002, 2.763544e+002
4.078721e+002, 2.702723e+002
4.083542e+002, 2.645497e+002
4.088363e+002, 2.592534e+002
4.093184e+002, 2.543157e+002
4.098005e+002, 2.499479e+002
4.102827e+002, 2.459805e+002
4.107648e+002, 2.418973e+002
4.112469e+002, 2.374646e+002
4.117290e+002, 2.328077e+002
4.122111e+002, 2.281601e+002
4.126932e+002, 2.233276e+002
4.131754e+002, 2.189710e+002
4.136575e+002, 2.154779e+002
4.141396e+002, 2.123746e+002
4.146217e+002, 2.090905e+002
4.151038e+002, 2.055597e+002
4.155859e+002, 2.021902e+002
4.160681e+002, 1.994552e+002
4.165502e+002, 1.974543e+002
4.170323e+002, 1.949636e+002
4.175144e+002, 1.914479e+002
4.179965e+002, 1.880834e+002
4.184786e+002, 1.853553e+002
4.189608e+002, 1.831318e+002
4.194429e+002, 1.811021e+002
4.199250e+002, 1.791148e+002
4.204071e+002, 1.771728e+002
4.208892e+002, 1.752918e+002
4.213713e+002, 1.736786e+002
4.218535e+002, 1.718116e+002
4.223356e+002, 1.693500e+002
4.228177e+002, 1.668659e+002
4.232998e+002, 1.647762e+002
4.237819e+002, 1.631414e+002
4.242640e+002, 1.618386e+002
4.247462e+002, 1.608231e+002
4.252283e+002, 1.601335e+002
4.257104e+002, 1.590849e+002
4.261925e+002, 1.572390e+002
4.266746e+002, 1.554946e+002
4.271567e+002, 1.540666e+002
4.276389e+002, 1.529148e+002
4.281210e+002, 1.520191e+002
4.286031e+002, 1.514085e+002
4.290852e+002, 1.508858e+002
4.295673e+002, 1.499742e+002
4.300494e+002, 1.484789e+002
4.305316e+002, 1.472936e+002
4.310137e+002, 1.471692e+002
4.314958e+002, 1.470600e+002
4.319779e+002, 1.461508e+002
4.324600e+002, 1.444503e+002
4.329421e+002, 1.428042e+002
4.334243e+002, 1.419628e+002
4.339064e+002, 1.417332e+002
4.343885e+002, 1.412681e+002
4.348706e+002, 1.404804e+002
4.353527e+002, 1.395625e+002
4.358348e+002, 1.385043e+002
4.363170e+002, 1.374182e+002
4.367991e+002, 1.364927e+002
4.372812e+002, 1.357801e+002
4.377633e+002, 1.352384e+002
4.382454e+002, 1.349225e+002
4.387275e+002, 1.347882e+002
4.392097e+002, 1.345418e+002
4.396918e+002, 1.340861e+002
4.401739e+002, 1.334703e+002
4.406560e+002, 1.326922e+002
4.411381e+002, 1.317165e+002
4.416202e+002, 1.309328e+002
4.421024e+002, 1.304973e+002
4.425845e+002, 1.302845e+002
4.430666e+002, 1.301908e+002
4.435487e+002, 1.301965e+002
4.440308e+002, 1.302790e+002
4.445129e+002, 1.304954e+002
4.449951e+002, 1.307841e+002
4.454772e+002, 1.305991e+002
4.459593e+002, 1.294516e+002
4.464414e+002, 1.284742e+002
4.469235e+002, 1.281351e+002
4.474056e+002, 1.281450e+002
4.478878e+002, 1.280444e+002
4.483699e+002, 1.276789e+002
4.488520e+002, 1.272557e+002
4.493341e+002, 1.271227e+002
4.498162e+002, 1.275169e+002
4.502983e+002, 1.275103e+002
4.507805e+002, 1.267043e+002
4.512626e+002, 1.259280e+002
4.517447e+002, 1.256564e+002
4.522268e+002, 1.257877e+002
4.527089e+002, 1.259394e+002
4.531910e+002, 1.258451e+002
4.536732e+002, 1.255957e+002
4.541553e+002, 1.256100e+002
4.546374e+002, 1.262218e+002
4.551195e+002, 1.265153e+002
4.556016e+002, 1.259920e+002
4.560837e+002, 1.253590e+002
4.565659e+002, 1.253312e+002
4.570480e+002, 1.259871e+002
4.575301e+002, 1.266707e+002
4.580122e+002, 1.265486e+002
4.584943e+002, 1.256444e+002
4.589764e+002, 1.252778e+002
4.594586e+002, 1.258054e+002
4.599407e+002, 1.264100e+002
4.604228e+002, 1.266581e+002
4.609049e+002, 1.266826e+002
4.613870e+002, 1.267063e+002
4.618691e+002, 1.267780e+002
4.623513e+002, 1.269275e+002
4.628334e+002, 1.272470e+002
4.633155e+002, 1.277270e+002
4.637976e+002, 1.280947e+002
4.642797e+002, 1.281813e+002
4.647618e+002, 1.282225e+002
4.652440e+002, 1.285538e+002
4.657261e+002, 1.291800e+002
4.662082e+002, 1.297426e+002
4.666903e+002, 1.301096e+002
4.671724e+002, 1.303573e+002
4.676545e+002, 1.305411e+002
4.681367e+002, 1.306728e+002
4.686188e+002, 1.308346e+002
4.691009e+002, 1.310668e+002
4.695830e+002, 1.313764e+002
4.700651e+002, 1.318049e+002
4.705472e+002, 1.323343e+002
4.710294e+002, 1.329794e+002
4.715115e+002, 1.340359e+002
4.719936e+002, 1.350883e+002
4.724757e+002, 1.354379e+002
4.729578e+002, 1.349605e+002
4.734399e+002, 1.344015e+002
4.739221e+002, 1.346877e+002
4.744042e+002, 1.360008e+002
4.748863e+002, 1.371147e+002
4.753684e+002, 1.378323e+002
4.758505e+002, 1.385930e+002
4.763326e+002, 1.397102e+002
4.768148e+002, 1.409487e+002
4.772969e+002, 1.418133e+002
4.777790e+002, 1.420416e+002
4.782611e+002, 1.420561e+002
4.787432e+002, 1.428284e+002
4.792253e+002, 1.447170e+002
4.797075e+002, 1.463382e+002
4.801896e+002, 1.473331e+002
4.806717e+002, 1.481886e+002
4.811538e+002, 1.490869e+002
4.816359e+002, 1.500693e+002
4.821180e+002, 1.511826e+002
4.826002e+002, 1.525408e+002
4.830823e+002, 1.540228e+002
4.835644e+002, 1.552729e+002
4.840465e+002, 1.562123e+002
4.845286e+002, 1.571808e+002
4.850107e+002, 1.581835e+002
4.854929e+002, 1.593798e+002
4.859750e+002, 1.610674e+002
4.864571e+002, 1.633740e+002
4.869392e+002, 1.656096e+002
4.874213e+002, 1.672258e+002
4.879034e+002, 1.684895e+002
4.883856e+002, 1.699025e+002
4.888677e+002, 1.715263e+002
4.893498e+002, 1.735332e+002
4.898319e+002, 1.762020e+002
4.903140e+002, 1.794840e+002
4.907961e+002, 1.824289e+002
4.912783e+002, 1.848213e+002
4.917604e+002, 1.871350e+002
4.922425e+002, 1.895350e+002
4.927246e+002, 1.920298e+002
4.932067e+002, 1.946680e+002
4.936888e+002, 1.974570e+002
4.941710e+002, 2.002966e+002
4.946531e+002, 2.029781e+002
4.951352e+002, 2.054067e+002
4.956173e+002, 2.079787e+002
4.960994e+002, 2.105310e+002
4.965815e+002, 2.133571e+002
4.970637e+002, 2.168167e+002
4.975458e+002, 2.206372e+002
4.980279e+002, 2.242371e+002
4.985100e+002, 2.272807e+002
4.989921e+002, 2.299655e+002
4.994742e+002, 2.328614e+002
4.999564e+002, 2.360752e+002
5.004385e+002, 2.392145e+002
5.009206e+002, 2.420853e+002
5.014027e+002, 2.449953e+002
5.018848e+002, 2.482675e+002
5.023669e+002, 2.518111e+002
5.028491e+002, 2.550609e+002
5.033312e+002, 2.574328e+002
5.038133e+002, 2.592785e+002
5.042954e+002, 2.616444e+002
5.047775e+002, 2.646834e+002
5.052596e+002, 2.674741e+002
5.057418e+002, 2.694653e+002
5.062239e+002, 2.710021e+002
5.067060e+002, 2.726277e+002
5.071881e+002, 2.744237e+002
5.076702e+002, 2.760563e+002
5.081523e+002, 2.773325e+002
5.086345e+002, 2.783460e+002
5.091166e+002, 2.793130e+002
5.095987e+002, 2.802700e+002
5.100808e+002, 2.809281e+002
5.105629e+002, 2.810822e+002
5.110450e+002, 2.807185e+002
5.115272e+002, 2.798399e+002
5.120093e+002, 2.780795e+002
5.124914e+002, 2.763080e+002
5.129735e+002, 2.747675e+002
5.134556e+002, 2.733611e+002
5.139377e+002, 2.720539e+002
5.144199e+002, 2.708049e+002
5.149020e+002, 2.693246e+002
5.153841e+002, 2.672337e+002
5.158662e+002, 2.644477e+002
5.163483e+002, 2.616639e+002
5.168304e+002, 2.588585e+002
5.173126e+002, 2.560914e+002
5.177947e+002, 2.534768e+002
5.182768e+002, 2.508915e+002
5.187589e+002, 2.481945e+002
5.192410e+002, 2.453362e+002
5.197231e+002, 2.422611e+002
5.202053e+002, 2.387094e+002
5.206874e+002, 2.346257e+002
5.211695e+002, 2.310109e+002
5.216516e+002, 2.282539e+002
5.221337e+002, 2.256755e+002
5.226158e+002, 2.227654e+002
5.230980e+002, 2.196432e+002
5.235801e+002, 2.166367e+002
5.240622e+002, 2.137780e+002
5.245443e+002, 2.111801e+002
5.250264e+002, 2.092255e+002
5.255085e+002, 2.077520e+002
5.259907e+002, 2.059032e+002
5.264728e+002, 2.033715e+002
5.269549e+002, 2.003218e+002
5.274370e+002, 1.967550e+002
5.279191e+002, 1.924049e+002
5.284012e+002, 1.890568e+002
5.288834e+002, 1.876783e+002
5.293655e+002, 1.866772e+002
5.298476e+002, 1.849810e+002
5.303297e+002, 1.827086e+002
5.308118e+002, 1.804418e+002
5.312939e+002, 1.784870e+002
5.317761e+002, 1.767523e+002
5.322582e+002, 1.750160e+002
5.327403e+002, 1.733219e+002
5.332224e+002, 1.715389e+002
5.337045e+002, 1.694597e+002
5.341866e+002, 1.674846e+002
5.346688e+002, 1.659576e+002
5.351509e+002, 1.647533e+002
5.356330e+002, 1.634418e+002
5.361151e+002, 1.616971e+002
5.365972e+002, 1.597153e+002
5.370793e+002, 1.580248e+002
5.375615e+002, 1.567128e+002
5.380436e+002, 1.553698e+002
5.385257e+002, 1.538186e+002
5.390078e+002, 1.522543e+002
5.394899e+002, 1.508168e+002
5.399720e+002, 1.495133e+002
5.404542e+002, 1.483682e+002
5.409363e+002, 1.475095e+002
5.414184e+002, 1.467647e+002
5.419005e+002, 1.459206e+002
5.423826e+002, 1.449660e+002
5.428647e+002, 1.438461e+002
5.433469e+002, 1.424414e+002
5.438290e+002, 1.409368e+002
5.443111e+002, 1.398327e+002
5.447932e+002, 1.392771e+002
5.452753e+002, 1.387107e+002
5.457574e+002, 1.380377e+002
5.462396e+002, 1.373303e+002
5.467217e+002, 1.366866e+002
5.472038e+002, 1.360792e+002
5.476859e+002, 1.353609e+002
5.481680e+002, 1.344004e+002
5.486501e+002, 1.332919e+002
5.491323e+002, 1.324835e+002
5.496144e+002, 1.323134e+002
5.500965e+002, 1.318564e+002
5.505786e+002, 1.306202e+002
5.510607e+002, 1.293954e+002
5.515428e+002, 1.289162e+002
5.520250e+002, 1.291005e+002
5.525071e+002, 1.291668e+002
5.529892e+002, 1.284532e+002
5.534713e+002, 1.272317e+002
5.539534e+002, 1.262677e+002
5.544355e+002, 1.255861e+002
5.549177e+002, 1.250546e+002
5.553998e+002, 1.247162e+002
5.558819e+002, 1.244335e+002
5.563640e+002, 1.240166e+002
5.568461e+002, 1.234499e+002
5.573282e+002, 1.228565e+002
5.578104e+002, 1.222354e+002
5.582925e+002, 1.216371e+002
5.587746e+002, 1.211782e+002
5.592567e+002, 1.208324e+002
5.597388e+002, 1.203647e+002
5.602209e+002, 1.195789e+002
5.607031e+002, 1.186508e+002
5.611852e+002, 1.181423e+002
5.616673e+002, 1.186507e+002
5.621494e+002, 1.187301e+002
5.626315e+002, 1.180976e+002
5.631136e+002, 1.172375e+002
5.635958e+002, 1.164171e+002
5.640779e+002, 1.156910e+002
5.645600e+002, 1.150875e+002
5.650421e+002, 1.146471e+002
5.655242e+002, 1.143018e+002
5.660063e+002, 1.137352e+002
5.664885e+002, 1.127015e+002
5.669706e+002, 1.121730e+002
5.674527e+002, 1.129775e+002
5.679348e+002, 1.139269e+002
5.684169e+002, 1.142132e+002
5.688990e+002, 1.138451e+002
5.693812e+002, 1.132942e+002
5.698633e+002, 1.126405e+002
5.703454e+002, 1.120360e+002
5.708275e+002, 1.117506e+002
5.713096e+002, 1.117671e+002
5.717917e+002, 1.118089e+002
5.722739e+002, 1.117706e+002
5.727560e+002, 1.116799e+002
5.732381e+002, 1.115935e+002
5.737202e+002, 1.115362e+002
5.742023e+002, 1.113888e+002
5.746844e+002, 1.109600e+002
5.751666e+002, 1.105939e+002
5.756487e+002, 1.106039e+002
5.761308e+002, 1.108757e+002
5.766129e+002, 1.110689e+002
5.770950e+002, 1.110024e+002
5.775771e+002, 1.108102e+002
5.780593e+002, 1.108376e+002
5.785414e+002, 1.113020e+002
5.790235e+002, 1.113881e+002
5.795056e+002, 1.106288e+002
5.799877e+002, 1.098772e+002
5.804698e+002, 1.094888e+002
5.809520e+002, 1.094113e+002
5.814341e+002, 1.094715e+002
5.819162e+002, 1.096198e+002
5.823983e+002, 1.098150e+002
5.828804e+002, 1.099796e+002
5.833625e+002, 1.101251e+002
5.838447e+002, 1.103984e+002
5.843268e+002, 1.108956e+002
5.848089e+002, 1.113865e+002
5.852910e+002, 1.115992e+002
5.857731e+002, 1.115620e+002
5.862552e+002, 1.115614e+002
5.867374e+002, 1.116130e+002
5.872195e+002, 1.117172e+002
5.877016e+002, 1.118166e+002
5.881837e+002, 1.119840e+002
5.886658e+002, 1.123975e+002
5.891479e+002, 1.130969e+002
5.896301e+002, 1.138595e+002
5.901122e+002, 1.144204e+002
5.905943e+002, 1.147668e+002
5.910764e+002, 1.150201e+002
5.915585e+002, 1.148440e+002
5.920406e+002, 1.149815e+002
5.925228e+002, 1.159710e+002
5.930049e+002, 1.171941e+002
5.934870e+002, 1.178457e+002
5.939691e+002, 1.177357e+002
5.944512e+002, 1.175056e+002
5.949333e+002, 1.176324e+002
5.954155e+002, 1.181319e+002
5.958976e+002, 1.192417e+002
5.963797e+002, 1.211719e+002
5.968618e+002, 1.228013e+002
5.973439e+002, 1.232586e+002
5.978260e+002, 1.230355e+002
5.983082e+002, 1.233838e+002
5.987903e+002, 1.245388e+002
5.992724e+002, 1.256680e+002
5.997545e+002, 1.264081e+002
6.002366e+002, 1.270511e+002
6.007188e+002, 1.279383e+002
6.012009e+002, 1.290636e+002
6.016830e+002, 1.301371e+002
6.021651e+002, 1.309378e+002
6.026472e+002, 1.316124e+002
6.031293e+002, 1.327373e+002
6.036115e+002, 1.346895e+002
6.040936e+002, 1.364004e+002
6.045757e+002, 1.377151e+002
6.050578e+002, 1.388629e+002
6.055399e+002, 1.398322e+002
6.060220e+002, 1.407404e+002
6.065042e+002, 1.418822e+002
6.069863e+002, 1.434284e+002
6.074684e+002, 1.452730e+002
6.079505e+002, 1.473008e+002
6.084326e+002, 1.495122e+002
6.089147e+002, 1.517745e+002
6.093969e+002, 1.540677e+002
6.098790e+002, 1.563778e+002
6.103611e+002, 1.587006e+002
6.108432e+002, 1.610427e+002
6.113253e+002, 1.633364e+002
6.118074e+002, 1.654614e+002
6.122896e+002, 1.676561e+002
6.127717e+002, 1.700590e+002
6.132538e+002, 1.726128e+002
6.137359e+002, 1.751565e+002
6.142180e+002, 1.776657e+002
6.147001e+002, 1.803830e+002
6.151823e+002, 1.836923e+002
6.156644e+002, 1.876439e+002
6.161465e+002, 1.911090e+002
6.166286e+002, 1.935401e+002
6.171107e+002, 1.962181e+002
6.175928e+002, 1.996082e+002
6.180750e+002, 2.032885e+002
6.185571e+002, 2.068350e+002
6.190392e+002, 2.101594e+002
6.195213e+002, 2.134425e+002
6.200034e+002, 2.166288e+002
6.204855e+002, 2.199113e+002
6.209677e+002, 2.239424e+002
6.214498e+002, 2.287711e+002
6.219319e+002, 2.333294e+002
6.224140e+002, 2.369810e+002
6.228961e+002, 2.401575e+002
6.233782e+002, 2.438387e+002
6.238604e+002, 2.482261e+002
6.243425e+002, 2.524051e+002
6.248246e+002, 2.562113e+002
6.253067e+002, 2.598064e+002
6.257888e+002, 2.632829e+002
6.262709e+002, 2.666400e+002
6.267531e+002, 2.699001e+002
6.272352e+002, 2.730554e+002
6.277173e+002, 2.761261e+002
6.281994e+002, 2.791513e+002
6.286815e+002, 2.821805e+002
6.291636e+002, 2.849131e+002
6.296458e+002, 2.871685e+002
6.301279e+002, 2.893061e+002
6.306100e+002, 2.916345e+002
6.310921e+002, 2.939601e+002
6.315742e+002, 2.959545e+002
6.320563e+002, 2.975695e+002
6.325385e+002, 2.987456e+002
6.330206e+002, 2.992735e+002
6.335027e+002, 2.993749e+002
6.339848e+002, 2.996041e+002
6.344669e+002, 3.000254e+002
6.349490e+002, 3.000075e+002
6.354312e+002, 2.990274e+002
6.359133e+002, 2.972792e+002
6.363954e+002, 2.956595e+002
6.368775e+002, 2.945704e+002
6.373596e+002, 2.930719e+002
6.378417e+002, 2.909589e+002
6.383239e+002, 2.885792e+002
6.388060e+002, 2.861519e+002
6.392881e+002, 2.836816e+002
6.397702e+002, 2.810946e+002
6.402523e+002, 2.783477e+002
6.407344e+002, 2.754558e+002
6.412166e+002, 2.725569e+002
6.416987e+002, 2.696586e+002
6.421808e+002, 2.662416e+002
6.426629e+002, 2.619210e+002
6.431450e+002, 2.574840e+002
6.436271e+002, 2.536665e+002
6.441093e+002, 2.503127e+002
6.445914e+002, 2.469635e+002
6.450735e+002, 2.435408e+002
6.455556e+002, 2.401504e+002
6.460377e+002, 2.369429e+002
6.465198e+002, 2.337562e+002
6.470020e+002, 2.304153e+002
6.474841e+002, 2.268809e+002
6.479662e+002, 2.230733e+002
6.484483e+002, 2.188552e+002
6.489304e+002, 2.143520e+002
6.494125e+002, 2.102600e+002
6.498947e+002, 2.066368e+002
6.503768e+002, 2.033872e+002
6.508589e+002, 2.007309e+002
6.513410e+002, 1.982468e+002
6.518231e+002, 1.957154e+002
6.523052e+002, 1.931023e+002
6.527874e+002, 1.903644e+002
6.532695e+002, 1.873771e+002
6.537516e+002, 1.843516e+002
6.542337e+002, 1.817076e+002
6.547158e+002, 1.793124e+002
6.551979e+002, 1.764112e+002
6.556801e+002, 1.726887e+002
6.561622e+002, 1.690112e+002
6.566443e+002, 1.663530e+002
6.571264e+002, 1.647782e+002
6.576085e+002, 1.631340e+002
6.580906e+002, 1.616979e+002
6.585728e+002, 1.598660e+002
6.590549e+002, 1.571980e+002
6.595370e+002, 1.542306e+002
6.600191e+002, 1.513376e+002
6.605012e+002, 1.486704e+002
6.609833e+002, 1.464644e+002
6.614655e+002, 1.450555e+002
6.619476e+002, 1.441645e+002
6.624297e+002, 1.429423e+002
6.629118e+002, 1.413465e+002
6.633939e+002, 1.397780e+002
6.638760e+002, 1.383989e+002
6.643582e+002, 1.370600e+002
6.648403e+002, 1.355425e+002
6.653224e+002, 1.338665e+002
6.658045e+002, 1.323434e+002
6.662866e+002, 1.311126e+002
6.667687e+002, 1.299519e+002
6.672509e+002, 1.287590e+002
6.677330e+002, 1.275527e+002
6.682151e+002, 1.263964e+002
6.686972e+002, 1.252930e+002
6.691793e+002, 1.241378e+002
6.696614e+002, 1.227734e+002
6.701436e+002, 1.212285e+002
6.706257e+002, 1.199347e+002
6.711078e+002, 1.190083e+002
6.715899e+002, 1.180857e+002
6.720720e+002, 1.169650e+002
6.725541e+002, 1.158717e+002
6.730363e+002, 1.149977e+002
6.735184e+002, 1.143392e+002
6.740005e+002, 1.137193e+002
6.744826e+002, 1.131116e+002
6.749647e+002, 1.124603e+002
6.754468e+002, 1.117146e+002
6.759290e+002, 1.108772e+002
6.764111e+002, 1.099350e+002
6.768932e+002, 1.088834e+002
6.773753e+002, 1.077982e+002
6.778574e+002, 1.067351e+002
6.783395e+002, 1.056801e+002
6.788217e+002, 1.050151e+002
6.793038e+002, 1.052150e+002
6.797859e+002, 1.052043e+002
6.802680e+002, 1.047691e+002
6.807501e+002, 1.040762e+002
6.812322e+002, 1.032165e+002
6.817144e+002, 1.022398e+002
6.821965e+002, 1.012439e+002
6.826786e+002, 1.001562e+002
6.831607e+002, 9.919389e+001
6.836428e+002, 9.889299e+001
6.841249e+002, 9.915624e+001
6.846071e+002, 9.912548e+001
6.850892e+002, 9.849395e+001
6.855713e+002, 9.765351e+001
6.860534e+002, 9.702455e+001
6.865355e+002, 9.662048e+001
6.870176e+002, 9.625328e+001
6.874998e+002, 9.597536e+001
6.879819e+002, 9.566560e+001
6.884640e+002, 9.525835e+001
6.889461e+002, 9.482717e+001
6.894282e+002, 9.445189e+001
6.899103e+002, 9.413677e+001
6.903925e+002, 9.381947e+001
6.908746e+002, 9.344826e+001
6.913567e+002, 9.304987e+001
6.918388e+002, 9.270927e+001
6.923209e+002, 9.243188e+001
6.928030e+002, 9.207711e+001
6.932852e+002, 9.158031e+001
6.937673e+002, 9.104712e+001
6.942494e+002, 9.057821e+001
6.947315e+002, 9.017053e+001
6.952136e+002, 8.977536e+001
6.956957e+002, 8.935461e+001
6.961779e+002, 8.898808e+001
6.966600e+002, 8.865933e+001
6.971421e+002, 8.842408e+001
6.976242e+002, 8.843491e+001
6.981063e+002, 8.864172e+001
6.985884e+002, 8.873051e+001
6.990706e+002, 8.842348e+001
6.995527e+002, 8.789526e+001
7.000348e+002, 8.771071e+001
7.005169e+002, 8.796121e+001
7.009990e+002, 8.793668e+001
7.014811e+002, 8.732420e+001
7.019633e+002, 8.664613e+001
7.024454e+002, 8.646542e+001
7.029275e+002, 8.660109e+001
7.034096e+002, 8.642126e+001
7.038917e+002, 8.554562e+001
7.043738e+002, 8.475202e+001
7.048560e+002, 8.436909e+001
7.053381e+002, 8.423598e+001
7.058202e+002, 8.427495e+001
7.063023e+002, 8.439349e+001
7.067844e+002, 8.430801e+001
7.072665e+002, 8.379736e+001
7.077487e+002, 8.304910e+001
7.082308e+002, 8.263279e+001
7.087129e+002, 8.266535e+001
7.091950e+002, 8.246043e+001
7.096771e+002, 8.171882e+001
7.101592e+002, 8.101693e+001
7.106414e+002, 8.081337e+001
7.111235e+002, 8.090114e+001
7.116056e+002, 8.081516e+001
7.120877e+002, 8.034214e+001
7.125698e+002, 8.001574e+001
7.130519e+002, 8.035964e+001
7.135341e+002, 8.083204e+001
7.140162e+002, 8.071946e+001
7.144983e+002, 8.006992e+001
7.149804e+002, 7.938221e+001
7.154625e+002, 7.892780e+001
7.159446e+002, 7.867495e+001
7.164268e+002, 7.860359e+001
7.169089e+002, 7.880214e+001
7.173910e+002, 7.876659e+001
7.178731e+002, 7.825365e+001
7.183552e+002, 7.782021e+001
7.188373e+002, 7.778654e+001
7.193195e+002, 7.796133e+001
7.198016e+002, 7.808053e+001
7.202837e+002, 7.810175e+001
7.207658e+002, 7.809647e+001
7.212479e+002, 7.817544e+001
7.217300e+002, 7.819111e+001
7.222122e+002, 7.794064e+001
7.226943e+002, 7.747468e+001
7.231764e+002, 7.695837e+001
7.236585e+002, 7.646084e+001
7.241406e+002, 7.606777e+001
7.246227e+002, 7.594666e+001
7.251049e+002, 7.613979e+001
7.255870e+002, 7.618583e+001
7.260691e+002, 7.597486e+001
7.265512e+002, 7.579415e+001
7.270333e+002, 7.582610e+001
7.275154e+002, 7.588212e+001
7.279976e+002, 7.573162e+001
7.284797e+002, 7.536272e+001
7.289618e+002, 7.506816e+001
7.294439e+002, 7.498347e+001
7.299260e+002, 7.501530e+001
7.304081e+002, 7.519962e+001
7.308903e+002, 7.541923e+001
7.313724e+002, 7.531535e+001
7.318545e+002, 7.480984e+001
7.323366e+002, 7.437107e+001
7.328187e+002, 7.456480e+001
7.333008e+002, 7.530055e+001
7.337830e+002, 7.542906e+001
7.342651e+002, 7.455172e+001
7.347472e+002, 7.393038e+001
7.352293e+002, 7.406310e+001
7.357114e+002, 7.436841e+001
7.361935e+002, 7.451259e+001
7.366757e+002, 7.448270e+001
7.371578e+002, 7.429609e+001
7.376399e+002, 7.380627e+001
7.381220e+002, 7.335904e+001
7.386041e+002, 7.320938e+001
7.390862e+002, 7.324387e+001
7.395684e+002, 7.333904e+001
7.400505e+002, 7.344587e+001
7.405326e+002, 7.344588e+001
7.410147e+002, 7.323662e+001
7.414968e+002, 7.290476e+001
7.419789e+002, 7.272350e+001
7.424611e+002, 7.274085e+001
7.429432e+002, 7.273526e+001
7.434253e+002, 7.272004e+001
7.439074e+002, 7.263348e+001
7.443895e+002, 7.223743e+001
7.448716e+002, 7.179980e+001
7.453538e+002, 7.192236e+001
7.458359e+002, 7.295711e+001
7.463180e+002, 7.369755e+001
7.468001e+002, 7.330357e+001
7.472822e+002, 7.256486e+001
7.477643e+002, 7.224174e+001
7.482465e+002, 7.232114e+001
7.487286e+002, 7.254504e+001
7.492107e+002, 7.279655e+001
7.496928e+002, 7.302200e+001
7.501749e+002, 7.315878e+001
7.506570e+002, 7.321016e+001
7.511392e+002, 7.306129e+001
7.516213e+002, 7.256550e+001
7.521034e+002, 7.220946e+001
7.525855e+002, 7.230261e+001
7.530676e+002, 7.255409e+001
7.535497e+002, 7.258709e+001
7.540319e+002, 7.238911e+001
7.545140e+002, 7.226612e+001
7.549961e+002, 7.235423e+001
7.554782e+002, 7.247090e+001
7.559603e+002, 7.253345e+001
7.564424e+002, 7.254098e+001
7.569246e+002, 7.250626e+001
7.574067e+002, 7.242762e+001
7.578888e+002, 7.225992e+001
7.583709e+002, 7.190628e+001
7.588530e+002, 7.149653e+001
7.593351e+002, 7.155318e+001
7.598173e+002, 7.215344e+001
7.602994e+002, 7.254227e+001
7.607815e+002, 7.248493e+001
7.612636e+002, 7.231522e+001
7.617457e+002, 7.233372e+001
7.622278e+002, 7.248261e+001
7.627100e+002, 7.247310e+001
7.631921e+002, 7.208501e+001
7.636742e+002, 7.187275e+001
7.641563e+002, 7.215067e+001
7.646384e+002, 7.250185e+001
7.651205e+002, 7.255468e+001
7.656027e+002, 7.238193e+001
7.660848e+002, 7.226502e+001
7.665669e+002, 7.233529e+001
7.670490e+002, 7.248887e+001
7.675311e+002, 7.257371e+001
7.680132e+002, 7.261588e+001
7.684954e+002, 7.282845e+001
7.689775e+002, 7.326694e+001
7.694596e+002, 7.346147e+001
7.699417e+002, 7.307077e+001
7.704238e+002, 7.247621e+001
7.709059e+002, 7.235015e+001
7.713881e+002, 7.281376e+001
7.718702e+002, 7.328936e+001
7.723523e+002, 7.398585e+001
7.728344e+002, 7.444896e+001
7.733165e+002, 7.432683e+001
7.737986e+002, 7.400239e+001
7.742808e+002, 7.390947e+001
7.747629e+002, 7.409803e+001
7.752450e+002, 7.431958e+001
7.757271e+002, 7.441311e+001
7.762092e+002, 7.444138e+001
7.766913e+002, 7.451866e+001
7.771735e+002, 7.461636e+001
7.776556e+002, 7.455729e+001
7.781377e+002, 7.429092e+001
7.786198e+002, 7.414113e+001
7.791019e+002, 7.442802e+001
7.795840e+002, 7.503319e+001
7.800662e+002, 7.532788e+001
7.805483e+002, 7.501742e+001
7.810304e+002, 7.495731e+001
7.815125e+002, 7.545044e+001
7.819946e+002, 7.594506e+001
7.824767e+002, 7.619250e+001
7.829589e+002, 7.624586e+001
7.834410e+002, 7.621676e+001
7.839231e+002, 7.612373e+001
7.844052e+002, 7.599619e+001
7.848873e+002, 7.572462e+001
7.853694e+002, 7.551279e+001
7.858516e+002, 7.576770e+001
7.863337e+002, 7.632662e+001
7.868158e+002, 7.657468e+001
7.872979e+002, 7.626893e+001
7.877800e+002, 7.573548e+001
7.882621e+002, 7.536364e+001
7.887443e+002, 7.515608e+001
7.892264e+002, 7.514218e+001
7.897085e+002, 7.539301e+001
7.901906e+002, 7.564761e+001
7.906727e+002, 7.590824e+001
7.911548e+002, 7.606777e+001
7.916370e+002, 7.595244e+001
7.921191e+002, 7.561044e+001
7.926012e+002, 7.538718e+001
7.930833e+002, 7.538820e+001
7.935654e+002, 7.544542e+001
7.940475e+002, 7.550890e+001
7.945297e+002, 7.558848e+001
7.950118e+002, 7.572153e+001
7.954939e+002, 7.588406e+001
7.959760e+002, 7.599177e+001
7.964581e+002, 7.599441e+001
7.969402e+002, 7.594601e+001
7.974224e+002, 7.590728e+001
7.979045e+002, 7.588398e+001
7.983866e+002, 7.593586e+001
7.988687e+002, 7.607858e+001
7.993508e+002, 7.619924e+001
7.998329e+002, 7.625259e+001
8.003151e+002, 7.622740e+001
8.007972e+002, 7.606960e+001
8.012793e+002, 7.567439e+001
8.017614e+002, 7.556574e+001
8.022435e+002, 7.602676e+001
8.027256e+002, 7.639919e+001
8.032078e+002, 7.650900e+001
8.036899e+002, 7.642677e+001
8.041720e+002, 7.614831e+001
8.046541e+002, 7.572971e+001
8.051362e+002, 7.542200e+001
8.056183e+002, 7.540918e+001
8.061005e+002, 7.551134e+001
8.065826e+002, 7.560860e+001
8.070647e+002, 7.566480e+001
8.075468e+002, 7.557650e+001
8.080289e+002, 7.533675e+001
8.085110e+002, 7.504374e+001
8.089932e+002, 7.475410e+001
8.094753e+002, 7.449972e+001
8.099574e+002, 7.438261e+001
8.104395e+002, 7.444779e+001
8.109216e+002, 7.443475e+001
8.114037e+002, 7.424861e+001
8.118859e+002, 7.412118e+001
8.123680e+002, 7.426929e+001
8.128501e+002, 7.449863e+001
8.133322e+002, 7.452318e+001
8.138143e+002, 7.430981e+001
8.142964e+002, 7.404897e+001
8.147786e+002, 7.365058e+001
8.152607e+002, 7.335732e+001
8.157428e+002, 7.337296e+001
8.162249e+002, 7.355354e+001
8.167070e+002, 7.374519e+001
8.171891e+002, 7.388533e+001
8.176713e+002, 7.389238e+001
8.181534e+002, 7.367331e+001
8.186355e+002, 7.332872e+001
8.191176e+002, 7.300856e+001
8.195997e+002, 7.272520e+001
8.200818e+002, 7.259042e+001
8.205640e+002, 7.263110e+001
8.210461e+002, 7.278239e+001
8.215282e+002, 7.306943e+001
8.220103e+002, 7.335290e+001
8.224924e+002, 7.316994e+001
8.229745e+002, 7.206526e+001
8.234567e+002, 7.150918e+001
8.239388e+002, 7.196661e+001
8.244209e+002, 7.243372e+001
8.249030e+002, 7.260881e+001
8.253851e+002, 7.256612e+001
8.258672e+002, 7.236014e+001
8.263494e+002, 7.200731e+001
8.268315e+002, 7.171465e+001
8.273136e+002, 7.162449e+001
8.277957e+002, 7.159128e+001
8.282778e+002, 7.148440e+001
8.287599e+002, 7.134988e+001
8.292421e+002, 7.126969e+001
8.297242e+002, 7.126189e+001
8.302063e+002, 7.133659e+001
8.306884e+002, 7.153815e+001
8.311705e+002, 7.172514e+001
8.316526e+002, 7.142515e+001
8.321348e+002, 7.061086e+001
8.326169e+002, 7.025304e+001
8.330990e+002, 7.061299e+001
8.335811e+002, 7.094097e+001
8.340632e+002, 7.074099e+001
8.345453e+002, 7.025875e+001
8.350275e+002, 7.004207e+001
8.355096e+002, 7.021350e+001
8.359917e+002, 7.029007e+001
8.364738e+002, 7.008920e+001
8.369559e+002, 7.000447e+001
8.374380e+002, 7.033058e+001
8.379202e+002, 7.075626e+001
8.384023e+002, 7.090818e+001
8.388844e+002, 7.076804e+001
8.393665e+002, 7.062394e+001
8.398486e+002, 7.068764e+001
8.403307e+002, 7.074451e+001
8.408129e+002, 7.054251e+001
8.412950e+002, 7.018576e+001
8.417771e+002, 6.982132e+001
8.422592e+002, 6.950393e+001
8.427413e+002, 6.939716e+001
8.432234e+002, 6.962646e+001
8.437056e+002, 6.999196e+001
8.441877e+002, 7.008511e+001
8.446698e+002, 6.988858e+001
8.451519e+002, 6.960318e+001
8.456340e+002, 6.915667e+001
8.461161e+002, 6.885377e+001
8.465983e+002, 6.891203e+001
8.470804e+002, 6.909261e+001
8.475625e+002, 6.900890e+001
8.480446e+002, 6.863116e+001
8.485267e+002, 6.849604e+001
8.490089e+002, 6.895499e+001
8.494910e+002, 6.923302e+001
8.499731e+002, 6.897036e+001
8.504552e+002, 6.854671e+001
8.509373e+002, 6.829806e+001
8.514194e+002, 6.820938e+001
8.519016e+002, 6.809559e+001
8.523837e+002, 6.787047e+001
8.528658e+002, 6.761769e+001
8.533479e+002, 6.737166e+001
8.538300e+002, 6.716745e+001
8.543121e+002, 6.710481e+001
8.547943e+002, 6.715588e+001
8.552764e+002, 6.716321e+001
8.557585e+002, 6.705868e+001
8.562406e+002, 6.691662e+001
8.567227e+002, 6.682272e+001
8.572048e+002, 6.677889e+001
8.576870e+002, 6.683428e+001
8.581691e+002, 6.703771e+001
8.586512e+002, 6.713565e+001
8.591333e+002, 6.701798e+001
8.596154e+002, 6.685175e+001
8.600975e+002, 6.678807e+001
8.605797e+002, 6.680413e+001
8.610618e+002, 6.677370e+001
8.615439e+002, 6.681216e+001
8.620260e+002, 6.661537e+001
8.625081e+002, 6.590678e+001
8.629902e+002, 6.520085e+001
8.634724e+002, 6.466293e+001
8.639545e+002, 6.439171e+001
8.644366e+002, 6.463383e+001
8.649187e+002, 6.542768e+001
8.654008e+002, 6.606386e+001
8.658829e+002, 6.592796e+001
8.663651e+002, 6.550938e+001
8.668472e+002, 6.536994e+001
8.673293e+002, 6.540166e+001
8.678114e+002, 6.534673e+001
8.682935e+002, 6.513930e+001
8.687756e+002, 6.475568e+001
8.692578e+002, 6.413740e+001
8.697399e+002, 6.346543e+001
8.702220e+002, 6.324443e+001
8.707041e+002, 6.349940e+001
8.711862e+002, 6.369864e+001
8.716683e+002, 6.382125e+001
8.721505e+002, 6.377932e+001
8.726326e+002, 6.342829e+001
8.731147e+002, 6.299883e+001
8.735968e+002, 6.289178e+001
8.740789e+002, 6.317281e+001
8.745610e+002, 6.342471e+001
8.750432e+002, 6.389777e+001
8.755253e+002, 6.401421e+001
8.760074e+002, 6.334758e+001
8.764895e+002, 6.250982e+001
8.769716e+002, 6.201165e+001
8.774537e+002, 6.181382e+001
8.779359e+002, 6.159058e+001
8.784180e+002, 6.121419e+001
8.789001e+002, 6.083795e+001
8.793822e+002, 6.052996e+001
8.798643e+002, 6.028941e+001
8.803464e+002, 6.013517e+001
8.808286e+002, 6.004418e+001
8.813107e+002, 5.994730e+001
8.817928e+002, 5.982341e+001
8.822749e+002, 5.974113e+001
8.827570e+002, 5.979126e+001
8.832391e+002, 5.993409e+001
8.837213e+002, 6.010366e+001
8.842034e+002, 6.028649e+001
8.846855e+002, 6.019976e+001
8.851676e+002, 5.975027e+001
8.856497e+002, 5.921991e+001
8.861318e+002, 5.882697e+001
8.866140e+002, 5.852176e+001
8.870961e+002, 5.810817e+001
8.875782e+002, 5.741062e+001
8.880603e+002, 5.707359e+001
8.885424e+002, 5.745748e+001
8.890245e+002, 5.770861e+001
8.895067e+002, 5.735139e+001
8.899888e+002, 5.676319e+001
8.904709e+002, 5.629396e+001
8.909530e+002, 5.596279e+001
8.914351e+002, 5.594318e+001
8.919172e+002, 5.669483e+001
8.923994e+002, 5.723516e+001
8.928815e+002, 5.705963e+001
8.933636e+002, 5.656643e+001
8.938457e+002, 5.599662e+001
8.943278e+002, 5.548236e+001
8.948099e+002, 5.525416e+001
8.952921e+002, 5.543899e+001
8.957742e+002, 5.568160e+001
8.962563e+002, 5.566986e+001
8.967384e+002, 5.548075e+001
8.972205e+002, 5.520921e+001
8.977026e+002, 5.487920e+001
8.981848e+002, 5.455766e+001
8.986669e+002, 5.426365e+001
8.991490e+002, 5.394305e+001
8.996311e+002, 5.348849e+001
9.001132e+002, 5.303334e+001
9.005953e+002, 5.322158e+001
9.010775e+002, 5.414673e+001
9.015596e+002, 5.459825e+001
9.020417e+002, 5.429971e+001
9.025238e+002, 5.387927e+001
9.030059e+002, 5.371605e+001
9.034880e+002, 5.365892e+001
9.039702e+002, 5.336877e+001
9.044523e+002, 5.273003e+001
9.049344e+002, 5.232627e+001
9.054165e+002, 5.222791e+001
9.058986e+002, 5.227293e+001
9.063807e+002, 5.261100e+001
9.068629e+002, 5.293106e+001
9.073450e+002, 5.296457e+001
9.078271e+002, 5.273634e+001
9.083092e+002, 5.239587e+001
9.087913e+002, 5.183816e+001
9.092734e+002, 5.146595e+001
9.097556e+002, 5.164939e+001
9.102377e+002, 5.192817e+001
9.107198e+002, 5.187182e+001
9.112019e+002, 5.159364e+001
9.116840e+002, 5.137285e+001
9.121661e+002, 5.129328e+001
9.126483e+002, 5.125757e+001
9.131304e+002, 5.118682e+001
9.136125e+002, 5.110890e+001
9.140946e+002, 5.113194e+001
9.145767e+002, 5.118468e+001
9.150588e+002, 5.097537e+001
9.155410e+002, 5.048543e+001
9.160231e+002, 5.004531e+001
9.165052e+002, 4.985695e+001
9.169873e+002, 4.987078e+001
9.174694e+002, 5.006548e+001
9.179515e+002, 5.045795e+001
9.184337e+002, 5.049437e+001
9.189158e+002, 5.006442e+001
9.193979e+002, 4.979754e+001
9.198800e+002, 4.998742e+001
9.203621e+002, 5.026192e+001
9.208442e+002, 5.022616e+001
9.213264e+002, 4.990813e+001
9.218085e+002, 4.960247e+001
9.222906e+002, 4.918956e+001
9.227727e+002, 4.898634e+001
9.232548e+002, 4.922665e+001
9.237369e+002, 4.943058e+001
9.242191e+002, 4.927546e+001
9.247012e+002, 4.898640e+001
9.251833e+002, 4.895836e+001
9.256654e+002, 4.925131e+001
9.261475e+002, 4.938912e+001
9.266296e+002, 4.903924e+001
9.271118e+002, 4.872540e+001
9.275939e+002, 4.873565e+001
9.280760e+002, 4.890316e+001
9.285581e+002, 4.913589e+001
9.290402e+002, 4.934473e+001
9.295223e+002, 4.935513e+001
9.300045e+002, 4.908289e+001
9.304866e+002, 4.864758e+001
9.309687e+002, 4.791198e+001
9.314508e+002, 4.722797e+001
9.319329e+002, 4.731554e+001
9.324150e+002, 4.794431e+001
9.328972e+002, 4.830965e+001
9.333793e+002, 4.820429e+001
9.338614e+002, 4.801654e+001
9.343435e+002, 4.807854e+001
9.348256e+002, 4.830225e+001
9.353077e+002, 4.853362e+001
9.357899e+002, 4.875751e+001
9.362720e+002, 4.871755e+001
9.367541e+002, 4.836952e+001
9.372362e+002, 4.793614e+001
9.377183e+002, 4.749200e+001
9.382004e+002, 4.713163e+001
9.386826e+002, 4.701978e+001
9.391647e+002, 4.716368e+001
9.396468e+002, 4.721440e+001
9.401289e+002, 4.712210e+001
9.406110e+002, 4.706108e+001
9.410931e+002, 4.710429e+001
9.415753e+002, 4.713408e+001
9.420574e+002, 4.704613e+001
9.425395e+002, 4.688623e+001
9.430216e+002, 4.678409e+001
9.435037e+002, 4.677351e+001
9.439858e+002, 4.671893e+001
9.444680e+002, 4.657150e+001
9.449501e+002, 4.642546e+001
9.454322e+002, 4.626292e+001
9.459143e+002, 4.615653e+001
9.463964e+002, 4.625952e+001
9.468785e+002, 4.650473e+001
9.473607e+002, 4.654922e+001
9.478428e+002, 4.612441e+001
9.483249e+002, 4.581738e+001
9.488070e+002, 4.607274e+001
9.492891e+002, 4.647989e+001
9.497712e+002, 4.669512e+001
9.502534e+002, 4.674295e+001
9.507355e+002, 4.670514e+001
9.512176e+002, 4.661915e+001
9.516997e+002, 4.655735e+001
9.521818e+002, 4.662347e+001
9.526639e+002, 4.667958e+001
9.531461e+002, 4.650185e+001
9.536282e+002, 4.617680e+001
9.541103e+002, 4.584400e+001
9.545924e+002, 4.555938e+001
9.550745e+002, 4.551487e+001
9.555566e+002, 4.581032e+001
9.560388e+002, 4.617781e+001
9.565209e+002, 4.622251e+001
9.570030e+002, 4.602485e+001
9.574851e+002, 4.603156e+001
9.579672e+002, 4.624082e+001
9.584493e+002, 4.631200e+001
9.589315e+002, 4.615741e+001
9.594136e+002, 4.595276e+001
9.598957e+002, 4.583987e+001
9.603778e+002, 4.574055e+001
9.608599e+002, 4.539375e+001
9.613420e+002, 4.466505e+001
9.618242e+002, 4.442400e+001
9.623063e+002, 4.489213e+001
9.627884e+002, 4.530973e+001
9.632705e+002, 4.544807e+001
9.637526e+002, 4.541669e+001
9.642347e+002, 4.530368e+001
9.647169e+002, 4.511372e+001
9.651990e+002, 4.487810e+001
9.656811e+002, 4.430923e+001
9.661632e+002, 4.414356e+001
9.666453e+002, 4.480788e+001
9.671274e+002, 4.538651e+001
9.676096e+002, 4.541174e+001
9.680917e+002, 4.518635e+001
9.685738e+002, 4.510661e+001
9.690559e+002, 4.519257e+001
9.695380e+002, 4.519713e+001
9.700201e+002, 4.498640e+001
9.705023e+002, 4.478372e+001
9.709844e+002, 4.460543e+001
9.714665e+002, 4.452198e+001
9.719486e+002, 4.481601e+001
9.724307e+002, 4.517816e+001
9.729128e+002, 4.482239e+001
9.733950e+002, 4.357265e+001
9.738771e+002, 4.274321e+001
9.743592e+002, 4.347677e+001
9.748413e+002, 4.459322e+001
9.753234e+002, 4.527417e+001
9.758055e+002, 4.554930e+001
9.762877e+002, 4.534365e+001
9.767698e+002, 4.478717e+001
9.772519e+002, 4.420717e+001
9.777340e+002, 4.374689e+001
9.782161e+002, 4.356490e+001
9.786982e+002, 4.411863e+001
9.791804e+002, 4.491845e+001
9.796625e+002, 4.488981e+001
9.801446e+002, 4.427322e+001
9.806267e+002, 4.397509e+001
9.811088e+002, 4.415944e+001
9.815909e+002, 4.434429e+001
9.820731e+002, 4.419568e+001
9.825552e+002, 4.388033e+001
9.830373e+002, 4.367574e+001
9.835194e+002, 4.357566e+001
9.840015e+002, 4.351325e+001
9.844836e+002, 4.348723e+001
9.849658e+002, 4.367413e+001
9.854479e+002, 4.416926e+001
9.859300e+002, 4.451210e+001
9.864121e+002, 4.424208e+001
9.868942e+002, 4.353901e+001
9.873763e+002, 4.302439e+001
9.878585e+002, 4.269587e+001
9.883406e+002, 4.257933e+001
9.888227e+002, 4.269417e+001
9.893048e+002, 4.299168e+001
9.897869e+002, 4.357676e+001
9.902690e+002, 4.409944e+001
9.907512e+002, 4.408944e+001
9.912333e+002, 4.360131e+001
9.917154e+002, 4.333281e+001
9.921975e+002, 4.347092e+001
9.926796e+002, 4.342210e+001
9.931617e+002, 4.294929e+001
9.936439e+002, 4.255863e+001
9.941260e+002, 4.250787e+001
9.946081e+002, 4.266486e+001
9.950902e+002, 4.289519e+001
9.955723e+002, 4.320713e+001
9.960544e+002, 4.335241e+001
9.965366e+002, 4.323003e+001
9.970187e+002, 4.307334e+001
9.975008e+002, 4.281411e+001
9.979829e+002, 4.263856e+001
9.984650e+002, 4.263201e+001
9.989471e+002, 4.279629e+001
9.994293e+002, 4.322181e+001
9.999114e+002, 4.394473e+001
1.000393e+003, 4.436376e+001
1.000876e+003, 4.405172e+001
1.001358e+003, 4.373533e+001
1.001840e+003, 4.382933e+001
1.002322e+003, 4.395404e+001
1.002804e+003, 4.381792e+001
1.003286e+003, 4.341660e+001
1.003768e+003, 4.269273e+001
1.004250e+003, 4.159570e+001
1.004733e+003, 4.089730e+001
1.005215e+003, 4.131780e+001
1.005697e+003, 4.196457e+001
1.006179e+003, 4.226874e+001
1.006661e+003, 4.233723e+001
1.007143e+003, 4.224886e+001
1.007625e+003, 4.208525e+001
1.008107e+003, 4.197605e+001
1.008589e+003, 4.196741e+001
1.009072e+003, 4.213736e+001
1.009554e+003, 4.284526e+001
1.010036e+003, 4.352362e+001
1.010518e+003, 4.331316e+001
1.011000e+003, 4.261257e+001
1.011482e+003, 4.223166e+001
1.011964e+003, 4.226439e+001
1.012446e+003, 4.233962e+001
1.012929e+003, 4.225080e+001
1.013411e+003, 4.216706e+001
1.013893e+003, 4.240164e+001
1.014375e+003, 4.273376e+001
1.014857e+003, 4.264685e+001
1.015339e+003, 4.225274e+001
1.015821e+003, 4.199416e+001
1.016303e+003, 4.195497e+001
1.016785e+003, 4.186520e+001
1.017268e+003, 4.151387e+001
1.017750e+003, 4.118580e+001
1.018232e+003, 4.147546e+001
1.018714e+003, 4.218970e+001
1.019196e+003, 4.249454e+001
1.019678e+003, 4.240746e+001
1.020160e+003, 4.235542e+001
1.020642e+003, 4.245514e+001
1.021125e+003, 4.248667e+001
1.021607e+003, 4.225363e+001
1.022089e+003, 4.190627e+001
1.022571e+003, 4.181249e+001
1.023053e+003, 4.195506e+001
1.023535e+003, 4.202361e+001
1.024017e+003, 4.200761e+001
1.024499e+003, 4.187238e+001
1.024981e+003, 4.157962e+001
1.025464e+003, 4.138056e+001
1.025946e+003, 4.153811e+001
1.026428e+003, 4.190253e+001
1.026910e+003, 4.191548e+001
1.027392e+003, 4.148718e+001
1.027874e+003, 4.172358e+001
1.028356e+003, 4.291236e+001
1.028838e+003, 4.346238e+001
1.029321e+003, 4.263201e+001
1.029803e+003, 4.153687e+001
1.030285e+003, 4.126734e+001
1.030767e+003, 4.164390e+001
1.031249e+003, 4.187532e+001
1.031731e+003, 4.195345e+001
1.032213e+003, 4.189672e+001
1.032695e+003, 4.161758e+001
1.033177e+003, 4.144650e+001
1.033660e+003, 4.159245e+001
1.034142e+003, 4.174352e+001
1.034624e+003, 4.153121e+001
1.035106e+003, 4.103590e+001
1.035588e+003, 4.076422e+001
1.036070e+003, 4.075455e+001
1.036552e+003, 4.089223e+001
1.037034e+003, 4.132992e+001
1.037516e+003, 4.164973e+001
1.037999e+003, 4.169522e+001
1.038481e+003, 4.154800e+001
1.038963e+003, 4.119584e+001
1.039445e+003, 4.069584e+001
1.039927e+003, 4.049522e+001
1.040409e+003, 4.079578e+001
1.040891e+003, 4.103897e+001
1.041373e+003, 4.111755e+001
1.041855e+003, 4.127145e+001
1.042338e+003, 4.176337e+001
1.042820e+003, 4.224382e+001
1.043302e+003, 4.233062e+001
1.043784e+003, 4.206384e+001
1.044266e+003, 4.176365e+001
1.044748e+003, 4.139809e+001
1.045230e+003, 4.107007e+001
1.045712e+003, 4.067443e+001
1.046195e+003, 4.045171e+001
1.046677e+003, 4.061102e+001
1.047159e+003, 4.090910e+001
1.047641e+003, 4.117747e+001
1.048123e+003, 4.136772e+001
1.048605e+003, 4.124885e+001
1.049087e+003, 4.054933e+001
1.049569e+003, 3.998878e+001
1.050052e+003, 3.955664e+001
1.050534e+003, 3.941760e+001
1.051016e+003, 3.991535e+001
1.051498e+003, 4.055815e+001
1.051980e+003, 4.075402e+001
1.052462e+003, 4.055567e+001
1.052944e+003, 4.050847e+001
1.053426e+003, 4.083060e+001
1.053908e+003, 4.105941e+001
1.054391e+003, 4.110376e+001
1.054873e+003, 4.101560e+001
1.055355e+003, 4.069162e+001
1.055837e+003, 4.033953e+001
1.056319e+003, 4.026657e+001
1.056801e+003, 4.040540e+001
1.057283e+003, 4.029762e+001
1.057765e+003, 3.963062e+001
1.058248e+003, 3.920476e+001
1.058730e+003, 3.944838e+001
1.059212e+003, 3.977108e+001
1.059694e+003, 3.982631e+001
1.060176e+003, 3.979403e+001
1.060658e+003, 3.992157e+001
1.061140e+003, 4.018368e+001
1.061622e+003, 4.037906e+001
1.062104e+003, 4.047798e+001
1.062587e+003, 4.043539e+001
1.063069e+003, 4.022737e+001
1.063551e+003, 3.988194e+001
1.064033e+003, 3.916717e+001
1.064515e+003, 3.849795e+001
1.064997e+003, 3.839965e+001
1.065479e+003, 3.879317e+001
1.065961e+003, 3.924917e+001
1.066443e+003, 3.974638e+001
1.066926e+003, 3.992519e+001
1.067408e+003, 3.923056e+001
1.067890e+003, 3.864147e+001
1.068372e+003, 3.895060e+001
1.068854e+003, 3.953161e+001
1.069336e+003, 3.966588e+001
1.069818e+003, 3.938595e+001
1.070300e+003, 3.907069e+001
1.070782e+003, 3.879993e+001
1.071265e+003, 3.863717e+001
1.071747e+003, 3.873343e+001
1.072229e+003, 3.880156e+001
1.072711e+003, 3.856126e+001
1.073193e+003, 3.828278e+001
1.073675e+003, 3.836105e+001
1.074157e+003, 3.865946e+001
1.074639e+003, 3.869789e+001
1.075122e+003, 3.831084e+001
1.075604e+003, 3.791277e+001
1.076086e+003, 3.760096e+001
1.076568e+003, 3.744205e+001
1.077050e+003, 3.761631e+001
1.077532e+003, 3.785058e+001
1.078014e+003, 3.779828e+001
1.078496e+003, 3.757706e+001
1.078979e+003, 3.754504e+001
1.079461e+003, 3.779964e+001
1.079943e+003, 3.812223e+001
1.080425e+003, 3.847698e+001
1.080907e+003, 3.879280e+001
1.081389e+003, 3.908226e+001
1.081871e+003, 3.926808e+001
1.082353e+003, 3.931327e+001
1.082835e+003, 3.918482e+001
1.083318e+003, 3.871255e+001
1.083800e+003, 3.787053e+001
1.084282e+003, 3.735079e+001
1.084764e+003, 3.777408e+001
1.085246e+003, 3.817927e+001
1.085728e+003, 3.801838e+001
1.086210e+003, 3.769719e+001
1.086692e+003, 3.748710e+001
1.087175e+003, 3.741589e+001
1.087657e+003, 3.754519e+001
1.088139e+003, 3.785670e+001
1.088621e+003, 3.800364e+001
1.089103e+003, 3.775330e+001
1.089585e+003, 3.744419e+001
1.090067e+003, 3.716432e+001
1.090549e+003, 3.693761e+001
1.091031e+003, 3.671674e+001
1.091514e+003, 3.659687e+001
1.091996e+003, 3.680035e+001
1.092478e+003, 3.729625e+001
1.092960e+003, 3.764920e+001
1.093442e+003, 3.768121e+001
1.093924e+003, 3.761179e+001
1.094406e+003, 3.745245e+001
1.094888e+003, 3.729435e+001
1.095370e+003, 3.722758e+001
1.095853e+003, 3.717773e+001
1.096335e+003, 3.701183e+001
1.096817e+003, 3.675764e+001
1.097299e+003, 3.661874e+001
1.097781e+003, 3.671459e+001
1.098263e+003, 3.675952e+001
1.098745e+003, 3.651545e+001
1.099227e+003, 3.637293e+001
1.099709e+003, 3.661958e+001
1.100192e+003, 3.700977e+001
1.100674e+003, 3.736871e+001
1.101156e+003, 3.762799e+001
1.101638e+003, 3.762495e+001
1.102120e+003, 3.723977e+001
1.102602e+003, 3.693350e+001
1.103084e+003, 3.687825e+001
1.103566e+003, 3.684288e+001
1.104049e+003, 3.675621e+001
1.104531e+003, 3.663221e+001
1.105013e+003, 3.635321e+001
1.105495e+003, 3.607940e+001
1.105977e+003, 3.627146e+001
1.106459e+003, 3.711156e+001
1.106941e+003, 3.753297e+001
1.107423e+003, 3.694117e+001
1.107906e+003, 3.649323e+001
1.108388e+003, 3.658744e+001
1.108870e+003, 3.682570e+001
1.109352e+003, 3.707372e+001
1.109834e+003, 3.723118e+001
1.110316e+003, 3.708315e+001
1.110798e+003, 3.659853e+001
1.111280e+003, 3.628588e+001
1.111762e+003, 3.628632e+001
1.112245e+003, 3.630693e+001
1.112727e+003, 3.636023e+001
1.113209e+003, 3.637102e+001
1.113691e+003, 3.630039e+001
1.114173e+003, 3.616899e+001
1.114655e+003, 3.595832e+001
1.115137e+003, 3.568407e+001
1.115619e+003, 3.554916e+001
1.116102e+003, 3.548840e+001
1.116584e+003, 3.570040e+001
1.117066e+003, 3.665983e+001
1.117548e+003, 3.716538e+001
1.118030e+003, 3.625719e+001
1.118512e+003, 3.533143e+001
1.118994e+003, 3.600290e+001
1.119476e+003, 3.772602e+001
1.119958e+003, 3.824287e+001
1.120441e+003, 3.705325e+001
1.120923e+003, 3.624785e+001
1.121405e+003, 3.592138e+001
1.121887e+003, 3.579188e+001
1.122369e+003, 3.586572e+001
1.122851e+003, 3.598296e+001
1.123333e+003, 3.604487e+001
1.123815e+003, 3.604773e+001
1.124297e+003, 3.596432e+001
1.124780e+003, 3.577770e+001
1.125262e+003, 3.575375e+001
1.125744e+003, 3.598013e+001
1.126226e+003, 3.602098e+001
1.126708e+003, 3.574115e+001
1.127190e+003, 3.546623e+001
1.127672e+003, 3.536348e+001
1.128154e+003, 3.539940e+001
1.128636e+003, 3.556095e+001
1.129119e+003, 3.581161e+001
1.129601e+003, 3.576635e+001
1.130083e+003, 3.536242e+001
1.130565e+003, 3.543643e+001
1.131047e+003, 3.613960e+001
1.131529e+003, 3.669582e+001
1.132011e+003, 3.680044e+001
1.132493e+003, 3.656369e+001
1.132976e+003, 3.602673e+001
1.133458e+003, 3.537885e+001
1.133940e+003, 3.525457e+001
1.134422e+003, 3.559331e+001
1.134904e+003, 3.555626e+001
1.135386e+003, 3.513403e+001
1.135868e+003, 3.491679e+001
1.136350e+003, 3.506363e+001
1.136833e+003, 3.539722e+001
1.137315e+003, 3.581747e+001
1.137797e+003, 3.619252e+001
1.138279e+003, 3.626947e+001
1.138761e+003, 3.612377e+001
1.139243e+003, 3.604669e+001
1.139725e+003, 3.598777e+001
1.140207e+003, 3.558410e+001
1.140689e+003, 3.488354e+001
1.141172e+003, 3.463707e+001
1.141654e+003, 3.519279e+001
1.142136e+003, 3.582658e+001
1.142618e+003, 3.571614e+001
1.143100e+003, 3.524901e+001
1.143582e+003, 3.501965e+001
1.144064e+003, 3.495819e+001
1.144546e+003, 3.491190e+001
1.145029e+003, 3.489303e+001
1.145511e+003, 3.501950e+001
1.145993e+003, 3.530749e+001
1.146475e+003, 3.560040e+001
1.146957e+003, 3.580024e+001
1.147439e+003, 3.594133e+001
1.147921e+003, 3.608864e+001
1.148403e+003, 3.617040e+001
1.148885e+003, 3.605910e+001
1.149368e+003, 3.583613e+001
1.149850e+003, 3.559925e+001
1.150332e+003, 3.540192e+001
1.150814e+003, 3.537906e+001
1.151296e+003, 3.564387e+001
1.151778e+003, 3.573765e+001
1.152260e+003, 3.505851e+001
1.152742e+003, 3.449434e+001
1.153224e+003, 3.486985e+001
1.153707e+003, 3.549210e+001
1.154189e+003, 3.552628e+001
1.154671e+003, 3.520248e+001
1.155153e+003, 3.528608e+001
1.155635e+003, 3.593832e+001
1.156117e+003, 3.626738e+001
1.156599e+003, 3.552553e+001
1.157081e+003, 3.508607e+001
1.157563e+003, 3.579320e+001
1.158046e+003, 3.647350e+001
1.158528e+003, 3.599795e+001
1.159010e+003, 3.531390e+001
1.159492e+003, 3.604726e+001
1.159974e+003, 3.798640e+001
1.160456e+003, 3.877957e+001
1.160938e+003, 3.765686e+001
1.161420e+003, 3.650838e+001
1.161903e+003, 3.510115e+001
1.162385e+003, 3.411161e+001
1.162867e+003, 3.377003e+001
1.163349e+003, 3.387531e+001
1.163831e+003, 3.449826e+001
1.164313e+003, 3.532420e+001
1.164795e+003, 3.552312e+001
1.165277e+003, 3.497812e+001
1.165760e+003, 3.483072e+001
1.166242e+003, 3.526652e+001
1.166724e+003, 3.547411e+001
1.167206e+003, 3.522530e+001
1.167688e+003, 3.510038e+001
1.168170e+003, 3.546078e+001
1.168652e+003, 3.590223e+001
1.169134e+003, 3.588253e+001
1.169616e+003, 3.551507e+001
1.170099e+003, 3.531743e+001
1.170581e+003, 3.529057e+001
1.171063e+003, 3.539655e+001
1.171545e+003, 3.563460e+001
1.172027e+003, 3.575763e+001
1.172509e+003, 3.568944e+001
1.172991e+003, 3.562335e+001
1.173473e+003, 3.572239e+001
1.173956e+003, 3.581765e+001
1.174438e+003, 3.551092e+001
1.174920e+003, 3.498936e+001
1.175402e+003, 3.492921e+001
1.175884e+003, 3.520049e+001
1.176366e+003, 3.531067e+001
1.176848e+003, 3.521628e+001
1.177330e+003, 3.515243e+001
1.177813e+003, 3.521741e+001
1.178295e+003, 3.526878e+001
1.178777e+003, 3.507523e+001
1.179259e+003, 3.495782e+001
1.179741e+003, 3.562240e+001
1.180223e+003, 3.639901e+001
1.180705e+003, 3.610216e+001
1.181187e+003, 3.520471e+001
1.181669e+003, 3.488830e+001
1.182151e+003, 3.527156e+001
1.182634e+003, 3.556139e+001
1.183116e+003, 3.539202e+001
1.183598e+003, 3.510364e+001
1.184080e+003, 3.465998e+001
1.184562e+003, 3.443661e+001
1.185044e+003, 3.496996e+001
1.185526e+003, 3.561460e+001
1.186008e+003, 3.565766e+001
1.186490e+003, 3.526696e+001
1.186973e+003, 3.495591e+001
1.187455e+003, 3.481084e+001
1.187937e+003, 3.470332e+001
1.188419e+003, 3.457069e+001
1.188901e+003, 3.452872e+001
1.189383e+003, 3.455215e+001
1.189865e+003, 3.472628e+001
1.190347e+003, 3.532560e+001
1.190830e+003, 3.591372e+001
1.191312e+003, 3.595363e+001
1.191794e+003, 3.556866e+001
1.192276e+003, 3.538151e+001
1.192758e+003, 3.549337e+001
1.193240e+003, 3.543772e+001
1.193722e+003, 3.511398e+001
1.194204e+003, 3.491816e+001
1.194687e+003, 3.493280e+001
1.195169e+003, 3.515327e+001
1.195651e+003, 3.565130e+001
1.196133e+003, 3.614557e+001
1.196615e+003, 3.617019e+001
1.197097e+003, 3.579338e+001
1.197579e+003, 3.536763e+001
1.198061e+003, 3.490429e+001
1.198543e+003, 3.470869e+001
1.199026e+003, 3.478839e+001
1.199508e+003, 3.477924e+001
1.199990e+003, 3.457042e+001
1.200472e+003, 3.452864e+001
1.200954e+003, 3.498857e+001
1.201436e+003, 3.555657e+001
1.201918e+003, 3.552761e+001
1.202400e+003, 3.524218e+001
1.202883e+003, 3.553532e+001
1.203365e+003, 3.608175e+001
1.203847e+003, 3.600477e+001
1.204329e+003, 3.536903e+001
1.204811e+003, 3.485324e+001
1.205293e+003, 3.471289e+001
1.205775e+003, 3.476767e+001
1.206257e+003, 3.499626e+001
1.206740e+003, 3.523429e+001
1.207222e+003, 3.541224e+001
1.207704e+003, 3.549803e+001
1.208186e+003, 3.537851e+001
1.208668e+003, 3.519786e+001
1.209150e+003, 3.516048e+001
1.209632e+003, 3.527144e+001
1.210114e+003, 3.544934e+001
1.210596e+003, 3.577723e+001
1.211078e+003, 3.583325e+001
1.211561e+003, 3.526594e+001
1.212043e+003, 3.478633e+001
1.212525e+003, 3.463678e+001
1.213007e+003, 3.461150e+001
1.213489e+003, 3.458318e+001
1.213971e+003, 3.458561e+001
1.214453e+003, 3.466023e+001
1.214935e+003, 3.480959e+001
1.215417e+003, 3.511108e+001
1.215900e+003, 3.565873e+001
1.216382e+003, 3.600126e+001
1.216864e+003, 3.610437e+001
1.217346e+003, 3.600654e+001
1.217828e+003, 3.567586e+001
1.218310e+003, 3.536966e+001
1.218792e+003, 3.527238e+001
1.219274e+003, 3.536284e+001
1.219757e+003, 3.570390e+001
1.220239e+003, 3.617762e+001
1.220721e+003, 3.613956e+001
1.221203e+003, 3.570208e+001
1.221685e+003, 3.539037e+001
1.222167e+003, 3.526971e+001
1.222649e+003, 3.530265e+001
1.223131e+003, 3.545359e+001
1.223614e+003, 3.552184e+001
1.224096e+003, 3.532614e+001
1.224578e+003, 3.507389e+001
1.225060e+003, 3.494860e+001
1.225542e+003, 3.493467e+001
1.226024e+003, 3.508632e+001
1.226506e+003, 3.529281e+001
1.226988e+003, 3.539897e+001
1.227470e+003, 3.540136e+001
1.227953e+003, 3.533207e+001
1.228435e+003, 3.519400e+001
1.228917e+003, 3.516278e+001
1.229399e+003, 3.549884e+001
1.229881e+003, 3.567381e+001
1.230363e+003, 3.533630e+001
1.230845e+003, 3.499287e+001
1.231327e+003, 3.502708e+001
1.231810e+003, 3.515336e+001
1.232292e+003, 3.496177e+001
1.232774e+003, 3.455899e+001
1.233256e+003, 3.438752e+001
1.233738e+003, 3.449601e+001
1.234220e+003, 3.462646e+001
1.234702e+003, 3.476533e+001
1.235184e+003, 3.500558e+001
1.235667e+003, 3.544463e+001
1.236149e+003, 3.562736e+001
1.236631e+003, 3.526010e+001
1.237113e+003, 3.480217e+001
1.237595e+003, 3.481497e+001
1.238077e+003, 3.514302e+001
1.238559e+003, 3.537627e+001
1.239041e+003, 3.550288e+001
1.239523e+003, 3.540742e+001
1.240005e+003, 3.514117e+001
1.240488e+003, 3.497578e+001
1.240970e+003, 3.494942e+001
1.241452e+003, 3.488437e+001
1.241934e+003, 3.469090e+001
1.242416e+003, 3.456195e+001
1.242898e+003, 3.473651e+001
1.243380e+003, 3.498969e+001
1.243862e+003, 3.521751e+001
1.244344e+003, 3.529515e+001
1.244827e+003, 3.483254e+001
1.245309e+003, 3.425055e+001
1.245791e+003, 3.438011e+001
1.246273e+003, 3.514869e+001
1.246755e+003, 3.563237e+001
1.247237e+003, 3.554891e+001
1.247719e+003, 3.534175e+001
1.248201e+003, 3.495967e+001
1.248684e+003, 3.467932e+001
1.249166e+003, 3.465672e+001
1.249648e+003, 3.467422e+001
1.250130e+003, 3.460832e+001
1.250612e+003, 3.450959e+001
1.251094e+003, 3.439721e+001
1.251576e+003, 3.431693e+001
1.252058e+003, 3.468197e+001
1.252541e+003, 3.566457e+001
1.253023e+003, 3.565543e+001
1.253505e+003, 3.448466e+001
1.253987e+003, 3.395393e+001
1.254469e+003, 3.449241e+001
1.254951e+003, 3.516992e+001
1.255433e+003, 3.545982e+001
1.255915e+003, 3.549260e+001
1.256397e+003, 3.534990e+001
1.256880e+003, 3.516460e+001
1.257362e+003, 3.523072e+001
1.257844e+003, 3.543049e+001
1.258326e+003, 3.555677e+001
1.258808e+003, 3.560500e+001
1.259290e+003, 3.562096e+001
1.259772e+003, 3.560516e+001
1.260254e+003, 3.549902e+001
1.260737e+003, 3.526228e+001
1.261219e+003, 3.507131e+001
1.261701e+003, 3.500494e+001
1.262183e+003, 3.502636e+001
1.262665e+003, 3.522416e+001
1.263147e+003, 3.539070e+001
1.263629e+003, 3.529943e+001
1.264111e+003, 3.513293e+001
1.264594e+003, 3.520210e+001
1.265076e+003, 3.545181e+001
1.265558e+003, 3.551550e+001
1.266040e+003, 3.533858e+001
1.266522e+003, 3.516151e+001
1.267004e+003, 3.495905e+001
1.267486e+003, 3.484716e+001
1.267968e+003, 3.485600e+001
1.268450e+003, 3.491799e+001
1.268932e+003, 3.499859e+001
1.269415e+003, 3.513639e+001
1.269897e+003, 3.542145e+001
1.270379e+003, 3.569115e+001
1.270861e+003, 3.536263e+001
1.271343e+003, 3.475462e+001
1.271825e+003, 3.498956e+001
1.272307e+003, 3.578392e+001
1.272789e+003, 3.620581e+001
1.273271e+003, 3.614278e+001
1.273754e+003, 3.587760e+001
1.274236e+003, 3.552724e+001
1.274718e+003, 3.527867e+001
1.275200e+003, 3.534070e+001
1.275682e+003, 3.541096e+001
1.276164e+003, 3.526780e+001
1.276646e+003, 3.511596e+001
1.277128e+003, 3.506105e+001
1.277611e+003, 3.511235e+001
1.278093e+003, 3.530460e+001
1.278575e+003, 3.560041e+001
1.279057e+003, 3.591933e+001
1.279539e+003, 3.629459e+001
1.280021e+003, 3.639120e+001
1.280503e+003, 3.606797e+001
1.280985e+003, 3.585278e+001
1.281468e+003, 3.583583e+001
1.281950e+003, 3.582450e+001
1.282432e+003, 3.574300e+001
1.282914e+003, 3.567144e+001
1.283396e+003, 3.567931e+001
1.283878e+003, 3.572879e+001
1.284360e+003, 3.570079e+001
1.284842e+003, 3.565886e+001
1.285324e+003, 3.578623e+001
##END=



