##NAMES=Anatase
##RRUFFID=R120013
##IDEAL CHEMISTRY=Ti^4+^O_2_
##LOCALITY=Governor's Lake pegmatite, Halifax County, Nova Scotia, Canada
##OWNER=RRUFF
##SOURCE=Donald Doell
##DESCRIPTION=Black tabular crystals associated with metatorbernite R120014
##STATUS=The identification of this mineral has been confirmed by single-crystal X-ray diffraction.
##URL=rruff.info/R120013
9.001007e+001, 0.000000e+000
9.049219e+001, 8.689156e+001
9.097430e+001, 8.723325e+001
9.145642e+001, 8.719763e+001
9.193854e+001, 8.680505e+001
9.242065e+001, 8.622633e+001
9.290277e+001, 8.553114e+001
9.338489e+001, 8.474953e+001
9.386700e+001, 8.395541e+001
9.434912e+001, 8.320213e+001
9.483124e+001, 8.245092e+001
9.531335e+001, 8.159612e+001
9.579547e+001, 8.061849e+001
9.627759e+001, 7.965344e+001
9.675970e+001, 7.880254e+001
9.724182e+001, 7.807324e+001
9.772394e+001, 7.750615e+001
9.820605e+001, 7.720226e+001
9.868817e+001, 7.713079e+001
9.917029e+001, 7.694551e+001
9.965240e+001, 7.665587e+001
1.001345e+002, 7.622546e+001
1.006166e+002, 7.549728e+001
1.010988e+002, 7.436866e+001
1.015809e+002, 7.336112e+001
1.020630e+002, 7.286636e+001
1.025451e+002, 7.305184e+001
1.030272e+002, 7.287560e+001
1.035093e+002, 7.218459e+001
1.039915e+002, 7.109377e+001
1.044736e+002, 7.000105e+001
1.049557e+002, 6.876913e+001
1.054378e+002, 6.774824e+001
1.059199e+002, 6.722832e+001
1.064020e+002, 6.754822e+001
1.068842e+002, 6.774153e+001
1.073663e+002, 6.775466e+001
1.078484e+002, 6.759089e+001
1.083305e+002, 6.703606e+001
1.088126e+002, 6.559711e+001
1.092947e+002, 6.405058e+001
1.097769e+002, 6.311385e+001
1.102590e+002, 6.376011e+001
1.107411e+002, 6.402957e+001
1.112232e+002, 6.340287e+001
1.117053e+002, 6.156965e+001
1.121874e+002, 6.019868e+001
1.126696e+002, 5.964896e+001
1.131517e+002, 5.956245e+001
1.136338e+002, 5.947514e+001
1.141159e+002, 5.933235e+001
1.145980e+002, 5.916624e+001
1.150801e+002, 5.901740e+001
1.155623e+002, 5.897711e+001
1.160444e+002, 5.874176e+001
1.165265e+002, 5.803244e+001
1.170086e+002, 5.706187e+001
1.174907e+002, 5.629873e+001
1.179728e+002, 5.605785e+001
1.184550e+002, 5.597688e+001
1.189371e+002, 5.583268e+001
1.194192e+002, 5.556947e+001
1.199013e+002, 5.525044e+001
1.203834e+002, 5.494550e+001
1.208655e+002, 5.462670e+001
1.213477e+002, 5.418259e+001
1.218298e+002, 5.336193e+001
1.223119e+002, 5.245539e+001
1.227940e+002, 5.177755e+001
1.232761e+002, 5.151449e+001
1.237582e+002, 5.143356e+001
1.242404e+002, 5.144075e+001
1.247225e+002, 5.151896e+001
1.252046e+002, 5.145642e+001
1.256867e+002, 5.085278e+001
1.261688e+002, 5.000686e+001
1.266509e+002, 4.946732e+001
1.271331e+002, 4.989745e+001
1.276152e+002, 5.060181e+001
1.280973e+002, 5.040766e+001
1.285794e+002, 4.925483e+001
1.290615e+002, 4.793198e+001
1.295436e+002, 4.726048e+001
1.300258e+002, 4.713338e+001
1.305079e+002, 4.709325e+001
1.309900e+002, 4.692691e+001
1.314721e+002, 4.668372e+001
1.319542e+002, 4.652306e+001
1.324363e+002, 4.646586e+001
1.329185e+002, 4.644215e+001
1.334006e+002, 4.640077e+001
1.338827e+002, 4.633932e+001
1.343648e+002, 4.612707e+001
1.348469e+002, 4.558100e+001
1.353290e+002, 4.473540e+001
1.358112e+002, 4.410551e+001
1.362933e+002, 4.377531e+001
1.367754e+002, 4.363005e+001
1.372575e+002, 4.337939e+001
1.377396e+002, 4.297519e+001
1.382217e+002, 4.268036e+001
1.387039e+002, 4.277102e+001
1.391860e+002, 4.334900e+001
1.396681e+002, 4.356124e+001
1.401502e+002, 4.320755e+001
1.406323e+002, 4.243699e+001
1.411144e+002, 4.189695e+001
1.415966e+002, 4.166526e+001
1.420787e+002, 4.151315e+001
1.425608e+002, 4.122720e+001
1.430429e+002, 4.068180e+001
1.435250e+002, 4.036820e+001
1.440071e+002, 4.043024e+001
1.444893e+002, 4.084871e+001
1.449714e+002, 4.116455e+001
1.454535e+002, 4.141544e+001
1.459356e+002, 4.152291e+001
1.464177e+002, 4.140070e+001
1.468998e+002, 4.093785e+001
1.473820e+002, 4.040976e+001
1.478641e+002, 3.975145e+001
1.483462e+002, 3.887869e+001
1.488283e+002, 3.850914e+001
1.493104e+002, 3.894776e+001
1.497925e+002, 3.974370e+001
1.502747e+002, 4.037888e+001
1.507568e+002, 4.036280e+001
1.512389e+002, 4.067456e+001
1.517210e+002, 4.158831e+001
1.522031e+002, 4.327811e+001
1.526852e+002, 4.498986e+001
1.531674e+002, 4.631907e+001
1.536495e+002, 4.775945e+001
1.541316e+002, 5.002892e+001
1.546137e+002, 5.318628e+001
1.550958e+002, 5.717554e+001
1.555779e+002, 6.206765e+001
1.560601e+002, 6.812837e+001
1.565422e+002, 7.444234e+001
1.570243e+002, 8.072326e+001
1.575064e+002, 8.714957e+001
1.579885e+002, 9.406673e+001
1.584706e+002, 1.013797e+002
1.589528e+002, 1.093242e+002
1.594349e+002, 1.179722e+002
1.599170e+002, 1.271676e+002
1.603991e+002, 1.373654e+002
1.608812e+002, 1.491038e+002
1.613633e+002, 1.619946e+002
1.618455e+002, 1.750185e+002
1.623276e+002, 1.879749e+002
1.628097e+002, 2.007804e+002
1.632918e+002, 2.136591e+002
1.637739e+002, 2.266235e+002
1.642560e+002, 2.395315e+002
1.647382e+002, 2.525688e+002
1.652203e+002, 2.655812e+002
1.657024e+002, 2.779793e+002
1.661845e+002, 2.895512e+002
1.666666e+002, 3.003973e+002
1.671487e+002, 3.105107e+002
1.676309e+002, 3.205283e+002
1.681130e+002, 3.293146e+002
1.685951e+002, 3.358841e+002
1.690772e+002, 3.404320e+002
1.695593e+002, 3.439095e+002
1.700414e+002, 3.468474e+002
1.705236e+002, 3.490497e+002
1.710057e+002, 3.502391e+002
1.714878e+002, 3.498615e+002
1.719699e+002, 3.488175e+002
1.724520e+002, 3.477633e+002
1.729341e+002, 3.466909e+002
1.734163e+002, 3.455518e+002
1.738984e+002, 3.438408e+002
1.743805e+002, 3.420829e+002
1.748626e+002, 3.411866e+002
1.753447e+002, 3.417628e+002
1.758268e+002, 3.431924e+002
1.763090e+002, 3.448420e+002
1.767911e+002, 3.466968e+002
1.772732e+002, 3.488643e+002
1.777553e+002, 3.503155e+002
1.782374e+002, 3.505765e+002
1.787195e+002, 3.502132e+002
1.792017e+002, 3.484435e+002
1.796838e+002, 3.466237e+002
1.801659e+002, 3.469272e+002
1.806480e+002, 3.494037e+002
1.811301e+002, 3.531015e+002
1.816122e+002, 3.577715e+002
1.820944e+002, 3.630993e+002
1.825765e+002, 3.679128e+002
1.830586e+002, 3.717310e+002
1.835407e+002, 3.747185e+002
1.840228e+002, 3.772665e+002
1.845049e+002, 3.793149e+002
1.849871e+002, 3.812461e+002
1.854692e+002, 3.836205e+002
1.859513e+002, 3.863342e+002
1.864334e+002, 3.887014e+002
1.869155e+002, 3.904251e+002
1.873976e+002, 3.915652e+002
1.878798e+002, 3.922040e+002
1.883619e+002, 3.922280e+002
1.888440e+002, 3.921807e+002
1.893261e+002, 3.924998e+002
1.898082e+002, 3.932216e+002
1.902903e+002, 3.949689e+002
1.907725e+002, 3.982646e+002
1.912546e+002, 4.029657e+002
1.917367e+002, 4.078030e+002
1.922188e+002, 4.124938e+002
1.927009e+002, 4.178730e+002
1.931830e+002, 4.249115e+002
1.936652e+002, 4.335396e+002
1.941473e+002, 4.443525e+002
1.946294e+002, 4.576181e+002
1.951115e+002, 4.732852e+002
1.955936e+002, 4.908204e+002
1.960757e+002, 5.099327e+002
1.965579e+002, 5.312688e+002
1.970400e+002, 5.570641e+002
1.975221e+002, 5.877136e+002
1.980042e+002, 6.183961e+002
1.984863e+002, 6.478842e+002
1.989684e+002, 6.761077e+002
1.994506e+002, 7.003153e+002
1.999327e+002, 7.210095e+002
2.004148e+002, 7.365646e+002
2.008969e+002, 7.433359e+002
2.013790e+002, 7.413787e+002
2.018611e+002, 7.311236e+002
2.023433e+002, 7.115479e+002
2.028254e+002, 6.821321e+002
2.033075e+002, 6.495020e+002
2.037896e+002, 6.134531e+002
2.042717e+002, 5.754559e+002
2.047538e+002, 5.391779e+002
2.052360e+002, 5.043508e+002
2.057181e+002, 4.720722e+002
2.062002e+002, 4.429426e+002
2.066823e+002, 4.169719e+002
2.071644e+002, 3.939653e+002
2.076465e+002, 3.740850e+002
2.081287e+002, 3.570656e+002
2.086108e+002, 3.416563e+002
2.090929e+002, 3.278955e+002
2.095750e+002, 3.155467e+002
2.100571e+002, 3.046968e+002
2.105392e+002, 2.954066e+002
2.110214e+002, 2.870108e+002
2.115035e+002, 2.794545e+002
2.119856e+002, 2.727735e+002
2.124677e+002, 2.670459e+002
2.129498e+002, 2.626846e+002
2.134319e+002, 2.583382e+002
2.139140e+002, 2.528528e+002
2.143962e+002, 2.455319e+002
2.148783e+002, 2.396257e+002
2.153604e+002, 2.358220e+002
2.158425e+002, 2.335858e+002
2.163246e+002, 2.309677e+002
2.168067e+002, 2.278467e+002
2.172889e+002, 2.245317e+002
2.177710e+002, 2.210595e+002
2.182531e+002, 2.171440e+002
2.187352e+002, 2.138993e+002
2.192173e+002, 2.115214e+002
2.196994e+002, 2.098459e+002
2.201816e+002, 2.083156e+002
2.206637e+002, 2.071511e+002
2.211458e+002, 2.057032e+002
2.216279e+002, 2.033849e+002
2.221100e+002, 1.994616e+002
2.225921e+002, 1.966109e+002
2.230743e+002, 1.953923e+002
2.235564e+002, 1.954222e+002
2.240385e+002, 1.948214e+002
2.245206e+002, 1.933605e+002
2.250027e+002, 1.916689e+002
2.254848e+002, 1.901288e+002
2.259670e+002, 1.888416e+002
2.264491e+002, 1.874843e+002
2.269312e+002, 1.859248e+002
2.274133e+002, 1.842685e+002
2.278954e+002, 1.829639e+002
2.283775e+002, 1.821633e+002
2.288597e+002, 1.815290e+002
2.293418e+002, 1.808901e+002
2.298239e+002, 1.802887e+002
2.303060e+002, 1.795779e+002
2.307881e+002, 1.786989e+002
2.312702e+002, 1.776913e+002
2.317524e+002, 1.768026e+002
2.322345e+002, 1.761412e+002
2.327166e+002, 1.754517e+002
2.331987e+002, 1.745748e+002
2.336808e+002, 1.733867e+002
2.341629e+002, 1.722814e+002
2.346451e+002, 1.712944e+002
2.351272e+002, 1.704024e+002
2.356093e+002, 1.694751e+002
2.360914e+002, 1.684249e+002
2.365735e+002, 1.674601e+002
2.370556e+002, 1.667348e+002
2.375378e+002, 1.664644e+002
2.380199e+002, 1.659606e+002
2.385020e+002, 1.650982e+002
2.389841e+002, 1.639757e+002
2.394662e+002, 1.629975e+002
2.399483e+002, 1.621159e+002
2.404305e+002, 1.614511e+002
2.409126e+002, 1.611562e+002
2.413947e+002, 1.617040e+002
2.418768e+002, 1.615369e+002
2.423589e+002, 1.601745e+002
2.428410e+002, 1.580795e+002
2.433232e+002, 1.569277e+002
2.438053e+002, 1.572503e+002
2.442874e+002, 1.577936e+002
2.447695e+002, 1.579449e+002
2.452516e+002, 1.576119e+002
2.457337e+002, 1.570519e+002
2.462159e+002, 1.560272e+002
2.466980e+002, 1.548039e+002
2.471801e+002, 1.543333e+002
2.476622e+002, 1.551171e+002
2.481443e+002, 1.558818e+002
2.486264e+002, 1.559591e+002
2.491086e+002, 1.549131e+002
2.495907e+002, 1.542415e+002
2.500728e+002, 1.541104e+002
2.505549e+002, 1.543285e+002
2.510370e+002, 1.543977e+002
2.515191e+002, 1.543029e+002
2.520013e+002, 1.540891e+002
2.524834e+002, 1.537717e+002
2.529655e+002, 1.533502e+002
2.534476e+002, 1.528227e+002
2.539297e+002, 1.520741e+002
2.544118e+002, 1.512745e+002
2.548940e+002, 1.508064e+002
2.553761e+002, 1.507980e+002
2.558582e+002, 1.508929e+002
2.563403e+002, 1.509515e+002
2.568224e+002, 1.509594e+002
2.573046e+002, 1.509504e+002
2.577867e+002, 1.508407e+002
2.582688e+002, 1.507614e+002
2.587509e+002, 1.510166e+002
2.592330e+002, 1.517813e+002
2.597151e+002, 1.525119e+002
2.601973e+002, 1.530103e+002
2.606794e+002, 1.532409e+002
2.611615e+002, 1.533405e+002
2.616436e+002, 1.532421e+002
2.621257e+002, 1.530718e+002
2.626078e+002, 1.530689e+002
2.630900e+002, 1.533360e+002
2.635721e+002, 1.535349e+002
2.640542e+002, 1.535364e+002
2.645363e+002, 1.533121e+002
2.650184e+002, 1.530960e+002
2.655005e+002, 1.528841e+002
2.659827e+002, 1.526869e+002
2.664648e+002, 1.525005e+002
2.669469e+002, 1.523001e+002
2.674290e+002, 1.521905e+002
2.679111e+002, 1.522244e+002
2.683932e+002, 1.524111e+002
2.688754e+002, 1.525928e+002
2.693575e+002, 1.528246e+002
2.698396e+002, 1.529611e+002
2.703217e+002, 1.527153e+002
2.708038e+002, 1.519217e+002
2.712859e+002, 1.513870e+002
2.717681e+002, 1.514157e+002
2.722502e+002, 1.519812e+002
2.727323e+002, 1.523797e+002
2.732144e+002, 1.525929e+002
2.736965e+002, 1.526590e+002
2.741786e+002, 1.525753e+002
2.746608e+002, 1.523037e+002
2.751429e+002, 1.520945e+002
2.756250e+002, 1.520512e+002
2.761071e+002, 1.521361e+002
2.765892e+002, 1.520063e+002
2.770714e+002, 1.515910e+002
2.775535e+002, 1.511709e+002
2.780356e+002, 1.510135e+002
2.785177e+002, 1.511355e+002
2.789998e+002, 1.513592e+002
2.794819e+002, 1.517185e+002
2.799641e+002, 1.521382e+002
2.804462e+002, 1.522573e+002
2.809283e+002, 1.520393e+002
2.814104e+002, 1.516752e+002
2.818925e+002, 1.512928e+002
2.823746e+002, 1.508926e+002
2.828568e+002, 1.504673e+002
2.833389e+002, 1.499510e+002
2.838210e+002, 1.494648e+002
2.843031e+002, 1.494219e+002
2.847852e+002, 1.498725e+002
2.852673e+002, 1.503751e+002
2.857495e+002, 1.506125e+002
2.862316e+002, 1.506070e+002
2.867137e+002, 1.506097e+002
2.871958e+002, 1.506491e+002
2.876779e+002, 1.507207e+002
2.881600e+002, 1.508167e+002
2.886422e+002, 1.509369e+002
2.891243e+002, 1.510742e+002
2.896064e+002, 1.512212e+002
2.900885e+002, 1.513771e+002
2.905706e+002, 1.515444e+002
2.910527e+002, 1.517273e+002
2.915349e+002, 1.519007e+002
2.920170e+002, 1.519625e+002
2.924991e+002, 1.519294e+002
2.929812e+002, 1.520243e+002
2.934633e+002, 1.524416e+002
2.939454e+002, 1.530869e+002
2.944276e+002, 1.537064e+002
2.949097e+002, 1.543079e+002
2.953918e+002, 1.547644e+002
2.958739e+002, 1.548035e+002
2.963560e+002, 1.545079e+002
2.968381e+002, 1.542685e+002
2.973203e+002, 1.541903e+002
2.978024e+002, 1.543112e+002
2.982845e+002, 1.548456e+002
2.987666e+002, 1.558472e+002
2.992487e+002, 1.567829e+002
2.997308e+002, 1.569915e+002
3.002130e+002, 1.566883e+002
3.006951e+002, 1.564874e+002
3.011772e+002, 1.566539e+002
3.016593e+002, 1.570520e+002
3.021414e+002, 1.575775e+002
3.026235e+002, 1.582206e+002
3.031057e+002, 1.587691e+002
3.035878e+002, 1.589085e+002
3.040699e+002, 1.588372e+002
3.045520e+002, 1.589335e+002
3.050341e+002, 1.595095e+002
3.055162e+002, 1.601316e+002
3.059984e+002, 1.603163e+002
3.064805e+002, 1.601074e+002
3.069626e+002, 1.598150e+002
3.074447e+002, 1.593320e+002
3.079268e+002, 1.589902e+002
3.084089e+002, 1.592778e+002
3.088911e+002, 1.605779e+002
3.093732e+002, 1.621388e+002
3.098553e+002, 1.635225e+002
3.103374e+002, 1.647024e+002
3.108195e+002, 1.656116e+002
3.113016e+002, 1.660950e+002
3.117838e+002, 1.663358e+002
3.122659e+002, 1.664880e+002
3.127480e+002, 1.665615e+002
3.132301e+002, 1.665892e+002
3.137122e+002, 1.665478e+002
3.141943e+002, 1.664744e+002
3.146765e+002, 1.664492e+002
3.151586e+002, 1.664215e+002
3.156407e+002, 1.665134e+002
3.161228e+002, 1.668874e+002
3.166049e+002, 1.676685e+002
3.170870e+002, 1.682737e+002
3.175692e+002, 1.682241e+002
3.180513e+002, 1.678887e+002
3.185334e+002, 1.677836e+002
3.190155e+002, 1.683412e+002
3.194976e+002, 1.689364e+002
3.199797e+002, 1.692764e+002
3.204619e+002, 1.693204e+002
3.209440e+002, 1.693751e+002
3.214261e+002, 1.694426e+002
3.219082e+002, 1.695975e+002
3.223903e+002, 1.699107e+002
3.228724e+002, 1.706707e+002
3.233546e+002, 1.713105e+002
3.238367e+002, 1.717342e+002
3.243188e+002, 1.719345e+002
3.248009e+002, 1.718385e+002
3.252830e+002, 1.711258e+002
3.257651e+002, 1.703072e+002
3.262473e+002, 1.697157e+002
3.267294e+002, 1.693996e+002
3.272115e+002, 1.692978e+002
3.276936e+002, 1.695685e+002
3.281757e+002, 1.701133e+002
3.286578e+002, 1.704424e+002
3.291400e+002, 1.704707e+002
3.296221e+002, 1.703569e+002
3.301042e+002, 1.701524e+002
3.305863e+002, 1.696880e+002
3.310684e+002, 1.694162e+002
3.315505e+002, 1.694049e+002
3.320327e+002, 1.695714e+002
3.325148e+002, 1.697427e+002
3.329969e+002, 1.699524e+002
3.334790e+002, 1.701118e+002
3.339611e+002, 1.702107e+002
3.344432e+002, 1.702791e+002
3.349254e+002, 1.700964e+002
3.354075e+002, 1.694281e+002
3.358896e+002, 1.686995e+002
3.363717e+002, 1.685666e+002
3.368538e+002, 1.693098e+002
3.373359e+002, 1.699623e+002
3.378180e+002, 1.702066e+002
3.383001e+002, 1.700520e+002
3.387823e+002, 1.700869e+002
3.392644e+002, 1.702740e+002
3.397465e+002, 1.707277e+002
3.402286e+002, 1.717334e+002
3.407107e+002, 1.734508e+002
3.411928e+002, 1.747215e+002
3.416750e+002, 1.752061e+002
3.421571e+002, 1.751101e+002
3.426392e+002, 1.752016e+002
3.431213e+002, 1.755208e+002
3.436034e+002, 1.758277e+002
3.440855e+002, 1.757314e+002
3.445677e+002, 1.752751e+002
3.450498e+002, 1.756298e+002
3.455319e+002, 1.771187e+002
3.460140e+002, 1.791741e+002
3.464961e+002, 1.807612e+002
3.469782e+002, 1.818870e+002
3.474604e+002, 1.828619e+002
3.479425e+002, 1.837918e+002
3.484246e+002, 1.846994e+002
3.489067e+002, 1.856260e+002
3.493888e+002, 1.865691e+002
3.498709e+002, 1.875558e+002
3.503531e+002, 1.885868e+002
3.508352e+002, 1.896797e+002
3.513173e+002, 1.908961e+002
3.517994e+002, 1.924091e+002
3.522815e+002, 1.940217e+002
3.527636e+002, 1.952820e+002
3.532458e+002, 1.961889e+002
3.537279e+002, 1.973042e+002
3.542100e+002, 1.993263e+002
3.546921e+002, 2.018454e+002
3.551742e+002, 2.041387e+002
3.556563e+002, 2.058944e+002
3.561385e+002, 2.074578e+002
3.566206e+002, 2.090980e+002
3.571027e+002, 2.108236e+002
3.575848e+002, 2.126317e+002
3.580669e+002, 2.144717e+002
3.585490e+002, 2.164359e+002
3.590312e+002, 2.186099e+002
3.595133e+002, 2.210575e+002
3.599954e+002, 2.236687e+002
3.604775e+002, 2.265244e+002
3.609596e+002, 2.295164e+002
3.614417e+002, 2.323644e+002
3.619239e+002, 2.346644e+002
3.624060e+002, 2.370482e+002
3.628881e+002, 2.399382e+002
3.633702e+002, 2.434822e+002
3.638523e+002, 2.469738e+002
3.643344e+002, 2.498998e+002
3.648166e+002, 2.527522e+002
3.652987e+002, 2.561203e+002
3.657808e+002, 2.603051e+002
3.662629e+002, 2.647664e+002
3.667450e+002, 2.693638e+002
3.672271e+002, 2.740930e+002
3.677093e+002, 2.790475e+002
3.681914e+002, 2.842863e+002
3.686735e+002, 2.897199e+002
3.691556e+002, 2.953339e+002
3.696377e+002, 3.008799e+002
3.701198e+002, 3.067551e+002
3.706020e+002, 3.130382e+002
3.710841e+002, 3.196642e+002
3.715662e+002, 3.264367e+002
3.720483e+002, 3.332837e+002
3.725304e+002, 3.402551e+002
3.730125e+002, 3.473394e+002
3.734947e+002, 3.543434e+002
3.739768e+002, 3.618932e+002
3.744589e+002, 3.702079e+002
3.749410e+002, 3.789780e+002
3.754231e+002, 3.875467e+002
3.759052e+002, 3.957985e+002
3.763874e+002, 4.043688e+002
3.768695e+002, 4.134596e+002
3.773516e+002, 4.231755e+002
3.778337e+002, 4.325347e+002
3.783158e+002, 4.414915e+002
3.787979e+002, 4.505857e+002
3.792801e+002, 4.602758e+002
3.797622e+002, 4.706725e+002
3.802443e+002, 4.811922e+002
3.807264e+002, 4.919019e+002
3.812085e+002, 5.026623e+002
3.816906e+002, 5.131680e+002
3.821728e+002, 5.233676e+002
3.826549e+002, 5.336135e+002
3.831370e+002, 5.440253e+002
3.836191e+002, 5.546283e+002
3.841012e+002, 5.651921e+002
3.845833e+002, 5.758593e+002
3.850655e+002, 5.862795e+002
3.855476e+002, 5.956788e+002
3.860297e+002, 6.043743e+002
3.865118e+002, 6.130298e+002
3.869939e+002, 6.226647e+002
3.874760e+002, 6.322699e+002
3.879582e+002, 6.404595e+002
3.884403e+002, 6.472750e+002
3.889224e+002, 6.530358e+002
3.894045e+002, 6.575442e+002
3.898866e+002, 6.612455e+002
3.903687e+002, 6.648336e+002
3.908509e+002, 6.691008e+002
3.913330e+002, 6.726710e+002
3.918151e+002, 6.747885e+002
3.922972e+002, 6.754604e+002
3.927793e+002, 6.747677e+002
3.932614e+002, 6.723712e+002
3.937436e+002, 6.688807e+002
3.942257e+002, 6.647207e+002
3.947078e+002, 6.601640e+002
3.951899e+002, 6.544827e+002
3.956720e+002, 6.469494e+002
3.961541e+002, 6.381992e+002
3.966363e+002, 6.292574e+002
3.971184e+002, 6.212966e+002
3.976005e+002, 6.123154e+002
3.980826e+002, 6.014250e+002
3.985647e+002, 5.883972e+002
3.990468e+002, 5.750788e+002
3.995290e+002, 5.613511e+002
4.000111e+002, 5.475705e+002
4.004932e+002, 5.340098e+002
4.009753e+002, 5.209871e+002
4.014574e+002, 5.077258e+002
4.019395e+002, 4.942658e+002
4.024217e+002, 4.805773e+002
4.029038e+002, 4.666831e+002
4.033859e+002, 4.520769e+002
4.038680e+002, 4.380104e+002
4.043501e+002, 4.251409e+002
4.048322e+002, 4.139525e+002
4.053144e+002, 4.026314e+002
4.057965e+002, 3.911884e+002
4.062786e+002, 3.797564e+002
4.067607e+002, 3.685385e+002
4.072428e+002, 3.574742e+002
4.077249e+002, 3.468891e+002
4.082071e+002, 3.369006e+002
4.086892e+002, 3.275153e+002
4.091713e+002, 3.192513e+002
4.096534e+002, 3.121984e+002
4.101355e+002, 3.055529e+002
4.106176e+002, 2.984467e+002
4.110998e+002, 2.910047e+002
4.115819e+002, 2.841727e+002
4.120640e+002, 2.781939e+002
4.125461e+002, 2.727865e+002
4.130282e+002, 2.675076e+002
4.135103e+002, 2.623497e+002
4.139925e+002, 2.571618e+002
4.144746e+002, 2.514881e+002
4.149567e+002, 2.457854e+002
4.154388e+002, 2.409149e+002
4.159209e+002, 2.369490e+002
4.164030e+002, 2.333563e+002
4.168852e+002, 2.296089e+002
4.173673e+002, 2.259058e+002
4.178494e+002, 2.225563e+002
4.183315e+002, 2.199313e+002
4.188136e+002, 2.174638e+002
4.192957e+002, 2.146581e+002
4.197779e+002, 2.116171e+002
4.202600e+002, 2.088383e+002
4.207421e+002, 2.068639e+002
4.212242e+002, 2.050652e+002
4.217063e+002, 2.029947e+002
4.221884e+002, 2.002124e+002
4.226706e+002, 1.977710e+002
4.231527e+002, 1.961512e+002
4.236348e+002, 1.950030e+002
4.241169e+002, 1.936579e+002
4.245990e+002, 1.918194e+002
4.250811e+002, 1.899397e+002
4.255633e+002, 1.880759e+002
4.260454e+002, 1.861799e+002
4.265275e+002, 1.846224e+002
4.270096e+002, 1.834895e+002
4.274917e+002, 1.826053e+002
4.279738e+002, 1.818844e+002
4.284560e+002, 1.816284e+002
4.289381e+002, 1.808579e+002
4.294202e+002, 1.792005e+002
4.299023e+002, 1.770199e+002
4.303844e+002, 1.755596e+002
4.308665e+002, 1.750645e+002
4.313487e+002, 1.746203e+002
4.318308e+002, 1.736868e+002
4.323129e+002, 1.722292e+002
4.327950e+002, 1.711341e+002
4.332771e+002, 1.704839e+002
4.337592e+002, 1.700150e+002
4.342414e+002, 1.693420e+002
4.347235e+002, 1.684921e+002
4.352056e+002, 1.678108e+002
4.356877e+002, 1.675826e+002
4.361698e+002, 1.674754e+002
4.366519e+002, 1.665690e+002
4.371341e+002, 1.649160e+002
4.376162e+002, 1.634523e+002
4.380983e+002, 1.630083e+002
4.385804e+002, 1.631737e+002
4.390625e+002, 1.633062e+002
4.395446e+002, 1.633612e+002
4.400268e+002, 1.631637e+002
4.405089e+002, 1.622847e+002
4.409910e+002, 1.610416e+002
4.414731e+002, 1.600969e+002
4.419552e+002, 1.601307e+002
4.424373e+002, 1.602454e+002
4.429195e+002, 1.597509e+002
4.434016e+002, 1.586450e+002
4.438837e+002, 1.577143e+002
4.443658e+002, 1.572304e+002
4.448479e+002, 1.570770e+002
4.453300e+002, 1.571806e+002
4.458122e+002, 1.578896e+002
4.462943e+002, 1.583726e+002
4.467764e+002, 1.584844e+002
4.472585e+002, 1.582718e+002
4.477406e+002, 1.578545e+002
4.482227e+002, 1.567746e+002
4.487049e+002, 1.559611e+002
4.491870e+002, 1.558201e+002
4.496691e+002, 1.565581e+002
4.501512e+002, 1.567085e+002
4.506333e+002, 1.559714e+002
4.511154e+002, 1.549771e+002
4.515976e+002, 1.542887e+002
4.520797e+002, 1.539329e+002
4.525618e+002, 1.538628e+002
4.530439e+002, 1.542211e+002
4.535260e+002, 1.547872e+002
4.540081e+002, 1.548429e+002
4.544903e+002, 1.543250e+002
4.549724e+002, 1.537092e+002
4.554545e+002, 1.530951e+002
4.559366e+002, 1.525470e+002
4.564187e+002, 1.526447e+002
4.569008e+002, 1.535092e+002
4.573830e+002, 1.544402e+002
4.578651e+002, 1.543514e+002
4.583472e+002, 1.535946e+002
4.588293e+002, 1.533577e+002
4.593114e+002, 1.543880e+002
4.597935e+002, 1.557457e+002
4.602757e+002, 1.562475e+002
4.607578e+002, 1.560043e+002
4.612399e+002, 1.556050e+002
4.617220e+002, 1.551702e+002
4.622041e+002, 1.548843e+002
4.626862e+002, 1.550106e+002
4.631684e+002, 1.556899e+002
4.636505e+002, 1.563102e+002
4.641326e+002, 1.562778e+002
4.646147e+002, 1.560824e+002
4.650968e+002, 1.563616e+002
4.655789e+002, 1.578323e+002
4.660611e+002, 1.592641e+002
4.665432e+002, 1.603675e+002
4.670253e+002, 1.611338e+002
4.675074e+002, 1.616304e+002
4.679895e+002, 1.615161e+002
4.684716e+002, 1.614176e+002
4.689538e+002, 1.616490e+002
4.694359e+002, 1.624207e+002
4.699180e+002, 1.630442e+002
4.704001e+002, 1.634333e+002
4.708822e+002, 1.637365e+002
4.713643e+002, 1.641679e+002
4.718465e+002, 1.647250e+002
4.723286e+002, 1.654254e+002
4.728107e+002, 1.663562e+002
4.732928e+002, 1.674324e+002
4.737749e+002, 1.681564e+002
4.742570e+002, 1.684460e+002
4.747392e+002, 1.687898e+002
4.752213e+002, 1.695701e+002
4.757034e+002, 1.707405e+002
4.761855e+002, 1.720390e+002
4.766676e+002, 1.734905e+002
4.771497e+002, 1.748961e+002
4.776319e+002, 1.758653e+002
4.781140e+002, 1.765333e+002
4.785961e+002, 1.773245e+002
4.790782e+002, 1.785441e+002
4.795603e+002, 1.799103e+002
4.800424e+002, 1.811016e+002
4.805246e+002, 1.821384e+002
4.810067e+002, 1.831434e+002
4.814888e+002, 1.840596e+002
4.819709e+002, 1.850508e+002
4.824530e+002, 1.862467e+002
4.829352e+002, 1.876518e+002
4.834173e+002, 1.893096e+002
4.838994e+002, 1.913869e+002
4.843815e+002, 1.937009e+002
4.848636e+002, 1.959524e+002
4.853457e+002, 1.981248e+002
4.858279e+002, 2.001660e+002
4.863100e+002, 2.019312e+002
4.867921e+002, 2.034324e+002
4.872742e+002, 2.052819e+002
4.877563e+002, 2.077330e+002
4.882384e+002, 2.103035e+002
4.887206e+002, 2.126236e+002
4.892027e+002, 2.142717e+002
4.896848e+002, 2.168446e+002
4.901669e+002, 2.206574e+002
4.906490e+002, 2.250873e+002
4.911311e+002, 2.292140e+002
4.916133e+002, 2.329389e+002
4.920954e+002, 2.367824e+002
4.925775e+002, 2.408548e+002
4.930596e+002, 2.451804e+002
4.935417e+002, 2.500783e+002
4.940238e+002, 2.555361e+002
4.945060e+002, 2.608916e+002
4.949881e+002, 2.653152e+002
4.954702e+002, 2.692390e+002
4.959523e+002, 2.738469e+002
4.964344e+002, 2.792668e+002
4.969165e+002, 2.853530e+002
4.973987e+002, 2.923387e+002
4.978808e+002, 2.998744e+002
4.983629e+002, 3.071657e+002
4.988450e+002, 3.134706e+002
4.993271e+002, 3.197903e+002
4.998092e+002, 3.267014e+002
5.002914e+002, 3.342188e+002
5.007735e+002, 3.418013e+002
5.012556e+002, 3.491866e+002
5.017377e+002, 3.567957e+002
5.022198e+002, 3.649497e+002
5.027019e+002, 3.740937e+002
5.031841e+002, 3.829463e+002
5.036662e+002, 3.909536e+002
5.041483e+002, 3.987897e+002
5.046304e+002, 4.071737e+002
5.051125e+002, 4.165759e+002
5.055946e+002, 4.255924e+002
5.060768e+002, 4.340776e+002
5.065589e+002, 4.420438e+002
5.070410e+002, 4.496995e+002
5.075231e+002, 4.569750e+002
5.080052e+002, 4.640951e+002
5.084873e+002, 4.714045e+002
5.089695e+002, 4.788146e+002
5.094516e+002, 4.856253e+002
5.099337e+002, 4.918601e+002
5.104158e+002, 4.973556e+002
5.108979e+002, 5.018653e+002
5.113800e+002, 5.054769e+002
5.118622e+002, 5.084464e+002
5.123443e+002, 5.110040e+002
5.128264e+002, 5.127208e+002
5.133085e+002, 5.128553e+002
5.137906e+002, 5.116363e+002
5.142728e+002, 5.098782e+002
5.147549e+002, 5.082870e+002
5.152370e+002, 5.062031e+002
5.157191e+002, 5.029458e+002
5.162012e+002, 4.984168e+002
5.166833e+002, 4.934968e+002
5.171655e+002, 4.884931e+002
5.176476e+002, 4.833006e+002
5.181297e+002, 4.778325e+002
5.186118e+002, 4.722495e+002
5.190939e+002, 4.661720e+002
5.195760e+002, 4.592895e+002
5.200582e+002, 4.519048e+002
5.205403e+002, 4.445659e+002
5.210224e+002, 4.375666e+002
5.215045e+002, 4.302997e+002
5.219866e+002, 4.224082e+002
5.224688e+002, 4.138596e+002
5.229509e+002, 4.061652e+002
5.234330e+002, 3.994446e+002
5.239151e+002, 3.931720e+002
5.243972e+002, 3.870975e+002
5.248793e+002, 3.812554e+002
5.253615e+002, 3.748852e+002
5.258436e+002, 3.677332e+002
5.263257e+002, 3.604105e+002
5.268078e+002, 3.540125e+002
5.272899e+002, 3.483510e+002
5.277720e+002, 3.426341e+002
5.282542e+002, 3.364152e+002
5.287363e+002, 3.301580e+002
5.292184e+002, 3.242470e+002
5.297005e+002, 3.187673e+002
5.301826e+002, 3.138870e+002
5.306647e+002, 3.102353e+002
5.311469e+002, 3.069365e+002
5.316290e+002, 3.031004e+002
5.321111e+002, 2.984863e+002
5.325932e+002, 2.940605e+002
5.330753e+002, 2.904679e+002
5.335574e+002, 2.871373e+002
5.340396e+002, 2.835360e+002
5.345217e+002, 2.789994e+002
5.350038e+002, 2.748264e+002
5.354859e+002, 2.712552e+002
5.359680e+002, 2.681610e+002
5.364501e+002, 2.650943e+002
5.369323e+002, 2.619485e+002
5.374144e+002, 2.590231e+002
5.378965e+002, 2.565190e+002
5.383786e+002, 2.544576e+002
5.388607e+002, 2.522269e+002
5.393428e+002, 2.498392e+002
5.398250e+002, 2.472893e+002
5.403071e+002, 2.443208e+002
5.407892e+002, 2.410759e+002
5.412713e+002, 2.387206e+002
5.417534e+002, 2.376568e+002
5.422355e+002, 2.369570e+002
5.427177e+002, 2.352606e+002
5.431998e+002, 2.328231e+002
5.436819e+002, 2.305025e+002
5.441640e+002, 2.289057e+002
5.446461e+002, 2.274885e+002
5.451282e+002, 2.255977e+002
5.456104e+002, 2.233477e+002
5.460925e+002, 2.213974e+002
5.465746e+002, 2.202371e+002
5.470567e+002, 2.193950e+002
5.475388e+002, 2.185857e+002
5.480209e+002, 2.178113e+002
5.485031e+002, 2.169367e+002
5.489852e+002, 2.159993e+002
5.494673e+002, 2.149097e+002
5.499494e+002, 2.135489e+002
5.504315e+002, 2.114710e+002
5.509136e+002, 2.098296e+002
5.513958e+002, 2.088869e+002
5.518779e+002, 2.084145e+002
5.523600e+002, 2.077563e+002
5.528421e+002, 2.068663e+002
5.533242e+002, 2.059300e+002
5.538063e+002, 2.049575e+002
5.542885e+002, 2.039828e+002
5.547706e+002, 2.033567e+002
5.552527e+002, 2.031125e+002
5.557348e+002, 2.028719e+002
5.562169e+002, 2.023268e+002
5.566990e+002, 2.015327e+002
5.571812e+002, 2.005128e+002
5.576633e+002, 1.991577e+002
5.581454e+002, 1.980328e+002
5.586275e+002, 1.979441e+002
5.591096e+002, 1.984330e+002
5.595917e+002, 1.986881e+002
5.600739e+002, 1.981918e+002
5.605560e+002, 1.975638e+002
5.610381e+002, 1.969656e+002
5.615202e+002, 1.964562e+002
5.620023e+002, 1.962523e+002
5.624844e+002, 1.967240e+002
5.629666e+002, 1.972402e+002
5.634487e+002, 1.975259e+002
5.639308e+002, 1.975490e+002
5.644129e+002, 1.974602e+002
5.648950e+002, 1.971006e+002
5.653771e+002, 1.967994e+002
5.658593e+002, 1.968932e+002
5.663414e+002, 1.975307e+002
5.668235e+002, 1.978637e+002
5.673056e+002, 1.976687e+002
5.677877e+002, 1.973558e+002
5.682698e+002, 1.977622e+002
5.687520e+002, 1.988501e+002
5.692341e+002, 1.999110e+002
5.697162e+002, 2.006981e+002
5.701983e+002, 2.012895e+002
5.706804e+002, 2.018360e+002
5.711625e+002, 2.023331e+002
5.716447e+002, 2.027505e+002
5.721268e+002, 2.027945e+002
5.726089e+002, 2.029118e+002
5.730910e+002, 2.036432e+002
5.735731e+002, 2.051421e+002
5.740552e+002, 2.065610e+002
5.745374e+002, 2.074418e+002
5.750195e+002, 2.081097e+002
5.755016e+002, 2.088715e+002
5.759837e+002, 2.097628e+002
5.764658e+002, 2.107683e+002
5.769479e+002, 2.118818e+002
5.774301e+002, 2.131073e+002
5.779122e+002, 2.144833e+002
5.783943e+002, 2.161264e+002
5.788764e+002, 2.176916e+002
5.793585e+002, 2.190279e+002
5.798406e+002, 2.201900e+002
5.803228e+002, 2.216268e+002
5.808049e+002, 2.233810e+002
5.812870e+002, 2.251211e+002
5.817691e+002, 2.265034e+002
5.822512e+002, 2.276771e+002
5.827333e+002, 2.293136e+002
5.832155e+002, 2.314907e+002
5.836975e+002, 2.338365e+002
5.841796e+002, 2.362452e+002
5.846617e+002, 2.385795e+002
5.851439e+002, 2.405641e+002
5.856260e+002, 2.418244e+002
5.861081e+002, 2.432748e+002
5.865902e+002, 2.455530e+002
5.870723e+002, 2.484210e+002
5.875544e+002, 2.513655e+002
5.880366e+002, 2.543519e+002
5.885187e+002, 2.573409e+002
5.890008e+002, 2.602114e+002
5.894829e+002, 2.629933e+002
5.899650e+002, 2.661727e+002
5.904471e+002, 2.699966e+002
5.909293e+002, 2.738933e+002
5.914114e+002, 2.774455e+002
5.918935e+002, 2.805203e+002
5.923756e+002, 2.843858e+002
5.928577e+002, 2.892592e+002
5.933398e+002, 2.943582e+002
5.938220e+002, 2.988568e+002
5.943041e+002, 3.028477e+002
5.947862e+002, 3.070350e+002
5.952683e+002, 3.115453e+002
5.957504e+002, 3.163354e+002
5.962325e+002, 3.214223e+002
5.967147e+002, 3.268262e+002
5.971968e+002, 3.324930e+002
5.976789e+002, 3.384019e+002
5.981610e+002, 3.446313e+002
5.986431e+002, 3.513825e+002
5.991252e+002, 3.585483e+002
5.996074e+002, 3.657204e+002
6.000895e+002, 3.725790e+002
6.005716e+002, 3.796205e+002
6.010537e+002, 3.870651e+002
6.015358e+002, 3.948440e+002
6.020179e+002, 4.031620e+002
6.025001e+002, 4.121483e+002
6.029822e+002, 4.215733e+002
6.034643e+002, 4.312134e+002
6.039464e+002, 4.410467e+002
6.044285e+002, 4.514872e+002
6.049106e+002, 4.626390e+002
6.053928e+002, 4.744281e+002
6.058749e+002, 4.869332e+002
6.063570e+002, 5.002069e+002
6.068391e+002, 5.142003e+002
6.073212e+002, 5.290827e+002
6.078033e+002, 5.444041e+002
6.082855e+002, 5.592855e+002
6.087676e+002, 5.739750e+002
6.092497e+002, 5.899694e+002
6.097318e+002, 6.084354e+002
6.102139e+002, 6.281044e+002
6.106960e+002, 6.476569e+002
6.111782e+002, 6.670690e+002
6.116603e+002, 6.874865e+002
6.121424e+002, 7.097984e+002
6.126245e+002, 7.331182e+002
6.131066e+002, 7.567229e+002
6.135887e+002, 7.800412e+002
6.140709e+002, 8.054771e+002
6.145530e+002, 8.339044e+002
6.150351e+002, 8.639779e+002
6.155172e+002, 8.945058e+002
6.159993e+002, 9.254401e+002
6.164814e+002, 9.585443e+002
6.169636e+002, 9.945286e+002
6.174457e+002, 1.032004e+003
6.179278e+002, 1.068202e+003
6.184099e+002, 1.103479e+003
6.188920e+002, 1.141099e+003
6.193741e+002, 1.183291e+003
6.198563e+002, 1.228387e+003
6.203384e+002, 1.273417e+003
6.208205e+002, 1.318535e+003
6.213026e+002, 1.364582e+003
6.217847e+002, 1.411215e+003
6.222668e+002, 1.459780e+003
6.227490e+002, 1.510831e+003
6.232311e+002, 1.564911e+003
6.237132e+002, 1.618548e+003
6.241953e+002, 1.670264e+003
6.246774e+002, 1.721612e+003
6.251595e+002, 1.773703e+003
6.256417e+002, 1.826301e+003
6.261238e+002, 1.880469e+003
6.266059e+002, 1.936318e+003
6.270880e+002, 1.993000e+003
6.275701e+002, 2.049718e+003
6.280522e+002, 2.106790e+003
6.285344e+002, 2.161008e+003
6.290165e+002, 2.211310e+003
6.294986e+002, 2.259015e+003
6.299807e+002, 2.307143e+003
6.304628e+002, 2.355388e+003
6.309449e+002, 2.400762e+003
6.314271e+002, 2.442369e+003
6.319092e+002, 2.480465e+003
6.323913e+002, 2.515384e+003
6.328734e+002, 2.547161e+003
6.333555e+002, 2.575160e+003
6.338376e+002, 2.600366e+003
6.343198e+002, 2.620958e+003
6.348019e+002, 2.636038e+003
6.352840e+002, 2.645379e+003
6.357661e+002, 2.649844e+003
6.362482e+002, 2.650031e+003
6.367303e+002, 2.645187e+003
6.372125e+002, 2.634633e+003
6.376946e+002, 2.617789e+003
6.381767e+002, 2.596666e+003
6.386588e+002, 2.571315e+003
6.391409e+002, 2.541924e+003
6.396230e+002, 2.508915e+003
6.401052e+002, 2.472274e+003
6.405873e+002, 2.433081e+003
6.410694e+002, 2.391825e+003
6.415515e+002, 2.348441e+003
6.420336e+002, 2.303330e+003
6.425157e+002, 2.256754e+003
6.429979e+002, 2.208534e+003
6.434800e+002, 2.158907e+003
6.439621e+002, 2.107849e+003
6.444442e+002, 2.055240e+003
6.449263e+002, 2.001289e+003
6.454084e+002, 1.948164e+003
6.458906e+002, 1.897553e+003
6.463727e+002, 1.847570e+003
6.468548e+002, 1.797247e+003
6.473369e+002, 1.746680e+003
6.478190e+002, 1.696432e+003
6.483011e+002, 1.646910e+003
6.487833e+002, 1.597709e+003
6.492654e+002, 1.548813e+003
6.497475e+002, 1.499434e+003
6.502296e+002, 1.453031e+003
6.507117e+002, 1.409962e+003
6.511938e+002, 1.368631e+003
6.516760e+002, 1.327786e+003
6.521581e+002, 1.287411e+003
6.526402e+002, 1.248734e+003
6.531223e+002, 1.212098e+003
6.536044e+002, 1.177058e+003
6.540865e+002, 1.142634e+003
6.545687e+002, 1.108898e+003
6.550508e+002, 1.075851e+003
6.555329e+002, 1.042426e+003
6.560150e+002, 1.010315e+003
6.564971e+002, 9.802025e+002
6.569792e+002, 9.519698e+002
6.574614e+002, 9.247886e+002
6.579435e+002, 8.986866e+002
6.584256e+002, 8.734943e+002
6.589077e+002, 8.491340e+002
6.593898e+002, 8.256134e+002
6.598719e+002, 8.032473e+002
6.603541e+002, 7.821633e+002
6.608362e+002, 7.617249e+002
6.613183e+002, 7.411375e+002
6.618004e+002, 7.207733e+002
6.622825e+002, 7.008678e+002
6.627646e+002, 6.814113e+002
6.632468e+002, 6.629386e+002
6.637289e+002, 6.462300e+002
6.642110e+002, 6.306740e+002
6.646931e+002, 6.155020e+002
6.651752e+002, 6.005029e+002
6.656573e+002, 5.859075e+002
6.661395e+002, 5.715729e+002
6.666216e+002, 5.576622e+002
6.671037e+002, 5.443740e+002
6.675858e+002, 5.320706e+002
6.680679e+002, 5.199226e+002
6.685500e+002, 5.077915e+002
6.690322e+002, 4.958715e+002
6.695143e+002, 4.850092e+002
6.699964e+002, 4.753467e+002
6.704785e+002, 4.657392e+002
6.709606e+002, 4.557389e+002
6.714427e+002, 4.455811e+002
6.719249e+002, 4.361715e+002
6.724070e+002, 4.274071e+002
6.728891e+002, 4.187609e+002
6.733712e+002, 4.098797e+002
6.738533e+002, 4.010403e+002
6.743354e+002, 3.927096e+002
6.748176e+002, 3.848491e+002
6.752997e+002, 3.772635e+002
6.757818e+002, 3.699373e+002
6.762639e+002, 3.628900e+002
6.767460e+002, 3.560891e+002
6.772281e+002, 3.496451e+002
6.777103e+002, 3.435815e+002
6.781924e+002, 3.381476e+002
6.786745e+002, 3.328358e+002
6.791566e+002, 3.271125e+002
6.796387e+002, 3.207329e+002
6.801208e+002, 3.151151e+002
6.806030e+002, 3.104254e+002
6.810851e+002, 3.060898e+002
6.815672e+002, 3.011242e+002
6.820493e+002, 2.957462e+002
6.825314e+002, 2.907096e+002
6.830135e+002, 2.863235e+002
6.834957e+002, 2.821523e+002
6.839778e+002, 2.778751e+002
6.844599e+002, 2.734873e+002
6.849420e+002, 2.691488e+002
6.854241e+002, 2.646110e+002
6.859063e+002, 2.603554e+002
6.863884e+002, 2.565382e+002
6.868705e+002, 2.531283e+002
6.873526e+002, 2.499754e+002
6.878347e+002, 2.473143e+002
6.883168e+002, 2.444810e+002
6.887990e+002, 2.412753e+002
6.892811e+002, 2.377378e+002
6.897632e+002, 2.343447e+002
6.902453e+002, 2.310891e+002
6.907274e+002, 2.281040e+002
6.912095e+002, 2.255510e+002
6.916917e+002, 2.233569e+002
6.921738e+002, 2.213825e+002
6.926559e+002, 2.196301e+002
6.931380e+002, 2.176798e+002
6.936201e+002, 2.149818e+002
6.941022e+002, 2.120922e+002
6.945844e+002, 2.095546e+002
6.950665e+002, 2.075077e+002
6.955486e+002, 2.054266e+002
6.960307e+002, 2.030855e+002
6.965128e+002, 2.006698e+002
6.969949e+002, 1.982774e+002
6.974771e+002, 1.957594e+002
6.979592e+002, 1.936326e+002
6.984413e+002, 1.920965e+002
6.989234e+002, 1.907216e+002
6.994055e+002, 1.889239e+002
6.998876e+002, 1.866950e+002
7.003698e+002, 1.846660e+002
7.008519e+002, 1.829812e+002
7.013340e+002, 1.815025e+002
7.018161e+002, 1.801084e+002
7.022982e+002, 1.787776e+002
7.027803e+002, 1.774584e+002
7.032625e+002, 1.761982e+002
7.037446e+002, 1.748574e+002
7.042267e+002, 1.733069e+002
7.047088e+002, 1.716169e+002
7.051909e+002, 1.699483e+002
7.056730e+002, 1.682676e+002
7.061552e+002, 1.667206e+002
7.066373e+002, 1.653618e+002
7.071194e+002, 1.641595e+002
7.076015e+002, 1.629584e+002
7.080836e+002, 1.617267e+002
7.085657e+002, 1.606230e+002
7.090479e+002, 1.598441e+002
7.095300e+002, 1.592212e+002
7.100121e+002, 1.578700e+002
7.104942e+002, 1.558173e+002
7.109763e+002, 1.539007e+002
7.114584e+002, 1.528833e+002
7.119406e+002, 1.521963e+002
7.124227e+002, 1.510164e+002
7.129048e+002, 1.493188e+002
7.133869e+002, 1.478889e+002
7.138690e+002, 1.475071e+002
7.143511e+002, 1.472350e+002
7.148333e+002, 1.463758e+002
7.153154e+002, 1.445583e+002
7.157975e+002, 1.431934e+002
7.162796e+002, 1.425884e+002
7.167617e+002, 1.420632e+002
7.172438e+002, 1.410106e+002
7.177260e+002, 1.393735e+002
7.182081e+002, 1.379375e+002
7.186902e+002, 1.367669e+002
7.191723e+002, 1.357774e+002
7.196544e+002, 1.349552e+002
7.201365e+002, 1.342466e+002
7.206187e+002, 1.335137e+002
7.211008e+002, 1.327032e+002
7.215829e+002, 1.319074e+002
7.220650e+002, 1.311397e+002
7.225471e+002, 1.304386e+002
7.230292e+002, 1.298399e+002
7.235114e+002, 1.295302e+002
7.239935e+002, 1.291239e+002
7.244756e+002, 1.285699e+002
7.249577e+002, 1.278789e+002
7.254398e+002, 1.270066e+002
7.259219e+002, 1.258450e+002
7.264041e+002, 1.248409e+002
7.268862e+002, 1.240900e+002
7.273683e+002, 1.235511e+002
7.278504e+002, 1.232520e+002
7.283325e+002, 1.231477e+002
7.288146e+002, 1.229241e+002
7.292968e+002, 1.223149e+002
7.297789e+002, 1.216248e+002
7.302610e+002, 1.213708e+002
7.307431e+002, 1.213602e+002
7.312252e+002, 1.209538e+002
7.317073e+002, 1.192822e+002
7.321895e+002, 1.177321e+002
7.326716e+002, 1.170372e+002
7.331537e+002, 1.171490e+002
7.336358e+002, 1.169656e+002
7.341179e+002, 1.163914e+002
7.346000e+002, 1.156705e+002
7.350822e+002, 1.148293e+002
7.355643e+002, 1.139029e+002
7.360464e+002, 1.133032e+002
7.365285e+002, 1.130412e+002
7.370106e+002, 1.128986e+002
7.374927e+002, 1.127743e+002
7.379749e+002, 1.126467e+002
7.384570e+002, 1.125377e+002
7.389391e+002, 1.124408e+002
7.394212e+002, 1.121333e+002
7.399033e+002, 1.113119e+002
7.403854e+002, 1.103529e+002
7.408676e+002, 1.094737e+002
7.413497e+002, 1.086416e+002
7.418318e+002, 1.081489e+002
7.423139e+002, 1.081826e+002
7.427960e+002, 1.083428e+002
7.432781e+002, 1.083951e+002
7.437603e+002, 1.083492e+002
7.442424e+002, 1.080686e+002
7.447245e+002, 1.074873e+002
7.452066e+002, 1.069304e+002
7.456887e+002, 1.068742e+002
7.461708e+002, 1.070971e+002
7.466530e+002, 1.069676e+002
7.471351e+002, 1.063156e+002
7.476172e+002, 1.056550e+002
7.480993e+002, 1.053534e+002
7.485814e+002, 1.052571e+002
7.490635e+002, 1.052006e+002
7.495457e+002, 1.051660e+002
7.500278e+002, 1.051371e+002
7.505099e+002, 1.051364e+002
7.509920e+002, 1.051224e+002
7.514741e+002, 1.050256e+002
7.519562e+002, 1.048022e+002
7.524384e+002, 1.046817e+002
7.529205e+002, 1.047114e+002
7.534026e+002, 1.048156e+002
7.538847e+002, 1.049511e+002
7.543668e+002, 1.050723e+002
7.548489e+002, 1.049758e+002
7.553311e+002, 1.044780e+002
7.558132e+002, 1.039721e+002
7.562953e+002, 1.038351e+002
7.567774e+002, 1.039298e+002
7.572595e+002, 1.040179e+002
7.577416e+002, 1.041989e+002
7.582238e+002, 1.041611e+002
7.587059e+002, 1.035343e+002
7.591880e+002, 1.027158e+002
7.596701e+002, 1.026379e+002
7.601522e+002, 1.036444e+002
7.606343e+002, 1.042649e+002
7.611165e+002, 1.040410e+002
7.615986e+002, 1.033008e+002
7.620807e+002, 1.027259e+002
7.625628e+002, 1.023276e+002
7.630449e+002, 1.021745e+002
7.635270e+002, 1.025018e+002
7.640092e+002, 1.029064e+002
7.644913e+002, 1.029547e+002
7.649734e+002, 1.027592e+002
7.654555e+002, 1.026724e+002
7.659376e+002, 1.029198e+002
7.664197e+002, 1.031916e+002
7.669019e+002, 1.033857e+002
7.673840e+002, 1.035136e+002
7.678661e+002, 1.036326e+002
7.683482e+002, 1.037415e+002
7.688303e+002, 1.038413e+002
7.693124e+002, 1.039355e+002
7.697946e+002, 1.040180e+002
7.702767e+002, 1.040625e+002
7.707588e+002, 1.040725e+002
7.712409e+002, 1.040846e+002
7.717230e+002, 1.039845e+002
7.722051e+002, 1.039932e+002
7.726873e+002, 1.045207e+002
7.731694e+002, 1.054649e+002
7.736515e+002, 1.060415e+002
7.741336e+002, 1.055134e+002
7.746157e+002, 1.050132e+002
7.750978e+002, 1.050868e+002
7.755800e+002, 1.057100e+002
7.760621e+002, 1.061779e+002
7.765442e+002, 1.064917e+002
7.770263e+002, 1.066448e+002
7.775084e+002, 1.064735e+002
7.779905e+002, 1.061190e+002
7.784727e+002, 1.063827e+002
7.789548e+002, 1.072277e+002
7.794369e+002, 1.080057e+002
7.799190e+002, 1.082090e+002
7.804011e+002, 1.081472e+002
7.808832e+002, 1.080570e+002
7.813654e+002, 1.079616e+002
7.818475e+002, 1.080017e+002
7.823296e+002, 1.083914e+002
7.828117e+002, 1.087733e+002
7.832938e+002, 1.089300e+002
7.837759e+002, 1.088219e+002
7.842581e+002, 1.089417e+002
7.847402e+002, 1.092981e+002
7.852223e+002, 1.098585e+002
7.857044e+002, 1.108812e+002
7.861865e+002, 1.121156e+002
7.866686e+002, 1.124193e+002
7.871508e+002, 1.117744e+002
7.876329e+002, 1.111476e+002
7.881150e+002, 1.113858e+002
7.885971e+002, 1.119077e+002
7.890792e+002, 1.121483e+002
7.895613e+002, 1.120184e+002
7.900435e+002, 1.118933e+002
7.905256e+002, 1.118244e+002
7.910077e+002, 1.118151e+002
7.914898e+002, 1.118767e+002
7.919719e+002, 1.120187e+002
7.924540e+002, 1.121411e+002
7.929362e+002, 1.122334e+002
7.934183e+002, 1.123324e+002
7.939004e+002, 1.125030e+002
7.943825e+002, 1.127002e+002
7.948646e+002, 1.127828e+002
7.953467e+002, 1.127409e+002
7.958289e+002, 1.126652e+002
7.963110e+002, 1.126709e+002
7.967931e+002, 1.126427e+002
7.972752e+002, 1.124481e+002
7.977573e+002, 1.120031e+002
7.982394e+002, 1.117059e+002
7.987216e+002, 1.116586e+002
7.992037e+002, 1.117056e+002
7.996858e+002, 1.118009e+002
8.001679e+002, 1.119820e+002
8.006500e+002, 1.118681e+002
8.011321e+002, 1.114117e+002
8.016143e+002, 1.109544e+002
8.020964e+002, 1.109120e+002
8.025785e+002, 1.110590e+002
8.030606e+002, 1.109156e+002
8.035427e+002, 1.104085e+002
8.040248e+002, 1.099247e+002
8.045070e+002, 1.097073e+002
8.049891e+002, 1.095887e+002
8.054712e+002, 1.094530e+002
8.059533e+002, 1.092934e+002
8.064354e+002, 1.090702e+002
8.069175e+002, 1.087116e+002
8.073997e+002, 1.083925e+002
8.078818e+002, 1.082826e+002
8.083639e+002, 1.083757e+002
8.088460e+002, 1.083528e+002
8.093281e+002, 1.082013e+002
8.098102e+002, 1.079610e+002
8.102924e+002, 1.076632e+002
8.107745e+002, 1.073018e+002
8.112566e+002, 1.068093e+002
8.117387e+002, 1.061544e+002
8.122208e+002, 1.056627e+002
8.127029e+002, 1.056168e+002
8.131851e+002, 1.056744e+002
8.136672e+002, 1.056115e+002
8.141493e+002, 1.054207e+002
8.146314e+002, 1.050973e+002
8.151135e+002, 1.045726e+002
8.155956e+002, 1.040937e+002
8.160778e+002, 1.039322e+002
8.165599e+002, 1.040032e+002
8.170420e+002, 1.038916e+002
8.175241e+002, 1.035701e+002
8.180062e+002, 1.032572e+002
8.184883e+002, 1.031881e+002
8.189705e+002, 1.031651e+002
8.194526e+002, 1.029685e+002
8.199347e+002, 1.025395e+002
8.204168e+002, 1.021861e+002
8.208989e+002, 1.020024e+002
8.213810e+002, 1.018854e+002
8.218632e+002, 1.018095e+002
8.223453e+002, 1.017913e+002
8.228274e+002, 1.016537e+002
8.233095e+002, 1.013954e+002
8.237916e+002, 1.010529e+002
8.242737e+002, 1.006153e+002
8.247559e+002, 1.001324e+002
8.252380e+002, 9.967193e+001
8.257201e+002, 9.924715e+001
8.262022e+002, 9.894915e+001
8.266843e+002, 9.900349e+001
8.271664e+002, 9.907613e+001
8.276486e+002, 9.891982e+001
8.281307e+002, 9.846931e+001
8.286128e+002, 9.807358e+001
8.290949e+002, 9.767956e+001
8.295770e+002, 9.743044e+001
8.300591e+002, 9.748049e+001
8.305413e+002, 9.778596e+001
8.310234e+002, 9.787664e+001
8.315055e+002, 9.775243e+001
8.319876e+002, 9.745918e+001
8.324697e+002, 9.688958e+001
8.329518e+002, 9.625549e+001
8.334340e+002, 9.572434e+001
8.339161e+002, 9.531976e+001
8.343982e+002, 9.514257e+001
8.348803e+002, 9.546587e+001
8.353624e+002, 9.579897e+001
8.358445e+002, 9.601393e+001
8.363267e+002, 9.609910e+001
8.368088e+002, 9.558578e+001
8.372909e+002, 9.428223e+001
8.377730e+002, 9.328236e+001
8.382551e+002, 9.340041e+001
8.387372e+002, 9.419917e+001
8.392194e+002, 9.466096e+001
8.397015e+002, 9.480383e+001
8.401836e+002, 9.473021e+001
8.406657e+002, 9.435156e+001
8.411478e+002, 9.390697e+001
8.416299e+002, 9.348486e+001
8.421121e+002, 9.310779e+001
8.425942e+002, 9.292642e+001
8.430763e+002, 9.308254e+001
8.435584e+002, 9.316726e+001
8.440405e+002, 9.295897e+001
8.445226e+002, 9.261023e+001
8.450048e+002, 9.292037e+001
8.454869e+002, 9.382571e+001
8.459690e+002, 9.433791e+001
8.464511e+002, 9.314062e+001
8.469332e+002, 9.198811e+001
8.474153e+002, 9.346211e+001
8.478975e+002, 9.659655e+001
8.483796e+002, 9.865788e+001
8.488617e+002, 9.781985e+001
8.493438e+002, 9.678123e+001
8.498259e+002, 9.654073e+001
8.503080e+002, 9.659250e+001
8.507902e+002, 9.533537e+001
8.512723e+002, 9.243208e+001
8.517544e+002, 9.038790e+001
8.522365e+002, 9.014297e+001
8.527186e+002, 9.077436e+001
8.532007e+002, 9.075139e+001
8.536829e+002, 9.025738e+001
8.541650e+002, 8.979556e+001
8.546471e+002, 8.959003e+001
8.551292e+002, 8.942188e+001
8.556113e+002, 8.913924e+001
8.560934e+002, 8.883524e+001
8.565756e+002, 8.869673e+001
8.570577e+002, 8.891886e+001
8.575398e+002, 8.889544e+001
8.580219e+002, 8.849888e+001
8.585040e+002, 8.792384e+001
8.589861e+002, 8.743758e+001
8.594683e+002, 8.704299e+001
8.599504e+002, 8.678490e+001
8.604325e+002, 8.670158e+001
8.609146e+002, 8.667137e+001
8.613967e+002, 8.658784e+001
8.618788e+002, 8.649231e+001
8.623610e+002, 8.643819e+001
8.628431e+002, 8.648361e+001
8.633252e+002, 8.649010e+001
8.638073e+002, 8.644302e+001
8.642894e+002, 8.636002e+001
8.647715e+002, 8.629989e+001
8.652537e+002, 8.627654e+001
8.657358e+002, 8.595577e+001
8.662179e+002, 8.526804e+001
8.667000e+002, 8.457909e+001
8.671821e+002, 8.439054e+001
8.676642e+002, 8.438096e+001
8.681464e+002, 8.403045e+001
8.686285e+002, 8.319266e+001
8.691106e+002, 8.247787e+001
8.695927e+002, 8.201041e+001
8.700748e+002, 8.184185e+001
8.705569e+002, 8.206973e+001
8.710391e+002, 8.279453e+001
8.715212e+002, 8.319315e+001
8.720033e+002, 8.323119e+001
8.724854e+002, 8.305268e+001
8.729675e+002, 8.275565e+001
8.734496e+002, 8.232301e+001
8.739318e+002, 8.161744e+001
8.744139e+002, 8.067091e+001
8.748960e+002, 7.988931e+001
8.753781e+002, 7.960236e+001
8.758602e+002, 7.947657e+001
8.763423e+002, 7.935835e+001
8.768245e+002, 7.923440e+001
8.773066e+002, 7.904157e+001
8.777887e+002, 7.880086e+001
8.782708e+002, 7.844295e+001
8.787529e+002, 7.787814e+001
8.792350e+002, 7.720879e+001
8.797172e+002, 7.677457e+001
8.801993e+002, 7.655922e+001
8.806814e+002, 7.640809e+001
8.811635e+002, 7.639946e+001
8.816456e+002, 7.628039e+001
8.821277e+002, 7.570628e+001
8.826099e+002, 7.485780e+001
8.830920e+002, 7.427890e+001
8.835741e+002, 7.430681e+001
8.840562e+002, 7.427380e+001
8.845383e+002, 7.404057e+001
8.850204e+002, 7.370768e+001
8.855026e+002, 7.355591e+001
8.859847e+002, 7.356002e+001
8.864668e+002, 7.332956e+001
8.869489e+002, 7.265023e+001
8.874310e+002, 7.192772e+001
8.879131e+002, 7.160416e+001
8.883953e+002, 7.154229e+001
8.888774e+002, 7.153893e+001
8.893595e+002, 7.166784e+001
8.898416e+002, 7.165712e+001
8.903237e+002, 7.149663e+001
8.908058e+002, 7.116723e+001
8.912880e+002, 7.055095e+001
8.917701e+002, 6.960582e+001
8.922522e+002, 6.900072e+001
8.927343e+002, 6.882341e+001
8.932164e+002, 6.876768e+001
8.936985e+002, 6.850175e+001
8.941807e+002, 6.815853e+001
8.946628e+002, 6.797139e+001
8.951449e+002, 6.801670e+001
8.956270e+002, 6.791525e+001
8.961091e+002, 6.739075e+001
8.965912e+002, 6.679502e+001
8.970734e+002, 6.633482e+001
8.975555e+002, 6.602598e+001
8.980376e+002, 6.567898e+001
8.985197e+002, 6.527179e+001
8.990018e+002, 6.498221e+001
8.994839e+002, 6.503372e+001
8.999661e+002, 6.525242e+001
9.004482e+002, 6.536416e+001
9.009303e+002, 6.535482e+001
9.014124e+002, 6.518208e+001
9.018945e+002, 6.457280e+001
9.023766e+002, 6.404153e+001
9.028588e+002, 6.390541e+001
9.033409e+002, 6.407177e+001
9.038230e+002, 6.414462e+001
9.043051e+002, 6.416172e+001
9.047872e+002, 6.389091e+001
9.052693e+002, 6.308789e+001
9.057515e+002, 6.215153e+001
9.062336e+002, 6.198191e+001
9.067157e+002, 6.236275e+001
9.071978e+002, 6.266518e+001
9.076799e+002, 6.247882e+001
9.081620e+002, 6.234767e+001
9.086442e+002, 6.275294e+001
9.091263e+002, 6.328754e+001
9.096084e+002, 6.325311e+001
9.100905e+002, 6.236474e+001
9.105726e+002, 6.164965e+001
9.110547e+002, 6.119850e+001
9.115369e+002, 6.092462e+001
9.120190e+002, 6.076371e+001
9.125011e+002, 6.068222e+001
9.129832e+002, 6.059615e+001
9.134653e+002, 6.049796e+001
9.139474e+002, 6.034739e+001
9.144296e+002, 6.001173e+001
9.149117e+002, 5.968376e+001
9.153938e+002, 5.953624e+001
9.158759e+002, 5.960889e+001
9.163580e+002, 5.976414e+001
9.168401e+002, 6.009609e+001
9.173223e+002, 6.027510e+001
9.178044e+002, 5.996338e+001
9.182865e+002, 5.931342e+001
9.187686e+002, 5.886619e+001
9.192507e+002, 5.861718e+001
9.197328e+002, 5.846619e+001
9.202150e+002, 5.840692e+001
9.206971e+002, 5.837644e+001
9.211792e+002, 5.834668e+001
9.216613e+002, 5.831342e+001
9.221434e+002, 5.826796e+001
9.226255e+002, 5.824154e+001
9.231077e+002, 5.812766e+001
9.235898e+002, 5.787348e+001
9.240719e+002, 5.753668e+001
9.245540e+002, 5.720905e+001
9.250361e+002, 5.690407e+001
9.255182e+002, 5.667722e+001
9.260004e+002, 5.650113e+001
9.264825e+002, 5.648085e+001
9.269646e+002, 5.687476e+001
9.274467e+002, 5.739790e+001
9.279288e+002, 5.760650e+001
9.284109e+002, 5.738821e+001
9.288931e+002, 5.700680e+001
9.293752e+002, 5.637168e+001
9.298573e+002, 5.579267e+001
9.303394e+002, 5.569907e+001
9.308215e+002, 5.596032e+001
9.313036e+002, 5.610334e+001
9.317858e+002, 5.606897e+001
9.322679e+002, 5.599066e+001
9.327500e+002, 5.608893e+001
9.332321e+002, 5.608754e+001
9.337142e+002, 5.564611e+001
9.341964e+002, 5.463422e+001
9.346785e+002, 5.421087e+001
9.351606e+002, 5.458717e+001
9.356427e+002, 5.504770e+001
9.361248e+002, 5.524178e+001
9.366069e+002, 5.522656e+001
9.370891e+002, 5.517443e+001
9.375712e+002, 5.508093e+001
9.380533e+002, 5.492645e+001
9.385354e+002, 5.467300e+001
9.390175e+002, 5.438131e+001
9.394996e+002, 5.403318e+001
9.399818e+002, 5.367562e+001
9.404639e+002, 5.345092e+001
9.409460e+002, 5.341764e+001
9.414281e+002, 5.335402e+001
9.419102e+002, 5.318057e+001
9.423923e+002, 5.303952e+001
9.428745e+002, 5.325930e+001
9.433566e+002, 5.370209e+001
9.438387e+002, 5.396034e+001
9.443208e+002, 5.391453e+001
9.448029e+002, 5.374918e+001
9.452850e+002, 5.346711e+001
9.457672e+002, 5.317828e+001
9.462493e+002, 5.299987e+001
9.467314e+002, 5.297864e+001
9.472135e+002, 5.286449e+001
9.476956e+002, 5.261884e+001
9.481777e+002, 5.241433e+001
9.486599e+002, 5.242750e+001
9.491420e+002, 5.257396e+001
9.496241e+002, 5.266909e+001
9.501062e+002, 5.270736e+001
9.505883e+002, 5.269604e+001
9.510704e+002, 5.266235e+001
9.515526e+002, 5.255591e+001
9.520347e+002, 5.234655e+001
9.525168e+002, 5.204235e+001
9.529989e+002, 5.158693e+001
9.534810e+002, 5.086929e+001
9.539631e+002, 5.058509e+001
9.544453e+002, 5.110818e+001
9.549274e+002, 5.184677e+001
9.554095e+002, 5.166493e+001
9.558916e+002, 5.096899e+001
9.563737e+002, 5.066684e+001
9.568558e+002, 5.138033e+001
9.573380e+002, 5.188681e+001
9.578201e+002, 5.154988e+001
9.583022e+002, 5.096373e+001
9.587843e+002, 5.069768e+001
9.592664e+002, 5.083565e+001
9.597485e+002, 5.078837e+001
9.602307e+002, 5.051302e+001
9.607128e+002, 5.024575e+001
9.611949e+002, 5.020902e+001
9.616770e+002, 5.030467e+001
9.621591e+002, 5.042577e+001
9.626412e+002, 5.055924e+001
9.631234e+002, 5.063386e+001
9.636055e+002, 5.063816e+001
9.640876e+002, 5.055564e+001
9.645697e+002, 5.034609e+001
9.650518e+002, 5.005130e+001
9.655339e+002, 4.986906e+001
9.660161e+002, 4.979815e+001
9.664982e+002, 4.968064e+001
9.669803e+002, 4.939306e+001
9.674624e+002, 4.913448e+001
9.679445e+002, 4.922322e+001
9.684266e+002, 4.947401e+001
9.689088e+002, 4.957924e+001
9.693909e+002, 4.932191e+001
9.698730e+002, 4.910009e+001
9.703551e+002, 4.892199e+001
9.708372e+002, 4.880976e+001
9.713193e+002, 4.880879e+001
9.718015e+002, 4.890553e+001
9.722836e+002, 4.899281e+001
9.727657e+002, 4.906511e+001
9.732478e+002, 4.903343e+001
9.737299e+002, 4.865257e+001
9.742120e+002, 4.827093e+001
9.746942e+002, 4.824219e+001
9.751763e+002, 4.859380e+001
9.756584e+002, 4.876870e+001
9.761405e+002, 4.868326e+001
9.766226e+002, 4.855314e+001
9.771047e+002, 4.845640e+001
9.775869e+002, 4.836824e+001
9.780690e+002, 4.819299e+001
9.785511e+002, 4.796347e+001
9.790332e+002, 4.776001e+001
9.795153e+002, 4.713940e+001
9.799974e+002, 4.724715e+001
9.804796e+002, 4.974717e+001
9.809617e+002, 5.287414e+001
9.814438e+002, 5.411850e+001
9.819259e+002, 5.287230e+001
9.824080e+002, 5.130175e+001
9.828901e+002, 4.923999e+001
9.833723e+002, 4.785881e+001
9.838544e+002, 4.913279e+001
9.843365e+002, 5.164266e+001
9.848186e+002, 5.273320e+001
9.853007e+002, 5.219297e+001
9.857828e+002, 5.108165e+001
9.862650e+002, 4.901347e+001
9.867471e+002, 4.738451e+001
9.872292e+002, 4.695236e+001
9.877113e+002, 4.745618e+001
9.881934e+002, 4.747047e+001
9.886755e+002, 4.696688e+001
9.891577e+002, 4.666171e+001
9.896398e+002, 4.697860e+001
9.901219e+002, 4.737239e+001
9.906040e+002, 4.705333e+001
9.910861e+002, 4.638548e+001
9.915682e+002, 4.598684e+001
9.920504e+002, 4.624508e+001
9.925325e+002, 4.646370e+001
9.930146e+002, 4.660093e+001
9.934967e+002, 4.666430e+001
9.939788e+002, 4.664279e+001
9.944609e+002, 4.654737e+001
9.949431e+002, 4.647874e+001
9.954252e+002, 4.644192e+001
9.959073e+002, 4.638718e+001
9.963894e+002, 4.628819e+001
9.968715e+002, 4.614860e+001
9.973536e+002, 4.588767e+001
9.978358e+002, 4.554408e+001
9.983179e+002, 4.551487e+001
9.988000e+002, 4.597705e+001
9.992821e+002, 4.629769e+001
9.997642e+002, 4.626386e+001
1.000246e+003, 4.602987e+001
1.000728e+003, 4.592854e+001
1.001211e+003, 4.588169e+001
1.001693e+003, 4.565588e+001
1.002175e+003, 4.499654e+001
1.002657e+003, 4.455183e+001
1.003139e+003, 4.477584e+001
1.003621e+003, 4.523093e+001
1.004103e+003, 4.555799e+001
1.004585e+003, 4.578504e+001
1.005068e+003, 4.564660e+001
1.005550e+003, 4.510282e+001
1.006032e+003, 4.456726e+001
1.006514e+003, 4.434037e+001
1.006996e+003, 4.430540e+001
1.007478e+003, 4.430978e+001
1.007960e+003, 4.436417e+001
1.008442e+003, 4.455586e+001
1.008924e+003, 4.513681e+001
1.009407e+003, 4.555844e+001
1.009889e+003, 4.567366e+001
1.010371e+003, 4.560773e+001
1.010853e+003, 4.569721e+001
1.011335e+003, 4.587956e+001
1.011817e+003, 4.567583e+001
1.012299e+003, 4.487991e+001
1.012781e+003, 4.410594e+001
1.013263e+003, 4.381492e+001
1.013746e+003, 4.376551e+001
1.014228e+003, 4.372503e+001
1.014710e+003, 4.364970e+001
1.015192e+003, 4.375011e+001
1.015674e+003, 4.410799e+001
1.016156e+003, 4.437202e+001
1.016638e+003, 4.422211e+001
1.017120e+003, 4.388231e+001
1.017603e+003, 4.384277e+001
1.018085e+003, 4.404463e+001
1.018567e+003, 4.428320e+001
1.019049e+003, 4.462579e+001
1.019531e+003, 4.479093e+001
1.020013e+003, 4.460840e+001
1.020495e+003, 4.426394e+001
1.020977e+003, 4.399404e+001
1.021459e+003, 4.379754e+001
1.021942e+003, 4.371912e+001
1.022424e+003, 4.377488e+001
1.022906e+003, 4.386433e+001
1.023388e+003, 4.397927e+001
1.023870e+003, 4.402573e+001
1.024352e+003, 4.387260e+001
1.024834e+003, 4.349097e+001
1.025316e+003, 4.316728e+001
1.025799e+003, 4.287033e+001
1.026281e+003, 4.274168e+001
1.026763e+003, 4.288121e+001
1.027245e+003, 4.319214e+001
1.027727e+003, 4.344489e+001
1.028209e+003, 4.365576e+001
1.028691e+003, 4.388914e+001
1.029173e+003, 4.429593e+001
1.029656e+003, 4.452908e+001
1.030138e+003, 4.430809e+001
1.030620e+003, 4.389858e+001
1.031102e+003, 4.355717e+001
1.031584e+003, 4.326371e+001
1.032066e+003, 4.317733e+001
1.032548e+003, 4.331628e+001
1.033030e+003, 4.350444e+001
1.033512e+003, 4.367207e+001
1.033995e+003, 4.375507e+001
1.034477e+003, 4.358908e+001
1.034959e+003, 4.322813e+001
1.035441e+003, 4.303503e+001
1.035923e+003, 4.331895e+001
1.036405e+003, 4.342060e+001
1.036887e+003, 4.314551e+001
1.037369e+003, 4.269695e+001
1.037851e+003, 4.243428e+001
1.038334e+003, 4.234069e+001
1.038816e+003, 4.233081e+001
1.039298e+003, 4.238160e+001
1.039780e+003, 4.253819e+001
1.040262e+003, 4.307995e+001
1.040744e+003, 4.354285e+001
1.041226e+003, 4.348985e+001
1.041708e+003, 4.288245e+001
1.042191e+003, 4.253785e+001
1.042673e+003, 4.248232e+001
1.043155e+003, 4.242388e+001
1.043637e+003, 4.215950e+001
1.044119e+003, 4.183839e+001
1.044601e+003, 4.164499e+001
1.045083e+003, 4.155729e+001
1.045565e+003, 4.153167e+001
1.046047e+003, 4.152539e+001
1.046530e+003, 4.164915e+001
1.047012e+003, 4.201339e+001
1.047494e+003, 4.235449e+001
1.047976e+003, 4.233555e+001
1.048458e+003, 4.202633e+001
1.048940e+003, 4.174459e+001
1.049422e+003, 4.151495e+001
1.049904e+003, 4.134050e+001
1.050386e+003, 4.113859e+001
1.050869e+003, 4.106869e+001
1.051351e+003, 4.132044e+001
1.051833e+003, 4.179728e+001
1.052315e+003, 4.213470e+001
1.052797e+003, 4.232726e+001
1.053279e+003, 4.242326e+001
1.053761e+003, 4.244044e+001
1.054243e+003, 4.235981e+001
1.054726e+003, 4.203958e+001
1.055208e+003, 4.165752e+001
1.055690e+003, 4.149972e+001
1.056172e+003, 4.175890e+001
1.056654e+003, 4.177385e+001
1.057136e+003, 4.132595e+001
1.057618e+003, 4.094092e+001
1.058100e+003, 4.103188e+001
1.058583e+003, 4.142170e+001
1.059065e+003, 4.139471e+001
1.059547e+003, 4.101558e+001
1.060029e+003, 4.057985e+001
1.060511e+003, 4.003027e+001
1.060993e+003, 3.970757e+001
1.061475e+003, 4.000121e+001
1.061957e+003, 4.048433e+001
1.062439e+003, 4.050571e+001
1.062922e+003, 3.997370e+001
1.063404e+003, 3.989095e+001
1.063886e+003, 4.038630e+001
1.064368e+003, 4.084171e+001
1.064850e+003, 4.064201e+001
1.065332e+003, 4.017723e+001
1.065814e+003, 3.978650e+001
1.066296e+003, 3.950051e+001
1.066778e+003, 3.932008e+001
1.067261e+003, 3.935872e+001
1.067743e+003, 3.920533e+001
1.068225e+003, 3.865114e+001
1.068707e+003, 3.802583e+001
1.069189e+003, 3.799043e+001
1.069671e+003, 3.836374e+001
1.070153e+003, 3.872270e+001
1.070635e+003, 3.893519e+001
1.071118e+003, 3.923091e+001
1.071600e+003, 3.998524e+001
1.072082e+003, 4.055703e+001
1.072564e+003, 4.049856e+001
1.073046e+003, 3.987645e+001
1.073528e+003, 3.957130e+001
1.074010e+003, 3.955523e+001
1.074492e+003, 3.937577e+001
1.074974e+003, 3.853988e+001
1.075457e+003, 3.774419e+001
1.075939e+003, 3.752198e+001
1.076421e+003, 3.768681e+001
1.076903e+003, 3.795914e+001
1.077385e+003, 3.846784e+001
1.077867e+003, 3.855549e+001
1.078349e+003, 3.809970e+001
1.078831e+003, 3.762066e+001
1.079313e+003, 3.767247e+001
1.079796e+003, 3.796737e+001
1.080278e+003, 3.807922e+001
1.080760e+003, 3.800986e+001
1.081242e+003, 3.794010e+001
1.081724e+003, 3.800155e+001
1.082206e+003, 3.795022e+001
1.082688e+003, 3.768298e+001
1.083170e+003, 3.734818e+001
1.083652e+003, 3.723841e+001
1.084135e+003, 3.730051e+001
1.084617e+003, 3.732988e+001
1.085099e+003, 3.728011e+001
1.085581e+003, 3.726076e+001
1.086063e+003, 3.760773e+001
1.086545e+003, 3.773660e+001
1.087027e+003, 3.709370e+001
1.087509e+003, 3.582228e+001
1.087992e+003, 3.550224e+001
1.088474e+003, 3.614575e+001
1.088956e+003, 3.667553e+001
1.089438e+003, 3.656787e+001
1.089920e+003, 3.632027e+001
1.090402e+003, 3.644341e+001
1.090884e+003, 3.672298e+001
1.091366e+003, 3.684192e+001
1.091849e+003, 3.659130e+001
1.092331e+003, 3.670126e+001
1.092813e+003, 3.730873e+001
1.093295e+003, 3.781266e+001
1.093777e+003, 3.773202e+001
1.094259e+003, 3.726676e+001
1.094741e+003, 3.657131e+001
1.095223e+003, 3.579424e+001
1.095705e+003, 3.542944e+001
1.096188e+003, 3.609468e+001
1.096670e+003, 3.661180e+001
1.097152e+003, 3.679173e+001
1.097634e+003, 3.674647e+001
1.098116e+003, 3.652776e+001
1.098598e+003, 3.619783e+001
1.099080e+003, 3.607729e+001
1.099562e+003, 3.619214e+001
1.100044e+003, 3.634201e+001
1.100527e+003, 3.658495e+001
1.101009e+003, 3.663252e+001
1.101491e+003, 3.592919e+001
1.101973e+003, 3.497718e+001
1.102455e+003, 3.571490e+001
1.102937e+003, 3.816878e+001
1.103419e+003, 3.993031e+001
1.103901e+003, 4.041352e+001
1.104384e+003, 3.997566e+001
1.104866e+003, 3.818328e+001
1.105348e+003, 3.614416e+001
1.105830e+003, 3.498918e+001
1.106312e+003, 3.493498e+001
1.106794e+003, 3.507352e+001
1.107276e+003, 3.550423e+001
1.107758e+003, 3.570818e+001
1.108240e+003, 3.528646e+001
1.108723e+003, 3.470612e+001
1.109205e+003, 3.487460e+001
1.109687e+003, 3.539864e+001
1.110169e+003, 3.549731e+001
1.110651e+003, 3.445579e+001
1.111133e+003, 3.393701e+001
1.111615e+003, 3.425011e+001
1.112097e+003, 3.472643e+001
1.112579e+003, 3.487038e+001
1.113062e+003, 3.475616e+001
1.113544e+003, 3.457642e+001
1.114026e+003, 3.436212e+001
1.114508e+003, 3.425726e+001
1.114990e+003, 3.432124e+001
1.115472e+003, 3.453564e+001
1.115954e+003, 3.512287e+001
1.116436e+003, 3.565971e+001
1.116919e+003, 3.544097e+001
1.117401e+003, 3.454412e+001
1.117883e+003, 3.414114e+001
1.118365e+003, 3.433507e+001
1.118847e+003, 3.458202e+001
1.119329e+003, 3.442381e+001
1.119811e+003, 3.425271e+001
1.120293e+003, 3.439229e+001
1.120776e+003, 3.473533e+001
1.121258e+003, 3.492367e+001
1.121740e+003, 3.495961e+001
1.122222e+003, 3.477200e+001
1.122704e+003, 3.429240e+001
1.123186e+003, 3.381650e+001
1.123668e+003, 3.363616e+001
1.124150e+003, 3.361819e+001
1.124632e+003, 3.367439e+001
1.125115e+003, 3.380756e+001
1.125597e+003, 3.371249e+001
1.126079e+003, 3.330737e+001
1.126561e+003, 3.292418e+001
1.127043e+003, 3.263194e+001
1.127525e+003, 3.251979e+001
1.128007e+003, 3.294952e+001
1.128489e+003, 3.359260e+001
1.128971e+003, 3.386583e+001
1.129454e+003, 3.349897e+001
1.129936e+003, 3.306355e+001
1.130418e+003, 3.242769e+001
1.130900e+003, 3.210572e+001
1.131382e+003, 3.262234e+001
1.131864e+003, 3.360104e+001
1.132346e+003, 3.387357e+001
1.132828e+003, 3.360396e+001
1.133311e+003, 3.333328e+001
1.133793e+003, 3.341622e+001
1.134275e+003, 3.334788e+001
1.134757e+003, 3.282291e+001
1.135239e+003, 3.231014e+001
1.135721e+003, 3.234633e+001
1.136203e+003, 3.284153e+001
1.136685e+003, 3.294608e+001
1.137167e+003, 3.268373e+001
1.137650e+003, 3.256879e+001
1.138132e+003, 3.316419e+001
1.138614e+003, 3.370439e+001
1.139096e+003, 3.379005e+001
1.139578e+003, 3.359063e+001
1.140060e+003, 3.329783e+001
1.140542e+003, 3.290433e+001
1.141024e+003, 3.275272e+001
1.141506e+003, 3.289361e+001
1.141989e+003, 3.299941e+001
1.142471e+003, 3.266073e+001
1.142953e+003, 3.231743e+001
1.143435e+003, 3.237783e+001
1.143917e+003, 3.274989e+001
1.144399e+003, 3.292216e+001
1.144881e+003, 3.287617e+001
1.145363e+003, 3.271315e+001
1.145846e+003, 3.241675e+001
1.146328e+003, 3.218425e+001
1.146810e+003, 3.246403e+001
1.147292e+003, 3.277715e+001
1.147774e+003, 3.244981e+001
1.148256e+003, 3.133593e+001
1.148738e+003, 3.098516e+001
1.149220e+003, 3.164432e+001
1.149703e+003, 3.225513e+001
1.150185e+003, 3.245461e+001
1.150667e+003, 3.241284e+001
1.151149e+003, 3.221515e+001
1.151631e+003, 3.201410e+001
1.152113e+003, 3.211994e+001
1.152595e+003, 3.280506e+001
1.153077e+003, 3.297768e+001
1.153559e+003, 3.233766e+001
1.154042e+003, 3.176334e+001
1.154524e+003, 3.178902e+001
1.155006e+003, 3.212685e+001
1.155488e+003, 3.221973e+001
1.155970e+003, 3.209379e+001
1.156452e+003, 3.178966e+001
1.156934e+003, 3.102189e+001
1.157416e+003, 3.065543e+001
1.157898e+003, 3.092631e+001
1.158381e+003, 3.135251e+001
1.158863e+003, 3.155313e+001
1.159345e+003, 3.161036e+001
1.159827e+003, 3.195504e+001
1.160309e+003, 3.247829e+001
1.160791e+003, 3.273142e+001
1.161273e+003, 3.215556e+001
1.161755e+003, 3.175656e+001
1.162238e+003, 3.190269e+001
1.162720e+003, 3.219036e+001
1.163202e+003, 3.216750e+001
1.163684e+003, 3.189185e+001
1.164166e+003, 3.175931e+001
1.164648e+003, 3.177010e+001
1.165130e+003, 3.175503e+001
1.165612e+003, 3.149896e+001
1.166094e+003, 3.133720e+001
1.166577e+003, 3.148878e+001
1.167059e+003, 3.176700e+001
1.167541e+003, 3.187049e+001
1.168023e+003, 3.181761e+001
1.168505e+003, 3.184803e+001
1.168987e+003, 3.198762e+001
1.169469e+003, 3.208529e+001
1.169951e+003, 3.200919e+001
1.170433e+003, 3.188515e+001
1.170916e+003, 3.172878e+001
1.171398e+003, 3.159700e+001
1.171880e+003, 3.169730e+001
1.172362e+003, 3.202464e+001
1.172844e+003, 3.211657e+001
1.173326e+003, 3.185651e+001
1.173808e+003, 3.158431e+001
1.174290e+003, 3.166529e+001
1.174773e+003, 3.177860e+001
1.175255e+003, 3.161116e+001
1.175737e+003, 3.123260e+001
1.176219e+003, 3.104426e+001
1.176701e+003, 3.105265e+001
1.177183e+003, 3.109214e+001
1.177665e+003, 3.112475e+001
1.178147e+003, 3.115049e+001
1.178630e+003, 3.110354e+001
1.179112e+003, 3.109598e+001
1.179594e+003, 3.129614e+001
1.180076e+003, 3.170607e+001
1.180558e+003, 3.188765e+001
1.181040e+003, 3.181189e+001
1.181522e+003, 3.183133e+001
1.182004e+003, 3.217551e+001
1.182486e+003, 3.246474e+001
1.182969e+003, 3.216021e+001
1.183451e+003, 3.163533e+001
1.183933e+003, 3.134377e+001
1.184415e+003, 3.136015e+001
1.184897e+003, 3.144551e+001
1.185379e+003, 3.162931e+001
1.185861e+003, 3.167780e+001
1.186343e+003, 3.131320e+001
1.186825e+003, 3.096635e+001
1.187308e+003, 3.139416e+001
1.187790e+003, 3.209490e+001
1.188272e+003, 3.221101e+001
1.188754e+003, 3.127137e+001
1.189236e+003, 3.091766e+001
1.189718e+003, 3.127358e+001
1.190200e+003, 3.159045e+001
1.190682e+003, 3.117924e+001
1.191165e+003, 3.062800e+001
1.191647e+003, 3.082817e+001
1.192129e+003, 3.143607e+001
1.192611e+003, 3.174119e+001
1.193093e+003, 3.136407e+001
1.193575e+003, 3.131434e+001
1.194057e+003, 3.170843e+001
1.194539e+003, 3.200859e+001
1.195021e+003, 3.163517e+001
1.195504e+003, 3.102765e+001
1.195986e+003, 3.077137e+001
1.196468e+003, 3.078809e+001
1.196950e+003, 3.083599e+001
1.197432e+003, 3.095435e+001
1.197914e+003, 3.087401e+001
1.198396e+003, 3.050503e+001
1.198878e+003, 3.020289e+001
1.199360e+003, 3.042776e+001
1.199843e+003, 3.085420e+001
1.200325e+003, 3.101659e+001
1.200807e+003, 3.095245e+001
1.201289e+003, 3.088915e+001
1.201771e+003, 3.091464e+001
1.202253e+003, 3.080768e+001
1.202735e+003, 3.048445e+001
1.203217e+003, 3.022065e+001
1.203700e+003, 3.042255e+001
1.204182e+003, 3.081865e+001
1.204664e+003, 3.105188e+001
1.205146e+003, 3.110451e+001
1.205628e+003, 3.102826e+001
1.206110e+003, 3.065725e+001
1.206592e+003, 3.061698e+001
1.207074e+003, 3.113180e+001
1.207557e+003, 3.163276e+001
1.208039e+003, 3.117206e+001
1.208521e+003, 3.037230e+001
1.209003e+003, 3.019977e+001
1.209485e+003, 3.069461e+001
1.209967e+003, 3.104229e+001
1.210449e+003, 3.107827e+001
1.210931e+003, 3.112714e+001
1.211413e+003, 3.129911e+001
1.211896e+003, 3.139474e+001
1.212378e+003, 3.098696e+001
1.212860e+003, 3.041558e+001
1.213342e+003, 3.022024e+001
1.213824e+003, 3.045993e+001
1.214306e+003, 3.062756e+001
1.214788e+003, 3.062464e+001
1.215270e+003, 3.068246e+001
1.215752e+003, 3.090299e+001
1.216235e+003, 3.110613e+001
1.216717e+003, 3.090704e+001
1.217199e+003, 3.058761e+001
1.217681e+003, 3.066586e+001
1.218163e+003, 3.126093e+001
1.218645e+003, 3.131527e+001
1.219127e+003, 3.051509e+001
1.219609e+003, 2.993682e+001
1.220092e+003, 2.993325e+001
1.220574e+003, 3.027351e+001
1.221056e+003, 3.086675e+001
1.221538e+003, 3.145424e+001
1.222020e+003, 3.160282e+001
1.222502e+003, 3.116586e+001
1.222984e+003, 3.090772e+001
1.223466e+003, 3.091652e+001
1.223948e+003, 3.090185e+001
1.224431e+003, 3.071646e+001
1.224913e+003, 3.054045e+001
1.225395e+003, 3.072415e+001
1.225877e+003, 3.104210e+001
1.226359e+003, 3.118625e+001
1.226841e+003, 3.107466e+001
1.227323e+003, 3.087893e+001
1.227805e+003, 3.055871e+001
1.228287e+003, 3.033093e+001
1.228770e+003, 3.029965e+001
1.229252e+003, 3.038030e+001
1.229734e+003, 3.045832e+001
1.230216e+003, 3.057421e+001
1.230698e+003, 3.081273e+001
1.231180e+003, 3.123771e+001
1.231662e+003, 3.149187e+001
1.232144e+003, 3.155784e+001
1.232627e+003, 3.152829e+001
1.233109e+003, 3.126205e+001
1.233591e+003, 3.123261e+001
1.234073e+003, 3.273175e+001
1.234555e+003, 3.445415e+001
1.235037e+003, 3.438072e+001
1.235519e+003, 3.193172e+001
1.236001e+003, 3.041375e+001
1.236484e+003, 2.989858e+001
1.236966e+003, 2.978583e+001
1.237448e+003, 2.988202e+001
1.237930e+003, 3.009654e+001
1.238412e+003, 3.046688e+001
1.238894e+003, 3.083467e+001
1.239376e+003, 3.094947e+001
1.239858e+003, 3.076890e+001
1.240340e+003, 3.063252e+001
1.240823e+003, 3.053847e+001
1.241305e+003, 3.057492e+001
1.241787e+003, 3.095543e+001
1.242269e+003, 3.124664e+001
1.242751e+003, 3.088692e+001
1.243233e+003, 3.033276e+001
1.243715e+003, 3.019058e+001
1.244197e+003, 3.052484e+001
1.244679e+003, 3.069047e+001
1.245162e+003, 3.068996e+001
1.245644e+003, 3.057575e+001
1.246126e+003, 3.019807e+001
1.246608e+003, 2.995312e+001
1.247090e+003, 3.038404e+001
1.247572e+003, 3.089920e+001
1.248054e+003, 3.075820e+001
1.248536e+003, 2.992250e+001
1.249019e+003, 2.953850e+001
1.249501e+003, 2.958346e+001
1.249983e+003, 2.980940e+001
1.250465e+003, 3.030299e+001
1.250947e+003, 3.066312e+001
1.251429e+003, 3.053269e+001
1.251911e+003, 3.028459e+001
1.252393e+003, 3.025747e+001
1.252875e+003, 3.044027e+001
1.253358e+003, 3.069425e+001
1.253840e+003, 3.099312e+001
1.254322e+003, 3.117372e+001
1.254804e+003, 3.112430e+001
1.255286e+003, 3.096812e+001
1.255768e+003, 3.060816e+001
1.256250e+003, 3.030332e+001
1.256732e+003, 3.035004e+001
1.257214e+003, 3.066498e+001
1.257697e+003, 3.071088e+001
1.258179e+003, 3.053881e+001
1.258661e+003, 3.039239e+001
1.259143e+003, 3.034581e+001
1.259625e+003, 3.040782e+001
1.260107e+003, 3.068993e+001
1.260589e+003, 3.089715e+001
1.261071e+003, 3.062197e+001
1.261554e+003, 3.010441e+001
1.262036e+003, 3.021302e+001
1.262518e+003, 3.077236e+001
1.263000e+003, 3.116974e+001
1.263482e+003, 3.119350e+001
1.263964e+003, 3.093396e+001
1.264446e+003, 3.020502e+001
1.264928e+003, 2.966647e+001
1.265411e+003, 3.013510e+001
1.265893e+003, 3.103362e+001
1.266375e+003, 3.128755e+001
1.266857e+003, 3.103190e+001
1.267339e+003, 3.064970e+001
1.267821e+003, 2.987226e+001
1.268303e+003, 2.975943e+001
1.268785e+003, 3.052015e+001
1.269267e+003, 3.123691e+001
1.269750e+003, 3.099688e+001
1.270232e+003, 3.043330e+001
1.270714e+003, 3.034376e+001
1.271196e+003, 3.058291e+001
1.271678e+003, 3.081410e+001
1.272160e+003, 3.104690e+001
1.272642e+003, 3.110796e+001
1.273124e+003, 3.097820e+001
1.273606e+003, 3.079617e+001
1.274089e+003, 3.059064e+001
1.274571e+003, 3.044514e+001
1.275053e+003, 3.051292e+001
1.275535e+003, 3.066231e+001
1.276017e+003, 3.066687e+001
1.276499e+003, 3.051127e+001
1.276981e+003, 3.022579e+001
1.277463e+003, 2.981625e+001
1.277946e+003, 2.956618e+001
1.278428e+003, 2.977531e+001
1.278910e+003, 3.007897e+001
1.279392e+003, 3.036184e+001
1.279874e+003, 3.053642e+001
1.280356e+003, 3.048338e+001
1.280838e+003, 3.020939e+001
1.281320e+003, 2.993155e+001
1.281802e+003, 2.965829e+001
1.282285e+003, 2.941738e+001
1.282767e+003, 2.913973e+001
1.283249e+003, 2.900830e+001
1.283731e+003, 2.918021e+001
1.284213e+003, 2.942314e+001
1.284695e+003, 2.957341e+001
1.285177e+003, 2.962307e+001
1.285659e+003, 2.939127e+001
1.286141e+003, 2.899619e+001
1.286624e+003, 2.892371e+001
1.287106e+003, 2.993109e+001
1.287588e+003, 3.041529e+001
1.288070e+003, 3.002627e+001
1.288552e+003, 2.942801e+001
1.289034e+003, 2.908498e+001
1.289516e+003, 2.896807e+001
1.289998e+003, 2.907804e+001
1.290481e+003, 2.935336e+001
1.290963e+003, 2.964117e+001
1.291445e+003, 2.999777e+001
1.291927e+003, 3.016562e+001
1.292409e+003, 3.011842e+001
1.292891e+003, 2.998246e+001
1.293373e+003, 2.977733e+001
1.293855e+003, 2.959299e+001
1.294338e+003, 2.957845e+001
1.294820e+003, 2.965801e+001
1.295302e+003, 2.967549e+001
1.295784e+003, 2.956504e+001
1.296266e+003, 2.964140e+001
1.296748e+003, 2.991681e+001
1.297230e+003, 3.015884e+001
1.297712e+003, 3.024230e+001
1.298194e+003, 3.021724e+001
1.298677e+003, 3.007326e+001
1.299159e+003, 2.986850e+001
1.299641e+003, 2.966632e+001
1.300123e+003, 2.946388e+001
1.300605e+003, 2.935961e+001
1.301087e+003, 2.934037e+001
1.301569e+003, 2.928099e+001
1.302051e+003, 2.897909e+001
1.302533e+003, 2.884017e+001
1.303016e+003, 2.901023e+001
##END=



