##NAMES=Andorite VI
##RRUFFID=R100212
##IDEAL CHEMISTRY=Ag^1+^Pb^2+^Sb^3+^_3_S^2-^_6_
##LOCALITY=Felsobanya, Romania
##OWNER=RRUFF
##SOURCE=Mark N. Feinglos
##DESCRIPTION=Elogated crystals with striations, associated with wurtzite
##STATUS=The identification of this mineral is confirmed by single-crystal X-ray diffraction and chemical analysis.
##URL=rruff.info/R100212
##MEASURED CHEMISTRY=Ag_0.94_Pb_0.87_Cu_0.11_Fe_0.06_Mn_0.05_Bi_0.01_Sb_3.14_S_6_
184.6181, 67.18867
185.1003, 65.39965
185.5824, 62.03029
186.0645, 60.33190
186.5466, 61.83274
187.0287, 63.29615
187.5108, 64.42481
187.9930, 65.23427
188.4751, 65.82537
188.9572, 66.26341
189.4393, 66.48359
189.9214, 66.07858
190.4035, 63.96896
190.8857, 62.43476
191.3678, 62.02549
191.8499, 62.47623
192.3320, 63.43957
192.8141, 64.81991
193.2962, 66.45316
193.7784, 66.99559
194.2605, 65.66544
194.7426, 64.36427
195.2247, 63.73818
195.7068, 63.66463
196.1889, 63.74588
196.6711, 63.77269
197.1532, 63.75105
197.6353, 63.72634
198.1174, 63.44392
198.5995, 63.38225
199.0816, 64.03848
199.5638, 65.28881
200.0459, 66.28767
200.5280, 66.47167
201.0101, 66.03245
201.4922, 65.67083
201.9743, 65.39023
202.4565, 65.21114
202.9386, 65.30582
203.4207, 65.69176
203.9028, 65.71961
204.3849, 64.25311
204.8670, 62.50202
205.3492, 62.35841
205.8313, 64.84930
206.3134, 68.17495
206.7955, 70.18174
207.2776, 70.71944
207.7597, 70.62308
208.2419, 69.63110
208.7240, 68.43349
209.2061, 67.67436
209.6882, 67.53797
210.1703, 67.96597
210.6524, 69.02883
211.1346, 71.09946
211.6167, 72.81255
212.0988, 73.71375
212.5809, 74.10234
213.0630, 74.12219
213.5451, 73.76295
214.0273, 73.33009
214.5094, 73.60772
214.9915, 75.22292
215.4736, 76.41200
215.9557, 76.62247
216.4378, 76.40866
216.9200, 76.33867
217.4021, 76.66975
217.8842, 77.20882
218.3663, 77.35512
218.8484, 76.31877
219.3305, 76.08206
219.8127, 77.41890
220.2948, 79.37811
220.7769, 81.05991
221.2590, 82.05552
221.7411, 82.42638
222.2232, 82.33032
222.7054, 80.66753
223.1875, 79.88685
223.6696, 80.98988
224.1517, 82.74099
224.6338, 83.54722
225.1159, 82.69302
225.5980, 80.91325
226.0802, 80.34847
226.5623, 82.80576
227.0444, 84.34904
227.5265, 83.91071
228.0086, 82.62348
228.4907, 81.94381
228.9729, 82.49352
229.4550, 83.86500
229.9371, 85.03906
230.4192, 86.08345
230.9013, 86.85240
231.3834, 86.98113
231.8656, 86.89115
232.3477, 87.30999
232.8298, 88.58198
233.3119, 90.21341
233.7940, 91.11118
234.2761, 91.19084
234.7583, 90.98174
235.2404, 90.31424
235.7225, 89.48540
236.2046, 89.00279
236.6867, 89.03831
237.1688, 89.46857
237.6510, 90.34101
238.1331, 91.88686
238.6152, 92.68159
239.0973, 91.56327
239.5794, 89.39259
240.0615, 88.12031
240.5437, 88.49205
241.0258, 89.42770
241.5079, 89.49095
241.9900, 88.71941
242.4721, 87.81690
242.9542, 86.70809
243.4364, 85.67985
243.9185, 85.62843
244.4006, 87.11673
244.8827, 88.90657
245.3648, 89.64182
245.8469, 89.46567
246.3290, 89.36198
246.8112, 90.05632
247.2933, 91.21471
247.7754, 91.77433
248.2575, 91.37479
248.7396, 90.72079
249.2217, 90.34373
249.7039, 90.18364
250.1860, 90.05173
250.6681, 89.61551
251.1502, 89.08562
251.6323, 89.42278
252.1144, 91.42720
252.5966, 93.02528
253.0787, 92.36742
253.5608, 90.40414
254.0429, 89.32017
254.5250, 91.01785
255.0071, 94.59374
255.4893, 96.38864
255.9714, 95.25472
256.4535, 94.10971
256.9356, 94.52406
257.4177, 95.77602
257.8998, 96.66821
258.3820, 96.42769
258.8641, 95.40976
259.3462, 94.86227
259.8283, 94.94329
260.3104, 95.28419
260.7925, 95.90990
261.2747, 96.63277
261.7568, 97.26536
262.2389, 97.77788
262.7210, 98.03477
263.2031, 97.56717
263.6852, 95.84861
264.1674, 94.27876
264.6495, 93.12100
265.1316, 92.28325
265.6137, 91.71371
266.0958, 91.39938
266.5779, 91.25493
267.0601, 91.10794
267.5422, 91.07484
268.0243, 90.80701
268.5064, 90.28294
268.9885, 89.53574
269.4706, 88.50111
269.9528, 87.17118
270.4349, 85.77590
270.9170, 84.72922
271.3991, 84.02214
271.8812, 83.75307
272.3633, 83.75502
272.8455, 84.20858
273.3276, 85.76604
273.8097, 88.37681
274.2918, 90.77280
274.7739, 90.85237
275.2560, 87.16151
275.7382, 84.16653
276.2202, 81.71049
276.7024, 79.89236
277.1845, 78.98827
277.6666, 78.90913
278.1487, 79.11335
278.6308, 78.91567
279.1129, 78.08620
279.5951, 77.66520
280.0772, 78.39859
280.5593, 78.83575
281.0414, 77.94955
281.5235, 75.91656
282.0056, 73.76331
282.4878, 72.51237
282.9699, 72.33358
283.4520, 71.78428
283.9341, 70.41000
284.4162, 69.15706
284.8983, 68.73042
285.3805, 68.79910
285.8626, 68.33984
286.3447, 66.40962
286.8268, 63.06371
287.3089, 61.34553
287.7910, 62.77105
288.2732, 64.05528
288.7553, 64.34277
289.2374, 63.80311
289.7195, 62.82091
290.2016, 61.58987
290.6837, 60.18896
291.1659, 59.03481
291.6480, 57.66478
292.1301, 57.08453
292.6122, 57.91975
293.0943, 59.53413
293.5764, 61.21581
294.0586, 62.66909
294.5407, 63.70100
295.0228, 63.78615
295.5049, 61.27211
295.9870, 59.82277
296.4691, 60.10287
296.9513, 61.27919
297.4334, 62.83768
297.9155, 64.54807
298.3976, 65.74401
298.8797, 65.16980
299.3618, 60.82912
299.8440, 58.52884
300.3261, 59.51980
300.8082, 61.72696
301.2903, 63.67267
301.7724, 65.00938
302.2545, 66.02726
302.7367, 67.06876
303.2188, 68.17390
303.7009, 69.09405
304.1830, 69.68679
304.6651, 70.23225
305.1472, 71.08011
305.6294, 72.13052
306.1115, 72.80685
306.5936, 72.50648
307.0757, 71.14034
307.5578, 70.62914
308.0399, 71.49418
308.5221, 72.52669
309.0042, 73.44009
309.4863, 74.11405
309.9684, 74.29552
310.4505, 73.76506
310.9326, 72.64912
311.4148, 71.84638
311.8969, 71.25816
312.3790, 71.03096
312.8611, 71.44139
313.3432, 72.19538
313.8253, 72.82670
314.3075, 73.11802
314.7896, 73.19347
315.2717, 73.37051
315.7538, 73.76195
316.2359, 74.09388
316.7180, 74.53923
317.2001, 74.83013
317.6823, 74.54697
318.1644, 73.58659
318.6465, 72.41171
319.1286, 71.72392
319.6107, 71.82675
320.0928, 71.72817
320.5750, 71.10339
321.0571, 70.50412
321.5392, 70.54912
322.0213, 71.20481
322.5034, 71.75829
322.9855, 71.50526
323.4677, 70.34694
323.9498, 68.86819
324.4319, 66.51346
324.9140, 64.39462
325.3961, 63.08535
325.8782, 62.50060
326.3604, 62.33785
326.8425, 62.50151
327.3246, 62.88580
327.8067, 62.23510
328.2888, 59.19554
328.7709, 56.80540
329.2531, 56.10543
329.7352, 56.52444
330.2173, 57.35760
330.6994, 58.33297
331.1815, 59.02219
331.6636, 58.23976
332.1458, 53.86581
332.6279, 50.60646
333.1100, 49.24270
333.5921, 48.75159
334.0742, 48.29235
334.5563, 47.58871
335.0385, 46.57840
335.5206, 45.10698
336.0027, 42.69971
336.4848, 41.10271
336.9669, 40.67401
337.4490, 40.66119
337.9312, 41.02891
338.4133, 41.49269
338.8954, 41.12620
339.3775, 38.83758
339.8596, 34.30959
340.3417, 31.83747
340.8239, 32.81773
341.3060, 34.09655
341.7881, 34.76436
342.2702, 34.87248
342.7523, 34.74446
343.2344, 34.58581
343.7166, 34.33905
344.1987, 33.72189
344.6808, 32.41362
345.1629, 31.06314
345.6450, 29.31236
346.1271, 27.72428
346.6093, 27.21754
347.0914, 28.06890
347.5735, 29.30325
348.0556, 28.94528
348.5377, 25.40260
349.0198, 23.14722
349.5020, 22.69979
349.9841, 22.95398
350.4662, 23.35620
350.9483, 23.73938
351.4304, 24.07793
351.9125, 24.36666
352.3947, 24.64055
352.8768, 24.62267
353.3589, 24.33691
353.8410, 23.74257
354.3231, 22.42200
354.8052, 20.78318
355.2874, 19.66824
355.7695, 19.73210
356.2516, 20.71237
356.7337, 21.07631
357.2158, 20.06347
357.6979, 19.46327
358.1800, 20.03123
358.6621, 20.96604
359.1443, 21.28304
359.6264, 20.60958
360.1085, 19.55697
360.5906, 19.27049
361.0727, 20.09427
361.5548, 20.79791
362.0370, 21.62555
362.5191, 22.03230
363.0012, 21.33660
363.4833, 19.66041
363.9654, 18.03516
364.4475, 17.56215
364.9297, 18.31256
365.4118, 19.04335
365.8939, 20.05861
366.3760, 20.68433
366.8581, 20.40066
367.3402, 19.55123
367.8224, 18.82328
368.3045, 18.60965
368.7866, 18.80211
369.2687, 19.25736
369.7508, 20.48168
370.2329, 20.79171
370.7151, 18.29182
371.1972, 15.30235
371.6793, 14.40448
372.1614, 16.53386
372.6435, 19.41889
373.1256, 20.08126
373.6078, 18.33565
374.0899, 17.05911
374.5720, 17.23173
375.0541, 17.73400
375.5362, 17.78057
376.0183, 17.36638
376.5005, 16.80020
376.9826, 15.98310
377.4647, 15.13237
377.9468, 15.24016
378.4289, 16.88386
378.9110, 18.33121
379.3932, 18.06067
379.8753, 16.80189
380.3574, 15.93335
380.8395, 16.21108
381.3216, 16.76299
381.8037, 16.27130
382.2859, 14.70237
382.7680, 13.70259
383.2501, 14.26608
383.7322, 15.66832
384.2143, 16.71960
384.6964, 17.35952
385.1786, 17.76707
385.6607, 18.11276
386.1428, 18.30054
386.6249, 17.91361
387.1070, 16.64756
387.5891, 15.38324
388.0713, 15.42067
388.5534, 16.62114
389.0355, 17.39016
389.5176, 17.28934
389.9997, 16.68422
390.4818, 15.66713
390.9640, 14.30994
391.4461, 13.32734
391.9282, 13.19275
392.4103, 13.87305
392.8924, 14.93643
393.3745, 17.30614
393.8567, 19.02470
394.3388, 18.97290
394.8209, 17.76549
395.3030, 16.49120
395.7851, 15.50944
396.2672, 14.84807
396.7494, 14.61776
397.2315, 15.21105
397.7136, 15.27468
398.1957, 13.71499
398.6778, 12.29742
399.1599, 12.94980
399.6420, 15.56495
400.1241, 18.15626
400.6063, 18.91736
401.0884, 17.78862
401.5705, 16.91656
402.0526, 16.33775
402.5347, 15.93112
403.0168, 15.69168
403.4990, 15.59400
403.9811, 15.59695
404.4632, 15.67951
404.9453, 15.87446
405.4274, 16.30815
405.9095, 17.46348
406.3917, 18.00373
406.8738, 17.52224
407.3559, 16.74948
407.8380, 16.23350
408.3201, 16.01381
408.8022, 15.73234
409.2844, 14.95834
409.7665, 13.64292
410.2486, 12.65913
410.7307, 11.74628
411.2128, 11.51964
411.6949, 12.78835
412.1771, 14.72858
412.6592, 16.03983
413.1413, 16.04699
413.6234, 15.19858
414.1055, 14.33136
414.5876, 13.28458
415.0698, 12.70712
415.5519, 13.48955
416.0340, 14.30242
416.5161, 13.79959
416.9982, 11.95975
417.4803, 10.67688
417.9625, 12.29915
418.4446, 16.23654
418.9267, 18.32255
419.4088, 17.60569
419.8909, 16.18734
420.3730, 15.20479
420.8552, 14.56072
421.3373, 14.10671
421.8194, 13.84958
422.3015, 13.70145
422.7836, 13.65545
423.2657, 13.70694
423.7479, 13.44350
424.2300, 12.36502
424.7121, 11.19813
425.1942, 11.06143
425.6763, 12.08540
426.1584, 13.39378
426.6406, 15.14129
427.1227, 16.78288
427.6048, 17.11542
428.0869, 15.85678
428.5690, 14.44146
429.0511, 14.20730
429.5333, 15.18502
430.0154, 15.92806
430.4975, 16.79479
430.9796, 17.08411
431.4617, 15.84855
431.9438, 13.69384
432.4260, 12.17285
432.9081, 12.04792
433.3902, 12.87855
433.8723, 13.65796
434.3544, 14.42719
434.8365, 15.06279
435.3187, 15.41842
435.8008, 15.73342
436.2829, 16.44545
436.7650, 17.44993
437.2471, 17.97159
437.7292, 17.17846
438.2114, 15.01783
438.6935, 13.52674
439.1756, 13.05225
439.6577, 12.87588
440.1398, 12.78612
440.6219, 12.92135
441.1040, 13.66537
441.5862, 15.17114
442.0683, 16.82606
442.5504, 17.39310
443.0325, 16.42051
443.5146, 15.75198
443.9967, 16.07469
444.4789, 16.29317
444.9610, 15.64172
445.4431, 14.30715
445.9252, 13.09028
446.4073, 12.47486
446.8894, 12.45148
447.3716, 13.23934
447.8537, 15.47433
448.3358, 16.92022
448.8179, 15.84948
449.3000, 13.79575
449.7821, 12.31029
450.2643, 11.72924
450.7464, 11.63771
451.2285, 11.79976
451.7106, 12.18116
452.1927, 12.61886
452.6748, 13.09790
453.1570, 13.58679
453.6391, 14.07413
454.1212, 14.55313
454.6033, 14.97022
455.0854, 15.54660
455.5675, 15.88159
456.0497, 15.40871
456.5318, 14.26336
457.0139, 13.22471
457.4960, 12.62522
457.9781, 12.46481
458.4602, 12.81002
458.9424, 13.80304
459.4245, 14.89444
459.9066, 16.66208
460.3887, 18.10300
460.8708, 17.83257
461.3529, 15.83040
461.8351, 13.55162
462.3172, 12.31277
462.7993, 12.14271
463.2814, 12.38872
463.7635, 13.50941
464.2456, 14.48938
464.7278, 15.46444
465.2099, 16.02125
465.6920, 15.23145
466.1741, 12.79650
466.6562, 10.11372
467.1383, 9.811312
467.6205, 13.03499
468.1026, 15.06278
468.5847, 14.58245
469.0668, 13.91181
469.5489, 14.27198
470.0310, 15.33121
470.5132, 15.98946
470.9953, 15.50520
471.4774, 14.23581
471.9595, 12.93648
472.4416, 11.43407
472.9237, 10.56309
473.4059, 11.42933
473.8880, 12.58342
474.3701, 12.47524
474.8522, 10.88534
475.3343, 9.545041
475.8164, 9.783566
476.2986, 11.08581
476.7807, 12.40005
477.2628, 13.74094
477.7449, 14.30326
478.2270, 12.72813
478.7091, 9.798141
479.1913, 8.794923
479.6734, 11.93067
480.1555, 14.74502
480.6376, 14.11080
481.1197, 11.57784
481.6018, 10.59808
482.0839, 12.35891
482.5660, 15.14794
483.0482, 16.67647
483.5303, 16.70793
484.0124, 16.03219
484.4945, 13.48307
484.9766, 11.36423
485.4587, 11.21342
485.9409, 12.50243
486.4230, 13.89472
486.9051, 14.67812
487.3872, 14.85356
487.8693, 14.31921
488.3514, 12.26902
488.8336, 11.03785
489.3157, 11.27780
489.7978, 11.87415
490.2799, 12.22320
490.7620, 12.22622
491.2441, 11.95738
491.7263, 11.38032
492.2084, 10.58602
492.6905, 10.00463
493.1726, 9.643022
493.6547, 9.482053
494.1368, 9.497997
494.6190, 9.721298
495.1011, 10.23340
495.5832, 11.06539
496.0653, 12.04186
496.5474, 13.36536
497.0295, 14.73650
497.5117, 15.03260
497.9938, 13.85835
498.4759, 12.58602
498.9580, 12.47823
499.4401, 13.28288
499.9222, 13.58136
500.4044, 12.97519
500.8865, 12.17092
501.3686, 11.14532
501.8507, 10.23125
502.3328, 10.25296
502.8149, 11.51956
503.2971, 13.24965
503.7792, 14.34509
504.2613, 14.63493
504.7434, 14.87603
505.2255, 15.49586
505.7076, 15.65743
506.1898, 14.27276
506.6719, 12.19730
507.1540, 11.31239
507.6361, 12.65825
508.1182, 15.14881
508.6003, 16.22793
509.0825, 15.40012
509.5646, 14.48777
510.0467, 13.21120
510.5288, 12.28296
511.0109, 12.35397
511.4930, 13.18781
511.9752, 13.92055
512.4573, 14.17976
512.9394, 13.87216
513.4215, 12.41280
513.9036, 9.479604
514.3857, 7.418048
514.8679, 7.407165
515.3500, 8.562369
515.8321, 9.866218
516.3142, 11.36871
516.7963, 12.36868
517.2784, 12.39975
517.7606, 11.83136
518.2427, 10.97347
518.7248, 9.899695
519.2069, 9.158834
519.6890, 9.189793
520.1711, 9.822892
520.6533, 10.21308
521.1354, 10.10779
521.6175, 10.13831
522.0996, 10.50301
522.5817, 10.99599
523.0638, 11.39682
523.5460, 11.67850
524.0281, 12.01311
524.5102, 12.64782
524.9923, 13.55410
525.4744, 13.62948
525.9565, 11.53145
526.4387, 10.38343
526.9208, 11.82406
527.4029, 13.94694
527.8850, 14.60433
528.3671, 13.30030
528.8492, 11.49048
529.3314, 10.39870
529.8135, 10.04263
530.2956, 10.89672
530.7777, 13.84854
531.2598, 16.21501
531.7419, 15.39737
532.2241, 13.08571
532.7062, 12.09264
533.1883, 13.57589
533.6704, 15.12278
534.1525, 14.83494
534.6346, 13.40612
535.1168, 12.50365
535.5989, 12.52977
536.0810, 12.83267
536.5631, 12.81334
537.0452, 12.45372
537.5273, 11.88663
538.0095, 10.35347
538.4916, 9.471866
538.9737, 10.56178
539.4558, 12.43713
539.9379, 13.17605
540.4200, 12.20857
540.9022, 10.72005
541.3843, 10.42831
541.8664, 11.63069
542.3485, 12.35491
542.8306, 12.66913
543.3127, 12.37085
543.7948, 10.73436
544.2769, 8.637406
544.7590, 7.436826
545.2411, 7.677066
545.7233, 8.544125
546.2054, 9.046862
546.6875, 9.224356
547.1696, 9.673295
547.6517, 10.63014
548.1339, 11.59260
548.6160, 12.10213
549.0981, 12.27571
549.5802, 12.41233
550.0623, 12.66243
550.5444, 12.78637
551.0266, 12.29081
551.5087, 11.57977
551.9908, 11.82408
552.4729, 13.42194
552.9550, 15.14338
553.4371, 15.41435
553.9193, 13.95093
554.4014, 12.70404
554.8835, 11.31814
555.3656, 10.50132
555.8477, 10.85440
556.3298, 11.82165
556.8120, 12.73100
557.2941, 13.31288
557.7762, 13.41386
558.2583, 12.56060
558.7404, 10.54865
559.2225, 9.317980
559.7047, 8.993757
560.1868, 9.438305
560.6689, 11.29154
561.1510, 13.60472
561.6331, 14.71855
562.1152, 13.92116
562.5974, 12.40584
563.0795, 10.83576
563.5616, 9.403895
564.0437, 9.000795
564.5258, 9.981555
565.0079, 11.15347
565.4901, 11.30430
565.9722, 10.51416
566.4543, 10.48211
566.9364, 12.23132
567.4185, 13.56491
567.9006, 13.57492
568.3828, 12.68869
568.8649, 11.19220
569.3470, 9.302704
569.8291, 7.829690
570.3112, 7.879988
570.7933, 9.583312
571.2755, 10.46331
571.7576, 9.944091
572.2397, 9.284244
572.7218, 8.493020
573.2039, 7.869239
573.6860, 7.856379
574.1682, 8.545252
574.6503, 9.298899
575.1324, 9.402631
575.6145, 9.036841
576.0966, 9.076413
576.5787, 9.693587
577.0609, 10.24379
577.5430, 10.29413
578.0251, 10.00797
578.5072, 9.826957
578.9893, 9.885762
579.4714, 9.764924
579.9536, 9.208904
580.4357, 8.435983
580.9178, 7.442349
581.3999, 6.372419
581.8820, 5.973555
582.3641, 6.897654
582.8463, 8.911819
583.3284, 10.71132
583.8105, 13.29599
584.2926, 14.11032
584.7747, 11.36445
585.2568, 8.090824
585.7390, 6.557371
586.2211, 6.824477
586.7032, 7.679664
587.1853, 8.441325
587.6674, 9.041624
588.1495, 9.033743
588.6317, 8.184202
589.1138, 8.320107
589.5959, 11.11147
590.0780, 14.10233
590.5601, 14.01945
591.0422, 10.92703
591.5244, 8.536251
592.0065, 8.316320
592.4886, 9.012532
592.9707, 9.720744
593.4528, 10.38585
593.9349, 11.10609
594.4171, 11.95209
594.8992, 12.63074
595.3813, 12.55508
595.8634, 11.24737
596.3455, 10.60928
596.8276, 11.34572
597.3098, 11.91548
597.7919, 11.48163
598.2740, 10.48616
598.7561, 9.785360
599.2382, 9.741418
599.7203, 9.809423
600.2025, 8.892712
600.6846, 7.048606
601.1667, 6.809942
601.6488, 9.324905
602.1309, 11.66047
602.6130, 11.26897
603.0952, 9.328541
603.5773, 8.165092
604.0594, 8.264683
604.5415, 8.802154
605.0236, 9.737955
605.5057, 10.69661
605.9879, 10.89744
606.4700, 10.30009
606.9521, 9.875136
607.4342, 10.53867
607.9163, 12.04556
608.3984, 12.51885
608.8806, 10.99943
609.3627, 9.722416
609.8448, 8.754274
610.3269, 8.178198
610.8090, 8.209200
611.2911, 8.736326
611.7733, 9.318439
612.2554, 9.711210
612.7375, 9.897635
613.2196, 9.829137
613.7017, 9.496647
614.1838, 8.933364
614.6660, 7.857959
615.1481, 6.905869
615.6302, 7.139172
616.1123, 8.452349
616.5944, 9.005555
617.0765, 7.484680
617.5587, 5.977660
618.0408, 6.058962
618.5229, 7.214156
619.0050, 8.225299
619.4871, 8.666970
619.9692, 8.979978
620.4514, 9.867419
620.9335, 11.54270
621.4156, 12.17120
621.8977, 10.57735
622.3798, 9.302794
622.8619, 9.153270
623.3441, 9.582786
623.8262, 10.10395
624.3083, 10.57795
624.7904, 10.69993
625.2725, 9.880322
625.7546, 8.543370
626.2367, 7.976775
626.7188, 8.309930
627.2009, 8.593393
627.6830, 8.216978
628.1652, 7.572566
628.6473, 7.688046
629.1294, 8.945977
629.6115, 9.606451
630.0936, 8.749054
630.5757, 7.782449
631.0579, 8.140651
631.5400, 9.259211
632.0221, 9.286987
632.5042, 7.244643
632.9863, 4.523981
633.4684, 3.827286
633.9506, 5.556212
634.4327, 7.366450
634.9148, 9.595517
635.3969, 11.28375
635.8790, 11.93765
636.3611, 11.79841
636.8433, 11.23717
637.3254, 10.28095
637.8075, 9.130405
638.2896, 7.420421
638.7717, 5.764789
639.2538, 5.709289
639.7360, 7.401109
640.2181, 8.924037
640.7002, 8.849359
641.1823, 7.613091
641.6644, 6.989973
642.1465, 7.503339
642.6287, 7.942152
643.1108, 8.444141
643.5929, 8.738681
644.0750, 8.406504
644.5571, 7.703653
645.0392, 7.416831
645.5214, 8.106671
646.0035, 9.013528
646.4856, 8.589313
646.9677, 6.842100
647.4498, 5.833382
647.9319, 6.109518
648.4141, 6.798635
648.8962, 7.088763
649.3783, 7.196839
649.8604, 7.973891
650.3425, 10.54856
650.8246, 12.35349
651.3068, 11.54299
651.7889, 9.840250
652.2710, 9.581193
652.7531, 10.89080
653.2352, 12.12325
653.7173, 11.97792
654.1995, 10.75444
654.6816, 9.639496
655.1637, 8.517258
655.6458, 7.791039
656.1279, 7.474475
656.6100, 7.640955
657.0922, 8.892666
657.5743, 10.75331
658.0564, 11.63481
658.5385, 10.44015
659.0206, 8.722939
659.5027, 7.731311
659.9849, 7.412282
660.4670, 7.867505
660.9491, 9.154645
661.4312, 10.16071
661.9133, 9.738399
662.3954, 8.031487
662.8776, 7.106896
663.3597, 7.379928
663.8418, 7.914340
664.3239, 9.039739
664.8060, 10.08407
665.2881, 10.31819
665.7703, 9.898602
666.2524, 9.741654
666.7345, 10.68553
667.2166, 11.82926
667.6987, 11.15240
668.1808, 8.722219
668.6630, 7.200247
669.1451, 7.545459
669.6272, 8.139186
670.1093, 7.058425
670.5914, 4.560767
671.0735, 3.748805
671.5557, 6.496363
672.0378, 8.696884
672.5199, 8.264918
673.0020, 7.052256
673.4841, 7.395553
673.9662, 9.329854
674.4484, 11.00899
674.9305, 11.00091
675.4126, 9.685679
675.8947, 8.049791
676.3768, 5.738694
676.8589, 4.787450
677.3411, 6.807798
677.8232, 8.954846
678.3053, 8.516818
678.7874, 6.241735
679.2695, 4.880870
679.7516, 5.672419
680.2338, 6.751265
680.7159, 6.890951
681.1980, 6.657840
681.6801, 7.178467
682.1622, 8.514865
682.6443, 9.444005
683.1265, 8.835379
683.6086, 7.151038
684.0907, 6.770934
684.5728, 8.704528
685.0549, 9.731908
685.5370, 8.661967
686.0192, 7.238349
686.5013, 6.091256
686.9834, 5.404003
687.4655, 5.623979
687.9476, 7.579278
688.4297, 9.291321
688.9119, 8.403100
689.3940, 6.032835
689.8761, 4.916014
690.3582, 5.507654
690.8403, 6.264857
691.3224, 5.897645
691.8046, 4.793678
692.2867, 4.818912
692.7688, 6.877680
693.2509, 8.640398
693.7330, 10.31055
694.2151, 11.39896
694.6973, 11.19305
695.1794, 10.20457
695.6615, 9.782367
696.1436, 10.74821
696.6257, 11.61818
697.1078, 10.25947
697.5900, 7.412137
698.0721, 5.763462
698.5542, 5.755758
699.0363, 6.038444
699.5184, 5.657881
700.0005, 4.907728
700.4827, 4.829565
700.9648, 5.895362
701.4469, 6.883020
701.9290, 8.006659
702.4111, 8.833203
702.8932, 8.972321
703.3754, 8.637897
703.8575, 8.273426
704.3396, 8.062364
704.8217, 7.880211
705.3038, 7.575119
705.7859, 7.170845
706.2681, 6.596560
706.7502, 5.723383
707.2323, 5.695756
707.7144, 7.639455
708.1965, 10.43323
708.6786, 11.46185
709.1607, 10.32906
709.6428, 8.717122
710.1249, 5.546589
710.6071, 3.100202
711.0892, 3.102206
711.5713, 4.598399
712.0534, 6.046112
712.5355, 6.896805
713.0176, 7.271716
713.4998, 7.217478
713.9819, 6.790990
714.4640, 6.104337
714.9461, 5.005945
715.4282, 4.775133
715.9103, 6.527165
716.3925, 8.790669
716.8746, 9.012197
717.3567, 6.885488
717.8388, 5.677903
718.3209, 6.285543
718.8030, 7.187554
719.2852, 7.798844
719.7673, 8.206452
720.2494, 8.587589
720.7315, 8.979398
721.2136, 9.316482
721.6957, 9.629888
722.1779, 9.798471
722.6600, 9.134648
723.1421, 7.451283
723.6242, 6.608619
724.1063, 7.453891
724.5884, 8.832386
725.0706, 9.697857
725.5527, 10.04834
726.0348, 9.794035
726.5169, 8.100698
726.9990, 6.822396
727.4811, 6.874074
727.9633, 7.464140
728.4454, 7.883604
728.9275, 7.980834
729.4096, 7.779197
729.8917, 7.245686
730.3738, 6.552588
730.8560, 5.946681
731.3381, 5.416720
731.8202, 5.520978
732.3023, 6.543746
732.7844, 7.736013
733.2665, 8.478536
733.7487, 8.958241
734.2308, 9.965705
734.7129, 12.45996
735.1950, 13.66333
735.6771, 12.02127
736.1592, 9.723107
736.6414, 8.296764
737.1235, 7.694750
737.6056, 7.323240
738.0877, 6.908826
738.5698, 6.664356
739.0519, 7.028152
739.5341, 7.905485
740.0162, 8.400239
740.4983, 8.393861
740.9804, 8.419775
741.4625, 9.083651
741.9446, 9.629406
742.4268, 8.269690
742.9089, 4.377676
743.3910, 1.968570
743.8731, 2.297119
744.3552, 3.169389
744.8373, 3.800919
745.3195, 4.195973
745.8016, 4.507175
746.2837, 4.743302
746.7658, 4.668463
747.2479, 3.718568
747.7300, 2.484887
748.2122, 2.865679
748.6943, 4.891484
749.1764, 6.639854
749.6585, 7.698923
750.1406, 7.929040
750.6227, 6.762741
751.1049, 4.292336
751.5870, 3.443973
752.0691, 5.726193
752.5512, 7.454700
753.0333, 7.795539
753.5154, 7.478086
753.9976, 7.027980
754.4797, 6.493635
754.9618, 5.547212
755.4439, 3.749722
755.9260, 2.440686
756.4081, 4.363913
756.8903, 8.428556
757.3724, 9.645565
757.8545, 7.258924
758.3366, 4.780569
758.8187, 4.365934
759.3008, 5.312015
759.7830, 5.847009
760.2651, 5.554378
760.7472, 5.851315
761.2293, 7.282436
761.7114, 8.650886
762.1935, 9.668242
762.6757, 10.24086
763.1578, 10.15399
763.6399, 9.389132
764.1220, 8.581270
764.6041, 8.273687
765.0862, 7.582325
765.5684, 7.602557
766.0505, 6.757150
766.5326, 6.227867
767.0147, 6.212587
767.4968, 6.564523
767.9789, 7.253863
768.4611, 8.228963
768.9432, 8.082386
769.4253, 5.459418
769.9074, 4.047139
770.3895, 5.816228
770.8716, 7.684111
771.3538, 7.237548
771.8359, 5.114607
772.3180, 3.618588
772.8001, 3.429883
773.2822, 4.134506
773.7643, 6.509543
774.2465, 9.074282
774.7286, 9.264035
775.2107, 7.257299
775.6928, 5.211853
776.1749, 4.296117
776.6570, 4.252619
777.1392, 4.751636
777.6213, 5.936847
778.1034, 6.592331
778.5855, 6.446817
779.0676, 6.287314
779.5497, 6.717305
780.0319, 7.157005
780.5140, 6.529050
780.9961, 4.673284
781.4782, 3.974613
781.9603, 6.220740
782.4424, 8.483776
782.9246, 9.138071
783.4067, 8.702992
783.8888, 7.825918
784.3709, 6.755213
784.8530, 5.745561
785.3351, 5.021723
785.8173, 4.465236
786.2994, 3.593076
786.7815, 2.405993
787.2636, 2.224944
787.7457, 3.544986
788.2278, 5.055276
788.7100, 5.704601
789.1921, 5.764516
789.6742, 6.343413
790.1563, 8.306911
790.6384, 9.181014
791.1205, 8.338200
791.6026, 6.874452
792.0847, 4.557211
792.5668, 2.337577
793.0490, 2.010707
793.5311, 4.058778
794.0132, 6.006247
794.4953, 5.212890
794.9774, 3.275390
795.4595, 3.120972
795.9417, 4.552561
796.4238, 6.203240
796.9059, 7.673036
797.3880, 8.524118
797.8701, 8.129991
798.3522, 6.603148
798.8344, 5.839648
799.3165, 6.179423
799.7986, 6.623546
800.2807, 7.153313
800.7628, 7.621114
801.2449, 8.080192
801.7271, 8.396297
802.2092, 8.158173
802.6913, 7.012091
803.1734, 5.958135
803.6555, 5.389757
804.1376, 5.264218
804.6198, 5.671508
805.1019, 6.473902
805.5840, 7.474805
806.0661, 8.569220
806.5482, 9.329288
807.0303, 9.007002
807.5125, 7.744243
807.9946, 6.838911
808.4767, 6.271764
808.9588, 6.210319
809.4409, 6.935628
809.9230, 7.828900
810.4052, 8.231089
810.8873, 8.132030
811.3694, 7.817904
811.8515, 7.042096
812.3336, 6.391439
812.8157, 5.962464
813.2979, 5.718414
813.7800, 5.609203
814.2621, 5.663234
814.7442, 6.050477
815.2263, 6.934195
815.7084, 7.679439
816.1906, 7.481476
816.6727, 6.755690
817.1548, 6.357230
817.6369, 6.309202
818.1190, 6.242497
818.6011, 5.983851
819.0833, 5.749936
819.5654, 5.940280
820.0475, 6.593253
820.5296, 6.436762
821.0117, 4.700442
821.4938, 3.736546
821.9760, 4.546422
822.4581, 6.030272
822.9402, 7.587443
823.4223, 9.084652
823.9044, 9.967195
824.3865, 10.21584
824.8687, 9.700858
825.3508, 7.679965
825.8329, 5.395834
826.3150, 3.854505
826.7971, 3.160718
827.2792, 3.293217
827.7614, 4.251566
828.2435, 5.493452
828.7256, 6.335020
829.2077, 6.904390
829.6898, 7.823568
830.1719, 9.100757
830.6541, 10.01848
831.1362, 10.38338
831.6183, 9.923430
832.1004, 7.947729
832.5825, 4.511840
833.0646, 3.307898
833.5468, 6.747250
834.0289, 8.670208
834.5110, 6.954699
834.9931, 4.896569
835.4752, 4.565427
835.9573, 5.546517
836.4395, 6.571039
836.9216, 7.395420
837.4037, 7.978179
837.8858, 8.229848
838.3679, 8.284310
838.8500, 8.477786
839.3322, 8.571577
839.8143, 7.659410
840.2964, 5.543471
840.7785, 3.683028
841.2606, 3.960777
841.7427, 5.707384
842.2249, 6.196144
842.7070, 5.373732
843.1891, 4.457109
843.6712, 3.604713
844.1533, 3.209453
844.6354, 3.808795
845.1176, 5.115059
845.5997, 5.692454
846.0818, 4.361667
846.5639, 4.187203
847.0460, 6.664762
847.5281, 8.646482
848.0103, 8.270239
848.4924, 6.627156
848.9745, 5.096721
849.4566, 3.953567
849.9387, 3.966143
850.4208, 7.076678
850.9030, 10.11132
851.3851, 9.525421
851.8672, 6.936342
852.3493, 5.539645
852.8314, 5.891281
853.3135, 6.586164
853.7957, 6.624007
854.2778, 6.128098
854.7599, 5.008362
855.2420, 3.299667
855.7241, 3.197376
856.2062, 5.298894
856.6884, 7.155681
857.1705, 7.284158
857.6526, 6.597356
858.1347, 6.911378
858.6168, 8.739341
859.0989, 9.224420
859.5811, 7.130847
860.0632, 5.330295
860.5453, 4.386419
861.0274, 4.067751
861.5095, 4.361366
861.9916, 5.105197
862.4738, 5.770065
862.9559, 6.247611
863.4380, 6.466947
863.9201, 6.208988
864.4022, 5.781781
864.8843, 5.332388
865.3665, 5.064583
865.8486, 5.627375
866.3307, 7.261931
866.8128, 8.996836
867.2949, 9.785567
867.7770, 9.651819
868.2592, 8.141700
868.7413, 5.218382
869.2234, 4.127650
869.7055, 6.140185
870.1876, 8.646529
870.6697, 9.238841
871.1519, 8.221919
871.6340, 7.270493
872.1161, 6.294887
872.5981, 5.557782
873.0803, 4.992821
873.5624, 4.767583
874.0445, 5.397601
874.5266, 6.210930
875.0087, 6.119449
875.4908, 4.930578
875.9730, 3.964908
876.4551, 3.605323
876.9372, 3.680469
877.4193, 4.533986
877.9014, 5.511655
878.3835, 5.710808
878.8657, 5.113007
879.3478, 4.205819
879.8299, 3.134574
880.3120, 2.462308
880.7941, 3.377756
881.2762, 5.300211
881.7584, 6.291207
882.2405, 6.258896
882.7226, 6.138348
883.2047, 6.361491
883.6868, 6.490079
884.1689, 5.834405
884.6511, 4.435349
885.1332, 3.717722
885.6153, 3.959271
886.0974, 4.126751
886.5795, 4.079701
887.0616, 3.819401
887.5438, 3.014835
888.0259, 2.014111
888.5080, 1.933307
888.9901, 3.350722
889.4722, 4.357224
889.9543, 4.411631
890.4365, 4.290016
890.9186, 4.657176
891.4007, 4.959316
891.8828, 3.922070
892.3649, 1.676465
892.8470, 0.6113539
893.3292, 2.906826
893.8113, 5.900425
894.2934, 7.033720
894.7755, 7.084045
895.2576, 7.526704
895.7397, 8.334744
896.2219, 8.267206
896.7040, 6.649149
897.1861, 4.580200
897.6682, 3.614203
898.1503, 3.673492
898.6324, 4.317237
899.1146, 5.609676
899.5967, 6.363046
900.0788, 6.089714
900.5609, 5.616451
901.0430, 5.713606
901.5251, 6.325736
902.0073, 7.188257
902.4894, 9.069334
902.9715, 9.601273
903.4536, 7.073308
903.9357, 5.042142
904.4178, 6.193446
904.9000, 8.206693
905.3821, 7.311533
905.8642, 3.008574
906.3463, 0.4510286
906.8284, 2.448211
907.3105, 4.562170
907.7927, 4.488171
908.2748, 3.705673
908.7569, 3.776517
909.2390, 4.662333
909.7211, 5.582512
910.2032, 6.225121
910.6854, 6.598514
911.1675, 6.756232
911.6496, 6.626115
912.1317, 5.817237
912.6138, 4.602854
913.0959, 3.951234
913.5781, 4.132424
914.0602, 4.579892
914.5423, 4.778113
915.0244, 4.822748
915.5065, 5.056653
915.9886, 5.483194
916.4708, 5.658693
916.9529, 5.491827
917.4350, 5.300288
917.9171, 5.308023
918.3992, 5.283879
918.8813, 4.713201
919.3635, 3.400821
919.8456, 3.053157
920.3277, 4.404134
920.8098, 5.514857
921.2919, 6.149092
921.7740, 6.250563
922.2562, 5.216739
922.7383, 3.624901
923.2204, 3.237311
923.7025, 4.704537
924.1846, 6.216340
924.6667, 7.751121
925.1489, 8.755438
925.6310, 8.335286
926.1131, 7.471874
926.5952, 7.777556
927.0773, 9.257330
927.5594, 10.09426
928.0416, 8.876646
928.5237, 7.303453
929.0058, 6.919225
929.4879, 7.191926
929.9700, 7.499573
930.4521, 7.647024
930.9343, 7.212297
931.4164, 6.043633
931.8985, 4.851740
932.3806, 4.519614
932.8627, 4.810672
933.3448, 5.108577
933.8270, 5.374072
934.3091, 4.921580
934.7912, 3.538162
935.2733, 2.759584
935.7554, 3.871458
936.2375, 5.825828
936.7197, 6.000658
937.2018, 4.042276
937.6839, 2.147853
938.1660, -0.2556737
938.6481, -1.040772
939.1302, 1.546097
939.6124, 4.714784
940.0945, 5.328588
940.5766, 3.746518
941.0587, 3.372558
941.5408, 5.416905
942.0229, 6.767192
942.5051, 7.431986
942.9872, 7.206568
943.4693, 5.070910
943.9514, 2.465968
944.4335, 1.300149
944.9156, 1.794944
945.3978, 2.985207
945.8799, 5.738673
946.3620, 7.645524
946.8441, 7.025106
947.3262, 5.278917
947.8083, 3.127308
948.2905, 1.239371
948.7726, 0.9420076
949.2547, 2.742139
949.7368, 4.755749
950.2189, 5.373950
950.7010, 5.330942
951.1832, 5.571414
951.6653, 5.975605
952.1474, 6.237128
952.6295, 6.285953
953.1116, 6.124587
953.5938, 5.736424
954.0759, 5.261338
954.5580, 5.007303
955.0400, 4.442590
955.5222, 4.343700
956.0043, 3.369279
956.4864, 2.502166
956.9685, 1.878996
957.4506, 1.790739
957.9327, 2.621125
958.4149, 4.098994
958.8970, 5.193052
959.3791, 6.085837
959.8612, 5.398962
960.3433, 2.060786
960.8254, -0.1833487
961.3076, 0.8940154
961.7897, 3.340003
962.2718, 4.585165
962.7539, 4.608284
963.2360, 4.533716
963.7181, 3.991616
964.2003, 3.929977
964.6824, 5.119092
965.1645, 6.072187
965.6466, 5.506199
966.1287, 4.378429
966.6108, 4.505464
967.0930, 6.208897
967.5751, 7.409200
968.0572, 7.584671
968.5393, 7.286737
969.0214, 6.339231
969.5035, 5.333128
969.9857, 4.818549
970.4678, 4.704552
970.9499, 4.567527
971.4320, 4.228524
971.9141, 4.244888
972.3962, 5.118804
972.8784, 6.316997
973.3605, 7.654930
973.8426, 8.853362
974.3247, 9.800241
974.8068, 10.24365
975.2889, 9.131683
975.7711, 5.524740
976.2532, 2.175323
976.7353, 2.826492
977.2174, 5.507719
977.6995, 6.826270
978.1816, 6.847383
978.6638, 6.308741
979.1459, 5.494847
979.6280, 4.840426
980.1101, 4.730710
980.5922, 4.257264
981.0743, 4.636990
981.5565, 4.101759
982.0386, 4.030746
982.5207, 4.469144
983.0028, 5.153314
983.4849, 6.033113
983.9670, 6.536071
984.4492, 5.883818
984.9313, 4.466996
985.4134, 4.258949
985.8955, 5.464714
986.3776, 6.462591
986.8597, 7.273821
987.3419, 7.016170
987.8240, 4.689688
988.3061, 2.177520
988.7882, 2.458979
989.2703, 5.509337
989.7524, 6.602456
990.2346, 4.402260
990.7167, 3.232733
991.1988, 4.141012
991.6809, 5.436342
992.1630, 6.259944
992.6451, 6.821311
993.1273, 7.696379
993.6094, 9.112783
994.0915, 9.166935
994.5736, 5.956367
995.0557, 3.996875
995.5378, 5.323919
996.0200, 7.007401
996.5021, 7.160246
996.9842, 6.221620
997.4663, 5.036989
997.9484, 3.589388
998.4305, 2.890210
998.9127, 4.070992
999.3948, 4.956091
999.8769, 4.131174
1000.359, 2.981967
1000.841, 2.971270
1001.323, 3.750766
1001.805, 4.057768
1002.287, 3.462244
1002.770, 2.922356
1003.252, 2.707404
1003.734, 2.959607
1004.216, 4.389757
1004.698, 5.977999
1005.180, 6.152110
1005.662, 5.153760
1006.144, 4.467571
1006.627, 4.726739
1007.109, 5.452743
1007.591, 6.804833
1008.073, 7.950263
1008.555, 7.469211
1009.037, 6.185095
1009.519, 5.956454
1010.001, 6.842798
1010.483, 7.386734
1010.966, 6.775212
1011.448, 5.365395
1011.930, 2.568241
1012.412, -0.2255430
1012.894, 0.4959821
1013.376, 3.652897
1013.858, 5.204326
1014.340, 4.401368
1014.823, 3.723070
1015.305, 5.019127
1015.787, 3.821816
1016.269, 5.868785
1016.751, 3.267928
1017.233, 2.271308
1017.715, 2.867736
1018.197, 4.131586
1018.679, 5.762693
1019.162, 6.637702
1019.644, 5.671021
1020.126, 3.948084
1020.608, 4.335453
1021.090, 6.574346
1021.572, 6.749619
1022.054, 4.633255
1022.536, 3.319870
1023.018, 3.870208
1023.501, 4.792755
1023.983, 4.689695
1024.465, 5.668503
1024.947, 4.660521
1025.429, 6.698044
1025.911, 7.618608
1026.393, 7.225617
1026.875, 6.110981
1027.358, 4.105160
1027.840, 2.741368
1028.322, 3.881549
1028.804, 6.585444
1029.286, 6.734965
1029.768, 3.454448
1030.250, 1.214291
1030.732, 0.1280473
1031.214, 0.1696584
1031.697, 1.942285
1032.179, 3.743481
1032.661, 3.624671
1033.143, 2.101377
1033.625, 1.895088
1034.107, 3.976429
1034.589, 4.883096
1035.071, 3.948015
1035.553, 2.993262
1036.036, 2.579962
1036.518, 2.503376
1037.000, 2.630542
1037.482, 2.925389
1037.964, 3.186545
1038.446, 3.508544
1038.928, 3.602585
1039.410, 3.240644
1039.893, 2.961938
1040.375, 3.293747
1040.857, 3.510807
1041.339, 2.240246
1041.821, 3.403965
1042.303, 0.1171114
1042.785, 4.493421
1043.267, 7.275282
1043.750, 7.353422
1044.232, 6.889203
1044.714, 6.408509
1045.196, 5.901724
1045.678, 5.079491
1046.160, 4.164239
1046.642, 4.224283
1047.124, 6.168897
1047.606, 7.250142
1048.089, 6.863412
1048.571, 5.852550
1049.053, 3.551640
1049.535, 1.570646
1050.017, 1.836339
1050.499, 3.844280
1050.981, 5.318498
1051.463, 5.943554
1051.945, 5.900866
1052.428, 4.493708
1052.910, 3.314168
1053.392, 3.705775
1053.874, 4.180856
1054.356, 2.895843
1054.838, 0.3466788
1055.320, -1.486454
1055.802, -2.284406
1056.285, -2.079005
1056.767, 9.8026112E-02
1057.249, 2.096141
1057.731, 2.793956
1058.213, 2.857983
1058.695, 2.750420
1059.177, 2.664796
1059.659, 2.967032
1060.141, 3.849275
1060.624, 4.603136
1061.106, 4.987466
1061.588, 5.181011
1062.070, 5.409794
1062.552, 5.386518
1063.034, 4.438384
1063.516, 3.050750
1063.998, 2.593595
1064.480, 3.513165
1064.963, 4.395230
1065.445, 4.746732
1065.927, 4.838188
1066.409, 4.733798
1066.891, 4.500960
1067.373, 4.106543
1067.855, 3.656343
1068.337, 3.404809
1068.820, 3.427950
1069.302, 3.333349
1069.784, 2.681077
1070.266, 2.209069
1070.748, 2.481930
1071.230, 2.954598
1071.712, 2.816628
1072.194, 2.569211
1072.677, 3.668165
1073.159, 6.373802
1073.641, 8.137668
1074.123, 7.006987
1074.605, 5.741231
1075.087, 6.266626
1075.569, 6.788874
1076.051, 5.048964
1076.533, 2.393694
1077.016, 1.523250
1077.498, 2.849680
1077.980, 4.555902
1078.462, 6.793625
1078.944, 7.919461
1079.426, 6.051463
1079.908, 3.822860
1080.390, 3.456050
1080.872, 4.156610
1081.354, 4.456177
1081.837, 4.181154
1082.319, 4.151172
1082.801, 5.056429
1083.283, 5.513079
1083.765, 4.169555
1084.247, 2.876032
1084.729, 2.982808
1085.211, 3.985788
1085.694, 5.569619
1086.176, 7.333642
1086.658, 8.009559
1087.140, 6.952560
1087.622, 5.416712
1088.104, 2.886184
1088.586, 1.200797
1089.068, 2.296546
1089.551, 4.342422
1090.033, 5.532901
1090.515, 5.645067
1090.997, 4.647697
1091.479, 2.150485
1091.961, 0.2955168
1092.443, 3.7233211E-02
1092.925, 0.4414156
1093.407, 1.506196
1093.890, 2.611069
1094.372, 3.329777
1094.854, 3.573111
1095.336, 2.959087
1095.818, 1.199990
1096.300, 0.7305672
1096.782, 4.033283
1097.264, 6.504157
1097.746, 5.764016
1098.229, 4.039773
1098.711, 2.586749
1099.193, 1.686739
1099.675, 1.794407
1100.157, 2.966565
1100.639, 3.660785
1101.121, 2.673136
1101.603, 2.335609
1102.086, 4.078219
1102.568, 5.799963
1103.050, 6.409119
1103.532, 6.061597
1104.014, 4.448919
1104.496, 1.856319
1104.978, 1.005662
1105.460, 4.211030
1105.943, 6.047719
1106.425, 4.302518
1106.907, 2.679793
1107.389, 3.048763
1107.871, 4.197531
1108.353, 5.128064
1108.835, 5.682912
1109.317, 5.387969
1109.799, 3.780739
1110.281, 2.384381
1110.764, 1.115787
1111.246, 0.3297519
1111.728, 0.3350521
1112.210, 0.6650967
1112.692, 0.9975869
1113.174, 1.366723
1113.656, 1.794001
1114.138, 2.120566
1114.621, 3.257016
1115.103, 6.640299
1115.585, 8.433634
1116.067, 6.941432
1116.549, 5.169652
1117.031, 4.956125
1117.513, 5.428199
1117.995, 5.057882
1118.478, 3.826951
1118.960, 3.618917
1119.442, 5.496769
1119.924, 5.720498
1120.406, 2.831196
1120.888, 0.6524464
1121.370, 1.118856
1121.852, 2.570350
1122.334, 3.091433
1122.817, 2.928774
1123.299, 3.647145
1123.781, 3.175868
1124.263, 5.939342
1124.745, 2.669473
1125.227, 0.4405620
1125.709, 0.7151474
1126.191, 2.006050
1126.673, 3.298972
1127.156, 4.348609
1127.638, 4.394380
1128.120, 3.378513
1128.602, 3.234087
1129.084, 4.071309
1129.566, 4.730033
1130.048, 5.014162
1130.530, 4.654274
1131.013, 3.380265
1131.495, 1.996677
1131.977, 1.749162
1132.459, 2.401706
1132.941, 2.858792
1133.423, 3.125790
1133.905, 3.161540
1134.387, 2.980689
1134.870, 2.925838
1135.352, 3.132106
1135.834, 3.658736
1136.316, 4.690869
1136.798, 5.728232
1137.280, 5.576704
1137.762, 4.540362
1138.244, 3.455712
1138.726, 2.505555
1139.208, 2.378686
1139.691, 3.136136
1140.173, 3.970048
1140.655, 4.408061
1141.137, 4.435873
1141.619, 3.629349
1142.101, 2.675075
1142.583, 3.349639
1143.065, 2.254882
1143.548, 3.908246
1144.030, 1.439945
1144.512, -0.2081386
1144.994, -5.8379121E-02
1145.476, 0.9495954
1145.958, 2.618523
1146.440, 4.077130
1146.922, 4.127025
1147.405, 5.049395
1147.887, 4.149130
1148.369, 4.999079
1148.851, 4.797267
1149.333, 3.498353
1149.815, 2.794878
1150.297, 3.824324
1150.779, 4.655890
1151.261, 3.801526
1151.744, 2.724014
1152.226, 2.320266
1152.708, 2.433899
1153.190, 2.855995
1153.672, 3.550132
1154.154, 4.669944
1154.636, 6.414108
1155.118, 7.438148
1155.600, 6.947146
1156.083, 6.222943
1156.565, 5.579101
1157.047, 4.984141
1157.529, 4.450721
1158.011, 3.918876
1158.493, 3.350356
1158.975, 2.732903
1159.457, 1.851696
1159.940, -0.5680015
1160.422, -1.140338
1160.904, 2.415246
1161.386, 4.587138
1161.868, 2.066406
1162.350, -0.8354514
1162.832, 0.2611327
1163.314, 3.823052
1163.796, 4.900518
1164.279, 2.804111
1164.761, 2.131282
1165.243, 3.290448
1165.725, 4.597658
1166.207, 6.057777
1166.689, 6.343651
1167.171, 4.357229
1167.653, 1.778325
1168.135, 0.9838215
1168.618, 1.736381
1169.100, 3.014351
1169.582, 4.792653
1170.064, 5.264642
1170.546, 4.306899
1171.028, 3.567738
1171.510, 3.595132
1171.992, 3.903430
1172.474, 4.140291
1172.957, 4.228852
1173.439, 3.878983
1173.921, 3.321799
1174.403, 3.438731
1174.885, 3.936850
1175.367, 3.533484
1175.849, 2.323071
1176.331, 1.943474
1176.814, 3.070210
1177.296, 4.274093
1177.778, 4.366703
1178.260, 3.783609
1178.742, 2.452857
1179.224, 1.187524
1179.706, 1.510083
1180.188, 2.625227
1180.671, 2.536383
1181.153, 1.199185
1181.635, 0.6628054
1182.117, 2.156748
1182.599, 3.319343
1183.081, 1.947565
1183.563, 0.9576748
1184.045, 3.182871
1184.527, 5.808586
1185.010, 5.473467
1185.492, 3.414451
1185.974, 3.256687
1186.456, 5.668220
1186.938, 6.546977
1187.420, 3.537304
1187.902, 1.529241
1188.384, 1.412075
1188.866, 2.330793
1189.349, 4.810286
1189.831, 7.266470
1190.313, 7.992768
1190.795, 7.317853
1191.277, 6.506410
1191.759, 5.520884
1192.241, 4.517794
1192.723, 3.331170
1193.206, 2.851401
1193.688, 3.516018
1194.170, 3.825267
1194.652, 2.773084
1195.134, 1.403121
1195.616, 1.200424
1196.098, 1.925150
1196.580, 2.795631
1197.063, 3.721995
1197.545, 3.621048
1198.027, 2.550712
1198.509, 1.887499
1198.991, 1.986044
1199.473, 1.915127
1199.955, 0.9767769
1200.437, 5.0414499E-02
1200.919, 0.2969858
1201.401, 1.321296
1201.884, 3.081972
1202.366, 4.771646
1202.848, 4.329825
1203.330, 2.414010
1203.812, 1.642327
1204.294, 2.686109
1204.776, 3.664181
1205.258, 3.405506
1205.741, 2.938203
1206.223, 2.631728
1206.705, 2.675270
1207.187, 3.824329
1207.669, 4.960432
1208.151, 4.145965
1208.633, 2.151249
1209.115, 1.904729
1209.598, 4.257287
1210.080, 6.202384
1210.562, 7.704882
1211.044, 8.163911
1211.526, 7.306645
1212.008, 5.484393
1212.490, 1.611406
1212.972, -1.799314
1213.454, -1.273670
1213.937, 2.177624
1214.419, 3.510187
1214.901, 2.118365
1215.383, 1.857443
1215.865, 3.084416
1216.347, 3.025238
1216.829, 0.8142967
1217.311, -0.4527816
1217.793, 1.137997
1218.276, 3.727002
1218.758, 4.909160
1219.240, 5.061804
1219.722, 5.108165
1220.204, 5.077674
1220.686, 5.123205
1221.168, 5.195961
1221.650, 5.078150
1222.133, 4.719853
1222.615, 4.087879
1223.097, 3.088795
1223.579, 2.511166
1224.061, 3.715012
1224.543, 4.995960
1225.025, 4.188039
1225.507, 2.904043
1225.990, 3.490473
1226.472, 4.984534
1226.954, 4.947551
1227.436, 3.177303
1227.918, 2.006046
1228.400, 2.304862
1228.882, 2.831580
1229.364, 3.581795
1229.846, 4.143036
1230.328, 4.608960
1230.811, 4.545424
1231.293, 3.166448
1231.775, 1.356503
1232.257, 0.8002661
1232.739, 1.490047
1233.221, 2.327252
1233.703, 3.437104
1234.185, 4.135645
1234.668, 4.337197
1235.150, 4.299675
1235.632, 4.089840
1236.114, 3.772861
1236.596, 3.356879
1237.078, 3.085356
1237.560, 3.456353
1238.042, 4.286798
1238.525, 5.290616
1239.007, 6.177403
1239.489, 5.742709
1239.971, 4.269518
1240.453, 3.210607
1240.935, 2.983719
1241.417, 2.997227
1241.899, 2.882151
1242.381, 2.908577
1242.864, 3.504375
1243.346, 4.098186
1243.828, 4.301174
1244.310, 4.167012
1244.792, 3.773273
1245.274, 3.115223
1245.756, 1.855625
1246.238, -2.8121021E-02
1246.720, -0.6766821
1247.203, 1.069871
1247.685, 2.664130
1248.167, 4.498405
1248.649, 5.154094
1249.131, 3.182168
1249.613, 1.629857
1250.095, 3.211395
1250.577, 6.150549
1251.059, 6.884852
1251.542, 5.634075
1252.024, 5.087520
1252.506, 5.236865
1252.988, 5.216810
1253.470, 4.918338
1253.952, 3.647761
1254.434, 1.317497
1254.916, -0.2334418
1255.399, 0.3146763
1255.881, 1.997595
1256.363, 4.737445
1256.845, 6.891602
1257.327, 4.745667
1257.809, 1.263397
1258.291, 1.478705
1258.773, 4.069440
1259.255, 5.140243
1259.738, 4.045474
1260.220, 2.644402
1260.702, 1.285927
1261.184, 0.5401846
1261.666, 0.8617278
1262.148, 1.460325
1262.630, 2.298476
1263.112, 3.019999
1263.594, 3.507833
1264.077, 3.618935
1264.559, 2.967067
1265.041, 1.703557
1265.523, 1.174923
1266.005, 1.523821
1266.487, 1.754981
1266.969, 1.809123
1267.451, 2.172184
1267.934, 2.979465
1268.416, 3.327208
1268.898, 2.686852
1269.380, 1.755155
1269.862, 1.262015
1270.344, 1.168039
1270.826, 1.560011
1271.308, 2.202441
1271.791, 2.642217
1272.273, 2.967219
1272.755, 3.485939
1273.237, 4.161052
1273.719, 4.724627
1274.201, 5.108550
1274.683, 5.023244
1275.165, 3.926154
1275.647, 2.930469
1276.130, 2.419677
1276.612, 2.163191
1277.094, 2.023154
1277.576, 2.082908
1278.058, 2.694396
1278.540, 3.453957
1279.022, 3.055512
1279.504, 3.391979
1279.986, 3.858239
1280.469, 3.187417
1280.951, 4.321717
1281.433, 4.297419
1281.915, 3.503479
1282.397, 2.069501
1282.879, 0.7619300
1283.361, 0.1945125
1283.843, 1.3511140E-02
1284.326, -0.1979933
1284.808, -0.4405591
##END=



