##NAMES=Andradite
##RRUFFID=R120004
##IDEAL CHEMISTRY=Ca_3_Fe^3+^_2_(SiO_4_)_3_
##LOCALITY=Chifeng, Inner Mongolia
##OWNER=RRUFF
##SOURCE=Jack Lowell
##DESCRIPTION=Dark green dodecahedral crystals overlying pale green diopside R120003
##STATUS=The identification of this mineral has been confirmed only by single crystal X-ray diffraction.
##URL=rruff.info/R120004
9.112140e+001, 0.000000e+000
9.160352e+001, 6.866274e+001
9.208563e+001, 6.848809e+001
9.256775e+001, 6.848526e+001
9.304987e+001, 6.881472e+001
9.353198e+001, 6.907409e+001
9.401410e+001, 6.827075e+001
9.449622e+001, 6.662081e+001
9.497833e+001, 6.463866e+001
9.546045e+001, 6.266092e+001
9.594257e+001, 6.065859e+001
9.642468e+001, 5.908966e+001
9.690680e+001, 5.823195e+001
9.738892e+001, 5.749519e+001
9.787103e+001, 5.672865e+001
9.835315e+001, 5.584159e+001
9.883527e+001, 5.483255e+001
9.931738e+001, 5.385827e+001
9.979950e+001, 5.295768e+001
1.002816e+002, 5.199844e+001
1.007637e+002, 5.084386e+001
1.012458e+002, 4.968219e+001
1.017280e+002, 4.865966e+001
1.022101e+002, 4.779062e+001
1.026922e+002, 4.710108e+001
1.031743e+002, 4.666303e+001
1.036564e+002, 4.642967e+001
1.041385e+002, 4.637024e+001
1.046207e+002, 4.661018e+001
1.051028e+002, 4.704449e+001
1.055849e+002, 4.733025e+001
1.060670e+002, 4.738897e+001
1.065491e+002, 4.717599e+001
1.070313e+002, 4.664355e+001
1.075134e+002, 4.574371e+001
1.079955e+002, 4.476930e+001
1.084776e+002, 4.401301e+001
1.089597e+002, 4.350398e+001
1.094418e+002, 4.307668e+001
1.099240e+002, 4.275863e+001
1.104061e+002, 4.246024e+001
1.108882e+002, 4.208710e+001
1.113703e+002, 4.159303e+001
1.118524e+002, 4.106903e+001
1.123345e+002, 4.077422e+001
1.128167e+002, 4.095905e+001
1.132988e+002, 4.105340e+001
1.137809e+002, 4.091713e+001
1.142630e+002, 4.065752e+001
1.147451e+002, 4.041132e+001
1.152272e+002, 4.026596e+001
1.157094e+002, 4.021494e+001
1.161915e+002, 4.016432e+001
1.166736e+002, 4.012707e+001
1.171557e+002, 4.007676e+001
1.176378e+002, 4.001685e+001
1.181199e+002, 3.993930e+001
1.186021e+002, 3.981331e+001
1.190842e+002, 3.959042e+001
1.195663e+002, 3.926536e+001
1.200484e+002, 3.907459e+001
1.205305e+002, 3.907190e+001
1.210126e+002, 3.916434e+001
1.214948e+002, 3.931252e+001
1.219769e+002, 3.952345e+001
1.224590e+002, 3.968864e+001
1.229411e+002, 3.968858e+001
1.234232e+002, 3.955358e+001
1.239053e+002, 3.931564e+001
1.243875e+002, 3.888731e+001
1.248696e+002, 3.835585e+001
1.253517e+002, 3.796520e+001
1.258338e+002, 3.776041e+001
1.263159e+002, 3.769618e+001
1.267980e+002, 3.776195e+001
1.272802e+002, 3.793246e+001
1.277623e+002, 3.809245e+001
1.282444e+002, 3.816840e+001
1.287265e+002, 3.816140e+001
1.292086e+002, 3.805645e+001
1.296907e+002, 3.767915e+001
1.301729e+002, 3.732639e+001
1.306550e+002, 3.719297e+001
1.311371e+002, 3.727591e+001
1.316192e+002, 3.738471e+001
1.321013e+002, 3.722364e+001
1.325834e+002, 3.653033e+001
1.330656e+002, 3.608818e+001
1.335477e+002, 3.600943e+001
1.340298e+002, 3.607801e+001
1.345119e+002, 3.616633e+001
1.349940e+002, 3.622326e+001
1.354761e+002, 3.623359e+001
1.359583e+002, 3.615910e+001
1.364404e+002, 3.590250e+001
1.369225e+002, 3.567818e+001
1.374046e+002, 3.546428e+001
1.378867e+002, 3.529460e+001
1.383688e+002, 3.523923e+001
1.388510e+002, 3.534586e+001
1.393331e+002, 3.555343e+001
1.398152e+002, 3.566542e+001
1.402973e+002, 3.569050e+001
1.407794e+002, 3.564053e+001
1.412615e+002, 3.544683e+001
1.417437e+002, 3.515191e+001
1.422258e+002, 3.495230e+001
1.427079e+002, 3.499614e+001
1.431900e+002, 3.518665e+001
1.436721e+002, 3.524562e+001
1.441542e+002, 3.488393e+001
1.446364e+002, 3.473141e+001
1.451185e+002, 3.580244e+001
1.456006e+002, 3.841507e+001
1.460827e+002, 4.030422e+001
1.465648e+002, 3.952848e+001
1.470469e+002, 3.763896e+001
1.475291e+002, 3.609343e+001
1.480112e+002, 3.537348e+001
1.484933e+002, 3.532161e+001
1.489754e+002, 3.568031e+001
1.494575e+002, 3.682546e+001
1.499396e+002, 3.773015e+001
1.504218e+002, 3.791557e+001
1.509039e+002, 3.774157e+001
1.513860e+002, 3.765034e+001
1.518681e+002, 3.787481e+001
1.523502e+002, 3.841567e+001
1.528323e+002, 3.925483e+001
1.533145e+002, 4.073347e+001
1.537966e+002, 4.221012e+001
1.542787e+002, 4.370338e+001
1.547608e+002, 4.510509e+001
1.552429e+002, 4.624943e+001
1.557250e+002, 4.699238e+001
1.562072e+002, 4.730319e+001
1.566893e+002, 4.761916e+001
1.571714e+002, 4.795179e+001
1.576535e+002, 4.827884e+001
1.581356e+002, 4.855699e+001
1.586177e+002, 4.880739e+001
1.590999e+002, 4.910863e+001
1.595820e+002, 4.952727e+001
1.600641e+002, 5.008217e+001
1.605462e+002, 5.074702e+001
1.610283e+002, 5.149494e+001
1.615104e+002, 5.235761e+001
1.619926e+002, 5.342990e+001
1.624747e+002, 5.471634e+001
1.629568e+002, 5.599228e+001
1.634389e+002, 5.690060e+001
1.639210e+002, 5.747398e+001
1.644031e+002, 5.837334e+001
1.648853e+002, 5.983133e+001
1.653674e+002, 6.164618e+001
1.658495e+002, 6.346370e+001
1.663316e+002, 6.517837e+001
1.668137e+002, 6.709108e+001
1.672958e+002, 6.938657e+001
1.677780e+002, 7.204655e+001
1.682601e+002, 7.522483e+001
1.687422e+002, 7.904946e+001
1.692243e+002, 8.346947e+001
1.697064e+002, 8.820303e+001
1.701885e+002, 9.315910e+001
1.706707e+002, 9.857094e+001
1.711528e+002, 1.048209e+002
1.716349e+002, 1.117013e+002
1.721170e+002, 1.184198e+002
1.725991e+002, 1.250699e+002
1.730812e+002, 1.317863e+002
1.735634e+002, 1.355750e+002
1.740455e+002, 1.355083e+002
1.745276e+002, 1.326990e+002
1.750097e+002, 1.267428e+002
1.754918e+002, 1.180534e+002
1.759739e+002, 1.079652e+002
1.764561e+002, 9.762711e+001
1.769382e+002, 8.644178e+001
1.774203e+002, 7.687712e+001
1.779024e+002, 6.918796e+001
1.783845e+002, 6.270258e+001
1.788666e+002, 5.724318e+001
1.793488e+002, 5.274583e+001
1.798309e+002, 4.913110e+001
1.803130e+002, 4.641978e+001
1.807951e+002, 4.503793e+001
1.812772e+002, 4.371013e+001
1.817593e+002, 4.232597e+001
1.822415e+002, 4.105792e+001
1.827236e+002, 4.007495e+001
1.832057e+002, 3.940450e+001
1.836878e+002, 3.890661e+001
1.841699e+002, 3.836993e+001
1.846520e+002, 3.772535e+001
1.851342e+002, 3.719398e+001
1.856163e+002, 3.688544e+001
1.860984e+002, 3.664919e+001
1.865805e+002, 3.631459e+001
1.870626e+002, 3.582763e+001
1.875447e+002, 3.527723e+001
1.880269e+002, 3.479821e+001
1.885090e+002, 3.437446e+001
1.889911e+002, 3.404855e+001
1.894732e+002, 3.388273e+001
1.899553e+002, 3.381417e+001
1.904374e+002, 3.373563e+001
1.909196e+002, 3.361125e+001
1.914017e+002, 3.347732e+001
1.918838e+002, 3.340385e+001
1.923659e+002, 3.340061e+001
1.928480e+002, 3.334801e+001
1.933301e+002, 3.312695e+001
1.938123e+002, 3.279599e+001
1.942944e+002, 3.258070e+001
1.947765e+002, 3.259007e+001
1.952586e+002, 3.267536e+001
1.957407e+002, 3.267450e+001
1.962228e+002, 3.258633e+001
1.967050e+002, 3.247776e+001
1.971871e+002, 3.238552e+001
1.976692e+002, 3.231002e+001
1.981513e+002, 3.226365e+001
1.986334e+002, 3.230711e+001
1.991155e+002, 3.232888e+001
1.995977e+002, 3.221104e+001
2.000798e+002, 3.195871e+001
2.005619e+002, 3.173907e+001
2.010440e+002, 3.172358e+001
2.015261e+002, 3.193759e+001
2.020082e+002, 3.219058e+001
2.024904e+002, 3.259809e+001
2.029725e+002, 3.293974e+001
2.034546e+002, 3.306768e+001
2.039367e+002, 3.298007e+001
2.044188e+002, 3.281440e+001
2.049009e+002, 3.271775e+001
2.053831e+002, 3.267268e+001
2.058652e+002, 3.276101e+001
2.063473e+002, 3.316850e+001
2.068294e+002, 3.356147e+001
2.073115e+002, 3.367031e+001
2.077936e+002, 3.349075e+001
2.082758e+002, 3.328150e+001
2.087579e+002, 3.342113e+001
2.092400e+002, 3.411017e+001
2.097221e+002, 3.472673e+001
2.102042e+002, 3.534853e+001
2.106863e+002, 3.585963e+001
2.111685e+002, 3.608723e+001
2.116506e+002, 3.604018e+001
2.121327e+002, 3.596927e+001
2.126148e+002, 3.624139e+001
2.130969e+002, 3.700677e+001
2.135790e+002, 3.785224e+001
2.140612e+002, 3.882616e+001
2.145433e+002, 3.984021e+001
2.150254e+002, 4.076829e+001
2.155075e+002, 4.159279e+001
2.159896e+002, 4.252345e+001
2.164717e+002, 4.388224e+001
2.169539e+002, 4.598066e+001
2.174360e+002, 4.778313e+001
2.179181e+002, 4.911417e+001
2.184002e+002, 5.022497e+001
2.188823e+002, 5.134478e+001
2.193644e+002, 5.252494e+001
2.198466e+002, 5.374418e+001
2.203287e+002, 5.499492e+001
2.208108e+002, 5.630840e+001
2.212929e+002, 5.751050e+001
2.217750e+002, 5.847778e+001
2.222571e+002, 5.935963e+001
2.227393e+002, 6.033070e+001
2.232214e+002, 6.142410e+001
2.237035e+002, 6.261264e+001
2.241856e+002, 6.380399e+001
2.246677e+002, 6.498730e+001
2.251498e+002, 6.647443e+001
2.256320e+002, 6.850595e+001
2.261141e+002, 7.085226e+001
2.265962e+002, 7.310957e+001
2.270783e+002, 7.516604e+001
2.275604e+002, 7.728500e+001
2.280425e+002, 7.975406e+001
2.285247e+002, 8.250156e+001
2.290068e+002, 8.543315e+001
2.294889e+002, 8.843047e+001
2.299710e+002, 9.156989e+001
2.304531e+002, 9.507230e+001
2.309352e+002, 9.900470e+001
2.314174e+002, 1.031924e+002
2.318995e+002, 1.072485e+002
2.323816e+002, 1.113567e+002
2.328637e+002, 1.161176e+002
2.333458e+002, 1.220298e+002
2.338279e+002, 1.288376e+002
2.343101e+002, 1.360670e+002
2.347922e+002, 1.444838e+002
2.352743e+002, 1.517948e+002
2.357564e+002, 1.578059e+002
2.362385e+002, 1.619975e+002
2.367206e+002, 1.631898e+002
2.372028e+002, 1.605111e+002
2.376849e+002, 1.542752e+002
2.381670e+002, 1.454779e+002
2.386491e+002, 1.325499e+002
2.391312e+002, 1.192488e+002
2.396133e+002, 1.061975e+002
2.400955e+002, 9.393976e+001
2.405776e+002, 8.316697e+001
2.410597e+002, 7.439115e+001
2.415418e+002, 6.744126e+001
2.420239e+002, 6.175249e+001
2.425060e+002, 5.785939e+001
2.429882e+002, 5.462020e+001
2.434703e+002, 5.164878e+001
2.439524e+002, 4.902809e+001
2.444345e+002, 4.690081e+001
2.449166e+002, 4.537017e+001
2.453987e+002, 4.437019e+001
2.458809e+002, 4.364172e+001
2.463630e+002, 4.342043e+001
2.468451e+002, 4.318708e+001
2.473272e+002, 4.277308e+001
2.478093e+002, 4.230035e+001
2.482914e+002, 4.194238e+001
2.487736e+002, 4.179823e+001
2.492557e+002, 4.181390e+001
2.497378e+002, 4.177376e+001
2.502199e+002, 4.167802e+001
2.507020e+002, 4.151427e+001
2.511841e+002, 4.117024e+001
2.516663e+002, 4.079632e+001
2.521484e+002, 4.057148e+001
2.526305e+002, 4.058172e+001
2.531126e+002, 4.077798e+001
2.535947e+002, 4.100727e+001
2.540768e+002, 4.118760e+001
2.545590e+002, 4.151472e+001
2.550411e+002, 4.213330e+001
2.555232e+002, 4.285143e+001
2.560053e+002, 4.342942e+001
2.564874e+002, 4.376562e+001
2.569695e+002, 4.399797e+001
2.574517e+002, 4.445800e+001
2.579338e+002, 4.522353e+001
2.584159e+002, 4.616671e+001
2.588980e+002, 4.703292e+001
2.593801e+002, 4.818576e+001
2.598622e+002, 5.026142e+001
2.603444e+002, 5.345007e+001
2.608265e+002, 5.699755e+001
2.613086e+002, 5.946757e+001
2.617907e+002, 6.002385e+001
2.622728e+002, 6.074468e+001
2.627549e+002, 6.160456e+001
2.632371e+002, 6.266874e+001
2.637192e+002, 6.424742e+001
2.642013e+002, 6.638912e+001
2.646834e+002, 6.840347e+001
2.651655e+002, 6.926961e+001
2.656476e+002, 6.864401e+001
2.661298e+002, 6.743466e+001
2.666119e+002, 6.547703e+001
2.670940e+002, 6.303799e+001
2.675761e+002, 6.016828e+001
2.680582e+002, 5.690259e+001
2.685403e+002, 5.373060e+001
2.690225e+002, 5.122440e+001
2.695046e+002, 4.954037e+001
2.699867e+002, 4.803354e+001
2.704688e+002, 4.665601e+001
2.709509e+002, 4.547939e+001
2.714330e+002, 4.460720e+001
2.719152e+002, 4.404261e+001
2.723973e+002, 4.363094e+001
2.728794e+002, 4.324006e+001
2.733615e+002, 4.287401e+001
2.738436e+002, 4.259407e+001
2.743257e+002, 4.246806e+001
2.748079e+002, 4.237938e+001
2.752900e+002, 4.220468e+001
2.757721e+002, 4.194786e+001
2.762542e+002, 4.176116e+001
2.767363e+002, 4.176762e+001
2.772184e+002, 4.196313e+001
2.777006e+002, 4.216862e+001
2.781827e+002, 4.235835e+001
2.786648e+002, 4.257699e+001
2.791469e+002, 4.287070e+001
2.796290e+002, 4.323076e+001
2.801111e+002, 4.359743e+001
2.805933e+002, 4.395379e+001
2.810754e+002, 4.427952e+001
2.815575e+002, 4.453164e+001
2.820396e+002, 4.465476e+001
2.825217e+002, 4.477220e+001
2.830038e+002, 4.487696e+001
2.834860e+002, 4.500648e+001
2.839681e+002, 4.539296e+001
2.844502e+002, 4.626608e+001
2.849323e+002, 4.735949e+001
2.854144e+002, 4.808708e+001
2.858965e+002, 4.829351e+001
2.863787e+002, 4.852911e+001
2.868608e+002, 4.914788e+001
2.873429e+002, 5.005531e+001
2.878250e+002, 5.089548e+001
2.883071e+002, 5.148659e+001
2.887892e+002, 5.205762e+001
2.892714e+002, 5.296325e+001
2.897535e+002, 5.423028e+001
2.902356e+002, 5.551490e+001
2.907177e+002, 5.657577e+001
2.911998e+002, 5.752993e+001
2.916819e+002, 5.869081e+001
2.921641e+002, 6.011940e+001
2.926462e+002, 6.180149e+001
2.931283e+002, 6.387329e+001
2.936104e+002, 6.627331e+001
2.940925e+002, 6.846785e+001
2.945746e+002, 7.021483e+001
2.950568e+002, 7.161140e+001
2.955389e+002, 7.281904e+001
2.960210e+002, 7.382336e+001
2.965031e+002, 7.473238e+001
2.969852e+002, 7.582017e+001
2.974673e+002, 7.693512e+001
2.979495e+002, 7.755103e+001
2.984316e+002, 7.718977e+001
2.989137e+002, 7.634903e+001
2.993958e+002, 7.567043e+001
2.998779e+002, 7.513247e+001
3.003600e+002, 7.493940e+001
3.008422e+002, 7.533208e+001
3.013243e+002, 7.616208e+001
3.018064e+002, 7.722220e+001
3.022885e+002, 7.847195e+001
3.027706e+002, 7.994414e+001
3.032527e+002, 8.168493e+001
3.037349e+002, 8.370512e+001
3.042170e+002, 8.593569e+001
3.046991e+002, 8.828143e+001
3.051812e+002, 9.087904e+001
3.056633e+002, 9.386545e+001
3.061454e+002, 9.722368e+001
3.066276e+002, 1.010471e+002
3.071097e+002, 1.054960e+002
3.075918e+002, 1.105407e+002
3.080739e+002, 1.158752e+002
3.085560e+002, 1.214447e+002
3.090381e+002, 1.271919e+002
3.095203e+002, 1.331088e+002
3.100024e+002, 1.392596e+002
3.104845e+002, 1.451660e+002
3.109666e+002, 1.508461e+002
3.114487e+002, 1.561240e+002
3.119308e+002, 1.601883e+002
3.124130e+002, 1.632604e+002
3.128951e+002, 1.642998e+002
3.133772e+002, 1.624270e+002
3.138593e+002, 1.578923e+002
3.143414e+002, 1.519921e+002
3.148235e+002, 1.447269e+002
3.153057e+002, 1.365923e+002
3.157878e+002, 1.286107e+002
3.162699e+002, 1.206613e+002
3.167520e+002, 1.134629e+002
3.172341e+002, 1.075480e+002
3.177162e+002, 1.027531e+002
3.181984e+002, 9.890948e+001
3.186805e+002, 9.608630e+001
3.191626e+002, 9.414428e+001
3.196447e+002, 9.287231e+001
3.201268e+002, 9.226234e+001
3.206089e+002, 9.236664e+001
3.210911e+002, 9.361119e+001
3.215732e+002, 9.551532e+001
3.220553e+002, 9.744543e+001
3.225374e+002, 9.921627e+001
3.230195e+002, 1.010932e+002
3.235016e+002, 1.034941e+002
3.239838e+002, 1.064397e+002
3.244659e+002, 1.091288e+002
3.249480e+002, 1.114435e+002
3.254301e+002, 1.131454e+002
3.259122e+002, 1.140015e+002
3.263943e+002, 1.139594e+002
3.268765e+002, 1.133194e+002
3.273586e+002, 1.119400e+002
3.278407e+002, 1.100033e+002
3.283228e+002, 1.085316e+002
3.288049e+002, 1.077186e+002
3.292870e+002, 1.075426e+002
3.297692e+002, 1.079313e+002
3.302513e+002, 1.088540e+002
3.307334e+002, 1.101860e+002
3.312155e+002, 1.116485e+002
3.316976e+002, 1.134940e+002
3.321797e+002, 1.163831e+002
3.326619e+002, 1.205219e+002
3.331440e+002, 1.253236e+002
3.336261e+002, 1.304340e+002
3.341082e+002, 1.358240e+002
3.345903e+002, 1.415920e+002
3.350724e+002, 1.478314e+002
3.355546e+002, 1.543852e+002
3.360367e+002, 1.612048e+002
3.365188e+002, 1.683133e+002
3.370009e+002, 1.751186e+002
3.374830e+002, 1.809837e+002
3.379651e+002, 1.864115e+002
3.384473e+002, 1.922571e+002
3.389294e+002, 1.985075e+002
3.394115e+002, 2.053525e+002
3.398936e+002, 2.129782e+002
3.403757e+002, 2.213674e+002
3.408578e+002, 2.301093e+002
3.413400e+002, 2.389840e+002
3.418221e+002, 2.483359e+002
3.423042e+002, 2.584395e+002
3.427863e+002, 2.692144e+002
3.432684e+002, 2.811545e+002
3.437505e+002, 2.946834e+002
3.442327e+002, 3.095554e+002
3.447148e+002, 3.249969e+002
3.451969e+002, 3.405845e+002
3.456790e+002, 3.574095e+002
3.461611e+002, 3.768643e+002
3.466432e+002, 3.985990e+002
3.471254e+002, 4.224729e+002
3.476075e+002, 4.488300e+002
3.480896e+002, 4.770947e+002
3.485717e+002, 5.065977e+002
3.490538e+002, 5.374576e+002
3.495359e+002, 5.683808e+002
3.500181e+002, 5.991821e+002
3.505002e+002, 6.293475e+002
3.509823e+002, 6.571512e+002
3.514644e+002, 6.850497e+002
3.519465e+002, 7.082054e+002
3.524286e+002, 7.238362e+002
3.529108e+002, 7.320511e+002
3.533929e+002, 7.334129e+002
3.538750e+002, 7.275276e+002
3.543571e+002, 7.152717e+002
3.548392e+002, 6.987849e+002
3.553214e+002, 6.767862e+002
3.558035e+002, 6.543135e+002
3.562856e+002, 6.317584e+002
3.567677e+002, 6.102529e+002
3.572498e+002, 5.916805e+002
3.577319e+002, 5.765008e+002
3.582141e+002, 5.646700e+002
3.586962e+002, 5.561855e+002
3.591783e+002, 5.510252e+002
3.596604e+002, 5.491984e+002
3.601425e+002, 5.509678e+002
3.606246e+002, 5.559171e+002
3.611068e+002, 5.637570e+002
3.615889e+002, 5.744797e+002
3.620710e+002, 5.877986e+002
3.625531e+002, 6.033873e+002
3.630352e+002, 6.215367e+002
3.635173e+002, 6.429695e+002
3.639995e+002, 6.678336e+002
3.644816e+002, 6.955450e+002
3.649637e+002, 7.261797e+002
3.654458e+002, 7.594059e+002
3.659279e+002, 7.948538e+002
3.664100e+002, 8.325620e+002
3.668922e+002, 8.717411e+002
3.673743e+002, 9.093182e+002
3.678564e+002, 9.480519e+002
3.683385e+002, 9.815652e+002
3.688206e+002, 1.011772e+003
3.693027e+002, 1.035193e+003
3.697849e+002, 1.048252e+003
3.702670e+002, 1.049805e+003
3.707491e+002, 1.039633e+003
3.712312e+002, 1.016915e+003
3.717133e+002, 9.791731e+002
3.721954e+002, 9.343746e+002
3.726776e+002, 8.799578e+002
3.731597e+002, 8.215115e+002
3.736418e+002, 7.595697e+002
3.741239e+002, 6.959698e+002
3.746060e+002, 6.346747e+002
3.750881e+002, 5.779792e+002
3.755703e+002, 5.261297e+002
3.760524e+002, 4.796735e+002
3.765345e+002, 4.390441e+002
3.770166e+002, 4.028227e+002
3.774987e+002, 3.711453e+002
3.779808e+002, 3.434834e+002
3.784630e+002, 3.192269e+002
3.789451e+002, 2.981012e+002
3.794272e+002, 2.798306e+002
3.799093e+002, 2.638535e+002
3.803914e+002, 2.506859e+002
3.808735e+002, 2.391311e+002
3.813557e+002, 2.295885e+002
3.818378e+002, 2.211143e+002
3.823199e+002, 2.131787e+002
3.828020e+002, 2.055685e+002
3.832841e+002, 1.981941e+002
3.837662e+002, 1.910880e+002
3.842484e+002, 1.843410e+002
3.847305e+002, 1.770225e+002
3.852126e+002, 1.685721e+002
3.856947e+002, 1.600220e+002
3.861768e+002, 1.514824e+002
3.866589e+002, 1.430999e+002
3.871411e+002, 1.350349e+002
3.876232e+002, 1.273307e+002
3.881053e+002, 1.200216e+002
3.885874e+002, 1.132919e+002
3.890695e+002, 1.071697e+002
3.895516e+002, 1.016522e+002
3.900338e+002, 9.672861e+001
3.905159e+002, 9.227773e+001
3.909980e+002, 8.826556e+001
3.914801e+002, 8.466899e+001
3.919622e+002, 8.137165e+001
3.924443e+002, 7.820019e+001
3.929265e+002, 7.514667e+001
3.934086e+002, 7.234422e+001
3.938907e+002, 6.985410e+001
3.943728e+002, 6.761685e+001
3.948549e+002, 6.570437e+001
3.953370e+002, 6.404085e+001
3.958192e+002, 6.237801e+001
3.963013e+002, 6.045437e+001
3.967834e+002, 5.840940e+001
3.972655e+002, 5.673480e+001
3.977476e+002, 5.550602e+001
3.982297e+002, 5.446225e+001
3.987119e+002, 5.360201e+001
3.991940e+002, 5.280064e+001
3.996761e+002, 5.188850e+001
4.001582e+002, 5.078679e+001
4.006403e+002, 4.964343e+001
4.011224e+002, 4.856004e+001
4.016046e+002, 4.753505e+001
4.020867e+002, 4.671073e+001
4.025688e+002, 4.623612e+001
4.030509e+002, 4.586440e+001
4.035330e+002, 4.526088e+001
4.040151e+002, 4.441900e+001
4.044973e+002, 4.366240e+001
4.049794e+002, 4.321391e+001
4.054615e+002, 4.291954e+001
4.059436e+002, 4.249012e+001
4.064257e+002, 4.187895e+001
4.069078e+002, 4.126828e+001
4.073900e+002, 4.083258e+001
4.078721e+002, 4.053574e+001
4.083542e+002, 4.016650e+001
4.088363e+002, 3.965212e+001
4.093184e+002, 3.911599e+001
4.098005e+002, 3.862019e+001
4.102827e+002, 3.816741e+001
4.107648e+002, 3.779064e+001
4.112469e+002, 3.752884e+001
4.117290e+002, 3.730286e+001
4.122111e+002, 3.690435e+001
4.126932e+002, 3.621384e+001
4.131754e+002, 3.567340e+001
4.136575e+002, 3.536928e+001
4.141396e+002, 3.524561e+001
4.146217e+002, 3.534766e+001
4.151038e+002, 3.564661e+001
4.155859e+002, 3.584509e+001
4.160681e+002, 3.560283e+001
4.165502e+002, 3.485217e+001
4.170323e+002, 3.442557e+001
4.175144e+002, 3.453931e+001
4.179965e+002, 3.469392e+001
4.184786e+002, 3.473477e+001
4.189608e+002, 3.466305e+001
4.194429e+002, 3.447593e+001
4.199250e+002, 3.416270e+001
4.204071e+002, 3.381493e+001
4.208892e+002, 3.369568e+001
4.213713e+002, 3.403786e+001
4.218535e+002, 3.426369e+001
4.223356e+002, 3.434749e+001
4.228177e+002, 3.432566e+001
4.232998e+002, 3.418912e+001
4.237819e+002, 3.395906e+001
4.242640e+002, 3.371138e+001
4.247462e+002, 3.351211e+001
4.252283e+002, 3.335735e+001
4.257104e+002, 3.330023e+001
4.261925e+002, 3.346976e+001
4.266746e+002, 3.360003e+001
4.271567e+002, 3.360780e+001
4.276389e+002, 3.352879e+001
4.281210e+002, 3.341425e+001
4.286031e+002, 3.328242e+001
4.290852e+002, 3.315237e+001
4.295673e+002, 3.304073e+001
4.300494e+002, 3.291220e+001
4.305316e+002, 3.292709e+001
4.310137e+002, 3.327383e+001
4.314958e+002, 3.367856e+001
4.319779e+002, 3.396622e+001
4.324600e+002, 3.412814e+001
4.329421e+002, 3.427021e+001
4.334243e+002, 3.447642e+001
4.339064e+002, 3.473030e+001
4.343885e+002, 3.495140e+001
4.348706e+002, 3.511018e+001
4.353527e+002, 3.529894e+001
4.358348e+002, 3.563396e+001
4.363170e+002, 3.603070e+001
4.367991e+002, 3.633772e+001
4.372812e+002, 3.644715e+001
4.377633e+002, 3.655384e+001
4.382454e+002, 3.687833e+001
4.387275e+002, 3.738716e+001
4.392097e+002, 3.783488e+001
4.396918e+002, 3.812041e+001
4.401739e+002, 3.833065e+001
4.406560e+002, 3.858722e+001
4.411381e+002, 3.888982e+001
4.416202e+002, 3.921350e+001
4.421024e+002, 3.956474e+001
4.425845e+002, 3.992558e+001
4.430666e+002, 4.024603e+001
4.435487e+002, 4.053050e+001
4.440308e+002, 4.086898e+001
4.445129e+002, 4.131170e+001
4.449951e+002, 4.186817e+001
4.454772e+002, 4.261901e+001
4.459593e+002, 4.370848e+001
4.464414e+002, 4.478813e+001
4.469235e+002, 4.576741e+001
4.474056e+002, 4.666677e+001
4.478878e+002, 4.746904e+001
4.483699e+002, 4.817451e+001
4.488520e+002, 4.893710e+001
4.493341e+002, 5.002910e+001
4.498162e+002, 5.165934e+001
4.502983e+002, 5.301283e+001
4.507805e+002, 5.416570e+001
4.512626e+002, 5.501878e+001
4.517447e+002, 5.551383e+001
4.522268e+002, 5.566618e+001
4.527089e+002, 5.554341e+001
4.531910e+002, 5.520241e+001
4.536732e+002, 5.460037e+001
4.541553e+002, 5.351875e+001
4.546374e+002, 5.163811e+001
4.551195e+002, 4.980187e+001
4.556016e+002, 4.803312e+001
4.560837e+002, 4.643267e+001
4.565659e+002, 4.522943e+001
4.570480e+002, 4.440036e+001
4.575301e+002, 4.351579e+001
4.580122e+002, 4.197834e+001
4.584943e+002, 3.980286e+001
4.589764e+002, 3.809713e+001
4.594586e+002, 3.705904e+001
4.599407e+002, 3.627232e+001
4.604228e+002, 3.555856e+001
4.609049e+002, 3.491009e+001
4.613870e+002, 3.430526e+001
4.618691e+002, 3.370679e+001
4.623513e+002, 3.319868e+001
4.628334e+002, 3.290275e+001
4.633155e+002, 3.281428e+001
4.637976e+002, 3.281433e+001
4.642797e+002, 3.288667e+001
4.647618e+002, 3.301220e+001
4.652440e+002, 3.318810e+001
4.657261e+002, 3.341763e+001
4.662082e+002, 3.359217e+001
4.666903e+002, 3.364235e+001
4.671724e+002, 3.363652e+001
4.676545e+002, 3.362911e+001
4.681367e+002, 3.363053e+001
4.686188e+002, 3.369495e+001
4.691009e+002, 3.383895e+001
4.695830e+002, 3.408156e+001
4.700651e+002, 3.452241e+001
4.705472e+002, 3.531471e+001
4.710294e+002, 3.607734e+001
4.715115e+002, 3.668729e+001
4.719936e+002, 3.722448e+001
4.724757e+002, 3.775068e+001
4.729578e+002, 3.829276e+001
4.734399e+002, 3.894092e+001
4.739221e+002, 3.981776e+001
4.744042e+002, 4.096765e+001
4.748863e+002, 4.209099e+001
4.753684e+002, 4.316885e+001
4.758505e+002, 4.425295e+001
4.763326e+002, 4.532565e+001
4.768148e+002, 4.642220e+001
4.772969e+002, 4.760679e+001
4.777790e+002, 4.890477e+001
4.782611e+002, 5.027004e+001
4.787432e+002, 5.157557e+001
4.792253e+002, 5.275820e+001
4.797075e+002, 5.404776e+001
4.801896e+002, 5.557656e+001
4.806717e+002, 5.712477e+001
4.811538e+002, 5.851301e+001
4.816359e+002, 5.978943e+001
4.821180e+002, 6.119280e+001
4.826002e+002, 6.294057e+001
4.830823e+002, 6.490794e+001
4.835644e+002, 6.673222e+001
4.840465e+002, 6.832366e+001
4.845286e+002, 7.007241e+001
4.850107e+002, 7.218412e+001
4.854929e+002, 7.453610e+001
4.859750e+002, 7.698071e+001
4.864571e+002, 7.946485e+001
4.869392e+002, 8.216496e+001
4.874213e+002, 8.517764e+001
4.879034e+002, 8.848875e+001
4.883856e+002, 9.210756e+001
4.888677e+002, 9.609414e+001
4.893498e+002, 1.001328e+002
4.898319e+002, 1.039711e+002
4.903140e+002, 1.076099e+002
4.907961e+002, 1.111129e+002
4.912783e+002, 1.149269e+002
4.917604e+002, 1.181687e+002
4.922425e+002, 1.204105e+002
4.927246e+002, 1.218188e+002
4.932067e+002, 1.227629e+002
4.936888e+002, 1.233738e+002
4.941710e+002, 1.234167e+002
4.946531e+002, 1.224755e+002
4.951352e+002, 1.202481e+002
4.956173e+002, 1.179251e+002
4.960994e+002, 1.153291e+002
4.965815e+002, 1.128237e+002
4.970637e+002, 1.106087e+002
4.975458e+002, 1.086300e+002
4.980279e+002, 1.066693e+002
4.985100e+002, 1.045651e+002
4.989921e+002, 1.025966e+002
4.994742e+002, 1.014647e+002
4.999564e+002, 1.013616e+002
5.004385e+002, 1.016360e+002
5.009206e+002, 1.021671e+002
5.014027e+002, 1.030680e+002
5.018848e+002, 1.045410e+002
5.023669e+002, 1.065137e+002
5.028491e+002, 1.085938e+002
5.033312e+002, 1.104020e+002
5.038133e+002, 1.121475e+002
5.042954e+002, 1.143934e+002
5.047775e+002, 1.171608e+002
5.052596e+002, 1.202863e+002
5.057418e+002, 1.236620e+002
5.062239e+002, 1.273859e+002
5.067060e+002, 1.314865e+002
5.071881e+002, 1.358578e+002
5.076702e+002, 1.410382e+002
5.081523e+002, 1.473803e+002
5.086345e+002, 1.546784e+002
5.091166e+002, 1.626002e+002
5.095987e+002, 1.711282e+002
5.100808e+002, 1.802667e+002
5.105629e+002, 1.900120e+002
5.110450e+002, 2.003677e+002
5.115272e+002, 2.116268e+002
5.120093e+002, 2.239319e+002
5.124914e+002, 2.368934e+002
5.129735e+002, 2.509031e+002
5.134556e+002, 2.653338e+002
5.139377e+002, 2.799889e+002
5.144199e+002, 2.945432e+002
5.149020e+002, 3.080439e+002
5.153841e+002, 3.193669e+002
5.158662e+002, 3.287797e+002
5.163483e+002, 3.340934e+002
5.168304e+002, 3.341080e+002
5.173126e+002, 3.310599e+002
5.177947e+002, 3.250715e+002
5.182768e+002, 3.164814e+002
5.187589e+002, 3.054866e+002
5.192410e+002, 2.921222e+002
5.197231e+002, 2.770741e+002
5.202053e+002, 2.607514e+002
5.206874e+002, 2.430465e+002
5.211695e+002, 2.260822e+002
5.216516e+002, 2.099822e+002
5.221337e+002, 1.949542e+002
5.226158e+002, 1.810550e+002
5.230980e+002, 1.681936e+002
5.235801e+002, 1.560862e+002
5.240622e+002, 1.445348e+002
5.245443e+002, 1.338524e+002
5.250264e+002, 1.246031e+002
5.255085e+002, 1.166069e+002
5.259907e+002, 1.092569e+002
5.264728e+002, 1.022881e+002
5.269549e+002, 9.588057e+001
5.274370e+002, 9.038682e+001
5.279191e+002, 8.582909e+001
5.284012e+002, 8.164165e+001
5.288834e+002, 7.776623e+001
5.293655e+002, 7.424567e+001
5.298476e+002, 7.120071e+001
5.303297e+002, 6.853566e+001
5.308118e+002, 6.603375e+001
5.312939e+002, 6.357484e+001
5.317761e+002, 6.120738e+001
5.322582e+002, 5.903357e+001
5.327403e+002, 5.688461e+001
5.332224e+002, 5.528338e+001
5.337045e+002, 5.448021e+001
5.341866e+002, 5.394041e+001
5.346688e+002, 5.346050e+001
5.351509e+002, 5.296425e+001
5.356330e+002, 5.234558e+001
5.361151e+002, 5.147287e+001
5.365972e+002, 5.051321e+001
5.370793e+002, 4.991097e+001
5.375615e+002, 4.971302e+001
5.380436e+002, 4.970018e+001
5.385257e+002, 5.001404e+001
5.390078e+002, 5.033466e+001
5.394899e+002, 5.037706e+001
5.399720e+002, 5.014138e+001
5.404542e+002, 4.982336e+001
5.409363e+002, 4.936516e+001
5.414184e+002, 4.895728e+001
5.419005e+002, 4.894020e+001
5.423826e+002, 4.930515e+001
5.428647e+002, 4.966989e+001
5.433469e+002, 4.981907e+001
5.438290e+002, 4.985936e+001
5.443111e+002, 5.006665e+001
5.447932e+002, 5.044927e+001
5.452753e+002, 5.094051e+001
5.457574e+002, 5.174507e+001
5.462396e+002, 5.250511e+001
5.467217e+002, 5.276918e+001
5.472038e+002, 5.264194e+001
5.476859e+002, 5.266506e+001
5.481680e+002, 5.322839e+001
5.486501e+002, 5.422972e+001
5.491323e+002, 5.522744e+001
5.496144e+002, 5.623577e+001
5.500965e+002, 5.720617e+001
5.505786e+002, 5.814260e+001
5.510607e+002, 5.904288e+001
5.515428e+002, 5.998279e+001
5.520250e+002, 6.091235e+001
5.525071e+002, 6.161573e+001
5.529892e+002, 6.198202e+001
5.534713e+002, 6.199341e+001
5.539534e+002, 6.158273e+001
5.544355e+002, 6.072557e+001
5.549177e+002, 5.954516e+001
5.553998e+002, 5.794343e+001
5.558819e+002, 5.613097e+001
5.563640e+002, 5.440085e+001
5.568461e+002, 5.277050e+001
5.573282e+002, 5.111234e+001
5.578104e+002, 4.925760e+001
5.582925e+002, 4.740763e+001
5.587746e+002, 4.583361e+001
5.592567e+002, 4.452043e+001
5.597388e+002, 4.329227e+001
5.602209e+002, 4.202787e+001
5.607031e+002, 4.077719e+001
5.611852e+002, 3.969625e+001
5.616673e+002, 3.884512e+001
5.621494e+002, 3.807697e+001
5.626315e+002, 3.741607e+001
5.631136e+002, 3.681733e+001
5.635958e+002, 3.623962e+001
5.640779e+002, 3.568827e+001
5.645600e+002, 3.521129e+001
5.650421e+002, 3.484264e+001
5.655242e+002, 3.456883e+001
5.660063e+002, 3.435494e+001
5.664885e+002, 3.422445e+001
5.669706e+002, 3.408749e+001
5.674527e+002, 3.383578e+001
5.679348e+002, 3.364031e+001
5.684169e+002, 3.367150e+001
5.688990e+002, 3.390224e+001
5.693812e+002, 3.409929e+001
5.698633e+002, 3.399655e+001
5.703454e+002, 3.386415e+001
5.708275e+002, 3.416401e+001
5.713096e+002, 3.486799e+001
5.717917e+002, 3.551633e+001
5.722739e+002, 3.588329e+001
5.727560e+002, 3.615750e+001
5.732381e+002, 3.672854e+001
5.737202e+002, 3.774026e+001
5.742023e+002, 3.847624e+001
5.746844e+002, 3.869407e+001
5.751666e+002, 3.877276e+001
5.756487e+002, 3.904199e+001
5.761308e+002, 3.939282e+001
5.766129e+002, 3.949883e+001
5.770950e+002, 3.918708e+001
5.775771e+002, 3.856735e+001
5.780593e+002, 3.785174e+001
5.785414e+002, 3.697029e+001
5.790235e+002, 3.618437e+001
5.795056e+002, 3.559554e+001
5.799877e+002, 3.502174e+001
5.804698e+002, 3.439035e+001
5.809520e+002, 3.371051e+001
5.814341e+002, 3.299995e+001
5.819162e+002, 3.224256e+001
5.823983e+002, 3.150876e+001
5.828804e+002, 3.089715e+001
5.833625e+002, 3.040036e+001
5.838447e+002, 2.996560e+001
5.843268e+002, 2.958266e+001
5.848089e+002, 2.925523e+001
5.852910e+002, 2.900307e+001
5.857731e+002, 2.882140e+001
5.862552e+002, 2.866432e+001
5.867374e+002, 2.851813e+001
5.872195e+002, 2.840617e+001
5.877016e+002, 2.840946e+001
5.881837e+002, 2.843807e+001
5.886658e+002, 2.828953e+001
5.891479e+002, 2.791553e+001
5.896301e+002, 2.753638e+001
5.901122e+002, 2.743516e+001
5.905943e+002, 2.764617e+001
5.910764e+002, 2.781144e+001
5.915585e+002, 2.796738e+001
5.920406e+002, 2.802812e+001
5.925228e+002, 2.794508e+001
5.930049e+002, 2.776972e+001
5.934870e+002, 2.751998e+001
5.939691e+002, 2.720615e+001
5.944512e+002, 2.696559e+001
5.949333e+002, 2.698695e+001
5.954155e+002, 2.720135e+001
5.958976e+002, 2.729701e+001
5.963797e+002, 2.723501e+001
5.968618e+002, 2.715409e+001
5.973439e+002, 2.714495e+001
5.978260e+002, 2.716673e+001
5.983082e+002, 2.711136e+001
5.987903e+002, 2.692489e+001
5.992724e+002, 2.679810e+001
5.997545e+002, 2.686610e+001
6.002366e+002, 2.697852e+001
6.007188e+002, 2.692065e+001
6.012009e+002, 2.671869e+001
6.016830e+002, 2.662825e+001
6.021651e+002, 2.684016e+001
6.026472e+002, 2.724962e+001
6.031293e+002, 2.746612e+001
6.036115e+002, 2.739796e+001
6.040936e+002, 2.729833e+001
6.045757e+002, 2.715639e+001
6.050578e+002, 2.701688e+001
6.055399e+002, 2.691394e+001
6.060220e+002, 2.683894e+001
6.065042e+002, 2.676245e+001
6.069863e+002, 2.668633e+001
6.074684e+002, 2.657343e+001
6.079505e+002, 2.630312e+001
6.084326e+002, 2.588262e+001
6.089147e+002, 2.564131e+001
6.093969e+002, 2.573774e+001
6.098790e+002, 2.590603e+001
6.103611e+002, 2.586742e+001
6.108432e+002, 2.563537e+001
6.113253e+002, 2.533841e+001
6.118074e+002, 2.490548e+001
6.122896e+002, 2.449859e+001
6.127717e+002, 2.426807e+001
6.132538e+002, 2.410290e+001
6.137359e+002, 2.375816e+001
6.142180e+002, 2.317874e+001
6.147001e+002, 2.262910e+001
6.151823e+002, 2.245189e+001
6.156644e+002, 2.267431e+001
6.161465e+002, 2.269735e+001
6.166286e+002, 2.237920e+001
6.171107e+002, 2.204967e+001
6.175928e+002, 2.179369e+001
6.180750e+002, 2.156953e+001
6.185571e+002, 2.132975e+001
6.190392e+002, 2.106692e+001
6.195213e+002, 2.081656e+001
6.200034e+002, 2.062037e+001
6.204855e+002, 2.045270e+001
6.209677e+002, 2.023382e+001
6.214498e+002, 1.995777e+001
6.219319e+002, 1.973930e+001
6.224140e+002, 1.963487e+001
6.228961e+002, 1.962252e+001
6.233782e+002, 1.967781e+001
6.238604e+002, 1.984680e+001
6.243425e+002, 1.993067e+001
6.248246e+002, 1.990507e+001
6.253067e+002, 1.978951e+001
6.257888e+002, 1.951878e+001
6.262709e+002, 1.917372e+001
6.267531e+002, 1.892888e+001
6.272352e+002, 1.887207e+001
6.277173e+002, 1.893117e+001
6.281994e+002, 1.900483e+001
6.286815e+002, 1.911813e+001
6.291636e+002, 1.909517e+001
6.296458e+002, 1.877196e+001
6.301279e+002, 1.851304e+001
6.306100e+002, 1.858408e+001
6.310921e+002, 1.881451e+001
6.315742e+002, 1.888640e+001
6.320563e+002, 1.867269e+001
6.325385e+002, 1.843765e+001
6.330206e+002, 1.837749e+001
6.335027e+002, 1.842950e+001
6.339848e+002, 1.848166e+001
6.344669e+002, 1.851641e+001
6.349490e+002, 1.853000e+001
6.354312e+002, 1.852007e+001
6.359133e+002, 1.848697e+001
6.363954e+002, 1.843120e+001
6.368775e+002, 1.827177e+001
6.373596e+002, 1.820210e+001
6.378417e+002, 1.833585e+001
6.383239e+002, 1.847378e+001
6.388060e+002, 1.845008e+001
6.392881e+002, 1.829715e+001
6.397702e+002, 1.815495e+001
6.402523e+002, 1.809962e+001
6.407344e+002, 1.812100e+001
6.412166e+002, 1.824543e+001
6.416987e+002, 1.848337e+001
6.421808e+002, 1.858087e+001
6.426629e+002, 1.843885e+001
6.431450e+002, 1.822528e+001
6.436271e+002, 1.807753e+001
6.441093e+002, 1.798067e+001
6.445914e+002, 1.788806e+001
6.450735e+002, 1.773823e+001
6.455556e+002, 1.765520e+001
6.460377e+002, 1.777505e+001
6.465198e+002, 1.796479e+001
6.470020e+002, 1.800576e+001
6.474841e+002, 1.787332e+001
6.479662e+002, 1.774378e+001
6.484483e+002, 1.778719e+001
6.489304e+002, 1.796588e+001
6.494125e+002, 1.799911e+001
6.498947e+002, 1.776354e+001
6.503768e+002, 1.761474e+001
6.508589e+002, 1.766508e+001
6.513410e+002, 1.777779e+001
6.518231e+002, 1.790691e+001
6.523052e+002, 1.802286e+001
6.527874e+002, 1.803597e+001
6.532695e+002, 1.781943e+001
6.537516e+002, 1.755630e+001
6.542337e+002, 1.748619e+001
6.547158e+002, 1.757411e+001
6.551979e+002, 1.766440e+001
6.556801e+002, 1.771545e+001
6.561622e+002, 1.774500e+001
6.566443e+002, 1.778418e+001
6.571264e+002, 1.783891e+001
6.576085e+002, 1.777986e+001
6.580906e+002, 1.739826e+001
6.585728e+002, 1.717943e+001
6.590549e+002, 1.738425e+001
6.595370e+002, 1.771906e+001
6.600191e+002, 1.786821e+001
6.605012e+002, 1.779680e+001
6.609833e+002, 1.769464e+001
6.614655e+002, 1.772316e+001
6.619476e+002, 1.783588e+001
6.624297e+002, 1.789205e+001
6.629118e+002, 1.788943e+001
6.633939e+002, 1.784730e+001
6.638760e+002, 1.776397e+001
6.643582e+002, 1.765240e+001
6.648403e+002, 1.750029e+001
6.653224e+002, 1.731349e+001
6.658045e+002, 1.720655e+001
6.662866e+002, 1.721726e+001
6.667687e+002, 1.729139e+001
6.672509e+002, 1.745129e+001
6.677330e+002, 1.763732e+001
6.682151e+002, 1.776001e+001
6.686972e+002, 1.779495e+001
6.691793e+002, 1.776363e+001
6.696614e+002, 1.767258e+001
6.701436e+002, 1.753082e+001
6.706257e+002, 1.747304e+001
6.711078e+002, 1.754441e+001
6.715899e+002, 1.760595e+001
6.720720e+002, 1.758532e+001
6.725541e+002, 1.756427e+001
6.730363e+002, 1.764115e+001
6.735184e+002, 1.780351e+001
6.740005e+002, 1.789003e+001
6.744826e+002, 1.778477e+001
6.749647e+002, 1.761073e+001
6.754468e+002, 1.745777e+001
6.759290e+002, 1.733725e+001
6.764111e+002, 1.728080e+001
6.768932e+002, 1.729847e+001
6.773753e+002, 1.737582e+001
6.778574e+002, 1.751549e+001
6.783395e+002, 1.772535e+001
6.788217e+002, 1.779314e+001
6.793038e+002, 1.757980e+001
6.797859e+002, 1.739809e+001
6.802680e+002, 1.730288e+001
6.807501e+002, 1.726036e+001
6.812322e+002, 1.725065e+001
6.817144e+002, 1.726518e+001
6.821965e+002, 1.728415e+001
6.826786e+002, 1.729051e+001
6.831607e+002, 1.729645e+001
6.836428e+002, 1.734191e+001
6.841249e+002, 1.741691e+001
6.846071e+002, 1.742813e+001
6.850892e+002, 1.733977e+001
6.855713e+002, 1.720292e+001
6.860534e+002, 1.705348e+001
6.865355e+002, 1.688545e+001
6.870176e+002, 1.684162e+001
6.874998e+002, 1.702132e+001
6.879819e+002, 1.718772e+001
6.884640e+002, 1.731936e+001
6.889461e+002, 1.738552e+001
6.894282e+002, 1.729587e+001
6.899103e+002, 1.708488e+001
6.903925e+002, 1.696153e+001
6.908746e+002, 1.713088e+001
6.913567e+002, 1.745222e+001
6.918388e+002, 1.758298e+001
6.923209e+002, 1.751717e+001
6.928030e+002, 1.740636e+001
6.932852e+002, 1.725413e+001
6.937673e+002, 1.713711e+001
6.942494e+002, 1.715117e+001
6.947315e+002, 1.728865e+001
6.952136e+002, 1.740654e+001
6.956957e+002, 1.756684e+001
6.961779e+002, 1.762617e+001
6.966600e+002, 1.730775e+001
6.971421e+002, 1.699623e+001
6.976242e+002, 1.702425e+001
6.981063e+002, 1.749505e+001
6.985884e+002, 1.863338e+001
6.990706e+002, 2.090778e+001
6.995527e+002, 2.345565e+001
7.000348e+002, 2.332695e+001
7.005169e+002, 1.991395e+001
7.009990e+002, 1.783287e+001
7.014811e+002, 1.867396e+001
7.019633e+002, 2.009582e+001
7.024454e+002, 2.002793e+001
7.029275e+002, 1.889316e+001
7.034096e+002, 1.806664e+001
7.038917e+002, 1.786542e+001
7.043738e+002, 1.781057e+001
7.048560e+002, 1.772109e+001
7.053381e+002, 1.765645e+001
7.058202e+002, 1.773444e+001
7.063023e+002, 1.792893e+001
7.067844e+002, 1.805545e+001
7.072665e+002, 1.797736e+001
7.077487e+002, 1.778111e+001
7.082308e+002, 1.770410e+001
7.087129e+002, 1.776651e+001
7.091950e+002, 1.786806e+001
7.096771e+002, 1.811437e+001
7.101592e+002, 1.823945e+001
7.106414e+002, 1.790078e+001
7.111235e+002, 1.734912e+001
7.116056e+002, 1.715613e+001
7.120877e+002, 1.758512e+001
7.125698e+002, 1.797750e+001
7.130519e+002, 1.792939e+001
7.135341e+002, 1.772181e+001
7.140162e+002, 1.768395e+001
7.144983e+002, 1.782123e+001
7.149804e+002, 1.800102e+001
7.154625e+002, 1.815791e+001
7.159446e+002, 1.824173e+001
7.164268e+002, 1.809377e+001
7.169089e+002, 1.760394e+001
7.173910e+002, 1.738643e+001
7.178731e+002, 1.763178e+001
7.183552e+002, 1.791435e+001
7.188373e+002, 1.806667e+001
7.193195e+002, 1.811947e+001
7.198016e+002, 1.809692e+001
7.202837e+002, 1.798720e+001
7.207658e+002, 1.789394e+001
7.212479e+002, 1.784348e+001
7.217300e+002, 1.785050e+001
7.222122e+002, 1.795835e+001
7.226943e+002, 1.814140e+001
7.231764e+002, 1.833800e+001
7.236585e+002, 1.852302e+001
7.241406e+002, 1.862936e+001
7.246227e+002, 1.851734e+001
7.251049e+002, 1.814268e+001
7.255870e+002, 1.798000e+001
7.260691e+002, 1.819771e+001
7.265512e+002, 1.835532e+001
7.270333e+002, 1.820411e+001
7.275154e+002, 1.798373e+001
7.279976e+002, 1.794966e+001
7.284797e+002, 1.812002e+001
7.289618e+002, 1.828774e+001
7.294439e+002, 1.834414e+001
7.299260e+002, 1.837933e+001
7.304081e+002, 1.850389e+001
7.308903e+002, 1.866806e+001
7.313724e+002, 1.873416e+001
7.318545e+002, 1.866701e+001
7.323366e+002, 1.857418e+001
7.328187e+002, 1.857696e+001
7.333008e+002, 1.866184e+001
7.337830e+002, 1.865922e+001
7.342651e+002, 1.852342e+001
7.347472e+002, 1.839860e+001
7.352293e+002, 1.827545e+001
7.357114e+002, 1.820951e+001
7.361935e+002, 1.828040e+001
7.366757e+002, 1.845455e+001
7.371578e+002, 1.858246e+001
7.376399e+002, 1.861585e+001
7.381220e+002, 1.859375e+001
7.386041e+002, 1.849981e+001
7.390862e+002, 1.838425e+001
7.395684e+002, 1.835364e+001
7.400505e+002, 1.840579e+001
7.405326e+002, 1.840254e+001
7.410147e+002, 1.822535e+001
7.414968e+002, 1.797367e+001
7.419789e+002, 1.797903e+001
7.424611e+002, 1.833924e+001
7.429432e+002, 1.859284e+001
7.434253e+002, 1.864331e+001
7.439074e+002, 1.864527e+001
7.443895e+002, 1.868893e+001
7.448716e+002, 1.874723e+001
7.453538e+002, 1.877457e+001
7.458359e+002, 1.877097e+001
7.463180e+002, 1.871297e+001
7.468001e+002, 1.851736e+001
7.472822e+002, 1.831545e+001
7.477643e+002, 1.823362e+001
7.482465e+002, 1.827004e+001
7.487286e+002, 1.840003e+001
7.492107e+002, 1.861246e+001
7.496928e+002, 1.882829e+001
7.501749e+002, 1.890657e+001
7.506570e+002, 1.883632e+001
7.511392e+002, 1.889064e+001
7.516213e+002, 1.917563e+001
7.521034e+002, 1.933649e+001
7.525855e+002, 1.910984e+001
7.530676e+002, 1.877145e+001
7.535497e+002, 1.868199e+001
7.540319e+002, 1.885373e+001
7.545140e+002, 1.896831e+001
7.549961e+002, 1.881913e+001
7.554782e+002, 1.872785e+001
7.559603e+002, 1.899159e+001
7.564424e+002, 1.939817e+001
7.569246e+002, 1.961596e+001
7.574067e+002, 1.958113e+001
7.578888e+002, 1.944195e+001
7.583709e+002, 1.929918e+001
7.588530e+002, 1.917986e+001
7.593351e+002, 1.919110e+001
7.598173e+002, 1.934789e+001
7.602994e+002, 1.950288e+001
7.607815e+002, 1.961427e+001
7.612636e+002, 1.973765e+001
7.617457e+002, 1.997079e+001
7.622278e+002, 2.026290e+001
7.627100e+002, 2.037288e+001
7.631921e+002, 2.011218e+001
7.636742e+002, 1.995407e+001
7.641563e+002, 2.004469e+001
7.646384e+002, 2.024922e+001
7.651205e+002, 2.053100e+001
7.656027e+002, 2.082571e+001
7.660848e+002, 2.099099e+001
7.665669e+002, 2.095449e+001
7.670490e+002, 2.088123e+001
7.675311e+002, 2.101606e+001
7.680132e+002, 2.131496e+001
7.684954e+002, 2.152286e+001
7.689775e+002, 2.161445e+001
7.694596e+002, 2.170086e+001
7.699417e+002, 2.182382e+001
7.704238e+002, 2.199107e+001
7.709059e+002, 2.224031e+001
7.713881e+002, 2.263186e+001
7.718702e+002, 2.284686e+001
7.723523e+002, 2.262546e+001
7.728344e+002, 2.254290e+001
7.733165e+002, 2.291470e+001
7.737986e+002, 2.345885e+001
7.742808e+002, 2.385947e+001
7.747629e+002, 2.407425e+001
7.752450e+002, 2.426491e+001
7.757271e+002, 2.453286e+001
7.762092e+002, 2.484220e+001
7.766913e+002, 2.516001e+001
7.771735e+002, 2.547507e+001
7.776556e+002, 2.571752e+001
7.781377e+002, 2.586884e+001
7.786198e+002, 2.604364e+001
7.791019e+002, 2.635049e+001
7.795840e+002, 2.675460e+001
7.800662e+002, 2.706710e+001
7.805483e+002, 2.717805e+001
7.810304e+002, 2.740766e+001
7.815125e+002, 2.791512e+001
7.819946e+002, 2.840015e+001
7.824767e+002, 2.865588e+001
7.829589e+002, 2.880165e+001
7.834410e+002, 2.908441e+001
7.839231e+002, 2.959303e+001
7.844052e+002, 3.009939e+001
7.848873e+002, 3.036151e+001
7.853694e+002, 3.061686e+001
7.858516e+002, 3.120476e+001
7.863337e+002, 3.205643e+001
7.868158e+002, 3.287081e+001
7.872979e+002, 3.352821e+001
7.877800e+002, 3.414985e+001
7.882621e+002, 3.488200e+001
7.887443e+002, 3.572244e+001
7.892264e+002, 3.673334e+001
7.897085e+002, 3.797139e+001
7.901906e+002, 3.922593e+001
7.906727e+002, 4.045730e+001
7.911548e+002, 4.167574e+001
7.916370e+002, 4.290924e+001
7.921191e+002, 4.415054e+001
7.926012e+002, 4.530887e+001
7.930833e+002, 4.616401e+001
7.935654e+002, 4.719905e+001
7.940475e+002, 4.863061e+001
7.945297e+002, 5.029933e+001
7.950118e+002, 5.209553e+001
7.954939e+002, 5.398022e+001
7.959760e+002, 5.588141e+001
7.964581e+002, 5.774620e+001
7.969402e+002, 5.970757e+001
7.974224e+002, 6.197235e+001
7.979045e+002, 6.452400e+001
7.983866e+002, 6.720132e+001
7.988687e+002, 6.997966e+001
7.993508e+002, 7.289346e+001
7.998329e+002, 7.595582e+001
8.003151e+002, 7.916833e+001
8.007972e+002, 8.249628e+001
8.012793e+002, 8.597680e+001
8.017614e+002, 8.947031e+001
8.022435e+002, 9.291388e+001
8.027256e+002, 9.645545e+001
8.032078e+002, 1.000106e+002
8.036899e+002, 1.037647e+002
8.041720e+002, 1.079783e+002
8.046541e+002, 1.126238e+002
8.051362e+002, 1.174485e+002
8.056183e+002, 1.223745e+002
8.061005e+002, 1.273214e+002
8.065826e+002, 1.320129e+002
8.070647e+002, 1.366746e+002
8.075468e+002, 1.417924e+002
8.080289e+002, 1.474692e+002
8.085110e+002, 1.535635e+002
8.089932e+002, 1.600078e+002
8.094753e+002, 1.667467e+002
8.099574e+002, 1.737222e+002
8.104395e+002, 1.810109e+002
8.109216e+002, 1.883502e+002
8.114037e+002, 1.957985e+002
8.118859e+002, 2.031270e+002
8.123680e+002, 2.104076e+002
8.128501e+002, 2.173998e+002
8.133322e+002, 2.238753e+002
8.138143e+002, 2.298903e+002
8.142964e+002, 2.347726e+002
8.147786e+002, 2.384261e+002
8.152607e+002, 2.408748e+002
8.157428e+002, 2.423615e+002
8.162249e+002, 2.425307e+002
8.167070e+002, 2.408066e+002
8.171891e+002, 2.371544e+002
8.176713e+002, 2.319902e+002
8.181534e+002, 2.254572e+002
8.186355e+002, 2.179039e+002
8.191176e+002, 2.097673e+002
8.195997e+002, 2.011347e+002
8.200818e+002, 1.926661e+002
8.205640e+002, 1.844630e+002
8.210461e+002, 1.765483e+002
8.215282e+002, 1.689437e+002
8.220103e+002, 1.616190e+002
8.224924e+002, 1.545265e+002
8.229745e+002, 1.473199e+002
8.234567e+002, 1.410107e+002
8.239388e+002, 1.358912e+002
8.244209e+002, 1.312958e+002
8.249030e+002, 1.267854e+002
8.253851e+002, 1.227473e+002
8.258672e+002, 1.197587e+002
8.263494e+002, 1.178798e+002
8.268315e+002, 1.165701e+002
8.273136e+002, 1.157347e+002
8.277957e+002, 1.152144e+002
8.282778e+002, 1.148820e+002
8.287599e+002, 1.147720e+002
8.292421e+002, 1.149305e+002
8.297242e+002, 1.153789e+002
8.302063e+002, 1.161636e+002
8.306884e+002, 1.173351e+002
8.311705e+002, 1.188391e+002
8.316526e+002, 1.205539e+002
8.321348e+002, 1.224686e+002
8.326169e+002, 1.246260e+002
8.330990e+002, 1.270572e+002
8.335811e+002, 1.296263e+002
8.340632e+002, 1.322165e+002
8.345453e+002, 1.349245e+002
8.350275e+002, 1.380193e+002
8.355096e+002, 1.415434e+002
8.359917e+002, 1.453148e+002
8.364738e+002, 1.493881e+002
8.369559e+002, 1.536543e+002
8.374380e+002, 1.583273e+002
8.379202e+002, 1.630291e+002
8.384023e+002, 1.673643e+002
8.388844e+002, 1.712992e+002
8.393665e+002, 1.751286e+002
8.398486e+002, 1.792425e+002
8.403307e+002, 1.830695e+002
8.408129e+002, 1.862645e+002
8.412950e+002, 1.886711e+002
8.417771e+002, 1.898112e+002
8.422592e+002, 1.897192e+002
8.427413e+002, 1.890832e+002
8.432234e+002, 1.883629e+002
8.437056e+002, 1.871940e+002
8.441877e+002, 1.847690e+002
8.446698e+002, 1.810403e+002
8.451519e+002, 1.767483e+002
8.456340e+002, 1.717209e+002
8.461161e+002, 1.667266e+002
8.465983e+002, 1.620747e+002
8.470804e+002, 1.576053e+002
8.475625e+002, 1.528960e+002
8.480446e+002, 1.478635e+002
8.485267e+002, 1.437896e+002
8.490089e+002, 1.411453e+002
8.494910e+002, 1.389276e+002
8.499731e+002, 1.369572e+002
8.504552e+002, 1.352046e+002
8.509373e+002, 1.335306e+002
8.514194e+002, 1.320531e+002
8.519016e+002, 1.311293e+002
8.523837e+002, 1.309431e+002
8.528658e+002, 1.312324e+002
8.533479e+002, 1.317909e+002
8.538300e+002, 1.326452e+002
8.543121e+002, 1.337880e+002
8.547943e+002, 1.352523e+002
8.552764e+002, 1.371923e+002
8.557585e+002, 1.396661e+002
8.562406e+002, 1.425836e+002
8.567227e+002, 1.457991e+002
8.572048e+002, 1.493268e+002
8.576870e+002, 1.536467e+002
8.581691e+002, 1.587788e+002
8.586512e+002, 1.645730e+002
8.591333e+002, 1.710444e+002
8.596154e+002, 1.780800e+002
8.600975e+002, 1.857789e+002
8.605797e+002, 1.940168e+002
8.610618e+002, 2.021277e+002
8.615439e+002, 2.092300e+002
8.620260e+002, 2.176486e+002
8.625081e+002, 2.285135e+002
8.629902e+002, 2.399142e+002
8.634724e+002, 2.506996e+002
8.639545e+002, 2.612519e+002
8.644366e+002, 2.723046e+002
8.649187e+002, 2.841074e+002
8.654008e+002, 2.965214e+002
8.658829e+002, 3.095075e+002
8.663651e+002, 3.230779e+002
8.668472e+002, 3.374442e+002
8.673293e+002, 3.524912e+002
8.678114e+002, 3.678948e+002
8.682935e+002, 3.836961e+002
8.687756e+002, 4.010342e+002
8.692578e+002, 4.208572e+002
8.697399e+002, 4.424272e+002
8.702220e+002, 4.641259e+002
8.707041e+002, 4.859481e+002
8.711862e+002, 5.072756e+002
8.716683e+002, 5.283320e+002
8.721505e+002, 5.479797e+002
8.726326e+002, 5.664459e+002
8.731147e+002, 5.821308e+002
8.735968e+002, 5.926801e+002
8.740789e+002, 5.981622e+002
8.745610e+002, 5.978250e+002
8.750432e+002, 5.918687e+002
8.755253e+002, 5.802099e+002
8.760074e+002, 5.616693e+002
8.764895e+002, 5.383768e+002
8.769716e+002, 5.107667e+002
8.774537e+002, 4.797995e+002
8.779359e+002, 4.475822e+002
8.784180e+002, 4.139083e+002
8.789001e+002, 3.810531e+002
8.793822e+002, 3.495583e+002
8.798643e+002, 3.200694e+002
8.803464e+002, 2.931930e+002
8.808286e+002, 2.688058e+002
8.813107e+002, 2.462695e+002
8.817928e+002, 2.253995e+002
8.822749e+002, 2.065198e+002
8.827570e+002, 1.903547e+002
8.832391e+002, 1.764099e+002
8.837213e+002, 1.632756e+002
8.842034e+002, 1.509702e+002
8.846855e+002, 1.399238e+002
8.851676e+002, 1.302930e+002
8.856497e+002, 1.216988e+002
8.861318e+002, 1.138650e+002
8.866140e+002, 1.067295e+002
8.870961e+002, 1.000735e+002
8.875782e+002, 9.381219e+001
8.880603e+002, 8.823102e+001
8.885424e+002, 8.346803e+001
8.890245e+002, 7.921500e+001
8.895067e+002, 7.545612e+001
8.899888e+002, 7.206507e+001
8.904709e+002, 6.891582e+001
8.909530e+002, 6.599014e+001
8.914351e+002, 6.329468e+001
8.919172e+002, 6.085696e+001
8.923994e+002, 5.859727e+001
8.928815e+002, 5.656229e+001
8.933636e+002, 5.462836e+001
8.938457e+002, 5.263855e+001
8.943278e+002, 5.064159e+001
8.948099e+002, 4.880986e+001
8.952921e+002, 4.721915e+001
8.957742e+002, 4.578669e+001
8.962563e+002, 4.447780e+001
8.967384e+002, 4.325749e+001
8.972205e+002, 4.209928e+001
8.977026e+002, 4.099222e+001
8.981848e+002, 3.989053e+001
8.986669e+002, 3.878264e+001
8.991490e+002, 3.783310e+001
8.996311e+002, 3.723869e+001
9.001132e+002, 3.686983e+001
9.005953e+002, 3.618649e+001
9.010775e+002, 3.514426e+001
9.015596e+002, 3.432535e+001
9.020417e+002, 3.385961e+001
9.025238e+002, 3.347066e+001
9.030059e+002, 3.302736e+001
9.034880e+002, 3.252268e+001
9.039702e+002, 3.191898e+001
9.044523e+002, 3.115887e+001
9.049344e+002, 3.053672e+001
9.054165e+002, 3.012882e+001
9.058986e+002, 2.975969e+001
9.063807e+002, 2.937239e+001
9.068629e+002, 2.901814e+001
9.073450e+002, 2.874580e+001
9.078271e+002, 2.854794e+001
9.083092e+002, 2.840117e+001
9.087913e+002, 2.837732e+001
9.092734e+002, 2.823892e+001
9.097556e+002, 2.775598e+001
9.102377e+002, 2.721943e+001
9.107198e+002, 2.688648e+001
9.112019e+002, 2.670444e+001
9.116840e+002, 2.656337e+001
9.121661e+002, 2.641678e+001
9.126483e+002, 2.618333e+001
9.131304e+002, 2.571461e+001
9.136125e+002, 2.518939e+001
9.140946e+002, 2.493700e+001
9.145767e+002, 2.487701e+001
9.150588e+002, 2.476126e+001
9.155410e+002, 2.454704e+001
9.160231e+002, 2.429207e+001
9.165052e+002, 2.402920e+001
9.169873e+002, 2.375851e+001
9.174694e+002, 2.347314e+001
9.179515e+002, 2.317153e+001
9.184337e+002, 2.286509e+001
9.189158e+002, 2.252537e+001
9.193979e+002, 2.233051e+001
9.198800e+002, 2.241526e+001
9.203621e+002, 2.251674e+001
9.208442e+002, 2.232020e+001
9.213264e+002, 2.186739e+001
9.218085e+002, 2.160965e+001
9.222906e+002, 2.168698e+001
9.227727e+002, 2.173042e+001
9.232548e+002, 2.169841e+001
9.237369e+002, 2.165866e+001
9.242191e+002, 2.170758e+001
9.247012e+002, 2.173956e+001
9.251833e+002, 2.154003e+001
9.256654e+002, 2.107111e+001
9.261475e+002, 2.075079e+001
9.266296e+002, 2.084975e+001
9.271118e+002, 2.095584e+001
9.275939e+002, 2.083668e+001
9.280760e+002, 2.063220e+001
9.285581e+002, 2.047537e+001
9.290402e+002, 2.038552e+001
9.295223e+002, 2.035238e+001
9.300045e+002, 2.037754e+001
9.304866e+002, 2.041330e+001
9.309687e+002, 2.041837e+001
9.314508e+002, 2.040500e+001
9.319329e+002, 2.038202e+001
9.324150e+002, 2.035806e+001
9.328972e+002, 2.037018e+001
9.333793e+002, 2.042181e+001
9.338614e+002, 2.045235e+001
9.343435e+002, 2.041759e+001
9.348256e+002, 2.030597e+001
9.353077e+002, 2.004019e+001
9.357899e+002, 1.963869e+001
9.362720e+002, 1.937693e+001
9.367541e+002, 1.929391e+001
9.372362e+002, 1.926257e+001
9.377183e+002, 1.923407e+001
9.382004e+002, 1.918311e+001
9.386826e+002, 1.906709e+001
9.391647e+002, 1.888419e+001
9.396468e+002, 1.870587e+001
9.401289e+002, 1.851686e+001
9.406110e+002, 1.837509e+001
9.410931e+002, 1.834934e+001
9.415753e+002, 1.829766e+001
9.420574e+002, 1.802732e+001
9.425395e+002, 1.767296e+001
9.430216e+002, 1.762883e+001
9.435037e+002, 1.806617e+001
9.439858e+002, 1.829077e+001
9.444680e+002, 1.804543e+001
9.449501e+002, 1.782538e+001
9.454322e+002, 1.783682e+001
9.459143e+002, 1.794809e+001
9.463964e+002, 1.803603e+001
9.468785e+002, 1.808855e+001
9.473607e+002, 1.812626e+001
9.478428e+002, 1.814444e+001
9.483249e+002, 1.817502e+001
9.488070e+002, 1.827468e+001
9.492891e+002, 1.836043e+001
9.497712e+002, 1.834732e+001
9.502534e+002, 1.826009e+001
9.507355e+002, 1.813348e+001
9.512176e+002, 1.799003e+001
9.516997e+002, 1.790109e+001
9.521818e+002, 1.793560e+001
9.526639e+002, 1.803483e+001
9.531461e+002, 1.814552e+001
9.536282e+002, 1.825148e+001
9.541103e+002, 1.828984e+001
9.545924e+002, 1.827267e+001
9.550745e+002, 1.831121e+001
9.555566e+002, 1.846197e+001
9.560388e+002, 1.864841e+001
9.565209e+002, 1.879645e+001
9.570030e+002, 1.888891e+001
9.574851e+002, 1.878786e+001
9.579672e+002, 1.849474e+001
9.584493e+002, 1.831982e+001
9.589315e+002, 1.833999e+001
9.594136e+002, 1.843134e+001
9.598957e+002, 1.851220e+001
9.603778e+002, 1.858101e+001
9.608599e+002, 1.862584e+001
9.613420e+002, 1.863018e+001
9.618242e+002, 1.870227e+001
9.623063e+002, 1.888178e+001
9.627884e+002, 1.902605e+001
9.632705e+002, 1.905066e+001
9.637526e+002, 1.907176e+001
9.642347e+002, 1.921614e+001
9.647169e+002, 1.946527e+001
9.651990e+002, 1.968560e+001
9.656811e+002, 1.990602e+001
9.661632e+002, 2.005079e+001
9.666453e+002, 2.009258e+001
9.671274e+002, 2.009000e+001
9.676096e+002, 2.003865e+001
9.680917e+002, 1.997378e+001
9.685738e+002, 1.992269e+001
9.690559e+002, 1.989151e+001
9.695380e+002, 1.992615e+001
9.700201e+002, 2.008458e+001
9.705023e+002, 2.024816e+001
9.709844e+002, 2.038209e+001
9.714665e+002, 2.049865e+001
9.719486e+002, 2.062260e+001
9.724307e+002, 2.073393e+001
9.729128e+002, 2.077009e+001
9.733950e+002, 2.071819e+001
9.738771e+002, 2.071853e+001
9.743592e+002, 2.091255e+001
9.748413e+002, 2.113641e+001
9.753234e+002, 2.124767e+001
9.758055e+002, 2.129557e+001
9.762877e+002, 2.135280e+001
9.767698e+002, 2.142288e+001
9.772519e+002, 2.146417e+001
9.777340e+002, 2.145543e+001
9.782161e+002, 2.146385e+001
9.786982e+002, 2.158734e+001
9.791804e+002, 2.176413e+001
9.796625e+002, 2.181764e+001
9.801446e+002, 2.181895e+001
9.806267e+002, 2.205555e+001
9.811088e+002, 2.256315e+001
9.815909e+002, 2.309652e+001
9.820731e+002, 2.349526e+001
9.825552e+002, 2.377795e+001
9.830373e+002, 2.392823e+001
9.835194e+002, 2.397896e+001
9.840015e+002, 2.418181e+001
9.844836e+002, 2.454480e+001
9.849658e+002, 2.495071e+001
9.854479e+002, 2.536697e+001
9.859300e+002, 2.577757e+001
9.864121e+002, 2.616208e+001
9.868942e+002, 2.653761e+001
9.873763e+002, 2.695481e+001
9.878585e+002, 2.741098e+001
9.883406e+002, 2.792239e+001
9.888227e+002, 2.846797e+001
9.893048e+002, 2.916663e+001
9.897869e+002, 3.013827e+001
9.902690e+002, 3.113666e+001
9.907512e+002, 3.181426e+001
9.912333e+002, 3.221774e+001
9.917154e+002, 3.293030e+001
9.921975e+002, 3.411016e+001
9.926796e+002, 3.527451e+001
9.931617e+002, 3.646952e+001
9.936439e+002, 3.753638e+001
9.941260e+002, 3.853495e+001
9.946081e+002, 3.928982e+001
9.950902e+002, 3.951686e+001
9.955723e+002, 3.920423e+001
9.960544e+002, 3.876456e+001
9.965366e+002, 3.831710e+001
9.970187e+002, 3.759250e+001
9.975008e+002, 3.645356e+001
9.979829e+002, 3.512107e+001
9.984650e+002, 3.367959e+001
9.989471e+002, 3.214864e+001
9.994293e+002, 3.050912e+001
9.999114e+002, 2.874117e+001
1.000393e+003, 2.718121e+001
1.000876e+003, 2.606473e+001
1.001358e+003, 2.500046e+001
1.001840e+003, 2.376517e+001
1.002322e+003, 2.257834e+001
1.002804e+003, 2.163376e+001
1.003286e+003, 2.089964e+001
1.003768e+003, 2.026449e+001
1.004250e+003, 1.970409e+001
1.004733e+003, 1.918520e+001
1.005215e+003, 1.867164e+001
1.005697e+003, 1.821662e+001
1.006179e+003, 1.789122e+001
1.006661e+003, 1.763143e+001
1.007143e+003, 1.731861e+001
1.007625e+003, 1.699133e+001
1.008107e+003, 1.683089e+001
1.008589e+003, 1.692817e+001
1.009072e+003, 1.700580e+001
1.009554e+003, 1.673352e+001
1.010036e+003, 1.639535e+001
1.010518e+003, 1.637670e+001
1.011000e+003, 1.653821e+001
1.011482e+003, 1.656767e+001
1.011964e+003, 1.644680e+001
1.012446e+003, 1.638415e+001
1.012929e+003, 1.649744e+001
1.013411e+003, 1.667239e+001
1.013893e+003, 1.679864e+001
1.014375e+003, 1.687471e+001
1.014857e+003, 1.689580e+001
1.015339e+003, 1.686444e+001
1.015821e+003, 1.677884e+001
1.016303e+003, 1.664451e+001
1.016785e+003, 1.650937e+001
1.017268e+003, 1.641301e+001
1.017750e+003, 1.628819e+001
1.018232e+003, 1.599357e+001
1.018714e+003, 1.557368e+001
1.019196e+003, 1.510993e+001
1.019678e+003, 1.465405e+001
1.020160e+003, 1.475272e+001
1.020642e+003, 1.554800e+001
1.021125e+003, 1.607132e+001
1.021607e+003, 1.548949e+001
1.022089e+003, 1.432974e+001
1.022571e+003, 1.382748e+001
1.023053e+003, 1.393869e+001
1.023535e+003, 1.386633e+001
1.024017e+003, 1.357529e+001
1.024499e+003, 1.326515e+001
1.024981e+003, 1.298300e+001
1.025464e+003, 1.281644e+001
1.025946e+003, 1.286694e+001
1.026428e+003, 1.305595e+001
1.026910e+003, 1.313140e+001
1.027392e+003, 1.307948e+001
1.027874e+003, 1.306587e+001
1.028356e+003, 1.312785e+001
1.028838e+003, 1.304931e+001
1.029321e+003, 1.270216e+001
1.029803e+003, 1.234883e+001
1.030285e+003, 1.226068e+001
1.030767e+003, 1.236946e+001
1.031249e+003, 1.236687e+001
1.031731e+003, 1.222345e+001
1.032213e+003, 1.207240e+001
1.032695e+003, 1.188886e+001
1.033177e+003, 1.177122e+001
1.033660e+003, 1.176205e+001
1.034142e+003, 1.182514e+001
1.034624e+003, 1.193933e+001
1.035106e+003, 1.209282e+001
1.035588e+003, 1.221142e+001
1.036070e+003, 1.231902e+001
1.036552e+003, 1.232904e+001
1.037034e+003, 1.217957e+001
1.037516e+003, 1.203496e+001
1.037999e+003, 1.194057e+001
1.038481e+003, 1.189748e+001
1.038963e+003, 1.194618e+001
1.039445e+003, 1.206109e+001
1.039927e+003, 1.204044e+001
1.040409e+003, 1.175558e+001
1.040891e+003, 1.156250e+001
1.041373e+003, 1.150902e+001
1.041855e+003, 1.148914e+001
1.042338e+003, 1.147688e+001
1.042820e+003, 1.147146e+001
1.043302e+003, 1.149003e+001
1.043784e+003, 1.152252e+001
1.044266e+003, 1.149099e+001
1.044748e+003, 1.131938e+001
1.045230e+003, 1.120847e+001
1.045712e+003, 1.119530e+001
1.046195e+003, 1.121267e+001
1.046677e+003, 1.122271e+001
1.047159e+003, 1.125798e+001
1.047641e+003, 1.139622e+001
1.048123e+003, 1.160864e+001
1.048605e+003, 1.170043e+001
1.049087e+003, 1.158123e+001
1.049569e+003, 1.146815e+001
1.050052e+003, 1.139781e+001
1.050534e+003, 1.133294e+001
1.051016e+003, 1.123356e+001
1.051498e+003, 1.114689e+001
1.051980e+003, 1.116567e+001
1.052462e+003, 1.125971e+001
1.052944e+003, 1.123248e+001
1.053426e+003, 1.094170e+001
1.053908e+003, 1.074737e+001
1.054391e+003, 1.077245e+001
1.054873e+003, 1.086450e+001
1.055355e+003, 1.100295e+001
1.055837e+003, 1.112755e+001
1.056319e+003, 1.115520e+001
1.056801e+003, 1.110439e+001
1.057283e+003, 1.108970e+001
1.057765e+003, 1.113220e+001
1.058248e+003, 1.122562e+001
1.058730e+003, 1.145967e+001
1.059212e+003, 1.164059e+001
1.059694e+003, 1.161075e+001
1.060176e+003, 1.150398e+001
1.060658e+003, 1.147687e+001
1.061140e+003, 1.152594e+001
1.061622e+003, 1.156132e+001
1.062104e+003, 1.156326e+001
1.062587e+003, 1.153749e+001
1.063069e+003, 1.147465e+001
1.063551e+003, 1.139773e+001
1.064033e+003, 1.128345e+001
1.064515e+003, 1.118819e+001
1.064997e+003, 1.118588e+001
1.065479e+003, 1.126254e+001
1.065961e+003, 1.134331e+001
1.066443e+003, 1.140521e+001
1.066926e+003, 1.147516e+001
1.067408e+003, 1.159341e+001
1.067890e+003, 1.168925e+001
1.068372e+003, 1.169961e+001
1.068854e+003, 1.167997e+001
1.069336e+003, 1.166420e+001
1.069818e+003, 1.167959e+001
1.070300e+003, 1.180039e+001
1.070782e+003, 1.208127e+001
1.071265e+003, 1.230395e+001
1.071747e+003, 1.235491e+001
1.072229e+003, 1.234071e+001
1.072711e+003, 1.229051e+001
1.073193e+003, 1.223602e+001
1.073675e+003, 1.221511e+001
1.074157e+003, 1.221720e+001
1.074639e+003, 1.219238e+001
1.075122e+003, 1.211638e+001
1.075604e+003, 1.209672e+001
1.076086e+003, 1.224643e+001
1.076568e+003, 1.239081e+001
1.077050e+003, 1.240403e+001
1.077532e+003, 1.237915e+001
1.078014e+003, 1.240764e+001
1.078496e+003, 1.248475e+001
1.078979e+003, 1.257489e+001
1.079461e+003, 1.266989e+001
1.079943e+003, 1.275857e+001
1.080425e+003, 1.281606e+001
1.080907e+003, 1.288915e+001
1.081389e+003, 1.300885e+001
1.081871e+003, 1.315124e+001
1.082353e+003, 1.333949e+001
1.082835e+003, 1.351755e+001
1.083318e+003, 1.355085e+001
1.083800e+003, 1.341204e+001
1.084282e+003, 1.331483e+001
1.084764e+003, 1.340954e+001
1.085246e+003, 1.349340e+001
1.085728e+003, 1.343396e+001
1.086210e+003, 1.334920e+001
1.086692e+003, 1.332224e+001
1.087175e+003, 1.335476e+001
1.087657e+003, 1.345033e+001
1.088139e+003, 1.360254e+001
1.088621e+003, 1.373338e+001
1.089103e+003, 1.383052e+001
1.089585e+003, 1.387378e+001
1.090067e+003, 1.377525e+001
1.090549e+003, 1.369800e+001
1.091031e+003, 1.381154e+001
1.091514e+003, 1.400671e+001
1.091996e+003, 1.411594e+001
1.092478e+003, 1.411983e+001
1.092960e+003, 1.408860e+001
1.093442e+003, 1.400272e+001
1.093924e+003, 1.396531e+001
1.094406e+003, 1.411214e+001
1.094888e+003, 1.421419e+001
1.095370e+003, 1.402876e+001
1.095853e+003, 1.377043e+001
1.096335e+003, 1.372936e+001
1.096817e+003, 1.389641e+001
1.097299e+003, 1.407194e+001
1.097781e+003, 1.426781e+001
1.098263e+003, 1.430289e+001
1.098745e+003, 1.387006e+001
1.099227e+003, 1.355715e+001
1.099709e+003, 1.383865e+001
1.100192e+003, 1.427062e+001
1.100674e+003, 1.433503e+001
1.101156e+003, 1.411872e+001
1.101638e+003, 1.407179e+001
1.102120e+003, 1.436501e+001
1.102602e+003, 1.449759e+001
1.103084e+003, 1.414977e+001
1.103566e+003, 1.387346e+001
1.104049e+003, 1.400023e+001
1.104531e+003, 1.418628e+001
1.105013e+003, 1.408697e+001
1.105495e+003, 1.382204e+001
1.105977e+003, 1.372585e+001
1.106459e+003, 1.386853e+001
1.106941e+003, 1.396759e+001
1.107423e+003, 1.396997e+001
1.107906e+003, 1.393234e+001
1.108388e+003, 1.376034e+001
1.108870e+003, 1.366455e+001
1.109352e+003, 1.393224e+001
1.109834e+003, 1.430496e+001
1.110316e+003, 1.428210e+001
1.110798e+003, 1.381356e+001
1.111280e+003, 1.349998e+001
1.111762e+003, 1.347955e+001
1.112245e+003, 1.347778e+001
1.112727e+003, 1.351766e+001
1.113209e+003, 1.350418e+001
1.113691e+003, 1.334779e+001
1.114173e+003, 1.314039e+001
1.114655e+003, 1.298828e+001
1.115137e+003, 1.289075e+001
1.115619e+003, 1.282697e+001
1.116102e+003, 1.279529e+001
1.116584e+003, 1.280247e+001
1.117066e+003, 1.289980e+001
1.117548e+003, 1.295891e+001
1.118030e+003, 1.291317e+001
1.118512e+003, 1.283577e+001
1.118994e+003, 1.280502e+001
1.119476e+003, 1.279921e+001
1.119958e+003, 1.272279e+001
1.120441e+003, 1.252542e+001
1.120923e+003, 1.242352e+001
1.121405e+003, 1.246789e+001
1.121887e+003, 1.249831e+001
1.122369e+003, 1.247863e+001
1.122851e+003, 1.239853e+001
1.123333e+003, 1.209745e+001
1.123815e+003, 1.190658e+001
1.124297e+003, 1.274421e+001
1.124780e+003, 1.479936e+001
1.125262e+003, 1.529957e+001
1.125744e+003, 1.373624e+001
1.126226e+003, 1.248936e+001
1.126708e+003, 1.200146e+001
1.127190e+003, 1.173967e+001
1.127672e+003, 1.141921e+001
1.128154e+003, 1.115429e+001
1.128636e+003, 1.114006e+001
1.129119e+003, 1.133257e+001
1.129601e+003, 1.134637e+001
1.130083e+003, 1.116094e+001
1.130565e+003, 1.101575e+001
1.131047e+003, 1.093231e+001
1.131529e+003, 1.092764e+001
1.132011e+003, 1.102190e+001
1.132493e+003, 1.109456e+001
1.132976e+003, 1.100363e+001
1.133458e+003, 1.084018e+001
1.133940e+003, 1.090328e+001
1.134422e+003, 1.116706e+001
1.134904e+003, 1.130475e+001
1.135386e+003, 1.130426e+001
1.135868e+003, 1.122718e+001
1.136350e+003, 1.109164e+001
1.136833e+003, 1.092542e+001
1.137315e+003, 1.073825e+001
1.137797e+003, 1.059312e+001
1.138279e+003, 1.065026e+001
1.138761e+003, 1.082632e+001
1.139243e+003, 1.077481e+001
1.139725e+003, 1.057287e+001
1.140207e+003, 1.060644e+001
1.140689e+003, 1.089176e+001
1.141172e+003, 1.108472e+001
1.141654e+003, 1.102267e+001
1.142136e+003, 1.085242e+001
1.142618e+003, 1.068879e+001
1.143100e+003, 1.056343e+001
1.143582e+003, 1.054934e+001
1.144064e+003, 1.060663e+001
1.144546e+003, 1.064082e+001
1.145029e+003, 1.066734e+001
1.145511e+003, 1.080131e+001
1.145993e+003, 1.105150e+001
1.146475e+003, 1.121365e+001
1.146957e+003, 1.113493e+001
1.147439e+003, 1.095020e+001
1.147921e+003, 1.069746e+001
1.148403e+003, 1.049267e+001
1.148885e+003, 1.051703e+001
1.149368e+003, 1.067654e+001
1.149850e+003, 1.085063e+001
1.150332e+003, 1.098014e+001
1.150814e+003, 1.094659e+001
1.151296e+003, 1.066483e+001
1.151778e+003, 1.043869e+001
1.152260e+003, 1.045780e+001
1.152742e+003, 1.058681e+001
1.153224e+003, 1.082971e+001
1.153707e+003, 1.105711e+001
1.154189e+003, 1.114437e+001
1.154671e+003, 1.110490e+001
1.155153e+003, 1.096074e+001
1.155635e+003, 1.071402e+001
1.156117e+003, 1.057433e+001
1.156599e+003, 1.062876e+001
1.157081e+003, 1.076941e+001
1.157563e+003, 1.112029e+001
1.158046e+003, 1.137530e+001
1.158528e+003, 1.124710e+001
1.159010e+003, 1.097114e+001
1.159492e+003, 1.086203e+001
1.159974e+003, 1.091808e+001
1.160456e+003, 1.095677e+001
1.160938e+003, 1.095224e+001
1.161420e+003, 1.095281e+001
1.161903e+003, 1.091829e+001
1.162385e+003, 1.095234e+001
1.162867e+003, 1.119203e+001
1.163349e+003, 1.137834e+001
1.163831e+003, 1.123670e+001
1.164313e+003, 1.093674e+001
1.164795e+003, 1.091148e+001
1.165277e+003, 1.120701e+001
1.165760e+003, 1.138765e+001
1.166242e+003, 1.142816e+001
1.166724e+003, 1.142957e+001
1.167206e+003, 1.139614e+001
1.167688e+003, 1.135409e+001
1.168170e+003, 1.130293e+001
1.168652e+003, 1.129687e+001
1.169134e+003, 1.143146e+001
1.169616e+003, 1.164841e+001
1.170099e+003, 1.161572e+001
1.170581e+003, 1.132782e+001
1.171063e+003, 1.131835e+001
1.171545e+003, 1.162208e+001
1.172027e+003, 1.186804e+001
1.172509e+003, 1.194402e+001
1.172991e+003, 1.200138e+001
1.173473e+003, 1.216436e+001
1.173956e+003, 1.232640e+001
1.174438e+003, 1.226440e+001
1.174920e+003, 1.206113e+001
1.175402e+003, 1.199414e+001
1.175884e+003, 1.202778e+001
1.176366e+003, 1.201648e+001
1.176848e+003, 1.195206e+001
1.177330e+003, 1.192094e+001
1.177813e+003, 1.196013e+001
1.178295e+003, 1.204145e+001
1.178777e+003, 1.217312e+001
1.179259e+003, 1.228544e+001
1.179741e+003, 1.226649e+001
1.180223e+003, 1.219072e+001
1.180705e+003, 1.217498e+001
1.181187e+003, 1.218665e+001
1.181669e+003, 1.211229e+001
1.182151e+003, 1.195965e+001
1.182634e+003, 1.189451e+001
1.183116e+003, 1.202925e+001
1.183598e+003, 1.212048e+001
1.184080e+003, 1.188785e+001
1.184562e+003, 1.172372e+001
1.185044e+003, 1.205373e+001
1.185526e+003, 1.245055e+001
1.186008e+003, 1.241617e+001
1.186490e+003, 1.208953e+001
1.186973e+003, 1.187152e+001
1.187455e+003, 1.183002e+001
1.187937e+003, 1.185521e+001
1.188419e+003, 1.197698e+001
1.188901e+003, 1.208700e+001
1.189383e+003, 1.223468e+001
1.189865e+003, 1.228429e+001
1.190347e+003, 1.208185e+001
1.190830e+003, 1.181226e+001
1.191312e+003, 1.165532e+001
1.191794e+003, 1.160340e+001
1.192276e+003, 1.162723e+001
1.192758e+003, 1.177695e+001
1.193240e+003, 1.181770e+001
1.193722e+003, 1.168056e+001
1.194204e+003, 1.165190e+001
1.194687e+003, 1.183140e+001
1.195169e+003, 1.203249e+001
1.195651e+003, 1.215886e+001
1.196133e+003, 1.217497e+001
1.196615e+003, 1.199289e+001
1.197097e+003, 1.166245e+001
1.197579e+003, 1.149053e+001
1.198061e+003, 1.146984e+001
1.198543e+003, 1.148586e+001
1.199026e+003, 1.152383e+001
1.199508e+003, 1.153849e+001
1.199990e+003, 1.151637e+001
1.200472e+003, 1.151061e+001
1.200954e+003, 1.156890e+001
1.201436e+003, 1.163843e+001
1.201918e+003, 1.165641e+001
1.202400e+003, 1.161808e+001
1.202883e+003, 1.145354e+001
1.203365e+003, 1.124697e+001
1.203847e+003, 1.122161e+001
1.204329e+003, 1.135081e+001
1.204811e+003, 1.141925e+001
1.205293e+003, 1.134958e+001
1.205775e+003, 1.127486e+001
1.206257e+003, 1.131708e+001
1.206740e+003, 1.134346e+001
1.207222e+003, 1.121862e+001
1.207704e+003, 1.107262e+001
1.208186e+003, 1.099600e+001
1.208668e+003, 1.099449e+001
1.209150e+003, 1.108381e+001
1.209632e+003, 1.124501e+001
1.210114e+003, 1.141996e+001
1.210596e+003, 1.166475e+001
1.211078e+003, 1.169132e+001
1.211561e+003, 1.123017e+001
1.212043e+003, 1.083712e+001
1.212525e+003, 1.064967e+001
1.213007e+003, 1.061802e+001
1.213489e+003, 1.078606e+001
1.213971e+003, 1.102762e+001
1.214453e+003, 1.115449e+001
1.214935e+003, 1.116957e+001
1.215417e+003, 1.112326e+001
1.215900e+003, 1.100286e+001
1.216382e+003, 1.085351e+001
1.216864e+003, 1.064882e+001
1.217346e+003, 1.057064e+001
1.217828e+003, 1.070890e+001
1.218310e+003, 1.079874e+001
1.218792e+003, 1.062015e+001
1.219274e+003, 1.034207e+001
1.219757e+003, 1.030452e+001
1.220239e+003, 1.043639e+001
1.220721e+003, 1.034937e+001
1.221203e+003, 1.010780e+001
1.221685e+003, 1.007302e+001
1.222167e+003, 1.023905e+001
1.222649e+003, 1.029150e+001
1.223131e+003, 1.013180e+001
1.223614e+003, 9.980448e+000
1.224096e+003, 1.002179e+001
1.224578e+003, 1.008883e+001
1.225060e+003, 9.959962e+000
1.225542e+003, 9.787143e+000
1.226024e+003, 9.785882e+000
1.226506e+003, 9.847393e+000
1.226988e+003, 9.733523e+000
1.227470e+003, 9.519048e+000
1.227953e+003, 9.538440e+000
1.228435e+003, 9.896143e+000
1.228917e+003, 1.011409e+001
1.229399e+003, 9.870813e+000
1.229881e+003, 9.656887e+000
1.230363e+003, 9.705754e+000
1.230845e+003, 9.745208e+000
1.231327e+003, 9.533169e+000
1.231810e+003, 9.284565e+000
1.232292e+003, 9.284381e+000
1.232774e+003, 9.472603e+000
1.233256e+003, 9.615759e+000
1.233738e+003, 9.731585e+000
1.234220e+003, 9.708769e+000
1.234702e+003, 9.478726e+000
1.235184e+003, 9.347149e+000
1.235667e+003, 9.403407e+000
1.236149e+003, 9.424731e+000
1.236631e+003, 9.287513e+000
1.237113e+003, 9.105062e+000
1.237595e+003, 9.011288e+000
1.238077e+003, 8.979757e+000
1.238559e+003, 8.918327e+000
1.239041e+003, 8.844697e+000
1.239523e+003, 8.871919e+000
1.240005e+003, 8.977794e+000
1.240488e+003, 9.030137e+000
1.240970e+003, 9.008142e+000
1.241452e+003, 8.971506e+000
1.241934e+003, 8.949267e+000
1.242416e+003, 8.946334e+000
1.242898e+003, 8.976874e+000
1.243380e+003, 9.017498e+000
1.243862e+003, 9.082410e+000
1.244344e+003, 9.111933e+000
1.244827e+003, 9.029398e+000
1.245309e+003, 8.866881e+000
1.245791e+003, 8.628177e+000
1.246273e+003, 8.362794e+000
1.246755e+003, 8.265379e+000
1.247237e+003, 8.420337e+000
1.247719e+003, 8.622390e+000
1.248201e+003, 8.994693e+000
1.248684e+003, 9.170660e+000
1.249166e+003, 8.836666e+000
1.249648e+003, 8.514239e+000
1.250130e+003, 8.531477e+000
1.250612e+003, 8.689818e+000
1.251094e+003, 8.732640e+000
1.251576e+003, 8.675336e+000
1.252058e+003, 8.615381e+000
1.252541e+003, 8.553649e+000
1.253023e+003, 8.460465e+000
1.253505e+003, 8.321476e+000
1.253987e+003, 8.351110e+000
1.254469e+003, 8.603637e+000
1.254951e+003, 8.804438e+000
1.255433e+003, 8.794036e+000
1.255915e+003, 8.685783e+000
1.256397e+003, 8.598998e+000
1.256880e+003, 8.533064e+000
1.257362e+003, 8.486041e+000
1.257844e+003, 8.459838e+000
1.258326e+003, 8.475647e+000
1.258808e+003, 8.510167e+000
1.259290e+003, 8.486451e+000
1.259772e+003, 8.417892e+000
1.260254e+003, 8.442193e+000
1.260737e+003, 8.636096e+000
1.261219e+003, 8.753870e+000
1.261701e+003, 8.566628e+000
1.262183e+003, 8.405006e+000
1.262665e+003, 8.446904e+000
1.263147e+003, 8.553520e+000
1.263629e+003, 8.635007e+000
1.264111e+003, 8.708870e+000
1.264594e+003, 8.824793e+000
1.265076e+003, 8.966833e+000
1.265558e+003, 9.037541e+000
1.266040e+003, 9.016860e+000
1.266522e+003, 8.998797e+000
1.267004e+003, 8.992218e+000
1.267486e+003, 8.950964e+000
1.267968e+003, 8.856284e+000
1.268450e+003, 8.773029e+000
1.268932e+003, 8.733196e+000
1.269415e+003, 8.728164e+000
1.269897e+003, 8.756127e+000
1.270379e+003, 8.793242e+000
1.270861e+003, 8.772879e+000
1.271343e+003, 8.716918e+000
1.271825e+003, 8.676208e+000
1.272307e+003, 8.662873e+000
1.272789e+003, 8.717776e+000
1.273271e+003, 8.829130e+000
1.273754e+003, 8.935596e+000
1.274236e+003, 9.013276e+000
1.274718e+003, 9.049500e+000
1.275200e+003, 9.044366e+000
1.275682e+003, 8.983269e+000
1.276164e+003, 8.742229e+000
1.276646e+003, 8.570123e+000
1.277128e+003, 8.742119e+000
1.277611e+003, 9.007954e+000
1.278093e+003, 9.069064e+000
1.278575e+003, 8.970473e+000
1.279057e+003, 8.911699e+000
1.279539e+003, 8.906596e+000
1.280021e+003, 8.890129e+000
1.280503e+003, 8.860378e+000
1.280985e+003, 8.813427e+000
1.281468e+003, 8.735897e+000
1.281950e+003, 8.704048e+000
1.282432e+003, 8.749659e+000
1.282914e+003, 8.823786e+000
1.283396e+003, 8.883722e+000
1.283878e+003, 8.958935e+000
1.284360e+003, 9.140637e+000
1.284842e+003, 9.364498e+000
1.285324e+003, 9.450106e+000
##END=



