##NAMES=Andradite
##RRUFFID=R120004
##IDEAL CHEMISTRY=Ca_3_Fe^3+^_2_(SiO_4_)_3_
##LOCALITY=Chifeng, Inner Mongolia
##OWNER=RRUFF
##SOURCE=Jack Lowell
##DESCRIPTION=Dark green dodecahedral crystals overlying pale green diopside R120003
##STATUS=The identification of this mineral has been confirmed only by single crystal X-ray diffraction.
##URL=rruff.info/R120004
9.001007e+001, 0.000000e+000
9.049219e+001, 4.844259e+001
9.097430e+001, 4.883626e+001
9.145642e+001, 4.876193e+001
9.193854e+001, 4.825326e+001
9.242065e+001, 4.759180e+001
9.290277e+001, 4.695902e+001
9.338489e+001, 4.634104e+001
9.386700e+001, 4.570405e+001
9.434912e+001, 4.496232e+001
9.483124e+001, 4.422098e+001
9.531335e+001, 4.377005e+001
9.579547e+001, 4.364193e+001
9.627759e+001, 4.356045e+001
9.675970e+001, 4.316943e+001
9.724182e+001, 4.249123e+001
9.772394e+001, 4.182032e+001
9.820605e+001, 4.129256e+001
9.868817e+001, 4.089312e+001
9.917029e+001, 4.043255e+001
9.965240e+001, 3.984878e+001
1.001345e+002, 3.929409e+001
1.006166e+002, 3.914474e+001
1.010988e+002, 3.949831e+001
1.015809e+002, 3.982449e+001
1.020630e+002, 3.986997e+001
1.025451e+002, 3.962849e+001
1.030272e+002, 3.909077e+001
1.035093e+002, 3.807827e+001
1.039915e+002, 3.678659e+001
1.044736e+002, 3.606902e+001
1.049557e+002, 3.626723e+001
1.054378e+002, 3.655405e+001
1.059199e+002, 3.633772e+001
1.064020e+002, 3.528229e+001
1.068842e+002, 3.433620e+001
1.073663e+002, 3.356396e+001
1.078484e+002, 3.297039e+001
1.083305e+002, 3.265619e+001
1.088126e+002, 3.307990e+001
1.092947e+002, 3.352438e+001
1.097769e+002, 3.332535e+001
1.102590e+002, 3.138123e+001
1.107411e+002, 2.991089e+001
1.112232e+002, 2.947102e+001
1.117053e+002, 3.036960e+001
1.121874e+002, 3.096514e+001
1.126696e+002, 3.098553e+001
1.131517e+002, 3.068803e+001
1.136338e+002, 3.040607e+001
1.141159e+002, 3.007352e+001
1.145980e+002, 2.986015e+001
1.150801e+002, 2.990149e+001
1.155623e+002, 3.043767e+001
1.160444e+002, 3.067771e+001
1.165265e+002, 3.014349e+001
1.170086e+002, 2.915726e+001
1.174907e+002, 2.840791e+001
1.179728e+002, 2.837631e+001
1.184550e+002, 2.850628e+001
1.189371e+002, 2.842620e+001
1.194192e+002, 2.788953e+001
1.199013e+002, 2.739240e+001
1.203834e+002, 2.725773e+001
1.208655e+002, 2.740414e+001
1.213477e+002, 2.751354e+001
1.218298e+002, 2.740187e+001
1.223119e+002, 2.716458e+001
1.227940e+002, 2.689916e+001
1.232761e+002, 2.660897e+001
1.237582e+002, 2.632498e+001
1.242404e+002, 2.611431e+001
1.247225e+002, 2.596612e+001
1.252046e+002, 2.574527e+001
1.256867e+002, 2.527348e+001
1.261688e+002, 2.466204e+001
1.266509e+002, 2.411619e+001
1.271331e+002, 2.363912e+001
1.276152e+002, 2.329978e+001
1.280973e+002, 2.327254e+001
1.285794e+002, 2.357848e+001
1.290615e+002, 2.394097e+001
1.295436e+002, 2.413469e+001
1.300258e+002, 2.415852e+001
1.305079e+002, 2.400882e+001
1.309900e+002, 2.355929e+001
1.314721e+002, 2.292512e+001
1.319542e+002, 2.244545e+001
1.324363e+002, 2.213962e+001
1.329185e+002, 2.196361e+001
1.334006e+002, 2.192739e+001
1.338827e+002, 2.202948e+001
1.343648e+002, 2.203789e+001
1.348469e+002, 2.176643e+001
1.353290e+002, 2.123888e+001
1.358112e+002, 2.079947e+001
1.362933e+002, 2.048214e+001
1.367754e+002, 2.025952e+001
1.372575e+002, 2.007683e+001
1.377396e+002, 1.993201e+001
1.382217e+002, 1.983351e+001
1.387039e+002, 1.980053e+001
1.391860e+002, 1.984569e+001
1.396681e+002, 1.986460e+001
1.401502e+002, 1.983759e+001
1.406323e+002, 1.977722e+001
1.411144e+002, 1.974659e+001
1.415966e+002, 1.977153e+001
1.420787e+002, 1.977625e+001
1.425608e+002, 1.968354e+001
1.430429e+002, 1.943500e+001
1.435250e+002, 1.925784e+001
1.440071e+002, 1.920776e+001
1.444893e+002, 1.927882e+001
1.449714e+002, 1.931507e+001
1.454535e+002, 1.933579e+001
1.459356e+002, 1.930169e+001
1.464177e+002, 1.916107e+001
1.468998e+002, 1.877797e+001
1.473820e+002, 1.850324e+001
1.478641e+002, 1.846817e+001
1.483462e+002, 1.874228e+001
1.488283e+002, 1.876244e+001
1.493104e+002, 1.833260e+001
1.497925e+002, 1.774130e+001
1.502747e+002, 1.731293e+001
1.507568e+002, 1.710106e+001
1.512389e+002, 1.700635e+001
1.517210e+002, 1.701829e+001
1.522031e+002, 1.715159e+001
1.526852e+002, 1.734233e+001
1.531674e+002, 1.768612e+001
1.536495e+002, 1.806736e+001
1.541316e+002, 1.832125e+001
1.546137e+002, 1.812129e+001
1.550958e+002, 1.806200e+001
1.555779e+002, 1.835057e+001
1.560601e+002, 1.912128e+001
1.565422e+002, 1.995656e+001
1.570243e+002, 2.087535e+001
1.575064e+002, 2.181387e+001
1.579885e+002, 2.264862e+001
1.584706e+002, 2.308839e+001
1.589528e+002, 2.361211e+001
1.594349e+002, 2.443979e+001
1.599170e+002, 2.564964e+001
1.603991e+002, 2.708627e+001
1.608812e+002, 2.874044e+001
1.613633e+002, 3.059382e+001
1.618455e+002, 3.259835e+001
1.623276e+002, 3.467755e+001
1.628097e+002, 3.692594e+001
1.632918e+002, 3.944603e+001
1.637739e+002, 4.224525e+001
1.642560e+002, 4.531028e+001
1.647382e+002, 4.866655e+001
1.652203e+002, 5.229436e+001
1.657024e+002, 5.611818e+001
1.661845e+002, 6.009293e+001
1.666666e+002, 6.426984e+001
1.671487e+002, 6.862788e+001
1.676309e+002, 7.297849e+001
1.681130e+002, 7.776889e+001
1.685951e+002, 8.316894e+001
1.690772e+002, 8.919611e+001
1.695593e+002, 9.584331e+001
1.700414e+002, 1.033485e+002
1.705236e+002, 1.114350e+002
1.710057e+002, 1.196811e+002
1.714878e+002, 1.284394e+002
1.719699e+002, 1.370446e+002
1.724520e+002, 1.453594e+002
1.729341e+002, 1.533259e+002
1.734163e+002, 1.596385e+002
1.738984e+002, 1.641263e+002
1.743805e+002, 1.662465e+002
1.748626e+002, 1.650568e+002
1.753447e+002, 1.590601e+002
1.758268e+002, 1.502318e+002
1.763090e+002, 1.399629e+002
1.767911e+002, 1.283252e+002
1.772732e+002, 1.169823e+002
1.777553e+002, 1.064177e+002
1.782374e+002, 9.680461e+001
1.787195e+002, 8.902275e+001
1.792017e+002, 8.407441e+001
1.796838e+002, 8.081893e+001
1.801659e+002, 7.762642e+001
1.806480e+002, 7.440779e+001
1.811301e+002, 7.172717e+001
1.816122e+002, 7.023798e+001
1.820944e+002, 6.972756e+001
1.825765e+002, 6.954198e+001
1.830586e+002, 6.950261e+001
1.835407e+002, 6.956438e+001
1.840228e+002, 6.960854e+001
1.845049e+002, 6.961712e+001
1.849871e+002, 6.969010e+001
1.854692e+002, 7.001813e+001
1.859513e+002, 7.055186e+001
1.864334e+002, 7.101120e+001
1.869155e+002, 7.125213e+001
1.873976e+002, 7.131630e+001
1.878798e+002, 7.131751e+001
1.883619e+002, 7.123952e+001
1.888440e+002, 7.117290e+001
1.893261e+002, 7.130817e+001
1.898082e+002, 7.162530e+001
1.902903e+002, 7.184655e+001
1.907725e+002, 7.168721e+001
1.912546e+002, 7.125111e+001
1.917367e+002, 7.120935e+001
1.922188e+002, 7.166576e+001
1.927009e+002, 7.232044e+001
1.931830e+002, 7.263333e+001
1.936652e+002, 7.260188e+001
1.941473e+002, 7.261863e+001
1.946294e+002, 7.305427e+001
1.951115e+002, 7.384686e+001
1.955936e+002, 7.410757e+001
1.960757e+002, 7.365448e+001
1.965579e+002, 7.288319e+001
1.970400e+002, 7.253893e+001
1.975221e+002, 7.264404e+001
1.980042e+002, 7.290829e+001
1.984863e+002, 7.324081e+001
1.989684e+002, 7.364292e+001
1.994506e+002, 7.386828e+001
1.999327e+002, 7.380851e+001
2.004148e+002, 7.367742e+001
2.008969e+002, 7.401534e+001
2.013790e+002, 7.491164e+001
2.018611e+002, 7.581299e+001
2.023433e+002, 7.638973e+001
2.028254e+002, 7.661887e+001
2.033075e+002, 7.679910e+001
2.037896e+002, 7.690630e+001
2.042717e+002, 7.701351e+001
2.047538e+002, 7.729855e+001
2.052360e+002, 7.776338e+001
2.057181e+002, 7.838822e+001
2.062002e+002, 7.924712e+001
2.066823e+002, 8.041312e+001
2.071644e+002, 8.129219e+001
2.076465e+002, 8.171471e+001
2.081287e+002, 8.188479e+001
2.086108e+002, 8.244963e+001
2.090929e+002, 8.349494e+001
2.095750e+002, 8.469618e+001
2.100571e+002, 8.583851e+001
2.105392e+002, 8.689404e+001
2.110214e+002, 8.806432e+001
2.115035e+002, 8.943311e+001
2.119856e+002, 9.090479e+001
2.124677e+002, 9.210546e+001
2.129498e+002, 9.282975e+001
2.134319e+002, 9.375303e+001
2.139140e+002, 9.528449e+001
2.143962e+002, 9.747857e+001
2.148783e+002, 1.001542e+002
2.153604e+002, 1.035064e+002
2.158425e+002, 1.073000e+002
2.163246e+002, 1.102376e+002
2.168067e+002, 1.116704e+002
2.172889e+002, 1.135397e+002
2.177710e+002, 1.172411e+002
2.182531e+002, 1.235173e+002
2.187352e+002, 1.294307e+002
2.192173e+002, 1.345903e+002
2.196994e+002, 1.392667e+002
2.201816e+002, 1.445168e+002
2.206637e+002, 1.507555e+002
2.211458e+002, 1.569870e+002
2.216279e+002, 1.624361e+002
2.221100e+002, 1.667330e+002
2.225921e+002, 1.713710e+002
2.230743e+002, 1.766871e+002
2.235564e+002, 1.824458e+002
2.240385e+002, 1.877255e+002
2.245206e+002, 1.920063e+002
2.250027e+002, 1.964466e+002
2.254848e+002, 2.017981e+002
2.259670e+002, 2.083715e+002
2.264491e+002, 2.149852e+002
2.269312e+002, 2.214239e+002
2.274133e+002, 2.278181e+002
2.278954e+002, 2.351311e+002
2.283775e+002, 2.432004e+002
2.288597e+002, 2.522088e+002
2.293418e+002, 2.622251e+002
2.298239e+002, 2.734312e+002
2.303060e+002, 2.851335e+002
2.307881e+002, 2.970411e+002
2.312702e+002, 3.093833e+002
2.317524e+002, 3.227098e+002
2.322345e+002, 3.365838e+002
2.327166e+002, 3.517771e+002
2.331987e+002, 3.687901e+002
2.336808e+002, 3.886878e+002
2.341629e+002, 4.080718e+002
2.346451e+002, 4.276609e+002
2.351272e+002, 4.467110e+002
2.356093e+002, 4.630579e+002
2.360914e+002, 4.799245e+002
2.365735e+002, 4.897234e+002
2.370556e+002, 4.881559e+002
2.375378e+002, 4.735266e+002
2.380199e+002, 4.509556e+002
2.385020e+002, 4.183001e+002
2.389841e+002, 3.777455e+002
2.394662e+002, 3.388813e+002
2.399483e+002, 3.002500e+002
2.404305e+002, 2.652354e+002
2.409126e+002, 2.353404e+002
2.413947e+002, 2.112870e+002
2.418768e+002, 1.907687e+002
2.423589e+002, 1.740859e+002
2.428410e+002, 1.608700e+002
2.433232e+002, 1.496478e+002
2.438053e+002, 1.407943e+002
2.442874e+002, 1.334972e+002
2.447695e+002, 1.274955e+002
2.452516e+002, 1.229990e+002
2.457337e+002, 1.192351e+002
2.462159e+002, 1.163014e+002
2.466980e+002, 1.140542e+002
2.471801e+002, 1.120876e+002
2.476622e+002, 1.103283e+002
2.481443e+002, 1.089245e+002
2.486264e+002, 1.079860e+002
2.491086e+002, 1.076445e+002
2.495907e+002, 1.074387e+002
2.500728e+002, 1.073850e+002
2.505549e+002, 1.074567e+002
2.510370e+002, 1.076012e+002
2.515191e+002, 1.078986e+002
2.520013e+002, 1.081462e+002
2.524834e+002, 1.082189e+002
2.529655e+002, 1.079525e+002
2.534476e+002, 1.079268e+002
2.539297e+002, 1.080858e+002
2.544118e+002, 1.085108e+002
2.548940e+002, 1.094579e+002
2.553761e+002, 1.112240e+002
2.558582e+002, 1.129916e+002
2.563403e+002, 1.143535e+002
2.568224e+002, 1.150743e+002
2.573046e+002, 1.161236e+002
2.577867e+002, 1.174218e+002
2.582688e+002, 1.190816e+002
2.587509e+002, 1.213426e+002
2.592330e+002, 1.242585e+002
2.597151e+002, 1.276064e+002
2.601973e+002, 1.313637e+002
2.606794e+002, 1.355024e+002
2.611615e+002, 1.398436e+002
2.616436e+002, 1.442759e+002
2.621257e+002, 1.489533e+002
2.626078e+002, 1.542729e+002
2.630900e+002, 1.605982e+002
2.635721e+002, 1.666291e+002
2.640542e+002, 1.721935e+002
2.645363e+002, 1.776448e+002
2.650184e+002, 1.806430e+002
2.655005e+002, 1.810070e+002
2.659827e+002, 1.792440e+002
2.664648e+002, 1.758966e+002
2.669469e+002, 1.707294e+002
2.674290e+002, 1.646865e+002
2.679111e+002, 1.576449e+002
2.683932e+002, 1.495116e+002
2.688754e+002, 1.423973e+002
2.693575e+002, 1.363806e+002
2.698396e+002, 1.312593e+002
2.703217e+002, 1.268646e+002
2.708038e+002, 1.231802e+002
2.712859e+002, 1.203366e+002
2.717681e+002, 1.185996e+002
2.722502e+002, 1.179301e+002
2.727323e+002, 1.169897e+002
2.732144e+002, 1.156784e+002
2.736965e+002, 1.143300e+002
2.741786e+002, 1.133262e+002
2.746608e+002, 1.127083e+002
2.751429e+002, 1.121484e+002
2.756250e+002, 1.114875e+002
2.761071e+002, 1.107942e+002
2.765892e+002, 1.106901e+002
2.770714e+002, 1.113478e+002
2.775535e+002, 1.121068e+002
2.780356e+002, 1.122379e+002
2.785177e+002, 1.116523e+002
2.789998e+002, 1.113729e+002
2.794819e+002, 1.117029e+002
2.799641e+002, 1.124778e+002
2.804462e+002, 1.129295e+002
2.809283e+002, 1.129875e+002
2.814104e+002, 1.130295e+002
2.818925e+002, 1.133638e+002
2.823746e+002, 1.139932e+002
2.828568e+002, 1.147172e+002
2.833389e+002, 1.155122e+002
2.838210e+002, 1.163772e+002
2.843031e+002, 1.172926e+002
2.847852e+002, 1.182587e+002
2.852673e+002, 1.193309e+002
2.857495e+002, 1.205822e+002
2.862316e+002, 1.220052e+002
2.867137e+002, 1.234979e+002
2.871958e+002, 1.250810e+002
2.876779e+002, 1.266823e+002
2.881600e+002, 1.280376e+002
2.886422e+002, 1.291389e+002
2.891243e+002, 1.304842e+002
2.896064e+002, 1.323835e+002
2.900885e+002, 1.347858e+002
2.905706e+002, 1.373362e+002
2.910527e+002, 1.399526e+002
2.915349e+002, 1.428219e+002
2.920170e+002, 1.464087e+002
2.924991e+002, 1.506242e+002
2.929812e+002, 1.548699e+002
2.934633e+002, 1.585151e+002
2.939454e+002, 1.618769e+002
2.944276e+002, 1.660349e+002
2.949097e+002, 1.711050e+002
2.953918e+002, 1.765284e+002
2.958739e+002, 1.817906e+002
2.963560e+002, 1.868193e+002
2.968381e+002, 1.915215e+002
2.973203e+002, 1.960409e+002
2.978024e+002, 2.001140e+002
2.982845e+002, 2.031408e+002
2.987666e+002, 2.050735e+002
2.992487e+002, 2.064239e+002
2.997308e+002, 2.073586e+002
3.002130e+002, 2.080981e+002
3.006951e+002, 2.092510e+002
3.011772e+002, 2.108946e+002
3.016593e+002, 2.131603e+002
3.021414e+002, 2.163979e+002
3.026235e+002, 2.205678e+002
3.031057e+002, 2.252189e+002
3.035878e+002, 2.294204e+002
3.040699e+002, 2.338666e+002
3.045520e+002, 2.397655e+002
3.050341e+002, 2.476903e+002
3.055162e+002, 2.570352e+002
3.059984e+002, 2.671530e+002
3.064805e+002, 2.780527e+002
3.069626e+002, 2.904768e+002
3.074447e+002, 3.047859e+002
3.079268e+002, 3.208853e+002
3.084089e+002, 3.386324e+002
3.088911e+002, 3.588175e+002
3.093732e+002, 3.793822e+002
3.098553e+002, 3.992875e+002
3.103374e+002, 4.182800e+002
3.108195e+002, 4.359159e+002
3.113016e+002, 4.536058e+002
3.117838e+002, 4.687000e+002
3.122659e+002, 4.794053e+002
3.127480e+002, 4.860602e+002
3.132301e+002, 4.863162e+002
3.137122e+002, 4.773312e+002
3.141943e+002, 4.609711e+002
3.146765e+002, 4.413222e+002
3.151586e+002, 4.177604e+002
3.156407e+002, 3.933024e+002
3.161228e+002, 3.688792e+002
3.166049e+002, 3.440956e+002
3.170870e+002, 3.222067e+002
3.175692e+002, 3.052591e+002
3.180513e+002, 2.920950e+002
3.185334e+002, 2.812290e+002
3.190155e+002, 2.722952e+002
3.194976e+002, 2.654372e+002
3.199797e+002, 2.609069e+002
3.204619e+002, 2.587578e+002
3.209440e+002, 2.583616e+002
3.214261e+002, 2.599832e+002
3.219082e+002, 2.630752e+002
3.223903e+002, 2.671217e+002
3.228724e+002, 2.730840e+002
3.233546e+002, 2.789015e+002
3.238367e+002, 2.840901e+002
3.243188e+002, 2.886440e+002
3.248009e+002, 2.928599e+002
3.252830e+002, 2.982746e+002
3.257651e+002, 3.024153e+002
3.262473e+002, 3.036630e+002
3.267294e+002, 3.004854e+002
3.272115e+002, 2.960323e+002
3.276936e+002, 2.899439e+002
3.281757e+002, 2.826125e+002
3.286578e+002, 2.756825e+002
3.291400e+002, 2.684055e+002
3.296221e+002, 2.621726e+002
3.301042e+002, 2.575013e+002
3.305863e+002, 2.544765e+002
3.310684e+002, 2.528626e+002
3.315505e+002, 2.525981e+002
3.320327e+002, 2.537527e+002
3.325148e+002, 2.565177e+002
3.329969e+002, 2.611208e+002
3.334790e+002, 2.670429e+002
3.339611e+002, 2.741599e+002
3.344432e+002, 2.824138e+002
3.349254e+002, 2.921762e+002
3.354075e+002, 3.037281e+002
3.358896e+002, 3.164158e+002
3.363717e+002, 3.293042e+002
3.368538e+002, 3.420326e+002
3.373359e+002, 3.555591e+002
3.378180e+002, 3.701785e+002
3.383001e+002, 3.858066e+002
3.387823e+002, 4.014500e+002
3.392644e+002, 4.167116e+002
3.397465e+002, 4.324427e+002
3.402286e+002, 4.495689e+002
3.407107e+002, 4.680948e+002
3.411928e+002, 4.872028e+002
3.416750e+002, 5.062477e+002
3.421571e+002, 5.256990e+002
3.426392e+002, 5.458201e+002
3.431213e+002, 5.664828e+002
3.436034e+002, 5.894054e+002
3.440855e+002, 6.162968e+002
3.445677e+002, 6.468663e+002
3.450498e+002, 6.796483e+002
3.455319e+002, 7.139373e+002
3.460140e+002, 7.508578e+002
3.464961e+002, 7.926941e+002
3.469782e+002, 8.391901e+002
3.474604e+002, 8.893191e+002
3.479425e+002, 9.423117e+002
3.484246e+002, 9.983882e+002
3.489067e+002, 1.057008e+003
3.493888e+002, 1.118501e+003
3.498709e+002, 1.180865e+003
3.503531e+002, 1.243818e+003
3.508352e+002, 1.306197e+003
3.513173e+002, 1.363429e+003
3.517994e+002, 1.417241e+003
3.522815e+002, 1.463907e+003
3.527636e+002, 1.498310e+003
3.532458e+002, 1.520424e+003
3.537279e+002, 1.529908e+003
3.542100e+002, 1.522847e+003
3.546921e+002, 1.503461e+003
3.551742e+002, 1.478844e+003
3.556563e+002, 1.448706e+003
3.561385e+002, 1.416518e+003
3.566206e+002, 1.382744e+003
3.571027e+002, 1.348454e+003
3.575848e+002, 1.319817e+003
3.580669e+002, 1.299430e+003
3.585490e+002, 1.286604e+003
3.590312e+002, 1.280739e+003
3.595133e+002, 1.281697e+003
3.599954e+002, 1.289484e+003
3.604775e+002, 1.303736e+003
3.609596e+002, 1.324900e+003
3.614417e+002, 1.353554e+003
3.619239e+002, 1.390525e+003
3.624060e+002, 1.434781e+003
3.628881e+002, 1.485439e+003
3.633702e+002, 1.542051e+003
3.638523e+002, 1.606992e+003
3.643344e+002, 1.682456e+003
3.648166e+002, 1.766158e+003
3.652987e+002, 1.856250e+003
3.657808e+002, 1.953954e+003
3.662629e+002, 2.053954e+003
3.667450e+002, 2.157436e+003
3.672271e+002, 2.264241e+003
3.677093e+002, 2.363928e+003
3.681914e+002, 2.461161e+003
3.686735e+002, 2.547219e+003
3.691556e+002, 2.616971e+003
3.696377e+002, 2.678854e+003
3.701198e+002, 2.711646e+003
3.706020e+002, 2.714707e+003
3.710841e+002, 2.688103e+003
3.715662e+002, 2.631122e+003
3.720483e+002, 2.537907e+003
3.725304e+002, 2.422366e+003
3.730125e+002, 2.287165e+003
3.734947e+002, 2.125825e+003
3.739768e+002, 1.965195e+003
3.744589e+002, 1.801075e+003
3.749410e+002, 1.639207e+003
3.754231e+002, 1.490467e+003
3.759052e+002, 1.354109e+003
3.763874e+002, 1.230013e+003
3.768695e+002, 1.119873e+003
3.773516e+002, 1.022319e+003
3.778337e+002, 9.355807e+002
3.783158e+002, 8.591963e+002
3.787979e+002, 7.914893e+002
3.792801e+002, 7.324775e+002
3.797622e+002, 6.818094e+002
3.802443e+002, 6.365382e+002
3.807264e+002, 5.957566e+002
3.812085e+002, 5.596406e+002
3.816906e+002, 5.290306e+002
3.821728e+002, 5.040859e+002
3.826549e+002, 4.813091e+002
3.831370e+002, 4.587527e+002
3.836191e+002, 4.365265e+002
3.841012e+002, 4.161758e+002
3.845833e+002, 3.978515e+002
3.850655e+002, 3.805988e+002
3.855476e+002, 3.633715e+002
3.860297e+002, 3.461219e+002
3.865118e+002, 3.296249e+002
3.869939e+002, 3.140603e+002
3.874760e+002, 2.993640e+002
3.879582e+002, 2.853615e+002
3.884403e+002, 2.719324e+002
3.889224e+002, 2.592889e+002
3.894045e+002, 2.476646e+002
3.898866e+002, 2.370365e+002
3.903687e+002, 2.273163e+002
3.908509e+002, 2.188154e+002
3.913330e+002, 2.110185e+002
3.918151e+002, 2.034686e+002
3.922972e+002, 1.962563e+002
3.927793e+002, 1.896065e+002
3.932614e+002, 1.835398e+002
3.937436e+002, 1.781655e+002
3.942257e+002, 1.735360e+002
3.947078e+002, 1.699869e+002
3.951899e+002, 1.664758e+002
3.956720e+002, 1.625101e+002
3.961541e+002, 1.583673e+002
3.966363e+002, 1.544951e+002
3.971184e+002, 1.510637e+002
3.976005e+002, 1.478599e+002
3.980826e+002, 1.447830e+002
3.985647e+002, 1.418046e+002
3.990468e+002, 1.391552e+002
3.995290e+002, 1.369893e+002
4.000111e+002, 1.350902e+002
4.004932e+002, 1.332805e+002
4.009753e+002, 1.315750e+002
4.014574e+002, 1.299410e+002
4.019395e+002, 1.284908e+002
4.024217e+002, 1.271402e+002
4.029038e+002, 1.254694e+002
4.033859e+002, 1.231582e+002
4.038680e+002, 1.209970e+002
4.043501e+002, 1.194009e+002
4.048322e+002, 1.185589e+002
4.053144e+002, 1.176526e+002
4.057965e+002, 1.166200e+002
4.062786e+002, 1.156084e+002
4.067607e+002, 1.150069e+002
4.072428e+002, 1.149711e+002
4.077249e+002, 1.144574e+002
4.082071e+002, 1.128876e+002
4.086892e+002, 1.104961e+002
4.091713e+002, 1.088707e+002
4.096534e+002, 1.080854e+002
4.101355e+002, 1.076075e+002
4.106176e+002, 1.070242e+002
4.110998e+002, 1.063397e+002
4.115819e+002, 1.056033e+002
4.120640e+002, 1.048412e+002
4.125461e+002, 1.039988e+002
4.130282e+002, 1.027928e+002
4.135103e+002, 1.013235e+002
4.139925e+002, 1.001530e+002
4.144746e+002, 9.977567e+001
4.149567e+002, 9.983900e+001
4.154388e+002, 9.985031e+001
4.159209e+002, 9.977909e+001
4.164030e+002, 9.957889e+001
4.168852e+002, 9.908900e+001
4.173673e+002, 9.846348e+001
4.178494e+002, 9.795169e+001
4.183315e+002, 9.778354e+001
4.188136e+002, 9.764725e+001
4.192957e+002, 9.726755e+001
4.197779e+002, 9.669997e+001
4.202600e+002, 9.628455e+001
4.207421e+002, 9.629096e+001
4.212242e+002, 9.644401e+001
4.217063e+002, 9.656975e+001
4.221884e+002, 9.673956e+001
4.226706e+002, 9.669274e+001
4.231527e+002, 9.617680e+001
4.236348e+002, 9.542322e+001
4.241169e+002, 9.486585e+001
4.245990e+002, 9.464857e+001
4.250811e+002, 9.455025e+001
4.255633e+002, 9.453133e+001
4.260454e+002, 9.460210e+001
4.265275e+002, 9.465081e+001
4.270096e+002, 9.460424e+001
4.274917e+002, 9.459096e+001
4.279738e+002, 9.472235e+001
4.284560e+002, 9.505587e+001
4.289381e+002, 9.541610e+001
4.294202e+002, 9.582133e+001
4.299023e+002, 9.622670e+001
4.303844e+002, 9.645605e+001
4.308665e+002, 9.641825e+001
4.313487e+002, 9.646033e+001
4.318308e+002, 9.678965e+001
4.323129e+002, 9.741997e+001
4.327950e+002, 9.798795e+001
4.332771e+002, 9.844118e+001
4.337592e+002, 9.896423e+001
4.342414e+002, 9.992187e+001
4.347235e+002, 1.012673e+002
4.352056e+002, 1.024098e+002
4.356877e+002, 1.030496e+002
4.361698e+002, 1.034471e+002
4.366519e+002, 1.041128e+002
4.371341e+002, 1.050488e+002
4.376162e+002, 1.062228e+002
4.380983e+002, 1.077919e+002
4.385804e+002, 1.095521e+002
4.390625e+002, 1.111325e+002
4.395446e+002, 1.124350e+002
4.400268e+002, 1.136803e+002
4.405089e+002, 1.150486e+002
4.409910e+002, 1.165113e+002
4.414731e+002, 1.179863e+002
4.419552e+002, 1.194497e+002
4.424373e+002, 1.209172e+002
4.429195e+002, 1.223170e+002
4.434016e+002, 1.236594e+002
4.438837e+002, 1.252998e+002
4.443658e+002, 1.275336e+002
4.448479e+002, 1.300481e+002
4.453300e+002, 1.325694e+002
4.458122e+002, 1.349379e+002
4.462943e+002, 1.374753e+002
4.467764e+002, 1.401427e+002
4.472585e+002, 1.430232e+002
4.477406e+002, 1.463321e+002
4.482227e+002, 1.506057e+002
4.487049e+002, 1.547973e+002
4.491870e+002, 1.586873e+002
4.496691e+002, 1.622425e+002
4.501512e+002, 1.655137e+002
4.506333e+002, 1.684926e+002
4.511154e+002, 1.711605e+002
4.515976e+002, 1.736622e+002
4.520797e+002, 1.763384e+002
4.525618e+002, 1.776480e+002
4.530439e+002, 1.772808e+002
4.535260e+002, 1.754349e+002
4.540081e+002, 1.725442e+002
4.544903e+002, 1.685253e+002
4.549724e+002, 1.639183e+002
4.554545e+002, 1.587896e+002
4.559366e+002, 1.532491e+002
4.564187e+002, 1.476846e+002
4.569008e+002, 1.421264e+002
4.573830e+002, 1.366684e+002
4.578651e+002, 1.313792e+002
4.583472e+002, 1.263294e+002
4.588293e+002, 1.220425e+002
4.593114e+002, 1.188554e+002
4.597935e+002, 1.162776e+002
4.602757e+002, 1.136246e+002
4.607578e+002, 1.109726e+002
4.612399e+002, 1.086485e+002
4.617220e+002, 1.069696e+002
4.622041e+002, 1.056467e+002
4.626862e+002, 1.044312e+002
4.631684e+002, 1.032780e+002
4.636505e+002, 1.022880e+002
4.641326e+002, 1.016174e+002
4.646147e+002, 1.011250e+002
4.650968e+002, 1.006173e+002
4.655789e+002, 9.964527e+001
4.660611e+002, 9.906676e+001
4.665432e+002, 9.929847e+001
4.670253e+002, 1.002731e+002
4.675074e+002, 1.011670e+002
4.679895e+002, 1.019338e+002
4.684716e+002, 1.025621e+002
4.689538e+002, 1.029835e+002
4.694359e+002, 1.028347e+002
4.699180e+002, 1.032752e+002
4.704001e+002, 1.044955e+002
4.708822e+002, 1.061775e+002
4.713643e+002, 1.078589e+002
4.718465e+002, 1.095007e+002
4.723286e+002, 1.112472e+002
4.728107e+002, 1.131276e+002
4.732928e+002, 1.151240e+002
4.737749e+002, 1.173092e+002
4.742570e+002, 1.196795e+002
4.747392e+002, 1.222015e+002
4.752213e+002, 1.248960e+002
4.757034e+002, 1.277402e+002
4.761855e+002, 1.304920e+002
4.766676e+002, 1.330300e+002
4.771497e+002, 1.358187e+002
4.776319e+002, 1.395771e+002
4.781140e+002, 1.441104e+002
4.785961e+002, 1.487393e+002
4.790782e+002, 1.532009e+002
4.795603e+002, 1.575859e+002
4.800424e+002, 1.618563e+002
4.805246e+002, 1.660808e+002
4.810067e+002, 1.706445e+002
4.814888e+002, 1.760310e+002
4.819709e+002, 1.817264e+002
4.824530e+002, 1.871823e+002
4.829352e+002, 1.920292e+002
4.834173e+002, 1.972922e+002
4.838994e+002, 2.035403e+002
4.843815e+002, 2.104458e+002
4.848636e+002, 2.174441e+002
4.853457e+002, 2.241167e+002
4.858279e+002, 2.311363e+002
4.863100e+002, 2.386334e+002
4.867921e+002, 2.466552e+002
4.872742e+002, 2.551412e+002
4.877563e+002, 2.640743e+002
4.882384e+002, 2.735952e+002
4.887206e+002, 2.838166e+002
4.892027e+002, 2.950732e+002
4.896848e+002, 3.060720e+002
4.901669e+002, 3.169541e+002
4.906490e+002, 3.274186e+002
4.911311e+002, 3.373408e+002
4.916133e+002, 3.467191e+002
4.920954e+002, 3.550463e+002
4.925775e+002, 3.624599e+002
4.930596e+002, 3.686051e+002
4.935417e+002, 3.723791e+002
4.940238e+002, 3.737753e+002
4.945060e+002, 3.728777e+002
4.949881e+002, 3.694302e+002
4.954702e+002, 3.637402e+002
4.959523e+002, 3.562333e+002
4.964344e+002, 3.467979e+002
4.969165e+002, 3.364554e+002
4.973987e+002, 3.254567e+002
4.978808e+002, 3.143124e+002
4.983629e+002, 3.042056e+002
4.988450e+002, 2.948803e+002
4.993271e+002, 2.873522e+002
4.998092e+002, 2.825412e+002
5.002914e+002, 2.802358e+002
5.007735e+002, 2.796081e+002
5.012556e+002, 2.804818e+002
5.017377e+002, 2.827697e+002
5.022198e+002, 2.863829e+002
5.027019e+002, 2.912703e+002
5.031841e+002, 2.976834e+002
5.036662e+002, 3.061824e+002
5.041483e+002, 3.160489e+002
5.046304e+002, 3.263407e+002
5.051125e+002, 3.366930e+002
5.055946e+002, 3.477744e+002
5.060768e+002, 3.594039e+002
5.065589e+002, 3.718534e+002
5.070410e+002, 3.866548e+002
5.075231e+002, 4.038170e+002
5.080052e+002, 4.232065e+002
5.084873e+002, 4.452090e+002
5.089695e+002, 4.695625e+002
5.094516e+002, 4.954339e+002
5.099337e+002, 5.226871e+002
5.104158e+002, 5.519737e+002
5.108979e+002, 5.842477e+002
5.113800e+002, 6.194380e+002
5.118622e+002, 6.560328e+002
5.123443e+002, 6.941920e+002
5.128264e+002, 7.328698e+002
5.133085e+002, 7.720477e+002
5.137906e+002, 8.112715e+002
5.142728e+002, 8.489124e+002
5.147549e+002, 8.864934e+002
5.152370e+002, 9.205244e+002
5.157191e+002, 9.491785e+002
5.162012e+002, 9.725579e+002
5.166833e+002, 9.867834e+002
5.171655e+002, 9.909149e+002
5.176476e+002, 9.849566e+002
5.181297e+002, 9.688582e+002
5.186118e+002, 9.392175e+002
5.190939e+002, 9.036968e+002
5.195760e+002, 8.610828e+002
5.200582e+002, 8.135323e+002
5.205403e+002, 7.649967e+002
5.210224e+002, 7.143389e+002
5.215045e+002, 6.649980e+002
5.219866e+002, 6.174265e+002
5.224688e+002, 5.714454e+002
5.229509e+002, 5.297126e+002
5.234330e+002, 4.923432e+002
5.239151e+002, 4.583044e+002
5.243972e+002, 4.268340e+002
5.248793e+002, 3.980779e+002
5.253615e+002, 3.719585e+002
5.258436e+002, 3.484373e+002
5.263257e+002, 3.270694e+002
5.268078e+002, 3.077680e+002
5.272899e+002, 2.903298e+002
5.277720e+002, 2.741358e+002
5.282542e+002, 2.589287e+002
5.287363e+002, 2.450690e+002
5.292184e+002, 2.330395e+002
5.297005e+002, 2.228085e+002
5.301826e+002, 2.136009e+002
5.306647e+002, 2.051463e+002
5.311469e+002, 1.974356e+002
5.316290e+002, 1.903058e+002
5.321111e+002, 1.837437e+002
5.325932e+002, 1.779777e+002
5.330753e+002, 1.732798e+002
5.335574e+002, 1.693319e+002
5.340396e+002, 1.658814e+002
5.345217e+002, 1.630920e+002
5.350038e+002, 1.605131e+002
5.354859e+002, 1.579631e+002
5.359680e+002, 1.555546e+002
5.364501e+002, 1.536154e+002
5.369323e+002, 1.521876e+002
5.374144e+002, 1.511718e+002
5.378965e+002, 1.506769e+002
5.383786e+002, 1.507239e+002
5.388607e+002, 1.503089e+002
5.393428e+002, 1.492540e+002
5.398250e+002, 1.482905e+002
5.403071e+002, 1.481812e+002
5.407892e+002, 1.488474e+002
5.412713e+002, 1.495842e+002
5.417534e+002, 1.503150e+002
5.422355e+002, 1.509937e+002
5.427177e+002, 1.514493e+002
5.431998e+002, 1.517811e+002
5.436819e+002, 1.522942e+002
5.441640e+002, 1.532485e+002
5.446461e+002, 1.543552e+002
5.451282e+002, 1.552126e+002
5.456104e+002, 1.559104e+002
5.460925e+002, 1.570189e+002
5.465746e+002, 1.591995e+002
5.470567e+002, 1.616279e+002
5.475388e+002, 1.637317e+002
5.480209e+002, 1.652723e+002
5.485031e+002, 1.670086e+002
5.489852e+002, 1.692651e+002
5.494673e+002, 1.717263e+002
5.499494e+002, 1.740711e+002
5.504315e+002, 1.763616e+002
5.509136e+002, 1.784346e+002
5.513958e+002, 1.803324e+002
5.518779e+002, 1.819903e+002
5.523600e+002, 1.832655e+002
5.528421e+002, 1.842723e+002
5.533242e+002, 1.845354e+002
5.538063e+002, 1.838922e+002
5.542885e+002, 1.823432e+002
5.547706e+002, 1.798053e+002
5.552527e+002, 1.762505e+002
5.557348e+002, 1.720197e+002
5.562169e+002, 1.670812e+002
5.566990e+002, 1.617273e+002
5.571812e+002, 1.565322e+002
5.576633e+002, 1.515455e+002
5.581454e+002, 1.469097e+002
5.586275e+002, 1.430449e+002
5.591096e+002, 1.396025e+002
5.595917e+002, 1.358795e+002
5.600739e+002, 1.308523e+002
5.605560e+002, 1.262356e+002
5.610381e+002, 1.229792e+002
5.615202e+002, 1.209183e+002
5.620023e+002, 1.191595e+002
5.624844e+002, 1.176362e+002
5.629666e+002, 1.162254e+002
5.634487e+002, 1.148154e+002
5.639308e+002, 1.132966e+002
5.644129e+002, 1.123282e+002
5.648950e+002, 1.122157e+002
5.653771e+002, 1.123178e+002
5.658593e+002, 1.120300e+002
5.663414e+002, 1.111600e+002
5.668235e+002, 1.107333e+002
5.673056e+002, 1.108978e+002
5.677877e+002, 1.114664e+002
5.682698e+002, 1.120840e+002
5.687520e+002, 1.127678e+002
5.692341e+002, 1.137192e+002
5.697162e+002, 1.151511e+002
5.701983e+002, 1.168159e+002
5.706804e+002, 1.181557e+002
5.711625e+002, 1.192523e+002
5.716447e+002, 1.206981e+002
5.721268e+002, 1.231811e+002
5.726089e+002, 1.260315e+002
5.730910e+002, 1.285733e+002
5.735731e+002, 1.307308e+002
5.740552e+002, 1.327651e+002
5.745374e+002, 1.349024e+002
5.750195e+002, 1.369458e+002
5.755016e+002, 1.387201e+002
5.759837e+002, 1.404812e+002
5.764658e+002, 1.416010e+002
5.769479e+002, 1.421270e+002
5.774301e+002, 1.419636e+002
5.779122e+002, 1.408675e+002
5.783943e+002, 1.385291e+002
5.788764e+002, 1.358327e+002
5.793585e+002, 1.330100e+002
5.798406e+002, 1.300294e+002
5.803228e+002, 1.265636e+002
5.808049e+002, 1.225310e+002
5.812870e+002, 1.185600e+002
5.817691e+002, 1.150096e+002
5.822512e+002, 1.118486e+002
5.827333e+002, 1.088352e+002
5.832155e+002, 1.059267e+002
5.836975e+002, 1.033903e+002
5.841796e+002, 1.014349e+002
5.846617e+002, 9.997687e+001
5.851439e+002, 9.892142e+001
5.856260e+002, 9.851518e+001
5.861081e+002, 9.801060e+001
5.865902e+002, 9.670000e+001
5.870723e+002, 9.498900e+001
5.875544e+002, 9.368370e+001
5.880366e+002, 9.325416e+001
5.885187e+002, 9.298885e+001
5.890008e+002, 9.268169e+001
5.894829e+002, 9.233080e+001
5.899650e+002, 9.205053e+001
5.904471e+002, 9.191547e+001
5.909293e+002, 9.174774e+001
5.914114e+002, 9.145872e+001
5.918935e+002, 9.103040e+001
5.923756e+002, 9.056190e+001
5.928577e+002, 9.000447e+001
5.933398e+002, 8.953522e+001
5.938220e+002, 8.942678e+001
5.943041e+002, 8.962014e+001
5.947862e+002, 8.962125e+001
5.952683e+002, 8.928699e+001
5.957504e+002, 8.887767e+001
5.962325e+002, 8.874384e+001
5.967147e+002, 8.880541e+001
5.971968e+002, 8.885387e+001
5.976789e+002, 8.886929e+001
5.981610e+002, 8.878018e+001
5.986431e+002, 8.843060e+001
5.991252e+002, 8.789587e+001
5.996074e+002, 8.751541e+001
6.000895e+002, 8.755484e+001
6.005716e+002, 8.765005e+001
6.010537e+002, 8.762588e+001
6.015358e+002, 8.744344e+001
6.020179e+002, 8.726250e+001
6.025001e+002, 8.709226e+001
6.029822e+002, 8.691610e+001
6.034643e+002, 8.671980e+001
6.039464e+002, 8.649499e+001
6.044285e+002, 8.626552e+001
6.049106e+002, 8.600769e+001
6.053928e+002, 8.578780e+001
6.058749e+002, 8.575819e+001
6.063570e+002, 8.589816e+001
6.068391e+002, 8.594844e+001
6.073212e+002, 8.585202e+001
6.078033e+002, 8.559741e+001
6.082855e+002, 8.504842e+001
6.087676e+002, 8.429455e+001
6.092497e+002, 8.364625e+001
6.097318e+002, 8.359824e+001
6.102139e+002, 8.349178e+001
6.106960e+002, 8.267844e+001
6.111782e+002, 8.115851e+001
6.116603e+002, 7.979729e+001
6.121424e+002, 7.893993e+001
6.126245e+002, 7.829230e+001
6.131066e+002, 7.769489e+001
6.135887e+002, 7.719392e+001
6.140709e+002, 7.655077e+001
6.145530e+002, 7.534825e+001
6.150351e+002, 7.437585e+001
6.155172e+002, 7.482674e+001
6.159993e+002, 7.738406e+001
6.164814e+002, 7.802264e+001
6.169636e+002, 7.551579e+001
6.174457e+002, 7.180975e+001
6.179278e+002, 7.112273e+001
6.184099e+002, 7.311469e+001
6.188920e+002, 7.424667e+001
6.193741e+002, 7.244476e+001
6.198563e+002, 6.939230e+001
6.203384e+002, 6.738789e+001
6.208205e+002, 6.632912e+001
6.213026e+002, 6.570710e+001
6.217847e+002, 6.559864e+001
6.222668e+002, 6.554480e+001
6.227490e+002, 6.511757e+001
6.232311e+002, 6.422563e+001
6.237132e+002, 6.359860e+001
6.241953e+002, 6.364310e+001
6.246774e+002, 6.387699e+001
6.251595e+002, 6.396447e+001
6.256417e+002, 6.381534e+001
6.261238e+002, 6.370526e+001
6.266059e+002, 6.372707e+001
6.270880e+002, 6.369129e+001
6.275701e+002, 6.322849e+001
6.280522e+002, 6.225943e+001
6.285344e+002, 6.166447e+001
6.290165e+002, 6.171320e+001
6.294986e+002, 6.210640e+001
6.299807e+002, 6.232531e+001
6.304628e+002, 6.238295e+001
6.309449e+002, 6.234880e+001
6.314271e+002, 6.220710e+001
6.319092e+002, 6.202295e+001
6.323913e+002, 6.185540e+001
6.328734e+002, 6.170395e+001
6.333555e+002, 6.157147e+001
6.338376e+002, 6.145082e+001
6.343198e+002, 6.135301e+001
6.348019e+002, 6.129052e+001
6.352840e+002, 6.127296e+001
6.357661e+002, 6.124188e+001
6.362482e+002, 6.112834e+001
6.367303e+002, 6.105085e+001
6.372125e+002, 6.110902e+001
6.376946e+002, 6.138583e+001
6.381767e+002, 6.155511e+001
6.386588e+002, 6.158584e+001
6.391409e+002, 6.154121e+001
6.396230e+002, 6.151842e+001
6.401052e+002, 6.151280e+001
6.405873e+002, 6.143454e+001
6.410694e+002, 6.123637e+001
6.415515e+002, 6.100003e+001
6.420336e+002, 6.082833e+001
6.425157e+002, 6.072038e+001
6.429979e+002, 6.067152e+001
6.434800e+002, 6.067132e+001
6.439621e+002, 6.073696e+001
6.444442e+002, 6.099896e+001
6.449263e+002, 6.138964e+001
6.454084e+002, 6.151743e+001
6.458906e+002, 6.095202e+001
6.463727e+002, 6.035916e+001
6.468548e+002, 6.006450e+001
6.473369e+002, 6.010835e+001
6.478190e+002, 6.015122e+001
6.483011e+002, 6.018702e+001
6.487833e+002, 6.023077e+001
6.492654e+002, 6.031439e+001
6.497475e+002, 6.044947e+001
6.502296e+002, 6.044819e+001
6.507117e+002, 6.025890e+001
6.511938e+002, 6.009233e+001
6.516760e+002, 6.030967e+001
6.521581e+002, 6.077602e+001
6.526402e+002, 6.105308e+001
6.531223e+002, 6.096740e+001
6.536044e+002, 6.078310e+001
6.540865e+002, 6.073000e+001
6.545687e+002, 6.075013e+001
6.550508e+002, 6.073180e+001
6.555329e+002, 6.060210e+001
6.560150e+002, 6.045803e+001
6.564971e+002, 6.033320e+001
6.569792e+002, 6.022426e+001
6.574614e+002, 6.011033e+001
6.579435e+002, 6.000431e+001
6.584256e+002, 5.987080e+001
6.589077e+002, 5.966605e+001
6.593898e+002, 5.939846e+001
6.598719e+002, 5.929676e+001
6.603541e+002, 5.938418e+001
6.608362e+002, 5.952748e+001
6.613183e+002, 5.964932e+001
6.618004e+002, 5.975130e+001
6.622825e+002, 5.982784e+001
6.627646e+002, 5.987475e+001
6.632468e+002, 5.996678e+001
6.637289e+002, 6.029356e+001
6.642110e+002, 6.065729e+001
6.646931e+002, 6.079027e+001
6.651752e+002, 6.058686e+001
6.656573e+002, 6.027577e+001
6.661395e+002, 5.975605e+001
6.666216e+002, 5.926054e+001
6.671037e+002, 5.907552e+001
6.675858e+002, 5.968636e+001
6.680679e+002, 6.003180e+001
6.685500e+002, 5.989743e+001
6.690322e+002, 5.951033e+001
6.695143e+002, 5.940531e+001
6.699964e+002, 5.966238e+001
6.704785e+002, 5.979148e+001
6.709606e+002, 5.957650e+001
6.714427e+002, 5.917800e+001
6.719249e+002, 5.906611e+001
6.724070e+002, 5.921017e+001
6.728891e+002, 5.937222e+001
6.733712e+002, 5.936739e+001
6.738533e+002, 5.933039e+001
6.743354e+002, 5.947436e+001
6.748176e+002, 5.977727e+001
6.752997e+002, 5.996178e+001
6.757818e+002, 5.977759e+001
6.762639e+002, 5.951460e+001
6.767460e+002, 5.936020e+001
6.772281e+002, 5.938199e+001
6.777103e+002, 5.933115e+001
6.781924e+002, 5.913828e+001
6.786745e+002, 5.893222e+001
6.791566e+002, 5.877990e+001
6.796387e+002, 5.865308e+001
6.801208e+002, 5.877026e+001
6.806030e+002, 5.923080e+001
6.810851e+002, 5.970578e+001
6.815672e+002, 5.970442e+001
6.820493e+002, 5.934197e+001
6.825314e+002, 5.912933e+001
6.830135e+002, 5.923702e+001
6.834957e+002, 5.942348e+001
6.839778e+002, 5.944326e+001
6.844599e+002, 5.935792e+001
6.849420e+002, 5.928323e+001
6.854241e+002, 5.925042e+001
6.859063e+002, 5.924852e+001
6.863884e+002, 5.928393e+001
6.868705e+002, 5.934890e+001
6.873526e+002, 5.942105e+001
6.878347e+002, 5.957073e+001
6.883168e+002, 5.962313e+001
6.887990e+002, 5.949854e+001
6.892811e+002, 5.923100e+001
6.897632e+002, 5.903540e+001
6.902453e+002, 5.890683e+001
6.907274e+002, 5.888654e+001
6.912095e+002, 5.911288e+001
6.916917e+002, 5.945837e+001
6.921738e+002, 5.946088e+001
6.926559e+002, 5.913328e+001
6.931380e+002, 5.888647e+001
6.936201e+002, 5.911392e+001
6.941022e+002, 5.951158e+001
6.945844e+002, 5.982202e+001
6.950665e+002, 6.001809e+001
6.955486e+002, 6.005284e+001
6.960307e+002, 5.962293e+001
6.965128e+002, 5.921014e+001
6.969949e+002, 5.921848e+001
6.974771e+002, 5.997071e+001
6.979592e+002, 6.046943e+001
6.984413e+002, 6.065809e+001
6.989234e+002, 6.066158e+001
6.994055e+002, 6.059913e+001
6.998876e+002, 6.047013e+001
7.003698e+002, 6.035201e+001
7.008519e+002, 6.024887e+001
7.013340e+002, 6.019278e+001
7.018161e+002, 6.024296e+001
7.022982e+002, 6.037742e+001
7.027803e+002, 6.054292e+001
7.032625e+002, 6.075949e+001
7.037446e+002, 6.095336e+001
7.042267e+002, 6.109269e+001
7.047088e+002, 6.117104e+001
7.051909e+002, 6.117170e+001
7.056730e+002, 6.092442e+001
7.061552e+002, 6.078458e+001
7.066373e+002, 6.084213e+001
7.071194e+002, 6.107171e+001
7.076015e+002, 6.139884e+001
7.080836e+002, 6.189466e+001
7.085657e+002, 6.225397e+001
7.090479e+002, 6.229630e+001
7.095300e+002, 6.210865e+001
7.100121e+002, 6.203466e+001
7.104942e+002, 6.207460e+001
7.109763e+002, 6.223607e+001
7.114584e+002, 6.262743e+001
7.119406e+002, 6.308909e+001
7.124227e+002, 6.341964e+001
7.129048e+002, 6.361218e+001
7.133869e+002, 6.376980e+001
7.138690e+002, 6.394901e+001
7.143511e+002, 6.410708e+001
7.148333e+002, 6.421331e+001
7.153154e+002, 6.424520e+001
7.157975e+002, 6.427925e+001
7.162796e+002, 6.425743e+001
7.167617e+002, 6.431198e+001
7.172438e+002, 6.458702e+001
7.177260e+002, 6.510954e+001
7.182081e+002, 6.554939e+001
7.186902e+002, 6.588331e+001
7.191723e+002, 6.613887e+001
7.196544e+002, 6.628321e+001
7.201365e+002, 6.637326e+001
7.206187e+002, 6.655775e+001
7.211008e+002, 6.688885e+001
7.215829e+002, 6.726427e+001
7.220650e+002, 6.763062e+001
7.225471e+002, 6.798771e+001
7.230292e+002, 6.834380e+001
7.235114e+002, 6.867899e+001
7.239935e+002, 6.902792e+001
7.244756e+002, 6.945114e+001
7.249577e+002, 6.987142e+001
7.254398e+002, 7.016290e+001
7.259219e+002, 7.030180e+001
7.264041e+002, 7.037193e+001
7.268862e+002, 7.038248e+001
7.273683e+002, 7.034331e+001
7.278504e+002, 7.028905e+001
7.283325e+002, 7.021375e+001
7.288146e+002, 7.006663e+001
7.292968e+002, 6.970795e+001
7.297789e+002, 6.936796e+001
7.302610e+002, 6.940744e+001
7.307431e+002, 6.970505e+001
7.312252e+002, 6.985848e+001
7.317073e+002, 6.967968e+001
7.321895e+002, 6.933485e+001
7.326716e+002, 6.880667e+001
7.331537e+002, 6.812204e+001
7.336358e+002, 6.762157e+001
7.341179e+002, 6.742316e+001
7.346000e+002, 6.719546e+001
7.350822e+002, 6.675780e+001
7.355643e+002, 6.614818e+001
7.360464e+002, 6.579533e+001
7.365285e+002, 6.571093e+001
7.370106e+002, 6.565662e+001
7.374927e+002, 6.542053e+001
7.379749e+002, 6.511805e+001
7.384570e+002, 6.497353e+001
7.389391e+002, 6.499404e+001
7.394212e+002, 6.498997e+001
7.399033e+002, 6.473291e+001
7.403854e+002, 6.449240e+001
7.408676e+002, 6.450301e+001
7.413497e+002, 6.489209e+001
7.418318e+002, 6.511235e+001
7.423139e+002, 6.500661e+001
7.427960e+002, 6.486613e+001
7.432781e+002, 6.488956e+001
7.437603e+002, 6.509859e+001
7.442424e+002, 6.533827e+001
7.447245e+002, 6.562357e+001
7.452066e+002, 6.586608e+001
7.456887e+002, 6.597038e+001
7.461708e+002, 6.596316e+001
7.466530e+002, 6.590475e+001
7.471351e+002, 6.580079e+001
7.476172e+002, 6.567641e+001
7.480993e+002, 6.544273e+001
7.485814e+002, 6.524767e+001
7.490635e+002, 6.527303e+001
7.495457e+002, 6.582568e+001
7.500278e+002, 6.616996e+001
7.505099e+002, 6.605334e+001
7.509920e+002, 6.578522e+001
7.514741e+002, 6.571048e+001
7.519562e+002, 6.585540e+001
7.524384e+002, 6.610548e+001
7.529205e+002, 6.648898e+001
7.534026e+002, 6.687100e+001
7.538847e+002, 6.701090e+001
7.543668e+002, 6.695354e+001
7.548489e+002, 6.687891e+001
7.553311e+002, 6.682561e+001
7.558132e+002, 6.680321e+001
7.562953e+002, 6.685246e+001
7.567774e+002, 6.693349e+001
7.572595e+002, 6.697540e+001
7.577416e+002, 6.688593e+001
7.582238e+002, 6.683878e+001
7.587059e+002, 6.682938e+001
7.591880e+002, 6.689970e+001
7.596701e+002, 6.719008e+001
7.601522e+002, 6.782997e+001
7.606343e+002, 6.826090e+001
7.611165e+002, 6.826125e+001
7.615986e+002, 6.805534e+001
7.620807e+002, 6.820251e+001
7.625628e+002, 6.865785e+001
7.630449e+002, 6.915954e+001
7.635270e+002, 6.963541e+001
7.640092e+002, 7.005754e+001
7.644913e+002, 7.041471e+001
7.649734e+002, 7.070001e+001
7.654555e+002, 7.089928e+001
7.659376e+002, 7.074725e+001
7.664197e+002, 7.077811e+001
7.669019e+002, 7.128073e+001
7.673840e+002, 7.214152e+001
7.678661e+002, 7.286104e+001
7.683482e+002, 7.341697e+001
7.688303e+002, 7.387897e+001
7.693124e+002, 7.419318e+001
7.697946e+002, 7.445542e+001
7.702767e+002, 7.510221e+001
7.707588e+002, 7.608875e+001
7.712409e+002, 7.699767e+001
7.717230e+002, 7.749329e+001
7.722051e+002, 7.784751e+001
7.726873e+002, 7.825761e+001
7.731694e+002, 7.874960e+001
7.736515e+002, 7.941960e+001
7.741336e+002, 8.054244e+001
7.746157e+002, 8.162355e+001
7.750978e+002, 8.242641e+001
7.755800e+002, 8.296268e+001
7.760621e+002, 8.355259e+001
7.765442e+002, 8.422294e+001
7.770263e+002, 8.487113e+001
7.775084e+002, 8.531523e+001
7.779905e+002, 8.567259e+001
7.784727e+002, 8.665936e+001
7.789548e+002, 8.823275e+001
7.794369e+002, 8.963709e+001
7.799190e+002, 9.008356e+001
7.804011e+002, 9.025914e+001
7.808832e+002, 9.086153e+001
7.813654e+002, 9.193035e+001
7.818475e+002, 9.302852e+001
7.823296e+002, 9.400995e+001
7.828117e+002, 9.498991e+001
7.832938e+002, 9.598807e+001
7.837759e+002, 9.698050e+001
7.842581e+002, 9.830458e+001
7.847402e+002, 1.000271e+002
7.852223e+002, 1.018502e+002
7.857044e+002, 1.035507e+002
7.861865e+002, 1.051837e+002
7.866686e+002, 1.070705e+002
7.871508e+002, 1.092261e+002
7.876329e+002, 1.113813e+002
7.881150e+002, 1.131692e+002
7.885971e+002, 1.150095e+002
7.890792e+002, 1.172590e+002
7.895613e+002, 1.200067e+002
7.900435e+002, 1.229640e+002
7.905256e+002, 1.260917e+002
7.910077e+002, 1.294150e+002
7.914898e+002, 1.329588e+002
7.919719e+002, 1.366672e+002
7.924540e+002, 1.409049e+002
7.929362e+002, 1.457406e+002
7.934183e+002, 1.505128e+002
7.939004e+002, 1.541495e+002
7.943825e+002, 1.572816e+002
7.948646e+002, 1.616881e+002
7.953467e+002, 1.675431e+002
7.958289e+002, 1.738124e+002
7.963110e+002, 1.797028e+002
7.967931e+002, 1.856570e+002
7.972752e+002, 1.918697e+002
7.977573e+002, 1.983570e+002
7.982394e+002, 2.054511e+002
7.987216e+002, 2.130032e+002
7.992037e+002, 2.213443e+002
7.996858e+002, 2.308255e+002
8.001679e+002, 2.417007e+002
8.006500e+002, 2.517766e+002
8.011321e+002, 2.609896e+002
8.016143e+002, 2.706582e+002
8.020964e+002, 2.822061e+002
8.025785e+002, 2.949843e+002
8.030606e+002, 3.077803e+002
8.035427e+002, 3.203966e+002
8.040248e+002, 3.339431e+002
8.045070e+002, 3.495875e+002
8.049891e+002, 3.662197e+002
8.054712e+002, 3.829562e+002
8.059533e+002, 3.997815e+002
8.064354e+002, 4.169194e+002
8.069175e+002, 4.340033e+002
8.073997e+002, 4.519085e+002
8.078818e+002, 4.715465e+002
8.083639e+002, 4.927256e+002
8.088460e+002, 5.139877e+002
8.093281e+002, 5.352522e+002
8.098102e+002, 5.569441e+002
8.102924e+002, 5.792922e+002
8.107745e+002, 6.023749e+002
8.112566e+002, 6.268000e+002
8.117387e+002, 6.526393e+002
8.122208e+002, 6.776500e+002
8.127029e+002, 7.016265e+002
8.131851e+002, 7.238411e+002
8.136672e+002, 7.440413e+002
8.141493e+002, 7.626665e+002
8.146314e+002, 7.778530e+002
8.151135e+002, 7.896649e+002
8.155956e+002, 7.975656e+002
8.160778e+002, 8.013565e+002
8.165599e+002, 8.008467e+002
8.170420e+002, 7.945795e+002
8.175241e+002, 7.823826e+002
8.180062e+002, 7.663308e+002
8.184883e+002, 7.472465e+002
8.189705e+002, 7.253558e+002
8.194526e+002, 7.005040e+002
8.199347e+002, 6.724149e+002
8.204168e+002, 6.442511e+002
8.208989e+002, 6.152935e+002
8.213810e+002, 5.877283e+002
8.218632e+002, 5.625211e+002
8.223453e+002, 5.398035e+002
8.228274e+002, 5.178977e+002
8.233095e+002, 4.970093e+002
8.237916e+002, 4.779342e+002
8.242737e+002, 4.617122e+002
8.247559e+002, 4.479575e+002
8.252380e+002, 4.360710e+002
8.257201e+002, 4.261106e+002
8.262022e+002, 4.179270e+002
8.266843e+002, 4.115921e+002
8.271664e+002, 4.070103e+002
8.276486e+002, 4.041360e+002
8.281307e+002, 4.030297e+002
8.286128e+002, 4.036905e+002
8.290949e+002, 4.065993e+002
8.295770e+002, 4.104153e+002
8.300591e+002, 4.141967e+002
8.305413e+002, 4.180984e+002
8.310234e+002, 4.242277e+002
8.315055e+002, 4.325648e+002
8.319876e+002, 4.418030e+002
8.324697e+002, 4.511971e+002
8.329518e+002, 4.609460e+002
8.334340e+002, 4.712505e+002
8.339161e+002, 4.821288e+002
8.343982e+002, 4.941322e+002
8.348803e+002, 5.074403e+002
8.353624e+002, 5.220064e+002
8.358445e+002, 5.380399e+002
8.363267e+002, 5.553928e+002
8.368088e+002, 5.724681e+002
8.372909e+002, 5.891998e+002
8.377730e+002, 6.055804e+002
8.382551e+002, 6.215321e+002
8.387372e+002, 6.371588e+002
8.392194e+002, 6.531324e+002
8.397015e+002, 6.692096e+002
8.401836e+002, 6.839662e+002
8.406657e+002, 6.973745e+002
8.411478e+002, 7.085068e+002
8.416299e+002, 7.170107e+002
8.421121e+002, 7.227174e+002
8.425942e+002, 7.245806e+002
8.430763e+002, 7.226823e+002
8.435584e+002, 7.171375e+002
8.440405e+002, 7.076331e+002
8.445226e+002, 6.946094e+002
8.450048e+002, 6.794765e+002
8.454869e+002, 6.622795e+002
8.459690e+002, 6.436805e+002
8.464511e+002, 6.234990e+002
8.469332e+002, 6.027666e+002
8.474153e+002, 5.823880e+002
8.478975e+002, 5.624330e+002
8.483796e+002, 5.430900e+002
8.488617e+002, 5.236547e+002
8.493438e+002, 5.057286e+002
8.498259e+002, 4.899557e+002
8.503080e+002, 4.759920e+002
8.507902e+002, 4.629608e+002
8.512723e+002, 4.507439e+002
8.517544e+002, 4.409609e+002
8.522365e+002, 4.344990e+002
8.527186e+002, 4.300742e+002
8.532007e+002, 4.253936e+002
8.536829e+002, 4.208772e+002
8.541650e+002, 4.176096e+002
8.546471e+002, 4.158953e+002
8.551292e+002, 4.156249e+002
8.556113e+002, 4.167540e+002
8.560934e+002, 4.193056e+002
8.565756e+002, 4.233706e+002
8.570577e+002, 4.291747e+002
8.575398e+002, 4.358566e+002
8.580219e+002, 4.432409e+002
8.585040e+002, 4.517530e+002
8.589861e+002, 4.616076e+002
8.594683e+002, 4.729987e+002
8.599504e+002, 4.869581e+002
8.604325e+002, 5.037345e+002
8.609146e+002, 5.226951e+002
8.613967e+002, 5.431638e+002
8.618788e+002, 5.652171e+002
8.623610e+002, 5.892673e+002
8.628431e+002, 6.156069e+002
8.633252e+002, 6.432416e+002
8.638073e+002, 6.714372e+002
8.642894e+002, 7.011829e+002
8.647715e+002, 7.332535e+002
8.652537e+002, 7.677166e+002
8.657358e+002, 8.028392e+002
8.662179e+002, 8.386168e+002
8.667000e+002, 8.764353e+002
8.671821e+002, 9.179688e+002
8.676642e+002, 9.625855e+002
8.681464e+002, 1.008190e+003
8.686285e+002, 1.054764e+003
8.691106e+002, 1.104747e+003
8.695927e+002, 1.160690e+003
8.700748e+002, 1.219828e+003
8.705569e+002, 1.280198e+003
8.710391e+002, 1.341872e+003
8.715212e+002, 1.403262e+003
8.720033e+002, 1.464949e+003
8.724854e+002, 1.522740e+003
8.729675e+002, 1.574434e+003
8.734496e+002, 1.619285e+003
8.739318e+002, 1.655906e+003
8.744139e+002, 1.683566e+003
8.748960e+002, 1.695602e+003
8.753781e+002, 1.688083e+003
8.758602e+002, 1.663747e+003
8.763423e+002, 1.622662e+003
8.768245e+002, 1.564561e+003
8.773066e+002, 1.495258e+003
8.777887e+002, 1.412028e+003
8.782708e+002, 1.323718e+003
8.787529e+002, 1.232101e+003
8.792350e+002, 1.139300e+003
8.797172e+002, 1.048686e+003
8.801993e+002, 9.617969e+002
8.806814e+002, 8.810651e+002
8.811635e+002, 8.084852e+002
8.816456e+002, 7.421485e+002
8.821277e+002, 6.806860e+002
8.826099e+002, 6.242822e+002
8.830920e+002, 5.736926e+002
8.835741e+002, 5.297630e+002
8.840562e+002, 4.906904e+002
8.845383e+002, 4.563209e+002
8.850204e+002, 4.257650e+002
8.855026e+002, 3.972515e+002
8.859847e+002, 3.707875e+002
8.864668e+002, 3.464834e+002
8.869489e+002, 3.242627e+002
8.874310e+002, 3.044026e+002
8.879131e+002, 2.882553e+002
8.883953e+002, 2.746109e+002
8.888774e+002, 2.614812e+002
8.893595e+002, 2.478735e+002
8.898416e+002, 2.355137e+002
8.903237e+002, 2.247948e+002
8.908058e+002, 2.152344e+002
8.912880e+002, 2.062353e+002
8.917701e+002, 1.978368e+002
8.922522e+002, 1.900590e+002
8.927343e+002, 1.828577e+002
8.932164e+002, 1.763004e+002
8.936985e+002, 1.705977e+002
8.941807e+002, 1.655384e+002
8.946628e+002, 1.607982e+002
8.951449e+002, 1.564039e+002
8.956270e+002, 1.519715e+002
8.961091e+002, 1.469369e+002
8.965912e+002, 1.421669e+002
8.970734e+002, 1.381380e+002
8.975555e+002, 1.349313e+002
8.980376e+002, 1.318530e+002
8.985197e+002, 1.289137e+002
8.990018e+002, 1.261969e+002
8.994839e+002, 1.239027e+002
8.999661e+002, 1.218488e+002
9.004482e+002, 1.196642e+002
9.009303e+002, 1.173654e+002
9.014124e+002, 1.152332e+002
9.018945e+002, 1.135222e+002
9.023766e+002, 1.118654e+002
9.028588e+002, 1.099530e+002
9.033409e+002, 1.079130e+002
9.038230e+002, 1.063115e+002
9.043051e+002, 1.052469e+002
9.047872e+002, 1.041841e+002
9.052693e+002, 1.029513e+002
9.057515e+002, 1.015855e+002
9.062336e+002, 1.000276e+002
9.067157e+002, 9.838495e+001
9.071978e+002, 9.697270e+001
9.076799e+002, 9.604980e+001
9.081620e+002, 9.522688e+001
9.086442e+002, 9.428541e+001
9.091263e+002, 9.334409e+001
9.096084e+002, 9.260120e+001
9.100905e+002, 9.216023e+001
9.105726e+002, 9.163528e+001
9.110547e+002, 9.095583e+001
9.115369e+002, 9.025193e+001
9.120190e+002, 8.975130e+001
9.125011e+002, 8.936070e+001
9.129832e+002, 8.878441e+001
9.134653e+002, 8.794323e+001
9.139474e+002, 8.711007e+001
9.144296e+002, 8.636959e+001
9.149117e+002, 8.577033e+001
9.153938e+002, 8.543296e+001
9.158759e+002, 8.550720e+001
9.163580e+002, 8.514204e+001
9.168401e+002, 8.421027e+001
9.173223e+002, 8.315006e+001
9.178044e+002, 8.215481e+001
9.182865e+002, 8.128138e+001
9.187686e+002, 8.080145e+001
9.192507e+002, 8.067491e+001
9.197328e+002, 8.052123e+001
9.202150e+002, 8.003069e+001
9.206971e+002, 7.950491e+001
9.211792e+002, 7.914366e+001
9.216613e+002, 7.893021e+001
9.221434e+002, 7.868445e+001
9.226255e+002, 7.845158e+001
9.231077e+002, 7.803815e+001
9.235898e+002, 7.725774e+001
9.240719e+002, 7.640304e+001
9.245540e+002, 7.628343e+001
9.250361e+002, 7.671635e+001
9.255182e+002, 7.693980e+001
9.260004e+002, 7.646432e+001
9.264825e+002, 7.603857e+001
9.269646e+002, 7.630801e+001
9.274467e+002, 7.686105e+001
9.279288e+002, 7.705708e+001
9.284109e+002, 7.663299e+001
9.288931e+002, 7.632804e+001
9.293752e+002, 7.622360e+001
9.298573e+002, 7.615126e+001
9.303394e+002, 7.585709e+001
9.308215e+002, 7.543103e+001
9.313036e+002, 7.526336e+001
9.317858e+002, 7.542496e+001
9.322679e+002, 7.543977e+001
9.327500e+002, 7.487595e+001
9.332321e+002, 7.411012e+001
9.337142e+002, 7.333562e+001
9.341964e+002, 7.254205e+001
9.346785e+002, 7.220276e+001
9.351606e+002, 7.256750e+001
9.356427e+002, 7.277647e+001
9.361248e+002, 7.227508e+001
9.366069e+002, 7.130022e+001
9.370891e+002, 7.065455e+001
9.375712e+002, 7.029059e+001
9.380533e+002, 7.001768e+001
9.385354e+002, 6.986678e+001
9.390175e+002, 6.963767e+001
9.394996e+002, 6.917860e+001
9.399818e+002, 6.854957e+001
9.404639e+002, 6.792699e+001
9.409460e+002, 6.726942e+001
9.414281e+002, 6.674899e+001
9.419102e+002, 6.638615e+001
9.423923e+002, 6.620006e+001
9.428745e+002, 6.634348e+001
9.433566e+002, 6.668909e+001
9.438387e+002, 6.686738e+001
9.443208e+002, 6.677966e+001
9.448029e+002, 6.654984e+001
9.452850e+002, 6.620375e+001
9.457672e+002, 6.577418e+001
9.462493e+002, 6.525182e+001
9.467314e+002, 6.455283e+001
9.472135e+002, 6.412798e+001
9.476956e+002, 6.400864e+001
9.481777e+002, 6.405924e+001
9.486599e+002, 6.423827e+001
9.491420e+002, 6.449470e+001
9.496241e+002, 6.473678e+001
9.501062e+002, 6.495119e+001
9.505883e+002, 6.506613e+001
9.510704e+002, 6.488961e+001
9.515526e+002, 6.475279e+001
9.520347e+002, 6.486423e+001
9.525168e+002, 6.515986e+001
9.529989e+002, 6.540596e+001
9.534810e+002, 6.559287e+001
9.539631e+002, 6.577022e+001
9.544453e+002, 6.593965e+001
9.549274e+002, 6.612936e+001
9.554095e+002, 6.647400e+001
9.558916e+002, 6.686174e+001
9.563737e+002, 6.703453e+001
9.568558e+002, 6.672165e+001
9.573380e+002, 6.654503e+001
9.578201e+002, 6.682175e+001
9.583022e+002, 6.726489e+001
9.587843e+002, 6.762167e+001
9.592664e+002, 6.788710e+001
9.597485e+002, 6.804916e+001
9.602307e+002, 6.807472e+001
9.607128e+002, 6.823410e+001
9.611949e+002, 6.892931e+001
9.616770e+002, 6.982644e+001
9.621591e+002, 7.046734e+001
9.626412e+002, 7.082893e+001
9.631234e+002, 7.103596e+001
9.636055e+002, 7.091466e+001
9.640876e+002, 7.089193e+001
9.645697e+002, 7.113848e+001
9.650518e+002, 7.159675e+001
9.655339e+002, 7.201702e+001
9.660161e+002, 7.240053e+001
9.664982e+002, 7.287047e+001
9.669803e+002, 7.354800e+001
9.674624e+002, 7.420972e+001
9.679445e+002, 7.455162e+001
9.684266e+002, 7.471078e+001
9.689088e+002, 7.490693e+001
9.693909e+002, 7.509038e+001
9.698730e+002, 7.550119e+001
9.703551e+002, 7.629759e+001
9.708372e+002, 7.713667e+001
9.713193e+002, 7.770085e+001
9.718015e+002, 7.799915e+001
9.722836e+002, 7.803568e+001
9.727657e+002, 7.779771e+001
9.732478e+002, 7.778463e+001
9.737299e+002, 7.860187e+001
9.742120e+002, 7.965072e+001
9.746942e+002, 8.050491e+001
9.751763e+002, 8.111806e+001
9.756584e+002, 8.142036e+001
9.761405e+002, 8.119630e+001
9.766226e+002, 8.115092e+001
9.771047e+002, 8.159511e+001
9.775869e+002, 8.234748e+001
9.780690e+002, 8.285516e+001
9.785511e+002, 8.320911e+001
9.790332e+002, 8.377473e+001
9.795153e+002, 8.482385e+001
9.799974e+002, 8.594603e+001
9.804796e+002, 8.692030e+001
9.809617e+002, 8.783796e+001
9.814438e+002, 8.880555e+001
9.819259e+002, 8.977492e+001
9.824080e+002, 9.101171e+001
9.828901e+002, 9.257539e+001
9.833723e+002, 9.425301e+001
9.838544e+002, 9.564391e+001
9.843365e+002, 9.706394e+001
9.848186e+002, 9.922207e+001
9.853007e+002, 1.021674e+002
9.857828e+002, 1.051196e+002
9.862650e+002, 1.075758e+002
9.867471e+002, 1.101740e+002
9.872292e+002, 1.132060e+002
9.877113e+002, 1.166080e+002
9.881934e+002, 1.200497e+002
9.886755e+002, 1.235259e+002
9.891577e+002, 1.271480e+002
9.896398e+002, 1.308504e+002
9.901219e+002, 1.348210e+002
9.906040e+002, 1.394027e+002
9.910861e+002, 1.443630e+002
9.915682e+002, 1.493100e+002
9.920504e+002, 1.540760e+002
9.925325e+002, 1.589196e+002
9.930146e+002, 1.639683e+002
9.934967e+002, 1.689611e+002
9.939788e+002, 1.741482e+002
9.944609e+002, 1.793372e+002
9.949431e+002, 1.828716e+002
9.954252e+002, 1.846717e+002
9.959073e+002, 1.849600e+002
9.963894e+002, 1.839579e+002
9.968715e+002, 1.814905e+002
9.973536e+002, 1.772303e+002
9.978358e+002, 1.712101e+002
9.983179e+002, 1.642563e+002
9.988000e+002, 1.560949e+002
9.992821e+002, 1.477373e+002
9.997642e+002, 1.393012e+002
1.000246e+003, 1.309151e+002
1.000728e+003, 1.229290e+002
1.001211e+003, 1.153481e+002
1.001693e+003, 1.085058e+002
1.002175e+003, 1.025257e+002
1.002657e+003, 9.708817e+001
1.003139e+003, 9.203917e+001
1.003621e+003, 8.756989e+001
1.004103e+003, 8.394966e+001
1.004585e+003, 8.133727e+001
1.005068e+003, 7.854346e+001
1.005550e+003, 7.547535e+001
1.006032e+003, 7.291254e+001
1.006514e+003, 7.173965e+001
1.006996e+003, 7.118715e+001
1.007478e+003, 7.028633e+001
1.007960e+003, 6.908028e+001
1.008442e+003, 6.804564e+001
1.008924e+003, 6.745757e+001
1.009407e+003, 6.683884e+001
1.009889e+003, 6.602137e+001
1.010371e+003, 6.518075e+001
1.010853e+003, 6.466628e+001
1.011335e+003, 6.445507e+001
1.011817e+003, 6.444183e+001
1.012299e+003, 6.461469e+001
1.012781e+003, 6.492004e+001
1.013263e+003, 6.552879e+001
1.013746e+003, 6.612199e+001
1.014228e+003, 6.638158e+001
1.014710e+003, 6.625697e+001
1.015192e+003, 6.594740e+001
1.015674e+003, 6.538029e+001
1.016156e+003, 6.487443e+001
1.016638e+003, 6.475868e+001
1.017120e+003, 6.476945e+001
1.017603e+003, 6.427231e+001
1.018085e+003, 6.338047e+001
1.018567e+003, 6.251106e+001
1.019049e+003, 6.204072e+001
1.019531e+003, 6.137181e+001
1.020013e+003, 6.012735e+001
1.020495e+003, 5.871068e+001
1.020977e+003, 5.774414e+001
1.021459e+003, 5.723932e+001
1.021942e+003, 5.666904e+001
1.022424e+003, 5.597046e+001
1.022906e+003, 5.515430e+001
1.023388e+003, 5.411200e+001
1.023870e+003, 5.302687e+001
1.024352e+003, 5.204947e+001
1.024834e+003, 5.119672e+001
1.025316e+003, 5.057464e+001
1.025799e+003, 5.027215e+001
1.026281e+003, 5.001040e+001
1.026763e+003, 4.968109e+001
1.027245e+003, 4.931903e+001
1.027727e+003, 4.893192e+001
1.028209e+003, 4.856908e+001
1.028691e+003, 4.841145e+001
1.029173e+003, 4.873029e+001
1.029656e+003, 4.894691e+001
1.030138e+003, 4.865527e+001
1.030620e+003, 4.821081e+001
1.031102e+003, 4.801062e+001
1.031584e+003, 4.812333e+001
1.032066e+003, 4.808594e+001
1.032548e+003, 4.788255e+001
1.033030e+003, 4.758312e+001
1.033512e+003, 4.718556e+001
1.033995e+003, 4.676569e+001
1.034477e+003, 4.640006e+001
1.034959e+003, 4.609706e+001
1.035441e+003, 4.587339e+001
1.035923e+003, 4.578425e+001
1.036405e+003, 4.570152e+001
1.036887e+003, 4.561042e+001
1.037369e+003, 4.549893e+001
1.037851e+003, 4.532044e+001
1.038334e+003, 4.509837e+001
1.038816e+003, 4.489971e+001
1.039298e+003, 4.472913e+001
1.039780e+003, 4.463380e+001
1.040262e+003, 4.469679e+001
1.040744e+003, 4.480567e+001
1.041226e+003, 4.488536e+001
1.041708e+003, 4.493838e+001
1.042191e+003, 4.489124e+001
1.042673e+003, 4.473279e+001
1.043155e+003, 4.456813e+001
1.043637e+003, 4.445272e+001
1.044119e+003, 4.436288e+001
1.044601e+003, 4.425035e+001
1.045083e+003, 4.413750e+001
1.045565e+003, 4.407951e+001
1.046047e+003, 4.423495e+001
1.046530e+003, 4.422053e+001
1.047012e+003, 4.392089e+001
1.047494e+003, 4.357014e+001
1.047976e+003, 4.344004e+001
1.048458e+003, 4.348984e+001
1.048940e+003, 4.356569e+001
1.049422e+003, 4.365188e+001
1.049904e+003, 4.364736e+001
1.050386e+003, 4.331158e+001
1.050869e+003, 4.302990e+001
1.051351e+003, 4.314473e+001
1.051833e+003, 4.352616e+001
1.052315e+003, 4.363580e+001
1.052797e+003, 4.344476e+001
1.053279e+003, 4.317552e+001
1.053761e+003, 4.284687e+001
1.054243e+003, 4.256439e+001
1.054726e+003, 4.243982e+001
1.055208e+003, 4.245422e+001
1.055690e+003, 4.259680e+001
1.056172e+003, 4.291132e+001
1.056654e+003, 4.322726e+001
1.057136e+003, 4.362599e+001
1.057618e+003, 4.384901e+001
1.058100e+003, 4.359501e+001
1.058583e+003, 4.306623e+001
1.059065e+003, 4.317483e+001
1.059547e+003, 4.378057e+001
1.060029e+003, 4.423700e+001
1.060511e+003, 4.401691e+001
1.060993e+003, 4.379232e+001
1.061475e+003, 4.389162e+001
1.061957e+003, 4.412473e+001
1.062439e+003, 4.422577e+001
1.062922e+003, 4.417536e+001
1.063404e+003, 4.416933e+001
1.063886e+003, 4.422551e+001
1.064368e+003, 4.430353e+001
1.064850e+003, 4.438221e+001
1.065332e+003, 4.445488e+001
1.065814e+003, 4.451023e+001
1.066296e+003, 4.454893e+001
1.066778e+003, 4.460089e+001
1.067261e+003, 4.469893e+001
1.067743e+003, 4.472207e+001
1.068225e+003, 4.457573e+001
1.068707e+003, 4.444508e+001
1.069189e+003, 4.477475e+001
1.069671e+003, 4.537582e+001
1.070153e+003, 4.581710e+001
1.070635e+003, 4.599054e+001
1.071118e+003, 4.599556e+001
1.071600e+003, 4.570785e+001
1.072082e+003, 4.540987e+001
1.072564e+003, 4.521216e+001
1.073046e+003, 4.513119e+001
1.073528e+003, 4.545658e+001
1.074010e+003, 4.615468e+001
1.074492e+003, 4.677534e+001
1.074974e+003, 4.709885e+001
1.075457e+003, 4.722931e+001
1.075939e+003, 4.710700e+001
1.076421e+003, 4.688913e+001
1.076903e+003, 4.684385e+001
1.077385e+003, 4.700613e+001
1.077867e+003, 4.729377e+001
1.078349e+003, 4.774578e+001
1.078831e+003, 4.813260e+001
1.079313e+003, 4.813947e+001
1.079796e+003, 4.800045e+001
1.080278e+003, 4.810358e+001
1.080760e+003, 4.842546e+001
1.081242e+003, 4.866342e+001
1.081724e+003, 4.844750e+001
1.082206e+003, 4.854642e+001
1.082688e+003, 4.926608e+001
1.083170e+003, 5.018399e+001
1.083652e+003, 5.043124e+001
1.084135e+003, 5.019277e+001
1.084617e+003, 5.020378e+001
1.085099e+003, 5.064713e+001
1.085581e+003, 5.099873e+001
1.086063e+003, 5.080393e+001
1.086545e+003, 5.055452e+001
1.087027e+003, 5.057407e+001
1.087509e+003, 5.083423e+001
1.087992e+003, 5.102939e+001
1.088474e+003, 5.115900e+001
1.088956e+003, 5.127637e+001
1.089438e+003, 5.138275e+001
1.089920e+003, 5.152178e+001
1.090402e+003, 5.185381e+001
1.090884e+003, 5.219586e+001
1.091366e+003, 5.225039e+001
1.091849e+003, 5.170543e+001
1.092331e+003, 5.168649e+001
1.092813e+003, 5.234078e+001
1.093295e+003, 5.302244e+001
1.093777e+003, 5.325473e+001
1.094259e+003, 5.319272e+001
1.094741e+003, 5.303968e+001
1.095223e+003, 5.284282e+001
1.095705e+003, 5.275150e+001
1.096188e+003, 5.292779e+001
1.096670e+003, 5.306882e+001
1.097152e+003, 5.310831e+001
1.097634e+003, 5.311376e+001
1.098116e+003, 5.315420e+001
1.098598e+003, 5.323550e+001
1.099080e+003, 5.345809e+001
1.099562e+003, 5.382611e+001
1.100044e+003, 5.398995e+001
1.100527e+003, 5.344090e+001
1.101009e+003, 5.292676e+001
1.101491e+003, 5.291012e+001
1.101973e+003, 5.323843e+001
1.102455e+003, 5.345463e+001
1.102937e+003, 5.355963e+001
1.103419e+003, 5.365086e+001
1.103901e+003, 5.375558e+001
1.104384e+003, 5.383841e+001
1.104866e+003, 5.389448e+001
1.105348e+003, 5.389124e+001
1.105830e+003, 5.378553e+001
1.106312e+003, 5.356439e+001
1.106794e+003, 5.331641e+001
1.107276e+003, 5.303978e+001
1.107758e+003, 5.273112e+001
1.108240e+003, 5.233856e+001
1.108723e+003, 5.196999e+001
1.109205e+003, 5.176748e+001
1.109687e+003, 5.171299e+001
1.110169e+003, 5.177829e+001
1.110651e+003, 5.209728e+001
1.111133e+003, 5.227282e+001
1.111615e+003, 5.227579e+001
1.112097e+003, 5.214534e+001
1.112579e+003, 5.185033e+001
1.113062e+003, 5.145221e+001
1.113544e+003, 5.120922e+001
1.114026e+003, 5.107868e+001
1.114508e+003, 5.085624e+001
1.114990e+003, 5.034119e+001
1.115472e+003, 4.984021e+001
1.115954e+003, 4.941673e+001
1.116436e+003, 4.909322e+001
1.116919e+003, 4.895490e+001
1.117401e+003, 4.898177e+001
1.117883e+003, 4.890465e+001
1.118365e+003, 4.870053e+001
1.118847e+003, 4.841629e+001
1.119329e+003, 4.802427e+001
1.119811e+003, 4.762118e+001
1.120293e+003, 4.719323e+001
1.120776e+003, 4.681104e+001
1.121258e+003, 4.678413e+001
1.121740e+003, 4.717273e+001
1.122222e+003, 4.730074e+001
1.122704e+003, 4.699472e+001
1.123186e+003, 4.653043e+001
1.123668e+003, 4.610714e+001
1.124150e+003, 4.572247e+001
1.124632e+003, 4.537611e+001
1.125115e+003, 4.507133e+001
1.125597e+003, 4.477286e+001
1.126079e+003, 4.446091e+001
1.126561e+003, 4.423262e+001
1.127043e+003, 4.417587e+001
1.127525e+003, 4.414041e+001
1.128007e+003, 4.376770e+001
1.128489e+003, 4.327464e+001
1.128971e+003, 4.304989e+001
1.129454e+003, 4.328931e+001
1.129936e+003, 4.354983e+001
1.130418e+003, 4.386238e+001
1.130900e+003, 4.404677e+001
1.131382e+003, 4.398854e+001
1.131864e+003, 4.372423e+001
1.132346e+003, 4.322626e+001
1.132828e+003, 4.260326e+001
1.133311e+003, 4.221406e+001
1.133793e+003, 4.245014e+001
1.134275e+003, 4.262175e+001
1.134757e+003, 4.251234e+001
1.135239e+003, 4.234147e+001
1.135721e+003, 4.236839e+001
1.136203e+003, 4.254444e+001
1.136685e+003, 4.238749e+001
1.137167e+003, 4.191837e+001
1.137650e+003, 4.151937e+001
1.138132e+003, 4.143612e+001
1.138614e+003, 4.146161e+001
1.139096e+003, 4.159349e+001
1.139578e+003, 4.172416e+001
1.140060e+003, 4.164186e+001
1.140542e+003, 4.133955e+001
1.141024e+003, 4.120686e+001
1.141506e+003, 4.129501e+001
1.141989e+003, 4.136279e+001
1.142471e+003, 4.114949e+001
1.142953e+003, 4.090284e+001
1.143435e+003, 4.082093e+001
1.143917e+003, 4.087928e+001
1.144399e+003, 4.089663e+001
1.144881e+003, 4.085694e+001
1.145363e+003, 4.090119e+001
1.145846e+003, 4.108022e+001
1.146328e+003, 4.125830e+001
1.146810e+003, 4.126761e+001
1.147292e+003, 4.120547e+001
1.147774e+003, 4.118941e+001
1.148256e+003, 4.123839e+001
1.148738e+003, 4.115263e+001
1.149220e+003, 4.084825e+001
1.149703e+003, 4.072573e+001
1.150185e+003, 4.100890e+001
1.150667e+003, 4.137451e+001
1.151149e+003, 4.126966e+001
1.151631e+003, 4.094835e+001
1.152113e+003, 4.084346e+001
1.152595e+003, 4.116079e+001
1.153077e+003, 4.124105e+001
1.153559e+003, 4.088333e+001
1.154042e+003, 4.067803e+001
1.154524e+003, 4.104110e+001
1.155006e+003, 4.167432e+001
1.155488e+003, 4.196566e+001
1.155970e+003, 4.198191e+001
1.156452e+003, 4.185740e+001
1.156934e+003, 4.139927e+001
1.157416e+003, 4.127316e+001
1.157898e+003, 4.171930e+001
1.158381e+003, 4.221364e+001
1.158863e+003, 4.232269e+001
1.159345e+003, 4.215520e+001
1.159827e+003, 4.215704e+001
1.160309e+003, 4.228396e+001
1.160791e+003, 4.235666e+001
1.161273e+003, 4.213895e+001
1.161755e+003, 4.207146e+001
1.162238e+003, 4.238956e+001
1.162720e+003, 4.275599e+001
1.163202e+003, 4.272088e+001
1.163684e+003, 4.238311e+001
1.164166e+003, 4.247227e+001
1.164648e+003, 4.296732e+001
1.165130e+003, 4.335591e+001
1.165612e+003, 4.323833e+001
1.166094e+003, 4.306995e+001
1.166577e+003, 4.294085e+001
1.167059e+003, 4.294857e+001
1.167541e+003, 4.337449e+001
1.168023e+003, 4.416667e+001
1.168505e+003, 4.457540e+001
1.168987e+003, 4.452499e+001
1.169469e+003, 4.437855e+001
1.169951e+003, 4.426531e+001
1.170433e+003, 4.425622e+001
1.170916e+003, 4.456806e+001
1.171398e+003, 4.497224e+001
1.171880e+003, 4.471991e+001
1.172362e+003, 4.382539e+001
1.172844e+003, 4.365390e+001
1.173326e+003, 4.455243e+001
1.173808e+003, 4.547898e+001
1.174290e+003, 4.552158e+001
1.174773e+003, 4.527721e+001
1.175255e+003, 4.519334e+001
1.175737e+003, 4.524516e+001
1.176219e+003, 4.518710e+001
1.176701e+003, 4.500721e+001
1.177183e+003, 4.498816e+001
1.177665e+003, 4.525435e+001
1.178147e+003, 4.553249e+001
1.178630e+003, 4.551435e+001
1.179112e+003, 4.541328e+001
1.179594e+003, 4.545909e+001
1.180076e+003, 4.566247e+001
1.180558e+003, 4.575775e+001
1.181040e+003, 4.573332e+001
1.181522e+003, 4.573688e+001
1.182004e+003, 4.587251e+001
1.182486e+003, 4.595625e+001
1.182969e+003, 4.570741e+001
1.183451e+003, 4.533743e+001
1.183933e+003, 4.508877e+001
1.184415e+003, 4.498471e+001
1.184897e+003, 4.504839e+001
1.185379e+003, 4.532002e+001
1.185861e+003, 4.550030e+001
1.186343e+003, 4.539930e+001
1.186825e+003, 4.517856e+001
1.187308e+003, 4.491726e+001
1.187790e+003, 4.470786e+001
1.188272e+003, 4.472562e+001
1.188754e+003, 4.510192e+001
1.189236e+003, 4.537821e+001
1.189718e+003, 4.555573e+001
1.190200e+003, 4.561699e+001
1.190682e+003, 4.545732e+001
1.191165e+003, 4.525216e+001
1.191647e+003, 4.524009e+001
1.192129e+003, 4.535238e+001
1.192611e+003, 4.545231e+001
1.193093e+003, 4.551380e+001
1.193575e+003, 4.558084e+001
1.194057e+003, 4.567505e+001
1.194539e+003, 4.568907e+001
1.195021e+003, 4.550952e+001
1.195504e+003, 4.522015e+001
1.195986e+003, 4.491087e+001
1.196468e+003, 4.458727e+001
1.196950e+003, 4.425624e+001
1.197432e+003, 4.380930e+001
1.197914e+003, 4.360067e+001
1.198396e+003, 4.367969e+001
1.198878e+003, 4.389654e+001
1.199360e+003, 4.422211e+001
1.199843e+003, 4.452486e+001
1.200325e+003, 4.463672e+001
1.200807e+003, 4.455449e+001
1.201289e+003, 4.425890e+001
1.201771e+003, 4.352698e+001
1.202253e+003, 4.312643e+001
1.202735e+003, 4.321068e+001
1.203217e+003, 4.342187e+001
1.203700e+003, 4.336027e+001
1.204182e+003, 4.317781e+001
1.204664e+003, 4.308281e+001
1.205146e+003, 4.307962e+001
1.205628e+003, 4.308430e+001
1.206110e+003, 4.301098e+001
1.206592e+003, 4.314619e+001
1.207074e+003, 4.362933e+001
1.207557e+003, 4.405697e+001
1.208039e+003, 4.383804e+001
1.208521e+003, 4.328931e+001
1.209003e+003, 4.278199e+001
1.209485e+003, 4.236474e+001
1.209967e+003, 4.223240e+001
1.210449e+003, 4.254041e+001
1.210931e+003, 4.277809e+001
1.211413e+003, 4.284883e+001
1.211896e+003, 4.278968e+001
1.212378e+003, 4.260700e+001
1.212860e+003, 4.235328e+001
1.213342e+003, 4.212379e+001
1.213824e+003, 4.192725e+001
1.214306e+003, 4.159629e+001
1.214788e+003, 4.096207e+001
1.215270e+003, 4.065456e+001
1.215752e+003, 4.095704e+001
1.216235e+003, 4.135748e+001
1.216717e+003, 4.102272e+001
1.217199e+003, 4.035997e+001
1.217681e+003, 3.997472e+001
1.218163e+003, 3.996988e+001
1.218645e+003, 3.989890e+001
1.219127e+003, 3.969540e+001
1.219609e+003, 3.952068e+001
1.220092e+003, 3.943543e+001
1.220574e+003, 3.937702e+001
1.221056e+003, 3.924566e+001
1.221538e+003, 3.908272e+001
1.222020e+003, 3.895127e+001
1.222502e+003, 3.886913e+001
1.222984e+003, 3.876674e+001
1.223466e+003, 3.865372e+001
1.223948e+003, 3.847351e+001
1.224431e+003, 3.818206e+001
1.224913e+003, 3.786023e+001
1.225395e+003, 3.758575e+001
1.225877e+003, 3.737663e+001
1.226359e+003, 3.727720e+001
1.226841e+003, 3.733388e+001
1.227323e+003, 3.721730e+001
1.227805e+003, 3.678475e+001
1.228287e+003, 3.683679e+001
1.228770e+003, 3.804317e+001
1.229252e+003, 3.927825e+001
1.229734e+003, 3.870716e+001
1.230216e+003, 3.733477e+001
1.230698e+003, 3.654790e+001
1.231180e+003, 3.669719e+001
1.231662e+003, 3.664707e+001
1.232144e+003, 3.637094e+001
1.232627e+003, 3.603770e+001
1.233109e+003, 3.565399e+001
1.233591e+003, 3.536965e+001
1.234073e+003, 3.550021e+001
1.234555e+003, 3.576858e+001
1.235037e+003, 3.578801e+001
1.235519e+003, 3.549343e+001
1.236001e+003, 3.511068e+001
1.236484e+003, 3.461540e+001
1.236966e+003, 3.428970e+001
1.237448e+003, 3.438154e+001
1.237930e+003, 3.454638e+001
1.238412e+003, 3.436017e+001
1.238894e+003, 3.407125e+001
1.239376e+003, 3.405100e+001
1.239858e+003, 3.435966e+001
1.240340e+003, 3.454358e+001
1.240823e+003, 3.459677e+001
1.241305e+003, 3.458115e+001
1.241787e+003, 3.451732e+001
1.242269e+003, 3.441155e+001
1.242751e+003, 3.430009e+001
1.243233e+003, 3.412685e+001
1.243715e+003, 3.378369e+001
1.244197e+003, 3.323018e+001
1.244679e+003, 3.298670e+001
1.245162e+003, 3.304607e+001
1.245644e+003, 3.313984e+001
1.246126e+003, 3.311954e+001
1.246608e+003, 3.309155e+001
1.247090e+003, 3.310270e+001
1.247572e+003, 3.316763e+001
1.248054e+003, 3.333388e+001
1.248536e+003, 3.361607e+001
1.249019e+003, 3.362233e+001
1.249501e+003, 3.337461e+001
1.249983e+003, 3.309698e+001
1.250465e+003, 3.278228e+001
1.250947e+003, 3.263615e+001
1.251429e+003, 3.296124e+001
1.251911e+003, 3.335274e+001
1.252393e+003, 3.340089e+001
1.252875e+003, 3.312985e+001
1.253358e+003, 3.303894e+001
1.253840e+003, 3.309907e+001
1.254322e+003, 3.311663e+001
1.254804e+003, 3.286794e+001
1.255286e+003, 3.272318e+001
1.255768e+003, 3.297559e+001
1.256250e+003, 3.320677e+001
1.256732e+003, 3.294440e+001
1.257214e+003, 3.232368e+001
1.257697e+003, 3.225361e+001
1.258179e+003, 3.262328e+001
1.258661e+003, 3.290570e+001
1.259143e+003, 3.274061e+001
1.259625e+003, 3.264082e+001
1.260107e+003, 3.269635e+001
1.260589e+003, 3.284821e+001
1.261071e+003, 3.312644e+001
1.261554e+003, 3.344530e+001
1.262036e+003, 3.352698e+001
1.262518e+003, 3.340338e+001
1.263000e+003, 3.319458e+001
1.263482e+003, 3.278930e+001
1.263964e+003, 3.255820e+001
1.264446e+003, 3.259127e+001
1.264928e+003, 3.265383e+001
1.265411e+003, 3.252922e+001
1.265893e+003, 3.231081e+001
1.266375e+003, 3.209894e+001
1.266857e+003, 3.194888e+001
1.267339e+003, 3.201137e+001
1.267821e+003, 3.261682e+001
1.268303e+003, 3.286022e+001
1.268785e+003, 3.263321e+001
1.269267e+003, 3.238855e+001
1.269750e+003, 3.256865e+001
1.270232e+003, 3.287455e+001
1.270714e+003, 3.291610e+001
1.271196e+003, 3.277829e+001
1.271678e+003, 3.265849e+001
1.272160e+003, 3.256364e+001
1.272642e+003, 3.253762e+001
1.273124e+003, 3.258804e+001
1.273606e+003, 3.264880e+001
1.274089e+003, 3.265280e+001
1.274571e+003, 3.266341e+001
1.275053e+003, 3.276731e+001
1.275535e+003, 3.290437e+001
1.276017e+003, 3.295972e+001
1.276499e+003, 3.290727e+001
1.276981e+003, 3.292983e+001
1.277463e+003, 3.303061e+001
1.277946e+003, 3.319648e+001
1.278428e+003, 3.353052e+001
1.278910e+003, 3.380193e+001
1.279392e+003, 3.378791e+001
1.279874e+003, 3.368077e+001
1.280356e+003, 3.374124e+001
1.280838e+003, 3.396088e+001
1.281320e+003, 3.393909e+001
1.281802e+003, 3.369500e+001
1.282285e+003, 3.344556e+001
1.282767e+003, 3.322700e+001
1.283249e+003, 3.313372e+001
1.283731e+003, 3.332240e+001
1.284213e+003, 3.351396e+001
1.284695e+003, 3.338375e+001
1.285177e+003, 3.304033e+001
1.285659e+003, 3.300064e+001
1.286141e+003, 3.323090e+001
1.286624e+003, 3.357429e+001
1.287106e+003, 3.433771e+001
1.287588e+003, 3.458999e+001
1.288070e+003, 3.404758e+001
1.288552e+003, 3.338322e+001
1.289034e+003, 3.313862e+001
1.289516e+003, 3.318351e+001
1.289998e+003, 3.327296e+001
1.290481e+003, 3.340092e+001
1.290963e+003, 3.355962e+001
1.291445e+003, 3.391202e+001
1.291927e+003, 3.393908e+001
1.292409e+003, 3.354933e+001
1.292891e+003, 3.318771e+001
1.293373e+003, 3.325576e+001
1.293855e+003, 3.346617e+001
1.294338e+003, 3.342215e+001
1.294820e+003, 3.326184e+001
1.295302e+003, 3.326273e+001
1.295784e+003, 3.349178e+001
1.296266e+003, 3.367693e+001
1.296748e+003, 3.382007e+001
1.297230e+003, 3.388391e+001
1.297712e+003, 3.380486e+001
1.298194e+003, 3.368462e+001
1.298677e+003, 3.359357e+001
1.299159e+003, 3.351188e+001
1.299641e+003, 3.341801e+001
1.300123e+003, 3.331136e+001
1.300605e+003, 3.311652e+001
1.301087e+003, 3.286285e+001
1.301569e+003, 3.283282e+001
1.302051e+003, 3.343106e+001
1.302533e+003, 3.385659e+001
1.303016e+003, 3.383504e+001
##END=



