##NAMES=Andradite
##RRUFFID=R060326
##IDEAL CHEMISTRY=Ca_3_Fe^3+^_2_(SiO_4_)_3_
##LOCALITY=Ultevis, Sweden
##OWNER=RRUFF
##SOURCE=Marcus Origlieri
##DESCRIPTION=Reddish-brown colored druse of crystals associated with white svabite R050180
##STATUS=The identification of this mineral has been confirmed by X-ray diffraction and chemical analysis
##URL=rruff.info/R060326
##MEASURED CHEMISTRY=(Ca_2.98_Mn_0.02_)_Σ=3_(Fe^3+^_1.75_Al_0.21_Ti_0.04_)_Σ=2_(Si_1.00_O_4_)_3_
92.20605, 292.7577
92.68817, 292.0042
93.17029, 293.6574
93.65240, 295.2546
94.13452, 297.1451
94.61664, 298.2402
95.09875, 298.4842
95.58087, 298.1276
96.06299, 297.0124
96.54510, 294.5879
97.02722, 292.1908
97.50933, 290.2491
97.99145, 288.6515
98.47356, 287.2634
98.95568, 285.8656
99.43780, 284.0392
99.91991, 281.6822
100.4020, 278.3282
100.8841, 275.0930
101.3663, 272.2751
101.8484, 269.8946
102.3305, 267.9329
102.8126, 266.4226
103.2947, 265.4806
103.7768, 264.4687
104.2590, 263.1684
104.7411, 261.8600
105.2232, 260.8942
105.7053, 260.3758
106.1874, 259.9987
106.6695, 259.2849
107.1517, 258.2512
107.6338, 257.2084
108.1159, 256.0074
108.5980, 254.7829
109.0801, 254.3408
109.5622, 255.6227
110.0444, 257.0847
110.5265, 257.4555
111.0086, 256.6134
111.4907, 255.2521
111.9728, 254.0948
112.4549, 253.1906
112.9371, 252.3400
113.4192, 251.4498
113.9013, 250.6198
114.3834, 249.9265
114.8655, 249.4021
115.3476, 249.0175
115.8298, 248.7204
116.3119, 248.8119
116.7940, 248.5922
117.2761, 247.7231
117.7582, 246.5705
118.2403, 245.5863
118.7225, 245.0332
119.2046, 244.8873
119.6867, 244.9237
120.1688, 245.4991
120.6509, 245.8661
121.1330, 245.6212
121.6152, 244.8791
122.0973, 244.1028
122.5794, 243.6564
123.0615, 243.5445
123.5436, 243.3397
124.0257, 243.1597
124.5079, 242.8179
124.9900, 241.9348
125.4721, 240.3604
125.9542, 238.9902
126.4363, 238.9892
126.9184, 239.8794
127.4006, 240.6173
127.8827, 240.7469
128.3648, 240.4164
128.8469, 240.0618
129.3290, 239.6845
129.8111, 239.3249
130.2932, 239.0064
130.7754, 238.7238
131.2575, 238.4583
131.7396, 238.2146
132.2217, 238.0037
132.7038, 237.7269
133.1859, 237.1662
133.6681, 236.7045
134.1502, 236.5889
134.6323, 236.8057
135.1144, 237.1112
135.5965, 237.1625
136.0786, 236.7393
136.5608, 236.5077
137.0429, 236.5708
137.5250, 236.7245
138.0071, 236.7925
138.4892, 236.7272
138.9713, 236.6368
139.4535, 236.7556
139.9356, 237.4826
140.4177, 237.8596
140.8998, 237.5729
141.3819, 236.9657
141.8640, 236.4595
142.3462, 236.2127
142.8283, 236.2402
143.3104, 236.6435
143.7925, 237.6747
144.2746, 238.5672
144.7567, 238.8731
145.2388, 238.7240
145.7210, 238.7268
146.2031, 239.3833
146.6852, 240.2203
147.1673, 240.2802
147.6494, 239.0152
148.1315, 237.7257
148.6137, 237.7866
149.0958, 239.3843
149.5779, 241.0192
150.0600, 241.8436
150.5421, 242.3826
151.0242, 243.1750
151.5064, 244.5228
151.9885, 246.0430
152.4706, 246.8564
152.9527, 246.4809
153.4348, 246.3048
153.9169, 246.7760
154.3991, 247.6530
154.8812, 248.7209
155.3633, 249.9294
155.8454, 251.1812
156.3275, 251.8520
156.8096, 251.1573
157.2918, 250.6545
157.7739, 250.7833
158.2560, 251.3239
158.7381, 251.8437
159.2202, 251.9985
159.7023, 251.7695
160.1845, 251.8882
160.6666, 252.4698
161.1487, 253.2269
161.6308, 254.2319
162.1129, 255.3697
162.5950, 256.3236
163.0772, 256.7640
163.5593, 256.6006
164.0414, 256.7589
164.5235, 257.4955
165.0056, 258.3329
165.4877, 258.8332
165.9698, 258.9828
166.4520, 259.2753
166.9341, 260.3164
167.4162, 262.1122
167.8983, 263.7039
168.3804, 264.6173
168.8625, 265.4321
169.3447, 267.0128
169.8268, 269.6389
170.3089, 272.3625
170.7910, 274.0934
171.2731, 275.0712
171.7552, 276.0832
172.2374, 278.0085
172.7195, 280.2352
173.2016, 280.9569
173.6837, 279.5621
174.1658, 277.1185
174.6479, 274.5660
175.1301, 271.8221
175.6122, 268.5180
176.0943, 263.9017
176.5764, 258.0599
177.0585, 253.3713
177.5406, 250.6065
178.0228, 248.5724
178.5049, 246.9843
178.9870, 245.6890
179.4691, 244.3771
179.9512, 242.6722
180.4333, 240.4315
180.9155, 238.4503
181.3976, 236.6946
181.8797, 235.2168
182.3618, 234.0716
182.8439, 233.2546
183.3260, 232.7408
183.8082, 232.5507
184.2903, 232.9172
184.7724, 232.9935
185.2545, 232.6985
185.7366, 232.2430
186.2187, 231.7253
186.7009, 231.1794
187.1830, 230.6130
187.6651, 230.0288
188.1472, 229.3313
188.6293, 228.8467
189.1114, 228.7771
189.5936, 228.8022
190.0757, 228.6198
190.5578, 228.1532
191.0399, 227.5762
191.5220, 227.1514
192.0041, 226.8897
192.4863, 226.7623
192.9684, 226.8052
193.4505, 226.9700
193.9326, 227.2761
194.4147, 227.7767
194.8968, 228.2184
195.3790, 227.9310
195.8611, 226.7527
196.3432, 226.1800
196.8253, 227.3687
197.3074, 229.4603
197.7895, 230.4293
198.2717, 229.3433
198.7538, 227.6563
199.2359, 227.3331
199.7180, 228.3785
200.2001, 229.4243
200.6822, 229.6052
201.1644, 229.1148
201.6465, 228.9106
202.1286, 229.3349
202.6107, 229.9840
203.0928, 230.5005
203.5749, 230.8813
204.0571, 231.1756
204.5392, 231.4402
205.0213, 231.6753
205.5034, 231.7672
205.9855, 231.5304
206.4676, 231.2811
206.9497, 231.1548
207.4319, 231.1772
207.9140, 231.3923
208.3961, 231.8828
208.8782, 232.6859
209.3603, 233.5317
209.8424, 234.6005
210.3246, 235.5526
210.8067, 236.2316
211.2888, 236.6120
211.7709, 236.7391
212.2530, 236.4536
212.7351, 235.2807
213.2173, 235.2552
213.6994, 237.2439
214.1815, 239.6263
214.6636, 241.6644
215.1457, 243.1889
215.6278, 244.3749
216.1100, 245.3791
216.5921, 245.9570
217.0742, 247.0016
217.5563, 248.9104
218.0384, 250.8951
218.5205, 252.5970
219.0027, 253.8917
219.4848, 254.7298
219.9669, 254.9568
220.4490, 254.0457
220.9311, 253.8848
221.4132, 254.8259
221.8954, 256.1841
222.3775, 257.5991
222.8596, 258.9554
223.3417, 260.1463
223.8238, 260.9927
224.3059, 261.2374
224.7881, 261.8765
225.2702, 263.2491
225.7523, 264.8071
226.2344, 265.9342
226.7165, 266.5450
227.1986, 267.2590
227.6807, 268.9301
228.1629, 271.8228
228.6450, 274.3495
229.1271, 276.3467
229.6092, 277.9669
230.0913, 279.1515
230.5734, 279.8681
231.0556, 280.6677
231.5377, 282.0793
232.0198, 284.0889
232.5019, 286.8226
232.9840, 290.8327
233.4661, 295.3542
233.9483, 299.5612
234.4304, 303.3710
234.9125, 306.7282
235.3946, 310.2134
235.8767, 313.4977
236.3588, 314.3293
236.8410, 311.3102
237.3231, 305.7795
237.8052, 299.4448
238.2873, 292.2149
238.7694, 284.8093
239.2515, 277.1992
239.7337, 269.7536
240.2158, 263.4721
240.6979, 259.1011
241.1800, 256.0110
241.6621, 253.1095
242.1442, 250.3533
242.6264, 247.8476
243.1085, 245.5321
243.5906, 243.4952
244.0727, 241.9750
244.5548, 241.2048
245.0369, 240.9601
245.5191, 240.7804
246.0012, 240.6562
246.4833, 240.6274
246.9654, 240.9676
247.4475, 241.3503
247.9296, 241.2669
248.4117, 240.3296
248.8939, 238.9684
249.3760, 238.1257
249.8581, 237.9075
250.3402, 238.0337
250.8223, 238.7058
251.3044, 239.5111
251.7866, 239.9346
252.2687, 239.6921
252.7508, 239.1163
253.2329, 239.0000
253.7150, 239.6323
254.1971, 240.1419
254.6793, 240.0017
255.1614, 239.7924
255.6435, 240.2327
256.1256, 241.6520
256.6077, 243.4107
257.0898, 244.0652
257.5720, 242.8339
258.0541, 242.0104
258.5362, 241.8164
259.0183, 242.1641
259.5004, 243.2061
259.9825, 244.9602
260.4647, 246.8895
260.9468, 247.8358
261.4289, 246.7383
261.9110, 246.7895
262.3931, 248.9210
262.8752, 251.6386
263.3574, 254.0020
263.8395, 255.6957
264.3216, 256.6863
264.8037, 256.8607
265.2858, 255.7802
265.7679, 254.7082
266.2501, 253.8786
266.7322, 252.9206
267.2143, 251.4992
267.6964, 249.6037
268.1785, 247.5360
268.6606, 245.6366
269.1428, 243.7052
269.6249, 242.5768
270.1070, 242.9416
270.5891, 243.4062
271.0712, 242.8884
271.5533, 241.4420
272.0355, 240.1064
272.5176, 240.1462
272.9997, 242.1243
273.4818, 243.0190
273.9639, 242.0173
274.4460, 240.8673
274.9282, 240.5166
275.4103, 240.9211
275.8924, 241.4858
276.3745, 241.6839
276.8566, 241.4815
277.3387, 241.2190
277.8208, 240.5654
278.3029, 240.1768
278.7851, 240.6640
279.2672, 241.7257
279.7493, 242.4145
280.2314, 241.9371
280.7135, 240.3589
281.1956, 239.6946
281.6778, 240.5198
282.1599, 241.4491
282.6420, 242.0032
283.1241, 242.2979
283.6062, 242.6843
284.0883, 243.3995
284.5705, 244.3401
285.0526, 244.8590
285.5347, 244.3201
286.0168, 244.1594
286.4989, 244.8865
286.9810, 246.1916
287.4632, 247.5669
287.9453, 248.7857
288.4274, 249.8993
288.9095, 251.0774
289.3916, 252.4922
289.8737, 253.7088
290.3559, 254.3258
290.8380, 254.7968
291.3201, 255.8786
291.8022, 257.8677
292.2843, 260.1248
292.7664, 261.4519
293.2486, 261.3041
293.7307, 261.5247
294.2128, 262.5170
294.6949, 263.8596
295.1770, 265.1935
295.6591, 266.4350
296.1413, 267.4640
296.6234, 268.0558
297.1055, 268.0223
297.5876, 268.3494
298.0697, 269.4747
298.5518, 270.7221
299.0340, 271.4469
299.5161, 271.5938
299.9982, 271.6223
300.4803, 271.8978
300.9624, 272.4542
301.4445, 273.3616
301.9267, 274.7660
302.4088, 276.3827
302.8909, 278.1308
303.3730, 279.9634
303.8551, 281.7120
304.3372, 283.1943
304.8194, 284.4863
305.3015, 286.2236
305.7836, 288.7283
306.2657, 291.3139
306.7478, 293.5856
307.2299, 295.6602
307.7121, 297.9039
308.1942, 300.5056
308.6763, 303.4103
309.1584, 306.4348
309.6405, 310.0024
310.1227, 313.0582
310.6048, 315.0774
311.0869, 316.3707
311.5690, 317.5841
312.0511, 319.0282
312.5332, 320.2417
313.0154, 320.2897
313.4975, 319.2906
313.9796, 317.1639
314.4617, 313.0272
314.9438, 308.0721
315.4259, 303.7839
315.9081, 300.5402
316.3902, 297.8401
316.8723, 295.0714
317.3544, 292.1763
317.8365, 289.6038
318.3186, 287.3325
318.8007, 285.4364
319.2828, 283.9268
319.7650, 282.8140
320.2471, 282.2578
320.7292, 282.4538
321.2113, 283.4548
321.6934, 284.6425
322.1755, 285.9585
322.6577, 287.5065
323.1398, 289.6347
323.6219, 292.1516
324.1040, 294.2462
324.5861, 295.2977
325.0682, 295.5603
325.5504, 296.3299
326.0325, 298.2154
326.5146, 299.8526
326.9967, 300.6047
327.4788, 300.7714
327.9609, 300.8597
328.4431, 300.9919
328.9252, 301.4194
329.4073, 302.8429
329.8894, 305.5783
330.3715, 308.4289
330.8536, 311.0791
331.3358, 313.7564
331.8179, 316.6436
332.3000, 319.7840
332.7821, 323.4066
333.2642, 327.9474
333.7463, 333.7522
334.2285, 339.2571
334.7106, 344.0325
335.1927, 348.7158
335.6748, 354.1452
336.1569, 360.2292
336.6390, 365.8438
337.1212, 369.8051
337.6033, 372.0350
338.0854, 375.1694
338.5675, 379.5727
339.0496, 384.4384
339.5317, 389.2014
340.0139, 394.0833
340.4960, 399.7652
340.9781, 406.7225
341.4602, 414.7085
341.9423, 422.4627
342.4244, 429.4271
342.9066, 436.8378
343.3887, 444.9972
343.8708, 453.7531
344.3529, 462.6762
344.8350, 471.5498
345.3171, 480.9364
345.7993, 491.8873
346.2814, 505.1930
346.7635, 518.9713
347.2456, 532.7113
347.7277, 547.1331
348.2098, 563.2499
348.6920, 580.9481
349.1741, 599.1268
349.6562, 616.4044
350.1383, 632.8392
350.6204, 648.1556
351.1025, 663.6353
351.5847, 677.0612
352.0668, 687.5580
352.5489, 694.9498
353.0310, 699.1005
353.5131, 699.7629
353.9952, 697.1042
354.4774, 692.6600
354.9595, 685.2826
355.4416, 677.4785
355.9237, 669.0593
356.4058, 660.6907
356.8879, 653.0029
357.3701, 646.2961
357.8522, 640.7300
358.3343, 636.5801
358.8164, 633.7067
359.2985, 632.7661
359.7806, 633.9061
360.2627, 636.6931
360.7448, 640.8538
361.2270, 646.3193
361.7091, 653.0344
362.1912, 660.9111
362.6733, 669.8053
363.1554, 680.6469
363.6375, 693.7469
364.1197, 708.3027
364.6018, 724.9243
365.0839, 742.8754
365.5660, 760.3562
366.0481, 776.1302
366.5302, 790.3290
367.0124, 804.0931
367.4945, 819.5283
367.9766, 831.4557
368.4587, 840.0089
368.9408, 844.2630
369.4229, 843.3206
369.9051, 836.8263
370.3872, 824.8698
370.8693, 807.1356
371.3514, 782.4869
371.8335, 754.7193
372.3156, 722.1373
372.7978, 688.3710
373.2799, 654.6373
373.7620, 621.6044
374.2441, 589.6559
374.7262, 558.9421
375.2083, 529.4319
375.6905, 503.0092
376.1726, 480.4873
376.6547, 460.4749
377.1368, 442.5480
377.6189, 426.4409
378.1010, 411.8770
378.5832, 398.5574
379.0653, 386.6700
379.5474, 376.8988
380.0295, 369.9067
380.5116, 363.3125
380.9937, 355.6354
381.4759, 348.1767
381.9580, 342.4547
382.4401, 339.0018
382.9222, 336.2649
383.4043, 332.5973
383.8864, 328.0017
384.3686, 323.5710
384.8507, 319.5345
385.3328, 315.7559
385.8149, 312.2539
386.2970, 308.9800
386.7791, 305.3397
387.2613, 300.7934
387.7434, 295.7057
388.2255, 290.9403
388.7076, 286.6544
389.1897, 282.3866
389.6718, 277.3183
390.1540, 272.0554
390.6361, 267.9201
391.1182, 265.5268
391.6003, 263.9852
392.0824, 262.8577
392.5645, 262.0525
393.0467, 260.6787
393.5288, 258.0093
394.0109, 254.9356
394.4930, 253.1991
394.9751, 253.1524
395.4572, 252.9167
395.9394, 251.4597
396.4215, 249.4215
396.9036, 247.9471
397.3857, 247.2955
397.8678, 246.8423
398.3499, 245.8621
398.8321, 244.3138
399.3142, 243.1707
399.7963, 242.7875
400.2784, 242.5520
400.7605, 241.9165
401.2426, 240.9950
401.7247, 240.4224
402.2068, 240.6860
402.6890, 241.4843
403.1711, 241.4388
403.6532, 239.5007
404.1353, 238.1587
404.6174, 238.4324
405.0995, 239.3074
405.5817, 239.4401
406.0638, 238.4599
406.5459, 237.1047
407.0280, 236.4101
407.5101, 236.6017
407.9922, 236.8100
408.4744, 237.1620
408.9565, 237.4191
409.4386, 237.4536
409.9207, 237.2775
410.4028, 236.9454
410.8849, 236.4692
411.3671, 235.8870
411.8492, 235.4744
412.3313, 235.2770
412.8134, 235.2146
413.2955, 235.2973
413.7776, 235.4949
414.2598, 235.8435
414.7419, 236.3380
415.2240, 236.8004
415.7061, 236.9350
416.1882, 236.6441
416.6703, 236.3639
417.1525, 236.1364
417.6346, 235.9045
418.1167, 235.5116
418.5988, 235.0676
419.0809, 234.9309
419.5630, 235.5402
420.0452, 236.6175
420.5273, 236.8854
421.0094, 235.8929
421.4915, 235.0416
421.9736, 234.9419
422.4557, 235.2279
422.9379, 235.5656
423.4200, 235.8853
423.9021, 236.1331
424.3842, 236.0674
424.8663, 235.7210
425.3484, 236.0257
425.8306, 237.7602
426.3127, 239.4370
426.7948, 239.5637
427.2769, 238.3582
427.7590, 237.2228
428.2411, 236.9520
428.7233, 237.0156
429.2054, 236.3952
429.6875, 234.9760
430.1696, 234.0307
430.6517, 234.5598
431.1339, 236.1039
431.6160, 237.1297
432.0981, 237.4150
432.5802, 237.5294
433.0623, 237.7645
433.5444, 238.0313
434.0266, 238.0811
434.5087, 237.8078
434.9908, 237.5110
435.4729, 237.5953
435.9550, 238.1356
436.4371, 238.8004
436.9193, 239.8717
437.4014, 240.8297
437.8835, 241.2213
438.3656, 241.1366
438.8477, 241.0020
439.3298, 241.0967
439.8120, 241.3708
440.2941, 241.5548
440.7762, 241.4814
441.2583, 241.5257
441.7404, 241.7148
442.2225, 242.0437
442.7046, 242.6042
443.1867, 243.3730
443.6689, 244.0785
444.1510, 244.2816
444.6331, 243.7641
445.1152, 243.8467
445.5973, 245.2510
446.0794, 246.5440
446.5616, 247.2887
447.0437, 247.5424
447.5258, 247.4272
448.0079, 246.9370
448.4900, 246.3131
448.9721, 246.1535
449.4543, 246.5360
449.9364, 247.1660
450.4185, 248.2868
450.9006, 249.4254
451.3827, 250.2735
451.8648, 250.7933
452.3470, 251.0957
452.8291, 251.2654
453.3112, 251.2898
453.7933, 251.0967
454.2754, 250.6551
454.7575, 250.0604
455.2397, 249.4013
455.7218, 248.6272
456.2039, 247.5777
456.6860, 245.9778
457.1681, 244.4433
457.6502, 243.4156
458.1324, 242.8784
458.6145, 242.8442
459.0966, 243.5016
459.5787, 244.3028
460.0608, 244.3955
460.5429, 243.7709
461.0251, 242.9981
461.5072, 241.8926
461.9893, 240.8801
462.4714, 240.4235
462.9535, 240.4809
463.4356, 240.6097
463.9178, 240.4955
464.3999, 240.2226
464.8820, 240.2618
465.3641, 240.8594
465.8462, 241.4285
466.3283, 241.9496
466.8105, 242.3745
467.2926, 242.5630
467.7747, 242.5251
468.2568, 242.5310
468.7389, 242.9102
469.2210, 243.7183
469.7032, 244.5525
470.1853, 245.3298
470.6674, 246.2233
471.1495, 247.4301
471.6316, 248.7570
472.1137, 249.8203
472.5959, 250.4065
473.0780, 250.8851
473.5601, 252.0906
474.0422, 254.2984
474.5243, 256.0420
475.0064, 256.5872
475.4886, 256.9635
475.9707, 257.8164
476.4528, 259.1005
476.9349, 260.3903
477.4170, 261.4615
477.8991, 262.3425
478.3813, 263.0839
478.8634, 263.6656
479.3455, 264.1992
479.8276, 264.6318
480.3097, 265.1110
480.7918, 265.8949
481.2740, 267.0764
481.7561, 268.3260
482.2382, 269.4633
482.7203, 270.5606
483.2024, 271.7668
483.6845, 273.1147
484.1666, 274.4992
484.6487, 275.7930
485.1309, 276.9938
485.6130, 278.4657
486.0951, 280.7654
486.5772, 282.7253
487.0593, 283.3784
487.5414, 283.4375
488.0236, 284.3394
488.5057, 286.6552
488.9878, 289.5226
489.4699, 291.3481
489.9520, 291.4607
490.4341, 292.2043
490.9163, 293.9756
491.3984, 295.8935
491.8805, 297.5042
492.3626, 298.8812
492.8447, 300.4312
493.3268, 302.5461
493.8090, 304.6962
494.2911, 305.1449
494.7732, 303.2100
495.2553, 301.4326
495.7374, 300.3130
496.2195, 299.6378
496.7017, 299.3689
497.1838, 299.4698
497.6659, 299.7365
498.1480, 299.9504
498.6301, 300.2251
499.1122, 300.9227
499.5944, 302.1172
500.0765, 303.4367
500.5586, 304.6083
501.0407, 305.8067
501.5228, 307.3677
502.0049, 309.3819
502.4871, 311.6017
502.9692, 314.1814
503.4513, 316.8260
503.9334, 318.9565
504.4155, 320.4354
504.8976, 321.7324
505.3798, 323.2155
505.8619, 324.8951
506.3440, 327.1989
506.8261, 330.6718
507.3082, 334.0921
507.7903, 336.5246
508.2725, 338.7590
508.7546, 342.1385
509.2367, 347.1383
509.7188, 352.9224
510.2009, 358.1588
510.6830, 362.7253
511.1652, 367.1802
511.6473, 370.5317
512.1294, 374.7485
512.6115, 381.1118
513.0936, 388.8871
513.5757, 396.5450
514.0579, 403.2657
514.5400, 409.6539
515.0221, 417.2075
515.5042, 426.2962
515.9863, 433.9835
516.4684, 439.8058
516.9506, 443.6896
517.4327, 445.8809
517.9148, 446.3468
518.3969, 444.8586
518.8790, 441.5916
519.3611, 436.1536
519.8433, 427.3780
520.3254, 415.4600
520.8075, 402.9935
521.2896, 391.1301
521.7717, 379.5490
522.2538, 367.5568
522.7360, 354.4522
523.2181, 342.7742
523.7002, 333.5716
524.1823, 325.5799
524.6644, 317.7872
525.1465, 310.1710
525.6287, 303.0952
526.1108, 296.8082
526.5929, 291.3964
527.0750, 287.2345
527.5571, 285.2891
528.0392, 283.3360
528.5214, 281.1699
529.0035, 278.9093
529.4856, 276.5230
529.9677, 274.0943
530.4498, 271.9605
530.9319, 270.5136
531.4141, 269.6373
531.8962, 268.5128
532.3783, 266.8232
532.8604, 265.6312
533.3425, 265.9639
533.8246, 266.7600
534.3068, 266.8895
534.7889, 266.1122
535.2710, 265.2091
535.7531, 264.5647
536.2352, 264.1804
536.7173, 264.1753
537.1995, 264.6014
537.6816, 264.8941
538.1637, 264.5304
538.6458, 263.6641
539.1279, 263.2435
539.6100, 263.5351
540.0922, 263.9019
540.5743, 264.3363
541.0564, 264.6722
541.5385, 264.5879
542.0206, 264.0750
542.5027, 263.5909
542.9849, 263.6728
543.4670, 264.3446
543.9491, 264.5099
544.4312, 263.2890
544.9133, 262.6181
545.3954, 263.2071
545.8775, 264.3720
546.3596, 265.4283
546.8417, 266.1767
547.3239, 266.6725
547.8060, 266.8026
548.2881, 266.6267
548.7702, 266.9729
549.2523, 268.2795
549.7344, 269.2487
550.2166, 268.4510
550.6987, 266.9510
551.1808, 266.5137
551.6629, 267.9116
552.1450, 269.2783
552.6271, 269.2459
553.1093, 268.3869
553.5914, 267.9645
554.0735, 268.2425
554.5556, 268.5092
555.0377, 268.1559
555.5198, 267.1797
556.0020, 265.8153
556.4841, 263.4148
556.9662, 261.4649
557.4483, 260.7469
557.9304, 260.4994
558.4125, 259.6696
558.8947, 258.0699
559.3768, 256.5436
559.8589, 256.1496
560.3410, 256.9256
560.8231, 257.1136
561.3052, 256.2445
561.7874, 255.4524
562.2695, 255.1885
562.7516, 255.1438
563.2337, 254.9508
563.7158, 254.5154
564.1979, 254.0354
564.6801, 253.5624
565.1622, 253.1763
565.6443, 253.2915
566.1264, 254.0912
566.6085, 254.6202
567.0906, 253.9115
567.5728, 252.4464
568.0549, 252.0957
568.5370, 253.8743
569.0191, 255.1657
569.5012, 254.6302
569.9833, 253.3427
570.4655, 252.4551
570.9476, 252.2255
571.4297, 252.6270
571.9118, 253.7415
572.3939, 255.4797
572.8760, 256.6423
573.3582, 256.8782
573.8403, 256.9831
574.3224, 256.8891
574.8045, 256.8314
575.2866, 256.9164
575.7687, 257.2101
576.2509, 257.9092
576.7330, 259.7125
577.2151, 262.0573
577.6972, 262.5321
578.1793, 260.7327
578.6614, 258.7979
579.1436, 257.5199
579.6257, 256.7437
580.1078, 256.2420
580.5899, 256.0501
581.0720, 255.9055
581.5541, 255.9331
582.0363, 255.8217
582.5184, 254.9019
583.0005, 253.3554
583.4826, 252.3924
583.9647, 252.8100
584.4468, 254.1181
584.9290, 254.8772
585.4111, 254.6064
585.8932, 254.5238
586.3753, 255.0147
586.8574, 255.3474
587.3395, 254.6672
587.8217, 253.4065
588.3038, 252.9103
588.7859, 254.1665
589.2680, 256.1494
589.7501, 256.3167
590.2322, 254.2673
590.7144, 253.3540
591.1965, 255.1195
591.6786, 257.2440
592.1607, 257.6532
592.6428, 256.6703
593.1249, 255.7572
593.6071, 255.2450
594.0892, 255.0682
594.5713, 255.4685
595.0534, 256.1766
595.5355, 256.3359
596.0176, 255.6326
596.4998, 254.7036
596.9819, 254.3470
597.4640, 254.6409
597.9461, 255.0562
598.4282, 255.8873
598.9103, 256.4875
599.3925, 256.5988
599.8746, 256.3775
600.3567, 255.9409
600.8388, 255.3552
601.3209, 254.8665
601.8030, 254.8264
602.2852, 255.2108
602.7673, 255.4675
603.2494, 255.5574
603.7315, 255.5822
604.2136, 255.5345
604.6957, 255.4719
605.1779, 255.4720
605.6600, 255.5455
606.1421, 255.6680
606.6242, 255.8823
607.1063, 256.1136
607.5884, 256.2941
608.0706, 256.4031
608.5527, 256.3335
609.0348, 255.9810
609.5169, 255.4541
609.9990, 255.1227
610.4811, 255.1615
610.9633, 255.1562
611.4454, 255.1450
611.9275, 255.0596
612.4096, 254.8506
612.8917, 254.5279
613.3738, 254.0954
613.8560, 253.5058
614.3381, 252.9371
614.8202, 252.7779
615.3023, 253.0595
615.7844, 253.3501
616.2665, 253.6794
616.7487, 253.8272
617.2308, 253.4982
617.7129, 252.8032
618.1950, 252.1620
618.6771, 251.3934
619.1592, 250.9725
619.6414, 251.5078
620.1235, 252.5218
620.6056, 253.0863
621.0877, 252.9720
621.5698, 252.6022
622.0519, 252.4004
622.5341, 252.3677
623.0162, 252.3904
623.4983, 252.3754
623.9804, 252.5513
624.4625, 253.1769
624.9446, 253.8670
625.4268, 254.2253
625.9089, 254.2198
626.3910, 254.1587
626.8731, 254.2487
627.3552, 254.4655
627.8373, 254.7832
628.3194, 255.2134
628.8015, 255.6059
629.2836, 255.9690
629.7657, 256.1909
630.2479, 255.9920
630.7300, 255.3249
631.2121, 254.8526
631.6942, 254.8733
632.1763, 254.9273
632.6584, 254.4646
633.1406, 253.8416
633.6227, 254.0045
634.1048, 255.3018
634.5869, 256.8167
635.0690, 257.0371
635.5511, 255.6636
636.0333, 255.1581
636.5154, 256.2523
636.9975, 257.2182
637.4796, 257.4000
637.9617, 257.1139
638.4438, 256.6754
638.9260, 256.1249
639.4081, 255.7198
639.8902, 255.5969
640.3723, 255.7551
640.8544, 256.4489
641.3365, 257.6408
641.8187, 258.2416
642.3008, 257.4738
642.7829, 255.9779
643.2650, 255.3617
643.7471, 256.2742
644.2292, 256.8729
644.7114, 257.0071
645.1935, 256.9755
645.6756, 256.8485
646.1577, 256.7051
646.6398, 256.6419
647.1219, 256.6998
647.6041, 256.8986
648.0862, 257.3159
648.5683, 257.9458
649.0504, 258.5674
649.5325, 259.2728
650.0146, 259.7029
650.4968, 259.5463
650.9789, 258.9483
651.4610, 258.1597
651.9431, 256.9201
652.4252, 256.1141
652.9073, 256.4529
653.3895, 257.1844
653.8716, 257.4294
654.3537, 257.1840
654.8358, 256.9577
655.3179, 257.0732
655.8000, 257.4464
656.2822, 257.8524
656.7643, 258.3023
657.2464, 258.7602
657.7285, 259.4675
658.2106, 259.9470
658.6927, 259.7947
659.1749, 259.2656
659.6570, 258.9009
660.1391, 258.8658
660.6212, 259.0926
661.1033, 259.7260
661.5854, 260.5536
662.0676, 261.0290
662.5497, 261.0603
663.0318, 260.7573
663.5139, 260.0778
663.9960, 259.1811
664.4781, 258.8607
664.9603, 259.8883
665.4424, 260.4279
665.9245, 260.1213
666.4066, 259.5601
666.8887, 259.0620
667.3708, 258.6785
667.8530, 258.3447
668.3351, 257.9724
668.8172, 257.8211
669.2993, 258.6602
669.7814, 260.4132
670.2635, 260.9285
670.7457, 259.3312
671.2278, 257.8634
671.7099, 258.6955
672.1920, 261.1307
672.6741, 262.1174
673.1563, 260.3601
673.6384, 259.1096
674.1205, 259.9575
674.6026, 261.3311
675.0847, 261.4920
675.5668, 260.5497
676.0490, 259.8927
676.5311, 260.4803
677.0132, 261.7109
677.4953, 261.9070
677.9774, 260.7156
678.4595, 260.2000
678.9417, 260.9431
679.4238, 262.0026
679.9059, 263.1659
680.3880, 264.1443
680.8701, 264.1479
681.3522, 262.4484
681.8344, 260.9316
682.3165, 260.8648
682.7986, 261.5710
683.2807, 262.1445
683.7628, 262.4499
684.2449, 262.6429
684.7271, 262.8252
685.2092, 262.9799
685.6913, 263.0469
686.1734, 262.9734
686.6555, 262.9328
687.1376, 262.8551
687.6198, 262.8905
688.1019, 263.3188
688.5840, 263.8761
689.0661, 263.9774
689.5482, 263.2967
690.0303, 262.5867
690.5125, 262.4159
690.9946, 262.7031
691.4767, 263.4177
691.9588, 264.5345
692.4409, 265.5573
692.9230, 266.2099
693.4052, 266.4919
693.8873, 266.3829
694.3694, 265.5121
694.8515, 264.9289
695.3336, 264.4816
695.8157, 264.4540
696.2979, 265.4013
696.7800, 266.7741
697.2621, 267.5483
697.7442, 267.3170
698.2263, 266.7458
698.7084, 266.4600
699.1906, 266.3908
699.6727, 266.3293
700.1548, 266.2605
700.6369, 266.0916
701.1190, 265.6203
701.6011, 265.1917
702.0833, 265.7463
702.5654, 268.2469
703.0475, 269.4140
703.5296, 267.9364
704.0117, 266.4036
704.4938, 266.3132
704.9760, 267.0534
705.4581, 267.3737
705.9402, 266.8650
706.4223, 266.3758
706.9044, 267.0399
707.3865, 268.5551
707.8687, 269.6024
708.3508, 270.1354
708.8329, 270.1610
709.3149, 269.3445
709.7971, 268.3988
710.2792, 268.7736
710.7613, 270.8744
711.2434, 272.0100
711.7255, 271.1512
712.2076, 270.1967
712.6898, 270.2312
713.1719, 270.7129
713.6540, 270.5763
714.1361, 269.6438
714.6182, 269.0352
715.1003, 270.1378
715.5825, 272.4645
716.0646, 273.8647
716.5467, 274.2047
717.0288, 274.5682
717.5109, 275.5442
717.9930, 276.3900
718.4752, 275.9835
718.9573, 274.3671
719.4394, 273.1234
719.9215, 272.1661
720.4036, 271.8621
720.8857, 273.1410
721.3679, 274.7398
721.8500, 274.8021
722.3321, 273.3006
722.8142, 272.0658
723.2963, 272.7122
723.7784, 274.4842
724.2606, 275.1153
724.7427, 274.4786
725.2248, 273.9676
725.7069, 273.8254
726.1890, 273.9813
726.6711, 274.5637
727.1533, 275.4399
727.6354, 275.9342
728.1175, 275.5785
728.5996, 275.4311
729.0817, 275.9195
729.5638, 276.6794
730.0460, 277.6478
730.5281, 278.5738
731.0102, 278.7072
731.4923, 277.5036
731.9744, 275.8895
732.4565, 275.5708
732.9387, 276.5672
733.4208, 278.1382
733.9029, 280.7891
734.3850, 282.4651
734.8671, 281.0825
735.3492, 278.0841
735.8314, 277.2057
736.3135, 279.3417
736.7956, 281.0258
737.2777, 281.1382
737.7598, 280.9487
738.2419, 281.4185
738.7241, 282.2965
739.2062, 282.9430
739.6883, 283.1166
740.1704, 282.9845
740.6525, 282.5555
741.1346, 281.9261
741.6168, 281.9422
742.0989, 282.6862
742.5810, 283.7750
743.0631, 285.5058
743.5452, 287.0189
744.0273, 286.6057
744.5095, 284.0594
744.9916, 282.9312
745.4737, 285.1212
745.9558, 286.9406
746.4379, 286.3304
746.9200, 284.7135
747.4022, 283.7709
747.8843, 283.8541
748.3664, 284.5487
748.8485, 285.7384
749.3306, 287.0650
749.8127, 287.4999
750.2949, 287.0388
750.7770, 287.0186
751.2591, 287.8751
751.7412, 288.8353
752.2233, 289.2775
752.7054, 289.2407
753.1876, 289.0619
753.6697, 288.3941
754.1518, 288.0853
754.6339, 288.5630
755.1160, 289.1656
755.5981, 289.2514
756.0803, 289.0542
756.5624, 289.3712
757.0445, 290.6391
757.5266, 291.9069
758.0087, 291.8427
758.4908, 290.7801
758.9730, 289.9081
759.4551, 289.3059
759.9372, 289.2403
760.4193, 289.9762
760.9014, 291.1218
761.3835, 291.9353
761.8657, 292.3293
762.3478, 292.6774
762.8299, 293.1786
763.3120, 293.4045
763.7941, 293.0129
764.2762, 292.3769
764.7584, 291.8172
765.2405, 291.4397
765.7226, 291.4197
766.2047, 292.1600
766.6868, 293.1307
767.1689, 293.4092
767.6511, 293.1985
768.1332, 293.4669
768.6153, 294.4916
769.0974, 295.5195
769.5795, 295.7732
770.0616, 295.3914
770.5438, 295.5182
771.0259, 296.5688
771.5080, 297.3875
771.9901, 298.1280
772.4722, 298.3686
772.9543, 297.2782
773.4365, 295.5590
773.9186, 294.9236
774.4007, 296.1737
774.8828, 297.5727
775.3649, 297.8671
775.8470, 297.6730
776.3292, 297.8287
776.8113, 298.3439
777.2934, 298.9325
777.7755, 299.4701
778.2576, 299.8050
778.7397, 299.5311
779.2219, 298.5274
779.7040, 298.5059
780.1861, 299.9418
780.6682, 301.3872
781.1503, 302.2794
781.6324, 302.9643
782.1146, 303.8681
782.5967, 304.9847
783.0788, 305.7964
783.5609, 306.1334
784.0430, 306.1887
784.5251, 305.7132
785.0073, 305.2011
785.4894, 305.3742
785.9715, 306.2569
786.4536, 307.2721
786.9357, 307.9610
787.4178, 308.6734
787.9000, 310.4785
788.3821, 313.3552
788.8642, 315.0406
789.3463, 314.8839
789.8284, 314.7256
790.3105, 315.8242
790.7927, 317.7418
791.2748, 319.2337
791.7568, 320.0426
792.2390, 321.0980
792.7211, 322.6264
793.2032, 324.2220
793.6853, 325.6674
794.1674, 327.0628
794.6495, 328.5346
795.1317, 330.1276
795.6138, 331.9423
796.0959, 334.4694
796.5780, 337.0522
797.0601, 338.0531
797.5422, 337.9200
798.0244, 339.0151
798.5065, 342.0155
798.9886, 345.8217
799.4707, 349.4793
799.9528, 352.9872
800.4349, 356.1759
800.9171, 358.9046
801.3992, 361.6112
801.8813, 364.0078
802.3634, 366.7080
802.8455, 370.3766
803.3276, 374.4944
803.8098, 377.8697
804.2919, 380.0102
804.7740, 382.3233
805.2561, 385.7426
805.7382, 389.4800
806.2203, 392.8594
806.7025, 395.8373
807.1846, 398.3646
807.6667, 400.4499
808.1488, 402.7023
808.6309, 405.9624
809.1130, 410.0221
809.5952, 413.3613
810.0773, 415.7915
810.5594, 418.8184
811.0415, 423.2027
811.5236, 427.6801
812.0057, 430.9660
812.4879, 433.1574
812.9700, 435.4860
813.4521, 439.0195
813.9342, 441.1774
814.4163, 440.3325
814.8984, 439.0568
815.3806, 439.4909
815.8627, 440.9679
816.3448, 441.7072
816.8269, 441.0446
817.3090, 439.5801
817.7911, 437.8453
818.2733, 435.7142
818.7554, 432.9178
819.2375, 429.4682
819.7196, 425.4618
820.2017, 420.9118
820.6838, 416.0598
821.1660, 411.0785
821.6481, 405.9904
822.1302, 402.0536
822.6123, 399.8818
823.0944, 397.4784
823.5765, 394.1070
824.0587, 390.7093
824.5408, 387.6133
825.0229, 385.0341
825.5050, 383.7155
825.9871, 384.3707
826.4692, 385.1331
826.9514, 385.2633
827.4335, 385.2115
827.9156, 385.3647
828.3977, 385.6931
828.8798, 385.9659
829.3619, 386.1070
829.8441, 386.4169
830.3262, 387.2769
830.8083, 388.5856
831.2904, 390.1002
831.7725, 391.8066
832.2546, 393.0510
832.7368, 393.4628
833.2189, 394.0241
833.7010, 395.9210
834.1831, 398.9626
834.6652, 401.0807
835.1473, 401.4958
835.6295, 402.2022
836.1116, 402.9645
836.5937, 404.3985
837.0758, 407.4359
837.5579, 411.2646
838.0400, 414.3050
838.5222, 416.1400
839.0043, 417.4817
839.4864, 418.4476
839.9685, 419.3149
840.4506, 420.3287
840.9327, 421.4800
841.4149, 422.8400
841.8970, 424.3669
842.3791, 425.6154
842.8612, 426.1756
843.3433, 426.0777
843.8254, 425.4291
844.3076, 424.2423
844.7897, 422.1754
845.2718, 418.8881
845.7539, 415.7159
846.2360, 413.8394
846.7181, 411.1062
847.2003, 408.6409
847.6824, 407.0996
848.1645, 404.3476
848.6466, 402.9634
849.1287, 402.0951
849.6108, 401.4164
850.0930, 401.0224
850.5751, 401.0216
851.0572, 401.4397
851.5393, 402.3477
852.0214, 404.2324
852.5035, 406.1956
852.9857, 407.2166
853.4678, 407.8602
853.9499, 408.9876
854.4320, 410.8086
854.9141, 413.4855
855.3962, 417.1848
855.8784, 421.4077
856.3605, 425.0421
856.8426, 428.1216
857.3247, 431.5379
857.8068, 435.2740
858.2889, 439.7016
858.7711, 445.0674
859.2532, 451.0876
859.7353, 457.5017
860.2174, 464.4386
860.6995, 470.7106
861.1816, 475.3988
861.6638, 480.6629
862.1459, 487.4618
862.6280, 494.5490
863.1101, 500.9201
863.5922, 506.7009
864.0743, 512.4142
864.5565, 517.9958
865.0386, 524.3179
865.5207, 532.5291
866.0028, 541.3425
866.4849, 549.2891
866.9670, 556.4695
867.4492, 563.2957
867.9313, 569.9443
868.4134, 576.5580
868.8955, 583.1122
869.3776, 589.7682
869.8597, 597.4854
870.3419, 606.2589
870.8240, 614.4166
871.3061, 621.7127
871.7882, 627.7634
872.2703, 632.1547
872.7524, 635.0421
873.2346, 637.0714
873.7167, 639.1100
874.1987, 638.5510
874.6808, 634.6263
875.1630, 628.8926
875.6451, 622.1701
876.1272, 613.7982
876.6093, 602.4268
877.0914, 588.0292
877.5735, 573.0769
878.0557, 558.2585
878.5378, 543.3873
879.0199, 527.9752
879.5020, 512.6826
879.9841, 498.1823
880.4662, 484.6131
880.9484, 471.8935
881.4305, 459.9987
881.9126, 448.7637
882.3947, 437.7393
882.8768, 427.1836
883.3589, 418.1729
883.8411, 410.6629
884.3232, 403.3685
884.8053, 395.7351
885.2874, 388.9799
885.7695, 384.8473
886.2516, 383.0135
886.7338, 379.7657
887.2159, 374.5301
887.6980, 369.4706
888.1801, 364.6722
888.6622, 360.4427
889.1443, 357.0199
889.6265, 354.2885
890.1086, 351.9849
890.5907, 350.1992
891.0728, 348.5312
891.5549, 346.9580
892.0370, 345.4388
892.5192, 343.9898
893.0013, 342.5641
893.4834, 340.9214
893.9655, 339.1739
894.4476, 338.1055
894.9297, 338.6457
895.4119, 339.1162
895.8940, 337.6742
896.3761, 335.2321
896.8582, 332.9940
897.3403, 331.2592
897.8224, 330.5642
898.3046, 331.1611
898.7867, 332.0059
899.2688, 331.4882
899.7509, 331.8684
900.2330, 329.7258
900.7151, 330.9756
901.1973, 331.1277
901.6794, 329.2193
902.1615, 327.1442
902.6436, 326.5237
903.1257, 327.0964
903.6078, 327.8014
904.0900, 329.1646
904.5721, 329.5370
905.0542, 327.8930
905.5363, 326.4793
906.0184, 326.2302
906.5005, 326.6323
906.9827, 327.3236
907.4648, 328.2479
907.9469, 328.5193
908.4290, 327.0575
908.9111, 325.9809
909.3932, 326.8767
909.8754, 328.0519
910.3575, 327.5321
910.8396, 325.8174
911.3217, 324.7601
911.8038, 325.1385
912.2859, 325.8907
912.7681, 326.0545
913.2502, 326.0097
913.7323, 326.4989
914.2144, 327.3111
914.6965, 327.6989
915.1786, 327.4785
915.6608, 326.9527
916.1429, 326.3011
916.6250, 325.7125
917.1071, 325.8093
917.5892, 326.5947
918.0714, 326.9482
918.5535, 326.6888
919.0356, 326.4893
919.5177, 326.7477
919.9998, 327.0943
920.4819, 326.9376
920.9641, 326.2307
921.4462, 325.6631
921.9283, 325.3282
922.4104, 324.9652
922.8925, 323.8008
923.3746, 323.2956
923.8568, 325.1429
924.3389, 328.2139
924.8210, 329.7049
925.3031, 328.8160
925.7852, 328.1233
926.2673, 328.4060
926.7495, 328.8871
927.2316, 329.3950
927.7137, 329.6946
928.1958, 329.3031
928.6779, 328.3663
929.1600, 327.8336
929.6422, 328.3886
930.1243, 329.0829
930.6064, 328.9507
931.0885, 328.4938
931.5706, 328.3983
932.0527, 328.7014
932.5349, 329.3993
933.0170, 330.4457
933.4991, 331.3108
933.9812, 331.4080
934.4633, 330.9042
934.9454, 330.2096
935.4276, 329.3408
935.9097, 328.2738
936.3918, 326.9641
936.8739, 326.4686
937.3560, 327.6237
937.8381, 329.5221
938.3203, 330.2252
938.8024, 329.5325
939.2845, 329.3740
939.7666, 330.0927
940.2487, 330.4059
940.7308, 329.5931
941.2130, 328.7298
941.6951, 328.9897
942.1772, 330.0966
942.6593, 330.4687
943.1414, 329.1628
943.6235, 328.8257
944.1057, 330.4284
944.5878, 332.0258
945.0699, 333.0688
945.5520, 333.4509
946.0341, 332.7995
946.5162, 331.2215
946.9984, 329.9896
947.4805, 329.2982
947.9626, 329.3455
948.4447, 331.2842
948.9268, 333.1572
949.4089, 332.4136
949.8911, 330.1456
950.3732, 329.3399
950.8553, 330.9164
951.3374, 332.5504
951.8195, 332.1448
952.3016, 330.9276
952.7838, 330.2773
953.2659, 330.1446
953.7480, 330.5781
954.2301, 331.4500
954.7122, 332.1263
955.1943, 332.2281
955.6765, 332.1097
956.1586, 332.3540
956.6406, 332.8643
957.1227, 333.1704
957.6049, 333.2651
958.0870, 333.0842
958.5691, 332.5683
959.0512, 332.1958
959.5333, 332.3772
960.0154, 333.0404
960.4976, 334.0874
960.9797, 335.7695
961.4618, 336.4140
961.9439, 335.4879
962.4260, 334.8380
962.9081, 335.3832
963.3903, 336.3091
963.8724, 336.5710
964.3545, 337.1321
964.8366, 337.7881
965.3187, 337.8029
965.8008, 338.6903
966.2830, 338.8070
966.7651, 338.5996
967.2472, 338.0368
967.7293, 337.3961
968.2114, 336.9358
968.6935, 336.6639
969.1757, 337.1578
969.6578, 339.7826
970.1399, 341.5778
970.6220, 340.6634
971.1041, 339.1854
971.5862, 339.0242
972.0684, 339.7910
972.5505, 340.2436
973.0326, 340.0138
973.5147, 339.7633
973.9968, 339.8180
974.4789, 340.0587
974.9611, 340.5114
975.4432, 341.0142
975.9253, 341.3888
976.4074, 341.5807
976.8895, 341.4537
977.3716, 340.8877
977.8538, 340.5006
978.3359, 341.3200
978.8180, 342.5612
979.3001, 342.6812
979.7822, 341.9834
980.2643, 341.5611
980.7465, 341.6803
981.2286, 342.0760
981.7107, 342.5689
982.1928, 343.1472
982.6749, 343.6599
983.1570, 344.2005
983.6392, 345.7746
984.1213, 348.3423
984.6034, 349.1738
985.0855, 347.1740
985.5676, 344.9273
986.0497, 345.0323
986.5319, 346.8434
987.0140, 347.9426
987.4961, 348.2216
987.9782, 348.6551
988.4603, 349.3980
988.9424, 349.8925
989.4246, 349.7030
989.9067, 349.5746
990.3888, 350.6011
990.8709, 352.6559
991.3530, 353.7747
991.8351, 353.7616
992.3173, 353.1813
992.7994, 351.1290
993.2815, 349.9371
993.7636, 351.4129
994.2457, 354.0257
994.7278, 355.5223
995.2100, 355.8534
995.6921, 355.8422
996.1742, 355.0906
996.6563, 354.5855
997.1384, 355.1078
997.6205, 355.2729
998.1027, 353.9368
998.5848, 351.8013
999.0669, 350.0121
999.5490, 348.7097
1000.031, 347.8188
1000.513, 347.7907
1000.995, 347.5743
1001.477, 346.6700
1001.960, 345.4866
1002.442, 344.0504
1002.924, 342.7157
1003.406, 342.2668
1003.888, 342.9591
1004.370, 343.6193
1004.852, 343.8305
1005.334, 343.6148
1005.817, 342.5781
1006.299, 341.3942
1006.781, 340.7790
1007.263, 340.7995
1007.745, 341.4175
1008.227, 342.6620
1008.709, 343.7780
1009.191, 344.1314
1009.673, 344.0638
1010.156, 343.6982
1010.638, 343.3070
1011.120, 343.5191
1011.602, 344.2471
1012.084, 344.6580
1012.566, 344.2858
1013.048, 343.9232
1013.530, 344.9735
1014.013, 344.1517
1014.495, 345.6989
1014.977, 343.6407
1015.459, 342.4402
1015.941, 342.5335
1016.423, 343.4048
1016.905, 344.8037
1017.387, 346.1093
1017.869, 346.2801
1018.352, 345.5733
1018.834, 344.7736
1019.316, 343.9537
1019.798, 343.4337
1020.280, 343.2957
1020.762, 343.5280
1021.244, 344.1476
1021.726, 345.0210
1022.208, 346.1977
1022.691, 347.5488
1023.173, 347.0656
1023.655, 344.6581
1024.137, 343.2513
1024.619, 343.7315
1025.101, 344.6947
1025.583, 345.0394
1026.065, 345.0038
1026.547, 345.1787
1027.030, 345.5689
1027.512, 346.2017
1027.994, 347.2220
1028.476, 347.6036
1028.958, 346.8813
1029.440, 345.9469
1029.922, 345.5344
1030.404, 345.5522
1030.887, 345.7541
1031.369, 346.2081
1031.851, 346.5376
1032.333, 346.7134
1032.815, 346.8582
1033.297, 347.0413
1033.779, 347.1291
1034.261, 346.8975
1034.744, 346.5228
1035.226, 346.7084
1035.708, 347.8266
1036.190, 348.3611
1036.672, 347.9041
1037.154, 347.6389
1037.636, 348.0740
1038.118, 348.6405
1038.600, 348.8017
1039.083, 348.6714
1039.565, 348.7044
1040.047, 348.8679
1040.529, 349.2888
1041.011, 350.6530
1041.493, 351.3044
1041.975, 349.9707
1042.457, 348.4366
1042.939, 348.3518
1043.422, 349.3629
1043.904, 350.1611
1044.386, 350.6212
1044.868, 351.1352
1045.350, 352.2750
1045.832, 352.7554
1046.314, 351.3942
1046.796, 349.8768
1047.279, 349.8847
1047.761, 350.9848
1048.243, 351.5143
1048.725, 351.0528
1049.207, 350.8235
1049.689, 350.9190
1050.171, 351.3513
1050.653, 352.9889
1051.135, 354.2354
1051.618, 353.0992
1052.100, 350.4337
1052.582, 348.9680
1053.064, 349.2880
1053.546, 350.1304
1054.028, 352.0240
1054.510, 353.4000
1054.992, 353.3581
1055.474, 352.7389
1055.957, 352.0562
1056.439, 351.4872
1056.921, 351.3506
1057.403, 351.7833
1057.885, 352.2389
1058.367, 352.5509
1058.849, 352.8670
1059.331, 353.4058
1059.814, 353.8455
1060.296, 353.8744
1060.778, 353.5659
1061.260, 352.9942
1061.742, 352.0504
1062.224, 351.8734
1062.706, 353.7556
1063.188, 355.3627
1063.671, 355.1649
1064.153, 354.5801
1064.635, 355.2110
1065.117, 356.4581
1065.599, 356.6188
1066.081, 355.2622
1066.563, 354.1436
1067.045, 353.7856
1067.527, 354.0297
1068.010, 355.2935
1068.492, 356.6890
1068.974, 357.5717
1069.456, 357.9088
1069.938, 357.6021
1070.420, 356.6570
1070.902, 356.1520
1071.384, 357.1959
1071.866, 357.9357
1072.349, 356.7707
1072.831, 355.5667
1073.313, 356.3626
1073.795, 358.1446
1074.277, 358.7672
1074.759, 357.9152
1075.241, 357.2770
1075.723, 357.9675
1076.206, 358.4503
1076.688, 357.4411
1077.170, 356.4462
1077.652, 357.2007
1078.134, 358.5856
1078.616, 358.3212
1079.098, 356.3748
1079.580, 355.3975
1080.062, 357.0379
1080.545, 358.6980
1081.027, 358.9897
1081.509, 358.9840
1081.991, 359.5515
1082.473, 360.3150
1082.955, 360.6450
1083.437, 360.5292
1083.919, 360.4341
1084.401, 360.5731
1084.884, 360.6246
1085.366, 360.0860
1085.848, 359.7974
1086.330, 360.7654
1086.812, 362.0193
1087.294, 362.2316
1087.776, 361.5506
1088.258, 361.0941
1088.740, 361.2039
1089.223, 361.5318
1089.705, 362.1432
1090.187, 362.6860
1090.669, 363.0767
1091.151, 363.1935
1091.633, 362.6286
1092.115, 361.7249
1092.597, 361.3314
1093.080, 361.6214
1093.562, 362.6527
1094.044, 365.6554
1094.526, 367.8725
1095.008, 367.0118
1095.490, 365.6291
1095.972, 366.6078
1096.454, 368.6524
1096.937, 368.4296
1097.419, 365.2553
1097.901, 363.1234
1098.383, 364.3255
1098.865, 365.3473
1099.347, 364.6086
1099.829, 363.5887
1100.311, 363.2280
1100.793, 363.3857
1101.276, 363.8811
1101.758, 364.6365
1102.240, 365.0403
1102.722, 364.4581
1103.204, 364.2321
1103.686, 364.8945
1104.168, 365.7445
1104.650, 366.9504
1105.132, 367.7441
1105.615, 366.6723
1106.097, 364.1547
1106.579, 363.0193
1107.061, 364.3934
1107.543, 365.6661
1108.025, 366.5420
1108.507, 367.1122
1108.989, 367.4077
1109.472, 367.4247
1109.954, 366.8095
1110.436, 365.9299
1110.918, 366.1052
1111.400, 368.0552
1111.882, 368.9310
1112.364, 367.8710
1112.846, 366.6334
1113.328, 365.0387
1113.811, 363.9796
1114.293, 364.4754
1114.775, 365.7980
1115.257, 366.4660
1115.739, 366.3658
1116.221, 366.4501
1116.703, 366.9370
1117.185, 367.2249
1117.667, 367.0441
1118.150, 366.9310
1118.632, 367.2511
1119.114, 367.6967
1119.596, 367.8286
1120.078, 367.6703
1120.560, 367.6147
1121.042, 367.6627
1121.524, 367.8281
1122.007, 368.2013
1122.489, 368.5243
1122.971, 368.8058
1123.453, 368.7802
1123.935, 367.9293
1124.417, 366.7072
1124.899, 366.9970
1125.381, 369.3919
1125.864, 370.4770
1126.346, 369.9099
1126.828, 369.3069
1127.310, 369.0585
1127.792, 368.9265
1128.274, 368.7462
1128.756, 368.5731
1129.238, 368.5880
1129.720, 368.7739
1130.203, 368.1180
1130.685, 366.4445
1131.167, 366.2096
1131.649, 367.9670
1132.131, 369.5008
1132.613, 369.6557
1133.095, 369.3569
1133.577, 369.8568
1134.059, 370.7823
1134.542, 370.4538
1135.024, 370.5791
1135.506, 370.5379
1135.988, 369.6599
1136.470, 369.8843
1136.952, 368.7765
1137.434, 368.0686
1137.916, 369.3296
1138.399, 371.4144
1138.881, 372.3157
1139.363, 372.2084
1139.845, 371.3995
1140.327, 370.1158
1140.809, 369.1425
1141.291, 368.6677
1141.773, 368.7999
1142.255, 369.6216
1142.738, 370.4427
1143.220, 370.2086
1143.702, 369.6239
1144.184, 370.1852
1144.666, 371.2002
1145.148, 370.8461
1145.630, 369.5434
1146.112, 369.4330
1146.594, 371.1131
1147.077, 372.8949
1147.559, 373.6778
1148.041, 373.8373
1148.523, 373.3222
1149.005, 372.7320
1149.487, 372.8570
1149.969, 373.4212
1150.451, 374.1110
1150.934, 374.6540
1151.416, 374.1565
1151.898, 371.8211
1152.380, 370.2187
1152.862, 371.4430
1153.344, 373.1769
1153.826, 374.1893
1154.308, 374.6260
1154.791, 374.3094
1155.273, 373.7212
1155.755, 374.0988
1156.237, 375.7606
1156.719, 376.6620
1157.201, 375.2647
1157.683, 374.3824
1158.165, 375.5279
1158.647, 376.6982
1159.130, 376.7431
1159.612, 376.0213
1160.094, 374.6322
1160.576, 372.7914
1161.058, 372.3358
1161.540, 374.6810
1162.022, 375.8968
1162.504, 374.8617
1162.986, 374.3542
1163.469, 375.6383
1163.951, 377.0659
1164.433, 377.3944
1164.915, 376.9255
1165.397, 376.2522
1165.879, 375.2929
1166.361, 375.0511
1166.843, 375.6941
1167.325, 376.5085
1167.808, 377.5374
1168.290, 378.1550
1168.772, 377.9433
1169.254, 377.6071
1169.736, 378.0952
1170.218, 379.0315
1170.700, 378.4922
1171.182, 379.8075
1171.665, 377.3037
1172.147, 380.8167
1172.629, 382.4856
1173.111, 381.0692
1173.593, 379.5145
1174.075, 379.8928
1174.557, 378.7849
1175.039, 380.1011
1175.521, 378.4049
1176.004, 378.0463
1176.486, 378.6813
1176.968, 379.4300
1177.450, 380.0949
1177.932, 380.4808
1178.414, 380.5386
1178.896, 380.5324
1179.378, 380.5486
1179.860, 380.8414
1180.343, 382.0716
1180.825, 383.4371
1181.307, 383.9635
1181.789, 383.8272
1182.271, 383.2224
1182.753, 382.3930
1183.235, 382.0042
1183.717, 382.4004
1184.200, 382.6656
1184.682, 382.1415
1185.164, 381.5829
1185.646, 381.4671
1186.128, 381.4600
1186.610, 381.2364
1187.092, 380.9077
1187.574, 380.7609
1188.057, 380.8141
1188.539, 380.6933
1189.021, 379.7472
1189.503, 379.5607
1189.985, 381.1193
1190.467, 382.3884
1190.949, 382.2700
1191.431, 381.9800
1191.913, 382.7125
1192.396, 383.9961
1192.878, 384.5824
1193.360, 384.4200
1193.842, 383.8584
1194.324, 382.6472
1194.806, 382.0740
1195.288, 382.5410
1195.770, 382.6882
1196.252, 381.6675
1196.735, 380.8979
1197.217, 382.2636
1197.699, 384.7854
1198.181, 385.0914
1198.663, 383.4688
1199.145, 382.5777
1199.627, 382.4409
1200.109, 382.0160
1200.592, 381.1177
1201.074, 380.5010
1201.556, 380.6050
1202.038, 381.2321
1202.520, 382.3312
1203.002, 383.6544
1203.484, 385.1978
1203.966, 386.4448
1204.448, 386.2365
1204.931, 384.9483
1205.413, 383.5319
1205.895, 382.3537
1206.377, 381.8814
1206.859, 382.6833
1207.341, 383.2398
1207.823, 382.1642
1208.305, 381.0162
1208.787, 380.9520
1209.270, 381.3343
1209.752, 381.4422
1210.234, 381.3973
1210.716, 381.6917
1211.198, 382.4220
1211.680, 383.0223
1212.162, 383.3343
1212.644, 383.6369
1213.127, 384.1258
1213.609, 384.4048
1214.091, 384.3663
1214.573, 383.9809
1215.055, 383.0131
1215.537, 381.7986
1216.019, 381.4390
1216.501, 382.0554
1216.984, 382.4603
1217.466, 382.6629
1217.948, 382.4745
1218.430, 381.7807
1218.912, 381.5805
1219.394, 382.4030
1219.876, 383.4454
1220.358, 383.8521
1220.840, 383.7622
1221.323, 383.2682
1221.805, 382.6030
1222.287, 382.6801
1222.769, 383.3068
1223.251, 383.6743
1223.733, 383.6603
1224.215, 383.5199
1224.697, 383.3687
1225.179, 383.5253
1225.662, 384.7651
1226.144, 385.8560
1226.626, 385.4063
1227.108, 384.4489
1227.590, 384.1173
1228.072, 384.0664
1228.554, 383.3913
1229.036, 382.1993
1229.519, 381.7057
1230.001, 382.5551
1230.483, 383.0062
1230.965, 382.4196
1231.447, 381.7110
1231.929, 380.8937
1232.411, 380.3425
1232.893, 380.2767
1233.375, 380.6181
1233.858, 381.4382
1234.340, 382.6057
1234.822, 382.8470
1235.304, 381.8762
1235.786, 381.3302
1236.268, 381.2936
1236.750, 381.5051
1237.232, 381.9177
1237.714, 382.4301
1238.197, 383.0193
1238.679, 383.3418
1239.161, 382.7920
1239.643, 381.7418
1240.125, 380.9203
1240.607, 380.5113
1241.089, 381.5169
1241.571, 383.3928
1242.054, 384.1400
1242.536, 383.4581
1243.018, 382.6393
1243.500, 382.3022
1243.982, 382.3883
1244.464, 383.3634
1244.946, 384.1416
1245.428, 383.6271
1245.910, 382.7578
1246.393, 382.2509
1246.875, 382.1903
1247.357, 382.7742
1247.839, 383.9046
1248.321, 384.6044
1248.803, 384.4064
1249.285, 384.4912
1249.767, 385.5342
1250.250, 385.8396
1250.732, 384.6617
1251.214, 383.2584
1251.696, 382.1795
1252.178, 381.7409
1252.660, 382.6484
1253.142, 382.1888
1253.624, 382.3631
1254.106, 382.8813
1254.589, 382.3829
1255.071, 383.0799
1255.553, 383.0839
1256.035, 382.0513
1256.517, 381.7731
1256.999, 383.2969
1257.481, 384.8865
1257.963, 384.3573
1258.445, 383.1485
1258.928, 383.1144
1259.410, 383.7078
1259.892, 384.4420
1260.374, 385.0753
1260.856, 385.1193
1261.338, 384.7304
1261.820, 384.9506
1262.302, 386.3428
1262.785, 387.0349
1263.267, 385.5469
1263.749, 384.5499
1264.231, 385.2828
1264.713, 386.2954
1265.195, 387.0621
1265.677, 387.3678
1266.159, 386.7875
1266.641, 385.6005
1267.124, 384.8580
1267.606, 384.5265
1268.088, 385.2067
1268.570, 384.9971
1269.052, 385.0845
1269.534, 386.1009
1270.016, 385.4912
1270.498, 386.9691
1270.980, 388.0784
1271.463, 386.1900
1271.945, 383.5048
1272.427, 383.6710
1272.909, 385.3507
1273.391, 386.6112
1273.873, 387.3657
1274.355, 387.4539
1274.837, 387.1205
1275.320, 387.0343
1275.802, 387.3619
1276.284, 387.6674
1276.766, 387.9502
1277.248, 387.8721
1277.730, 386.7534
1278.212, 385.9712
1278.694, 386.7099
1279.177, 387.5270
1279.659, 386.9533
1280.141, 387.4053
1280.623, 385.8175
1281.105, 386.8408
1281.587, 386.9113
1282.069, 385.7866
1282.551, 385.8677
1283.033, 387.3905
1283.516, 388.3990
1283.998, 388.3718
1284.480, 388.3527
1284.962, 389.0020
1285.444, 389.6214
1285.926, 389.5475
1286.408, 388.8075
##END=



