##NAMES=Anilite
##RRUFFID=R060514
##IDEAL CHEMISTRY=Cu_7_S_4_
##LOCALITY=Villamanin, Carmenes District, Leon Province, Spain
##OWNER=RRUFF
##SOURCE=Michael Scott
##DESCRIPTION=Steel gray platy coating on tan colored dolomite
##STATUS=The identification of this mineral is confirmed by single-crystal X-ray diffraction and chemical analysis.
##URL=rruff.info/R060514
##MEASURED CHEMISTRY=Cu_6.78_S_4.00
9.059570e+001, 1.128087e+003
9.107782e+001, 1.121235e+003
9.155994e+001, 1.118853e+003
9.204205e+001, 1.124640e+003
9.252417e+001, 1.132369e+003
9.300629e+001, 1.139668e+003
9.348840e+001, 1.140020e+003
9.397052e+001, 1.127091e+003
9.445264e+001, 1.100196e+003
9.493475e+001, 1.075405e+003
9.541687e+001, 1.050811e+003
9.589898e+001, 1.026904e+003
9.638110e+001, 1.004020e+003
9.686321e+001, 9.822794e+002
9.734533e+001, 9.609953e+002
9.782745e+001, 9.385814e+002
9.830956e+001, 9.189008e+002
9.879168e+001, 9.016644e+002
9.927380e+001, 8.866296e+002
9.975591e+001, 8.741691e+002
1.002380e+002, 8.636032e+002
1.007201e+002, 8.535726e+002
1.012023e+002, 8.432785e+002
1.016844e+002, 8.328127e+002
1.021665e+002, 8.227115e+002
1.026486e+002, 8.125307e+002
1.031307e+002, 8.027854e+002
1.036128e+002, 7.939163e+002
1.040950e+002, 7.858001e+002
1.045771e+002, 7.786168e+002
1.050592e+002, 7.721627e+002
1.055413e+002, 7.664413e+002
1.060234e+002, 7.618096e+002
1.065055e+002, 7.587911e+002
1.069877e+002, 7.569850e+002
1.074698e+002, 7.549941e+002
1.079519e+002, 7.540065e+002
1.084340e+002, 7.510285e+002
1.089161e+002, 7.441485e+002
1.093982e+002, 7.343049e+002
1.098804e+002, 7.238231e+002
1.103625e+002, 7.145256e+002
1.108446e+002, 7.064476e+002
1.113267e+002, 6.995896e+002
1.118088e+002, 6.942029e+002
1.122909e+002, 6.896556e+002
1.127731e+002, 6.858458e+002
1.132552e+002, 6.826832e+002
1.137373e+002, 6.799534e+002
1.142194e+002, 6.774086e+002
1.147015e+002, 6.752070e+002
1.151836e+002, 6.728569e+002
1.156658e+002, 6.706693e+002
1.161479e+002, 6.682033e+002
1.166300e+002, 6.648834e+002
1.171121e+002, 6.604600e+002
1.175942e+002, 6.554260e+002
1.180763e+002, 6.510214e+002
1.185584e+002, 6.476423e+002
1.190406e+002, 6.439240e+002
1.195227e+002, 6.391063e+002
1.200048e+002, 6.335902e+002
1.204869e+002, 6.284257e+002
1.209690e+002, 6.240793e+002
1.214511e+002, 6.204595e+002
1.219333e+002, 6.170334e+002
1.224154e+002, 6.135582e+002
1.228975e+002, 6.106689e+002
1.233796e+002, 6.095277e+002
1.238617e+002, 6.104387e+002
1.243438e+002, 6.104550e+002
1.248260e+002, 6.075455e+002
1.253081e+002, 6.032051e+002
1.257902e+002, 5.983846e+002
1.262723e+002, 5.931252e+002
1.267544e+002, 5.879668e+002
1.272365e+002, 5.842426e+002
1.277187e+002, 5.824933e+002
1.282008e+002, 5.814276e+002
1.286829e+002, 5.809617e+002
1.291650e+002, 5.807404e+002
1.296471e+002, 5.803404e+002
1.301292e+002, 5.795235e+002
1.306114e+002, 5.782917e+002
1.310935e+002, 5.766272e+002
1.315756e+002, 5.740260e+002
1.320577e+002, 5.714454e+002
1.325398e+002, 5.691456e+002
1.330219e+002, 5.670713e+002
1.335041e+002, 5.650521e+002
1.339862e+002, 5.629407e+002
1.344683e+002, 5.607249e+002
1.349504e+002, 5.584089e+002
1.354325e+002, 5.556381e+002
1.359146e+002, 5.530543e+002
1.363968e+002, 5.511516e+002
1.368789e+002, 5.499276e+002
1.373610e+002, 5.489083e+002
1.378431e+002, 5.476085e+002
1.383252e+002, 5.459720e+002
1.388073e+002, 5.441827e+002
1.392895e+002, 5.427521e+002
1.397716e+002, 5.409733e+002
1.402537e+002, 5.379225e+002
1.407358e+002, 5.333167e+002
1.412179e+002, 5.277883e+002
1.417000e+002, 5.218757e+002
1.421821e+002, 5.156220e+002
1.426643e+002, 5.095776e+002
1.431464e+002, 5.039306e+002
1.436285e+002, 4.986711e+002
1.441106e+002, 4.936984e+002
1.445927e+002, 4.889023e+002
1.450748e+002, 4.845768e+002
1.455570e+002, 4.809240e+002
1.460391e+002, 4.779495e+002
1.465212e+002, 4.752601e+002
1.470033e+002, 4.724620e+002
1.474854e+002, 4.694981e+002
1.479675e+002, 4.669493e+002
1.484497e+002, 4.657191e+002
1.489318e+002, 4.644159e+002
1.494139e+002, 4.620641e+002
1.498960e+002, 4.585162e+002
1.503781e+002, 4.545998e+002
1.508602e+002, 4.515806e+002
1.513424e+002, 4.497663e+002
1.518245e+002, 4.482027e+002
1.523066e+002, 4.468568e+002
1.527887e+002, 4.456223e+002
1.532708e+002, 4.444269e+002
1.537529e+002, 4.432472e+002
1.542351e+002, 4.420685e+002
1.547172e+002, 4.408629e+002
1.551993e+002, 4.398227e+002
1.556814e+002, 4.384998e+002
1.561635e+002, 4.367309e+002
1.566456e+002, 4.347139e+002
1.571278e+002, 4.327076e+002
1.576099e+002, 4.308444e+002
1.580920e+002, 4.290543e+002
1.585741e+002, 4.270294e+002
1.590562e+002, 4.243904e+002
1.595383e+002, 4.219654e+002
1.600205e+002, 4.200951e+002
1.605026e+002, 4.186053e+002
1.609847e+002, 4.170473e+002
1.614668e+002, 4.151008e+002
1.619489e+002, 4.129488e+002
1.624310e+002, 4.113907e+002
1.629131e+002, 4.110132e+002
1.633953e+002, 4.106260e+002
1.638774e+002, 4.096197e+002
1.643595e+002, 4.080158e+002
1.648416e+002, 4.059728e+002
1.653237e+002, 4.031572e+002
1.658058e+002, 4.000774e+002
1.662880e+002, 3.978825e+002
1.667701e+002, 3.971939e+002
1.672522e+002, 3.970331e+002
1.677343e+002, 3.963088e+002
1.682164e+002, 3.949297e+002
1.686985e+002, 3.934262e+002
1.691807e+002, 3.919691e+002
1.696628e+002, 3.906081e+002
1.701449e+002, 3.894262e+002
1.706270e+002, 3.884850e+002
1.711091e+002, 3.877301e+002
1.715912e+002, 3.870722e+002
1.720734e+002, 3.866229e+002
1.725555e+002, 3.860571e+002
1.730376e+002, 3.854248e+002
1.735197e+002, 3.845916e+002
1.740018e+002, 3.832899e+002
1.744839e+002, 3.812174e+002
1.749661e+002, 3.785709e+002
1.754482e+002, 3.765900e+002
1.759303e+002, 3.758759e+002
1.764124e+002, 3.752169e+002
1.768945e+002, 3.742126e+002
1.773766e+002, 3.730326e+002
1.778588e+002, 3.720293e+002
1.783409e+002, 3.714827e+002
1.788230e+002, 3.713967e+002
1.793051e+002, 3.711505e+002
1.797872e+002, 3.707929e+002
1.802693e+002, 3.702300e+002
1.807515e+002, 3.693117e+002
1.812336e+002, 3.681372e+002
1.817157e+002, 3.669670e+002
1.821978e+002, 3.660471e+002
1.826799e+002, 3.654355e+002
1.831620e+002, 3.644518e+002
1.836441e+002, 3.626736e+002
1.841263e+002, 3.609780e+002
1.846084e+002, 3.599001e+002
1.850905e+002, 3.593823e+002
1.855726e+002, 3.589211e+002
1.860547e+002, 3.580094e+002
1.865368e+002, 3.565524e+002
1.870190e+002, 3.555880e+002
1.875011e+002, 3.556038e+002
1.879832e+002, 3.557556e+002
1.884653e+002, 3.554142e+002
1.889474e+002, 3.545192e+002
1.894296e+002, 3.534000e+002
1.899117e+002, 3.522174e+002
1.903938e+002, 3.510074e+002
1.908759e+002, 3.503223e+002
1.913580e+002, 3.506988e+002
1.918401e+002, 3.514172e+002
1.923223e+002, 3.516614e+002
1.928044e+002, 3.512980e+002
1.932865e+002, 3.506780e+002
1.937686e+002, 3.500605e+002
1.942507e+002, 3.494408e+002
1.947328e+002, 3.488013e+002
1.952150e+002, 3.482296e+002
1.956971e+002, 3.476164e+002
1.961792e+002, 3.466570e+002
1.966613e+002, 3.451259e+002
1.971434e+002, 3.436943e+002
1.976255e+002, 3.429568e+002
1.981077e+002, 3.427030e+002
1.985898e+002, 3.424377e+002
1.990719e+002, 3.418877e+002
1.995540e+002, 3.411090e+002
2.000361e+002, 3.403426e+002
2.005182e+002, 3.395744e+002
2.010004e+002, 3.388478e+002
2.014825e+002, 3.382124e+002
2.019646e+002, 3.376376e+002
2.024467e+002, 3.370566e+002
2.029288e+002, 3.364274e+002
2.034109e+002, 3.357513e+002
2.038930e+002, 3.350436e+002
2.043752e+002, 3.341738e+002
2.048573e+002, 3.334262e+002
2.053394e+002, 3.330178e+002
2.058215e+002, 3.328340e+002
2.063036e+002, 3.325967e+002
2.067857e+002, 3.320689e+002
2.072679e+002, 3.312358e+002
2.077500e+002, 3.304104e+002
2.082321e+002, 3.294463e+002
2.087142e+002, 3.286268e+002
2.091963e+002, 3.280649e+002
2.096784e+002, 3.277360e+002
2.101606e+002, 3.275736e+002
2.106427e+002, 3.275658e+002
2.111248e+002, 3.277690e+002
2.116069e+002, 3.276060e+002
2.120890e+002, 3.267154e+002
2.125711e+002, 3.258315e+002
2.130533e+002, 3.252926e+002
2.135354e+002, 3.250423e+002
2.140175e+002, 3.247667e+002
2.144996e+002, 3.241262e+002
2.149817e+002, 3.229792e+002
2.154638e+002, 3.225330e+002
2.159460e+002, 3.233716e+002
2.164281e+002, 3.242282e+002
2.169102e+002, 3.244510e+002
2.173923e+002, 3.240693e+002
2.178744e+002, 3.235266e+002
2.183565e+002, 3.232426e+002
2.188387e+002, 3.232716e+002
2.193208e+002, 3.229839e+002
2.198029e+002, 3.221854e+002
2.202850e+002, 3.212687e+002
2.207671e+002, 3.203887e+002
2.212492e+002, 3.195839e+002
2.217314e+002, 3.189300e+002
2.222135e+002, 3.185006e+002
2.226956e+002, 3.183227e+002
2.231777e+002, 3.182371e+002
2.236598e+002, 3.184994e+002
2.241419e+002, 3.186686e+002
2.246240e+002, 3.182572e+002
2.251062e+002, 3.172776e+002
2.255883e+002, 3.164015e+002
2.260704e+002, 3.162687e+002
2.265525e+002, 3.167846e+002
2.270346e+002, 3.170290e+002
2.275167e+002, 3.168450e+002
2.279989e+002, 3.164315e+002
2.284810e+002, 3.158697e+002
2.289631e+002, 3.151563e+002
2.294452e+002, 3.145669e+002
2.299273e+002, 3.143592e+002
2.304094e+002, 3.144433e+002
2.308916e+002, 3.145628e+002
2.313737e+002, 3.146694e+002
2.318558e+002, 3.147985e+002
2.323379e+002, 3.150438e+002
2.328200e+002, 3.154366e+002
2.333021e+002, 3.157207e+002
2.337843e+002, 3.156190e+002
2.342664e+002, 3.153182e+002
2.347485e+002, 3.151020e+002
2.352306e+002, 3.151101e+002
2.357127e+002, 3.151739e+002
2.361948e+002, 3.150435e+002
2.366770e+002, 3.146733e+002
2.371591e+002, 3.142927e+002
2.376412e+002, 3.139774e+002
2.381233e+002, 3.137299e+002
2.386054e+002, 3.135299e+002
2.390875e+002, 3.132910e+002
2.395697e+002, 3.132148e+002
2.400518e+002, 3.137522e+002
2.405339e+002, 3.151639e+002
2.410160e+002, 3.163578e+002
2.414981e+002, 3.169388e+002
2.419802e+002, 3.170985e+002
2.424624e+002, 3.169087e+002
2.429445e+002, 3.163348e+002
2.434266e+002, 3.156016e+002
2.439087e+002, 3.149958e+002
2.443908e+002, 3.143506e+002
2.448729e+002, 3.143261e+002
2.453550e+002, 3.157789e+002
2.458372e+002, 3.175303e+002
2.463193e+002, 3.184957e+002
2.468014e+002, 3.182819e+002
2.472835e+002, 3.175114e+002
2.477656e+002, 3.172663e+002
2.482477e+002, 3.177789e+002
2.487299e+002, 3.182798e+002
2.492120e+002, 3.183629e+002
2.496941e+002, 3.185316e+002
2.501762e+002, 3.193743e+002
2.506583e+002, 3.210393e+002
2.511404e+002, 3.228524e+002
2.516226e+002, 3.236683e+002
2.521047e+002, 3.231216e+002
2.525868e+002, 3.223379e+002
2.530689e+002, 3.210855e+002
2.535510e+002, 3.198946e+002
2.540331e+002, 3.191653e+002
2.545153e+002, 3.189890e+002
2.549974e+002, 3.191337e+002
2.554795e+002, 3.192150e+002
2.559616e+002, 3.190012e+002
2.564437e+002, 3.192680e+002
2.569258e+002, 3.204855e+002
2.574080e+002, 3.217669e+002
2.578901e+002, 3.225939e+002
2.583722e+002, 3.228454e+002
2.588543e+002, 3.226661e+002
2.593364e+002, 3.221485e+002
2.598185e+002, 3.208477e+002
2.603007e+002, 3.203935e+002
2.607828e+002, 3.216377e+002
2.612649e+002, 3.228897e+002
2.617470e+002, 3.230296e+002
2.622291e+002, 3.219964e+002
2.627112e+002, 3.205262e+002
2.631934e+002, 3.194557e+002
2.636755e+002, 3.189391e+002
2.641576e+002, 3.182679e+002
2.646397e+002, 3.176025e+002
2.651218e+002, 3.166904e+002
2.656039e+002, 3.151900e+002
2.660861e+002, 3.132262e+002
2.665682e+002, 3.113410e+002
2.670503e+002, 3.101084e+002
2.675324e+002, 3.096913e+002
2.680145e+002, 3.088995e+002
2.684966e+002, 3.075226e+002
2.689788e+002, 3.060468e+002
2.694609e+002, 3.047580e+002
2.699430e+002, 3.036085e+002
2.704251e+002, 3.023563e+002
2.709072e+002, 3.007977e+002
2.713893e+002, 2.989338e+002
2.718715e+002, 2.969716e+002
2.723536e+002, 2.944131e+002
2.728357e+002, 2.922582e+002
2.733178e+002, 2.912225e+002
2.737999e+002, 2.909910e+002
2.742820e+002, 2.906686e+002
2.747642e+002, 2.896177e+002
2.752463e+002, 2.879211e+002
2.757284e+002, 2.866401e+002
2.762105e+002, 2.860073e+002
2.766926e+002, 2.854231e+002
2.771747e+002, 2.847342e+002
2.776568e+002, 2.839384e+002
2.781389e+002, 2.830218e+002
2.786211e+002, 2.819429e+002
2.791032e+002, 2.807863e+002
2.795853e+002, 2.799298e+002
2.800674e+002, 2.795655e+002
2.805495e+002, 2.792056e+002
2.810316e+002, 2.787180e+002
2.815138e+002, 2.781556e+002
2.819959e+002, 2.776320e+002
2.824780e+002, 2.772121e+002
2.829601e+002, 2.768114e+002
2.834422e+002, 2.761874e+002
2.839243e+002, 2.751153e+002
2.844065e+002, 2.742691e+002
2.848886e+002, 2.740103e+002
2.853707e+002, 2.740020e+002
2.858528e+002, 2.736989e+002
2.863349e+002, 2.728947e+002
2.868170e+002, 2.719172e+002
2.872992e+002, 2.713336e+002
2.877813e+002, 2.712481e+002
2.882634e+002, 2.711624e+002
2.887455e+002, 2.709613e+002
2.892276e+002, 2.707378e+002
2.897097e+002, 2.707075e+002
2.901919e+002, 2.709344e+002
2.906740e+002, 2.710212e+002
2.911561e+002, 2.702835e+002
2.916382e+002, 2.685322e+002
2.921203e+002, 2.675339e+002
2.926024e+002, 2.682493e+002
2.930846e+002, 2.693502e+002
2.935667e+002, 2.694407e+002
2.940488e+002, 2.683532e+002
2.945309e+002, 2.670126e+002
2.950130e+002, 2.662366e+002
2.954951e+002, 2.660511e+002
2.959773e+002, 2.658657e+002
2.964594e+002, 2.656317e+002
2.969415e+002, 2.654111e+002
2.974236e+002, 2.652918e+002
2.979057e+002, 2.652616e+002
2.983878e+002, 2.651593e+002
2.988700e+002, 2.648200e+002
2.993521e+002, 2.643054e+002
2.998342e+002, 2.640058e+002
3.003163e+002, 2.641103e+002
3.007984e+002, 2.642536e+002
3.012805e+002, 2.643136e+002
3.017627e+002, 2.642601e+002
3.022448e+002, 2.639065e+002
3.027269e+002, 2.629856e+002
3.032090e+002, 2.618271e+002
3.036911e+002, 2.614254e+002
3.041732e+002, 2.622965e+002
3.046554e+002, 2.630102e+002
3.051375e+002, 2.627963e+002
3.056196e+002, 2.619319e+002
3.061017e+002, 2.611281e+002
3.065838e+002, 2.606592e+002
3.070659e+002, 2.603631e+002
3.075481e+002, 2.598998e+002
3.080302e+002, 2.591932e+002
3.085123e+002, 2.586366e+002
3.089944e+002, 2.584716e+002
3.094765e+002, 2.585165e+002
3.099586e+002, 2.584714e+002
3.104408e+002, 2.582609e+002
3.109229e+002, 2.579454e+002
3.114050e+002, 2.575435e+002
3.118871e+002, 2.570374e+002
3.123692e+002, 2.567010e+002
3.128513e+002, 2.568039e+002
3.133335e+002, 2.570036e+002
3.138156e+002, 2.568056e+002
3.142977e+002, 2.561228e+002
3.147798e+002, 2.554576e+002
3.152619e+002, 2.554042e+002
3.157440e+002, 2.558924e+002
3.162262e+002, 2.558857e+002
3.167083e+002, 2.548149e+002
3.171904e+002, 2.535609e+002
3.176725e+002, 2.528533e+002
3.181546e+002, 2.526932e+002
3.186367e+002, 2.526907e+002
3.191188e+002, 2.525858e+002
3.196010e+002, 2.524397e+002
3.200831e+002, 2.525017e+002
3.205652e+002, 2.530900e+002
3.210473e+002, 2.535667e+002
3.215294e+002, 2.535044e+002
3.220115e+002, 2.530198e+002
3.224937e+002, 2.524976e+002
3.229758e+002, 2.520784e+002
3.234579e+002, 2.517815e+002
3.239400e+002, 2.516910e+002
3.244221e+002, 2.519472e+002
3.249042e+002, 2.520762e+002
3.253864e+002, 2.518680e+002
3.258685e+002, 2.514270e+002
3.263506e+002, 2.509276e+002
3.268327e+002, 2.504119e+002
3.273148e+002, 2.498971e+002
3.277969e+002, 2.493783e+002
3.282791e+002, 2.488173e+002
3.287612e+002, 2.484417e+002
3.292433e+002, 2.485231e+002
3.297254e+002, 2.487081e+002
3.302075e+002, 2.485100e+002
3.306896e+002, 2.478450e+002
3.311718e+002, 2.471476e+002
3.316539e+002, 2.468948e+002
3.321360e+002, 2.471302e+002
3.326181e+002, 2.471322e+002
3.331002e+002, 2.466167e+002
3.335823e+002, 2.460597e+002
3.340645e+002, 2.458565e+002
3.345466e+002, 2.459823e+002
3.350287e+002, 2.460930e+002
3.355108e+002, 2.459232e+002
3.359929e+002, 2.455316e+002
3.364750e+002, 2.453624e+002
3.369572e+002, 2.457143e+002
3.374393e+002, 2.459467e+002
3.379214e+002, 2.457196e+002
3.384035e+002, 2.451634e+002
3.388856e+002, 2.445534e+002
3.393677e+002, 2.439821e+002
3.398499e+002, 2.435137e+002
3.403320e+002, 2.433734e+002
3.408141e+002, 2.437890e+002
3.412962e+002, 2.440665e+002
3.417783e+002, 2.440730e+002
3.422604e+002, 2.438703e+002
3.427426e+002, 2.435272e+002
3.432247e+002, 2.430653e+002
3.437068e+002, 2.424778e+002
3.441889e+002, 2.417250e+002
3.446710e+002, 2.406817e+002
3.451531e+002, 2.398662e+002
3.456353e+002, 2.393353e+002
3.461174e+002, 2.390036e+002
3.465995e+002, 2.388914e+002
3.470816e+002, 2.389585e+002
3.475637e+002, 2.390172e+002
3.480458e+002, 2.388947e+002
3.485280e+002, 2.385790e+002
3.490101e+002, 2.383071e+002
3.494922e+002, 2.381529e+002
3.499743e+002, 2.379624e+002
3.504564e+002, 2.376709e+002
3.509385e+002, 2.372938e+002
3.514207e+002, 2.368501e+002
3.519028e+002, 2.363381e+002
3.523849e+002, 2.358018e+002
3.528670e+002, 2.354297e+002
3.533491e+002, 2.354083e+002
3.538312e+002, 2.353208e+002
3.543134e+002, 2.350457e+002
3.547955e+002, 2.347079e+002
3.552776e+002, 2.344544e+002
3.557597e+002, 2.343364e+002
3.562418e+002, 2.343013e+002
3.567239e+002, 2.342728e+002
3.572061e+002, 2.343517e+002
3.576882e+002, 2.342058e+002
3.581703e+002, 2.336031e+002
3.586524e+002, 2.329685e+002
3.591345e+002, 2.326358e+002
3.596166e+002, 2.325991e+002
3.600987e+002, 2.326010e+002
3.605808e+002, 2.323837e+002
3.610630e+002, 2.319185e+002
3.615451e+002, 2.314993e+002
3.620272e+002, 2.310784e+002
3.625093e+002, 2.307479e+002
3.629914e+002, 2.306477e+002
3.634735e+002, 2.306522e+002
3.639557e+002, 2.305167e+002
3.644378e+002, 2.300797e+002
3.649199e+002, 2.294290e+002
3.654020e+002, 2.289331e+002
3.658841e+002, 2.286023e+002
3.663662e+002, 2.284408e+002
3.668484e+002, 2.287418e+002
3.673305e+002, 2.290578e+002
3.678126e+002, 2.288636e+002
3.682947e+002, 2.280202e+002
3.687768e+002, 2.269453e+002
3.692589e+002, 2.262843e+002
3.697411e+002, 2.261643e+002
3.702232e+002, 2.261325e+002
3.707053e+002, 2.264686e+002
3.711874e+002, 2.266388e+002
3.716695e+002, 2.262264e+002
3.721516e+002, 2.253232e+002
3.726338e+002, 2.243986e+002
3.731159e+002, 2.238870e+002
3.735980e+002, 2.237739e+002
3.740801e+002, 2.235464e+002
3.745622e+002, 2.228905e+002
3.750443e+002, 2.225262e+002
3.755265e+002, 2.230210e+002
3.760086e+002, 2.238697e+002
3.764907e+002, 2.242196e+002
3.769728e+002, 2.235477e+002
3.774549e+002, 2.224095e+002
3.779370e+002, 2.221422e+002
3.784192e+002, 2.231431e+002
3.789013e+002, 2.238881e+002
3.793834e+002, 2.238791e+002
3.798655e+002, 2.235052e+002
3.803476e+002, 2.229725e+002
3.808297e+002, 2.223277e+002
3.813119e+002, 2.216847e+002
3.817940e+002, 2.211183e+002
3.822761e+002, 2.206298e+002
3.827582e+002, 2.203712e+002
3.832403e+002, 2.206580e+002
3.837224e+002, 2.208178e+002
3.842046e+002, 2.202956e+002
3.846867e+002, 2.192562e+002
3.851688e+002, 2.182901e+002
3.856509e+002, 2.177842e+002
3.861330e+002, 2.175654e+002
3.866151e+002, 2.171949e+002
3.870973e+002, 2.165919e+002
3.875794e+002, 2.161332e+002
3.880615e+002, 2.162848e+002
3.885436e+002, 2.166463e+002
3.890257e+002, 2.165888e+002
3.895078e+002, 2.157665e+002
3.899900e+002, 2.149166e+002
3.904721e+002, 2.148451e+002
3.909542e+002, 2.154314e+002
3.914363e+002, 2.157003e+002
3.919184e+002, 2.152027e+002
3.924005e+002, 2.144089e+002
3.928827e+002, 2.139936e+002
3.933648e+002, 2.139793e+002
3.938469e+002, 2.139511e+002
3.943290e+002, 2.137624e+002
3.948111e+002, 2.134570e+002
3.952932e+002, 2.130520e+002
3.957754e+002, 2.125302e+002
3.962575e+002, 2.121005e+002
3.967396e+002, 2.120062e+002
3.972217e+002, 2.122138e+002
3.977038e+002, 2.122605e+002
3.981859e+002, 2.121012e+002
3.986681e+002, 2.117991e+002
3.991501e+002, 2.112664e+002
3.996323e+002, 2.105956e+002
4.001144e+002, 2.101208e+002
4.005965e+002, 2.100365e+002
4.010786e+002, 2.102104e+002
4.015607e+002, 2.102748e+002
4.020428e+002, 2.102576e+002
4.025250e+002, 2.101053e+002
4.030071e+002, 2.096742e+002
4.034892e+002, 2.091623e+002
4.039713e+002, 2.088438e+002
4.044534e+002, 2.087690e+002
4.049355e+002, 2.086964e+002
4.054177e+002, 2.082983e+002
4.058998e+002, 2.074292e+002
4.063819e+002, 2.070162e+002
4.068640e+002, 2.074341e+002
4.073461e+002, 2.078908e+002
4.078282e+002, 2.080046e+002
4.083104e+002, 2.078327e+002
4.087925e+002, 2.076168e+002
4.092746e+002, 2.075143e+002
4.097567e+002, 2.074663e+002
4.102388e+002, 2.071948e+002
4.107209e+002, 2.064381e+002
4.112031e+002, 2.057896e+002
4.116852e+002, 2.052763e+002
4.121673e+002, 2.049013e+002
4.126494e+002, 2.047227e+002
4.131315e+002, 2.047305e+002
4.136136e+002, 2.047661e+002
4.140958e+002, 2.045952e+002
4.145779e+002, 2.041380e+002
4.150600e+002, 2.037935e+002
4.155421e+002, 2.037083e+002
4.160242e+002, 2.036038e+002
4.165063e+002, 2.032446e+002
4.169885e+002, 2.027733e+002
4.174706e+002, 2.025755e+002
4.179527e+002, 2.029978e+002
4.184348e+002, 2.037785e+002
4.189169e+002, 2.039508e+002
4.193990e+002, 2.031683e+002
4.198812e+002, 2.025445e+002
4.203633e+002, 2.025932e+002
4.208454e+002, 2.028554e+002
4.213275e+002, 2.029122e+002
4.218096e+002, 2.026606e+002
4.222917e+002, 2.023040e+002
4.227739e+002, 2.019947e+002
4.232560e+002, 2.017371e+002
4.237381e+002, 2.016275e+002
4.242202e+002, 2.017108e+002
4.247023e+002, 2.019101e+002
4.251844e+002, 2.022922e+002
4.256666e+002, 2.027632e+002
4.261487e+002, 2.029722e+002
4.266308e+002, 2.024817e+002
4.271129e+002, 2.017755e+002
4.275950e+002, 2.016849e+002
4.280771e+002, 2.022550e+002
4.285593e+002, 2.026888e+002
4.290414e+002, 2.024624e+002
4.295235e+002, 2.018758e+002
4.300056e+002, 2.016625e+002
4.304877e+002, 2.020632e+002
4.309698e+002, 2.022972e+002
4.314520e+002, 2.016708e+002
4.319341e+002, 2.006531e+002
4.324162e+002, 2.003084e+002
4.328983e+002, 2.009727e+002
4.333804e+002, 2.018246e+002
4.338625e+002, 2.018764e+002
4.343447e+002, 2.009944e+002
4.348268e+002, 2.003028e+002
4.353089e+002, 1.998007e+002
4.357910e+002, 1.995293e+002
4.362731e+002, 1.996084e+002
4.367552e+002, 1.999613e+002
4.372374e+002, 2.003691e+002
4.377195e+002, 2.007185e+002
4.382016e+002, 2.009987e+002
4.386837e+002, 2.011616e+002
4.391658e+002, 2.011964e+002
4.396479e+002, 2.011226e+002
4.401301e+002, 2.007829e+002
4.406122e+002, 2.004253e+002
4.410943e+002, 2.003017e+002
4.415764e+002, 2.004531e+002
4.420585e+002, 2.007350e+002
4.425406e+002, 2.010013e+002
4.430227e+002, 2.012663e+002
4.435049e+002, 2.014216e+002
4.439870e+002, 2.014034e+002
4.444691e+002, 2.013409e+002
4.449512e+002, 2.011839e+002
4.454333e+002, 2.010262e+002
4.459154e+002, 2.010277e+002
4.463976e+002, 2.012837e+002
4.468797e+002, 2.016767e+002
4.473618e+002, 2.019028e+002
4.478439e+002, 2.018206e+002
4.483260e+002, 2.019929e+002
4.488081e+002, 2.030113e+002
4.492903e+002, 2.039589e+002
4.497724e+002, 2.040856e+002
4.502545e+002, 2.034378e+002
4.507366e+002, 2.028394e+002
4.512187e+002, 2.029359e+002
4.517008e+002, 2.036067e+002
4.521830e+002, 2.044163e+002
4.526651e+002, 2.054855e+002
4.531472e+002, 2.063587e+002
4.536293e+002, 2.064078e+002
4.541114e+002, 2.061750e+002
4.545935e+002, 2.065173e+002
4.550757e+002, 2.078959e+002
4.555578e+002, 2.093291e+002
4.560399e+002, 2.099589e+002
4.565220e+002, 2.099320e+002
4.570041e+002, 2.098407e+002
4.574862e+002, 2.097569e+002
4.579684e+002, 2.098693e+002
4.584505e+002, 2.105946e+002
4.589326e+002, 2.119317e+002
4.594147e+002, 2.129886e+002
4.598968e+002, 2.132263e+002
4.603789e+002, 2.133927e+002
4.608611e+002, 2.142383e+002
4.613432e+002, 2.156880e+002
4.618253e+002, 2.170826e+002
4.623074e+002, 2.179888e+002
4.627895e+002, 2.185717e+002
4.632716e+002, 2.195483e+002
4.637538e+002, 2.212712e+002
4.642359e+002, 2.228980e+002
4.647180e+002, 2.243646e+002
4.652001e+002, 2.256880e+002
4.656822e+002, 2.267126e+002
4.661643e+002, 2.274972e+002
4.666465e+002, 2.285142e+002
4.671286e+002, 2.303455e+002
4.676107e+002, 2.331279e+002
4.680928e+002, 2.355308e+002
4.685749e+002, 2.374039e+002
4.690570e+002, 2.390434e+002
4.695392e+002, 2.405206e+002
4.700213e+002, 2.418044e+002
4.705034e+002, 2.428814e+002
4.709855e+002, 2.437568e+002
4.714676e+002, 2.442790e+002
4.719497e+002, 2.440886e+002
4.724319e+002, 2.430235e+002
4.729140e+002, 2.419788e+002
4.733961e+002, 2.416380e+002
4.738782e+002, 2.408418e+002
4.743603e+002, 2.386894e+002
4.748424e+002, 2.354201e+002
4.753246e+002, 2.320562e+002
4.758067e+002, 2.291871e+002
4.762888e+002, 2.266553e+002
4.767709e+002, 2.240906e+002
4.772530e+002, 2.214917e+002
4.777351e+002, 2.189297e+002
4.782173e+002, 2.163896e+002
4.786994e+002, 2.139397e+002
4.791815e+002, 2.116393e+002
4.796636e+002, 2.094387e+002
4.801457e+002, 2.075919e+002
4.806278e+002, 2.064716e+002
4.811100e+002, 2.057309e+002
4.815920e+002, 2.046827e+002
4.820742e+002, 2.031931e+002
4.825563e+002, 2.017071e+002
4.830384e+002, 2.006433e+002
4.835205e+002, 1.999994e+002
4.840026e+002, 1.991897e+002
4.844847e+002, 1.979747e+002
4.849669e+002, 1.968643e+002
4.854490e+002, 1.960832e+002
4.859311e+002, 1.955392e+002
4.864132e+002, 1.950786e+002
4.868953e+002, 1.946410e+002
4.873774e+002, 1.942312e+002
4.878596e+002, 1.938565e+002
4.883417e+002, 1.934954e+002
4.888238e+002, 1.932281e+002
4.893059e+002, 1.932901e+002
4.897880e+002, 1.932089e+002
4.902701e+002, 1.925787e+002
4.907523e+002, 1.916255e+002
4.912344e+002, 1.909074e+002
4.917165e+002, 1.908012e+002
4.921986e+002, 1.910390e+002
4.926807e+002, 1.908330e+002
4.931628e+002, 1.899550e+002
4.936450e+002, 1.892677e+002
4.941271e+002, 1.889641e+002
4.946092e+002, 1.889103e+002
4.950913e+002, 1.891882e+002
4.955734e+002, 1.897278e+002
4.960555e+002, 1.900914e+002
4.965377e+002, 1.898554e+002
4.970198e+002, 1.892218e+002
4.975019e+002, 1.887324e+002
4.979840e+002, 1.884118e+002
4.984661e+002, 1.881744e+002
4.989482e+002, 1.880528e+002
4.994304e+002, 1.879501e+002
4.999125e+002, 1.876516e+002
5.003946e+002, 1.870104e+002
5.008767e+002, 1.865060e+002
5.013588e+002, 1.865939e+002
5.018409e+002, 1.869197e+002
5.023231e+002, 1.867544e+002
5.028052e+002, 1.859436e+002
5.032873e+002, 1.850955e+002
5.037694e+002, 1.848188e+002
5.042515e+002, 1.851381e+002
5.047336e+002, 1.852414e+002
5.052158e+002, 1.848699e+002
5.056979e+002, 1.845967e+002
5.061800e+002, 1.847029e+002
5.066621e+002, 1.850150e+002
5.071442e+002, 1.852745e+002
5.076263e+002, 1.853861e+002
5.081085e+002, 1.854097e+002
5.085906e+002, 1.854472e+002
5.090727e+002, 1.855412e+002
5.095548e+002, 1.854906e+002
5.100369e+002, 1.851678e+002
5.105190e+002, 1.848261e+002
5.110012e+002, 1.845316e+002
5.114833e+002, 1.842913e+002
5.119654e+002, 1.841044e+002
5.124475e+002, 1.839741e+002
5.129296e+002, 1.838854e+002
5.134117e+002, 1.838389e+002
5.138939e+002, 1.838530e+002
5.143760e+002, 1.837648e+002
5.148581e+002, 1.834863e+002
5.153402e+002, 1.831429e+002
5.158223e+002, 1.828323e+002
5.163044e+002, 1.825536e+002
5.167866e+002, 1.822891e+002
5.172687e+002, 1.820439e+002
5.177508e+002, 1.818008e+002
5.182329e+002, 1.815531e+002
5.187150e+002, 1.812966e+002
5.191971e+002, 1.809626e+002
5.196793e+002, 1.804703e+002
5.201614e+002, 1.799373e+002
5.206435e+002, 1.796396e+002
5.211256e+002, 1.795676e+002
5.216077e+002, 1.796802e+002
5.220898e+002, 1.802537e+002
5.225720e+002, 1.808118e+002
5.230541e+002, 1.808471e+002
5.235362e+002, 1.804090e+002
5.240183e+002, 1.799522e+002
5.245004e+002, 1.798114e+002
5.249825e+002, 1.799148e+002
5.254647e+002, 1.798814e+002
5.259468e+002, 1.794978e+002
5.264289e+002, 1.792880e+002
5.269110e+002, 1.795410e+002
5.273931e+002, 1.798082e+002
5.278752e+002, 1.796406e+002
5.283574e+002, 1.790467e+002
5.288395e+002, 1.784526e+002
5.293216e+002, 1.782262e+002
5.298037e+002, 1.783241e+002
5.302858e+002, 1.785173e+002
5.307679e+002, 1.788998e+002
5.312501e+002, 1.791577e+002
5.317322e+002, 1.790126e+002
5.322143e+002, 1.787408e+002
5.326964e+002, 1.786703e+002
5.331785e+002, 1.788925e+002
5.336606e+002, 1.790068e+002
5.341428e+002, 1.786322e+002
5.346249e+002, 1.779855e+002
5.351070e+002, 1.774933e+002
5.355891e+002, 1.772049e+002
5.360712e+002, 1.771557e+002
5.365533e+002, 1.774902e+002
5.370355e+002, 1.780985e+002
5.375176e+002, 1.783038e+002
5.379997e+002, 1.778139e+002
5.384818e+002, 1.773190e+002
5.389639e+002, 1.770385e+002
5.394460e+002, 1.768477e+002
5.399282e+002, 1.765252e+002
5.404103e+002, 1.760570e+002
5.408924e+002, 1.757185e+002
5.413745e+002, 1.758488e+002
5.418566e+002, 1.764703e+002
5.423387e+002, 1.767850e+002
5.428209e+002, 1.766523e+002
5.433029e+002, 1.763530e+002
5.437850e+002, 1.756273e+002
5.442672e+002, 1.749167e+002
5.447493e+002, 1.748541e+002
5.452314e+002, 1.755701e+002
5.457135e+002, 1.763396e+002
5.461956e+002, 1.762433e+002
5.466777e+002, 1.753737e+002
5.471599e+002, 1.748330e+002
5.476420e+002, 1.747236e+002
5.481241e+002, 1.748501e+002
5.486062e+002, 1.753152e+002
5.490883e+002, 1.758913e+002
5.495704e+002, 1.762063e+002
5.500526e+002, 1.761742e+002
5.505347e+002, 1.759253e+002
5.510168e+002, 1.753749e+002
5.514989e+002, 1.746953e+002
5.519810e+002, 1.742350e+002
5.524631e+002, 1.740672e+002
5.529453e+002, 1.741194e+002
5.534274e+002, 1.743920e+002
5.539095e+002, 1.748860e+002
5.543916e+002, 1.750429e+002
5.548737e+002, 1.745683e+002
5.553558e+002, 1.741614e+002
5.558380e+002, 1.739976e+002
5.563201e+002, 1.740130e+002
5.568022e+002, 1.741948e+002
5.572843e+002, 1.745064e+002
5.577664e+002, 1.747668e+002
5.582485e+002, 1.747572e+002
5.587307e+002, 1.744698e+002
5.592128e+002, 1.741397e+002
5.596949e+002, 1.736858e+002
5.601770e+002, 1.733141e+002
5.606591e+002, 1.730642e+002
5.611412e+002, 1.729361e+002
5.616234e+002, 1.729560e+002
5.621055e+002, 1.731420e+002
5.625876e+002, 1.733562e+002
5.630697e+002, 1.735041e+002
5.635518e+002, 1.735851e+002
5.640339e+002, 1.735834e+002
5.645161e+002, 1.734856e+002
5.649982e+002, 1.733604e+002
5.654803e+002, 1.732210e+002
5.659624e+002, 1.730981e+002
5.664445e+002, 1.731082e+002
5.669266e+002, 1.734760e+002
5.674088e+002, 1.736579e+002
5.678909e+002, 1.732475e+002
5.683730e+002, 1.726536e+002
5.688551e+002, 1.724246e+002
5.693372e+002, 1.726333e+002
5.698193e+002, 1.729669e+002
5.703015e+002, 1.731690e+002
5.707836e+002, 1.732311e+002
5.712657e+002, 1.729693e+002
5.717478e+002, 1.718648e+002
5.722299e+002, 1.711383e+002
5.727120e+002, 1.712074e+002
5.731942e+002, 1.715730e+002
5.736763e+002, 1.718241e+002
5.741584e+002, 1.718730e+002
5.746405e+002, 1.717922e+002
5.751226e+002, 1.715319e+002
5.756047e+002, 1.711794e+002
5.760869e+002, 1.712057e+002
5.765690e+002, 1.717647e+002
5.770511e+002, 1.720390e+002
5.775332e+002, 1.714229e+002
5.780153e+002, 1.704127e+002
5.784974e+002, 1.697666e+002
5.789796e+002, 1.694935e+002
5.794617e+002, 1.696020e+002
5.799438e+002, 1.704580e+002
5.804259e+002, 1.714833e+002
5.809080e+002, 1.720349e+002
5.813901e+002, 1.720826e+002
5.818723e+002, 1.718585e+002
5.823544e+002, 1.714660e+002
5.828365e+002, 1.709921e+002
5.833186e+002, 1.707346e+002
5.838007e+002, 1.709114e+002
5.842828e+002, 1.709789e+002
5.847650e+002, 1.708604e+002
5.852471e+002, 1.706952e+002
5.857292e+002, 1.705221e+002
5.862113e+002, 1.703820e+002
5.866934e+002, 1.703693e+002
5.871755e+002, 1.705855e+002
5.876577e+002, 1.708863e+002
5.881398e+002, 1.709417e+002
5.886219e+002, 1.707328e+002
5.891040e+002, 1.703765e+002
5.895861e+002, 1.697033e+002
5.900682e+002, 1.691105e+002
5.905504e+002, 1.690209e+002
5.910325e+002, 1.693624e+002
5.915146e+002, 1.696802e+002
5.919967e+002, 1.698288e+002
5.924788e+002, 1.699047e+002
5.929609e+002, 1.700329e+002
5.934431e+002, 1.701573e+002
5.939252e+002, 1.700636e+002
5.944073e+002, 1.696582e+002
5.948894e+002, 1.691758e+002
5.953715e+002, 1.689513e+002
5.958536e+002, 1.690545e+002
5.963358e+002, 1.691043e+002
5.968179e+002, 1.691166e+002
5.973000e+002, 1.690675e+002
5.977821e+002, 1.688991e+002
5.982642e+002, 1.686816e+002
5.987463e+002, 1.685023e+002
5.992285e+002, 1.683919e+002
5.997106e+002, 1.683412e+002
6.001927e+002, 1.683097e+002
6.006748e+002, 1.683023e+002
6.011569e+002, 1.685188e+002
6.016390e+002, 1.691313e+002
6.021212e+002, 1.696146e+002
6.026033e+002, 1.694730e+002
6.030854e+002, 1.690672e+002
6.035675e+002, 1.689872e+002
6.040496e+002, 1.694468e+002
6.045317e+002, 1.697990e+002
6.050139e+002, 1.696516e+002
6.054960e+002, 1.692258e+002
6.059781e+002, 1.687600e+002
6.064602e+002, 1.683150e+002
6.069423e+002, 1.680514e+002
6.074244e+002, 1.681088e+002
6.079066e+002, 1.684175e+002
6.083887e+002, 1.686637e+002
6.088708e+002, 1.688671e+002
6.093529e+002, 1.689717e+002
6.098350e+002, 1.689328e+002
6.103171e+002, 1.688344e+002
6.107993e+002, 1.687748e+002
6.112814e+002, 1.687169e+002
6.117635e+002, 1.684927e+002
6.122456e+002, 1.679155e+002
6.127277e+002, 1.672406e+002
6.132098e+002, 1.670966e+002
6.136920e+002, 1.675455e+002
6.141741e+002, 1.677377e+002
6.146562e+002, 1.672347e+002
6.151383e+002, 1.667150e+002
6.156204e+002, 1.670795e+002
6.161025e+002, 1.681395e+002
6.165847e+002, 1.687038e+002
6.170668e+002, 1.680882e+002
6.175489e+002, 1.673451e+002
6.180310e+002, 1.670631e+002
6.185131e+002, 1.671577e+002
6.189952e+002, 1.675206e+002
6.194774e+002, 1.681036e+002
6.199595e+002, 1.686764e+002
6.204416e+002, 1.689941e+002
6.209237e+002, 1.690644e+002
6.214058e+002, 1.687686e+002
6.218879e+002, 1.676507e+002
6.223701e+002, 1.667219e+002
6.228522e+002, 1.661607e+002
6.233343e+002, 1.659052e+002
6.238164e+002, 1.659603e+002
6.242985e+002, 1.663008e+002
6.247806e+002, 1.667126e+002
6.252628e+002, 1.671248e+002
6.257448e+002, 1.674614e+002
6.262269e+002, 1.674250e+002
6.267090e+002, 1.669706e+002
6.271912e+002, 1.666403e+002
6.276733e+002, 1.667649e+002
6.281554e+002, 1.670755e+002
6.286375e+002, 1.670273e+002
6.291196e+002, 1.665491e+002
6.296017e+002, 1.661394e+002
6.300839e+002, 1.658054e+002
6.305660e+002, 1.656186e+002
6.310481e+002, 1.657113e+002
6.315302e+002, 1.659838e+002
6.320123e+002, 1.661992e+002
6.324944e+002, 1.662477e+002
6.329766e+002, 1.662390e+002
6.334587e+002, 1.664104e+002
6.339408e+002, 1.668571e+002
6.344229e+002, 1.669668e+002
6.349050e+002, 1.663340e+002
6.353871e+002, 1.658887e+002
6.358693e+002, 1.662985e+002
6.363514e+002, 1.670484e+002
6.368335e+002, 1.673024e+002
6.373156e+002, 1.667728e+002
6.377977e+002, 1.661538e+002
6.382798e+002, 1.659113e+002
6.387620e+002, 1.659301e+002
6.392441e+002, 1.660356e+002
6.397262e+002, 1.662013e+002
6.402083e+002, 1.663219e+002
6.406904e+002, 1.662971e+002
6.411725e+002, 1.662128e+002
6.416547e+002, 1.663650e+002
6.421368e+002, 1.672737e+002
6.426189e+002, 1.676312e+002
6.431010e+002, 1.669897e+002
6.435831e+002, 1.661980e+002
6.440652e+002, 1.657000e+002
6.445474e+002, 1.655117e+002
6.450295e+002, 1.655296e+002
6.455116e+002, 1.657182e+002
6.459937e+002, 1.660012e+002
6.464758e+002, 1.663044e+002
6.469579e+002, 1.666264e+002
6.474401e+002, 1.667947e+002
6.479222e+002, 1.668005e+002
6.484043e+002, 1.666069e+002
6.488864e+002, 1.659589e+002
6.493685e+002, 1.650849e+002
6.498506e+002, 1.647410e+002
6.503328e+002, 1.653772e+002
6.508149e+002, 1.659424e+002
6.512970e+002, 1.659351e+002
6.517791e+002, 1.656851e+002
6.522612e+002, 1.655584e+002
6.527433e+002, 1.656057e+002
6.532255e+002, 1.657265e+002
6.537076e+002, 1.658538e+002
6.541897e+002, 1.659785e+002
6.546718e+002, 1.660675e+002
6.551539e+002, 1.661153e+002
6.556360e+002, 1.661369e+002
6.561182e+002, 1.661786e+002
6.566003e+002, 1.661496e+002
6.570824e+002, 1.659185e+002
6.575645e+002, 1.655649e+002
6.580466e+002, 1.653374e+002
6.585287e+002, 1.653811e+002
6.590109e+002, 1.654979e+002
6.594930e+002, 1.655031e+002
6.599751e+002, 1.654307e+002
6.604572e+002, 1.653787e+002
6.609393e+002, 1.653684e+002
6.614214e+002, 1.653592e+002
6.619036e+002, 1.653071e+002
6.623857e+002, 1.652220e+002
6.628678e+002, 1.652056e+002
6.633499e+002, 1.653017e+002
6.638320e+002, 1.654140e+002
6.643141e+002, 1.655794e+002
6.647963e+002, 1.657266e+002
6.652784e+002, 1.657983e+002
6.657605e+002, 1.657981e+002
6.662426e+002, 1.657788e+002
6.667247e+002, 1.658100e+002
6.672068e+002, 1.657778e+002
6.676890e+002, 1.653323e+002
6.681711e+002, 1.644957e+002
6.686532e+002, 1.641182e+002
6.691353e+002, 1.645528e+002
6.696174e+002, 1.650903e+002
6.700995e+002, 1.649718e+002
6.705817e+002, 1.642901e+002
6.710638e+002, 1.640271e+002
6.715459e+002, 1.644971e+002
6.720280e+002, 1.650165e+002
6.725101e+002, 1.656022e+002
6.729922e+002, 1.659881e+002
6.734744e+002, 1.657093e+002
6.739565e+002, 1.648520e+002
6.744386e+002, 1.640883e+002
6.749207e+002, 1.639522e+002
6.754028e+002, 1.642464e+002
6.758849e+002, 1.642861e+002
6.763671e+002, 1.639660e+002
6.768492e+002, 1.638691e+002
6.773313e+002, 1.642502e+002
6.778134e+002, 1.647310e+002
6.782955e+002, 1.650735e+002
6.787776e+002, 1.652732e+002
6.792598e+002, 1.652967e+002
6.797419e+002, 1.650269e+002
6.802240e+002, 1.647204e+002
6.807061e+002, 1.644478e+002
6.811882e+002, 1.642672e+002
6.816703e+002, 1.643445e+002
6.821525e+002, 1.646681e+002
6.826346e+002, 1.649550e+002
6.831167e+002, 1.649739e+002
6.835988e+002, 1.647628e+002
6.840809e+002, 1.644850e+002
6.845630e+002, 1.640309e+002
6.850452e+002, 1.637522e+002
6.855273e+002, 1.636752e+002
6.860094e+002, 1.638091e+002
6.864915e+002, 1.644478e+002
6.869736e+002, 1.653190e+002
6.874557e+002, 1.656207e+002
6.879379e+002, 1.647977e+002
6.884200e+002, 1.637601e+002
6.889021e+002, 1.632626e+002
6.893842e+002, 1.631755e+002
6.898663e+002, 1.632175e+002
6.903484e+002, 1.633367e+002
6.908306e+002, 1.636133e+002
6.913127e+002, 1.641767e+002
6.917948e+002, 1.649030e+002
6.922769e+002, 1.651620e+002
6.927590e+002, 1.645742e+002
6.932411e+002, 1.641174e+002
6.937233e+002, 1.638378e+002
6.942054e+002, 1.636973e+002
6.946875e+002, 1.639160e+002
6.951696e+002, 1.642422e+002
6.956517e+002, 1.639599e+002
6.961339e+002, 1.625043e+002
6.966160e+002, 1.611299e+002
6.970981e+002, 1.616501e+002
6.975802e+002, 1.634465e+002
6.980623e+002, 1.642266e+002
6.985444e+002, 1.635919e+002
6.990266e+002, 1.626890e+002
6.995087e+002, 1.622322e+002
6.999908e+002, 1.621793e+002
7.004729e+002, 1.623917e+002
7.009550e+002, 1.634215e+002
7.014371e+002, 1.638531e+002
7.019193e+002, 1.630749e+002
7.024014e+002, 1.622426e+002
7.028835e+002, 1.621039e+002
7.033656e+002, 1.624642e+002
7.038477e+002, 1.627900e+002
7.043298e+002, 1.628512e+002
7.048120e+002, 1.628206e+002
7.052941e+002, 1.629294e+002
7.057762e+002, 1.631363e+002
7.062583e+002, 1.632275e+002
7.067404e+002, 1.631734e+002
7.072225e+002, 1.630562e+002
7.077046e+002, 1.628463e+002
7.081867e+002, 1.626627e+002
7.086688e+002, 1.628644e+002
7.091509e+002, 1.637449e+002
7.096331e+002, 1.642390e+002
7.101152e+002, 1.639107e+002
7.105973e+002, 1.635343e+002
7.110794e+002, 1.636208e+002
7.115615e+002, 1.639721e+002
7.120436e+002, 1.641776e+002
7.125258e+002, 1.640900e+002
7.130079e+002, 1.638975e+002
7.134900e+002, 1.637712e+002
7.139721e+002, 1.637205e+002
7.144542e+002, 1.638783e+002
7.149363e+002, 1.643178e+002
7.154185e+002, 1.644915e+002
7.159006e+002, 1.640012e+002
7.163827e+002, 1.632609e+002
7.168648e+002, 1.630090e+002
7.173469e+002, 1.633371e+002
7.178290e+002, 1.635439e+002
7.183112e+002, 1.635262e+002
7.187933e+002, 1.634236e+002
7.192754e+002, 1.632192e+002
7.197575e+002, 1.630102e+002
7.202396e+002, 1.629540e+002
7.207217e+002, 1.630752e+002
7.212039e+002, 1.632136e+002
7.216860e+002, 1.632071e+002
7.221681e+002, 1.630925e+002
7.226502e+002, 1.629863e+002
7.231323e+002, 1.628725e+002
7.236144e+002, 1.629053e+002
7.240966e+002, 1.631787e+002
7.245787e+002, 1.635537e+002
7.250608e+002, 1.639149e+002
7.255429e+002, 1.642625e+002
7.260250e+002, 1.644413e+002
7.265071e+002, 1.644558e+002
7.269893e+002, 1.642881e+002
7.274714e+002, 1.636200e+002
7.279535e+002, 1.629512e+002
7.284356e+002, 1.629861e+002
7.289177e+002, 1.636869e+002
7.293998e+002, 1.643513e+002
7.298820e+002, 1.644659e+002
7.303641e+002, 1.642092e+002
7.308462e+002, 1.639449e+002
7.313283e+002, 1.636704e+002
7.318104e+002, 1.634592e+002
7.322925e+002, 1.633140e+002
7.327747e+002, 1.632605e+002
7.332568e+002, 1.633561e+002
7.337389e+002, 1.635684e+002
7.342210e+002, 1.637200e+002
7.347031e+002, 1.637615e+002
7.351852e+002, 1.638150e+002
7.356674e+002, 1.638749e+002
7.361495e+002, 1.639790e+002
7.366316e+002, 1.642334e+002
7.371137e+002, 1.645582e+002
7.375958e+002, 1.647627e+002
7.380779e+002, 1.647576e+002
7.385601e+002, 1.645544e+002
7.390422e+002, 1.640183e+002
7.395243e+002, 1.632213e+002
7.400064e+002, 1.629210e+002
7.404885e+002, 1.632821e+002
7.409706e+002, 1.636723e+002
7.414528e+002, 1.637741e+002
7.419349e+002, 1.636591e+002
7.424170e+002, 1.634361e+002
7.428991e+002, 1.630059e+002
7.433812e+002, 1.628148e+002
7.438633e+002, 1.631657e+002
7.443455e+002, 1.634883e+002
7.448276e+002, 1.633576e+002
7.453097e+002, 1.630492e+002
7.457918e+002, 1.630579e+002
7.462739e+002, 1.634975e+002
7.467560e+002, 1.639719e+002
7.472382e+002, 1.640856e+002
7.477203e+002, 1.639381e+002
7.482024e+002, 1.637752e+002
7.486845e+002, 1.635926e+002
7.491666e+002, 1.636123e+002
7.496487e+002, 1.639574e+002
7.501309e+002, 1.644208e+002
7.506130e+002, 1.648384e+002
7.510951e+002, 1.652228e+002
7.515772e+002, 1.651511e+002
7.520593e+002, 1.641231e+002
7.525414e+002, 1.633238e+002
7.530236e+002, 1.630229e+002
7.535057e+002, 1.630472e+002
7.539878e+002, 1.633761e+002
7.544699e+002, 1.638884e+002
7.549520e+002, 1.642580e+002
7.554341e+002, 1.642607e+002
7.559163e+002, 1.641185e+002
7.563984e+002, 1.642209e+002
7.568805e+002, 1.644648e+002
7.573626e+002, 1.642737e+002
7.578447e+002, 1.635147e+002
7.583268e+002, 1.629936e+002
7.588090e+002, 1.633908e+002
7.592911e+002, 1.643495e+002
7.597732e+002, 1.646491e+002
7.602553e+002, 1.636509e+002
7.607374e+002, 1.631656e+002
7.612195e+002, 1.636248e+002
7.617017e+002, 1.641111e+002
7.621838e+002, 1.641377e+002
7.626659e+002, 1.639270e+002
7.631480e+002, 1.639143e+002
7.636301e+002, 1.642311e+002
7.641122e+002, 1.644472e+002
7.645944e+002, 1.640925e+002
7.650765e+002, 1.635152e+002
7.655586e+002, 1.631984e+002
7.660407e+002, 1.631663e+002
7.665228e+002, 1.635083e+002
7.670049e+002, 1.642898e+002
7.674871e+002, 1.650486e+002
7.679692e+002, 1.651225e+002
7.684513e+002, 1.644702e+002
7.689334e+002, 1.641589e+002
7.694155e+002, 1.643839e+002
7.698976e+002, 1.646296e+002
7.703798e+002, 1.648118e+002
7.708619e+002, 1.649474e+002
7.713440e+002, 1.650905e+002
7.718261e+002, 1.652093e+002
7.723082e+002, 1.651446e+002
7.727903e+002, 1.646774e+002
7.732725e+002, 1.642310e+002
7.737546e+002, 1.640592e+002
7.742367e+002, 1.641186e+002
7.747188e+002, 1.644999e+002
7.752009e+002, 1.651067e+002
7.756830e+002, 1.654020e+002
7.761652e+002, 1.649905e+002
7.766473e+002, 1.642496e+002
7.771294e+002, 1.641448e+002
7.776115e+002, 1.648139e+002
7.780936e+002, 1.651761e+002
7.785757e+002, 1.650043e+002
7.790579e+002, 1.648202e+002
7.795400e+002, 1.650381e+002
7.800221e+002, 1.653605e+002
7.805042e+002, 1.651985e+002
7.809863e+002, 1.643649e+002
7.814684e+002, 1.638977e+002
7.819506e+002, 1.645084e+002
7.824327e+002, 1.650999e+002
7.829148e+002, 1.647273e+002
7.833969e+002, 1.639333e+002
7.838790e+002, 1.637327e+002
7.843611e+002, 1.643416e+002
7.848433e+002, 1.650864e+002
7.853254e+002, 1.653249e+002
7.858075e+002, 1.652401e+002
7.862896e+002, 1.654453e+002
7.867717e+002, 1.659474e+002
7.872538e+002, 1.661652e+002
7.877360e+002, 1.659004e+002
7.882181e+002, 1.654668e+002
7.887002e+002, 1.650852e+002
7.891823e+002, 1.647759e+002
7.896644e+002, 1.647289e+002
7.901465e+002, 1.651123e+002
7.906286e+002, 1.655035e+002
7.911107e+002, 1.660163e+002
7.915928e+002, 1.663944e+002
7.920750e+002, 1.663751e+002
7.925571e+002, 1.661122e+002
7.930392e+002, 1.659420e+002
7.935213e+002, 1.659905e+002
7.940034e+002, 1.661014e+002
7.944855e+002, 1.660854e+002
7.949677e+002, 1.660600e+002
7.954498e+002, 1.663697e+002
7.959319e+002, 1.669466e+002
7.964140e+002, 1.671975e+002
7.968961e+002, 1.668603e+002
7.973782e+002, 1.662838e+002
7.978604e+002, 1.659396e+002
7.983425e+002, 1.658346e+002
7.988246e+002, 1.657393e+002
7.993067e+002, 1.656077e+002
7.997888e+002, 1.655656e+002
8.002709e+002, 1.656879e+002
8.007531e+002, 1.658774e+002
8.012352e+002, 1.660706e+002
8.017173e+002, 1.662690e+002
8.021994e+002, 1.665022e+002
8.026815e+002, 1.669567e+002
8.031636e+002, 1.671872e+002
8.036458e+002, 1.667617e+002
8.041279e+002, 1.661101e+002
8.046100e+002, 1.656550e+002
8.050921e+002, 1.654703e+002
8.055742e+002, 1.655905e+002
8.060563e+002, 1.660522e+002
8.065385e+002, 1.666115e+002
8.070206e+002, 1.668599e+002
8.075027e+002, 1.668218e+002
8.079848e+002, 1.668376e+002
8.084669e+002, 1.669504e+002
8.089490e+002, 1.669675e+002
8.094312e+002, 1.668012e+002
8.099133e+002, 1.664953e+002
8.103954e+002, 1.660514e+002
8.108775e+002, 1.654005e+002
8.113596e+002, 1.651051e+002
8.118417e+002, 1.652256e+002
8.123239e+002, 1.656179e+002
8.128060e+002, 1.666690e+002
8.132881e+002, 1.676699e+002
8.137702e+002, 1.678393e+002
8.142523e+002, 1.672743e+002
8.147344e+002, 1.667018e+002
8.152166e+002, 1.664693e+002
8.156987e+002, 1.663991e+002
8.161808e+002, 1.662679e+002
8.166629e+002, 1.661726e+002
8.171450e+002, 1.664609e+002
8.176271e+002, 1.671004e+002
8.181093e+002, 1.674655e+002
8.185914e+002, 1.671689e+002
8.190735e+002, 1.665684e+002
8.195556e+002, 1.663883e+002
8.200377e+002, 1.667271e+002
8.205198e+002, 1.668219e+002
8.210020e+002, 1.664310e+002
8.214841e+002, 1.662566e+002
8.219662e+002, 1.668281e+002
8.224483e+002, 1.675555e+002
8.229304e+002, 1.677773e+002
8.234125e+002, 1.675012e+002
8.238947e+002, 1.671626e+002
8.243768e+002, 1.667278e+002
8.248589e+002, 1.663938e+002
8.253410e+002, 1.663391e+002
8.258231e+002, 1.663706e+002
8.263052e+002, 1.661538e+002
8.267874e+002, 1.657902e+002
8.272695e+002, 1.658033e+002
8.277516e+002, 1.665537e+002
8.282337e+002, 1.674875e+002
8.287158e+002, 1.677572e+002
8.291979e+002, 1.675266e+002
8.296801e+002, 1.674987e+002
8.301622e+002, 1.677359e+002
8.306443e+002, 1.679705e+002
8.311264e+002, 1.680967e+002
8.316085e+002, 1.680581e+002
8.320906e+002, 1.677098e+002
8.325728e+002, 1.669645e+002
8.330549e+002, 1.665536e+002
8.335370e+002, 1.667033e+002
8.340191e+002, 1.668685e+002
8.345012e+002, 1.669405e+002
8.349833e+002, 1.669678e+002
8.354655e+002, 1.669890e+002
8.359476e+002, 1.670031e+002
8.364297e+002, 1.669888e+002
8.369118e+002, 1.669075e+002
8.373939e+002, 1.668503e+002
8.378760e+002, 1.669434e+002
8.383582e+002, 1.670377e+002
8.388403e+002, 1.668620e+002
8.393224e+002, 1.665177e+002
8.398045e+002, 1.663922e+002
8.402866e+002, 1.666692e+002
8.407687e+002, 1.671163e+002
8.412509e+002, 1.674346e+002
8.417330e+002, 1.676434e+002
8.422151e+002, 1.678817e+002
8.426972e+002, 1.681626e+002
8.431793e+002, 1.682420e+002
8.436614e+002, 1.679760e+002
8.441436e+002, 1.676320e+002
8.446257e+002, 1.675427e+002
8.451078e+002, 1.676974e+002
8.455899e+002, 1.676721e+002
8.460720e+002, 1.672564e+002
8.465541e+002, 1.669655e+002
8.470363e+002, 1.669223e+002
8.475184e+002, 1.669364e+002
8.480005e+002, 1.669620e+002
8.484826e+002, 1.669378e+002
8.489647e+002, 1.666855e+002
8.494468e+002, 1.660568e+002
8.499290e+002, 1.656654e+002
8.504111e+002, 1.660680e+002
8.508932e+002, 1.666893e+002
8.513753e+002, 1.670195e+002
8.518574e+002, 1.670706e+002
8.523395e+002, 1.669002e+002
8.528217e+002, 1.665589e+002
8.533038e+002, 1.662544e+002
8.537859e+002, 1.662159e+002
8.542680e+002, 1.663534e+002
8.547501e+002, 1.663673e+002
8.552322e+002, 1.662583e+002
8.557144e+002, 1.662495e+002
8.561965e+002, 1.664197e+002
8.566786e+002, 1.665331e+002
8.571607e+002, 1.663735e+002
8.576428e+002, 1.660527e+002
8.581249e+002, 1.659460e+002
8.586071e+002, 1.662656e+002
8.590892e+002, 1.663345e+002
8.595713e+002, 1.659411e+002
8.600534e+002, 1.655492e+002
8.605355e+002, 1.652377e+002
8.610176e+002, 1.650615e+002
8.614998e+002, 1.651981e+002
8.619819e+002, 1.656286e+002
8.624640e+002, 1.657834e+002
8.629461e+002, 1.651856e+002
8.634282e+002, 1.645046e+002
8.639103e+002, 1.641254e+002
8.643925e+002, 1.639872e+002
8.648746e+002, 1.641412e+002
8.653567e+002, 1.644734e+002
8.658388e+002, 1.645531e+002
8.663209e+002, 1.641037e+002
8.668030e+002, 1.634975e+002
8.672852e+002, 1.633891e+002
8.677673e+002, 1.636535e+002
8.682494e+002, 1.635510e+002
8.687315e+002, 1.630254e+002
8.692136e+002, 1.626291e+002
8.696957e+002, 1.625979e+002
8.701779e+002, 1.627687e+002
8.706600e+002, 1.629394e+002
8.711421e+002, 1.631103e+002
8.716242e+002, 1.632936e+002
8.721063e+002, 1.637635e+002
8.725884e+002, 1.637615e+002
8.730705e+002, 1.624783e+002
8.735526e+002, 1.613250e+002
8.740347e+002, 1.613571e+002
8.745168e+002, 1.621467e+002
8.749990e+002, 1.626225e+002
8.754811e+002, 1.625793e+002
8.759632e+002, 1.623171e+002
8.764453e+002, 1.618318e+002
8.769274e+002, 1.612695e+002
8.774095e+002, 1.605997e+002
8.778917e+002, 1.599832e+002
8.783738e+002, 1.597293e+002
8.788559e+002, 1.598662e+002
8.793380e+002, 1.600359e+002
8.798201e+002, 1.599562e+002
8.803022e+002, 1.597542e+002
8.807844e+002, 1.596030e+002
8.812665e+002, 1.595083e+002
8.817486e+002, 1.595182e+002
8.822307e+002, 1.596325e+002
8.827128e+002, 1.597453e+002
8.831949e+002, 1.598028e+002
8.836771e+002, 1.597590e+002
8.841592e+002, 1.594969e+002
8.846413e+002, 1.589837e+002
8.851234e+002, 1.584731e+002
8.856055e+002, 1.579042e+002
8.860876e+002, 1.574852e+002
8.865698e+002, 1.572919e+002
8.870519e+002, 1.572733e+002
8.875340e+002, 1.574900e+002
8.880161e+002, 1.579063e+002
8.884982e+002, 1.579846e+002
8.889803e+002, 1.573413e+002
8.894625e+002, 1.568803e+002
8.899446e+002, 1.569482e+002
8.904267e+002, 1.570650e+002
8.909088e+002, 1.568520e+002
8.913909e+002, 1.564509e+002
8.918730e+002, 1.562312e+002
8.923552e+002, 1.563057e+002
8.928373e+002, 1.562609e+002
8.933194e+002, 1.556800e+002
8.938015e+002, 1.549776e+002
8.942836e+002, 1.545575e+002
8.947657e+002, 1.543731e+002
8.952479e+002, 1.543357e+002
8.957300e+002, 1.544066e+002
8.962121e+002, 1.545526e+002
8.966942e+002, 1.547868e+002
8.971763e+002, 1.549455e+002
8.976584e+002, 1.545558e+002
8.981406e+002, 1.537024e+002
8.986227e+002, 1.532972e+002
8.991048e+002, 1.534591e+002
8.995869e+002, 1.536053e+002
9.000690e+002, 1.534552e+002
9.005511e+002, 1.531631e+002
9.010333e+002, 1.529509e+002
9.015154e+002, 1.528218e+002
9.019975e+002, 1.526919e+002
9.024796e+002, 1.524528e+002
9.029617e+002, 1.524200e+002
9.034438e+002, 1.529296e+002
9.039260e+002, 1.533922e+002
9.044081e+002, 1.533865e+002
9.048902e+002, 1.530314e+002
9.053723e+002, 1.525950e+002
9.058544e+002, 1.519928e+002
9.063365e+002, 1.516375e+002
9.068187e+002, 1.519104e+002
9.073008e+002, 1.521619e+002
9.077829e+002, 1.519226e+002
9.082650e+002, 1.514618e+002
9.087471e+002, 1.511471e+002
9.092292e+002, 1.510454e+002
9.097114e+002, 1.510430e+002
9.101935e+002, 1.511187e+002
9.106756e+002, 1.511922e+002
9.111577e+002, 1.511518e+002
9.116398e+002, 1.510632e+002
9.121219e+002, 1.511174e+002
9.126041e+002, 1.512670e+002
9.130862e+002, 1.511809e+002
9.135683e+002, 1.507023e+002
9.140504e+002, 1.501520e+002
9.145325e+002, 1.500044e+002
9.150146e+002, 1.501700e+002
9.154968e+002, 1.500903e+002
9.159789e+002, 1.497560e+002
9.164610e+002, 1.494842e+002
9.169431e+002, 1.493580e+002
9.174252e+002, 1.492960e+002
9.179073e+002, 1.492463e+002
9.183895e+002, 1.491929e+002
9.188716e+002, 1.490498e+002
9.193537e+002, 1.486450e+002
9.198358e+002, 1.486036e+002
9.203179e+002, 1.492649e+002
9.208000e+002, 1.498001e+002
9.212822e+002, 1.498557e+002
9.217643e+002, 1.496354e+002
9.222464e+002, 1.492365e+002
9.227285e+002, 1.486837e+002
9.232106e+002, 1.484184e+002
9.236927e+002, 1.488784e+002
9.241749e+002, 1.491206e+002
9.246570e+002, 1.486447e+002
9.251391e+002, 1.480645e+002
9.256212e+002, 1.478908e+002
9.261033e+002, 1.479915e+002
9.265854e+002, 1.480250e+002
9.270676e+002, 1.478922e+002
9.275497e+002, 1.476880e+002
9.280318e+002, 1.474133e+002
9.285139e+002, 1.471551e+002
9.289960e+002, 1.469811e+002
9.294781e+002, 1.468961e+002
9.299603e+002, 1.469570e+002
9.304424e+002, 1.471298e+002
9.309245e+002, 1.472115e+002
9.314066e+002, 1.470607e+002
9.318887e+002, 1.468241e+002
9.323708e+002, 1.466665e+002
9.328530e+002, 1.466195e+002
9.333351e+002, 1.469946e+002
9.338172e+002, 1.477541e+002
9.342993e+002, 1.479697e+002
9.347814e+002, 1.472661e+002
9.352635e+002, 1.461717e+002
9.357457e+002, 1.451528e+002
9.362278e+002, 1.443141e+002
9.367099e+002, 1.444289e+002
9.371920e+002, 1.458368e+002
9.376741e+002, 1.466866e+002
9.381563e+002, 1.466133e+002
9.386384e+002, 1.463096e+002
9.391205e+002, 1.461140e+002
9.396026e+002, 1.459500e+002
9.400847e+002, 1.456361e+002
9.405668e+002, 1.450940e+002
9.410490e+002, 1.448710e+002
9.415311e+002, 1.453879e+002
9.420132e+002, 1.456375e+002
9.424953e+002, 1.451672e+002
9.429774e+002, 1.446063e+002
9.434595e+002, 1.444192e+002
9.439417e+002, 1.445146e+002
9.444238e+002, 1.445984e+002
9.449059e+002, 1.446012e+002
9.453880e+002, 1.446414e+002
9.458701e+002, 1.448228e+002
9.463522e+002, 1.449907e+002
9.468344e+002, 1.450631e+002
9.473165e+002, 1.450468e+002
9.477986e+002, 1.449266e+002
9.482807e+002, 1.447273e+002
9.487628e+002, 1.445459e+002
9.492449e+002, 1.444391e+002
9.497271e+002, 1.443548e+002
9.502092e+002, 1.442053e+002
9.506913e+002, 1.440663e+002
9.511734e+002, 1.440662e+002
9.516555e+002, 1.441859e+002
9.521376e+002, 1.443825e+002
9.526198e+002, 1.446223e+002
9.531019e+002, 1.447255e+002
9.535840e+002, 1.444512e+002
9.540661e+002, 1.440041e+002
9.545482e+002, 1.439675e+002
9.550303e+002, 1.442512e+002
9.555124e+002, 1.442194e+002
9.559945e+002, 1.437827e+002
9.564766e+002, 1.432908e+002
9.569587e+002, 1.429073e+002
9.574409e+002, 1.426967e+002
9.579230e+002, 1.427969e+002
9.584051e+002, 1.432016e+002
9.588872e+002, 1.435641e+002
9.593693e+002, 1.439604e+002
9.598514e+002, 1.439160e+002
9.603336e+002, 1.430712e+002
9.608157e+002, 1.423822e+002
9.612978e+002, 1.427489e+002
9.617799e+002, 1.436903e+002
9.622620e+002, 1.437891e+002
9.627441e+002, 1.425618e+002
9.632263e+002, 1.419940e+002
9.637084e+002, 1.426852e+002
9.641905e+002, 1.432278e+002
9.646726e+002, 1.431353e+002
9.651547e+002, 1.428394e+002
9.656368e+002, 1.426765e+002
9.661190e+002, 1.426327e+002
9.666011e+002, 1.425888e+002
9.670832e+002, 1.424708e+002
9.675653e+002, 1.424720e+002
9.680474e+002, 1.426672e+002
9.685295e+002, 1.429560e+002
9.690117e+002, 1.433528e+002
9.694938e+002, 1.437675e+002
9.699759e+002, 1.441469e+002
9.704580e+002, 1.444502e+002
9.709401e+002, 1.444887e+002
9.714222e+002, 1.438744e+002
9.719044e+002, 1.434700e+002
9.723865e+002, 1.440817e+002
9.728686e+002, 1.449728e+002
9.733507e+002, 1.456018e+002
9.738328e+002, 1.457844e+002
9.743149e+002, 1.451137e+002
9.747971e+002, 1.435679e+002
9.752792e+002, 1.421183e+002
9.757613e+002, 1.415356e+002
9.762434e+002, 1.414739e+002
9.767255e+002, 1.416798e+002
9.772076e+002, 1.419845e+002
9.776898e+002, 1.419638e+002
9.781719e+002, 1.416401e+002
9.786540e+002, 1.413947e+002
9.791361e+002, 1.414076e+002
9.796182e+002, 1.415299e+002
9.801003e+002, 1.415739e+002
9.805825e+002, 1.415788e+002
9.810646e+002, 1.417152e+002
9.815467e+002, 1.419553e+002
9.820288e+002, 1.420418e+002
9.825109e+002, 1.419244e+002
9.829930e+002, 1.418582e+002
9.834752e+002, 1.420321e+002
9.839573e+002, 1.422446e+002
9.844394e+002, 1.420153e+002
9.849215e+002, 1.413378e+002
9.854036e+002, 1.413165e+002
9.858857e+002, 1.421291e+002
9.863679e+002, 1.424549e+002
9.868500e+002, 1.417609e+002
9.873321e+002, 1.411256e+002
9.878142e+002, 1.415186e+002
9.882963e+002, 1.425527e+002
9.887784e+002, 1.429807e+002
9.892606e+002, 1.425677e+002
9.897427e+002, 1.423788e+002
9.902248e+002, 1.425320e+002
9.907069e+002, 1.426849e+002
9.911890e+002, 1.427729e+002
9.916711e+002, 1.427726e+002
9.921533e+002, 1.426621e+002
9.926354e+002, 1.424439e+002
9.931175e+002, 1.421162e+002
9.935996e+002, 1.413193e+002
9.940817e+002, 1.410628e+002
9.945638e+002, 1.420557e+002
9.950460e+002, 1.427592e+002
9.955281e+002, 1.422619e+002
9.960102e+002, 1.414024e+002
9.964923e+002, 1.411299e+002
9.969744e+002, 1.414001e+002
9.974565e+002, 1.415034e+002
9.979387e+002, 1.411198e+002
9.984208e+002, 1.408743e+002
9.989029e+002, 1.410498e+002
9.993850e+002, 1.412782e+002
9.998671e+002, 1.413907e+002
1.000349e+003, 1.413767e+002
1.000831e+003, 1.411698e+002
1.001313e+003, 1.408044e+002
1.001796e+003, 1.405850e+002
1.002278e+003, 1.406346e+002
1.002760e+003, 1.408637e+002
1.003242e+003, 1.415018e+002
1.003724e+003, 1.420554e+002
1.004206e+003, 1.418794e+002
1.004688e+003, 1.413192e+002
1.005170e+003, 1.411910e+002
1.005653e+003, 1.416376e+002
1.006135e+003, 1.418993e+002
1.006617e+003, 1.412072e+002
1.007099e+003, 1.405217e+002
1.007581e+003, 1.411015e+002
1.008063e+003, 1.420305e+002
1.008545e+003, 1.418043e+002
1.009027e+003, 1.407325e+002
1.009509e+003, 1.401188e+002
1.009992e+003, 1.404001e+002
1.010474e+003, 1.408822e+002
1.010956e+003, 1.409587e+002
1.011438e+003, 1.408802e+002
1.011920e+003, 1.410487e+002
1.012402e+003, 1.413508e+002
1.012884e+003, 1.415246e+002
1.013366e+003, 1.415540e+002
1.013849e+003, 1.415199e+002
1.014331e+003, 1.414610e+002
1.014813e+003, 1.414607e+002
1.015295e+003, 1.416881e+002
1.015777e+003, 1.419837e+002
1.016259e+003, 1.419181e+002
1.016741e+003, 1.415517e+002
1.017223e+003, 1.410997e+002
1.017705e+003, 1.406216e+002
1.018188e+003, 1.403435e+002
1.018670e+003, 1.403879e+002
1.019152e+003, 1.405823e+002
1.019634e+003, 1.407081e+002
1.020116e+003, 1.407726e+002
1.020598e+003, 1.407994e+002
1.021080e+003, 1.407908e+002
1.021562e+003, 1.408528e+002
1.022044e+003, 1.410129e+002
1.022527e+003, 1.410299e+002
1.023009e+003, 1.407345e+002
1.023491e+003, 1.403740e+002
1.023973e+003, 1.403859e+002
1.024455e+003, 1.407351e+002
1.024937e+003, 1.407771e+002
1.025419e+003, 1.404550e+002
1.025901e+003, 1.403460e+002
1.026384e+003, 1.406151e+002
1.026866e+003, 1.408385e+002
1.027348e+003, 1.407390e+002
1.027830e+003, 1.404590e+002
1.028312e+003, 1.402289e+002
1.028794e+003, 1.400388e+002
1.029276e+003, 1.401750e+002
1.029758e+003, 1.407831e+002
1.030240e+003, 1.412069e+002
1.030723e+003, 1.412980e+002
1.031205e+003, 1.412332e+002
1.031687e+003, 1.410540e+002
1.032169e+003, 1.408739e+002
1.032651e+003, 1.409355e+002
1.033133e+003, 1.412677e+002
1.033615e+003, 1.416026e+002
1.034097e+003, 1.420173e+002
1.034579e+003, 1.422603e+002
1.035062e+003, 1.422527e+002
1.035544e+003, 1.420976e+002
1.036026e+003, 1.417405e+002
1.036508e+003, 1.413541e+002
1.036990e+003, 1.413449e+002
1.037472e+003, 1.418166e+002
1.037954e+003, 1.420752e+002
1.038436e+003, 1.419337e+002
1.038919e+003, 1.418797e+002
1.039401e+003, 1.421901e+002
1.039883e+003, 1.423996e+002
1.040365e+003, 1.420441e+002
1.040847e+003, 1.414297e+002
1.041329e+003, 1.412665e+002
1.041811e+003, 1.417046e+002
1.042293e+003, 1.417984e+002
1.042776e+003, 1.411257e+002
1.043258e+003, 1.406794e+002
1.043740e+003, 1.407852e+002
1.044222e+003, 1.410298e+002
1.044704e+003, 1.411581e+002
1.045186e+003, 1.412326e+002
1.045668e+003, 1.414292e+002
1.046150e+003, 1.418080e+002
1.046632e+003, 1.419478e+002
1.047115e+003, 1.415518e+002
1.047597e+003, 1.412595e+002
1.048079e+003, 1.412899e+002
1.048561e+003, 1.414116e+002
1.049043e+003, 1.415200e+002
1.049525e+003, 1.415824e+002
1.050007e+003, 1.415826e+002
1.050489e+003, 1.415292e+002
1.050971e+003, 1.412735e+002
1.051454e+003, 1.404842e+002
1.051936e+003, 1.399026e+002
1.052418e+003, 1.398706e+002
1.052900e+003, 1.400042e+002
1.053382e+003, 1.400114e+002
1.053864e+003, 1.399856e+002
1.054346e+003, 1.401201e+002
1.054828e+003, 1.404434e+002
1.055311e+003, 1.408921e+002
1.055793e+003, 1.419640e+002
1.056275e+003, 1.424621e+002
1.056757e+003, 1.414635e+002
1.057239e+003, 1.402419e+002
1.057721e+003, 1.397200e+002
1.058203e+003, 1.396743e+002
1.058685e+003, 1.395677e+002
1.059167e+003, 1.393228e+002
1.059650e+003, 1.393409e+002
1.060132e+003, 1.401270e+002
1.060614e+003, 1.406931e+002
1.061096e+003, 1.405515e+002
1.061578e+003, 1.401616e+002
1.062060e+003, 1.396812e+002
1.062542e+003, 1.392874e+002
1.063024e+003, 1.393158e+002
1.063506e+003, 1.397696e+002
1.063989e+003, 1.400239e+002
1.064471e+003, 1.396178e+002
1.064953e+003, 1.393034e+002
1.065435e+003, 1.395539e+002
1.065917e+003, 1.398500e+002
1.066399e+003, 1.397694e+002
1.066881e+003, 1.394778e+002
1.067363e+003, 1.392505e+002
1.067846e+003, 1.391330e+002
1.068328e+003, 1.390533e+002
1.068810e+003, 1.390394e+002
1.069292e+003, 1.389646e+002
1.069774e+003, 1.386021e+002
1.070256e+003, 1.383320e+002
1.070738e+003, 1.385804e+002
1.071220e+003, 1.390247e+002
1.071703e+003, 1.391896e+002
1.072185e+003, 1.390404e+002
1.072667e+003, 1.388564e+002
1.073149e+003, 1.387199e+002
1.073631e+003, 1.386090e+002
1.074113e+003, 1.384749e+002
1.074595e+003, 1.384029e+002
1.075077e+003, 1.384658e+002
1.075559e+003, 1.386203e+002
1.076042e+003, 1.389360e+002
1.076524e+003, 1.393039e+002
1.077006e+003, 1.392683e+002
1.077488e+003, 1.385344e+002
1.077970e+003, 1.378374e+002
1.078452e+003, 1.375175e+002
1.078934e+003, 1.373494e+002
1.079416e+003, 1.369152e+002
1.079898e+003, 1.367274e+002
1.080380e+003, 1.378263e+002
1.080863e+003, 1.397537e+002
1.081345e+003, 1.407233e+002
1.081827e+003, 1.400158e+002
1.082309e+003, 1.391843e+002
1.082791e+003, 1.388751e+002
1.083273e+003, 1.387089e+002
1.083755e+003, 1.384686e+002
1.084237e+003, 1.382404e+002
1.084720e+003, 1.381204e+002
1.085202e+003, 1.381031e+002
1.085684e+003, 1.381663e+002
1.086166e+003, 1.383178e+002
1.086648e+003, 1.384054e+002
1.087130e+003, 1.382180e+002
1.087612e+003, 1.381321e+002
1.088094e+003, 1.386654e+002
1.088577e+003, 1.391108e+002
1.089059e+003, 1.385637e+002
1.089541e+003, 1.374776e+002
1.090023e+003, 1.368445e+002
1.090505e+003, 1.368660e+002
1.090987e+003, 1.372535e+002
1.091469e+003, 1.385179e+002
1.091951e+003, 1.393056e+002
1.092433e+003, 1.385882e+002
1.092916e+003, 1.376102e+002
1.093398e+003, 1.374103e+002
1.093880e+003, 1.376232e+002
1.094362e+003, 1.373987e+002
1.094844e+003, 1.366812e+002
1.095326e+003, 1.364709e+002
1.095808e+003, 1.376909e+002
1.096290e+003, 1.385633e+002
1.096772e+003, 1.383042e+002
1.097255e+003, 1.377354e+002
1.097737e+003, 1.370300e+002
1.098219e+003, 1.365477e+002
1.098701e+003, 1.369316e+002
1.099183e+003, 1.380458e+002
1.099665e+003, 1.387108e+002
1.100147e+003, 1.384302e+002
1.100629e+003, 1.381559e+002
1.101112e+003, 1.381897e+002
1.101594e+003, 1.382145e+002
1.102076e+003, 1.380894e+002
1.102558e+003, 1.378637e+002
1.103040e+003, 1.374660e+002
1.103522e+003, 1.370166e+002
1.104004e+003, 1.369816e+002
1.104486e+003, 1.376645e+002
1.104969e+003, 1.380012e+002
1.105451e+003, 1.372576e+002
1.105933e+003, 1.368518e+002
1.106415e+003, 1.378814e+002
1.106897e+003, 1.388862e+002
1.107379e+003, 1.383576e+002
1.107861e+003, 1.369546e+002
1.108343e+003, 1.364254e+002
1.108825e+003, 1.370822e+002
1.109307e+003, 1.375324e+002
1.109790e+003, 1.376930e+002
1.110272e+003, 1.375828e+002
1.110754e+003, 1.368033e+002
1.111236e+003, 1.361779e+002
1.111718e+003, 1.364159e+002
1.112200e+003, 1.370224e+002
1.112682e+003, 1.371466e+002
1.113164e+003, 1.367498e+002
1.113647e+003, 1.365107e+002
1.114129e+003, 1.367458e+002
1.114611e+003, 1.366004e+002
1.115093e+003, 1.354385e+002
1.115575e+003, 1.346915e+002
1.116057e+003, 1.352837e+002
1.116539e+003, 1.363005e+002
1.117021e+003, 1.367191e+002
1.117504e+003, 1.366063e+002
1.117986e+003, 1.364329e+002
1.118468e+003, 1.360044e+002
1.118950e+003, 1.359898e+002
1.119432e+003, 1.365347e+002
1.119914e+003, 1.372245e+002
1.120396e+003, 1.380069e+002
1.120878e+003, 1.388044e+002
1.121360e+003, 1.397569e+002
1.121843e+003, 1.405230e+002
1.122325e+003, 1.399097e+002
1.122807e+003, 1.374713e+002
1.123289e+003, 1.364942e+002
1.123771e+003, 1.374942e+002
1.124253e+003, 1.381792e+002
1.124735e+003, 1.380031e+002
1.125217e+003, 1.375847e+002
1.125699e+003, 1.372383e+002
1.126182e+003, 1.370590e+002
1.126664e+003, 1.372764e+002
1.127146e+003, 1.378506e+002
1.127628e+003, 1.379984e+002
1.128110e+003, 1.376600e+002
1.128592e+003, 1.374270e+002
1.129074e+003, 1.373826e+002
1.129556e+003, 1.374115e+002
1.130039e+003, 1.374792e+002
1.130521e+003, 1.374807e+002
1.131003e+003, 1.372544e+002
1.131485e+003, 1.369290e+002
1.131967e+003, 1.370332e+002
1.132449e+003, 1.375314e+002
1.132931e+003, 1.377700e+002
1.133413e+003, 1.377185e+002
1.133896e+003, 1.376873e+002
1.134378e+003, 1.377711e+002
1.134860e+003, 1.378010e+002
1.135342e+003, 1.376499e+002
1.135824e+003, 1.373462e+002
1.136306e+003, 1.368276e+002
1.136788e+003, 1.362133e+002
1.137270e+003, 1.360062e+002
1.137752e+003, 1.361431e+002
1.138234e+003, 1.363060e+002
1.138717e+003, 1.364314e+002
1.139199e+003, 1.365745e+002
1.139681e+003, 1.367647e+002
1.140163e+003, 1.368983e+002
1.140645e+003, 1.368204e+002
1.141127e+003, 1.366462e+002
1.141609e+003, 1.365474e+002
1.142091e+003, 1.365327e+002
1.142574e+003, 1.366512e+002
1.143056e+003, 1.368725e+002
1.143538e+003, 1.371269e+002
1.144020e+003, 1.373729e+002
1.144502e+003, 1.374918e+002
1.144984e+003, 1.373750e+002
1.145466e+003, 1.371576e+002
1.145948e+003, 1.367126e+002
1.146431e+003, 1.364652e+002
1.146913e+003, 1.371865e+002
1.147395e+003, 1.384101e+002
1.147877e+003, 1.394484e+002
1.148359e+003, 1.400594e+002
1.148841e+003, 1.398976e+002
1.149323e+003, 1.386826e+002
1.149805e+003, 1.375354e+002
1.150287e+003, 1.371839e+002
1.150770e+003, 1.371271e+002
1.151252e+003, 1.371833e+002
1.151734e+003, 1.371946e+002
1.152216e+003, 1.366414e+002
1.152698e+003, 1.360195e+002
1.153180e+003, 1.368039e+002
1.153662e+003, 1.392862e+002
1.154144e+003, 1.406268e+002
1.154626e+003, 1.388114e+002
1.155109e+003, 1.372259e+002
1.155591e+003, 1.371821e+002
1.156073e+003, 1.374914e+002
1.156555e+003, 1.375398e+002
1.157037e+003, 1.374182e+002
1.157519e+003, 1.372539e+002
1.158001e+003, 1.370731e+002
1.158483e+003, 1.369741e+002
1.158966e+003, 1.370712e+002
1.159448e+003, 1.370219e+002
1.159930e+003, 1.365781e+002
1.160412e+003, 1.362965e+002
1.160894e+003, 1.363484e+002
1.161376e+003, 1.365926e+002
1.161858e+003, 1.371388e+002
1.162340e+003, 1.376777e+002
1.162822e+003, 1.374240e+002
1.163305e+003, 1.362411e+002
1.163787e+003, 1.357614e+002
1.164269e+003, 1.362305e+002
1.164751e+003, 1.367146e+002
1.165233e+003, 1.371460e+002
1.165715e+003, 1.374195e+002
1.166197e+003, 1.374693e+002
1.166679e+003, 1.373682e+002
1.167161e+003, 1.371591e+002
1.167644e+003, 1.369167e+002
1.168126e+003, 1.370284e+002
1.168608e+003, 1.375169e+002
1.169090e+003, 1.375555e+002
1.169572e+003, 1.370913e+002
1.170054e+003, 1.368918e+002
1.170536e+003, 1.371706e+002
1.171018e+003, 1.375421e+002
1.171500e+003, 1.377514e+002
1.171983e+003, 1.378306e+002
1.172465e+003, 1.377686e+002
1.172947e+003, 1.376435e+002
1.173429e+003, 1.377949e+002
1.173911e+003, 1.381145e+002
1.174393e+003, 1.381669e+002
1.174875e+003, 1.379426e+002
1.175357e+003, 1.376587e+002
1.175840e+003, 1.374151e+002
1.176322e+003, 1.373625e+002
1.176804e+003, 1.376877e+002
1.177286e+003, 1.381192e+002
1.177768e+003, 1.383480e+002
1.178250e+003, 1.384462e+002
1.178732e+003, 1.385535e+002
1.179214e+003, 1.385976e+002
1.179697e+003, 1.382893e+002
1.180179e+003, 1.377337e+002
1.180661e+003, 1.375725e+002
1.181143e+003, 1.381390e+002
1.181625e+003, 1.385506e+002
1.182107e+003, 1.379580e+002
1.182589e+003, 1.374099e+002
1.183071e+003, 1.378265e+002
1.183553e+003, 1.384046e+002
1.184036e+003, 1.382808e+002
1.184518e+003, 1.377610e+002
1.185000e+003, 1.375303e+002
1.185482e+003, 1.376748e+002
1.185964e+003, 1.377916e+002
1.186446e+003, 1.377189e+002
1.186928e+003, 1.377284e+002
1.187410e+003, 1.380779e+002
1.187892e+003, 1.382551e+002
1.188375e+003, 1.378190e+002
1.188857e+003, 1.373131e+002
1.189339e+003, 1.371806e+002
1.189821e+003, 1.373905e+002
1.190303e+003, 1.379453e+002
1.190785e+003, 1.390195e+002
1.191267e+003, 1.393668e+002
1.191749e+003, 1.387042e+002
1.192232e+003, 1.380824e+002
1.192714e+003, 1.376097e+002
1.193196e+003, 1.373667e+002
1.193678e+003, 1.374114e+002
1.194160e+003, 1.376715e+002
1.194642e+003, 1.381201e+002
1.195124e+003, 1.386356e+002
1.195606e+003, 1.386740e+002
1.196089e+003, 1.382576e+002
1.196571e+003, 1.379559e+002
1.197053e+003, 1.378019e+002
1.197535e+003, 1.379153e+002
1.198017e+003, 1.383112e+002
1.198499e+003, 1.387532e+002
1.198981e+003, 1.391088e+002
1.199463e+003, 1.392353e+002
1.199945e+003, 1.387982e+002
1.200427e+003, 1.381121e+002
1.200910e+003, 1.377663e+002
1.201392e+003, 1.376787e+002
1.201874e+003, 1.377368e+002
1.202356e+003, 1.378662e+002
1.202838e+003, 1.378862e+002
1.203320e+003, 1.377772e+002
1.203802e+003, 1.377791e+002
1.204284e+003, 1.380684e+002
1.204767e+003, 1.383956e+002
1.205249e+003, 1.385564e+002
1.205731e+003, 1.386918e+002
1.206213e+003, 1.390526e+002
1.206695e+003, 1.393541e+002
1.207177e+003, 1.391146e+002
1.207659e+003, 1.385461e+002
1.208141e+003, 1.382999e+002
1.208624e+003, 1.385251e+002
1.209106e+003, 1.386807e+002
1.209588e+003, 1.386307e+002
1.210070e+003, 1.385095e+002
1.210552e+003, 1.380442e+002
1.211034e+003, 1.378715e+002
1.211516e+003, 1.387617e+002
1.211998e+003, 1.396969e+002
1.212480e+003, 1.394929e+002
1.212963e+003, 1.385153e+002
1.213445e+003, 1.381958e+002
1.213927e+003, 1.387211e+002
1.214409e+003, 1.389302e+002
1.214891e+003, 1.387086e+002
1.215373e+003, 1.386593e+002
1.215855e+003, 1.389594e+002
1.216337e+003, 1.390886e+002
1.216819e+003, 1.387275e+002
1.217302e+003, 1.383169e+002
1.217784e+003, 1.384325e+002
1.218266e+003, 1.388664e+002
1.218748e+003, 1.389773e+002
1.219230e+003, 1.388196e+002
1.219712e+003, 1.385288e+002
1.220194e+003, 1.382106e+002
1.220676e+003, 1.384774e+002
1.221159e+003, 1.393353e+002
1.221641e+003, 1.398759e+002
1.222123e+003, 1.396040e+002
1.222605e+003, 1.390448e+002
1.223087e+003, 1.385047e+002
1.223569e+003, 1.381792e+002
1.224051e+003, 1.385086e+002
1.224533e+003, 1.390211e+002
1.225016e+003, 1.390145e+002
1.225498e+003, 1.387255e+002
1.225980e+003, 1.388035e+002
1.226462e+003, 1.392598e+002
1.226944e+003, 1.394008e+002
1.227426e+003, 1.388097e+002
1.227908e+003, 1.384070e+002
1.228390e+003, 1.386841e+002
1.228872e+003, 1.389798e+002
1.229354e+003, 1.388148e+002
1.229837e+003, 1.387603e+002
1.230319e+003, 1.396026e+002
1.230801e+003, 1.406954e+002
1.231283e+003, 1.408255e+002
1.231765e+003, 1.400255e+002
1.232247e+003, 1.393582e+002
1.232729e+003, 1.387273e+002
1.233211e+003, 1.385781e+002
1.233694e+003, 1.390773e+002
1.234176e+003, 1.395672e+002
1.234658e+003, 1.398976e+002
1.235140e+003, 1.398970e+002
1.235622e+003, 1.393479e+002
1.236104e+003, 1.387983e+002
1.236586e+003, 1.393523e+002
1.237068e+003, 1.406257e+002
1.237551e+003, 1.409154e+002
1.238033e+003, 1.404541e+002
1.238515e+003, 1.402826e+002
1.238997e+003, 1.404392e+002
1.239479e+003, 1.405030e+002
1.239961e+003, 1.403635e+002
1.240443e+003, 1.402314e+002
1.240925e+003, 1.402503e+002
1.241407e+003, 1.402675e+002
1.241890e+003, 1.401779e+002
1.242372e+003, 1.399738e+002
1.242854e+003, 1.395430e+002
1.243336e+003, 1.390744e+002
1.243818e+003, 1.387140e+002
1.244300e+003, 1.385342e+002
1.244782e+003, 1.386483e+002
1.245264e+003, 1.390616e+002
1.245746e+003, 1.396144e+002
1.246229e+003, 1.407027e+002
1.246711e+003, 1.411153e+002
1.247193e+003, 1.398762e+002
1.247675e+003, 1.389805e+002
1.248157e+003, 1.392752e+002
1.248639e+003, 1.399321e+002
1.249121e+003, 1.405306e+002
1.249603e+003, 1.409599e+002
1.250085e+003, 1.409812e+002
1.250568e+003, 1.406213e+002
1.251050e+003, 1.403549e+002
1.251532e+003, 1.401822e+002
1.252014e+003, 1.400947e+002
1.252496e+003, 1.400912e+002
1.252978e+003, 1.402133e+002
1.253460e+003, 1.404720e+002
1.253942e+003, 1.405444e+002
1.254425e+003, 1.401725e+002
1.254907e+003, 1.398846e+002
1.255389e+003, 1.407535e+002
1.255871e+003, 1.419563e+002
1.256353e+003, 1.416763e+002
1.256835e+003, 1.407229e+002
1.257317e+003, 1.406396e+002
1.257799e+003, 1.412236e+002
1.258281e+003, 1.416243e+002
1.258764e+003, 1.416688e+002
1.259246e+003, 1.416572e+002
1.259728e+003, 1.416947e+002
1.260210e+003, 1.417744e+002
1.260692e+003, 1.419586e+002
1.261174e+003, 1.420987e+002
1.261656e+003, 1.420973e+002
1.262138e+003, 1.420528e+002
1.262620e+003, 1.420999e+002
1.263103e+003, 1.421165e+002
1.263585e+003, 1.417964e+002
1.264067e+003, 1.412224e+002
1.264549e+003, 1.411502e+002
1.265031e+003, 1.418078e+002
1.265513e+003, 1.421578e+002
1.265995e+003, 1.421000e+002
1.266477e+003, 1.421922e+002
1.266960e+003, 1.426047e+002
1.267442e+003, 1.428206e+002
1.267924e+003, 1.425325e+002
1.268406e+003, 1.421010e+002
1.268888e+003, 1.419742e+002
1.269370e+003, 1.419743e+002
1.269852e+003, 1.415060e+002
1.270334e+003, 1.409107e+002
1.270817e+003, 1.412892e+002
1.271299e+003, 1.422409e+002
1.271781e+003, 1.424952e+002
1.272263e+003, 1.420290e+002
1.272745e+003, 1.416975e+002
1.273227e+003, 1.418280e+002
1.273709e+003, 1.421254e+002
1.274191e+003, 1.426345e+002
1.274673e+003, 1.429609e+002
1.275156e+003, 1.428309e+002
1.275638e+003, 1.425418e+002
1.276120e+003, 1.420898e+002
1.276602e+003, 1.417439e+002
1.277084e+003, 1.418422e+002
1.277566e+003, 1.422879e+002
1.278048e+003, 1.427794e+002
1.278530e+003, 1.433681e+002
1.279012e+003, 1.434507e+002
1.279495e+003, 1.427254e+002
1.279977e+003, 1.426708e+002
1.280459e+003, 1.436403e+002
1.280941e+003, 1.441964e+002
1.281423e+003, 1.437698e+002
1.281905e+003, 1.432350e+002
1.282387e+003, 1.432772e+002
1.282869e+003, 1.436556e+002
1.283352e+003, 1.441034e+002
1.283834e+003, 1.444860e+002
1.284316e+003, 1.445020e+002
1.284798e+003, 1.441584e+002
##END=



