##NAMES=Annite
##RRUFFID=R060211
##IDEAL CHEMISTRY=KFe^2+^_3_AlSi_3_O_10_(OH)_2_
##LOCALITY=Mont Saint-Hilaire, Rouville County, Quebec, Canada
##OWNER=RRUFF
##SOURCE=Royal Ontario Museum
##DESCRIPTION=Black mica
##STATUS=The identification of this mineral has been confirmed by X-ray diffraction and chemical analysis
##URL=rruff.info/R060211
##MEASURED CHEMISTRY=(K_0.94_[box]_0.03_Na_0.02_)_Σ=1_(Fe^2+^_2.07_Mg_0.57_Mn_0.33_Ti_0.03_)_Σ=3_(Si_2.98_Al_1.02_)O_10_((OH)_1.72_F_0.28_)_Σ=2_
8.806445e+001, 7.776102e+002
8.854657e+001, 7.760186e+002
8.902869e+001, 7.755040e+002
8.951080e+001, 7.763930e+002
8.999292e+001, 7.782035e+002
9.047504e+001, 7.809158e+002
9.095715e+001, 7.848318e+002
9.143927e+001, 7.883898e+002
9.192139e+001, 7.887137e+002
9.240350e+001, 7.858330e+002
9.288562e+001, 7.835281e+002
9.336774e+001, 7.787639e+002
9.384985e+001, 7.664615e+002
9.433197e+001, 7.453842e+002
9.481409e+001, 7.262482e+002
9.529620e+001, 7.061733e+002
9.577832e+001, 6.868380e+002
9.626044e+001, 6.684890e+002
9.674255e+001, 6.518039e+002
9.722467e+001, 6.375039e+002
9.770679e+001, 6.255702e+002
9.818890e+001, 6.152480e+002
9.867102e+001, 6.066101e+002
9.915314e+001, 5.987911e+002
9.963525e+001, 5.911605e+002
1.001174e+002, 5.834161e+002
1.005995e+002, 5.754694e+002
1.010816e+002, 5.669785e+002
1.015637e+002, 5.557540e+002
1.020458e+002, 5.461583e+002
1.025280e+002, 5.393301e+002
1.030101e+002, 5.342677e+002
1.034922e+002, 5.291530e+002
1.039743e+002, 5.225722e+002
1.044564e+002, 5.145075e+002
1.049385e+002, 5.094222e+002
1.054207e+002, 5.090875e+002
1.059028e+002, 5.093536e+002
1.063849e+002, 5.086625e+002
1.068670e+002, 5.067617e+002
1.073491e+002, 5.032138e+002
1.078312e+002, 4.968727e+002
1.083134e+002, 4.879051e+002
1.087955e+002, 4.799908e+002
1.092776e+002, 4.736621e+002
1.097597e+002, 4.685966e+002
1.102418e+002, 4.644899e+002
1.107239e+002, 4.615206e+002
1.112061e+002, 4.590215e+002
1.116882e+002, 4.562063e+002
1.121703e+002, 4.531884e+002
1.126524e+002, 4.507298e+002
1.131345e+002, 4.497011e+002
1.136166e+002, 4.499799e+002
1.140988e+002, 4.495294e+002
1.145809e+002, 4.478272e+002
1.150630e+002, 4.454587e+002
1.155451e+002, 4.425163e+002
1.160272e+002, 4.390805e+002
1.165093e+002, 4.355490e+002
1.169915e+002, 4.324116e+002
1.174736e+002, 4.298237e+002
1.179557e+002, 4.272423e+002
1.184378e+002, 4.243161e+002
1.189199e+002, 4.215636e+002
1.194020e+002, 4.194773e+002
1.198842e+002, 4.181848e+002
1.203663e+002, 4.173004e+002
1.208484e+002, 4.159345e+002
1.213305e+002, 4.130733e+002
1.218126e+002, 4.108672e+002
1.222947e+002, 4.100811e+002
1.227769e+002, 4.098190e+002
1.232590e+002, 4.089318e+002
1.237411e+002, 4.067957e+002
1.242232e+002, 4.036558e+002
1.247053e+002, 4.005484e+002
1.251874e+002, 3.969641e+002
1.256696e+002, 3.939134e+002
1.261517e+002, 3.920400e+002
1.266338e+002, 3.911241e+002
1.271159e+002, 3.901617e+002
1.275980e+002, 3.884285e+002
1.280801e+002, 3.862182e+002
1.285623e+002, 3.845440e+002
1.290444e+002, 3.838781e+002
1.295265e+002, 3.834576e+002
1.300086e+002, 3.826100e+002
1.304907e+002, 3.813372e+002
1.309728e+002, 3.796259e+002
1.314550e+002, 3.769909e+002
1.319371e+002, 3.739774e+002
1.324192e+002, 3.713596e+002
1.329013e+002, 3.695527e+002
1.333834e+002, 3.683421e+002
1.338655e+002, 3.671368e+002
1.343477e+002, 3.660820e+002
1.348298e+002, 3.647875e+002
1.353119e+002, 3.628780e+002
1.357940e+002, 3.606540e+002
1.362761e+002, 3.586593e+002
1.367582e+002, 3.572741e+002
1.372404e+002, 3.565119e+002
1.377225e+002, 3.560923e+002
1.382046e+002, 3.570200e+002
1.386867e+002, 3.574114e+002
1.391688e+002, 3.564713e+002
1.396509e+002, 3.543534e+002
1.401331e+002, 3.517526e+002
1.406152e+002, 3.493249e+002
1.410973e+002, 3.471236e+002
1.415794e+002, 3.449893e+002
1.420615e+002, 3.425952e+002
1.425436e+002, 3.404767e+002
1.430258e+002, 3.391598e+002
1.435079e+002, 3.386584e+002
1.439900e+002, 3.383197e+002
1.444721e+002, 3.372128e+002
1.449542e+002, 3.348247e+002
1.454363e+002, 3.329776e+002
1.459185e+002, 3.320303e+002
1.464006e+002, 3.315287e+002
1.468827e+002, 3.310938e+002
1.473648e+002, 3.306852e+002
1.478469e+002, 3.300048e+002
1.483290e+002, 3.282024e+002
1.488112e+002, 3.251101e+002
1.492933e+002, 3.225552e+002
1.497754e+002, 3.217121e+002
1.502575e+002, 3.219945e+002
1.507396e+002, 3.215882e+002
1.512217e+002, 3.196362e+002
1.517039e+002, 3.171388e+002
1.521860e+002, 3.154043e+002
1.526681e+002, 3.144901e+002
1.531502e+002, 3.138223e+002
1.536323e+002, 3.130503e+002
1.541144e+002, 3.121813e+002
1.545966e+002, 3.111233e+002
1.550787e+002, 3.098383e+002
1.555608e+002, 3.083437e+002
1.560429e+002, 3.065373e+002
1.565250e+002, 3.043773e+002
1.570071e+002, 3.022093e+002
1.574893e+002, 3.005905e+002
1.579714e+002, 2.998180e+002
1.584535e+002, 2.987939e+002
1.589356e+002, 2.971690e+002
1.594177e+002, 2.953336e+002
1.598998e+002, 2.935215e+002
1.603820e+002, 2.918312e+002
1.608641e+002, 2.903031e+002
1.613462e+002, 2.890687e+002
1.618283e+002, 2.884782e+002
1.623104e+002, 2.876970e+002
1.627925e+002, 2.866567e+002
1.632747e+002, 2.854012e+002
1.637568e+002, 2.839446e+002
1.642389e+002, 2.822990e+002
1.647210e+002, 2.805042e+002
1.652031e+002, 2.787352e+002
1.656852e+002, 2.766846e+002
1.661674e+002, 2.750034e+002
1.666495e+002, 2.740203e+002
1.671316e+002, 2.734633e+002
1.676137e+002, 2.728416e+002
1.680958e+002, 2.718315e+002
1.685779e+002, 2.705563e+002
1.690601e+002, 2.697869e+002
1.695422e+002, 2.703026e+002
1.700243e+002, 2.704367e+002
1.705064e+002, 2.693268e+002
1.709885e+002, 2.671888e+002
1.714706e+002, 2.648615e+002
1.719528e+002, 2.627168e+002
1.724349e+002, 2.608598e+002
1.729170e+002, 2.594577e+002
1.733991e+002, 2.588015e+002
1.738812e+002, 2.583547e+002
1.743633e+002, 2.577268e+002
1.748455e+002, 2.569126e+002
1.753276e+002, 2.560631e+002
1.758097e+002, 2.554162e+002
1.762918e+002, 2.547526e+002
1.767739e+002, 2.536377e+002
1.772560e+002, 2.516387e+002
1.777382e+002, 2.493948e+002
1.782203e+002, 2.478447e+002
1.787024e+002, 2.471407e+002
1.791845e+002, 2.466542e+002
1.796666e+002, 2.463145e+002
1.801487e+002, 2.459323e+002
1.806309e+002, 2.452061e+002
1.811130e+002, 2.438670e+002
1.815951e+002, 2.421835e+002
1.820772e+002, 2.409207e+002
1.825593e+002, 2.404625e+002
1.830414e+002, 2.397927e+002
1.835236e+002, 2.382974e+002
1.840057e+002, 2.364489e+002
1.844878e+002, 2.349408e+002
1.849699e+002, 2.342488e+002
1.854520e+002, 2.342184e+002
1.859341e+002, 2.338634e+002
1.864163e+002, 2.330036e+002
1.868984e+002, 2.319726e+002
1.873805e+002, 2.307145e+002
1.878626e+002, 2.293495e+002
1.883447e+002, 2.280503e+002
1.888268e+002, 2.269210e+002
1.893090e+002, 2.259659e+002
1.897911e+002, 2.251944e+002
1.902732e+002, 2.249820e+002
1.907553e+002, 2.245753e+002
1.912374e+002, 2.236222e+002
1.917195e+002, 2.222944e+002
1.922017e+002, 2.209948e+002
1.926838e+002, 2.200426e+002
1.931659e+002, 2.194485e+002
1.936480e+002, 2.187744e+002
1.941301e+002, 2.177345e+002
1.946122e+002, 2.168967e+002
1.950944e+002, 2.167507e+002
1.955765e+002, 2.171051e+002
1.960586e+002, 2.172471e+002
1.965407e+002, 2.165428e+002
1.970228e+002, 2.149435e+002
1.975049e+002, 2.136890e+002
1.979871e+002, 2.129002e+002
1.984692e+002, 2.123059e+002
1.989513e+002, 2.118364e+002
1.994334e+002, 2.114599e+002
1.999155e+002, 2.110004e+002
2.003976e+002, 2.102460e+002
2.008798e+002, 2.092371e+002
2.013619e+002, 2.085026e+002
2.018440e+002, 2.082647e+002
2.023261e+002, 2.081830e+002
2.028082e+002, 2.079688e+002
2.032903e+002, 2.076044e+002
2.037725e+002, 2.072015e+002
2.042546e+002, 2.068784e+002
2.047367e+002, 2.065887e+002
2.052188e+002, 2.061954e+002
2.057009e+002, 2.055776e+002
2.061830e+002, 2.048814e+002
2.066652e+002, 2.043031e+002
2.071473e+002, 2.038612e+002
2.076294e+002, 2.034775e+002
2.081115e+002, 2.031817e+002
2.085936e+002, 2.029021e+002
2.090757e+002, 2.025044e+002
2.095579e+002, 2.018596e+002
2.100400e+002, 2.010997e+002
2.105221e+002, 2.004864e+002
2.110042e+002, 2.000530e+002
2.114863e+002, 1.996977e+002
2.119685e+002, 1.993954e+002
2.124506e+002, 1.991225e+002
2.129327e+002, 1.988568e+002
2.134148e+002, 1.986160e+002
2.138969e+002, 1.983591e+002
2.143790e+002, 1.979409e+002
2.148612e+002, 1.972271e+002
2.153433e+002, 1.965691e+002
2.158254e+002, 1.961110e+002
2.163075e+002, 1.957737e+002
2.167896e+002, 1.954571e+002
2.172717e+002, 1.951241e+002
2.177539e+002, 1.947590e+002
2.182360e+002, 1.942889e+002
2.187181e+002, 1.936086e+002
2.192002e+002, 1.929587e+002
2.196823e+002, 1.922872e+002
2.201644e+002, 1.917027e+002
2.206466e+002, 1.914157e+002
2.211287e+002, 1.916011e+002
2.216108e+002, 1.921168e+002
2.220929e+002, 1.921351e+002
2.225750e+002, 1.908105e+002
2.230571e+002, 1.899084e+002
2.235393e+002, 1.901006e+002
2.240214e+002, 1.908271e+002
2.245035e+002, 1.912402e+002
2.249856e+002, 1.908074e+002
2.254677e+002, 1.897012e+002
2.259498e+002, 1.890128e+002
2.264320e+002, 1.892396e+002
2.269141e+002, 1.893554e+002
2.273962e+002, 1.890674e+002
2.278783e+002, 1.885793e+002
2.283604e+002, 1.882497e+002
2.288425e+002, 1.883037e+002
2.293247e+002, 1.886397e+002
2.298068e+002, 1.886632e+002
2.302889e+002, 1.879548e+002
2.307710e+002, 1.874333e+002
2.312531e+002, 1.875124e+002
2.317352e+002, 1.878853e+002
2.322174e+002, 1.879715e+002
2.326995e+002, 1.874282e+002
2.331816e+002, 1.864298e+002
2.336637e+002, 1.857558e+002
2.341458e+002, 1.856023e+002
2.346279e+002, 1.854749e+002
2.351101e+002, 1.852642e+002
2.355922e+002, 1.849928e+002
2.360743e+002, 1.846837e+002
2.365564e+002, 1.843274e+002
2.370385e+002, 1.839790e+002
2.375206e+002, 1.838466e+002
2.380028e+002, 1.840543e+002
2.384849e+002, 1.842317e+002
2.389670e+002, 1.843321e+002
2.394491e+002, 1.843151e+002
2.399312e+002, 1.840375e+002
2.404133e+002, 1.833629e+002
2.408955e+002, 1.825106e+002
2.413776e+002, 1.819752e+002
2.418597e+002, 1.818346e+002
2.423418e+002, 1.817464e+002
2.428239e+002, 1.815795e+002
2.433060e+002, 1.813578e+002
2.437882e+002, 1.811596e+002
2.442703e+002, 1.810476e+002
2.447524e+002, 1.809179e+002
2.452345e+002, 1.805926e+002
2.457166e+002, 1.800456e+002
2.461987e+002, 1.794819e+002
2.466809e+002, 1.789431e+002
2.471630e+002, 1.784567e+002
2.476451e+002, 1.781597e+002
2.481272e+002, 1.782357e+002
2.486093e+002, 1.783070e+002
2.490914e+002, 1.779040e+002
2.495736e+002, 1.770282e+002
2.500557e+002, 1.760750e+002
2.505378e+002, 1.751493e+002
2.510199e+002, 1.742984e+002
2.515020e+002, 1.737278e+002
2.519841e+002, 1.735598e+002
2.524663e+002, 1.735838e+002
2.529484e+002, 1.736952e+002
2.534305e+002, 1.738662e+002
2.539126e+002, 1.738339e+002
2.543947e+002, 1.731624e+002
2.548768e+002, 1.720654e+002
2.553590e+002, 1.716714e+002
2.558411e+002, 1.726621e+002
2.563232e+002, 1.735875e+002
2.568053e+002, 1.733968e+002
2.572874e+002, 1.723013e+002
2.577695e+002, 1.710547e+002
2.582516e+002, 1.699886e+002
2.587338e+002, 1.691138e+002
2.592159e+002, 1.685310e+002
2.596980e+002, 1.682979e+002
2.601801e+002, 1.683102e+002
2.606622e+002, 1.685733e+002
2.611443e+002, 1.690004e+002
2.616265e+002, 1.694171e+002
2.621086e+002, 1.698499e+002
2.625907e+002, 1.701995e+002
2.630728e+002, 1.699331e+002
2.635549e+002, 1.686092e+002
2.640370e+002, 1.673218e+002
2.645192e+002, 1.664922e+002
2.650013e+002, 1.659951e+002
2.654834e+002, 1.656370e+002
2.659655e+002, 1.653471e+002
2.664476e+002, 1.650964e+002
2.669297e+002, 1.647827e+002
2.674119e+002, 1.644192e+002
2.678940e+002, 1.639600e+002
2.683761e+002, 1.633631e+002
2.688582e+002, 1.626921e+002
2.693403e+002, 1.620132e+002
2.698224e+002, 1.613563e+002
2.703046e+002, 1.607259e+002
2.707867e+002, 1.601031e+002
2.712688e+002, 1.593225e+002
2.717509e+002, 1.588801e+002
2.722330e+002, 1.589956e+002
2.727151e+002, 1.593797e+002
2.731973e+002, 1.598208e+002
2.736794e+002, 1.602426e+002
2.741615e+002, 1.605246e+002
2.746436e+002, 1.603625e+002
2.751257e+002, 1.594314e+002
2.756078e+002, 1.586823e+002
2.760900e+002, 1.582577e+002
2.765721e+002, 1.580150e+002
2.770542e+002, 1.579084e+002
2.775363e+002, 1.579048e+002
2.780184e+002, 1.578824e+002
2.785005e+002, 1.576184e+002
2.789827e+002, 1.569786e+002
2.794648e+002, 1.563887e+002
2.799469e+002, 1.557763e+002
2.804290e+002, 1.552750e+002
2.809111e+002, 1.550370e+002
2.813932e+002, 1.550592e+002
2.818754e+002, 1.551627e+002
2.823575e+002, 1.551397e+002
2.828396e+002, 1.550236e+002
2.833217e+002, 1.546660e+002
2.838038e+002, 1.538303e+002
2.842859e+002, 1.529825e+002
2.847681e+002, 1.523406e+002
2.852502e+002, 1.519318e+002
2.857323e+002, 1.517016e+002
2.862144e+002, 1.516298e+002
2.866965e+002, 1.517768e+002
2.871786e+002, 1.517246e+002
2.876608e+002, 1.513897e+002
2.881429e+002, 1.509544e+002
2.886250e+002, 1.503811e+002
2.891071e+002, 1.497533e+002
2.895892e+002, 1.492583e+002
2.900714e+002, 1.490703e+002
2.905535e+002, 1.491965e+002
2.910356e+002, 1.491789e+002
2.915177e+002, 1.490148e+002
2.919998e+002, 1.487139e+002
2.924819e+002, 1.481171e+002
2.929641e+002, 1.473925e+002
2.934462e+002, 1.468666e+002
2.939283e+002, 1.467718e+002
2.944104e+002, 1.470159e+002
2.948925e+002, 1.469583e+002
2.953746e+002, 1.462338e+002
2.958568e+002, 1.455981e+002
2.963389e+002, 1.451844e+002
2.968210e+002, 1.449105e+002
2.973031e+002, 1.446586e+002
2.977852e+002, 1.443705e+002
2.982673e+002, 1.440672e+002
2.987495e+002, 1.438137e+002
2.992316e+002, 1.435841e+002
2.997137e+002, 1.434449e+002
3.001958e+002, 1.435395e+002
3.006779e+002, 1.436565e+002
3.011600e+002, 1.435513e+002
3.016422e+002, 1.431518e+002
3.021243e+002, 1.426177e+002
3.026064e+002, 1.422489e+002
3.030885e+002, 1.422380e+002
3.035706e+002, 1.420492e+002
3.040527e+002, 1.414179e+002
3.045349e+002, 1.408000e+002
3.050170e+002, 1.406127e+002
3.054991e+002, 1.408894e+002
3.059812e+002, 1.412915e+002
3.064633e+002, 1.414026e+002
3.069454e+002, 1.411326e+002
3.074276e+002, 1.408673e+002
3.079097e+002, 1.405363e+002
3.083918e+002, 1.402708e+002
3.088739e+002, 1.402215e+002
3.093560e+002, 1.403338e+002
3.098381e+002, 1.403844e+002
3.103203e+002, 1.401619e+002
3.108024e+002, 1.396444e+002
3.112845e+002, 1.392287e+002
3.117666e+002, 1.389495e+002
3.122487e+002, 1.387195e+002
3.127308e+002, 1.384717e+002
3.132130e+002, 1.382481e+002
3.136951e+002, 1.381575e+002
3.141772e+002, 1.382815e+002
3.146593e+002, 1.385807e+002
3.151414e+002, 1.387780e+002
3.156235e+002, 1.388057e+002
3.161057e+002, 1.388082e+002
3.165878e+002, 1.388523e+002
3.170699e+002, 1.388711e+002
3.175520e+002, 1.387874e+002
3.180341e+002, 1.385676e+002
3.185162e+002, 1.382037e+002
3.189984e+002, 1.376655e+002
3.194805e+002, 1.363691e+002
3.199626e+002, 1.357008e+002
3.204447e+002, 1.361624e+002
3.209268e+002, 1.369822e+002
3.214089e+002, 1.374878e+002
3.218911e+002, 1.374914e+002
3.223732e+002, 1.372073e+002
3.228553e+002, 1.369398e+002
3.233374e+002, 1.367101e+002
3.238195e+002, 1.364475e+002
3.243016e+002, 1.359364e+002
3.247838e+002, 1.355640e+002
3.252659e+002, 1.357155e+002
3.257480e+002, 1.363195e+002
3.262301e+002, 1.369117e+002
3.267122e+002, 1.370274e+002
3.271943e+002, 1.366017e+002
3.276765e+002, 1.362205e+002
3.281586e+002, 1.358607e+002
3.286407e+002, 1.355602e+002
3.291228e+002, 1.353317e+002
3.296049e+002, 1.351728e+002
3.300870e+002, 1.350639e+002
3.305692e+002, 1.349848e+002
3.310513e+002, 1.349514e+002
3.315334e+002, 1.350863e+002
3.320155e+002, 1.357862e+002
3.324976e+002, 1.362105e+002
3.329797e+002, 1.361523e+002
3.334619e+002, 1.357777e+002
3.339440e+002, 1.352296e+002
3.344261e+002, 1.345716e+002
3.349082e+002, 1.339358e+002
3.353904e+002, 1.336400e+002
3.358725e+002, 1.339151e+002
3.363546e+002, 1.342027e+002
3.368367e+002, 1.345541e+002
3.373188e+002, 1.348657e+002
3.378009e+002, 1.350218e+002
3.382831e+002, 1.350132e+002
3.387652e+002, 1.349580e+002
3.392473e+002, 1.350340e+002
3.397294e+002, 1.353464e+002
3.402115e+002, 1.354525e+002
3.406936e+002, 1.352294e+002
3.411758e+002, 1.349383e+002
3.416579e+002, 1.346866e+002
3.421400e+002, 1.344807e+002
3.426221e+002, 1.342737e+002
3.431042e+002, 1.340011e+002
3.435863e+002, 1.336626e+002
3.440685e+002, 1.335557e+002
3.445506e+002, 1.340211e+002
3.450327e+002, 1.343820e+002
3.455148e+002, 1.344922e+002
3.459969e+002, 1.343981e+002
3.464790e+002, 1.341373e+002
3.469612e+002, 1.337042e+002
3.474433e+002, 1.332254e+002
3.479254e+002, 1.331426e+002
3.484075e+002, 1.338873e+002
3.488896e+002, 1.343200e+002
3.493717e+002, 1.340728e+002
3.498539e+002, 1.335992e+002
3.503360e+002, 1.332674e+002
3.508181e+002, 1.331968e+002
3.513002e+002, 1.333051e+002
3.517823e+002, 1.335245e+002
3.522644e+002, 1.339563e+002
3.527466e+002, 1.341634e+002
3.532287e+002, 1.339051e+002
3.537108e+002, 1.336003e+002
3.541929e+002, 1.334272e+002
3.546750e+002, 1.334080e+002
3.551571e+002, 1.335101e+002
3.556393e+002, 1.337958e+002
3.561214e+002, 1.342629e+002
3.566035e+002, 1.343270e+002
3.570856e+002, 1.335224e+002
3.575677e+002, 1.328638e+002
3.580498e+002, 1.327428e+002
3.585320e+002, 1.330032e+002
3.590141e+002, 1.333885e+002
3.594962e+002, 1.338047e+002
3.599783e+002, 1.341916e+002
3.604604e+002, 1.343888e+002
3.609425e+002, 1.343869e+002
3.614247e+002, 1.342048e+002
3.619068e+002, 1.337037e+002
3.623889e+002, 1.331156e+002
3.628710e+002, 1.326218e+002
3.633531e+002, 1.322683e+002
3.638352e+002, 1.320637e+002
3.643174e+002, 1.320468e+002
3.647995e+002, 1.322329e+002
3.652816e+002, 1.324572e+002
3.657637e+002, 1.327962e+002
3.662458e+002, 1.330671e+002
3.667279e+002, 1.331010e+002
3.672101e+002, 1.329298e+002
3.676922e+002, 1.327749e+002
3.681743e+002, 1.328558e+002
3.686564e+002, 1.330986e+002
3.691385e+002, 1.331392e+002
3.696206e+002, 1.328627e+002
3.701028e+002, 1.325813e+002
3.705849e+002, 1.325587e+002
3.710670e+002, 1.326527e+002
3.715491e+002, 1.325949e+002
3.720312e+002, 1.321933e+002
3.725133e+002, 1.316923e+002
3.729955e+002, 1.314445e+002
3.734776e+002, 1.314708e+002
3.739597e+002, 1.315605e+002
3.744418e+002, 1.317078e+002
3.749239e+002, 1.318219e+002
3.754060e+002, 1.317407e+002
3.758882e+002, 1.313824e+002
3.763703e+002, 1.311210e+002
3.768524e+002, 1.313408e+002
3.773345e+002, 1.319074e+002
3.778166e+002, 1.322459e+002
3.782987e+002, 1.321628e+002
3.787809e+002, 1.319342e+002
3.792630e+002, 1.319300e+002
3.797451e+002, 1.321122e+002
3.802272e+002, 1.320756e+002
3.807093e+002, 1.314264e+002
3.811914e+002, 1.306068e+002
3.816736e+002, 1.302473e+002
3.821557e+002, 1.304106e+002
3.826378e+002, 1.306820e+002
3.831199e+002, 1.308102e+002
3.836020e+002, 1.308004e+002
3.840841e+002, 1.307332e+002
3.845663e+002, 1.305887e+002
3.850484e+002, 1.304087e+002
3.855305e+002, 1.301095e+002
3.860126e+002, 1.297758e+002
3.864947e+002, 1.296945e+002
3.869768e+002, 1.300150e+002
3.874590e+002, 1.305860e+002
3.879411e+002, 1.311370e+002
3.884232e+002, 1.317474e+002
3.889053e+002, 1.321309e+002
3.893874e+002, 1.321539e+002
3.898695e+002, 1.319565e+002
3.903517e+002, 1.316386e+002
3.908338e+002, 1.312287e+002
3.913159e+002, 1.308505e+002
3.917980e+002, 1.306314e+002
3.922801e+002, 1.305931e+002
3.927622e+002, 1.305719e+002
3.932444e+002, 1.305106e+002
3.937265e+002, 1.305178e+002
3.942086e+002, 1.307387e+002
3.946907e+002, 1.310805e+002
3.951728e+002, 1.313172e+002
3.956549e+002, 1.313180e+002
3.961371e+002, 1.311117e+002
3.966192e+002, 1.308113e+002
3.971013e+002, 1.300333e+002
3.975834e+002, 1.296462e+002
3.980655e+002, 1.301064e+002
3.985476e+002, 1.307888e+002
3.990298e+002, 1.309654e+002
3.995119e+002, 1.304864e+002
3.999940e+002, 1.298916e+002
4.004761e+002, 1.299624e+002
4.009582e+002, 1.310209e+002
4.014403e+002, 1.316050e+002
4.019225e+002, 1.315208e+002
4.024046e+002, 1.312144e+002
4.028867e+002, 1.306734e+002
4.033688e+002, 1.300706e+002
4.038509e+002, 1.297755e+002
4.043330e+002, 1.301108e+002
4.048152e+002, 1.309001e+002
4.052973e+002, 1.311117e+002
4.057794e+002, 1.302737e+002
4.062615e+002, 1.295423e+002
4.067436e+002, 1.290983e+002
4.072257e+002, 1.288704e+002
4.077079e+002, 1.288828e+002
4.081900e+002, 1.291269e+002
4.086721e+002, 1.293255e+002
4.091542e+002, 1.289820e+002
4.096363e+002, 1.279292e+002
4.101184e+002, 1.272699e+002
4.106006e+002, 1.274082e+002
4.110827e+002, 1.277195e+002
4.115648e+002, 1.280094e+002
4.120469e+002, 1.282207e+002
4.125290e+002, 1.282419e+002
4.130111e+002, 1.278977e+002
4.134933e+002, 1.273272e+002
4.139754e+002, 1.269851e+002
4.144575e+002, 1.269230e+002
4.149396e+002, 1.269555e+002
4.154217e+002, 1.271122e+002
4.159038e+002, 1.272706e+002
4.163860e+002, 1.272623e+002
4.168681e+002, 1.270139e+002
4.173502e+002, 1.267114e+002
4.178323e+002, 1.265853e+002
4.183144e+002, 1.265991e+002
4.187965e+002, 1.263892e+002
4.192787e+002, 1.256569e+002
4.197608e+002, 1.249777e+002
4.202429e+002, 1.251769e+002
4.207250e+002, 1.261637e+002
4.212071e+002, 1.267877e+002
4.216892e+002, 1.263276e+002
4.221714e+002, 1.254335e+002
4.226535e+002, 1.249801e+002
4.231356e+002, 1.250316e+002
4.236177e+002, 1.252150e+002
4.240998e+002, 1.253302e+002
4.245819e+002, 1.253718e+002
4.250641e+002, 1.253454e+002
4.255462e+002, 1.251758e+002
4.260283e+002, 1.250351e+002
4.265104e+002, 1.251110e+002
4.269925e+002, 1.252533e+002
4.274746e+002, 1.251450e+002
4.279568e+002, 1.246665e+002
4.284389e+002, 1.239998e+002
4.289210e+002, 1.233867e+002
4.294031e+002, 1.227831e+002
4.298852e+002, 1.224093e+002
4.303673e+002, 1.225535e+002
4.308495e+002, 1.226962e+002
4.313316e+002, 1.223513e+002
4.318137e+002, 1.216236e+002
4.322958e+002, 1.210643e+002
4.327779e+002, 1.211085e+002
4.332600e+002, 1.216473e+002
4.337422e+002, 1.217958e+002
4.342243e+002, 1.211524e+002
4.347064e+002, 1.205807e+002
4.351885e+002, 1.202620e+002
4.356706e+002, 1.200294e+002
4.361527e+002, 1.196386e+002
4.366349e+002, 1.190387e+002
4.371170e+002, 1.184726e+002
4.375991e+002, 1.183430e+002
4.380812e+002, 1.188368e+002
4.385633e+002, 1.190768e+002
4.390454e+002, 1.188748e+002
4.395276e+002, 1.185893e+002
4.400097e+002, 1.183292e+002
4.404918e+002, 1.180982e+002
4.409739e+002, 1.178637e+002
4.414560e+002, 1.176009e+002
4.419381e+002, 1.173308e+002
4.424203e+002, 1.171200e+002
4.429024e+002, 1.169982e+002
4.433845e+002, 1.168609e+002
4.438666e+002, 1.166718e+002
4.443487e+002, 1.164580e+002
4.448308e+002, 1.161921e+002
4.453130e+002, 1.158721e+002
4.457951e+002, 1.156655e+002
4.462772e+002, 1.158205e+002
4.467593e+002, 1.162460e+002
4.472414e+002, 1.164451e+002
4.477235e+002, 1.162958e+002
4.482057e+002, 1.160547e+002
4.486878e+002, 1.158792e+002
4.491699e+002, 1.157601e+002
4.496520e+002, 1.156921e+002
4.501341e+002, 1.156938e+002
4.506162e+002, 1.157261e+002
4.510984e+002, 1.157673e+002
4.515805e+002, 1.158127e+002
4.520626e+002, 1.158396e+002
4.525447e+002, 1.158507e+002
4.530268e+002, 1.158207e+002
4.535089e+002, 1.156487e+002
4.539911e+002, 1.152632e+002
4.544732e+002, 1.150688e+002
4.549553e+002, 1.153198e+002
4.554374e+002, 1.157103e+002
4.559195e+002, 1.159501e+002
4.564016e+002, 1.160008e+002
4.568838e+002, 1.158990e+002
4.573659e+002, 1.156272e+002
4.578480e+002, 1.152088e+002
4.583301e+002, 1.150789e+002
4.588122e+002, 1.154276e+002
4.592943e+002, 1.157887e+002
4.597765e+002, 1.160795e+002
4.602586e+002, 1.163069e+002
4.607407e+002, 1.164714e+002
4.612228e+002, 1.165774e+002
4.617049e+002, 1.166669e+002
4.621870e+002, 1.168037e+002
4.626692e+002, 1.170029e+002
4.631513e+002, 1.172041e+002
4.636334e+002, 1.174094e+002
4.641155e+002, 1.176149e+002
4.645976e+002, 1.178688e+002
4.650797e+002, 1.181207e+002
4.655619e+002, 1.182542e+002
4.660440e+002, 1.181763e+002
4.665261e+002, 1.179824e+002
4.670082e+002, 1.179172e+002
4.674903e+002, 1.179614e+002
4.679724e+002, 1.181899e+002
4.684546e+002, 1.189344e+002
4.689367e+002, 1.196589e+002
4.694188e+002, 1.199189e+002
4.699009e+002, 1.196898e+002
4.703830e+002, 1.193582e+002
4.708651e+002, 1.191113e+002
4.713473e+002, 1.189878e+002
4.718294e+002, 1.192093e+002
4.723115e+002, 1.199217e+002
4.727936e+002, 1.205602e+002
4.732757e+002, 1.205515e+002
4.737578e+002, 1.202477e+002
4.742400e+002, 1.203435e+002
4.747221e+002, 1.211880e+002
4.752042e+002, 1.220438e+002
4.756863e+002, 1.223811e+002
4.761684e+002, 1.223281e+002
4.766505e+002, 1.222419e+002
4.771327e+002, 1.222193e+002
4.776148e+002, 1.222063e+002
4.780969e+002, 1.220701e+002
4.785790e+002, 1.217533e+002
4.790611e+002, 1.218352e+002
4.795432e+002, 1.228256e+002
4.800254e+002, 1.238022e+002
4.805075e+002, 1.240351e+002
4.809896e+002, 1.237357e+002
4.814717e+002, 1.236278e+002
4.819538e+002, 1.241252e+002
4.824359e+002, 1.250012e+002
4.829181e+002, 1.256097e+002
4.834002e+002, 1.258303e+002
4.838823e+002, 1.259352e+002
4.843644e+002, 1.257530e+002
4.848465e+002, 1.255919e+002
4.853286e+002, 1.257185e+002
4.858108e+002, 1.261114e+002
4.862929e+002, 1.265345e+002
4.867750e+002, 1.267756e+002
4.872571e+002, 1.268637e+002
4.877392e+002, 1.270759e+002
4.882213e+002, 1.275005e+002
4.887035e+002, 1.279051e+002
4.891856e+002, 1.281481e+002
4.896677e+002, 1.283826e+002
4.901498e+002, 1.288141e+002
4.906319e+002, 1.294929e+002
4.911140e+002, 1.301577e+002
4.915962e+002, 1.305459e+002
4.920783e+002, 1.306805e+002
4.925604e+002, 1.307213e+002
4.930425e+002, 1.306371e+002
4.935246e+002, 1.305556e+002
4.940067e+002, 1.305237e+002
4.944889e+002, 1.305638e+002
4.949710e+002, 1.307633e+002
4.954531e+002, 1.313382e+002
4.959352e+002, 1.318515e+002
4.964173e+002, 1.318115e+002
4.968994e+002, 1.313866e+002
4.973816e+002, 1.312192e+002
4.978637e+002, 1.315559e+002
4.983458e+002, 1.321261e+002
4.988279e+002, 1.325730e+002
4.993100e+002, 1.328919e+002
4.997921e+002, 1.330940e+002
5.002743e+002, 1.331813e+002
5.007564e+002, 1.331491e+002
5.012385e+002, 1.328846e+002
5.017206e+002, 1.324864e+002
5.022027e+002, 1.322318e+002
5.026848e+002, 1.322840e+002
5.031670e+002, 1.325505e+002
5.036491e+002, 1.327687e+002
5.041312e+002, 1.330105e+002
5.046133e+002, 1.330731e+002
5.050954e+002, 1.327467e+002
5.055775e+002, 1.324187e+002
5.060597e+002, 1.324288e+002
5.065418e+002, 1.327191e+002
5.070239e+002, 1.329353e+002
5.075060e+002, 1.327658e+002
5.079881e+002, 1.323082e+002
5.084702e+002, 1.320243e+002
5.089524e+002, 1.319401e+002
5.094345e+002, 1.319751e+002
5.099166e+002, 1.322499e+002
5.103987e+002, 1.325460e+002
5.108808e+002, 1.326703e+002
5.113629e+002, 1.325928e+002
5.118451e+002, 1.323914e+002
5.123271e+002, 1.320257e+002
5.128093e+002, 1.315832e+002
5.132914e+002, 1.313721e+002
5.137735e+002, 1.314756e+002
5.142556e+002, 1.315196e+002
5.147377e+002, 1.312194e+002
5.152198e+002, 1.306493e+002
5.157020e+002, 1.300968e+002
5.161841e+002, 1.294462e+002
5.166662e+002, 1.289914e+002
5.171483e+002, 1.291157e+002
5.176304e+002, 1.294478e+002
5.181125e+002, 1.292680e+002
5.185947e+002, 1.284126e+002
5.190768e+002, 1.274908e+002
5.195589e+002, 1.271805e+002
5.200410e+002, 1.275585e+002
5.205231e+002, 1.278069e+002
5.210052e+002, 1.280044e+002
5.214874e+002, 1.280075e+002
5.219695e+002, 1.276328e+002
5.224516e+002, 1.270822e+002
5.229337e+002, 1.266775e+002
5.234158e+002, 1.265273e+002
5.238979e+002, 1.264110e+002
5.243801e+002, 1.259182e+002
5.248622e+002, 1.249125e+002
5.253443e+002, 1.242711e+002
5.258264e+002, 1.243762e+002
5.263085e+002, 1.244642e+002
5.267906e+002, 1.240944e+002
5.272728e+002, 1.234882e+002
5.277549e+002, 1.231139e+002
5.282370e+002, 1.232461e+002
5.287191e+002, 1.234893e+002
5.292012e+002, 1.232880e+002
5.296833e+002, 1.226748e+002
5.301655e+002, 1.221656e+002
5.306476e+002, 1.219761e+002
5.311297e+002, 1.217835e+002
5.316118e+002, 1.211081e+002
5.320939e+002, 1.200315e+002
5.325760e+002, 1.191803e+002
5.330582e+002, 1.188034e+002
5.335403e+002, 1.185876e+002
5.340224e+002, 1.182132e+002
5.345045e+002, 1.177906e+002
5.349866e+002, 1.177955e+002
5.354688e+002, 1.184954e+002
5.359509e+002, 1.193543e+002
5.364330e+002, 1.193370e+002
5.369151e+002, 1.179342e+002
5.373972e+002, 1.168401e+002
5.378793e+002, 1.163240e+002
5.383615e+002, 1.158346e+002
5.388436e+002, 1.149542e+002
5.393257e+002, 1.138585e+002
5.398078e+002, 1.130060e+002
5.402899e+002, 1.126640e+002
5.407720e+002, 1.126517e+002
5.412542e+002, 1.125984e+002
5.417363e+002, 1.125598e+002
5.422184e+002, 1.122848e+002
5.427005e+002, 1.114673e+002
5.431826e+002, 1.106261e+002
5.436647e+002, 1.100469e+002
5.441469e+002, 1.097105e+002
5.446290e+002, 1.094614e+002
5.451111e+002, 1.093077e+002
5.455932e+002, 1.091345e+002
5.460753e+002, 1.087396e+002
5.465574e+002, 1.081311e+002
5.470396e+002, 1.074869e+002
5.475217e+002, 1.068280e+002
5.480038e+002, 1.062305e+002
5.484859e+002, 1.058712e+002
5.489680e+002, 1.057838e+002
5.494501e+002, 1.055604e+002
5.499323e+002, 1.049697e+002
5.504144e+002, 1.043450e+002
5.508965e+002, 1.040028e+002
5.513786e+002, 1.038727e+002
5.518607e+002, 1.036556e+002
5.523428e+002, 1.031851e+002
5.528250e+002, 1.025592e+002
5.533071e+002, 1.020195e+002
5.537892e+002, 1.016104e+002
5.542713e+002, 1.012070e+002
5.547534e+002, 1.009295e+002
5.552355e+002, 1.005493e+002
5.557177e+002, 9.976637e+001
5.561998e+002, 9.876434e+001
5.566819e+002, 9.804554e+001
5.571640e+002, 9.796717e+001
5.576461e+002, 9.823054e+001
5.581282e+002, 9.819872e+001
5.586104e+002, 9.783904e+001
5.590925e+002, 9.738067e+001
5.595746e+002, 9.671254e+001
5.600567e+002, 9.613482e+001
5.605388e+002, 9.598366e+001
5.610209e+002, 9.619524e+001
5.615031e+002, 9.630088e+001
5.619852e+002, 9.610337e+001
5.624673e+002, 9.573665e+001
5.629494e+002, 9.522832e+001
5.634315e+002, 9.464005e+001
5.639136e+002, 9.430051e+001
5.643958e+002, 9.440078e+001
5.648779e+002, 9.462439e+001
5.653600e+002, 9.439195e+001
5.658421e+002, 9.341589e+001
5.663242e+002, 9.281990e+001
5.668063e+002, 9.300397e+001
5.672885e+002, 9.317921e+001
5.677706e+002, 9.280649e+001
5.682527e+002, 9.208916e+001
5.687348e+002, 9.150117e+001
5.692169e+002, 9.127156e+001
5.696990e+002, 9.129932e+001
5.701812e+002, 9.146256e+001
5.706633e+002, 9.187294e+001
5.711454e+002, 9.195450e+001
5.716275e+002, 9.135368e+001
5.721096e+002, 9.072757e+001
5.725917e+002, 9.043192e+001
5.730739e+002, 9.036332e+001
5.735560e+002, 9.026754e+001
5.740381e+002, 9.005843e+001
5.745202e+002, 8.976407e+001
5.750023e+002, 8.934824e+001
5.754844e+002, 8.885034e+001
5.759666e+002, 8.850133e+001
5.764487e+002, 8.836891e+001
5.769308e+002, 8.835669e+001
5.774129e+002, 8.835799e+001
5.778950e+002, 8.837721e+001
5.783771e+002, 8.853133e+001
5.788593e+002, 8.900322e+001
5.793414e+002, 8.941613e+001
5.798235e+002, 8.970384e+001
5.803056e+002, 8.978896e+001
5.807877e+002, 8.942791e+001
5.812698e+002, 8.858665e+001
5.817520e+002, 8.774151e+001
5.822341e+002, 8.754601e+001
5.827162e+002, 8.809612e+001
5.831984e+002, 8.835282e+001
5.836805e+002, 8.801022e+001
5.841626e+002, 8.774848e+001
5.846447e+002, 8.789384e+001
5.851268e+002, 8.815953e+001
5.856089e+002, 8.815439e+001
5.860911e+002, 8.777086e+001
5.865732e+002, 8.734306e+001
5.870553e+002, 8.716768e+001
5.875374e+002, 8.720162e+001
5.880195e+002, 8.732038e+001
5.885016e+002, 8.754468e+001
5.889838e+002, 8.769688e+001
5.894659e+002, 8.765575e+001
5.899480e+002, 8.745699e+001
5.904301e+002, 8.720963e+001
5.909122e+002, 8.678362e+001
5.913943e+002, 8.656602e+001
5.918765e+002, 8.701938e+001
5.923586e+002, 8.753347e+001
5.928407e+002, 8.726493e+001
5.933228e+002, 8.626933e+001
5.938049e+002, 8.543047e+001
5.942870e+002, 8.544166e+001
5.947692e+002, 8.607277e+001
5.952513e+002, 8.621529e+001
5.957334e+002, 8.541629e+001
5.962155e+002, 8.493182e+001
5.966976e+002, 8.507890e+001
5.971797e+002, 8.538927e+001
5.976619e+002, 8.564542e+001
5.981440e+002, 8.578539e+001
5.986261e+002, 8.572074e+001
5.991082e+002, 8.525197e+001
5.995903e+002, 8.468167e+001
6.000724e+002, 8.467031e+001
6.005546e+002, 8.522087e+001
6.010367e+002, 8.556445e+001
6.015188e+002, 8.538695e+001
6.020009e+002, 8.501420e+001
6.024830e+002, 8.486170e+001
6.029651e+002, 8.492058e+001
6.034473e+002, 8.493299e+001
6.039294e+002, 8.489361e+001
6.044115e+002, 8.476820e+001
6.048936e+002, 8.435569e+001
6.053757e+002, 8.387218e+001
6.058578e+002, 8.383064e+001
6.063400e+002, 8.440675e+001
6.068221e+002, 8.513818e+001
6.073042e+002, 8.534221e+001
6.077863e+002, 8.491479e+001
6.082684e+002, 8.464796e+001
6.087505e+002, 8.473108e+001
6.092327e+002, 8.475781e+001
6.097148e+002, 8.452165e+001
6.101969e+002, 8.420424e+001
6.106790e+002, 8.404391e+001
6.111611e+002, 8.410801e+001
6.116432e+002, 8.424686e+001
6.121254e+002, 8.436211e+001
6.126075e+002, 8.444611e+001
6.130896e+002, 8.447253e+001
6.135717e+002, 8.443770e+001
6.140538e+002, 8.435461e+001
6.145359e+002, 8.421459e+001
6.150181e+002, 8.403862e+001
6.155002e+002, 8.387695e+001
6.159823e+002, 8.365982e+001
6.164644e+002, 8.360123e+001
6.169465e+002, 8.396187e+001
6.174286e+002, 8.433607e+001
6.179108e+002, 8.434529e+001
6.183929e+002, 8.402956e+001
6.188750e+002, 8.361266e+001
6.193571e+002, 8.321080e+001
6.198392e+002, 8.291700e+001
6.203214e+002, 8.304601e+001
6.208035e+002, 8.381979e+001
6.212856e+002, 8.433292e+001
6.217677e+002, 8.427598e+001
6.222498e+002, 8.413625e+001
6.227319e+002, 8.425244e+001
6.232141e+002, 8.448730e+001
6.236962e+002, 8.444516e+001
6.241783e+002, 8.384126e+001
6.246604e+002, 8.315383e+001
6.251425e+002, 8.283578e+001
6.256246e+002, 8.281963e+001
6.261068e+002, 8.291523e+001
6.265889e+002, 8.309445e+001
6.270710e+002, 8.326676e+001
6.275531e+002, 8.336622e+001
6.280352e+002, 8.339017e+001
6.285173e+002, 8.325745e+001
6.289995e+002, 8.272938e+001
6.294816e+002, 8.237310e+001
6.299637e+002, 8.241237e+001
6.304458e+002, 8.260873e+001
6.309279e+002, 8.275515e+001
6.314100e+002, 8.280991e+001
6.318922e+002, 8.281446e+001
6.323743e+002, 8.279365e+001
6.328564e+002, 8.275529e+001
6.333385e+002, 8.273290e+001
6.338206e+002, 8.273353e+001
6.343027e+002, 8.271425e+001
6.347849e+002, 8.260500e+001
6.352670e+002, 8.252699e+001
6.357491e+002, 8.262466e+001
6.362312e+002, 8.287882e+001
6.367133e+002, 8.308428e+001
6.371954e+002, 8.314661e+001
6.376776e+002, 8.316591e+001
6.381597e+002, 8.325613e+001
6.386418e+002, 8.336581e+001
6.391239e+002, 8.331725e+001
6.396060e+002, 8.305334e+001
6.400881e+002, 8.280244e+001
6.405703e+002, 8.288633e+001
6.410524e+002, 8.335658e+001
6.415345e+002, 8.356212e+001
6.420166e+002, 8.317986e+001
6.424987e+002, 8.291067e+001
6.429808e+002, 8.297718e+001
6.434630e+002, 8.317484e+001
6.439451e+002, 8.329976e+001
6.444272e+002, 8.331255e+001
6.449093e+002, 8.329169e+001
6.453914e+002, 8.331921e+001
6.458735e+002, 8.335338e+001
6.463557e+002, 8.320794e+001
6.468378e+002, 8.286597e+001
6.473199e+002, 8.282236e+001
6.478020e+002, 8.342886e+001
6.482841e+002, 8.422874e+001
6.487662e+002, 8.443620e+001
6.492484e+002, 8.392370e+001
6.497305e+002, 8.356792e+001
6.502126e+002, 8.347018e+001
6.506947e+002, 8.351130e+001
6.511768e+002, 8.372279e+001
6.516589e+002, 8.400086e+001
6.521411e+002, 8.415920e+001
6.526232e+002, 8.413858e+001
6.531053e+002, 8.407258e+001
6.535874e+002, 8.411853e+001
6.540695e+002, 8.427624e+001
6.545516e+002, 8.454275e+001
6.550338e+002, 8.499170e+001
6.555159e+002, 8.539780e+001
6.559980e+002, 8.560020e+001
6.564801e+002, 8.573855e+001
6.569622e+002, 8.599551e+001
6.574443e+002, 8.640781e+001
6.579265e+002, 8.671500e+001
6.584086e+002, 8.662522e+001
6.588907e+002, 8.649129e+001
6.593728e+002, 8.679801e+001
6.598549e+002, 8.744650e+001
6.603370e+002, 8.792662e+001
6.608192e+002, 8.799557e+001
6.613013e+002, 8.786202e+001
6.617834e+002, 8.787823e+001
6.622655e+002, 8.805973e+001
6.627476e+002, 8.833423e+001
6.632297e+002, 8.888998e+001
6.637119e+002, 8.933286e+001
6.641940e+002, 8.948753e+001
6.646761e+002, 8.948253e+001
6.651582e+002, 8.945245e+001
6.656403e+002, 8.943327e+001
6.661224e+002, 8.951165e+001
6.666046e+002, 8.974551e+001
6.670867e+002, 9.013245e+001
6.675688e+002, 9.082152e+001
6.680509e+002, 9.181986e+001
6.685330e+002, 9.239282e+001
6.690151e+002, 9.203419e+001
6.694973e+002, 9.124916e+001
6.699794e+002, 9.108926e+001
6.704615e+002, 9.196714e+001
6.709436e+002, 9.233904e+001
6.714257e+002, 9.169267e+001
6.719078e+002, 9.103231e+001
6.723900e+002, 9.090910e+001
6.728721e+002, 9.112174e+001
6.733542e+002, 9.131465e+001
6.738363e+002, 9.135324e+001
6.743184e+002, 9.123841e+001
6.748005e+002, 9.090696e+001
6.752827e+002, 9.038744e+001
6.757648e+002, 8.999372e+001
6.762469e+002, 8.977649e+001
6.767290e+002, 8.953423e+001
6.772111e+002, 8.915739e+001
6.776932e+002, 8.870442e+001
6.781754e+002, 8.831911e+001
6.786575e+002, 8.805552e+001
6.791396e+002, 8.757122e+001
6.796217e+002, 8.635223e+001
6.801038e+002, 8.526275e+001
6.805859e+002, 8.516660e+001
6.810681e+002, 8.570295e+001
6.815502e+002, 8.599555e+001
6.820323e+002, 8.569813e+001
6.825144e+002, 8.509856e+001
6.829965e+002, 8.455240e+001
6.834786e+002, 8.405051e+001
6.839608e+002, 8.379819e+001
6.844429e+002, 8.400225e+001
6.849250e+002, 8.408346e+001
6.854071e+002, 8.363394e+001
6.858892e+002, 8.303539e+001
6.863713e+002, 8.272787e+001
6.868535e+002, 8.276839e+001
6.873356e+002, 8.275764e+001
6.878177e+002, 8.245051e+001
6.882998e+002, 8.206392e+001
6.887819e+002, 8.181355e+001
6.892640e+002, 8.167861e+001
6.897462e+002, 8.155322e+001
6.902283e+002, 8.139428e+001
6.907104e+002, 8.125357e+001
6.911925e+002, 8.121117e+001
6.916746e+002, 8.127958e+001
6.921567e+002, 8.133413e+001
6.926389e+002, 8.137710e+001
6.931210e+002, 8.140318e+001
6.936031e+002, 8.133573e+001
6.940852e+002, 8.129839e+001
6.945673e+002, 8.150436e+001
6.950494e+002, 8.194895e+001
6.955316e+002, 8.221840e+001
6.960137e+002, 8.188555e+001
6.964958e+002, 8.135810e+001
6.969779e+002, 8.121886e+001
6.974600e+002, 8.138937e+001
6.979421e+002, 8.143542e+001
6.984243e+002, 8.118851e+001
6.989064e+002, 8.092259e+001
6.993885e+002, 8.100233e+001
6.998706e+002, 8.146529e+001
7.003527e+002, 8.178329e+001
7.008348e+002, 8.193106e+001
7.013170e+002, 8.195822e+001
7.017991e+002, 8.176614e+001
7.022812e+002, 8.152741e+001
7.027633e+002, 8.137736e+001
7.032454e+002, 8.133944e+001
7.037275e+002, 8.139567e+001
7.042097e+002, 8.156120e+001
7.046918e+002, 8.179163e+001
7.051739e+002, 8.206490e+001
7.056560e+002, 8.236040e+001
7.061381e+002, 8.250978e+001
7.066202e+002, 8.244765e+001
7.071024e+002, 8.233607e+001
7.075845e+002, 8.234762e+001
7.080666e+002, 8.247865e+001
7.085487e+002, 8.252741e+001
7.090308e+002, 8.236065e+001
7.095129e+002, 8.229178e+001
7.099951e+002, 8.245116e+001
7.104772e+002, 8.266177e+001
7.109593e+002, 8.276668e+001
7.114414e+002, 8.277531e+001
7.119235e+002, 8.279936e+001
7.124056e+002, 8.290675e+001
7.128878e+002, 8.305769e+001
7.133699e+002, 8.320706e+001
7.138520e+002, 8.335045e+001
7.143341e+002, 8.341826e+001
7.148162e+002, 8.336669e+001
7.152983e+002, 8.342242e+001
7.157805e+002, 8.387560e+001
7.162626e+002, 8.459224e+001
7.167447e+002, 8.479402e+001
7.172268e+002, 8.383347e+001
7.177089e+002, 8.332072e+001
7.181910e+002, 8.382676e+001
7.186732e+002, 8.443931e+001
7.191553e+002, 8.447901e+001
7.196374e+002, 8.407354e+001
7.201195e+002, 8.370696e+001
7.206016e+002, 8.362223e+001
7.210837e+002, 8.358326e+001
7.215659e+002, 8.317722e+001
7.220480e+002, 8.250789e+001
7.225301e+002, 8.218888e+001
7.230122e+002, 8.231712e+001
7.234943e+002, 8.257563e+001
7.239764e+002, 8.282127e+001
7.244586e+002, 8.303585e+001
7.249407e+002, 8.317086e+001
7.254228e+002, 8.320129e+001
7.259049e+002, 8.321484e+001
7.263870e+002, 8.332879e+001
7.268691e+002, 8.331297e+001
7.273513e+002, 8.288377e+001
7.278334e+002, 8.228638e+001
7.283155e+002, 8.196227e+001
7.287976e+002, 8.204903e+001
7.292797e+002, 8.224181e+001
7.297618e+002, 8.222075e+001
7.302440e+002, 8.204382e+001
7.307261e+002, 8.193537e+001
7.312082e+002, 8.190869e+001
7.316903e+002, 8.182462e+001
7.321724e+002, 8.161450e+001
7.326545e+002, 8.134029e+001
7.331367e+002, 8.106364e+001
7.336188e+002, 8.076013e+001
7.341009e+002, 8.062971e+001
7.345830e+002, 8.082974e+001
7.350651e+002, 8.101176e+001
7.355472e+002, 8.108158e+001
7.360294e+002, 8.105532e+001
7.365115e+002, 8.090491e+001
7.369936e+002, 8.066261e+001
7.374757e+002, 8.049074e+001
7.379578e+002, 8.056643e+001
7.384399e+002, 8.073716e+001
7.389221e+002, 8.064628e+001
7.394042e+002, 8.031627e+001
7.398863e+002, 8.009766e+001
7.403684e+002, 8.008389e+001
7.408505e+002, 8.017809e+001
7.413326e+002, 8.032787e+001
7.418148e+002, 8.051830e+001
7.422969e+002, 8.057314e+001
7.427790e+002, 8.032033e+001
7.432611e+002, 8.018152e+001
7.437432e+002, 8.021895e+001
7.442253e+002, 8.037558e+001
7.447075e+002, 8.067582e+001
7.451896e+002, 8.105513e+001
7.456717e+002, 8.139455e+001
7.461538e+002, 8.166055e+001
7.466359e+002, 8.176789e+001
7.471180e+002, 8.152322e+001
7.476002e+002, 8.103055e+001
7.480823e+002, 8.063577e+001
7.485644e+002, 8.037448e+001
7.490465e+002, 8.028737e+001
7.495286e+002, 8.043446e+001
7.500107e+002, 8.071726e+001
7.504929e+002, 8.090224e+001
7.509750e+002, 8.094029e+001
7.514571e+002, 8.100163e+001
7.519392e+002, 8.120984e+001
7.524213e+002, 8.130216e+001
7.529034e+002, 8.096852e+001
7.533856e+002, 8.054984e+001
7.538677e+002, 8.059485e+001
7.543498e+002, 8.120267e+001
7.548319e+002, 8.176656e+001
7.553140e+002, 8.176543e+001
7.557961e+002, 8.147195e+001
7.562783e+002, 8.130981e+001
7.567604e+002, 8.127061e+001
7.572425e+002, 8.127435e+001
7.577246e+002, 8.130293e+001
7.582067e+002, 8.126519e+001
7.586888e+002, 8.099744e+001
7.591710e+002, 8.050388e+001
7.596531e+002, 8.050111e+001
7.601352e+002, 8.158737e+001
7.606173e+002, 8.224678e+001
7.610994e+002, 8.183613e+001
7.615815e+002, 8.130516e+001
7.620637e+002, 8.154153e+001
7.625458e+002, 8.230624e+001
7.630279e+002, 8.256233e+001
7.635100e+002, 8.163381e+001
7.639921e+002, 8.058171e+001
7.644742e+002, 8.028822e+001
7.649564e+002, 8.047491e+001
7.654385e+002, 8.073703e+001
7.659206e+002, 8.097849e+001
7.664027e+002, 8.102384e+001
7.668848e+002, 8.074648e+001
7.673669e+002, 8.027524e+001
7.678491e+002, 7.989401e+001
7.683312e+002, 7.958524e+001
7.688133e+002, 7.944312e+001
7.692954e+002, 7.958474e+001
7.697775e+002, 7.973289e+001
7.702596e+002, 7.977508e+001
7.707418e+002, 7.974888e+001
7.712239e+002, 7.972959e+001
7.717060e+002, 7.974023e+001
7.721881e+002, 7.958591e+001
7.726702e+002, 7.902016e+001
7.731523e+002, 7.841706e+001
7.736345e+002, 7.811206e+001
7.741166e+002, 7.799771e+001
7.745987e+002, 7.781661e+001
7.750808e+002, 7.750506e+001
7.755629e+002, 7.722097e+001
7.760450e+002, 7.714169e+001
7.765272e+002, 7.721207e+001
7.770093e+002, 7.715260e+001
7.774914e+002, 7.693063e+001
7.779735e+002, 7.676211e+001
7.784556e+002, 7.672994e+001
7.789377e+002, 7.671220e+001
7.794199e+002, 7.661109e+001
7.799020e+002, 7.643259e+001
7.803841e+002, 7.620906e+001
7.808662e+002, 7.593624e+001
7.813483e+002, 7.562556e+001
7.818304e+002, 7.520264e+001
7.823126e+002, 7.480394e+001
7.827947e+002, 7.452319e+001
7.832768e+002, 7.436487e+001
7.837589e+002, 7.434535e+001
7.842410e+002, 7.447951e+001
7.847231e+002, 7.460266e+001
7.852053e+002, 7.448573e+001
7.856874e+002, 7.418642e+001
7.861695e+002, 7.394493e+001
7.866516e+002, 7.377863e+001
7.871337e+002, 7.354995e+001
7.876158e+002, 7.318924e+001
7.880980e+002, 7.275833e+001
7.885801e+002, 7.231889e+001
7.890622e+002, 7.183693e+001
7.895443e+002, 7.159205e+001
7.900264e+002, 7.185730e+001
7.905085e+002, 7.200326e+001
7.909907e+002, 7.180840e+001
7.914728e+002, 7.149825e+001
7.919549e+002, 7.128655e+001
7.924370e+002, 7.117117e+001
7.929191e+002, 7.101253e+001
7.934012e+002, 7.073512e+001
7.938834e+002, 7.040083e+001
7.943655e+002, 6.997133e+001
7.948476e+002, 6.955514e+001
7.953297e+002, 6.948603e+001
7.958118e+002, 6.975719e+001
7.962939e+002, 6.987492e+001
7.967761e+002, 6.949615e+001
7.972582e+002, 6.885020e+001
7.977403e+002, 6.848559e+001
7.982224e+002, 6.844511e+001
7.987045e+002, 6.851637e+001
7.991866e+002, 6.886836e+001
7.996688e+002, 6.906184e+001
8.001509e+002, 6.878757e+001
8.006330e+002, 6.829943e+001
8.011151e+002, 6.786466e+001
8.015972e+002, 6.749861e+001
8.020793e+002, 6.722594e+001
8.025615e+002, 6.710942e+001
8.030436e+002, 6.703278e+001
8.035257e+002, 6.695482e+001
8.040078e+002, 6.685770e+001
8.044899e+002, 6.671946e+001
8.049720e+002, 6.653795e+001
8.054542e+002, 6.632029e+001
8.059363e+002, 6.605622e+001
8.064184e+002, 6.578971e+001
8.069005e+002, 6.567365e+001
8.073826e+002, 6.569396e+001
8.078647e+002, 6.546619e+001
8.083469e+002, 6.484298e+001
8.088290e+002, 6.436701e+001
8.093111e+002, 6.448608e+001
8.097932e+002, 6.498460e+001
8.102753e+002, 6.520030e+001
8.107574e+002, 6.498773e+001
8.112396e+002, 6.478147e+001
8.117217e+002, 6.449741e+001
8.122038e+002, 6.431224e+001
8.126859e+002, 6.439030e+001
8.131680e+002, 6.456889e+001
8.136501e+002, 6.460906e+001
8.141323e+002, 6.447285e+001
8.146144e+002, 6.436089e+001
8.150965e+002, 6.448228e+001
8.155786e+002, 6.462582e+001
8.160607e+002, 6.451101e+001
8.165428e+002, 6.422177e+001
8.170250e+002, 6.395530e+001
8.175071e+002, 6.376606e+001
8.179892e+002, 6.369581e+001
8.184713e+002, 6.380918e+001
8.189534e+002, 6.401164e+001
8.194355e+002, 6.392201e+001
8.199177e+002, 6.344307e+001
8.203998e+002, 6.312453e+001
8.208819e+002, 6.307677e+001
8.213640e+002, 6.310786e+001
8.218461e+002, 6.310574e+001
8.223282e+002, 6.310505e+001
8.228104e+002, 6.320379e+001
8.232925e+002, 6.347394e+001
8.237746e+002, 6.357309e+001
8.242567e+002, 6.325354e+001
8.247388e+002, 6.293887e+001
8.252209e+002, 6.288715e+001
8.257031e+002, 6.298872e+001
8.261852e+002, 6.305264e+001
8.266673e+002, 6.305298e+001
8.271494e+002, 6.314251e+001
8.276315e+002, 6.350745e+001
8.281136e+002, 6.395186e+001
8.285958e+002, 6.415714e+001
8.290779e+002, 6.414619e+001
8.295600e+002, 6.399524e+001
8.300421e+002, 6.371448e+001
8.305242e+002, 6.345552e+001
8.310063e+002, 6.332433e+001
8.314885e+002, 6.330418e+001
8.319706e+002, 6.335128e+001
8.324527e+002, 6.349451e+001
8.329348e+002, 6.363150e+001
8.334169e+002, 6.384884e+001
8.338990e+002, 6.394392e+001
8.343812e+002, 6.369225e+001
8.348633e+002, 6.336065e+001
8.353454e+002, 6.333317e+001
8.358275e+002, 6.365429e+001
8.363096e+002, 6.385655e+001
8.367917e+002, 6.361692e+001
8.372739e+002, 6.339561e+001
8.377560e+002, 6.356264e+001
8.382381e+002, 6.388557e+001
8.387202e+002, 6.403321e+001
8.392023e+002, 6.396656e+001
8.396844e+002, 6.382383e+001
8.401666e+002, 6.367769e+001
8.406487e+002, 6.357483e+001
8.411308e+002, 6.364709e+001
8.416129e+002, 6.385793e+001
8.420950e+002, 6.394100e+001
8.425771e+002, 6.386183e+001
8.430593e+002, 6.373204e+001
8.435414e+002, 6.359156e+001
8.440235e+002, 6.347950e+001
8.445056e+002, 6.348196e+001
8.449877e+002, 6.364227e+001
8.454698e+002, 6.370006e+001
8.459520e+002, 6.366715e+001
8.464341e+002, 6.351057e+001
8.469162e+002, 6.295586e+001
8.473983e+002, 6.248075e+001
8.478804e+002, 6.259469e+001
8.483625e+002, 6.321495e+001
8.488447e+002, 6.377068e+001
8.493268e+002, 6.418344e+001
8.498089e+002, 6.433367e+001
8.502910e+002, 6.391065e+001
8.507731e+002, 6.335118e+001
8.512552e+002, 6.315981e+001
8.517374e+002, 6.332058e+001
8.522195e+002, 6.363475e+001
8.527016e+002, 6.401114e+001
8.531837e+002, 6.429949e+001
8.536658e+002, 6.419606e+001
8.541479e+002, 6.382142e+001
8.546301e+002, 6.381421e+001
8.551122e+002, 6.419151e+001
8.555943e+002, 6.445448e+001
8.560764e+002, 6.442020e+001
8.565585e+002, 6.427100e+001
8.570406e+002, 6.420406e+001
8.575228e+002, 6.420624e+001
8.580049e+002, 6.410404e+001
8.584870e+002, 6.371667e+001
8.589691e+002, 6.353732e+001
8.594512e+002, 6.382214e+001
8.599333e+002, 6.410035e+001
8.604155e+002, 6.399087e+001
8.608976e+002, 6.373996e+001
8.613797e+002, 6.390173e+001
8.618618e+002, 6.468084e+001
8.623439e+002, 6.521714e+001
8.628260e+002, 6.486518e+001
8.633082e+002, 6.440673e+001
8.637903e+002, 6.450478e+001
8.642724e+002, 6.492192e+001
8.647545e+002, 6.524214e+001
8.652366e+002, 6.535661e+001
8.657188e+002, 6.532500e+001
8.662009e+002, 6.515130e+001
8.666830e+002, 6.493737e+001
8.671651e+002, 6.487292e+001
8.676472e+002, 6.494643e+001
8.681293e+002, 6.513737e+001
8.686115e+002, 6.545196e+001
8.690936e+002, 6.564249e+001
8.695757e+002, 6.552685e+001
8.700578e+002, 6.528297e+001
8.705399e+002, 6.530119e+001
8.710220e+002, 6.567626e+001
8.715042e+002, 6.583197e+001
8.719863e+002, 6.566400e+001
8.724684e+002, 6.544429e+001
8.729505e+002, 6.509536e+001
8.734326e+002, 6.484960e+001
8.739147e+002, 6.497900e+001
8.743969e+002, 6.542984e+001
8.748790e+002, 6.583094e+001
8.753611e+002, 6.618335e+001
8.758432e+002, 6.637685e+001
8.763253e+002, 6.625093e+001
8.768074e+002, 6.605435e+001
8.772896e+002, 6.597524e+001
8.777717e+002, 6.601440e+001
8.782538e+002, 6.612695e+001
8.787359e+002, 6.629562e+001
8.792180e+002, 6.649076e+001
8.797001e+002, 6.674058e+001
8.801823e+002, 6.697086e+001
8.806644e+002, 6.702357e+001
8.811465e+002, 6.692745e+001
8.816286e+002, 6.680470e+001
8.821107e+002, 6.668899e+001
8.825928e+002, 6.658517e+001
8.830750e+002, 6.650168e+001
8.835571e+002, 6.642756e+001
8.840392e+002, 6.628658e+001
8.845213e+002, 6.602250e+001
8.850034e+002, 6.607226e+001
8.854855e+002, 6.668706e+001
8.859677e+002, 6.711591e+001
8.864498e+002, 6.687318e+001
8.869319e+002, 6.629299e+001
8.874140e+002, 6.591534e+001
8.878961e+002, 6.575578e+001
8.883782e+002, 6.570699e+001
8.888604e+002, 6.580241e+001
8.893425e+002, 6.596397e+001
8.898246e+002, 6.633175e+001
8.903067e+002, 6.662999e+001
8.907888e+002, 6.649383e+001
8.912709e+002, 6.607211e+001
8.917531e+002, 6.592142e+001
8.922352e+002, 6.635016e+001
8.927173e+002, 6.670935e+001
8.931994e+002, 6.642878e+001
8.936815e+002, 6.593302e+001
8.941636e+002, 6.568668e+001
8.946458e+002, 6.566206e+001
8.951279e+002, 6.566299e+001
8.956100e+002, 6.563683e+001
8.960921e+002, 6.576441e+001
8.965742e+002, 6.633572e+001
8.970563e+002, 6.707050e+001
8.975385e+002, 6.712503e+001
8.980206e+002, 6.655963e+001
8.985027e+002, 6.616602e+001
8.989848e+002, 6.608649e+001
8.994669e+002, 6.615180e+001
8.999490e+002, 6.629743e+001
9.004312e+002, 6.642107e+001
9.009133e+002, 6.624309e+001
9.013954e+002, 6.561495e+001
9.018775e+002, 6.539016e+001
9.023596e+002, 6.583915e+001
9.028417e+002, 6.623380e+001
9.033239e+002, 6.641710e+001
9.038060e+002, 6.639436e+001
9.042881e+002, 6.598909e+001
9.047702e+002, 6.531643e+001
9.052523e+002, 6.511142e+001
9.057344e+002, 6.593183e+001
9.062166e+002, 6.653020e+001
9.066987e+002, 6.649194e+001
9.071808e+002, 6.624404e+001
9.076629e+002, 6.605697e+001
9.081450e+002, 6.589982e+001
9.086271e+002, 6.558042e+001
9.091093e+002, 6.506878e+001
9.095914e+002, 6.480025e+001
9.100735e+002, 6.534964e+001
9.105556e+002, 6.606290e+001
9.110377e+002, 6.615152e+001
9.115198e+002, 6.587080e+001
9.120020e+002, 6.575999e+001
9.124841e+002, 6.588934e+001
9.129662e+002, 6.600475e+001
9.134483e+002, 6.593987e+001
9.139304e+002, 6.582051e+001
9.144125e+002, 6.588804e+001
9.148947e+002, 6.611109e+001
9.153768e+002, 6.624545e+001
9.158589e+002, 6.628129e+001
9.163410e+002, 6.619147e+001
9.168231e+002, 6.592100e+001
9.173052e+002, 6.570343e+001
9.177874e+002, 6.580447e+001
9.182695e+002, 6.620065e+001
9.187516e+002, 6.670514e+001
9.192337e+002, 6.758224e+001
9.197158e+002, 6.792084e+001
9.201979e+002, 6.730502e+001
9.206801e+002, 6.656249e+001
9.211622e+002, 6.604679e+001
9.216443e+002, 6.573479e+001
9.221264e+002, 6.565407e+001
9.226085e+002, 6.585166e+001
9.230906e+002, 6.593510e+001
9.235728e+002, 6.569514e+001
9.240549e+002, 6.552483e+001
9.245370e+002, 6.569976e+001
9.250191e+002, 6.591049e+001
9.255012e+002, 6.576198e+001
9.259833e+002, 6.537839e+001
9.264655e+002, 6.526458e+001
9.269476e+002, 6.568710e+001
9.274297e+002, 6.607372e+001
9.279118e+002, 6.591086e+001
9.283939e+002, 6.559710e+001
9.288760e+002, 6.558122e+001
9.293582e+002, 6.578309e+001
9.298403e+002, 6.598332e+001
9.303224e+002, 6.611385e+001
9.308045e+002, 6.620288e+001
9.312866e+002, 6.630753e+001
9.317687e+002, 6.631418e+001
9.322509e+002, 6.585095e+001
9.327330e+002, 6.507912e+001
9.332151e+002, 6.481264e+001
9.336972e+002, 6.511793e+001
9.341793e+002, 6.533681e+001
9.346614e+002, 6.512180e+001
9.351436e+002, 6.485046e+001
9.356257e+002, 6.513984e+001
9.361078e+002, 6.594138e+001
9.365899e+002, 6.621788e+001
9.370720e+002, 6.584331e+001
9.375541e+002, 6.543304e+001
9.380363e+002, 6.507234e+001
9.385184e+002, 6.478050e+001
9.390005e+002, 6.456743e+001
9.394826e+002, 6.443571e+001
9.399647e+002, 6.439533e+001
9.404468e+002, 6.446916e+001
9.409290e+002, 6.457153e+001
9.414111e+002, 6.479539e+001
9.418932e+002, 6.492916e+001
9.423753e+002, 6.479707e+001
9.428574e+002, 6.463696e+001
9.433395e+002, 6.474385e+001
9.438217e+002, 6.504601e+001
9.443038e+002, 6.514740e+001
9.447859e+002, 6.492445e+001
9.452680e+002, 6.456078e+001
9.457501e+002, 6.388702e+001
9.462322e+002, 6.332288e+001
9.467144e+002, 6.318628e+001
9.471965e+002, 6.338571e+001
9.476786e+002, 6.386793e+001
9.481607e+002, 6.454766e+001
9.486428e+002, 6.496426e+001
9.491249e+002, 6.465415e+001
9.496071e+002, 6.417221e+001
9.500892e+002, 6.413137e+001
9.505713e+002, 6.428345e+001
9.510534e+002, 6.418877e+001
9.515355e+002, 6.385864e+001
9.520176e+002, 6.355669e+001
9.524998e+002, 6.340148e+001
9.529819e+002, 6.332627e+001
9.534640e+002, 6.332251e+001
9.539461e+002, 6.331136e+001
9.544282e+002, 6.288269e+001
9.549103e+002, 6.214231e+001
9.553925e+002, 6.203201e+001
9.558746e+002, 6.275113e+001
9.563567e+002, 6.350593e+001
9.568388e+002, 6.376942e+001
9.573209e+002, 6.362464e+001
9.578030e+002, 6.313388e+001
9.582852e+002, 6.222276e+001
9.587673e+002, 6.189748e+001
9.592494e+002, 6.232590e+001
9.597315e+002, 6.267428e+001
9.602136e+002, 6.265998e+001
9.606957e+002, 6.254329e+001
9.611779e+002, 6.258633e+001
9.616600e+002, 6.274012e+001
9.621421e+002, 6.273419e+001
9.626242e+002, 6.245049e+001
9.631063e+002, 6.224190e+001
9.635884e+002, 6.210151e+001
9.640706e+002, 6.205110e+001
9.645527e+002, 6.216357e+001
9.650348e+002, 6.232422e+001
9.655169e+002, 6.242721e+001
9.659990e+002, 6.246627e+001
9.664811e+002, 6.241780e+001
9.669633e+002, 6.218583e+001
9.674454e+002, 6.199736e+001
9.679275e+002, 6.195298e+001
9.684096e+002, 6.191740e+001
9.688917e+002, 6.180676e+001
9.693738e+002, 6.163734e+001
9.698560e+002, 6.140467e+001
9.703381e+002, 6.111657e+001
9.708202e+002, 6.096064e+001
9.713023e+002, 6.116029e+001
9.717844e+002, 6.136781e+001
9.722665e+002, 6.133701e+001
9.727487e+002, 6.119682e+001
9.732308e+002, 6.105806e+001
9.737129e+002, 6.095903e+001
9.741950e+002, 6.096450e+001
9.746771e+002, 6.109863e+001
9.751592e+002, 6.120800e+001
9.756414e+002, 6.112938e+001
9.761235e+002, 6.096328e+001
9.766056e+002, 6.082719e+001
9.770877e+002, 6.072483e+001
9.775698e+002, 6.066388e+001
9.780519e+002, 6.064238e+001
9.785341e+002, 6.065906e+001
9.790162e+002, 6.071893e+001
9.794983e+002, 6.074937e+001
9.799804e+002, 6.058922e+001
9.804625e+002, 6.031229e+001
9.809446e+002, 6.022163e+001
9.814268e+002, 6.030645e+001
9.819089e+002, 6.042243e+001
9.823910e+002, 6.053246e+001
9.828731e+002, 6.051667e+001
9.833552e+002, 6.023696e+001
9.838373e+002, 5.989305e+001
9.843195e+002, 6.010425e+001
9.848016e+002, 6.091779e+001
9.852837e+002, 6.114215e+001
9.857658e+002, 6.061459e+001
9.862479e+002, 6.020875e+001
9.867300e+002, 6.022509e+001
9.872122e+002, 6.048874e+001
9.876943e+002, 6.090828e+001
9.881764e+002, 6.139346e+001
9.886585e+002, 6.142598e+001
9.891406e+002, 6.081397e+001
9.896227e+002, 6.029478e+001
9.901049e+002, 5.985524e+001
9.905870e+002, 5.957343e+001
9.910691e+002, 5.936297e+001
9.915512e+002, 5.944651e+001
9.920333e+002, 6.039873e+001
9.925154e+002, 6.215710e+001
9.929976e+002, 6.278910e+001
9.934797e+002, 6.118122e+001
9.939618e+002, 6.015007e+001
9.944439e+002, 6.033887e+001
9.949260e+002, 6.056609e+001
9.954081e+002, 6.011885e+001
9.958903e+002, 5.946014e+001
9.963724e+002, 5.926664e+001
9.968545e+002, 5.957424e+001
9.973366e+002, 5.982448e+001
9.978187e+002, 5.989950e+001
9.983008e+002, 5.992068e+001
9.987830e+002, 5.990343e+001
9.992651e+002, 5.986267e+001
9.997472e+002, 5.978682e+001
1.000229e+003, 5.970361e+001
1.000711e+003, 5.964167e+001
1.001194e+003, 5.960899e+001
1.001676e+003, 5.965816e+001
1.002158e+003, 5.999759e+001
1.002640e+003, 6.020317e+001
1.003122e+003, 5.992080e+001
1.003604e+003, 5.946871e+001
1.004086e+003, 5.904509e+001
1.004568e+003, 5.876663e+001
1.005050e+003, 5.892074e+001
1.005533e+003, 5.958083e+001
1.006015e+003, 5.999985e+001
1.006497e+003, 5.929970e+001
1.006979e+003, 5.846961e+001
1.007461e+003, 5.857277e+001
1.007943e+003, 5.913466e+001
1.008425e+003, 5.944807e+001
1.008907e+003, 5.947412e+001
1.009390e+003, 5.946406e+001
1.009872e+003, 5.952575e+001
1.010354e+003, 5.958054e+001
1.010836e+003, 5.953492e+001
1.011318e+003, 5.944447e+001
1.011800e+003, 5.932124e+001
1.012282e+003, 5.924488e+001
1.012764e+003, 5.952277e+001
1.013246e+003, 6.010508e+001
1.013729e+003, 6.049358e+001
1.014211e+003, 6.042444e+001
1.014693e+003, 6.012640e+001
1.015175e+003, 5.978598e+001
1.015657e+003, 5.948418e+001
1.016139e+003, 5.950742e+001
1.016621e+003, 5.980062e+001
1.017103e+003, 6.014614e+001
1.017586e+003, 6.048053e+001
1.018068e+003, 6.056973e+001
1.018550e+003, 6.024529e+001
1.019032e+003, 5.982296e+001
1.019514e+003, 5.992039e+001
1.019996e+003, 6.042542e+001
1.020478e+003, 6.043598e+001
1.020960e+003, 5.997127e+001
1.021442e+003, 5.982161e+001
1.021925e+003, 6.018851e+001
1.022407e+003, 6.049926e+001
1.022889e+003, 6.034710e+001
1.023371e+003, 5.992794e+001
1.023853e+003, 5.959766e+001
1.024335e+003, 5.935624e+001
1.024817e+003, 5.930919e+001
1.025299e+003, 5.948261e+001
1.025781e+003, 5.965136e+001
1.026264e+003, 5.976305e+001
1.026746e+003, 5.986543e+001
1.027228e+003, 6.002357e+001
1.027710e+003, 6.014072e+001
1.028192e+003, 5.993035e+001
1.028674e+003, 5.930848e+001
1.029156e+003, 5.906712e+001
1.029638e+003, 5.932663e+001
1.030120e+003, 5.957847e+001
1.030603e+003, 5.974080e+001
1.031085e+003, 5.975660e+001
1.031567e+003, 5.954702e+001
1.032049e+003, 5.918635e+001
1.032531e+003, 5.885192e+001
1.033013e+003, 5.850566e+001
1.033495e+003, 5.836981e+001
1.033977e+003, 5.854152e+001
1.034460e+003, 5.872436e+001
1.034942e+003, 5.889154e+001
1.035424e+003, 5.898061e+001
1.035906e+003, 5.889738e+001
1.036388e+003, 5.871398e+001
1.036870e+003, 5.863078e+001
1.037352e+003, 5.864618e+001
1.037834e+003, 5.877898e+001
1.038317e+003, 5.934654e+001
1.038799e+003, 5.953547e+001
1.039281e+003, 5.879305e+001
1.039763e+003, 5.797896e+001
1.040245e+003, 5.773457e+001
1.040727e+003, 5.792324e+001
1.041209e+003, 5.818608e+001
1.041691e+003, 5.861434e+001
1.042173e+003, 5.882225e+001
1.042656e+003, 5.866777e+001
1.043138e+003, 5.847771e+001
1.043620e+003, 5.818101e+001
1.044102e+003, 5.801376e+001
1.044584e+003, 5.828985e+001
1.045066e+003, 5.881015e+001
1.045548e+003, 5.902829e+001
1.046030e+003, 5.879044e+001
1.046512e+003, 5.872448e+001
1.046995e+003, 5.917505e+001
1.047477e+003, 5.943811e+001
1.047959e+003, 5.918502e+001
1.048441e+003, 5.877728e+001
1.048923e+003, 5.848275e+001
1.049405e+003, 5.826441e+001
1.049887e+003, 5.794126e+001
1.050369e+003, 5.740289e+001
1.050852e+003, 5.723944e+001
1.051334e+003, 5.805719e+001
1.051816e+003, 5.861816e+001
1.052298e+003, 5.822972e+001
1.052780e+003, 5.766027e+001
1.053262e+003, 5.752455e+001
1.053744e+003, 5.770797e+001
1.054226e+003, 5.788598e+001
1.054708e+003, 5.801994e+001
1.055191e+003, 5.804044e+001
1.055673e+003, 5.787896e+001
1.056155e+003, 5.766564e+001
1.056637e+003, 5.731618e+001
1.057119e+003, 5.705712e+001
1.057601e+003, 5.712936e+001
1.058083e+003, 5.741843e+001
1.058565e+003, 5.770319e+001
1.059047e+003, 5.794781e+001
1.059530e+003, 5.805536e+001
1.060012e+003, 5.787491e+001
1.060494e+003, 5.770279e+001
1.060976e+003, 5.773782e+001
1.061458e+003, 5.776583e+001
1.061940e+003, 5.750924e+001
1.062422e+003, 5.714464e+001
1.062904e+003, 5.707220e+001
1.063387e+003, 5.736523e+001
1.063869e+003, 5.757688e+001
1.064351e+003, 5.742907e+001
1.064833e+003, 5.731174e+001
1.065315e+003, 5.744041e+001
1.065797e+003, 5.763329e+001
1.066279e+003, 5.785785e+001
1.066761e+003, 5.798365e+001
1.067244e+003, 5.765895e+001
1.067726e+003, 5.688053e+001
1.068208e+003, 5.649973e+001
1.068690e+003, 5.726186e+001
1.069172e+003, 5.795438e+001
1.069654e+003, 5.794417e+001
1.070136e+003, 5.772299e+001
1.070618e+003, 5.769373e+001
1.071100e+003, 5.772919e+001
1.071583e+003, 5.752418e+001
1.072065e+003, 5.706869e+001
1.072547e+003, 5.672194e+001
1.073029e+003, 5.667632e+001
1.073511e+003, 5.668242e+001
1.073993e+003, 5.661908e+001
1.074475e+003, 5.656633e+001
1.074957e+003, 5.656384e+001
1.075439e+003, 5.662484e+001
1.075922e+003, 5.682296e+001
1.076404e+003, 5.711853e+001
1.076886e+003, 5.725914e+001
1.077368e+003, 5.707529e+001
1.077850e+003, 5.689638e+001
1.078332e+003, 5.691536e+001
1.078814e+003, 5.695314e+001
1.079297e+003, 5.690802e+001
1.079779e+003, 5.678408e+001
1.080261e+003, 5.652549e+001
1.080743e+003, 5.619416e+001
1.081225e+003, 5.606157e+001
1.081707e+003, 5.630640e+001
1.082189e+003, 5.645702e+001
1.082671e+003, 5.616595e+001
1.083153e+003, 5.585951e+001
1.083635e+003, 5.587345e+001
1.084118e+003, 5.598322e+001
1.084600e+003, 5.592031e+001
1.085082e+003, 5.569854e+001
1.085564e+003, 5.544751e+001
1.086046e+003, 5.517719e+001
1.086528e+003, 5.503065e+001
1.087010e+003, 5.516957e+001
1.087492e+003, 5.532787e+001
1.087975e+003, 5.539284e+001
1.088457e+003, 5.537565e+001
1.088939e+003, 5.525793e+001
1.089421e+003, 5.508176e+001
1.089903e+003, 5.495691e+001
1.090385e+003, 5.491925e+001
1.090867e+003, 5.478270e+001
1.091349e+003, 5.428149e+001
1.091832e+003, 5.391732e+001
1.092314e+003, 5.401403e+001
1.092796e+003, 5.426094e+001
1.093278e+003, 5.445950e+001
1.093760e+003, 5.457991e+001
1.094242e+003, 5.460756e+001
1.094724e+003, 5.454117e+001
1.095206e+003, 5.443516e+001
1.095688e+003, 5.429805e+001
1.096171e+003, 5.413614e+001
1.096653e+003, 5.386401e+001
1.097135e+003, 5.365817e+001
1.097617e+003, 5.373372e+001
1.098099e+003, 5.390302e+001
1.098581e+003, 5.386057e+001
1.099063e+003, 5.359639e+001
1.099545e+003, 5.339254e+001
1.100027e+003, 5.343462e+001
1.100510e+003, 5.334154e+001
1.100992e+003, 5.282716e+001
1.101474e+003, 5.236904e+001
1.101956e+003, 5.221090e+001
1.102438e+003, 5.225941e+001
1.102920e+003, 5.247902e+001
1.103402e+003, 5.280698e+001
1.103884e+003, 5.299911e+001
1.104367e+003, 5.296249e+001
1.104849e+003, 5.292588e+001
1.105331e+003, 5.297495e+001
1.105813e+003, 5.297160e+001
1.106295e+003, 5.285065e+001
1.106777e+003, 5.266462e+001
1.107259e+003, 5.241975e+001
1.107741e+003, 5.215523e+001
1.108224e+003, 5.196971e+001
1.108706e+003, 5.187302e+001
1.109188e+003, 5.185063e+001
1.109670e+003, 5.194165e+001
1.110152e+003, 5.205169e+001
1.110634e+003, 5.213003e+001
1.111116e+003, 5.225038e+001
1.111598e+003, 5.257452e+001
1.112080e+003, 5.293277e+001
1.112563e+003, 5.294825e+001
1.113045e+003, 5.255798e+001
1.113527e+003, 5.237478e+001
1.114009e+003, 5.248273e+001
1.114491e+003, 5.266866e+001
1.114973e+003, 5.316094e+001
1.115455e+003, 5.338923e+001
1.115937e+003, 5.287994e+001
1.116419e+003, 5.213728e+001
1.116902e+003, 5.181184e+001
1.117384e+003, 5.187165e+001
1.117866e+003, 5.192603e+001
1.118348e+003, 5.202705e+001
1.118830e+003, 5.198634e+001
1.119312e+003, 5.166724e+001
1.119794e+003, 5.147861e+001
1.120276e+003, 5.166024e+001
1.120759e+003, 5.186420e+001
1.121241e+003, 5.170102e+001
1.121723e+003, 5.133049e+001
1.122205e+003, 5.134591e+001
1.122687e+003, 5.186390e+001
1.123169e+003, 5.225173e+001
1.123651e+003, 5.255489e+001
1.124133e+003, 5.253151e+001
1.124615e+003, 5.199525e+001
1.125098e+003, 5.150482e+001
1.125580e+003, 5.147703e+001
1.126062e+003, 5.167313e+001
1.126544e+003, 5.158490e+001
1.127026e+003, 5.122738e+001
1.127508e+003, 5.142498e+001
1.127990e+003, 5.229665e+001
1.128472e+003, 5.263342e+001
1.128954e+003, 5.217489e+001
1.129437e+003, 5.175994e+001
1.129919e+003, 5.180981e+001
1.130401e+003, 5.203497e+001
1.130883e+003, 5.209523e+001
1.131365e+003, 5.201077e+001
1.131847e+003, 5.178322e+001
1.132329e+003, 5.143555e+001
1.132811e+003, 5.153930e+001
1.133294e+003, 5.211817e+001
1.133776e+003, 5.242306e+001
1.134258e+003, 5.220399e+001
1.134740e+003, 5.181616e+001
1.135222e+003, 5.153648e+001
1.135704e+003, 5.136217e+001
1.136186e+003, 5.134035e+001
1.136668e+003, 5.141742e+001
1.137151e+003, 5.137973e+001
1.137633e+003, 5.123675e+001
1.138115e+003, 5.099738e+001
1.138597e+003, 5.070467e+001
1.139079e+003, 5.065645e+001
1.139561e+003, 5.102558e+001
1.140043e+003, 5.144469e+001
1.140525e+003, 5.140006e+001
1.141007e+003, 5.115749e+001
1.141490e+003, 5.127201e+001
1.141972e+003, 5.157054e+001
1.142454e+003, 5.161794e+001
1.142936e+003, 5.145872e+001
1.143418e+003, 5.149842e+001
1.143900e+003, 5.184005e+001
1.144382e+003, 5.202713e+001
1.144864e+003, 5.157571e+001
1.145346e+003, 5.109495e+001
1.145829e+003, 5.144542e+001
1.146311e+003, 5.198694e+001
1.146793e+003, 5.177863e+001
1.147275e+003, 5.116601e+001
1.147757e+003, 5.092314e+001
1.148239e+003, 5.113033e+001
1.148721e+003, 5.139662e+001
1.149203e+003, 5.158715e+001
1.149686e+003, 5.162689e+001
1.150168e+003, 5.133652e+001
1.150650e+003, 5.102534e+001
1.151132e+003, 5.086903e+001
1.151614e+003, 5.085726e+001
1.152096e+003, 5.104362e+001
1.152578e+003, 5.133633e+001
1.153060e+003, 5.150652e+001
1.153542e+003, 5.149597e+001
1.154025e+003, 5.159971e+001
1.154507e+003, 5.215108e+001
1.154989e+003, 5.250765e+001
1.155471e+003, 5.237658e+001
1.155953e+003, 5.205203e+001
1.156435e+003, 5.156374e+001
1.156917e+003, 5.109864e+001
1.157399e+003, 5.092589e+001
1.157881e+003, 5.102974e+001
1.158364e+003, 5.110705e+001
1.158846e+003, 5.107546e+001
1.159328e+003, 5.111772e+001
1.159810e+003, 5.130007e+001
1.160292e+003, 5.148618e+001
1.160774e+003, 5.172733e+001
1.161256e+003, 5.185720e+001
1.161738e+003, 5.168082e+001
1.162221e+003, 5.132680e+001
1.162703e+003, 5.108578e+001
1.163185e+003, 5.094869e+001
1.163667e+003, 5.103392e+001
1.164149e+003, 5.150059e+001
1.164631e+003, 5.170844e+001
1.165113e+003, 5.149562e+001
1.165595e+003, 5.119701e+001
1.166078e+003, 5.093801e+001
1.166560e+003, 5.078118e+001
1.167042e+003, 5.082927e+001
1.167524e+003, 5.102195e+001
1.168006e+003, 5.106612e+001
1.168488e+003, 5.095606e+001
1.168970e+003, 5.084212e+001
1.169452e+003, 5.072801e+001
1.169934e+003, 5.076324e+001
1.170417e+003, 5.099505e+001
1.170899e+003, 5.122081e+001
1.171381e+003, 5.128417e+001
1.171863e+003, 5.130840e+001
1.172345e+003, 5.159823e+001
1.172827e+003, 5.200072e+001
1.173309e+003, 5.184806e+001
1.173791e+003, 5.131817e+001
1.174273e+003, 5.118191e+001
1.174756e+003, 5.143819e+001
1.175238e+003, 5.140514e+001
1.175720e+003, 5.084351e+001
1.176202e+003, 5.038176e+001
1.176684e+003, 5.060405e+001
1.177166e+003, 5.111337e+001
1.177648e+003, 5.153583e+001
1.178130e+003, 5.183656e+001
1.178613e+003, 5.193093e+001
1.179095e+003, 5.188123e+001
1.179577e+003, 5.179881e+001
1.180059e+003, 5.171037e+001
1.180541e+003, 5.159565e+001
1.181023e+003, 5.143221e+001
1.181505e+003, 5.133220e+001
1.181987e+003, 5.141622e+001
1.182469e+003, 5.152363e+001
1.182952e+003, 5.155186e+001
1.183434e+003, 5.154766e+001
1.183916e+003, 5.156672e+001
1.184398e+003, 5.158887e+001
1.184880e+003, 5.157937e+001
1.185362e+003, 5.153059e+001
1.185844e+003, 5.140232e+001
1.186326e+003, 5.097835e+001
1.186808e+003, 5.079559e+001
1.187291e+003, 5.119377e+001
1.187773e+003, 5.154695e+001
1.188255e+003, 5.153109e+001
1.188737e+003, 5.139031e+001
1.189219e+003, 5.138226e+001
1.189701e+003, 5.143510e+001
1.190183e+003, 5.129081e+001
1.190665e+003, 5.084587e+001
1.191148e+003, 5.076536e+001
1.191630e+003, 5.120782e+001
1.192112e+003, 5.159342e+001
1.192594e+003, 5.188111e+001
1.193076e+003, 5.190154e+001
1.193558e+003, 5.148065e+001
1.194040e+003, 5.100829e+001
1.194522e+003, 5.101653e+001
1.195005e+003, 5.135679e+001
1.195487e+003, 5.138091e+001
1.195969e+003, 5.110436e+001
1.196451e+003, 5.092660e+001
1.196933e+003, 5.087059e+001
1.197415e+003, 5.098549e+001
1.197897e+003, 5.127285e+001
1.198379e+003, 5.151465e+001
1.198861e+003, 5.157384e+001
1.199344e+003, 5.151756e+001
1.199826e+003, 5.142550e+001
1.200308e+003, 5.129152e+001
1.200790e+003, 5.101751e+001
1.201272e+003, 5.072614e+001
1.201754e+003, 5.070895e+001
1.202236e+003, 5.093190e+001
1.202718e+003, 5.122438e+001
1.203200e+003, 5.152108e+001
1.203683e+003, 5.178272e+001
1.204165e+003, 5.203272e+001
1.204647e+003, 5.211198e+001
1.205129e+003, 5.167299e+001
1.205611e+003, 5.125308e+001
1.206093e+003, 5.145680e+001
1.206575e+003, 5.184336e+001
1.207057e+003, 5.184169e+001
1.207540e+003, 5.152772e+001
1.208022e+003, 5.126499e+001
1.208504e+003, 5.112832e+001
1.208986e+003, 5.101738e+001
1.209468e+003, 5.080183e+001
1.209950e+003, 5.076741e+001
1.210432e+003, 5.122869e+001
1.210914e+003, 5.158699e+001
1.211396e+003, 5.133530e+001
1.211879e+003, 5.101001e+001
1.212361e+003, 5.126682e+001
1.212843e+003, 5.190283e+001
1.213325e+003, 5.207145e+001
1.213807e+003, 5.163634e+001
1.214289e+003, 5.138094e+001
1.214771e+003, 5.131665e+001
1.215253e+003, 5.143587e+001
1.215735e+003, 5.180980e+001
1.216218e+003, 5.197561e+001
1.216700e+003, 5.164137e+001
1.217182e+003, 5.119827e+001
1.217664e+003, 5.113952e+001
1.218146e+003, 5.134549e+001
1.218628e+003, 5.137675e+001
1.219110e+003, 5.132041e+001
1.219592e+003, 5.183101e+001
1.220075e+003, 5.273763e+001
1.220557e+003, 5.289289e+001
1.221039e+003, 5.215383e+001
1.221521e+003, 5.149872e+001
1.222003e+003, 5.146897e+001
1.222485e+003, 5.167815e+001
1.222967e+003, 5.183324e+001
1.223449e+003, 5.192238e+001
1.223932e+003, 5.187130e+001
1.224414e+003, 5.179248e+001
1.224896e+003, 5.186974e+001
1.225378e+003, 5.202303e+001
1.225860e+003, 5.203214e+001
1.226342e+003, 5.189882e+001
1.226824e+003, 5.191212e+001
1.227306e+003, 5.231177e+001
1.227788e+003, 5.246090e+001
1.228271e+003, 5.180069e+001
1.228753e+003, 5.129642e+001
1.229235e+003, 5.155871e+001
1.229717e+003, 5.194492e+001
1.230199e+003, 5.186625e+001
1.230681e+003, 5.159674e+001
1.231163e+003, 5.174348e+001
1.231645e+003, 5.228743e+001
1.232127e+003, 5.230912e+001
1.232610e+003, 5.157447e+001
1.233092e+003, 5.101262e+001
1.233574e+003, 5.063640e+001
1.234056e+003, 5.058424e+001
1.234538e+003, 5.098004e+001
1.235020e+003, 5.130643e+001
1.235502e+003, 5.114808e+001
1.235984e+003, 5.084583e+001
1.236467e+003, 5.107017e+001
1.236949e+003, 5.161890e+001
1.237431e+003, 5.153186e+001
1.237913e+003, 5.098009e+001
1.238395e+003, 5.068538e+001
1.238877e+003, 5.071040e+001
1.239359e+003, 5.097533e+001
1.239841e+003, 5.141516e+001
1.240323e+003, 5.182357e+001
1.240806e+003, 5.208978e+001
1.241288e+003, 5.215856e+001
1.241770e+003, 5.180864e+001
1.242252e+003, 5.141115e+001
1.242734e+003, 5.130666e+001
1.243216e+003, 5.139042e+001
1.243698e+003, 5.161351e+001
1.244180e+003, 5.186925e+001
1.244662e+003, 5.196558e+001
1.245145e+003, 5.188127e+001
1.245627e+003, 5.180305e+001
1.246109e+003, 5.173676e+001
1.246591e+003, 5.175728e+001
1.247073e+003, 5.202950e+001
1.247555e+003, 5.218153e+001
1.248037e+003, 5.194174e+001
1.248519e+003, 5.172752e+001
1.249002e+003, 5.190461e+001
1.249484e+003, 5.222525e+001
1.249966e+003, 5.221319e+001
1.250448e+003, 5.189524e+001
1.250930e+003, 5.174467e+001
1.251412e+003, 5.177610e+001
1.251894e+003, 5.183850e+001
1.252376e+003, 5.192498e+001
1.252859e+003, 5.189215e+001
1.253341e+003, 5.169773e+001
1.253823e+003, 5.146106e+001
1.254305e+003, 5.125205e+001
1.254787e+003, 5.116343e+001
1.255269e+003, 5.141766e+001
1.255751e+003, 5.180758e+001
1.256233e+003, 5.195835e+001
1.256715e+003, 5.195465e+001
1.257198e+003, 5.182211e+001
1.257680e+003, 5.171840e+001
1.258162e+003, 5.215422e+001
1.258644e+003, 5.305561e+001
1.259126e+003, 5.340321e+001
1.259608e+003, 5.258570e+001
1.260090e+003, 5.187896e+001
1.260572e+003, 5.206328e+001
1.261054e+003, 5.225063e+001
1.261537e+003, 5.187146e+001
1.262019e+003, 5.148499e+001
1.262501e+003, 5.159688e+001
1.262983e+003, 5.194386e+001
1.263465e+003, 5.209909e+001
1.263947e+003, 5.207947e+001
1.264429e+003, 5.203646e+001
1.264911e+003, 5.192595e+001
1.265394e+003, 5.198526e+001
1.265876e+003, 5.231115e+001
1.266358e+003, 5.230107e+001
1.266840e+003, 5.174672e+001
1.267322e+003, 5.141205e+001
1.267804e+003, 5.174253e+001
1.268286e+003, 5.226126e+001
1.268768e+003, 5.241618e+001
1.269250e+003, 5.229687e+001
1.269733e+003, 5.193391e+001
1.270215e+003, 5.153316e+001
1.270697e+003, 5.179786e+001
1.271179e+003, 5.242406e+001
1.271661e+003, 5.244128e+001
1.272143e+003, 5.188463e+001
1.272625e+003, 5.162443e+001
1.273107e+003, 5.198641e+001
1.273589e+003, 5.233886e+001
1.274072e+003, 5.231503e+001
1.274554e+003, 5.217271e+001
1.275036e+003, 5.188144e+001
1.275518e+003, 5.169420e+001
1.276000e+003, 5.186256e+001
1.276482e+003, 5.215760e+001
1.276964e+003, 5.236209e+001
1.277446e+003, 5.247055e+001
1.277929e+003, 5.249070e+001
1.278411e+003, 5.241936e+001
1.278893e+003, 5.229220e+001
1.279375e+003, 5.209261e+001
1.279857e+003, 5.188971e+001
1.280339e+003, 5.167154e+001
1.280821e+003, 5.156651e+001
1.281303e+003, 5.162923e+001
1.281786e+003, 5.177940e+001
1.282268e+003, 5.195251e+001
##END=



