##NAMES=Anorthite
##RRUFFID=R060275
##IDEAL CHEMISTRY=CaAl_2_Si_2_O_8_
##LOCALITY=Madagascar
##OWNER=RRUFF
##SOURCE=Herb Obodda
##DESCRIPTION=Colorless to light gray fragment
##STATUS=The identification of this mineral has been confirmed by X-ray diffraction and chemical analysis
##URL=rruff.info/R060275
##MEASURED CHEMISTRY=(Na_0.44_K_0.03_Ca_0.53_)_Î£=1_Al_1.53_Si_2.47_O_8_
90.49219, 50.05062
90.97430, 50.59287
91.45642, 50.78738
91.93854, 50.77469
92.42065, 50.36799
92.90277, 48.85226
93.38489, 45.84128
93.86700, 43.20763
94.34912, 43.97752
94.83124, 47.59598
95.31335, 50.85928
95.79547, 50.74584
96.27759, 48.34171
96.75970, 48.61242
97.24182, 53.28519
97.72394, 59.64816
98.20605, 61.52439
98.68817, 58.52667
99.17029, 54.15455
99.65240, 50.72639
100.1345, 48.23536
100.6166, 46.64635
101.0988, 45.76804
101.5809, 45.72198
102.0630, 48.06905
102.5451, 54.15952
103.0272, 60.28093
103.5093, 61.84513
103.9915, 56.88331
104.4736, 52.44581
104.9557, 50.74707
105.4378, 52.51836
105.9199, 52.92086
106.4020, 51.59012
106.8842, 49.07667
107.3663, 46.10683
107.8484, 40.98150
108.3305, 37.41078
108.8126, 36.98956
109.2947, 43.23058
109.7769, 46.77357
110.2590, 45.74294
110.7411, 41.68468
111.2232, 39.43158
111.7053, 40.62058
112.1874, 42.53223
112.6696, 43.94164
113.1517, 45.56363
113.6338, 45.78497
114.1159, 43.03830
114.5980, 37.95109
115.0801, 34.94114
115.5623, 37.36424
116.0444, 41.16937
116.5265, 43.21684
117.0086, 40.71285
117.4907, 38.06777
117.9728, 36.59968
118.4550, 36.35993
118.9371, 37.57539
119.4192, 42.26611
119.9013, 48.05771
120.3834, 51.84648
120.8655, 51.10362
121.3477, 48.71256
121.8298, 46.51823
122.3119, 44.64420
122.7940, 43.10170
123.2761, 41.96113
123.7582, 41.16374
124.2404, 40.57861
124.7225, 40.01221
125.2046, 39.66179
125.6867, 39.64835
126.1688, 39.80033
126.6509, 40.74593
127.1331, 44.02334
127.6152, 49.12157
128.0973, 53.50103
128.5794, 55.19159
129.0615, 54.86574
129.5436, 53.86954
130.0258, 51.78748
130.5079, 49.94258
130.9900, 50.94823
131.4721, 54.79380
131.9542, 59.67045
132.4363, 64.71910
132.9185, 69.75892
133.4006, 73.38814
133.8827, 74.37275
134.3648, 73.78508
134.8469, 75.89281
135.3290, 81.09176
135.8112, 87.27334
136.2933, 90.72610
136.7754, 91.03413
137.2575, 95.36891
137.7396, 108.3740
138.2217, 129.4662
138.7039, 144.2347
139.1860, 150.7751
139.6681, 154.0112
140.1502, 162.0088
140.6323, 176.1360
141.1144, 190.1986
141.5966, 201.7548
142.0787, 210.1581
142.5608, 218.6315
143.0429, 227.2072
143.5250, 235.8147
144.0071, 244.2638
144.4893, 252.5232
144.9714, 260.5563
145.4535, 268.1851
145.9356, 275.1404
146.4177, 282.3651
146.8998, 289.7666
147.3820, 297.4476
147.8641, 306.1953
148.3462, 316.2805
148.8283, 327.0648
149.3104, 338.3561
149.7925, 350.5276
150.2747, 362.6390
150.7568, 374.1546
151.2389, 385.1815
151.7210, 397.1120
152.2031, 411.7503
152.6852, 426.0769
153.1674, 438.3744
153.6495, 445.2469
154.1316, 453.4460
154.6137, 464.8595
155.0958, 479.5858
155.5779, 492.5879
156.0601, 504.6519
156.5422, 514.1700
157.0243, 519.6036
157.5064, 515.7945
157.9885, 512.4196
158.4706, 512.5770
158.9528, 516.8375
159.4349, 520.9578
159.9170, 522.6796
160.3991, 524.0323
160.8812, 527.3619
161.3633, 535.3615
161.8455, 543.8641
162.3276, 550.9314
162.8097, 555.9579
163.2918, 561.2042
163.7739, 566.9489
164.2560, 572.8936
164.7382, 575.9641
165.2203, 579.9006
165.7024, 584.8438
166.1845, 590.4024
166.6666, 596.9647
167.1487, 602.7566
167.6309, 606.1222
168.1130, 608.0739
168.5951, 610.6846
169.0772, 615.8370
169.5593, 621.5983
170.0414, 625.8214
170.5236, 626.8779
171.0057, 629.3088
171.4878, 638.2593
171.9699, 651.7513
172.4520, 663.5934
172.9341, 669.7848
173.4163, 672.7455
173.8984, 675.0792
174.3805, 676.8487
174.8626, 678.9780
175.3447, 682.2252
175.8268, 686.5612
176.3090, 691.9531
176.7911, 699.2893
177.2732, 707.4516
177.7553, 714.6495
178.2374, 720.6547
178.7195, 725.2903
179.2017, 726.9883
179.6838, 726.1791
180.1659, 726.9182
180.6480, 733.8443
181.1301, 744.6971
181.6122, 754.3279
182.0944, 760.8422
182.5765, 765.6500
183.0586, 771.1771
183.5407, 777.3221
184.0228, 783.7172
184.5049, 790.9134
184.9871, 798.3084
185.4692, 803.2740
185.9513, 803.5995
186.4334, 801.5338
186.9155, 802.9836
187.3976, 808.2217
187.8798, 813.7158
188.3619, 815.1815
188.8440, 813.2912
189.3261, 812.2872
189.8082, 814.1414
190.2903, 817.9676
190.7725, 820.6600
191.2546, 822.1976
191.7367, 822.9083
192.2188, 823.1375
192.7009, 822.8887
193.1830, 822.1753
193.6652, 821.0438
194.1473, 819.4618
194.6294, 817.1000
195.1115, 813.7779
195.5936, 810.2764
196.0757, 807.3599
196.5579, 805.0055
197.0400, 803.7761
197.5221, 805.1560
198.0042, 808.7682
198.4863, 807.6971
198.9684, 800.5790
199.4506, 791.8160
199.9327, 788.2189
200.4148, 790.1792
200.8969, 793.3417
201.3790, 797.2737
201.8611, 802.1346
202.3433, 801.7347
202.8254, 794.8126
203.3075, 784.6105
203.7896, 776.8058
204.2717, 771.8354
204.7538, 766.7367
205.2360, 760.0990
205.7181, 751.7130
206.2002, 743.7068
206.6823, 736.2130
207.1644, 728.9347
207.6465, 721.4542
208.1287, 714.0156
208.6108, 705.8221
209.0929, 696.1061
209.5750, 684.2745
210.0571, 674.1886
210.5392, 666.4193
211.0214, 659.8301
211.5035, 651.9953
211.9856, 642.6989
212.4677, 633.0251
212.9498, 623.3550
213.4319, 613.7282
213.9140, 604.2949
214.3962, 594.9598
214.8783, 585.8309
215.3604, 577.4199
215.8425, 569.9223
216.3246, 562.5040
216.8067, 554.5188
217.2889, 545.5809
217.7710, 537.6110
218.2531, 530.6402
218.7352, 524.6464
219.2173, 519.6066
219.6994, 516.0488
220.1816, 512.3852
220.6637, 507.6649
221.1458, 501.1880
221.6279, 495.6747
222.1100, 491.3651
222.5921, 487.9475
223.0743, 484.4126
223.5564, 480.4538
224.0385, 476.9821
224.5206, 474.5522
225.0027, 473.4594
225.4848, 472.6062
225.9670, 472.3155
226.4491, 472.1628
226.9312, 470.9034
227.4133, 467.9636
227.8954, 464.8523
228.3775, 462.2468
228.8597, 460.0066
229.3418, 458.5973
229.8239, 458.6931
230.3060, 459.4243
230.7881, 458.0904
231.2702, 452.7645
231.7524, 448.2355
232.2345, 446.8761
232.7166, 450.1840
233.1987, 453.1529
233.6808, 455.9844
234.1629, 458.3970
234.6451, 459.6378
235.1272, 459.4467
235.6093, 458.4789
236.0914, 456.8197
236.5735, 453.5954
237.0556, 451.7945
237.5378, 452.0858
238.0199, 453.6222
238.5020, 454.1520
238.9841, 452.8362
239.4662, 451.7808
239.9483, 451.8668
240.4305, 453.3113
240.9126, 455.4864
241.3947, 459.1108
241.8768, 463.2346
242.3589, 465.2963
242.8410, 463.7698
243.3232, 462.4993
243.8053, 463.1924
244.2874, 466.7726
244.7695, 470.1998
245.2516, 474.0979
245.7337, 477.6283
246.2159, 478.6569
246.6980, 475.5634
247.1801, 472.5158
247.6622, 470.9830
248.1443, 470.9923
248.6264, 472.6915
249.1086, 477.3589
249.5907, 483.1128
250.0728, 485.7582
250.5549, 483.2392
251.0370, 481.0842
251.5191, 481.7245
252.0013, 486.5091
252.4834, 489.4400
252.9655, 489.7028
253.4476, 488.5667
253.9297, 488.3347
254.4118, 489.2290
254.8940, 490.5985
255.3761, 492.2840
255.8582, 494.3860
256.3403, 496.5308
256.8224, 499.1385
257.3046, 501.4789
257.7867, 501.9366
258.2688, 499.1388
258.7509, 497.4008
259.2330, 498.5517
259.7151, 503.3096
260.1973, 506.7646
260.6794, 508.5736
261.1615, 509.3650
261.6436, 509.8792
262.1257, 509.9214
262.6078, 510.1559
263.0900, 510.6429
263.5721, 511.3113
264.0542, 513.0853
264.5363, 516.4904
265.0184, 520.3772
265.5005, 523.4606
265.9827, 525.6918
266.4648, 527.1263
266.9469, 527.4760
267.4290, 526.6966
267.9111, 526.5575
268.3932, 526.9134
268.8754, 528.1372
269.3575, 530.8395
269.8396, 535.4173
270.3217, 540.2113
270.8038, 545.2818
271.2859, 550.5492
271.7681, 553.0888
272.2502, 551.9385
272.7323, 550.0667
273.2144, 550.6442
273.6965, 554.0979
274.1786, 557.6821
274.6608, 560.9213
275.1429, 563.8256
275.6250, 566.7674
276.1071, 570.0189
276.5892, 572.5363
277.0714, 572.7347
277.5535, 570.2362
278.0356, 568.9435
278.5177, 569.6340
278.9998, 572.0627
279.4819, 575.8126
279.9641, 581.4382
280.4462, 586.2487
280.9283, 587.4078
281.4104, 584.7593
281.8925, 583.5591
282.3746, 585.4238
282.8568, 588.6273
283.3389, 587.4169
283.8210, 581.1888
284.3031, 575.1858
284.7852, 574.0798
285.2673, 577.4974
285.7495, 578.5250
286.2316, 575.9651
286.7137, 571.1019
287.1958, 566.2770
287.6779, 561.4786
288.1600, 556.8754
288.6422, 552.2917
289.1243, 547.8275
289.6064, 545.0015
290.0885, 544.5591
290.5706, 544.1377
291.0527, 538.7546
291.5349, 528.8077
292.0170, 520.0468
292.4991, 517.4362
292.9812, 518.8744
293.4633, 516.4745
293.9454, 509.3416
294.4276, 500.4185
294.9097, 493.2181
295.3918, 487.5526
295.8739, 482.6046
296.3560, 478.2430
296.8381, 474.3019
297.3203, 470.8576
297.8024, 468.0470
298.2845, 464.5890
298.7666, 458.2453
299.2487, 450.0061
299.7308, 442.7308
300.2130, 438.2081
300.6951, 435.1424
301.1772, 431.4359
301.6593, 427.1109
302.1414, 422.6679
302.6235, 418.4116
303.1057, 414.3900
303.5878, 410.8123
304.0699, 407.8590
304.5520, 405.2482
305.0341, 402.8753
305.5162, 400.6871
305.9984, 398.0995
306.4805, 393.7271
306.9626, 388.9594
307.4447, 386.0315
307.9268, 386.8550
308.4089, 387.8796
308.8911, 385.2394
309.3732, 379.8144
309.8553, 375.2376
310.3374, 373.9572
310.8195, 374.4240
311.3016, 375.3445
311.7838, 376.9368
312.2659, 377.8870
312.7480, 376.4400
313.2301, 373.6031
313.7122, 371.8388
314.1943, 373.5013
314.6765, 375.8722
315.1586, 377.0499
315.6407, 376.6086
316.1228, 375.5359
316.6049, 373.5601
317.0870, 371.3503
317.5692, 370.0309
318.0513, 371.8502
318.5334, 373.1281
319.0155, 371.2900
319.4976, 365.4674
319.9797, 361.2958
320.4619, 361.7457
320.9440, 364.4170
321.4261, 366.6103
321.9082, 367.9103
322.3903, 368.4260
322.8724, 367.6940
323.3546, 365.6846
323.8367, 364.5517
324.3188, 366.4998
324.8009, 368.5122
325.2830, 368.2731
325.7651, 360.4320
326.2473, 355.9695
326.7294, 358.4960
327.2115, 366.9370
327.6936, 372.7016
328.1757, 374.1473
328.6578, 373.6015
329.1400, 372.1561
329.6221, 367.9776
330.1042, 365.4174
330.5863, 365.3083
331.0684, 366.8539
331.5505, 367.7317
332.0327, 367.6922
332.5148, 367.2705
332.9969, 366.4935
333.4790, 364.8260
333.9611, 364.4935
334.4432, 366.9255
334.9254, 369.8601
335.4075, 368.9247
335.8896, 361.4931
336.3717, 355.5303
336.8538, 354.1833
337.3359, 358.0717
337.8180, 359.5663
338.3001, 357.8441
338.7823, 355.0000
339.2644, 353.5790
339.7465, 354.0211
340.2286, 353.8878
340.7107, 352.3983
341.1928, 349.7867
341.6750, 347.8582
342.1571, 346.6586
342.6392, 345.8500
343.1213, 344.9702
343.6034, 344.0085
344.0855, 344.1100
344.5677, 345.9179
345.0498, 348.4218
345.5319, 349.0001
346.0140, 347.6062
346.4961, 345.6332
346.9782, 343.7507
347.4604, 341.9864
347.9425, 340.4265
348.4246, 338.9290
348.9067, 338.0573
349.3888, 339.2001
349.8709, 341.9765
350.3531, 344.2526
350.8352, 344.2741
351.3173, 343.2173
351.7994, 343.7572
352.2815, 346.1349
352.7636, 348.2133
353.2458, 347.3676
353.7279, 344.6849
354.2100, 342.5176
354.6921, 342.0925
355.1742, 342.3815
355.6563, 342.4027
356.1385, 342.1662
356.6206, 341.8125
357.1027, 341.0762
357.5848, 340.4071
358.0669, 340.4320
358.5490, 341.9944
359.0312, 343.2694
359.5133, 342.3624
359.9954, 340.0738
360.4775, 338.8770
360.9596, 340.9075
361.4417, 343.8135
361.9239, 346.1392
362.4060, 347.7480
362.8881, 348.4926
363.3702, 347.8679
363.8523, 346.4285
364.3344, 345.0253
364.8166, 342.8694
365.2987, 341.7039
365.7808, 342.8752
366.2629, 346.8688
366.7450, 349.4082
367.2271, 348.8109
367.7093, 346.9803
368.1914, 345.5898
368.6735, 344.6235
369.1556, 344.2973
369.6377, 345.2728
370.1198, 347.2878
370.6020, 347.8786
371.0841, 345.6051
371.5662, 343.2419
372.0483, 342.3422
372.5304, 343.8999
373.0125, 344.9897
373.4947, 345.1359
373.9768, 344.9156
374.4589, 345.9553
374.9410, 349.3279
375.4231, 351.7142
375.9052, 351.1520
376.3874, 346.8812
376.8695, 346.1905
377.3516, 350.4565
377.8337, 355.9793
378.3158, 357.8012
378.7979, 355.3584
379.2801, 353.5495
379.7622, 354.0931
380.2443, 356.2717
380.7264, 356.5376
381.2085, 354.6187
381.6906, 352.6855
382.1728, 352.8072
382.6549, 354.6688
383.1370, 356.1591
383.6191, 356.6953
384.1012, 357.1268
384.5833, 359.3691
385.0655, 363.1423
385.5476, 366.3227
386.0297, 367.0125
386.5118, 366.4795
386.9939, 367.0253
387.4760, 368.8788
387.9582, 371.4876
388.4403, 374.9604
388.9224, 378.8201
389.4045, 382.0540
389.8866, 384.2259
390.3687, 385.6512
390.8509, 386.3635
391.3330, 386.4143
391.8151, 386.3550
392.2972, 385.6923
392.7793, 385.4494
393.2614, 386.7626
393.7436, 391.3707
394.2257, 395.4787
394.7078, 396.6017
395.1899, 395.8980
395.6720, 396.4074
396.1541, 399.7596
396.6363, 404.0165
397.1184, 408.4675
397.6005, 413.3260
398.0826, 417.4712
398.5647, 420.0104
399.0468, 421.9976
399.5290, 424.7100
400.0111, 429.1981
400.4932, 433.3734
400.9753, 436.6193
401.4574, 438.9559
401.9395, 442.0888
402.4217, 446.6934
402.9038, 451.4025
403.3859, 455.2665
403.8680, 457.8880
404.3501, 460.6877
404.8322, 464.1039
405.3144, 467.5748
405.7965, 469.3084
406.2786, 468.8337
406.7607, 468.2289
407.2428, 468.6588
407.7249, 470.1865
408.2071, 470.5878
408.6892, 469.7804
409.1713, 468.1085
409.6534, 465.5441
410.1355, 462.1750
410.6176, 459.6744
411.0998, 459.2538
411.5819, 459.5367
412.0640, 456.6650
412.5461, 450.7778
413.0282, 444.7706
413.5103, 440.9418
413.9925, 438.6446
414.4746, 436.5732
414.9567, 434.5714
415.4388, 432.5726
415.9209, 430.4597
416.4030, 428.2807
416.8852, 426.0925
417.3673, 425.1024
417.8494, 423.3760
418.3315, 417.9952
418.8136, 408.7805
419.2957, 401.6671
419.7779, 402.5487
420.2600, 406.1576
420.7421, 407.1998
421.2242, 399.9786
421.7063, 394.3348
422.1884, 394.9561
422.6706, 400.0828
423.1527, 403.0732
423.6348, 399.6651
424.1169, 395.9652
424.5990, 394.9324
425.0811, 398.4110
425.5633, 400.8716
426.0454, 401.9721
426.5275, 402.0320
427.0096, 401.2804
427.4917, 398.1114
427.9738, 396.6531
428.4560, 398.4357
428.9381, 403.2636
429.4202, 406.0573
429.9023, 405.7269
430.3844, 405.3082
430.8665, 407.3518
431.3487, 412.4451
431.8308, 416.3600
432.3129, 418.5936
432.7950, 419.6497
433.2771, 420.1216
433.7592, 419.9536
434.2414, 420.4380
434.7235, 423.0994
435.2056, 427.0186
435.6877, 427.7266
436.1698, 424.9472
436.6519, 422.3201
437.1341, 423.6975
437.6162, 428.0986
438.0983, 433.2536
438.5804, 439.4887
439.0625, 444.8652
439.5446, 446.3965
440.0268, 444.9347
440.5089, 443.5829
440.9910, 444.0309
441.4731, 445.4679
441.9552, 447.2386
442.4373, 449.2576
442.9195, 451.5741
443.4016, 454.1261
443.8837, 457.0173
444.3658, 460.3729
444.8479, 465.2908
445.3300, 469.6130
445.8122, 472.6141
446.2943, 474.3495
446.7764, 475.6903
447.2585, 476.1476
447.7406, 476.7057
448.2227, 477.7921
448.7049, 478.9811
449.1870, 481.5895
449.6691, 486.8771
450.1512, 492.9461
450.6333, 496.4117
451.1154, 495.6138
451.5976, 495.8353
452.0797, 498.5422
452.5618, 503.6019
453.0439, 509.3364
453.5260, 515.9620
454.0081, 522.2487
454.4903, 526.9448
454.9724, 530.0385
455.4545, 533.5003
455.9366, 537.6364
456.4187, 542.0184
456.9008, 545.2579
457.3830, 547.6876
457.8651, 551.4640
458.3472, 558.1688
458.8293, 566.7679
459.3114, 575.8287
459.7935, 585.2524
460.2757, 594.7040
460.7578, 604.3098
461.2399, 613.5502
461.7220, 621.3849
462.2041, 626.2443
462.6862, 632.0287
463.1684, 641.7828
463.6505, 654.4498
464.1326, 667.3680
464.6147, 678.3636
465.0968, 690.3219
465.5789, 705.2261
466.0611, 723.7877
466.5432, 740.7301
467.0253, 752.1490
467.5074, 762.9022
467.9895, 777.0040
468.4716, 797.9565
468.9538, 818.3483
469.4359, 836.7598
469.9180, 854.1418
470.4001, 873.8701
470.8822, 896.9307
471.3643, 920.3844
471.8465, 942.9391
472.3286, 964.4341
472.8107, 986.9929
473.2928, 1010.478
473.7749, 1034.717
474.2570, 1059.106
474.7392, 1083.660
475.2213, 1108.810
475.7034, 1135.108
476.1855, 1161.516
476.6676, 1186.282
477.1497, 1209.452
477.6319, 1230.400
478.1140, 1248.369
478.5961, 1264.213
479.0782, 1280.187
479.5603, 1296.678
480.0424, 1309.710
480.5246, 1314.725
481.0067, 1314.580
481.4888, 1313.448
481.9709, 1314.407
482.4530, 1312.719
482.9352, 1305.125
483.4173, 1292.759
483.8994, 1279.211
484.3815, 1266.257
484.8636, 1251.867
485.3457, 1234.812
485.8279, 1214.252
486.3100, 1193.617
486.7921, 1171.435
487.2742, 1150.318
487.7563, 1132.457
488.2384, 1119.199
488.7206, 1106.753
489.2027, 1094.314
489.6848, 1082.436
490.1669, 1073.412
490.6490, 1067.740
491.1311, 1063.634
491.6133, 1059.434
492.0954, 1055.194
492.5775, 1056.870
493.0596, 1065.047
493.5417, 1076.730
494.0238, 1088.019
494.5060, 1099.739
494.9881, 1115.940
495.4702, 1138.417
495.9523, 1164.352
496.4344, 1189.306
496.9165, 1213.895
497.3987, 1240.307
497.8808, 1269.802
498.3629, 1301.990
498.8450, 1337.192
499.3271, 1375.838
499.8092, 1414.462
500.2914, 1450.960
500.7735, 1486.873
501.2556, 1524.730
501.7377, 1567.569
502.2198, 1608.804
502.7019, 1648.171
503.1841, 1685.124
503.6662, 1718.495
504.1483, 1745.455
504.6304, 1772.417
505.1125, 1802.280
505.5946, 1835.883
506.0768, 1862.241
506.5589, 1879.897
507.0410, 1892.210
507.5231, 1901.578
508.0052, 1907.922
508.4873, 1912.123
508.9695, 1914.729
509.4516, 1914.415
509.9337, 1908.625
510.4158, 1897.426
510.8979, 1882.122
511.3800, 1863.165
511.8622, 1840.371
512.3443, 1812.831
512.8264, 1780.820
513.3085, 1745.260
513.7906, 1707.064
514.2728, 1665.740
514.7549, 1620.059
515.2370, 1568.679
515.7191, 1516.374
516.2012, 1464.761
516.6833, 1414.630
517.1655, 1366.314
517.6476, 1320.752
518.1297, 1276.296
518.6118, 1232.129
519.0939, 1188.368
519.5760, 1146.264
520.0582, 1106.622
520.5403, 1068.474
521.0224, 1031.948
521.5045, 996.9424
521.9866, 963.0073
522.4688, 929.0824
522.9509, 897.3705
523.4330, 870.6413
523.9151, 849.6558
524.3972, 829.4567
524.8793, 809.3933
525.3615, 789.3851
525.8436, 767.9044
526.3257, 744.9324
526.8078, 724.6434
527.2899, 711.4154
527.7720, 702.0547
528.2542, 688.9142
528.7363, 671.6090
529.2184, 654.3667
529.7005, 641.4866
530.1826, 630.8325
530.6647, 619.4186
531.1469, 605.5892
531.6290, 592.4116
532.1111, 581.2118
532.5932, 572.0081
533.0753, 564.8682
533.5574, 562.0040
534.0396, 559.0072
534.5217, 553.9233
535.0038, 546.5667
535.4859, 540.2569
535.9680, 535.0146
536.4501, 530.9282
536.9323, 528.1709
537.4144, 527.1598
537.8965, 526.3272
538.3786, 525.8526
538.8607, 525.2809
539.3428, 523.6133
539.8250, 520.6965
540.3071, 518.6498
540.7892, 518.1840
541.2713, 518.9067
541.7534, 520.3710
542.2355, 522.4618
542.7177, 523.9232
543.1998, 523.6785
543.6819, 522.4099
544.1640, 520.6099
544.6461, 518.2183
545.1282, 517.2944
545.6104, 521.3521
546.0925, 526.8472
546.5746, 529.6808
547.0567, 526.4240
547.5388, 523.5770
548.0209, 523.2095
548.5031, 524.8015
548.9852, 527.1873
549.4673, 531.7275
549.9494, 535.4113
550.4315, 537.0219
550.9136, 536.5738
551.3958, 537.6044
551.8779, 540.9183
552.3600, 544.3645
552.8421, 546.8705
553.3242, 548.5114
553.8063, 547.8901
554.2885, 544.0996
554.7706, 540.3873
555.2527, 541.4801
555.7348, 546.7954
556.2169, 552.8531
556.6990, 559.0238
557.1812, 564.7972
557.6633, 569.2066
558.1454, 572.4944
558.6275, 575.5856
559.1096, 577.7383
559.5917, 580.7610
560.0739, 587.0839
560.5560, 596.9570
561.0381, 605.1263
561.5202, 607.5287
562.0023, 608.5031
562.4844, 611.3275
562.9666, 619.1332
563.4487, 624.7488
563.9308, 626.9413
564.4129, 627.1437
564.8950, 627.5095
565.3771, 628.3949
565.8593, 628.6017
566.3414, 627.7425
566.8235, 626.0084
567.3056, 624.6731
567.7877, 624.0263
568.2698, 621.6523
568.7520, 615.2776
569.2341, 605.9077
569.7162, 596.8932
570.1983, 588.3953
570.6804, 580.5289
571.1625, 574.5688
571.6447, 569.1261
572.1268, 561.7841
572.6089, 551.0875
573.0910, 540.1649
573.5731, 530.7828
574.0552, 522.5396
574.5374, 514.5206
575.0195, 507.0104
575.5016, 499.2001
575.9837, 490.2025
576.4658, 480.2874
576.9479, 472.1731
577.4301, 467.1059
577.9122, 462.5191
578.3943, 457.0265
578.8764, 450.1632
579.3585, 445.5489
579.8406, 444.0606
580.3228, 442.8638
580.8049, 438.3239
581.2870, 430.7213
581.7691, 424.9598
582.2512, 422.2513
582.7333, 420.8971
583.2155, 418.3992
583.6975, 415.1478
584.1796, 412.2555
584.6617, 410.3290
585.1439, 408.9521
585.6260, 408.0389
586.1081, 407.4510
586.5902, 406.5097
587.0723, 404.4567
587.5544, 402.3120
588.0366, 400.4969
588.5187, 398.9594
589.0008, 398.2690
589.4829, 399.4504
589.9650, 400.8662
590.4471, 401.1703
590.9293, 399.3636
591.4114, 399.0028
591.8935, 401.1942
592.3756, 403.9907
592.8577, 403.2755
593.3398, 398.7995
593.8220, 395.2471
594.3041, 394.4965
594.7862, 395.3621
595.2683, 395.2021
595.7504, 394.1127
596.2325, 392.7880
596.7147, 391.7192
597.1968, 390.6263
597.6789, 388.9391
598.1610, 386.6041
598.6431, 384.7744
599.1252, 384.2682
599.6074, 384.4629
600.0895, 384.9074
600.5716, 385.9475
601.0537, 386.4914
601.5358, 386.3716
602.0179, 385.6641
602.5001, 384.3780
602.9822, 382.1343
603.4643, 380.1107
603.9464, 378.6191
604.4285, 377.4218
604.9106, 375.5601
605.3928, 372.9531
605.8749, 370.5035
606.3570, 368.2419
606.8391, 366.5146
607.3212, 367.2482
607.8033, 370.3058
608.2855, 372.4583
608.7676, 370.3599
609.2497, 366.2314
609.7318, 362.6751
610.2139, 359.9351
610.6960, 358.4011
611.1782, 359.3003
611.6603, 361.0601
612.1424, 362.0200
612.6245, 361.5465
613.1066, 360.5492
613.5887, 358.4091
614.0709, 355.9671
614.5530, 354.9063
615.0351, 355.5931
615.5172, 357.0195
615.9993, 359.4849
616.4814, 362.4804
616.9636, 362.9862
617.4457, 360.8332
617.9278, 358.1973
618.4099, 355.6895
618.8920, 353.8343
619.3741, 354.6466
619.8563, 358.2435
620.3384, 361.7086
620.8205, 362.5209
621.3026, 361.8880
621.7847, 361.2553
622.2668, 360.9898
622.7490, 360.5437
623.2311, 359.0756
623.7132, 357.4901
624.1953, 356.9443
624.6774, 357.9117
625.1595, 359.6673
625.6417, 362.8436
626.1238, 366.6315
626.6059, 368.8252
627.0880, 369.4798
627.5701, 368.2967
628.0522, 364.1512
628.5344, 358.1045
629.0165, 355.8166
629.4986, 357.3484
629.9807, 359.9682
630.4628, 362.6203
630.9449, 364.7620
631.4271, 365.1215
631.9092, 363.5488
632.3913, 361.6815
632.8734, 360.0994
633.3555, 359.1274
633.8376, 359.1708
634.3198, 360.8489
634.8019, 362.4810
635.2840, 364.3907
635.7661, 365.7188
636.2482, 365.1873
636.7303, 360.7944
637.2125, 357.9320
637.6946, 357.8901
638.1767, 359.6083
638.6588, 360.1337
639.1409, 359.3688
639.6230, 358.0976
640.1052, 356.1918
640.5873, 354.1604
641.0694, 353.8087
641.5515, 355.0143
642.0336, 356.3782
642.5157, 357.8481
642.9979, 358.4829
643.4800, 356.5466
643.9621, 351.7614
644.4442, 347.6397
644.9263, 345.6812
645.4084, 345.2133
645.8906, 345.9303
646.3727, 349.6340
646.8548, 350.9583
647.3369, 347.4909
647.8190, 343.0177
648.3011, 342.4431
648.7833, 347.3430
649.2654, 350.9010
649.7475, 352.1534
650.2296, 351.4701
650.7117, 348.8123
651.1938, 344.4049
651.6760, 341.2570
652.1581, 341.1733
652.6402, 342.5768
653.1223, 343.3432
653.6044, 343.5433
654.0865, 343.5086
654.5687, 343.5022
655.0508, 343.2631
655.5329, 342.3269
656.0150, 340.6348
656.4971, 339.7214
656.9792, 340.0433
657.4614, 341.1803
657.9435, 343.2246
658.4256, 347.0975
658.9077, 348.3385
659.3898, 345.8481
659.8719, 342.6539
660.3541, 342.1480
660.8362, 344.2319
661.3183, 345.7486
661.8004, 346.1451
662.2825, 346.0967
662.7646, 346.5245
663.2468, 347.2012
663.7289, 347.5880
664.2110, 347.6492
664.6931, 347.1644
665.1752, 345.5839
665.6573, 343.3520
666.1395, 341.4800
666.6216, 339.9155
667.1037, 339.1279
667.5858, 339.6782
668.0679, 341.3251
668.5500, 342.4030
669.0322, 342.5543
669.5143, 342.8787
669.9964, 344.1679
670.4785, 346.2855
670.9606, 346.6630
671.4427, 345.1048
671.9249, 343.7111
672.4070, 344.4383
672.8891, 346.5030
673.3712, 348.4149
673.8533, 350.0735
674.3354, 351.0724
674.8176, 350.6046
675.2997, 349.5904
675.7818, 349.0426
676.2639, 349.6065
676.7460, 349.8454
677.2281, 348.5053
677.7103, 347.0946
678.1924, 347.5551
678.6745, 350.9218
679.1566, 353.9458
679.6387, 356.3646
680.1208, 358.0735
680.6030, 358.7397
681.0851, 358.3564
681.5672, 357.6488
682.0493, 356.6358
682.5314, 355.6811
683.0135, 355.2728
683.4957, 355.4451
683.9778, 356.3535
684.4599, 359.7690
684.9420, 362.5728
685.4241, 361.7446
685.9063, 357.5754
686.3884, 354.9927
686.8705, 356.9973
687.3526, 359.3311
687.8347, 359.9255
688.3168, 358.3817
688.7990, 358.1079
689.2811, 359.6617
689.7632, 361.2468
690.2453, 361.3785
690.7274, 360.1618
691.2095, 358.6722
691.6917, 356.8583
692.1738, 355.6860
692.6559, 356.8590
693.1380, 359.2209
693.6201, 360.8581
694.1022, 361.3281
694.5844, 361.0106
695.0665, 359.2638
695.5486, 357.1465
696.0307, 356.0134
696.5128, 356.4498
696.9949, 357.5914
697.4771, 359.8729
697.9592, 362.5647
698.4413, 364.2182
698.9234, 364.7675
699.4055, 364.4216
699.8876, 362.7912
700.3698, 360.7122
700.8519, 360.7098
701.3340, 362.4629
701.8161, 363.8232
702.2982, 362.7589
702.7803, 361.3443
703.2625, 362.3524
703.7446, 365.2705
704.2267, 367.4032
704.7088, 366.6612
705.1909, 365.6397
705.6730, 365.6664
706.1552, 366.9052
706.6373, 368.2081
707.1194, 369.8588
707.6015, 371.1570
708.0836, 371.5944
708.5657, 371.1135
709.0479, 370.6400
709.5300, 370.0604
710.0121, 370.1440
710.4942, 372.2146
710.9763, 375.3846
711.4584, 377.5708
711.9406, 378.4084
712.4227, 378.9073
712.9048, 379.6967
713.3869, 380.5982
713.8690, 381.4819
714.3511, 382.6817
714.8333, 383.1972
715.3154, 382.3865
715.7975, 381.0473
716.2796, 379.8331
716.7617, 378.3576
717.2438, 378.4330
717.7260, 380.8566
718.2081, 384.0331
718.6902, 384.8114
719.1723, 383.5234
719.6544, 382.7635
720.1365, 383.7706
720.6187, 384.9931
721.1008, 384.2316
721.5829, 382.2546
722.0650, 380.8494
722.5471, 380.3530
723.0292, 381.0309
723.5114, 384.2272
723.9935, 388.9802
724.4756, 391.0817
724.9577, 388.3481
725.4398, 386.1914
725.9219, 386.4069
726.4041, 388.5190
726.8862, 389.7624
727.3683, 390.0930
727.8504, 390.2311
728.3325, 390.1112
728.8146, 390.2355
729.2968, 392.2138
729.7789, 395.8010
730.2610, 398.7551
730.7431, 398.7870
731.2252, 398.3092
731.7073, 399.2544
732.1895, 401.9293
732.6716, 404.1503
733.1537, 404.8684
733.6358, 405.6248
734.1179, 407.3027
734.6000, 410.1653
735.0822, 412.4473
735.5643, 414.2062
736.0464, 415.2268
736.5285, 414.4443
737.0106, 412.6545
737.4927, 413.1378
737.9749, 416.3709
738.4570, 420.3965
738.9391, 424.2809
739.4212, 427.6135
739.9033, 429.8101
740.3854, 430.3717
740.8676, 430.7698
741.3497, 431.6358
741.8318, 432.4076
742.3139, 432.4012
742.7960, 430.8394
743.2781, 430.5257
743.7603, 431.8954
744.2424, 434.1160
744.7245, 436.7020
745.2066, 439.3702
745.6887, 439.3817
746.1708, 434.8550
746.6530, 430.6321
747.1351, 434.1304
747.6172, 441.5182
748.0993, 446.0365
748.5814, 441.7918
749.0635, 438.2277
749.5457, 439.8219
750.0278, 444.1404
750.5099, 445.8458
750.9920, 443.1573
751.4741, 441.0382
751.9562, 440.1805
752.4384, 440.5948
752.9205, 443.3610
753.4026, 448.3732
753.8847, 450.7242
754.3668, 446.4230
754.8489, 440.7958
755.3311, 442.6875
755.8132, 449.8465
756.2953, 455.6257
756.7774, 456.1828
757.2595, 455.4028
757.7416, 454.1847
758.2238, 452.9742
758.7059, 453.9262
759.1880, 459.4271
759.6701, 463.2908
760.1522, 463.1810
760.6343, 459.9657
761.1165, 457.9775
761.5986, 457.2242
762.0807, 457.8396
762.5628, 461.4167
763.0449, 465.7412
763.5270, 466.0341
764.0092, 463.1112
764.4913, 461.3864
764.9734, 464.9642
765.4555, 469.0824
765.9376, 470.8827
766.4197, 470.2331
766.9019, 469.1600
767.3840, 466.8533
767.8661, 465.5321
768.3482, 466.4494
768.8303, 469.5048
769.3124, 472.0058
769.7946, 473.9281
770.2767, 475.3652
770.7588, 476.8232
771.2409, 477.6729
771.7230, 475.9792
772.2051, 471.8630
772.6873, 468.8726
773.1694, 470.2109
773.6515, 472.5417
774.1336, 473.6445
774.6157, 473.0953
775.0978, 472.5375
775.5800, 471.9499
776.0621, 471.4830
776.5442, 471.3045
777.0263, 471.4384
777.5084, 471.0191
777.9905, 469.9288
778.4727, 469.3754
778.9548, 471.0336
779.4369, 473.7186
779.9190, 475.5053
780.4011, 476.1834
780.8832, 475.9874
781.3654, 474.2739
781.8475, 472.2855
782.3296, 470.6956
782.8117, 469.1321
783.2938, 469.8967
783.7759, 474.3195
784.2581, 479.2425
784.7402, 482.2956
785.2223, 483.4750
785.7044, 483.7021
786.1865, 482.8093
786.6686, 482.7794
787.1508, 486.2723
787.6329, 491.5623
788.1150, 496.3722
788.5971, 500.5340
789.0792, 503.0614
789.5613, 501.3011
790.0435, 499.1962
790.5256, 500.4476
791.0077, 507.8803
791.4898, 510.8794
791.9719, 506.8371
792.4540, 502.6859
792.9362, 506.2589
793.4183, 516.6897
793.9004, 523.1454
794.3825, 524.7119
794.8646, 523.4844
795.3467, 519.7980
795.8289, 515.2817
796.3110, 512.4059
796.7931, 512.0232
797.2752, 511.2303
797.7573, 508.5193
798.2394, 505.2600
798.7216, 502.6460
799.2037, 501.1255
799.6858, 498.9622
800.1679, 495.9254
800.6500, 492.7560
801.1321, 490.3250
801.6143, 488.4051
802.0964, 485.8799
802.5785, 482.6340
803.0606, 478.7461
803.5427, 472.7840
804.0248, 467.0370
804.5070, 464.4753
804.9891, 467.2383
805.4712, 468.2391
805.9533, 463.8995
806.4354, 458.7890
806.9175, 456.4773
807.3997, 458.0686
807.8818, 457.1783
808.3639, 452.9241
808.8460, 448.9941
809.3281, 450.7274
809.8102, 455.6378
810.2924, 456.9413
810.7745, 453.4164
811.2566, 449.3057
811.7387, 447.6420
812.2208, 446.7626
812.7029, 445.3538
813.1851, 443.5394
813.6672, 440.1785
814.1493, 435.0263
814.6314, 428.6025
815.1135, 420.9925
815.5956, 412.0446
816.0778, 404.0214
816.5599, 396.9795
817.0420, 390.7952
817.5241, 384.9581
818.0062, 380.0687
818.4883, 377.6076
818.9705, 378.1459
819.4526, 377.5961
819.9347, 372.5014
820.4168, 366.7057
820.8989, 363.2263
821.3810, 362.8919
821.8632, 361.6337
822.3453, 358.9854
822.8274, 356.4288
823.3095, 355.3374
823.7916, 355.4500
824.2737, 355.7636
824.7559, 356.2478
825.2380, 355.8118
825.7201, 352.4979
826.2022, 348.4944
826.6843, 345.9553
827.1664, 345.2204
827.6486, 345.1487
828.1307, 346.7741
828.6128, 347.7575
829.0949, 346.4874
829.5770, 342.6869
830.0591, 341.3756
830.5413, 342.8958
831.0234, 344.8781
831.5055, 345.7657
831.9876, 345.8094
832.4697, 345.4498
832.9518, 344.7123
833.4340, 343.6208
833.9161, 341.0767
834.3982, 339.1130
834.8803, 339.4283
835.3624, 342.3223
835.8445, 344.1461
836.3267, 344.6736
836.8088, 344.5825
837.2909, 344.3307
837.7730, 343.7552
838.2551, 340.8447
838.7372, 335.8617
839.2194, 332.9643
839.7015, 337.3463
840.1836, 343.2857
840.6657, 344.6718
841.1478, 342.1300
841.6299, 340.3704
842.1121, 341.9077
842.5942, 343.3723
843.0763, 343.7206
843.5584, 343.0628
844.0405, 341.6836
844.5226, 339.3406
845.0048, 338.0486
845.4869, 339.3046
845.9690, 341.6458
846.4511, 342.2577
846.9332, 341.4803
847.4153, 340.4192
847.8975, 338.6052
848.3796, 337.6591
848.8617, 338.9686
849.3438, 341.8391
849.8259, 343.9308
850.3080, 345.3764
850.7902, 345.6303
851.2723, 344.3612
851.7544, 342.0883
852.2365, 339.3171
852.7186, 336.3478
853.2007, 335.1662
853.6829, 337.8246
854.1650, 340.3404
854.6471, 337.8720
855.1292, 333.1763
855.6113, 330.8861
856.0934, 335.2034
856.5756, 338.1086
857.0577, 338.0518
857.5398, 336.7022
858.0219, 336.3924
858.5040, 337.1595
858.9861, 338.5258
859.4683, 340.6951
859.9504, 342.4211
860.4325, 341.1588
860.9146, 338.6504
861.3967, 338.2137
861.8788, 341.9333
862.3610, 344.2752
862.8431, 341.2741
863.3252, 337.1357
863.8073, 335.9892
864.2894, 339.3248
864.7715, 340.8988
865.2537, 340.2664
865.7358, 339.0249
866.2179, 339.0319
866.7000, 339.6641
867.1821, 339.0414
867.6642, 336.9284
868.1464, 334.7241
868.6285, 332.5570
869.1106, 331.2279
869.5927, 331.4589
870.0748, 333.6314
870.5569, 336.0823
871.0391, 339.3438
871.5212, 341.8541
872.0033, 342.3976
872.4854, 341.2476
872.9675, 340.2489
873.4496, 339.4130
873.9318, 339.2158
874.4139, 340.2974
874.8960, 341.9071
875.3781, 344.0197
875.8602, 346.3532
876.3423, 346.9269
876.8245, 343.3899
877.3066, 340.2068
877.7887, 338.5181
878.2708, 338.1066
878.7529, 338.0879
879.2350, 338.4627
879.7172, 339.4828
880.1993, 341.8441
880.6814, 344.2169
881.1635, 344.8341
881.6456, 344.0922
882.1277, 342.9111
882.6099, 339.6805
883.0920, 338.4040
883.5741, 341.4664
884.0562, 346.5251
884.5383, 350.2953
885.0204, 352.8539
885.5026, 353.3689
885.9847, 351.2726
886.4668, 348.3186
886.9489, 346.1544
887.4310, 345.0671
887.9131, 346.0186
888.3953, 350.2203
888.8774, 353.6151
889.3595, 353.6181
889.8416, 352.4503
890.3237, 352.3755
890.8058, 354.3323
891.2880, 354.4541
891.7701, 352.1527
892.2522, 349.8385
892.7343, 349.7852
893.2164, 351.4226
893.6985, 353.3417
894.1807, 355.4143
894.6628, 357.6692
895.1449, 360.3739
895.6270, 363.0282
896.1091, 365.6395
896.5912, 368.2284
897.0734, 368.8824
897.5555, 366.7515
898.0376, 364.6791
898.5197, 363.9835
899.0018, 364.4058
899.4839, 365.1029
899.9661, 366.1006
900.4482, 367.5419
900.9303, 370.5772
901.4124, 373.0929
901.8945, 373.1487
902.3766, 371.5162
902.8588, 370.8336
903.3409, 371.9746
903.8230, 372.9380
904.3051, 373.3730
904.7872, 373.4577
905.2693, 372.8465
905.7515, 371.9482
906.2336, 373.7421
906.7157, 380.3156
907.1978, 386.2398
907.6799, 386.0733
908.1620, 382.8911
908.6442, 380.3007
909.1263, 378.0857
909.6084, 378.7198
910.0905, 384.5191
910.5726, 389.9350
911.0547, 388.4617
911.5369, 381.0012
912.0190, 378.9448
912.5011, 383.1215
912.9832, 387.8679
913.4653, 389.3652
913.9474, 388.6424
914.4296, 385.7565
914.9117, 380.6035
915.3938, 377.6264
915.8759, 378.5316
916.3580, 380.1842
916.8401, 381.4118
917.3223, 382.3394
917.8044, 383.7745
918.2865, 385.6768
918.7686, 387.6317
919.2507, 389.6386
919.7328, 391.4004
920.2150, 392.4106
920.6971, 392.9488
921.1792, 393.7344
921.6613, 396.1489
922.1434, 397.1554
922.6255, 395.8748
923.1077, 393.4402
923.5898, 391.5589
924.0719, 390.2571
924.5540, 389.7868
925.0361, 390.2774
925.5182, 391.2872
926.0004, 392.6013
926.4825, 394.0623
926.9646, 395.5264
927.4467, 397.0443
927.9288, 398.3144
928.4109, 399.3434
928.8931, 400.1050
929.3752, 400.6857
929.8573, 401.0752
930.3394, 400.2931
930.8215, 398.3489
931.3036, 396.7508
931.7858, 397.1939
932.2679, 398.1034
932.7500, 397.6040
933.2321, 395.9229
933.7142, 395.2210
934.1964, 397.0738
934.6785, 398.4674
935.1606, 398.3411
935.6427, 397.4184
936.1248, 398.0373
936.6069, 400.0765
937.0891, 401.9650
937.5712, 403.3282
938.0533, 404.0904
938.5354, 403.7595
939.0175, 402.9227
939.4996, 402.4430
939.9818, 402.2369
940.4639, 402.9858
940.9460, 405.4047
941.4281, 407.7696
941.9102, 407.6439
942.3923, 405.4701
942.8745, 405.9795
943.3566, 409.6118
943.8387, 412.8355
944.3208, 412.7269
944.8029, 410.9581
945.2850, 407.8938
945.7672, 403.5343
946.2493, 402.9984
946.7314, 408.9234
947.2135, 414.2919
947.6956, 416.2560
948.1777, 415.7043
948.6599, 415.5072
949.1420, 415.6263
949.6241, 415.8316
950.1062, 415.5677
950.5883, 415.8892
951.0704, 418.3743
951.5526, 421.7772
952.0347, 423.5675
952.5168, 422.2366
952.9989, 422.1350
953.4810, 423.9327
953.9631, 426.3451
954.4453, 427.3232
954.9274, 427.5458
955.4095, 429.9661
955.8916, 435.1630
956.3737, 439.4474
956.8558, 439.7787
957.3380, 438.7076
957.8201, 437.8996
958.3022, 437.4557
958.7843, 437.4308
959.2664, 437.7033
959.7485, 438.8274
960.2307, 441.4987
960.7128, 444.9188
961.1949, 447.2277
961.6770, 448.6225
962.1591, 449.7577
962.6412, 450.7461
963.1234, 451.7853
963.6055, 452.5183
964.0876, 453.5543
964.5697, 456.1047
965.0518, 460.6240
965.5339, 464.5516
966.0161, 467.6664
966.4982, 469.8420
966.9803, 470.2520
967.4624, 469.8890
967.9445, 470.3668
968.4266, 471.9721
968.9088, 474.1092
969.3909, 477.8588
969.8730, 480.7498
970.3551, 480.7914
970.8372, 478.2964
971.3193, 479.9183
971.8015, 485.7966
972.2836, 491.1475
972.7657, 492.4151
973.2478, 492.4940
973.7299, 495.0126
974.2120, 499.0960
974.6942, 502.5924
975.1763, 505.5509
975.6584, 506.6890
976.1405, 504.7624
976.6226, 502.2045
977.1047, 502.9853
977.5869, 506.7369
978.0690, 509.4412
978.5511, 510.5262
979.0332, 510.5284
979.5153, 507.9997
979.9974, 505.8842
980.4796, 507.7296
980.9617, 514.7106
981.4438, 518.4679
981.9259, 517.7180
982.4080, 515.9869
982.8901, 514.6140
983.3723, 513.5938
983.8544, 512.9671
984.3365, 512.6903
984.8186, 512.5845
985.3007, 513.6195
985.7828, 513.6249
986.2650, 510.3714
986.7471, 505.8382
987.2292, 503.4936
987.7113, 504.2033
988.1934, 503.9031
988.6755, 502.0749
989.1577, 499.8588
989.6398, 498.3973
990.1219, 497.4791
990.6040, 496.8386
991.0861, 496.4479
991.5682, 496.0810
992.0504, 496.0613
992.5325, 495.5992
993.0146, 494.2763
993.4967, 492.2545
993.9788, 490.3384
994.4609, 488.5336
994.9431, 486.2170
995.4252, 482.5467
995.9073, 479.1514
996.3894, 478.2393
996.8715, 478.6675
997.3536, 478.5348
997.8358, 476.6750
998.3179, 475.1775
998.8000, 473.7850
999.2821, 473.2374
999.7642, 474.8172
1000.246, 478.0118
1000.728, 480.0433
1001.211, 480.7914
1001.693, 480.6201
1002.175, 479.1042
1002.657, 477.3426
1003.139, 476.2236
1003.621, 475.5830
1004.103, 474.2609
1004.585, 472.2573
1005.068, 469.3465
1005.550, 464.8552
1006.032, 460.5941
1006.514, 459.7547
1006.996, 461.2320
1007.478, 462.9604
1007.960, 464.8608
1008.442, 465.6948
1008.924, 464.0942
1009.407, 462.1487
1009.889, 461.0865
1010.371, 460.9203
1010.853, 461.7779
1011.335, 463.6814
1011.817, 465.3558
1012.299, 465.8229
1012.781, 465.7943
1013.263, 466.1135
1013.746, 466.5148
1014.228, 465.9105
1014.710, 462.5161
1015.192, 461.4012
1015.674, 464.2573
1016.156, 468.1035
1016.638, 468.2223
1017.120, 465.5959
1017.603, 462.8293
1018.085, 460.1268
1018.567, 459.2067
1019.049, 463.3479
1019.531, 467.6734
1020.013, 468.4291
1020.495, 465.7807
1020.977, 464.8129
1021.459, 465.7191
1021.942, 466.5939
1022.424, 466.5189
1022.906, 465.9670
1023.388, 465.9354
1023.870, 465.8601
1024.352, 464.6342
1024.834, 459.5357
1025.316, 456.8194
1025.799, 457.7698
1026.281, 460.1037
1026.763, 461.6194
1027.245, 462.4243
1027.727, 463.6038
1028.209, 465.1731
1028.691, 465.9396
1029.173, 464.4036
1029.656, 462.3974
1030.138, 460.8995
1030.620, 460.0053
1031.102, 459.9333
1031.584, 461.0226
1032.066, 461.5349
1032.548, 461.0134
1033.030, 459.7823
1033.512, 457.2948
1033.995, 454.7675
1034.477, 454.7729
1034.959, 458.9200
1035.441, 461.5807
1035.923, 460.1901
1036.405, 458.3360
1036.887, 457.9333
1037.369, 458.8054
1037.851, 459.8068
1038.334, 460.7797
1038.816, 460.3384
1039.298, 455.5970
1039.780, 451.3000
1040.262, 451.8122
1040.744, 454.6991
1041.226, 454.8602
1041.708, 450.6693
1042.191, 448.1708
1042.673, 448.0249
1043.155, 448.6026
1043.637, 447.9044
1044.119, 446.8867
1044.601, 447.7166
1045.083, 450.4106
1045.565, 451.8606
1046.047, 449.1624
1046.530, 447.1984
1047.012, 447.6510
1047.494, 449.7729
1047.976, 452.1923
1048.458, 454.6746
1048.940, 454.7581
1049.422, 450.9268
1049.904, 447.3300
1050.386, 447.7104
1050.869, 449.5014
1051.351, 449.9442
1051.833, 448.4972
1052.315, 448.2147
1052.797, 449.2694
1053.279, 450.7122
1053.761, 452.4651
1054.243, 453.9478
1054.726, 454.0104
1055.208, 452.9886
1055.690, 451.7754
1056.172, 450.2606
1056.654, 449.1239
1057.136, 448.1167
1057.618, 447.8815
1058.100, 449.9574
1058.583, 453.7505
1059.065, 455.0393
1059.547, 453.5527
1060.029, 451.7122
1060.511, 451.1481
1060.993, 450.8378
1061.475, 450.2403
1061.957, 449.3674
1062.439, 448.3094
1062.922, 447.0257
1063.404, 445.8736
1063.886, 445.0535
1064.368, 444.0849
1064.850, 441.7861
1065.332, 439.2274
1065.814, 437.9304
1066.296, 438.4330
1066.778, 439.2521
1067.261, 441.0304
1067.743, 441.5813
1068.225, 439.1729
1068.707, 434.9867
1069.189, 432.7589
1069.671, 432.2484
1070.153, 432.6842
1070.635, 434.7979
1071.118, 436.3460
1071.600, 436.0159
1072.082, 434.9053
1072.564, 433.8912
1073.046, 432.9132
1073.528, 433.0959
1074.010, 434.5041
1074.492, 435.9321
1074.974, 436.9449
1075.457, 437.1348
1075.939, 435.9476
1076.421, 433.5799
1076.903, 430.6212
1077.385, 426.0264
1077.867, 424.2609
1078.349, 426.9023
1078.831, 430.3054
1079.313, 428.8402
1079.796, 425.0170
1080.278, 423.4715
1080.760, 424.9332
1081.242, 426.4634
1081.724, 427.9258
1082.206, 428.1714
1082.688, 426.2232
1083.170, 423.0577
1083.652, 421.7861
1084.135, 422.1863
1084.617, 423.5014
1085.099, 426.4540
1085.581, 427.7365
1086.063, 423.1223
1086.545, 417.5023
1087.027, 415.6479
1087.509, 418.1658
1087.992, 418.4290
1088.474, 416.2941
1088.956, 414.1950
1089.438, 413.8995
1089.920, 414.1330
1090.402, 413.5858
1090.884, 412.5295
1091.366, 411.5130
1091.849, 410.2784
1092.331, 409.7810
1092.813, 410.1589
1093.295, 410.9895
1093.777, 412.1433
1094.259, 413.3284
1094.741, 414.0208
1095.223, 414.1945
1095.705, 413.9176
1096.188, 413.0821
1096.670, 411.9229
1097.152, 410.3104
1097.634, 408.6418
1098.116, 407.6235
1098.598, 407.1895
1099.080, 407.0358
1099.562, 407.1440
1100.044, 407.1927
1100.527, 406.8418
1101.009, 406.4841
1101.491, 406.4731
1101.973, 406.7091
1102.455, 406.6414
1102.937, 406.2729
1103.419, 405.2568
1103.901, 403.0070
1104.384, 401.2588
1104.866, 402.9881
1105.348, 405.6442
1105.830, 405.8182
1106.312, 401.9502
1106.794, 400.7643
1107.276, 403.1881
1107.758, 404.9395
1108.240, 402.4678
1108.723, 398.7077
1109.205, 399.7051
1109.687, 403.4053
1110.169, 405.0819
1110.651, 400.6785
1111.133, 397.9524
1111.615, 397.7836
1112.097, 398.8481
1112.579, 400.5536
1113.062, 402.4598
1113.544, 402.7230
1114.026, 401.4909
1114.508, 400.0308
1114.990, 398.6786
1115.472, 397.6026
1115.954, 396.9990
1116.436, 396.6158
1116.919, 395.6671
1117.401, 394.2939
1117.883, 395.6964
1118.365, 400.3596
1118.847, 403.7998
1119.329, 400.9435
1119.811, 397.2222
1120.293, 396.9933
1120.776, 399.2449
1121.258, 399.3529
1121.740, 397.0880
1122.222, 394.7249
1122.704, 392.7000
1123.186, 391.0552
1123.668, 389.9064
1124.150, 389.0652
1124.632, 388.5005
1125.115, 388.2868
1125.597, 387.0981
1126.079, 384.4924
1126.561, 382.3183
1127.043, 381.1419
1127.525, 381.0443
1128.007, 383.1359
1128.489, 386.0691
1128.971, 387.4911
1129.454, 386.5121
1129.936, 384.6500
1130.418, 381.0971
1130.900, 378.6780
1131.382, 380.0289
1131.864, 383.3011
1132.346, 382.5998
1132.828, 379.0583
1133.311, 376.2623
1133.793, 375.8940
1134.275, 376.2280
1134.757, 377.2503
1135.239, 378.3415
1135.721, 379.0384
1136.203, 379.3362
1136.685, 378.9908
1137.167, 378.1090
1137.650, 377.6423
1138.132, 379.3276
1138.614, 380.2190
1139.096, 378.4968
1139.578, 375.3864
1140.060, 371.9897
1140.542, 368.2520
1141.024, 367.3512
1141.506, 369.5893
1141.989, 371.6868
1142.471, 370.2641
1142.953, 368.6811
1143.435, 369.8318
1143.917, 372.7927
1144.399, 374.2744
1144.881, 374.1565
1145.363, 373.1918
1145.846, 371.3674
1146.328, 369.6928
1146.810, 369.5722
1147.292, 369.8492
1147.774, 369.2653
1148.256, 367.7656
1148.738, 366.9171
1149.220, 366.9652
1149.703, 366.7397
1150.185, 365.8210
1150.667, 364.7816
1151.149, 363.9313
1151.631, 363.6487
1152.113, 364.8098
1152.595, 367.8944
1153.077, 369.6507
1153.559, 369.8486
1154.042, 368.7106
1154.524, 365.5750
1155.006, 362.2505
1155.488, 363.1415
1155.970, 366.0654
1156.452, 366.4269
1156.934, 361.5896
1157.416, 359.0711
1157.898, 361.1615
1158.381, 362.7796
1158.863, 360.2808
1159.345, 355.7733
1159.827, 355.5518
1160.309, 358.4294
1160.791, 361.3026
1161.273, 364.4188
1161.755, 364.7606
1162.238, 359.7582
1162.720, 354.6454
1163.202, 353.2799
1163.684, 355.1309
1164.166, 358.6915
1164.648, 363.1530
1165.130, 364.8174
1165.612, 358.4107
1166.094, 353.3789
1166.577, 353.1330
1167.059, 355.0528
1167.541, 357.3076
1168.023, 359.7183
1168.505, 360.2607
1168.987, 359.0573
1169.469, 357.6920
1169.951, 356.5778
1170.433, 356.0851
1170.916, 356.8666
1171.398, 358.0582
1171.880, 358.8891
1172.362, 359.3130
1172.844, 357.4940
1173.326, 353.3879
1173.808, 350.1108
1174.290, 349.8299
1174.773, 351.0534
1175.255, 354.0362
1175.737, 357.5311
1176.219, 359.4106
1176.701, 359.6923
1177.183, 357.3302
1177.665, 351.9721
1178.147, 347.6303
1178.630, 348.5820
1179.112, 350.6508
1179.594, 350.8627
1180.076, 349.7370
1180.558, 349.2770
1181.040, 349.5227
1181.522, 349.3140
1182.004, 348.2592
1182.486, 347.8963
1182.969, 350.5665
1183.451, 353.6959
1183.933, 355.2769
1184.415, 355.3232
1184.897, 354.6798
1185.379, 353.3372
1185.861, 350.9342
1186.343, 346.8901
1186.825, 343.9114
1187.308, 346.0831
1187.790, 349.5930
1188.272, 350.5993
1188.754, 348.9716
1189.236, 347.8391
1189.718, 347.2602
1190.200, 346.7975
1190.682, 346.3723
1191.165, 345.8540
1191.647, 344.4566
1192.129, 343.3033
1192.611, 344.0835
1193.093, 347.1091
1193.575, 348.2500
1194.057, 347.2884
1194.539, 345.8217
1195.021, 343.9193
1195.504, 342.9201
1195.986, 346.0777
1196.468, 350.1230
1196.950, 350.1835
1197.432, 344.8385
1197.914, 343.1498
1198.396, 345.8266
1198.878, 347.2076
1199.360, 343.4512
1199.843, 338.8703
1200.325, 339.2285
1200.807, 341.7116
1201.289, 342.3328
1201.771, 340.3692
1202.253, 337.4070
1202.735, 332.9932
1203.217, 330.6436
1203.700, 333.7795
1204.182, 338.2525
1204.664, 339.6015
1205.146, 338.9144
1205.628, 337.7781
1206.110, 335.9787
1206.592, 335.3510
1207.074, 336.0829
1207.557, 336.7086
1208.039, 335.3484
1208.521, 334.2888
1209.003, 337.7778
1209.485, 342.8862
1209.967, 343.8110
1210.449, 337.9235
1210.931, 334.5417
1211.413, 333.8942
1211.896, 334.2298
1212.378, 334.6483
1212.860, 335.1133
1213.342, 335.7116
1213.824, 336.2945
1214.306, 336.6430
1214.788, 337.2395
1215.270, 335.3817
1215.752, 330.5325
1216.235, 327.2059
1216.717, 331.3467
1217.199, 336.3571
1217.681, 334.3745
1218.163, 328.4579
1218.645, 325.9214
1219.127, 328.2325
1219.609, 329.2440
1220.092, 328.6238
1220.574, 327.4749
1221.056, 325.3864
1221.538, 324.3240
1222.020, 327.3845
1222.502, 332.5890
1222.984, 335.2923
1223.466, 334.8151
1223.948, 334.6232
1224.431, 334.9822
1224.913, 334.8050
1225.395, 332.1726
1225.877, 329.6118
1226.359, 329.3712
1226.841, 330.8176
1227.323, 332.1819
1227.805, 333.4981
1228.287, 334.4262
1228.770, 334.9440
1229.252, 335.0395
1229.734, 334.1029
1230.216, 333.3190
1230.698, 334.0350
1231.180, 335.4225
1231.662, 335.4482
1232.144, 333.9680
1232.627, 333.2092
1233.109, 333.3731
1233.591, 333.5287
1234.073, 332.1370
1234.555, 331.3515
1235.037, 333.7256
1235.519, 337.2356
1236.001, 337.7111
1236.484, 335.1528
1236.966, 334.5342
1237.448, 336.2852
1237.930, 336.9702
1238.412, 332.2579
1238.894, 327.9273
1239.376, 327.6093
1239.858, 329.6336
1240.340, 332.0737
1240.823, 334.7377
1241.305, 335.4177
1241.787, 333.9768
1242.269, 332.8900
1242.751, 335.1197
1243.233, 336.2845
1243.715, 333.5184
1244.197, 329.5161
1244.679, 328.6977
1245.162, 330.4417
1245.644, 331.3740
1246.126, 331.2667
1246.608, 331.5653
1247.090, 334.8115
1247.572, 336.1354
1248.054, 333.5530
1248.536, 329.2194
1249.019, 325.5212
1249.501, 322.9311
1249.983, 323.6931
1250.465, 327.6774
1250.947, 331.0819
1251.429, 331.6649
1251.911, 332.4060
1252.393, 334.2977
1252.875, 335.9311
1253.358, 334.6151
1253.840, 331.8513
1254.322, 331.3536
1254.804, 333.1083
1255.286, 334.1749
1255.768, 333.1889
1256.250, 332.3306
1256.732, 331.8264
1257.214, 331.8162
1257.697, 333.2666
1258.179, 334.8973
1258.661, 334.1890
1259.143, 331.4349
1259.625, 329.5442
1260.107, 328.6945
1260.589, 329.5060
1261.071, 332.5699
1261.554, 335.1955
1262.036, 333.6949
1262.518, 330.7338
1263.000, 329.3344
1263.482, 329.3449
1263.964, 329.0294
1264.446, 328.1532
1264.928, 327.5609
1265.411, 327.3511
1265.893, 327.4919
1266.375, 328.1977
1266.857, 329.0192
1267.339, 329.9928
1267.821, 330.6622
1268.303, 329.6609
1268.785, 326.7906
1269.267, 324.7878
1269.750, 323.9604
1270.232, 323.7029
1270.714, 322.8539
1271.196, 323.1528
1271.678, 327.4998
1272.160, 332.8412
1272.642, 333.9854
1273.124, 331.2139
1273.606, 328.0669
1274.089, 324.9713
1274.571, 323.6712
1275.053, 326.6797
1275.535, 330.0125
1276.017, 333.1619
1276.499, 334.8423
1276.981, 331.9687
1277.463, 326.1858
1277.946, 324.3644
1278.428, 326.3478
1278.910, 327.6170
1279.392, 324.9624
1279.874, 323.1147
1280.356, 322.9153
1280.838, 323.7042
1281.320, 325.1985
1281.802, 326.9479
1282.285, 327.9697
1282.767, 328.3661
1283.249, 328.7485
1283.731, 329.6562
1284.213, 329.6638
1284.695, 328.4307
1285.177, 327.1773
1285.659, 327.2495
1286.141, 326.5900
1286.624, 327.4930
1287.106, 326.7726
1287.588, 326.7979
1288.070, 327.7208
1288.552, 329.2261
1289.034, 331.4140
1289.516, 332.7554
1289.998, 331.4221
1290.481, 329.4248
1290.963, 327.8914
1291.445, 327.0529
1291.927, 327.3172
1292.409, 328.8001
1292.891, 328.7965
1293.373, 327.4146
1293.855, 327.1182
1294.338, 332.2357
1294.820, 335.3397
1295.302, 330.4290
1295.784, 323.9709
1296.266, 321.2094
1296.748, 321.8691
1297.230, 325.6091
1297.712, 331.3369
1298.194, 334.3500
1298.677, 329.5376
1299.159, 326.0018
1299.641, 325.1928
1300.123, 325.6529
1300.605, 326.4239
1301.087, 327.5857
1301.569, 330.0680
1302.051, 332.8884
1302.533, 333.9376
1303.016, 332.3835
##END=



