##NAMES=Antipinite
##RRUFFID=R160005
##IDEAL CHEMISTRY=KNa_3_Cu^2+^_2_((C_2_)^6+^O_4_)_4_
##LOCALITY=Rowley mine, Maricopa County, Arizona, USA
##OWNER=RRUFF
##SOURCE=Danielle Sotomayor and Keith Wentz
##DESCRIPTION=Blue euhedral crystals exhibiting hemihedral symmetry. Associated with colorless barite, yellow hedyphane, and orange wulfenite.
##STATUS=The identification of this mineral has been confirmed only by single crystal X-ray diffraction.
##URL=rruff.info/R160005
8.758203e+001, 3.256505e+002
8.806415e+001, 3.222809e+002
8.854626e+001, 3.217001e+002
8.902838e+001, 3.251497e+002
8.951050e+001, 3.294590e+002
8.999261e+001, 3.336539e+002
9.047473e+001, 3.376127e+002
9.095685e+001, 3.413605e+002
9.143896e+001, 3.451678e+002
9.192108e+001, 3.489395e+002
9.240320e+001, 3.510900e+002
9.288531e+001, 3.466037e+002
9.336743e+001, 3.347215e+002
9.384955e+001, 3.187145e+002
9.433167e+001, 3.036819e+002
9.481378e+001, 2.893516e+002
9.529590e+001, 2.775331e+002
9.577802e+001, 2.678125e+002
9.626013e+001, 2.594690e+002
9.674225e+001, 2.520589e+002
9.722437e+001, 2.454377e+002
9.770648e+001, 2.396456e+002
9.818860e+001, 2.347836e+002
9.867072e+001, 2.304809e+002
9.915283e+001, 2.264238e+002
9.963495e+001, 2.225750e+002
1.001171e+002, 2.192505e+002
1.005992e+002, 2.169353e+002
1.010813e+002, 2.158089e+002
1.015634e+002, 2.151572e+002
1.020455e+002, 2.150332e+002
1.025277e+002, 2.150446e+002
1.030098e+002, 2.148197e+002
1.034919e+002, 2.142108e+002
1.039740e+002, 2.134108e+002
1.044561e+002, 2.130690e+002
1.049382e+002, 2.143650e+002
1.054204e+002, 2.147494e+002
1.059025e+002, 2.136897e+002
1.063846e+002, 2.115364e+002
1.068667e+002, 2.088111e+002
1.073488e+002, 2.057242e+002
1.078309e+002, 2.023595e+002
1.083131e+002, 1.994218e+002
1.087952e+002, 1.970893e+002
1.092773e+002, 1.949302e+002
1.097594e+002, 1.926792e+002
1.102415e+002, 1.903337e+002
1.107236e+002, 1.881438e+002
1.112058e+002, 1.862903e+002
1.116879e+002, 1.847591e+002
1.121700e+002, 1.835191e+002
1.126521e+002, 1.830248e+002
1.131342e+002, 1.827135e+002
1.136163e+002, 1.816203e+002
1.140985e+002, 1.795394e+002
1.145806e+002, 1.769835e+002
1.150627e+002, 1.740985e+002
1.155448e+002, 1.710397e+002
1.160269e+002, 1.681496e+002
1.165090e+002, 1.657760e+002
1.169912e+002, 1.639094e+002
1.174733e+002, 1.618408e+002
1.179554e+002, 1.589565e+002
1.184375e+002, 1.563782e+002
1.189196e+002, 1.547285e+002
1.194017e+002, 1.539112e+002
1.198839e+002, 1.533368e+002
1.203660e+002, 1.522758e+002
1.208481e+002, 1.503734e+002
1.213302e+002, 1.488685e+002
1.218123e+002, 1.479721e+002
1.222944e+002, 1.472314e+002
1.227766e+002, 1.462968e+002
1.232587e+002, 1.450912e+002
1.237408e+002, 1.438275e+002
1.242229e+002, 1.429223e+002
1.247050e+002, 1.428532e+002
1.251871e+002, 1.425233e+002
1.256693e+002, 1.416830e+002
1.261514e+002, 1.406319e+002
1.266335e+002, 1.397888e+002
1.271156e+002, 1.393580e+002
1.275977e+002, 1.391631e+002
1.280798e+002, 1.386499e+002
1.285620e+002, 1.376254e+002
1.290441e+002, 1.366657e+002
1.295262e+002, 1.360464e+002
1.300083e+002, 1.357029e+002
1.304904e+002, 1.353522e+002
1.309725e+002, 1.347616e+002
1.314547e+002, 1.341386e+002
1.319368e+002, 1.338652e+002
1.324189e+002, 1.340086e+002
1.329010e+002, 1.344500e+002
1.333831e+002, 1.351576e+002
1.338652e+002, 1.361849e+002
1.343474e+002, 1.371866e+002
1.348295e+002, 1.379095e+002
1.353116e+002, 1.385258e+002
1.357937e+002, 1.392220e+002
1.362758e+002, 1.400774e+002
1.367579e+002, 1.410501e+002
1.372401e+002, 1.420727e+002
1.377222e+002, 1.433575e+002
1.382043e+002, 1.443264e+002
1.386864e+002, 1.447531e+002
1.391685e+002, 1.448020e+002
1.396507e+002, 1.447009e+002
1.401328e+002, 1.445792e+002
1.406149e+002, 1.444382e+002
1.410970e+002, 1.443394e+002
1.415791e+002, 1.442756e+002
1.420612e+002, 1.442647e+002
1.425434e+002, 1.443731e+002
1.430255e+002, 1.445513e+002
1.435076e+002, 1.446824e+002
1.439897e+002, 1.446489e+002
1.444718e+002, 1.444077e+002
1.449539e+002, 1.442446e+002
1.454361e+002, 1.443836e+002
1.459182e+002, 1.444095e+002
1.464003e+002, 1.439676e+002
1.468824e+002, 1.430772e+002
1.473645e+002, 1.421559e+002
1.478466e+002, 1.417119e+002
1.483288e+002, 1.419510e+002
1.488109e+002, 1.419468e+002
1.492930e+002, 1.415430e+002
1.497751e+002, 1.409506e+002
1.502572e+002, 1.403932e+002
1.507393e+002, 1.399241e+002
1.512215e+002, 1.394542e+002
1.517036e+002, 1.387995e+002
1.521857e+002, 1.379622e+002
1.526678e+002, 1.372342e+002
1.531499e+002, 1.368433e+002
1.536320e+002, 1.366379e+002
1.541142e+002, 1.362142e+002
1.545963e+002, 1.353704e+002
1.550784e+002, 1.344341e+002
1.555605e+002, 1.338137e+002
1.560426e+002, 1.335115e+002
1.565247e+002, 1.331223e+002
1.570069e+002, 1.322875e+002
1.574890e+002, 1.310174e+002
1.579711e+002, 1.298306e+002
1.584532e+002, 1.287718e+002
1.589353e+002, 1.278996e+002
1.594174e+002, 1.273234e+002
1.598996e+002, 1.270482e+002
1.603817e+002, 1.268656e+002
1.608638e+002, 1.265300e+002
1.613459e+002, 1.260053e+002
1.618280e+002, 1.254437e+002
1.623102e+002, 1.249693e+002
1.627923e+002, 1.244097e+002
1.632744e+002, 1.236006e+002
1.637565e+002, 1.225016e+002
1.642386e+002, 1.212751e+002
1.647207e+002, 1.202363e+002
1.652029e+002, 1.197082e+002
1.656850e+002, 1.188317e+002
1.661671e+002, 1.174451e+002
1.666492e+002, 1.157898e+002
1.671313e+002, 1.140146e+002
1.676134e+002, 1.121980e+002
1.680956e+002, 1.103851e+002
1.685777e+002, 1.087097e+002
1.690598e+002, 1.072820e+002
1.695419e+002, 1.058781e+002
1.700240e+002, 1.045054e+002
1.705061e+002, 1.031392e+002
1.709883e+002, 1.017078e+002
1.714704e+002, 1.001563e+002
1.719525e+002, 9.856226e+001
1.724346e+002, 9.728601e+001
1.729167e+002, 9.647710e+001
1.733988e+002, 9.572672e+001
1.738810e+002, 9.495125e+001
1.743631e+002, 9.414814e+001
1.748452e+002, 9.330286e+001
1.753273e+002, 9.239054e+001
1.758094e+002, 9.144626e+001
1.762915e+002, 9.061374e+001
1.767737e+002, 8.997837e+001
1.772558e+002, 8.934792e+001
1.777379e+002, 8.861255e+001
1.782200e+002, 8.777835e+001
1.787021e+002, 8.686533e+001
1.791842e+002, 8.576737e+001
1.796664e+002, 8.464446e+001
1.801485e+002, 8.380318e+001
1.806306e+002, 8.342654e+001
1.811127e+002, 8.317912e+001
1.815948e+002, 8.269494e+001
1.820769e+002, 8.193544e+001
1.825591e+002, 8.115482e+001
1.830412e+002, 8.042482e+001
1.835233e+002, 7.976636e+001
1.840054e+002, 7.921098e+001
1.844875e+002, 7.877216e+001
1.849696e+002, 7.844607e+001
1.854518e+002, 7.830042e+001
1.859339e+002, 7.852967e+001
1.864160e+002, 7.847831e+001
1.868981e+002, 7.774363e+001
1.873802e+002, 7.668684e+001
1.878623e+002, 7.569817e+001
1.883445e+002, 7.496507e+001
1.888266e+002, 7.443645e+001
1.893087e+002, 7.396716e+001
1.897908e+002, 7.364249e+001
1.902729e+002, 7.324730e+001
1.907550e+002, 7.264711e+001
1.912372e+002, 7.197015e+001
1.917193e+002, 7.141887e+001
1.922014e+002, 7.113931e+001
1.926835e+002, 7.106091e+001
1.931656e+002, 7.070296e+001
1.936477e+002, 6.953336e+001
1.941299e+002, 6.861855e+001
1.946120e+002, 6.831118e+001
1.950941e+002, 6.836628e+001
1.955762e+002, 6.838605e+001
1.960583e+002, 6.810530e+001
1.965404e+002, 6.753859e+001
1.970226e+002, 6.693607e+001
1.975047e+002, 6.613952e+001
1.979868e+002, 6.547383e+001
1.984689e+002, 6.505363e+001
1.989510e+002, 6.484121e+001
1.994331e+002, 6.476190e+001
1.999153e+002, 6.478622e+001
2.003974e+002, 6.490587e+001
2.008795e+002, 6.484263e+001
2.013616e+002, 6.442348e+001
2.018437e+002, 6.402966e+001
2.023258e+002, 6.385957e+001
2.028080e+002, 6.387165e+001
2.032901e+002, 6.388737e+001
2.037722e+002, 6.379110e+001
2.042543e+002, 6.357634e+001
2.047364e+002, 6.329352e+001
2.052185e+002, 6.289865e+001
2.057007e+002, 6.247919e+001
2.061828e+002, 6.204746e+001
2.066649e+002, 6.161730e+001
2.071470e+002, 6.129063e+001
2.076291e+002, 6.117234e+001
2.081112e+002, 6.123115e+001
2.085934e+002, 6.125618e+001
2.090755e+002, 6.128542e+001
2.095576e+002, 6.124764e+001
2.100397e+002, 6.103884e+001
2.105218e+002, 6.065135e+001
2.110039e+002, 6.027264e+001
2.114861e+002, 6.001389e+001
2.119682e+002, 5.985600e+001
2.124503e+002, 5.976165e+001
2.129324e+002, 5.978002e+001
2.134145e+002, 5.982156e+001
2.138967e+002, 5.975692e+001
2.143788e+002, 5.955876e+001
2.148609e+002, 5.938139e+001
2.153430e+002, 5.937722e+001
2.158251e+002, 5.943314e+001
2.163072e+002, 5.939085e+001
2.167894e+002, 5.911757e+001
2.172715e+002, 5.879588e+001
2.177536e+002, 5.879109e+001
2.182357e+002, 5.924334e+001
2.187178e+002, 5.962193e+001
2.191999e+002, 5.967582e+001
2.196821e+002, 5.954372e+001
2.201642e+002, 5.935854e+001
2.206463e+002, 5.915961e+001
2.211284e+002, 5.895987e+001
2.216105e+002, 5.877737e+001
2.220926e+002, 5.858573e+001
2.225748e+002, 5.847449e+001
2.230569e+002, 5.855618e+001
2.235390e+002, 5.869040e+001
2.240211e+002, 5.869610e+001
2.245032e+002, 5.846596e+001
2.249853e+002, 5.811988e+001
2.254675e+002, 5.800478e+001
2.259496e+002, 5.830251e+001
2.264317e+002, 5.855357e+001
2.269138e+002, 5.864094e+001
2.273959e+002, 5.864387e+001
2.278780e+002, 5.863612e+001
2.283602e+002, 5.865001e+001
2.288423e+002, 5.869493e+001
2.293244e+002, 5.880955e+001
2.298065e+002, 5.910802e+001
2.302886e+002, 5.931394e+001
2.307707e+002, 5.927081e+001
2.312529e+002, 5.916534e+001
2.317350e+002, 5.923114e+001
2.322171e+002, 5.958302e+001
2.326992e+002, 6.011757e+001
2.331813e+002, 6.050169e+001
2.336634e+002, 6.055753e+001
2.341456e+002, 6.066447e+001
2.346277e+002, 6.091327e+001
2.351098e+002, 6.120594e+001
2.355919e+002, 6.141866e+001
2.360740e+002, 6.149428e+001
2.365561e+002, 6.148383e+001
2.370383e+002, 6.153769e+001
2.375204e+002, 6.159159e+001
2.380025e+002, 6.179981e+001
2.384846e+002, 6.232197e+001
2.389667e+002, 6.295714e+001
2.394488e+002, 6.343892e+001
2.399310e+002, 6.365494e+001
2.404131e+002, 6.372373e+001
2.408952e+002, 6.394542e+001
2.413773e+002, 6.437124e+001
2.418594e+002, 6.488386e+001
2.423415e+002, 6.553020e+001
2.428237e+002, 6.624011e+001
2.433058e+002, 6.689848e+001
2.437879e+002, 6.745833e+001
2.442700e+002, 6.801120e+001
2.447521e+002, 6.878594e+001
2.452342e+002, 6.994695e+001
2.457164e+002, 7.098269e+001
2.461985e+002, 7.178590e+001
2.466806e+002, 7.243176e+001
2.471627e+002, 7.302425e+001
2.476448e+002, 7.360296e+001
2.481269e+002, 7.412230e+001
2.486091e+002, 7.448938e+001
2.490912e+002, 7.468272e+001
2.495733e+002, 7.483958e+001
2.500554e+002, 7.502919e+001
2.505375e+002, 7.518842e+001
2.510196e+002, 7.526829e+001
2.515018e+002, 7.528204e+001
2.519839e+002, 7.509963e+001
2.524660e+002, 7.443999e+001
2.529481e+002, 7.330329e+001
2.534302e+002, 7.210308e+001
2.539123e+002, 7.086036e+001
2.543945e+002, 6.964061e+001
2.548766e+002, 6.858255e+001
2.553587e+002, 6.775419e+001
2.558408e+002, 6.693425e+001
2.563229e+002, 6.576920e+001
2.568051e+002, 6.430972e+001
2.572872e+002, 6.298153e+001
2.577693e+002, 6.188408e+001
2.582514e+002, 6.099120e+001
2.587335e+002, 6.029248e+001
2.592156e+002, 5.982368e+001
2.596978e+002, 5.942424e+001
2.601799e+002, 5.893581e+001
2.606620e+002, 5.838403e+001
2.611441e+002, 5.787050e+001
2.616262e+002, 5.743958e+001
2.621083e+002, 5.705935e+001
2.625905e+002, 5.669587e+001
2.630726e+002, 5.636902e+001
2.635547e+002, 5.598513e+001
2.640368e+002, 5.535897e+001
2.645189e+002, 5.461890e+001
2.650010e+002, 5.404729e+001
2.654832e+002, 5.387545e+001
2.659653e+002, 5.386975e+001
2.664474e+002, 5.363628e+001
2.669295e+002, 5.311428e+001
2.674116e+002, 5.259328e+001
2.678937e+002, 5.229860e+001
2.683759e+002, 5.211143e+001
2.688580e+002, 5.186707e+001
2.693401e+002, 5.148931e+001
2.698222e+002, 5.105673e+001
2.703043e+002, 5.065238e+001
2.707864e+002, 5.025275e+001
2.712686e+002, 4.998449e+001
2.717507e+002, 5.008097e+001
2.722328e+002, 5.028456e+001
2.727149e+002, 5.030689e+001
2.731970e+002, 5.002240e+001
2.736791e+002, 4.963318e+001
2.741613e+002, 4.943696e+001
2.746434e+002, 4.948234e+001
2.751255e+002, 4.946004e+001
2.756076e+002, 4.915425e+001
2.760897e+002, 4.877666e+001
2.765718e+002, 4.850005e+001
2.770540e+002, 4.837271e+001
2.775361e+002, 4.828614e+001
2.780182e+002, 4.808780e+001
2.785003e+002, 4.775090e+001
2.789824e+002, 4.749421e+001
2.794645e+002, 4.744950e+001
2.799467e+002, 4.746037e+001
2.804288e+002, 4.743867e+001
2.809109e+002, 4.737002e+001
2.813930e+002, 4.726586e+001
2.818751e+002, 4.710302e+001
2.823572e+002, 4.686860e+001
2.828394e+002, 4.674146e+001
2.833215e+002, 4.691450e+001
2.838036e+002, 4.707011e+001
2.842857e+002, 4.699468e+001
2.847678e+002, 4.670068e+001
2.852499e+002, 4.637547e+001
2.857321e+002, 4.617064e+001
2.862142e+002, 4.608807e+001
2.866963e+002, 4.607272e+001
2.871784e+002, 4.619204e+001
2.876605e+002, 4.631024e+001
2.881426e+002, 4.636301e+001
2.886248e+002, 4.635807e+001
2.891069e+002, 4.633157e+001
2.895890e+002, 4.630561e+001
2.900711e+002, 4.627993e+001
2.905532e+002, 4.626397e+001
2.910353e+002, 4.633667e+001
2.915175e+002, 4.631065e+001
2.919996e+002, 4.604393e+001
2.924817e+002, 4.563845e+001
2.929638e+002, 4.528511e+001
2.934459e+002, 4.510204e+001
2.939280e+002, 4.506073e+001
2.944102e+002, 4.504805e+001
2.948923e+002, 4.511419e+001
2.953744e+002, 4.512756e+001
2.958565e+002, 4.503119e+001
2.963386e+002, 4.487329e+001
2.968207e+002, 4.470272e+001
2.973029e+002, 4.453344e+001
2.977850e+002, 4.439288e+001
2.982671e+002, 4.437661e+001
2.987492e+002, 4.460935e+001
2.992313e+002, 4.471089e+001
2.997134e+002, 4.455599e+001
3.001956e+002, 4.427314e+001
3.006777e+002, 4.392954e+001
3.011598e+002, 4.354424e+001
3.016419e+002, 4.322204e+001
3.021240e+002, 4.319900e+001
3.026061e+002, 4.365015e+001
3.030883e+002, 4.390100e+001
3.035704e+002, 4.367450e+001
3.040525e+002, 4.334843e+001
3.045346e+002, 4.316764e+001
3.050167e+002, 4.317843e+001
3.054988e+002, 4.326826e+001
3.059810e+002, 4.329998e+001
3.064631e+002, 4.325380e+001
3.069452e+002, 4.323915e+001
3.074273e+002, 4.332668e+001
3.079094e+002, 4.339463e+001
3.083915e+002, 4.338540e+001
3.088737e+002, 4.329963e+001
3.093558e+002, 4.316687e+001
3.098379e+002, 4.297131e+001
3.103200e+002, 4.270020e+001
3.108021e+002, 4.262116e+001
3.112842e+002, 4.297532e+001
3.117664e+002, 4.328636e+001
3.122485e+002, 4.336365e+001
3.127306e+002, 4.326559e+001
3.132127e+002, 4.314675e+001
3.136948e+002, 4.312780e+001
3.141769e+002, 4.317538e+001
3.146591e+002, 4.306962e+001
3.151412e+002, 4.265799e+001
3.156233e+002, 4.230065e+001
3.161054e+002, 4.207004e+001
3.165875e+002, 4.195789e+001
3.170696e+002, 4.197221e+001
3.175518e+002, 4.213354e+001
3.180339e+002, 4.237005e+001
3.185160e+002, 4.250053e+001
3.189981e+002, 4.250079e+001
3.194802e+002, 4.243702e+001
3.199623e+002, 4.225231e+001
3.204445e+002, 4.205823e+001
3.209266e+002, 4.198177e+001
3.214087e+002, 4.205969e+001
3.218908e+002, 4.217057e+001
3.223729e+002, 4.209219e+001
3.228550e+002, 4.172372e+001
3.233372e+002, 4.152531e+001
3.238193e+002, 4.175660e+001
3.243014e+002, 4.202652e+001
3.247835e+002, 4.208820e+001
3.252656e+002, 4.192869e+001
3.257477e+002, 4.172832e+001
3.262299e+002, 4.167818e+001
3.267120e+002, 4.179510e+001
3.271941e+002, 4.188176e+001
3.276762e+002, 4.190062e+001
3.281583e+002, 4.191668e+001
3.286404e+002, 4.196304e+001
3.291226e+002, 4.203069e+001
3.296047e+002, 4.209087e+001
3.300868e+002, 4.212095e+001
3.305689e+002, 4.212525e+001
3.310510e+002, 4.213765e+001
3.315331e+002, 4.219023e+001
3.320153e+002, 4.219960e+001
3.324974e+002, 4.210995e+001
3.329795e+002, 4.197140e+001
3.334616e+002, 4.185295e+001
3.339437e+002, 4.178432e+001
3.344258e+002, 4.176015e+001
3.349080e+002, 4.177829e+001
3.353901e+002, 4.186402e+001
3.358722e+002, 4.192858e+001
3.363543e+002, 4.200161e+001
3.368365e+002, 4.201637e+001
3.373186e+002, 4.187045e+001
3.378007e+002, 4.152788e+001
3.382828e+002, 4.115968e+001
3.387649e+002, 4.096923e+001
3.392470e+002, 4.096905e+001
3.397292e+002, 4.106076e+001
3.402113e+002, 4.135390e+001
3.406934e+002, 4.163538e+001
3.411755e+002, 4.174184e+001
3.416576e+002, 4.167899e+001
3.421397e+002, 4.160651e+001
3.426219e+002, 4.168439e+001
3.431040e+002, 4.189116e+001
3.435861e+002, 4.200094e+001
3.440682e+002, 4.197441e+001
3.445503e+002, 4.187218e+001
3.450324e+002, 4.166158e+001
3.455146e+002, 4.140784e+001
3.459967e+002, 4.128004e+001
3.464788e+002, 4.144930e+001
3.469609e+002, 4.177834e+001
3.474430e+002, 4.192478e+001
3.479251e+002, 4.184069e+001
3.484073e+002, 4.170521e+001
3.488894e+002, 4.154083e+001
3.493715e+002, 4.139912e+001
3.498536e+002, 4.137669e+001
3.503357e+002, 4.156673e+001
3.508178e+002, 4.174713e+001
3.513000e+002, 4.158075e+001
3.517821e+002, 4.104457e+001
3.522642e+002, 4.064090e+001
3.527463e+002, 4.062605e+001
3.532284e+002, 4.075887e+001
3.537105e+002, 4.077385e+001
3.541927e+002, 4.064317e+001
3.546748e+002, 4.052733e+001
3.551569e+002, 4.059121e+001
3.556390e+002, 4.077880e+001
3.561211e+002, 4.081380e+001
3.566032e+002, 4.056372e+001
3.570854e+002, 4.029499e+001
3.575675e+002, 4.030724e+001
3.580496e+002, 4.053908e+001
3.585317e+002, 4.068930e+001
3.590138e+002, 4.056911e+001
3.594959e+002, 4.032244e+001
3.599781e+002, 4.016431e+001
3.604602e+002, 4.010723e+001
3.609423e+002, 4.013957e+001
3.614244e+002, 4.035729e+001
3.619065e+002, 4.064967e+001
3.623886e+002, 4.073403e+001
3.628708e+002, 4.042583e+001
3.633529e+002, 4.004845e+001
3.638350e+002, 3.982907e+001
3.643171e+002, 3.976195e+001
3.647992e+002, 3.982926e+001
3.652813e+002, 4.008738e+001
3.657635e+002, 4.041489e+001
3.662456e+002, 4.056432e+001
3.667277e+002, 4.048341e+001
3.672098e+002, 4.040119e+001
3.676919e+002, 4.038476e+001
3.681740e+002, 4.043404e+001
3.686562e+002, 4.058812e+001
3.691383e+002, 4.088128e+001
3.696204e+002, 4.115336e+001
3.701025e+002, 4.117980e+001
3.705846e+002, 4.094567e+001
3.710667e+002, 4.073067e+001
3.715489e+002, 4.045702e+001
3.720310e+002, 4.028878e+001
3.725131e+002, 4.045061e+001
3.729952e+002, 4.092458e+001
3.734773e+002, 4.140124e+001
3.739594e+002, 4.164086e+001
3.744416e+002, 4.167184e+001
3.749237e+002, 4.181270e+001
3.754058e+002, 4.218871e+001
3.758879e+002, 4.252867e+001
3.763700e+002, 4.270700e+001
3.768521e+002, 4.277152e+001
3.773343e+002, 4.281012e+001
3.778164e+002, 4.285614e+001
3.782985e+002, 4.292503e+001
3.787806e+002, 4.305462e+001
3.792627e+002, 4.325810e+001
3.797448e+002, 4.350213e+001
3.802270e+002, 4.383805e+001
3.807091e+002, 4.418304e+001
3.811912e+002, 4.444070e+001
3.816733e+002, 4.460146e+001
3.821554e+002, 4.475313e+001
3.826375e+002, 4.500144e+001
3.831197e+002, 4.537367e+001
3.836018e+002, 4.570575e+001
3.840839e+002, 4.604588e+001
3.845660e+002, 4.630812e+001
3.850481e+002, 4.641537e+001
3.855302e+002, 4.641021e+001
3.860124e+002, 4.639120e+001
3.864945e+002, 4.642053e+001
3.869766e+002, 4.649268e+001
3.874587e+002, 4.658053e+001
3.879408e+002, 4.678571e+001
3.884229e+002, 4.687669e+001
3.889051e+002, 4.674474e+001
3.893872e+002, 4.652964e+001
3.898693e+002, 4.637701e+001
3.903514e+002, 4.633397e+001
3.908335e+002, 4.633876e+001
3.913156e+002, 4.630520e+001
3.917978e+002, 4.625195e+001
3.922799e+002, 4.610514e+001
3.927620e+002, 4.584318e+001
3.932441e+002, 4.551205e+001
3.937262e+002, 4.512014e+001
3.942083e+002, 4.467470e+001
3.946905e+002, 4.418146e+001
3.951726e+002, 4.360498e+001
3.956547e+002, 4.297033e+001
3.961368e+002, 4.255576e+001
3.966189e+002, 4.255655e+001
3.971010e+002, 4.250390e+001
3.975832e+002, 4.226799e+001
3.980653e+002, 4.189410e+001
3.985474e+002, 4.141365e+001
3.990295e+002, 4.081652e+001
3.995116e+002, 4.021306e+001
3.999937e+002, 3.980575e+001
4.004759e+002, 3.963909e+001
4.009580e+002, 3.943728e+001
4.014401e+002, 3.900507e+001
4.019222e+002, 3.861724e+001
4.024043e+002, 3.853096e+001
4.028864e+002, 3.873942e+001
4.033686e+002, 3.891976e+001
4.038507e+002, 3.874907e+001
4.043328e+002, 3.833184e+001
4.048149e+002, 3.816355e+001
4.052970e+002, 3.839403e+001
4.057791e+002, 3.862997e+001
4.062613e+002, 3.855262e+001
4.067434e+002, 3.828844e+001
4.072255e+002, 3.808753e+001
4.077076e+002, 3.805936e+001
4.081897e+002, 3.809370e+001
4.086718e+002, 3.806194e+001
4.091540e+002, 3.796707e+001
4.096361e+002, 3.790635e+001
4.101182e+002, 3.797051e+001
4.106003e+002, 3.804675e+001
4.110824e+002, 3.792485e+001
4.115645e+002, 3.754659e+001
4.120467e+002, 3.720818e+001
4.125288e+002, 3.704416e+001
4.130109e+002, 3.700311e+001
4.134930e+002, 3.700340e+001
4.139751e+002, 3.703095e+001
4.144572e+002, 3.708215e+001
4.149394e+002, 3.716987e+001
4.154215e+002, 3.729524e+001
4.159036e+002, 3.735404e+001
4.163857e+002, 3.723927e+001
4.168678e+002, 3.714516e+001
4.173499e+002, 3.726800e+001
4.178321e+002, 3.753772e+001
4.183142e+002, 3.768729e+001
4.187963e+002, 3.754979e+001
4.192784e+002, 3.722016e+001
4.197605e+002, 3.702478e+001
4.202426e+002, 3.715442e+001
4.207248e+002, 3.715261e+001
4.212069e+002, 3.683361e+001
4.216890e+002, 3.643097e+001
4.221711e+002, 3.618857e+001
4.226532e+002, 3.615939e+001
4.231353e+002, 3.623131e+001
4.236175e+002, 3.627729e+001
4.240996e+002, 3.629482e+001
4.245817e+002, 3.629832e+001
4.250638e+002, 3.626367e+001
4.255459e+002, 3.624126e+001
4.260280e+002, 3.625996e+001
4.265102e+002, 3.630554e+001
4.269923e+002, 3.634619e+001
4.274744e+002, 3.636234e+001
4.279565e+002, 3.636432e+001
4.284386e+002, 3.639468e+001
4.289207e+002, 3.651731e+001
4.294029e+002, 3.654726e+001
4.298850e+002, 3.637630e+001
4.303671e+002, 3.617377e+001
4.308492e+002, 3.608949e+001
4.313313e+002, 3.614090e+001
4.318134e+002, 3.621807e+001
4.322956e+002, 3.620182e+001
4.327777e+002, 3.608953e+001
4.332598e+002, 3.598338e+001
4.337419e+002, 3.583202e+001
4.342241e+002, 3.576376e+001
4.347062e+002, 3.591468e+001
4.351883e+002, 3.617278e+001
4.356704e+002, 3.631306e+001
4.361525e+002, 3.618952e+001
4.366346e+002, 3.596821e+001
4.371168e+002, 3.593617e+001
4.375989e+002, 3.611659e+001
4.380810e+002, 3.624002e+001
4.385631e+002, 3.617612e+001
4.390452e+002, 3.603733e+001
4.395273e+002, 3.595063e+001
4.400095e+002, 3.592270e+001
4.404916e+002, 3.591320e+001
4.409737e+002, 3.587436e+001
4.414558e+002, 3.584381e+001
4.419379e+002, 3.593188e+001
4.424200e+002, 3.617476e+001
4.429022e+002, 3.639044e+001
4.433843e+002, 3.640059e+001
4.438664e+002, 3.624228e+001
4.443485e+002, 3.616584e+001
4.448306e+002, 3.631308e+001
4.453127e+002, 3.642076e+001
4.457949e+002, 3.625195e+001
4.462770e+002, 3.591996e+001
4.467591e+002, 3.574537e+001
4.472412e+002, 3.587506e+001
4.477233e+002, 3.615574e+001
4.482054e+002, 3.630604e+001
4.486876e+002, 3.630372e+001
4.491697e+002, 3.620859e+001
4.496518e+002, 3.588673e+001
4.501339e+002, 3.557268e+001
4.506160e+002, 3.542599e+001
4.510981e+002, 3.546256e+001
4.515803e+002, 3.565950e+001
4.520624e+002, 3.602880e+001
4.525445e+002, 3.654301e+001
4.530266e+002, 3.682548e+001
4.535087e+002, 3.673808e+001
4.539908e+002, 3.655603e+001
4.544730e+002, 3.616361e+001
4.549551e+002, 3.576239e+001
4.554372e+002, 3.560172e+001
4.559193e+002, 3.574871e+001
4.564014e+002, 3.602586e+001
4.568835e+002, 3.619066e+001
4.573657e+002, 3.622120e+001
4.578478e+002, 3.623429e+001
4.583299e+002, 3.619963e+001
4.588120e+002, 3.617891e+001
4.592941e+002, 3.623949e+001
4.597762e+002, 3.633444e+001
4.602584e+002, 3.634541e+001
4.607405e+002, 3.617124e+001
4.612226e+002, 3.591540e+001
4.617047e+002, 3.581997e+001
4.621868e+002, 3.592857e+001
4.626689e+002, 3.598195e+001
4.631511e+002, 3.579981e+001
4.636332e+002, 3.558316e+001
4.641153e+002, 3.554362e+001
4.645974e+002, 3.570522e+001
4.650795e+002, 3.589037e+001
4.655616e+002, 3.602686e+001
4.660438e+002, 3.610555e+001
4.665259e+002, 3.608067e+001
4.670080e+002, 3.592904e+001
4.674901e+002, 3.578540e+001
4.679722e+002, 3.576273e+001
4.684543e+002, 3.584098e+001
4.689365e+002, 3.590144e+001
4.694186e+002, 3.589299e+001
4.699007e+002, 3.591307e+001
4.703828e+002, 3.603708e+001
4.708649e+002, 3.622485e+001
4.713470e+002, 3.640334e+001
4.718292e+002, 3.655095e+001
4.723113e+002, 3.664026e+001
4.727934e+002, 3.661367e+001
4.732755e+002, 3.638986e+001
4.737576e+002, 3.629309e+001
4.742397e+002, 3.638293e+001
4.747219e+002, 3.654155e+001
4.752040e+002, 3.675879e+001
4.756861e+002, 3.698780e+001
4.761682e+002, 3.713475e+001
4.766503e+002, 3.713782e+001
4.771324e+002, 3.701711e+001
4.776146e+002, 3.683684e+001
4.780967e+002, 3.644355e+001
4.785788e+002, 3.624681e+001
4.790609e+002, 3.644069e+001
4.795430e+002, 3.671527e+001
4.800251e+002, 3.679183e+001
4.805073e+002, 3.665907e+001
4.809894e+002, 3.655301e+001
4.814715e+002, 3.677495e+001
4.819536e+002, 3.728239e+001
4.824357e+002, 3.745676e+001
4.829178e+002, 3.708447e+001
4.834000e+002, 3.674656e+001
4.838821e+002, 3.669137e+001
4.843642e+002, 3.681882e+001
4.848463e+002, 3.703278e+001
4.853284e+002, 3.734185e+001
4.858105e+002, 3.761469e+001
4.862927e+002, 3.767912e+001
4.867748e+002, 3.757454e+001
4.872569e+002, 3.756319e+001
4.877390e+002, 3.774550e+001
4.882211e+002, 3.794147e+001
4.887032e+002, 3.788754e+001
4.891854e+002, 3.763942e+001
4.896675e+002, 3.754604e+001
4.901496e+002, 3.778040e+001
4.906317e+002, 3.810717e+001
4.911138e+002, 3.840329e+001
4.915959e+002, 3.864046e+001
4.920781e+002, 3.871601e+001
4.925602e+002, 3.855335e+001
4.930423e+002, 3.827810e+001
4.935244e+002, 3.816451e+001
4.940065e+002, 3.827785e+001
4.944886e+002, 3.844050e+001
4.949708e+002, 3.869645e+001
4.954529e+002, 3.896173e+001
4.959350e+002, 3.918969e+001
4.964171e+002, 3.936896e+001
4.968992e+002, 3.949231e+001
4.973813e+002, 3.954749e+001
4.978635e+002, 3.954737e+001
4.983456e+002, 3.957160e+001
4.988277e+002, 3.957562e+001
4.993098e+002, 3.967860e+001
4.997919e+002, 3.998506e+001
5.002740e+002, 4.033282e+001
5.007562e+002, 4.058076e+001
5.012383e+002, 4.070508e+001
5.017204e+002, 4.078032e+001
5.022025e+002, 4.086324e+001
5.026846e+002, 4.095560e+001
5.031667e+002, 4.110007e+001
5.036489e+002, 4.137864e+001
5.041310e+002, 4.155033e+001
5.046131e+002, 4.134161e+001
5.050952e+002, 4.099033e+001
5.055773e+002, 4.086106e+001
5.060594e+002, 4.109748e+001
5.065416e+002, 4.141429e+001
5.070237e+002, 4.155876e+001
5.075058e+002, 4.158797e+001
5.079879e+002, 4.172188e+001
5.084700e+002, 4.203713e+001
5.089521e+002, 4.236871e+001
5.094343e+002, 4.253727e+001
5.099164e+002, 4.253949e+001
5.103985e+002, 4.254097e+001
5.108806e+002, 4.247763e+001
5.113627e+002, 4.248537e+001
5.118448e+002, 4.269789e+001
5.123270e+002, 4.303747e+001
5.128091e+002, 4.333797e+001
5.132912e+002, 4.352833e+001
5.137733e+002, 4.363219e+001
5.142554e+002, 4.367457e+001
5.147375e+002, 4.353405e+001
5.152197e+002, 4.363398e+001
5.157018e+002, 4.417303e+001
5.161839e+002, 4.473084e+001
5.166660e+002, 4.509979e+001
5.171481e+002, 4.530682e+001
5.176302e+002, 4.546301e+001
5.181124e+002, 4.563065e+001
5.185945e+002, 4.580161e+001
5.190766e+002, 4.596187e+001
5.195587e+002, 4.612464e+001
5.200408e+002, 4.623139e+001
5.205229e+002, 4.626683e+001
5.210051e+002, 4.623701e+001
5.214872e+002, 4.607743e+001
5.219693e+002, 4.582196e+001
5.224514e+002, 4.567040e+001
5.229335e+002, 4.582307e+001
5.234156e+002, 4.612889e+001
5.238978e+002, 4.628200e+001
5.243799e+002, 4.626986e+001
5.248620e+002, 4.631489e+001
5.253441e+002, 4.656925e+001
5.258262e+002, 4.691523e+001
5.263083e+002, 4.707964e+001
5.267905e+002, 4.697811e+001
5.272726e+002, 4.698982e+001
5.277547e+002, 4.731298e+001
5.282368e+002, 4.775525e+001
5.287189e+002, 4.808749e+001
5.292010e+002, 4.830199e+001
5.296832e+002, 4.854970e+001
5.301653e+002, 4.894596e+001
5.306474e+002, 4.947322e+001
5.311295e+002, 5.002795e+001
5.316116e+002, 5.057832e+001
5.320938e+002, 5.119856e+001
5.325759e+002, 5.194381e+001
5.330580e+002, 5.273151e+001
5.335401e+002, 5.347747e+001
5.340222e+002, 5.417656e+001
5.345043e+002, 5.491222e+001
5.349865e+002, 5.577884e+001
5.354686e+002, 5.676281e+001
5.359507e+002, 5.766059e+001
5.364328e+002, 5.832689e+001
5.369149e+002, 5.919420e+001
5.373970e+002, 6.064599e+001
5.378792e+002, 6.225898e+001
5.383613e+002, 6.351887e+001
5.388434e+002, 6.429634e+001
5.393255e+002, 6.509633e+001
5.398076e+002, 6.633331e+001
5.402897e+002, 6.787938e+001
5.407719e+002, 6.942538e+001
5.412540e+002, 7.093867e+001
5.417361e+002, 7.240834e+001
5.422182e+002, 7.379622e+001
5.427003e+002, 7.513099e+001
5.431824e+002, 7.656374e+001
5.436646e+002, 7.810524e+001
5.441467e+002, 7.972208e+001
5.446288e+002, 8.142702e+001
5.451109e+002, 8.319610e+001
5.455930e+002, 8.505242e+001
5.460751e+002, 8.698232e+001
5.465573e+002, 8.882413e+001
5.470394e+002, 9.042602e+001
5.475215e+002, 9.178073e+001
5.480036e+002, 9.300966e+001
5.484857e+002, 9.398147e+001
5.489678e+002, 9.498691e+001
5.494500e+002, 9.620354e+001
5.499321e+002, 9.741468e+001
5.504142e+002, 9.834000e+001
5.508963e+002, 9.892365e+001
5.513784e+002, 9.943127e+001
5.518605e+002, 1.001435e+002
5.523427e+002, 1.010501e+002
5.528248e+002, 1.019598e+002
5.533069e+002, 1.027339e+002
5.537890e+002, 1.037850e+002
5.542711e+002, 1.055117e+002
5.547532e+002, 1.076084e+002
5.552354e+002, 1.096495e+002
5.557175e+002, 1.115237e+002
5.561996e+002, 1.134499e+002
5.566817e+002, 1.156229e+002
5.571638e+002, 1.179330e+002
5.576459e+002, 1.202044e+002
5.581281e+002, 1.223966e+002
5.586102e+002, 1.245248e+002
5.590923e+002, 1.266941e+002
5.595744e+002, 1.288681e+002
5.600565e+002, 1.302288e+002
5.605386e+002, 1.309657e+002
5.610208e+002, 1.308106e+002
5.615029e+002, 1.295883e+002
5.619850e+002, 1.274976e+002
5.624671e+002, 1.247796e+002
5.629492e+002, 1.214764e+002
5.634313e+002, 1.174132e+002
5.639135e+002, 1.122830e+002
5.643956e+002, 1.060906e+002
5.648777e+002, 1.001027e+002
5.653598e+002, 9.425228e+001
5.658419e+002, 8.873222e+001
5.663240e+002, 8.353207e+001
5.668062e+002, 7.865152e+001
5.672883e+002, 7.407430e+001
5.677704e+002, 6.981066e+001
5.682525e+002, 6.602019e+001
5.687346e+002, 6.292329e+001
5.692167e+002, 6.039056e+001
5.696989e+002, 5.809803e+001
5.701810e+002, 5.600733e+001
5.706631e+002, 5.417639e+001
5.711452e+002, 5.268301e+001
5.716273e+002, 5.146978e+001
5.721094e+002, 5.034426e+001
5.725916e+002, 4.929411e+001
5.730737e+002, 4.834556e+001
5.735558e+002, 4.745102e+001
5.740379e+002, 4.669151e+001
5.745200e+002, 4.622527e+001
5.750021e+002, 4.602884e+001
5.754843e+002, 4.587862e+001
5.759664e+002, 4.558884e+001
5.764485e+002, 4.519907e+001
5.769306e+002, 4.496627e+001
5.774127e+002, 4.505312e+001
5.778948e+002, 4.503558e+001
5.783770e+002, 4.476839e+001
5.788591e+002, 4.445357e+001
5.793412e+002, 4.422546e+001
5.798233e+002, 4.410331e+001
5.803054e+002, 4.405259e+001
5.807875e+002, 4.410147e+001
5.812697e+002, 4.418527e+001
5.817518e+002, 4.413382e+001
5.822339e+002, 4.393738e+001
5.827161e+002, 4.368734e+001
5.831982e+002, 4.337958e+001
5.836803e+002, 4.307479e+001
5.841624e+002, 4.278855e+001
5.846445e+002, 4.247114e+001
5.851266e+002, 4.253080e+001
5.856088e+002, 4.352439e+001
5.860909e+002, 4.459320e+001
5.865730e+002, 4.504890e+001
5.870551e+002, 4.490424e+001
5.875372e+002, 4.432113e+001
5.880193e+002, 4.335199e+001
5.885015e+002, 4.221751e+001
5.889836e+002, 4.141504e+001
5.894657e+002, 4.109349e+001
5.899478e+002, 4.078994e+001
5.904299e+002, 4.051479e+001
5.909120e+002, 4.024456e+001
5.913942e+002, 3.995788e+001
5.918763e+002, 3.966906e+001
5.923584e+002, 3.941333e+001
5.928405e+002, 3.921171e+001
5.933226e+002, 3.903099e+001
5.938047e+002, 3.882259e+001
5.942869e+002, 3.858575e+001
5.947690e+002, 3.833871e+001
5.952511e+002, 3.807405e+001
5.957332e+002, 3.781531e+001
5.962153e+002, 3.757886e+001
5.966974e+002, 3.736359e+001
5.971796e+002, 3.717348e+001
5.976617e+002, 3.697628e+001
5.981438e+002, 3.683820e+001
5.986259e+002, 3.686652e+001
5.991080e+002, 3.695866e+001
5.995901e+002, 3.692093e+001
6.000723e+002, 3.670965e+001
6.005544e+002, 3.644650e+001
6.010365e+002, 3.626329e+001
6.015186e+002, 3.616285e+001
6.020007e+002, 3.601436e+001
6.024828e+002, 3.575273e+001
6.029650e+002, 3.552210e+001
6.034471e+002, 3.535554e+001
6.039292e+002, 3.522658e+001
6.044113e+002, 3.511288e+001
6.048934e+002, 3.500842e+001
6.053755e+002, 3.490764e+001
6.058577e+002, 3.479601e+001
6.063398e+002, 3.468382e+001
6.068219e+002, 3.461362e+001
6.073040e+002, 3.459182e+001
6.077861e+002, 3.457689e+001
6.082682e+002, 3.456245e+001
6.087504e+002, 3.453405e+001
6.092325e+002, 3.446045e+001
6.097146e+002, 3.432930e+001
6.101967e+002, 3.422049e+001
6.106788e+002, 3.412983e+001
6.111609e+002, 3.408842e+001
6.116431e+002, 3.418322e+001
6.121252e+002, 3.436020e+001
6.126073e+002, 3.443213e+001
6.130894e+002, 3.429498e+001
6.135715e+002, 3.404800e+001
6.140536e+002, 3.390968e+001
6.145358e+002, 3.393116e+001
6.150179e+002, 3.393762e+001
6.155000e+002, 3.390992e+001
6.159821e+002, 3.388623e+001
6.164642e+002, 3.392073e+001
6.169464e+002, 3.396411e+001
6.174285e+002, 3.390798e+001
6.179106e+002, 3.368753e+001
6.183927e+002, 3.344545e+001
6.188748e+002, 3.332455e+001
6.193569e+002, 3.331975e+001
6.198391e+002, 3.344364e+001
6.203212e+002, 3.374504e+001
6.208033e+002, 3.397131e+001
6.212854e+002, 3.384926e+001
6.217675e+002, 3.346381e+001
6.222496e+002, 3.333036e+001
6.227318e+002, 3.374834e+001
6.232139e+002, 3.402018e+001
6.236960e+002, 3.382258e+001
6.241781e+002, 3.346258e+001
6.246602e+002, 3.323623e+001
6.251423e+002, 3.319319e+001
6.256245e+002, 3.327877e+001
6.261066e+002, 3.347181e+001
6.265887e+002, 3.373015e+001
6.270708e+002, 3.386359e+001
6.275529e+002, 3.383998e+001
6.280350e+002, 3.376835e+001
6.285172e+002, 3.357074e+001
6.289993e+002, 3.340899e+001
6.294814e+002, 3.344178e+001
6.299635e+002, 3.362819e+001
6.304456e+002, 3.373984e+001
6.309277e+002, 3.360329e+001
6.314099e+002, 3.340593e+001
6.318920e+002, 3.337630e+001
6.323741e+002, 3.347255e+001
6.328562e+002, 3.351627e+001
6.333383e+002, 3.344703e+001
6.338204e+002, 3.334448e+001
6.343026e+002, 3.330397e+001
6.347847e+002, 3.333400e+001
6.352668e+002, 3.334737e+001
6.357489e+002, 3.329842e+001
6.362310e+002, 3.328910e+001
6.367131e+002, 3.340515e+001
6.371953e+002, 3.354757e+001
6.376774e+002, 3.358846e+001
6.381595e+002, 3.350832e+001
6.386416e+002, 3.340253e+001
6.391237e+002, 3.335984e+001
6.396058e+002, 3.336962e+001
6.400880e+002, 3.338414e+001
6.405701e+002, 3.341154e+001
6.410522e+002, 3.339605e+001
6.415343e+002, 3.317369e+001
6.420164e+002, 3.301518e+001
6.424985e+002, 3.341884e+001
6.429807e+002, 3.445438e+001
6.434628e+002, 3.502298e+001
6.439449e+002, 3.440698e+001
6.444270e+002, 3.355661e+001
6.449091e+002, 3.315717e+001
6.453912e+002, 3.317314e+001
6.458734e+002, 3.349611e+001
6.463555e+002, 3.408021e+001
6.468376e+002, 3.461720e+001
6.473197e+002, 3.457270e+001
6.478018e+002, 3.379789e+001
6.482839e+002, 3.328782e+001
6.487661e+002, 3.325821e+001
6.492482e+002, 3.323574e+001
6.497303e+002, 3.296495e+001
6.502124e+002, 3.267286e+001
6.506945e+002, 3.269185e+001
6.511766e+002, 3.310027e+001
6.516588e+002, 3.352938e+001
6.521409e+002, 3.372397e+001
6.526230e+002, 3.373436e+001
6.531051e+002, 3.361134e+001
6.535872e+002, 3.336489e+001
6.540693e+002, 3.317732e+001
6.545515e+002, 3.315162e+001
6.550336e+002, 3.322952e+001
6.555157e+002, 3.329320e+001
6.559978e+002, 3.334550e+001
6.564799e+002, 3.337327e+001
6.569620e+002, 3.335056e+001
6.574442e+002, 3.332838e+001
6.579263e+002, 3.332461e+001
6.584084e+002, 3.334312e+001
6.588905e+002, 3.339464e+001
6.593726e+002, 3.348297e+001
6.598547e+002, 3.357397e+001
6.603369e+002, 3.365910e+001
6.608190e+002, 3.372847e+001
6.613011e+002, 3.358138e+001
6.617832e+002, 3.308486e+001
6.622653e+002, 3.272135e+001
6.627474e+002, 3.285360e+001
6.632296e+002, 3.325616e+001
6.637117e+002, 3.348132e+001
6.641938e+002, 3.349310e+001
6.646759e+002, 3.342613e+001
6.651580e+002, 3.325548e+001
6.656401e+002, 3.307402e+001
6.661223e+002, 3.292790e+001
6.666044e+002, 3.284599e+001
6.670865e+002, 3.293442e+001
6.675686e+002, 3.325833e+001
6.680507e+002, 3.362563e+001
6.685328e+002, 3.361173e+001
6.690150e+002, 3.306077e+001
6.694971e+002, 3.281258e+001
6.699792e+002, 3.312991e+001
6.704613e+002, 3.343769e+001
6.709434e+002, 3.345704e+001
6.714255e+002, 3.332101e+001
6.719077e+002, 3.323416e+001
6.723898e+002, 3.324903e+001
6.728719e+002, 3.326182e+001
6.733540e+002, 3.313127e+001
6.738361e+002, 3.299181e+001
6.743182e+002, 3.313520e+001
6.748004e+002, 3.353358e+001
6.752825e+002, 3.379149e+001
6.757646e+002, 3.366730e+001
6.762467e+002, 3.331561e+001
6.767288e+002, 3.308155e+001
6.772109e+002, 3.295917e+001
6.776931e+002, 3.297381e+001
6.781752e+002, 3.326057e+001
6.786573e+002, 3.353038e+001
6.791394e+002, 3.364701e+001
6.796215e+002, 3.366653e+001
6.801036e+002, 3.370242e+001
6.805858e+002, 3.379709e+001
6.810679e+002, 3.384096e+001
6.815500e+002, 3.364976e+001
6.820321e+002, 3.333106e+001
6.825142e+002, 3.321655e+001
6.829963e+002, 3.334172e+001
6.834785e+002, 3.350264e+001
6.839606e+002, 3.361771e+001
6.844427e+002, 3.366039e+001
6.849248e+002, 3.354465e+001
6.854069e+002, 3.310444e+001
6.858890e+002, 3.290519e+001
6.863712e+002, 3.322121e+001
6.868533e+002, 3.352081e+001
6.873354e+002, 3.344232e+001
6.878175e+002, 3.316169e+001
6.882996e+002, 3.306505e+001
6.887817e+002, 3.329417e+001
6.892639e+002, 3.353150e+001
6.897460e+002, 3.329818e+001
6.902281e+002, 3.268985e+001
6.907102e+002, 3.239078e+001
6.911923e+002, 3.247535e+001
6.916744e+002, 3.267582e+001
6.921566e+002, 3.295771e+001
6.926387e+002, 3.320494e+001
6.931208e+002, 3.313890e+001
6.936029e+002, 3.266574e+001
6.940850e+002, 3.233914e+001
6.945671e+002, 3.232067e+001
6.950493e+002, 3.240579e+001
6.955314e+002, 3.249283e+001
6.960135e+002, 3.257772e+001
6.964956e+002, 3.267941e+001
6.969777e+002, 3.280327e+001
6.974598e+002, 3.292897e+001
6.979420e+002, 3.304713e+001
6.984241e+002, 3.315446e+001
6.989062e+002, 3.315676e+001
6.993883e+002, 3.302050e+001
6.998704e+002, 3.286895e+001
7.003525e+002, 3.269985e+001
7.008347e+002, 3.258279e+001
7.013168e+002, 3.262938e+001
7.017989e+002, 3.285526e+001
7.022810e+002, 3.305186e+001
7.027631e+002, 3.318258e+001
7.032452e+002, 3.324677e+001
7.037274e+002, 3.320919e+001
7.042095e+002, 3.311172e+001
7.046916e+002, 3.303740e+001
7.051737e+002, 3.301143e+001
7.056558e+002, 3.298581e+001
7.061379e+002, 3.288715e+001
7.066201e+002, 3.272516e+001
7.071022e+002, 3.270335e+001
7.075843e+002, 3.290796e+001
7.080664e+002, 3.304638e+001
7.085485e+002, 3.291852e+001
7.090306e+002, 3.276582e+001
7.095128e+002, 3.286440e+001
7.099949e+002, 3.319492e+001
7.104770e+002, 3.340187e+001
7.109591e+002, 3.325249e+001
7.114412e+002, 3.305699e+001
7.119233e+002, 3.308960e+001
7.124055e+002, 3.322765e+001
7.128876e+002, 3.320044e+001
7.133697e+002, 3.295539e+001
7.138518e+002, 3.269326e+001
7.143339e+002, 3.260817e+001
7.148160e+002, 3.268162e+001
7.152982e+002, 3.278767e+001
7.157803e+002, 3.295193e+001
7.162624e+002, 3.309117e+001
7.167445e+002, 3.324624e+001
7.172266e+002, 3.331702e+001
7.177087e+002, 3.316237e+001
7.181909e+002, 3.284700e+001
7.186730e+002, 3.264144e+001
7.191551e+002, 3.269383e+001
7.196372e+002, 3.279204e+001
7.201193e+002, 3.278859e+001
7.206014e+002, 3.273454e+001
7.210836e+002, 3.271358e+001
7.215657e+002, 3.273941e+001
7.220478e+002, 3.278664e+001
7.225299e+002, 3.283697e+001
7.230120e+002, 3.289214e+001
7.234941e+002, 3.296495e+001
7.239763e+002, 3.308363e+001
7.244584e+002, 3.314080e+001
7.249405e+002, 3.307617e+001
7.254226e+002, 3.300049e+001
7.259047e+002, 3.297311e+001
7.263868e+002, 3.297855e+001
7.268690e+002, 3.297375e+001
7.273511e+002, 3.292854e+001
7.278332e+002, 3.293179e+001
7.283153e+002, 3.310298e+001
7.287974e+002, 3.331749e+001
7.292795e+002, 3.340242e+001
7.297617e+002, 3.335735e+001
7.302438e+002, 3.326896e+001
7.307259e+002, 3.318037e+001
7.312080e+002, 3.310363e+001
7.316901e+002, 3.306128e+001
7.321722e+002, 3.305294e+001
7.326544e+002, 3.308258e+001
7.331365e+002, 3.317801e+001
7.336186e+002, 3.327364e+001
7.341007e+002, 3.333760e+001
7.345828e+002, 3.338878e+001
7.350649e+002, 3.345179e+001
7.355471e+002, 3.353091e+001
7.360292e+002, 3.360875e+001
7.365113e+002, 3.369691e+001
7.369934e+002, 3.376440e+001
7.374755e+002, 3.379753e+001
7.379576e+002, 3.378354e+001
7.384398e+002, 3.365472e+001
7.389219e+002, 3.339207e+001
7.394040e+002, 3.315844e+001
7.398861e+002, 3.318653e+001
7.403682e+002, 3.346902e+001
7.408503e+002, 3.352681e+001
7.413325e+002, 3.319225e+001
7.418146e+002, 3.298552e+001
7.422967e+002, 3.315696e+001
7.427788e+002, 3.343818e+001
7.432609e+002, 3.363547e+001
7.437430e+002, 3.374337e+001
7.442252e+002, 3.378960e+001
7.447073e+002, 3.368867e+001
7.451894e+002, 3.362823e+001
7.456715e+002, 3.381756e+001
7.461536e+002, 3.409155e+001
7.466357e+002, 3.418883e+001
7.471179e+002, 3.406984e+001
7.476000e+002, 3.382555e+001
7.480821e+002, 3.349552e+001
7.485642e+002, 3.315826e+001
7.490463e+002, 3.310711e+001
7.495284e+002, 3.343202e+001
7.500106e+002, 3.363350e+001
7.504927e+002, 3.360865e+001
7.509748e+002, 3.350048e+001
7.514569e+002, 3.334336e+001
7.519390e+002, 3.318344e+001
7.524211e+002, 3.313794e+001
7.529033e+002, 3.328498e+001
7.533854e+002, 3.338930e+001
7.538675e+002, 3.327348e+001
7.543496e+002, 3.314696e+001
7.548317e+002, 3.324080e+001
7.553138e+002, 3.349818e+001
7.557960e+002, 3.371953e+001
7.562781e+002, 3.381350e+001
7.567602e+002, 3.384470e+001
7.572423e+002, 3.392897e+001
7.577244e+002, 3.406067e+001
7.582065e+002, 3.405183e+001
7.586887e+002, 3.387201e+001
7.591708e+002, 3.363290e+001
7.596529e+002, 3.328193e+001
7.601350e+002, 3.298264e+001
7.606171e+002, 3.305638e+001
7.610992e+002, 3.353812e+001
7.615814e+002, 3.382955e+001
7.620635e+002, 3.366385e+001
7.625456e+002, 3.351233e+001
7.630277e+002, 3.362726e+001
7.635098e+002, 3.386468e+001
7.639919e+002, 3.406268e+001
7.644741e+002, 3.417430e+001
7.649562e+002, 3.418000e+001
7.654383e+002, 3.401799e+001
7.659204e+002, 3.380027e+001
7.664025e+002, 3.381787e+001
7.668846e+002, 3.406086e+001
7.673668e+002, 3.421942e+001
7.678489e+002, 3.420327e+001
7.683310e+002, 3.418840e+001
7.688131e+002, 3.435493e+001
7.692952e+002, 3.464819e+001
7.697773e+002, 3.475514e+001
7.702595e+002, 3.446048e+001
7.707416e+002, 3.430310e+001
7.712237e+002, 3.441682e+001
7.717058e+002, 3.458049e+001
7.721879e+002, 3.465865e+001
7.726700e+002, 3.467653e+001
7.731522e+002, 3.471579e+001
7.736343e+002, 3.480885e+001
7.741164e+002, 3.489671e+001
7.745985e+002, 3.491717e+001
7.750806e+002, 3.489299e+001
7.755627e+002, 3.484113e+001
7.760449e+002, 3.477467e+001
7.765270e+002, 3.483527e+001
7.770091e+002, 3.510345e+001
7.774912e+002, 3.544156e+001
7.779733e+002, 3.564381e+001
7.784554e+002, 3.569864e+001
7.789376e+002, 3.572333e+001
7.794197e+002, 3.562050e+001
7.799019e+002, 3.562413e+001
7.803840e+002, 3.584740e+001
7.808661e+002, 3.614500e+001
7.813482e+002, 3.637464e+001
7.818303e+002, 3.654619e+001
7.823124e+002, 3.678611e+001
7.827946e+002, 3.724884e+001
7.832767e+002, 3.767543e+001
7.837588e+002, 3.771906e+001
7.842409e+002, 3.762827e+001
7.847230e+002, 3.794041e+001
7.852051e+002, 3.866795e+001
7.856873e+002, 3.930270e+001
7.861694e+002, 3.948232e+001
7.866515e+002, 3.936156e+001
7.871336e+002, 3.934252e+001
7.876157e+002, 3.946275e+001
7.880978e+002, 3.947713e+001
7.885800e+002, 3.934296e+001
7.890621e+002, 3.914859e+001
7.895442e+002, 3.894092e+001
7.900263e+002, 3.870209e+001
7.905084e+002, 3.839917e+001
7.909905e+002, 3.802883e+001
7.914727e+002, 3.761412e+001
7.919548e+002, 3.706513e+001
7.924369e+002, 3.657281e+001
7.929190e+002, 3.625789e+001
7.934011e+002, 3.607948e+001
7.938832e+002, 3.597738e+001
7.943654e+002, 3.592615e+001
7.948475e+002, 3.589700e+001
7.953296e+002, 3.588287e+001
7.958117e+002, 3.585679e+001
7.962938e+002, 3.572422e+001
7.967759e+002, 3.548735e+001
7.972581e+002, 3.529875e+001
7.977402e+002, 3.520460e+001
7.982223e+002, 3.512685e+001
7.987044e+002, 3.500246e+001
7.991865e+002, 3.483660e+001
7.996686e+002, 3.466336e+001
8.001508e+002, 3.435153e+001
8.006329e+002, 3.422564e+001
8.011150e+002, 3.451484e+001
8.015971e+002, 3.477021e+001
8.020792e+002, 3.464788e+001
8.025613e+002, 3.433521e+001
8.030435e+002, 3.421144e+001
8.035256e+002, 3.440014e+001
8.040077e+002, 3.462461e+001
8.044898e+002, 3.472327e+001
8.049719e+002, 3.471022e+001
8.054540e+002, 3.453833e+001
8.059362e+002, 3.426289e+001
8.064183e+002, 3.410949e+001
8.069004e+002, 3.415766e+001
8.073825e+002, 3.424549e+001
8.078646e+002, 3.415809e+001
8.083467e+002, 3.392641e+001
8.088289e+002, 3.400446e+001
8.093110e+002, 3.461991e+001
8.097931e+002, 3.491213e+001
8.102752e+002, 3.444004e+001
8.107573e+002, 3.386974e+001
8.112394e+002, 3.377777e+001
8.117216e+002, 3.402440e+001
8.122037e+002, 3.415318e+001
8.126858e+002, 3.403841e+001
8.131679e+002, 3.392483e+001
8.136500e+002, 3.381179e+001
8.141321e+002, 3.380072e+001
8.146143e+002, 3.412813e+001
8.150964e+002, 3.461145e+001
8.155785e+002, 3.478809e+001
8.160606e+002, 3.447406e+001
8.165427e+002, 3.404755e+001
8.170248e+002, 3.395693e+001
8.175070e+002, 3.410812e+001
8.179891e+002, 3.415897e+001
8.184712e+002, 3.410443e+001
8.189533e+002, 3.410432e+001
8.194354e+002, 3.422256e+001
8.199175e+002, 3.438825e+001
8.203997e+002, 3.453683e+001
8.208818e+002, 3.466668e+001
8.213639e+002, 3.468000e+001
8.218460e+002, 3.449459e+001
8.223281e+002, 3.431273e+001
8.228102e+002, 3.403490e+001
8.232924e+002, 3.387697e+001
8.237745e+002, 3.413134e+001
8.242566e+002, 3.460576e+001
8.247387e+002, 3.478273e+001
8.252208e+002, 3.442467e+001
8.257029e+002, 3.405898e+001
8.261851e+002, 3.401676e+001
8.266672e+002, 3.413205e+001
8.271493e+002, 3.427250e+001
8.276314e+002, 3.439343e+001
8.281135e+002, 3.440284e+001
8.285956e+002, 3.426948e+001
8.290778e+002, 3.409231e+001
8.295599e+002, 3.397790e+001
8.300420e+002, 3.392647e+001
8.305241e+002, 3.396492e+001
8.310062e+002, 3.411723e+001
8.314883e+002, 3.417892e+001
8.319705e+002, 3.402880e+001
8.324526e+002, 3.390559e+001
8.329347e+002, 3.408696e+001
8.334168e+002, 3.452574e+001
8.338989e+002, 3.476380e+001
8.343810e+002, 3.466941e+001
8.348632e+002, 3.458571e+001
8.353453e+002, 3.443771e+001
8.358274e+002, 3.441012e+001
8.363095e+002, 3.473286e+001
8.367916e+002, 3.522976e+001
8.372737e+002, 3.556269e+001
8.377559e+002, 3.562844e+001
8.382380e+002, 3.560830e+001
8.387201e+002, 3.558211e+001
8.392022e+002, 3.558226e+001
8.396843e+002, 3.567964e+001
8.401664e+002, 3.584235e+001
8.406486e+002, 3.595302e+001
8.411307e+002, 3.598041e+001
8.416128e+002, 3.602998e+001
8.420949e+002, 3.621558e+001
8.425770e+002, 3.650074e+001
8.430591e+002, 3.669127e+001
8.435413e+002, 3.674141e+001
8.440234e+002, 3.694331e+001
8.445055e+002, 3.739942e+001
8.449876e+002, 3.791187e+001
8.454697e+002, 3.837443e+001
8.459518e+002, 3.878829e+001
8.464340e+002, 3.912728e+001
8.469161e+002, 3.925937e+001
8.473982e+002, 3.966939e+001
8.478803e+002, 4.057508e+001
8.483624e+002, 4.159212e+001
8.488445e+002, 4.251720e+001
8.493267e+002, 4.344116e+001
8.498088e+002, 4.452604e+001
8.502909e+002, 4.578770e+001
8.507730e+002, 4.705720e+001
8.512551e+002, 4.833508e+001
8.517372e+002, 4.945555e+001
8.522194e+002, 5.029333e+001
8.527015e+002, 5.081113e+001
8.531836e+002, 5.097293e+001
8.536657e+002, 5.074549e+001
8.541478e+002, 4.986505e+001
8.546299e+002, 4.808144e+001
8.551121e+002, 4.584716e+001
8.555942e+002, 4.413655e+001
8.560763e+002, 4.299889e+001
8.565584e+002, 4.208224e+001
8.570405e+002, 4.148201e+001
8.575226e+002, 4.082224e+001
8.580048e+002, 3.988411e+001
8.584869e+002, 3.884125e+001
8.589690e+002, 3.791679e+001
8.594511e+002, 3.710870e+001
8.599332e+002, 3.642388e+001
8.604153e+002, 3.583651e+001
8.608975e+002, 3.540189e+001
8.613796e+002, 3.521763e+001
8.618617e+002, 3.512363e+001
8.623438e+002, 3.503556e+001
8.628259e+002, 3.491145e+001
8.633080e+002, 3.466127e+001
8.637902e+002, 3.420391e+001
8.642723e+002, 3.379277e+001
8.647544e+002, 3.365516e+001
8.652365e+002, 3.368732e+001
8.657186e+002, 3.377404e+001
8.662007e+002, 3.388364e+001
8.666829e+002, 3.394657e+001
8.671650e+002, 3.393756e+001
8.676471e+002, 3.390210e+001
8.681292e+002, 3.390205e+001
8.686113e+002, 3.392038e+001
8.690934e+002, 3.383229e+001
8.695756e+002, 3.361320e+001
8.700577e+002, 3.347561e+001
8.705398e+002, 3.349321e+001
8.710219e+002, 3.353558e+001
8.715040e+002, 3.350057e+001
8.719861e+002, 3.340942e+001
8.724683e+002, 3.333701e+001
8.729504e+002, 3.324768e+001
8.734325e+002, 3.324809e+001
8.739146e+002, 3.350489e+001
8.743967e+002, 3.366428e+001
8.748788e+002, 3.342551e+001
8.753610e+002, 3.308454e+001
8.758431e+002, 3.306569e+001
8.763252e+002, 3.340417e+001
8.768073e+002, 3.369822e+001
8.772894e+002, 3.373767e+001
8.777715e+002, 3.368386e+001
8.782537e+002, 3.364795e+001
8.787358e+002, 3.360551e+001
8.792179e+002, 3.351052e+001
8.797000e+002, 3.336683e+001
8.801821e+002, 3.319616e+001
8.806642e+002, 3.300137e+001
8.811464e+002, 3.288034e+001
8.816285e+002, 3.303243e+001
8.821106e+002, 3.340336e+001
8.825927e+002, 3.368302e+001
8.830748e+002, 3.385424e+001
8.835569e+002, 3.403404e+001
8.840391e+002, 3.427342e+001
8.845212e+002, 3.450862e+001
8.850033e+002, 3.465766e+001
8.854854e+002, 3.472673e+001
8.859675e+002, 3.486041e+001
8.864496e+002, 3.510917e+001
8.869318e+002, 3.532074e+001
8.874139e+002, 3.542622e+001
8.878960e+002, 3.554317e+001
8.883781e+002, 3.574414e+001
8.888602e+002, 3.600170e+001
8.893423e+002, 3.626218e+001
8.898245e+002, 3.652018e+001
8.903066e+002, 3.678621e+001
8.907887e+002, 3.702212e+001
8.912708e+002, 3.731184e+001
8.917529e+002, 3.783989e+001
8.922350e+002, 3.838037e+001
8.927172e+002, 3.851810e+001
8.931993e+002, 3.829116e+001
8.936814e+002, 3.825034e+001
8.941635e+002, 3.879393e+001
8.946456e+002, 3.953310e+001
8.951277e+002, 4.004579e+001
8.956099e+002, 4.038109e+001
8.960920e+002, 4.060461e+001
8.965741e+002, 4.074620e+001
8.970562e+002, 4.088820e+001
8.975383e+002, 4.106745e+001
8.980204e+002, 4.133709e+001
8.985026e+002, 4.182676e+001
8.989847e+002, 4.250143e+001
8.994668e+002, 4.288322e+001
8.999489e+002, 4.292574e+001
9.004310e+002, 4.294725e+001
9.009131e+002, 4.303193e+001
9.013953e+002, 4.310878e+001
9.018774e+002, 4.311845e+001
9.023595e+002, 4.307025e+001
9.028416e+002, 4.300899e+001
9.033237e+002, 4.300415e+001
9.038058e+002, 4.285877e+001
9.042880e+002, 4.248830e+001
9.047701e+002, 4.208242e+001
9.052522e+002, 4.178942e+001
9.057343e+002, 4.146127e+001
9.062164e+002, 4.086105e+001
9.066985e+002, 3.998627e+001
9.071807e+002, 3.918897e+001
9.076628e+002, 3.863945e+001
9.081449e+002, 3.814397e+001
9.086270e+002, 3.763622e+001
9.091091e+002, 3.709694e+001
9.095912e+002, 3.647501e+001
9.100734e+002, 3.580302e+001
9.105555e+002, 3.516285e+001
9.110376e+002, 3.458930e+001
9.115197e+002, 3.410617e+001
9.120018e+002, 3.376006e+001
9.124839e+002, 3.351731e+001
9.129661e+002, 3.334596e+001
9.134482e+002, 3.321983e+001
9.139303e+002, 3.301981e+001
9.144124e+002, 3.271374e+001
9.148945e+002, 3.238538e+001
9.153766e+002, 3.210343e+001
9.158588e+002, 3.186514e+001
9.163409e+002, 3.164230e+001
9.168230e+002, 3.142311e+001
9.173051e+002, 3.136502e+001
9.177872e+002, 3.155261e+001
9.182693e+002, 3.165749e+001
9.187515e+002, 3.147425e+001
9.192336e+002, 3.118103e+001
9.197157e+002, 3.106952e+001
9.201978e+002, 3.116952e+001
9.206799e+002, 3.114934e+001
9.211620e+002, 3.090175e+001
9.216442e+002, 3.068124e+001
9.221263e+002, 3.049727e+001
9.226084e+002, 3.037356e+001
9.230905e+002, 3.033604e+001
9.235726e+002, 3.036898e+001
9.240547e+002, 3.046242e+001
9.245369e+002, 3.066097e+001
9.250190e+002, 3.072371e+001
9.255011e+002, 3.038586e+001
9.259832e+002, 3.007221e+001
9.264653e+002, 3.010360e+001
9.269474e+002, 3.031685e+001
9.274296e+002, 3.050190e+001
9.279117e+002, 3.060441e+001
9.283938e+002, 3.061780e+001
9.288759e+002, 3.051670e+001
9.293580e+002, 3.037585e+001
9.298401e+002, 3.026030e+001
9.303223e+002, 3.017149e+001
9.308044e+002, 3.014976e+001
9.312865e+002, 3.016454e+001
9.317686e+002, 3.004427e+001
9.322507e+002, 2.972741e+001
9.327328e+002, 2.945941e+001
9.332150e+002, 2.955601e+001
9.336971e+002, 2.990947e+001
9.341792e+002, 3.009643e+001
9.346613e+002, 3.011673e+001
9.351434e+002, 3.018090e+001
9.356255e+002, 3.034465e+001
9.361077e+002, 3.042669e+001
9.365898e+002, 3.029036e+001
9.370719e+002, 3.002537e+001
9.375540e+002, 2.981836e+001
9.380361e+002, 2.966098e+001
9.385182e+002, 2.961921e+001
9.390004e+002, 2.975618e+001
9.394825e+002, 2.988717e+001
9.399646e+002, 2.997185e+001
9.404467e+002, 3.002053e+001
9.409288e+002, 3.002773e+001
9.414109e+002, 3.000423e+001
9.418931e+002, 3.000085e+001
9.423752e+002, 3.007706e+001
9.428573e+002, 3.006670e+001
9.433394e+002, 2.983108e+001
9.438215e+002, 2.963611e+001
9.443036e+002, 2.969736e+001
9.447858e+002, 2.983572e+001
9.452679e+002, 2.978015e+001
9.457500e+002, 2.951914e+001
9.462321e+002, 2.931990e+001
9.467142e+002, 2.932970e+001
9.471964e+002, 2.938793e+001
9.476785e+002, 2.940668e+001
9.481606e+002, 2.941588e+001
9.486427e+002, 2.945496e+001
9.491248e+002, 2.951371e+001
9.496069e+002, 2.955236e+001
9.500891e+002, 2.955731e+001
9.505712e+002, 2.956741e+001
9.510533e+002, 2.966286e+001
9.515354e+002, 2.975744e+001
9.520175e+002, 2.968021e+001
9.524996e+002, 2.948618e+001
9.529818e+002, 2.930339e+001
9.534639e+002, 2.916844e+001
9.539460e+002, 2.915881e+001
9.544281e+002, 2.933388e+001
9.549102e+002, 2.956565e+001
9.553923e+002, 2.961820e+001
9.558745e+002, 2.951309e+001
9.563566e+002, 2.944244e+001
9.568387e+002, 2.940898e+001
9.573208e+002, 2.942867e+001
9.578029e+002, 2.952001e+001
9.582850e+002, 2.958815e+001
9.587672e+002, 2.953435e+001
9.592493e+002, 2.939690e+001
9.597314e+002, 2.934274e+001
9.602135e+002, 2.942025e+001
9.606956e+002, 2.939315e+001
9.611777e+002, 2.918407e+001
9.616599e+002, 2.900898e+001
9.621420e+002, 2.893659e+001
9.626241e+002, 2.896487e+001
9.631062e+002, 2.914944e+001
9.635883e+002, 2.948860e+001
9.640704e+002, 2.962164e+001
9.645526e+002, 2.932589e+001
9.650347e+002, 2.916289e+001
9.655168e+002, 2.934512e+001
9.659989e+002, 2.949718e+001
9.664810e+002, 2.935096e+001
9.669631e+002, 2.907344e+001
9.674453e+002, 2.892876e+001
9.679274e+002, 2.895057e+001
9.684095e+002, 2.901867e+001
9.688916e+002, 2.909280e+001
9.693737e+002, 2.921411e+001
9.698558e+002, 2.952401e+001
9.703380e+002, 2.979137e+001
9.708201e+002, 2.969192e+001
9.713022e+002, 2.937760e+001
9.717843e+002, 2.930501e+001
9.722664e+002, 2.964421e+001
9.727485e+002, 2.989226e+001
9.732307e+002, 2.960025e+001
9.737128e+002, 2.916140e+001
9.741949e+002, 2.894459e+001
9.746770e+002, 2.886563e+001
9.751591e+002, 2.875074e+001
9.756412e+002, 2.859287e+001
9.761234e+002, 2.851237e+001
9.766055e+002, 2.857866e+001
9.770876e+002, 2.871467e+001
9.775698e+002, 2.885758e+001
9.780519e+002, 2.898932e+001
9.785340e+002, 2.906666e+001
9.790161e+002, 2.909504e+001
9.794982e+002, 2.907898e+001
9.799803e+002, 2.902960e+001
9.804625e+002, 2.906919e+001
9.809446e+002, 2.932425e+001
9.814267e+002, 2.962877e+001
9.819088e+002, 2.956910e+001
9.823909e+002, 2.919138e+001
9.828730e+002, 2.892545e+001
9.833552e+002, 2.879717e+001
9.838373e+002, 2.883538e+001
9.843194e+002, 2.907457e+001
9.848015e+002, 2.932756e+001
9.852836e+002, 2.939340e+001
9.857657e+002, 2.930783e+001
9.862479e+002, 2.924655e+001
9.867300e+002, 2.921472e+001
9.872121e+002, 2.918710e+001
9.876942e+002, 2.917757e+001
9.881763e+002, 2.911616e+001
9.886584e+002, 2.892951e+001
9.891406e+002, 2.873757e+001
9.896227e+002, 2.870347e+001
9.901048e+002, 2.882623e+001
9.905869e+002, 2.899920e+001
9.910690e+002, 2.931755e+001
9.915511e+002, 2.949876e+001
9.920333e+002, 2.946235e+001
9.925154e+002, 2.934924e+001
9.929975e+002, 2.914810e+001
9.934796e+002, 2.895660e+001
9.939617e+002, 2.897362e+001
9.944438e+002, 2.923285e+001
9.949260e+002, 2.932843e+001
9.954081e+002, 2.908824e+001
9.958902e+002, 2.888639e+001
9.963723e+002, 2.878529e+001
9.968544e+002, 2.876130e+001
9.973365e+002, 2.886061e+001
9.978187e+002, 2.900388e+001
9.983008e+002, 2.902709e+001
9.987829e+002, 2.889115e+001
9.992650e+002, 2.880159e+001
9.997471e+002, 2.889547e+001
1.000229e+003, 2.895614e+001
1.000711e+003, 2.880793e+001
1.001193e+003, 2.864028e+001
1.001676e+003, 2.868836e+001
1.002158e+003, 2.886816e+001
1.002640e+003, 2.889727e+001
1.003122e+003, 2.867096e+001
1.003604e+003, 2.851473e+001
1.004086e+003, 2.872613e+001
1.004568e+003, 2.896184e+001
1.005050e+003, 2.887122e+001
1.005533e+003, 2.867615e+001
1.006015e+003, 2.875539e+001
1.006497e+003, 2.905006e+001
1.006979e+003, 2.917328e+001
1.007461e+003, 2.894074e+001
1.007943e+003, 2.864213e+001
1.008425e+003, 2.848818e+001
1.008907e+003, 2.844833e+001
1.009389e+003, 2.854446e+001
1.009872e+003, 2.870625e+001
1.010354e+003, 2.877917e+001
1.010836e+003, 2.875428e+001
1.011318e+003, 2.874763e+001
1.011800e+003, 2.883030e+001
1.012282e+003, 2.892260e+001
1.012764e+003, 2.890110e+001
1.013246e+003, 2.882733e+001
1.013729e+003, 2.886460e+001
1.014211e+003, 2.897426e+001
1.014693e+003, 2.896111e+001
1.015175e+003, 2.880145e+001
1.015657e+003, 2.873601e+001
1.016139e+003, 2.895678e+001
1.016621e+003, 2.921595e+001
1.017103e+003, 2.898475e+001
1.017585e+003, 2.841509e+001
1.018068e+003, 2.821126e+001
1.018550e+003, 2.836658e+001
1.019032e+003, 2.859728e+001
1.019514e+003, 2.882192e+001
1.019996e+003, 2.898000e+001
1.020478e+003, 2.901626e+001
1.020960e+003, 2.897197e+001
1.021442e+003, 2.893431e+001
1.021924e+003, 2.890345e+001
1.022407e+003, 2.889639e+001
1.022889e+003, 2.891861e+001
1.023371e+003, 2.887232e+001
1.023853e+003, 2.872406e+001
1.024335e+003, 2.850124e+001
1.024817e+003, 2.820052e+001
1.025299e+003, 2.789266e+001
1.025781e+003, 2.782359e+001
1.026264e+003, 2.802802e+001
1.026746e+003, 2.816916e+001
1.027228e+003, 2.821296e+001
1.027710e+003, 2.832106e+001
1.028192e+003, 2.858221e+001
1.028674e+003, 2.882842e+001
1.029156e+003, 2.889606e+001
1.029638e+003, 2.881809e+001
1.030120e+003, 2.871826e+001
1.030603e+003, 2.857669e+001
1.031085e+003, 2.848126e+001
1.031567e+003, 2.840386e+001
1.032049e+003, 2.846048e+001
1.032531e+003, 2.876020e+001
1.033013e+003, 2.910159e+001
1.033495e+003, 2.930053e+001
1.033977e+003, 2.936607e+001
1.034459e+003, 2.933701e+001
1.034942e+003, 2.915738e+001
1.035424e+003, 2.901444e+001
1.035906e+003, 2.890310e+001
1.036388e+003, 2.884150e+001
1.036870e+003, 2.889674e+001
1.037352e+003, 2.893973e+001
1.037834e+003, 2.880816e+001
1.038316e+003, 2.854267e+001
1.038799e+003, 2.838435e+001
1.039281e+003, 2.832837e+001
1.039763e+003, 2.838905e+001
1.040245e+003, 2.874356e+001
1.040727e+003, 2.898786e+001
1.041209e+003, 2.887055e+001
1.041691e+003, 2.868281e+001
1.042173e+003, 2.871447e+001
1.042656e+003, 2.892384e+001
1.043138e+003, 2.909788e+001
1.043620e+003, 2.934346e+001
1.044102e+003, 2.932246e+001
1.044584e+003, 2.870147e+001
1.045066e+003, 2.819997e+001
1.045548e+003, 2.815151e+001
1.046030e+003, 2.828819e+001
1.046512e+003, 2.836363e+001
1.046995e+003, 2.838655e+001
1.047477e+003, 2.845574e+001
1.047959e+003, 2.861964e+001
1.048441e+003, 2.874336e+001
1.048923e+003, 2.888498e+001
1.049405e+003, 2.888786e+001
1.049887e+003, 2.851270e+001
1.050369e+003, 2.810209e+001
1.050851e+003, 2.806209e+001
1.051334e+003, 2.830437e+001
1.051816e+003, 2.838265e+001
1.052298e+003, 2.811994e+001
1.052780e+003, 2.797764e+001
1.053262e+003, 2.814617e+001
1.053744e+003, 2.835279e+001
1.054226e+003, 2.850861e+001
1.054708e+003, 2.861264e+001
1.055191e+003, 2.864617e+001
1.055673e+003, 2.863150e+001
1.056155e+003, 2.864599e+001
1.056637e+003, 2.872889e+001
1.057119e+003, 2.876062e+001
1.057601e+003, 2.865602e+001
1.058083e+003, 2.855058e+001
1.058565e+003, 2.850472e+001
1.059047e+003, 2.849661e+001
1.059530e+003, 2.852979e+001
1.060012e+003, 2.857578e+001
1.060494e+003, 2.855723e+001
1.060976e+003, 2.844232e+001
1.061458e+003, 2.832701e+001
1.061940e+003, 2.822960e+001
1.062422e+003, 2.815792e+001
1.062904e+003, 2.812901e+001
1.063386e+003, 2.811730e+001
1.063869e+003, 2.808925e+001
1.064351e+003, 2.805746e+001
1.064833e+003, 2.805426e+001
1.065315e+003, 2.808322e+001
1.065797e+003, 2.817747e+001
1.066279e+003, 2.849258e+001
1.066761e+003, 2.870345e+001
1.067243e+003, 2.856473e+001
1.067726e+003, 2.829689e+001
1.068208e+003, 2.810058e+001
1.068690e+003, 2.796600e+001
1.069172e+003, 2.778311e+001
1.069654e+003, 2.751718e+001
1.070136e+003, 2.737531e+001
1.070618e+003, 2.757690e+001
1.071100e+003, 2.776491e+001
1.071583e+003, 2.765466e+001
1.072065e+003, 2.752543e+001
1.072547e+003, 2.772949e+001
1.073029e+003, 2.810065e+001
1.073511e+003, 2.826683e+001
1.073993e+003, 2.814234e+001
1.074475e+003, 2.787936e+001
1.074957e+003, 2.729648e+001
1.075439e+003, 2.690844e+001
1.075922e+003, 2.717989e+001
1.076404e+003, 2.757400e+001
1.076886e+003, 2.757342e+001
1.077368e+003, 2.734973e+001
1.077850e+003, 2.731295e+001
1.078332e+003, 2.752424e+001
1.078814e+003, 2.766244e+001
1.079296e+003, 2.750622e+001
1.079779e+003, 2.736312e+001
1.080261e+003, 2.740835e+001
1.080743e+003, 2.749914e+001
1.081225e+003, 2.749189e+001
1.081707e+003, 2.746310e+001
1.082189e+003, 2.758965e+001
1.082671e+003, 2.786375e+001
1.083153e+003, 2.802696e+001
1.083635e+003, 2.798493e+001
1.084118e+003, 2.780563e+001
1.084600e+003, 2.731338e+001
1.085082e+003, 2.690951e+001
1.085564e+003, 2.697276e+001
1.086046e+003, 2.725873e+001
1.086528e+003, 2.746233e+001
1.087010e+003, 2.753408e+001
1.087492e+003, 2.749544e+001
1.087974e+003, 2.729640e+001
1.088457e+003, 2.713911e+001
1.088939e+003, 2.713758e+001
1.089421e+003, 2.716991e+001
1.089903e+003, 2.717120e+001
1.090385e+003, 2.715536e+001
1.090867e+003, 2.711582e+001
1.091349e+003, 2.707866e+001
1.091831e+003, 2.714190e+001
1.092314e+003, 2.738003e+001
1.092796e+003, 2.751523e+001
1.093278e+003, 2.734011e+001
1.093760e+003, 2.716378e+001
1.094242e+003, 2.718836e+001
1.094724e+003, 2.725066e+001
1.095206e+003, 2.716184e+001
1.095688e+003, 2.697753e+001
1.096171e+003, 2.687685e+001
1.096653e+003, 2.690477e+001
1.097135e+003, 2.693772e+001
1.097617e+003, 2.687478e+001
1.098099e+003, 2.689465e+001
1.098581e+003, 2.721139e+001
1.099063e+003, 2.750274e+001
1.099545e+003, 2.747603e+001
1.100027e+003, 2.724849e+001
1.100510e+003, 2.705056e+001
1.100992e+003, 2.691409e+001
1.101474e+003, 2.680990e+001
1.101956e+003, 2.673493e+001
1.102438e+003, 2.668688e+001
1.102920e+003, 2.672169e+001
1.103402e+003, 2.672348e+001
1.103884e+003, 2.648367e+001
1.104366e+003, 2.624503e+001
1.104849e+003, 2.645304e+001
1.105331e+003, 2.708513e+001
1.105813e+003, 2.742511e+001
1.106295e+003, 2.718280e+001
1.106777e+003, 2.693435e+001
1.107259e+003, 2.668062e+001
1.107741e+003, 2.652658e+001
1.108223e+003, 2.663243e+001
1.108706e+003, 2.677742e+001
1.109188e+003, 2.669576e+001
1.109670e+003, 2.643084e+001
1.110152e+003, 2.625097e+001
1.110634e+003, 2.620505e+001
1.111116e+003, 2.616760e+001
1.111598e+003, 2.606014e+001
1.112080e+003, 2.605627e+001
1.112563e+003, 2.631704e+001
1.113045e+003, 2.659864e+001
1.113527e+003, 2.672378e+001
1.114009e+003, 2.672031e+001
1.114491e+003, 2.663141e+001
1.114973e+003, 2.638931e+001
1.115455e+003, 2.636398e+001
1.115937e+003, 2.677927e+001
1.116419e+003, 2.701393e+001
1.116901e+003, 2.681794e+001
1.117384e+003, 2.661680e+001
1.117866e+003, 2.668900e+001
1.118348e+003, 2.689264e+001
1.118830e+003, 2.700105e+001
1.119312e+003, 2.701317e+001
1.119794e+003, 2.694262e+001
1.120276e+003, 2.672135e+001
1.120758e+003, 2.659447e+001
1.121241e+003, 2.659917e+001
1.121723e+003, 2.668343e+001
1.122205e+003, 2.688764e+001
1.122687e+003, 2.704282e+001
1.123169e+003, 2.691707e+001
1.123651e+003, 2.657328e+001
1.124133e+003, 2.636450e+001
1.124615e+003, 2.628577e+001
1.125098e+003, 2.642025e+001
1.125580e+003, 2.687622e+001
1.126062e+003, 2.706972e+001
1.126544e+003, 2.674030e+001
1.127026e+003, 2.635538e+001
1.127508e+003, 2.630518e+001
1.127990e+003, 2.648595e+001
1.128472e+003, 2.667884e+001
1.128954e+003, 2.688926e+001
1.129437e+003, 2.686591e+001
1.129919e+003, 2.658650e+001
1.130401e+003, 2.642424e+001
1.130883e+003, 2.645889e+001
1.131365e+003, 2.660274e+001
1.131847e+003, 2.682241e+001
1.132329e+003, 2.699099e+001
1.132811e+003, 2.687615e+001
1.133293e+003, 2.656454e+001
1.133776e+003, 2.650031e+001
1.134258e+003, 2.664912e+001
1.134740e+003, 2.667499e+001
1.135222e+003, 2.655068e+001
1.135704e+003, 2.649700e+001
1.136186e+003, 2.660262e+001
1.136668e+003, 2.670499e+001
1.137150e+003, 2.662356e+001
1.137633e+003, 2.649049e+001
1.138115e+003, 2.664008e+001
1.138597e+003, 2.694504e+001
1.139079e+003, 2.700602e+001
1.139561e+003, 2.684340e+001
1.140043e+003, 2.658381e+001
1.140525e+003, 2.629840e+001
1.141007e+003, 2.620969e+001
1.141490e+003, 2.648405e+001
1.141972e+003, 2.682657e+001
1.142454e+003, 2.687179e+001
1.142936e+003, 2.676310e+001
1.143418e+003, 2.670182e+001
1.143900e+003, 2.668228e+001
1.144382e+003, 2.667333e+001
1.144864e+003, 2.667903e+001
1.145346e+003, 2.674833e+001
1.145828e+003, 2.689711e+001
1.146311e+003, 2.701306e+001
1.146793e+003, 2.698258e+001
1.147275e+003, 2.691173e+001
1.147757e+003, 2.689392e+001
1.148239e+003, 2.689409e+001
1.148721e+003, 2.683671e+001
1.149203e+003, 2.677731e+001
1.149685e+003, 2.685023e+001
1.150168e+003, 2.706170e+001
1.150650e+003, 2.724127e+001
1.151132e+003, 2.724067e+001
1.151614e+003, 2.736745e+001
1.152096e+003, 2.813832e+001
1.152578e+003, 2.869398e+001
1.153060e+003, 2.822892e+001
1.153542e+003, 2.737836e+001
1.154025e+003, 2.682875e+001
1.154507e+003, 2.660204e+001
1.154989e+003, 2.649293e+001
1.155471e+003, 2.648525e+001
1.155953e+003, 2.646468e+001
1.156435e+003, 2.633788e+001
1.156917e+003, 2.628531e+001
1.157399e+003, 2.645513e+001
1.157881e+003, 2.662590e+001
1.158364e+003, 2.662008e+001
1.158846e+003, 2.652627e+001
1.159328e+003, 2.649265e+001
1.159810e+003, 2.652560e+001
1.160292e+003, 2.658056e+001
1.160774e+003, 2.672002e+001
1.161256e+003, 2.676551e+001
1.161738e+003, 2.666612e+001
1.162220e+003, 2.654217e+001
1.162703e+003, 2.642751e+001
1.163185e+003, 2.631472e+001
1.163667e+003, 2.616324e+001
1.164149e+003, 2.602705e+001
1.164631e+003, 2.610232e+001
1.165113e+003, 2.643359e+001
1.165595e+003, 2.671262e+001
1.166077e+003, 2.695140e+001
1.166560e+003, 2.708168e+001
1.167042e+003, 2.707660e+001
1.167524e+003, 2.701731e+001
1.168006e+003, 2.694539e+001
1.168488e+003, 2.686677e+001
1.168970e+003, 2.677831e+001
1.169452e+003, 2.669982e+001
1.169934e+003, 2.676017e+001
1.170417e+003, 2.694666e+001
1.170899e+003, 2.708703e+001
1.171381e+003, 2.716345e+001
1.171863e+003, 2.715663e+001
1.172345e+003, 2.706480e+001
1.172827e+003, 2.702395e+001
1.173309e+003, 2.716607e+001
1.173791e+003, 2.732433e+001
1.174273e+003, 2.716788e+001
1.174755e+003, 2.683994e+001
1.175238e+003, 2.664511e+001
1.175720e+003, 2.658269e+001
1.176202e+003, 2.666520e+001
1.176684e+003, 2.685163e+001
1.177166e+003, 2.697444e+001
1.177648e+003, 2.696348e+001
1.178130e+003, 2.695957e+001
1.178612e+003, 2.716400e+001
1.179095e+003, 2.733664e+001
1.179577e+003, 2.714429e+001
1.180059e+003, 2.685512e+001
1.180541e+003, 2.681225e+001
1.181023e+003, 2.692765e+001
1.181505e+003, 2.697404e+001
1.181987e+003, 2.692198e+001
1.182469e+003, 2.689615e+001
1.182952e+003, 2.694979e+001
1.183434e+003, 2.702320e+001
1.183916e+003, 2.710870e+001
1.184398e+003, 2.718295e+001
1.184880e+003, 2.720786e+001
1.185362e+003, 2.723681e+001
1.185844e+003, 2.738500e+001
1.186326e+003, 2.756201e+001
1.186808e+003, 2.750666e+001
1.187291e+003, 2.714836e+001
1.187773e+003, 2.697221e+001
1.188255e+003, 2.717035e+001
1.188737e+003, 2.732763e+001
1.189219e+003, 2.748540e+001
1.189701e+003, 2.746772e+001
1.190183e+003, 2.706252e+001
1.190665e+003, 2.660845e+001
1.191147e+003, 2.648254e+001
1.191630e+003, 2.661406e+001
1.192112e+003, 2.670115e+001
1.192594e+003, 2.671807e+001
1.193076e+003, 2.685777e+001
1.193558e+003, 2.718678e+001
1.194040e+003, 2.725242e+001
1.194522e+003, 2.689842e+001
1.195004e+003, 2.660244e+001
1.195487e+003, 2.665880e+001
1.195969e+003, 2.687790e+001
1.196451e+003, 2.700515e+001
1.196933e+003, 2.706268e+001
1.197415e+003, 2.714885e+001
1.197897e+003, 2.724631e+001
1.198379e+003, 2.722213e+001
1.198861e+003, 2.709447e+001
1.199344e+003, 2.707848e+001
1.199826e+003, 2.721434e+001
1.200308e+003, 2.722514e+001
1.200790e+003, 2.688915e+001
1.201272e+003, 2.656520e+001
1.201754e+003, 2.677360e+001
1.202236e+003, 2.718774e+001
1.202718e+003, 2.740133e+001
1.203200e+003, 2.745162e+001
1.203682e+003, 2.737181e+001
1.204165e+003, 2.721686e+001
1.204647e+003, 2.709360e+001
1.205129e+003, 2.703147e+001
1.205611e+003, 2.697657e+001
1.206093e+003, 2.686544e+001
1.206575e+003, 2.681463e+001
1.207057e+003, 2.695497e+001
1.207539e+003, 2.709760e+001
1.208022e+003, 2.708958e+001
1.208504e+003, 2.702853e+001
1.208986e+003, 2.705481e+001
1.209468e+003, 2.713941e+001
1.209950e+003, 2.712941e+001
1.210432e+003, 2.695787e+001
1.210914e+003, 2.690252e+001
1.211396e+003, 2.705342e+001
1.211879e+003, 2.721688e+001
1.212361e+003, 2.740960e+001
1.212843e+003, 2.754486e+001
1.213325e+003, 2.758309e+001
1.213807e+003, 2.752793e+001
1.214289e+003, 2.734238e+001
1.214771e+003, 2.708689e+001
1.215253e+003, 2.709711e+001
1.215735e+003, 2.742576e+001
1.216218e+003, 2.751867e+001
1.216700e+003, 2.734900e+001
1.217182e+003, 2.710653e+001
1.217664e+003, 2.682687e+001
1.218146e+003, 2.669448e+001
1.218628e+003, 2.682690e+001
1.219110e+003, 2.704619e+001
1.219592e+003, 2.714444e+001
1.220074e+003, 2.713043e+001
1.220557e+003, 2.696343e+001
1.221039e+003, 2.672047e+001
1.221521e+003, 2.660524e+001
1.222003e+003, 2.660552e+001
1.222485e+003, 2.658732e+001
1.222967e+003, 2.655121e+001
1.223449e+003, 2.674128e+001
1.223931e+003, 2.735112e+001
1.224414e+003, 2.781262e+001
1.224896e+003, 2.749897e+001
1.225378e+003, 2.706128e+001
1.225860e+003, 2.702023e+001
1.226342e+003, 2.714036e+001
1.226824e+003, 2.722711e+001
1.227306e+003, 2.723908e+001
1.227788e+003, 2.710279e+001
1.228271e+003, 2.683057e+001
1.228753e+003, 2.669965e+001
1.229235e+003, 2.686265e+001
1.229717e+003, 2.699743e+001
1.230199e+003, 2.709156e+001
1.230681e+003, 2.710769e+001
1.231163e+003, 2.694424e+001
1.231645e+003, 2.681406e+001
1.232127e+003, 2.688088e+001
1.232609e+003, 2.708066e+001
1.233092e+003, 2.731580e+001
1.233574e+003, 2.758216e+001
1.234056e+003, 2.763950e+001
1.234538e+003, 2.744944e+001
1.235020e+003, 2.737839e+001
1.235502e+003, 2.746643e+001
1.235984e+003, 2.757891e+001
1.236466e+003, 2.767153e+001
1.236949e+003, 2.769527e+001
1.237431e+003, 2.760252e+001
1.237913e+003, 2.747770e+001
1.238395e+003, 2.748311e+001
1.238877e+003, 2.754673e+001
1.239359e+003, 2.746244e+001
1.239841e+003, 2.730801e+001
1.240323e+003, 2.729226e+001
1.240806e+003, 2.738773e+001
1.241288e+003, 2.740087e+001
1.241770e+003, 2.729679e+001
1.242252e+003, 2.728288e+001
1.242734e+003, 2.751617e+001
1.243216e+003, 2.775692e+001
1.243698e+003, 2.783634e+001
1.244180e+003, 2.788415e+001
1.244662e+003, 2.795990e+001
1.245145e+003, 2.807526e+001
1.245627e+003, 2.831694e+001
1.246109e+003, 2.857774e+001
1.246591e+003, 2.858099e+001
1.247073e+003, 2.827987e+001
1.247555e+003, 2.814686e+001
1.248037e+003, 2.828822e+001
1.248519e+003, 2.844529e+001
1.249001e+003, 2.860378e+001
1.249484e+003, 2.878881e+001
1.249966e+003, 2.902480e+001
1.250448e+003, 2.925550e+001
1.250930e+003, 2.944077e+001
1.251412e+003, 2.958216e+001
1.251894e+003, 2.966637e+001
1.252376e+003, 2.971088e+001
1.252858e+003, 2.985423e+001
1.253341e+003, 3.008552e+001
1.253823e+003, 3.033639e+001
1.254305e+003, 3.058628e+001
1.254787e+003, 3.077244e+001
1.255269e+003, 3.086931e+001
1.255751e+003, 3.079204e+001
1.256233e+003, 3.043287e+001
1.256715e+003, 3.022515e+001
1.257198e+003, 3.098816e+001
1.257680e+003, 3.179808e+001
1.258162e+003, 3.153553e+001
1.258644e+003, 3.074561e+001
1.259126e+003, 2.990849e+001
1.259608e+003, 2.923230e+001
1.260090e+003, 2.908470e+001
1.260572e+003, 2.942849e+001
1.261054e+003, 2.942793e+001
1.261536e+003, 2.854776e+001
1.262019e+003, 2.800964e+001
1.262501e+003, 2.831416e+001
1.262983e+003, 2.862445e+001
1.263465e+003, 2.876147e+001
1.263947e+003, 2.871865e+001
1.264429e+003, 2.836200e+001
1.264911e+003, 2.797711e+001
1.265393e+003, 2.803640e+001
1.265876e+003, 2.845154e+001
1.266358e+003, 2.858337e+001
1.266840e+003, 2.840775e+001
1.267322e+003, 2.840948e+001
1.267804e+003, 2.860830e+001
1.268286e+003, 2.880844e+001
1.268768e+003, 2.896101e+001
1.269250e+003, 2.904638e+001
1.269733e+003, 2.905299e+001
1.270215e+003, 2.905990e+001
1.270697e+003, 2.912609e+001
1.271179e+003, 2.928066e+001
1.271661e+003, 2.967855e+001
1.272143e+003, 3.010333e+001
1.272625e+003, 3.021563e+001
1.273107e+003, 3.013225e+001
1.273589e+003, 3.002487e+001
1.274072e+003, 2.997491e+001
1.274554e+003, 3.011496e+001
1.275036e+003, 3.049366e+001
1.275518e+003, 3.095846e+001
1.276000e+003, 3.173880e+001
1.276482e+003, 3.218325e+001
1.276964e+003, 3.175411e+001
1.277446e+003, 3.141200e+001
1.277929e+003, 3.169415e+001
1.278411e+003, 3.214547e+001
1.278893e+003, 3.233477e+001
1.279375e+003, 3.236546e+001
1.279857e+003, 3.255645e+001
1.280339e+003, 3.291552e+001
1.280821e+003, 3.285170e+001
1.281303e+003, 3.236020e+001
1.281786e+003, 3.201763e+001
1.282268e+003, 3.189879e+001
##END=



