##NAMES=Apuanite
##RRUFFID=R060674
##IDEAL CHEMISTRY=Fe^2+^Fe^3+^_4_Sb^3+^_4_O_12_S^2-^
##LOCALITY=Buca della Vena mine, Stazzema, Apuan Alps, Lucca Province, Tuscany, Italy
##OWNER=RRUFF
##SOURCE=Michael Scott
##DESCRIPTION=Black massive granular
##STATUS=The identification of this mineral has been confirmed by single-crystal X-ray diffraction.
##URL=rruff.info/R060674
9.059570e+001, 7.059080e+002
9.107782e+001, 7.055486e+002
9.155994e+001, 7.054553e+002
9.204205e+001, 7.056086e+002
9.252417e+001, 7.060523e+002
9.300629e+001, 7.072537e+002
9.348840e+001, 7.054597e+002
9.397052e+001, 6.956271e+002
9.445264e+001, 6.753654e+002
9.493475e+001, 6.523452e+002
9.541687e+001, 6.317916e+002
9.589898e+001, 6.147099e+002
9.638110e+001, 5.997449e+002
9.686321e+001, 5.856887e+002
9.734533e+001, 5.715900e+002
9.782745e+001, 5.566279e+002
9.830956e+001, 5.434777e+002
9.879168e+001, 5.318687e+002
9.927380e+001, 5.217654e+002
9.975591e+001, 5.133675e+002
1.002380e+002, 5.062866e+002
1.007201e+002, 4.998160e+002
1.012023e+002, 4.936189e+002
1.016844e+002, 4.876534e+002
1.021665e+002, 4.817560e+002
1.026486e+002, 4.753338e+002
1.031307e+002, 4.692347e+002
1.036128e+002, 4.643326e+002
1.040950e+002, 4.606750e+002
1.045771e+002, 4.576039e+002
1.050592e+002, 4.547119e+002
1.055413e+002, 4.519460e+002
1.060234e+002, 4.493133e+002
1.065055e+002, 4.468612e+002
1.069877e+002, 4.445205e+002
1.074698e+002, 4.421394e+002
1.079519e+002, 4.404341e+002
1.084340e+002, 4.376131e+002
1.089161e+002, 4.333008e+002
1.093982e+002, 4.274273e+002
1.098804e+002, 4.198951e+002
1.103625e+002, 4.098946e+002
1.108446e+002, 3.964375e+002
1.113267e+002, 3.859647e+002
1.118088e+002, 3.798939e+002
1.122909e+002, 3.752943e+002
1.127731e+002, 3.710763e+002
1.132552e+002, 3.669881e+002
1.137373e+002, 3.632161e+002
1.142194e+002, 3.600810e+002
1.147015e+002, 3.578521e+002
1.151836e+002, 3.558474e+002
1.156658e+002, 3.542319e+002
1.161479e+002, 3.527452e+002
1.166300e+002, 3.511730e+002
1.171121e+002, 3.494406e+002
1.175942e+002, 3.475287e+002
1.180763e+002, 3.453431e+002
1.185584e+002, 3.427486e+002
1.190406e+002, 3.402198e+002
1.195227e+002, 3.379256e+002
1.200048e+002, 3.358094e+002
1.204869e+002, 3.336382e+002
1.209690e+002, 3.311225e+002
1.214511e+002, 3.286979e+002
1.219333e+002, 3.270815e+002
1.224154e+002, 3.264660e+002
1.228975e+002, 3.263138e+002
1.233796e+002, 3.263493e+002
1.238617e+002, 3.266249e+002
1.243438e+002, 3.266289e+002
1.248260e+002, 3.263888e+002
1.253081e+002, 3.256382e+002
1.257902e+002, 3.238842e+002
1.262723e+002, 3.207065e+002
1.267544e+002, 3.167563e+002
1.272365e+002, 3.135727e+002
1.277187e+002, 3.116283e+002
1.282008e+002, 3.096874e+002
1.286829e+002, 3.073188e+002
1.291650e+002, 3.047254e+002
1.296471e+002, 3.022427e+002
1.301292e+002, 3.001528e+002
1.306114e+002, 2.983884e+002
1.310935e+002, 2.959331e+002
1.315756e+002, 2.920717e+002
1.320577e+002, 2.881466e+002
1.325398e+002, 2.844634e+002
1.330219e+002, 2.809891e+002
1.335041e+002, 2.775319e+002
1.339862e+002, 2.738541e+002
1.344683e+002, 2.698013e+002
1.349504e+002, 2.666220e+002
1.354325e+002, 2.644999e+002
1.359146e+002, 2.628968e+002
1.363968e+002, 2.616931e+002
1.368789e+002, 2.608065e+002
1.373610e+002, 2.599742e+002
1.378431e+002, 2.589061e+002
1.383252e+002, 2.575367e+002
1.388073e+002, 2.561976e+002
1.392895e+002, 2.548166e+002
1.397716e+002, 2.535041e+002
1.402537e+002, 2.525276e+002
1.407358e+002, 2.520596e+002
1.412179e+002, 2.514964e+002
1.417000e+002, 2.498814e+002
1.421821e+002, 2.473250e+002
1.426643e+002, 2.447888e+002
1.431464e+002, 2.425971e+002
1.436285e+002, 2.407263e+002
1.441106e+002, 2.390956e+002
1.445927e+002, 2.378005e+002
1.450748e+002, 2.366376e+002
1.455570e+002, 2.353621e+002
1.460391e+002, 2.339767e+002
1.465212e+002, 2.326866e+002
1.470033e+002, 2.316467e+002
1.474854e+002, 2.308591e+002
1.479675e+002, 2.302915e+002
1.484497e+002, 2.303148e+002
1.489318e+002, 2.303188e+002
1.494139e+002, 2.299508e+002
1.498960e+002, 2.291424e+002
1.503781e+002, 2.280804e+002
1.508602e+002, 2.270364e+002
1.513424e+002, 2.260146e+002
1.518245e+002, 2.249813e+002
1.523066e+002, 2.237991e+002
1.527887e+002, 2.226743e+002
1.532708e+002, 2.217600e+002
1.537529e+002, 2.211189e+002
1.542351e+002, 2.207005e+002
1.547172e+002, 2.203824e+002
1.551993e+002, 2.201084e+002
1.556814e+002, 2.200376e+002
1.561635e+002, 2.205621e+002
1.566456e+002, 2.211803e+002
1.571278e+002, 2.212469e+002
1.576099e+002, 2.204204e+002
1.580920e+002, 2.189122e+002
1.585741e+002, 2.176035e+002
1.590562e+002, 2.164730e+002
1.595383e+002, 2.155222e+002
1.600205e+002, 2.146746e+002
1.605026e+002, 2.140037e+002
1.609847e+002, 2.137653e+002
1.614668e+002, 2.142560e+002
1.619489e+002, 2.152031e+002
1.624310e+002, 2.154108e+002
1.629131e+002, 2.141266e+002
1.633953e+002, 2.128806e+002
1.638774e+002, 2.127138e+002
1.643595e+002, 2.135228e+002
1.648416e+002, 2.142810e+002
1.653237e+002, 2.142297e+002
1.658058e+002, 2.137151e+002
1.662880e+002, 2.135732e+002
1.667701e+002, 2.141824e+002
1.672522e+002, 2.149683e+002
1.677343e+002, 2.151736e+002
1.682164e+002, 2.146458e+002
1.686985e+002, 2.142614e+002
1.691807e+002, 2.147661e+002
1.696628e+002, 2.156671e+002
1.701449e+002, 2.163844e+002
1.706270e+002, 2.166670e+002
1.711091e+002, 2.166513e+002
1.715912e+002, 2.166734e+002
1.720734e+002, 2.168644e+002
1.725555e+002, 2.168285e+002
1.730376e+002, 2.163267e+002
1.735197e+002, 2.155614e+002
1.740018e+002, 2.148144e+002
1.744839e+002, 2.142624e+002
1.749661e+002, 2.138658e+002
1.754482e+002, 2.133970e+002
1.759303e+002, 2.129731e+002
1.764124e+002, 2.123147e+002
1.768945e+002, 2.113102e+002
1.773766e+002, 2.100310e+002
1.778588e+002, 2.085827e+002
1.783409e+002, 2.069939e+002
1.788230e+002, 2.052582e+002
1.793051e+002, 2.038529e+002
1.797872e+002, 2.029547e+002
1.802693e+002, 2.022047e+002
1.807515e+002, 2.016067e+002
1.812336e+002, 2.010865e+002
1.817157e+002, 2.004910e+002
1.821978e+002, 1.996500e+002
1.826799e+002, 1.984950e+002
1.831620e+002, 1.978200e+002
1.836441e+002, 1.978971e+002
1.841263e+002, 1.980913e+002
1.846084e+002, 1.981245e+002
1.850905e+002, 1.979809e+002
1.855726e+002, 1.977590e+002
1.860547e+002, 1.975180e+002
1.865368e+002, 1.972464e+002
1.870190e+002, 1.972039e+002
1.875011e+002, 1.975522e+002
1.879832e+002, 1.980047e+002
1.884653e+002, 1.983568e+002
1.889474e+002, 1.985858e+002
1.894296e+002, 1.987935e+002
1.899117e+002, 1.991173e+002
1.903938e+002, 1.995449e+002
1.908759e+002, 1.997885e+002
1.913580e+002, 1.996210e+002
1.918401e+002, 1.993438e+002
1.923223e+002, 1.993587e+002
1.928044e+002, 1.997663e+002
1.932865e+002, 2.001745e+002
1.937686e+002, 2.001271e+002
1.942507e+002, 1.997526e+002
1.947328e+002, 1.994027e+002
1.952150e+002, 1.992274e+002
1.956971e+002, 1.991399e+002
1.961792e+002, 1.989694e+002
1.966613e+002, 1.986902e+002
1.971434e+002, 1.983484e+002
1.976255e+002, 1.978857e+002
1.981077e+002, 1.973719e+002
1.985898e+002, 1.970165e+002
1.990719e+002, 1.969913e+002
1.995540e+002, 1.972279e+002
2.000361e+002, 1.974565e+002
2.005182e+002, 1.977720e+002
2.010004e+002, 1.979176e+002
2.014825e+002, 1.976455e+002
2.019646e+002, 1.971048e+002
2.024467e+002, 1.966656e+002
2.029288e+002, 1.966392e+002
2.034109e+002, 1.969966e+002
2.038930e+002, 1.972397e+002
2.043752e+002, 1.973630e+002
2.048573e+002, 1.973569e+002
2.053394e+002, 1.971262e+002
2.058215e+002, 1.967571e+002
2.063036e+002, 1.964430e+002
2.067857e+002, 1.963749e+002
2.072679e+002, 1.965728e+002
2.077500e+002, 1.966279e+002
2.082321e+002, 1.965100e+002
2.087142e+002, 1.962646e+002
2.091963e+002, 1.957529e+002
2.096784e+002, 1.950949e+002
2.101606e+002, 1.945706e+002
2.106427e+002, 1.944482e+002
2.111248e+002, 1.947779e+002
2.116069e+002, 1.950688e+002
2.120890e+002, 1.953466e+002
2.125711e+002, 1.955661e+002
2.130533e+002, 1.956941e+002
2.135354e+002, 1.957425e+002
2.140175e+002, 1.957458e+002
2.144996e+002, 1.957225e+002
2.149817e+002, 1.956527e+002
2.154638e+002, 1.957154e+002
2.159460e+002, 1.958908e+002
2.164281e+002, 1.961806e+002
2.169102e+002, 1.965109e+002
2.173923e+002, 1.969265e+002
2.178744e+002, 1.976100e+002
2.183565e+002, 1.987524e+002
2.188387e+002, 2.004193e+002
2.193208e+002, 2.020762e+002
2.198029e+002, 2.038607e+002
2.202850e+002, 2.055356e+002
2.207671e+002, 2.070106e+002
2.212492e+002, 2.082616e+002
2.217314e+002, 2.092060e+002
2.222135e+002, 2.096701e+002
2.226956e+002, 2.096240e+002
2.231777e+002, 2.100010e+002
2.236598e+002, 2.110885e+002
2.241419e+002, 2.123809e+002
2.246240e+002, 2.134821e+002
2.251062e+002, 2.143799e+002
2.255883e+002, 2.153538e+002
2.260704e+002, 2.168164e+002
2.265525e+002, 2.186105e+002
2.270346e+002, 2.196891e+002
2.275167e+002, 2.194493e+002
2.279989e+002, 2.188003e+002
2.284810e+002, 2.186110e+002
2.289631e+002, 2.189368e+002
2.294452e+002, 2.192335e+002
2.299273e+002, 2.192092e+002
2.304094e+002, 2.188342e+002
2.308916e+002, 2.180289e+002
2.313737e+002, 2.165101e+002
2.318558e+002, 2.147013e+002
2.323379e+002, 2.131219e+002
2.328200e+002, 2.118225e+002
2.333021e+002, 2.103976e+002
2.337843e+002, 2.084555e+002
2.342664e+002, 2.062311e+002
2.347485e+002, 2.040584e+002
2.352306e+002, 2.020064e+002
2.357127e+002, 2.000537e+002
2.361948e+002, 1.981636e+002
2.366770e+002, 1.963259e+002
2.371591e+002, 1.945506e+002
2.376412e+002, 1.929115e+002
2.381233e+002, 1.913091e+002
2.386054e+002, 1.895993e+002
2.390875e+002, 1.876851e+002
2.395697e+002, 1.857207e+002
2.400518e+002, 1.839873e+002
2.405339e+002, 1.825479e+002
2.410160e+002, 1.811157e+002
2.414981e+002, 1.794256e+002
2.419802e+002, 1.777491e+002
2.424624e+002, 1.763932e+002
2.429445e+002, 1.755085e+002
2.434266e+002, 1.748527e+002
2.439087e+002, 1.740391e+002
2.443908e+002, 1.730694e+002
2.448729e+002, 1.719246e+002
2.453550e+002, 1.704078e+002
2.458372e+002, 1.688289e+002
2.463193e+002, 1.674446e+002
2.468014e+002, 1.663401e+002
2.472835e+002, 1.654472e+002
2.477656e+002, 1.647084e+002
2.482477e+002, 1.643362e+002
2.487299e+002, 1.635859e+002
2.492120e+002, 1.620929e+002
2.496941e+002, 1.603670e+002
2.501762e+002, 1.587910e+002
2.506583e+002, 1.574790e+002
2.511404e+002, 1.562918e+002
2.516226e+002, 1.549718e+002
2.521047e+002, 1.534295e+002
2.525868e+002, 1.519754e+002
2.530689e+002, 1.506617e+002
2.535510e+002, 1.494152e+002
2.540331e+002, 1.481666e+002
2.545153e+002, 1.469062e+002
2.549974e+002, 1.456830e+002
2.554795e+002, 1.445643e+002
2.559616e+002, 1.435754e+002
2.564437e+002, 1.426580e+002
2.569258e+002, 1.418815e+002
2.574080e+002, 1.411125e+002
2.578901e+002, 1.402500e+002
2.583722e+002, 1.392832e+002
2.588543e+002, 1.382715e+002
2.593364e+002, 1.372595e+002
2.598185e+002, 1.360931e+002
2.603007e+002, 1.353562e+002
2.607828e+002, 1.353446e+002
2.612649e+002, 1.354329e+002
2.617470e+002, 1.352762e+002
2.622291e+002, 1.348190e+002
2.627112e+002, 1.341819e+002
2.631934e+002, 1.334931e+002
2.636755e+002, 1.327494e+002
2.641576e+002, 1.319538e+002
2.646397e+002, 1.310492e+002
2.651218e+002, 1.301525e+002
2.656039e+002, 1.292905e+002
2.660861e+002, 1.284902e+002
2.665682e+002, 1.278095e+002
2.670503e+002, 1.273236e+002
2.675324e+002, 1.270787e+002
2.680145e+002, 1.267437e+002
2.684966e+002, 1.263213e+002
2.689788e+002, 1.258287e+002
2.694609e+002, 1.252267e+002
2.699430e+002, 1.245500e+002
2.704251e+002, 1.238980e+002
2.709072e+002, 1.233514e+002
2.713893e+002, 1.229169e+002
2.718715e+002, 1.225073e+002
2.723536e+002, 1.221562e+002
2.728357e+002, 1.217925e+002
2.733178e+002, 1.212795e+002
2.737999e+002, 1.207135e+002
2.742820e+002, 1.203969e+002
2.747642e+002, 1.205976e+002
2.752463e+002, 1.212374e+002
2.757284e+002, 1.213171e+002
2.762105e+002, 1.203331e+002
2.766926e+002, 1.194743e+002
2.771747e+002, 1.192158e+002
2.776568e+002, 1.193846e+002
2.781389e+002, 1.195887e+002
2.786211e+002, 1.196291e+002
2.791032e+002, 1.195245e+002
2.795853e+002, 1.193395e+002
2.800674e+002, 1.189801e+002
2.805495e+002, 1.186668e+002
2.810316e+002, 1.184768e+002
2.815138e+002, 1.183673e+002
2.819959e+002, 1.182775e+002
2.824780e+002, 1.181911e+002
2.829601e+002, 1.180808e+002
2.834422e+002, 1.178596e+002
2.839243e+002, 1.174180e+002
2.844065e+002, 1.170851e+002
2.848886e+002, 1.169848e+002
2.853707e+002, 1.170185e+002
2.858528e+002, 1.170579e+002
2.863349e+002, 1.170661e+002
2.868170e+002, 1.170364e+002
2.872992e+002, 1.169410e+002
2.877813e+002, 1.167495e+002
2.882634e+002, 1.166027e+002
2.887455e+002, 1.165729e+002
2.892276e+002, 1.165796e+002
2.897097e+002, 1.164706e+002
2.901919e+002, 1.162026e+002
2.906740e+002, 1.160067e+002
2.911561e+002, 1.162848e+002
2.916382e+002, 1.171517e+002
2.921203e+002, 1.175296e+002
2.926024e+002, 1.168220e+002
2.930846e+002, 1.158543e+002
2.935667e+002, 1.154622e+002
2.940488e+002, 1.157474e+002
2.945309e+002, 1.162424e+002
2.950130e+002, 1.165654e+002
2.954951e+002, 1.167027e+002
2.959773e+002, 1.167552e+002
2.964594e+002, 1.166941e+002
2.969415e+002, 1.165714e+002
2.974236e+002, 1.163894e+002
2.979057e+002, 1.161604e+002
2.983878e+002, 1.159680e+002
2.988700e+002, 1.158480e+002
2.993521e+002, 1.158254e+002
2.998342e+002, 1.159513e+002
3.003163e+002, 1.165323e+002
3.007984e+002, 1.169809e+002
3.012805e+002, 1.168313e+002
3.017627e+002, 1.162021e+002
3.022448e+002, 1.156433e+002
3.027269e+002, 1.154438e+002
3.032090e+002, 1.155132e+002
3.036911e+002, 1.155490e+002
3.041732e+002, 1.155218e+002
3.046554e+002, 1.155126e+002
3.051375e+002, 1.155692e+002
3.056196e+002, 1.156728e+002
3.061017e+002, 1.157737e+002
3.065838e+002, 1.158534e+002
3.070659e+002, 1.159238e+002
3.075481e+002, 1.159982e+002
3.080302e+002, 1.160606e+002
3.085123e+002, 1.161765e+002
3.089944e+002, 1.164729e+002
3.094765e+002, 1.168154e+002
3.099586e+002, 1.169384e+002
3.104408e+002, 1.167473e+002
3.109229e+002, 1.164431e+002
3.114050e+002, 1.162885e+002
3.118871e+002, 1.162824e+002
3.123692e+002, 1.162880e+002
3.128513e+002, 1.162599e+002
3.133335e+002, 1.162378e+002
3.138156e+002, 1.163289e+002
3.142977e+002, 1.165567e+002
3.147798e+002, 1.166694e+002
3.152619e+002, 1.163040e+002
3.157440e+002, 1.155152e+002
3.162262e+002, 1.151333e+002
3.167083e+002, 1.155952e+002
3.171904e+002, 1.162263e+002
3.176725e+002, 1.164473e+002
3.181546e+002, 1.162615e+002
3.186367e+002, 1.160290e+002
3.191188e+002, 1.159678e+002
3.196010e+002, 1.160625e+002
3.200831e+002, 1.161787e+002
3.205652e+002, 1.164540e+002
3.210473e+002, 1.166166e+002
3.215294e+002, 1.164126e+002
3.220115e+002, 1.159453e+002
3.224937e+002, 1.155827e+002
3.229758e+002, 1.155125e+002
3.234579e+002, 1.156363e+002
3.239400e+002, 1.157289e+002
3.244221e+002, 1.158761e+002
3.249042e+002, 1.158345e+002
3.253864e+002, 1.153609e+002
3.258685e+002, 1.146624e+002
3.263506e+002, 1.141190e+002
3.268327e+002, 1.138496e+002
3.273148e+002, 1.137666e+002
3.277969e+002, 1.137561e+002
3.282791e+002, 1.138127e+002
3.287612e+002, 1.139380e+002
3.292433e+002, 1.143368e+002
3.297254e+002, 1.147101e+002
3.302075e+002, 1.146060e+002
3.306896e+002, 1.139462e+002
3.311718e+002, 1.132348e+002
3.316539e+002, 1.130161e+002
3.321360e+002, 1.133387e+002
3.326181e+002, 1.134289e+002
3.331002e+002, 1.131275e+002
3.335823e+002, 1.126891e+002
3.340645e+002, 1.122145e+002
3.345466e+002, 1.117418e+002
3.350287e+002, 1.114197e+002
3.355108e+002, 1.114096e+002
3.359929e+002, 1.116419e+002
3.364750e+002, 1.116091e+002
3.369572e+002, 1.111466e+002
3.374393e+002, 1.106252e+002
3.379214e+002, 1.101713e+002
3.384035e+002, 1.097749e+002
3.388856e+002, 1.094280e+002
3.393677e+002, 1.091414e+002
3.398499e+002, 1.088681e+002
3.403320e+002, 1.084796e+002
3.408141e+002, 1.079952e+002
3.412962e+002, 1.073886e+002
3.417783e+002, 1.063959e+002
3.422604e+002, 1.053693e+002
3.427426e+002, 1.048861e+002
3.432247e+002, 1.051141e+002
3.437068e+002, 1.055274e+002
3.441889e+002, 1.053846e+002
3.446710e+002, 1.044258e+002
3.451531e+002, 1.036073e+002
3.456353e+002, 1.029361e+002
3.461174e+002, 1.024117e+002
3.465995e+002, 1.021188e+002
3.470816e+002, 1.020224e+002
3.475637e+002, 1.018961e+002
3.480458e+002, 1.015284e+002
3.485280e+002, 1.009020e+002
3.490101e+002, 1.003623e+002
3.494922e+002, 9.986215e+001
3.499743e+002, 9.947803e+001
3.504564e+002, 9.931927e+001
3.509385e+002, 9.930825e+001
3.514207e+002, 9.928989e+001
3.519028e+002, 9.918547e+001
3.523849e+002, 9.898164e+001
3.528670e+002, 9.860798e+001
3.533491e+002, 9.774722e+001
3.538312e+002, 9.711172e+001
3.543134e+002, 9.701881e+001
3.547955e+002, 9.710568e+001
3.552776e+002, 9.689662e+001
3.557597e+002, 9.623500e+001
3.562418e+002, 9.540792e+001
3.567239e+002, 9.490327e+001
3.572061e+002, 9.492402e+001
3.576882e+002, 9.487542e+001
3.581703e+002, 9.468893e+001
3.586524e+002, 9.449035e+001
3.591345e+002, 9.436919e+001
3.596166e+002, 9.432872e+001
3.600987e+002, 9.432365e+001
3.605808e+002, 9.432649e+001
3.610630e+002, 9.435501e+001
3.615451e+002, 9.420596e+001
3.620272e+002, 9.367114e+001
3.625093e+002, 9.318686e+001
3.629914e+002, 9.290645e+001
3.634735e+002, 9.278262e+001
3.639557e+002, 9.269116e+001
3.644378e+002, 9.254552e+001
3.649199e+002, 9.240534e+001
3.654020e+002, 9.254684e+001
3.658841e+002, 9.340899e+001
3.663662e+002, 9.394148e+001
3.668484e+002, 9.386129e+001
3.673305e+002, 9.349477e+001
3.678126e+002, 9.309594e+001
3.682947e+002, 9.276540e+001
3.687768e+002, 9.255511e+001
3.692589e+002, 9.258840e+001
3.697411e+002, 9.301063e+001
3.702232e+002, 9.327856e+001
3.707053e+002, 9.336713e+001
3.711874e+002, 9.331593e+001
3.716695e+002, 9.302357e+001
3.721516e+002, 9.257054e+001
3.726338e+002, 9.221352e+001
3.731159e+002, 9.217147e+001
3.735980e+002, 9.243921e+001
3.740801e+002, 9.289699e+001
3.745622e+002, 9.385726e+001
3.750443e+002, 9.461459e+001
3.755265e+002, 9.477183e+001
3.760086e+002, 9.462522e+001
3.764907e+002, 9.463937e+001
3.769728e+002, 9.506126e+001
3.774549e+002, 9.572079e+001
3.779370e+002, 9.626336e+001
3.784192e+002, 9.669346e+001
3.789013e+002, 9.698858e+001
3.793834e+002, 9.700668e+001
3.798655e+002, 9.697226e+001
3.803476e+002, 9.703237e+001
3.808297e+002, 9.721816e+001
3.813119e+002, 9.753482e+001
3.817940e+002, 9.806135e+001
3.822761e+002, 9.879214e+001
3.827582e+002, 9.937159e+001
3.832403e+002, 9.967846e+001
3.837224e+002, 9.990626e+001
3.842046e+002, 1.001485e+002
3.846867e+002, 1.004197e+002
3.851688e+002, 1.007732e+002
3.856509e+002, 1.012948e+002
3.861330e+002, 1.019055e+002
3.866151e+002, 1.024282e+002
3.870973e+002, 1.028488e+002
3.875794e+002, 1.032250e+002
3.880615e+002, 1.035734e+002
3.885436e+002, 1.039014e+002
3.890257e+002, 1.042069e+002
3.895078e+002, 1.044516e+002
3.899900e+002, 1.047419e+002
3.904721e+002, 1.053123e+002
3.909542e+002, 1.060949e+002
3.914363e+002, 1.064933e+002
3.919184e+002, 1.061447e+002
3.924005e+002, 1.055302e+002
3.928827e+002, 1.053484e+002
3.933648e+002, 1.056256e+002
3.938469e+002, 1.058751e+002
3.943290e+002, 1.060102e+002
3.948111e+002, 1.059681e+002
3.952932e+002, 1.055694e+002
3.957754e+002, 1.047567e+002
3.962575e+002, 1.039010e+002
3.967396e+002, 1.033514e+002
3.972217e+002, 1.030778e+002
3.977038e+002, 1.026623e+002
3.981859e+002, 1.019641e+002
3.986681e+002, 1.012227e+002
3.991501e+002, 1.005457e+002
3.996323e+002, 9.994767e+001
4.001144e+002, 9.949423e+001
4.005965e+002, 9.925974e+001
4.010786e+002, 9.912386e+001
4.015607e+002, 9.872200e+001
4.020428e+002, 9.789294e+001
4.025250e+002, 9.712481e+001
4.030071e+002, 9.652341e+001
4.034892e+002, 9.601515e+001
4.039713e+002, 9.555889e+001
4.044534e+002, 9.513632e+001
4.049355e+002, 9.465321e+001
4.054177e+002, 9.396643e+001
4.058998e+002, 9.298788e+001
4.063819e+002, 9.229359e+001
4.068640e+002, 9.207761e+001
4.073461e+002, 9.192456e+001
4.078282e+002, 9.166952e+001
4.083104e+002, 9.130747e+001
4.087925e+002, 9.086059e+001
4.092746e+002, 9.032578e+001
4.097567e+002, 8.974539e+001
4.102388e+002, 8.930513e+001
4.107209e+002, 8.909283e+001
4.112031e+002, 8.892165e+001
4.116852e+002, 8.879462e+001
4.121673e+002, 8.869040e+001
4.126494e+002, 8.862334e+001
4.131315e+002, 8.858321e+001
4.136136e+002, 8.848730e+001
4.140958e+002, 8.819017e+001
4.145779e+002, 8.760175e+001
4.150600e+002, 8.716977e+001
4.155421e+002, 8.700050e+001
4.160242e+002, 8.689633e+001
4.165063e+002, 8.675150e+001
4.169885e+002, 8.661055e+001
4.174706e+002, 8.660644e+001
4.179527e+002, 8.686129e+001
4.184348e+002, 8.728004e+001
4.189169e+002, 8.755186e+001
4.193990e+002, 8.768096e+001
4.198812e+002, 8.764204e+001
4.203633e+002, 8.725819e+001
4.208454e+002, 8.680457e+001
4.213275e+002, 8.655992e+001
4.218096e+002, 8.659533e+001
4.222917e+002, 8.669704e+001
4.227739e+002, 8.666064e+001
4.232560e+002, 8.649009e+001
4.237381e+002, 8.626292e+001
4.242202e+002, 8.591927e+001
4.247023e+002, 8.562144e+001
4.251844e+002, 8.549495e+001
4.256666e+002, 8.551107e+001
4.261487e+002, 8.557030e+001
4.266308e+002, 8.565324e+001
4.271129e+002, 8.574533e+001
4.275950e+002, 8.585170e+001
4.280771e+002, 8.597903e+001
4.285593e+002, 8.600382e+001
4.290414e+002, 8.578292e+001
4.295235e+002, 8.545599e+001
4.300056e+002, 8.533070e+001
4.304877e+002, 8.546895e+001
4.309698e+002, 8.567123e+001
4.314520e+002, 8.595422e+001
4.319341e+002, 8.621489e+001
4.324162e+002, 8.621812e+001
4.328983e+002, 8.589005e+001
4.333804e+002, 8.540600e+001
4.338625e+002, 8.490933e+001
4.343447e+002, 8.438106e+001
4.348268e+002, 8.410954e+001
4.353089e+002, 8.437659e+001
4.357910e+002, 8.467102e+001
4.362731e+002, 8.463002e+001
4.367552e+002, 8.431225e+001
4.372374e+002, 8.397965e+001
4.377195e+002, 8.378420e+001
4.382016e+002, 8.368832e+001
4.386837e+002, 8.355297e+001
4.391658e+002, 8.341288e+001
4.396479e+002, 8.318543e+001
4.401301e+002, 8.269286e+001
4.406122e+002, 8.220887e+001
4.410943e+002, 8.203899e+001
4.415764e+002, 8.221986e+001
4.420585e+002, 8.252071e+001
4.425406e+002, 8.269986e+001
4.430227e+002, 8.276558e+001
4.435049e+002, 8.265337e+001
4.439870e+002, 8.205089e+001
4.444691e+002, 8.159500e+001
4.449512e+002, 8.164184e+001
4.454333e+002, 8.193917e+001
4.459154e+002, 8.204829e+001
4.463976e+002, 8.173101e+001
4.468797e+002, 8.117348e+001
4.473618e+002, 8.079382e+001
4.478439e+002, 8.066001e+001
4.483260e+002, 8.050185e+001
4.488081e+002, 8.024049e+001
4.492903e+002, 7.995881e+001
4.497724e+002, 7.968150e+001
4.502545e+002, 7.942221e+001
4.507366e+002, 7.922722e+001
4.512187e+002, 7.919376e+001
4.517008e+002, 7.926608e+001
4.521830e+002, 7.918260e+001
4.526651e+002, 7.887135e+001
4.531472e+002, 7.857344e+001
4.536293e+002, 7.843844e+001
4.541114e+002, 7.840511e+001
4.545935e+002, 7.840836e+001
4.550757e+002, 7.846706e+001
4.555578e+002, 7.849604e+001
4.560399e+002, 7.838693e+001
4.565220e+002, 7.817668e+001
4.570041e+002, 7.805798e+001
4.574862e+002, 7.814430e+001
4.579684e+002, 7.821224e+001
4.584505e+002, 7.787231e+001
4.589326e+002, 7.712435e+001
4.594147e+002, 7.658403e+001
4.598968e+002, 7.649889e+001
4.603789e+002, 7.656856e+001
4.608611e+002, 7.650449e+001
4.613432e+002, 7.632999e+001
4.618253e+002, 7.630837e+001
4.623074e+002, 7.666497e+001
4.627895e+002, 7.723385e+001
4.632716e+002, 7.731763e+001
4.637538e+002, 7.643764e+001
4.642359e+002, 7.573520e+001
4.647180e+002, 7.535606e+001
4.652001e+002, 7.519985e+001
4.656822e+002, 7.522371e+001
4.661643e+002, 7.538925e+001
4.666465e+002, 7.558657e+001
4.671286e+002, 7.571384e+001
4.676107e+002, 7.578409e+001
4.680928e+002, 7.565612e+001
4.685749e+002, 7.498791e+001
4.690570e+002, 7.448596e+001
4.695392e+002, 7.447807e+001
4.700213e+002, 7.472038e+001
4.705034e+002, 7.483042e+001
4.709855e+002, 7.463551e+001
4.714676e+002, 7.431414e+001
4.719497e+002, 7.421574e+001
4.724319e+002, 7.442554e+001
4.729140e+002, 7.448266e+001
4.733961e+002, 7.414927e+001
4.738782e+002, 7.379105e+001
4.743603e+002, 7.363956e+001
4.748424e+002, 7.366047e+001
4.753246e+002, 7.365923e+001
4.758067e+002, 7.346790e+001
4.762888e+002, 7.319677e+001
4.767709e+002, 7.311751e+001
4.772530e+002, 7.326678e+001
4.777351e+002, 7.337514e+001
4.782173e+002, 7.326051e+001
4.786994e+002, 7.306190e+001
4.791815e+002, 7.302198e+001
4.796636e+002, 7.320861e+001
4.801457e+002, 7.333873e+001
4.806278e+002, 7.321043e+001
4.811100e+002, 7.294465e+001
4.815920e+002, 7.275260e+001
4.820742e+002, 7.267107e+001
4.825563e+002, 7.266128e+001
4.830384e+002, 7.271813e+001
4.835205e+002, 7.283508e+001
4.840026e+002, 7.283489e+001
4.844847e+002, 7.264304e+001
4.849669e+002, 7.242271e+001
4.854490e+002, 7.219897e+001
4.859311e+002, 7.199951e+001
4.864132e+002, 7.186771e+001
4.868953e+002, 7.181901e+001
4.873774e+002, 7.183675e+001
4.878596e+002, 7.189720e+001
4.883417e+002, 7.201661e+001
4.888238e+002, 7.213757e+001
4.893059e+002, 7.232058e+001
4.897880e+002, 7.244824e+001
4.902701e+002, 7.246711e+001
4.907523e+002, 7.238412e+001
4.912344e+002, 7.221687e+001
4.917165e+002, 7.196763e+001
4.921986e+002, 7.166648e+001
4.926807e+002, 7.137028e+001
4.931628e+002, 7.101969e+001
4.936450e+002, 7.084126e+001
4.941271e+002, 7.106876e+001
4.946092e+002, 7.135249e+001
4.950913e+002, 7.148203e+001
4.955734e+002, 7.143948e+001
4.960555e+002, 7.129803e+001
4.965377e+002, 7.102884e+001
4.970198e+002, 7.070558e+001
4.975019e+002, 7.054039e+001
4.979840e+002, 7.055561e+001
4.984661e+002, 7.065100e+001
4.989482e+002, 7.087881e+001
4.994304e+002, 7.110848e+001
4.999125e+002, 7.107066e+001
5.003946e+002, 7.062393e+001
5.008767e+002, 7.022423e+001
5.013588e+002, 7.013502e+001
5.018409e+002, 7.023357e+001
5.023231e+002, 7.032272e+001
5.028052e+002, 7.036329e+001
5.032873e+002, 7.033960e+001
5.037694e+002, 7.020485e+001
5.042515e+002, 6.995269e+001
5.047336e+002, 6.989189e+001
5.052158e+002, 7.022002e+001
5.056979e+002, 7.049629e+001
5.061800e+002, 7.051290e+001
5.066621e+002, 7.039230e+001
5.071442e+002, 7.033752e+001
5.076263e+002, 7.041897e+001
5.081085e+002, 7.053528e+001
5.085906e+002, 7.051958e+001
5.090727e+002, 7.031603e+001
5.095548e+002, 7.018143e+001
5.100369e+002, 7.008986e+001
5.105190e+002, 7.009386e+001
5.110012e+002, 7.035647e+001
5.114833e+002, 7.071061e+001
5.119654e+002, 7.081576e+001
5.124475e+002, 7.045605e+001
5.129296e+002, 6.992058e+001
5.134117e+002, 6.973840e+001
5.138939e+002, 6.994739e+001
5.143760e+002, 7.022551e+001
5.148581e+002, 7.061007e+001
5.153402e+002, 7.093363e+001
5.158223e+002, 7.103457e+001
5.163044e+002, 7.094070e+001
5.167866e+002, 7.084268e+001
5.172687e+002, 7.084261e+001
5.177508e+002, 7.086898e+001
5.182329e+002, 7.079440e+001
5.187150e+002, 7.063085e+001
5.191971e+002, 7.056212e+001
5.196793e+002, 7.070114e+001
5.201614e+002, 7.095583e+001
5.206435e+002, 7.113194e+001
5.211256e+002, 7.126143e+001
5.216077e+002, 7.125118e+001
5.220898e+002, 7.089026e+001
5.225720e+002, 7.051878e+001
5.230541e+002, 7.049162e+001
5.235362e+002, 7.077785e+001
5.240183e+002, 7.106246e+001
5.245004e+002, 7.110537e+001
5.249825e+002, 7.097569e+001
5.254647e+002, 7.104292e+001
5.259468e+002, 7.155640e+001
5.264289e+002, 7.191030e+001
5.269110e+002, 7.200522e+001
5.273931e+002, 7.196407e+001
5.278752e+002, 7.184748e+001
5.283574e+002, 7.168674e+001
5.288395e+002, 7.153748e+001
5.293216e+002, 7.145699e+001
5.298037e+002, 7.143211e+001
5.302858e+002, 7.138264e+001
5.307679e+002, 7.130769e+001
5.312501e+002, 7.121021e+001
5.317322e+002, 7.092733e+001
5.322143e+002, 7.070249e+001
5.326964e+002, 7.087086e+001
5.331785e+002, 7.154191e+001
5.336606e+002, 7.218405e+001
5.341428e+002, 7.241366e+001
5.346249e+002, 7.237487e+001
5.351070e+002, 7.238412e+001
5.355891e+002, 7.248690e+001
5.360712e+002, 7.255059e+001
5.365533e+002, 7.242635e+001
5.370355e+002, 7.217448e+001
5.375176e+002, 7.215808e+001
5.379997e+002, 7.254698e+001
5.384818e+002, 7.294038e+001
5.389639e+002, 7.325683e+001
5.394460e+002, 7.350253e+001
5.399282e+002, 7.368787e+001
5.404103e+002, 7.381430e+001
5.408924e+002, 7.386671e+001
5.413745e+002, 7.380996e+001
5.418566e+002, 7.363758e+001
5.423387e+002, 7.358409e+001
5.428209e+002, 7.389038e+001
5.433029e+002, 7.402463e+001
5.437850e+002, 7.368833e+001
5.442672e+002, 7.321861e+001
5.447493e+002, 7.302916e+001
5.452314e+002, 7.322038e+001
5.457135e+002, 7.350324e+001
5.461956e+002, 7.351414e+001
5.466777e+002, 7.328933e+001
5.471599e+002, 7.331005e+001
5.476420e+002, 7.376999e+001
5.481241e+002, 7.411793e+001
5.486062e+002, 7.384185e+001
5.490883e+002, 7.326114e+001
5.495704e+002, 7.288667e+001
5.500526e+002, 7.287062e+001
5.505347e+002, 7.292671e+001
5.510168e+002, 7.290626e+001
5.514989e+002, 7.282308e+001
5.519810e+002, 7.266165e+001
5.524631e+002, 7.241443e+001
5.529453e+002, 7.226156e+001
5.534274e+002, 7.242346e+001
5.539095e+002, 7.290195e+001
5.543916e+002, 7.306859e+001
5.548737e+002, 7.272763e+001
5.553558e+002, 7.235932e+001
5.558380e+002, 7.209184e+001
5.563201e+002, 7.186984e+001
5.568022e+002, 7.161250e+001
5.572843e+002, 7.130235e+001
5.577664e+002, 7.099694e+001
5.582485e+002, 7.074156e+001
5.587307e+002, 7.053342e+001
5.592128e+002, 7.049844e+001
5.596949e+002, 7.083930e+001
5.601770e+002, 7.105964e+001
5.606591e+002, 7.094617e+001
5.611412e+002, 7.065706e+001
5.616234e+002, 7.037765e+001
5.621055e+002, 7.015618e+001
5.625876e+002, 6.993171e+001
5.630697e+002, 6.957722e+001
5.635518e+002, 6.917204e+001
5.640339e+002, 6.905696e+001
5.645161e+002, 6.934298e+001
5.649982e+002, 6.953763e+001
5.654803e+002, 6.921037e+001
5.659624e+002, 6.849594e+001
5.664445e+002, 6.803307e+001
5.669266e+002, 6.797714e+001
5.674088e+002, 6.794874e+001
5.678909e+002, 6.782278e+001
5.683730e+002, 6.765129e+001
5.688551e+002, 6.746014e+001
5.693372e+002, 6.727361e+001
5.698193e+002, 6.718204e+001
5.703015e+002, 6.728142e+001
5.707836e+002, 6.756219e+001
5.712657e+002, 6.784340e+001
5.717478e+002, 6.838480e+001
5.722299e+002, 6.855586e+001
5.727120e+002, 6.794788e+001
5.731942e+002, 6.713908e+001
5.736763e+002, 6.665200e+001
5.741584e+002, 6.656792e+001
5.746405e+002, 6.664558e+001
5.751226e+002, 6.671435e+001
5.756047e+002, 6.677460e+001
5.760869e+002, 6.687035e+001
5.765690e+002, 6.705592e+001
5.770511e+002, 6.703147e+001
5.775332e+002, 6.645217e+001
5.780153e+002, 6.569567e+001
5.784974e+002, 6.540218e+001
5.789796e+002, 6.568812e+001
5.794617e+002, 6.595541e+001
5.799438e+002, 6.599490e+001
5.804259e+002, 6.588905e+001
5.809080e+002, 6.569557e+001
5.813901e+002, 6.543822e+001
5.818723e+002, 6.516096e+001
5.823544e+002, 6.486877e+001
5.828365e+002, 6.462251e+001
5.833186e+002, 6.463495e+001
5.838007e+002, 6.520205e+001
5.842828e+002, 6.558112e+001
5.847650e+002, 6.583300e+001
5.852471e+002, 6.584719e+001
5.857292e+002, 6.532820e+001
5.862113e+002, 6.448442e+001
5.866934e+002, 6.392255e+001
5.871755e+002, 6.407126e+001
5.876577e+002, 6.464449e+001
5.881398e+002, 6.502763e+001
5.886219e+002, 6.521570e+001
5.891040e+002, 6.522713e+001
5.895861e+002, 6.490614e+001
5.900682e+002, 6.458573e+001
5.905504e+002, 6.463654e+001
5.910325e+002, 6.499438e+001
5.915146e+002, 6.524152e+001
5.919967e+002, 6.517302e+001
5.924788e+002, 6.500950e+001
5.929609e+002, 6.494583e+001
5.934431e+002, 6.494302e+001
5.939252e+002, 6.485222e+001
5.944073e+002, 6.461153e+001
5.948894e+002, 6.435452e+001
5.953715e+002, 6.427785e+001
5.958536e+002, 6.443733e+001
5.963358e+002, 6.452616e+001
5.968179e+002, 6.440511e+001
5.973000e+002, 6.437797e+001
5.977821e+002, 6.472515e+001
5.982642e+002, 6.517043e+001
5.987463e+002, 6.527367e+001
5.992285e+002, 6.489462e+001
5.997106e+002, 6.437791e+001
6.001927e+002, 6.414181e+001
6.006748e+002, 6.417545e+001
6.011569e+002, 6.418877e+001
6.016390e+002, 6.411457e+001
6.021212e+002, 6.413760e+001
6.026033e+002, 6.447696e+001
6.030854e+002, 6.494764e+001
6.035675e+002, 6.527849e+001
6.040496e+002, 6.544884e+001
6.045317e+002, 6.545041e+001
6.050139e+002, 6.515821e+001
6.054960e+002, 6.474834e+001
6.059781e+002, 6.448145e+001
6.064602e+002, 6.438320e+001
6.069423e+002, 6.432946e+001
6.074244e+002, 6.422414e+001
6.079066e+002, 6.410093e+001
6.083887e+002, 6.411540e+001
6.088708e+002, 6.443508e+001
6.093529e+002, 6.465559e+001
6.098350e+002, 6.473969e+001
6.103171e+002, 6.474207e+001
6.107993e+002, 6.466656e+001
6.112814e+002, 6.454124e+001
6.117635e+002, 6.442219e+001
6.122456e+002, 6.432858e+001
6.127277e+002, 6.428963e+001
6.132098e+002, 6.440745e+001
6.136920e+002, 6.470355e+001
6.141741e+002, 6.490331e+001
6.146562e+002, 6.491344e+001
6.151383e+002, 6.484019e+001
6.156204e+002, 6.472695e+001
6.161025e+002, 6.459634e+001
6.165847e+002, 6.462360e+001
6.170668e+002, 6.497904e+001
6.175489e+002, 6.536856e+001
6.180310e+002, 6.564620e+001
6.185131e+002, 6.581343e+001
6.189952e+002, 6.586893e+001
6.194774e+002, 6.581484e+001
6.199595e+002, 6.569077e+001
6.204416e+002, 6.553335e+001
6.209237e+002, 6.533659e+001
6.214058e+002, 6.519070e+001
6.218879e+002, 6.510313e+001
6.223701e+002, 6.506263e+001
6.228522e+002, 6.510273e+001
6.233343e+002, 6.516816e+001
6.238164e+002, 6.516235e+001
6.242985e+002, 6.508249e+001
6.247806e+002, 6.510004e+001
6.252628e+002, 6.552494e+001
6.257448e+002, 6.612968e+001
6.262269e+002, 6.620503e+001
6.267090e+002, 6.568653e+001
6.271912e+002, 6.523856e+001
6.276733e+002, 6.512805e+001
6.281554e+002, 6.529519e+001
6.286375e+002, 6.575069e+001
6.291196e+002, 6.664213e+001
6.296017e+002, 6.710081e+001
6.300839e+002, 6.671410e+001
6.305660e+002, 6.611136e+001
6.310481e+002, 6.559084e+001
6.315302e+002, 6.522256e+001
6.320123e+002, 6.510067e+001
6.324944e+002, 6.526934e+001
6.329766e+002, 6.557226e+001
6.334587e+002, 6.575443e+001
6.339408e+002, 6.580335e+001
6.344229e+002, 6.578545e+001
6.349050e+002, 6.555202e+001
6.353871e+002, 6.545446e+001
6.358693e+002, 6.575429e+001
6.363514e+002, 6.623679e+001
6.368335e+002, 6.656638e+001
6.373156e+002, 6.663970e+001
6.377977e+002, 6.666327e+001
6.382798e+002, 6.683119e+001
6.387620e+002, 6.703531e+001
6.392441e+002, 6.700549e+001
6.397262e+002, 6.672472e+001
6.402083e+002, 6.654829e+001
6.406904e+002, 6.673827e+001
6.411725e+002, 6.716719e+001
6.416547e+002, 6.740886e+001
6.421368e+002, 6.726542e+001
6.426189e+002, 6.721947e+001
6.431010e+002, 6.728620e+001
6.435831e+002, 6.743531e+001
6.440652e+002, 6.769101e+001
6.445474e+002, 6.801123e+001
6.450295e+002, 6.831619e+001
6.455116e+002, 6.856780e+001
6.459937e+002, 6.876109e+001
6.464758e+002, 6.880432e+001
6.469579e+002, 6.870097e+001
6.474401e+002, 6.894218e+001
6.479222e+002, 6.978931e+001
6.484043e+002, 7.058816e+001
6.488864e+002, 7.074675e+001
6.493685e+002, 7.045354e+001
6.498506e+002, 7.027711e+001
6.503328e+002, 7.015047e+001
6.508149e+002, 7.031512e+001
6.512970e+002, 7.119130e+001
6.517791e+002, 7.223302e+001
6.522612e+002, 7.269088e+001
6.527433e+002, 7.255871e+001
6.532255e+002, 7.243090e+001
6.537076e+002, 7.276067e+001
6.541897e+002, 7.340596e+001
6.546718e+002, 7.382986e+001
6.551539e+002, 7.392532e+001
6.556360e+002, 7.405497e+001
6.561182e+002, 7.418129e+001
6.566003e+002, 7.443269e+001
6.570824e+002, 7.487996e+001
6.575645e+002, 7.551631e+001
6.580466e+002, 7.634152e+001
6.585287e+002, 7.756203e+001
6.590109e+002, 7.864397e+001
6.594930e+002, 7.889585e+001
6.599751e+002, 7.860917e+001
6.604572e+002, 7.867709e+001
6.609393e+002, 7.930195e+001
6.614214e+002, 7.988866e+001
6.619036e+002, 7.985156e+001
6.623857e+002, 7.928330e+001
6.628678e+002, 7.918477e+001
6.633499e+002, 7.998357e+001
6.638320e+002, 8.069592e+001
6.643141e+002, 8.128639e+001
6.647963e+002, 8.172763e+001
6.652784e+002, 8.198116e+001
6.657605e+002, 8.206546e+001
6.662426e+002, 8.205205e+001
6.667247e+002, 8.199717e+001
6.672068e+002, 8.184926e+001
6.676890e+002, 8.143649e+001
6.681711e+002, 8.077076e+001
6.686532e+002, 8.025284e+001
6.691353e+002, 7.995347e+001
6.696174e+002, 7.988168e+001
6.700995e+002, 8.022615e+001
6.705817e+002, 8.089466e+001
6.710638e+002, 8.101860e+001
6.715459e+002, 8.010652e+001
6.720280e+002, 7.923726e+001
6.725101e+002, 7.873076e+001
6.729922e+002, 7.845485e+001
6.734744e+002, 7.834619e+001
6.739565e+002, 7.833655e+001
6.744386e+002, 7.825455e+001
6.749207e+002, 7.796702e+001
6.754028e+002, 7.751260e+001
6.758849e+002, 7.698014e+001
6.763671e+002, 7.632134e+001
6.768492e+002, 7.580376e+001
6.773313e+002, 7.553544e+001
6.778134e+002, 7.536134e+001
6.782955e+002, 7.517326e+001
6.787776e+002, 7.497415e+001
6.792598e+002, 7.477917e+001
6.797419e+002, 7.467487e+001
6.802240e+002, 7.446921e+001
6.807061e+002, 7.386400e+001
6.811882e+002, 7.315588e+001
6.816703e+002, 7.289022e+001
6.821525e+002, 7.311409e+001
6.826346e+002, 7.335937e+001
6.831167e+002, 7.323759e+001
6.835988e+002, 7.282612e+001
6.840809e+002, 7.249699e+001
6.845630e+002, 7.224619e+001
6.850452e+002, 7.208839e+001
6.855273e+002, 7.216275e+001
6.860094e+002, 7.221111e+001
6.864915e+002, 7.201645e+001
6.869736e+002, 7.166708e+001
6.874557e+002, 7.143590e+001
6.879379e+002, 7.143540e+001
6.884200e+002, 7.156750e+001
6.889021e+002, 7.183667e+001
6.893842e+002, 7.215714e+001
6.898663e+002, 7.227898e+001
6.903484e+002, 7.216418e+001
6.908306e+002, 7.209682e+001
6.913127e+002, 7.233279e+001
6.917948e+002, 7.277714e+001
6.922769e+002, 7.295164e+001
6.927590e+002, 7.271055e+001
6.932411e+002, 7.242166e+001
6.937233e+002, 7.190714e+001
6.942054e+002, 7.153360e+001
6.946875e+002, 7.164397e+001
6.951696e+002, 7.207310e+001
6.956517e+002, 7.237823e+001
6.961339e+002, 7.234616e+001
6.966160e+002, 7.218752e+001
6.970981e+002, 7.206389e+001
6.975802e+002, 7.200432e+001
6.980623e+002, 7.217943e+001
6.985444e+002, 7.263546e+001
6.990266e+002, 7.299812e+001
6.995087e+002, 7.297414e+001
6.999908e+002, 7.267207e+001
7.004729e+002, 7.250524e+001
7.009550e+002, 7.250204e+001
7.014371e+002, 7.259829e+001
7.019193e+002, 7.297470e+001
7.024014e+002, 7.328179e+001
7.028835e+002, 7.323326e+001
7.033656e+002, 7.295761e+001
7.038477e+002, 7.276956e+001
7.043298e+002, 7.281444e+001
7.048120e+002, 7.289730e+001
7.052941e+002, 7.272907e+001
7.057762e+002, 7.237869e+001
7.062583e+002, 7.220089e+001
7.067404e+002, 7.224953e+001
7.072225e+002, 7.232815e+001
7.077046e+002, 7.232314e+001
7.081867e+002, 7.227146e+001
7.086688e+002, 7.226427e+001
7.091509e+002, 7.229912e+001
7.096331e+002, 7.238061e+001
7.101152e+002, 7.254565e+001
7.105973e+002, 7.272159e+001
7.110794e+002, 7.288884e+001
7.115615e+002, 7.302878e+001
7.120436e+002, 7.316410e+001
7.125258e+002, 7.329684e+001
7.130079e+002, 7.325312e+001
7.134900e+002, 7.267445e+001
7.139721e+002, 7.170183e+001
7.144542e+002, 7.113989e+001
7.149363e+002, 7.106210e+001
7.154185e+002, 7.108770e+001
7.159006e+002, 7.105325e+001
7.163827e+002, 7.102198e+001
7.168648e+002, 7.113936e+001
7.173469e+002, 7.145499e+001
7.178290e+002, 7.160950e+001
7.183112e+002, 7.144906e+001
7.187933e+002, 7.125294e+001
7.192754e+002, 7.114867e+001
7.197575e+002, 7.110133e+001
7.202396e+002, 7.106252e+001
7.207217e+002, 7.101337e+001
7.212039e+002, 7.093450e+001
7.216860e+002, 7.079915e+001
7.221681e+002, 7.062021e+001
7.226502e+002, 7.045936e+001
7.231323e+002, 7.032348e+001
7.236144e+002, 7.013310e+001
7.240966e+002, 6.983140e+001
7.245787e+002, 6.951469e+001
7.250608e+002, 6.932236e+001
7.255429e+002, 6.924915e+001
7.260250e+002, 6.908895e+001
7.265071e+002, 6.871069e+001
7.269893e+002, 6.838767e+001
7.274714e+002, 6.827038e+001
7.279535e+002, 6.822928e+001
7.284356e+002, 6.816529e+001
7.289177e+002, 6.803392e+001
7.293998e+002, 6.774981e+001
7.298820e+002, 6.719711e+001
7.303641e+002, 6.654874e+001
7.308462e+002, 6.621883e+001
7.313283e+002, 6.621763e+001
7.318104e+002, 6.628209e+001
7.322925e+002, 6.641180e+001
7.327747e+002, 6.648148e+001
7.332568e+002, 6.638539e+001
7.337389e+002, 6.613597e+001
7.342210e+002, 6.583064e+001
7.347031e+002, 6.542152e+001
7.351852e+002, 6.503299e+001
7.356674e+002, 6.461576e+001
7.361495e+002, 6.428625e+001
7.366316e+002, 6.419174e+001
7.371137e+002, 6.426752e+001
7.375958e+002, 6.432931e+001
7.380779e+002, 6.428754e+001
7.385601e+002, 6.417912e+001
7.390422e+002, 6.404409e+001
7.395243e+002, 6.388648e+001
7.400064e+002, 6.376326e+001
7.404885e+002, 6.370723e+001
7.409706e+002, 6.354918e+001
7.414528e+002, 6.314098e+001
7.419349e+002, 6.261053e+001
7.424170e+002, 6.224249e+001
7.428991e+002, 6.206435e+001
7.433812e+002, 6.193294e+001
7.438633e+002, 6.189917e+001
7.443455e+002, 6.184548e+001
7.448276e+002, 6.167894e+001
7.453097e+002, 6.146387e+001
7.457918e+002, 6.131171e+001
7.462739e+002, 6.124970e+001
7.467560e+002, 6.119482e+001
7.472382e+002, 6.105095e+001
7.477203e+002, 6.085530e+001
7.482024e+002, 6.072078e+001
7.486845e+002, 6.064801e+001
7.491666e+002, 6.064278e+001
7.496487e+002, 6.076855e+001
7.501309e+002, 6.080342e+001
7.506130e+002, 6.040148e+001
7.510951e+002, 5.952143e+001
7.515772e+002, 5.905305e+001
7.520593e+002, 5.925490e+001
7.525414e+002, 5.949537e+001
7.530236e+002, 5.973596e+001
7.535057e+002, 5.988385e+001
7.539878e+002, 5.979320e+001
7.544699e+002, 5.951962e+001
7.549520e+002, 5.929567e+001
7.554341e+002, 5.924726e+001
7.559163e+002, 5.932011e+001
7.563984e+002, 5.952328e+001
7.568805e+002, 5.979654e+001
7.573626e+002, 5.984446e+001
7.578447e+002, 5.960933e+001
7.583268e+002, 5.931116e+001
7.588090e+002, 5.909838e+001
7.592911e+002, 5.894630e+001
7.597732e+002, 5.876524e+001
7.602553e+002, 5.846101e+001
7.607374e+002, 5.830527e+001
7.612195e+002, 5.852013e+001
7.617017e+002, 5.864180e+001
7.621838e+002, 5.831582e+001
7.626659e+002, 5.780188e+001
7.631480e+002, 5.749535e+001
7.636301e+002, 5.750490e+001
7.641122e+002, 5.773837e+001
7.645944e+002, 5.832823e+001
7.650765e+002, 5.899453e+001
7.655586e+002, 5.927332e+001
7.660407e+002, 5.919467e+001
7.665228e+002, 5.901081e+001
7.670049e+002, 5.881443e+001
7.674871e+002, 5.859792e+001
7.679692e+002, 5.835600e+001
7.684513e+002, 5.808718e+001
7.689334e+002, 5.775159e+001
7.694155e+002, 5.716335e+001
7.698976e+002, 5.681308e+001
7.703798e+002, 5.697795e+001
7.708619e+002, 5.727434e+001
7.713440e+002, 5.742973e+001
7.718261e+002, 5.744471e+001
7.723082e+002, 5.742617e+001
7.727903e+002, 5.737514e+001
7.732725e+002, 5.735012e+001
7.737546e+002, 5.741967e+001
7.742367e+002, 5.752988e+001
7.747188e+002, 5.760004e+001
7.752009e+002, 5.761999e+001
7.756830e+002, 5.760705e+001
7.761652e+002, 5.756622e+001
7.766473e+002, 5.753190e+001
7.771294e+002, 5.761647e+001
7.776115e+002, 5.786002e+001
7.780936e+002, 5.794491e+001
7.785757e+002, 5.777601e+001
7.790579e+002, 5.758510e+001
7.795400e+002, 5.747743e+001
7.800221e+002, 5.743550e+001
7.805042e+002, 5.742649e+001
7.809863e+002, 5.744335e+001
7.814684e+002, 5.752279e+001
7.819506e+002, 5.782925e+001
7.824327e+002, 5.804535e+001
7.829148e+002, 5.785858e+001
7.833969e+002, 5.747937e+001
7.838790e+002, 5.727074e+001
7.843611e+002, 5.732067e+001
7.848433e+002, 5.745524e+001
7.853254e+002, 5.754417e+001
7.858075e+002, 5.757708e+001
7.862896e+002, 5.749938e+001
7.867717e+002, 5.730944e+001
7.872538e+002, 5.712098e+001
7.877360e+002, 5.693407e+001
7.882181e+002, 5.684634e+001
7.887002e+002, 5.698724e+001
7.891823e+002, 5.732082e+001
7.896644e+002, 5.753620e+001
7.901465e+002, 5.765492e+001
7.906286e+002, 5.763172e+001
7.911107e+002, 5.721584e+001
7.915928e+002, 5.688586e+001
7.920750e+002, 5.711300e+001
7.925571e+002, 5.763652e+001
7.930392e+002, 5.783503e+001
7.935213e+002, 5.745086e+001
7.940034e+002, 5.701966e+001
7.944855e+002, 5.711314e+001
7.949677e+002, 5.743732e+001
7.954498e+002, 5.738872e+001
7.959319e+002, 5.699485e+001
7.964140e+002, 5.665847e+001
7.968961e+002, 5.653786e+001
7.973782e+002, 5.662946e+001
7.978604e+002, 5.699168e+001
7.983425e+002, 5.765404e+001
7.988246e+002, 5.785622e+001
7.993067e+002, 5.725710e+001
7.997888e+002, 5.681544e+001
8.002709e+002, 5.686076e+001
8.007531e+002, 5.707696e+001
8.012352e+002, 5.734251e+001
8.017173e+002, 5.760065e+001
8.021994e+002, 5.762238e+001
8.026815e+002, 5.711565e+001
8.031636e+002, 5.670073e+001
8.036458e+002, 5.678587e+001
8.041279e+002, 5.708721e+001
8.046100e+002, 5.732125e+001
8.050921e+002, 5.744384e+001
8.055742e+002, 5.747599e+001
8.060563e+002, 5.742609e+001
8.065385e+002, 5.731890e+001
8.070206e+002, 5.702423e+001
8.075027e+002, 5.660125e+001
8.079848e+002, 5.714854e+001
8.084669e+002, 5.902837e+001
8.089490e+002, 6.019031e+001
8.094312e+002, 5.947534e+001
8.099133e+002, 5.791419e+001
8.103954e+002, 5.698045e+001
8.108775e+002, 5.675021e+001
8.113596e+002, 5.672923e+001
8.118417e+002, 5.711759e+001
8.123239e+002, 5.745707e+001
8.128060e+002, 5.763361e+001
8.132881e+002, 5.769836e+001
8.137702e+002, 5.766249e+001
8.142523e+002, 5.755778e+001
8.147344e+002, 5.747345e+001
8.152166e+002, 5.746820e+001
8.156987e+002, 5.747009e+001
8.161808e+002, 5.740644e+001
8.166629e+002, 5.729299e+001
8.171450e+002, 5.711315e+001
8.176271e+002, 5.689034e+001
8.181093e+002, 5.683831e+001
8.185914e+002, 5.710071e+001
8.190735e+002, 5.747255e+001
8.195556e+002, 5.753175e+001
8.200377e+002, 5.720953e+001
8.205198e+002, 5.700895e+001
8.210020e+002, 5.698389e+001
8.214841e+002, 5.697468e+001
8.219662e+002, 5.691526e+001
8.224483e+002, 5.684763e+001
8.229304e+002, 5.678756e+001
8.234125e+002, 5.674001e+001
8.238947e+002, 5.682296e+001
8.243768e+002, 5.726005e+001
8.248589e+002, 5.759234e+001
8.253410e+002, 5.753459e+001
8.258231e+002, 5.732543e+001
8.263052e+002, 5.723173e+001
8.267874e+002, 5.725886e+001
8.272695e+002, 5.726503e+001
8.277516e+002, 5.717040e+001
8.282337e+002, 5.702290e+001
8.287158e+002, 5.685499e+001
8.291979e+002, 5.668905e+001
8.296801e+002, 5.663292e+001
8.301622e+002, 5.669642e+001
8.306443e+002, 5.678443e+001
8.311264e+002, 5.685247e+001
8.316085e+002, 5.691211e+001
8.320906e+002, 5.698411e+001
8.325728e+002, 5.707075e+001
8.330549e+002, 5.714834e+001
8.335370e+002, 5.723079e+001
8.340191e+002, 5.728131e+001
8.345012e+002, 5.730815e+001
8.349833e+002, 5.728878e+001
8.354655e+002, 5.717446e+001
8.359476e+002, 5.698905e+001
8.364297e+002, 5.684505e+001
8.369118e+002, 5.678599e+001
8.373939e+002, 5.676009e+001
8.378760e+002, 5.674455e+001
8.383582e+002, 5.674370e+001
8.388403e+002, 5.674538e+001
8.393224e+002, 5.676604e+001
8.398045e+002, 5.688256e+001
8.402866e+002, 5.713239e+001
8.407687e+002, 5.736405e+001
8.412509e+002, 5.736058e+001
8.417330e+002, 5.715120e+001
8.422151e+002, 5.683915e+001
8.426972e+002, 5.640905e+001
8.431793e+002, 5.620785e+001
8.436614e+002, 5.641438e+001
8.441436e+002, 5.674740e+001
8.446257e+002, 5.687810e+001
8.451078e+002, 5.681247e+001
8.455899e+002, 5.681974e+001
8.460720e+002, 5.709513e+001
8.465541e+002, 5.715079e+001
8.470363e+002, 5.667333e+001
8.475184e+002, 5.622590e+001
8.480005e+002, 5.626304e+001
8.484826e+002, 5.658381e+001
8.489647e+002, 5.667976e+001
8.494468e+002, 5.636755e+001
8.499290e+002, 5.607244e+001
8.504111e+002, 5.604218e+001
8.508932e+002, 5.612596e+001
8.513753e+002, 5.621178e+001
8.518574e+002, 5.627606e+001
8.523395e+002, 5.629134e+001
8.528217e+002, 5.625106e+001
8.533038e+002, 5.617555e+001
8.537859e+002, 5.608467e+001
8.542680e+002, 5.597479e+001
8.547501e+002, 5.579612e+001
8.552322e+002, 5.554851e+001
8.557144e+002, 5.547396e+001
8.561965e+002, 5.565310e+001
8.566786e+002, 5.587516e+001
8.571607e+002, 5.600097e+001
8.576428e+002, 5.603681e+001
8.581249e+002, 5.600323e+001
8.586071e+002, 5.590245e+001
8.590892e+002, 5.572441e+001
8.595713e+002, 5.532080e+001
8.600534e+002, 5.501429e+001
8.605355e+002, 5.497835e+001
8.610176e+002, 5.506604e+001
8.614998e+002, 5.510254e+001
8.619819e+002, 5.506849e+001
8.624640e+002, 5.504224e+001
8.629461e+002, 5.511554e+001
8.634282e+002, 5.514202e+001
8.639103e+002, 5.491791e+001
8.643925e+002, 5.464005e+001
8.648746e+002, 5.470321e+001
8.653567e+002, 5.503284e+001
8.658388e+002, 5.507620e+001
8.663209e+002, 5.447945e+001
8.668030e+002, 5.370478e+001
8.672852e+002, 5.351727e+001
8.677673e+002, 5.379936e+001
8.682494e+002, 5.394251e+001
8.687315e+002, 5.391082e+001
8.692136e+002, 5.374297e+001
8.696957e+002, 5.342297e+001
8.701779e+002, 5.307893e+001
8.706600e+002, 5.287639e+001
8.711421e+002, 5.281517e+001
8.716242e+002, 5.286639e+001
8.721063e+002, 5.322647e+001
8.725884e+002, 5.335246e+001
8.730705e+002, 5.280506e+001
8.735526e+002, 5.232441e+001
8.740347e+002, 5.254527e+001
8.745168e+002, 5.315136e+001
8.749990e+002, 5.332243e+001
8.754811e+002, 5.277514e+001
8.759632e+002, 5.225721e+001
8.764453e+002, 5.208442e+001
8.769274e+002, 5.198209e+001
8.774095e+002, 5.177648e+001
8.778917e+002, 5.148616e+001
8.783738e+002, 5.110034e+001
8.788559e+002, 5.065695e+001
8.793380e+002, 5.037891e+001
8.798201e+002, 5.050062e+001
8.803022e+002, 5.081682e+001
8.807844e+002, 5.102973e+001
8.812665e+002, 5.114686e+001
8.817486e+002, 5.119911e+001
8.822307e+002, 5.119050e+001
8.827128e+002, 5.106820e+001
8.831949e+002, 5.077843e+001
8.836771e+002, 5.044366e+001
8.841592e+002, 5.036374e+001
8.846413e+002, 5.060512e+001
8.851234e+002, 5.057006e+001
8.856055e+002, 5.011962e+001
8.860876e+002, 4.973363e+001
8.865698e+002, 4.958734e+001
8.870519e+002, 4.956659e+001
8.875340e+002, 4.959429e+001
8.880161e+002, 4.965920e+001
8.884982e+002, 4.959237e+001
8.889803e+002, 4.925599e+001
8.894625e+002, 4.897586e+001
8.899446e+002, 4.885121e+001
8.904267e+002, 4.875835e+001
8.909088e+002, 4.858566e+001
8.913909e+002, 4.838800e+001
8.918730e+002, 4.829387e+001
8.923552e+002, 4.834115e+001
8.928373e+002, 4.841108e+001
8.933194e+002, 4.843800e+001
8.938015e+002, 4.844185e+001
8.942836e+002, 4.845308e+001
8.947657e+002, 4.845555e+001
8.952479e+002, 4.840748e+001
8.957300e+002, 4.830550e+001
8.962121e+002, 4.819709e+001
8.966942e+002, 4.812899e+001
8.971763e+002, 4.803777e+001
8.976584e+002, 4.773127e+001
8.981406e+002, 4.724738e+001
8.986227e+002, 4.699582e+001
8.991048e+002, 4.703390e+001
8.995869e+002, 4.704496e+001
9.000690e+002, 4.686438e+001
9.005511e+002, 4.662410e+001
9.010333e+002, 4.652605e+001
9.015154e+002, 4.657864e+001
9.019975e+002, 4.658478e+001
9.024796e+002, 4.654070e+001
9.029617e+002, 4.645593e+001
9.034438e+002, 4.627174e+001
9.039260e+002, 4.610706e+001
9.044081e+002, 4.607981e+001
9.048902e+002, 4.613015e+001
9.053723e+002, 4.610006e+001
9.058544e+002, 4.594606e+001
9.063365e+002, 4.578962e+001
9.068187e+002, 4.568881e+001
9.073008e+002, 4.556383e+001
9.077829e+002, 4.531182e+001
9.082650e+002, 4.503611e+001
9.087471e+002, 4.488729e+001
9.092292e+002, 4.487892e+001
9.097114e+002, 4.490430e+001
9.101935e+002, 4.493868e+001
9.106756e+002, 4.492001e+001
9.111577e+002, 4.472710e+001
9.116398e+002, 4.445936e+001
9.121219e+002, 4.431183e+001
9.126041e+002, 4.428363e+001
9.130862e+002, 4.425596e+001
9.135683e+002, 4.417284e+001
9.140504e+002, 4.407120e+001
9.145325e+002, 4.399164e+001
9.150146e+002, 4.393705e+001
9.154968e+002, 4.395161e+001
9.159789e+002, 4.404177e+001
9.164610e+002, 4.397736e+001
9.169431e+002, 4.365109e+001
9.174252e+002, 4.339571e+001
9.179073e+002, 4.351832e+001
9.183895e+002, 4.389985e+001
9.188716e+002, 4.410595e+001
9.193537e+002, 4.408987e+001
9.198358e+002, 4.401707e+001
9.203179e+002, 4.385879e+001
9.208000e+002, 4.368489e+001
9.212822e+002, 4.350171e+001
9.217643e+002, 4.332924e+001
9.222464e+002, 4.318372e+001
9.227285e+002, 4.306635e+001
9.232106e+002, 4.299743e+001
9.236927e+002, 4.303333e+001
9.241749e+002, 4.304507e+001
9.246570e+002, 4.294896e+001
9.251391e+002, 4.285810e+001
9.256212e+002, 4.292284e+001
9.261033e+002, 4.304786e+001
9.265854e+002, 4.299093e+001
9.270676e+002, 4.267503e+001
9.275497e+002, 4.241765e+001
9.280318e+002, 4.244568e+001
9.285139e+002, 4.261807e+001
9.289960e+002, 4.291066e+001
9.294781e+002, 4.319871e+001
9.299603e+002, 4.319554e+001
9.304424e+002, 4.291095e+001
9.309245e+002, 4.267233e+001
9.314066e+002, 4.269649e+001
9.318887e+002, 4.282345e+001
9.323708e+002, 4.281124e+001
9.328530e+002, 4.268459e+001
9.333351e+002, 4.249830e+001
9.338172e+002, 4.226782e+001
9.342993e+002, 4.221953e+001
9.347814e+002, 4.245406e+001
9.352635e+002, 4.271066e+001
9.357457e+002, 4.266530e+001
9.362278e+002, 4.241710e+001
9.367099e+002, 4.265485e+001
9.371920e+002, 4.361955e+001
9.376741e+002, 4.395967e+001
9.381563e+002, 4.325994e+001
9.386384e+002, 4.250709e+001
9.391205e+002, 4.224533e+001
9.396026e+002, 4.225230e+001
9.400847e+002, 4.210495e+001
9.405668e+002, 4.173304e+001
9.410490e+002, 4.162481e+001
9.415311e+002, 4.207739e+001
9.420132e+002, 4.237716e+001
9.424953e+002, 4.235762e+001
9.429774e+002, 4.217110e+001
9.434595e+002, 4.179846e+001
9.439417e+002, 4.136741e+001
9.444238e+002, 4.118469e+001
9.449059e+002, 4.134835e+001
9.453880e+002, 4.161109e+001
9.458701e+002, 4.210556e+001
9.463522e+002, 4.243921e+001
9.468344e+002, 4.222041e+001
9.473165e+002, 4.175074e+001
9.477986e+002, 4.141844e+001
9.482807e+002, 4.128114e+001
9.487628e+002, 4.119899e+001
9.492449e+002, 4.108296e+001
9.497271e+002, 4.103516e+001
9.502092e+002, 4.128214e+001
9.506913e+002, 4.158584e+001
9.511734e+002, 4.152900e+001
9.516555e+002, 4.118337e+001
9.521376e+002, 4.083842e+001
9.526198e+002, 4.060679e+001
9.531019e+002, 4.053270e+001
9.535840e+002, 4.070251e+001
9.540661e+002, 4.100429e+001
9.545482e+002, 4.122439e+001
9.550303e+002, 4.134243e+001
9.555124e+002, 4.111599e+001
9.559945e+002, 4.051294e+001
9.564766e+002, 4.015657e+001
9.569587e+002, 4.041327e+001
9.574409e+002, 4.091234e+001
9.579230e+002, 4.105620e+001
9.584051e+002, 4.085254e+001
9.588872e+002, 4.067725e+001
9.593693e+002, 4.049846e+001
9.598514e+002, 4.051542e+001
9.603336e+002, 4.088317e+001
9.608157e+002, 4.119075e+001
9.612978e+002, 4.107705e+001
9.617799e+002, 4.070719e+001
9.622620e+002, 4.056246e+001
9.627441e+002, 4.078255e+001
9.632263e+002, 4.079371e+001
9.637084e+002, 4.037333e+001
9.641905e+002, 4.004638e+001
9.646726e+002, 3.991016e+001
9.651547e+002, 3.995467e+001
9.656368e+002, 4.032432e+001
9.661190e+002, 4.089634e+001
9.666011e+002, 4.111522e+001
9.670832e+002, 4.069093e+001
9.675653e+002, 4.036576e+001
9.680474e+002, 4.036295e+001
9.685295e+002, 4.042945e+001
9.690117e+002, 4.042002e+001
9.694938e+002, 4.039278e+001
9.699759e+002, 4.048077e+001
9.704580e+002, 4.066801e+001
9.709401e+002, 4.072300e+001
9.714222e+002, 4.042582e+001
9.719044e+002, 4.016314e+001
9.723865e+002, 4.026843e+001
9.728686e+002, 4.046115e+001
9.733507e+002, 4.040102e+001
9.738328e+002, 4.018424e+001
9.743149e+002, 4.011237e+001
9.747971e+002, 4.026020e+001
9.752792e+002, 4.038336e+001
9.757613e+002, 4.026133e+001
9.762434e+002, 4.003922e+001
9.767255e+002, 3.985640e+001
9.772076e+002, 3.973991e+001
9.776898e+002, 3.980307e+001
9.781719e+002, 4.000866e+001
9.786540e+002, 4.012624e+001
9.791361e+002, 4.004712e+001
9.796182e+002, 3.988777e+001
9.801003e+002, 3.977375e+001
9.805825e+002, 3.970278e+001
9.810646e+002, 3.967963e+001
9.815467e+002, 3.969947e+001
9.820288e+002, 3.974087e+001
9.825109e+002, 3.979924e+001
9.829930e+002, 3.978235e+001
9.834752e+002, 3.961788e+001
9.839573e+002, 3.940049e+001
9.844394e+002, 3.930892e+001
9.849215e+002, 3.934378e+001
9.854036e+002, 3.942754e+001
9.858857e+002, 3.957303e+001
9.863679e+002, 3.969862e+001
9.868500e+002, 3.979734e+001
9.873321e+002, 3.981885e+001
9.878142e+002, 3.969312e+001
9.882963e+002, 3.948585e+001
9.887784e+002, 3.941906e+001
9.892606e+002, 3.957098e+001
9.897427e+002, 3.956878e+001
9.902248e+002, 3.925431e+001
9.907069e+002, 3.909813e+001
9.911890e+002, 3.935797e+001
9.916711e+002, 3.971193e+001
9.921533e+002, 3.985929e+001
9.926354e+002, 3.982939e+001
9.931175e+002, 3.979258e+001
9.935996e+002, 3.973231e+001
9.940817e+002, 3.969536e+001
9.945638e+002, 3.963765e+001
9.950460e+002, 3.965702e+001
9.955281e+002, 3.986965e+001
9.960102e+002, 4.012366e+001
9.964923e+002, 4.026165e+001
9.969744e+002, 4.028449e+001
9.974565e+002, 4.026396e+001
9.979387e+002, 4.013927e+001
9.984208e+002, 4.009555e+001
9.989029e+002, 4.031824e+001
9.993850e+002, 4.049023e+001
9.998671e+002, 4.042945e+001
1.000349e+003, 4.018154e+001
1.000831e+003, 3.970704e+001
1.001313e+003, 3.906886e+001
1.001796e+003, 3.873769e+001
1.002278e+003, 3.914586e+001
1.002760e+003, 3.954397e+001
1.003242e+003, 3.943475e+001
1.003724e+003, 3.920779e+001
1.004206e+003, 3.920301e+001
1.004688e+003, 3.937631e+001
1.005170e+003, 3.963279e+001
1.005653e+003, 3.992054e+001
1.006135e+003, 4.005339e+001
1.006617e+003, 3.978394e+001
1.007099e+003, 3.948639e+001
1.007581e+003, 3.954389e+001
1.008063e+003, 3.977372e+001
1.008545e+003, 3.999091e+001
1.009027e+003, 4.013223e+001
1.009509e+003, 4.007570e+001
1.009992e+003, 3.979670e+001
1.010474e+003, 3.952576e+001
1.010956e+003, 3.949080e+001
1.011438e+003, 3.955448e+001
1.011920e+003, 3.949589e+001
1.012402e+003, 3.937832e+001
1.012884e+003, 3.934600e+001
1.013366e+003, 3.940912e+001
1.013849e+003, 3.954220e+001
1.014331e+003, 3.973064e+001
1.014813e+003, 3.986052e+001
1.015295e+003, 3.974807e+001
1.015777e+003, 3.952707e+001
1.016259e+003, 3.956899e+001
1.016741e+003, 3.981350e+001
1.017223e+003, 4.000061e+001
1.017705e+003, 4.008518e+001
1.018188e+003, 4.002733e+001
1.018670e+003, 3.979704e+001
1.019152e+003, 3.958280e+001
1.019634e+003, 3.969124e+001
1.020116e+003, 4.002685e+001
1.020598e+003, 4.011227e+001
1.021080e+003, 3.995506e+001
1.021562e+003, 3.972773e+001
1.022044e+003, 3.945034e+001
1.022527e+003, 3.929734e+001
1.023009e+003, 3.937967e+001
1.023491e+003, 3.959196e+001
1.023973e+003, 3.978778e+001
1.024455e+003, 3.996134e+001
1.024937e+003, 3.997704e+001
1.025419e+003, 3.980260e+001
1.025901e+003, 3.976029e+001
1.026384e+003, 3.993737e+001
1.026866e+003, 4.011757e+001
1.027348e+003, 4.014649e+001
1.027830e+003, 4.014781e+001
1.028312e+003, 4.040065e+001
1.028794e+003, 4.093425e+001
1.029276e+003, 4.095790e+001
1.029758e+003, 4.024422e+001
1.030240e+003, 3.985787e+001
1.030723e+003, 4.015310e+001
1.031205e+003, 4.043253e+001
1.031687e+003, 4.018543e+001
1.032169e+003, 3.968716e+001
1.032651e+003, 3.950953e+001
1.033133e+003, 3.970196e+001
1.033615e+003, 3.979504e+001
1.034097e+003, 3.973197e+001
1.034579e+003, 3.969420e+001
1.035062e+003, 3.973746e+001
1.035544e+003, 3.978215e+001
1.036026e+003, 3.980536e+001
1.036508e+003, 3.977449e+001
1.036990e+003, 3.957725e+001
1.037472e+003, 3.912944e+001
1.037954e+003, 3.899452e+001
1.038436e+003, 3.944453e+001
1.038919e+003, 3.977168e+001
1.039401e+003, 3.980202e+001
1.039883e+003, 3.973278e+001
1.040365e+003, 3.962550e+001
1.040847e+003, 3.952703e+001
1.041329e+003, 3.957617e+001
1.041811e+003, 3.984373e+001
1.042293e+003, 3.988578e+001
1.042776e+003, 3.935531e+001
1.043258e+003, 3.907596e+001
1.043740e+003, 3.945078e+001
1.044222e+003, 3.987074e+001
1.044704e+003, 3.989769e+001
1.045186e+003, 3.970638e+001
1.045668e+003, 3.963245e+001
1.046150e+003, 3.969793e+001
1.046632e+003, 3.987573e+001
1.047115e+003, 4.049271e+001
1.047597e+003, 4.076585e+001
1.048079e+003, 4.019128e+001
1.048561e+003, 3.951530e+001
1.049043e+003, 3.928050e+001
1.049525e+003, 3.930177e+001
1.050007e+003, 3.915143e+001
1.050489e+003, 3.875441e+001
1.050971e+003, 3.854819e+001
1.051454e+003, 3.880714e+001
1.051936e+003, 3.900892e+001
1.052418e+003, 3.884515e+001
1.052900e+003, 3.871959e+001
1.053382e+003, 3.911791e+001
1.053864e+003, 3.969164e+001
1.054346e+003, 3.969138e+001
1.054828e+003, 3.899378e+001
1.055311e+003, 3.856692e+001
1.055793e+003, 3.890841e+001
1.056275e+003, 3.923169e+001
1.056757e+003, 3.927604e+001
1.057239e+003, 3.919751e+001
1.057721e+003, 3.905196e+001
1.058203e+003, 3.889583e+001
1.058685e+003, 3.883914e+001
1.059167e+003, 3.889277e+001
1.059650e+003, 3.882808e+001
1.060132e+003, 3.834170e+001
1.060614e+003, 3.803349e+001
1.061096e+003, 3.834252e+001
1.061578e+003, 3.870714e+001
1.062060e+003, 3.868564e+001
1.062542e+003, 3.842524e+001
1.063024e+003, 3.820527e+001
1.063506e+003, 3.807027e+001
1.063989e+003, 3.792390e+001
1.064471e+003, 3.770368e+001
1.064953e+003, 3.750324e+001
1.065435e+003, 3.732287e+001
1.065917e+003, 3.721418e+001
1.066399e+003, 3.728080e+001
1.066881e+003, 3.741338e+001
1.067363e+003, 3.741120e+001
1.067846e+003, 3.727083e+001
1.068328e+003, 3.723597e+001
1.068810e+003, 3.752377e+001
1.069292e+003, 3.771153e+001
1.069774e+003, 3.743089e+001
1.070256e+003, 3.716201e+001
1.070738e+003, 3.739054e+001
1.071220e+003, 3.779167e+001
1.071703e+003, 3.782642e+001
1.072185e+003, 3.749352e+001
1.072667e+003, 3.728799e+001
1.073149e+003, 3.745707e+001
1.073631e+003, 3.762556e+001
1.074113e+003, 3.759219e+001
1.074595e+003, 3.752352e+001
1.075077e+003, 3.762366e+001
1.075559e+003, 3.771053e+001
1.076042e+003, 3.740747e+001
1.076524e+003, 3.681778e+001
1.077006e+003, 3.657701e+001
1.077488e+003, 3.701594e+001
1.077970e+003, 3.744947e+001
1.078452e+003, 3.768177e+001
1.078934e+003, 3.766734e+001
1.079416e+003, 3.712751e+001
1.079898e+003, 3.649841e+001
1.080380e+003, 3.634906e+001
1.080863e+003, 3.659899e+001
1.081345e+003, 3.675216e+001
1.081827e+003, 3.663032e+001
1.082309e+003, 3.653802e+001
1.082791e+003, 3.670026e+001
1.083273e+003, 3.683051e+001
1.083755e+003, 3.671831e+001
1.084237e+003, 3.650972e+001
1.084720e+003, 3.630287e+001
1.085202e+003, 3.615376e+001
1.085684e+003, 3.619863e+001
1.086166e+003, 3.650716e+001
1.086648e+003, 3.665686e+001
1.087130e+003, 3.631181e+001
1.087612e+003, 3.595863e+001
1.088094e+003, 3.589172e+001
1.088577e+003, 3.589442e+001
1.089059e+003, 3.568714e+001
1.089541e+003, 3.540582e+001
1.090023e+003, 3.540548e+001
1.090505e+003, 3.575997e+001
1.090987e+003, 3.606286e+001
1.091469e+003, 3.623370e+001
1.091951e+003, 3.622942e+001
1.092433e+003, 3.588342e+001
1.092916e+003, 3.549989e+001
1.093398e+003, 3.530182e+001
1.093880e+003, 3.524553e+001
1.094362e+003, 3.525115e+001
1.094844e+003, 3.529889e+001
1.095326e+003, 3.533084e+001
1.095808e+003, 3.541036e+001
1.096290e+003, 3.535041e+001
1.096772e+003, 3.486671e+001
1.097255e+003, 3.446459e+001
1.097737e+003, 3.455417e+001
1.098219e+003, 3.486454e+001
1.098701e+003, 3.504658e+001
1.099183e+003, 3.506944e+001
1.099665e+003, 3.503273e+001
1.100147e+003, 3.491599e+001
1.100629e+003, 3.483100e+001
1.101112e+003, 3.488879e+001
1.101594e+003, 3.488707e+001
1.102076e+003, 3.460587e+001
1.102558e+003, 3.430622e+001
1.103040e+003, 3.429620e+001
1.103522e+003, 3.451927e+001
1.104004e+003, 3.470998e+001
1.104486e+003, 3.486650e+001
1.104969e+003, 3.487306e+001
1.105451e+003, 3.451840e+001
1.105933e+003, 3.425866e+001
1.106415e+003, 3.434703e+001
1.106897e+003, 3.450447e+001
1.107379e+003, 3.448539e+001
1.107861e+003, 3.436170e+001
1.108343e+003, 3.433963e+001
1.108825e+003, 3.446013e+001
1.109307e+003, 3.453102e+001
1.109790e+003, 3.451793e+001
1.110272e+003, 3.447902e+001
1.110754e+003, 3.442163e+001
1.111236e+003, 3.434616e+001
1.111718e+003, 3.416975e+001
1.112200e+003, 3.401389e+001
1.112682e+003, 3.415644e+001
1.113164e+003, 3.462781e+001
1.113647e+003, 3.478493e+001
1.114129e+003, 3.440653e+001
1.114611e+003, 3.407902e+001
1.115093e+003, 3.379626e+001
1.115575e+003, 3.363423e+001
1.116057e+003, 3.369918e+001
1.116539e+003, 3.383217e+001
1.117021e+003, 3.382951e+001
1.117504e+003, 3.372158e+001
1.117986e+003, 3.373669e+001
1.118468e+003, 3.392294e+001
1.118950e+003, 3.412759e+001
1.119432e+003, 3.443177e+001
1.119914e+003, 3.457866e+001
1.120396e+003, 3.442202e+001
1.120878e+003, 3.419081e+001
1.121360e+003, 3.408864e+001
1.121843e+003, 3.405436e+001
1.122325e+003, 3.388402e+001
1.122807e+003, 3.351547e+001
1.123289e+003, 3.341191e+001
1.123771e+003, 3.365999e+001
1.124253e+003, 3.389176e+001
1.124735e+003, 3.406195e+001
1.125217e+003, 3.408312e+001
1.125699e+003, 3.384430e+001
1.126182e+003, 3.354641e+001
1.126664e+003, 3.356080e+001
1.127146e+003, 3.386325e+001
1.127628e+003, 3.399295e+001
1.128110e+003, 3.392521e+001
1.128592e+003, 3.392704e+001
1.129074e+003, 3.405732e+001
1.129556e+003, 3.402623e+001
1.130039e+003, 3.366250e+001
1.130521e+003, 3.333457e+001
1.131003e+003, 3.350544e+001
1.131485e+003, 3.398607e+001
1.131967e+003, 3.407341e+001
1.132449e+003, 3.379475e+001
1.132931e+003, 3.366080e+001
1.133413e+003, 3.369498e+001
1.133896e+003, 3.361507e+001
1.134378e+003, 3.333517e+001
1.134860e+003, 3.313122e+001
1.135342e+003, 3.322251e+001
1.135824e+003, 3.348960e+001
1.136306e+003, 3.382711e+001
1.136788e+003, 3.414247e+001
1.137270e+003, 3.395828e+001
1.137752e+003, 3.339804e+001
1.138234e+003, 3.308846e+001
1.138717e+003, 3.312059e+001
1.139199e+003, 3.322702e+001
1.139681e+003, 3.327124e+001
1.140163e+003, 3.325148e+001
1.140645e+003, 3.313549e+001
1.141127e+003, 3.298290e+001
1.141609e+003, 3.288967e+001
1.142091e+003, 3.284976e+001
1.142574e+003, 3.283677e+001
1.143056e+003, 3.286525e+001
1.143538e+003, 3.302662e+001
1.144020e+003, 3.332578e+001
1.144502e+003, 3.356862e+001
1.144984e+003, 3.361974e+001
1.145466e+003, 3.355531e+001
1.145948e+003, 3.342483e+001
1.146431e+003, 3.324973e+001
1.146913e+003, 3.297965e+001
1.147395e+003, 3.272113e+001
1.147877e+003, 3.271404e+001
1.148359e+003, 3.292594e+001
1.148841e+003, 3.305446e+001
1.149323e+003, 3.296186e+001
1.149805e+003, 3.283909e+001
1.150287e+003, 3.273922e+001
1.150770e+003, 3.272873e+001
1.151252e+003, 3.294905e+001
1.151734e+003, 3.320797e+001
1.152216e+003, 3.331212e+001
1.152698e+003, 3.327686e+001
1.153180e+003, 3.318833e+001
1.153662e+003, 3.306474e+001
1.154144e+003, 3.287502e+001
1.154626e+003, 3.238986e+001
1.155109e+003, 3.214764e+001
1.155591e+003, 3.254832e+001
1.156073e+003, 3.300069e+001
1.156555e+003, 3.314782e+001
1.157037e+003, 3.312384e+001
1.157519e+003, 3.308970e+001
1.158001e+003, 3.306670e+001
1.158483e+003, 3.310766e+001
1.158966e+003, 3.333416e+001
1.159448e+003, 3.337444e+001
1.159930e+003, 3.299053e+001
1.160412e+003, 3.271436e+001
1.160894e+003, 3.277529e+001
1.161376e+003, 3.288856e+001
1.161858e+003, 3.282905e+001
1.162340e+003, 3.268288e+001
1.162822e+003, 3.263554e+001
1.163305e+003, 3.269250e+001
1.163787e+003, 3.279953e+001
1.164269e+003, 3.300971e+001
1.164751e+003, 3.310112e+001
1.165233e+003, 3.299874e+001
1.165715e+003, 3.291929e+001
1.166197e+003, 3.299009e+001
1.166679e+003, 3.305647e+001
1.167161e+003, 3.291467e+001
1.167644e+003, 3.263705e+001
1.168126e+003, 3.251797e+001
1.168608e+003, 3.256039e+001
1.169090e+003, 3.271191e+001
1.169572e+003, 3.297649e+001
1.170054e+003, 3.306289e+001
1.170536e+003, 3.288667e+001
1.171018e+003, 3.273829e+001
1.171500e+003, 3.281966e+001
1.171983e+003, 3.302888e+001
1.172465e+003, 3.326222e+001
1.172947e+003, 3.346746e+001
1.173429e+003, 3.343971e+001
1.173911e+003, 3.322914e+001
1.174393e+003, 3.292154e+001
1.174875e+003, 3.260912e+001
1.175357e+003, 3.270637e+001
1.175840e+003, 3.333332e+001
1.176322e+003, 3.394458e+001
1.176804e+003, 3.412949e+001
1.177286e+003, 3.399360e+001
1.177768e+003, 3.344728e+001
1.178250e+003, 3.282640e+001
1.178732e+003, 3.265873e+001
1.179214e+003, 3.278852e+001
1.179697e+003, 3.285375e+001
1.180179e+003, 3.281856e+001
1.180661e+003, 3.288931e+001
1.181143e+003, 3.318162e+001
1.181625e+003, 3.333553e+001
1.182107e+003, 3.298178e+001
1.182589e+003, 3.259817e+001
1.183071e+003, 3.246233e+001
1.183553e+003, 3.247721e+001
1.184036e+003, 3.257214e+001
1.184518e+003, 3.272781e+001
1.185000e+003, 3.297250e+001
1.185482e+003, 3.329625e+001
1.185964e+003, 3.348549e+001
1.186446e+003, 3.344610e+001
1.186928e+003, 3.334550e+001
1.187410e+003, 3.305953e+001
1.187892e+003, 3.290728e+001
1.188375e+003, 3.319424e+001
1.188857e+003, 3.352515e+001
1.189339e+003, 3.352208e+001
1.189821e+003, 3.327956e+001
1.190303e+003, 3.304350e+001
1.190785e+003, 3.277935e+001
1.191267e+003, 3.275288e+001
1.191749e+003, 3.311295e+001
1.192232e+003, 3.325924e+001
1.192714e+003, 3.297952e+001
1.193196e+003, 3.285196e+001
1.193678e+003, 3.323251e+001
1.194160e+003, 3.370194e+001
1.194642e+003, 3.373407e+001
1.195124e+003, 3.344202e+001
1.195606e+003, 3.326686e+001
1.196089e+003, 3.320351e+001
1.196571e+003, 3.310872e+001
1.197053e+003, 3.298163e+001
1.197535e+003, 3.294091e+001
1.198017e+003, 3.301353e+001
1.198499e+003, 3.315000e+001
1.198981e+003, 3.332984e+001
1.199463e+003, 3.340964e+001
1.199945e+003, 3.309247e+001
1.200427e+003, 3.262435e+001
1.200910e+003, 3.249779e+001
1.201392e+003, 3.260508e+001
1.201874e+003, 3.279895e+001
1.202356e+003, 3.298504e+001
1.202838e+003, 3.288536e+001
1.203320e+003, 3.249688e+001
1.203802e+003, 3.235355e+001
1.204284e+003, 3.285712e+001
1.204767e+003, 3.341736e+001
1.205249e+003, 3.364206e+001
1.205731e+003, 3.367860e+001
1.206213e+003, 3.358717e+001
1.206695e+003, 3.342287e+001
1.207177e+003, 3.314750e+001
1.207659e+003, 3.286911e+001
1.208141e+003, 3.289589e+001
1.208624e+003, 3.331528e+001
1.209106e+003, 3.354554e+001
1.209588e+003, 3.323013e+001
1.210070e+003, 3.303845e+001
1.210552e+003, 3.325255e+001
1.211034e+003, 3.345123e+001
1.211516e+003, 3.340109e+001
1.211998e+003, 3.325243e+001
1.212480e+003, 3.311444e+001
1.212963e+003, 3.301119e+001
1.213445e+003, 3.305729e+001
1.213927e+003, 3.331647e+001
1.214409e+003, 3.337924e+001
1.214891e+003, 3.317096e+001
1.215373e+003, 3.307944e+001
1.215855e+003, 3.320837e+001
1.216337e+003, 3.330240e+001
1.216819e+003, 3.322022e+001
1.217302e+003, 3.306880e+001
1.217784e+003, 3.296003e+001
1.218266e+003, 3.291780e+001
1.218748e+003, 3.308675e+001
1.219230e+003, 3.339412e+001
1.219712e+003, 3.345478e+001
1.220194e+003, 3.328542e+001
1.220676e+003, 3.304630e+001
1.221159e+003, 3.280015e+001
1.221641e+003, 3.265316e+001
1.222123e+003, 3.266332e+001
1.222605e+003, 3.275746e+001
1.223087e+003, 3.292199e+001
1.223569e+003, 3.307020e+001
1.224051e+003, 3.307774e+001
1.224533e+003, 3.302702e+001
1.225016e+003, 3.305388e+001
1.225498e+003, 3.309707e+001
1.225980e+003, 3.296969e+001
1.226462e+003, 3.268924e+001
1.226944e+003, 3.254689e+001
1.227426e+003, 3.269017e+001
1.227908e+003, 3.284092e+001
1.228390e+003, 3.295208e+001
1.228872e+003, 3.298755e+001
1.229354e+003, 3.289040e+001
1.229837e+003, 3.275215e+001
1.230319e+003, 3.255365e+001
1.230801e+003, 3.241174e+001
1.231283e+003, 3.260178e+001
1.231765e+003, 3.310517e+001
1.232247e+003, 3.321252e+001
1.232729e+003, 3.266986e+001
1.233211e+003, 3.256350e+001
1.233694e+003, 3.312116e+001
1.234176e+003, 3.343471e+001
1.234658e+003, 3.317334e+001
1.235140e+003, 3.287834e+001
1.235622e+003, 3.295354e+001
1.236104e+003, 3.316886e+001
1.236586e+003, 3.308822e+001
1.237068e+003, 3.283120e+001
1.237551e+003, 3.299154e+001
1.238033e+003, 3.343530e+001
1.238515e+003, 3.352839e+001
1.238997e+003, 3.328298e+001
1.239479e+003, 3.310380e+001
1.239961e+003, 3.309923e+001
1.240443e+003, 3.306972e+001
1.240925e+003, 3.286834e+001
1.241407e+003, 3.271096e+001
1.241890e+003, 3.291894e+001
1.242372e+003, 3.315205e+001
1.242854e+003, 3.297598e+001
1.243336e+003, 3.270628e+001
1.243818e+003, 3.281881e+001
1.244300e+003, 3.313427e+001
1.244782e+003, 3.315551e+001
1.245264e+003, 3.282940e+001
1.245746e+003, 3.263521e+001
1.246229e+003, 3.284122e+001
1.246711e+003, 3.292007e+001
1.247193e+003, 3.251347e+001
1.247675e+003, 3.233730e+001
1.248157e+003, 3.286495e+001
1.248639e+003, 3.342066e+001
1.249121e+003, 3.354096e+001
1.249603e+003, 3.336952e+001
1.250085e+003, 3.312230e+001
1.250568e+003, 3.281503e+001
1.251050e+003, 3.274764e+001
1.251532e+003, 3.295064e+001
1.252014e+003, 3.304373e+001
1.252496e+003, 3.299322e+001
1.252978e+003, 3.300598e+001
1.253460e+003, 3.314334e+001
1.253942e+003, 3.319881e+001
1.254425e+003, 3.302088e+001
1.254907e+003, 3.279195e+001
1.255389e+003, 3.274789e+001
1.255871e+003, 3.284228e+001
1.256353e+003, 3.305981e+001
1.256835e+003, 3.331133e+001
1.257317e+003, 3.345346e+001
1.257799e+003, 3.347045e+001
1.258281e+003, 3.329960e+001
1.258764e+003, 3.299092e+001
1.259246e+003, 3.286473e+001
1.259728e+003, 3.312825e+001
1.260210e+003, 3.331505e+001
1.260692e+003, 3.312768e+001
1.261174e+003, 3.291925e+001
1.261656e+003, 3.282819e+001
1.262138e+003, 3.280910e+001
1.262620e+003, 3.286087e+001
1.263103e+003, 3.293689e+001
1.263585e+003, 3.292888e+001
1.264067e+003, 3.286514e+001
1.264549e+003, 3.301861e+001
1.265031e+003, 3.355949e+001
1.265513e+003, 3.371004e+001
1.265995e+003, 3.337780e+001
1.266477e+003, 3.301074e+001
1.266960e+003, 3.267393e+001
1.267442e+003, 3.258762e+001
1.267924e+003, 3.289875e+001
1.268406e+003, 3.329723e+001
1.268888e+003, 3.342094e+001
1.269370e+003, 3.335563e+001
1.269852e+003, 3.327293e+001
1.270334e+003, 3.317429e+001
1.270817e+003, 3.301269e+001
1.271299e+003, 3.285140e+001
1.271781e+003, 3.290201e+001
1.272263e+003, 3.313182e+001
1.272745e+003, 3.326415e+001
1.273227e+003, 3.319310e+001
1.273709e+003, 3.316501e+001
1.274191e+003, 3.334008e+001
1.274673e+003, 3.357690e+001
1.275156e+003, 3.390511e+001
1.275638e+003, 3.415914e+001
1.276120e+003, 3.415612e+001
1.276602e+003, 3.407814e+001
1.277084e+003, 3.419442e+001
1.277566e+003, 3.440381e+001
1.278048e+003, 3.433730e+001
1.278530e+003, 3.395133e+001
1.279012e+003, 3.368712e+001
1.279495e+003, 3.355827e+001
1.279977e+003, 3.350650e+001
1.280459e+003, 3.354180e+001
1.280941e+003, 3.357098e+001
1.281423e+003, 3.355363e+001
1.281905e+003, 3.359474e+001
1.282387e+003, 3.379159e+001
1.282869e+003, 3.401923e+001
1.283352e+003, 3.403350e+001
1.283834e+003, 3.393239e+001
1.284316e+003, 3.392286e+001
1.284798e+003, 3.400660e+001
##END=



