##NAMES=Ardennite-(As)
##RRUFFID=R060669
##IDEAL CHEMISTRY=Mn^2+^_4_Al_4_(AlMg)(As^5+^O_4_)(SiO_4_)_2_(Si_3_O_10_)(OH)_6_
##LOCALITY=Ardennes, Salm Chateau, Belgium
##OWNER=RRUFF
##SOURCE=Michael Scott
##DESCRIPTION=Yellowish-brown prismatic single crystal associated with white quartz
##STATUS=The identification of this mineral has been confirmed by single-crystal X-ray diffraction.
##URL=rruff.info/R060669
8.936163e+001, 0.000000e+000
8.984375e+001, 2.223563e+002
9.032587e+001, 2.257175e+002
9.080798e+001, 2.264050e+002
9.129010e+001, 2.235230e+002
9.177222e+001, 2.190011e+002
9.225433e+001, 2.149431e+002
9.273645e+001, 2.113100e+002
9.321857e+001, 2.078728e+002
9.370068e+001, 2.045760e+002
9.418280e+001, 2.013661e+002
9.466492e+001, 1.980633e+002
9.514703e+001, 1.940594e+002
9.562915e+001, 1.900285e+002
9.611127e+001, 1.881453e+002
9.659338e+001, 1.887200e+002
9.707550e+001, 1.899559e+002
9.755762e+001, 1.896990e+002
9.803973e+001, 1.879212e+002
9.852185e+001, 1.858736e+002
9.900397e+001, 1.839795e+002
9.948608e+001, 1.822331e+002
9.996820e+001, 1.806746e+002
1.004503e+002, 1.794904e+002
1.009324e+002, 1.782549e+002
1.014146e+002, 1.758547e+002
1.018967e+002, 1.717992e+002
1.023788e+002, 1.679203e+002
1.028609e+002, 1.651727e+002
1.033430e+002, 1.638485e+002
1.038251e+002, 1.628388e+002
1.043073e+002, 1.622774e+002
1.047894e+002, 1.620114e+002
1.052715e+002, 1.612442e+002
1.057536e+002, 1.598489e+002
1.062357e+002, 1.580869e+002
1.067178e+002, 1.560479e+002
1.072000e+002, 1.531378e+002
1.076821e+002, 1.508525e+002
1.081642e+002, 1.496948e+002
1.086463e+002, 1.497908e+002
1.091284e+002, 1.492618e+002
1.096105e+002, 1.476483e+002
1.100927e+002, 1.456047e+002
1.105748e+002, 1.437576e+002
1.110569e+002, 1.421854e+002
1.115390e+002, 1.407454e+002
1.120211e+002, 1.394097e+002
1.125032e+002, 1.381603e+002
1.129854e+002, 1.370779e+002
1.134675e+002, 1.366412e+002
1.139496e+002, 1.362980e+002
1.144317e+002, 1.352378e+002
1.149138e+002, 1.320385e+002
1.153959e+002, 1.290015e+002
1.158781e+002, 1.273007e+002
1.163602e+002, 1.277271e+002
1.168423e+002, 1.281585e+002
1.173244e+002, 1.279358e+002
1.178065e+002, 1.271664e+002
1.182886e+002, 1.261235e+002
1.187708e+002, 1.246562e+002
1.192529e+002, 1.230935e+002
1.197350e+002, 1.217070e+002
1.202171e+002, 1.206020e+002
1.206992e+002, 1.196400e+002
1.211813e+002, 1.188834e+002
1.216635e+002, 1.182705e+002
1.221456e+002, 1.174754e+002
1.226277e+002, 1.160181e+002
1.231098e+002, 1.143206e+002
1.235919e+002, 1.129454e+002
1.240740e+002, 1.123796e+002
1.245562e+002, 1.120474e+002
1.250383e+002, 1.113866e+002
1.255204e+002, 1.103967e+002
1.260025e+002, 1.092081e+002
1.264846e+002, 1.076009e+002
1.269667e+002, 1.058396e+002
1.274489e+002, 1.045861e+002
1.279310e+002, 1.046655e+002
1.284131e+002, 1.053589e+002
1.288952e+002, 1.051418e+002
1.293773e+002, 1.038456e+002
1.298594e+002, 1.022502e+002
1.303416e+002, 1.013903e+002
1.308237e+002, 1.011674e+002
1.313058e+002, 1.008060e+002
1.317879e+002, 9.974661e+001
1.322700e+002, 9.814835e+001
1.327521e+002, 9.672759e+001
1.332343e+002, 9.545945e+001
1.337164e+002, 9.452402e+001
1.341985e+002, 9.446081e+001
1.346806e+002, 9.534738e+001
1.351627e+002, 9.608121e+001
1.356448e+002, 9.582220e+001
1.361270e+002, 9.455517e+001
1.366091e+002, 9.341606e+001
1.370912e+002, 9.259934e+001
1.375733e+002, 9.197910e+001
1.380554e+002, 9.105058e+001
1.385375e+002, 8.974318e+001
1.390197e+002, 8.832311e+001
1.395018e+002, 8.680686e+001
1.399839e+002, 8.501710e+001
1.404660e+002, 8.403354e+001
1.409481e+002, 8.437473e+001
1.414302e+002, 8.588081e+001
1.419124e+002, 8.641108e+001
1.423945e+002, 8.567778e+001
1.428766e+002, 8.437267e+001
1.433587e+002, 8.310915e+001
1.438408e+002, 8.181459e+001
1.443229e+002, 8.073701e+001
1.448051e+002, 7.997696e+001
1.452872e+002, 7.956719e+001
1.457693e+002, 7.917634e+001
1.462514e+002, 7.885407e+001
1.467335e+002, 7.851540e+001
1.472156e+002, 7.801810e+001
1.476978e+002, 7.702573e+001
1.481799e+002, 7.630131e+001
1.486620e+002, 7.615341e+001
1.491441e+002, 7.701573e+001
1.496262e+002, 7.727345e+001
1.501083e+002, 7.655141e+001
1.505905e+002, 7.528467e+001
1.510726e+002, 7.422598e+001
1.515547e+002, 7.339385e+001
1.520368e+002, 7.276229e+001
1.525189e+002, 7.236961e+001
1.530010e+002, 7.256999e+001
1.534832e+002, 7.239212e+001
1.539653e+002, 7.135202e+001
1.544474e+002, 6.986710e+001
1.549295e+002, 6.893934e+001
1.554116e+002, 6.933704e+001
1.558937e+002, 6.985177e+001
1.563759e+002, 6.992616e+001
1.568580e+002, 6.913383e+001
1.573401e+002, 6.836899e+001
1.578222e+002, 6.775700e+001
1.583043e+002, 6.729343e+001
1.587864e+002, 6.696172e+001
1.592686e+002, 6.695988e+001
1.597507e+002, 6.697066e+001
1.602328e+002, 6.678973e+001
1.607149e+002, 6.613738e+001
1.611970e+002, 6.552019e+001
1.616791e+002, 6.510698e+001
1.621613e+002, 6.488207e+001
1.626434e+002, 6.470264e+001
1.631255e+002, 6.453594e+001
1.636076e+002, 6.438214e+001
1.640897e+002, 6.424135e+001
1.645718e+002, 6.412453e+001
1.650540e+002, 6.401170e+001
1.655361e+002, 6.397322e+001
1.660182e+002, 6.399648e+001
1.665003e+002, 6.381541e+001
1.669824e+002, 6.314800e+001
1.674645e+002, 6.222694e+001
1.679467e+002, 6.134983e+001
1.684288e+002, 6.038581e+001
1.689109e+002, 5.966314e+001
1.693930e+002, 5.957408e+001
1.698751e+002, 6.015822e+001
1.703572e+002, 6.069289e+001
1.708394e+002, 6.045565e+001
1.713215e+002, 5.985497e+001
1.718036e+002, 5.958288e+001
1.722857e+002, 6.029586e+001
1.727678e+002, 6.129558e+001
1.732499e+002, 6.180699e+001
1.737321e+002, 6.171967e+001
1.742142e+002, 6.165053e+001
1.746963e+002, 6.214954e+001
1.751784e+002, 6.307319e+001
1.756605e+002, 6.408604e+001
1.761426e+002, 6.494318e+001
1.766248e+002, 6.580454e+001
1.771069e+002, 6.692165e+001
1.775890e+002, 6.836234e+001
1.780711e+002, 6.988644e+001
1.785532e+002, 7.114970e+001
1.790353e+002, 7.225891e+001
1.795175e+002, 7.354616e+001
1.799996e+002, 7.526955e+001
1.804817e+002, 7.729404e+001
1.809638e+002, 7.942300e+001
1.814459e+002, 8.167177e+001
1.819280e+002, 8.393129e+001
1.824102e+002, 8.607043e+001
1.828923e+002, 8.807917e+001
1.833744e+002, 9.015219e+001
1.838565e+002, 9.254860e+001
1.843386e+002, 9.510937e+001
1.848207e+002, 9.724827e+001
1.853029e+002, 9.880595e+001
1.857850e+002, 1.001019e+002
1.862671e+002, 1.018188e+002
1.867492e+002, 1.039189e+002
1.872313e+002, 1.057834e+002
1.877134e+002, 1.067119e+002
1.881956e+002, 1.069453e+002
1.886777e+002, 1.076012e+002
1.891598e+002, 1.089256e+002
1.896419e+002, 1.106977e+002
1.901240e+002, 1.125229e+002
1.906061e+002, 1.144290e+002
1.910883e+002, 1.162891e+002
1.915704e+002, 1.179936e+002
1.920525e+002, 1.195741e+002
1.925346e+002, 1.211833e+002
1.930167e+002, 1.228214e+002
1.934988e+002, 1.244364e+002
1.939810e+002, 1.256550e+002
1.944631e+002, 1.263465e+002
1.949452e+002, 1.271869e+002
1.954273e+002, 1.282748e+002
1.959094e+002, 1.296009e+002
1.963915e+002, 1.308715e+002
1.968737e+002, 1.319811e+002
1.973558e+002, 1.330104e+002
1.978379e+002, 1.343201e+002
1.983200e+002, 1.359543e+002
1.988021e+002, 1.376429e+002
1.992842e+002, 1.391893e+002
1.997664e+002, 1.406157e+002
2.002485e+002, 1.417781e+002
2.007306e+002, 1.425927e+002
2.012127e+002, 1.431341e+002
2.016948e+002, 1.438482e+002
2.021769e+002, 1.447946e+002
2.026591e+002, 1.457425e+002
2.031412e+002, 1.464841e+002
2.036233e+002, 1.470260e+002
2.041054e+002, 1.473636e+002
2.045875e+002, 1.473420e+002
2.050696e+002, 1.470533e+002
2.055518e+002, 1.474329e+002
2.060339e+002, 1.486256e+002
2.065160e+002, 1.501316e+002
2.069981e+002, 1.515799e+002
2.074802e+002, 1.530685e+002
2.079623e+002, 1.539627e+002
2.084445e+002, 1.538327e+002
2.089266e+002, 1.527523e+002
2.094087e+002, 1.527003e+002
2.098908e+002, 1.539743e+002
2.103729e+002, 1.557035e+002
2.108550e+002, 1.569484e+002
2.113372e+002, 1.575821e+002
2.118193e+002, 1.581649e+002
2.123014e+002, 1.589207e+002
2.127835e+002, 1.598470e+002
2.132656e+002, 1.601692e+002
2.137477e+002, 1.595939e+002
2.142299e+002, 1.588308e+002
2.147120e+002, 1.587255e+002
2.151941e+002, 1.594185e+002
2.156762e+002, 1.603674e+002
2.161583e+002, 1.615669e+002
2.166404e+002, 1.630429e+002
2.171226e+002, 1.640578e+002
2.176047e+002, 1.644986e+002
2.180868e+002, 1.646175e+002
2.185689e+002, 1.646792e+002
2.190510e+002, 1.645982e+002
2.195331e+002, 1.646606e+002
2.200153e+002, 1.649193e+002
2.204974e+002, 1.653720e+002
2.209795e+002, 1.661307e+002
2.214616e+002, 1.674444e+002
2.219437e+002, 1.688171e+002
2.224258e+002, 1.696292e+002
2.229080e+002, 1.696923e+002
2.233901e+002, 1.695934e+002
2.238722e+002, 1.694592e+002
2.243543e+002, 1.692827e+002
2.248364e+002, 1.690856e+002
2.253185e+002, 1.687203e+002
2.258007e+002, 1.684660e+002
2.262828e+002, 1.687532e+002
2.267649e+002, 1.699511e+002
2.272470e+002, 1.709438e+002
2.277291e+002, 1.713740e+002
2.282112e+002, 1.711671e+002
2.286934e+002, 1.709951e+002
2.291755e+002, 1.708169e+002
2.296576e+002, 1.707052e+002
2.301397e+002, 1.707979e+002
2.306218e+002, 1.713079e+002
2.311039e+002, 1.716303e+002
2.315861e+002, 1.715427e+002
2.320682e+002, 1.709556e+002
2.325503e+002, 1.706143e+002
2.330324e+002, 1.706108e+002
2.335145e+002, 1.707815e+002
2.339966e+002, 1.709402e+002
2.344788e+002, 1.711370e+002
2.349609e+002, 1.712274e+002
2.354430e+002, 1.710636e+002
2.359251e+002, 1.705303e+002
2.364072e+002, 1.705996e+002
2.368893e+002, 1.716028e+002
2.373715e+002, 1.729319e+002
2.378536e+002, 1.738345e+002
2.383357e+002, 1.741831e+002
2.388178e+002, 1.743341e+002
2.392999e+002, 1.743369e+002
2.397820e+002, 1.741656e+002
2.402642e+002, 1.740076e+002
2.407463e+002, 1.737967e+002
2.412284e+002, 1.736467e+002
2.417105e+002, 1.737102e+002
2.421926e+002, 1.740802e+002
2.426747e+002, 1.744890e+002
2.431569e+002, 1.749070e+002
2.436390e+002, 1.753572e+002
2.441211e+002, 1.756234e+002
2.446032e+002, 1.756945e+002
2.450853e+002, 1.755957e+002
2.455674e+002, 1.753219e+002
2.460496e+002, 1.747085e+002
2.465317e+002, 1.742270e+002
2.470138e+002, 1.739816e+002
2.474959e+002, 1.739835e+002
2.479780e+002, 1.741357e+002
2.484601e+002, 1.745295e+002
2.489423e+002, 1.749915e+002
2.494244e+002, 1.753669e+002
2.499065e+002, 1.757736e+002
2.503886e+002, 1.758561e+002
2.508707e+002, 1.753837e+002
2.513528e+002, 1.743164e+002
2.518350e+002, 1.737626e+002
2.523171e+002, 1.739384e+002
2.527992e+002, 1.743956e+002
2.532813e+002, 1.747006e+002
2.537634e+002, 1.748352e+002
2.542455e+002, 1.748352e+002
2.547277e+002, 1.746299e+002
2.552098e+002, 1.742090e+002
2.556919e+002, 1.740589e+002
2.561740e+002, 1.742708e+002
2.566561e+002, 1.746316e+002
2.571382e+002, 1.749274e+002
2.576204e+002, 1.750917e+002
2.581025e+002, 1.753642e+002
2.585846e+002, 1.758620e+002
2.590667e+002, 1.765649e+002
2.595488e+002, 1.769696e+002
2.600309e+002, 1.769812e+002
2.605131e+002, 1.768262e+002
2.609952e+002, 1.766801e+002
2.614773e+002, 1.765206e+002
2.619594e+002, 1.764374e+002
2.624415e+002, 1.764580e+002
2.629236e+002, 1.765766e+002
2.634058e+002, 1.767202e+002
2.638879e+002, 1.768958e+002
2.643700e+002, 1.770916e+002
2.648521e+002, 1.773184e+002
2.653342e+002, 1.776041e+002
2.658163e+002, 1.778307e+002
2.662985e+002, 1.780098e+002
2.667806e+002, 1.781182e+002
2.672627e+002, 1.779715e+002
2.677448e+002, 1.774504e+002
2.682269e+002, 1.769227e+002
2.687090e+002, 1.766574e+002
2.691912e+002, 1.766897e+002
2.696733e+002, 1.768203e+002
2.701554e+002, 1.770381e+002
2.706375e+002, 1.773311e+002
2.711196e+002, 1.776440e+002
2.716017e+002, 1.779655e+002
2.720839e+002, 1.783320e+002
2.725660e+002, 1.788294e+002
2.730481e+002, 1.795227e+002
2.735302e+002, 1.799321e+002
2.740123e+002, 1.799792e+002
2.744944e+002, 1.797407e+002
2.749766e+002, 1.793998e+002
2.754587e+002, 1.789286e+002
2.759408e+002, 1.784745e+002
2.764229e+002, 1.780935e+002
2.769050e+002, 1.777711e+002
2.773871e+002, 1.777277e+002
2.778693e+002, 1.780886e+002
2.783514e+002, 1.786138e+002
2.788335e+002, 1.787021e+002
2.793156e+002, 1.782772e+002
2.797977e+002, 1.778766e+002
2.802798e+002, 1.778076e+002
2.807620e+002, 1.780715e+002
2.812441e+002, 1.783765e+002
2.817262e+002, 1.787190e+002
2.822083e+002, 1.790747e+002
2.826904e+002, 1.794173e+002
2.831725e+002, 1.797489e+002
2.836547e+002, 1.800187e+002
2.841368e+002, 1.801150e+002
2.846189e+002, 1.800683e+002
2.851010e+002, 1.803252e+002
2.855831e+002, 1.809738e+002
2.860652e+002, 1.817032e+002
2.865474e+002, 1.820330e+002
2.870295e+002, 1.819702e+002
2.875116e+002, 1.818562e+002
2.879937e+002, 1.817247e+002
2.884758e+002, 1.816308e+002
2.889579e+002, 1.820301e+002
2.894401e+002, 1.830287e+002
2.899222e+002, 1.839992e+002
2.904043e+002, 1.840379e+002
2.908864e+002, 1.832562e+002
2.913685e+002, 1.825417e+002
2.918506e+002, 1.822167e+002
2.923328e+002, 1.822117e+002
2.928149e+002, 1.823923e+002
2.932970e+002, 1.827714e+002
2.937791e+002, 1.831810e+002
2.942612e+002, 1.835064e+002
2.947433e+002, 1.837320e+002
2.952255e+002, 1.837654e+002
2.957076e+002, 1.834113e+002
2.961897e+002, 1.829381e+002
2.966718e+002, 1.829375e+002
2.971539e+002, 1.833984e+002
2.976360e+002, 1.839473e+002
2.981182e+002, 1.842779e+002
2.986003e+002, 1.844493e+002
2.990824e+002, 1.846036e+002
2.995645e+002, 1.847182e+002
3.000466e+002, 1.849014e+002
3.005287e+002, 1.854373e+002
3.010109e+002, 1.862627e+002
3.014930e+002, 1.869456e+002
3.019751e+002, 1.869955e+002
3.024572e+002, 1.867209e+002
3.029393e+002, 1.866889e+002
3.034214e+002, 1.871723e+002
3.039036e+002, 1.876574e+002
3.043857e+002, 1.874230e+002
3.048678e+002, 1.866648e+002
3.053499e+002, 1.860923e+002
3.058320e+002, 1.861423e+002
3.063141e+002, 1.866262e+002
3.067963e+002, 1.874122e+002
3.072784e+002, 1.886242e+002
3.077605e+002, 1.897264e+002
3.082426e+002, 1.901041e+002
3.087247e+002, 1.900128e+002
3.092068e+002, 1.900662e+002
3.096890e+002, 1.907267e+002
3.101711e+002, 1.915779e+002
3.106532e+002, 1.922796e+002
3.111353e+002, 1.927884e+002
3.116174e+002, 1.931454e+002
3.120995e+002, 1.933150e+002
3.125817e+002, 1.933489e+002
3.130638e+002, 1.933352e+002
3.135459e+002, 1.933797e+002
3.140280e+002, 1.933352e+002
3.145101e+002, 1.930396e+002
3.149922e+002, 1.924653e+002
3.154744e+002, 1.919942e+002
3.159565e+002, 1.920220e+002
3.164386e+002, 1.921891e+002
3.169207e+002, 1.920864e+002
3.174028e+002, 1.915021e+002
3.178849e+002, 1.907086e+002
3.183671e+002, 1.896501e+002
3.188492e+002, 1.883523e+002
3.193313e+002, 1.873734e+002
3.198134e+002, 1.871018e+002
3.202955e+002, 1.871164e+002
3.207776e+002, 1.870831e+002
3.212598e+002, 1.867983e+002
3.217419e+002, 1.865908e+002
3.222240e+002, 1.866272e+002
3.227061e+002, 1.868403e+002
3.231882e+002, 1.868874e+002
3.236703e+002, 1.864296e+002
3.241525e+002, 1.859715e+002
3.246346e+002, 1.857965e+002
3.251167e+002, 1.861261e+002
3.255988e+002, 1.864727e+002
3.260809e+002, 1.868704e+002
3.265630e+002, 1.872639e+002
3.270452e+002, 1.875013e+002
3.275273e+002, 1.873090e+002
3.280094e+002, 1.871885e+002
3.284915e+002, 1.873548e+002
3.289736e+002, 1.880565e+002
3.294557e+002, 1.884878e+002
3.299379e+002, 1.884986e+002
3.304200e+002, 1.882859e+002
3.309021e+002, 1.881514e+002
3.313842e+002, 1.879990e+002
3.318663e+002, 1.880472e+002
3.323484e+002, 1.884041e+002
3.328306e+002, 1.891187e+002
3.333127e+002, 1.897672e+002
3.337948e+002, 1.903539e+002
3.342769e+002, 1.908702e+002
3.347590e+002, 1.912588e+002
3.352411e+002, 1.913617e+002
3.357233e+002, 1.917180e+002
3.362054e+002, 1.925504e+002
3.366875e+002, 1.938193e+002
3.371696e+002, 1.946983e+002
3.376517e+002, 1.950647e+002
3.381339e+002, 1.952831e+002
3.386160e+002, 1.955943e+002
3.390981e+002, 1.959715e+002
3.395802e+002, 1.965897e+002
3.400623e+002, 1.974800e+002
3.405444e+002, 1.986275e+002
3.410266e+002, 2.000105e+002
3.415087e+002, 2.017198e+002
3.419908e+002, 2.033045e+002
3.424729e+002, 2.044634e+002
3.429550e+002, 2.051860e+002
3.434371e+002, 2.058289e+002
3.439193e+002, 2.063832e+002
3.444014e+002, 2.069194e+002
3.448835e+002, 2.075341e+002
3.453656e+002, 2.082276e+002
3.458477e+002, 2.090215e+002
3.463298e+002, 2.100075e+002
3.468120e+002, 2.111291e+002
3.472941e+002, 2.120924e+002
3.477762e+002, 2.128967e+002
3.482583e+002, 2.135767e+002
3.487404e+002, 2.140018e+002
3.492225e+002, 2.142848e+002
3.497047e+002, 2.149221e+002
3.501868e+002, 2.165826e+002
3.506689e+002, 2.184982e+002
3.511510e+002, 2.191722e+002
3.516331e+002, 2.186176e+002
3.521152e+002, 2.177998e+002
3.525974e+002, 2.175139e+002
3.530795e+002, 2.175317e+002
3.535616e+002, 2.174395e+002
3.540437e+002, 2.171384e+002
3.545258e+002, 2.166631e+002
3.550079e+002, 2.160145e+002
3.554901e+002, 2.152085e+002
3.559722e+002, 2.143067e+002
3.564543e+002, 2.131595e+002
3.569364e+002, 2.120282e+002
3.574185e+002, 2.112045e+002
3.579006e+002, 2.108385e+002
3.583828e+002, 2.105249e+002
3.588649e+002, 2.100783e+002
3.593470e+002, 2.094969e+002
3.598291e+002, 2.087742e+002
3.603112e+002, 2.076899e+002
3.607933e+002, 2.066265e+002
3.612755e+002, 2.057710e+002
3.617576e+002, 2.051372e+002
3.622397e+002, 2.047355e+002
3.627218e+002, 2.047761e+002
3.632039e+002, 2.049753e+002
3.636860e+002, 2.050169e+002
3.641682e+002, 2.048255e+002
3.646503e+002, 2.044538e+002
3.651324e+002, 2.038167e+002
3.656145e+002, 2.029285e+002
3.660966e+002, 2.022036e+002
3.665787e+002, 2.018060e+002
3.670609e+002, 2.015340e+002
3.675430e+002, 2.012585e+002
3.680251e+002, 2.010857e+002
3.685072e+002, 2.007688e+002
3.689893e+002, 2.002766e+002
3.694714e+002, 1.996306e+002
3.699536e+002, 1.988836e+002
3.704357e+002, 1.976741e+002
3.709178e+002, 1.967472e+002
3.713999e+002, 1.964994e+002
3.718820e+002, 1.974129e+002
3.723641e+002, 1.977211e+002
3.728463e+002, 1.970957e+002
3.733284e+002, 1.960780e+002
3.738105e+002, 1.954955e+002
3.742926e+002, 1.954556e+002
3.747747e+002, 1.956165e+002
3.752568e+002, 1.959448e+002
3.757390e+002, 1.964436e+002
3.762211e+002, 1.967761e+002
3.767032e+002, 1.969238e+002
3.771853e+002, 1.969445e+002
3.776674e+002, 1.968636e+002
3.781495e+002, 1.966643e+002
3.786317e+002, 1.964875e+002
3.791138e+002, 1.963073e+002
3.795959e+002, 1.961980e+002
3.800780e+002, 1.964958e+002
3.805601e+002, 1.972438e+002
3.810422e+002, 1.979172e+002
3.815244e+002, 1.980849e+002
3.820065e+002, 1.978396e+002
3.824886e+002, 1.976606e+002
3.829707e+002, 1.975855e+002
3.834528e+002, 1.976236e+002
3.839349e+002, 1.978402e+002
3.844171e+002, 1.982073e+002
3.848992e+002, 1.985609e+002
3.853813e+002, 1.988729e+002
3.858634e+002, 1.991092e+002
3.863455e+002, 1.991404e+002
3.868276e+002, 1.989498e+002
3.873098e+002, 1.988381e+002
3.877919e+002, 1.990901e+002
3.882740e+002, 1.995968e+002
3.887561e+002, 2.001625e+002
3.892382e+002, 2.007467e+002
3.897203e+002, 2.013395e+002
3.902025e+002, 2.019765e+002
3.906846e+002, 2.026252e+002
3.911667e+002, 2.031538e+002
3.916488e+002, 2.034629e+002
3.921309e+002, 2.036251e+002
3.926130e+002, 2.036542e+002
3.930952e+002, 2.034080e+002
3.935773e+002, 2.033560e+002
3.940594e+002, 2.039488e+002
3.945415e+002, 2.048523e+002
3.950236e+002, 2.054461e+002
3.955057e+002, 2.054596e+002
3.959879e+002, 2.052049e+002
3.964700e+002, 2.047531e+002
3.969521e+002, 2.040810e+002
3.974342e+002, 2.034227e+002
3.979163e+002, 2.027659e+002
3.983984e+002, 2.021641e+002
3.988806e+002, 2.016657e+002
3.993627e+002, 2.015323e+002
3.998448e+002, 2.012017e+002
4.003269e+002, 2.004571e+002
4.008090e+002, 1.993837e+002
4.012911e+002, 1.986819e+002
4.017733e+002, 1.987129e+002
4.022554e+002, 1.986812e+002
4.027375e+002, 1.980499e+002
4.032196e+002, 1.961899e+002
4.037017e+002, 1.954028e+002
4.041838e+002, 1.961896e+002
4.046660e+002, 1.977004e+002
4.051481e+002, 1.981934e+002
4.056302e+002, 1.973497e+002
4.061123e+002, 1.966902e+002
4.065944e+002, 1.969025e+002
4.070765e+002, 1.979256e+002
4.075587e+002, 1.983583e+002
4.080408e+002, 1.981126e+002
4.085229e+002, 1.976232e+002
4.090050e+002, 1.972345e+002
4.094871e+002, 1.969567e+002
4.099692e+002, 1.969540e+002
4.104514e+002, 1.973679e+002
4.109335e+002, 1.979525e+002
4.114156e+002, 1.981789e+002
4.118977e+002, 1.980687e+002
4.123798e+002, 1.979058e+002
4.128619e+002, 1.979995e+002
4.133441e+002, 1.981533e+002
4.138262e+002, 1.979058e+002
4.143083e+002, 1.971323e+002
4.147904e+002, 1.963275e+002
4.152725e+002, 1.959239e+002
4.157546e+002, 1.958450e+002
4.162368e+002, 1.959223e+002
4.167189e+002, 1.963518e+002
4.172010e+002, 1.967172e+002
4.176831e+002, 1.966116e+002
4.181652e+002, 1.960572e+002
4.186473e+002, 1.954990e+002
4.191295e+002, 1.952137e+002
4.196116e+002, 1.950180e+002
4.200937e+002, 1.947388e+002
4.205758e+002, 1.941421e+002
4.210579e+002, 1.937306e+002
4.215400e+002, 1.938849e+002
4.220222e+002, 1.943489e+002
4.225043e+002, 1.944937e+002
4.229864e+002, 1.937453e+002
4.234685e+002, 1.930311e+002
4.239506e+002, 1.926966e+002
4.244327e+002, 1.928330e+002
4.249149e+002, 1.931403e+002
4.253970e+002, 1.938928e+002
4.258791e+002, 1.946522e+002
4.263612e+002, 1.949554e+002
4.268433e+002, 1.943355e+002
4.273254e+002, 1.940152e+002
4.278076e+002, 1.943466e+002
4.282897e+002, 1.951867e+002
4.287718e+002, 1.954486e+002
4.292539e+002, 1.948785e+002
4.297360e+002, 1.942334e+002
4.302181e+002, 1.940247e+002
4.307003e+002, 1.943493e+002
4.311824e+002, 1.944077e+002
4.316645e+002, 1.940657e+002
4.321466e+002, 1.936196e+002
4.326287e+002, 1.936473e+002
4.331108e+002, 1.941606e+002
4.335930e+002, 1.946008e+002
4.340751e+002, 1.947022e+002
4.345572e+002, 1.945785e+002
4.350393e+002, 1.945899e+002
4.355214e+002, 1.947392e+002
4.360035e+002, 1.949746e+002
4.364857e+002, 1.952725e+002
4.369678e+002, 1.956200e+002
4.374499e+002, 1.959917e+002
4.379320e+002, 1.963813e+002
4.384141e+002, 1.967924e+002
4.388962e+002, 1.972267e+002
4.393784e+002, 1.976832e+002
4.398605e+002, 1.981621e+002
4.403426e+002, 1.986085e+002
4.408247e+002, 1.991084e+002
4.413068e+002, 1.998572e+002
4.417889e+002, 2.009042e+002
4.422711e+002, 2.016644e+002
4.427532e+002, 2.014315e+002
4.432353e+002, 2.009244e+002
4.437174e+002, 2.008900e+002
4.441995e+002, 2.021813e+002
4.446816e+002, 2.032929e+002
4.451638e+002, 2.036062e+002
4.456459e+002, 2.033210e+002
4.461280e+002, 2.033803e+002
4.466101e+002, 2.042250e+002
4.470922e+002, 2.051907e+002
4.475743e+002, 2.060070e+002
4.480565e+002, 2.066315e+002
4.485386e+002, 2.071894e+002
4.490207e+002, 2.077014e+002
4.495028e+002, 2.081308e+002
4.499849e+002, 2.084080e+002
4.504670e+002, 2.084711e+002
4.509492e+002, 2.085121e+002
4.514313e+002, 2.084788e+002
4.519134e+002, 2.084354e+002
4.523955e+002, 2.089427e+002
4.528776e+002, 2.101294e+002
4.533597e+002, 2.113945e+002
4.538419e+002, 2.123473e+002
4.543240e+002, 2.129857e+002
4.548061e+002, 2.134638e+002
4.552882e+002, 2.137439e+002
4.557703e+002, 2.139868e+002
4.562524e+002, 2.144584e+002
4.567346e+002, 2.151314e+002
4.572167e+002, 2.157869e+002
4.576988e+002, 2.165868e+002
4.581809e+002, 2.172079e+002
4.586630e+002, 2.168341e+002
4.591451e+002, 2.155340e+002
4.596273e+002, 2.143833e+002
4.601094e+002, 2.146336e+002
4.605915e+002, 2.153763e+002
4.610736e+002, 2.153860e+002
4.615557e+002, 2.141595e+002
4.620378e+002, 2.126772e+002
4.625200e+002, 2.115296e+002
4.630021e+002, 2.105811e+002
4.634842e+002, 2.095903e+002
4.639663e+002, 2.084320e+002
4.644484e+002, 2.072351e+002
4.649305e+002, 2.060276e+002
4.654127e+002, 2.048019e+002
4.658948e+002, 2.037676e+002
4.663769e+002, 2.031649e+002
4.668590e+002, 2.026616e+002
4.673411e+002, 2.020198e+002
4.678232e+002, 2.009666e+002
4.683054e+002, 2.001105e+002
4.687875e+002, 1.996223e+002
4.692696e+002, 1.993225e+002
4.697517e+002, 1.987234e+002
4.702338e+002, 1.975846e+002
4.707159e+002, 1.966045e+002
4.711981e+002, 1.961278e+002
4.716802e+002, 1.961879e+002
4.721623e+002, 1.958030e+002
4.726444e+002, 1.948674e+002
4.731265e+002, 1.937887e+002
4.736086e+002, 1.929583e+002
4.740908e+002, 1.923731e+002
4.745729e+002, 1.918925e+002
4.750550e+002, 1.914995e+002
4.755371e+002, 1.911819e+002
4.760192e+002, 1.910172e+002
4.765013e+002, 1.909632e+002
4.769835e+002, 1.907150e+002
4.774656e+002, 1.899978e+002
4.779477e+002, 1.890121e+002
4.784298e+002, 1.879823e+002
4.789119e+002, 1.869110e+002
4.793940e+002, 1.860839e+002
4.798762e+002, 1.859128e+002
4.803583e+002, 1.860631e+002
4.808404e+002, 1.860855e+002
4.813225e+002, 1.857441e+002
4.818046e+002, 1.853957e+002
4.822867e+002, 1.852424e+002
4.827689e+002, 1.852291e+002
4.832510e+002, 1.852104e+002
4.837331e+002, 1.852586e+002
4.842152e+002, 1.851948e+002
4.846973e+002, 1.848680e+002
4.851794e+002, 1.841730e+002
4.856616e+002, 1.837163e+002
4.861437e+002, 1.837953e+002
4.866258e+002, 1.839844e+002
4.871079e+002, 1.839397e+002
4.875900e+002, 1.833889e+002
4.880721e+002, 1.830889e+002
4.885543e+002, 1.831895e+002
4.890364e+002, 1.835527e+002
4.895185e+002, 1.837530e+002
4.900006e+002, 1.836934e+002
4.904827e+002, 1.837695e+002
4.909648e+002, 1.843070e+002
4.914470e+002, 1.852593e+002
4.919291e+002, 1.855284e+002
4.924112e+002, 1.850093e+002
4.928933e+002, 1.843021e+002
4.933754e+002, 1.839621e+002
4.938575e+002, 1.839480e+002
4.943397e+002, 1.841297e+002
4.948218e+002, 1.845735e+002
4.953039e+002, 1.850244e+002
4.957860e+002, 1.850448e+002
4.962681e+002, 1.847501e+002
4.967502e+002, 1.845301e+002
4.972324e+002, 1.845069e+002
4.977145e+002, 1.847087e+002
4.981966e+002, 1.853187e+002
4.986787e+002, 1.863485e+002
4.991608e+002, 1.871201e+002
4.996429e+002, 1.871289e+002
5.001251e+002, 1.867977e+002
5.006072e+002, 1.864775e+002
5.010893e+002, 1.859226e+002
5.015714e+002, 1.858364e+002
5.020535e+002, 1.868109e+002
5.025356e+002, 1.883421e+002
5.030178e+002, 1.892838e+002
5.034999e+002, 1.890324e+002
5.039820e+002, 1.887586e+002
5.044641e+002, 1.887742e+002
5.049462e+002, 1.890958e+002
5.054283e+002, 1.892858e+002
5.059105e+002, 1.892603e+002
5.063926e+002, 1.892387e+002
5.068747e+002, 1.893996e+002
5.073568e+002, 1.897700e+002
5.078389e+002, 1.901738e+002
5.083210e+002, 1.906375e+002
5.088032e+002, 1.910453e+002
5.092853e+002, 1.911249e+002
5.097674e+002, 1.908960e+002
5.102495e+002, 1.906981e+002
5.107316e+002, 1.906140e+002
5.112137e+002, 1.906731e+002
5.116959e+002, 1.910519e+002
5.121780e+002, 1.917150e+002
5.126601e+002, 1.922700e+002
5.131422e+002, 1.923201e+002
5.136243e+002, 1.921330e+002
5.141064e+002, 1.920636e+002
5.145886e+002, 1.922085e+002
5.150707e+002, 1.923481e+002
5.155528e+002, 1.923913e+002
5.160349e+002, 1.923355e+002
5.165170e+002, 1.921771e+002
5.169991e+002, 1.915486e+002
5.174813e+002, 1.911948e+002
5.179634e+002, 1.916054e+002
5.184455e+002, 1.926547e+002
5.189276e+002, 1.932787e+002
5.194097e+002, 1.928061e+002
5.198918e+002, 1.923653e+002
5.203740e+002, 1.924854e+002
5.208561e+002, 1.935026e+002
5.213382e+002, 1.939371e+002
5.218203e+002, 1.935300e+002
5.223024e+002, 1.928325e+002
5.227845e+002, 1.924543e+002
5.232667e+002, 1.924234e+002
5.237488e+002, 1.925643e+002
5.242309e+002, 1.929200e+002
5.247130e+002, 1.933504e+002
5.251951e+002, 1.934524e+002
5.256772e+002, 1.932336e+002
5.261594e+002, 1.930388e+002
5.266415e+002, 1.932029e+002
5.271236e+002, 1.935071e+002
5.276057e+002, 1.933743e+002
5.280878e+002, 1.927838e+002
5.285699e+002, 1.922087e+002
5.290521e+002, 1.920263e+002
5.295342e+002, 1.921072e+002
5.300163e+002, 1.922884e+002
5.304984e+002, 1.925330e+002
5.309805e+002, 1.928607e+002
5.314626e+002, 1.934922e+002
5.319448e+002, 1.941930e+002
5.324269e+002, 1.945075e+002
5.329090e+002, 1.935809e+002
5.333911e+002, 1.929497e+002
5.338732e+002, 1.934136e+002
5.343553e+002, 1.950421e+002
5.348375e+002, 1.959018e+002
5.353196e+002, 1.953497e+002
5.358017e+002, 1.946053e+002
5.362838e+002, 1.943687e+002
5.367659e+002, 1.949194e+002
5.372480e+002, 1.951399e+002
5.377302e+002, 1.948727e+002
5.382123e+002, 1.944744e+002
5.386944e+002, 1.945241e+002
5.391765e+002, 1.950587e+002
5.396586e+002, 1.955511e+002
5.401407e+002, 1.959022e+002
5.406229e+002, 1.960849e+002
5.411050e+002, 1.960204e+002
5.415871e+002, 1.957145e+002
5.420692e+002, 1.951980e+002
5.425513e+002, 1.942003e+002
5.430334e+002, 1.931123e+002
5.435156e+002, 1.925594e+002
5.439977e+002, 1.925930e+002
5.444798e+002, 1.928671e+002
5.449619e+002, 1.932778e+002
5.454440e+002, 1.937410e+002
5.459261e+002, 1.941604e+002
5.464083e+002, 1.944543e+002
5.468904e+002, 1.947742e+002
5.473725e+002, 1.952140e+002
5.478546e+002, 1.957033e+002
5.483367e+002, 1.961052e+002
5.488188e+002, 1.961984e+002
5.493010e+002, 1.964056e+002
5.497831e+002, 1.967911e+002
5.502652e+002, 1.973544e+002
5.507473e+002, 1.982337e+002
5.512294e+002, 1.996622e+002
5.517115e+002, 2.010150e+002
5.521937e+002, 2.017654e+002
5.526758e+002, 2.017911e+002
5.531579e+002, 2.025163e+002
5.536400e+002, 2.041756e+002
5.541221e+002, 2.060657e+002
5.546042e+002, 2.072027e+002
5.550864e+002, 2.076927e+002
5.555685e+002, 2.081814e+002
5.560506e+002, 2.088308e+002
5.565327e+002, 2.096029e+002
5.570148e+002, 2.104714e+002
5.574969e+002, 2.114193e+002
5.579791e+002, 2.123922e+002
5.584612e+002, 2.137197e+002
5.589433e+002, 2.147984e+002
5.594254e+002, 2.149794e+002
5.599075e+002, 2.142101e+002
5.603896e+002, 2.134039e+002
5.608718e+002, 2.131796e+002
5.613539e+002, 2.129179e+002
5.618360e+002, 2.121613e+002
5.623181e+002, 2.106750e+002
5.628002e+002, 2.089313e+002
5.632823e+002, 2.068574e+002
5.637645e+002, 2.046048e+002
5.642466e+002, 2.023675e+002
5.647287e+002, 2.000554e+002
5.652108e+002, 1.980239e+002
5.656929e+002, 1.963850e+002
5.661750e+002, 1.950939e+002
5.666572e+002, 1.938798e+002
5.671393e+002, 1.927400e+002
5.676214e+002, 1.917355e+002
5.681035e+002, 1.909445e+002
5.685856e+002, 1.903191e+002
5.690677e+002, 1.895851e+002
5.695499e+002, 1.887206e+002
5.700320e+002, 1.880196e+002
5.705141e+002, 1.880269e+002
5.709962e+002, 1.883236e+002
5.714783e+002, 1.881770e+002
5.719604e+002, 1.871796e+002
5.724426e+002, 1.861765e+002
5.729247e+002, 1.857220e+002
5.734068e+002, 1.856335e+002
5.738889e+002, 1.855735e+002
5.743710e+002, 1.856691e+002
5.748531e+002, 1.855449e+002
5.753353e+002, 1.848383e+002
5.758174e+002, 1.836306e+002
5.762995e+002, 1.830306e+002
5.767816e+002, 1.835358e+002
5.772637e+002, 1.840960e+002
5.777458e+002, 1.841795e+002
5.782280e+002, 1.836031e+002
5.787101e+002, 1.836178e+002
5.791922e+002, 1.844558e+002
5.796743e+002, 1.853735e+002
5.801564e+002, 1.854686e+002
5.806385e+002, 1.847944e+002
5.811207e+002, 1.843481e+002
5.816028e+002, 1.843559e+002
5.820849e+002, 1.845464e+002
5.825670e+002, 1.844778e+002
5.830491e+002, 1.842395e+002
5.835313e+002, 1.841201e+002
5.840134e+002, 1.843336e+002
5.844955e+002, 1.846728e+002
5.849776e+002, 1.849784e+002
5.854597e+002, 1.852501e+002
5.859418e+002, 1.854952e+002
5.864240e+002, 1.857315e+002
5.869061e+002, 1.859291e+002
5.873882e+002, 1.860412e+002
5.878703e+002, 1.860045e+002
5.883524e+002, 1.861081e+002
5.888345e+002, 1.865384e+002
5.893167e+002, 1.870217e+002
5.897988e+002, 1.873314e+002
5.902809e+002, 1.873372e+002
5.907630e+002, 1.874671e+002
5.912451e+002, 1.877580e+002
5.917272e+002, 1.881824e+002
5.922094e+002, 1.887614e+002
5.926915e+002, 1.895104e+002
5.931736e+002, 1.900969e+002
5.936557e+002, 1.903858e+002
5.941378e+002, 1.904542e+002
5.946199e+002, 1.904425e+002
5.951021e+002, 1.903600e+002
5.955842e+002, 1.902780e+002
5.960663e+002, 1.902402e+002
5.965484e+002, 1.902303e+002
5.970305e+002, 1.902229e+002
5.975126e+002, 1.902148e+002
5.979948e+002, 1.902411e+002
5.984769e+002, 1.904600e+002
5.989590e+002, 1.906438e+002
5.994411e+002, 1.905785e+002
5.999232e+002, 1.899739e+002
6.004053e+002, 1.895303e+002
6.008875e+002, 1.895054e+002
6.013696e+002, 1.896477e+002
6.018517e+002, 1.895979e+002
6.023338e+002, 1.892162e+002
6.028159e+002, 1.889321e+002
6.032980e+002, 1.888806e+002
6.037802e+002, 1.889648e+002
6.042623e+002, 1.888186e+002
6.047444e+002, 1.884255e+002
6.052265e+002, 1.879458e+002
6.057086e+002, 1.873050e+002
6.061907e+002, 1.866395e+002
6.066729e+002, 1.865196e+002
6.071550e+002, 1.869332e+002
6.076371e+002, 1.873781e+002
6.081192e+002, 1.874626e+002
6.086013e+002, 1.873304e+002
6.090834e+002, 1.871418e+002
6.095656e+002, 1.869003e+002
6.100477e+002, 1.867016e+002
6.105298e+002, 1.865534e+002
6.110119e+002, 1.864977e+002
6.114940e+002, 1.865814e+002
6.119761e+002, 1.871094e+002
6.124583e+002, 1.874337e+002
6.129404e+002, 1.872751e+002
6.134225e+002, 1.868845e+002
6.139046e+002, 1.868411e+002
6.143867e+002, 1.873690e+002
6.148688e+002, 1.877769e+002
6.153510e+002, 1.878260e+002
6.158331e+002, 1.875823e+002
6.163152e+002, 1.874601e+002
6.167973e+002, 1.874614e+002
6.172794e+002, 1.875291e+002
6.177615e+002, 1.876751e+002
6.182437e+002, 1.878481e+002
6.187258e+002, 1.878848e+002
6.192079e+002, 1.877679e+002
6.196900e+002, 1.876553e+002
6.201721e+002, 1.875614e+002
6.206542e+002, 1.875948e+002
6.211364e+002, 1.879253e+002
6.216185e+002, 1.887260e+002
6.221006e+002, 1.895320e+002
6.225827e+002, 1.904070e+002
6.230648e+002, 1.910954e+002
6.235469e+002, 1.912393e+002
6.240291e+002, 1.899855e+002
6.245112e+002, 1.891609e+002
6.249933e+002, 1.892866e+002
6.254754e+002, 1.900137e+002
6.259575e+002, 1.901261e+002
6.264396e+002, 1.894655e+002
6.269218e+002, 1.886601e+002
6.274039e+002, 1.878667e+002
6.278860e+002, 1.871207e+002
6.283681e+002, 1.866467e+002
6.288502e+002, 1.864468e+002
6.293323e+002, 1.864356e+002
6.298145e+002, 1.867051e+002
6.302966e+002, 1.870771e+002
6.307787e+002, 1.872190e+002
6.312608e+002, 1.870939e+002
6.317429e+002, 1.867913e+002
6.322250e+002, 1.861750e+002
6.327072e+002, 1.855069e+002
6.331893e+002, 1.850738e+002
6.336714e+002, 1.851001e+002
6.341535e+002, 1.851087e+002
6.346356e+002, 1.849351e+002
6.351177e+002, 1.846795e+002
6.355999e+002, 1.845181e+002
6.360820e+002, 1.847062e+002
6.365641e+002, 1.845558e+002
6.370462e+002, 1.837796e+002
6.375283e+002, 1.826366e+002
6.380104e+002, 1.820502e+002
6.384926e+002, 1.821078e+002
6.389747e+002, 1.821355e+002
6.394568e+002, 1.817204e+002
6.399389e+002, 1.810606e+002
6.404210e+002, 1.809239e+002
6.409031e+002, 1.812795e+002
6.413853e+002, 1.815849e+002
6.418674e+002, 1.814444e+002
6.423495e+002, 1.810346e+002
6.428316e+002, 1.804417e+002
6.433137e+002, 1.796236e+002
6.437958e+002, 1.791454e+002
6.442780e+002, 1.796495e+002
6.447601e+002, 1.804136e+002
6.452422e+002, 1.807962e+002
6.457243e+002, 1.803865e+002
6.462064e+002, 1.800502e+002
6.466885e+002, 1.798222e+002
6.471707e+002, 1.796941e+002
6.476528e+002, 1.796874e+002
6.481349e+002, 1.798703e+002
6.486170e+002, 1.799171e+002
6.490991e+002, 1.796754e+002
6.495812e+002, 1.793563e+002
6.500634e+002, 1.795665e+002
6.505455e+002, 1.802636e+002
6.510276e+002, 1.808056e+002
6.515097e+002, 1.808071e+002
6.519918e+002, 1.805352e+002
6.524739e+002, 1.803533e+002
6.529561e+002, 1.802621e+002
6.534382e+002, 1.802511e+002
6.539203e+002, 1.804752e+002
6.544024e+002, 1.806573e+002
6.548845e+002, 1.805514e+002
6.553666e+002, 1.801029e+002
6.558488e+002, 1.797597e+002
6.563309e+002, 1.796545e+002
6.568130e+002, 1.796637e+002
6.572951e+002, 1.797134e+002
6.577772e+002, 1.798053e+002
6.582593e+002, 1.799575e+002
6.587415e+002, 1.802372e+002
6.592236e+002, 1.804692e+002
6.597057e+002, 1.804126e+002
6.601878e+002, 1.800746e+002
6.606699e+002, 1.797274e+002
6.611520e+002, 1.793930e+002
6.616342e+002, 1.791507e+002
6.621163e+002, 1.791814e+002
6.625984e+002, 1.794000e+002
6.630805e+002, 1.795834e+002
6.635626e+002, 1.796647e+002
6.640447e+002, 1.796537e+002
6.645269e+002, 1.795298e+002
6.650090e+002, 1.793156e+002
6.654911e+002, 1.790755e+002
6.659732e+002, 1.785053e+002
6.664553e+002, 1.782327e+002
6.669374e+002, 1.787782e+002
6.674196e+002, 1.800486e+002
6.679017e+002, 1.805228e+002
6.683838e+002, 1.798370e+002
6.688659e+002, 1.790511e+002
6.693480e+002, 1.787235e+002
6.698301e+002, 1.788471e+002
6.703123e+002, 1.787386e+002
6.707944e+002, 1.783491e+002
6.712765e+002, 1.781041e+002
6.717586e+002, 1.786044e+002
6.722407e+002, 1.794939e+002
6.727228e+002, 1.799215e+002
6.732050e+002, 1.797188e+002
6.736871e+002, 1.794100e+002
6.741692e+002, 1.792955e+002
6.746513e+002, 1.793292e+002
6.751334e+002, 1.794668e+002
6.756155e+002, 1.798131e+002
6.760977e+002, 1.800827e+002
6.765798e+002, 1.802313e+002
6.770619e+002, 1.802519e+002
6.775440e+002, 1.800998e+002
6.780261e+002, 1.795766e+002
6.785082e+002, 1.793320e+002
6.789904e+002, 1.795867e+002
6.794725e+002, 1.801140e+002
6.799546e+002, 1.802693e+002
6.804367e+002, 1.800477e+002
6.809188e+002, 1.799426e+002
6.814009e+002, 1.802972e+002
6.818831e+002, 1.808140e+002
6.823652e+002, 1.809157e+002
6.828473e+002, 1.806623e+002
6.833294e+002, 1.803423e+002
6.838115e+002, 1.799345e+002
6.842936e+002, 1.796690e+002
6.847758e+002, 1.797913e+002
6.852579e+002, 1.803100e+002
6.857400e+002, 1.807371e+002
6.862221e+002, 1.809123e+002
6.867042e+002, 1.809829e+002
6.871863e+002, 1.810137e+002
6.876685e+002, 1.809848e+002
6.881506e+002, 1.809876e+002
6.886327e+002, 1.809988e+002
6.891148e+002, 1.810839e+002
6.895969e+002, 1.813271e+002
6.900790e+002, 1.817177e+002
6.905612e+002, 1.820733e+002
6.910433e+002, 1.823572e+002
6.915254e+002, 1.826789e+002
6.920075e+002, 1.833080e+002
6.924896e+002, 1.840294e+002
6.929717e+002, 1.843896e+002
6.934539e+002, 1.840162e+002
6.939360e+002, 1.837509e+002
6.944181e+002, 1.841716e+002
6.949002e+002, 1.849910e+002
6.953823e+002, 1.857660e+002
6.958644e+002, 1.864339e+002
6.963466e+002, 1.869950e+002
6.968287e+002, 1.873251e+002
6.973108e+002, 1.875893e+002
6.977929e+002, 1.882652e+002
6.982750e+002, 1.894994e+002
6.987571e+002, 1.906087e+002
6.992393e+002, 1.913254e+002
6.997214e+002, 1.917992e+002
7.002035e+002, 1.924537e+002
7.006856e+002, 1.932788e+002
7.011677e+002, 1.941633e+002
7.016498e+002, 1.949568e+002
7.021320e+002, 1.958251e+002
7.026141e+002, 1.970188e+002
7.030962e+002, 1.985105e+002
7.035783e+002, 1.999819e+002
7.040604e+002, 2.012219e+002
7.045425e+002, 2.024638e+002
7.050247e+002, 2.037574e+002
7.055068e+002, 2.050576e+002
7.059889e+002, 2.067964e+002
7.064710e+002, 2.092353e+002
7.069531e+002, 2.117743e+002
7.074352e+002, 2.140322e+002
7.079174e+002, 2.159881e+002
7.083995e+002, 2.178187e+002
7.088816e+002, 2.195360e+002
7.093637e+002, 2.210904e+002
7.098458e+002, 2.224964e+002
7.103279e+002, 2.236918e+002
7.108101e+002, 2.245619e+002
7.112922e+002, 2.250853e+002
7.117743e+002, 2.252664e+002
7.122564e+002, 2.250414e+002
7.127385e+002, 2.245122e+002
7.132206e+002, 2.238008e+002
7.137028e+002, 2.230801e+002
7.141849e+002, 2.219951e+002
7.146670e+002, 2.203399e+002
7.151491e+002, 2.183495e+002
7.156312e+002, 2.163266e+002
7.161133e+002, 2.144087e+002
7.165955e+002, 2.120449e+002
7.170776e+002, 2.089552e+002
7.175597e+002, 2.056141e+002
7.180418e+002, 2.030961e+002
7.185239e+002, 2.013372e+002
7.190060e+002, 1.999582e+002
7.194882e+002, 1.989733e+002
7.199703e+002, 1.981081e+002
7.204524e+002, 1.969299e+002
7.209345e+002, 1.955716e+002
7.214166e+002, 1.943941e+002
7.218987e+002, 1.937605e+002
7.223809e+002, 1.931704e+002
7.228630e+002, 1.923242e+002
7.233451e+002, 1.912722e+002
7.238272e+002, 1.905152e+002
7.243093e+002, 1.904296e+002
7.247914e+002, 1.901050e+002
7.252736e+002, 1.890509e+002
7.257557e+002, 1.873739e+002
7.262378e+002, 1.864284e+002
7.267199e+002, 1.862570e+002
7.272020e+002, 1.863981e+002
7.276841e+002, 1.868078e+002
7.281663e+002, 1.872450e+002
7.286484e+002, 1.870412e+002
7.291305e+002, 1.862015e+002
7.296126e+002, 1.853788e+002
7.300947e+002, 1.849834e+002
7.305768e+002, 1.848099e+002
7.310590e+002, 1.847108e+002
7.315411e+002, 1.846734e+002
7.320232e+002, 1.846689e+002
7.325053e+002, 1.848137e+002
7.329874e+002, 1.848845e+002
7.334695e+002, 1.846918e+002
7.339517e+002, 1.840669e+002
7.344338e+002, 1.838030e+002
7.349159e+002, 1.839749e+002
7.353980e+002, 1.842841e+002
7.358801e+002, 1.844953e+002
7.363622e+002, 1.845851e+002
7.368444e+002, 1.844001e+002
7.373265e+002, 1.838674e+002
7.378086e+002, 1.833238e+002
7.382907e+002, 1.831068e+002
7.387728e+002, 1.830703e+002
7.392549e+002, 1.830275e+002
7.397371e+002, 1.829243e+002
7.402192e+002, 1.828244e+002
7.407013e+002, 1.827467e+002
7.411834e+002, 1.826838e+002
7.416655e+002, 1.826170e+002
7.421476e+002, 1.825138e+002
7.426298e+002, 1.824804e+002
7.431119e+002, 1.825251e+002
7.435940e+002, 1.826442e+002
7.440761e+002, 1.828662e+002
7.445582e+002, 1.831739e+002
7.450403e+002, 1.834370e+002
7.455225e+002, 1.836118e+002
7.460046e+002, 1.837254e+002
7.464867e+002, 1.837588e+002
7.469688e+002, 1.837594e+002
7.474509e+002, 1.838315e+002
7.479330e+002, 1.842821e+002
7.484152e+002, 1.845336e+002
7.488973e+002, 1.841396e+002
7.493794e+002, 1.833516e+002
7.498615e+002, 1.830126e+002
7.503436e+002, 1.833427e+002
7.508257e+002, 1.837715e+002
7.513079e+002, 1.842429e+002
7.517900e+002, 1.846843e+002
7.522721e+002, 1.847519e+002
7.527542e+002, 1.844492e+002
7.532363e+002, 1.841455e+002
7.537184e+002, 1.840055e+002
7.542006e+002, 1.839875e+002
7.546827e+002, 1.840067e+002
7.551648e+002, 1.840832e+002
7.556469e+002, 1.842973e+002
7.561290e+002, 1.848263e+002
7.566111e+002, 1.853813e+002
7.570933e+002, 1.858235e+002
7.575754e+002, 1.861406e+002
7.580575e+002, 1.864118e+002
7.585396e+002, 1.866155e+002
7.590217e+002, 1.868025e+002
7.595038e+002, 1.869505e+002
7.599860e+002, 1.870774e+002
7.604681e+002, 1.874538e+002
7.609502e+002, 1.880932e+002
7.614323e+002, 1.887944e+002
7.619144e+002, 1.894014e+002
7.623965e+002, 1.899870e+002
7.628787e+002, 1.906969e+002
7.633608e+002, 1.915246e+002
7.638429e+002, 1.923864e+002
7.643250e+002, 1.933148e+002
7.648071e+002, 1.941898e+002
7.652892e+002, 1.948388e+002
7.657714e+002, 1.951963e+002
7.662535e+002, 1.958820e+002
7.667356e+002, 1.971449e+002
7.672177e+002, 1.984534e+002
7.676998e+002, 1.995210e+002
7.681819e+002, 2.003475e+002
7.686641e+002, 2.010344e+002
7.691462e+002, 2.015390e+002
7.696283e+002, 2.021889e+002
7.701104e+002, 2.032772e+002
7.705925e+002, 2.046987e+002
7.710746e+002, 2.063855e+002
7.715568e+002, 2.083471e+002
7.720389e+002, 2.100386e+002
7.725210e+002, 2.108498e+002
7.730031e+002, 2.114311e+002
7.734852e+002, 2.123010e+002
7.739673e+002, 2.136078e+002
7.744495e+002, 2.149600e+002
7.749316e+002, 2.165011e+002
7.754137e+002, 2.178833e+002
7.758958e+002, 2.188959e+002
7.763779e+002, 2.195500e+002
7.768600e+002, 2.195812e+002
7.773422e+002, 2.189035e+002
7.778243e+002, 2.181044e+002
7.783064e+002, 2.177811e+002
7.787885e+002, 2.177590e+002
7.792706e+002, 2.178243e+002
7.797527e+002, 2.180253e+002
7.802349e+002, 2.177881e+002
7.807170e+002, 2.163743e+002
7.811991e+002, 2.146105e+002
7.816812e+002, 2.132283e+002
7.821633e+002, 2.125729e+002
7.826454e+002, 2.118757e+002
7.831276e+002, 2.110770e+002
7.836097e+002, 2.103076e+002
7.840918e+002, 2.097974e+002
7.845739e+002, 2.095591e+002
7.850560e+002, 2.089012e+002
7.855381e+002, 2.077110e+002
7.860203e+002, 2.063772e+002
7.865024e+002, 2.053022e+002
7.869845e+002, 2.043953e+002
7.874666e+002, 2.034528e+002
7.879487e+002, 2.023608e+002
7.884308e+002, 2.014440e+002
7.889130e+002, 2.010068e+002
7.893951e+002, 2.007278e+002
7.898772e+002, 2.002640e+002
7.903593e+002, 1.994739e+002
7.908414e+002, 1.986982e+002
7.913235e+002, 1.979116e+002
7.918057e+002, 1.971800e+002
7.922878e+002, 1.965849e+002
7.927699e+002, 1.961193e+002
7.932520e+002, 1.958509e+002
7.937341e+002, 1.958153e+002
7.942162e+002, 1.958370e+002
7.946984e+002, 1.957766e+002
7.951805e+002, 1.956284e+002
7.956626e+002, 1.953989e+002
7.961447e+002, 1.951299e+002
7.966268e+002, 1.946843e+002
7.971089e+002, 1.937270e+002
7.975911e+002, 1.927178e+002
7.980732e+002, 1.921778e+002
7.985553e+002, 1.923349e+002
7.990374e+002, 1.924319e+002
7.995195e+002, 1.924262e+002
8.000016e+002, 1.923674e+002
8.004838e+002, 1.923799e+002
8.009659e+002, 1.924194e+002
8.014480e+002, 1.921474e+002
8.019301e+002, 1.914095e+002
8.024122e+002, 1.907543e+002
8.028943e+002, 1.908519e+002
8.033765e+002, 1.913087e+002
8.038586e+002, 1.915996e+002
8.043407e+002, 1.914609e+002
8.048228e+002, 1.913894e+002
8.053049e+002, 1.916127e+002
8.057870e+002, 1.918730e+002
8.062692e+002, 1.918917e+002
8.067513e+002, 1.915831e+002
8.072334e+002, 1.913345e+002
8.077155e+002, 1.911427e+002
8.081976e+002, 1.911160e+002
8.086797e+002, 1.916054e+002
8.091619e+002, 1.923763e+002
8.096440e+002, 1.926253e+002
8.101261e+002, 1.919871e+002
8.106082e+002, 1.915654e+002
8.110903e+002, 1.926254e+002
8.115724e+002, 1.941317e+002
8.120546e+002, 1.949374e+002
8.125367e+002, 1.943156e+002
8.130188e+002, 1.937854e+002
8.135009e+002, 1.933194e+002
8.139830e+002, 1.930795e+002
8.144651e+002, 1.933551e+002
8.149473e+002, 1.941967e+002
8.154294e+002, 1.947217e+002
8.159115e+002, 1.947875e+002
8.163936e+002, 1.948020e+002
8.168757e+002, 1.953834e+002
8.173578e+002, 1.962000e+002
8.178400e+002, 1.966477e+002
8.183221e+002, 1.965061e+002
8.188042e+002, 1.963052e+002
8.192863e+002, 1.962905e+002
8.197684e+002, 1.963365e+002
8.202505e+002, 1.963234e+002
8.207327e+002, 1.962288e+002
8.212148e+002, 1.960829e+002
8.216969e+002, 1.958226e+002
8.221790e+002, 1.956152e+002
8.226611e+002, 1.957569e+002
8.231432e+002, 1.961571e+002
8.236254e+002, 1.961702e+002
8.241075e+002, 1.956874e+002
8.245896e+002, 1.951700e+002
8.250717e+002, 1.951190e+002
8.255538e+002, 1.952327e+002
8.260359e+002, 1.951756e+002
8.265181e+002, 1.948670e+002
8.270002e+002, 1.944736e+002
8.274823e+002, 1.938748e+002
8.279644e+002, 1.933381e+002
8.284465e+002, 1.930791e+002
8.289286e+002, 1.932060e+002
8.294108e+002, 1.930536e+002
8.298929e+002, 1.925462e+002
8.303750e+002, 1.921149e+002
8.308571e+002, 1.924250e+002
8.313392e+002, 1.930495e+002
8.318214e+002, 1.929139e+002
8.323035e+002, 1.918823e+002
8.327856e+002, 1.910013e+002
8.332677e+002, 1.910318e+002
8.337498e+002, 1.913979e+002
8.342319e+002, 1.917264e+002
8.347141e+002, 1.920158e+002
8.351962e+002, 1.920083e+002
8.356783e+002, 1.915115e+002
8.361604e+002, 1.910326e+002
8.366425e+002, 1.909389e+002
8.371246e+002, 1.912009e+002
8.376068e+002, 1.913922e+002
8.380889e+002, 1.915095e+002
8.385710e+002, 1.916308e+002
8.390531e+002, 1.916954e+002
8.395352e+002, 1.918720e+002
8.400173e+002, 1.924374e+002
8.404995e+002, 1.934031e+002
8.409816e+002, 1.942403e+002
8.414637e+002, 1.948187e+002
8.419458e+002, 1.951699e+002
8.424279e+002, 1.951955e+002
8.429100e+002, 1.949089e+002
8.433922e+002, 1.951740e+002
8.438743e+002, 1.960718e+002
8.443564e+002, 1.970675e+002
8.448385e+002, 1.978252e+002
8.453206e+002, 1.984566e+002
8.458027e+002, 1.992203e+002
8.462849e+002, 2.000972e+002
8.467670e+002, 2.009699e+002
8.472491e+002, 2.016775e+002
8.477312e+002, 2.024514e+002
8.482133e+002, 2.034890e+002
8.486954e+002, 2.047628e+002
8.491776e+002, 2.058864e+002
8.496597e+002, 2.067489e+002
8.501418e+002, 2.076856e+002
8.506239e+002, 2.087642e+002
8.511060e+002, 2.100151e+002
8.515881e+002, 2.116650e+002
8.520703e+002, 2.136512e+002
8.525524e+002, 2.154311e+002
8.530345e+002, 2.164194e+002
8.535166e+002, 2.173506e+002
8.539987e+002, 2.188273e+002
8.544808e+002, 2.207845e+002
8.549630e+002, 2.230689e+002
8.554451e+002, 2.260530e+002
8.559272e+002, 2.287990e+002
8.564093e+002, 2.310020e+002
8.568914e+002, 2.328921e+002
8.573735e+002, 2.350747e+002
8.578557e+002, 2.375670e+002
8.583378e+002, 2.402562e+002
8.588199e+002, 2.431865e+002
8.593020e+002, 2.462021e+002
8.597841e+002, 2.489714e+002
8.602662e+002, 2.516479e+002
8.607484e+002, 2.544863e+002
8.612305e+002, 2.575338e+002
8.617126e+002, 2.608236e+002
8.621947e+002, 2.644222e+002
8.626768e+002, 2.682416e+002
8.631589e+002, 2.721354e+002
8.636411e+002, 2.763441e+002
8.641232e+002, 2.799301e+002
8.646053e+002, 2.825861e+002
8.650874e+002, 2.851291e+002
8.655695e+002, 2.887813e+002
8.660516e+002, 2.932417e+002
8.665338e+002, 2.976127e+002
8.670159e+002, 3.017669e+002
8.674980e+002, 3.058024e+002
8.679801e+002, 3.095964e+002
8.684622e+002, 3.134701e+002
8.689443e+002, 3.178053e+002
8.694265e+002, 3.229236e+002
8.699086e+002, 3.279998e+002
8.703907e+002, 3.330167e+002
8.708728e+002, 3.379978e+002
8.713549e+002, 3.430346e+002
8.718370e+002, 3.480956e+002
8.723192e+002, 3.525455e+002
8.728013e+002, 3.564174e+002
8.732834e+002, 3.597425e+002
8.737655e+002, 3.622286e+002
8.742476e+002, 3.643999e+002
8.747297e+002, 3.669981e+002
8.752119e+002, 3.701357e+002
8.756940e+002, 3.723398e+002
8.761761e+002, 3.729345e+002
8.766582e+002, 3.727967e+002
8.771403e+002, 3.723170e+002
8.776224e+002, 3.714422e+002
8.781046e+002, 3.693276e+002
8.785867e+002, 3.659565e+002
8.790688e+002, 3.620115e+002
8.795509e+002, 3.578708e+002
8.800330e+002, 3.535067e+002
8.805151e+002, 3.487645e+002
8.809973e+002, 3.437552e+002
8.814794e+002, 3.388913e+002
8.819615e+002, 3.343747e+002
8.824436e+002, 3.300110e+002
8.829257e+002, 3.256016e+002
8.834078e+002, 3.213300e+002
8.838900e+002, 3.175582e+002
8.843721e+002, 3.143603e+002
8.848542e+002, 3.112880e+002
8.853363e+002, 3.082680e+002
8.858184e+002, 3.052090e+002
8.863005e+002, 3.017202e+002
8.867827e+002, 2.980518e+002
8.872648e+002, 2.949193e+002
8.877469e+002, 2.929471e+002
8.882290e+002, 2.910095e+002
8.887111e+002, 2.887212e+002
8.891932e+002, 2.861284e+002
8.896754e+002, 2.832835e+002
8.901575e+002, 2.801328e+002
8.906396e+002, 2.769653e+002
8.911217e+002, 2.738430e+002
8.916038e+002, 2.706763e+002
8.920859e+002, 2.672154e+002
8.925681e+002, 2.635938e+002
8.930502e+002, 2.602267e+002
8.935323e+002, 2.572308e+002
8.940144e+002, 2.543343e+002
8.944965e+002, 2.515701e+002
8.949786e+002, 2.487274e+002
8.954608e+002, 2.454917e+002
8.959429e+002, 2.416015e+002
8.964250e+002, 2.383550e+002
8.969071e+002, 2.360126e+002
8.973892e+002, 2.338391e+002
8.978713e+002, 2.312492e+002
8.983535e+002, 2.283675e+002
8.988356e+002, 2.261801e+002
8.993177e+002, 2.246482e+002
8.997998e+002, 2.231153e+002
9.002819e+002, 2.208893e+002
9.007640e+002, 2.186819e+002
9.012462e+002, 2.170356e+002
9.017283e+002, 2.159451e+002
9.022104e+002, 2.149399e+002
9.026925e+002, 2.140217e+002
9.031746e+002, 2.131202e+002
9.036567e+002, 2.122114e+002
9.041389e+002, 2.113043e+002
9.046210e+002, 2.104139e+002
9.051031e+002, 2.095355e+002
9.055852e+002, 2.085802e+002
9.060673e+002, 2.073791e+002
9.065494e+002, 2.062692e+002
9.070316e+002, 2.056784e+002
9.075137e+002, 2.053692e+002
9.079958e+002, 2.049151e+002
9.084779e+002, 2.036602e+002
9.089600e+002, 2.030854e+002
9.094421e+002, 2.037153e+002
9.099243e+002, 2.046360e+002
9.104064e+002, 2.044207e+002
9.108885e+002, 2.031576e+002
9.113706e+002, 2.025117e+002
9.118527e+002, 2.027982e+002
9.123348e+002, 2.032790e+002
9.128170e+002, 2.032417e+002
9.132991e+002, 2.030063e+002
9.137812e+002, 2.029788e+002
9.142633e+002, 2.033332e+002
9.147454e+002, 2.034165e+002
9.152275e+002, 2.027090e+002
9.157097e+002, 2.022187e+002
9.161918e+002, 2.026880e+002
9.166739e+002, 2.040947e+002
9.171560e+002, 2.049230e+002
9.176381e+002, 2.051642e+002
9.181202e+002, 2.051241e+002
9.186024e+002, 2.046833e+002
9.190845e+002, 2.043007e+002
9.195666e+002, 2.045576e+002
9.200487e+002, 2.053684e+002
9.205308e+002, 2.061724e+002
9.210129e+002, 2.068997e+002
9.214951e+002, 2.074572e+002
9.219772e+002, 2.076221e+002
9.224593e+002, 2.076883e+002
9.229414e+002, 2.088126e+002
9.234235e+002, 2.109546e+002
9.239056e+002, 2.124660e+002
9.243878e+002, 2.125594e+002
9.248699e+002, 2.122914e+002
9.253520e+002, 2.129429e+002
9.258341e+002, 2.140388e+002
9.263162e+002, 2.148220e+002
9.267983e+002, 2.145710e+002
9.272805e+002, 2.147985e+002
9.277626e+002, 2.159587e+002
9.282447e+002, 2.173616e+002
9.287268e+002, 2.182722e+002
9.292089e+002, 2.186877e+002
9.296910e+002, 2.192256e+002
9.301732e+002, 2.199380e+002
9.306553e+002, 2.206517e+002
9.311374e+002, 2.211621e+002
9.316195e+002, 2.216142e+002
9.321016e+002, 2.223202e+002
9.325837e+002, 2.233288e+002
9.330659e+002, 2.237925e+002
9.335480e+002, 2.230820e+002
9.340301e+002, 2.222764e+002
9.345122e+002, 2.217641e+002
9.349943e+002, 2.215034e+002
9.354764e+002, 2.213821e+002
9.359586e+002, 2.213799e+002
9.364407e+002, 2.210426e+002
9.369228e+002, 2.200425e+002
9.374049e+002, 2.186745e+002
9.378870e+002, 2.171573e+002
9.383691e+002, 2.155112e+002
9.388513e+002, 2.138229e+002
9.393334e+002, 2.120950e+002
9.398155e+002, 2.103082e+002
9.402976e+002, 2.083868e+002
9.407797e+002, 2.065150e+002
9.412618e+002, 2.051336e+002
9.417440e+002, 2.041957e+002
9.422261e+002, 2.029918e+002
9.427082e+002, 2.013599e+002
9.431903e+002, 1.996319e+002
9.436724e+002, 1.979265e+002
9.441545e+002, 1.964254e+002
9.446367e+002, 1.953623e+002
9.451188e+002, 1.949041e+002
9.456009e+002, 1.943883e+002
9.460830e+002, 1.938154e+002
9.465651e+002, 1.930750e+002
9.470472e+002, 1.920372e+002
9.475294e+002, 1.907362e+002
9.480115e+002, 1.895166e+002
9.484936e+002, 1.883898e+002
9.489757e+002, 1.875729e+002
9.494578e+002, 1.875823e+002
9.499399e+002, 1.876246e+002
9.504221e+002, 1.869303e+002
9.509042e+002, 1.857193e+002
9.513863e+002, 1.849312e+002
9.518684e+002, 1.850490e+002
9.523505e+002, 1.848278e+002
9.528326e+002, 1.839230e+002
9.533148e+002, 1.827497e+002
9.537969e+002, 1.819623e+002
9.542790e+002, 1.815725e+002
9.547611e+002, 1.817506e+002
9.552432e+002, 1.827488e+002
9.557253e+002, 1.835453e+002
9.562075e+002, 1.833191e+002
9.566896e+002, 1.825726e+002
9.571717e+002, 1.817406e+002
9.576538e+002, 1.807284e+002
9.581359e+002, 1.801058e+002
9.586180e+002, 1.799697e+002
9.591002e+002, 1.799632e+002
9.595823e+002, 1.797476e+002
9.600644e+002, 1.794573e+002
9.605465e+002, 1.796555e+002
9.610286e+002, 1.802662e+002
9.615107e+002, 1.806492e+002
9.619929e+002, 1.802919e+002
9.624750e+002, 1.797638e+002
9.629571e+002, 1.792760e+002
9.634392e+002, 1.788640e+002
9.639213e+002, 1.785788e+002
9.644034e+002, 1.784015e+002
9.648856e+002, 1.784848e+002
9.653677e+002, 1.789728e+002
9.658498e+002, 1.795178e+002
9.663319e+002, 1.794809e+002
9.668140e+002, 1.790987e+002
9.672961e+002, 1.788899e+002
9.677783e+002, 1.791026e+002
9.682604e+002, 1.791955e+002
9.687425e+002, 1.789171e+002
9.692246e+002, 1.784652e+002
9.697067e+002, 1.778795e+002
9.701888e+002, 1.770490e+002
9.706710e+002, 1.771246e+002
9.711531e+002, 1.782048e+002
9.716352e+002, 1.792345e+002
9.721173e+002, 1.793501e+002
9.725994e+002, 1.789590e+002
9.730815e+002, 1.784818e+002
9.735637e+002, 1.779615e+002
9.740458e+002, 1.775145e+002
9.745279e+002, 1.770549e+002
9.750100e+002, 1.768501e+002
9.754921e+002, 1.770658e+002
9.759742e+002, 1.775084e+002
9.764564e+002, 1.777148e+002
9.769385e+002, 1.776953e+002
9.774206e+002, 1.775529e+002
9.779027e+002, 1.772715e+002
9.783848e+002, 1.770295e+002
9.788669e+002, 1.770488e+002
9.793491e+002, 1.771850e+002
9.798312e+002, 1.772743e+002
9.803133e+002, 1.773140e+002
9.807954e+002, 1.772131e+002
9.812775e+002, 1.768757e+002
9.817596e+002, 1.765622e+002
9.822418e+002, 1.764636e+002
9.827239e+002, 1.765451e+002
9.832060e+002, 1.766072e+002
9.836881e+002, 1.766612e+002
9.841702e+002, 1.768363e+002
9.846523e+002, 1.775409e+002
9.851345e+002, 1.780650e+002
9.856166e+002, 1.777769e+002
9.860987e+002, 1.769358e+002
9.865808e+002, 1.765482e+002
9.870629e+002, 1.767418e+002
9.875450e+002, 1.770406e+002
9.880272e+002, 1.774414e+002
9.885093e+002, 1.777022e+002
9.889914e+002, 1.772574e+002
9.894735e+002, 1.764424e+002
9.899556e+002, 1.759606e+002
9.904377e+002, 1.760220e+002
9.909199e+002, 1.761797e+002
9.914020e+002, 1.762964e+002
9.918841e+002, 1.764133e+002
9.923662e+002, 1.766025e+002
9.928483e+002, 1.768718e+002
9.933304e+002, 1.767793e+002
9.938126e+002, 1.762961e+002
9.942947e+002, 1.759456e+002
9.947768e+002, 1.762271e+002
9.952589e+002, 1.766952e+002
9.957410e+002, 1.768154e+002
9.962231e+002, 1.766751e+002
9.967053e+002, 1.765437e+002
9.971874e+002, 1.763708e+002
9.976695e+002, 1.764061e+002
9.981516e+002, 1.767753e+002
9.986337e+002, 1.772536e+002
9.991158e+002, 1.775433e+002
9.995980e+002, 1.776451e+002
1.000080e+003, 1.775091e+002
1.000562e+003, 1.770978e+002
1.001044e+003, 1.767319e+002
1.001526e+003, 1.766456e+002
1.002009e+003, 1.767166e+002
1.002491e+003, 1.768932e+002
1.002973e+003, 1.771910e+002
1.003455e+003, 1.773423e+002
1.003937e+003, 1.773285e+002
1.004419e+003, 1.772334e+002
1.004901e+003, 1.770798e+002
1.005383e+003, 1.768846e+002
1.005865e+003, 1.766158e+002
1.006348e+003, 1.763308e+002
1.006830e+003, 1.761860e+002
1.007312e+003, 1.764339e+002
1.007794e+003, 1.766039e+002
1.008276e+003, 1.763020e+002
1.008758e+003, 1.760080e+002
1.009240e+003, 1.763531e+002
1.009722e+003, 1.774416e+002
1.010205e+003, 1.780003e+002
1.010687e+003, 1.779149e+002
1.011169e+003, 1.776777e+002
1.011651e+003, 1.777019e+002
1.012133e+003, 1.778274e+002
1.012615e+003, 1.779347e+002
1.013097e+003, 1.780041e+002
1.013579e+003, 1.779001e+002
1.014061e+003, 1.774903e+002
1.014544e+003, 1.770965e+002
1.015026e+003, 1.768009e+002
1.015508e+003, 1.765927e+002
1.015990e+003, 1.764118e+002
1.016472e+003, 1.762827e+002
1.016954e+003, 1.763392e+002
1.017436e+003, 1.767350e+002
1.017918e+003, 1.770370e+002
1.018401e+003, 1.768677e+002
1.018883e+003, 1.765377e+002
1.019365e+003, 1.763442e+002
1.019847e+003, 1.762961e+002
1.020329e+003, 1.764375e+002
1.020811e+003, 1.768261e+002
1.021293e+003, 1.770956e+002
1.021775e+003, 1.767348e+002
1.022257e+003, 1.762284e+002
1.022740e+003, 1.765158e+002
1.023222e+003, 1.773729e+002
1.023704e+003, 1.779077e+002
1.024186e+003, 1.773819e+002
1.024668e+003, 1.770522e+002
1.025150e+003, 1.773124e+002
1.025632e+003, 1.777708e+002
1.026114e+003, 1.776729e+002
1.026596e+003, 1.771039e+002
1.027079e+003, 1.769058e+002
1.027561e+003, 1.772614e+002
1.028043e+003, 1.775754e+002
1.028525e+003, 1.772452e+002
1.029007e+003, 1.767483e+002
1.029489e+003, 1.764468e+002
1.029971e+003, 1.763797e+002
1.030453e+003, 1.766466e+002
1.030936e+003, 1.774072e+002
1.031418e+003, 1.779696e+002
1.031900e+003, 1.779890e+002
1.032382e+003, 1.776952e+002
1.032864e+003, 1.774081e+002
1.033346e+003, 1.771826e+002
1.033828e+003, 1.771706e+002
1.034310e+003, 1.777732e+002
1.034792e+003, 1.780486e+002
1.035275e+003, 1.774008e+002
1.035757e+003, 1.766638e+002
1.036239e+003, 1.766600e+002
1.036721e+003, 1.773899e+002
1.037203e+003, 1.777346e+002
1.037685e+003, 1.776577e+002
1.038167e+003, 1.774601e+002
1.038649e+003, 1.771861e+002
1.039132e+003, 1.770329e+002
1.039614e+003, 1.773367e+002
1.040096e+003, 1.779483e+002
1.040578e+003, 1.780640e+002
1.041060e+003, 1.773621e+002
1.041542e+003, 1.769400e+002
1.042024e+003, 1.770483e+002
1.042506e+003, 1.774066e+002
1.042989e+003, 1.775862e+002
1.043471e+003, 1.776966e+002
1.043953e+003, 1.780416e+002
1.044435e+003, 1.787598e+002
1.044917e+003, 1.792198e+002
1.045399e+003, 1.791294e+002
1.045881e+003, 1.787391e+002
1.046363e+003, 1.780328e+002
1.046845e+003, 1.771077e+002
1.047328e+003, 1.768247e+002
1.047810e+003, 1.771493e+002
1.048292e+003, 1.775126e+002
1.048774e+003, 1.776984e+002
1.049256e+003, 1.777636e+002
1.049738e+003, 1.777899e+002
1.050220e+003, 1.777166e+002
1.050702e+003, 1.774155e+002
1.051184e+003, 1.766995e+002
1.051667e+003, 1.762195e+002
1.052149e+003, 1.760278e+002
1.052631e+003, 1.759369e+002
1.053113e+003, 1.758180e+002
1.053595e+003, 1.756613e+002
1.054077e+003, 1.753871e+002
1.054559e+003, 1.750281e+002
1.055041e+003, 1.748099e+002
1.055523e+003, 1.750500e+002
1.056006e+003, 1.751532e+002
1.056488e+003, 1.748551e+002
1.056970e+003, 1.744158e+002
1.057452e+003, 1.744579e+002
1.057934e+003, 1.749107e+002
1.058416e+003, 1.751092e+002
1.058898e+003, 1.749178e+002
1.059380e+003, 1.745213e+002
1.059863e+003, 1.737322e+002
1.060345e+003, 1.730609e+002
1.060827e+003, 1.730968e+002
1.061309e+003, 1.738861e+002
1.061791e+003, 1.741940e+002
1.062273e+003, 1.739297e+002
1.062755e+003, 1.735886e+002
1.063237e+003, 1.733085e+002
1.063719e+003, 1.731755e+002
1.064202e+003, 1.735273e+002
1.064684e+003, 1.740800e+002
1.065166e+003, 1.742753e+002
1.065648e+003, 1.735781e+002
1.066130e+003, 1.731810e+002
1.066612e+003, 1.733654e+002
1.067094e+003, 1.736281e+002
1.067576e+003, 1.734901e+002
1.068059e+003, 1.730518e+002
1.068541e+003, 1.729563e+002
1.069023e+003, 1.731662e+002
1.069505e+003, 1.733081e+002
1.069987e+003, 1.730393e+002
1.070469e+003, 1.727718e+002
1.070951e+003, 1.727486e+002
1.071433e+003, 1.728675e+002
1.071916e+003, 1.729589e+002
1.072398e+003, 1.730291e+002
1.072880e+003, 1.730224e+002
1.073362e+003, 1.729411e+002
1.073844e+003, 1.727207e+002
1.074326e+003, 1.720642e+002
1.074808e+003, 1.713908e+002
1.075290e+003, 1.711927e+002
1.075772e+003, 1.715190e+002
1.076255e+003, 1.718318e+002
1.076737e+003, 1.720728e+002
1.077219e+003, 1.723459e+002
1.077701e+003, 1.727266e+002
1.078183e+003, 1.730925e+002
1.078665e+003, 1.731935e+002
1.079147e+003, 1.730897e+002
1.079629e+003, 1.729241e+002
1.080111e+003, 1.727450e+002
1.080594e+003, 1.724658e+002
1.081076e+003, 1.716346e+002
1.081558e+003, 1.711215e+002
1.082040e+003, 1.716592e+002
1.082522e+003, 1.730782e+002
1.083004e+003, 1.734578e+002
1.083486e+003, 1.729093e+002
1.083968e+003, 1.724790e+002
1.084450e+003, 1.730069e+002
1.084933e+003, 1.735413e+002
1.085415e+003, 1.733682e+002
1.085897e+003, 1.728559e+002
1.086379e+003, 1.726125e+002
1.086861e+003, 1.727380e+002
1.087343e+003, 1.727663e+002
1.087825e+003, 1.726580e+002
1.088307e+003, 1.725902e+002
1.088790e+003, 1.727804e+002
1.089272e+003, 1.730593e+002
1.089754e+003, 1.732883e+002
1.090236e+003, 1.734353e+002
1.090718e+003, 1.733600e+002
1.091200e+003, 1.728168e+002
1.091682e+003, 1.724622e+002
1.092164e+003, 1.724331e+002
1.092646e+003, 1.725895e+002
1.093129e+003, 1.728497e+002
1.093611e+003, 1.731013e+002
1.094093e+003, 1.729847e+002
1.094575e+003, 1.724120e+002
1.095057e+003, 1.720013e+002
1.095539e+003, 1.721767e+002
1.096021e+003, 1.724266e+002
1.096503e+003, 1.725579e+002
1.096986e+003, 1.725792e+002
1.097468e+003, 1.724451e+002
1.097950e+003, 1.721942e+002
1.098432e+003, 1.721762e+002
1.098914e+003, 1.725766e+002
1.099396e+003, 1.730362e+002
1.099878e+003, 1.736072e+002
1.100360e+003, 1.738899e+002
1.100843e+003, 1.733120e+002
1.101325e+003, 1.717105e+002
1.101807e+003, 1.710762e+002
1.102289e+003, 1.714879e+002
1.102771e+003, 1.719787e+002
1.103253e+003, 1.719321e+002
1.103735e+003, 1.717451e+002
1.104217e+003, 1.718796e+002
1.104699e+003, 1.722186e+002
1.105182e+003, 1.725461e+002
1.105664e+003, 1.728299e+002
1.106146e+003, 1.730840e+002
1.106628e+003, 1.733244e+002
1.107110e+003, 1.734954e+002
1.107592e+003, 1.735804e+002
1.108074e+003, 1.735497e+002
1.108556e+003, 1.732079e+002
1.109038e+003, 1.726469e+002
1.109521e+003, 1.723548e+002
1.110003e+003, 1.727567e+002
1.110485e+003, 1.731437e+002
1.110967e+003, 1.734008e+002
1.111449e+003, 1.735296e+002
1.111931e+003, 1.734010e+002
1.112413e+003, 1.731279e+002
1.112895e+003, 1.733825e+002
1.113377e+003, 1.742581e+002
1.113860e+003, 1.748097e+002
1.114342e+003, 1.742004e+002
1.114824e+003, 1.733616e+002
1.115306e+003, 1.726529e+002
1.115788e+003, 1.721590e+002
1.116270e+003, 1.723347e+002
1.116752e+003, 1.731637e+002
1.117234e+003, 1.736220e+002
1.117717e+003, 1.733948e+002
1.118199e+003, 1.729683e+002
1.118681e+003, 1.726066e+002
1.119163e+003, 1.723660e+002
1.119645e+003, 1.723551e+002
1.120127e+003, 1.725826e+002
1.120609e+003, 1.726780e+002
1.121091e+003, 1.726196e+002
1.121573e+003, 1.725538e+002
1.122056e+003, 1.725410e+002
1.122538e+003, 1.725513e+002
1.123020e+003, 1.725932e+002
1.123502e+003, 1.726141e+002
1.123984e+003, 1.725272e+002
1.124466e+003, 1.722553e+002
1.124948e+003, 1.719813e+002
1.125430e+003, 1.716319e+002
1.125913e+003, 1.714874e+002
1.126395e+003, 1.719737e+002
1.126877e+003, 1.726853e+002
1.127359e+003, 1.725523e+002
1.127841e+003, 1.718673e+002
1.128323e+003, 1.714402e+002
1.128805e+003, 1.718305e+002
1.129287e+003, 1.721409e+002
1.129770e+003, 1.722480e+002
1.130252e+003, 1.722461e+002
1.130734e+003, 1.722153e+002
1.131216e+003, 1.721526e+002
1.131698e+003, 1.720301e+002
1.132180e+003, 1.718545e+002
1.132662e+003, 1.716948e+002
1.133144e+003, 1.716018e+002
1.133626e+003, 1.715058e+002
1.134109e+003, 1.713400e+002
1.134591e+003, 1.711805e+002
1.135073e+003, 1.711628e+002
1.135555e+003, 1.712749e+002
1.136037e+003, 1.713881e+002
1.136519e+003, 1.714894e+002
1.137001e+003, 1.715669e+002
1.137483e+003, 1.717349e+002
1.137965e+003, 1.717648e+002
1.138448e+003, 1.713914e+002
1.138930e+003, 1.707724e+002
1.139412e+003, 1.703358e+002
1.139894e+003, 1.700767e+002
1.140376e+003, 1.701640e+002
1.140858e+003, 1.707076e+002
1.141340e+003, 1.712106e+002
1.141822e+003, 1.710917e+002
1.142304e+003, 1.708056e+002
1.142787e+003, 1.708185e+002
1.143269e+003, 1.711535e+002
1.143751e+003, 1.712197e+002
1.144233e+003, 1.709491e+002
1.144715e+003, 1.707768e+002
1.145197e+003, 1.708872e+002
1.145679e+003, 1.710683e+002
1.146161e+003, 1.710258e+002
1.146644e+003, 1.708944e+002
1.147126e+003, 1.708544e+002
1.147608e+003, 1.709637e+002
1.148090e+003, 1.710607e+002
1.148572e+003, 1.711381e+002
1.149054e+003, 1.712194e+002
1.149536e+003, 1.713521e+002
1.150018e+003, 1.714567e+002
1.150500e+003, 1.713816e+002
1.150983e+003, 1.711768e+002
1.151465e+003, 1.709279e+002
1.151947e+003, 1.705529e+002
1.152429e+003, 1.703750e+002
1.152911e+003, 1.704256e+002
1.153393e+003, 1.706420e+002
1.153875e+003, 1.711075e+002
1.154357e+003, 1.716600e+002
1.154840e+003, 1.718243e+002
1.155322e+003, 1.716879e+002
1.155804e+003, 1.715240e+002
1.156286e+003, 1.715326e+002
1.156768e+003, 1.713713e+002
1.157250e+003, 1.708999e+002
1.157732e+003, 1.703982e+002
1.158214e+003, 1.701075e+002
1.158697e+003, 1.700066e+002
1.159179e+003, 1.700188e+002
1.159661e+003, 1.701387e+002
1.160143e+003, 1.703554e+002
1.160625e+003, 1.708857e+002
1.161107e+003, 1.712194e+002
1.161589e+003, 1.711471e+002
1.162071e+003, 1.708708e+002
1.162553e+003, 1.706222e+002
1.163036e+003, 1.703935e+002
1.163518e+003, 1.700510e+002
1.164000e+003, 1.696040e+002
1.164482e+003, 1.693965e+002
1.164964e+003, 1.698726e+002
1.165446e+003, 1.703877e+002
1.165928e+003, 1.707326e+002
1.166410e+003, 1.708626e+002
1.166892e+003, 1.705715e+002
1.167375e+003, 1.698992e+002
1.167857e+003, 1.694414e+002
1.168339e+003, 1.692749e+002
1.168821e+003, 1.692930e+002
1.169303e+003, 1.694730e+002
1.169785e+003, 1.697607e+002
1.170267e+003, 1.702090e+002
1.170749e+003, 1.707219e+002
1.171231e+003, 1.710640e+002
1.171714e+003, 1.712353e+002
1.172196e+003, 1.711440e+002
1.172678e+003, 1.707197e+002
1.173160e+003, 1.703649e+002
1.173642e+003, 1.705425e+002
1.174124e+003, 1.708342e+002
1.174606e+003, 1.708528e+002
1.175088e+003, 1.706582e+002
1.175571e+003, 1.706952e+002
1.176053e+003, 1.709846e+002
1.176535e+003, 1.711089e+002
1.177017e+003, 1.709222e+002
1.177499e+003, 1.706388e+002
1.177981e+003, 1.704236e+002
1.178463e+003, 1.702436e+002
1.178945e+003, 1.700095e+002
1.179427e+003, 1.697197e+002
1.179910e+003, 1.698383e+002
1.180392e+003, 1.704288e+002
1.180874e+003, 1.707845e+002
1.181356e+003, 1.706111e+002
1.181838e+003, 1.701690e+002
1.182320e+003, 1.694374e+002
1.182802e+003, 1.687679e+002
1.183284e+003, 1.686458e+002
1.183767e+003, 1.691889e+002
1.184249e+003, 1.696133e+002
1.184731e+003, 1.699180e+002
1.185213e+003, 1.701457e+002
1.185695e+003, 1.703395e+002
1.186177e+003, 1.704310e+002
1.186659e+003, 1.702495e+002
1.187141e+003, 1.699545e+002
1.187624e+003, 1.697892e+002
1.188106e+003, 1.698377e+002
1.188588e+003, 1.698017e+002
1.189070e+003, 1.696651e+002
1.189552e+003, 1.695458e+002
1.190034e+003, 1.694527e+002
1.190516e+003, 1.694790e+002
1.190998e+003, 1.699607e+002
1.191480e+003, 1.705728e+002
1.191963e+003, 1.707123e+002
1.192445e+003, 1.699397e+002
1.192927e+003, 1.696813e+002
1.193409e+003, 1.700760e+002
1.193891e+003, 1.703313e+002
1.194373e+003, 1.695653e+002
1.194855e+003, 1.685951e+002
1.195337e+003, 1.686044e+002
1.195819e+003, 1.692251e+002
1.196302e+003, 1.696418e+002
1.196784e+003, 1.695689e+002
1.197266e+003, 1.696525e+002
1.197748e+003, 1.699248e+002
1.198230e+003, 1.702634e+002
1.198712e+003, 1.706385e+002
1.199194e+003, 1.709725e+002
1.199676e+003, 1.712212e+002
1.200158e+003, 1.713360e+002
1.200641e+003, 1.711497e+002
1.201123e+003, 1.704210e+002
1.201605e+003, 1.699478e+002
1.202087e+003, 1.698123e+002
1.202569e+003, 1.697779e+002
1.203051e+003, 1.696842e+002
1.203533e+003, 1.695300e+002
1.204015e+003, 1.691655e+002
1.204498e+003, 1.687277e+002
1.204980e+003, 1.687132e+002
1.205462e+003, 1.693820e+002
1.205944e+003, 1.700069e+002
1.206426e+003, 1.705573e+002
1.206908e+003, 1.709530e+002
1.207390e+003, 1.710097e+002
1.207872e+003, 1.709373e+002
1.208354e+003, 1.710093e+002
1.208837e+003, 1.712045e+002
1.209319e+003, 1.713782e+002
1.209801e+003, 1.715835e+002
1.210283e+003, 1.715670e+002
1.210765e+003, 1.712592e+002
1.211247e+003, 1.708702e+002
1.211729e+003, 1.704689e+002
1.212211e+003, 1.702118e+002
1.212694e+003, 1.704442e+002
1.213176e+003, 1.710659e+002
1.213658e+003, 1.713918e+002
1.214140e+003, 1.712625e+002
1.214622e+003, 1.711848e+002
1.215104e+003, 1.712574e+002
1.215586e+003, 1.712999e+002
1.216068e+003, 1.711834e+002
1.216551e+003, 1.708828e+002
1.217033e+003, 1.701623e+002
1.217515e+003, 1.691402e+002
1.217997e+003, 1.687596e+002
1.218479e+003, 1.692083e+002
1.218961e+003, 1.698291e+002
1.219443e+003, 1.706036e+002
1.219925e+003, 1.711380e+002
1.220407e+003, 1.706589e+002
1.220890e+003, 1.699254e+002
1.221372e+003, 1.698881e+002
1.221854e+003, 1.705237e+002
1.222336e+003, 1.708633e+002
1.222818e+003, 1.708235e+002
1.223300e+003, 1.706549e+002
1.223782e+003, 1.703830e+002
1.224264e+003, 1.700928e+002
1.224746e+003, 1.697546e+002
1.225229e+003, 1.695380e+002
1.225711e+003, 1.697329e+002
1.226193e+003, 1.702970e+002
1.226675e+003, 1.705318e+002
1.227157e+003, 1.703723e+002
1.227639e+003, 1.701974e+002
1.228121e+003, 1.700683e+002
1.228603e+003, 1.700411e+002
1.229085e+003, 1.701956e+002
1.229568e+003, 1.704649e+002
1.230050e+003, 1.708791e+002
1.230532e+003, 1.713837e+002
1.231014e+003, 1.715465e+002
1.231496e+003, 1.713280e+002
1.231978e+003, 1.711033e+002
1.232460e+003, 1.709465e+002
1.232942e+003, 1.708590e+002
1.233425e+003, 1.710222e+002
1.233907e+003, 1.711087e+002
1.234389e+003, 1.706391e+002
1.234871e+003, 1.697688e+002
1.235353e+003, 1.695637e+002
1.235835e+003, 1.700575e+002
1.236317e+003, 1.704859e+002
1.236799e+003, 1.706633e+002
1.237281e+003, 1.707564e+002
1.237764e+003, 1.708874e+002
1.238246e+003, 1.710122e+002
1.238728e+003, 1.710677e+002
1.239210e+003, 1.710849e+002
1.239692e+003, 1.712623e+002
1.240174e+003, 1.715826e+002
1.240656e+003, 1.715991e+002
1.241138e+003, 1.711493e+002
1.241621e+003, 1.707194e+002
1.242103e+003, 1.705574e+002
1.242585e+003, 1.706750e+002
1.243067e+003, 1.712981e+002
1.243549e+003, 1.721369e+002
1.244031e+003, 1.719680e+002
1.244513e+003, 1.709365e+002
1.244995e+003, 1.702308e+002
1.245478e+003, 1.701487e+002
1.245960e+003, 1.702418e+002
1.246442e+003, 1.702670e+002
1.246924e+003, 1.703677e+002
1.247406e+003, 1.706383e+002
1.247888e+003, 1.710181e+002
1.248370e+003, 1.712998e+002
1.248852e+003, 1.715118e+002
1.249334e+003, 1.718472e+002
1.249817e+003, 1.724092e+002
1.250299e+003, 1.726636e+002
1.250781e+003, 1.722226e+002
1.251263e+003, 1.715149e+002
1.251745e+003, 1.705179e+002
1.252227e+003, 1.695745e+002
1.252709e+003, 1.697376e+002
1.253191e+003, 1.706390e+002
1.253673e+003, 1.712028e+002
1.254156e+003, 1.711780e+002
1.254638e+003, 1.710905e+002
1.255120e+003, 1.710322e+002
1.255602e+003, 1.710647e+002
1.256084e+003, 1.712690e+002
1.256566e+003, 1.714879e+002
1.257048e+003, 1.712778e+002
1.257530e+003, 1.708807e+002
1.258012e+003, 1.708237e+002
1.258495e+003, 1.712261e+002
1.258977e+003, 1.716518e+002
1.259459e+003, 1.721784e+002
1.259941e+003, 1.723405e+002
1.260423e+003, 1.718506e+002
1.260905e+003, 1.712186e+002
1.261387e+003, 1.712985e+002
1.261869e+003, 1.717490e+002
1.262352e+003, 1.720981e+002
1.262834e+003, 1.722730e+002
1.263316e+003, 1.723547e+002
1.263798e+003, 1.723507e+002
1.264280e+003, 1.722442e+002
1.264762e+003, 1.719851e+002
1.265244e+003, 1.717702e+002
1.265726e+003, 1.719588e+002
1.266208e+003, 1.722440e+002
1.266691e+003, 1.722175e+002
1.267173e+003, 1.718589e+002
1.267655e+003, 1.718008e+002
1.268137e+003, 1.720898e+002
1.268619e+003, 1.723097e+002
1.269101e+003, 1.723714e+002
1.269583e+003, 1.722369e+002
1.270065e+003, 1.716662e+002
1.270548e+003, 1.710448e+002
1.271030e+003, 1.706698e+002
1.271512e+003, 1.705502e+002
1.271994e+003, 1.708429e+002
1.272476e+003, 1.715365e+002
1.272958e+003, 1.721560e+002
1.273440e+003, 1.726223e+002
1.273922e+003, 1.728117e+002
1.274405e+003, 1.724854e+002
1.274887e+003, 1.719861e+002
1.275369e+003, 1.713343e+002
1.275851e+003, 1.707671e+002
1.276333e+003, 1.711895e+002
1.276815e+003, 1.723499e+002
1.277297e+003, 1.729254e+002
1.277779e+003, 1.726400e+002
1.278261e+003, 1.721954e+002
1.278744e+003, 1.718251e+002
1.279226e+003, 1.715137e+002
1.279708e+003, 1.712349e+002
1.280190e+003, 1.710200e+002
1.280672e+003, 1.709744e+002
1.281154e+003, 1.710225e+002
1.281636e+003, 1.708871e+002
1.282118e+003, 1.705293e+002
1.282600e+003, 1.705238e+002
1.283083e+003, 1.714092e+002
1.283565e+003, 1.720025e+002
1.284047e+003, 1.719786e+002
1.284529e+003, 1.717023e+002
1.285011e+003, 1.716309e+002
1.285493e+003, 1.716875e+002
1.285975e+003, 1.718447e+002
1.286457e+003, 1.720691e+002
1.286939e+003, 1.719126e+002
1.287422e+003, 1.711238e+002
1.287904e+003, 1.708445e+002
1.288386e+003, 1.714005e+002
1.288868e+003, 1.720114e+002
1.289350e+003, 1.716921e+002
1.289832e+003, 1.711129e+002
1.290314e+003, 1.709382e+002
1.290796e+003, 1.711413e+002
1.291279e+003, 1.713152e+002
1.291761e+003, 1.714530e+002
1.292243e+003, 1.716603e+002
1.292725e+003, 1.719700e+002
1.293207e+003, 1.720332e+002
1.293689e+003, 1.711157e+002
1.294171e+003, 1.703080e+002
1.294653e+003, 1.706218e+002
1.295135e+003, 1.714170e+002
1.295618e+003, 1.715839e+002
1.296100e+003, 1.711965e+002
1.296582e+003, 1.709933e+002
1.297064e+003, 1.710497e+002
1.297546e+003, 1.710950e+002
1.298028e+003, 1.708241e+002
1.298510e+003, 1.706523e+002
1.298992e+003, 1.707834e+002
1.299475e+003, 1.709911e+002
1.299957e+003, 1.708329e+002
1.300439e+003, 1.705471e+002
1.300921e+003, 1.709543e+002
1.301403e+003, 1.719636e+002
1.301885e+003, 1.727610e+002
##END=



