##NAMES=Arisite-(La)
##RRUFFID=R120051
##IDEAL CHEMISTRY=NaLa_2_(CO_3_)_2_[(CO_3_)_1-x_F_2x_]F
##LOCALITY=Aris quarry, near Windhoek, Namibia
##OWNER=RRUFF
##SOURCE=William W. Pinch
##DESCRIPTION=Pale pink hexagonal tabular crystal, associated with tuperssuatsiaite, and transparent platy polylithionite
##STATUS=The identification of this mineral has been confirmed only by single crystal X-ray diffraction.
##URL=rruff.info/R120051
9.112140e+001, 0.000000e+000
9.160352e+001, 9.014742e+003
9.208563e+001, 8.863110e+003
9.256775e+001, 8.840151e+003
9.304987e+001, 8.992255e+003
9.353198e+001, 9.223052e+003
9.401410e+001, 9.406979e+003
9.449622e+001, 9.523544e+003
9.497833e+001, 9.585402e+003
9.546045e+001, 9.606013e+003
9.594257e+001, 9.584505e+003
9.642468e+001, 9.571046e+003
9.690680e+001, 9.586037e+003
9.738892e+001, 9.599913e+003
9.787103e+001, 9.601942e+003
9.835315e+001, 9.582262e+003
9.883527e+001, 9.545350e+003
9.931738e+001, 9.523181e+003
9.979950e+001, 9.523263e+003
1.002816e+002, 9.526088e+003
1.007637e+002, 9.523430e+003
1.012458e+002, 9.523789e+003
1.017280e+002, 9.535337e+003
1.022101e+002, 9.560111e+003
1.026922e+002, 9.593014e+003
1.031743e+002, 9.625721e+003
1.036564e+002, 9.655747e+003
1.041385e+002, 9.692899e+003
1.046207e+002, 9.747404e+003
1.051028e+002, 9.812779e+003
1.055849e+002, 9.866504e+003
1.060670e+002, 9.890788e+003
1.065491e+002, 9.906343e+003
1.070313e+002, 9.939174e+003
1.075134e+002, 9.993088e+003
1.079955e+002, 1.004749e+004
1.084776e+002, 1.007169e+004
1.089597e+002, 1.005175e+004
1.094418e+002, 1.006251e+004
1.099240e+002, 1.015038e+004
1.104061e+002, 1.026172e+004
1.108882e+002, 1.035878e+004
1.113703e+002, 1.042703e+004
1.118524e+002, 1.047450e+004
1.123345e+002, 1.052111e+004
1.128167e+002, 1.055473e+004
1.132988e+002, 1.060558e+004
1.137809e+002, 1.070015e+004
1.142630e+002, 1.080847e+004
1.147451e+002, 1.088803e+004
1.152272e+002, 1.090825e+004
1.157094e+002, 1.087466e+004
1.161915e+002, 1.089220e+004
1.166736e+002, 1.100071e+004
1.171557e+002, 1.111203e+004
1.176378e+002, 1.119799e+004
1.181199e+002, 1.126052e+004
1.186021e+002, 1.131350e+004
1.190842e+002, 1.136474e+004
1.195663e+002, 1.141478e+004
1.200484e+002, 1.148245e+004
1.205305e+002, 1.158942e+004
1.210126e+002, 1.170075e+004
1.214948e+002, 1.177962e+004
1.219769e+002, 1.181846e+004
1.224590e+002, 1.185305e+004
1.229411e+002, 1.193142e+004
1.234232e+002, 1.203998e+004
1.239053e+002, 1.213063e+004
1.243875e+002, 1.217104e+004
1.248696e+002, 1.218013e+004
1.253517e+002, 1.220876e+004
1.258338e+002, 1.226271e+004
1.263159e+002, 1.234080e+004
1.267980e+002, 1.244879e+004
1.272802e+002, 1.258042e+004
1.277623e+002, 1.270573e+004
1.282444e+002, 1.279619e+004
1.287265e+002, 1.284723e+004
1.292086e+002, 1.290818e+004
1.296907e+002, 1.297563e+004
1.301729e+002, 1.306034e+004
1.306550e+002, 1.318222e+004
1.311371e+002, 1.333727e+004
1.316192e+002, 1.349330e+004
1.321013e+002, 1.360136e+004
1.325834e+002, 1.362591e+004
1.330656e+002, 1.367325e+004
1.335477e+002, 1.374555e+004
1.340298e+002, 1.383626e+004
1.345119e+002, 1.394408e+004
1.349940e+002, 1.406747e+004
1.354761e+002, 1.420140e+004
1.359583e+002, 1.433344e+004
1.364404e+002, 1.445936e+004
1.369225e+002, 1.458809e+004
1.374046e+002, 1.471539e+004
1.378867e+002, 1.484721e+004
1.383688e+002, 1.499403e+004
1.388510e+002, 1.516457e+004
1.393331e+002, 1.534704e+004
1.398152e+002, 1.550085e+004
1.402973e+002, 1.561437e+004
1.407794e+002, 1.572412e+004
1.412615e+002, 1.584256e+004
1.417437e+002, 1.596876e+004
1.422258e+002, 1.610164e+004
1.427079e+002, 1.624268e+004
1.431900e+002, 1.638859e+004
1.436721e+002, 1.653005e+004
1.441542e+002, 1.665560e+004
1.446364e+002, 1.679058e+004
1.451185e+002, 1.696864e+004
1.456006e+002, 1.719765e+004
1.460827e+002, 1.742144e+004
1.465648e+002, 1.760757e+004
1.470469e+002, 1.777507e+004
1.475291e+002, 1.793855e+004
1.480112e+002, 1.809624e+004
1.484933e+002, 1.826019e+004
1.489754e+002, 1.846236e+004
1.494575e+002, 1.873297e+004
1.499396e+002, 1.899283e+004
1.504218e+002, 1.921329e+004
1.509039e+002, 1.941149e+004
1.513860e+002, 1.960628e+004
1.518681e+002, 1.980666e+004
1.523502e+002, 2.001537e+004
1.528323e+002, 2.024406e+004
1.533145e+002, 2.051442e+004
1.537966e+002, 2.078623e+004
1.542787e+002, 2.106288e+004
1.547608e+002, 2.133613e+004
1.552429e+002, 2.159416e+004
1.557250e+002, 2.182812e+004
1.562072e+002, 2.203590e+004
1.566893e+002, 2.224000e+004
1.571714e+002, 2.242999e+004
1.576535e+002, 2.262688e+004
1.581356e+002, 2.285584e+004
1.586177e+002, 2.310696e+004
1.590999e+002, 2.334067e+004
1.595820e+002, 2.351652e+004
1.600641e+002, 2.362301e+004
1.605462e+002, 2.374674e+004
1.610283e+002, 2.389668e+004
1.615104e+002, 2.405600e+004
1.619926e+002, 2.421206e+004
1.624747e+002, 2.436288e+004
1.629568e+002, 2.451480e+004
1.634389e+002, 2.466949e+004
1.639210e+002, 2.482786e+004
1.644031e+002, 2.500221e+004
1.648853e+002, 2.521320e+004
1.653674e+002, 2.543625e+004
1.658495e+002, 2.562896e+004
1.663316e+002, 2.578016e+004
1.668137e+002, 2.591784e+004
1.672958e+002, 2.606129e+004
1.677780e+002, 2.621133e+004
1.682601e+002, 2.637656e+004
1.687422e+002, 2.658595e+004
1.692243e+002, 2.682055e+004
1.697064e+002, 2.699344e+004
1.701885e+002, 2.705258e+004
1.706707e+002, 2.710091e+004
1.711528e+002, 2.721206e+004
1.716349e+002, 2.737489e+004
1.721170e+002, 2.753957e+004
1.725991e+002, 2.766182e+004
1.730812e+002, 2.773903e+004
1.735634e+002, 2.783053e+004
1.740455e+002, 2.794809e+004
1.745276e+002, 2.807563e+004
1.750097e+002, 2.821783e+004
1.754918e+002, 2.836846e+004
1.759739e+002, 2.850695e+004
1.764561e+002, 2.860015e+004
1.769382e+002, 2.862146e+004
1.774203e+002, 2.869178e+004
1.779024e+002, 2.885471e+004
1.783845e+002, 2.902642e+004
1.788666e+002, 2.916470e+004
1.793488e+002, 2.926280e+004
1.798309e+002, 2.933880e+004
1.803130e+002, 2.941292e+004
1.807951e+002, 2.947416e+004
1.812772e+002, 2.956145e+004
1.817593e+002, 2.968219e+004
1.822415e+002, 2.981994e+004
1.827236e+002, 2.996826e+004
1.832057e+002, 3.012383e+004
1.836878e+002, 3.027774e+004
1.841699e+002, 3.041487e+004
1.846520e+002, 3.051635e+004
1.851342e+002, 3.064055e+004
1.856163e+002, 3.080965e+004
1.860984e+002, 3.099293e+004
1.865805e+002, 3.115208e+004
1.870626e+002, 3.127436e+004
1.875447e+002, 3.138837e+004
1.880269e+002, 3.154604e+004
1.885090e+002, 3.175536e+004
1.889911e+002, 3.196563e+004
1.894732e+002, 3.215186e+004
1.899553e+002, 3.233380e+004
1.904374e+002, 3.254545e+004
1.909196e+002, 3.280291e+004
1.914017e+002, 3.308445e+004
1.918838e+002, 3.336972e+004
1.923659e+002, 3.366035e+004
1.928480e+002, 3.393128e+004
1.933301e+002, 3.414521e+004
1.938123e+002, 3.432318e+004
1.942944e+002, 3.454804e+004
1.947765e+002, 3.485662e+004
1.952586e+002, 3.520149e+004
1.957407e+002, 3.553426e+004
1.962228e+002, 3.585409e+004
1.967050e+002, 3.616046e+004
1.971871e+002, 3.644334e+004
1.976692e+002, 3.670444e+004
1.981513e+002, 3.698344e+004
1.986334e+002, 3.730575e+004
1.991155e+002, 3.763436e+004
1.995977e+002, 3.794254e+004
2.000798e+002, 3.823002e+004
2.005619e+002, 3.851340e+004
2.010440e+002, 3.880711e+004
2.015261e+002, 3.911271e+004
2.020082e+002, 3.943149e+004
2.024904e+002, 3.976845e+004
2.029725e+002, 4.011800e+004
2.034546e+002, 4.048927e+004
2.039367e+002, 4.087905e+004
2.044188e+002, 4.126659e+004
2.049009e+002, 4.162374e+004
2.053831e+002, 4.194223e+004
2.058652e+002, 4.225279e+004
2.063473e+002, 4.255195e+004
2.068294e+002, 4.284713e+004
2.073115e+002, 4.313401e+004
2.077936e+002, 4.341494e+004
2.082758e+002, 4.370479e+004
2.087579e+002, 4.402541e+004
2.092400e+002, 4.439902e+004
2.097221e+002, 4.475369e+004
2.102042e+002, 4.508715e+004
2.106863e+002, 4.540568e+004
2.111685e+002, 4.571642e+004
2.116506e+002, 4.602002e+004
2.121327e+002, 4.630943e+004
2.126148e+002, 4.657313e+004
2.130969e+002, 4.677511e+004
2.135790e+002, 4.702696e+004
2.140612e+002, 4.736374e+004
2.145433e+002, 4.772352e+004
2.150254e+002, 4.806635e+004
2.155075e+002, 4.837907e+004
2.159896e+002, 4.867136e+004
2.164717e+002, 4.895352e+004
2.169539e+002, 4.922739e+004
2.174360e+002, 4.948523e+004
2.179181e+002, 4.969545e+004
2.184002e+002, 4.990563e+004
2.188823e+002, 5.017163e+004
2.193644e+002, 5.050651e+004
2.198466e+002, 5.086895e+004
2.203287e+002, 5.120542e+004
2.208108e+002, 5.151511e+004
2.212929e+002, 5.181447e+004
2.217750e+002, 5.210322e+004
2.222571e+002, 5.238386e+004
2.227393e+002, 5.265827e+004
2.232214e+002, 5.292591e+004
2.237035e+002, 5.319089e+004
2.241856e+002, 5.344546e+004
2.246677e+002, 5.368896e+004
2.251498e+002, 5.397016e+004
2.256320e+002, 5.431480e+004
2.261141e+002, 5.470175e+004
2.265962e+002, 5.510496e+004
2.270783e+002, 5.553016e+004
2.275604e+002, 5.594404e+004
2.280425e+002, 5.629198e+004
2.285247e+002, 5.659075e+004
2.290068e+002, 5.692969e+004
2.294889e+002, 5.738114e+004
2.299710e+002, 5.789039e+004
2.304531e+002, 5.833127e+004
2.309352e+002, 5.866498e+004
2.314174e+002, 5.898089e+004
2.318995e+002, 5.933635e+004
2.323816e+002, 5.972543e+004
2.328637e+002, 6.013725e+004
2.333458e+002, 6.058210e+004
2.338279e+002, 6.104719e+004
2.343101e+002, 6.149298e+004
2.347922e+002, 6.189003e+004
2.352743e+002, 6.231188e+004
2.357564e+002, 6.280497e+004
2.362385e+002, 6.334782e+004
2.367206e+002, 6.390484e+004
2.372028e+002, 6.447357e+004
2.376849e+002, 6.503879e+004
2.381670e+002, 6.554274e+004
2.386491e+002, 6.596112e+004
2.391312e+002, 6.634769e+004
2.396133e+002, 6.672289e+004
2.400955e+002, 6.708882e+004
2.405776e+002, 6.744795e+004
2.410597e+002, 6.778472e+004
2.415418e+002, 6.811899e+004
2.420239e+002, 6.854860e+004
2.425060e+002, 6.917788e+004
2.429882e+002, 6.976308e+004
2.434703e+002, 7.021995e+004
2.439524e+002, 7.059620e+004
2.444345e+002, 7.095945e+004
2.449166e+002, 7.134345e+004
2.453987e+002, 7.174961e+004
2.458809e+002, 7.217780e+004
2.463630e+002, 7.263763e+004
2.468451e+002, 7.310977e+004
2.473272e+002, 7.362265e+004
2.478093e+002, 7.413638e+004
2.482914e+002, 7.459693e+004
2.487736e+002, 7.497465e+004
2.492557e+002, 7.528296e+004
2.497378e+002, 7.557081e+004
2.502199e+002, 7.580260e+004
2.507020e+002, 7.606026e+004
2.511841e+002, 7.636402e+004
2.516663e+002, 7.669420e+004
2.521484e+002, 7.703060e+004
2.526305e+002, 7.736599e+004
2.531126e+002, 7.769173e+004
2.535947e+002, 7.798753e+004
2.540768e+002, 7.820057e+004
2.545590e+002, 7.844446e+004
2.550411e+002, 7.874830e+004
2.555232e+002, 7.907799e+004
2.560053e+002, 7.940466e+004
2.564874e+002, 7.971477e+004
2.569695e+002, 8.000423e+004
2.574517e+002, 8.026241e+004
2.579338e+002, 8.044905e+004
2.584159e+002, 8.065160e+004
2.588980e+002, 8.088341e+004
2.593801e+002, 8.112593e+004
2.598622e+002, 8.136926e+004
2.603444e+002, 8.160883e+004
2.608265e+002, 8.183138e+004
2.613086e+002, 8.201079e+004
2.617907e+002, 8.212021e+004
2.622728e+002, 8.222432e+004
2.627549e+002, 8.235213e+004
2.632371e+002, 8.246129e+004
2.637192e+002, 8.249991e+004
2.642013e+002, 8.245582e+004
2.646834e+002, 8.237138e+004
2.651655e+002, 8.230980e+004
2.656476e+002, 8.229243e+004
2.661298e+002, 8.224455e+004
2.666119e+002, 8.214084e+004
2.670940e+002, 8.201940e+004
2.675761e+002, 8.192299e+004
2.680582e+002, 8.185850e+004
2.685403e+002, 8.179211e+004
2.690225e+002, 8.168813e+004
2.695046e+002, 8.154295e+004
2.699867e+002, 8.135458e+004
2.704688e+002, 8.109108e+004
2.709509e+002, 8.080515e+004
2.714330e+002, 8.055109e+004
2.719152e+002, 8.033361e+004
2.723973e+002, 8.010133e+004
2.728794e+002, 7.980098e+004
2.733615e+002, 7.942491e+004
2.738436e+002, 7.906667e+004
2.743257e+002, 7.873089e+004
2.748079e+002, 7.840867e+004
2.752900e+002, 7.810538e+004
2.757721e+002, 7.781731e+004
2.762542e+002, 7.752220e+004
2.767363e+002, 7.720414e+004
2.772184e+002, 7.686155e+004
2.777006e+002, 7.649580e+004
2.781827e+002, 7.610759e+004
2.786648e+002, 7.569784e+004
2.791469e+002, 7.526066e+004
2.796290e+002, 7.480013e+004
2.801111e+002, 7.433932e+004
2.805933e+002, 7.389287e+004
2.810754e+002, 7.345676e+004
2.815575e+002, 7.301445e+004
2.820396e+002, 7.259256e+004
2.825217e+002, 7.213503e+004
2.830038e+002, 7.157933e+004
2.834860e+002, 7.094512e+004
2.839681e+002, 7.033100e+004
2.844502e+002, 6.978819e+004
2.849323e+002, 6.928805e+004
2.854144e+002, 6.876728e+004
2.858965e+002, 6.822433e+004
2.863787e+002, 6.766753e+004
2.868608e+002, 6.709005e+004
2.873429e+002, 6.650111e+004
2.878250e+002, 6.592384e+004
2.883071e+002, 6.536416e+004
2.887892e+002, 6.482363e+004
2.892714e+002, 6.430655e+004
2.897535e+002, 6.381752e+004
2.902356e+002, 6.332244e+004
2.907177e+002, 6.281616e+004
2.911998e+002, 6.229191e+004
2.916819e+002, 6.171466e+004
2.921641e+002, 6.105315e+004
2.926462e+002, 6.038148e+004
2.931283e+002, 5.978394e+004
2.936104e+002, 5.925288e+004
2.940925e+002, 5.872896e+004
2.945746e+002, 5.818611e+004
2.950568e+002, 5.763711e+004
2.955389e+002, 5.711075e+004
2.960210e+002, 5.661617e+004
2.965031e+002, 5.612820e+004
2.969852e+002, 5.560047e+004
2.974673e+002, 5.505517e+004
2.979495e+002, 5.455875e+004
2.984316e+002, 5.418416e+004
2.989137e+002, 5.385288e+004
2.993958e+002, 5.343454e+004
2.998779e+002, 5.290705e+004
3.003600e+002, 5.238598e+004
3.008422e+002, 5.196996e+004
3.013243e+002, 5.161059e+004
3.018064e+002, 5.123200e+004
3.022885e+002, 5.079365e+004
3.027706e+002, 5.034761e+004
3.032527e+002, 4.996018e+004
3.037349e+002, 4.963414e+004
3.042170e+002, 4.930369e+004
3.046991e+002, 4.892078e+004
3.051812e+002, 4.852466e+004
3.056633e+002, 4.817183e+004
3.061454e+002, 4.788088e+004
3.066276e+002, 4.760744e+004
3.071097e+002, 4.730831e+004
3.075918e+002, 4.698651e+004
3.080739e+002, 4.668495e+004
3.085560e+002, 4.643505e+004
3.090381e+002, 4.620005e+004
3.095203e+002, 4.593749e+004
3.100024e+002, 4.564285e+004
3.104845e+002, 4.534444e+004
3.109666e+002, 4.505849e+004
3.114487e+002, 4.478416e+004
3.119308e+002, 4.452289e+004
3.124130e+002, 4.428673e+004
3.128951e+002, 4.404795e+004
3.133772e+002, 4.377053e+004
3.138593e+002, 4.346172e+004
3.143414e+002, 4.318098e+004
3.148235e+002, 4.295317e+004
3.153057e+002, 4.277466e+004
3.157878e+002, 4.265126e+004
3.162699e+002, 4.261852e+004
3.167520e+002, 4.255723e+004
3.172341e+002, 4.234928e+004
3.177162e+002, 4.204854e+004
3.181984e+002, 4.176496e+004
3.186805e+002, 4.153620e+004
3.191626e+002, 4.134906e+004
3.196447e+002, 4.119530e+004
3.201268e+002, 4.108439e+004
3.206089e+002, 4.096007e+004
3.210911e+002, 4.076954e+004
3.215732e+002, 4.055046e+004
3.220553e+002, 4.035381e+004
3.225374e+002, 4.018864e+004
3.230195e+002, 4.004886e+004
3.235016e+002, 3.994290e+004
3.239838e+002, 3.987057e+004
3.244659e+002, 3.977746e+004
3.249480e+002, 3.963143e+004
3.254301e+002, 3.946127e+004
3.259122e+002, 3.930029e+004
3.263943e+002, 3.914709e+004
3.268765e+002, 3.901232e+004
3.273586e+002, 3.891874e+004
3.278407e+002, 3.885599e+004
3.283228e+002, 3.876725e+004
3.288049e+002, 3.863325e+004
3.292870e+002, 3.847692e+004
3.297692e+002, 3.831573e+004
3.302513e+002, 3.815123e+004
3.307334e+002, 3.800182e+004
3.312155e+002, 3.788158e+004
3.316976e+002, 3.778288e+004
3.321797e+002, 3.768835e+004
3.326619e+002, 3.759591e+004
3.331440e+002, 3.750846e+004
3.336261e+002, 3.742890e+004
3.341082e+002, 3.735606e+004
3.345903e+002, 3.728826e+004
3.350724e+002, 3.721997e+004
3.355546e+002, 3.715957e+004
3.360367e+002, 3.712767e+004
3.365188e+002, 3.712848e+004
3.370009e+002, 3.711522e+004
3.374830e+002, 3.705923e+004
3.379651e+002, 3.697039e+004
3.384473e+002, 3.686687e+004
3.389294e+002, 3.674009e+004
3.394115e+002, 3.661573e+004
3.398936e+002, 3.652038e+004
3.403757e+002, 3.644957e+004
3.408578e+002, 3.637109e+004
3.413400e+002, 3.626535e+004
3.418221e+002, 3.615382e+004
3.423042e+002, 3.606737e+004
3.427863e+002, 3.600708e+004
3.432684e+002, 3.595948e+004
3.437505e+002, 3.593127e+004
3.442327e+002, 3.591036e+004
3.447148e+002, 3.586191e+004
3.451969e+002, 3.577002e+004
3.456790e+002, 3.567228e+004
3.461611e+002, 3.561178e+004
3.466432e+002, 3.558303e+004
3.471254e+002, 3.556886e+004
3.476075e+002, 3.558456e+004
3.480896e+002, 3.560296e+004
3.485717e+002, 3.559095e+004
3.490538e+002, 3.554540e+004
3.495359e+002, 3.547807e+004
3.500181e+002, 3.538410e+004
3.505002e+002, 3.527390e+004
3.509823e+002, 3.519249e+004
3.514644e+002, 3.514266e+004
3.519465e+002, 3.512255e+004
3.524286e+002, 3.516260e+004
3.529108e+002, 3.524370e+004
3.533929e+002, 3.526608e+004
3.538750e+002, 3.515932e+004
3.543571e+002, 3.498582e+004
3.548392e+002, 3.490231e+004
3.553214e+002, 3.493116e+004
3.558035e+002, 3.498141e+004
3.562856e+002, 3.505490e+004
3.567677e+002, 3.512200e+004
3.572498e+002, 3.511769e+004
3.577319e+002, 3.501611e+004
3.582141e+002, 3.488010e+004
3.586962e+002, 3.479351e+004
3.591783e+002, 3.476279e+004
3.596604e+002, 3.473916e+004
3.601425e+002, 3.471659e+004
3.606246e+002, 3.469917e+004
3.611068e+002, 3.470328e+004
3.615889e+002, 3.472638e+004
3.620710e+002, 3.472575e+004
3.625531e+002, 3.465584e+004
3.630352e+002, 3.451865e+004
3.635173e+002, 3.443438e+004
3.639995e+002, 3.444457e+004
3.644816e+002, 3.446066e+004
3.649637e+002, 3.443239e+004
3.654458e+002, 3.437576e+004
3.659279e+002, 3.433542e+004
3.664100e+002, 3.433518e+004
3.668922e+002, 3.436525e+004
3.673743e+002, 3.439512e+004
3.678564e+002, 3.442955e+004
3.683385e+002, 3.445698e+004
3.688206e+002, 3.447330e+004
3.693027e+002, 3.448282e+004
3.697849e+002, 3.449883e+004
3.702670e+002, 3.452318e+004
3.707491e+002, 3.452920e+004
3.712312e+002, 3.447588e+004
3.717133e+002, 3.433571e+004
3.721954e+002, 3.421777e+004
3.726776e+002, 3.412603e+004
3.731597e+002, 3.405148e+004
3.736418e+002, 3.398586e+004
3.741239e+002, 3.393113e+004
3.746060e+002, 3.389918e+004
3.750881e+002, 3.390346e+004
3.755703e+002, 3.394217e+004
3.760524e+002, 3.395031e+004
3.765345e+002, 3.390623e+004
3.770166e+002, 3.385764e+004
3.774987e+002, 3.380939e+004
3.779808e+002, 3.376470e+004
3.784630e+002, 3.372617e+004
3.789451e+002, 3.369503e+004
3.794272e+002, 3.367143e+004
3.799093e+002, 3.365561e+004
3.803914e+002, 3.364681e+004
3.808735e+002, 3.364843e+004
3.813557e+002, 3.365669e+004
3.818378e+002, 3.367644e+004
3.823199e+002, 3.372741e+004
3.828020e+002, 3.380305e+004
3.832841e+002, 3.386052e+004
3.837662e+002, 3.384362e+004
3.842484e+002, 3.373685e+004
3.847305e+002, 3.366318e+004
3.852126e+002, 3.364996e+004
3.856947e+002, 3.364458e+004
3.861768e+002, 3.363276e+004
3.866589e+002, 3.361608e+004
3.871411e+002, 3.359988e+004
3.876232e+002, 3.358611e+004
3.881053e+002, 3.357679e+004
3.885874e+002, 3.358349e+004
3.890695e+002, 3.362786e+004
3.895516e+002, 3.364595e+004
3.900338e+002, 3.359798e+004
3.905159e+002, 3.353482e+004
3.909980e+002, 3.349463e+004
3.914801e+002, 3.348874e+004
3.919622e+002, 3.352440e+004
3.924443e+002, 3.364184e+004
3.929265e+002, 3.385889e+004
3.934086e+002, 3.398206e+004
3.938907e+002, 3.390846e+004
3.943728e+002, 3.380578e+004
3.948549e+002, 3.376246e+004
3.953370e+002, 3.377434e+004
3.958192e+002, 3.380664e+004
3.963013e+002, 3.385309e+004
3.967834e+002, 3.390279e+004
3.972655e+002, 3.390992e+004
3.977476e+002, 3.385114e+004
3.982297e+002, 3.381054e+004
3.987119e+002, 3.384980e+004
3.991940e+002, 3.392816e+004
3.996761e+002, 3.399849e+004
4.001582e+002, 3.405269e+004
4.006403e+002, 3.408738e+004
4.011224e+002, 3.409135e+004
4.016046e+002, 3.406643e+004
4.020867e+002, 3.404238e+004
4.025688e+002, 3.401637e+004
4.030509e+002, 3.400932e+004
4.035330e+002, 3.404875e+004
4.040151e+002, 3.413511e+004
4.044973e+002, 3.422438e+004
4.049794e+002, 3.430167e+004
4.054615e+002, 3.436820e+004
4.059436e+002, 3.442554e+004
4.064257e+002, 3.447335e+004
4.069078e+002, 3.451428e+004
4.073900e+002, 3.455151e+004
4.078721e+002, 3.458309e+004
4.083542e+002, 3.460205e+004
4.088363e+002, 3.458601e+004
4.093184e+002, 3.457704e+004
4.098005e+002, 3.460611e+004
4.102827e+002, 3.466604e+004
4.107648e+002, 3.473106e+004
4.112469e+002, 3.478967e+004
4.117290e+002, 3.484711e+004
4.122111e+002, 3.491534e+004
4.126932e+002, 3.499425e+004
4.131754e+002, 3.508096e+004
4.136575e+002, 3.517481e+004
4.141396e+002, 3.527596e+004
4.146217e+002, 3.540077e+004
4.151038e+002, 3.554614e+004
4.155859e+002, 3.566167e+004
4.160681e+002, 3.568625e+004
4.165502e+002, 3.560508e+004
4.170323e+002, 3.560129e+004
4.175144e+002, 3.575275e+004
4.179965e+002, 3.588714e+004
4.184786e+002, 3.589796e+004
4.189608e+002, 3.584442e+004
4.194429e+002, 3.585643e+004
4.199250e+002, 3.600419e+004
4.204071e+002, 3.623022e+004
4.208892e+002, 3.637411e+004
4.213713e+002, 3.636757e+004
4.218535e+002, 3.637712e+004
4.223356e+002, 3.640823e+004
4.228177e+002, 3.645596e+004
4.232998e+002, 3.652985e+004
4.237819e+002, 3.662309e+004
4.242640e+002, 3.670216e+004
4.247462e+002, 3.672550e+004
4.252283e+002, 3.668724e+004
4.257104e+002, 3.668187e+004
4.261925e+002, 3.674133e+004
4.266746e+002, 3.680093e+004
4.271567e+002, 3.685773e+004
4.276389e+002, 3.689909e+004
4.281210e+002, 3.689776e+004
4.286031e+002, 3.683325e+004
4.290852e+002, 3.675032e+004
4.295673e+002, 3.675221e+004
4.300494e+002, 3.687182e+004
4.305316e+002, 3.695743e+004
4.310137e+002, 3.691928e+004
4.314958e+002, 3.687254e+004
4.319779e+002, 3.691175e+004
4.324600e+002, 3.703434e+004
4.329421e+002, 3.713201e+004
4.334243e+002, 3.710430e+004
4.339064e+002, 3.697946e+004
4.343885e+002, 3.687573e+004
4.348706e+002, 3.679382e+004
4.353527e+002, 3.674379e+004
4.358348e+002, 3.676698e+004
4.363170e+002, 3.682053e+004
4.367991e+002, 3.682877e+004
4.372812e+002, 3.675455e+004
4.377633e+002, 3.665560e+004
4.382454e+002, 3.658279e+004
4.387275e+002, 3.653272e+004
4.392097e+002, 3.648637e+004
4.396918e+002, 3.644164e+004
4.401739e+002, 3.639149e+004
4.406560e+002, 3.631090e+004
4.411381e+002, 3.619160e+004
4.416202e+002, 3.612193e+004
4.421024e+002, 3.617966e+004
4.425845e+002, 3.627071e+004
4.430666e+002, 3.628892e+004
4.435487e+002, 3.622542e+004
4.440308e+002, 3.612555e+004
4.445129e+002, 3.601998e+004
4.449951e+002, 3.590772e+004
4.454772e+002, 3.577675e+004
4.459593e+002, 3.557627e+004
4.464414e+002, 3.541923e+004
4.469235e+002, 3.537501e+004
4.474056e+002, 3.538570e+004
4.478878e+002, 3.535791e+004
4.483699e+002, 3.526058e+004
4.488520e+002, 3.514277e+004
4.493341e+002, 3.508255e+004
4.498162e+002, 3.511467e+004
4.502983e+002, 3.510602e+004
4.507805e+002, 3.503330e+004
4.512626e+002, 3.494809e+004
4.517447e+002, 3.488641e+004
4.522268e+002, 3.483572e+004
4.527089e+002, 3.475272e+004
4.531910e+002, 3.460390e+004
4.536732e+002, 3.441076e+004
4.541553e+002, 3.426567e+004
4.546374e+002, 3.418944e+004
4.551195e+002, 3.412882e+004
4.556016e+002, 3.410098e+004
4.560837e+002, 3.406658e+004
4.565659e+002, 3.397337e+004
4.570480e+002, 3.381923e+004
4.575301e+002, 3.367991e+004
4.580122e+002, 3.366016e+004
4.584943e+002, 3.375621e+004
4.589764e+002, 3.377247e+004
4.594586e+002, 3.366602e+004
4.599407e+002, 3.353191e+004
4.604228e+002, 3.339186e+004
4.609049e+002, 3.326605e+004
4.613870e+002, 3.319670e+004
4.618691e+002, 3.321741e+004
4.623513e+002, 3.326907e+004
4.628334e+002, 3.328914e+004
4.633155e+002, 3.327773e+004
4.637976e+002, 3.323538e+004
4.642797e+002, 3.315512e+004
4.647618e+002, 3.305119e+004
4.652440e+002, 3.293238e+004
4.657261e+002, 3.279718e+004
4.662082e+002, 3.268778e+004
4.666903e+002, 3.263685e+004
4.671724e+002, 3.260892e+004
4.676545e+002, 3.256037e+004
4.681367e+002, 3.248880e+004
4.686188e+002, 3.241497e+004
4.691009e+002, 3.235305e+004
4.695830e+002, 3.230056e+004
4.700651e+002, 3.224302e+004
4.705472e+002, 3.218321e+004
4.710294e+002, 3.211619e+004
4.715115e+002, 3.202709e+004
4.719936e+002, 3.193577e+004
4.724757e+002, 3.186439e+004
4.729578e+002, 3.181949e+004
4.734399e+002, 3.180023e+004
4.739221e+002, 3.181127e+004
4.744042e+002, 3.186465e+004
4.748863e+002, 3.187676e+004
4.753684e+002, 3.184417e+004
4.758505e+002, 3.177964e+004
4.763326e+002, 3.164279e+004
4.768148e+002, 3.148626e+004
4.772969e+002, 3.140551e+004
4.777790e+002, 3.144954e+004
4.782611e+002, 3.155369e+004
4.787432e+002, 3.158022e+004
4.792253e+002, 3.150669e+004
4.797075e+002, 3.141837e+004
4.801896e+002, 3.128226e+004
4.806717e+002, 3.116930e+004
4.811538e+002, 3.114156e+004
4.816359e+002, 3.118128e+004
4.821180e+002, 3.120522e+004
4.826002e+002, 3.113918e+004
4.830823e+002, 3.102251e+004
4.835644e+002, 3.097710e+004
4.840465e+002, 3.102740e+004
4.845286e+002, 3.105939e+004
4.850107e+002, 3.099794e+004
4.854929e+002, 3.090372e+004
4.859750e+002, 3.085469e+004
4.864571e+002, 3.086932e+004
4.869392e+002, 3.087427e+004
4.874213e+002, 3.079970e+004
4.879034e+002, 3.068696e+004
4.883856e+002, 3.064129e+004
4.888677e+002, 3.068695e+004
4.893498e+002, 3.073399e+004
4.898319e+002, 3.069789e+004
4.903140e+002, 3.058525e+004
4.907961e+002, 3.051029e+004
4.912783e+002, 3.048803e+004
4.917604e+002, 3.048645e+004
4.922425e+002, 3.050274e+004
4.927246e+002, 3.052727e+004
4.932067e+002, 3.053919e+004
4.936888e+002, 3.053115e+004
4.941710e+002, 3.052221e+004
4.946531e+002, 3.054578e+004
4.951352e+002, 3.062626e+004
4.956173e+002, 3.066013e+004
4.960994e+002, 3.061814e+004
4.965815e+002, 3.056512e+004
4.970637e+002, 3.053258e+004
4.975458e+002, 3.051371e+004
4.980279e+002, 3.048479e+004
4.985100e+002, 3.043069e+004
4.989921e+002, 3.036730e+004
4.994742e+002, 3.033711e+004
4.999564e+002, 3.035570e+004
5.004385e+002, 3.036786e+004
5.009206e+002, 3.036637e+004
5.014027e+002, 3.035548e+004
5.018848e+002, 3.033305e+004
5.023669e+002, 3.030165e+004
5.028491e+002, 3.027168e+004
5.033312e+002, 3.024896e+004
5.038133e+002, 3.023316e+004
5.042954e+002, 3.022664e+004
5.047775e+002, 3.023281e+004
5.052596e+002, 3.023329e+004
5.057418e+002, 3.022624e+004
5.062239e+002, 3.020411e+004
5.067060e+002, 3.014637e+004
5.071881e+002, 3.003614e+004
5.076702e+002, 2.995863e+004
5.081523e+002, 2.998570e+004
5.086345e+002, 3.006367e+004
5.091166e+002, 3.009794e+004
5.095987e+002, 3.007441e+004
5.100808e+002, 3.004757e+004
5.105629e+002, 3.006584e+004
5.110450e+002, 3.012312e+004
5.115272e+002, 3.014830e+004
5.120093e+002, 3.014113e+004
5.124914e+002, 3.010705e+004
5.129735e+002, 3.001010e+004
5.134556e+002, 2.990233e+004
5.139377e+002, 2.986075e+004
5.144199e+002, 2.990228e+004
5.149020e+002, 2.997026e+004
5.153841e+002, 2.999462e+004
5.158662e+002, 2.997023e+004
5.163483e+002, 2.993821e+004
5.168304e+002, 2.989302e+004
5.173126e+002, 2.984604e+004
5.177947e+002, 2.979731e+004
5.182768e+002, 2.974986e+004
5.187589e+002, 2.970588e+004
5.192410e+002, 2.966591e+004
5.197231e+002, 2.963465e+004
5.202053e+002, 2.962143e+004
5.206874e+002, 2.962751e+004
5.211695e+002, 2.963417e+004
5.216516e+002, 2.964695e+004
5.221337e+002, 2.964876e+004
5.226158e+002, 2.962539e+004
5.230980e+002, 2.958293e+004
5.235801e+002, 2.953787e+004
5.240622e+002, 2.948852e+004
5.245443e+002, 2.944669e+004
5.250264e+002, 2.942530e+004
5.255085e+002, 2.942303e+004
5.259907e+002, 2.943569e+004
5.264728e+002, 2.946666e+004
5.269549e+002, 2.950171e+004
5.274370e+002, 2.951797e+004
5.279191e+002, 2.951242e+004
5.284012e+002, 2.951118e+004
5.288834e+002, 2.952670e+004
5.293655e+002, 2.953905e+004
5.298476e+002, 2.952956e+004
5.303297e+002, 2.950459e+004
5.308118e+002, 2.948321e+004
5.312939e+002, 2.947528e+004
5.317761e+002, 2.947862e+004
5.322582e+002, 2.948873e+004
5.327403e+002, 2.951226e+004
5.332224e+002, 2.952943e+004
5.337045e+002, 2.953515e+004
5.341866e+002, 2.953878e+004
5.346688e+002, 2.955218e+004
5.351509e+002, 2.956903e+004
5.356330e+002, 2.956737e+004
5.361151e+002, 2.952494e+004
5.365972e+002, 2.946486e+004
5.370793e+002, 2.945576e+004
5.375615e+002, 2.951299e+004
5.380436e+002, 2.955871e+004
5.385257e+002, 2.956421e+004
5.390078e+002, 2.955378e+004
5.394899e+002, 2.954671e+004
5.399720e+002, 2.954395e+004
5.404542e+002, 2.954243e+004
5.409363e+002, 2.953981e+004
5.414184e+002, 2.953828e+004
5.419005e+002, 2.954327e+004
5.423826e+002, 2.955441e+004
5.428647e+002, 2.956101e+004
5.433469e+002, 2.955596e+004
5.438290e+002, 2.954436e+004
5.443111e+002, 2.953938e+004
5.447932e+002, 2.954246e+004
5.452753e+002, 2.954709e+004
5.457574e+002, 2.956513e+004
5.462396e+002, 2.957498e+004
5.467217e+002, 2.953844e+004
5.472038e+002, 2.946964e+004
5.476859e+002, 2.943390e+004
5.481680e+002, 2.948101e+004
5.486501e+002, 2.958979e+004
5.491323e+002, 2.966769e+004
5.496144e+002, 2.970861e+004
5.500965e+002, 2.972611e+004
5.505786e+002, 2.968678e+004
5.510607e+002, 2.965475e+004
5.515428e+002, 2.969438e+004
5.520250e+002, 2.979593e+004
5.525071e+002, 2.988197e+004
5.529892e+002, 2.988588e+004
5.534713e+002, 2.983624e+004
5.539534e+002, 2.981351e+004
5.544355e+002, 2.981935e+004
5.549177e+002, 2.984730e+004
5.553998e+002, 2.992221e+004
5.558819e+002, 2.999741e+004
5.563640e+002, 3.000511e+004
5.568461e+002, 2.993549e+004
5.573282e+002, 2.987123e+004
5.578104e+002, 2.982825e+004
5.582925e+002, 2.981661e+004
5.587746e+002, 2.985946e+004
5.592567e+002, 2.995214e+004
5.597388e+002, 3.005840e+004
5.602209e+002, 3.016474e+004
5.607031e+002, 3.025740e+004
5.611852e+002, 3.029262e+004
5.616673e+002, 3.020139e+004
5.621494e+002, 3.014929e+004
5.626315e+002, 3.016394e+004
5.631136e+002, 3.019848e+004
5.635958e+002, 3.021399e+004
5.640779e+002, 3.021564e+004
5.645600e+002, 3.023992e+004
5.650421e+002, 3.031950e+004
5.655242e+002, 3.042858e+004
5.660063e+002, 3.047365e+004
5.664885e+002, 3.042744e+004
5.669706e+002, 3.039615e+004
5.674527e+002, 3.041609e+004
5.679348e+002, 3.045104e+004
5.684169e+002, 3.047268e+004
5.688990e+002, 3.048326e+004
5.693812e+002, 3.051042e+004
5.698633e+002, 3.058845e+004
5.703454e+002, 3.068079e+004
5.708275e+002, 3.072368e+004
5.713096e+002, 3.072121e+004
5.717917e+002, 3.074069e+004
5.722739e+002, 3.081704e+004
5.727560e+002, 3.092066e+004
5.732381e+002, 3.100113e+004
5.737202e+002, 3.105821e+004
5.742023e+002, 3.109776e+004
5.746844e+002, 3.111630e+004
5.751666e+002, 3.112136e+004
5.756487e+002, 3.109597e+004
5.761308e+002, 3.106161e+004
5.766129e+002, 3.107517e+004
5.770950e+002, 3.116851e+004
5.775771e+002, 3.130134e+004
5.780593e+002, 3.138382e+004
5.785414e+002, 3.139826e+004
5.790235e+002, 3.141007e+004
5.795056e+002, 3.138899e+004
5.799877e+002, 3.139720e+004
5.804698e+002, 3.148639e+004
5.809520e+002, 3.162611e+004
5.814341e+002, 3.174822e+004
5.819162e+002, 3.182421e+004
5.823983e+002, 3.186515e+004
5.828804e+002, 3.186978e+004
5.833625e+002, 3.184333e+004
5.838447e+002, 3.184435e+004
5.843268e+002, 3.189260e+004
5.848089e+002, 3.195762e+004
5.852910e+002, 3.200974e+004
5.857731e+002, 3.205039e+004
5.862552e+002, 3.209273e+004
5.867374e+002, 3.214742e+004
5.872195e+002, 3.219440e+004
5.877016e+002, 3.221638e+004
5.881837e+002, 3.222525e+004
5.886658e+002, 3.224778e+004
5.891479e+002, 3.229046e+004
5.896301e+002, 3.232421e+004
5.901122e+002, 3.230724e+004
5.905943e+002, 3.223018e+004
5.910764e+002, 3.219255e+004
5.915585e+002, 3.221831e+004
5.920406e+002, 3.225752e+004
5.925228e+002, 3.232468e+004
5.930049e+002, 3.238633e+004
5.934870e+002, 3.239556e+004
5.939691e+002, 3.234184e+004
5.944512e+002, 3.227725e+004
5.949333e+002, 3.224414e+004
5.954155e+002, 3.224056e+004
5.958976e+002, 3.226399e+004
5.963797e+002, 3.232067e+004
5.968618e+002, 3.237642e+004
5.973439e+002, 3.241637e+004
5.978260e+002, 3.243898e+004
5.983082e+002, 3.244301e+004
5.987903e+002, 3.242217e+004
5.992724e+002, 3.239920e+004
5.997545e+002, 3.236816e+004
6.002366e+002, 3.234691e+004
6.007188e+002, 3.236673e+004
6.012009e+002, 3.242113e+004
6.016830e+002, 3.246751e+004
6.021651e+002, 3.247836e+004
6.026472e+002, 3.245673e+004
6.031293e+002, 3.241005e+004
6.036115e+002, 3.230651e+004
6.040936e+002, 3.223710e+004
6.045757e+002, 3.223868e+004
6.050578e+002, 3.224540e+004
6.055399e+002, 3.220784e+004
6.060220e+002, 3.213844e+004
6.065042e+002, 3.208931e+004
6.069863e+002, 3.210358e+004
6.074684e+002, 3.213247e+004
6.079505e+002, 3.208282e+004
6.084326e+002, 3.195712e+004
6.089147e+002, 3.185852e+004
6.093969e+002, 3.181397e+004
6.098790e+002, 3.180514e+004
6.103611e+002, 3.183159e+004
6.108432e+002, 3.188838e+004
6.113253e+002, 3.190408e+004
6.118074e+002, 3.184383e+004
6.122896e+002, 3.176943e+004
6.127717e+002, 3.169948e+004
6.132538e+002, 3.164123e+004
6.137359e+002, 3.161347e+004
6.142180e+002, 3.161897e+004
6.147001e+002, 3.162561e+004
6.151823e+002, 3.159482e+004
6.156644e+002, 3.152495e+004
6.161465e+002, 3.144944e+004
6.166286e+002, 3.134888e+004
6.171107e+002, 3.127084e+004
6.175928e+002, 3.124785e+004
6.180750e+002, 3.124018e+004
6.185571e+002, 3.120168e+004
6.190392e+002, 3.112511e+004
6.195213e+002, 3.105236e+004
6.200034e+002, 3.102050e+004
6.204855e+002, 3.101393e+004
6.209677e+002, 3.099988e+004
6.214498e+002, 3.097714e+004
6.219319e+002, 3.094436e+004
6.224140e+002, 3.089475e+004
6.228961e+002, 3.084148e+004
6.233782e+002, 3.081677e+004
6.238604e+002, 3.083465e+004
6.243425e+002, 3.083344e+004
6.248246e+002, 3.080569e+004
6.253067e+002, 3.075739e+004
6.257888e+002, 3.066176e+004
6.262709e+002, 3.055073e+004
6.267531e+002, 3.050558e+004
6.272352e+002, 3.056818e+004
6.277173e+002, 3.066809e+004
6.281994e+002, 3.067323e+004
6.286815e+002, 3.056655e+004
6.291636e+002, 3.045615e+004
6.296458e+002, 3.032686e+004
6.301279e+002, 3.022251e+004
6.306100e+002, 3.018096e+004
6.310921e+002, 3.017180e+004
6.315742e+002, 3.013671e+004
6.320563e+002, 3.004839e+004
6.325385e+002, 2.997132e+004
6.330206e+002, 2.996113e+004
6.335027e+002, 2.999286e+004
6.339848e+002, 3.002570e+004
6.344669e+002, 3.005275e+004
6.349490e+002, 3.005393e+004
6.354312e+002, 3.000706e+004
6.359133e+002, 2.992745e+004
6.363954e+002, 2.988717e+004
6.368775e+002, 2.998679e+004
6.373596e+002, 2.998856e+004
6.378417e+002, 2.981105e+004
6.383239e+002, 2.959397e+004
6.388060e+002, 2.943128e+004
6.392881e+002, 2.932035e+004
6.397702e+002, 2.921028e+004
6.402523e+002, 2.906445e+004
6.407344e+002, 2.891805e+004
6.412166e+002, 2.886240e+004
6.416987e+002, 2.890375e+004
6.421808e+002, 2.887607e+004
6.426629e+002, 2.870896e+004
6.431450e+002, 2.852623e+004
6.436271e+002, 2.845704e+004
6.441093e+002, 2.846846e+004
6.445914e+002, 2.844293e+004
6.450735e+002, 2.833179e+004
6.455556e+002, 2.821849e+004
6.460377e+002, 2.815345e+004
6.465198e+002, 2.810530e+004
6.470020e+002, 2.802082e+004
6.474841e+002, 2.789537e+004
6.479662e+002, 2.777603e+004
6.484483e+002, 2.770650e+004
6.489304e+002, 2.767967e+004
6.494125e+002, 2.764369e+004
6.498947e+002, 2.760494e+004
6.503768e+002, 2.754454e+004
6.508589e+002, 2.746083e+004
6.513410e+002, 2.735468e+004
6.518231e+002, 2.721249e+004
6.523052e+002, 2.704369e+004
6.527874e+002, 2.688904e+004
6.532695e+002, 2.677733e+004
6.537516e+002, 2.668165e+004
6.542337e+002, 2.657057e+004
6.547158e+002, 2.644710e+004
6.551979e+002, 2.632611e+004
6.556801e+002, 2.621251e+004
6.561622e+002, 2.609763e+004
6.566443e+002, 2.596781e+004
6.571264e+002, 2.582139e+004
6.576085e+002, 2.569962e+004
6.580906e+002, 2.562235e+004
6.585728e+002, 2.554161e+004
6.590549e+002, 2.545325e+004
6.595370e+002, 2.535096e+004
6.600191e+002, 2.522094e+004
6.605012e+002, 2.506594e+004
6.609833e+002, 2.491013e+004
6.614655e+002, 2.476676e+004
6.619476e+002, 2.464078e+004
6.624297e+002, 2.457160e+004
6.629118e+002, 2.457430e+004
6.633939e+002, 2.450961e+004
6.638760e+002, 2.429822e+004
6.643582e+002, 2.404604e+004
6.648403e+002, 2.388468e+004
6.653224e+002, 2.380615e+004
6.658045e+002, 2.372047e+004
6.662866e+002, 2.359791e+004
6.667687e+002, 2.348103e+004
6.672509e+002, 2.340163e+004
6.677330e+002, 2.334158e+004
6.682151e+002, 2.327350e+004
6.686972e+002, 2.318897e+004
6.691793e+002, 2.309155e+004
6.696614e+002, 2.298393e+004
6.701436e+002, 2.286586e+004
6.706257e+002, 2.273369e+004
6.711078e+002, 2.257934e+004
6.715899e+002, 2.242678e+004
6.720720e+002, 2.226225e+004
6.725541e+002, 2.211519e+004
6.730363e+002, 2.202406e+004
6.735184e+002, 2.198325e+004
6.740005e+002, 2.192212e+004
6.744826e+002, 2.180146e+004
6.749647e+002, 2.165307e+004
6.754468e+002, 2.148964e+004
6.759290e+002, 2.132394e+004
6.764111e+002, 2.120357e+004
6.768932e+002, 2.114452e+004
6.773753e+002, 2.108975e+004
6.778574e+002, 2.096822e+004
6.783395e+002, 2.077603e+004
6.788217e+002, 2.061972e+004
6.793038e+002, 2.052398e+004
6.797859e+002, 2.043445e+004
6.802680e+002, 2.035264e+004
6.807501e+002, 2.026717e+004
6.812322e+002, 2.016516e+004
6.817144e+002, 2.004810e+004
6.821965e+002, 1.993026e+004
6.826786e+002, 1.982440e+004
6.831607e+002, 1.972234e+004
6.836428e+002, 1.961621e+004
6.841249e+002, 1.950420e+004
6.846071e+002, 1.936680e+004
6.850892e+002, 1.918841e+004
6.855713e+002, 1.901711e+004
6.860534e+002, 1.891304e+004
6.865355e+002, 1.888208e+004
6.870176e+002, 1.882067e+004
6.874998e+002, 1.869866e+004
6.879819e+002, 1.858711e+004
6.884640e+002, 1.851987e+004
6.889461e+002, 1.846163e+004
6.894282e+002, 1.837766e+004
6.899103e+002, 1.826333e+004
6.903925e+002, 1.813047e+004
6.908746e+002, 1.797928e+004
6.913567e+002, 1.782534e+004
6.918388e+002, 1.771762e+004
6.923209e+002, 1.765897e+004
6.928030e+002, 1.756935e+004
6.932852e+002, 1.741039e+004
6.937673e+002, 1.724677e+004
6.942494e+002, 1.715297e+004
6.947315e+002, 1.712341e+004
6.952136e+002, 1.706687e+004
6.956957e+002, 1.697188e+004
6.961779e+002, 1.685899e+004
6.966600e+002, 1.671406e+004
6.971421e+002, 1.656738e+004
6.976242e+002, 1.645949e+004
6.981063e+002, 1.638955e+004
6.985884e+002, 1.631839e+004
6.990706e+002, 1.621356e+004
6.995527e+002, 1.609089e+004
7.000348e+002, 1.600044e+004
7.005169e+002, 1.595009e+004
7.009990e+002, 1.588029e+004
7.014811e+002, 1.577136e+004
7.019633e+002, 1.565110e+004
7.024454e+002, 1.553850e+004
7.029275e+002, 1.543322e+004
7.034096e+002, 1.533262e+004
7.038917e+002, 1.523013e+004
7.043738e+002, 1.514093e+004
7.048560e+002, 1.507422e+004
7.053381e+002, 1.502175e+004
7.058202e+002, 1.497696e+004
7.063023e+002, 1.493652e+004
7.067844e+002, 1.489443e+004
7.072665e+002, 1.484716e+004
7.077487e+002, 1.479363e+004
7.082308e+002, 1.473116e+004
7.087129e+002, 1.465813e+004
7.091950e+002, 1.458341e+004
7.096771e+002, 1.450688e+004
7.101592e+002, 1.443051e+004
7.106414e+002, 1.434480e+004
7.111235e+002, 1.426188e+004
7.116056e+002, 1.421295e+004
7.120877e+002, 1.422257e+004
7.125698e+002, 1.422067e+004
7.130519e+002, 1.417262e+004
7.135341e+002, 1.409537e+004
7.140162e+002, 1.399920e+004
7.144983e+002, 1.389185e+004
7.149804e+002, 1.379288e+004
7.154625e+002, 1.371365e+004
7.159446e+002, 1.364396e+004
7.164268e+002, 1.356003e+004
7.169089e+002, 1.345640e+004
7.173910e+002, 1.336309e+004
7.178731e+002, 1.329592e+004
7.183552e+002, 1.321682e+004
7.188373e+002, 1.309882e+004
7.193195e+002, 1.296219e+004
7.198016e+002, 1.283248e+004
7.202837e+002, 1.271073e+004
7.207658e+002, 1.260814e+004
7.212479e+002, 1.255313e+004
7.217300e+002, 1.250361e+004
7.222122e+002, 1.239881e+004
7.226943e+002, 1.225566e+004
7.231764e+002, 1.214400e+004
7.236585e+002, 1.209462e+004
7.241406e+002, 1.207151e+004
7.246227e+002, 1.202360e+004
7.251049e+002, 1.195054e+004
7.255870e+002, 1.184926e+004
7.260691e+002, 1.168580e+004
7.265512e+002, 1.155022e+004
7.270333e+002, 1.149707e+004
7.275154e+002, 1.147095e+004
7.279976e+002, 1.141866e+004
7.284797e+002, 1.133584e+004
7.289618e+002, 1.124965e+004
7.294439e+002, 1.115341e+004
7.299260e+002, 1.107448e+004
7.304081e+002, 1.105500e+004
7.308903e+002, 1.107088e+004
7.313724e+002, 1.106633e+004
7.318545e+002, 1.102489e+004
7.323366e+002, 1.096045e+004
7.328187e+002, 1.088484e+004
7.333008e+002, 1.079939e+004
7.337830e+002, 1.071677e+004
7.342651e+002, 1.063059e+004
7.347472e+002, 1.056130e+004
7.352293e+002, 1.053491e+004
7.357114e+002, 1.050947e+004
7.361935e+002, 1.044886e+004
7.366757e+002, 1.036121e+004
7.371578e+002, 1.028627e+004
7.376399e+002, 1.024601e+004
7.381220e+002, 1.020895e+004
7.386041e+002, 1.015676e+004
7.390862e+002, 1.009313e+004
7.395684e+002, 1.002094e+004
7.400505e+002, 9.942654e+003
7.405326e+002, 9.864556e+003
7.410147e+002, 9.789684e+003
7.414968e+002, 9.722627e+003
7.419789e+002, 9.679691e+003
7.424611e+002, 9.668655e+003
7.429432e+002, 9.654219e+003
7.434253e+002, 9.644639e+003
7.439074e+002, 9.616002e+003
7.443895e+002, 9.544719e+003
7.448716e+002, 9.448903e+003
7.453538e+002, 9.360189e+003
7.458359e+002, 9.282063e+003
7.463180e+002, 9.215673e+003
7.468001e+002, 9.159160e+003
7.472822e+002, 9.116814e+003
7.477643e+002, 9.106602e+003
7.482465e+002, 9.115387e+003
7.487286e+002, 9.102146e+003
7.492107e+002, 9.048245e+003
7.496928e+002, 8.973245e+003
7.501749e+002, 8.903039e+003
7.506570e+002, 8.837309e+003
7.511392e+002, 8.780913e+003
7.516213e+002, 8.732634e+003
7.521034e+002, 8.696443e+003
7.525855e+002, 8.684100e+003
7.530676e+002, 8.677721e+003
7.535497e+002, 8.654425e+003
7.540319e+002, 8.613423e+003
7.545140e+002, 8.573998e+003
7.549961e+002, 8.541886e+003
7.554782e+002, 8.511348e+003
7.559603e+002, 8.479035e+003
7.564424e+002, 8.446139e+003
7.569246e+002, 8.414259e+003
7.574067e+002, 8.383765e+003
7.578888e+002, 8.356146e+003
7.583709e+002, 8.336365e+003
7.588530e+002, 8.315659e+003
7.593351e+002, 8.254200e+003
7.598173e+002, 8.143538e+003
7.602994e+002, 8.068615e+003
7.607815e+002, 8.060321e+003
7.612636e+002, 8.069654e+003
7.617457e+002, 8.057904e+003
7.622278e+002, 8.029067e+003
7.627100e+002, 8.003747e+003
7.631921e+002, 7.985542e+003
7.636742e+002, 7.966131e+003
7.641563e+002, 7.956649e+003
7.646384e+002, 7.934818e+003
7.651205e+002, 7.864545e+003
7.656027e+002, 7.766701e+003
7.660848e+002, 7.702068e+003
7.665669e+002, 7.700228e+003
7.670490e+002, 7.714611e+003
7.675311e+002, 7.674203e+003
7.680132e+002, 7.592804e+003
7.684954e+002, 7.554393e+003
7.689775e+002, 7.569542e+003
7.694596e+002, 7.577551e+003
7.699417e+002, 7.545911e+003
7.704238e+002, 7.495520e+003
7.709059e+002, 7.463533e+003
7.713881e+002, 7.457244e+003
7.718702e+002, 7.440362e+003
7.723523e+002, 7.410725e+003
7.728344e+002, 7.373375e+003
7.733165e+002, 7.314376e+003
7.737986e+002, 7.257930e+003
7.742808e+002, 7.231117e+003
7.747629e+002, 7.236758e+003
7.752450e+002, 7.259380e+003
7.757271e+002, 7.311351e+003
7.762092e+002, 7.352463e+003
7.766913e+002, 7.301654e+003
7.771735e+002, 7.183674e+003
7.776556e+002, 7.101511e+003
7.781377e+002, 7.078877e+003
7.786198e+002, 7.085468e+003
7.791019e+002, 7.101216e+003
7.795840e+002, 7.120313e+003
7.800662e+002, 7.111813e+003
7.805483e+002, 7.061019e+003
7.810304e+002, 7.010174e+003
7.815125e+002, 6.945983e+003
7.819946e+002, 6.898454e+003
7.824767e+002, 6.898391e+003
7.829589e+002, 6.921359e+003
7.834410e+002, 6.918774e+003
7.839231e+002, 6.874119e+003
7.844052e+002, 6.827653e+003
7.848873e+002, 6.805159e+003
7.853694e+002, 6.793001e+003
7.858516e+002, 6.774163e+003
7.863337e+002, 6.750400e+003
7.868158e+002, 6.733767e+003
7.872979e+002, 6.728935e+003
7.877800e+002, 6.723906e+003
7.882621e+002, 6.699377e+003
7.887443e+002, 6.656735e+003
7.892264e+002, 6.637741e+003
7.897085e+002, 6.651167e+003
7.901906e+002, 6.665247e+003
7.906727e+002, 6.686171e+003
7.911548e+002, 6.688881e+003
7.916370e+002, 6.630750e+003
7.921191e+002, 6.523818e+003
7.926012e+002, 6.456290e+003
7.930833e+002, 6.474960e+003
7.935654e+002, 6.492376e+003
7.940475e+002, 6.471199e+003
7.945297e+002, 6.435949e+003
7.950118e+002, 6.411042e+003
7.954939e+002, 6.396860e+003
7.959760e+002, 6.381292e+003
7.964581e+002, 6.357237e+003
7.969402e+002, 6.331289e+003
7.974224e+002, 6.310138e+003
7.979045e+002, 6.294914e+003
7.983866e+002, 6.300136e+003
7.988687e+002, 6.330673e+003
7.993508e+002, 6.345184e+003
7.998329e+002, 6.315502e+003
8.003151e+002, 6.268758e+003
8.007972e+002, 6.258636e+003
8.012793e+002, 6.302158e+003
8.017614e+002, 6.314664e+003
8.022435e+002, 6.286436e+003
8.027256e+002, 6.242453e+003
8.032078e+002, 6.160553e+003
8.036899e+002, 6.085526e+003
8.041720e+002, 6.077412e+003
8.046541e+002, 6.130797e+003
8.051362e+002, 6.167961e+003
8.056183e+002, 6.139313e+003
8.061005e+002, 6.085491e+003
8.065826e+002, 6.034391e+003
8.070647e+002, 5.993513e+003
8.075468e+002, 5.987090e+003
8.080289e+002, 6.015666e+003
8.085110e+002, 6.047439e+003
8.089932e+002, 6.061440e+003
8.094753e+002, 6.058201e+003
8.099574e+002, 6.033622e+003
8.104395e+002, 5.977098e+003
8.109216e+002, 5.949415e+003
8.114037e+002, 5.975905e+003
8.118859e+002, 5.994233e+003
8.123680e+002, 5.963275e+003
8.128501e+002, 5.909939e+003
8.133322e+002, 5.871291e+003
8.138143e+002, 5.849826e+003
8.142964e+002, 5.836194e+003
8.147786e+002, 5.827226e+003
8.152607e+002, 5.826471e+003
8.157428e+002, 5.850013e+003
8.162249e+002, 5.876417e+003
8.167070e+002, 5.865990e+003
8.171891e+002, 5.819173e+003
8.176713e+002, 5.784534e+003
8.181534e+002, 5.805863e+003
8.186355e+002, 5.851862e+003
8.191176e+002, 5.859759e+003
8.195997e+002, 5.834306e+003
8.200818e+002, 5.813592e+003
8.205640e+002, 5.804818e+003
8.210461e+002, 5.795402e+003
8.215282e+002, 5.775229e+003
8.220103e+002, 5.749289e+003
8.224924e+002, 5.733677e+003
8.229745e+002, 5.737495e+003
8.234567e+002, 5.731002e+003
8.239388e+002, 5.707191e+003
8.244209e+002, 5.681190e+003
8.249030e+002, 5.656698e+003
8.253851e+002, 5.633831e+003
8.258672e+002, 5.607195e+003
8.263494e+002, 5.576767e+003
8.268315e+002, 5.567887e+003
8.273136e+002, 5.627018e+003
8.277957e+002, 5.679770e+003
8.282778e+002, 5.639460e+003
8.287599e+002, 5.555270e+003
8.292421e+002, 5.523669e+003
8.297242e+002, 5.557957e+003
8.302063e+002, 5.601255e+003
8.306884e+002, 5.611851e+003
8.311705e+002, 5.597644e+003
8.316526e+002, 5.569724e+003
8.321348e+002, 5.526791e+003
8.326169e+002, 5.519466e+003
8.330990e+002, 5.567852e+003
8.335811e+002, 5.604515e+003
8.340632e+002, 5.582208e+003
8.345453e+002, 5.527661e+003
8.350275e+002, 5.499915e+003
8.355096e+002, 5.510459e+003
8.359917e+002, 5.514415e+003
8.364738e+002, 5.511207e+003
8.369559e+002, 5.501713e+003
8.374380e+002, 5.479914e+003
8.379202e+002, 5.455903e+003
8.384023e+002, 5.440856e+003
8.388844e+002, 5.435680e+003
8.393665e+002, 5.433065e+003
8.398486e+002, 5.426128e+003
8.403307e+002, 5.423830e+003
8.408129e+002, 5.447555e+003
8.412950e+002, 5.478850e+003
8.417771e+002, 5.472722e+003
8.422592e+002, 5.428760e+003
8.427413e+002, 5.388423e+003
8.432234e+002, 5.377517e+003
8.437056e+002, 5.388945e+003
8.441877e+002, 5.417342e+003
8.446698e+002, 5.466929e+003
8.451519e+002, 5.473551e+003
8.456340e+002, 5.416499e+003
8.461161e+002, 5.370638e+003
8.465983e+002, 5.373828e+003
8.470804e+002, 5.397983e+003
8.475625e+002, 5.403894e+003
8.480446e+002, 5.390346e+003
8.485267e+002, 5.379871e+003
8.490089e+002, 5.371513e+003
8.494910e+002, 5.368665e+003
8.499731e+002, 5.381382e+003
8.504552e+002, 5.392952e+003
8.509373e+002, 5.379438e+003
8.514194e+002, 5.350746e+003
8.519016e+002, 5.343894e+003
8.523837e+002, 5.380630e+003
8.528658e+002, 5.422613e+003
8.533479e+002, 5.439720e+003
8.538300e+002, 5.436238e+003
8.543121e+002, 5.402236e+003
8.547943e+002, 5.350593e+003
8.552764e+002, 5.346682e+003
8.557585e+002, 5.419337e+003
8.562406e+002, 5.504375e+003
8.567227e+002, 5.513901e+003
8.572048e+002, 5.454728e+003
8.576870e+002, 5.418464e+003
8.581691e+002, 5.412216e+003
8.586512e+002, 5.400068e+003
8.591333e+002, 5.365754e+003
8.596154e+002, 5.334920e+003
8.600975e+002, 5.334155e+003
8.605797e+002, 5.357449e+003
8.610618e+002, 5.369703e+003
8.615439e+002, 5.363282e+003
8.620260e+002, 5.358912e+003
8.625081e+002, 5.343765e+003
8.629902e+002, 5.346435e+003
8.634724e+002, 5.402274e+003
8.639545e+002, 5.480403e+003
8.644366e+002, 5.531582e+003
8.649187e+002, 5.544082e+003
8.654008e+002, 5.540547e+003
8.658829e+002, 5.527884e+003
8.663651e+002, 5.513766e+003
8.668472e+002, 5.507015e+003
8.673293e+002, 5.505827e+003
8.678114e+002, 5.504692e+003
8.682935e+002, 5.502866e+003
8.687756e+002, 5.507374e+003
8.692578e+002, 5.526395e+003
8.697399e+002, 5.546091e+003
8.702220e+002, 5.525104e+003
8.707041e+002, 5.460719e+003
8.711862e+002, 5.413950e+003
8.716683e+002, 5.391470e+003
8.721505e+002, 5.382102e+003
8.726326e+002, 5.386136e+003
8.731147e+002, 5.393167e+003
8.735968e+002, 5.382323e+003
8.740789e+002, 5.345867e+003
8.745610e+002, 5.333767e+003
8.750432e+002, 5.391151e+003
8.755253e+002, 5.412594e+003
8.760074e+002, 5.326915e+003
8.764895e+002, 5.233845e+003
8.769716e+002, 5.230083e+003
8.774537e+002, 5.297178e+003
8.779359e+002, 5.341914e+003
8.784180e+002, 5.325570e+003
8.789001e+002, 5.300623e+003
8.793822e+002, 5.293771e+003
8.798643e+002, 5.299430e+003
8.803464e+002, 5.317271e+003
8.808286e+002, 5.341383e+003
8.813107e+002, 5.360997e+003
8.817928e+002, 5.371574e+003
8.822749e+002, 5.368839e+003
8.827570e+002, 5.336559e+003
8.832391e+002, 5.292628e+003
8.837213e+002, 5.302842e+003
8.842034e+002, 5.363390e+003
8.846855e+002, 5.412517e+003
8.851676e+002, 5.437248e+003
8.856497e+002, 5.435985e+003
8.861318e+002, 5.400274e+003
8.866140e+002, 5.345961e+003
8.870961e+002, 5.330821e+003
8.875782e+002, 5.383392e+003
8.880603e+002, 5.400179e+003
8.885424e+002, 5.347723e+003
8.890245e+002, 5.304907e+003
8.895067e+002, 5.311926e+003
8.899888e+002, 5.339821e+003
8.904709e+002, 5.360415e+003
8.909530e+002, 5.372223e+003
8.914351e+002, 5.368816e+003
8.919172e+002, 5.313448e+003
8.923994e+002, 5.286747e+003
8.928815e+002, 5.356941e+003
8.933636e+002, 5.444270e+003
8.938457e+002, 5.471541e+003
8.943278e+002, 5.443643e+003
8.948099e+002, 5.395670e+003
8.952921e+002, 5.338326e+003
8.957742e+002, 5.300598e+003
8.962563e+002, 5.330103e+003
8.967384e+002, 5.387092e+003
8.972205e+002, 5.391942e+003
8.977026e+002, 5.358644e+003
8.981848e+002, 5.361701e+003
8.986669e+002, 5.422509e+003
8.991490e+002, 5.485154e+003
8.996311e+002, 5.494854e+003
9.001132e+002, 5.463643e+003
9.005953e+002, 5.431513e+003
9.010775e+002, 5.396573e+003
9.015596e+002, 5.384658e+003
9.020417e+002, 5.404201e+003
9.025238e+002, 5.432272e+003
9.030059e+002, 5.460388e+003
9.034880e+002, 5.482797e+003
9.039702e+002, 5.483249e+003
9.044523e+002, 5.447195e+003
9.049344e+002, 5.447967e+003
9.054165e+002, 5.521619e+003
9.058986e+002, 5.585251e+003
9.063807e+002, 5.622577e+003
9.068629e+002, 5.641372e+003
9.073450e+002, 5.643170e+003
9.078271e+002, 5.632111e+003
9.083092e+002, 5.620895e+003
9.087913e+002, 5.609774e+003
9.092734e+002, 5.604987e+003
9.097556e+002, 5.606284e+003
9.102377e+002, 5.617724e+003
9.107198e+002, 5.657011e+003
9.112019e+002, 5.705218e+003
9.116840e+002, 5.716721e+003
9.121661e+002, 5.682713e+003
9.126483e+002, 5.659341e+003
9.131304e+002, 5.707836e+003
9.136125e+002, 5.782519e+003
9.140946e+002, 5.810106e+003
9.145767e+002, 5.800358e+003
9.150588e+002, 5.778376e+003
9.155410e+002, 5.750723e+003
9.160231e+002, 5.730904e+003
9.165052e+002, 5.727456e+003
9.169873e+002, 5.736371e+003
9.174694e+002, 5.749095e+003
9.179515e+002, 5.765352e+003
9.184337e+002, 5.799830e+003
9.189158e+002, 5.861319e+003
9.193979e+002, 5.900183e+003
9.198800e+002, 5.895657e+003
9.203621e+002, 5.868958e+003
9.208442e+002, 5.837049e+003
9.213264e+002, 5.801681e+003
9.218085e+002, 5.782616e+003
9.222906e+002, 5.783727e+003
9.227727e+002, 5.795059e+003
9.232548e+002, 5.825189e+003
9.237369e+002, 5.855224e+003
9.242191e+002, 5.872389e+003
9.247012e+002, 5.885638e+003
9.251833e+002, 5.913011e+003
9.256654e+002, 5.957688e+003
9.261475e+002, 5.986265e+003
9.266296e+002, 5.972139e+003
9.271118e+002, 5.959051e+003
9.275939e+002, 5.967281e+003
9.280760e+002, 5.989395e+003
9.285581e+002, 6.030012e+003
9.290402e+002, 6.076266e+003
9.295223e+002, 6.085980e+003
9.300045e+002, 6.033135e+003
9.304866e+002, 5.991730e+003
9.309687e+002, 6.049046e+003
9.314508e+002, 6.148698e+003
9.319329e+002, 6.204617e+003
9.324150e+002, 6.223636e+003
9.328972e+002, 6.242358e+003
9.333793e+002, 6.270373e+003
9.338614e+002, 6.289681e+003
9.343435e+002, 6.281318e+003
9.348256e+002, 6.260701e+003
9.353077e+002, 6.265950e+003
9.357899e+002, 6.295784e+003
9.362720e+002, 6.335033e+003
9.367541e+002, 6.383014e+003
9.372362e+002, 6.427858e+003
9.377183e+002, 6.464631e+003
9.382004e+002, 6.491980e+003
9.386826e+002, 6.505778e+003
9.391647e+002, 6.505543e+003
9.396468e+002, 6.515771e+003
9.401289e+002, 6.538795e+003
9.406110e+002, 6.568200e+003
9.410931e+002, 6.621521e+003
9.415753e+002, 6.655735e+003
9.420574e+002, 6.614750e+003
9.425395e+002, 6.536471e+003
9.430216e+002, 6.528188e+003
9.435037e+002, 6.620422e+003
9.439858e+002, 6.689585e+003
9.444680e+002, 6.709772e+003
9.449501e+002, 6.725044e+003
9.454322e+002, 6.747874e+003
9.459143e+002, 6.776840e+003
9.463964e+002, 6.813356e+003
9.468785e+002, 6.854601e+003
9.473607e+002, 6.889457e+003
9.478428e+002, 6.913308e+003
9.483249e+002, 6.932859e+003
9.488070e+002, 6.944966e+003
9.492891e+002, 6.960077e+003
9.497712e+002, 6.989110e+003
9.502534e+002, 7.028511e+003
9.507355e+002, 7.071015e+003
9.512176e+002, 7.113905e+003
9.516997e+002, 7.155434e+003
9.521818e+002, 7.193576e+003
9.526639e+002, 7.230115e+003
9.531461e+002, 7.266732e+003
9.536282e+002, 7.303619e+003
9.541103e+002, 7.344823e+003
9.545924e+002, 7.387906e+003
9.550745e+002, 7.416850e+003
9.555566e+002, 7.423686e+003
9.560388e+002, 7.421147e+003
9.565209e+002, 7.417890e+003
9.570030e+002, 7.420954e+003
9.574851e+002, 7.476829e+003
9.579672e+002, 7.585426e+003
9.584493e+002, 7.677464e+003
9.589315e+002, 7.737999e+003
9.594136e+002, 7.774935e+003
9.598957e+002, 7.788754e+003
9.603778e+002, 7.794426e+003
9.608599e+002, 7.836923e+003
9.613420e+002, 7.931945e+003
9.618242e+002, 7.977683e+003
9.623063e+002, 7.948294e+003
9.627884e+002, 7.933465e+003
9.632705e+002, 7.969963e+003
9.637526e+002, 8.021931e+003
9.642347e+002, 8.051725e+003
9.647169e+002, 8.063867e+003
9.651990e+002, 8.092287e+003
9.656811e+002, 8.126198e+003
9.661632e+002, 8.193775e+003
9.666453e+002, 8.339313e+003
9.671274e+002, 8.467582e+003
9.676096e+002, 8.536409e+003
9.680917e+002, 8.567436e+003
9.685738e+002, 8.572756e+003
9.690559e+002, 8.558313e+003
9.695380e+002, 8.583773e+003
9.700201e+002, 8.726484e+003
9.705023e+002, 8.827679e+003
9.709844e+002, 8.780452e+003
9.714665e+002, 8.716012e+003
9.719486e+002, 8.749134e+003
9.724307e+002, 8.845940e+003
9.729128e+002, 8.921094e+003
9.733950e+002, 8.952494e+003
9.738771e+002, 8.983984e+003
9.743592e+002, 9.040359e+003
9.748413e+002, 9.109867e+003
9.753234e+002, 9.191133e+003
9.758055e+002, 9.274083e+003
9.762877e+002, 9.341074e+003
9.767698e+002, 9.394715e+003
9.772519e+002, 9.450975e+003
9.777340e+002, 9.517196e+003
9.782161e+002, 9.590950e+003
9.786982e+002, 9.672697e+003
9.791804e+002, 9.758173e+003
9.796625e+002, 9.842196e+003
9.801446e+002, 9.921690e+003
9.806267e+002, 9.983914e+003
9.811088e+002, 1.002831e+004
9.815909e+002, 1.007747e+004
9.820731e+002, 1.014808e+004
9.825552e+002, 1.022520e+004
9.830373e+002, 1.028273e+004
9.835194e+002, 1.032232e+004
9.840015e+002, 1.034951e+004
9.844836e+002, 1.036494e+004
9.849658e+002, 1.040698e+004
9.854479e+002, 1.048958e+004
9.859300e+002, 1.058597e+004
9.864121e+002, 1.067314e+004
9.868942e+002, 1.075183e+004
9.873763e+002, 1.082134e+004
9.878585e+002, 1.087934e+004
9.883406e+002, 1.094692e+004
9.888227e+002, 1.103191e+004
9.893048e+002, 1.110282e+004
9.897869e+002, 1.114301e+004
9.902690e+002, 1.116774e+004
9.907512e+002, 1.118587e+004
9.912333e+002, 1.120172e+004
9.917154e+002, 1.127440e+004
9.921975e+002, 1.145252e+004
9.926796e+002, 1.158384e+004
9.931617e+002, 1.163372e+004
9.936439e+002, 1.166914e+004
9.941260e+002, 1.171608e+004
9.946081e+002, 1.177038e+004
9.950902e+002, 1.182536e+004
9.955723e+002, 1.188070e+004
9.960544e+002, 1.194517e+004
9.965366e+002, 1.202023e+004
9.970187e+002, 1.210333e+004
9.975008e+002, 1.219951e+004
9.979829e+002, 1.229815e+004
9.984650e+002, 1.239175e+004
9.989471e+002, 1.248450e+004
9.994293e+002, 1.258458e+004
9.999114e+002, 1.269386e+004
1.000393e+003, 1.279658e+004
1.000876e+003, 1.288948e+004
1.001358e+003, 1.297301e+004
1.001840e+003, 1.304359e+004
1.002322e+003, 1.310698e+004
1.002804e+003, 1.315459e+004
1.003286e+003, 1.320264e+004
1.003768e+003, 1.329679e+004
1.004250e+003, 1.345310e+004
1.004733e+003, 1.358048e+004
1.005215e+003, 1.359123e+004
1.005697e+003, 1.359632e+004
1.006179e+003, 1.368543e+004
1.006661e+003, 1.381398e+004
1.007143e+003, 1.392997e+004
1.007625e+003, 1.402610e+004
1.008107e+003, 1.410815e+004
1.008589e+003, 1.417634e+004
1.009072e+003, 1.425511e+004
1.009554e+003, 1.437967e+004
1.010036e+003, 1.451299e+004
1.010518e+003, 1.461593e+004
1.011000e+003, 1.469157e+004
1.011482e+003, 1.473859e+004
1.011964e+003, 1.476642e+004
1.012446e+003, 1.480765e+004
1.012929e+003, 1.487971e+004
1.013411e+003, 1.497958e+004
1.013893e+003, 1.512637e+004
1.014375e+003, 1.528727e+004
1.014857e+003, 1.537674e+004
1.015339e+003, 1.542059e+004
1.015821e+003, 1.552847e+004
1.016303e+003, 1.571531e+004
1.016785e+003, 1.588651e+004
1.017268e+003, 1.597672e+004
1.017750e+003, 1.602356e+004
1.018232e+003, 1.608203e+004
1.018714e+003, 1.615146e+004
1.019196e+003, 1.622998e+004
1.019678e+003, 1.631708e+004
1.020160e+003, 1.641190e+004
1.020642e+003, 1.651470e+004
1.021125e+003, 1.662259e+004
1.021607e+003, 1.673414e+004
1.022089e+003, 1.684931e+004
1.022571e+003, 1.697415e+004
1.023053e+003, 1.710763e+004
1.023535e+003, 1.720449e+004
1.024017e+003, 1.726094e+004
1.024499e+003, 1.733823e+004
1.024981e+003, 1.745673e+004
1.025464e+003, 1.759893e+004
1.025946e+003, 1.775646e+004
1.026428e+003, 1.791107e+004
1.026910e+003, 1.799219e+004
1.027392e+003, 1.798685e+004
1.027874e+003, 1.803261e+004
1.028356e+003, 1.813709e+004
1.028838e+003, 1.828504e+004
1.029321e+003, 1.848759e+004
1.029803e+003, 1.868429e+004
1.030285e+003, 1.881664e+004
1.030767e+003, 1.889546e+004
1.031249e+003, 1.896619e+004
1.031731e+003, 1.902184e+004
1.032213e+003, 1.910159e+004
1.032695e+003, 1.922720e+004
1.033177e+003, 1.931704e+004
1.033660e+003, 1.930616e+004
1.034142e+003, 1.930575e+004
1.034624e+003, 1.944035e+004
1.035106e+003, 1.968830e+004
1.035588e+003, 1.991109e+004
1.036070e+003, 2.011354e+004
1.036552e+003, 2.027691e+004
1.037034e+003, 2.037492e+004
1.037516e+003, 2.048026e+004
1.037999e+003, 2.064162e+004
1.038481e+003, 2.079755e+004
1.038963e+003, 2.086239e+004
1.039445e+003, 2.085473e+004
1.039927e+003, 2.091961e+004
1.040409e+003, 2.111217e+004
1.040891e+003, 2.128010e+004
1.041373e+003, 2.139626e+004
1.041855e+003, 2.152090e+004
1.042338e+003, 2.169584e+004
1.042820e+003, 2.187410e+004
1.043302e+003, 2.200034e+004
1.043784e+003, 2.208218e+004
1.044266e+003, 2.218285e+004
1.044748e+003, 2.229914e+004
1.045230e+003, 2.244236e+004
1.045712e+003, 2.264327e+004
1.046195e+003, 2.283438e+004
1.046677e+003, 2.298271e+004
1.047159e+003, 2.311337e+004
1.047641e+003, 2.325948e+004
1.048123e+003, 2.341609e+004
1.048605e+003, 2.354520e+004
1.049087e+003, 2.362378e+004
1.049569e+003, 2.371035e+004
1.050052e+003, 2.380433e+004
1.050534e+003, 2.391752e+004
1.051016e+003, 2.405460e+004
1.051498e+003, 2.421390e+004
1.051980e+003, 2.441069e+004
1.052462e+003, 2.463257e+004
1.052944e+003, 2.481068e+004
1.053426e+003, 2.488336e+004
1.053908e+003, 2.501388e+004
1.054391e+003, 2.529004e+004
1.054873e+003, 2.557233e+004
1.055355e+003, 2.578510e+004
1.055837e+003, 2.597037e+004
1.056319e+003, 2.620004e+004
1.056801e+003, 2.645771e+004
1.057283e+003, 2.663440e+004
1.057765e+003, 2.664460e+004
1.058248e+003, 2.671407e+004
1.058730e+003, 2.697684e+004
1.059212e+003, 2.723933e+004
1.059694e+003, 2.739278e+004
1.060176e+003, 2.748825e+004
1.060658e+003, 2.757448e+004
1.061140e+003, 2.766445e+004
1.061622e+003, 2.777389e+004
1.062104e+003, 2.789847e+004
1.062587e+003, 2.806639e+004
1.063069e+003, 2.834161e+004
1.063551e+003, 2.860078e+004
1.064033e+003, 2.875546e+004
1.064515e+003, 2.886636e+004
1.064997e+003, 2.899282e+004
1.065479e+003, 2.914491e+004
1.065961e+003, 2.933102e+004
1.066443e+003, 2.957008e+004
1.066926e+003, 2.978091e+004
1.067408e+003, 2.989316e+004
1.067890e+003, 3.000968e+004
1.068372e+003, 3.018288e+004
1.068854e+003, 3.040097e+004
1.069336e+003, 3.066923e+004
1.069818e+003, 3.096556e+004
1.070300e+003, 3.123101e+004
1.070782e+003, 3.144324e+004
1.071265e+003, 3.165741e+004
1.071747e+003, 3.192140e+004
1.072229e+003, 3.216935e+004
1.072711e+003, 3.234249e+004
1.073193e+003, 3.249372e+004
1.073675e+003, 3.265417e+004
1.074157e+003, 3.284633e+004
1.074639e+003, 3.312519e+004
1.075122e+003, 3.352091e+004
1.075604e+003, 3.388889e+004
1.076086e+003, 3.414426e+004
1.076568e+003, 3.437575e+004
1.077050e+003, 3.460422e+004
1.077532e+003, 3.485995e+004
1.078014e+003, 3.517416e+004
1.078496e+003, 3.553955e+004
1.078979e+003, 3.593286e+004
1.079461e+003, 3.634923e+004
1.079943e+003, 3.677645e+004
1.080425e+003, 3.725198e+004
1.080907e+003, 3.767923e+004
1.081389e+003, 3.799468e+004
1.081871e+003, 3.824267e+004
1.082353e+003, 3.850691e+004
1.082835e+003, 3.872548e+004
1.083318e+003, 3.873347e+004
1.083800e+003, 3.849726e+004
1.084282e+003, 3.826262e+004
1.084764e+003, 3.812976e+004
1.085246e+003, 3.803107e+004
1.085728e+003, 3.793312e+004
1.086210e+003, 3.785449e+004
1.086692e+003, 3.779839e+004
1.087175e+003, 3.777922e+004
1.087657e+003, 3.783163e+004
1.088139e+003, 3.795646e+004
1.088621e+003, 3.808225e+004
1.089103e+003, 3.819703e+004
1.089585e+003, 3.828382e+004
1.090067e+003, 3.830119e+004
1.090549e+003, 3.832131e+004
1.091031e+003, 3.837975e+004
1.091514e+003, 3.848796e+004
1.091996e+003, 3.866389e+004
1.092478e+003, 3.890452e+004
1.092960e+003, 3.917418e+004
1.093442e+003, 3.951063e+004
1.093924e+003, 3.978084e+004
1.094406e+003, 3.989060e+004
1.094888e+003, 3.996954e+004
1.095370e+003, 4.011674e+004
1.095853e+003, 4.027507e+004
1.096335e+003, 4.035221e+004
1.096817e+003, 4.035970e+004
1.097299e+003, 4.039654e+004
1.097781e+003, 4.048878e+004
1.098263e+003, 4.061329e+004
1.098745e+003, 4.080271e+004
1.099227e+003, 4.097632e+004
1.099709e+003, 4.105128e+004
1.100192e+003, 4.112045e+004
1.100674e+003, 4.130031e+004
1.101156e+003, 4.156262e+004
1.101638e+003, 4.178683e+004
1.102120e+003, 4.194290e+004
1.102602e+003, 4.208810e+004
1.103084e+003, 4.224348e+004
1.103566e+003, 4.238114e+004
1.104049e+003, 4.247293e+004
1.104531e+003, 4.255738e+004
1.105013e+003, 4.265108e+004
1.105495e+003, 4.276756e+004
1.105977e+003, 4.293559e+004
1.106459e+003, 4.316405e+004
1.106941e+003, 4.340850e+004
1.107423e+003, 4.370068e+004
1.107906e+003, 4.395394e+004
1.108388e+003, 4.410768e+004
1.108870e+003, 4.425304e+004
1.109352e+003, 4.447738e+004
1.109834e+003, 4.472159e+004
1.110316e+003, 4.486061e+004
1.110798e+003, 4.488193e+004
1.111280e+003, 4.497057e+004
1.111762e+003, 4.520300e+004
1.112245e+003, 4.541159e+004
1.112727e+003, 4.554746e+004
1.113209e+003, 4.568945e+004
1.113691e+003, 4.585798e+004
1.114173e+003, 4.606407e+004
1.114655e+003, 4.635088e+004
1.115137e+003, 4.670625e+004
1.115619e+003, 4.697944e+004
1.116102e+003, 4.709577e+004
1.116584e+003, 4.726002e+004
1.117066e+003, 4.749105e+004
1.117548e+003, 4.774577e+004
1.118030e+003, 4.802977e+004
1.118512e+003, 4.831077e+004
1.118994e+003, 4.856145e+004
1.119476e+003, 4.878439e+004
1.119958e+003, 4.898319e+004
1.120441e+003, 4.911771e+004
1.120923e+003, 4.936236e+004
1.121405e+003, 4.976749e+004
1.121887e+003, 5.017463e+004
1.122369e+003, 5.056148e+004
1.122851e+003, 5.090170e+004
1.123333e+003, 5.115939e+004
1.123815e+003, 5.137344e+004
1.124297e+003, 5.163125e+004
1.124780e+003, 5.193556e+004
1.125262e+003, 5.223570e+004
1.125744e+003, 5.251919e+004
1.126226e+003, 5.284843e+004
1.126708e+003, 5.325260e+004
1.127190e+003, 5.363510e+004
1.127672e+003, 5.392698e+004
1.128154e+003, 5.421009e+004
1.128636e+003, 5.461542e+004
1.129119e+003, 5.512187e+004
1.129601e+003, 5.553032e+004
1.130083e+003, 5.582745e+004
1.130565e+003, 5.620941e+004
1.131047e+003, 5.670583e+004
1.131529e+003, 5.717360e+004
1.132011e+003, 5.754999e+004
1.132493e+003, 5.789539e+004
1.132976e+003, 5.826218e+004
1.133458e+003, 5.866266e+004
1.133940e+003, 5.915476e+004
1.134422e+003, 5.972830e+004
1.134904e+003, 6.023360e+004
1.135386e+003, 6.066757e+004
1.135868e+003, 6.111755e+004
1.136350e+003, 6.160794e+004
1.136833e+003, 6.214689e+004
1.137315e+003, 6.274995e+004
1.137797e+003, 6.335892e+004
1.138279e+003, 6.383546e+004
1.138761e+003, 6.424356e+004
1.139243e+003, 6.481707e+004
1.139725e+003, 6.552410e+004
1.140207e+003, 6.623682e+004
1.140689e+003, 6.692927e+004
1.141172e+003, 6.758845e+004
1.141654e+003, 6.821095e+004
1.142136e+003, 6.883030e+004
1.142618e+003, 6.946453e+004
1.143100e+003, 7.013235e+004
1.143582e+003, 7.088543e+004
1.144064e+003, 7.168584e+004
1.144546e+003, 7.243612e+004
1.145029e+003, 7.316214e+004
1.145511e+003, 7.398399e+004
1.145993e+003, 7.492750e+004
1.146475e+003, 7.587051e+004
1.146957e+003, 7.672704e+004
1.147439e+003, 7.755977e+004
1.147921e+003, 7.840249e+004
1.148403e+003, 7.928110e+004
1.148885e+003, 8.022851e+004
1.149368e+003, 8.122289e+004
1.149850e+003, 8.223669e+004
1.150332e+003, 8.325086e+004
1.150814e+003, 8.424212e+004
1.151296e+003, 8.518277e+004
1.151778e+003, 8.616348e+004
1.152260e+003, 8.726212e+004
1.152742e+003, 8.838273e+004
1.153224e+003, 8.946530e+004
1.153707e+003, 9.054496e+004
1.154189e+003, 9.168283e+004
1.154671e+003, 9.284924e+004
1.155153e+003, 9.393962e+004
1.155635e+003, 9.493541e+004
1.156117e+003, 9.604889e+004
1.156599e+003, 9.744419e+004
1.157081e+003, 9.882944e+004
1.157563e+003, 1.001501e+005
1.158046e+003, 1.013943e+005
1.158528e+003, 1.024453e+005
1.159010e+003, 1.034774e+005
1.159492e+003, 1.047453e+005
1.159974e+003, 1.062286e+005
1.160456e+003, 1.077058e+005
1.160938e+003, 1.091701e+005
1.161420e+003, 1.106042e+005
1.161903e+003, 1.119930e+005
1.162385e+003, 1.133661e+005
1.162867e+003, 1.147294e+005
1.163349e+003, 1.160829e+005
1.163831e+003, 1.174274e+005
1.164313e+003, 1.187631e+005
1.164795e+003, 1.200615e+005
1.165277e+003, 1.213077e+005
1.165760e+003, 1.226979e+005
1.166242e+003, 1.243062e+005
1.166724e+003, 1.258168e+005
1.167206e+003, 1.271491e+005
1.167688e+003, 1.284564e+005
1.168170e+003, 1.298023e+005
1.168652e+003, 1.311869e+005
1.169134e+003, 1.326127e+005
1.169616e+003, 1.340635e+005
1.170099e+003, 1.354443e+005
1.170581e+003, 1.367568e+005
1.171063e+003, 1.380658e+005
1.171545e+003, 1.393803e+005
1.172027e+003, 1.406625e+005
1.172509e+003, 1.419108e+005
1.172991e+003, 1.431593e+005
1.173473e+003, 1.444369e+005
1.173956e+003, 1.457334e+005
1.174438e+003, 1.470486e+005
1.174920e+003, 1.483657e+005
1.175402e+003, 1.495766e+005
1.175884e+003, 1.507284e+005
1.176366e+003, 1.520061e+005
1.176848e+003, 1.534179e+005
1.177330e+003, 1.548284e+005
1.177813e+003, 1.561822e+005
1.178295e+003, 1.574949e+005
1.178777e+003, 1.587630e+005
1.179259e+003, 1.600538e+005
1.179741e+003, 1.615257e+005
1.180223e+003, 1.630176e+005
1.180705e+003, 1.642353e+005
1.181187e+003, 1.652974e+005
1.181669e+003, 1.664534e+005
1.182151e+003, 1.677456e+005
1.182634e+003, 1.690770e+005
1.183116e+003, 1.703880e+005
1.183598e+003, 1.717666e+005
1.184080e+003, 1.733126e+005
1.184562e+003, 1.748777e+005
1.185044e+003, 1.763443e+005
1.185526e+003, 1.777909e+005
1.186008e+003, 1.792977e+005
1.186490e+003, 1.808621e+005
1.186973e+003, 1.824886e+005
1.187455e+003, 1.841790e+005
1.187937e+003, 1.857846e+005
1.188419e+003, 1.871789e+005
1.188901e+003, 1.886426e+005
1.189383e+003, 1.902360e+005
1.189865e+003, 1.919133e+005
1.190347e+003, 1.936964e+005
1.190830e+003, 1.955075e+005
1.191312e+003, 1.972552e+005
1.191794e+003, 1.989574e+005
1.192276e+003, 2.007192e+005
1.192758e+003, 2.025704e+005
1.193240e+003, 2.043968e+005
1.193722e+003, 2.061935e+005
1.194204e+003, 2.079545e+005
1.194687e+003, 2.096401e+005
1.195169e+003, 2.114204e+005
1.195651e+003, 2.134305e+005
1.196133e+003, 2.155467e+005
1.196615e+003, 2.175735e+005
1.197097e+003, 2.195319e+005
1.197579e+003, 2.216245e+005
1.198061e+003, 2.238487e+005
1.198543e+003, 2.259140e+005
1.199026e+003, 2.278076e+005
1.199508e+003, 2.296636e+005
1.199990e+003, 2.315258e+005
1.200472e+003, 2.335523e+005
1.200954e+003, 2.358669e+005
1.201436e+003, 2.383227e+005
1.201918e+003, 2.407550e+005
1.202400e+003, 2.431515e+005
1.202883e+003, 2.454449e+005
1.203365e+003, 2.476825e+005
1.203847e+003, 2.499473e+005
1.204329e+003, 2.522643e+005
1.204811e+003, 2.546913e+005
1.205293e+003, 2.572390e+005
1.205775e+003, 2.597975e+005
1.206257e+003, 2.623316e+005
1.206740e+003, 2.647958e+005
1.207222e+003, 2.670738e+005
1.207704e+003, 2.693494e+005
1.208186e+003, 2.717277e+005
1.208668e+003, 2.742535e+005
1.209150e+003, 2.770531e+005
1.209632e+003, 2.800708e+005
1.210114e+003, 2.830304e+005
1.210596e+003, 2.858701e+005
1.211078e+003, 2.886211e+005
1.211561e+003, 2.911398e+005
1.212043e+003, 2.938141e+005
1.212525e+003, 2.968766e+005
1.213007e+003, 3.000073e+005
1.213489e+003, 3.029957e+005
1.213971e+003, 3.059267e+005
1.214453e+003, 3.088963e+005
1.214935e+003, 3.119049e+005
1.215417e+003, 3.149978e+005
1.215900e+003, 3.181614e+005
1.216382e+003, 3.214963e+005
1.216864e+003, 3.250989e+005
1.217346e+003, 3.283309e+005
1.217828e+003, 3.309316e+005
1.218310e+003, 3.334342e+005
1.218792e+003, 3.362600e+005
1.219274e+003, 3.393090e+005
1.219757e+003, 3.424497e+005
1.220239e+003, 3.456705e+005
1.220721e+003, 3.490428e+005
1.221203e+003, 3.525039e+005
1.221685e+003, 3.556164e+005
1.222167e+003, 3.584148e+005
1.222649e+003, 3.613845e+005
1.223131e+003, 3.646953e+005
1.223614e+003, 3.680539e+005
1.224096e+003, 3.712356e+005
1.224578e+003, 3.743906e+005
1.225060e+003, 3.777903e+005
1.225542e+003, 3.811604e+005
1.226024e+003, 3.840631e+005
1.226506e+003, 3.867509e+005
1.226988e+003, 3.895977e+005
1.227470e+003, 3.926042e+005
1.227953e+003, 3.956533e+005
1.228435e+003, 3.986998e+005
1.228917e+003, 4.015578e+005
1.229399e+003, 4.039768e+005
1.229881e+003, 4.064225e+005
1.230363e+003, 4.091508e+005
1.230845e+003, 4.118597e+005
1.231327e+003, 4.143558e+005
1.231810e+003, 4.167501e+005
1.232292e+003, 4.191875e+005
1.232774e+003, 4.216540e+005
1.233256e+003, 4.241043e+005
1.233738e+003, 4.266623e+005
1.234220e+003, 4.285973e+005
1.234702e+003, 4.295916e+005
1.235184e+003, 4.310083e+005
1.235667e+003, 4.332064e+005
1.236149e+003, 4.354116e+005
1.236631e+003, 4.372325e+005
1.237113e+003, 4.388095e+005
1.237595e+003, 4.403086e+005
1.238077e+003, 4.417104e+005
1.238559e+003, 4.429565e+005
1.239041e+003, 4.440715e+005
1.239523e+003, 4.451914e+005
1.240005e+003, 4.463133e+005
1.240488e+003, 4.473173e+005
1.240970e+003, 4.482051e+005
1.241452e+003, 4.491037e+005
1.241934e+003, 4.500823e+005
1.242416e+003, 4.511966e+005
1.242898e+003, 4.526263e+005
1.243380e+003, 4.540684e+005
1.243862e+003, 4.550769e+005
1.244344e+003, 4.560593e+005
1.244827e+003, 4.575594e+005
1.245309e+003, 4.593403e+005
1.245791e+003, 4.609899e+005
1.246273e+003, 4.624518e+005
1.246755e+003, 4.637953e+005
1.247237e+003, 4.649262e+005
1.247719e+003, 4.663331e+005
1.248201e+003, 4.682467e+005
1.248684e+003, 4.702895e+005
1.249166e+003, 4.724759e+005
1.249648e+003, 4.746050e+005
1.250130e+003, 4.764113e+005
1.250612e+003, 4.782342e+005
1.251094e+003, 4.805057e+005
1.251576e+003, 4.832229e+005
1.252058e+003, 4.864014e+005
1.252541e+003, 4.901467e+005
1.253023e+003, 4.934734e+005
1.253505e+003, 4.962904e+005
1.253987e+003, 4.997800e+005
1.254469e+003, 5.042363e+005
1.254951e+003, 5.088611e+005
1.255433e+003, 5.131958e+005
1.255915e+003, 5.174604e+005
1.256397e+003, 5.218624e+005
1.256880e+003, 5.264661e+005
1.257362e+003, 5.314561e+005
1.257844e+003, 5.366740e+005
1.258326e+003, 5.418128e+005
1.258808e+003, 5.468804e+005
1.259290e+003, 5.519689e+005
1.259772e+003, 5.571187e+005
1.260254e+003, 5.625264e+005
1.260737e+003, 5.683044e+005
1.261219e+003, 5.739478e+005
1.261701e+003, 5.792437e+005
1.262183e+003, 5.842649e+005
1.262665e+003, 5.888807e+005
1.263147e+003, 5.934435e+005
1.263629e+003, 5.983694e+005
1.264111e+003, 6.033024e+005
1.264594e+003, 6.077549e+005
1.265076e+003, 6.117344e+005
1.265558e+003, 6.154021e+005
1.266040e+003, 6.186743e+005
1.266522e+003, 6.219803e+005
1.267004e+003, 6.254852e+005
1.267486e+003, 6.284122e+005
1.267968e+003, 6.305319e+005
1.268450e+003, 6.324613e+005
1.268932e+003, 6.345081e+005
1.269415e+003, 6.365757e+005
1.269897e+003, 6.386302e+005
1.270379e+003, 6.405085e+005
1.270861e+003, 6.416153e+005
1.271343e+003, 6.423038e+005
1.271825e+003, 6.437343e+005
1.272307e+003, 6.456931e+005
1.272789e+003, 6.473763e+005
1.273271e+003, 6.487255e+005
1.273754e+003, 6.501624e+005
1.274236e+003, 6.518481e+005
1.274718e+003, 6.534768e+005
1.275200e+003, 6.546823e+005
1.275682e+003, 6.560419e+005
1.276164e+003, 6.578841e+005
1.276646e+003, 6.600147e+005
1.277128e+003, 6.624346e+005
1.277611e+003, 6.649546e+005
1.278093e+003, 6.674293e+005
1.278575e+003, 6.698210e+005
1.279057e+003, 6.719352e+005
1.279539e+003, 6.737301e+005
1.280021e+003, 6.758824e+005
1.280503e+003, 6.784629e+005
1.280985e+003, 6.807989e+005
1.281468e+003, 6.829778e+005
1.281950e+003, 6.851236e+005
1.282432e+003, 6.872817e+005
1.282914e+003, 6.892871e+005
1.283396e+003, 6.910278e+005
1.283878e+003, 6.925444e+005
1.284360e+003, 6.939273e+005
1.284842e+003, 6.948328e+005
1.285324e+003, 6.944092e+005
##END=



