##NAMES=Arsendescloizite
##RRUFFID=R140430
##IDEAL CHEMISTRY=Pb^2+^Zn^2+^As^5+^O_4_(OH)
##LOCALITY=Tsumeb, Namibia
##OWNER=RRUFF
##SOURCE=University of Arizona Mineral Museum 17511
##DESCRIPTION=Yellowish tabular crystals
##STATUS=The identification of this mineral has been confirmed only by single crystal X-ray diffraction.
##URL=rruff.info/R140430
9.059570e+001, 1.868150e+003
9.107782e+001, 1.794695e+003
9.155994e+001, 1.768666e+003
9.204205e+001, 1.823313e+003
9.252417e+001, 1.902919e+003
9.300629e+001, 1.989136e+003
9.348840e+001, 2.064988e+003
9.397052e+001, 2.116702e+003
9.445264e+001, 2.138360e+003
9.493475e+001, 2.156234e+003
9.541687e+001, 2.173465e+003
9.589898e+001, 2.190253e+003
9.638110e+001, 2.208664e+003
9.686321e+001, 2.229798e+003
9.734533e+001, 2.252425e+003
9.782745e+001, 2.272968e+003
9.830956e+001, 2.302080e+003
9.879168e+001, 2.340122e+003
9.927380e+001, 2.384491e+003
9.975591e+001, 2.434793e+003
1.002380e+002, 2.490332e+003
1.007201e+002, 2.550071e+003
1.012023e+002, 2.614702e+003
1.016844e+002, 2.683303e+003
1.021665e+002, 2.749819e+003
1.026486e+002, 2.822856e+003
1.031307e+002, 2.888735e+003
1.036128e+002, 2.936425e+003
1.040950e+002, 2.966876e+003
1.045771e+002, 2.976742e+003
1.050592e+002, 2.958650e+003
1.055413e+002, 2.919442e+003
1.060234e+002, 2.864874e+003
1.065055e+002, 2.792044e+003
1.069877e+002, 2.704713e+003
1.074698e+002, 2.617598e+003
1.079519e+002, 2.527961e+003
1.084340e+002, 2.441813e+003
1.089161e+002, 2.359288e+003
1.093982e+002, 2.281186e+003
1.098804e+002, 2.209994e+003
1.103625e+002, 2.147367e+003
1.108446e+002, 2.093376e+003
1.113267e+002, 2.049361e+003
1.118088e+002, 2.019362e+003
1.122909e+002, 1.994787e+003
1.127731e+002, 1.972712e+003
1.132552e+002, 1.952342e+003
1.137373e+002, 1.933612e+003
1.142194e+002, 1.916519e+003
1.147015e+002, 1.899619e+003
1.151836e+002, 1.887655e+003
1.156658e+002, 1.883332e+003
1.161479e+002, 1.882366e+003
1.166300e+002, 1.880895e+003
1.171121e+002, 1.877566e+003
1.175942e+002, 1.872930e+003
1.180763e+002, 1.868835e+003
1.185584e+002, 1.868822e+003
1.190406e+002, 1.862727e+003
1.195227e+002, 1.847543e+003
1.200048e+002, 1.824050e+003
1.204869e+002, 1.793580e+003
1.209690e+002, 1.755019e+003
1.214511e+002, 1.710508e+003
1.219333e+002, 1.665648e+003
1.224154e+002, 1.619840e+003
1.228975e+002, 1.574676e+003
1.233796e+002, 1.531977e+003
1.238617e+002, 1.491733e+003
1.243438e+002, 1.453066e+003
1.248260e+002, 1.417094e+003
1.253081e+002, 1.382196e+003
1.257902e+002, 1.346600e+003
1.262723e+002, 1.309589e+003
1.267544e+002, 1.272149e+003
1.272365e+002, 1.236904e+003
1.277187e+002, 1.204002e+003
1.282008e+002, 1.173234e+003
1.286829e+002, 1.143926e+003
1.291650e+002, 1.116247e+003
1.296471e+002, 1.090583e+003
1.301292e+002, 1.067180e+003
1.306114e+002, 1.045995e+003
1.310935e+002, 1.026469e+003
1.315756e+002, 1.008043e+003
1.320577e+002, 9.918517e+002
1.325398e+002, 9.789128e+002
1.330219e+002, 9.686354e+002
1.335041e+002, 9.598057e+002
1.339862e+002, 9.514031e+002
1.344683e+002, 9.434455e+002
1.349504e+002, 9.356888e+002
1.354325e+002, 9.269133e+002
1.359146e+002, 9.191950e+002
1.363968e+002, 9.144228e+002
1.368789e+002, 9.125023e+002
1.373610e+002, 9.111840e+002
1.378431e+002, 9.078718e+002
1.383252e+002, 9.019990e+002
1.388073e+002, 8.967902e+002
1.392895e+002, 8.925771e+002
1.397716e+002, 8.890331e+002
1.402537e+002, 8.859177e+002
1.407358e+002, 8.832880e+002
1.412179e+002, 8.807168e+002
1.417000e+002, 8.775574e+002
1.421821e+002, 8.738709e+002
1.426643e+002, 8.703103e+002
1.431464e+002, 8.668738e+002
1.436285e+002, 8.637172e+002
1.441106e+002, 8.614898e+002
1.445927e+002, 8.609278e+002
1.450748e+002, 8.607048e+002
1.455570e+002, 8.596730e+002
1.460391e+002, 8.578176e+002
1.465212e+002, 8.555649e+002
1.470033e+002, 8.532928e+002
1.474854e+002, 8.510295e+002
1.479675e+002, 8.484247e+002
1.484497e+002, 8.457805e+002
1.489318e+002, 8.424660e+002
1.494139e+002, 8.377816e+002
1.498960e+002, 8.316643e+002
1.503781e+002, 8.249588e+002
1.508602e+002, 8.188111e+002
1.513424e+002, 8.128294e+002
1.518245e+002, 8.083351e+002
1.523066e+002, 8.058411e+002
1.527887e+002, 8.042980e+002
1.532708e+002, 8.028709e+002
1.537529e+002, 8.012568e+002
1.542351e+002, 7.997154e+002
1.547172e+002, 7.989012e+002
1.551993e+002, 7.991533e+002
1.556814e+002, 7.998713e+002
1.561635e+002, 8.013676e+002
1.566456e+002, 8.032039e+002
1.571278e+002, 8.049595e+002
1.576099e+002, 8.064501e+002
1.580920e+002, 8.075956e+002
1.585741e+002, 8.079796e+002
1.590562e+002, 8.065764e+002
1.595383e+002, 8.056610e+002
1.600205e+002, 8.058922e+002
1.605026e+002, 8.070292e+002
1.609847e+002, 8.086462e+002
1.614668e+002, 8.107182e+002
1.619489e+002, 8.129225e+002
1.624310e+002, 8.139807e+002
1.629131e+002, 8.137792e+002
1.633953e+002, 8.126926e+002
1.638774e+002, 8.103570e+002
1.643595e+002, 8.069306e+002
1.648416e+002, 8.040059e+002
1.653237e+002, 8.025085e+002
1.658058e+002, 8.023199e+002
1.662880e+002, 8.029703e+002
1.667701e+002, 8.048955e+002
1.672522e+002, 8.072697e+002
1.677343e+002, 8.090877e+002
1.682164e+002, 8.102032e+002
1.686985e+002, 8.114454e+002
1.691807e+002, 8.130247e+002
1.696628e+002, 8.150613e+002
1.701449e+002, 8.179219e+002
1.706270e+002, 8.221413e+002
1.711091e+002, 8.270237e+002
1.715912e+002, 8.307687e+002
1.720734e+002, 8.323857e+002
1.725555e+002, 8.347187e+002
1.730376e+002, 8.393790e+002
1.735197e+002, 8.452540e+002
1.740018e+002, 8.508235e+002
1.744839e+002, 8.551899e+002
1.749661e+002, 8.585107e+002
1.754482e+002, 8.617477e+002
1.759303e+002, 8.663875e+002
1.764124e+002, 8.690626e+002
1.768945e+002, 8.685462e+002
1.773766e+002, 8.655211e+002
1.778588e+002, 8.612219e+002
1.783409e+002, 8.565256e+002
1.788230e+002, 8.514250e+002
1.793051e+002, 8.451122e+002
1.797872e+002, 8.375485e+002
1.802693e+002, 8.288286e+002
1.807515e+002, 8.181549e+002
1.812336e+002, 8.061819e+002
1.817157e+002, 7.945017e+002
1.821978e+002, 7.844996e+002
1.826799e+002, 7.763848e+002
1.831620e+002, 7.679946e+002
1.836441e+002, 7.584727e+002
1.841263e+002, 7.494665e+002
1.846084e+002, 7.417633e+002
1.850905e+002, 7.353868e+002
1.855726e+002, 7.299661e+002
1.860547e+002, 7.252076e+002
1.865368e+002, 7.211935e+002
1.870190e+002, 7.179867e+002
1.875011e+002, 7.152236e+002
1.879832e+002, 7.134827e+002
1.884653e+002, 7.139641e+002
1.889474e+002, 7.166573e+002
1.894296e+002, 7.190674e+002
1.899117e+002, 7.182410e+002
1.903938e+002, 7.142989e+002
1.908759e+002, 7.118707e+002
1.913580e+002, 7.118575e+002
1.918401e+002, 7.134160e+002
1.923223e+002, 7.159492e+002
1.928044e+002, 7.195735e+002
1.932865e+002, 7.232357e+002
1.937686e+002, 7.252988e+002
1.942507e+002, 7.263741e+002
1.947328e+002, 7.285966e+002
1.952150e+002, 7.333873e+002
1.956971e+002, 7.396468e+002
1.961792e+002, 7.449499e+002
1.966613e+002, 7.483730e+002
1.971434e+002, 7.525065e+002
1.976255e+002, 7.592762e+002
1.981077e+002, 7.681671e+002
1.985898e+002, 7.779942e+002
1.990719e+002, 7.883305e+002
1.995540e+002, 7.991942e+002
2.000361e+002, 8.104727e+002
2.005182e+002, 8.218718e+002
2.010004e+002, 8.342994e+002
2.014825e+002, 8.475492e+002
2.019646e+002, 8.619094e+002
2.024467e+002, 8.779440e+002
2.029288e+002, 8.964385e+002
2.034109e+002, 9.172878e+002
2.038930e+002, 9.381023e+002
2.043752e+002, 9.579282e+002
2.048573e+002, 9.787303e+002
2.053394e+002, 1.001427e+003
2.058215e+002, 1.025588e+003
2.063036e+002, 1.050297e+003
2.067857e+002, 1.074591e+003
2.072679e+002, 1.098394e+003
2.077500e+002, 1.123294e+003
2.082321e+002, 1.150233e+003
2.087142e+002, 1.177519e+003
2.091963e+002, 1.205192e+003
2.096784e+002, 1.232788e+003
2.101606e+002, 1.259710e+003
2.106427e+002, 1.286009e+003
2.111248e+002, 1.312196e+003
2.116069e+002, 1.331503e+003
2.120890e+002, 1.343306e+003
2.125711e+002, 1.349660e+003
2.130533e+002, 1.351198e+003
2.135354e+002, 1.347937e+003
2.140175e+002, 1.339477e+003
2.144996e+002, 1.325168e+003
2.149817e+002, 1.304343e+003
2.154638e+002, 1.281382e+003
2.159460e+002, 1.255141e+003
2.164281e+002, 1.228260e+003
2.169102e+002, 1.201160e+003
2.173923e+002, 1.174365e+003
2.178744e+002, 1.148634e+003
2.183565e+002, 1.124808e+003
2.188387e+002, 1.103103e+003
2.193208e+002, 1.082653e+003
2.198029e+002, 1.062838e+003
2.202850e+002, 1.044488e+003
2.207671e+002, 1.028224e+003
2.212492e+002, 1.013995e+003
2.217314e+002, 1.001155e+003
2.222135e+002, 9.891457e+002
2.226956e+002, 9.781259e+002
2.231777e+002, 9.685629e+002
2.236598e+002, 9.615842e+002
2.241419e+002, 9.551990e+002
2.246240e+002, 9.481417e+002
2.251062e+002, 9.403043e+002
2.255883e+002, 9.319006e+002
2.260704e+002, 9.227146e+002
2.265525e+002, 9.130002e+002
2.270346e+002, 9.042939e+002
2.275167e+002, 8.975385e+002
2.279989e+002, 8.913224e+002
2.284810e+002, 8.846689e+002
2.289631e+002, 8.775573e+002
2.294452e+002, 8.697187e+002
2.299273e+002, 8.606591e+002
2.304094e+002, 8.507303e+002
2.308916e+002, 8.408635e+002
2.313737e+002, 8.315159e+002
2.318558e+002, 8.221565e+002
2.323379e+002, 8.120371e+002
2.328200e+002, 8.010399e+002
2.333021e+002, 7.901262e+002
2.337843e+002, 7.801252e+002
2.342664e+002, 7.705217e+002
2.347485e+002, 7.604818e+002
2.352306e+002, 7.494939e+002
2.357127e+002, 7.382371e+002
2.361948e+002, 7.275762e+002
2.366770e+002, 7.175302e+002
2.371591e+002, 7.077562e+002
2.376412e+002, 6.979308e+002
2.381233e+002, 6.882805e+002
2.386054e+002, 6.789982e+002
2.390875e+002, 6.700812e+002
2.395697e+002, 6.616438e+002
2.400518e+002, 6.539178e+002
2.405339e+002, 6.468899e+002
2.410160e+002, 6.405488e+002
2.414981e+002, 6.352447e+002
2.419802e+002, 6.304343e+002
2.424624e+002, 6.255527e+002
2.429445e+002, 6.203278e+002
2.434266e+002, 6.152601e+002
2.439087e+002, 6.113236e+002
2.443908e+002, 6.089215e+002
2.448729e+002, 6.065826e+002
2.453550e+002, 6.039130e+002
2.458372e+002, 6.011236e+002
2.463193e+002, 5.983769e+002
2.468014e+002, 5.957209e+002
2.472835e+002, 5.931415e+002
2.477656e+002, 5.904322e+002
2.482477e+002, 5.871544e+002
2.487299e+002, 5.848904e+002
2.492120e+002, 5.849304e+002
2.496941e+002, 5.853674e+002
2.501762e+002, 5.845471e+002
2.506583e+002, 5.819983e+002
2.511404e+002, 5.788262e+002
2.516226e+002, 5.768302e+002
2.521047e+002, 5.763217e+002
2.525868e+002, 5.764133e+002
2.530689e+002, 5.775353e+002
2.535510e+002, 5.787898e+002
2.540331e+002, 5.795286e+002
2.545153e+002, 5.795972e+002
2.549974e+002, 5.793168e+002
2.554795e+002, 5.790966e+002
2.559616e+002, 5.786956e+002
2.564437e+002, 5.789474e+002
2.569258e+002, 5.801396e+002
2.574080e+002, 5.816530e+002
2.578901e+002, 5.832347e+002
2.583722e+002, 5.847666e+002
2.588543e+002, 5.861139e+002
2.593364e+002, 5.870411e+002
2.598185e+002, 5.872440e+002
2.603007e+002, 5.878034e+002
2.607828e+002, 5.889216e+002
2.612649e+002, 5.901637e+002
2.617470e+002, 5.910558e+002
2.622291e+002, 5.916710e+002
2.627112e+002, 5.926483e+002
2.631934e+002, 5.948755e+002
2.636755e+002, 5.990492e+002
2.641576e+002, 6.018685e+002
2.646397e+002, 6.019412e+002
2.651218e+002, 6.020828e+002
2.656039e+002, 6.037960e+002
2.660861e+002, 6.071207e+002
2.665682e+002, 6.113346e+002
2.670503e+002, 6.158734e+002
2.675324e+002, 6.209072e+002
2.680145e+002, 6.249758e+002
2.684966e+002, 6.273744e+002
2.689788e+002, 6.296580e+002
2.694609e+002, 6.325110e+002
2.699430e+002, 6.359290e+002
2.704251e+002, 6.395470e+002
2.709072e+002, 6.430152e+002
2.713893e+002, 6.462787e+002
2.718715e+002, 6.505383e+002
2.723536e+002, 6.563329e+002
2.728357e+002, 6.623488e+002
2.733178e+002, 6.677686e+002
2.737999e+002, 6.728934e+002
2.742820e+002, 6.786131e+002
2.747642e+002, 6.855744e+002
2.752463e+002, 6.936921e+002
2.757284e+002, 7.018010e+002
2.762105e+002, 7.094597e+002
2.766926e+002, 7.175895e+002
2.771747e+002, 7.264880e+002
2.776568e+002, 7.361300e+002
2.781389e+002, 7.464157e+002
2.786211e+002, 7.573405e+002
2.791032e+002, 7.687939e+002
2.795853e+002, 7.804625e+002
2.800674e+002, 7.923038e+002
2.805495e+002, 8.043936e+002
2.810316e+002, 8.163741e+002
2.815138e+002, 8.286661e+002
2.819959e+002, 8.418699e+002
2.824780e+002, 8.561288e+002
2.829601e+002, 8.717763e+002
2.834422e+002, 8.896443e+002
2.839243e+002, 9.106061e+002
2.844065e+002, 9.318270e+002
2.848886e+002, 9.521765e+002
2.853707e+002, 9.725966e+002
2.858528e+002, 9.944315e+002
2.863349e+002, 1.018170e+003
2.868170e+002, 1.043382e+003
2.872992e+002, 1.069534e+003
2.877813e+002, 1.095914e+003
2.882634e+002, 1.124993e+003
2.887455e+002, 1.157662e+003
2.892276e+002, 1.192914e+003
2.897097e+002, 1.229711e+003
2.901919e+002, 1.267881e+003
2.906740e+002, 1.306460e+003
2.911561e+002, 1.344285e+003
2.916382e+002, 1.380803e+003
2.921203e+002, 1.420337e+003
2.926024e+002, 1.465669e+003
2.930846e+002, 1.512890e+003
2.935667e+002, 1.558100e+003
2.940488e+002, 1.600992e+003
2.945309e+002, 1.643444e+003
2.950130e+002, 1.688186e+003
2.954951e+002, 1.735004e+003
2.959773e+002, 1.776416e+003
2.964594e+002, 1.811521e+003
2.969415e+002, 1.841575e+003
2.974236e+002, 1.867188e+003
2.979057e+002, 1.888389e+003
2.983878e+002, 1.905953e+003
2.988700e+002, 1.920568e+003
2.993521e+002, 1.931454e+003
2.998342e+002, 1.937549e+003
3.003163e+002, 1.935721e+003
3.007984e+002, 1.932034e+003
3.012805e+002, 1.928704e+003
3.017627e+002, 1.926106e+003
3.022448e+002, 1.925482e+003
3.027269e+002, 1.927104e+003
3.032090e+002, 1.931665e+003
3.036911e+002, 1.940448e+003
3.041732e+002, 1.953809e+003
3.046554e+002, 1.970190e+003
3.051375e+002, 1.987576e+003
3.056196e+002, 2.007367e+003
3.061017e+002, 2.033539e+003
3.065838e+002, 2.068092e+003
3.070659e+002, 2.108826e+003
3.075481e+002, 2.150987e+003
3.080302e+002, 2.193044e+003
3.085123e+002, 2.240663e+003
3.089944e+002, 2.296150e+003
3.094765e+002, 2.358202e+003
3.099586e+002, 2.424101e+003
3.104408e+002, 2.492840e+003
3.109229e+002, 2.565588e+003
3.114050e+002, 2.643672e+003
3.118871e+002, 2.726931e+003
3.123692e+002, 2.814708e+003
3.128513e+002, 2.907616e+003
3.133335e+002, 3.004571e+003
3.138156e+002, 3.105685e+003
3.142977e+002, 3.210805e+003
3.147798e+002, 3.318016e+003
3.152619e+002, 3.426852e+003
3.157440e+002, 3.537361e+003
3.162262e+002, 3.646048e+003
3.167083e+002, 3.753303e+003
3.171904e+002, 3.858146e+003
3.176725e+002, 3.961993e+003
3.181546e+002, 4.064566e+003
3.186367e+002, 4.158456e+003
3.191188e+002, 4.238795e+003
3.196010e+002, 4.305219e+003
3.200831e+002, 4.364618e+003
3.205652e+002, 4.422697e+003
3.210473e+002, 4.468867e+003
3.215294e+002, 4.496938e+003
3.220115e+002, 4.508147e+003
3.224937e+002, 4.507016e+003
3.229758e+002, 4.495258e+003
3.234579e+002, 4.472372e+003
3.239400e+002, 4.437620e+003
3.244221e+002, 4.390049e+003
3.249042e+002, 4.335750e+003
3.253864e+002, 4.274915e+003
3.258685e+002, 4.209052e+003
3.263506e+002, 4.139830e+003
3.268327e+002, 4.067243e+003
3.273148e+002, 3.993011e+003
3.277969e+002, 3.918513e+003
3.282791e+002, 3.842691e+003
3.287612e+002, 3.772060e+003
3.292433e+002, 3.707794e+003
3.297254e+002, 3.649632e+003
3.302075e+002, 3.598149e+003
3.306896e+002, 3.553444e+003
3.311718e+002, 3.512724e+003
3.316539e+002, 3.472714e+003
3.321360e+002, 3.433583e+003
3.326181e+002, 3.399875e+003
3.331002e+002, 3.372409e+003
3.335823e+002, 3.350109e+003
3.340645e+002, 3.333384e+003
3.345466e+002, 3.321757e+003
3.350287e+002, 3.312083e+003
3.355108e+002, 3.302488e+003
3.359929e+002, 3.293051e+003
3.364750e+002, 3.284493e+003
3.369572e+002, 3.279305e+003
3.374393e+002, 3.272203e+003
3.379214e+002, 3.260606e+003
3.384035e+002, 3.245348e+003
3.388856e+002, 3.228455e+003
3.393677e+002, 3.210777e+003
3.398499e+002, 3.192275e+003
3.403320e+002, 3.172847e+003
3.408141e+002, 3.152984e+003
3.412962e+002, 3.131607e+003
3.417783e+002, 3.107346e+003
3.422604e+002, 3.081837e+003
3.427426e+002, 3.058002e+003
3.432247e+002, 3.036779e+003
3.437068e+002, 3.015207e+003
3.441889e+002, 2.989168e+003
3.446710e+002, 2.957034e+003
3.451531e+002, 2.924307e+003
3.456353e+002, 2.892019e+003
3.461174e+002, 2.858717e+003
3.465995e+002, 2.824147e+003
3.470816e+002, 2.788074e+003
3.475637e+002, 2.748453e+003
3.480458e+002, 2.703871e+003
3.485280e+002, 2.653954e+003
3.490101e+002, 2.600949e+003
3.494922e+002, 2.545307e+003
3.499743e+002, 2.486815e+003
3.504564e+002, 2.425668e+003
3.509385e+002, 2.362079e+003
3.514207e+002, 2.295608e+003
3.519028e+002, 2.226026e+003
3.523849e+002, 2.154254e+003
3.528670e+002, 2.083403e+003
3.533491e+002, 2.015323e+003
3.538312e+002, 1.946073e+003
3.543134e+002, 1.872770e+003
3.547955e+002, 1.799123e+003
3.552776e+002, 1.729017e+003
3.557597e+002, 1.663903e+003
3.562418e+002, 1.602535e+003
3.567239e+002, 1.542177e+003
3.572061e+002, 1.481622e+003
3.576882e+002, 1.425107e+003
3.581703e+002, 1.372090e+003
3.586524e+002, 1.322964e+003
3.591345e+002, 1.278774e+003
3.596166e+002, 1.239075e+003
3.600987e+002, 1.202633e+003
3.605808e+002, 1.168079e+003
3.610630e+002, 1.135378e+003
3.615451e+002, 1.104968e+003
3.620272e+002, 1.076372e+003
3.625093e+002, 1.050421e+003
3.629914e+002, 1.027480e+003
3.634735e+002, 1.007334e+003
3.639557e+002, 9.902119e+002
3.644378e+002, 9.763323e+002
3.649199e+002, 9.651306e+002
3.654020e+002, 9.540956e+002
3.658841e+002, 9.411696e+002
3.663662e+002, 9.315660e+002
3.668484e+002, 9.269435e+002
3.673305e+002, 9.252073e+002
3.678126e+002, 9.243959e+002
3.682947e+002, 9.238684e+002
3.687768e+002, 9.241735e+002
3.692589e+002, 9.261005e+002
3.697411e+002, 9.295925e+002
3.702232e+002, 9.350201e+002
3.707053e+002, 9.423232e+002
3.711874e+002, 9.514661e+002
3.716695e+002, 9.629350e+002
3.721516e+002, 9.764322e+002
3.726338e+002, 9.911393e+002
3.731159e+002, 1.006171e+003
3.735980e+002, 1.021531e+003
3.740801e+002, 1.038601e+003
3.745622e+002, 1.057730e+003
3.750443e+002, 1.078418e+003
3.755265e+002, 1.100469e+003
3.760086e+002, 1.123865e+003
3.764907e+002, 1.148230e+003
3.769728e+002, 1.173342e+003
3.774549e+002, 1.199821e+003
3.779370e+002, 1.228887e+003
3.784192e+002, 1.260147e+003
3.789013e+002, 1.295254e+003
3.793834e+002, 1.335807e+003
3.798655e+002, 1.379652e+003
3.803476e+002, 1.424908e+003
3.808297e+002, 1.471238e+003
3.813119e+002, 1.521026e+003
3.817940e+002, 1.576027e+003
3.822761e+002, 1.636333e+003
3.827582e+002, 1.701863e+003
3.832403e+002, 1.772802e+003
3.837224e+002, 1.849522e+003
3.842046e+002, 1.930957e+003
3.846867e+002, 2.017148e+003
3.851688e+002, 2.110571e+003
3.856509e+002, 2.212986e+003
3.861330e+002, 2.322602e+003
3.866151e+002, 2.437075e+003
3.870973e+002, 2.557044e+003
3.875794e+002, 2.678442e+003
3.880615e+002, 2.805784e+003
3.885436e+002, 2.931621e+003
3.890257e+002, 3.046169e+003
3.895078e+002, 3.151496e+003
3.899900e+002, 3.237929e+003
3.904721e+002, 3.302092e+003
3.909542e+002, 3.342563e+003
3.914363e+002, 3.345699e+003
3.919184e+002, 3.304732e+003
3.924005e+002, 3.224960e+003
3.928827e+002, 3.112625e+003
3.933648e+002, 2.967408e+003
3.938469e+002, 2.810228e+003
3.943290e+002, 2.641333e+003
3.948111e+002, 2.468320e+003
3.952932e+002, 2.303165e+003
3.957754e+002, 2.145764e+003
3.962575e+002, 2.000345e+003
3.967396e+002, 1.869794e+003
3.972217e+002, 1.755041e+003
3.977038e+002, 1.652157e+003
3.981859e+002, 1.562581e+003
3.986681e+002, 1.482338e+003
3.991501e+002, 1.409826e+003
3.996323e+002, 1.344468e+003
4.001144e+002, 1.285032e+003
4.005965e+002, 1.231484e+003
4.010786e+002, 1.182569e+003
4.015607e+002, 1.135539e+003
4.020428e+002, 1.088148e+003
4.025250e+002, 1.045935e+003
4.030071e+002, 1.012040e+003
4.034892e+002, 9.827841e+002
4.039713e+002, 9.544879e+002
4.044534e+002, 9.263341e+002
4.049355e+002, 8.988312e+002
4.054177e+002, 8.724406e+002
4.058998e+002, 8.471288e+002
4.063819e+002, 8.244409e+002
4.068640e+002, 8.048775e+002
4.073461e+002, 7.871644e+002
4.078282e+002, 7.710945e+002
4.083104e+002, 7.563091e+002
4.087925e+002, 7.420466e+002
4.092746e+002, 7.276169e+002
4.097567e+002, 7.134329e+002
4.102388e+002, 7.011531e+002
4.107209e+002, 6.926002e+002
4.112031e+002, 6.837419e+002
4.116852e+002, 6.732783e+002
4.121673e+002, 6.628841e+002
4.126494e+002, 6.541682e+002
4.131315e+002, 6.475286e+002
4.136136e+002, 6.422210e+002
4.140958e+002, 6.375527e+002
4.145779e+002, 6.339279e+002
4.150600e+002, 6.292179e+002
4.155421e+002, 6.220174e+002
4.160242e+002, 6.150413e+002
4.165063e+002, 6.099193e+002
4.169885e+002, 6.058864e+002
4.174706e+002, 6.011146e+002
4.179527e+002, 5.943557e+002
4.184348e+002, 5.860379e+002
4.189169e+002, 5.773028e+002
4.193990e+002, 5.676456e+002
4.198812e+002, 5.588229e+002
4.203633e+002, 5.523377e+002
4.208454e+002, 5.464109e+002
4.213275e+002, 5.394102e+002
4.218096e+002, 5.309425e+002
4.222917e+002, 5.218885e+002
4.227739e+002, 5.126385e+002
4.232560e+002, 5.032845e+002
4.237381e+002, 4.955943e+002
4.242202e+002, 4.910043e+002
4.247023e+002, 4.865375e+002
4.251844e+002, 4.794140e+002
4.256666e+002, 4.703716e+002
4.261487e+002, 4.620497e+002
4.266308e+002, 4.555649e+002
4.271129e+002, 4.504169e+002
4.275950e+002, 4.460945e+002
4.280771e+002, 4.425970e+002
4.285593e+002, 4.393426e+002
4.290414e+002, 4.357000e+002
4.295235e+002, 4.323574e+002
4.300056e+002, 4.307536e+002
4.304877e+002, 4.317244e+002
4.309698e+002, 4.325455e+002
4.314520e+002, 4.312886e+002
4.319341e+002, 4.290239e+002
4.324162e+002, 4.279984e+002
4.328983e+002, 4.288498e+002
4.333804e+002, 4.304145e+002
4.338625e+002, 4.311608e+002
4.343447e+002, 4.308509e+002
4.348268e+002, 4.321889e+002
4.353089e+002, 4.369748e+002
4.357910e+002, 4.419760e+002
4.362731e+002, 4.450587e+002
4.367552e+002, 4.464542e+002
4.372374e+002, 4.474661e+002
4.377195e+002, 4.488996e+002
4.382016e+002, 4.504204e+002
4.386837e+002, 4.507144e+002
4.391658e+002, 4.488976e+002
4.396479e+002, 4.469530e+002
4.401301e+002, 4.457033e+002
4.406122e+002, 4.439960e+002
4.410943e+002, 4.403015e+002
4.415764e+002, 4.345663e+002
4.420585e+002, 4.284380e+002
4.425406e+002, 4.238427e+002
4.430227e+002, 4.209677e+002
4.435049e+002, 4.181929e+002
4.439870e+002, 4.157363e+002
4.444691e+002, 4.131643e+002
4.449512e+002, 4.096016e+002
4.454333e+002, 4.059971e+002
4.459154e+002, 4.041730e+002
4.463976e+002, 4.052897e+002
4.468797e+002, 4.076257e+002
4.473618e+002, 4.070430e+002
4.478439e+002, 4.022536e+002
4.483260e+002, 3.983841e+002
4.488081e+002, 3.978000e+002
4.492903e+002, 3.973674e+002
4.497724e+002, 3.951297e+002
4.502545e+002, 3.909879e+002
4.507366e+002, 3.860249e+002
4.512187e+002, 3.810377e+002
4.517008e+002, 3.759073e+002
4.521830e+002, 3.699562e+002
4.526651e+002, 3.625440e+002
4.531472e+002, 3.559564e+002
4.536293e+002, 3.523841e+002
4.541114e+002, 3.502964e+002
4.545935e+002, 3.475994e+002
4.550757e+002, 3.437639e+002
4.555578e+002, 3.394370e+002
4.560399e+002, 3.347297e+002
4.565220e+002, 3.298705e+002
4.570041e+002, 3.259243e+002
4.574862e+002, 3.234644e+002
4.579684e+002, 3.214270e+002
4.584505e+002, 3.181521e+002
4.589326e+002, 3.136274e+002
4.594147e+002, 3.099763e+002
4.598968e+002, 3.085240e+002
4.603789e+002, 3.074321e+002
4.608611e+002, 3.048497e+002
4.613432e+002, 3.009690e+002
4.618253e+002, 2.974027e+002
4.623074e+002, 2.951700e+002
4.627895e+002, 2.939545e+002
4.632716e+002, 2.923886e+002
4.637538e+002, 2.902503e+002
4.642359e+002, 2.880811e+002
4.647180e+002, 2.857307e+002
4.652001e+002, 2.834712e+002
4.656822e+002, 2.816194e+002
4.661643e+002, 2.802095e+002
4.666465e+002, 2.790573e+002
4.671286e+002, 2.780365e+002
4.676107e+002, 2.772102e+002
4.680928e+002, 2.757929e+002
4.685749e+002, 2.730036e+002
4.690570e+002, 2.704461e+002
4.695392e+002, 2.683480e+002
4.700213e+002, 2.668144e+002
4.705034e+002, 2.660724e+002
4.709855e+002, 2.662435e+002
4.714676e+002, 2.668835e+002
4.719497e+002, 2.672807e+002
4.724319e+002, 2.674533e+002
4.729140e+002, 2.673070e+002
4.733961e+002, 2.667600e+002
4.738782e+002, 2.659216e+002
4.743603e+002, 2.647010e+002
4.748424e+002, 2.632070e+002
4.753246e+002, 2.617894e+002
4.758067e+002, 2.605755e+002
4.762888e+002, 2.596162e+002
4.767709e+002, 2.589842e+002
4.772530e+002, 2.586683e+002
4.777351e+002, 2.587878e+002
4.782173e+002, 2.596339e+002
4.786994e+002, 2.608448e+002
4.791815e+002, 2.619304e+002
4.796636e+002, 2.629785e+002
4.801457e+002, 2.635020e+002
4.806278e+002, 2.628123e+002
4.811100e+002, 2.615409e+002
4.815920e+002, 2.608750e+002
4.820742e+002, 2.610362e+002
4.825563e+002, 2.614720e+002
4.830384e+002, 2.617981e+002
4.835205e+002, 2.619854e+002
4.840026e+002, 2.617459e+002
4.844847e+002, 2.608682e+002
4.849669e+002, 2.598231e+002
4.854490e+002, 2.585767e+002
4.859311e+002, 2.573350e+002
4.864132e+002, 2.564442e+002
4.868953e+002, 2.560292e+002
4.873774e+002, 2.559518e+002
4.878596e+002, 2.559931e+002
4.883417e+002, 2.561465e+002
4.888238e+002, 2.564524e+002
4.893059e+002, 2.575619e+002
4.897880e+002, 2.581852e+002
4.902701e+002, 2.573233e+002
4.907523e+002, 2.554772e+002
4.912344e+002, 2.538297e+002
4.917165e+002, 2.531127e+002
4.921986e+002, 2.530159e+002
4.926807e+002, 2.527828e+002
4.931628e+002, 2.525839e+002
4.936450e+002, 2.517808e+002
4.941271e+002, 2.491678e+002
4.946092e+002, 2.466883e+002
4.950913e+002, 2.460516e+002
4.955734e+002, 2.471410e+002
4.960555e+002, 2.479484e+002
4.965377e+002, 2.465400e+002
4.970198e+002, 2.438406e+002
4.975019e+002, 2.425709e+002
4.979840e+002, 2.430873e+002
4.984661e+002, 2.435967e+002
4.989482e+002, 2.431147e+002
4.994304e+002, 2.419816e+002
4.999125e+002, 2.407644e+002
5.003946e+002, 2.391520e+002
5.008767e+002, 2.382795e+002
5.013588e+002, 2.397082e+002
5.018409e+002, 2.419898e+002
5.023231e+002, 2.423532e+002
5.028052e+002, 2.402162e+002
5.032873e+002, 2.372520e+002
5.037694e+002, 2.348910e+002
5.042515e+002, 2.331427e+002
5.047336e+002, 2.320417e+002
5.052158e+002, 2.325344e+002
5.056979e+002, 2.325463e+002
5.061800e+002, 2.309114e+002
5.066621e+002, 2.284485e+002
5.071442e+002, 2.264325e+002
5.076263e+002, 2.253178e+002
5.081085e+002, 2.246366e+002
5.085906e+002, 2.236240e+002
5.090727e+002, 2.220147e+002
5.095548e+002, 2.210300e+002
5.100369e+002, 2.212130e+002
5.105190e+002, 2.214805e+002
5.110012e+002, 2.213798e+002
5.114833e+002, 2.210677e+002
5.119654e+002, 2.209736e+002
5.124475e+002, 2.213969e+002
5.129296e+002, 2.218524e+002
5.134117e+002, 2.213813e+002
5.138939e+002, 2.198655e+002
5.143760e+002, 2.182866e+002
5.148581e+002, 2.165288e+002
5.153402e+002, 2.151197e+002
5.158223e+002, 2.145999e+002
5.163044e+002, 2.148574e+002
5.167866e+002, 2.151332e+002
5.172687e+002, 2.154687e+002
5.177508e+002, 2.154454e+002
5.182329e+002, 2.140667e+002
5.187150e+002, 2.114767e+002
5.191971e+002, 2.097268e+002
5.196793e+002, 2.100544e+002
5.201614e+002, 2.114778e+002
5.206435e+002, 2.116410e+002
5.211256e+002, 2.099455e+002
5.216077e+002, 2.090014e+002
5.220898e+002, 2.102182e+002
5.225720e+002, 2.116836e+002
5.230541e+002, 2.116054e+002
5.235362e+002, 2.100285e+002
5.240183e+002, 2.080258e+002
5.245004e+002, 2.062735e+002
5.249825e+002, 2.048776e+002
5.254647e+002, 2.044193e+002
5.259468e+002, 2.060004e+002
5.264289e+002, 2.069615e+002
5.269110e+002, 2.064777e+002
5.273931e+002, 2.057310e+002
5.278752e+002, 2.058089e+002
5.283574e+002, 2.067427e+002
5.288395e+002, 2.076748e+002
5.293216e+002, 2.078397e+002
5.298037e+002, 2.073469e+002
5.302858e+002, 2.068190e+002
5.307679e+002, 2.061825e+002
5.312501e+002, 2.056872e+002
5.317322e+002, 2.057830e+002
5.322143e+002, 2.059109e+002
5.326964e+002, 2.053308e+002
5.331785e+002, 2.038105e+002
5.336606e+002, 2.024534e+002
5.341428e+002, 2.019805e+002
5.346249e+002, 2.021805e+002
5.351070e+002, 2.027743e+002
5.355891e+002, 2.037742e+002
5.360712e+002, 2.044970e+002
5.365533e+002, 2.042454e+002
5.370355e+002, 2.032549e+002
5.375176e+002, 2.030060e+002
5.379997e+002, 2.042281e+002
5.384818e+002, 2.052285e+002
5.389639e+002, 2.053268e+002
5.394460e+002, 2.050365e+002
5.399282e+002, 2.050996e+002
5.404103e+002, 2.056186e+002
5.408924e+002, 2.060023e+002
5.413745e+002, 2.055836e+002
5.418566e+002, 2.043334e+002
5.423387e+002, 2.032818e+002
5.428209e+002, 2.021627e+002
5.433029e+002, 2.016097e+002
5.437850e+002, 2.023524e+002
5.442672e+002, 2.034355e+002
5.447493e+002, 2.036537e+002
5.452314e+002, 2.027245e+002
5.457135e+002, 2.016150e+002
5.461956e+002, 2.015373e+002
5.466777e+002, 2.023730e+002
5.471599e+002, 2.026294e+002
5.476420e+002, 2.019157e+002
5.481241e+002, 2.012864e+002
5.486062e+002, 2.017033e+002
5.490883e+002, 2.025756e+002
5.495704e+002, 2.029588e+002
5.500526e+002, 2.026414e+002
5.505347e+002, 2.019355e+002
5.510168e+002, 2.005982e+002
5.514989e+002, 1.990881e+002
5.519810e+002, 1.986029e+002
5.524631e+002, 1.994196e+002
5.529453e+002, 2.001830e+002
5.534274e+002, 1.994563e+002
5.539095e+002, 1.972289e+002
5.543916e+002, 1.962105e+002
5.548737e+002, 1.969843e+002
5.553558e+002, 1.980681e+002
5.558380e+002, 1.995040e+002
5.563201e+002, 2.008254e+002
5.568022e+002, 2.012456e+002
5.572843e+002, 2.006771e+002
5.577664e+002, 2.000801e+002
5.582485e+002, 2.007563e+002
5.587307e+002, 2.027854e+002
5.592128e+002, 2.036951e+002
5.596949e+002, 2.026953e+002
5.601770e+002, 2.016656e+002
5.606591e+002, 2.011755e+002
5.611412e+002, 2.010411e+002
5.616234e+002, 2.010541e+002
5.621055e+002, 2.011681e+002
5.625876e+002, 2.013831e+002
5.630697e+002, 2.018360e+002
5.635518e+002, 2.023995e+002
5.640339e+002, 2.026674e+002
5.645161e+002, 2.026023e+002
5.649982e+002, 2.021536e+002
5.654803e+002, 2.009476e+002
5.659624e+002, 1.993379e+002
5.664445e+002, 1.988076e+002
5.669266e+002, 2.003356e+002
5.674088e+002, 2.015416e+002
5.678909e+002, 2.012112e+002
5.683730e+002, 2.003023e+002
5.688551e+002, 2.002193e+002
5.693372e+002, 2.010941e+002
5.698193e+002, 2.017588e+002
5.703015e+002, 2.010376e+002
5.707836e+002, 1.990251e+002
5.712657e+002, 1.976065e+002
5.717478e+002, 1.968144e+002
5.722299e+002, 1.966321e+002
5.727120e+002, 1.976822e+002
5.731942e+002, 1.989195e+002
5.736763e+002, 1.992786e+002
5.741584e+002, 1.986559e+002
5.746405e+002, 1.978820e+002
5.751226e+002, 1.975948e+002
5.756047e+002, 1.977461e+002
5.760869e+002, 1.982200e+002
5.765690e+002, 1.991147e+002
5.770511e+002, 1.999278e+002
5.775332e+002, 2.005302e+002
5.780153e+002, 2.008240e+002
5.784974e+002, 2.006060e+002
5.789796e+002, 1.997249e+002
5.794617e+002, 1.990068e+002
5.799438e+002, 1.988841e+002
5.804259e+002, 1.990162e+002
5.809080e+002, 1.991006e+002
5.813901e+002, 1.990774e+002
5.818723e+002, 1.987837e+002
5.823544e+002, 1.980313e+002
5.828365e+002, 1.971001e+002
5.833186e+002, 1.969582e+002
5.838007e+002, 1.985068e+002
5.842828e+002, 1.994836e+002
5.847650e+002, 1.996562e+002
5.852471e+002, 1.994524e+002
5.857292e+002, 1.989722e+002
5.862113e+002, 1.983589e+002
5.866934e+002, 1.978815e+002
5.871755e+002, 1.977115e+002
5.876577e+002, 1.977746e+002
5.881398e+002, 1.980151e+002
5.886219e+002, 1.985158e+002
5.891040e+002, 1.985964e+002
5.895861e+002, 1.978753e+002
5.900682e+002, 1.969085e+002
5.905504e+002, 1.959989e+002
5.910325e+002, 1.952164e+002
5.915146e+002, 1.950854e+002
5.919967e+002, 1.965377e+002
5.924788e+002, 1.980532e+002
5.929609e+002, 1.980965e+002
5.934431e+002, 1.971071e+002
5.939252e+002, 1.964323e+002
5.944073e+002, 1.965648e+002
5.948894e+002, 1.971194e+002
5.953715e+002, 1.975770e+002
5.958536e+002, 1.979112e+002
5.963358e+002, 1.982694e+002
5.968179e+002, 1.987614e+002
5.973000e+002, 1.991532e+002
5.977821e+002, 1.995496e+002
5.982642e+002, 1.997274e+002
5.987463e+002, 1.991686e+002
5.992285e+002, 1.977358e+002
5.997106e+002, 1.963511e+002
6.001927e+002, 1.964837e+002
6.006748e+002, 1.980438e+002
6.011569e+002, 1.983225e+002
6.016390e+002, 1.965160e+002
6.021212e+002, 1.948966e+002
6.026033e+002, 1.952102e+002
6.030854e+002, 1.964051e+002
6.035675e+002, 1.968403e+002
6.040496e+002, 1.960493e+002
6.045317e+002, 1.953199e+002
6.050139e+002, 1.953388e+002
6.054960e+002, 1.958018e+002
6.059781e+002, 1.963764e+002
6.064602e+002, 1.969813e+002
6.069423e+002, 1.974008e+002
6.074244e+002, 1.974235e+002
6.079066e+002, 1.971929e+002
6.083887e+002, 1.973877e+002
6.088708e+002, 1.992267e+002
6.093529e+002, 1.996929e+002
6.098350e+002, 1.976600e+002
6.103171e+002, 1.950952e+002
6.107993e+002, 1.930995e+002
6.112814e+002, 1.918373e+002
6.117635e+002, 1.912129e+002
6.122456e+002, 1.912701e+002
6.127277e+002, 1.917549e+002
6.132098e+002, 1.921785e+002
6.136920e+002, 1.925439e+002
6.141741e+002, 1.928137e+002
6.146562e+002, 1.928986e+002
6.151383e+002, 1.929915e+002
6.156204e+002, 1.934126e+002
6.161025e+002, 1.940769e+002
6.165847e+002, 1.944100e+002
6.170668e+002, 1.940048e+002
6.175489e+002, 1.935223e+002
6.180310e+002, 1.935446e+002
6.185131e+002, 1.937668e+002
6.189952e+002, 1.934591e+002
6.194774e+002, 1.924243e+002
6.199595e+002, 1.912456e+002
6.204416e+002, 1.905800e+002
6.209237e+002, 1.904347e+002
6.214058e+002, 1.906723e+002
6.218879e+002, 1.917905e+002
6.223701e+002, 1.926869e+002
6.228522e+002, 1.933061e+002
6.233343e+002, 1.935007e+002
6.238164e+002, 1.928774e+002
6.242985e+002, 1.914567e+002
6.247806e+002, 1.901750e+002
6.252628e+002, 1.898217e+002
6.257448e+002, 1.901850e+002
6.262269e+002, 1.908547e+002
6.267090e+002, 1.918703e+002
6.271912e+002, 1.925607e+002
6.276733e+002, 1.924327e+002
6.281554e+002, 1.919843e+002
6.286375e+002, 1.923750e+002
6.291196e+002, 1.939715e+002
6.296017e+002, 1.945770e+002
6.300839e+002, 1.927543e+002
6.305660e+002, 1.908349e+002
6.310481e+002, 1.904930e+002
6.315302e+002, 1.913734e+002
6.320123e+002, 1.924661e+002
6.324944e+002, 1.933049e+002
6.329766e+002, 1.938660e+002
6.334587e+002, 1.939958e+002
6.339408e+002, 1.935311e+002
6.344229e+002, 1.935072e+002
6.349050e+002, 1.944167e+002
6.353871e+002, 1.951364e+002
6.358693e+002, 1.947428e+002
6.363514e+002, 1.940085e+002
6.368335e+002, 1.942295e+002
6.373156e+002, 1.958936e+002
6.377977e+002, 1.976830e+002
6.382798e+002, 1.989145e+002
6.387620e+002, 1.995417e+002
6.392441e+002, 1.991440e+002
6.397262e+002, 1.977377e+002
6.402083e+002, 1.967006e+002
6.406904e+002, 1.969833e+002
6.411725e+002, 1.982309e+002
6.416547e+002, 1.992686e+002
6.421368e+002, 2.000812e+002
6.426189e+002, 2.006740e+002
6.431010e+002, 2.010913e+002
6.435831e+002, 2.012506e+002
6.440652e+002, 2.009535e+002
6.445474e+002, 2.003600e+002
6.450295e+002, 1.997864e+002
6.455116e+002, 1.993592e+002
6.459937e+002, 1.992232e+002
6.464758e+002, 1.999035e+002
6.469579e+002, 2.013870e+002
6.474401e+002, 2.019545e+002
6.479222e+002, 2.009751e+002
6.484043e+002, 1.998435e+002
6.488864e+002, 1.997180e+002
6.493685e+002, 2.002942e+002
6.498506e+002, 2.006182e+002
6.503328e+002, 2.004382e+002
6.508149e+002, 2.002813e+002
6.512970e+002, 2.007024e+002
6.517791e+002, 2.010686e+002
6.522612e+002, 2.002320e+002
6.527433e+002, 1.983466e+002
6.532255e+002, 1.969583e+002
6.537076e+002, 1.972632e+002
6.541897e+002, 1.988371e+002
6.546718e+002, 2.001870e+002
6.551539e+002, 2.014535e+002
6.556360e+002, 2.021393e+002
6.561182e+002, 2.015923e+002
6.566003e+002, 2.009299e+002
6.570824e+002, 2.008131e+002
6.575645e+002, 2.010930e+002
6.580466e+002, 2.011804e+002
6.585287e+002, 2.005381e+002
6.590109e+002, 2.001242e+002
6.594930e+002, 2.013381e+002
6.599751e+002, 2.034900e+002
6.604572e+002, 2.045072e+002
6.609393e+002, 2.039167e+002
6.614214e+002, 2.029911e+002
6.619036e+002, 2.028143e+002
6.623857e+002, 2.033234e+002
6.628678e+002, 2.038289e+002
6.633499e+002, 2.044093e+002
6.638320e+002, 2.048833e+002
6.643141e+002, 2.051750e+002
6.647963e+002, 2.054063e+002
6.652784e+002, 2.056798e+002
6.657605e+002, 2.059897e+002
6.662426e+002, 2.062595e+002
6.667247e+002, 2.064308e+002
6.672068e+002, 2.065590e+002
6.676890e+002, 2.066827e+002
6.681711e+002, 2.068093e+002
6.686532e+002, 2.072731e+002
6.691353e+002, 2.083273e+002
6.696174e+002, 2.092878e+002
6.700995e+002, 2.093006e+002
6.705817e+002, 2.085131e+002
6.710638e+002, 2.084345e+002
6.715459e+002, 2.096346e+002
6.720280e+002, 2.108692e+002
6.725101e+002, 2.119433e+002
6.729922e+002, 2.127289e+002
6.734744e+002, 2.128912e+002
6.739565e+002, 2.125458e+002
6.744386e+002, 2.123657e+002
6.749207e+002, 2.129042e+002
6.754028e+002, 2.139217e+002
6.758849e+002, 2.145727e+002
6.763671e+002, 2.147011e+002
6.768492e+002, 2.151923e+002
6.773313e+002, 2.166423e+002
6.778134e+002, 2.180267e+002
6.782955e+002, 2.181046e+002
6.787776e+002, 2.173785e+002
6.792598e+002, 2.177162e+002
6.797419e+002, 2.205574e+002
6.802240e+002, 2.232592e+002
6.807061e+002, 2.237948e+002
6.811882e+002, 2.233669e+002
6.816703e+002, 2.240753e+002
6.821525e+002, 2.261539e+002
6.826346e+002, 2.281255e+002
6.831167e+002, 2.287296e+002
6.835988e+002, 2.282841e+002
6.840809e+002, 2.284238e+002
6.845630e+002, 2.296500e+002
6.850452e+002, 2.303633e+002
6.855273e+002, 2.293796e+002
6.860094e+002, 2.286834e+002
6.864915e+002, 2.298000e+002
6.869736e+002, 2.321858e+002
6.874557e+002, 2.341209e+002
6.879379e+002, 2.348996e+002
6.884200e+002, 2.351234e+002
6.889021e+002, 2.352419e+002
6.893842e+002, 2.352222e+002
6.898663e+002, 2.347575e+002
6.903484e+002, 2.338204e+002
6.908306e+002, 2.334643e+002
6.913127e+002, 2.347148e+002
6.917948e+002, 2.370815e+002
6.922769e+002, 2.380523e+002
6.927590e+002, 2.359839e+002
6.932411e+002, 2.351572e+002
6.937233e+002, 2.369907e+002
6.942054e+002, 2.389295e+002
6.946875e+002, 2.392704e+002
6.951696e+002, 2.384423e+002
6.956517e+002, 2.377702e+002
6.961339e+002, 2.377809e+002
6.966160e+002, 2.383148e+002
6.970981e+002, 2.396751e+002
6.975802e+002, 2.414449e+002
6.980623e+002, 2.418881e+002
6.985444e+002, 2.406452e+002
6.990266e+002, 2.394913e+002
6.995087e+002, 2.396732e+002
6.999908e+002, 2.408995e+002
7.004729e+002, 2.420668e+002
7.009550e+002, 2.430272e+002
7.014371e+002, 2.441469e+002
7.019193e+002, 2.460354e+002
7.024014e+002, 2.475225e+002
7.028835e+002, 2.475410e+002
7.033656e+002, 2.466461e+002
7.038477e+002, 2.460869e+002
7.043298e+002, 2.464114e+002
7.048120e+002, 2.471196e+002
7.052941e+002, 2.477174e+002
7.057762e+002, 2.481885e+002
7.062583e+002, 2.483306e+002
7.067404e+002, 2.480382e+002
7.072225e+002, 2.480685e+002
7.077046e+002, 2.490335e+002
7.081867e+002, 2.504916e+002
7.086688e+002, 2.512445e+002
7.091509e+002, 2.507631e+002
7.096331e+002, 2.509629e+002
7.101152e+002, 2.524403e+002
7.105973e+002, 2.541747e+002
7.110794e+002, 2.556620e+002
7.115615e+002, 2.569401e+002
7.120436e+002, 2.582459e+002
7.125258e+002, 2.596611e+002
7.130079e+002, 2.607987e+002
7.134900e+002, 2.609640e+002
7.139721e+002, 2.603973e+002
7.144542e+002, 2.604868e+002
7.149363e+002, 2.613438e+002
7.154185e+002, 2.624190e+002
7.159006e+002, 2.636013e+002
7.163827e+002, 2.647154e+002
7.168648e+002, 2.653340e+002
7.173469e+002, 2.652865e+002
7.178290e+002, 2.657991e+002
7.183112e+002, 2.671527e+002
7.187933e+002, 2.688969e+002
7.192754e+002, 2.710298e+002
7.197575e+002, 2.733152e+002
7.202396e+002, 2.754986e+002
7.207217e+002, 2.774915e+002
7.212039e+002, 2.793078e+002
7.216860e+002, 2.810140e+002
7.221681e+002, 2.825454e+002
7.226502e+002, 2.833745e+002
7.231323e+002, 2.833225e+002
7.236144e+002, 2.841197e+002
7.240966e+002, 2.864309e+002
7.245787e+002, 2.896302e+002
7.250608e+002, 2.931677e+002
7.255429e+002, 2.970620e+002
7.260250e+002, 3.007301e+002
7.265071e+002, 3.042282e+002
7.269893e+002, 3.074205e+002
7.274714e+002, 3.094584e+002
7.279535e+002, 3.116457e+002
7.284356e+002, 3.157984e+002
7.289177e+002, 3.218013e+002
7.293998e+002, 3.277212e+002
7.298820e+002, 3.320271e+002
7.303641e+002, 3.355328e+002
7.308462e+002, 3.400478e+002
7.313283e+002, 3.455752e+002
7.318104e+002, 3.518739e+002
7.322925e+002, 3.590259e+002
7.327747e+002, 3.666404e+002
7.332568e+002, 3.743984e+002
7.337389e+002, 3.823593e+002
7.342210e+002, 3.907614e+002
7.347031e+002, 3.991131e+002
7.351852e+002, 4.085583e+002
7.356674e+002, 4.194089e+002
7.361495e+002, 4.314157e+002
7.366316e+002, 4.445322e+002
7.371137e+002, 4.586785e+002
7.375958e+002, 4.736353e+002
7.380779e+002, 4.893983e+002
7.385601e+002, 5.062969e+002
7.390422e+002, 5.250217e+002
7.395243e+002, 5.454398e+002
7.400064e+002, 5.667081e+002
7.404885e+002, 5.886588e+002
7.409706e+002, 6.115129e+002
7.414528e+002, 6.351223e+002
7.419349e+002, 6.597760e+002
7.424170e+002, 6.860494e+002
7.428991e+002, 7.136417e+002
7.433812e+002, 7.436838e+002
7.438633e+002, 7.768597e+002
7.443455e+002, 8.119020e+002
7.448276e+002, 8.482254e+002
7.453097e+002, 8.859496e+002
7.457918e+002, 9.252016e+002
7.462739e+002, 9.659399e+002
7.467560e+002, 1.008934e+003
7.472382e+002, 1.055075e+003
7.477203e+002, 1.103795e+003
7.482024e+002, 1.153604e+003
7.486845e+002, 1.204642e+003
7.491666e+002, 1.255280e+003
7.496487e+002, 1.305792e+003
7.501309e+002, 1.353674e+003
7.506130e+002, 1.396573e+003
7.510951e+002, 1.434155e+003
7.515772e+002, 1.467904e+003
7.520593e+002, 1.501323e+003
7.525414e+002, 1.526643e+003
7.530236e+002, 1.543184e+003
7.535057e+002, 1.550234e+003
7.539878e+002, 1.546444e+003
7.544699e+002, 1.532466e+003
7.549520e+002, 1.510695e+003
7.554341e+002, 1.481838e+003
7.559163e+002, 1.446839e+003
7.563984e+002, 1.406133e+003
7.568805e+002, 1.360273e+003
7.573626e+002, 1.311579e+003
7.578447e+002, 1.260091e+003
7.583268e+002, 1.209234e+003
7.588090e+002, 1.161038e+003
7.592911e+002, 1.115622e+003
7.597732e+002, 1.073103e+003
7.602553e+002, 1.033338e+003
7.607374e+002, 9.967042e+002
7.612195e+002, 9.628603e+002
7.617017e+002, 9.324335e+002
7.621838e+002, 9.055218e+002
7.626659e+002, 8.823422e+002
7.631480e+002, 8.630071e+002
7.636301e+002, 8.476154e+002
7.641122e+002, 8.362123e+002
7.645944e+002, 8.291890e+002
7.650765e+002, 8.259884e+002
7.655586e+002, 8.260667e+002
7.660407e+002, 8.292352e+002
7.665228e+002, 8.344436e+002
7.670049e+002, 8.412074e+002
7.674871e+002, 8.509627e+002
7.679692e+002, 8.655882e+002
7.684513e+002, 8.852872e+002
7.689334e+002, 9.073790e+002
7.694155e+002, 9.305115e+002
7.698976e+002, 9.585424e+002
7.703798e+002, 9.950036e+002
7.708619e+002, 1.034369e+003
7.713440e+002, 1.071361e+003
7.718261e+002, 1.106753e+003
7.723082e+002, 1.145713e+003
7.727903e+002, 1.190255e+003
7.732725e+002, 1.238562e+003
7.737546e+002, 1.288800e+003
7.742367e+002, 1.342013e+003
7.747188e+002, 1.399159e+003
7.752009e+002, 1.460783e+003
7.756830e+002, 1.528133e+003
7.761652e+002, 1.602351e+003
7.766473e+002, 1.683240e+003
7.771294e+002, 1.769481e+003
7.776115e+002, 1.860677e+003
7.780936e+002, 1.960856e+003
7.785757e+002, 2.069802e+003
7.790579e+002, 2.188836e+003
7.795400e+002, 2.317552e+003
7.800221e+002, 2.457448e+003
7.805042e+002, 2.609760e+003
7.809863e+002, 2.776985e+003
7.814684e+002, 2.950333e+003
7.819506e+002, 3.135004e+003
7.824327e+002, 3.317704e+003
7.829148e+002, 3.500671e+003
7.833969e+002, 3.672815e+003
7.838790e+002, 3.823586e+003
7.843611e+002, 3.946847e+003
7.848433e+002, 4.026895e+003
7.853254e+002, 4.049137e+003
7.858075e+002, 4.017282e+003
7.862896e+002, 3.936866e+003
7.867717e+002, 3.807854e+003
7.872538e+002, 3.650016e+003
7.877360e+002, 3.462580e+003
7.882181e+002, 3.264134e+003
7.887002e+002, 3.069407e+003
7.891823e+002, 2.878992e+003
7.896644e+002, 2.704723e+003
7.901465e+002, 2.545862e+003
7.906286e+002, 2.402436e+003
7.911107e+002, 2.276182e+003
7.915928e+002, 2.163847e+003
7.920750e+002, 2.062384e+003
7.925571e+002, 1.972941e+003
7.930392e+002, 1.897580e+003
7.935213e+002, 1.837559e+003
7.940034e+002, 1.789882e+003
7.944855e+002, 1.752856e+003
7.949677e+002, 1.725953e+003
7.954498e+002, 1.707988e+003
7.959319e+002, 1.699200e+003
7.964140e+002, 1.701956e+003
7.968961e+002, 1.717198e+003
7.973782e+002, 1.744243e+003
7.978604e+002, 1.782205e+003
7.983425e+002, 1.831368e+003
7.988246e+002, 1.890982e+003
7.993067e+002, 1.964803e+003
7.997888e+002, 2.042630e+003
8.002709e+002, 2.120937e+003
8.007531e+002, 2.203139e+003
8.012352e+002, 2.289341e+003
8.017173e+002, 2.380905e+003
8.021994e+002, 2.481895e+003
8.026815e+002, 2.589922e+003
8.031636e+002, 2.712416e+003
8.036458e+002, 2.847151e+003
8.041279e+002, 3.001217e+003
8.046100e+002, 3.181489e+003
8.050921e+002, 3.388448e+003
8.055742e+002, 3.622099e+003
8.060563e+002, 3.880598e+003
8.065385e+002, 4.170427e+003
8.070206e+002, 4.495841e+003
8.075027e+002, 4.858395e+003
8.079848e+002, 5.276017e+003
8.084669e+002, 5.755189e+003
8.089490e+002, 6.269979e+003
8.094312e+002, 6.808484e+003
8.099133e+002, 7.373882e+003
8.103954e+002, 7.970550e+003
8.108775e+002, 8.600650e+003
8.113596e+002, 9.253642e+003
8.118417e+002, 1.003101e+004
8.123239e+002, 1.069925e+004
8.128060e+002, 1.126307e+004
8.132881e+002, 1.163872e+004
8.137702e+002, 1.174835e+004
8.142523e+002, 1.158932e+004
8.147344e+002, 1.118484e+004
8.152166e+002, 1.050517e+004
8.156987e+002, 9.675630e+003
8.161808e+002, 8.770938e+003
8.166629e+002, 7.836183e+003
8.171450e+002, 6.956262e+003
8.176271e+002, 6.146713e+003
8.181093e+002, 5.425927e+003
8.185914e+002, 4.805183e+003
8.190735e+002, 4.274711e+003
8.195556e+002, 3.819684e+003
8.200377e+002, 3.443920e+003
8.205198e+002, 3.118728e+003
8.210020e+002, 2.850897e+003
8.214841e+002, 2.616195e+003
8.219662e+002, 2.411993e+003
8.224483e+002, 2.233757e+003
8.229304e+002, 2.079830e+003
8.234125e+002, 1.949456e+003
8.238947e+002, 1.832959e+003
8.243768e+002, 1.731259e+003
8.248589e+002, 1.640517e+003
8.253410e+002, 1.560817e+003
8.258231e+002, 1.489552e+003
8.263052e+002, 1.424458e+003
8.267874e+002, 1.365269e+003
8.272695e+002, 1.313216e+003
8.277516e+002, 1.269181e+003
8.282337e+002, 1.230419e+003
8.287158e+002, 1.193082e+003
8.291979e+002, 1.157556e+003
8.296801e+002, 1.125544e+003
8.301622e+002, 1.097358e+003
8.306443e+002, 1.071700e+003
8.311264e+002, 1.047971e+003
8.316085e+002, 1.026717e+003
8.320906e+002, 1.008796e+003
8.325728e+002, 9.945941e+002
8.330549e+002, 9.814333e+002
8.335370e+002, 9.684519e+002
8.340191e+002, 9.579658e+002
8.345012e+002, 9.509672e+002
8.349833e+002, 9.461768e+002
8.354655e+002, 9.429186e+002
8.359476e+002, 9.409678e+002
8.364297e+002, 9.396403e+002
8.369118e+002, 9.394485e+002
8.373939e+002, 9.387115e+002
8.378760e+002, 9.373868e+002
8.383582e+002, 9.344463e+002
8.388403e+002, 9.287580e+002
8.393224e+002, 9.203130e+002
8.398045e+002, 9.098168e+002
8.402866e+002, 8.976397e+002
8.407687e+002, 8.825037e+002
8.412509e+002, 8.622091e+002
8.417330e+002, 8.373867e+002
8.422151e+002, 8.113910e+002
8.426972e+002, 7.843249e+002
8.431793e+002, 7.573835e+002
8.436614e+002, 7.310740e+002
8.441436e+002, 7.053976e+002
8.446257e+002, 6.802630e+002
8.451078e+002, 6.556708e+002
8.455899e+002, 6.338865e+002
8.460720e+002, 6.163234e+002
8.465541e+002, 5.997137e+002
8.470363e+002, 5.833606e+002
8.475184e+002, 5.681770e+002
8.480005e+002, 5.548088e+002
8.484826e+002, 5.429710e+002
8.489647e+002, 5.319926e+002
8.494468e+002, 5.217924e+002
8.499290e+002, 5.120685e+002
8.504111e+002, 5.021704e+002
8.508932e+002, 4.930125e+002
8.513753e+002, 4.859065e+002
8.518574e+002, 4.801724e+002
8.523395e+002, 4.741153e+002
8.528217e+002, 4.672900e+002
8.533038e+002, 4.604586e+002
8.537859e+002, 4.543507e+002
8.542680e+002, 4.489430e+002
8.547501e+002, 4.445814e+002
8.552322e+002, 4.412579e+002
8.557144e+002, 4.366690e+002
8.561965e+002, 4.297820e+002
8.566786e+002, 4.243727e+002
8.571607e+002, 4.240453e+002
8.576428e+002, 4.267950e+002
8.581249e+002, 4.260835e+002
8.586071e+002, 4.201217e+002
8.590892e+002, 4.145472e+002
8.595713e+002, 4.092518e+002
8.600534e+002, 4.044532e+002
8.605355e+002, 4.002682e+002
8.610176e+002, 3.965769e+002
8.614998e+002, 3.933417e+002
8.619819e+002, 3.905170e+002
8.624640e+002, 3.876819e+002
8.629461e+002, 3.847633e+002
8.634282e+002, 3.816345e+002
8.639103e+002, 3.780911e+002
8.643925e+002, 3.743530e+002
8.648746e+002, 3.706042e+002
8.653567e+002, 3.669621e+002
8.658388e+002, 3.638685e+002
8.663209e+002, 3.616365e+002
8.668030e+002, 3.596044e+002
8.672852e+002, 3.566877e+002
8.677673e+002, 3.530680e+002
8.682494e+002, 3.496503e+002
8.687315e+002, 3.464962e+002
8.692136e+002, 3.434456e+002
8.696957e+002, 3.404051e+002
8.701779e+002, 3.375113e+002
8.706600e+002, 3.350596e+002
8.711421e+002, 3.330543e+002
8.716242e+002, 3.303863e+002
8.721063e+002, 3.259044e+002
8.725884e+002, 3.227881e+002
8.730705e+002, 3.227665e+002
8.735526e+002, 3.231637e+002
8.740347e+002, 3.224294e+002
8.745168e+002, 3.208826e+002
8.749990e+002, 3.193718e+002
8.754811e+002, 3.180506e+002
8.759632e+002, 3.167357e+002
8.764453e+002, 3.158195e+002
8.769274e+002, 3.144586e+002
8.774095e+002, 3.110186e+002
8.778917e+002, 3.070787e+002
8.783738e+002, 3.056214e+002
8.788559e+002, 3.070813e+002
8.793380e+002, 3.088706e+002
8.798201e+002, 3.088872e+002
8.803022e+002, 3.081859e+002
8.807844e+002, 3.086302e+002
8.812665e+002, 3.098676e+002
8.817486e+002, 3.105167e+002
8.822307e+002, 3.103889e+002
8.827128e+002, 3.102383e+002
8.831949e+002, 3.105045e+002
8.836771e+002, 3.111987e+002
8.841592e+002, 3.126164e+002
8.846413e+002, 3.150835e+002
8.851234e+002, 3.156634e+002
8.856055e+002, 3.135257e+002
8.860876e+002, 3.115505e+002
8.865698e+002, 3.109012e+002
8.870519e+002, 3.106709e+002
8.875340e+002, 3.102079e+002
8.880161e+002, 3.094314e+002
8.884982e+002, 3.071447e+002
8.889803e+002, 3.020039e+002
8.894625e+002, 2.972076e+002
8.899446e+002, 2.934180e+002
8.904267e+002, 2.900150e+002
8.909088e+002, 2.871165e+002
8.913909e+002, 2.841324e+002
8.918730e+002, 2.797739e+002
8.923552e+002, 2.735869e+002
8.928373e+002, 2.678404e+002
8.933194e+002, 2.642540e+002
8.938015e+002, 2.615887e+002
8.942836e+002, 2.588384e+002
8.947657e+002, 2.559059e+002
8.952479e+002, 2.524667e+002
8.957300e+002, 2.486353e+002
8.962121e+002, 2.454887e+002
8.966942e+002, 2.440404e+002
8.971763e+002, 2.430932e+002
8.976584e+002, 2.394989e+002
8.981406e+002, 2.337430e+002
8.986227e+002, 2.312035e+002
8.991048e+002, 2.326834e+002
8.995869e+002, 2.332437e+002
9.000690e+002, 2.301890e+002
9.005511e+002, 2.261048e+002
9.010333e+002, 2.250793e+002
9.015154e+002, 2.273394e+002
9.019975e+002, 2.274321e+002
9.024796e+002, 2.237873e+002
9.029617e+002, 2.208848e+002
9.034438e+002, 2.197641e+002
9.039260e+002, 2.194395e+002
9.044081e+002, 2.198967e+002
9.048902e+002, 2.205566e+002
9.053723e+002, 2.197813e+002
9.058544e+002, 2.167115e+002
9.063365e+002, 2.141889e+002
9.068187e+002, 2.128490e+002
9.073008e+002, 2.123134e+002
9.077829e+002, 2.132746e+002
9.082650e+002, 2.144351e+002
9.087471e+002, 2.138146e+002
9.092292e+002, 2.113428e+002
9.097114e+002, 2.089189e+002
9.101935e+002, 2.076322e+002
9.106756e+002, 2.069206e+002
9.111577e+002, 2.063903e+002
9.116398e+002, 2.059443e+002
9.121219e+002, 2.053770e+002
9.126041e+002, 2.047061e+002
9.130862e+002, 2.042129e+002
9.135683e+002, 2.040326e+002
9.140504e+002, 2.036464e+002
9.145325e+002, 2.021948e+002
9.150146e+002, 1.999097e+002
9.154968e+002, 1.980536e+002
9.159789e+002, 1.966311e+002
9.164610e+002, 1.954682e+002
9.169431e+002, 1.945035e+002
9.174252e+002, 1.938574e+002
9.179073e+002, 1.937030e+002
9.183895e+002, 1.938725e+002
9.188716e+002, 1.938037e+002
9.193537e+002, 1.937296e+002
9.198358e+002, 1.927385e+002
9.203179e+002, 1.896608e+002
9.208000e+002, 1.873458e+002
9.212822e+002, 1.877025e+002
9.217643e+002, 1.888730e+002
9.222464e+002, 1.887507e+002
9.227285e+002, 1.873671e+002
9.232106e+002, 1.863695e+002
9.236927e+002, 1.865893e+002
9.241749e+002, 1.864003e+002
9.246570e+002, 1.850545e+002
9.251391e+002, 1.833944e+002
9.256212e+002, 1.818453e+002
9.261033e+002, 1.805778e+002
9.265854e+002, 1.798800e+002
9.270676e+002, 1.798517e+002
9.275497e+002, 1.798536e+002
9.280318e+002, 1.791604e+002
9.285139e+002, 1.785694e+002
9.289960e+002, 1.792947e+002
9.294781e+002, 1.805876e+002
9.299603e+002, 1.808651e+002
9.304424e+002, 1.800163e+002
9.309245e+002, 1.792329e+002
9.314066e+002, 1.793362e+002
9.318887e+002, 1.795293e+002
9.323708e+002, 1.782353e+002
9.328530e+002, 1.759310e+002
9.333351e+002, 1.746592e+002
9.338172e+002, 1.744854e+002
9.342993e+002, 1.745198e+002
9.347814e+002, 1.744334e+002
9.352635e+002, 1.745255e+002
9.357457e+002, 1.752679e+002
9.362278e+002, 1.763840e+002
9.367099e+002, 1.760641e+002
9.371920e+002, 1.738453e+002
9.376741e+002, 1.722109e+002
9.381563e+002, 1.715406e+002
9.386384e+002, 1.712661e+002
9.391205e+002, 1.712289e+002
9.396026e+002, 1.712729e+002
9.400847e+002, 1.711910e+002
9.405668e+002, 1.710694e+002
9.410490e+002, 1.703158e+002
9.415311e+002, 1.677666e+002
9.420132e+002, 1.661980e+002
9.424953e+002, 1.670322e+002
9.429774e+002, 1.682093e+002
9.434595e+002, 1.682117e+002
9.439417e+002, 1.673390e+002
9.444238e+002, 1.665612e+002
9.449059e+002, 1.661090e+002
9.453880e+002, 1.655851e+002
9.458701e+002, 1.645872e+002
9.463522e+002, 1.637452e+002
9.468344e+002, 1.636868e+002
9.473165e+002, 1.639319e+002
9.477986e+002, 1.637927e+002
9.482807e+002, 1.632287e+002
9.487628e+002, 1.626599e+002
9.492449e+002, 1.622572e+002
9.497271e+002, 1.620653e+002
9.502092e+002, 1.624909e+002
9.506913e+002, 1.629432e+002
9.511734e+002, 1.622919e+002
9.516555e+002, 1.608082e+002
9.521376e+002, 1.595413e+002
9.526198e+002, 1.588619e+002
9.531019e+002, 1.585405e+002
9.535840e+002, 1.583537e+002
9.540661e+002, 1.583692e+002
9.545482e+002, 1.589992e+002
9.550303e+002, 1.600681e+002
9.555124e+002, 1.601906e+002
9.559945e+002, 1.591778e+002
9.564766e+002, 1.586055e+002
9.569587e+002, 1.594099e+002
9.574409e+002, 1.605437e+002
9.579230e+002, 1.599655e+002
9.584051e+002, 1.577524e+002
9.588872e+002, 1.591460e+002
9.593693e+002, 1.656725e+002
9.598514e+002, 1.690223e+002
9.603336e+002, 1.663899e+002
9.608157e+002, 1.624883e+002
9.612978e+002, 1.605006e+002
9.617799e+002, 1.600600e+002
9.622620e+002, 1.602347e+002
9.627441e+002, 1.613977e+002
9.632263e+002, 1.620256e+002
9.637084e+002, 1.620448e+002
9.641905e+002, 1.616159e+002
9.646726e+002, 1.601020e+002
9.651547e+002, 1.587252e+002
9.656368e+002, 1.590628e+002
9.661190e+002, 1.605676e+002
9.666011e+002, 1.606156e+002
9.670832e+002, 1.579352e+002
9.675653e+002, 1.557258e+002
9.680474e+002, 1.547539e+002
9.685295e+002, 1.543351e+002
9.690117e+002, 1.545571e+002
9.694938e+002, 1.548281e+002
9.699759e+002, 1.543427e+002
9.704580e+002, 1.530826e+002
9.709401e+002, 1.517710e+002
9.714222e+002, 1.505676e+002
9.719044e+002, 1.496545e+002
9.723865e+002, 1.496347e+002
9.728686e+002, 1.495814e+002
9.733507e+002, 1.481777e+002
9.738328e+002, 1.459808e+002
9.743149e+002, 1.443471e+002
9.747971e+002, 1.436898e+002
9.752792e+002, 1.435562e+002
9.757613e+002, 1.438145e+002
9.762434e+002, 1.441598e+002
9.767255e+002, 1.442918e+002
9.772076e+002, 1.441633e+002
9.776898e+002, 1.434477e+002
9.781719e+002, 1.422993e+002
9.786540e+002, 1.416151e+002
9.791361e+002, 1.418154e+002
9.796182e+002, 1.423169e+002
9.801003e+002, 1.424322e+002
9.805825e+002, 1.422507e+002
9.810646e+002, 1.420366e+002
9.815467e+002, 1.417955e+002
9.820288e+002, 1.416887e+002
9.825109e+002, 1.417466e+002
9.829930e+002, 1.412464e+002
9.834752e+002, 1.396216e+002
9.839573e+002, 1.376220e+002
9.844394e+002, 1.367316e+002
9.849215e+002, 1.369593e+002
9.854036e+002, 1.370612e+002
9.858857e+002, 1.370092e+002
9.863679e+002, 1.369984e+002
9.868500e+002, 1.370854e+002
9.873321e+002, 1.372182e+002
9.878142e+002, 1.373946e+002
9.882963e+002, 1.375453e+002
9.887784e+002, 1.374048e+002
9.892606e+002, 1.367680e+002
9.897427e+002, 1.366680e+002
9.902248e+002, 1.379366e+002
9.907069e+002, 1.380440e+002
9.911890e+002, 1.349968e+002
9.916711e+002, 1.318132e+002
9.921533e+002, 1.318451e+002
9.926354e+002, 1.344203e+002
9.931175e+002, 1.355278e+002
9.935996e+002, 1.344155e+002
9.940817e+002, 1.331967e+002
9.945638e+002, 1.312857e+002
9.950460e+002, 1.300029e+002
9.955281e+002, 1.303021e+002
9.960102e+002, 1.311768e+002
9.964923e+002, 1.314383e+002
9.969744e+002, 1.311731e+002
9.974565e+002, 1.314898e+002
9.979387e+002, 1.335270e+002
9.984208e+002, 1.346015e+002
9.989029e+002, 1.332513e+002
9.993850e+002, 1.315590e+002
9.998671e+002, 1.306604e+002
1.000349e+003, 1.303413e+002
1.000831e+003, 1.302779e+002
1.001313e+003, 1.303775e+002
1.001796e+003, 1.304549e+002
1.002278e+003, 1.303412e+002
1.002760e+003, 1.303295e+002
1.003242e+003, 1.311017e+002
1.003724e+003, 1.315959e+002
1.004206e+003, 1.303213e+002
1.004688e+003, 1.281525e+002
1.005170e+003, 1.268482e+002
1.005653e+003, 1.268274e+002
1.006135e+003, 1.273441e+002
1.006617e+003, 1.283179e+002
1.007099e+003, 1.291104e+002
1.007581e+003, 1.287102e+002
1.008063e+003, 1.280086e+002
1.008545e+003, 1.286796e+002
1.009027e+003, 1.301923e+002
1.009509e+003, 1.304590e+002
1.009992e+003, 1.288546e+002
1.010474e+003, 1.272346e+002
1.010956e+003, 1.272536e+002
1.011438e+003, 1.281775e+002
1.011920e+003, 1.293864e+002
1.012402e+003, 1.304931e+002
1.012884e+003, 1.303605e+002
1.013366e+003, 1.291242e+002
1.013849e+003, 1.279224e+002
1.014331e+003, 1.272622e+002
1.014813e+003, 1.271516e+002
1.015295e+003, 1.278859e+002
1.015777e+003, 1.289479e+002
1.016259e+003, 1.288673e+002
1.016741e+003, 1.279068e+002
1.017223e+003, 1.273851e+002
1.017705e+003, 1.274442e+002
1.018188e+003, 1.271642e+002
1.018670e+003, 1.260419e+002
1.019152e+003, 1.249305e+002
1.019634e+003, 1.251857e+002
1.020116e+003, 1.264170e+002
1.020598e+003, 1.265409e+002
1.021080e+003, 1.256145e+002
1.021562e+003, 1.252896e+002
1.022044e+003, 1.258876e+002
1.022527e+003, 1.264229e+002
1.023009e+003, 1.263383e+002
1.023491e+003, 1.258152e+002
1.023973e+003, 1.250039e+002
1.024455e+003, 1.239678e+002
1.024937e+003, 1.240249e+002
1.025419e+003, 1.254114e+002
1.025901e+003, 1.257498e+002
1.026384e+003, 1.243640e+002
1.026866e+003, 1.229848e+002
1.027348e+003, 1.227340e+002
1.027830e+003, 1.230336e+002
1.028312e+003, 1.227233e+002
1.028794e+003, 1.217377e+002
1.029276e+003, 1.218903e+002
1.029758e+003, 1.236615e+002
1.030240e+003, 1.248664e+002
1.030723e+003, 1.249849e+002
1.031205e+003, 1.247244e+002
1.031687e+003, 1.244800e+002
1.032169e+003, 1.242167e+002
1.032651e+003, 1.237883e+002
1.033133e+003, 1.230915e+002
1.033615e+003, 1.231859e+002
1.034097e+003, 1.248428e+002
1.034579e+003, 1.255664e+002
1.035062e+003, 1.244728e+002
1.035544e+003, 1.229302e+002
1.036026e+003, 1.213613e+002
1.036508e+003, 1.202552e+002
1.036990e+003, 1.209437e+002
1.037472e+003, 1.240384e+002
1.037954e+003, 1.254669e+002
1.038436e+003, 1.242212e+002
1.038919e+003, 1.228970e+002
1.039401e+003, 1.215539e+002
1.039883e+003, 1.206788e+002
1.040365e+003, 1.207403e+002
1.040847e+003, 1.214467e+002
1.041329e+003, 1.223174e+002
1.041811e+003, 1.235259e+002
1.042293e+003, 1.240024e+002
1.042776e+003, 1.231420e+002
1.043258e+003, 1.223772e+002
1.043740e+003, 1.222928e+002
1.044222e+003, 1.220634e+002
1.044704e+003, 1.206360e+002
1.045186e+003, 1.188592e+002
1.045668e+003, 1.184489e+002
1.046150e+003, 1.196613e+002
1.046632e+003, 1.211763e+002
1.047115e+003, 1.242430e+002
1.047597e+003, 1.256772e+002
1.048079e+003, 1.230494e+002
1.048561e+003, 1.201447e+002
1.049043e+003, 1.197375e+002
1.049525e+003, 1.208534e+002
1.050007e+003, 1.214895e+002
1.050489e+003, 1.213848e+002
1.050971e+003, 1.212816e+002
1.051454e+003, 1.212200e+002
1.051936e+003, 1.213165e+002
1.052418e+003, 1.218562e+002
1.052900e+003, 1.223240e+002
1.053382e+003, 1.223746e+002
1.053864e+003, 1.220750e+002
1.054346e+003, 1.215329e+002
1.054828e+003, 1.207563e+002
1.055311e+003, 1.200179e+002
1.055793e+003, 1.189620e+002
1.056275e+003, 1.185352e+002
1.056757e+003, 1.196673e+002
1.057239e+003, 1.209582e+002
1.057721e+003, 1.215746e+002
1.058203e+003, 1.215073e+002
1.058685e+003, 1.204781e+002
1.059167e+003, 1.185149e+002
1.059650e+003, 1.177625e+002
1.060132e+003, 1.203176e+002
1.060614e+003, 1.223151e+002
1.061096e+003, 1.218122e+002
1.061578e+003, 1.206741e+002
1.062060e+003, 1.203304e+002
1.062542e+003, 1.203537e+002
1.063024e+003, 1.196754e+002
1.063506e+003, 1.182231e+002
1.063989e+003, 1.173737e+002
1.064471e+003, 1.179919e+002
1.064953e+003, 1.187783e+002
1.065435e+003, 1.196315e+002
1.065917e+003, 1.200226e+002
1.066399e+003, 1.188756e+002
1.066881e+003, 1.173311e+002
1.067363e+003, 1.174366e+002
1.067846e+003, 1.192520e+002
1.068328e+003, 1.204716e+002
1.068810e+003, 1.193226e+002
1.069292e+003, 1.190338e+002
1.069774e+003, 1.223999e+002
1.070256e+003, 1.257966e+002
1.070738e+003, 1.265216e+002
1.071220e+003, 1.255259e+002
1.071703e+003, 1.240717e+002
1.072185e+003, 1.225147e+002
1.072667e+003, 1.212706e+002
1.073149e+003, 1.205776e+002
1.073631e+003, 1.200213e+002
1.074113e+003, 1.191665e+002
1.074595e+003, 1.186342e+002
1.075077e+003, 1.191981e+002
1.075559e+003, 1.201553e+002
1.076042e+003, 1.206407e+002
1.076524e+003, 1.205717e+002
1.077006e+003, 1.201910e+002
1.077488e+003, 1.193956e+002
1.077970e+003, 1.188993e+002
1.078452e+003, 1.196705e+002
1.078934e+003, 1.201526e+002
1.079416e+003, 1.186418e+002
1.079898e+003, 1.166964e+002
1.080380e+003, 1.163877e+002
1.080863e+003, 1.174570e+002
1.081345e+003, 1.182084e+002
1.081827e+003, 1.180560e+002
1.082309e+003, 1.178937e+002
1.082791e+003, 1.180375e+002
1.083273e+003, 1.183916e+002
1.083755e+003, 1.190438e+002
1.084237e+003, 1.197610e+002
1.084720e+003, 1.203795e+002
1.085202e+003, 1.208343e+002
1.085684e+003, 1.209661e+002
1.086166e+003, 1.206795e+002
1.086648e+003, 1.206100e+002
1.087130e+003, 1.213964e+002
1.087612e+003, 1.220058e+002
1.088094e+003, 1.220083e+002
1.088577e+003, 1.214983e+002
1.089059e+003, 1.200639e+002
1.089541e+003, 1.183631e+002
1.090023e+003, 1.178910e+002
1.090505e+003, 1.189548e+002
1.090987e+003, 1.196183e+002
1.091469e+003, 1.182679e+002
1.091951e+003, 1.175584e+002
1.092433e+003, 1.197982e+002
1.092916e+003, 1.219844e+002
1.093398e+003, 1.212281e+002
1.093880e+003, 1.189698e+002
1.094362e+003, 1.178140e+002
1.094844e+003, 1.180992e+002
1.095326e+003, 1.185122e+002
1.095808e+003, 1.189293e+002
1.096290e+003, 1.189891e+002
1.096772e+003, 1.180069e+002
1.097255e+003, 1.172399e+002
1.097737e+003, 1.178310e+002
1.098219e+003, 1.189108e+002
1.098701e+003, 1.191973e+002
1.099183e+003, 1.187101e+002
1.099665e+003, 1.185131e+002
1.100147e+003, 1.189771e+002
1.100629e+003, 1.194772e+002
1.101112e+003, 1.198549e+002
1.101594e+003, 1.202271e+002
1.102076e+003, 1.210317e+002
1.102558e+003, 1.215714e+002
1.103040e+003, 1.208049e+002
1.103522e+003, 1.191016e+002
1.104004e+003, 1.179665e+002
1.104486e+003, 1.176821e+002
1.104969e+003, 1.177515e+002
1.105451e+003, 1.183894e+002
1.105933e+003, 1.189784e+002
1.106415e+003, 1.194672e+002
1.106897e+003, 1.196772e+002
1.107379e+003, 1.191995e+002
1.107861e+003, 1.183965e+002
1.108343e+003, 1.182627e+002
1.108825e+003, 1.190980e+002
1.109307e+003, 1.192729e+002
1.109790e+003, 1.178865e+002
1.110272e+003, 1.169107e+002
1.110754e+003, 1.170329e+002
1.111236e+003, 1.173650e+002
1.111718e+003, 1.169723e+002
1.112200e+003, 1.166321e+002
1.112682e+003, 1.181870e+002
1.113164e+003, 1.218461e+002
1.113647e+003, 1.231131e+002
1.114129e+003, 1.196678e+002
1.114611e+003, 1.177069e+002
1.115093e+003, 1.189054e+002
1.115575e+003, 1.199134e+002
1.116057e+003, 1.190450e+002
1.116539e+003, 1.175226e+002
1.117021e+003, 1.165353e+002
1.117504e+003, 1.161231e+002
1.117986e+003, 1.166668e+002
1.118468e+003, 1.189665e+002
1.118950e+003, 1.202934e+002
1.119432e+003, 1.203477e+002
1.119914e+003, 1.199438e+002
1.120396e+003, 1.191172e+002
1.120878e+003, 1.182512e+002
1.121360e+003, 1.175740e+002
1.121843e+003, 1.171755e+002
1.122325e+003, 1.173633e+002
1.122807e+003, 1.182399e+002
1.123289e+003, 1.191026e+002
1.123771e+003, 1.199903e+002
1.124253e+003, 1.208108e+002
1.124735e+003, 1.217207e+002
1.125217e+003, 1.219027e+002
1.125699e+003, 1.205153e+002
1.126182e+003, 1.188290e+002
1.126664e+003, 1.192990e+002
1.127146e+003, 1.217139e+002
1.127628e+003, 1.218885e+002
1.128110e+003, 1.194698e+002
1.128592e+003, 1.180364e+002
1.129074e+003, 1.181393e+002
1.129556e+003, 1.186596e+002
1.130039e+003, 1.191569e+002
1.130521e+003, 1.194477e+002
1.131003e+003, 1.192194e+002
1.131485e+003, 1.187717e+002
1.131967e+003, 1.194057e+002
1.132449e+003, 1.210152e+002
1.132931e+003, 1.215391e+002
1.133413e+003, 1.208951e+002
1.133896e+003, 1.204993e+002
1.134378e+003, 1.207847e+002
1.134860e+003, 1.212007e+002
1.135342e+003, 1.213391e+002
1.135824e+003, 1.212549e+002
1.136306e+003, 1.210827e+002
1.136788e+003, 1.207691e+002
1.137270e+003, 1.198027e+002
1.137752e+003, 1.184570e+002
1.138234e+003, 1.182478e+002
1.138717e+003, 1.192850e+002
1.139199e+003, 1.202400e+002
1.139681e+003, 1.204356e+002
1.140163e+003, 1.201552e+002
1.140645e+003, 1.194418e+002
1.141127e+003, 1.187245e+002
1.141609e+003, 1.188063e+002
1.142091e+003, 1.194836e+002
1.142574e+003, 1.207339e+002
1.143056e+003, 1.221315e+002
1.143538e+003, 1.222206e+002
1.144020e+003, 1.207289e+002
1.144502e+003, 1.194555e+002
1.144984e+003, 1.198222e+002
1.145466e+003, 1.205624e+002
1.145948e+003, 1.203233e+002
1.146431e+003, 1.197109e+002
1.146913e+003, 1.193020e+002
1.147395e+003, 1.191931e+002
1.147877e+003, 1.197416e+002
1.148359e+003, 1.207076e+002
1.148841e+003, 1.208801e+002
1.149323e+003, 1.195644e+002
1.149805e+003, 1.185666e+002
1.150287e+003, 1.197702e+002
1.150770e+003, 1.208501e+002
1.151252e+003, 1.197649e+002
1.151734e+003, 1.179613e+002
1.152216e+003, 1.167104e+002
1.152698e+003, 1.161919e+002
1.153180e+003, 1.164065e+002
1.153662e+003, 1.173519e+002
1.154144e+003, 1.187101e+002
1.154626e+003, 1.215212e+002
1.155109e+003, 1.231056e+002
1.155591e+003, 1.214121e+002
1.156073e+003, 1.195125e+002
1.156555e+003, 1.193903e+002
1.157037e+003, 1.201386e+002
1.157519e+003, 1.207279e+002
1.158001e+003, 1.210094e+002
1.158483e+003, 1.205608e+002
1.158966e+003, 1.184986e+002
1.159448e+003, 1.175161e+002
1.159930e+003, 1.186100e+002
1.160412e+003, 1.196672e+002
1.160894e+003, 1.203419e+002
1.161376e+003, 1.205490e+002
1.161858e+003, 1.199999e+002
1.162340e+003, 1.190510e+002
1.162822e+003, 1.183585e+002
1.163305e+003, 1.178352e+002
1.163787e+003, 1.186858e+002
1.164269e+003, 1.219347e+002
1.164751e+003, 1.233994e+002
1.165233e+003, 1.219372e+002
1.165715e+003, 1.203599e+002
1.166197e+003, 1.199069e+002
1.166679e+003, 1.201842e+002
1.167161e+003, 1.208975e+002
1.167644e+003, 1.217716e+002
1.168126e+003, 1.215317e+002
1.168608e+003, 1.201285e+002
1.169090e+003, 1.190739e+002
1.169572e+003, 1.184311e+002
1.170054e+003, 1.182862e+002
1.170536e+003, 1.186681e+002
1.171018e+003, 1.194414e+002
1.171500e+003, 1.205811e+002
1.171983e+003, 1.215729e+002
1.172465e+003, 1.213037e+002
1.172947e+003, 1.203228e+002
1.173429e+003, 1.208487e+002
1.173911e+003, 1.222918e+002
1.174393e+003, 1.222861e+002
1.174875e+003, 1.207750e+002
1.175357e+003, 1.188972e+002
1.175840e+003, 1.171869e+002
1.176322e+003, 1.166221e+002
1.176804e+003, 1.185007e+002
1.177286e+003, 1.207757e+002
1.177768e+003, 1.206089e+002
1.178250e+003, 1.194324e+002
1.178732e+003, 1.192867e+002
1.179214e+003, 1.198052e+002
1.179697e+003, 1.200011e+002
1.180179e+003, 1.197752e+002
1.180661e+003, 1.196063e+002
1.181143e+003, 1.197126e+002
1.181625e+003, 1.197222e+002
1.182107e+003, 1.191504e+002
1.182589e+003, 1.187191e+002
1.183071e+003, 1.190957e+002
1.183553e+003, 1.196640e+002
1.184036e+003, 1.198662e+002
1.184518e+003, 1.197891e+002
1.185000e+003, 1.195179e+002
1.185482e+003, 1.191204e+002
1.185964e+003, 1.193787e+002
1.186446e+003, 1.213485e+002
1.186928e+003, 1.225634e+002
1.187410e+003, 1.222705e+002
1.187892e+003, 1.215764e+002
1.188375e+003, 1.204356e+002
1.188857e+003, 1.195551e+002
1.189339e+003, 1.198762e+002
1.189821e+003, 1.208752e+002
1.190303e+003, 1.209892e+002
1.190785e+003, 1.200246e+002
1.191267e+003, 1.192914e+002
1.191749e+003, 1.187046e+002
1.192232e+003, 1.186625e+002
1.192714e+003, 1.194523e+002
1.193196e+003, 1.200626e+002
1.193678e+003, 1.198223e+002
1.194160e+003, 1.197028e+002
1.194642e+003, 1.210767e+002
1.195124e+003, 1.233357e+002
1.195606e+003, 1.238461e+002
1.196089e+003, 1.226975e+002
1.196571e+003, 1.224471e+002
1.197053e+003, 1.231514e+002
1.197535e+003, 1.234445e+002
1.198017e+003, 1.229962e+002
1.198499e+003, 1.222522e+002
1.198981e+003, 1.214528e+002
1.199463e+003, 1.210206e+002
1.199945e+003, 1.219443e+002
1.200427e+003, 1.233014e+002
1.200910e+003, 1.228627e+002
1.201392e+003, 1.215711e+002
1.201874e+003, 1.216720e+002
1.202356e+003, 1.228873e+002
1.202838e+003, 1.237579e+002
1.203320e+003, 1.238493e+002
1.203802e+003, 1.233546e+002
1.204284e+003, 1.221220e+002
1.204767e+003, 1.211464e+002
1.205249e+003, 1.214908e+002
1.205731e+003, 1.220760e+002
1.206213e+003, 1.218789e+002
1.206695e+003, 1.214942e+002
1.207177e+003, 1.216206e+002
1.207659e+003, 1.222405e+002
1.208141e+003, 1.231973e+002
1.208624e+003, 1.244976e+002
1.209106e+003, 1.254153e+002
1.209588e+003, 1.262305e+002
1.210070e+003, 1.259598e+002
1.210552e+003, 1.229216e+002
1.211034e+003, 1.205042e+002
1.211516e+003, 1.207399e+002
1.211998e+003, 1.221338e+002
1.212480e+003, 1.237052e+002
1.212963e+003, 1.250957e+002
1.213445e+003, 1.247300e+002
1.213927e+003, 1.219699e+002
1.214409e+003, 1.207325e+002
1.214891e+003, 1.213540e+002
1.215373e+003, 1.222094e+002
1.215855e+003, 1.230539e+002
1.216337e+003, 1.238698e+002
1.216819e+003, 1.246852e+002
1.217302e+003, 1.252424e+002
1.217784e+003, 1.251727e+002
1.218266e+003, 1.246811e+002
1.218748e+003, 1.245054e+002
1.219230e+003, 1.244943e+002
1.219712e+003, 1.235773e+002
1.220194e+003, 1.220016e+002
1.220676e+003, 1.214053e+002
1.221159e+003, 1.220265e+002
1.221641e+003, 1.226479e+002
1.222123e+003, 1.225982e+002
1.222605e+003, 1.227814e+002
1.223087e+003, 1.246943e+002
1.223569e+003, 1.267271e+002
1.224051e+003, 1.266128e+002
1.224533e+003, 1.258177e+002
1.225016e+003, 1.266935e+002
1.225498e+003, 1.282523e+002
1.225980e+003, 1.279416e+002
1.226462e+003, 1.257116e+002
1.226944e+003, 1.241325e+002
1.227426e+003, 1.242011e+002
1.227908e+003, 1.246798e+002
1.228390e+003, 1.255917e+002
1.228872e+003, 1.262427e+002
1.229354e+003, 1.261738e+002
1.229837e+003, 1.258948e+002
1.230319e+003, 1.257150e+002
1.230801e+003, 1.256484e+002
1.231283e+003, 1.256809e+002
1.231765e+003, 1.258154e+002
1.232247e+003, 1.260937e+002
1.232729e+003, 1.264188e+002
1.233211e+003, 1.273200e+002
1.233694e+003, 1.292091e+002
1.234176e+003, 1.301891e+002
1.234658e+003, 1.294978e+002
1.235140e+003, 1.286753e+002
1.235622e+003, 1.288851e+002
1.236104e+003, 1.294028e+002
1.236586e+003, 1.288736e+002
1.237068e+003, 1.276473e+002
1.237551e+003, 1.271509e+002
1.238033e+003, 1.272930e+002
1.238515e+003, 1.279448e+002
1.238997e+003, 1.288545e+002
1.239479e+003, 1.287995e+002
1.239961e+003, 1.276190e+002
1.240443e+003, 1.269517e+002
1.240925e+003, 1.279576e+002
1.241407e+003, 1.291698e+002
1.241890e+003, 1.289793e+002
1.242372e+003, 1.285211e+002
1.242854e+003, 1.289839e+002
1.243336e+003, 1.297876e+002
1.243818e+003, 1.302586e+002
1.244300e+003, 1.304245e+002
1.244782e+003, 1.304673e+002
1.245264e+003, 1.304389e+002
1.245746e+003, 1.305011e+002
1.246229e+003, 1.308243e+002
1.246711e+003, 1.310016e+002
1.247193e+003, 1.311414e+002
1.247675e+003, 1.308678e+002
1.248157e+003, 1.293824e+002
1.248639e+003, 1.283000e+002
1.249121e+003, 1.292303e+002
1.249603e+003, 1.308029e+002
1.250085e+003, 1.303073e+002
1.250568e+003, 1.279456e+002
1.251050e+003, 1.274035e+002
1.251532e+003, 1.288782e+002
1.252014e+003, 1.300809e+002
1.252496e+003, 1.308443e+002
1.252978e+003, 1.311973e+002
1.253460e+003, 1.311516e+002
1.253942e+003, 1.310133e+002
1.254425e+003, 1.309675e+002
1.254907e+003, 1.312018e+002
1.255389e+003, 1.321411e+002
1.255871e+003, 1.334144e+002
1.256353e+003, 1.341674e+002
1.256835e+003, 1.348152e+002
1.257317e+003, 1.364179e+002
1.257799e+003, 1.385039e+002
1.258281e+003, 1.397192e+002
1.258764e+003, 1.398922e+002
1.259246e+003, 1.400435e+002
1.259728e+003, 1.407590e+002
1.260210e+003, 1.408974e+002
1.260692e+003, 1.390041e+002
1.261174e+003, 1.376268e+002
1.261656e+003, 1.384352e+002
1.262138e+003, 1.397486e+002
1.262620e+003, 1.401549e+002
1.263103e+003, 1.402777e+002
1.263585e+003, 1.415150e+002
1.264067e+003, 1.435950e+002
1.264549e+003, 1.439943e+002
1.265031e+003, 1.418676e+002
1.265513e+003, 1.410205e+002
1.265995e+003, 1.417907e+002
1.266477e+003, 1.424541e+002
1.266960e+003, 1.426519e+002
1.267442e+003, 1.424726e+002
1.267924e+003, 1.419285e+002
1.268406e+003, 1.413585e+002
1.268888e+003, 1.411470e+002
1.269370e+003, 1.412321e+002
1.269852e+003, 1.413491e+002
1.270334e+003, 1.416928e+002
1.270817e+003, 1.429054e+002
1.271299e+003, 1.447488e+002
1.271781e+003, 1.468478e+002
1.272263e+003, 1.488348e+002
1.272745e+003, 1.496921e+002
1.273227e+003, 1.490253e+002
1.273709e+003, 1.483353e+002
1.274191e+003, 1.484947e+002
1.274673e+003, 1.488879e+002
1.275156e+003, 1.493514e+002
1.275638e+003, 1.497811e+002
1.276120e+003, 1.502742e+002
1.276602e+003, 1.505679e+002
1.277084e+003, 1.501069e+002
1.277566e+003, 1.492373e+002
1.278048e+003, 1.491155e+002
1.278530e+003, 1.498297e+002
1.279012e+003, 1.505574e+002
1.279495e+003, 1.514603e+002
1.279977e+003, 1.516524e+002
1.280459e+003, 1.508637e+002
1.280941e+003, 1.503220e+002
1.281423e+003, 1.504624e+002
1.281905e+003, 1.511490e+002
1.282387e+003, 1.523987e+002
1.282869e+003, 1.534480e+002
1.283352e+003, 1.524141e+002
1.283834e+003, 1.505062e+002
1.284316e+003, 1.503052e+002
1.284798e+003, 1.518191e+002
##END=



