##NAMES=Artroeite
##RRUFFID=R100034
##IDEAL CHEMISTRY=Pb^2+^AlF_3_(OH)_2_
##LOCALITY=Grand Reef mine, Klondyke, Aravaipa District, Graham County, Arizona, USA
##OWNER=RRUFF
##SOURCE=Natural History Museum of Los Angeles County
##DESCRIPTION=Colorless fragments from the type specimen, associated with calcioaravaipaite R100033.  Photos of type specimen are courtesy of LACMNH.
##STATUS=The identification of this mineral has been confirmed by single-crystal X-ray diffraction.
##URL=rruff.info/R100034
90.01007, 0.0000000E+00
90.49219, 16.38420
90.97430, 17.45469
91.45642, 17.83591
91.93854, 16.92651
92.42065, 15.50212
92.90277, 14.76448
93.38489, 14.87449
93.86700, 15.24818
94.34912, 15.23957
94.83124, 14.88662
95.31335, 14.40154
95.79547, 13.69726
96.27759, 12.90945
96.75970, 12.65272
97.24182, 13.18947
97.72394, 14.08220
98.20605, 14.36981
98.68817, 14.00536
99.17029, 13.41145
99.65240, 12.73121
100.1345, 11.92338
100.6166, 11.70689
101.0988, 12.50941
101.5809, 14.12271
102.0630, 14.71672
102.5451, 13.99985
103.0272, 12.79267
103.5093, 11.91859
103.9915, 11.36465
104.4736, 11.21627
104.9557, 11.66619
105.4378, 12.92764
105.9199, 13.54799
106.4020, 13.17470
106.8842, 12.33664
107.3663, 11.97695
107.8484, 12.61743
108.3305, 13.13552
108.8126, 13.12688
109.2947, 12.19767
109.7769, 11.39444
110.2590, 10.58857
110.7411, 9.883992
111.2232, 9.624935
111.7053, 9.997602
112.1874, 10.68893
112.6696, 11.55742
113.1517, 13.25259
113.6338, 14.41113
114.1159, 14.68716
114.5980, 14.17381
115.0801, 13.54396
115.5623, 13.05959
116.0444, 12.46791
116.5265, 11.57753
117.0086, 9.407675
117.4907, 7.734929
117.9728, 7.440748
118.4550, 8.583497
118.9371, 9.820171
119.4192, 10.65487
119.9013, 11.21966
120.3834, 11.66901
120.8655, 12.28032
121.3477, 12.66478
121.8298, 12.29462
122.3119, 10.93752
122.7940, 9.912691
123.2761, 10.55537
123.7582, 12.26733
124.2404, 13.71623
124.7225, 13.71715
125.2046, 13.22551
125.6867, 13.52157
126.1688, 15.02443
126.6509, 16.77358
127.1331, 17.46508
127.6152, 17.34146
128.0973, 17.60814
128.5794, 19.74657
129.0615, 22.90722
129.5436, 24.91883
130.0258, 24.79553
130.5079, 23.87415
130.9900, 24.40515
131.4721, 26.38325
131.9542, 29.31673
132.4363, 33.12647
132.9185, 37.69232
133.4006, 42.17160
133.8827, 46.27991
134.3648, 50.11077
134.8469, 54.05947
135.3290, 57.98516
135.8112, 62.67190
136.2933, 69.59944
136.7754, 79.00538
137.2575, 87.42708
137.7396, 93.59123
138.2217, 97.44941
138.7039, 101.0234
139.1860, 104.2852
139.6681, 107.3140
140.1502, 110.3863
140.6323, 113.6222
141.1144, 116.3900
141.5966, 118.0095
142.0787, 117.7612
142.5608, 119.8800
143.0429, 125.6326
143.5250, 133.0294
144.0071, 137.1428
144.4893, 135.8426
144.9714, 134.6608
145.4535, 136.1639
145.9356, 141.7920
146.4177, 147.2722
146.8998, 152.4391
147.3820, 157.4091
147.8641, 162.9301
148.3462, 169.4408
148.8283, 176.0196
149.3104, 182.2346
149.7925, 187.5062
150.2747, 193.1283
150.7568, 199.2945
151.2389, 205.9400
151.7210, 212.2724
152.2031, 218.0768
152.6852, 223.6365
153.1674, 229.1916
153.6495, 235.1335
154.1316, 240.6171
154.6137, 245.2612
155.0958, 249.0438
155.5779, 253.2224
156.0601, 258.3152
156.5422, 263.7087
157.0243, 268.8192
157.5064, 272.8661
157.9885, 277.2524
158.4706, 282.4362
158.9528, 288.5051
159.4349, 294.7990
159.9170, 301.6249
160.3991, 308.4463
160.8812, 314.6437
161.3633, 318.7117
161.8455, 323.1808
162.3276, 329.7083
162.8097, 338.9679
163.2918, 347.2199
163.7739, 352.2647
164.2560, 354.9903
164.7382, 355.1907
165.2203, 355.3054
165.7024, 355.9201
166.1845, 357.3160
166.6666, 360.1601
167.1487, 361.7254
167.6309, 360.0379
168.1130, 356.0265
168.5951, 351.6684
169.0772, 347.2699
169.5593, 343.2253
170.0414, 339.9312
170.5236, 337.6045
171.0057, 335.6218
171.4878, 333.7801
171.9699, 331.9412
172.4520, 329.7270
172.9341, 326.5423
173.4163, 322.9832
173.8984, 319.6932
174.3805, 316.6526
174.8626, 314.1374
175.3447, 312.4622
175.8268, 311.5212
176.3090, 310.8534
176.7911, 310.5143
177.2732, 310.1825
177.7553, 309.2368
178.2374, 307.0265
178.7195, 304.6828
179.2017, 303.7050
179.6838, 303.9918
180.1659, 304.7422
180.6480, 305.4614
181.1301, 306.1733
181.6122, 306.9514
182.0944, 307.8156
182.5765, 308.7538
183.0586, 309.8927
183.5407, 311.2098
184.0228, 312.3388
184.5049, 312.7418
184.9871, 312.6197
185.4692, 312.6793
185.9513, 313.1883
186.4334, 314.0036
186.9155, 314.8863
187.3976, 315.8478
187.8798, 316.7031
188.3619, 316.8943
188.8440, 316.6156
189.3261, 317.1533
189.8082, 319.4685
190.2903, 322.9263
190.7725, 325.0302
191.2546, 325.5936
191.7367, 325.9353
192.2188, 327.6157
192.7009, 330.5931
193.1830, 333.8799
193.6652, 337.3246
194.1473, 340.8585
194.6294, 343.4598
195.1115, 344.7433
195.5936, 346.3602
196.0757, 350.6999
196.5579, 357.8253
197.0400, 365.6439
197.5221, 373.3916
198.0042, 381.0629
198.4863, 389.2231
198.9684, 397.9224
199.4506, 406.9352
199.9327, 416.1278
200.4148, 425.6832
200.8969, 434.1996
201.3790, 440.7751
201.8611, 445.2890
202.3433, 450.5975
202.8254, 456.9200
203.3075, 463.6979
203.7896, 470.0096
204.2717, 475.9121
204.7538, 481.2114
205.2360, 485.5889
205.7181, 488.8877
206.2002, 492.6867
206.6823, 497.0793
207.1644, 501.8496
207.6465, 506.3287
208.1287, 510.0358
208.6108, 514.9647
209.0929, 521.9749
209.5750, 531.2247
210.0571, 541.8166
210.5392, 553.5873
211.0214, 566.9136
211.5035, 582.7433
211.9856, 601.1912
212.4677, 621.3715
212.9498, 643.7454
213.4319, 669.3306
213.9140, 692.0911
214.3962, 712.1014
214.8783, 729.2650
215.3604, 743.9905
215.8425, 758.6711
216.3246, 765.8786
216.8067, 761.7979
217.2889, 744.7234
217.7710, 722.0388
218.2531, 692.1155
218.7352, 657.5766
219.2173, 623.4694
219.6994, 588.5785
220.1816, 556.1929
220.6637, 527.1785
221.1458, 501.5547
221.6279, 479.0576
222.1100, 459.5039
222.5921, 443.0366
223.0743, 429.7300
223.5564, 420.5551
224.0385, 413.0051
224.5206, 406.1974
225.0027, 400.0848
225.4848, 394.5944
225.9670, 389.7614
226.4491, 385.5900
226.9312, 382.0347
227.4133, 379.1930
227.8954, 376.8431
228.3775, 374.9865
228.8597, 373.7821
229.3418, 372.5731
229.8239, 371.2882
230.3060, 369.9907
230.7881, 368.8971
231.2702, 367.9708
231.7524, 367.2583
232.2345, 366.7861
232.7166, 366.5630
233.1987, 366.5089
233.6808, 366.5490
234.1629, 366.7733
234.6451, 367.3951
235.1272, 368.2481
235.6093, 369.7567
236.0914, 372.2582
236.5735, 376.5087
237.0556, 380.0103
237.5378, 382.3806
238.0199, 384.1316
238.5020, 386.6268
238.9841, 390.5902
239.4662, 394.2882
239.9483, 397.0905
240.4305, 399.1408
240.9126, 399.8991
241.3947, 399.2491
241.8768, 397.3407
242.3589, 394.4670
242.8410, 390.3054
243.3232, 385.6651
243.8053, 380.7457
244.2874, 374.9240
244.7695, 370.3022
245.2516, 367.0049
245.7337, 364.8200
246.2159, 363.3359
246.6980, 362.7741
247.1801, 362.5689
247.6622, 362.4910
248.1443, 362.4599
248.6264, 362.8156
249.1086, 363.6815
249.5907, 364.8796
250.0728, 366.0274
250.5549, 367.0040
251.0370, 368.1331
251.5191, 369.5705
252.0013, 371.4026
252.4834, 373.2022
252.9655, 374.9540
253.4476, 376.6565
253.9297, 378.2840
254.4118, 379.7452
254.8940, 381.2552
255.3761, 382.8741
255.8582, 384.5999
256.3403, 386.4731
256.8224, 388.4909
257.3046, 390.6629
257.7867, 392.9725
258.2688, 395.4856
258.7509, 398.0572
259.2330, 400.6701
259.7151, 403.3980
260.1973, 405.8383
260.6794, 407.7972
261.1615, 409.6206
261.6436, 411.7148
262.1257, 414.0526
262.6078, 416.7949
263.0900, 420.2208
263.5721, 424.5410
264.0542, 427.6122
264.5363, 428.9832
265.0184, 429.6685
265.5005, 431.2115
265.9827, 434.1751
266.4648, 436.2911
266.9469, 436.7917
267.4290, 435.6482
267.9111, 434.2667
268.3932, 432.6519
268.8754, 430.7995
269.3575, 428.6356
269.8396, 426.0157
270.3217, 423.5572
270.8038, 421.4952
271.2859, 419.7834
271.7681, 417.7284
272.2502, 415.1370
272.7323, 412.6090
273.2144, 410.8586
273.6965, 409.9828
274.1786, 409.3001
274.6608, 408.6499
275.1429, 408.0634
275.6250, 407.7522
276.1071, 407.7439
276.5892, 407.9338
277.0714, 408.2814
277.5535, 408.8140
278.0356, 409.2804
278.5177, 409.6213
278.9998, 409.8685
279.4819, 410.4612
279.9641, 411.7066
280.4462, 412.0584
280.9283, 409.5250
281.4104, 403.9919
281.8925, 400.2091
282.3746, 399.6138
282.8568, 400.6888
283.3389, 398.9183
283.8210, 394.0341
284.3031, 388.3569
284.7852, 383.0538
285.2673, 378.1993
285.7495, 374.5581
286.2316, 372.5060
286.7137, 371.2939
287.1958, 369.3143
287.6779, 366.5362
288.1600, 363.8041
288.6422, 361.4811
289.1243, 359.5826
289.6064, 358.5304
290.0885, 358.5760
290.5706, 358.8859
291.0527, 358.0466
291.5349, 356.1226
292.0170, 354.0061
292.4991, 351.7466
292.9812, 349.6266
293.4633, 349.1113
293.9454, 350.5893
294.4276, 352.3374
294.9097, 351.7435
295.3918, 349.2231
295.8739, 346.9567
296.3560, 346.1520
296.8381, 346.3430
297.3203, 346.7130
297.8024, 347.3105
298.2845, 347.4515
298.7666, 345.6453
299.2487, 342.6428
299.7308, 340.7069
300.2130, 341.5216
300.6951, 343.6940
301.1772, 345.2199
301.6593, 346.1007
302.1414, 346.1953
302.6235, 344.4718
303.1057, 341.9054
303.5878, 340.5334
304.0699, 341.7044
304.5520, 343.8545
305.0341, 345.3610
305.5162, 346.2485
305.9984, 346.7524
306.4805, 347.0249
306.9626, 347.0114
307.4447, 346.5620
307.9268, 345.2445
308.4089, 343.9881
308.8911, 343.7447
309.3732, 344.3142
309.8553, 344.8832
310.3374, 345.0178
310.8195, 344.8921
311.3016, 344.5420
311.7838, 343.6100
312.2659, 343.2421
312.7480, 344.4562
313.2301, 346.8424
313.7122, 349.3940
314.1943, 352.9666
314.6765, 355.7186
315.1586, 355.8719
315.6407, 352.3197
316.1228, 349.2340
316.6049, 349.1020
317.0870, 350.6899
317.5692, 351.9630
318.0513, 351.6396
318.5334, 351.2796
319.0155, 351.8318
319.4976, 353.5583
319.9797, 354.8221
320.4619, 354.3908
320.9440, 353.4473
321.4261, 353.3199
321.9082, 354.7648
322.3903, 356.6342
322.8724, 358.8360
323.3546, 361.3692
323.8367, 363.3981
324.3188, 364.4193
324.8009, 365.0795
325.2830, 365.8635
325.7651, 366.2993
326.2473, 367.4732
326.7294, 370.1888
327.2115, 374.1490
327.6936, 376.9853
328.1757, 377.2111
328.6578, 377.2487
329.1400, 378.2977
329.6221, 380.9790
330.1042, 383.8163
330.5863, 386.9493
331.0684, 390.2448
331.5505, 393.2484
332.0327, 395.8078
332.5148, 398.2701
332.9969, 400.8021
333.4790, 403.4491
333.9611, 405.8413
334.4432, 407.6610
334.9254, 409.4142
335.4075, 411.9260
335.8896, 415.3369
336.3717, 419.2778
336.8538, 423.7037
337.3359, 428.7114
337.8180, 433.7224
338.3001, 438.9998
338.7823, 443.8822
339.2644, 447.3592
339.7465, 449.1327
340.2286, 450.9383
340.7107, 453.2845
341.1928, 456.0423
341.6750, 458.1714
342.1571, 459.7446
342.6392, 460.5361
343.1213, 460.1682
343.6034, 458.6253
344.0855, 456.8815
344.5677, 454.9190
345.0498, 453.0367
345.5319, 452.1006
346.0140, 452.1318
346.4961, 452.5102
346.9782, 453.0013
347.4604, 453.5536
347.9425, 453.8114
348.4246, 453.6666
348.9067, 453.4804
349.3888, 453.7320
349.8709, 454.3985
350.3531, 455.3295
350.8352, 456.4464
351.3173, 457.7766
351.7994, 459.4042
352.2815, 461.3319
352.7636, 463.5013
353.2458, 465.9164
353.7279, 468.5292
354.2100, 471.2484
354.6921, 474.4336
355.1742, 477.4215
355.6563, 479.4537
356.1385, 480.5709
356.6206, 481.3553
357.1027, 482.0704
357.5848, 482.7183
358.0669, 483.3293
358.5490, 484.0095
359.0312, 484.4969
359.5133, 484.5927
359.9954, 484.3511
360.4775, 483.9525
360.9596, 484.2066
361.4417, 483.8551
361.9239, 481.8103
362.4060, 477.3120
362.8881, 472.8679
363.3702, 469.1016
363.8523, 466.0374
364.3344, 463.7129
364.8166, 463.3472
365.2987, 462.6354
365.7808, 460.5419
366.2629, 456.8308
366.7450, 453.2818
367.2271, 450.3823
367.7093, 447.6706
368.1914, 444.7412
368.6735, 441.4980
369.1556, 438.0848
369.6377, 434.5190
370.1198, 430.7983
370.6020, 427.1356
371.0841, 423.6828
371.5662, 420.1312
372.0483, 416.3226
372.5304, 411.9225
373.0125, 407.7989
373.4947, 403.8328
373.9768, 400.2362
374.4589, 397.6040
374.9410, 396.4673
375.4231, 395.1897
375.9052, 393.0555
376.3874, 389.9147
376.8695, 386.9467
377.3516, 383.9617
377.8337, 381.4211
378.3158, 379.9521
378.7979, 379.6727
379.2801, 379.5963
379.7622, 379.5876
380.2443, 379.5556
380.7264, 379.0182
381.2085, 377.9276
381.6906, 376.6660
382.1728, 375.4633
382.6549, 374.3286
383.1370, 373.3589
383.6191, 372.4802
384.1012, 371.9120
384.5833, 372.1849
385.0655, 373.2080
385.5476, 374.2727
386.0297, 375.2704
386.5118, 375.9743
386.9939, 375.7271
387.4760, 374.3260
387.9582, 373.0377
388.4403, 373.4063
388.9224, 374.7582
389.4045, 375.6880
389.8866, 375.0343
390.3687, 374.1194
390.8509, 374.3414
391.3330, 375.5759
391.8151, 376.3803
392.2972, 375.1404
392.7793, 373.3983
393.2614, 372.6839
393.7436, 374.0756
394.2257, 375.5861
394.7078, 376.1088
395.1899, 376.0845
395.6720, 376.6700
396.1541, 379.3716
396.6363, 381.8641
397.1184, 382.7911
397.6005, 381.2602
398.0826, 380.5585
398.5647, 381.8374
399.0468, 383.9840
399.5290, 385.6494
400.0111, 385.9085
400.4932, 386.5910
400.9753, 388.2637
401.4574, 390.9270
401.9395, 392.9184
402.4217, 393.8120
402.9038, 394.4955
403.3859, 395.5139
403.8680, 396.8273
404.3501, 398.6421
404.8322, 401.2697
405.3144, 404.2556
405.7965, 406.2078
406.2786, 406.8410
406.7607, 407.4261
407.2428, 408.6144
407.7249, 410.4388
408.2071, 411.8521
408.6892, 412.7713
409.1713, 413.5441
409.6534, 414.7266
410.1355, 416.2786
410.6176, 417.5122
411.0998, 418.3101
411.5819, 418.6194
412.0640, 418.0229
412.5461, 416.5648
413.0282, 415.2389
413.5103, 415.2144
413.9925, 415.8345
414.4746, 415.7189
414.9567, 414.5653
415.4388, 412.8519
415.9209, 410.6121
416.4030, 408.1629
416.8852, 406.2295
417.3673, 405.4787
417.8494, 405.2264
418.3315, 404.9442
418.8136, 404.6025
419.2957, 404.2902
419.7779, 404.2367
420.2600, 404.1645
420.7421, 403.7967
421.2242, 402.2450
421.7063, 401.2329
422.1884, 401.9171
422.6706, 403.7384
423.1527, 404.6026
423.6348, 402.8388
424.1169, 400.9657
424.5990, 400.1161
425.0811, 400.6906
425.5633, 401.6078
426.0454, 402.8345
426.5275, 404.3676
427.0096, 406.2731
427.4917, 409.0027
427.9738, 411.3917
428.4560, 413.0799
428.9381, 414.1198
429.4202, 415.4268
429.9023, 417.0729
430.3844, 418.8136
430.8665, 420.5994
431.3487, 422.5570
431.8308, 423.7583
432.3129, 424.0911
432.7950, 423.6639
433.2771, 422.3651
433.7592, 420.1526
434.2414, 418.3274
434.7235, 417.8163
435.2056, 418.2239
435.6877, 417.9059
436.1698, 416.8237
436.6519, 415.4977
437.1341, 414.6590
437.6162, 414.0062
438.0983, 412.6058
438.5804, 409.6720
439.0625, 406.6613
439.5446, 405.2733
440.0268, 405.2586
440.5089, 405.7025
440.9910, 406.4272
441.4731, 407.1711
441.9552, 407.5303
442.4373, 407.2943
442.9195, 407.6226
443.4016, 409.7806
443.8837, 412.6180
444.3658, 414.7354
444.8479, 414.0605
445.3300, 414.2767
445.8122, 417.3042
446.2943, 422.7300
446.7764, 426.9805
447.2585, 427.9199
447.7406, 428.7955
448.2227, 431.3333
448.7049, 436.7636
449.1870, 441.4213
449.6691, 444.5623
450.1512, 447.2817
450.6333, 451.3653
451.1154, 457.6465
451.5976, 463.5531
452.0797, 468.2064
452.5618, 471.7362
453.0439, 475.7552
453.5260, 480.2071
454.0081, 485.0724
454.4903, 490.4544
454.9724, 496.3008
455.4545, 502.0616
455.9366, 507.5226
456.4187, 513.0709
456.9008, 519.2877
457.3830, 526.1952
457.8651, 533.2408
458.3472, 540.2645
458.8293, 547.3261
459.3114, 555.1170
459.7935, 563.5552
460.2757, 571.1719
460.7578, 576.3652
461.2399, 580.0403
461.7220, 583.5714
462.2041, 588.0602
462.6862, 591.2757
463.1684, 591.5601
463.6505, 589.4756
464.1326, 586.3085
464.6147, 583.2773
465.0968, 578.6895
465.5789, 571.3505
466.0611, 560.8685
466.5432, 550.1713
467.0253, 540.0356
467.5074, 529.8857
467.9895, 519.2758
468.4716, 506.3791
468.9538, 495.1307
469.4359, 486.3400
469.9180, 479.4323
470.4001, 472.5612
470.8822, 465.6553
471.3643, 459.0022
471.8465, 452.5782
472.3286, 446.3039
472.8107, 441.1788
473.2928, 437.3758
473.7749, 434.4495
474.2570, 432.2114
474.7392, 430.6581
475.2213, 429.0034
475.7034, 427.0764
476.1855, 424.9522
476.6676, 422.7192
477.1497, 420.3821
477.6319, 418.1077
478.1140, 415.4578
478.5961, 413.0710
479.0782, 412.3256
479.5603, 413.4102
480.0424, 414.6696
480.5246, 414.9272
481.0067, 414.4652
481.4888, 413.6791
481.9709, 412.4784
482.4530, 411.2293
482.9352, 409.7382
483.4173, 408.2800
483.8994, 407.7259
484.3815, 409.5722
484.8636, 411.4061
485.3457, 411.9792
485.8279, 410.8569
486.3100, 409.8023
486.7921, 408.8530
487.2742, 408.0984
487.7563, 407.6017
488.2384, 407.2819
488.7206, 407.3974
489.2027, 408.1698
489.6848, 409.3688
490.1669, 410.2268
490.6490, 410.7935
491.1311, 410.8524
491.6133, 410.0537
492.0954, 408.4188
492.5775, 407.3777
493.0596, 406.9626
493.5417, 407.0494
494.0238, 407.9567
494.5060, 409.3962
494.9881, 409.8457
495.4702, 408.4508
495.9523, 406.6429
496.4344, 406.5629
496.9165, 407.8821
497.3987, 409.3622
497.8808, 410.3954
498.3629, 411.2213
498.8450, 412.0753
499.3271, 412.9845
499.8092, 413.8044
500.2914, 414.5564
500.7735, 415.1341
501.2556, 415.4509
501.7377, 415.1367
502.2198, 414.9658
502.7019, 414.8088
503.1841, 414.8959
503.6662, 415.8581
504.1483, 419.4505
504.6304, 422.1028
505.1125, 422.2430
505.5946, 419.5169
506.0768, 419.1189
506.5589, 422.3673
507.0410, 426.0041
507.5231, 427.0700
508.0052, 425.0443
508.4873, 423.9455
508.9695, 424.3513
509.4516, 425.6816
509.9337, 426.9102
510.4158, 428.0522
510.8979, 429.4012
511.3800, 431.3170
511.8622, 433.4625
512.3443, 434.9561
512.8264, 435.8225
513.3085, 436.8033
513.7906, 438.8950
514.2728, 441.2690
514.7549, 442.7342
515.2370, 442.7980
515.7191, 442.7569
516.2012, 443.0789
516.6833, 443.8969
517.1655, 445.4161
517.6476, 448.7295
518.1297, 451.7412
518.6118, 453.7065
519.0939, 454.6689
519.5760, 455.3137
520.0582, 454.8279
520.5403, 454.8117
521.0224, 456.1407
521.5045, 459.7055
521.9866, 461.9833
522.4688, 462.5863
522.9509, 462.3216
523.4330, 462.0367
523.9151, 461.6489
524.3972, 461.7486
524.8793, 462.6764
525.3615, 463.9839
525.8436, 464.3013
526.3257, 463.6472
526.8078, 463.2304
527.2899, 463.9536
527.7720, 465.3924
528.2542, 466.6289
528.7363, 467.6223
529.2184, 468.4431
529.7005, 468.8564
530.1826, 469.2177
530.6647, 470.0753
531.1469, 471.9808
531.6290, 473.7333
532.1111, 473.9505
532.5932, 473.5682
533.0753, 474.4886
533.5574, 478.8124
534.0396, 483.0402
534.5217, 485.6464
535.0038, 486.4164
535.4859, 488.3340
535.9680, 492.4403
536.4501, 496.7193
536.9323, 499.9505
537.4144, 501.6696
537.8965, 503.7110
538.3786, 506.1357
538.8607, 508.8488
539.3428, 511.5240
539.8250, 514.1332
540.3071, 517.5646
540.7892, 522.4243
541.2713, 527.9589
541.7534, 531.7679
542.2355, 534.0460
542.7177, 536.8099
543.1998, 542.4324
543.6819, 549.0054
544.1640, 553.1520
544.6461, 554.5187
545.1282, 555.9572
545.6104, 559.7332
546.0925, 564.5451
546.5746, 568.9887
547.0567, 573.1661
547.5388, 576.2340
548.0209, 577.1896
548.5031, 576.8285
548.9852, 576.9299
549.4673, 578.9773
549.9494, 580.2001
550.4315, 579.6417
550.9136, 577.3119
551.3958, 575.4337
551.8779, 574.0622
552.3600, 573.0500
552.8421, 572.3552
553.3242, 572.0127
553.8063, 571.5863
554.2885, 570.9540
554.7706, 570.5251
555.2527, 570.6956
555.7348, 571.4999
556.2169, 573.1816
556.6990, 575.8669
557.1812, 579.3627
557.6633, 583.4590
558.1454, 588.1403
558.6275, 593.3723
559.1096, 599.0260
559.5917, 605.2610
560.0739, 612.2770
560.5560, 620.1259
561.0381, 628.0927
561.5202, 635.3420
562.0023, 642.8480
562.4844, 651.3773
562.9666, 662.5678
563.4487, 672.4838
563.9308, 680.0963
564.4129, 686.6855
564.8950, 694.3948
565.3771, 704.3534
565.8593, 712.6741
566.3414, 718.2924
566.8235, 721.5955
567.3056, 724.7002
567.7877, 727.7173
568.2698, 729.5446
568.7520, 729.8221
569.2341, 728.4174
569.7162, 724.7381
570.1983, 718.7806
570.6804, 710.8950
571.1625, 700.9992
571.6447, 689.5741
572.1268, 677.2072
572.6089, 663.2380
573.0910, 649.8831
573.5731, 639.0851
574.0552, 629.7214
574.5374, 619.5827
575.0195, 606.2559
575.5016, 593.8882
575.9837, 584.3369
576.4658, 577.4330
576.9479, 569.9183
577.4301, 561.0954
577.9122, 552.4896
578.3943, 544.5485
578.8764, 537.2262
579.3585, 531.1360
579.8406, 526.4451
580.3228, 522.6059
580.8049, 519.2090
581.2870, 516.2437
581.7691, 513.3431
582.2512, 510.4842
582.7333, 507.6065
583.2155, 504.3282
583.6975, 500.9257
584.1796, 498.1247
584.6617, 496.3292
585.1439, 495.2686
585.6260, 495.0609
586.1081, 495.5108
586.5902, 495.6567
587.0723, 494.7239
587.5544, 493.6137
588.0366, 492.6845
588.5187, 491.8426
589.0008, 491.8293
589.4829, 493.7623
589.9650, 495.8723
590.4471, 496.8212
590.9293, 496.1450
591.4114, 495.3106
591.8935, 494.1561
592.3756, 493.1591
592.8577, 493.1693
593.3398, 494.2045
593.8220, 495.9906
594.3041, 498.7438
594.7862, 501.9589
595.2683, 504.3693
595.7504, 506.0606
596.2325, 507.8129
596.7147, 510.5923
597.1968, 513.4350
597.6789, 514.9738
598.1610, 515.0895
598.6431, 515.5575
599.1252, 517.9432
599.6074, 520.7608
600.0895, 522.7599
600.5716, 523.0693
601.0537, 523.6972
601.5358, 525.2582
602.0179, 527.1663
602.5001, 528.6736
602.9822, 529.6642
603.4643, 530.4819
603.9464, 531.3079
604.4285, 531.9472
604.9106, 531.7983
605.3928, 530.8429
605.8749, 529.2088
606.3570, 526.3524
606.8391, 522.9013
607.3212, 521.3061
607.8033, 521.4850
608.2855, 521.3661
608.7676, 519.2502
609.2497, 515.9422
609.7318, 512.3677
610.2139, 508.5469
610.6960, 504.9170
611.1782, 501.9183
611.6603, 499.1533
612.1424, 496.1620
612.6245, 492.4425
613.1066, 489.0247
613.5887, 485.9948
614.0709, 483.3516
614.5530, 481.0575
615.0351, 479.2580
615.5172, 477.5898
615.9993, 475.9455
616.4814, 474.3503
616.9636, 472.9074
617.4457, 471.6320
617.9278, 470.4284
618.4099, 469.4426
618.8920, 468.4850
619.3741, 466.8322
619.8563, 464.4342
620.3384, 462.1478
620.8205, 460.9103
621.3026, 460.0768
621.7847, 458.7581
622.2668, 456.4006
622.7490, 454.5057
623.2311, 454.0233
623.7132, 454.2572
624.1953, 454.3170
624.6774, 454.4997
625.1595, 453.8991
625.6417, 451.7782
626.1238, 448.9091
626.6059, 447.6419
627.0880, 448.5223
627.5701, 449.3254
628.0522, 449.1228
628.5344, 448.2069
629.0165, 448.2034
629.4986, 449.1364
629.9807, 449.9620
630.4628, 450.0228
630.9449, 449.4353
631.4271, 448.1679
631.9092, 446.1815
632.3913, 444.4802
632.8734, 443.8657
633.3555, 443.8701
633.8376, 444.0030
634.3198, 444.0956
634.8019, 444.4186
635.2840, 445.6940
635.7661, 447.0023
636.2482, 447.0024
636.7303, 444.3044
637.2125, 442.6566
637.6946, 443.1171
638.1767, 444.7192
638.6588, 444.5570
639.1409, 442.3690
639.6230, 440.2490
640.1052, 438.9646
640.5873, 438.3758
641.0694, 438.2697
641.5515, 438.6036
642.0336, 438.8351
642.5157, 438.3457
642.9979, 437.6949
643.4800, 437.6819
643.9621, 438.4129
644.4442, 438.8783
644.9263, 438.2669
645.4084, 437.3710
645.8906, 436.8178
646.3727, 436.7787
646.8548, 436.9385
647.3369, 437.2263
647.8190, 437.7069
648.3011, 438.6708
648.7833, 440.6564
649.2654, 441.1651
649.7475, 439.3737
650.2296, 436.4386
650.7117, 434.4006
651.1938, 433.2634
651.6760, 433.3437
652.1581, 435.5683
652.6402, 438.4521
653.1223, 439.8396
653.6044, 439.9094
654.0865, 439.4766
654.5687, 438.6852
655.0508, 437.7924
655.5329, 436.7882
656.0150, 435.6674
656.4971, 435.1424
656.9792, 435.9577
657.4614, 436.9394
657.9435, 437.4259
658.4256, 437.2198
658.9077, 437.2502
659.3898, 437.7101
659.8719, 438.0570
660.3541, 437.5045
660.8362, 436.0957
661.3183, 435.2905
661.8004, 435.3976
662.2825, 435.8879
662.7646, 436.2568
663.2468, 436.4671
663.7289, 436.4088
664.2110, 435.8349
664.6931, 435.2517
665.1752, 435.2055
665.6573, 435.4265
666.1395, 435.2680
666.6216, 434.0121
667.1037, 432.8947
667.5858, 432.2456
668.0679, 432.0536
668.5500, 432.4101
669.0322, 433.7563
669.5143, 434.7704
669.9964, 434.6702
670.4785, 433.5563
670.9606, 433.2025
671.4427, 433.6721
671.9249, 434.2329
672.4070, 433.9331
672.8891, 433.3633
673.3712, 434.1483
673.8533, 436.6053
674.3354, 438.5805
674.8176, 437.7780
675.2997, 436.0541
675.7818, 435.4325
676.2639, 437.1065
676.7460, 438.4879
677.2281, 438.7661
677.7103, 438.5316
678.1924, 438.5172
678.6745, 438.9816
679.1566, 439.0909
679.6387, 438.6436
680.1208, 437.8691
680.6030, 437.2156
681.0851, 436.6911
681.5672, 436.2239
682.0493, 435.6433
682.5314, 435.2452
683.0135, 435.8749
683.4957, 437.2433
683.9778, 438.1964
684.4599, 437.8275
684.9420, 437.0508
685.4241, 436.3896
685.9063, 435.8793
686.3884, 435.5116
686.8705, 435.0368
687.3526, 434.9652
687.8347, 435.7228
688.3168, 437.5623
688.7990, 438.4130
689.2811, 438.0402
689.7632, 437.2544
690.2453, 436.5952
690.7274, 436.0600
691.2095, 435.6193
691.6917, 435.2442
692.1738, 435.1615
692.6559, 435.8954
693.1380, 437.0130
693.6201, 437.7579
694.1022, 437.8658
694.5844, 437.8156
695.0665, 437.5554
695.5486, 437.4033
696.0307, 437.7709
696.5128, 439.4752
696.9949, 440.7672
697.4771, 441.4809
697.9592, 441.6971
698.4413, 441.4870
698.9234, 440.7371
699.4055, 440.0047
699.8876, 439.3698
700.3698, 438.9104
700.8519, 438.9180
701.3340, 439.3381
701.8161, 439.7956
702.2982, 440.2166
702.7803, 440.5014
703.2625, 440.4910
703.7446, 440.2285
704.2267, 439.9252
704.7088, 439.0789
705.1909, 438.7407
705.6730, 439.8893
706.1552, 442.7573
706.6373, 444.2016
707.1194, 443.4635
707.6015, 442.3302
708.0836, 441.5965
708.5657, 441.2372
709.0479, 441.9506
709.5300, 443.9406
710.0121, 445.6820
710.4942, 445.2335
710.9763, 443.5459
711.4584, 442.9488
711.9406, 443.8460
712.4227, 444.9688
712.9048, 445.5252
713.3869, 445.7573
713.8690, 445.9381
714.3511, 446.3082
714.8333, 446.3129
715.3154, 445.4798
715.7975, 444.4454
716.2796, 443.8781
716.7617, 443.9051
717.2438, 444.1256
717.7260, 444.5950
718.2081, 445.1022
718.6902, 445.2086
719.1723, 444.9680
719.6544, 444.8040
720.1365, 445.0039
720.6187, 445.0941
721.1008, 443.9093
721.5829, 442.1784
722.0650, 441.5865
722.5471, 444.1516
723.0292, 446.7082
723.5114, 447.9956
723.9935, 448.1172
724.4756, 447.6081
724.9577, 445.7669
725.4398, 444.4837
725.9219, 444.4834
726.4041, 445.5148
726.8862, 446.0321
727.3683, 445.9813
727.8504, 446.1516
728.3325, 447.5463
728.8146, 449.3193
729.2968, 449.4861
729.7789, 448.1748
730.2610, 446.6017
730.7431, 444.7717
731.2252, 443.5420
731.7073, 443.8929
732.1895, 446.0596
732.6716, 447.6246
733.1537, 447.6220
733.6358, 447.3773
734.1179, 447.5542
734.6000, 448.2664
735.0822, 448.7670
735.5643, 449.1215
736.0464, 449.0411
736.5285, 447.6813
737.0106, 445.5970
737.4927, 445.1588
737.9749, 446.7435
738.4570, 448.5865
738.9391, 449.0917
739.4212, 449.0196
739.9033, 449.3019
740.3854, 450.4903
740.8676, 451.1830
741.3497, 450.6198
741.8318, 449.5807
742.3139, 448.8223
742.7960, 448.2663
743.2781, 448.2687
743.7603, 449.0370
744.2424, 450.0455
744.7245, 450.4677
745.2066, 450.3723
745.6887, 450.4391
746.1708, 450.8639
746.6530, 451.3743
747.1351, 451.7997
747.6172, 452.0564
748.0993, 451.9943
748.5814, 451.0923
749.0635, 450.4000
749.5457, 450.2335
750.0278, 450.5419
750.5099, 451.2207
750.9920, 452.5666
751.4741, 453.7643
751.9562, 454.8195
752.4384, 455.5301
752.9205, 454.9346
753.4026, 453.0890
753.8847, 452.1374
754.3668, 453.5811
754.8489, 455.6125
755.3311, 455.3380
755.8132, 453.4265
756.2953, 451.8424
756.7774, 451.5062
757.2595, 451.6947
757.7416, 452.3938
758.2238, 453.4152
758.7059, 453.8165
759.1880, 452.9448
759.6701, 452.4613
760.1522, 453.0797
760.6343, 454.4809
761.1165, 454.8111
761.5986, 454.0101
762.0807, 453.3473
762.5628, 453.7234
763.0449, 454.5965
763.5270, 454.9231
764.0092, 454.8275
764.4913, 455.0034
764.9734, 456.6899
765.4555, 458.0332
765.9376, 457.5283
766.4197, 455.1202
766.9019, 453.6350
767.3840, 453.5884
767.8661, 453.9499
768.3482, 454.2896
768.8303, 454.6243
769.3124, 455.3968
769.7946, 456.6548
770.2767, 457.7032
770.7588, 457.7982
771.2409, 457.4413
771.7230, 457.5878
772.2051, 458.2492
772.6873, 458.8408
773.1694, 458.6929
773.6515, 458.5992
774.1336, 459.2420
774.6157, 460.8822
775.0978, 461.9521
775.5800, 462.2698
776.0621, 462.1848
776.5442, 461.7324
777.0263, 460.8683
777.5084, 460.5807
777.9905, 460.8823
778.4727, 461.5871
778.9548, 462.9546
779.4369, 464.4774
779.9190, 465.2932
780.4011, 465.3024
780.8832, 464.7882
781.3654, 462.8940
781.8475, 461.2600
782.3296, 461.3676
782.8117, 464.3618
783.2938, 465.9452
783.7759, 465.5228
784.2581, 464.5296
784.7402, 463.9060
785.2223, 463.6539
785.7044, 464.0458
786.1865, 465.1627
786.6686, 466.2431
787.1508, 466.4567
787.6329, 466.1890
788.1150, 465.9737
788.5971, 465.8561
789.0792, 465.9902
789.5613, 466.3317
790.0435, 467.0158
790.5256, 468.2463
791.0077, 470.3618
791.4898, 472.0396
791.9719, 473.1442
792.4540, 474.0099
792.9362, 475.0105
793.4183, 476.1076
793.9004, 476.6013
794.3825, 476.4045
794.8646, 475.9852
795.3467, 475.5767
795.8289, 475.3205
796.3110, 475.4295
796.7931, 475.9915
797.2752, 476.7127
797.7573, 477.8641
798.2394, 478.8896
798.7216, 479.2790
799.2037, 478.5937
799.6858, 478.5689
800.1679, 479.5258
800.6500, 480.4097
801.1321, 479.7855
801.6143, 478.0662
802.0964, 477.4465
802.5785, 478.2618
803.0606, 479.2650
803.5427, 479.3813
804.0248, 479.0649
804.5070, 478.7587
804.9891, 478.4403
805.4712, 478.4581
805.9533, 479.2246
806.4354, 480.1122
806.9175, 480.7069
807.3997, 481.0112
807.8818, 480.9425
808.3639, 480.3921
808.8460, 479.8963
809.3281, 480.3314
809.8102, 481.2287
810.2924, 481.3034
810.7745, 480.3238
811.2566, 479.1038
811.7387, 477.8959
812.2208, 476.9144
812.7029, 476.4218
813.1851, 476.7361
813.6672, 476.7495
814.1493, 476.2264
814.6314, 475.6046
815.1135, 475.2356
815.5956, 475.1237
816.0778, 474.9439
816.5599, 474.6407
817.0420, 474.5854
817.5241, 475.5590
818.0062, 476.8502
818.4883, 477.2091
818.9705, 476.3418
819.4526, 475.6660
819.9347, 475.9827
820.4168, 476.6458
820.8989, 477.2687
821.3810, 477.9404
821.8632, 478.0419
822.3453, 477.2922
822.8274, 476.5924
823.3095, 476.9178
823.7916, 478.0062
824.2737, 478.4157
824.7559, 478.0826
825.2380, 477.2849
825.7201, 475.4126
826.2022, 473.7122
826.6843, 473.7114
827.1664, 475.7951
827.6486, 477.4961
828.1307, 478.1759
828.6128, 478.3989
829.0949, 478.2917
829.5770, 477.8037
830.0591, 477.9396
830.5413, 478.8336
831.0234, 479.5244
831.5055, 478.8047
831.9876, 477.5388
832.4697, 477.6642
832.9518, 479.1500
833.4340, 480.4767
833.9161, 480.8281
834.3982, 480.6586
834.8803, 480.0381
835.3624, 478.9319
835.8445, 478.3963
836.3267, 478.6304
836.8088, 479.0613
837.2909, 479.5370
837.7730, 479.9948
838.2551, 479.7303
838.7372, 478.8291
839.2194, 478.5937
839.7015, 480.6723
840.1836, 483.2439
840.6657, 484.4477
841.1478, 484.4424
841.6299, 484.4352
842.1121, 484.8824
842.5942, 485.3124
843.0763, 485.6046
843.5584, 485.7489
844.0405, 485.6850
844.5226, 485.3881
845.0048, 484.9632
845.4869, 484.1668
845.9690, 483.4960
846.4511, 484.0757
846.9332, 485.6476
847.4153, 487.3757
847.8975, 489.5213
848.3796, 491.0396
848.8617, 490.8233
849.3438, 489.5302
849.8259, 489.4063
850.3080, 491.0426
850.7902, 492.7072
851.2723, 494.1619
851.7544, 495.2716
852.2365, 495.3483
852.7186, 494.6376
853.2007, 494.6032
853.6829, 496.0718
854.1650, 497.9203
854.6471, 499.5088
855.1292, 500.7270
855.6113, 501.3906
856.0934, 500.1491
856.5756, 500.1188
857.0577, 502.2423
857.5398, 505.2057
858.0219, 507.1331
858.5040, 507.9660
858.9861, 508.8149
859.4683, 509.8498
859.9504, 511.0126
860.4325, 512.1393
860.9146, 513.3606
861.3967, 514.9971
861.8788, 517.4805
862.3610, 519.3953
862.8431, 519.2974
863.3252, 518.9561
863.8073, 520.1024
864.2894, 523.5091
864.7715, 526.0538
865.2537, 527.6097
865.7358, 528.5833
866.2179, 529.2955
866.7000, 529.7702
867.1821, 529.9015
867.6642, 529.6582
868.1464, 529.8393
868.6285, 531.1996
869.1106, 533.0431
869.5927, 535.1569
870.0748, 537.8526
870.5569, 538.6041
871.0391, 536.1376
871.5212, 534.0776
872.0033, 535.0014
872.4854, 538.3868
872.9675, 540.3250
873.4496, 540.8865
873.9318, 540.8603
874.4139, 540.2307
874.8960, 539.6658
875.3781, 540.2812
875.8602, 541.7967
876.3423, 541.9105
876.8245, 538.6873
877.3066, 535.6018
877.7887, 533.5684
878.2708, 532.3890
878.7529, 531.4809
879.2350, 530.8580
879.7172, 529.5387
880.1993, 526.6456
880.6814, 523.4201
881.1635, 521.5123
881.6456, 520.5588
882.1277, 519.7051
882.6099, 519.1219
883.0920, 518.0140
883.5741, 515.4372
884.0562, 512.5466
884.5383, 511.3344
885.0204, 512.1448
885.5026, 512.4714
885.9847, 511.8800
886.4668, 510.6278
886.9489, 508.5000
887.4310, 506.0710
887.9131, 504.5651
888.3953, 504.4404
888.8774, 504.8167
889.3595, 506.0124
889.8416, 507.0891
890.3237, 507.0685
890.8058, 505.3286
891.2880, 504.3932
891.7701, 504.5017
892.2522, 504.6812
892.7343, 503.8630
893.2164, 502.4412
893.6985, 501.5625
894.1807, 501.3166
894.6628, 500.9550
895.1449, 499.3198
895.6270, 497.9637
896.1091, 498.4012
896.5912, 500.9005
897.0734, 501.4362
897.5555, 499.0448
898.0376, 496.9823
898.5197, 497.0138
899.0018, 498.5099
899.4839, 499.4588
899.9661, 499.8728
900.4482, 499.8211
900.9303, 499.1784
901.4124, 498.2461
901.8945, 496.7504
902.3766, 495.0912
902.8588, 494.6267
903.3409, 496.5542
903.8230, 497.6123
904.3051, 496.9574
904.7872, 495.4620
905.2693, 494.9109
905.7515, 495.1373
906.2336, 495.0313
906.7157, 494.0801
907.1978, 493.2831
907.6799, 493.7885
908.1620, 494.8110
908.6442, 495.3978
909.1263, 495.0404
909.6084, 494.7950
910.0905, 494.8615
910.5726, 494.8207
911.0547, 494.1390
911.5369, 492.9047
912.0190, 492.1032
912.5011, 491.8032
912.9832, 491.7412
913.4653, 491.5941
913.9474, 491.6570
914.4296, 492.4670
914.9117, 494.1163
915.3938, 494.9816
915.8759, 494.3044
916.3580, 493.5289
916.8401, 493.1967
917.3223, 493.2361
917.8044, 493.2285
918.2865, 493.1846
918.7686, 493.3530
919.2507, 494.1588
919.7328, 494.9837
920.2150, 495.2208
920.6971, 494.9996
921.1792, 494.6493
921.6613, 494.0150
922.1434, 493.6313
922.6255, 493.8478
923.1077, 494.1067
923.5898, 492.9395
924.0719, 490.5132
924.5540, 489.8873
925.0361, 492.0301
925.5182, 494.6089
926.0004, 495.5632
926.4825, 495.4669
926.9646, 494.9326
927.4467, 493.8245
927.9288, 493.0066
928.4109, 492.6971
928.8931, 492.5107
929.3752, 492.0732
929.8573, 491.4009
930.3394, 491.5114
930.8215, 492.4064
931.3036, 493.3877
931.7858, 494.1312
932.2679, 494.5882
932.7500, 494.5156
933.2321, 494.0278
933.7142, 493.9337
934.1964, 495.2266
934.6785, 495.7979
935.1606, 494.7545
935.6427, 492.8316
936.1248, 492.3325
936.6069, 493.1541
937.0891, 494.1335
937.5712, 495.0464
938.0533, 495.6494
938.5354, 495.6436
939.0175, 495.1935
939.4996, 494.5392
939.9818, 493.0456
940.4639, 492.4148
940.9460, 492.9857
941.4281, 494.0225
941.9102, 494.9161
942.3923, 495.6469
942.8745, 495.8429
943.3566, 495.4556
943.8387, 495.3495
944.3208, 496.5995
944.8029, 498.1660
945.2850, 499.1795
945.7672, 499.5392
946.2493, 499.8003
946.7314, 499.9112
947.2135, 500.1593
947.6956, 500.8868
948.1777, 501.7351
948.6599, 500.9524
949.1420, 498.8811
949.6241, 497.4984
950.1062, 498.2647
950.5883, 499.3918
951.0704, 499.5870
951.5526, 499.2928
952.0347, 499.3630
952.5168, 500.1292
952.9989, 500.6867
953.4810, 500.8391
953.9631, 501.0230
954.4453, 501.9263
954.9274, 503.3260
955.4095, 504.4075
955.8916, 505.0313
956.3737, 505.6463
956.8558, 506.7390
957.3380, 507.7809
957.8201, 508.3951
958.3022, 508.5516
958.7843, 508.3516
959.2664, 507.6466
959.7485, 507.0254
960.2307, 506.6953
960.7128, 506.6960
961.1949, 507.3773
961.6770, 508.5272
962.1591, 509.3835
962.6412, 509.4396
963.1234, 509.3233
963.6055, 509.1217
964.0876, 508.9878
964.5697, 509.1710
965.0518, 509.7229
965.5339, 510.3688
966.0161, 511.0565
966.4982, 511.9454
966.9803, 513.1898
967.4624, 514.7833
967.9445, 516.8754
968.4266, 519.6185
968.9088, 521.8109
969.3909, 522.7364
969.8730, 523.2159
970.3551, 523.4653
970.8372, 523.5343
971.3193, 524.7379
971.8015, 527.0978
972.2836, 529.4987
972.7657, 531.2711
973.2478, 532.7689
973.7299, 534.2625
974.2120, 535.8373
974.6942, 537.7194
975.1763, 540.7381
975.6584, 542.9714
976.1405, 543.8365
976.6226, 544.2292
977.1047, 545.6497
977.5869, 547.9582
978.0690, 549.4034
978.5511, 549.6769
979.0332, 549.6122
979.5153, 549.6740
979.9974, 549.8879
980.4796, 550.5587
980.9617, 551.8948
981.4438, 551.7618
981.9259, 549.6188
982.4080, 547.0004
982.8901, 544.2437
983.3723, 541.6901
983.8544, 540.8419
984.3365, 541.2761
984.8186, 541.2408
985.3007, 539.8696
985.7828, 537.8164
986.2650, 534.8100
986.7471, 531.5139
987.2292, 528.9635
987.7113, 527.1610
988.1934, 526.3048
988.6755, 526.6741
989.1577, 526.9479
989.6398, 524.9809
990.1219, 522.1843
990.6040, 521.2852
991.0861, 522.6180
991.5682, 523.5377
992.0504, 523.1483
992.5325, 521.8831
993.0146, 519.6052
993.4967, 516.6660
993.9788, 514.8431
994.4609, 514.1408
994.9431, 513.8522
995.4252, 513.8701
995.9073, 513.9136
996.3894, 513.5777
996.8715, 513.0896
997.3536, 512.8115
997.8358, 513.0961
998.3179, 513.1857
998.8000, 512.8817
999.2821, 512.6516
999.7642, 513.1884
1000.246, 514.2520
1000.728, 514.2931
1001.211, 513.2820
1001.693, 512.5947
1002.175, 513.9390
1002.657, 515.1777
1003.139, 514.5228
1003.621, 512.2828
1004.103, 511.1676
1004.585, 511.4874
1005.068, 511.7378
1005.550, 511.4296
1006.032, 511.0028
1006.514, 511.0458
1006.996, 511.5308
1007.478, 512.5607
1007.960, 514.7471
1008.442, 515.9742
1008.924, 514.3298
1009.407, 512.6144
1009.889, 512.9948
1010.371, 515.5956
1010.853, 516.1978
1011.335, 514.7852
1011.817, 513.4823
1012.299, 513.8417
1012.781, 514.8459
1013.263, 515.6090
1013.746, 516.2288
1014.228, 517.1945
1014.710, 519.4315
1015.192, 520.2836
1015.674, 518.7950
1016.156, 516.7101
1016.638, 516.7922
1017.120, 518.4659
1017.603, 520.0657
1018.085, 521.3659
1018.567, 522.1829
1019.049, 522.1422
1019.531, 521.7932
1020.013, 521.4693
1020.495, 521.1780
1020.977, 520.8240
1021.459, 520.3351
1021.942, 520.4217
1022.424, 521.6194
1022.906, 523.3386
1023.388, 525.0054
1023.870, 526.5601
1024.352, 527.8824
1024.834, 528.8234
1025.316, 529.6850
1025.799, 530.4449
1026.281, 531.2266
1026.763, 531.9836
1027.245, 532.8166
1027.727, 534.7821
1028.209, 537.8804
1028.691, 540.5877
1029.173, 541.5403
1029.656, 542.0396
1030.138, 542.6977
1030.620, 543.6249
1031.102, 545.1578
1031.584, 547.4157
1032.066, 549.8519
1032.548, 552.4573
1033.030, 554.9017
1033.512, 556.1583
1033.995, 557.0585
1034.477, 559.2727
1034.959, 563.7947
1035.441, 567.1816
1035.923, 567.7113
1036.405, 567.9109
1036.887, 569.2444
1037.369, 571.5127
1037.851, 572.9976
1038.334, 573.7331
1038.816, 574.2200
1039.298, 574.7447
1039.780, 575.1165
1040.262, 575.2873
1040.744, 575.1996
1041.226, 574.8312
1041.708, 574.5170
1042.191, 572.8473
1042.673, 569.4713
1043.155, 565.6242
1043.637, 562.3182
1044.119, 559.4859
1044.601, 557.1642
1045.083, 555.2830
1045.565, 553.1898
1046.047, 550.6135
1046.530, 547.7264
1047.012, 544.2761
1047.494, 540.7665
1047.976, 539.0051
1048.458, 538.6969
1048.940, 537.5477
1049.422, 534.6464
1049.904, 531.6367
1050.386, 529.5421
1050.869, 528.0687
1051.351, 526.8182
1051.833, 525.5516
1052.315, 526.0378
1052.797, 528.8389
1053.279, 530.8024
1053.761, 529.5770
1054.243, 526.6980
1054.726, 524.2974
1055.208, 522.4397
1055.690, 521.2999
1056.172, 520.9963
1056.654, 521.4631
1057.136, 523.1076
1057.618, 524.9048
1058.100, 525.6322
1058.583, 525.4169
1059.065, 525.1223
1059.547, 524.8090
1060.029, 524.0552
1060.511, 522.1359
1060.993, 520.1213
1061.475, 518.1389
1061.957, 516.5945
1062.439, 517.5419
1062.922, 521.5792
1063.404, 524.3358
1063.886, 524.5511
1064.368, 523.5411
1064.850, 522.5075
1065.332, 521.4630
1065.814, 520.3236
1066.296, 518.9183
1066.778, 518.2216
1067.261, 518.3939
1067.743, 519.1026
1068.225, 520.4967
1068.707, 522.1544
1069.189, 522.3118
1069.671, 521.4070
1070.153, 521.0297
1070.635, 522.7853
1071.118, 523.9835
1071.600, 522.8511
1072.082, 521.0701
1072.564, 520.3566
1073.046, 520.8188
1073.528, 520.9364
1074.010, 520.6405
1074.492, 520.6273
1074.974, 521.9136
1075.457, 523.3087
1075.939, 523.7431
1076.421, 523.3444
1076.903, 522.7820
1077.385, 521.9557
1077.867, 521.3107
1078.349, 520.7852
1078.831, 520.8493
1079.313, 522.8919
1079.796, 525.6850
1080.278, 526.9003
1080.760, 526.1628
1081.242, 525.2458
1081.724, 524.4125
1082.206, 523.8825
1082.688, 523.7426
1083.170, 523.9737
1083.652, 524.8553
1084.135, 526.1637
1084.617, 526.6649
1085.099, 525.7658
1085.581, 524.5000
1086.063, 522.7906
1086.545, 521.5661
1087.027, 521.8085
1087.509, 523.7405
1087.992, 524.8164
1088.474, 524.9978
1088.956, 525.0187
1089.438, 525.3126
1089.920, 525.6798
1090.402, 525.9640
1090.884, 526.1465
1091.366, 526.1719
1091.849, 525.7888
1092.331, 525.7337
1092.813, 526.1252
1093.295, 526.5687
1093.777, 526.6331
1094.259, 526.4684
1094.741, 526.3599
1095.223, 526.3245
1095.705, 526.3577
1096.188, 526.6075
1096.670, 526.7296
1097.152, 526.5278
1097.634, 526.2896
1098.116, 526.8038
1098.598, 527.8395
1099.080, 527.8171
1099.562, 526.3645
1100.044, 525.3212
1100.527, 526.4169
1101.009, 527.8823
1101.491, 528.6190
1101.973, 528.6822
1102.455, 528.1956
1102.937, 527.1125
1103.419, 526.7086
1103.901, 527.6360
1104.384, 528.8182
1104.866, 528.9882
1105.348, 528.8332
1105.830, 529.2878
1106.312, 530.7838
1106.794, 531.3743
1107.276, 530.7683
1107.758, 530.2674
1108.240, 530.6684
1108.723, 531.5961
1109.205, 532.8638
1109.687, 534.0892
1110.169, 534.4098
1110.651, 532.5828
1111.133, 531.2752
1111.615, 530.8209
1112.097, 530.6970
1112.579, 530.4785
1113.062, 530.1924
1113.544, 529.7720
1114.026, 529.3018
1114.508, 529.3178
1114.990, 530.7751
1115.472, 531.9573
1115.954, 532.1715
1116.436, 531.8101
1116.919, 531.1795
1117.401, 530.3368
1117.883, 530.5272
1118.365, 531.9213
1118.847, 533.2513
1119.329, 533.6314
1119.811, 533.5472
1120.293, 533.0698
1120.776, 532.3945
1121.258, 532.2303
1121.740, 532.6000
1122.222, 533.4411
1122.704, 535.0067
1123.186, 535.9714
1123.668, 533.9052
1124.150, 531.1525
1124.632, 530.4714
1125.115, 532.5023
1125.597, 533.9857
1126.079, 534.9706
1126.561, 535.0118
1127.043, 533.4278
1127.525, 531.6318
1128.007, 532.5260
1128.489, 534.6820
1128.971, 535.4886
1129.454, 533.4634
1129.936, 532.5616
1130.418, 533.5291
1130.900, 534.8910
1131.382, 536.0131
1131.864, 536.7599
1132.346, 536.5146
1132.828, 535.5536
1133.311, 534.7548
1133.793, 534.3827
1134.275, 534.3802
1134.757, 535.0280
1135.239, 535.6718
1135.721, 535.6068
1136.203, 534.9626
1136.685, 534.7450
1137.167, 534.9694
1137.650, 535.5914
1138.132, 537.4695
1138.614, 538.7403
1139.096, 537.8771
1139.578, 536.2537
1140.060, 535.8185
1140.542, 536.5874
1141.024, 537.0079
1141.506, 536.9542
1141.989, 536.7155
1142.471, 536.0836
1142.953, 535.7433
1143.435, 536.7426
1143.917, 538.4072
1144.399, 538.3668
1144.881, 536.3436
1145.363, 534.5845
1145.846, 533.4088
1146.328, 533.1174
1146.810, 535.1710
1147.292, 537.4421
1147.774, 537.2555
1148.256, 538.4513
1148.738, 539.5432
1149.220, 538.2075
1149.703, 540.2763
1150.185, 538.8326
1150.667, 536.5145
1151.149, 537.0284
1151.631, 538.7281
1152.113, 539.2259
1152.595, 537.9050
1153.077, 537.2159
1153.559, 537.4291
1154.042, 537.9440
1154.524, 538.5677
1155.006, 539.2781
1155.488, 539.9363
1155.970, 540.6804
1156.452, 541.9237
1156.934, 544.3663
1157.416, 545.3458
1157.898, 544.0558
1158.381, 542.3922
1158.863, 541.2142
1159.345, 540.5356
1159.827, 540.5645
1160.309, 541.1298
1160.791, 541.7836
1161.273, 542.6370
1161.755, 543.0934
1162.238, 543.0556
1162.720, 542.6202
1163.202, 541.4652
1163.684, 539.9333
1164.166, 540.1453
1164.648, 541.7106
1165.130, 542.8900
1165.612, 542.8215
1166.094, 542.2065
1166.577, 540.5361
1167.059, 539.0974
1167.541, 539.4124
1168.023, 541.2486
1168.505, 542.8216
1168.987, 544.0033
1169.469, 544.2567
1169.951, 541.8152
1170.433, 540.0298
1170.916, 541.2051
1171.398, 543.3917
1171.880, 544.0257
1172.362, 543.2067
1172.844, 542.9593
1173.326, 543.4171
1173.808, 543.3695
1174.290, 540.7879
1174.773, 538.6952
1175.255, 539.4041
1175.737, 541.6609
1176.219, 543.2920
1176.701, 544.3131
1177.183, 544.7729
1177.665, 544.6689
1178.147, 544.2787
1178.630, 543.5012
1179.112, 542.8148
1179.594, 542.6091
1180.076, 542.7710
1180.558, 542.9770
1181.040, 543.2349
1181.522, 543.2136
1182.004, 542.7525
1182.486, 542.6581
1182.969, 543.9569
1183.451, 545.6573
1183.933, 547.1826
1184.415, 548.4011
1184.897, 548.7969
1185.379, 548.3388
1185.861, 547.1873
1186.343, 545.1321
1186.825, 543.5045
1187.308, 544.2811
1187.790, 545.6498
1188.272, 545.7609
1188.754, 544.5642
1189.236, 543.4700
1189.718, 542.3661
1190.200, 542.8055
1190.682, 545.8478
1191.165, 549.0096
1191.647, 549.5535
1192.129, 548.8575
1192.611, 548.4034
1193.093, 548.3744
1193.575, 547.5998
1194.057, 545.8784
1194.539, 544.8944
1195.021, 545.6412
1195.504, 546.6810
1195.986, 545.9312
1196.468, 544.7354
1196.950, 544.9633
1197.432, 547.0333
1197.914, 548.7680
1198.396, 550.1813
1198.878, 551.1136
1199.360, 551.3218
1199.843, 551.2594
1200.325, 551.7384
1200.807, 552.1613
1201.289, 551.4494
1201.771, 549.0128
1202.253, 547.9727
1202.735, 548.5431
1203.217, 549.1689
1203.700, 548.7988
1204.182, 548.2672
1204.664, 548.8599
1205.146, 549.8267
1205.628, 549.8474
1206.110, 548.3259
1206.592, 547.4969
1207.074, 547.4139
1207.557, 547.5967
1208.039, 547.7873
1208.521, 548.0204
1209.003, 548.2999
1209.485, 548.6584
1209.967, 549.2141
1210.449, 550.2985
1210.931, 550.3153
1211.413, 548.9688
1211.896, 548.4767
1212.378, 551.6641
1212.860, 555.3849
1213.342, 556.0076
1213.824, 554.6971
1214.306, 553.8366
1214.788, 553.8630
1215.270, 553.4869
1215.752, 552.6232
1216.235, 551.8458
1216.717, 551.5642
1217.199, 551.5852
1217.681, 551.7780
1218.163, 552.1164
1218.645, 552.5186
1219.127, 552.9097
1219.609, 553.9551
1220.092, 555.8671
1220.574, 556.7256
1221.056, 553.3327
1221.538, 549.7103
1222.020, 550.1866
1222.502, 553.2058
1222.984, 554.9281
1223.466, 555.0389
1223.948, 554.6808
1224.431, 553.8875
1224.913, 553.0480
1225.395, 552.0690
1225.877, 551.5511
1226.359, 552.2207
1226.841, 553.7040
1227.323, 555.1912
1227.805, 556.8793
1228.287, 556.8304
1228.770, 554.8199
1229.252, 552.9028
1229.734, 552.5732
1230.216, 553.1035
1230.698, 554.5106
1231.180, 556.2288
1231.662, 557.0527
1232.144, 556.9375
1232.627, 556.4189
1233.109, 555.5208
1233.591, 554.8754
1234.073, 555.0651
1234.555, 555.5500
1235.037, 556.4988
1235.519, 557.2755
1236.001, 556.3676
1236.484, 553.7870
1236.966, 552.5623
1237.448, 552.9686
1237.930, 553.5200
1238.412, 552.3767
1238.894, 551.9885
1239.376, 554.9067
1239.858, 558.8342
1240.340, 559.7990
1240.823, 558.0712
1241.305, 556.8235
1241.787, 556.3629
1242.269, 556.3189
1242.751, 556.8362
1243.233, 557.2948
1243.715, 557.4349
1244.197, 557.3635
1244.679, 557.0492
1245.162, 556.6308
1245.644, 557.1108
1246.126, 558.4993
1246.608, 559.3865
1247.090, 558.3431
1247.572, 557.5927
1248.054, 558.0421
1248.536, 558.8326
1249.019, 558.2371
1249.501, 556.9296
1249.983, 557.3948
1250.465, 559.6699
1250.947, 561.5589
1251.429, 561.7629
1251.911, 561.9332
1252.393, 562.3892
1252.875, 562.9926
1253.358, 563.9022
1253.840, 564.7095
1254.322, 564.3235
1254.804, 562.7880
1255.286, 561.2744
1255.768, 559.8845
1256.250, 558.8983
1256.732, 558.2655
1257.214, 558.3465
1257.697, 560.5159
1258.179, 563.1960
1258.661, 563.4797
1259.143, 561.6096
1259.625, 560.3850
1260.107, 560.2897
1260.589, 560.5963
1261.071, 561.3139
1261.554, 561.9503
1262.036, 561.9700
1262.518, 561.6160
1263.000, 560.9391
1263.482, 560.1102
1263.964, 559.8412
1264.446, 560.2460
1264.928, 560.7731
1265.411, 561.3621
1265.893, 561.9532
1266.375, 562.5315
1266.857, 563.0551
1267.339, 563.4791
1267.821, 563.8118
1268.303, 564.0123
1268.785, 564.0307
1269.267, 564.8127
1269.750, 566.4985
1270.232, 567.5552
1270.714, 566.2204
1271.196, 564.5352
1271.678, 563.7111
1272.160, 563.4703
1272.642, 563.4651
1273.124, 563.6825
1273.606, 563.9672
1274.089, 564.2920
1274.571, 564.4042
1275.053, 563.6999
1275.535, 563.3555
1276.017, 564.0280
1276.499, 565.0093
1276.981, 565.3284
1277.463, 565.1510
1277.946, 565.2687
1278.428, 565.6149
1278.910, 565.3734
1279.392, 563.0089
1279.874, 561.8141
1280.356, 562.7350
1280.838, 564.1765
1281.320, 564.3681
1281.802, 563.8059
1282.285, 563.3820
1282.767, 563.1531
1283.249, 563.1841
1283.731, 563.7039
1284.213, 564.0506
1284.695, 564.1378
1285.177, 564.1975
1285.659, 564.5557
1286.141, 564.9317
1286.624, 565.0522
1287.106, 564.8820
1287.588, 564.2371
1288.070, 562.8132
1288.552, 562.3020
1289.034, 562.8414
1289.516, 563.7126
1289.998, 564.5620
1290.481, 565.3236
1290.963, 566.0610
1291.445, 566.5892
1291.927, 566.5690
1292.409, 565.9406
1292.891, 565.6677
1293.373, 565.7806
1293.855, 566.3095
1294.338, 567.6904
1294.820, 568.9848
1295.302, 569.7804
1295.784, 570.2429
1296.266, 570.4566
1296.748, 570.4421
1297.230, 570.0182
1297.712, 569.4247
1298.194, 569.5792
1298.677, 571.6649
1299.159, 573.0896
1299.641, 573.3942
1300.123, 573.1440
1300.605, 572.4651
1301.087, 571.6530
1301.569, 571.6170
1302.051, 571.8635
1302.533, 571.3060
1303.016, 569.2283
##END=



