##NAMES=Aurichalcite
##RRUFFID=R060426
##IDEAL CHEMISTRY=Zn^2+^_5_(CO_3_)_2_(OH)_6_
##LOCALITY=Bisbee, Cochise County, Arizona, USA
##OWNER=RRUFF
##SOURCE=Michael Scott
##DESCRIPTION=Divergent sprays of light blue lathlike crystals
##STATUS=The identification of this mineral is confirmed by single-crystal X-ray diffraction and chemical analysis.
##URL=rruff.info/R060426
##MEASURED CHEMISTRY=(Zn_3.61_Cu_1.33_Fe^2+^_0.06_)_Î£=5_(CO_3_)_2_(OH)_6_
177.8163, 637.4449
178.2984, 629.2654
178.7805, 620.8469
179.2626, 611.3307
179.7447, 600.8337
180.2268, 589.6794
180.7090, 578.1246
181.1911, 566.2634
181.6732, 554.5013
182.1553, 542.4998
182.6374, 530.8104
183.1195, 521.1941
183.6017, 513.7490
184.0838, 507.2679
184.5659, 499.7775
185.0480, 491.6679
185.5301, 484.5836
186.0123, 479.3214
186.4944, 475.6944
186.9765, 473.5318
187.4586, 472.9448
187.9407, 473.2171
188.4228, 473.5348
188.9050, 473.8847
189.3871, 474.1836
189.8692, 474.0162
190.3513, 473.6249
190.8334, 474.7401
191.3155, 477.9863
191.7977, 481.3282
192.2798, 480.9688
192.7619, 476.9280
193.2440, 472.9381
193.7261, 470.9867
194.2082, 470.9272
194.6904, 471.0624
195.1725, 471.4844
195.6546, 471.7491
196.1367, 470.3646
196.6188, 467.0970
197.1009, 465.0862
197.5831, 466.5722
198.0652, 471.5444
198.5473, 475.9412
199.0294, 479.4863
199.5115, 482.4259
199.9937, 484.9599
200.4758, 486.8732
200.9579, 489.4612
201.4400, 493.8328
201.9221, 500.1789
202.4042, 505.4438
202.8864, 509.1435
203.3685, 511.9804
203.8506, 515.5592
204.3327, 519.8942
204.8148, 524.7381
205.2969, 530.2431
205.7791, 536.6247
206.2612, 541.9442
206.7433, 545.6434
207.2254, 548.5571
207.7075, 553.3994
208.1896, 561.3192
208.6718, 567.8708
209.1539, 570.1687
209.6360, 567.2294
210.1181, 565.0663
210.6002, 564.3176
211.0823, 564.3730
211.5645, 563.5945
212.0466, 562.0078
212.5287, 559.5472
213.0108, 556.0909
213.4929, 551.4417
213.9750, 546.4853
214.4572, 541.0104
214.9393, 535.3763
215.4214, 530.6282
215.9035, 527.2302
216.3856, 523.7200
216.8678, 519.1631
217.3499, 512.8284
217.8320, 507.6329
218.3141, 503.9302
218.7962, 501.3946
219.2783, 499.2022
219.7605, 497.6318
220.2426, 495.8989
220.7247, 493.3125
221.2068, 488.9508
221.6889, 486.4134
222.1710, 486.2565
222.6532, 487.9364
223.1353, 489.8434
223.6174, 492.1731
224.0995, 494.4545
224.5816, 496.3954
225.0637, 497.7579
225.5459, 499.4438
226.0280, 501.4483
226.5101, 503.8112
226.9922, 506.8145
227.4743, 511.5557
227.9564, 515.2633
228.4386, 516.3638
228.9207, 513.3996
229.4028, 511.4400
229.8849, 511.4635
230.3670, 512.3156
230.8492, 510.5333
231.3313, 504.6909
231.8134, 498.4052
232.2955, 493.2138
232.7776, 489.5704
233.2597, 486.1818
233.7419, 483.0288
234.2240, 480.1275
234.7061, 477.6637
235.1882, 476.0141
235.6703, 474.2578
236.1524, 471.9718
236.6346, 468.9687
237.1167, 465.8231
237.5988, 462.1468
238.0809, 458.4537
238.5630, 455.9503
239.0451, 455.1184
239.5273, 454.7769
240.0094, 454.6574
240.4915, 455.4061
240.9736, 454.5536
241.4557, 451.3768
241.9378, 446.9047
242.4200, 443.3321
242.9021, 441.1939
243.3842, 439.0488
243.8663, 436.3027
244.3484, 432.6625
244.8306, 429.2517
245.3127, 425.9840
245.7948, 423.0193
246.2769, 420.7778
246.7590, 419.8312
247.2411, 418.6740
247.7233, 416.6097
248.2054, 413.1221
248.6875, 410.7400
249.1696, 410.0455
249.6517, 410.0928
250.1338, 409.3550
250.6160, 407.5586
251.0981, 405.4574
251.5802, 403.1747
252.0623, 400.5486
252.5444, 398.5276
253.0265, 397.2808
253.5087, 396.5183
253.9908, 395.8784
254.4729, 395.3955
254.9550, 394.9624
255.4371, 394.5444
255.9192, 394.1395
256.4014, 393.8666
256.8835, 394.0085
257.3656, 394.0006
257.8477, 392.8364
258.3298, 389.3525
258.8120, 387.3779
259.2941, 388.3572
259.7762, 392.5504
260.2583, 395.3442
260.7404, 396.5901
261.2225, 396.6427
261.7047, 395.7482
262.1868, 393.5307
262.6689, 391.2566
263.1510, 388.8316
263.6331, 386.3170
264.1152, 385.7274
264.5974, 387.9041
265.0795, 390.7148
265.5616, 391.8312
266.0437, 390.4745
266.5258, 390.0977
267.0079, 391.5099
267.4901, 394.5327
267.9722, 397.5919
268.4543, 401.0179
268.9364, 403.9078
269.4185, 405.2635
269.9006, 404.6103
270.3828, 404.5347
270.8649, 405.5508
271.3470, 407.4294
271.8291, 408.9876
272.3112, 409.9757
272.7933, 411.3237
273.2755, 414.0975
273.7576, 418.6893
274.2397, 421.8021
274.7218, 422.4761
275.2039, 421.7176
275.6860, 422.9092
276.1682, 426.6211
276.6503, 430.1807
277.1324, 431.5013
277.6145, 430.3253
278.0966, 430.4903
278.5787, 432.7552
279.0609, 435.9888
279.5430, 437.3170
280.0251, 436.3324
280.5072, 436.0072
280.9893, 438.8517
281.4715, 444.8213
281.9536, 448.0450
282.4357, 447.6884
282.9178, 445.6588
283.3999, 445.2936
283.8820, 446.6845
284.3642, 447.9348
284.8463, 448.1058
285.3284, 447.2628
285.8105, 446.2212
286.2926, 444.9060
286.7747, 443.5882
287.2569, 442.8567
287.7390, 442.6685
288.2211, 441.9959
288.7032, 439.7704
289.1853, 436.6188
289.6674, 435.5674
290.1496, 436.8240
290.6317, 438.7764
291.1138, 439.5612
291.5959, 439.3669
292.0780, 439.5365
292.5602, 441.2699
293.0423, 443.4024
293.5244, 442.0645
294.0065, 437.1010
294.4886, 432.5044
294.9707, 432.7338
295.4529, 436.5332
295.9350, 439.3858
296.4171, 440.1079
296.8992, 439.2756
297.3813, 437.1950
297.8634, 434.0269
298.3456, 431.5074
298.8277, 431.2011
299.3098, 432.5220
299.7919, 434.3429
300.2740, 436.6776
300.7561, 438.9615
301.2383, 440.3398
301.7204, 440.9496
302.2025, 441.3104
302.6846, 441.5446
303.1667, 441.8036
303.6488, 442.3427
304.1310, 443.2342
304.6131, 444.2896
305.0952, 445.2765
305.5773, 446.2622
306.0594, 447.4246
306.5415, 449.5236
307.0237, 451.5233
307.5058, 452.0151
307.9879, 450.6300
308.4700, 449.3616
308.9521, 449.9128
309.4343, 451.6025
309.9164, 453.2314
310.3985, 454.1418
310.8806, 454.9023
311.3627, 455.8041
311.8448, 456.8656
312.3270, 458.4098
312.8091, 461.5112
313.2912, 464.9280
313.7733, 467.1938
314.2554, 466.4717
314.7375, 465.6078
315.2197, 466.1525
315.7018, 467.9837
316.1839, 469.9321
316.6660, 471.7203
317.1481, 473.2816
317.6302, 474.5078
318.1124, 474.7432
318.5945, 475.4347
319.0766, 477.2788
319.5587, 480.0225
320.0408, 482.8040
320.5229, 485.6698
321.0051, 488.2766
321.4872, 490.4206
321.9693, 491.8934
322.4514, 493.1904
322.9335, 493.9928
323.4156, 494.7158
323.8978, 496.1592
324.3799, 499.1469
324.8620, 502.2822
325.3441, 505.0078
325.8262, 506.9911
326.3083, 509.4103
326.7905, 513.4274
327.2726, 517.5940
327.7547, 520.0802
328.2368, 519.0851
328.7189, 518.2521
329.2010, 518.6578
329.6832, 520.5544
330.1653, 520.8290
330.6474, 518.0560
331.1295, 514.6901
331.6116, 512.8165
332.0938, 514.2755
332.5759, 514.2864
333.0580, 512.0726
333.5401, 507.8217
334.0222, 502.9633
334.5043, 496.7040
334.9865, 490.8695
335.4686, 486.6883
335.9507, 485.0099
336.4328, 482.5943
336.9149, 478.9510
337.3970, 474.5738
337.8792, 470.8688
338.3613, 467.8241
338.8434, 465.3288
339.3255, 463.3434
339.8076, 461.8858
340.2898, 460.8864
340.7719, 460.5207
341.2540, 460.3118
341.7361, 459.4337
342.2182, 457.8209
342.7003, 456.3257
343.1825, 455.2104
343.6646, 454.4595
344.1467, 453.8803
344.6288, 453.3558
345.1109, 453.5548
345.5930, 455.5339
346.0752, 459.0963
346.5573, 462.5209
347.0394, 465.4458
347.5215, 467.9487
348.0036, 470.2739
348.4857, 472.4056
348.9679, 474.2862
349.4500, 475.3946
349.9321, 476.2032
350.4142, 478.3063
350.8963, 482.3630
351.3784, 486.7280
351.8606, 488.9117
352.3427, 489.4128
352.8248, 490.1159
353.3069, 492.8144
353.7890, 496.0477
354.2711, 497.8630
354.7533, 498.0582
355.2354, 497.3364
355.7175, 496.3784
356.1996, 494.9018
356.6817, 492.4126
357.1638, 487.6482
357.6460, 482.5604
358.1281, 478.5937
358.6102, 475.7205
359.0923, 473.1302
359.5744, 470.8846
360.0565, 468.5014
360.5387, 465.4969
361.0208, 461.4536
361.5029, 457.1064
361.9850, 452.0540
362.4671, 446.8292
362.9492, 443.1583
363.4314, 443.0645
363.9135, 443.6513
364.3956, 443.1955
364.8777, 440.7244
365.3598, 438.9788
365.8419, 439.0508
366.3241, 440.0804
366.8062, 440.7809
367.2883, 440.5664
367.7704, 440.3971
368.2526, 440.5097
368.7347, 440.9321
369.2168, 441.5241
369.6989, 442.4932
370.1810, 443.4979
370.6631, 444.2255
371.1453, 444.0042
371.6274, 444.5042
372.1095, 445.9524
372.5916, 448.3047
373.0737, 451.3517
373.5558, 455.9592
374.0380, 460.0141
374.5201, 461.9117
375.0022, 460.2451
375.4843, 461.2168
375.9664, 465.8716
376.4485, 472.5159
376.9307, 477.8361
377.4128, 481.4477
377.8949, 485.1756
378.3770, 489.8062
378.8591, 495.2625
379.3412, 500.3044
379.8234, 504.6922
380.3055, 509.3566
380.7876, 515.5927
381.2697, 523.3453
381.7518, 530.6375
382.2339, 536.8148
382.7161, 542.2981
383.1982, 548.1659
383.6803, 554.3595
384.1624, 560.5967
384.6445, 566.0284
385.1266, 571.3047
385.6088, 578.2223
386.0909, 587.2874
386.5730, 597.2191
387.0551, 606.9379
387.5372, 616.2548
388.0193, 624.8054
388.5015, 631.4874
388.9836, 637.6890
389.4657, 645.3328
389.9478, 654.5832
390.4299, 663.0547
390.9120, 669.4473
391.3942, 674.0344
391.8763, 677.0364
392.3584, 677.3435
392.8405, 677.2340
393.3226, 678.8210
393.8047, 681.3519
394.2869, 681.3770
394.7690, 676.5416
395.2511, 669.4788
395.7332, 661.8218
396.2154, 654.1964
396.6975, 645.2581
397.1796, 634.0121
397.6617, 621.2856
398.1438, 608.6080
398.6259, 596.0086
399.1081, 583.5266
399.5902, 571.0480
400.0723, 558.4504
400.5544, 546.5680
401.0365, 535.4299
401.5186, 524.9306
402.0008, 515.1385
402.4829, 506.2302
402.9650, 497.4791
403.4471, 488.3026
403.9292, 479.1944
404.4113, 472.6334
404.8935, 469.3314
405.3756, 466.8319
405.8577, 463.9693
406.3398, 460.7441
406.8219, 457.3295
407.3040, 453.6323
407.7862, 449.9325
408.2683, 446.7737
408.7504, 444.1936
409.2325, 441.0200
409.7146, 436.0139
410.1967, 430.3380
410.6789, 428.2231
411.1610, 429.7970
411.6431, 431.6908
412.1252, 430.5912
412.6073, 427.4688
413.0894, 425.1510
413.5716, 424.4492
414.0537, 424.2475
414.5358, 422.9283
415.0179, 420.9118
415.5000, 419.5325
415.9821, 419.8645
416.4643, 421.0174
416.9464, 422.1263
417.4285, 423.1078
417.9106, 424.1507
418.3927, 425.6588
418.8748, 427.1976
419.3570, 428.2275
419.8391, 427.9556
420.3212, 427.7420
420.8033, 427.8776
421.2854, 428.4659
421.7675, 429.9535
422.2497, 433.4236
422.7318, 437.1334
423.2139, 440.2523
423.6960, 442.9715
424.1781, 444.4862
424.6602, 442.9481
425.1424, 440.6249
425.6245, 440.8813
426.1066, 445.5809
426.5887, 450.5233
427.0709, 455.1664
427.5530, 459.5073
428.0351, 462.4152
428.5172, 463.3171
428.9993, 463.6008
429.4814, 464.1584
429.9636, 464.9393
430.4457, 466.2697
430.9278, 468.4462
431.4099, 470.9148
431.8920, 472.5057
432.3741, 473.1997
432.8563, 473.2433
433.3384, 472.2525
433.8205, 470.5233
434.3026, 470.6231
434.7847, 472.8348
435.2668, 474.6349
435.7490, 472.3871
436.2311, 467.3453
436.7132, 464.2220
437.1953, 465.0204
437.6774, 467.2079
438.1595, 467.8586
438.6417, 467.0454
439.1238, 465.0650
439.6059, 461.1403
440.0880, 456.6324
440.5701, 452.7995
441.0522, 449.7143
441.5344, 447.7179
442.0165, 447.7187
442.4986, 448.6952
442.9807, 449.3985
443.4628, 449.1932
443.9449, 448.8552
444.4271, 448.4644
444.9092, 448.1073
445.3913, 448.2469
445.8734, 449.5492
446.3555, 450.9451
446.8376, 451.8532
447.3198, 451.7725
447.8019, 452.0991
448.2840, 452.4425
448.7661, 453.3691
449.2482, 455.8673
449.7303, 461.4722
450.2125, 465.9263
450.6946, 467.6997
451.1767, 467.1178
451.6588, 468.9586
452.1409, 473.8122
452.6230, 479.7487
453.1052, 485.4455
453.5873, 490.9254
454.0694, 496.4494
454.5515, 501.9024
455.0337, 507.6602
455.5158, 514.6806
455.9979, 522.8879
456.4800, 530.2557
456.9621, 535.6773
457.4442, 539.8004
457.9264, 543.9908
458.4085, 548.2403
458.8906, 552.8477
459.3727, 558.2272
459.8548, 564.0549
460.3369, 569.9124
460.8191, 576.2465
461.3012, 581.4900
461.7833, 583.9096
462.2654, 584.3447
462.7475, 584.5328
463.2296, 585.9493
463.7118, 586.7401
464.1939, 585.6736
464.6760, 582.6483
465.1581, 579.2698
465.6402, 576.8430
466.1223, 573.7719
466.6045, 568.9516
467.0866, 560.3451
467.5687, 552.3304
468.0508, 545.7378
468.5329, 539.7864
469.0150, 532.5020
469.4972, 522.4868
469.9793, 513.4019
470.4614, 506.6255
470.9435, 502.2756
471.4256, 497.9994
471.9077, 493.8820
472.3899, 489.6865
472.8720, 485.0444
473.3541, 479.8130
473.8362, 475.2896
474.3183, 471.7760
474.8004, 468.7957
475.2826, 465.3651
475.7647, 461.5237
476.2468, 457.8524
476.7289, 454.4153
477.2110, 451.3860
477.6931, 449.5302
478.1753, 448.8327
478.6574, 447.9857
479.1395, 445.8593
479.6216, 442.9088
480.1037, 439.6884
480.5858, 435.9282
481.0680, 432.6900
481.5501, 431.0761
482.0322, 430.5004
482.5143, 429.7563
482.9964, 427.7520
483.4786, 426.0155
483.9607, 425.4278
484.4428, 426.1308
484.9249, 426.7564
485.4070, 426.5424
485.8892, 426.4736
486.3713, 427.3052
486.8534, 430.5758
487.3355, 432.4007
487.8176, 431.6687
488.2997, 429.7749
488.7819, 429.8708
489.2640, 432.9811
489.7461, 435.7504
490.2282, 436.9449
490.7103, 436.6820
491.1924, 436.8179
491.6746, 437.3457
492.1567, 438.2782
492.6388, 439.4493
493.1209, 440.9491
493.6030, 443.6605
494.0851, 448.1023
494.5673, 452.7530
495.0494, 455.0466
495.5315, 455.5579
496.0136, 456.2784
496.4957, 458.9116
496.9778, 461.7935
497.4600, 463.0595
497.9421, 462.7958
498.4242, 462.0406
498.9063, 460.3737
499.3884, 459.0819
499.8705, 459.6754
500.3527, 463.7786
500.8348, 466.4325
501.3169, 464.6146
501.7990, 460.6089
502.2811, 457.6116
502.7632, 457.6715
503.2454, 457.2308
503.7275, 454.8464
504.2096, 450.8369
504.6917, 448.8222
505.1738, 450.5690
505.6559, 451.9538
506.1381, 450.4682
506.6202, 445.0252
507.1023, 441.2399
507.5844, 439.4889
508.0665, 438.7293
508.5486, 437.6697
509.0308, 436.2964
509.5129, 434.9715
509.9950, 433.7394
510.4771, 432.6381
510.9592, 431.8324
511.4413, 431.2826
511.9235, 430.6409
512.4056, 429.6223
512.8877, 428.3899
513.3698, 427.1595
513.8519, 425.9445
514.3340, 424.7252
514.8162, 423.8967
515.2983, 422.9077
515.7804, 421.0216
516.2625, 416.6611
516.7446, 413.1053
517.2267, 412.4352
517.7089, 413.5927
518.1910, 413.9860
518.6731, 412.3446
519.1552, 410.5344
519.6373, 409.2310
520.1194, 408.4901
520.6016, 407.6952
521.0837, 407.2564
521.5658, 406.3147
522.0479, 403.9292
522.5300, 399.3390
523.0121, 396.2669
523.4943, 395.3544
523.9764, 395.5318
524.4585, 394.8357
524.9406, 393.2535
525.4227, 391.9081
525.9048, 391.3311
526.3870, 391.2104
526.8691, 391.0291
527.3513, 390.7388
527.8334, 389.6681
528.3155, 386.3970
528.7976, 382.3737
529.2797, 379.7547
529.7618, 378.9048
530.2440, 378.7208
530.7261, 378.4501
531.2082, 378.3775
531.6903, 378.8718
532.1724, 381.0810
532.6545, 382.7862
533.1367, 383.2115
533.6188, 382.5589
534.1009, 381.5827
534.5830, 379.3918
535.0651, 377.8853
535.5472, 378.0352
536.0294, 380.2500
536.5115, 381.0805
536.9936, 379.8105
537.4757, 378.1616
537.9578, 377.7003
538.4399, 378.6913
538.9221, 379.1280
539.4042, 378.6954
539.8863, 377.8263
540.3684, 377.0687
540.8505, 376.4584
541.3326, 376.4815
541.8148, 378.0107
542.2969, 379.8868
542.7790, 379.6525
543.2611, 377.5661
543.7432, 375.6885
544.2253, 375.9032
544.7075, 376.7768
545.1896, 376.8128
545.6717, 375.7165
546.1538, 374.3063
546.6359, 372.6822
547.1180, 371.0778
547.6002, 369.7624
548.0823, 369.3348
548.5644, 368.5804
549.0465, 366.8222
549.5286, 364.5517
550.0107, 363.2160
550.4929, 363.2680
550.9750, 363.5860
551.4571, 363.9427
551.9392, 364.3386
552.4213, 364.2584
552.9034, 363.6646
553.3856, 362.7130
553.8677, 361.3736
554.3498, 359.6943
554.8319, 358.3309
555.3140, 357.4305
555.7961, 356.5448
556.2783, 354.4949
556.7604, 351.9333
557.2425, 350.8192
557.7246, 352.9205
558.2067, 355.6947
558.6888, 356.6450
559.1710, 356.1713
559.6531, 355.5957
560.1352, 356.2722
560.6173, 356.4834
561.0994, 354.5008
561.5815, 349.7080
562.0637, 347.0471
562.5458, 349.8236
563.0279, 353.5580
563.5100, 354.9290
563.9921, 351.8636
564.4742, 350.1132
564.9564, 350.3636
565.4385, 351.5365
565.9206, 351.8147
566.4027, 351.0526
566.8848, 350.0727
567.3669, 349.0451
567.8491, 347.9985
568.3312, 346.8741
568.8133, 345.6972
569.2954, 345.0991
569.7775, 346.0433
570.2596, 347.6952
570.7418, 348.3018
571.2239, 347.7305
571.7060, 347.3703
572.1881, 349.0765
572.6702, 351.2167
573.1523, 351.8788
573.6345, 349.6972
574.1166, 347.5922
574.5987, 346.6691
575.0808, 346.5309
575.5629, 346.5080
576.0450, 346.2531
576.5272, 346.4155
577.0093, 347.5517
577.4914, 349.3629
577.9735, 349.7151
578.4556, 347.8920
578.9377, 346.0945
579.4199, 345.6063
579.9020, 346.4742
580.3841, 346.2660
580.8662, 344.7868
581.3483, 343.3067
581.8304, 343.2204
582.3126, 344.2188
582.7947, 345.3109
583.2768, 346.4220
583.7589, 347.2481
584.2410, 347.4234
584.7231, 347.0750
585.2053, 346.4557
585.6874, 345.5564
586.1696, 344.5098
586.6517, 342.7871
587.1338, 340.7792
587.6159, 340.2120
588.0980, 343.3886
588.5801, 346.4358
589.0623, 347.6862
589.5444, 346.9585
590.0265, 345.5393
590.5086, 342.7196
590.9907, 340.1197
591.4728, 339.0897
591.9550, 339.8581
592.4371, 340.8948
592.9192, 342.1954
593.4013, 343.4850
593.8834, 344.3449
594.3655, 344.8201
594.8477, 345.1593
595.3298, 345.4400
595.8119, 345.6317
596.2940, 345.6084
596.7761, 345.4395
597.2582, 345.3548
597.7404, 346.3629
598.2225, 346.8072
598.7046, 344.4974
599.1867, 339.4089
599.6688, 336.6818
600.1509, 340.3539
600.6331, 345.0190
601.1152, 347.1559
601.5973, 345.1343
602.0794, 344.2851
602.5615, 345.5013
603.0436, 347.0404
603.5258, 346.7174
604.0079, 344.1043
604.4900, 341.9053
604.9721, 340.4546
605.4542, 339.8135
605.9363, 340.4642
606.4185, 342.2664
606.9006, 344.0073
607.3827, 345.2018
607.8648, 345.9518
608.3469, 346.3519
608.8290, 346.4077
609.3112, 346.1261
609.7933, 345.6727
610.2754, 344.7690
610.7575, 342.8504
611.2396, 339.6678
611.7217, 337.2943
612.2039, 336.5234
612.6860, 336.6649
613.1681, 337.2113
613.6502, 338.1798
614.1323, 339.5251
614.6144, 341.7482
615.0966, 343.8864
615.5787, 344.1436
616.0608, 342.0211
616.5429, 341.4511
617.0250, 344.0794
617.5071, 347.9619
617.9893, 348.0505
618.4714, 344.8321
618.9535, 342.1057
619.4356, 342.4876
619.9177, 344.1089
620.3998, 344.6357
620.8820, 344.1247
621.3641, 343.3999
621.8462, 342.5896
622.3283, 341.9594
622.8104, 341.7525
623.2925, 342.0906
623.7747, 342.4455
624.2568, 342.7950
624.7389, 343.0675
625.2210, 343.1733
625.7031, 342.8912
626.1852, 342.9813
626.6674, 343.7208
627.1495, 344.5722
627.6316, 344.4467
628.1137, 343.2886
628.5958, 342.5753
629.0779, 342.9066
629.5601, 343.7319
630.0422, 344.1928
630.5243, 344.2505
631.0064, 343.7279
631.4885, 341.4098
631.9706, 339.2295
632.4528, 339.8930
632.9349, 343.0893
633.4170, 344.7057
633.8991, 340.2576
634.3812, 335.7067
634.8633, 335.0016
635.3455, 340.2289
635.8276, 343.9709
636.3097, 345.9600
636.7918, 346.4736
637.2739, 345.2599
637.7560, 341.4373
638.2382, 339.6005
638.7203, 340.4908
639.2024, 342.7632
639.6845, 344.6745
640.1666, 346.2231
640.6487, 347.3963
641.1309, 348.2673
641.6130, 348.6617
642.0951, 347.9336
642.5772, 346.4701
643.0594, 345.4013
643.5415, 345.7481
644.0236, 346.2348
644.5057, 346.1983
644.9879, 345.6285
645.4700, 344.7000
645.9521, 342.5848
646.4342, 340.9308
646.9163, 340.4819
647.3984, 341.3970
647.8806, 342.6638
648.3627, 344.8373
648.8448, 346.3721
649.3269, 345.3915
649.8090, 341.9062
650.2911, 340.4718
650.7733, 341.7285
651.2554, 343.6461
651.7375, 343.8092
652.2196, 342.7482
652.7017, 341.7153
653.1838, 340.9221
653.6660, 340.5166
654.1481, 340.9137
654.6302, 341.7216
655.1123, 342.2570
655.5944, 342.1028
656.0765, 341.8247
656.5587, 341.5574
657.0408, 341.2925
657.5229, 340.9771
658.0050, 340.5295
658.4871, 340.1562
658.9692, 339.8619
659.4514, 339.6741
659.9335, 340.0284
660.4156, 340.9892
660.8977, 341.9453
661.3798, 342.5366
661.8619, 342.7734
662.3441, 342.5544
662.8262, 341.8620
663.3083, 341.2712
663.7904, 341.2029
664.2725, 341.5054
664.7546, 342.1445
665.2368, 343.4619
665.7189, 344.1634
666.2010, 342.8141
666.6831, 341.0822
667.1652, 340.9838
667.6473, 344.4170
668.1295, 346.4257
668.6116, 346.3819
669.0937, 344.9645
669.5758, 343.0694
670.0579, 340.4978
670.5400, 339.4359
671.0222, 341.2660
671.5043, 344.1883
671.9864, 343.9143
672.4685, 341.0956
672.9506, 338.9751
673.4327, 340.1732
673.9149, 342.2905
674.3970, 343.1968
674.8791, 342.9892
675.3612, 342.7467
675.8433, 342.3511
676.3254, 342.4943
676.8076, 344.0054
677.2897, 347.4008
677.7718, 348.8358
678.2539, 347.3919
678.7360, 345.2708
679.2181, 343.8298
679.7003, 343.1201
680.1824, 342.7578
680.6645, 342.7635
681.1466, 343.0226
681.6287, 343.2419
682.1108, 343.6124
682.5930, 344.9352
683.0751, 347.8065
683.5572, 350.1380
684.0393, 349.4979
684.5214, 347.4027
685.0035, 346.0263
685.4857, 346.0585
685.9678, 346.8739
686.4499, 349.1758
686.9320, 352.0419
687.4141, 353.4956
687.8962, 353.1049
688.3784, 351.9655
688.8605, 349.7661
689.3426, 347.2159
689.8247, 346.9185
690.3068, 348.9328
690.7889, 351.6773
691.2711, 354.8710
691.7532, 358.0628
692.2353, 360.1893
692.7174, 361.3426
693.1995, 362.2140
693.6816, 362.7056
694.1638, 363.4572
694.6459, 364.8949
695.1280, 367.0574
695.6101, 369.8800
696.0922, 373.7068
696.5743, 377.9169
697.0565, 382.2816
697.5386, 387.0183
698.0207, 391.0173
698.5028, 393.8360
698.9849, 396.8681
699.4670, 401.6906
699.9492, 408.1136
700.4313, 414.1226
700.9135, 419.3867
701.3956, 424.4930
701.8777, 430.0971
702.3598, 435.9428
702.8419, 441.4727
703.3240, 445.9826
703.8062, 451.2824
704.2883, 459.2264
704.7704, 468.2472
705.2525, 475.9072
705.7346, 480.8253
706.2167, 485.6869
706.6989, 491.0003
707.1810, 496.2994
707.6631, 500.5969
708.1452, 503.7975
708.6273, 506.0609
709.1094, 506.9116
709.5916, 507.3694
710.0737, 511.0139
710.5558, 516.9037
711.0379, 520.3178
711.5200, 518.0575
712.0021, 512.6680
712.4843, 505.7211
712.9664, 497.4276
713.4485, 488.6352
713.9306, 478.7275
714.4127, 469.3048
714.8948, 461.6096
715.3770, 455.5956
715.8591, 448.4037
716.3412, 439.0122
716.8233, 430.4796
717.3054, 424.5452
717.7875, 421.1279
718.2697, 419.6474
718.7518, 420.1890
719.2339, 421.3888
719.7160, 422.3181
720.1981, 423.0445
720.6802, 423.5939
721.1624, 423.9334
721.6445, 424.4885
722.1266, 424.5651
722.6087, 425.5230
723.0908, 428.6877
723.5729, 435.4878
724.0551, 441.9438
724.5372, 447.6209
725.0193, 453.0694
725.5014, 458.7806
725.9835, 464.8098
726.4656, 470.6175
726.9478, 475.9949
727.4299, 481.7367
727.9120, 489.5283
728.3941, 498.6894
728.8762, 506.5368
729.3583, 511.6381
729.8405, 516.7258
730.3226, 524.4892
730.8047, 533.7488
731.2868, 542.3075
731.7689, 549.3532
732.2510, 555.9002
732.7332, 561.8884
733.2153, 567.5637
733.6974, 573.7620
734.1795, 581.3087
734.6616, 586.8874
735.1437, 589.1110
735.6259, 589.2979
736.1080, 591.1383
736.5901, 594.3531
737.0722, 596.4714
737.5543, 595.7322
738.0364, 593.7139
738.5186, 592.2800
739.0007, 591.1658
739.4828, 589.3896
739.9649, 586.9752
740.4470, 583.3797
740.9291, 577.7263
741.4113, 570.2415
741.8934, 563.9069
742.3755, 559.5746
742.8576, 554.8482
743.3397, 548.6276
743.8218, 541.0907
744.3040, 533.6482
744.7861, 526.3705
745.2682, 518.8871
745.7503, 509.7778
746.2324, 500.7552
746.7145, 495.5096
747.1967, 493.8401
747.6788, 491.8568
748.1609, 486.2997
748.6430, 480.5519
749.1251, 476.8025
749.6072, 475.5694
750.0894, 474.8882
750.5715, 475.0455
751.0536, 475.2342
751.5357, 475.1166
752.0178, 474.7491
752.4999, 473.2977
752.9821, 470.6962
753.4642, 467.4204
753.9463, 464.1905
754.4284, 460.5694
754.9105, 455.4127
755.3926, 448.3847
755.8748, 441.3338
756.3569, 435.7055
756.8390, 430.3739
757.3211, 424.0754
757.8032, 415.5591
758.2853, 408.5956
758.7675, 403.9286
759.2496, 400.3052
759.7318, 396.5694
760.2139, 392.6817
760.6960, 389.2262
761.1781, 386.2751
761.6602, 383.7649
762.1423, 381.7796
762.6245, 380.1656
763.1066, 378.5063
763.5887, 376.6414
764.0708, 374.9879
764.5529, 373.5794
765.0350, 372.6755
765.5172, 372.5844
765.9993, 375.4033
766.4814, 376.1771
766.9635, 373.4864
767.4456, 369.5598
767.9277, 367.3582
768.4099, 367.1178
768.8920, 366.9457
769.3741, 366.6110
769.8562, 366.0576
770.3383, 364.7273
770.8204, 363.0998
771.3026, 362.6758
771.7847, 364.9033
772.2668, 366.6050
772.7489, 364.7036
773.2310, 361.1091
773.7131, 358.8447
774.1953, 359.5311
774.6774, 360.3885
775.1595, 361.3806
775.6416, 362.2220
776.1237, 362.2923
776.6058, 361.4925
777.0880, 360.6669
777.5701, 359.9980
778.0522, 359.4381
778.5343, 358.9421
779.0164, 358.4917
779.4985, 358.0103
779.9807, 356.9624
780.4628, 356.4907
780.9449, 358.4789
781.4270, 361.4149
781.9091, 362.1944
782.3912, 356.5863
782.8734, 353.4717
783.3555, 355.2323
783.8376, 359.6967
784.3197, 361.3195
784.8018, 359.8870
785.2839, 358.3490
785.7661, 357.6500
786.2482, 357.3056
786.7303, 356.4437
787.2124, 355.2644
787.6945, 354.3134
788.1766, 354.1280
788.6588, 353.9514
789.1409, 353.2469
789.6230, 352.2415
790.1051, 351.5596
790.5872, 351.0997
791.0693, 351.2554
791.5515, 352.3489
792.0336, 353.9858
792.5157, 355.1790
792.9978, 355.9316
793.4799, 355.7471
793.9620, 353.8652
794.4442, 351.6270
794.9263, 351.3292
795.4084, 352.3183
795.8905, 352.7670
796.3726, 350.6463
796.8547, 349.0752
797.3369, 349.9656
797.8190, 352.5163
798.3011, 353.7866
798.7832, 352.8524
799.2653, 352.4683
799.7474, 353.6366
800.2296, 355.5369
800.7117, 355.6214
801.1938, 354.0591
801.6759, 352.6860
802.1580, 352.1963
802.6401, 352.3654
803.1223, 353.6331
803.6044, 355.3906
804.0865, 356.0322
804.5686, 353.8376
805.0507, 351.7061
805.5328, 350.0815
806.0150, 349.2399
806.4971, 350.4034
806.9792, 354.7660
807.4613, 357.1444
807.9434, 355.4445
808.4255, 351.6284
808.9077, 349.9232
809.3898, 350.0641
809.8719, 350.9090
810.3540, 352.7552
810.8361, 354.2478
811.3182, 353.7800
811.8004, 352.1562
812.2825, 351.2777
812.7646, 352.2826
813.2467, 353.3279
813.7288, 354.4338
814.2109, 355.2208
814.6931, 354.2695
815.1752, 351.2577
815.6573, 349.5502
816.1394, 350.4849
816.6215, 352.5993
817.1037, 353.6230
817.5858, 353.8316
818.0679, 353.9699
818.5500, 354.0136
819.0322, 354.4380
819.5143, 356.1442
819.9964, 358.2891
820.4785, 358.9854
820.9606, 357.1454
821.4427, 355.7333
821.9249, 355.1670
822.4070, 355.2728
822.8891, 355.9524
823.3712, 357.1260
823.8533, 357.9184
824.3354, 358.0827
824.8176, 357.7888
825.2997, 356.9962
825.7818, 355.9354
826.2639, 355.0140
826.7460, 354.2578
827.2281, 353.7884
827.7103, 353.5296
828.1924, 353.6187
828.6745, 354.3817
829.1566, 356.0707
829.6387, 357.3785
830.1208, 358.0630
830.6030, 358.3920
831.0851, 358.6031
831.5672, 358.7733
832.0493, 359.1820
832.5314, 360.0402
833.0135, 360.7654
833.4957, 360.8528
833.9778, 360.6191
834.4599, 360.4365
834.9420, 360.1767
835.4241, 360.3307
835.9063, 361.1847
836.3884, 362.1197
836.8705, 362.0758
837.3526, 361.1125
837.8347, 361.5336
838.3168, 363.8331
838.7990, 366.4206
839.2811, 367.6253
839.7632, 368.0974
840.2453, 368.7547
840.7274, 369.8990
841.2095, 370.8278
841.6917, 371.1084
842.1738, 371.2075
842.6559, 371.4810
843.1380, 371.9464
843.6201, 372.6307
844.1022, 373.6928
844.5844, 374.4256
845.0665, 373.9957
845.5486, 372.7296
846.0307, 371.3836
846.5128, 370.0162
846.9949, 369.0359
847.4771, 369.1856
847.9592, 369.4994
848.4413, 369.0387
848.9234, 367.3897
849.4055, 366.8775
849.8876, 368.3213
850.3698, 369.6664
850.8519, 369.4803
851.3340, 367.9341
851.8161, 367.2628
852.2982, 367.4596
852.7803, 368.0426
853.2625, 369.0948
853.7446, 370.0579
854.2267, 369.9250
854.7088, 368.8426
855.1909, 368.7997
855.6730, 372.2228
856.1552, 374.9255
856.6373, 375.1479
857.1194, 373.1935
857.6015, 371.3107
858.0836, 369.3822
858.5657, 368.3398
859.0479, 368.8012
859.5300, 370.2979
860.0121, 372.5695
860.4942, 375.2082
860.9763, 376.7410
861.4584, 375.6910
861.9406, 374.0896
862.4227, 372.2774
862.9048, 370.6449
863.3869, 370.4519
863.8690, 372.4453
864.3511, 374.0904
864.8333, 375.0100
865.3154, 374.9973
865.7975, 372.6335
866.2796, 368.7123
866.7617, 366.8728
867.2438, 369.8399
867.7260, 372.7788
868.2081, 370.8934
868.6902, 366.9026
869.1723, 365.0308
869.6544, 368.4394
870.1365, 370.8010
870.6187, 371.6913
871.1008, 371.5290
871.5829, 370.5755
872.0650, 368.8887
872.5471, 367.6988
873.0292, 367.2943
873.5114, 366.8879
873.9935, 365.6159
874.4756, 363.8864
874.9577, 362.1285
875.4399, 360.2318
875.9220, 358.8995
876.4041, 358.9917
876.8862, 359.1457
877.3683, 358.3682
877.8505, 356.4207
878.3326, 355.1784
878.8147, 354.6880
879.2968, 354.5482
879.7789, 354.4473
880.2610, 354.4610
880.7432, 355.1537
881.2253, 356.4716
881.7074, 356.5238
882.1895, 352.5917
882.6716, 348.8136
883.1537, 347.7073
883.6359, 349.1249
884.1180, 350.1927
884.6001, 350.9212
885.0822, 351.2895
885.5643, 351.1752
886.0464, 350.7623
886.5286, 350.5163
887.0107, 350.3766
887.4928, 350.0876
887.9749, 349.2569
888.4570, 348.5100
888.9391, 348.3362
889.4213, 348.5061
889.9034, 348.3026
890.3855, 347.7754
890.8676, 346.6108
891.3497, 344.3499
891.8318, 341.9820
892.3140, 341.2718
892.7961, 342.0284
893.2782, 343.7451
893.7603, 346.9545
894.2424, 349.4248
894.7245, 349.0416
895.2067, 347.1340
895.6888, 345.2980
896.1709, 343.6166
896.6530, 342.2991
897.1351, 341.2189
897.6172, 340.7201
898.0994, 341.5766
898.5815, 343.5203
899.0636, 344.3745
899.5457, 343.8657
900.0278, 343.4123
900.5099, 344.6347
900.9921, 346.1499
901.4742, 346.5832
901.9563, 345.6161
902.4384, 344.8864
902.9205, 345.0945
903.4026, 344.8153
903.8848, 342.9113
904.3669, 339.7724
904.8490, 338.8930
905.3311, 340.2027
905.8132, 341.6526
906.2953, 341.9755
906.7775, 341.8633
907.2596, 341.8517
907.7417, 341.9820
908.2238, 342.3575
908.7059, 343.5765
909.1880, 344.3237
909.6702, 344.2911
910.1523, 343.6600
910.6344, 342.5836
911.1165, 341.0874
911.5986, 340.4803
912.0807, 341.4767
912.5629, 342.6051
913.0450, 341.9990
913.5271, 340.4866
914.0092, 339.2012
914.4913, 337.7604
914.9734, 337.9736
915.4556, 341.4157
915.9377, 345.3224
916.4198, 347.2930
916.9019, 347.2624
917.3840, 346.0863
917.8661, 343.6504
918.3483, 341.5229
918.8304, 341.3638
919.3125, 342.1725
919.7946, 342.8539
920.2767, 343.2895
920.7589, 343.4860
921.2410, 342.9587
921.7231, 342.7392
922.2052, 343.5448
922.6873, 345.1255
923.1694, 344.8219
923.6516, 342.5581
924.1337, 341.1174
924.6158, 342.5178
925.0979, 344.9626
925.5800, 346.3429
926.0621, 346.8438
926.5443, 346.9445
927.0264, 346.1392
927.5085, 345.8405
927.9906, 346.9648
928.4727, 348.2999
928.9548, 347.2802
929.4370, 343.7660
929.9191, 342.3206
930.4012, 344.0897
930.8833, 346.6005
931.3654, 347.1172
931.8475, 346.6344
932.3297, 346.4895
932.8118, 346.9931
933.2939, 347.6720
933.7761, 349.0961
934.2582, 349.9542
934.7403, 349.0820
935.2224, 346.3962
935.7045, 345.6066
936.1866, 346.7755
936.6688, 347.8640
937.1509, 347.0928
937.6330, 345.7087
938.1151, 345.1656
938.5972, 345.3402
939.0793, 345.3908
939.5615, 344.6890
940.0436, 344.3523
940.5257, 344.9369
941.0078, 345.9204
941.4899, 345.5706
941.9720, 343.9648
942.4542, 343.2180
942.9363, 344.1573
943.4184, 345.6021
943.9005, 346.6607
944.3826, 347.2510
944.8647, 347.2113
945.3469, 345.7395
945.8290, 345.1549
946.3111, 346.2474
946.7932, 347.4507
947.2753, 347.1657
947.7574, 345.4981
948.2396, 344.9635
948.7217, 345.6543
949.2038, 346.2532
949.6859, 345.3904
950.1680, 344.2372
950.6501, 343.7583
951.1323, 344.0079
951.6144, 344.6988
952.0965, 345.9869
952.5786, 347.3598
953.0607, 348.7879
953.5428, 350.1090
954.0250, 351.0166
954.5071, 351.4330
954.9892, 350.7806
955.4713, 348.0424
955.9534, 345.5252
956.4355, 345.0494
956.9177, 345.8534
957.3998, 346.8514
957.8819, 347.8582
958.3640, 349.1923
958.8461, 351.0704
959.3282, 352.8683
959.8104, 353.8221
960.2925, 354.1295
960.7746, 354.4432
961.2567, 354.8172
961.7388, 354.9655
962.2209, 354.3998
962.7031, 353.8043
963.1852, 353.3428
963.6673, 353.1113
964.1494, 354.6655
964.6315, 358.8730
965.1136, 361.6968
965.5958, 360.9975
966.0779, 358.6510
966.5600, 358.3109
967.0421, 359.5546
967.5242, 361.2975
968.0063, 364.3045
968.4885, 366.1053
968.9706, 364.5938
969.4527, 362.0231
969.9348, 361.1747
970.4169, 362.4489
970.8990, 363.3869
971.3812, 363.7011
971.8633, 364.4817
972.3454, 367.6653
972.8275, 371.5746
973.3096, 373.8253
973.7917, 374.1768
974.2739, 373.5724
974.7560, 370.5598
975.2381, 368.6621
975.7202, 369.6042
976.2023, 372.7220
976.6844, 374.6667
977.1666, 375.4680
977.6487, 376.2311
978.1308, 377.5961
978.6129, 378.8077
979.0950, 378.5375
979.5771, 377.7240
980.0593, 377.9019
980.5414, 380.8059
981.0235, 382.6843
981.5056, 382.8641
981.9877, 382.7682
982.4698, 384.1974
982.9520, 386.7682
983.4341, 387.9084
983.9162, 387.4644
984.3983, 386.7707
984.8804, 386.3494
985.3625, 386.3975
985.8447, 387.2135
986.3268, 388.7761
986.8089, 390.3440
987.2910, 392.2867
987.7731, 393.0806
988.2552, 391.8201
988.7374, 389.6928
989.2195, 388.9526
989.7016, 389.3519
990.1837, 390.3973
990.6658, 392.6543
991.1479, 394.0791
991.6301, 393.1504
992.1122, 391.3987
992.5944, 390.4355
993.0765, 390.6073
993.5586, 389.2624
994.0407, 386.0618
994.5228, 383.8518
995.0049, 386.3990
995.4871, 390.4601
995.9692, 391.6930
996.4513, 390.2384
996.9334, 388.5274
997.4155, 386.6414
997.8976, 385.5065
998.3798, 385.6753
998.8619, 386.4907
999.3440, 386.0076
999.8261, 384.4575
1000.308, 384.2033
1000.790, 386.1778
1001.272, 388.5090
1001.755, 390.2773
1002.237, 391.2213
1002.719, 390.7456
1003.201, 387.7818
1003.683, 387.0137
1004.165, 389.4130
1004.647, 391.5523
1005.129, 390.3284
1005.612, 387.3121
1006.094, 387.6785
1006.576, 390.6749
1007.058, 392.7509
1007.540, 390.5077
1008.022, 388.7181
1008.504, 390.0367
1008.986, 392.8197
1009.468, 394.2899
1009.951, 394.2835
1010.433, 394.0754
1010.915, 393.7398
1011.397, 393.7907
1011.879, 394.9295
1012.361, 396.7092
1012.843, 398.8372
1013.325, 401.3935
1013.807, 402.9587
1014.290, 402.4782
1014.772, 402.2361
1015.254, 403.4852
1015.736, 405.6718
1016.218, 406.3303
1016.700, 405.7272
1017.182, 405.4118
1017.664, 406.4774
1018.147, 407.5347
1018.629, 408.0552
1019.111, 407.8514
1019.593, 406.4997
1020.075, 403.2120
1020.557, 401.3652
1021.039, 401.3364
1021.521, 401.8074
1022.003, 401.5423
1022.486, 400.9049
1022.968, 400.8782
1023.450, 401.3663
1023.932, 400.7613
1024.414, 396.4839
1024.896, 393.3879
1025.378, 393.7601
1025.860, 396.0109
1026.343, 395.2025
1026.825, 391.6018
1027.307, 388.7421
1027.789, 387.6591
1028.271, 387.3446
1028.753, 387.5568
1029.235, 387.6790
1029.717, 386.9200
1030.199, 384.7922
1030.682, 383.1161
1031.164, 381.9088
1031.646, 381.0721
1032.128, 380.7384
1032.610, 380.6466
1033.092, 379.8194
1033.574, 378.5771
1034.056, 378.1247
1034.539, 380.3521
1035.021, 381.8030
1035.503, 380.9282
1035.985, 379.0055
1036.467, 377.5407
1036.949, 376.5437
1037.431, 376.0511
1037.913, 376.0988
1038.396, 376.3637
1038.878, 376.7828
1039.360, 377.1203
1039.842, 377.1112
1040.324, 376.7326
1040.806, 376.3050
1041.288, 375.4463
1041.770, 375.5374
1042.252, 377.3170
1042.734, 379.8967
1043.217, 381.3032
1043.699, 382.0396
1044.181, 383.4746
1044.663, 386.2951
1045.145, 389.2626
1045.627, 392.3503
1046.109, 395.0254
1046.591, 396.4964
1047.074, 396.6455
1047.556, 398.9192
1048.038, 403.3416
1048.520, 408.1777
1049.002, 411.9213
1049.484, 415.8194
1049.966, 421.0997
1050.448, 427.4313
1050.931, 433.9214
1051.413, 440.5049
1051.895, 447.0772
1052.377, 453.5244
1052.859, 460.2260
1053.341, 467.6332
1053.823, 475.8256
1054.305, 485.3639
1054.787, 496.3149
1055.270, 506.9492
1055.752, 515.3853
1056.234, 524.5895
1056.716, 535.4335
1057.198, 547.9579
1057.680, 562.4215
1058.162, 578.7540
1058.644, 595.9288
1059.126, 613.6837
1059.609, 632.1304
1060.091, 651.1766
1060.573, 670.6302
1061.055, 690.0056
1061.537, 708.9496
1062.019, 729.3957
1062.501, 751.8936
1062.983, 773.9756
1063.466, 793.5857
1063.948, 811.6724
1064.430, 829.7047
1064.912, 847.8962
1065.394, 866.9442
1065.876, 884.9785
1066.358, 906.5389
1066.840, 931.3307
1067.323, 960.7597
1067.805, 997.0140
1068.287, 1039.909
1068.769, 1086.068
1069.251, 1135.379
1069.733, 1187.568
1070.215, 1247.269
1070.697, 1305.033
1071.179, 1353.748
1071.661, 1394.261
1072.144, 1430.423
1072.626, 1463.811
1073.108, 1481.150
1073.590, 1480.508
1074.072, 1457.589
1074.554, 1403.777
1075.036, 1325.993
1075.518, 1229.632
1076.001, 1110.449
1076.483, 997.7092
1076.965, 891.4521
1077.447, 797.5737
1077.929, 720.3588
1078.411, 658.1191
1078.893, 608.2151
1079.375, 569.2491
1079.858, 536.9252
1080.340, 511.0516
1080.822, 488.6819
1081.304, 469.3341
1081.786, 452.7508
1082.268, 439.4627
1082.750, 429.6153
1083.232, 420.4640
1083.714, 411.8773
1084.197, 404.3396
1084.679, 398.7281
1085.161, 393.7846
1085.643, 388.7076
1086.125, 383.5680
1086.607, 378.3133
1087.089, 372.6313
1087.571, 368.1329
1088.054, 365.1669
1088.536, 363.0124
1089.018, 361.1087
1089.500, 359.3185
1089.982, 357.3141
1090.464, 355.0412
1090.946, 353.4623
1091.428, 353.1025
1091.911, 352.9085
1092.393, 352.6902
1092.875, 352.2890
1093.357, 351.2332
1093.839, 349.6759
1094.321, 347.9369
1094.803, 345.8141
1095.285, 344.4769
1095.767, 345.7664
1096.250, 346.8632
1096.732, 345.5392
1097.214, 342.0020
1097.696, 340.6104
1098.178, 341.2395
1098.660, 341.3820
1099.142, 339.3584
1099.624, 336.8161
1100.106, 334.4479
1100.589, 332.6099
1101.071, 331.8872
1101.553, 332.5283
1102.035, 333.4681
1102.517, 334.7736
1102.999, 335.8805
1103.481, 336.3549
1103.963, 336.3134
1104.446, 335.4558
1104.928, 334.1275
1105.410, 333.7398
1105.892, 335.5969
1106.374, 336.6841
1106.856, 336.4478
1107.338, 335.6093
1107.820, 334.9207
1108.302, 334.4456
1108.785, 334.4191
1109.267, 334.8663
1109.749, 335.1957
1110.231, 335.2152
1110.713, 335.0148
1111.195, 334.8154
1111.677, 334.3319
1112.159, 332.2167
1112.641, 328.8791
1113.124, 327.0034
1113.606, 327.5114
1114.088, 328.4436
1114.570, 329.1811
1115.052, 329.2080
1115.534, 327.6555
1116.016, 324.6899
1116.498, 323.7319
1116.981, 324.8364
1117.463, 326.0062
1117.945, 326.2056
1118.427, 326.3475
1118.909, 327.7970
1119.391, 329.5721
1119.873, 330.2711
1120.355, 329.7495
1120.838, 327.7676
1121.320, 323.7362
1121.802, 320.7699
1122.284, 322.4019
1122.766, 325.5675
1123.248, 325.0908
1123.730, 322.2824
1124.212, 320.7354
1124.694, 323.0957
1125.177, 324.3292
1125.659, 323.6308
1126.141, 322.6499
1126.623, 323.5822
1127.105, 325.4989
1127.587, 325.4974
1128.069, 323.7722
1128.551, 322.9051
1129.033, 325.1380
1129.516, 327.0121
1129.998, 327.6656
1130.480, 327.3654
1130.962, 326.2752
1131.444, 324.5821
1131.926, 322.8681
1132.408, 321.1490
1132.890, 321.0006
1133.373, 325.5588
1133.855, 329.8332
1134.337, 330.9334
1134.819, 329.5648
1135.301, 327.5546
1135.783, 324.9787
1136.265, 323.7730
1136.747, 324.8653
1137.229, 325.6898
1137.712, 323.1354
1138.194, 319.9952
1138.676, 318.8366
1139.158, 319.6883
1139.640, 321.3016
1140.122, 323.8496
1140.604, 325.5053
1141.086, 325.1539
1141.569, 324.2974
1142.051, 324.7387
1142.533, 324.4642
1143.015, 324.4013
1143.497, 325.0031
1143.979, 324.9094
1144.461, 325.8387
1144.943, 327.0800
1145.426, 328.9251
1145.908, 330.1854
1146.390, 328.0688
1146.872, 324.0078
1147.354, 320.9719
1147.836, 319.7405
1148.318, 320.0400
1148.800, 322.3976
1149.282, 324.9868
1149.765, 326.5605
1150.247, 327.1278
1150.729, 325.6515
1151.211, 322.9677
1151.693, 322.4482
1152.175, 328.7003
1152.657, 332.4618
1153.139, 331.5109
1153.621, 328.8318
1154.104, 327.8303
1154.586, 328.0471
1155.068, 328.0215
1155.550, 327.6590
1156.032, 327.1568
1156.514, 326.6167
1156.996, 325.8652
1157.478, 324.3252
1157.961, 323.0346
1158.443, 324.3467
1158.925, 327.7277
1159.407, 330.3154
1159.889, 331.7027
1160.371, 332.1464
1160.853, 330.3816
1161.335, 329.2558
1161.818, 330.9044
1162.300, 330.0153
1162.782, 330.1544
1163.264, 331.5653
1163.746, 330.8421
1164.228, 333.2128
1164.710, 335.5177
1165.192, 335.3881
1165.674, 334.3648
1166.156, 333.4577
1166.639, 332.6888
1167.121, 331.9359
1167.603, 331.2069
1168.085, 330.8124
1168.567, 330.9962
1169.049, 331.1088
1169.531, 329.8520
1170.013, 328.7569
1170.496, 329.7520
1170.978, 332.8677
1171.460, 334.9714
1171.942, 336.0721
1172.424, 336.0945
1172.906, 334.5048
1173.388, 332.6886
1173.870, 331.7039
1174.353, 331.5113
1174.835, 332.3368
1175.317, 334.5150
1175.799, 335.3732
1176.281, 334.7281
1176.763, 334.3530
1177.245, 336.1782
1177.727, 337.7842
1178.209, 335.0231
1178.692, 336.2138
1179.174, 336.2327
1179.656, 334.3568
1180.138, 335.9215
1180.620, 333.5532
1181.102, 330.8824
1181.584, 330.2296
1182.066, 330.9878
1182.548, 333.3191
1183.031, 336.3124
1183.513, 337.8307
1183.995, 337.0516
1184.477, 335.8741
1184.959, 334.2331
1185.441, 332.7186
1185.923, 331.9167
1186.405, 331.5237
1186.888, 330.9412
1187.370, 330.3825
1187.852, 330.7591
1188.334, 333.4789
1188.816, 334.2280
1189.298, 332.0981
1189.780, 329.6938
1190.262, 329.9453
1190.745, 331.5130
1191.227, 332.8409
1191.709, 333.6783
1192.191, 333.2272
1192.673, 330.0607
1193.155, 328.2302
1193.637, 328.5631
1194.119, 329.5677
1194.601, 329.7631
1195.084, 329.2864
1195.566, 328.0014
1196.048, 326.0491
1196.530, 324.8985
1197.012, 325.0390
1197.494, 325.5972
1197.976, 326.5912
1198.458, 327.5122
1198.941, 327.7343
1199.423, 327.3405
1199.905, 326.0604
1200.387, 323.9244
1200.869, 323.0478
1201.351, 324.3810
1201.833, 325.9537
1202.315, 327.6048
1202.797, 328.6338
1203.280, 327.2244
1203.762, 324.6733
1204.244, 323.5074
1204.726, 324.2154
1205.208, 323.7413
1205.690, 320.9023
1206.172, 318.1806
1206.654, 316.0847
1207.136, 314.8563
1207.619, 315.2984
1208.101, 316.7412
1208.583, 318.2492
1209.065, 319.7990
1209.547, 320.1512
1210.029, 318.9264
1210.511, 317.0497
1210.993, 314.5140
1211.476, 311.9967
1211.958, 310.1617
1212.440, 309.3788
1212.922, 310.9095
1213.404, 315.8434
1213.886, 318.2931
1214.368, 316.7583
1214.850, 315.0709
1215.333, 314.9655
1215.815, 313.5467
1216.297, 314.2114
1216.779, 312.2618
1217.261, 311.1528
1217.743, 311.3779
1218.225, 312.0338
1218.707, 313.5685
1219.189, 313.9893
1219.672, 311.7711
1220.154, 308.6547
1220.636, 307.6124
1221.118, 308.0763
1221.600, 309.1850
1222.082, 311.1523
1222.564, 312.3386
1223.046, 312.4584
1223.528, 312.4411
1224.011, 312.7777
1224.493, 313.2503
1224.975, 313.9152
1225.457, 314.3073
1225.939, 313.5137
1226.421, 310.6129
1226.903, 308.3170
1227.385, 306.4658
1227.868, 305.9326
1228.350, 307.9547
1228.832, 310.7340
1229.314, 311.7658
1229.796, 311.4944
1230.278, 310.4780
1230.760, 308.0193
1231.242, 307.3961
1231.724, 308.9903
1232.207, 310.5558
1232.689, 310.3296
1233.171, 309.8054
1233.653, 311.7411
1234.135, 314.4462
1234.617, 314.8900
1235.099, 311.8711
1235.581, 309.3721
1236.063, 307.3305
1236.546, 306.4292
1237.028, 308.3274
1237.510, 310.3113
1237.992, 308.7809
1238.474, 305.6572
1238.956, 304.3023
1239.438, 305.5190
1239.920, 305.4206
1240.403, 303.8534
1240.885, 303.0966
1241.367, 305.5880
1241.849, 308.4928
1242.331, 309.0748
1242.813, 308.5819
1243.295, 309.0682
1243.777, 311.0705
1244.260, 310.8336
1244.742, 308.3534
1245.224, 306.5357
1245.706, 308.5868
1246.188, 310.3930
1246.670, 308.1204
1247.152, 304.5287
1247.634, 303.6397
1248.116, 305.7430
1248.599, 305.9067
1249.081, 304.2662
1249.563, 303.2113
1250.045, 304.5356
1250.527, 306.4146
1251.009, 308.5715
1251.491, 310.2725
1251.973, 310.6124
1252.455, 309.6521
1252.938, 308.8183
1253.420, 308.1296
1253.902, 307.5951
1254.384, 306.8673
1254.866, 306.7844
1255.348, 308.6053
1255.830, 310.2295
1256.313, 309.2881
1256.795, 306.3595
1257.277, 305.0532
1257.759, 305.2005
1258.241, 305.7451
1258.723, 307.0206
1259.205, 307.3904
1259.687, 306.1395
1260.169, 304.6204
1260.651, 303.7934
1261.134, 303.6894
1261.616, 305.1159
1262.098, 307.4223
1262.580, 308.4159
1263.062, 304.9358
1263.544, 303.9669
1264.026, 307.0520
1264.508, 310.4056
1264.991, 310.5709
1265.473, 308.9775
1265.955, 307.8926
1266.437, 307.4061
1266.919, 307.6994
1267.401, 310.0278
1267.883, 310.6557
1268.365, 309.0455
1268.848, 307.6429
1269.330, 309.2142
1269.812, 311.3849
1270.294, 310.3271
1270.776, 307.6694
1271.258, 307.2709
1271.740, 310.5771
1272.222, 312.1831
1272.704, 311.8619
1273.187, 311.1749
1273.669, 311.3882
1274.151, 311.5219
1274.633, 309.9734
1275.115, 310.9306
1275.597, 308.4568
1276.079, 311.4627
1276.561, 312.8195
1277.043, 312.5378
1277.526, 311.6382
1278.008, 309.9357
1278.490, 308.7406
1278.972, 309.2651
1279.454, 310.4148
1279.936, 311.1735
1280.418, 311.5308
1280.900, 311.1875
1281.383, 310.2975
1281.865, 309.8581
1282.347, 311.1684
1282.829, 311.8263
1283.311, 310.4532
1283.793, 308.8315
1284.275, 308.2864
1284.757, 308.6002
1285.240, 309.1099
1285.722, 309.6972
1286.204, 309.9347
1286.686, 308.9567
1287.168, 309.0052
1287.650, 310.6425
1288.132, 312.4751
1288.614, 313.5214
1289.096, 314.1201
1289.578, 315.3996
1290.061, 316.6665
1290.543, 316.3668
1291.025, 312.8434
1291.507, 310.8580
1291.989, 310.6053
1292.471, 311.0019
1292.953, 311.8876
1293.435, 312.5033
1293.918, 311.1368
1294.400, 309.2956
1294.882, 309.7047
1295.364, 312.9520
1295.846, 312.9975
1296.328, 309.7821
1296.810, 307.1990
1297.292, 307.1193
1297.775, 308.1567
1298.257, 310.1956
1298.739, 312.1484
1299.221, 312.9236
1299.703, 312.6576
1300.185, 312.7944
1300.667, 313.2337
1301.149, 313.3053
1301.631, 312.5620
1302.114, 311.8155
1302.596, 311.6673
##END=



