##NAMES=Azurite
##RRUFFID=R050497
##IDEAL CHEMISTRY=Cu^2+^_3_(CO_3_)_2_(OH)_2_
##LOCALITY=Tsumeb mine, Tsumeb, Otavi District, Oshikoto, Namibia
##OWNER=RRUFF
##SOURCE=Marcus Origlieri
##DESCRIPTION=Blue prismatic single crystal
##STATUS=The identification of this mineral has been confirmed by X-ray diffraction and chemical analysis
##URL=rruff.info/R050497
##MEASURED CHEMISTRY=Cu_3.00_(CO_3_)_2_(OH)_2_
90.52570, 0.0000000E+00
91.00781, 3.935795
91.48993, 3.320233
91.97205, 2.921885
92.45416, 2.646218
92.93628, 2.502455
93.41840, 2.599169
93.90051, 3.026189
94.38263, 3.572126
94.86475, 3.706380
95.34686, 3.477559
95.82898, 3.111851
96.31110, 2.686579
96.79321, 2.231545
97.27533, 1.838637
97.75745, 1.684676
98.23956, 1.209752
98.72168, 0.8754800
99.20380, 0.9567470
99.68591, 1.327707
100.1680, 1.764126
100.6501, 1.134250
101.1323, 0.6993000
101.6144, 0.8277050
102.0965, 1.604432
102.5786, 1.858928
103.0607, 1.395895
103.5428, 0.5867350
104.0250, 2.1159999E-02
104.5071, 0.2737070
104.9892, 0.3640420
105.4713, 0.2541790
105.9534, 0.1426530
106.4355, 0.5660330
106.9177, 1.236442
107.3998, 1.944503
107.8819, 2.033175
108.3640, 0.7085220
108.8461, 0.6028160
109.3282, 1.248393
109.8104, 0.7536760
110.2925, 0.1344700
110.7746, 0.4891480
111.2567, 1.150269
111.7388, 2.155331
112.2209, 4.066536
112.7031, 6.033586
113.1852, 7.491534
113.6673, 7.874912
114.1494, 8.157187
114.6315, 8.567718
115.1136, 9.123162
115.5958, 9.739052
116.0779, 10.48236
116.5600, 11.24491
117.0421, 11.90194
117.5242, 12.38773
118.0063, 12.78462
118.4885, 13.07401
118.9706, 13.20086
119.4527, 13.50447
119.9348, 14.10169
120.4169, 15.00098
120.8990, 16.23610
121.3812, 17.90873
121.8633, 19.88511
122.3454, 22.13031
122.8275, 24.84419
123.3096, 27.34222
123.7917, 28.87713
124.2739, 29.63351
124.7560, 30.28885
125.2381, 31.02643
125.7202, 31.99377
126.2023, 33.38062
126.6844, 35.11942
127.1666, 37.44593
127.6487, 40.59782
128.1308, 44.60324
128.6129, 49.54955
129.0950, 55.91785
129.5771, 63.42354
130.0593, 71.10205
130.5414, 78.72663
131.0235, 86.25259
131.5056, 94.48837
131.9877, 103.3247
132.4698, 109.0066
132.9520, 107.3477
133.4341, 98.74232
133.9162, 88.69516
134.3983, 77.87305
134.8804, 66.76195
135.3625, 59.12423
135.8447, 55.03040
136.3268, 53.87272
136.8089, 55.23794
137.2910, 59.39449
137.7731, 64.33340
138.2552, 69.71516
138.7374, 75.73079
139.2195, 80.72196
139.7016, 85.34214
140.1837, 88.48371
140.6658, 87.39425
141.1479, 80.86566
141.6301, 73.01953
142.1122, 65.46278
142.5943, 57.84409
143.0764, 51.34083
143.5585, 45.99869
144.0406, 41.71610
144.5228, 37.98250
145.0049, 34.86264
145.4870, 32.34940
145.9691, 30.29013
146.4512, 28.70921
146.9333, 27.44051
147.4155, 26.53792
147.8976, 25.95345
148.3797, 25.50974
148.8618, 24.91797
149.3439, 24.72683
149.8260, 25.26301
150.3082, 26.63788
150.7903, 28.64913
151.2724, 31.53288
151.7545, 35.30114
152.2366, 38.87691
152.7188, 42.04108
153.2009, 45.09461
153.6830, 48.24138
154.1651, 52.71574
154.6472, 56.12076
155.1293, 58.02633
155.6115, 58.48054
156.0936, 57.14462
156.5757, 52.38419
157.0578, 46.34812
157.5399, 41.44743
158.0220, 38.42630
158.5042, 36.42724
158.9863, 35.26236
159.4684, 34.97928
159.9505, 35.12900
160.4326, 35.56411
160.9147, 36.34936
161.3969, 37.58226
161.8790, 39.67117
162.3611, 41.92065
162.8432, 43.96177
163.3253, 45.65960
163.8074, 47.40149
164.2896, 49.17001
164.7717, 51.07613
165.2538, 53.34756
165.7359, 55.76517
166.2180, 58.76348
166.7001, 62.69547
167.1823, 67.72463
167.6644, 73.42004
168.1465, 79.67347
168.6286, 86.35239
169.1107, 93.15598
169.5928, 100.4872
170.0750, 107.6099
170.5571, 114.2320
171.0392, 121.3648
171.5213, 126.0795
172.0034, 125.5737
172.4855, 120.3340
172.9677, 112.5735
173.4498, 101.4863
173.9319, 89.24989
174.4140, 78.90430
174.8961, 71.11112
175.3782, 65.66029
175.8604, 62.36303
176.3425, 61.13778
176.8246, 61.40218
177.3067, 63.45376
177.7888, 66.64638
178.2709, 69.74101
178.7531, 73.15005
179.2352, 75.71379
179.7173, 75.93332
180.1994, 73.83479
180.6815, 69.45996
181.1636, 61.68375
181.6458, 51.44335
182.1279, 41.74269
182.6100, 33.12453
183.0921, 25.77529
183.5742, 19.97746
184.0563, 15.84740
184.5385, 12.82447
185.0206, 10.73377
185.5027, 9.442602
185.9848, 8.424608
186.4669, 7.603971
186.9490, 6.902847
187.4312, 6.018063
187.9133, 4.936720
188.3954, 3.853115
188.8775, 2.944271
189.3596, 2.218966
189.8417, 1.748335
190.3239, 1.680080
190.8060, 1.922754
191.2881, 1.991320
191.7702, 1.851700
192.2523, 1.667562
192.7344, 1.680746
193.2166, 1.890915
193.6987, 2.054226
194.1808, 2.113461
194.6629, 2.061157
195.1450, 1.760555
195.6271, 1.141945
196.1093, 0.4531290
196.5914, 4.4957999E-02
197.0735, 7.2609000E-02
197.5556, 4.1676000E-02
198.0377, 0.2391030
198.5198, 0.7775330
199.0020, 0.6898350
199.4841, 0.2336120
199.9662, 1.415154
200.4483, 1.894861
200.9304, 1.585762
201.4125, 1.110424
201.8947, 0.6723020
202.3768, 0.2589050
202.8589, 6.6021003E-02
203.3410, 0.1565230
203.8231, 0.3868080
204.3052, 0.4604640
204.7874, 0.3236370
205.2695, 0.2552410
205.7516, 0.5068740
206.2337, 1.202995
206.7158, 1.299582
207.1979, 0.5729390
207.6801, 0.5505050
208.1622, 1.145767
208.6443, 1.076996
209.1264, 0.9179100
209.6085, 0.9653740
210.0906, 1.311926
210.5728, 1.396828
211.0549, 1.058491
211.5370, 0.5647600
212.0191, 0.6244180
212.5012, 1.515619
212.9833, 2.277702
213.4655, 2.355890
213.9476, 1.472719
214.4297, 0.9735200
214.9118, 1.037220
215.3939, 1.419949
215.8760, 1.495951
216.3581, 1.135679
216.8403, 0.7333090
217.3224, 0.4630850
217.8045, 0.3231770
218.2866, 0.3103540
218.7687, 0.4109690
219.2508, 0.6438790
219.7330, 1.106440
220.2151, 1.969707
220.6972, 2.743361
221.1793, 3.119385
221.6614, 2.832418
222.1435, 2.902712
222.6257, 3.535906
223.1078, 4.479307
223.5899, 4.969845
224.0720, 4.583626
224.5541, 4.428364
225.0362, 5.097385
225.5184, 7.032515
226.0005, 8.661873
226.4826, 9.789810
226.9647, 10.64332
227.4468, 11.88143
227.9289, 13.51866
228.4111, 15.50832
228.8932, 17.77974
229.3753, 20.10739
229.8574, 23.25717
230.3395, 27.42213
230.8216, 32.33907
231.3038, 37.42113
231.7859, 42.75681
232.2680, 48.07648
232.7501, 53.32490
233.2322, 58.76897
233.7143, 63.48912
234.1965, 67.25310
234.6786, 70.36436
235.1607, 73.72701
235.6428, 77.52354
236.1249, 81.30231
236.6070, 84.86279
237.0892, 88.13345
237.5713, 91.34412
238.0534, 94.53819
238.5355, 97.65845
239.0176, 100.4699
239.4997, 102.5316
239.9819, 104.9776
240.4640, 108.2269
240.9461, 112.2779
241.4282, 117.1342
241.9103, 122.5826
242.3924, 128.9085
242.8746, 136.7285
243.3567, 145.7383
243.8388, 156.6714
244.3209, 170.1105
244.8030, 186.8250
245.2851, 203.7817
245.7673, 221.1562
246.2494, 238.6489
246.7315, 256.0648
247.2136, 275.4122
247.6957, 291.5984
248.1778, 303.7444
248.6600, 314.3238
249.1421, 312.7144
249.6242, 296.4647
250.1063, 269.4466
250.5884, 237.9389
251.0705, 197.7162
251.5527, 159.9538
252.0348, 128.9513
252.5169, 105.1392
252.9990, 85.75916
253.4811, 71.30610
253.9632, 60.67857
254.4454, 52.34894
254.9275, 46.84329
255.4096, 42.58332
255.8917, 39.05728
256.3738, 36.25287
256.8560, 34.28808
257.3381, 33.24245
257.8202, 32.92842
258.3023, 33.22057
258.7844, 34.46991
259.2665, 35.71451
259.7487, 36.46208
260.2308, 36.48079
260.7129, 37.53308
261.1950, 39.98660
261.6771, 43.06561
262.1592, 45.71834
262.6414, 47.74585
263.1235, 49.82914
263.6056, 52.26838
264.0877, 55.14062
264.5698, 57.26608
265.0519, 58.63824
265.5341, 59.33305
266.0162, 59.42533
266.4983, 58.89198
266.9804, 57.80356
267.4625, 56.04452
267.9446, 53.64151
268.4268, 51.25160
268.9089, 48.81895
269.3910, 46.58003
269.8731, 44.76360
270.3552, 43.40913
270.8373, 42.34318
271.3195, 41.40070
271.8016, 40.65457
272.2837, 40.94725
272.7658, 42.58005
273.2479, 44.58770
273.7300, 45.92080
274.2122, 46.33876
274.6943, 47.58907
275.1764, 50.23439
275.6585, 53.97936
276.1406, 57.21849
276.6227, 59.81250
277.1049, 62.36436
277.5870, 65.45109
278.0691, 69.13758
278.5512, 72.67813
279.0333, 76.12733
279.5154, 79.26337
279.9976, 81.20644
280.4797, 81.82069
280.9618, 81.95786
281.4439, 82.44512
281.9260, 83.29068
282.4081, 83.07167
282.8903, 81.60425
283.3724, 78.97580
283.8545, 75.12438
284.3366, 69.96017
284.8187, 64.50409
285.3008, 59.33577
285.7830, 54.41675
286.2651, 49.84571
286.7472, 45.60588
287.2293, 41.69584
287.7114, 38.18343
288.1935, 35.06635
288.6757, 32.07794
289.1578, 29.06157
289.6399, 26.03802
290.1220, 23.24487
290.6041, 20.66479
291.0862, 18.35639
291.5684, 16.48837
292.0505, 15.02043
292.5326, 13.65189
293.0147, 12.21392
293.4968, 10.75664
293.9789, 9.344948
294.4611, 7.975098
294.9432, 6.765099
295.4253, 5.938286
295.9074, 5.422855
296.3895, 4.927553
296.8716, 4.374491
297.3538, 3.743364
297.8359, 2.900539
298.3180, 1.824223
298.8001, 0.8591650
299.2822, 0.3195570
299.7643, 0.1345410
300.2465, 0.1416680
300.7286, 0.4994660
301.2107, 0.8736970
301.6928, 0.6943420
302.1749, 2.0810000E-03
302.6570, 0.6815260
303.1392, 0.8630750
303.6213, 0.7451780
304.1034, 0.6663910
304.5855, 0.7580110
305.0676, 0.8861770
305.5497, 0.8530980
306.0319, 0.7046760
306.5140, 0.6780990
306.9961, 1.102346
307.4782, 1.672482
307.9603, 2.002081
308.4424, 1.884399
308.9246, 1.726067
309.4067, 1.957029
309.8888, 2.424088
310.3709, 2.691580
310.8530, 2.291859
311.3351, 1.715685
311.8173, 1.423737
312.2994, 1.591993
312.7815, 1.714420
313.2636, 1.418865
313.7457, 0.8752710
314.2278, 0.3844640
314.7100, 2.0395000E-02
315.1921, 0.2602200
315.6742, 0.1886370
316.1563, 0.2840370
316.6384, 0.5818270
317.1205, 0.3824900
317.6027, 0.1167140
318.0848, 0.6665740
318.5669, 1.317951
319.0490, 1.890722
319.5311, 2.247055
320.0132, 2.370132
320.4954, 2.610954
320.9775, 3.201984
321.4596, 3.886158
321.9417, 4.436331
322.4238, 4.429007
322.9059, 4.674849
323.3881, 5.633106
323.8702, 7.200569
324.3523, 8.230011
324.8344, 7.809681
325.3165, 7.294453
325.7986, 7.481886
326.2808, 9.314114
326.7629, 10.81394
327.2450, 11.64692
327.7271, 11.99885
328.2092, 12.60786
328.6913, 13.73191
329.1735, 14.89078
329.6556, 15.94037
330.1377, 17.02368
330.6198, 17.71377
331.1019, 17.80890
331.5840, 17.56910
332.0662, 17.51219
332.5483, 17.91953
333.0304, 18.10231
333.5125, 17.82003
333.9946, 17.00221
334.4767, 16.06932
334.9589, 14.97232
335.4410, 13.81989
335.9231, 12.72516
336.4052, 11.65278
336.8873, 10.76624
337.3694, 10.17722
337.8515, 9.864071
338.3336, 9.368862
338.8158, 8.618464
339.2979, 7.840399
339.7800, 7.178650
340.2621, 6.615147
340.7442, 6.366850
341.2263, 6.588678
341.7085, 7.097918
342.1906, 7.221308
342.6727, 6.900808
343.1548, 6.565781
343.6369, 6.532866
344.1190, 6.782841
344.6012, 7.002895
345.0833, 7.153862
345.5654, 7.270222
346.0475, 7.370781
346.5296, 7.461266
347.0117, 7.657711
347.4939, 8.068920
347.9760, 8.635197
348.4581, 9.173981
348.9402, 9.670334
349.4223, 10.17069
349.9044, 10.72902
350.3866, 11.34332
350.8687, 12.01209
351.3508, 12.80980
351.8329, 13.63523
352.3150, 14.25205
352.7971, 14.67345
353.2793, 15.22826
353.7614, 16.35614
354.2435, 17.76539
354.7256, 18.97822
355.2077, 19.74263
355.6898, 20.40129
356.1720, 21.25182
356.6541, 22.26051
357.1362, 23.27921
357.6183, 24.02131
358.1004, 24.87678
358.5826, 26.27805
359.0647, 28.50381
359.5468, 30.72391
360.0289, 32.34867
360.5110, 33.62922
360.9931, 35.10082
361.4753, 37.00961
361.9574, 39.12836
362.4395, 41.42348
362.9216, 43.95059
363.4037, 46.25842
363.8858, 48.03976
364.3680, 49.60297
364.8501, 51.26129
365.3322, 53.03716
365.8143, 54.93841
366.2964, 57.08031
366.7785, 59.46603
367.2607, 61.67568
367.7428, 63.48508
368.2249, 65.24173
368.7070, 67.19480
369.1891, 69.36446
369.6712, 71.68855
370.1534, 74.16346
370.6355, 76.77751
371.1176, 79.48685
371.5997, 82.09192
372.0818, 85.08263
372.5639, 88.74700
373.0461, 93.36562
373.5282, 97.74675
374.0103, 101.8819
374.4924, 105.8340
374.9745, 109.5468
375.4566, 112.8400
375.9388, 116.6106
376.4209, 121.2272
376.9030, 126.6770
377.3851, 131.5968
377.8672, 135.8448
378.3493, 140.2126
378.8315, 145.5851
379.3136, 152.0345
379.7957, 158.0899
380.2778, 163.3833
380.7599, 168.2894
381.2420, 173.9863
381.7242, 180.3794
382.2063, 186.8270
382.6884, 192.3965
383.1705, 197.5785
383.6526, 204.0810
384.1347, 212.2390
384.6169, 220.9476
385.0990, 228.8550
385.5811, 236.0785
386.0632, 242.6393
386.5453, 247.9993
387.0274, 252.9772
387.5096, 258.4355
387.9917, 264.3676
388.4738, 270.9632
388.9559, 278.6434
389.4380, 286.8566
389.9201, 294.8687
390.4023, 301.6534
390.8844, 308.9679
391.3665, 317.9485
391.8486, 328.4889
392.3307, 339.8717
392.8128, 351.9166
393.2950, 364.5621
393.7771, 377.6938
394.2592, 390.7516
394.7413, 405.6146
395.2234, 423.8412
395.7055, 443.9851
396.1877, 463.7637
396.6698, 483.1556
397.1519, 501.5848
397.6340, 519.4252
398.1161, 536.9007
398.5982, 551.8483
399.0804, 565.3230
399.5625, 575.4690
400.0446, 580.9580
400.5267, 581.8005
401.0088, 578.0455
401.4909, 570.0946
401.9731, 557.6703
402.4552, 539.2614
402.9373, 513.2368
403.4194, 483.8528
403.9015, 452.2273
404.3836, 417.0556
404.8658, 384.8040
405.3479, 355.9679
405.8300, 329.8014
406.3121, 304.8203
406.7942, 280.8705
407.2763, 259.1721
407.7585, 240.4199
408.2406, 224.2080
408.7227, 208.5939
409.2048, 193.5273
409.6869, 179.9581
410.1690, 169.0463
410.6512, 160.5487
411.1333, 152.9798
411.6154, 146.2954
412.0975, 139.9626
412.5796, 132.6970
413.0617, 124.7790
413.5439, 117.4570
414.0260, 111.6021
414.5081, 106.6338
414.9902, 101.8487
415.4723, 97.16508
415.9544, 92.67333
416.4366, 88.57278
416.9187, 84.72234
417.4008, 80.93446
417.8829, 77.14168
418.3650, 73.38635
418.8471, 69.46050
419.3293, 65.47810
419.8114, 61.88890
420.2935, 59.26471
420.7756, 56.87493
421.2577, 54.29570
421.7398, 51.28556
422.2220, 48.29310
422.7041, 45.18829
423.1862, 42.18224
423.6683, 39.61915
424.1504, 37.89350
424.6325, 36.25206
425.1147, 34.43668
425.5968, 32.35179
426.0789, 30.63359
426.5610, 29.53582
427.0431, 28.59163
427.5252, 27.40854
428.0074, 25.81369
428.4895, 24.40147
428.9716, 23.34811
429.4537, 22.50339
429.9358, 21.36494
430.4179, 19.80818
430.9001, 18.38503
431.3822, 17.42888
431.8643, 16.99509
432.3464, 16.39561
432.8285, 15.61398
433.3106, 14.71994
433.7928, 13.74628
434.2749, 12.71002
434.7570, 11.75678
435.2391, 10.94805
435.7212, 10.23677
436.2033, 9.534786
436.6855, 8.850134
437.1676, 8.192944
437.6497, 7.581776
438.1318, 7.001831
438.6139, 6.423744
439.0960, 5.834843
439.5782, 5.298367
440.0603, 4.828560
440.5424, 4.436161
441.0245, 4.132421
441.5066, 4.297533
441.9887, 4.356117
442.4709, 3.821613
442.9530, 2.712324
443.4351, 1.798243
443.9172, 1.591841
444.3993, 1.567741
444.8814, 1.377661
445.3636, 0.7511370
445.8457, 0.1595820
446.3278, 0.3861120
446.8099, 0.7966140
447.2920, 0.9198780
447.7741, 0.4129920
448.2563, 9.7300002E-04
448.7384, 6.3548997E-02
449.2205, 0.2859900
449.7026, 0.4719830
450.1847, 0.4335230
450.6668, 0.3110160
451.1490, 0.1884880
451.6311, 1.5066000E-02
452.1132, 6.8153001E-02
452.5953, 0.5063210
453.0774, 1.105989
453.5595, 1.220043
454.0417, 0.7992920
454.5238, 0.4007150
455.0059, 0.3799020
455.4880, 0.6537250
455.9701, 0.8032860
456.4522, 0.8125670
456.9344, 0.7156310
457.4165, 0.4173560
457.8986, 2.9147999E-02
458.3807, 0.1165290
458.8628, 0.2036990
459.3449, 0.6788710
459.8271, 1.097567
460.3092, 1.409803
460.7913, 1.415867
461.2734, 0.6419640
461.7555, 0.2724570
462.2376, 0.7492600
462.7198, 0.6214810
463.2019, 0.4516120
463.6840, 0.4985260
464.1661, 0.6504190
464.6482, 0.7720150
465.1303, 0.9492530
465.6125, 0.9656110
466.0946, 0.6610370
466.5767, 7.8828998E-02
467.0588, 0.3490600
467.5409, 0.6546670
468.0230, 0.7439080
468.5052, 0.5200120
468.9873, 0.2810780
469.4694, 0.7033920
469.9515, 0.4981520
470.4336, 0.1294080
470.9157, 0.3553330
471.3979, 1.444683
471.8800, 2.191782
472.3621, 2.211538
472.8442, 1.654572
473.3263, 1.237104
473.8084, 0.9792390
474.2906, 0.7040840
474.7727, 0.1132470
475.2548, 0.6560120
475.7369, 0.8381520
476.2190, 0.2498870
476.7011, 0.5048080
477.1833, 0.7004780
477.6654, 0.4751070
478.1475, 0.2055950
478.6296, 5.6141000E-02
479.1117, 0.2137870
479.5938, 4.8447002E-02
480.0760, 0.3775560
480.5581, 0.6452430
481.0402, 0.3406410
481.5223, 0.1158100
482.0044, 0.3947580
482.4865, 0.4182930
482.9687, 0.3051890
483.4508, 4.8243001E-02
483.9329, 0.4785180
484.4150, 0.7491680
484.8971, 0.6705820
485.3792, 0.5866720
485.8614, 0.6553380
486.3435, 0.8511430
486.8256, 0.7223890
487.3077, 0.1448170
487.7898, 0.8475530
488.2719, 0.8224490
488.7541, 0.2540590
489.2362, 1.013002
489.7183, 1.393929
490.2004, 1.527056
490.6825, 1.565922
491.1646, 1.496706
491.6468, 1.477518
492.1289, 1.583994
492.6110, 1.757416
493.0931, 1.820116
493.5752, 1.772848
494.0573, 1.697687
494.5395, 1.677526
495.0216, 1.667637
495.5037, 1.573317
495.9858, 1.385397
496.4679, 1.118603
496.9500, 0.5261230
497.4322, 9.2772000E-02
497.9143, 0.2287200
498.3964, 0.9210740
498.8785, 2.067970
499.3606, 2.394497
499.8427, 2.051985
500.3249, 1.739248
500.8070, 1.909966
501.2891, 2.008568
501.7712, 1.621534
502.2533, 0.3015100
502.7354, 0.3320960
503.2176, 0.4882320
503.6997, 1.720154
504.1818, 2.284048
504.6639, 1.745144
505.1460, 1.338627
505.6281, 1.312681
506.1103, 1.552826
506.5924, 1.607695
507.0745, 1.386110
507.5566, 1.274406
508.0387, 1.621019
508.5208, 2.385775
509.0030, 2.644684
509.4851, 2.339371
509.9672, 1.852365
510.4493, 1.458370
510.9314, 1.174902
511.4135, 1.182100
511.8957, 1.668270
512.3778, 2.280958
512.8599, 2.618013
513.3420, 2.716526
513.8242, 2.734270
514.3063, 2.698069
514.7884, 2.668634
515.2705, 2.738468
515.7526, 2.913448
516.2347, 2.985906
516.7169, 2.621534
517.1990, 2.231365
517.6811, 2.152811
518.1632, 2.866629
518.6453, 3.346868
519.1274, 3.441152
519.6096, 3.287403
520.0917, 3.085145
520.5738, 2.586847
521.0559, 2.460387
521.5380, 3.001028
522.0201, 4.156878
522.5023, 4.985958
522.9844, 5.402113
523.4665, 5.747610
523.9486, 6.263349
524.4307, 6.940729
524.9128, 7.613770
525.3950, 8.280286
525.8771, 8.921939
526.3592, 9.468166
526.8413, 9.980057
527.3234, 10.58109
527.8055, 11.37820
528.2877, 12.23660
528.7698, 12.89605
529.2519, 13.44112
529.7340, 14.26548
530.2161, 15.99057
530.6982, 17.80737
531.1804, 19.04397
531.6625, 19.47957
532.1446, 20.06658
532.6267, 21.22582
533.1088, 22.56896
533.5909, 23.79119
534.0731, 24.69242
534.5552, 25.79525
535.0373, 27.37331
535.5194, 29.10449
536.0015, 30.16128
536.4836, 30.09813
536.9658, 30.24860
537.4479, 31.17745
537.9300, 32.84565
538.4121, 34.26797
538.8942, 35.44264
539.3763, 36.27272
539.8585, 36.61565
540.3406, 36.54799
540.8227, 36.46305
541.3048, 36.47436
541.7869, 36.29959
542.2690, 35.46813
542.7512, 34.15160
543.2333, 32.79369
543.7154, 31.67488
544.1975, 30.51640
544.6796, 29.07705
545.1617, 27.34523
545.6439, 25.48992
546.1260, 23.45085
546.6081, 21.56451
547.0902, 19.95476
547.5723, 18.68221
548.0544, 17.47532
548.5366, 16.23457
549.0187, 15.07076
549.5008, 14.07989
549.9829, 13.34219
550.4650, 12.63473
550.9471, 11.93902
551.4293, 11.26655
551.9114, 10.62281
552.3935, 10.00581
552.8756, 9.427065
553.3577, 8.910623
553.8398, 8.443789
554.3220, 7.939034
554.8041, 7.379678
555.2862, 6.827642
555.7683, 6.337962
556.2504, 5.987703
556.7325, 5.781260
557.2147, 5.739754
557.6968, 5.709311
558.1789, 5.646460
558.6610, 5.489859
559.1431, 5.150322
559.6252, 4.318783
560.1074, 3.551346
560.5895, 3.032143
561.0716, 2.831334
561.5537, 2.888243
562.0358, 3.693396
562.5179, 4.223356
563.0001, 3.936631
563.4822, 2.704288
563.9643, 2.163630
564.4464, 2.710363
564.9285, 3.387501
565.4106, 3.441607
565.8928, 2.764520
566.3749, 2.184794
566.8570, 1.721841
567.3391, 1.446378
567.8212, 1.670328
568.3033, 2.290936
568.7855, 2.493921
569.2676, 1.718031
569.7497, 0.6799780
570.2318, 0.5583520
570.7139, 1.162225
571.1960, 1.643430
571.6782, 1.398950
572.1603, 0.8918280
572.6424, 0.4380950
573.1245, 5.9530001E-02
573.6066, 0.1535050
574.0887, 0.1112160
574.5709, 7.4409001E-02
575.0530, 0.3192730
575.5351, 0.7728830
576.0172, 1.048879
576.4993, 1.038941
576.9814, 0.8973540
577.4636, 0.8727440
577.9457, 1.000299
578.4278, 1.168748
578.9099, 1.412143
579.3920, 1.651573
579.8741, 1.501929
580.3563, 0.9337610
580.8384, 0.4340360
581.3205, 0.3569670
581.8026, 0.5654890
582.2847, 0.6653210
582.7668, 0.6447670
583.2490, 0.6623130
583.7311, 1.000280
584.2131, 1.387405
584.6953, 1.465726
585.1774, 1.016482
585.6595, 0.6103530
586.1416, 0.6002020
586.6237, 0.8053350
587.1058, 0.9525220
587.5880, 0.9391290
588.0701, 0.9075500
588.5522, 0.8744080
589.0343, 0.8441300
589.5164, 0.8436730
589.9985, 0.8960220
590.4807, 0.9423740
590.9628, 0.9608400
591.4449, 0.9505880
591.9270, 0.9307370
592.4091, 0.9149270
592.8912, 0.8361070
593.3734, 0.5325730
593.8555, 8.2379997E-02
594.3376, 0.1185670
594.8197, 8.1200004E-03
595.3018, 0.2967680
595.7839, 0.7274800
596.2661, 1.171719
596.7482, 1.377810
597.2303, 1.027957
597.7124, 0.6426030
598.1945, 0.5541230
598.6766, 0.6717170
599.1588, 0.7618650
599.6409, 0.7808510
600.1230, 0.7580780
600.6051, 0.6760230
601.0872, 0.5281410
601.5693, 0.4846460
602.0515, 0.6451490
602.5336, 0.7643650
603.0157, 0.6678280
603.4978, 0.3004190
603.9799, 0.1199340
604.4620, 0.1629730
604.9442, 0.3185040
605.4263, 0.4751630
605.9084, 0.6281120
606.3905, 0.7668590
606.8726, 0.9179770
607.3547, 1.000574
607.8369, 0.8726980
608.3190, 0.6061360
608.8011, 0.3748140
609.2832, 6.0819998E-02
609.7653, 0.1368010
610.2474, 8.9403003E-02
610.7296, 0.6830590
611.2117, 1.171683
611.6938, 1.481564
612.1759, 1.600895
612.6580, 1.481384
613.1401, 1.041112
613.6223, 0.7582570
614.1044, 0.6937350
614.5865, 0.7049390
615.0686, 0.6738200
615.5507, 0.6096250
616.0328, 0.5902870
616.5150, 0.5790070
616.9971, 0.5526010
617.4792, 0.5349660
617.9613, 0.5418050
618.4434, 0.6069550
618.9255, 0.8299490
619.4077, 1.043774
619.8898, 0.8925510
620.3719, 0.4738780
620.8540, 0.1902690
621.3361, 0.4030650
621.8182, 0.6819580
622.3004, 0.8171860
622.7825, 0.7976490
623.2646, 0.7197870
623.7467, 0.4078530
624.2288, 0.2072280
624.7109, 0.3147380
625.1931, 0.8506250
625.6752, 1.311190
626.1573, 1.735745
626.6394, 2.008319
627.1215, 1.986692
627.6036, 1.681488
628.0858, 1.279021
628.5679, 0.7139570
629.0500, 0.2167050
629.5321, 0.2115120
630.0142, 0.5819450
630.4963, 0.9318930
630.9785, 1.053945
631.4606, 1.049317
631.9427, 0.9922270
632.4248, 0.9208030
632.9069, 0.9390950
633.3890, 1.300753
633.8712, 1.570749
634.3533, 1.494264
634.8354, 1.029531
635.3175, 0.6923510
635.7996, 0.5017240
636.2817, 0.4696210
636.7639, 0.6325610
637.2460, 1.055960
637.7281, 1.197216
638.2102, 0.9841130
638.6923, 0.7350070
639.1744, 0.9051120
639.6566, 1.371900
640.1387, 1.402164
640.6208, 0.7246880
641.1029, 1.7178001E-02
641.5850, 0.2259350
642.0671, 0.9705020
642.5493, 1.493877
643.0314, 1.237743
643.5135, 0.9157740
643.9956, 0.9499490
644.4777, 1.240507
644.9598, 1.429841
645.4420, 1.253625
645.9241, 1.116754
646.4062, 1.180629
646.8883, 1.432630
647.3704, 1.538692
647.8525, 1.416791
648.3347, 1.292547
648.8168, 1.339186
649.2989, 1.548470
649.7810, 1.539053
650.2631, 1.279501
650.7452, 1.049786
651.2274, 1.216049
651.7095, 1.595491
652.1916, 1.793745
652.6737, 1.704553
653.1558, 1.580704
653.6379, 1.724026
654.1201, 1.902652
654.6022, 1.812523
655.0843, 0.8893660
655.5664, 0.2362800
656.0485, 0.2314190
656.5306, 0.6665960
657.0128, 1.085809
657.4949, 1.666853
657.9770, 1.864465
658.4591, 1.369998
658.9412, 0.4128590
659.4233, 2.6342001E-02
659.9055, 0.2451310
660.3876, 0.6669700
660.8697, 1.280220
661.3518, 1.894130
661.8339, 1.886579
662.3160, 1.303131
662.7982, 0.8390660
663.2803, 1.246729
663.7624, 1.861142
664.2445, 2.013552
664.7266, 1.560741
665.2087, 1.020176
665.6909, 0.2495650
666.1730, 0.3517790
666.6551, 0.4067560
667.1372, 0.7016640
667.6193, 1.240058
668.1014, 0.9748610
668.5836, 0.3921390
669.0657, 0.1604360
669.5478, 0.3105750
670.0299, 0.4455690
670.5120, 0.4815640
670.9941, 0.4685440
671.4763, 0.5572520
671.9584, 0.6919570
672.4405, 0.6554300
672.9226, 5.9803002E-02
673.4047, 0.5106300
673.8868, 0.4419820
674.3690, 0.1065110
674.8511, 0.5703680
675.3332, 0.8578140
675.8153, 0.8985190
676.2974, 0.5169400
676.7795, 0.3098760
677.2617, 0.7342800
677.7438, 0.6092700
678.2259, 0.3165660
678.7080, 8.7080002E-03
679.1901, 0.3321210
679.6722, 0.5510900
680.1544, 0.6370130
680.6365, 0.6744080
681.1186, 0.7942090
681.6007, 0.9219170
682.0828, 0.8307560
682.5649, 0.4553390
683.0471, 0.1006690
683.5292, 7.5828999E-02
684.0113, 0.1896920
684.4934, 0.2046820
684.9755, 0.1060970
685.4576, 0.2670980
685.9398, 5.4772999E-02
686.4219, 0.5289600
686.9040, 0.5882840
687.3861, 9.7179003E-02
687.8682, 0.4979080
688.3503, 0.3845620
688.8325, 5.3720001E-02
689.3146, 0.3851660
689.7967, 0.6097010
690.2788, 0.6802010
690.7609, 0.5047260
691.2430, 0.2185160
691.7252, 7.5585999E-02
692.2073, 4.2613000E-02
692.6894, 2.2311000E-02
693.1715, 0.3451730
693.6536, 0.6157230
694.1357, 0.5147500
694.6179, 4.9430002E-02
695.1000, 0.2293850
695.5821, 3.8507000E-02
696.0642, 0.3305320
696.5463, 0.3895740
697.0284, 0.1649750
697.5106, 1.7209999E-02
697.9927, 3.4490000E-02
698.4748, 4.2406000E-02
698.9569, 3.9329998E-02
699.4390, 4.9279999E-02
699.9211, 5.2102000E-02
700.4033, 4.2222001E-02
700.8854, 3.4499999E-02
701.3675, 0.3985400
701.8496, 0.8122700
702.3317, 0.8427990
702.8138, 0.2089810
703.2960, 0.3296640
703.7781, 0.2745850
704.2602, 4.4583000E-02
704.7423, 0.2245850
705.2244, 3.3608001E-02
705.7065, 8.0640003E-02
706.1887, 5.6774002E-02
706.6708, 4.2318001E-02
707.1529, 0.1176600
707.6350, 0.1799010
708.1171, 0.1521210
708.5992, 2.0591000E-02
709.0814, 0.2545950
709.5635, 0.3920780
710.0456, 0.4378010
710.5277, 0.4181900
711.0098, 0.2919170
711.4919, 0.1498920
711.9741, 2.2352001E-02
712.4562, 6.4571001E-02
712.9383, 1.5672000E-02
713.4204, 0.3996190
713.9025, 0.7669760
714.3846, 0.8728650
714.8668, 0.7272600
715.3489, 0.6417670
715.8310, 0.5638030
716.3131, 0.6506520
716.7952, 1.081659
717.2773, 1.801864
717.7595, 2.105331
718.2416, 1.962374
718.7237, 1.876468
719.2058, 2.389930
719.6879, 3.174976
720.1700, 3.700408
720.6522, 3.908545
721.1343, 4.010054
721.6164, 3.936473
722.0985, 3.928110
722.5806, 4.207401
723.0627, 4.977370
723.5449, 5.617542
724.0270, 5.933279
724.5091, 6.258745
724.9912, 6.989967
725.4733, 8.198580
725.9554, 9.101879
726.4376, 9.579115
726.9197, 9.887440
727.4018, 10.33760
727.8839, 10.91008
728.3660, 11.53715
728.8481, 12.18609
729.3303, 12.94316
729.8124, 13.99781
730.2945, 15.17064
730.7766, 16.16299
731.2587, 16.69863
731.7408, 17.28175
732.2230, 17.94482
732.7051, 18.75378
733.1872, 19.97620
733.6693, 21.90132
734.1514, 23.33938
734.6335, 23.85301
735.1157, 23.79542
735.5978, 24.05515
736.0799, 24.61089
736.5620, 25.19666
737.0441, 25.76690
737.5262, 26.21700
738.0084, 26.32368
738.4905, 26.20357
738.9726, 26.25329
739.4547, 27.16249
739.9368, 27.78027
740.4189, 27.41736
740.9011, 26.11472
741.3832, 25.17775
741.8653, 24.86192
742.3474, 24.43231
742.8295, 23.44135
743.3116, 22.01912
743.7938, 21.30523
744.2759, 21.29919
744.7580, 21.47647
745.2401, 21.43212
745.7222, 21.33152
746.2043, 21.55624
746.6865, 22.12035
747.1686, 22.59614
747.6507, 22.57517
748.1328, 22.53112
748.6149, 22.81279
749.0970, 23.53427
749.5792, 24.15617
750.0613, 24.50876
750.5434, 24.94917
751.0255, 25.70769
751.5076, 26.79819
751.9897, 28.01493
752.4719, 29.39742
752.9540, 30.83162
753.4361, 32.21676
753.9182, 33.60063
754.4003, 35.18676
754.8824, 37.02453
755.3646, 38.87003
755.8467, 40.50620
756.3288, 42.08810
756.8109, 43.71196
757.2930, 45.41504
757.7751, 47.18865
758.2573, 49.22133
758.7394, 51.16306
759.2215, 52.62518
759.7036, 53.54338
760.1857, 54.51944
760.6678, 55.65644
761.1500, 56.76893
761.6321, 57.59451
762.1142, 58.20687
762.5963, 58.87373
763.0784, 59.83481
763.5605, 60.38428
764.0427, 60.09463
764.5248, 59.07504
765.0069, 57.46322
765.4890, 54.62414
765.9711, 52.08924
766.4532, 50.09751
766.9354, 48.34827
767.4175, 46.46695
767.8996, 44.48170
768.3817, 42.05572
768.8638, 38.97826
769.3459, 35.76900
769.8281, 33.36214
770.3102, 31.55342
770.7923, 29.73904
771.2744, 27.61983
771.7565, 25.57019
772.2386, 23.86828
772.7208, 22.38778
773.2029, 20.90908
773.6850, 19.21300
774.1671, 17.74353
774.6492, 16.67216
775.1313, 15.80535
775.6135, 14.71247
776.0956, 13.36829
776.5777, 12.00230
777.0598, 10.55637
777.5419, 9.304428
778.0240, 8.891005
778.5062, 9.090981
778.9883, 9.205385
779.4704, 9.114117
779.9525, 8.643375
780.4346, 7.231804
780.9167, 5.368599
781.3989, 4.233749
781.8810, 4.845488
782.3631, 5.259459
782.8452, 5.089426
783.3273, 4.509989
783.8094, 3.987017
784.2916, 3.513121
784.7737, 3.166143
785.2558, 3.005592
785.7379, 2.946867
786.2200, 2.877295
786.7021, 2.782516
787.1843, 2.619028
787.6664, 2.335546
788.1485, 2.003288
788.6306, 1.621563
789.1127, 1.216274
789.5948, 0.8961510
790.0770, 0.6948110
790.5591, 0.5263400
791.0412, 0.3144300
791.5233, 0.1378100
792.0054, 0.3865850
792.4875, 1.070795
792.9697, 1.605587
793.4518, 1.688295
793.9339, 1.505209
794.4160, 1.228193
794.8981, 0.9155030
795.3802, 0.7613910
795.8624, 0.9752060
796.3445, 1.252466
796.8266, 1.502512
797.3087, 1.703228
797.7908, 1.773857
798.2729, 1.604527
798.7551, 1.509525
799.2372, 1.564960
799.7193, 1.768166
800.2014, 2.220058
800.6835, 2.889275
801.1656, 3.345316
801.6478, 3.100954
802.1299, 2.727600
802.6120, 2.959242
803.0941, 3.637831
803.5762, 4.264664
804.0583, 4.581659
804.5405, 4.862942
805.0226, 5.268745
805.5047, 5.733383
805.9868, 5.928431
806.4689, 5.694782
806.9510, 5.681801
807.4332, 6.141951
807.9153, 6.952320
808.3974, 7.868998
808.8795, 8.850565
809.3616, 9.663307
809.8438, 9.934168
810.3259, 10.18848
810.8080, 10.92869
811.2901, 12.01361
811.7722, 12.99289
812.2543, 13.77197
812.7365, 14.38818
813.2186, 14.76414
813.7007, 15.00163
814.1828, 15.48534
814.6649, 16.24891
815.1470, 17.01828
815.6292, 17.73438
816.1113, 18.38404
816.5934, 18.97080
817.0755, 19.42561
817.5576, 19.54945
818.0397, 18.99647
818.5219, 18.45331
819.0040, 18.17264
819.4861, 18.16454
819.9682, 18.47488
820.4503, 19.30865
820.9324, 20.05496
821.4146, 20.46115
821.8967, 20.78073
822.3788, 21.73224
822.8609, 23.26403
823.3430, 24.88704
823.8251, 26.45001
824.3073, 28.05785
824.7894, 29.84164
825.2715, 31.76534
825.7536, 33.85306
826.2357, 36.19910
826.7178, 38.60861
827.2000, 40.97680
827.6821, 43.39214
828.1642, 46.02332
828.6463, 48.99228
829.1284, 51.84605
829.6105, 54.63948
830.0927, 57.07541
830.5748, 58.49153
831.0569, 59.13492
831.5390, 59.87458
832.0211, 61.07922
832.5032, 62.40984
832.9854, 63.71635
833.4675, 64.92059
833.9496, 65.92928
834.4317, 66.84842
834.9138, 67.37424
835.3959, 67.41915
835.8781, 67.12216
836.3602, 66.56957
836.8423, 65.74712
837.3244, 65.30952
837.8065, 65.54646
838.2886, 65.70088
838.7708, 64.77928
839.2529, 63.18782
839.7350, 61.61883
840.2171, 60.46068
840.6992, 58.91801
841.1813, 56.47645
841.6635, 53.65654
842.1456, 50.98152
842.6277, 48.52795
843.1098, 45.99439
843.5919, 43.30241
844.0740, 40.72205
844.5562, 38.71435
845.0383, 37.03391
845.5204, 35.05925
846.0025, 32.67431
846.4846, 30.24825
846.9667, 27.90623
847.4489, 25.69080
847.9310, 23.67890
848.4131, 21.85921
848.8952, 20.32229
849.3773, 19.16701
849.8594, 18.11108
850.3416, 16.95121
850.8237, 15.69049
851.3058, 14.46611
851.7879, 13.27503
852.2700, 12.09054
852.7521, 10.72304
853.2343, 9.412498
853.7164, 8.467190
854.1985, 7.926356
854.6806, 7.458538
855.1627, 6.965002
855.6448, 6.517010
856.1270, 6.116739
856.6091, 5.758116
857.0912, 5.746843
857.5733, 6.198893
858.0554, 6.412039
858.5375, 5.609847
859.0197, 4.303266
859.5018, 3.733171
859.9839, 3.798527
860.4660, 3.809669
860.9481, 3.140739
861.4302, 2.545485
861.9124, 2.566734
862.3945, 3.140921
862.8766, 3.331886
863.3587, 3.014456
863.8408, 2.596392
864.3229, 2.209098
864.8051, 1.827060
865.2872, 1.297431
865.7693, 0.6715610
866.2514, 0.2809980
866.7335, 0.4837180
867.2156, 0.7957790
867.6978, 0.8829870
868.1799, 0.7938000
868.6620, 0.6381470
869.1441, 0.2526850
869.6262, 6.5419003E-02
870.1083, 0.2257580
870.5905, 0.5413700
871.0726, 0.6439210
871.5547, 0.5373320
872.0368, 0.3069360
872.5189, 5.2104998E-02
873.0010, 0.4539920
873.4832, 0.9935120
873.9653, 1.458840
874.4474, 1.472118
874.9295, 0.5542570
875.4116, 0.1664690
875.8937, 0.3218430
876.3759, 0.2339080
876.8580, 0.1623490
877.3401, 9.7938001E-02
877.8222, 0.1366230
878.3043, 0.3213760
878.7864, 0.4475880
879.2686, 0.1471920
879.7507, 0.3194040
880.2328, 0.3907420
880.7149, 6.6692002E-02
881.1970, 0.3582050
881.6791, 0.1244020
882.1613, 0.6898840
882.6434, 0.8308080
883.1255, 0.4819760
883.6076, 0.1481980
884.0897, 0.2165670
884.5718, 0.4195460
885.0540, 0.2027220
885.5361, 0.2689210
886.0182, 0.4911470
886.5003, 0.4703360
886.9824, 0.2729910
887.4645, 0.3773290
887.9467, 0.9097050
888.4288, 0.8649200
888.9109, 0.2906110
889.3930, 0.1097020
889.8751, 0.3451330
890.3572, 0.3168550
890.8394, 0.1199320
891.3215, 0.7555340
891.8036, 0.9952990
892.2857, 0.8812040
892.7678, 0.6375700
893.2499, 0.1987040
893.7321, 0.1304580
894.2142, 1.2511000E-02
894.6963, 0.3548850
895.1784, 0.5915580
895.6605, 0.5556470
896.1426, 0.4825600
896.6248, 0.3584770
897.1069, 0.2434630
897.5890, 0.2152130
898.0711, 0.2739180
898.5532, 0.4746110
899.0353, 0.8770380
899.5175, 1.182076
899.9996, 1.047985
900.4817, 0.6850520
900.9638, 0.3059200
901.4459, 0.1551830
901.9280, 0.3169010
902.4102, 7.7698998E-02
902.8923, 0.5005170
903.3744, 0.5260620
903.8565, 0.1420050
904.3386, 7.0021003E-02
904.8207, 0.3241470
905.3029, 0.5756290
905.7850, 0.4801090
906.2671, 0.2996820
906.7492, 0.3600440
907.2313, 0.6564250
907.7134, 0.8724360
908.1956, 0.8915430
908.6777, 0.8340460
909.1598, 0.7190140
909.6419, 0.5608210
910.1240, 0.3983810
910.6061, 0.2297050
911.0883, 0.1979740
911.5704, 0.4423270
912.0525, 0.7643820
912.5346, 0.9532010
913.0167, 1.019673
913.4988, 0.9873310
913.9810, 0.8043900
914.4631, 0.5898000
914.9452, 0.2244420
915.4273, 6.5927997E-02
915.9094, 0.1483790
916.3915, 0.9244090
916.8737, 1.401143
917.3558, 1.425605
917.8379, 1.277390
918.3200, 1.169117
918.8021, 1.135438
919.2842, 1.247828
919.7664, 1.549680
920.2485, 1.852181
920.7306, 2.114492
921.2127, 2.343801
921.6948, 2.538285
922.1769, 2.694178
922.6591, 2.889802
923.1412, 3.145522
923.6233, 3.312144
924.1054, 3.126259
924.5875, 2.880465
925.0696, 3.048050
925.5518, 3.567766
926.0339, 4.052439
926.5160, 4.357568
926.9981, 4.564147
927.4802, 4.633006
927.9623, 4.702513
928.4445, 5.338830
928.9266, 6.623480
929.4087, 7.441471
929.8908, 7.331173
930.3729, 6.887234
930.8550, 6.841208
931.3372, 7.032628
931.8193, 7.194660
932.3014, 7.159898
932.7835, 7.360645
933.2656, 8.083776
933.7477, 8.859734
934.2299, 9.301017
934.7120, 9.380202
935.1941, 9.293521
935.6762, 9.035357
936.1583, 8.776722
936.6404, 8.677886
937.1226, 8.676316
937.6047, 8.673656
938.0868, 8.676734
938.5689, 8.755585
939.0510, 9.128209
939.5331, 9.287606
940.0153, 8.957244
940.4974, 8.240151
940.9795, 7.658457
941.4616, 7.209929
941.9437, 7.016810
942.4258, 7.300307
942.9080, 7.568069
943.3901, 7.136858
943.8722, 6.302118
944.3543, 5.662589
944.8364, 5.568878
945.3185, 5.506714
945.8007, 5.414372
946.2828, 5.263198
946.7649, 4.976224
947.2470, 4.544287
947.7291, 4.221005
948.2112, 4.081685
948.6934, 3.907608
949.1755, 3.266271
949.6576, 2.560967
950.1397, 2.271357
950.6218, 2.527925
951.1039, 2.700348
951.5861, 2.572322
952.0682, 2.534746
952.5503, 2.887503
953.0324, 3.499783
953.5145, 3.414159
953.9966, 2.693018
954.4788, 2.095721
954.9609, 2.238229
955.4430, 2.501684
955.9251, 2.312364
956.4072, 1.863673
956.8893, 1.689285
957.3715, 2.019676
957.8536, 2.323449
958.3357, 2.595154
958.8178, 2.736559
959.2999, 2.486437
959.7820, 1.930943
960.2642, 1.502868
960.7463, 1.251523
961.2284, 1.223619
961.7105, 1.781181
962.1926, 2.353031
962.6747, 2.348411
963.1569, 1.514880
963.6390, 1.151203
964.1211, 1.395940
964.6032, 1.721354
965.0853, 1.808631
965.5674, 1.722017
966.0496, 1.636112
966.5317, 1.550802
967.0138, 1.461891
967.4959, 1.339687
967.9780, 1.240657
968.4601, 1.203620
968.9423, 1.238834
969.4244, 1.399222
969.9065, 1.770032
970.3886, 1.839306
970.8707, 1.439814
971.3528, 0.9558780
971.8350, 0.9106180
972.3171, 1.143976
972.7992, 1.375461
973.2813, 1.560395
973.7634, 1.712938
974.2455, 1.843265
974.7277, 1.916153
975.2098, 1.928777
975.6919, 1.881533
976.1740, 1.692760
976.6561, 1.352852
977.1382, 1.081437
977.6204, 1.132560
978.1025, 1.239470
978.5846, 0.9131250
979.0667, 0.3633990
979.5488, 0.2103920
980.0309, 1.232761
980.5131, 1.878362
980.9952, 1.784266
981.4773, 1.329001
981.9594, 1.184101
982.4415, 1.289751
982.9236, 1.020045
983.4058, 0.1750990
983.8879, 0.4429670
984.3700, 0.1738240
984.8521, 1.125476
985.3342, 1.543299
985.8163, 1.184915
986.2985, 0.9445940
986.7806, 0.8651830
987.2627, 0.8262350
987.7448, 0.7750520
988.2269, 0.7117630
988.7090, 0.6160860
989.1912, 0.5033430
989.6733, 0.4369190
990.1554, 0.5196180
990.6375, 0.5782960
991.1196, 0.4494670
991.6017, 0.2740940
992.0839, 0.3217790
992.5660, 0.6752610
993.0481, 0.8768600
993.5302, 0.8605610
994.0123, 0.7428870
994.4944, 0.6260470
994.9766, 0.5093500
995.4587, 0.3716330
995.9408, 0.2060210
996.4229, 0.1253470
996.9050, 0.2802990
997.3871, 0.4105590
997.8693, 0.4186900
998.3514, 0.3101530
998.8335, 1.8180000E-02
999.3156, 0.4330370
999.7977, 0.6090750
1000.280, 0.1457030
1000.762, 0.4433790
1001.244, 0.7509840
1001.726, 0.8362090
1002.208, 0.7949700
1002.690, 0.5105380
1003.173, 0.3348970
1003.655, 0.2971800
1004.137, 0.3326500
1004.619, 0.4541240
1005.101, 0.5938230
1005.583, 0.4564890
1006.065, 3.6963001E-02
1006.547, 0.3489530
1007.029, 0.5823850
1007.512, 0.6680970
1007.994, 0.5828770
1008.476, 0.3488780
1008.958, 1.9175000E-02
1009.440, 0.5731370
1009.922, 0.9318900
1010.404, 0.9546400
1010.886, 0.7885200
1011.369, 0.5217080
1011.851, 0.2451740
1012.333, 0.1339850
1012.815, 0.3575960
1013.297, 0.4306500
1013.779, 0.1031820
1014.261, 0.1954530
1014.743, 8.3013996E-02
1015.225, 0.4042410
1015.708, 0.4556700
1016.190, 9.9019997E-02
1016.672, 0.2100330
1017.154, 0.1184890
1017.636, 8.2070000E-02
1018.118, 0.2067890
1018.600, 0.2692660
1019.082, 0.3214270
1019.565, 0.2940620
1020.047, 0.4907980
1020.529, 1.063476
1021.011, 1.620232
1021.493, 1.440378
1021.975, 0.8878750
1022.457, 0.8558390
1022.939, 1.589778
1023.421, 1.963450
1023.904, 1.023658
1024.386, 4.5568999E-02
1024.868, 0.3210880
1025.350, 0.1345490
1025.832, 0.1461000
1026.314, 0.5182580
1026.796, 0.7264730
1027.278, 0.5170080
1027.760, 0.2691650
1028.243, 0.4754480
1028.725, 0.8722670
1029.207, 1.013968
1029.689, 0.5745760
1030.171, 0.2754870
1030.653, 0.1293690
1031.135, 0.1188370
1031.617, 0.3349020
1032.100, 0.6579540
1032.582, 0.6882670
1033.064, 0.4337530
1033.546, 0.2403780
1034.028, 0.3885670
1034.510, 0.5405240
1034.992, 0.5108960
1035.474, 0.3671220
1035.957, 0.3099600
1036.439, 0.3449100
1036.921, 0.3172000
1037.403, 0.1364990
1037.885, 8.5928999E-02
1038.367, 0.6946070
1038.849, 1.495629
1039.331, 1.838683
1039.813, 1.450932
1040.296, 1.371027
1040.778, 1.924141
1041.260, 2.231153
1041.742, 1.555594
1042.224, 0.3854450
1042.706, 0.2657720
1043.188, 0.9420560
1043.670, 1.444861
1044.152, 1.086287
1044.635, 0.7117160
1045.117, 0.7482290
1045.599, 0.9144550
1046.081, 0.8112210
1046.563, 0.3739050
1047.045, 0.1928890
1047.527, 0.3167610
1048.009, 0.5602640
1048.492, 0.8843990
1048.974, 1.150964
1049.456, 1.135730
1049.938, 0.8682960
1050.420, 0.7991020
1050.902, 1.109650
1051.384, 1.322461
1051.866, 1.271017
1052.349, 1.137506
1052.831, 1.330094
1053.313, 1.723372
1053.795, 1.966026
1054.277, 1.947209
1054.759, 1.881122
1055.241, 1.701078
1055.723, 1.663878
1056.205, 2.054200
1056.688, 2.841250
1057.170, 2.806567
1057.652, 1.965956
1058.134, 1.292359
1058.616, 1.293763
1059.098, 1.610288
1059.580, 2.153996
1060.062, 2.727316
1060.544, 2.932012
1061.027, 2.432384
1061.509, 2.159726
1061.991, 2.189775
1062.473, 2.335299
1062.955, 2.410486
1063.437, 2.467523
1063.919, 2.676221
1064.401, 2.992608
1064.884, 3.162510
1065.366, 2.976259
1065.848, 2.756317
1066.330, 2.578394
1066.812, 2.473871
1067.294, 2.455486
1067.776, 2.526091
1068.258, 2.827210
1068.740, 3.450266
1069.223, 3.940106
1069.705, 3.712717
1070.187, 3.358050
1070.669, 3.444018
1071.151, 4.022108
1071.633, 4.404121
1072.115, 4.547304
1072.597, 4.672852
1073.079, 4.869132
1073.562, 5.090727
1074.044, 5.243793
1074.526, 5.375993
1075.008, 5.619262
1075.490, 6.017837
1075.972, 6.533031
1076.454, 7.276878
1076.936, 7.933075
1077.419, 8.148316
1077.901, 8.054368
1078.383, 8.283478
1078.865, 8.811473
1079.347, 9.397943
1079.829, 9.749207
1080.311, 10.30662
1080.793, 11.36653
1081.275, 12.72151
1081.758, 14.01570
1082.240, 15.23452
1082.722, 16.87546
1083.204, 19.07238
1083.686, 21.35983
1084.168, 23.33836
1084.650, 25.26064
1085.132, 27.26477
1085.615, 29.39270
1086.097, 32.05048
1086.579, 35.38162
1087.061, 38.80967
1087.543, 42.12362
1088.025, 45.46596
1088.507, 48.91807
1088.989, 52.52797
1089.471, 56.34671
1089.953, 60.31952
1090.436, 64.76031
1090.918, 69.57407
1091.400, 75.11005
1091.882, 81.80822
1092.364, 89.39181
1092.846, 96.95115
1093.328, 104.2883
1093.810, 110.7802
1094.293, 116.2267
1094.775, 120.6340
1095.257, 124.4789
1095.739, 126.9118
1096.221, 127.2708
1096.703, 125.5900
1097.185, 121.2769
1097.667, 114.2609
1098.150, 105.4921
1098.632, 94.33044
1099.114, 83.01479
1099.596, 73.24878
1100.078, 64.86586
1100.560, 57.02086
1101.042, 49.49614
1101.524, 43.11771
1102.006, 37.97733
1102.489, 33.91442
1102.971, 31.05241
1103.453, 28.79842
1103.935, 26.21081
1104.417, 23.19999
1104.899, 20.58031
1105.381, 18.53719
1105.863, 16.91042
1106.345, 15.76785
1106.828, 14.88781
1107.310, 13.79308
1107.792, 12.57905
1108.274, 11.56876
1108.756, 10.84438
1109.238, 10.29094
1109.720, 10.02296
1110.202, 9.719692
1110.685, 9.195315
1111.167, 8.488981
1111.649, 7.759691
1112.131, 7.029400
1112.613, 6.508302
1113.095, 6.385994
1113.577, 6.359033
1114.059, 6.335998
1114.542, 6.202733
1115.024, 5.796728
1115.506, 5.016269
1115.988, 4.560174
1116.470, 4.453208
1116.952, 4.420134
1117.434, 4.309280
1117.916, 4.148771
1118.398, 3.946124
1118.880, 3.720316
1119.363, 3.521093
1119.845, 3.401121
1120.327, 3.200710
1120.809, 2.903128
1121.291, 2.551903
1121.773, 2.075587
1122.255, 1.630088
1122.737, 1.558081
1123.220, 1.819009
1123.702, 2.036435
1124.184, 1.965797
1124.666, 2.032542
1125.148, 2.428165
1125.630, 2.820850
1126.112, 2.514410
1126.594, 1.773619
1127.077, 1.449343
1127.559, 1.672789
1128.041, 1.938380
1128.523, 2.076718
1129.005, 2.108943
1129.487, 2.032262
1129.969, 1.874242
1130.451, 1.710040
1130.933, 1.538871
1131.416, 1.354672
1131.898, 1.142239
1132.380, 0.9651060
1132.862, 0.8321330
1133.344, 0.7814050
1133.826, 0.8916690
1134.308, 1.143524
1134.790, 1.137187
1135.272, 0.8637470
1135.755, 0.7465600
1136.237, 1.086102
1136.719, 1.420234
1137.201, 1.198168
1137.683, 0.7710250
1138.165, 0.6302040
1138.647, 0.9242830
1139.129, 0.9074870
1139.612, 0.5110130
1140.094, 0.2875300
1140.576, 0.9065240
1141.058, 1.624452
1141.540, 1.198492
1142.022, 0.1996460
1142.504, 0.1291510
1142.986, 1.169648
1143.469, 1.691269
1143.951, 1.199858
1144.433, 0.4927140
1144.915, 0.2157030
1145.397, 0.2137780
1145.879, 0.2196350
1146.361, 0.2403010
1146.843, 0.3422900
1147.325, 0.7870240
1147.807, 0.9265970
1148.290, 0.5480260
1148.772, 9.5074996E-02
1149.254, 0.1720480
1149.736, 0.5842700
1150.218, 0.9050410
1150.700, 1.088472
1151.182, 1.023220
1151.664, 0.3361230
1152.147, 0.1864890
1152.629, 0.2688470
1153.111, 0.1371070
1153.593, 0.2631600
1154.075, 0.5453980
1154.557, 0.5050250
1155.039, 4.7031999E-02
1155.521, 0.3019100
1156.004, 0.1022410
1156.486, 0.1105370
1156.968, 4.0619001E-02
1157.450, 0.1864840
1157.932, 9.8780997E-02
1158.414, 0.2344420
1158.896, 0.2736830
1159.378, 0.1761180
1159.860, 0.6214840
1160.343, 0.7350710
1160.825, 0.7200260
1161.307, 0.7240750
1161.789, 0.7400400
1162.271, 0.6440850
1162.753, 0.4462570
1163.235, 0.4074690
1163.717, 0.7111740
1164.199, 0.9736600
1164.682, 0.8507590
1165.164, 0.5491300
1165.646, 0.2374010
1166.128, 8.4618002E-02
1166.610, 0.2599470
1167.092, 0.2870130
1167.574, 0.1613200
1168.056, 0.2628770
1168.539, 0.6281660
1169.021, 0.5520750
1169.503, 0.2451130
1169.985, 2.2735000E-02
1170.467, 0.2571310
1170.949, 0.3416990
1171.431, 0.2733240
1171.913, 7.6940998E-02
1172.396, 0.3996900
1172.878, 0.8426810
1173.360, 0.8735610
1173.842, 0.6451100
1174.324, 0.4477310
1174.806, 0.2737220
1175.288, 0.2533340
1175.770, 0.4180000
1176.252, 0.5833410
1176.734, 0.5024950
1177.217, 0.4051330
1177.699, 0.6458030
1178.181, 1.130245
1178.663, 1.500384
1179.145, 1.740254
1179.627, 1.603223
1180.109, 0.9954170
1180.591, 0.4202800
1181.074, 0.4629560
1181.556, 0.7853210
1182.038, 0.9446500
1182.520, 0.9083250
1183.002, 0.8840280
1183.484, 0.9581560
1183.966, 0.9253330
1184.448, 0.6912240
1184.931, 0.5571530
1185.413, 1.063740
1185.895, 1.799556
1186.377, 2.055299
1186.859, 1.843463
1187.341, 1.691294
1187.823, 1.793465
1188.305, 1.766763
1188.787, 1.512256
1189.270, 1.172523
1189.752, 0.8972100
1190.234, 0.6947700
1190.716, 0.5613710
1191.198, 0.4992490
1191.680, 0.5787490
1192.162, 0.8621940
1192.644, 1.223292
1193.126, 1.719161
1193.609, 2.107640
1194.091, 1.889884
1194.573, 1.319352
1195.055, 0.7973080
1195.537, 0.3749690
1196.019, 0.2210350
1196.501, 0.4999050
1196.983, 0.8211190
1197.466, 1.108267
1197.948, 1.316458
1198.430, 1.372049
1198.912, 1.290894
1199.394, 1.029751
1199.876, 0.5244160
1200.358, 0.3405560
1200.840, 0.8134210
1201.323, 1.205331
1201.805, 1.218955
1202.287, 1.038553
1202.769, 1.045547
1203.251, 1.149950
1203.733, 1.159429
1204.215, 1.017730
1204.697, 0.8353230
1205.179, 0.5789350
1205.661, 0.3780000
1206.144, 0.2613600
1206.626, 0.2707850
1207.108, 0.6518870
1207.590, 1.203762
1208.072, 1.470153
1208.554, 1.238353
1209.036, 1.002971
1209.518, 0.8151210
1210.001, 0.6760060
1210.483, 0.6042670
1210.965, 0.5991190
1211.447, 0.6341010
1211.929, 0.6799330
1212.411, 0.7114480
1212.893, 0.7176920
1213.375, 0.7746820
1213.858, 0.8923770
1214.340, 1.044362
1214.822, 1.292809
1215.304, 1.534090
1215.786, 1.452480
1216.268, 1.159995
1216.750, 0.9530640
1217.232, 0.9431490
1217.714, 1.041271
1218.197, 1.325159
1218.679, 1.513568
1219.161, 1.354880
1219.643, 1.030336
1220.125, 0.8684260
1220.607, 0.8593720
1221.089, 0.9891390
1221.571, 1.472572
1222.053, 1.636927
1222.536, 1.322448
1223.018, 1.032093
1223.500, 1.175114
1223.982, 1.514112
1224.464, 1.638522
1224.946, 1.599165
1225.428, 1.498827
1225.910, 1.297108
1226.393, 1.146290
1226.875, 1.051522
1227.357, 1.001407
1227.839, 1.040037
1228.321, 1.066867
1228.803, 0.8510280
1229.285, 0.5340080
1229.767, 0.4407150
1230.250, 0.9478180
1230.732, 1.004208
1231.214, 0.4865280
1231.696, 4.6422999E-02
1232.178, 0.1973940
1232.660, 8.0819003E-02
1233.142, 0.3518040
1233.624, 0.8992040
1234.106, 1.067322
1234.589, 0.6417550
1235.071, 0.1926830
1235.553, 0.3134380
1236.035, 0.5883840
1236.517, 0.2502590
1236.999, 0.3118500
1237.481, 0.8468440
1237.963, 1.215548
1238.445, 1.031811
1238.928, 4.1896001E-02
1239.410, 0.4492120
1239.892, 8.7223001E-02
1240.374, 0.4551240
1240.856, 0.9078270
1241.338, 1.168928
1241.820, 1.004553
1242.302, 0.6205500
1242.785, 0.4506970
1243.267, 0.5464320
1243.749, 0.6604990
1244.231, 0.7859240
1244.713, 0.8766240
1245.195, 0.8344390
1245.677, 0.8114190
1246.159, 0.9802370
1246.641, 1.226615
1247.124, 1.311915
1247.606, 1.214442
1248.088, 1.213984
1248.570, 1.321230
1249.052, 1.452447
1249.534, 1.548985
1250.016, 1.653069
1250.498, 1.919743
1250.980, 2.137005
1251.463, 1.965821
1251.945, 1.414215
1252.427, 1.119649
1252.909, 1.083512
1253.391, 0.9987380
1253.873, 0.5214360
1254.355, 0.1462670
1254.837, 9.1784000E-02
1255.320, 0.2410820
1255.802, 0.6348100
1256.284, 1.171155
1256.766, 1.059666
1257.248, 0.3857110
1257.730, 2.8666001E-02
1258.212, 0.4944570
1258.694, 1.009885
1259.177, 1.338597
1259.659, 1.461856
1260.141, 1.259863
1260.623, 0.8454770
1261.105, 0.5036120
1261.587, 0.2889270
1262.069, 0.3890440
1262.551, 1.324468
1263.033, 1.919248
1263.516, 1.996450
1263.998, 1.790648
1264.480, 1.362954
1264.962, 0.8956150
1265.444, 0.8161960
1265.926, 1.045614
1266.408, 1.254746
1266.890, 1.283690
1267.372, 1.468474
1267.855, 1.893330
1268.337, 2.173259
1268.819, 1.870150
1269.301, 1.404155
1269.783, 1.512386
1270.265, 1.917378
1270.747, 2.024397
1271.229, 1.511826
1271.712, 1.004233
1272.194, 0.6388000
1272.676, 0.4697010
1273.158, 0.7259410
1273.640, 1.025094
1274.122, 1.011230
1274.604, 0.7752350
1275.086, 0.4646050
1275.568, 1.1646000E-02
1276.051, 6.8465002E-02
1276.533, 0.6571170
1277.015, 1.118897
1277.497, 0.7083470
1277.979, 0.3891270
1278.461, 1.085228
1278.943, 1.993131
1279.425, 2.047657
1279.907, 1.271709
1280.390, 0.8273030
1280.872, 0.6986780
1281.354, 0.7035380
1281.836, 0.7991090
1282.318, 0.8964130
1282.800, 0.9577450
1283.282, 1.015023
1283.764, 1.116471
1284.247, 1.239287
1284.729, 1.274146
1285.211, 1.223614
1285.693, 1.098701
1286.175, 0.7423560
1286.657, 0.5871690
1287.139, 0.7995290
1287.621, 0.9603540
1288.104, 0.5519740
1288.586, 2.2721000E-02
1289.068, 0.2078600
1289.550, 0.9449320
1290.032, 1.499550
1290.514, 1.641675
1290.996, 1.651407
1291.478, 1.504461
1291.960, 1.323162
1292.443, 1.145059
1292.925, 1.015653
1293.407, 1.120113
1293.889, 1.259864
1294.371, 1.024839
1294.853, 0.2620490
1295.335, 1.5260000E-03
1295.817, 0.2415210
1296.299, 0.6191610
1296.782, 1.026339
1297.264, 1.370132
1297.746, 1.661338
1298.228, 1.782006
1298.710, 1.582741
1299.192, 1.095864
1299.674, 0.8325570
1300.156, 0.7761240
1300.639, 0.8205180
1301.121, 1.042271
1301.603, 1.092618
1302.085, 0.4597530
1302.567, 7.5130002E-03
1303.049, 8.3871000E-02
1303.531, 0.0000000E+00
##END=



