##NAMES=Bairdite
##RRUFFID=R190040
##IDEAL CHEMISTRY=Pb^2+^_2_Cu^2+^_4_Te^6+^_2_O_10_(OH)_2_(S^6+^O_4_)&#183;H_2_O
##LOCALITY=Tombstone, Cochise County, Arizona, USA
##OWNER=RRUFF
##SOURCE=Mike Shannon
##DESCRIPTION=Bright lime green platy crystals
##STATUS=The identification of this mineral has been confirmed only by single crystal X-ray diffraction.
##URL=rruff.info/R190040
8.813672e+001, 2.244179e+003
8.861884e+001, 2.319493e+003
8.910095e+001, 2.363627e+003
8.958307e+001, 2.360810e+003
9.006519e+001, 2.334777e+003
9.054730e+001, 2.307773e+003
9.102942e+001, 2.281794e+003
9.151154e+001, 2.255439e+003
9.199365e+001, 2.226299e+003
9.247577e+001, 2.195911e+003
9.295789e+001, 2.167143e+003
9.344000e+001, 2.141435e+003
9.392212e+001, 2.117524e+003
9.440424e+001, 2.094323e+003
9.488635e+001, 2.074067e+003
9.536847e+001, 2.056539e+003
9.585059e+001, 2.041699e+003
9.633270e+001, 2.029232e+003
9.681482e+001, 2.017559e+003
9.729694e+001, 2.005145e+003
9.777905e+001, 1.992142e+003
9.826117e+001, 1.982531e+003
9.874329e+001, 1.977081e+003
9.922540e+001, 1.974590e+003
9.970752e+001, 1.972278e+003
1.001896e+002, 1.969991e+003
1.006718e+002, 1.968062e+003
1.011539e+002, 1.966637e+003
1.016360e+002, 1.965537e+003
1.021181e+002, 1.965590e+003
1.026002e+002, 1.966383e+003
1.030823e+002, 1.968262e+003
1.035645e+002, 1.974083e+003
1.040466e+002, 1.985149e+003
1.045287e+002, 1.998505e+003
1.050108e+002, 2.011618e+003
1.054929e+002, 2.022240e+003
1.059750e+002, 2.036742e+003
1.064572e+002, 2.057262e+003
1.069393e+002, 2.084709e+003
1.074214e+002, 2.110478e+003
1.079035e+002, 2.133583e+003
1.083856e+002, 2.155942e+003
1.088677e+002, 2.179221e+003
1.093499e+002, 2.203739e+003
1.098320e+002, 2.229483e+003
1.103141e+002, 2.256531e+003
1.107962e+002, 2.285531e+003
1.112783e+002, 2.315346e+003
1.117604e+002, 2.347689e+003
1.122426e+002, 2.380917e+003
1.127247e+002, 2.411891e+003
1.132068e+002, 2.437775e+003
1.136889e+002, 2.463265e+003
1.141710e+002, 2.490050e+003
1.146531e+002, 2.519049e+003
1.151353e+002, 2.547970e+003
1.156174e+002, 2.575848e+003
1.160995e+002, 2.603367e+003
1.165816e+002, 2.632599e+003
1.170637e+002, 2.666448e+003
1.175458e+002, 2.700859e+003
1.180280e+002, 2.733149e+003
1.185101e+002, 2.759562e+003
1.189922e+002, 2.787444e+003
1.194743e+002, 2.820157e+003
1.199564e+002, 2.857478e+003
1.204385e+002, 2.897784e+003
1.209207e+002, 2.940814e+003
1.214028e+002, 2.986189e+003
1.218849e+002, 3.033281e+003
1.223670e+002, 3.082563e+003
1.228491e+002, 3.133779e+003
1.233312e+002, 3.186402e+003
1.238134e+002, 3.240596e+003
1.242955e+002, 3.295917e+003
1.247776e+002, 3.352963e+003
1.252597e+002, 3.410793e+003
1.257418e+002, 3.467591e+003
1.262239e+002, 3.523292e+003
1.267061e+002, 3.577582e+003
1.271882e+002, 3.628603e+003
1.276703e+002, 3.676769e+003
1.281524e+002, 3.721504e+003
1.286345e+002, 3.763802e+003
1.291166e+002, 3.802688e+003
1.295988e+002, 3.834212e+003
1.300809e+002, 3.855911e+003
1.305630e+002, 3.868501e+003
1.310451e+002, 3.873527e+003
1.315272e+002, 3.869907e+003
1.320093e+002, 3.861660e+003
1.324915e+002, 3.853394e+003
1.329736e+002, 3.845106e+003
1.334557e+002, 3.837907e+003
1.339378e+002, 3.832313e+003
1.344199e+002, 3.828223e+003
1.349020e+002, 3.825783e+003
1.353842e+002, 3.825319e+003
1.358663e+002, 3.825738e+003
1.363484e+002, 3.824563e+003
1.368305e+002, 3.821298e+003
1.373126e+002, 3.817816e+003
1.377947e+002, 3.815920e+003
1.382769e+002, 3.816141e+003
1.387590e+002, 3.813595e+003
1.392411e+002, 3.808171e+003
1.397232e+002, 3.799387e+003
1.402053e+002, 3.785956e+003
1.406874e+002, 3.767301e+003
1.411696e+002, 3.745033e+003
1.416517e+002, 3.720258e+003
1.421338e+002, 3.692216e+003
1.426159e+002, 3.663843e+003
1.430980e+002, 3.635430e+003
1.435801e+002, 3.607208e+003
1.440623e+002, 3.578457e+003
1.445444e+002, 3.548265e+003
1.450265e+002, 3.518956e+003
1.455086e+002, 3.492749e+003
1.459907e+002, 3.469579e+003
1.464728e+002, 3.449474e+003
1.469550e+002, 3.432278e+003
1.474371e+002, 3.418094e+003
1.479192e+002, 3.407010e+003
1.484013e+002, 3.400383e+003
1.488834e+002, 3.396038e+003
1.493655e+002, 3.391882e+003
1.498477e+002, 3.385797e+003
1.503298e+002, 3.382084e+003
1.508119e+002, 3.382039e+003
1.512940e+002, 3.386280e+003
1.517761e+002, 3.390303e+003
1.522583e+002, 3.392984e+003
1.527404e+002, 3.395666e+003
1.532225e+002, 3.399806e+003
1.537046e+002, 3.406659e+003
1.541867e+002, 3.413978e+003
1.546688e+002, 3.420981e+003
1.551510e+002, 3.427352e+003
1.556331e+002, 3.435092e+003
1.561152e+002, 3.444520e+003
1.565973e+002, 3.455539e+003
1.570794e+002, 3.467916e+003
1.575615e+002, 3.482324e+003
1.580437e+002, 3.497751e+003
1.585258e+002, 3.514305e+003
1.590079e+002, 3.532840e+003
1.594900e+002, 3.549978e+003
1.599721e+002, 3.564461e+003
1.604542e+002, 3.576921e+003
1.609364e+002, 3.588453e+003
1.614185e+002, 3.600089e+003
1.619006e+002, 3.610364e+003
1.623827e+002, 3.618476e+003
1.628648e+002, 3.624242e+003
1.633469e+002, 3.627785e+003
1.638291e+002, 3.630958e+003
1.643112e+002, 3.632035e+003
1.647933e+002, 3.627144e+003
1.652754e+002, 3.612875e+003
1.657575e+002, 3.592911e+003
1.662396e+002, 3.569737e+003
1.667218e+002, 3.543204e+003
1.672039e+002, 3.514882e+003
1.676860e+002, 3.485190e+003
1.681681e+002, 3.454575e+003
1.686502e+002, 3.423309e+003
1.691323e+002, 3.391875e+003
1.696145e+002, 3.360151e+003
1.700966e+002, 3.327893e+003
1.705787e+002, 3.294060e+003
1.710608e+002, 3.261175e+003
1.715429e+002, 3.230655e+003
1.720250e+002, 3.202367e+003
1.725072e+002, 3.177351e+003
1.729893e+002, 3.156144e+003
1.734714e+002, 3.137977e+003
1.739535e+002, 3.121813e+003
1.744356e+002, 3.107226e+003
1.749177e+002, 3.094614e+003
1.753999e+002, 3.085068e+003
1.758820e+002, 3.078184e+003
1.763641e+002, 3.071533e+003
1.768462e+002, 3.061396e+003
1.773283e+002, 3.050266e+003
1.778104e+002, 3.043059e+003
1.782926e+002, 3.042838e+003
1.787747e+002, 3.045871e+003
1.792568e+002, 3.048300e+003
1.797389e+002, 3.050036e+003
1.802210e+002, 3.049074e+003
1.807031e+002, 3.042488e+003
1.811853e+002, 3.031776e+003
1.816674e+002, 3.021090e+003
1.821495e+002, 3.013419e+003
1.826316e+002, 3.005556e+003
1.831137e+002, 2.991109e+003
1.835958e+002, 2.969867e+003
1.840780e+002, 2.945686e+003
1.845601e+002, 2.921065e+003
1.850422e+002, 2.896336e+003
1.855243e+002, 2.870978e+003
1.860064e+002, 2.845716e+003
1.864885e+002, 2.819559e+003
1.869707e+002, 2.790278e+003
1.874528e+002, 2.757419e+003
1.879349e+002, 2.723386e+003
1.884170e+002, 2.690971e+003
1.888991e+002, 2.659843e+003
1.893812e+002, 2.627331e+003
1.898634e+002, 2.591931e+003
1.903455e+002, 2.554353e+003
1.908276e+002, 2.516592e+003
1.913097e+002, 2.478246e+003
1.917918e+002, 2.440000e+003
1.922739e+002, 2.401472e+003
1.927561e+002, 2.362244e+003
1.932382e+002, 2.326784e+003
1.937203e+002, 2.296766e+003
1.942024e+002, 2.271633e+003
1.946845e+002, 2.247816e+003
1.951666e+002, 2.225515e+003
1.956488e+002, 2.204083e+003
1.961309e+002, 2.182879e+003
1.966130e+002, 2.161591e+003
1.970951e+002, 2.140672e+003
1.975772e+002, 2.119327e+003
1.980593e+002, 2.097901e+003
1.985415e+002, 2.080492e+003
1.990236e+002, 2.067733e+003
1.995057e+002, 2.057548e+003
1.999878e+002, 2.047839e+003
2.004699e+002, 2.038709e+003
2.009520e+002, 2.029779e+003
2.014342e+002, 2.020951e+003
2.019163e+002, 2.012258e+003
2.023984e+002, 2.004456e+003
2.028805e+002, 1.997638e+003
2.033626e+002, 1.991667e+003
2.038447e+002, 1.986271e+003
2.043269e+002, 1.981372e+003
2.048090e+002, 1.977517e+003
2.052911e+002, 1.975338e+003
2.057732e+002, 1.974865e+003
2.062553e+002, 1.973145e+003
2.067374e+002, 1.969852e+003
2.072196e+002, 1.965679e+003
2.077017e+002, 1.961598e+003
2.081838e+002, 1.957683e+003
2.086659e+002, 1.953349e+003
2.091480e+002, 1.948525e+003
2.096301e+002, 1.943171e+003
2.101123e+002, 1.936578e+003
2.105944e+002, 1.928160e+003
2.110765e+002, 1.919155e+003
2.115586e+002, 1.911424e+003
2.120407e+002, 1.905410e+003
2.125228e+002, 1.899314e+003
2.130050e+002, 1.892354e+003
2.134871e+002, 1.884335e+003
2.139692e+002, 1.877658e+003
2.144513e+002, 1.872623e+003
2.149334e+002, 1.868608e+003
2.154155e+002, 1.864748e+003
2.158977e+002, 1.861137e+003
2.163798e+002, 1.857408e+003
2.168619e+002, 1.852943e+003
2.173440e+002, 1.847300e+003
2.178261e+002, 1.845015e+003
2.183082e+002, 1.847520e+003
2.187904e+002, 1.852008e+003
2.192725e+002, 1.854341e+003
2.197546e+002, 1.853167e+003
2.202367e+002, 1.852878e+003
2.207188e+002, 1.855050e+003
2.212009e+002, 1.860200e+003
2.216831e+002, 1.864555e+003
2.221652e+002, 1.867845e+003
2.226473e+002, 1.870647e+003
2.231294e+002, 1.873430e+003
2.236115e+002, 1.875430e+003
2.240936e+002, 1.879060e+003
2.245758e+002, 1.885482e+003
2.250579e+002, 1.895211e+003
2.255400e+002, 1.904020e+003
2.260221e+002, 1.912251e+003
2.265042e+002, 1.919266e+003
2.269863e+002, 1.923836e+003
2.274685e+002, 1.924617e+003
2.279506e+002, 1.925466e+003
2.284327e+002, 1.927160e+003
2.289148e+002, 1.929645e+003
2.293969e+002, 1.933491e+003
2.298790e+002, 1.939666e+003
2.303612e+002, 1.946300e+003
2.308433e+002, 1.951210e+003
2.313254e+002, 1.954435e+003
2.318075e+002, 1.955813e+003
2.322896e+002, 1.954776e+003
2.327717e+002, 1.950959e+003
2.332539e+002, 1.948318e+003
2.337360e+002, 1.947942e+003
2.342181e+002, 1.947850e+003
2.347002e+002, 1.945547e+003
2.351823e+002, 1.939312e+003
2.356644e+002, 1.934178e+003
2.361466e+002, 1.932245e+003
2.366287e+002, 1.934166e+003
2.371108e+002, 1.931645e+003
2.375929e+002, 1.922319e+003
2.380750e+002, 1.910888e+003
2.385571e+002, 1.902372e+003
2.390393e+002, 1.898418e+003
2.395214e+002, 1.894423e+003
2.400035e+002, 1.889523e+003
2.404856e+002, 1.883632e+003
2.409677e+002, 1.877804e+003
2.414498e+002, 1.872513e+003
2.419320e+002, 1.866787e+003
2.424141e+002, 1.859427e+003
2.428962e+002, 1.849177e+003
2.433783e+002, 1.839504e+003
2.438604e+002, 1.830850e+003
2.443425e+002, 1.823173e+003
2.448247e+002, 1.816602e+003
2.453068e+002, 1.811313e+003
2.457889e+002, 1.806842e+003
2.462710e+002, 1.802751e+003
2.467531e+002, 1.799004e+003
2.472352e+002, 1.795691e+003
2.477174e+002, 1.793129e+003
2.481995e+002, 1.791264e+003
2.486816e+002, 1.788198e+003
2.491637e+002, 1.782667e+003
2.496458e+002, 1.777516e+003
2.501279e+002, 1.775158e+003
2.506101e+002, 1.776606e+003
2.510922e+002, 1.778889e+003
2.515743e+002, 1.782229e+003
2.520564e+002, 1.786378e+003
2.525385e+002, 1.788644e+003
2.530206e+002, 1.787621e+003
2.535028e+002, 1.786641e+003
2.539849e+002, 1.788094e+003
2.544670e+002, 1.792793e+003
2.549491e+002, 1.797865e+003
2.554312e+002, 1.802902e+003
2.559133e+002, 1.807969e+003
2.563955e+002, 1.813923e+003
2.568776e+002, 1.821113e+003
2.573597e+002, 1.828535e+003
2.578418e+002, 1.835369e+003
2.583239e+002, 1.840990e+003
2.588061e+002, 1.847785e+003
2.592882e+002, 1.856470e+003
2.597703e+002, 1.866420e+003
2.602524e+002, 1.875086e+003
2.607345e+002, 1.882192e+003
2.612166e+002, 1.888718e+003
2.616988e+002, 1.895547e+003
2.621809e+002, 1.903198e+003
2.626630e+002, 1.909286e+003
2.631451e+002, 1.913719e+003
2.636272e+002, 1.916590e+003
2.641093e+002, 1.917804e+003
2.645915e+002, 1.917022e+003
2.650736e+002, 1.915530e+003
2.655557e+002, 1.914431e+003
2.660378e+002, 1.914737e+003
2.665199e+002, 1.911199e+003
2.670020e+002, 1.902468e+003
2.674842e+002, 1.890912e+003
2.679663e+002, 1.881821e+003
2.684484e+002, 1.876022e+003
2.689305e+002, 1.870280e+003
2.694126e+002, 1.863041e+003
2.698947e+002, 1.853743e+003
2.703769e+002, 1.845605e+003
2.708590e+002, 1.838834e+003
2.713411e+002, 1.832785e+003
2.718232e+002, 1.826238e+003
2.723053e+002, 1.818682e+003
2.727874e+002, 1.812441e+003
2.732696e+002, 1.808618e+003
2.737517e+002, 1.807345e+003
2.742338e+002, 1.805561e+003
2.747159e+002, 1.802790e+003
2.751980e+002, 1.800331e+003
2.756801e+002, 1.800371e+003
2.761623e+002, 1.803352e+003
2.766444e+002, 1.806267e+003
2.771265e+002, 1.808256e+003
2.776086e+002, 1.809394e+003
2.780907e+002, 1.810192e+003
2.785728e+002, 1.810702e+003
2.790550e+002, 1.810884e+003
2.795371e+002, 1.810380e+003
2.800192e+002, 1.809107e+003
2.805013e+002, 1.808728e+003
2.809834e+002, 1.810102e+003
2.814655e+002, 1.812769e+003
2.819477e+002, 1.814189e+003
2.824298e+002, 1.814194e+003
2.829119e+002, 1.813717e+003
2.833940e+002, 1.813380e+003
2.838761e+002, 1.813179e+003
2.843582e+002, 1.813496e+003
2.848404e+002, 1.814322e+003
2.853225e+002, 1.815731e+003
2.858046e+002, 1.817968e+003
2.862867e+002, 1.820996e+003
2.867688e+002, 1.824848e+003
2.872509e+002, 1.830088e+003
2.877331e+002, 1.836480e+003
2.882152e+002, 1.842006e+003
2.886973e+002, 1.846310e+003
2.891794e+002, 1.849600e+003
2.896615e+002, 1.852559e+003
2.901436e+002, 1.855197e+003
2.906258e+002, 1.856337e+003
2.911079e+002, 1.855220e+003
2.915900e+002, 1.851974e+003
2.920721e+002, 1.846987e+003
2.925542e+002, 1.840220e+003
2.930363e+002, 1.832106e+003
2.935185e+002, 1.822892e+003
2.940006e+002, 1.812616e+003
2.944827e+002, 1.802491e+003
2.949648e+002, 1.793303e+003
2.954469e+002, 1.784586e+003
2.959290e+002, 1.775288e+003
2.964112e+002, 1.765277e+003
2.968933e+002, 1.754689e+003
2.973754e+002, 1.742884e+003
2.978575e+002, 1.730501e+003
2.983396e+002, 1.719660e+003
2.988217e+002, 1.711822e+003
2.993039e+002, 1.706145e+003
2.997860e+002, 1.701574e+003
3.002681e+002, 1.698088e+003
3.007502e+002, 1.695127e+003
3.012323e+002, 1.692366e+003
3.017144e+002, 1.689724e+003
3.021966e+002, 1.687130e+003
3.026787e+002, 1.684174e+003
3.031608e+002, 1.681423e+003
3.036429e+002, 1.680049e+003
3.041250e+002, 1.679969e+003
3.046071e+002, 1.679229e+003
3.050893e+002, 1.675511e+003
3.055714e+002, 1.670245e+003
3.060535e+002, 1.665777e+003
3.065356e+002, 1.662435e+003
3.070177e+002, 1.660504e+003
3.074998e+002, 1.661676e+003
3.079820e+002, 1.665204e+003
3.084641e+002, 1.667059e+003
3.089462e+002, 1.662898e+003
3.094283e+002, 1.656454e+003
3.099104e+002, 1.651941e+003
3.103925e+002, 1.651192e+003
3.108747e+002, 1.651162e+003
3.113568e+002, 1.649921e+003
3.118389e+002, 1.647806e+003
3.123210e+002, 1.645760e+003
3.128031e+002, 1.644216e+003
3.132852e+002, 1.642937e+003
3.137674e+002, 1.641556e+003
3.142495e+002, 1.639711e+003
3.147316e+002, 1.638799e+003
3.152137e+002, 1.640074e+003
3.156958e+002, 1.642708e+003
3.161779e+002, 1.645287e+003
3.166601e+002, 1.646903e+003
3.171422e+002, 1.648622e+003
3.176243e+002, 1.650888e+003
3.181064e+002, 1.653695e+003
3.185885e+002, 1.657266e+003
3.190706e+002, 1.661829e+003
3.195528e+002, 1.667153e+003
3.200349e+002, 1.672973e+003
3.205170e+002, 1.679216e+003
3.209991e+002, 1.685953e+003
3.214812e+002, 1.693505e+003
3.219633e+002, 1.701911e+003
3.224455e+002, 1.709787e+003
3.229276e+002, 1.715456e+003
3.234097e+002, 1.721306e+003
3.238918e+002, 1.729125e+003
3.243739e+002, 1.742134e+003
3.248560e+002, 1.753832e+003
3.253382e+002, 1.761953e+003
3.258203e+002, 1.767291e+003
3.263024e+002, 1.774937e+003
3.267845e+002, 1.787505e+003
3.272666e+002, 1.800839e+003
3.277487e+002, 1.812993e+003
3.282309e+002, 1.823339e+003
3.287130e+002, 1.833115e+003
3.291951e+002, 1.841620e+003
3.296772e+002, 1.849573e+003
3.301593e+002, 1.858780e+003
3.306414e+002, 1.869023e+003
3.311236e+002, 1.880678e+003
3.316057e+002, 1.894340e+003
3.320878e+002, 1.911254e+003
3.325699e+002, 1.926319e+003
3.330520e+002, 1.937794e+003
3.335341e+002, 1.948423e+003
3.340163e+002, 1.962325e+003
3.344984e+002, 1.980893e+003
3.349805e+002, 1.999814e+003
3.354626e+002, 2.017718e+003
3.359447e+002, 2.034565e+003
3.364268e+002, 2.054188e+003
3.369090e+002, 2.077745e+003
3.373911e+002, 2.102627e+003
3.378732e+002, 2.126110e+003
3.383553e+002, 2.147917e+003
3.388374e+002, 2.169275e+003
3.393195e+002, 2.190345e+003
3.398017e+002, 2.211134e+003
3.402838e+002, 2.233360e+003
3.407659e+002, 2.257982e+003
3.412480e+002, 2.280673e+003
3.417301e+002, 2.298470e+003
3.422122e+002, 2.311136e+003
3.426944e+002, 2.321932e+003
3.431765e+002, 2.331462e+003
3.436586e+002, 2.338826e+003
3.441407e+002, 2.341993e+003
3.446228e+002, 2.340966e+003
3.451049e+002, 2.336601e+003
3.455871e+002, 2.328760e+003
3.460692e+002, 2.317738e+003
3.465513e+002, 2.305895e+003
3.470334e+002, 2.293520e+003
3.475155e+002, 2.279659e+003
3.479977e+002, 2.262655e+003
3.484798e+002, 2.242900e+003
3.489619e+002, 2.223120e+003
3.494440e+002, 2.204250e+003
3.499261e+002, 2.186124e+003
3.504082e+002, 2.168126e+003
3.508904e+002, 2.150234e+003
3.513725e+002, 2.133528e+003
3.518546e+002, 2.119107e+003
3.523367e+002, 2.106371e+003
3.528188e+002, 2.093944e+003
3.533009e+002, 2.081251e+003
3.537831e+002, 2.068849e+003
3.542652e+002, 2.057426e+003
3.547473e+002, 2.046862e+003
3.552294e+002, 2.036666e+003
3.557115e+002, 2.026162e+003
3.561936e+002, 2.016053e+003
3.566758e+002, 2.007073e+003
3.571579e+002, 1.999212e+003
3.576400e+002, 1.992771e+003
3.581221e+002, 1.988477e+003
3.586042e+002, 1.985800e+003
3.590863e+002, 1.983545e+003
3.595685e+002, 1.980218e+003
3.600506e+002, 1.977935e+003
3.605327e+002, 1.978141e+003
3.610148e+002, 1.981089e+003
3.614969e+002, 1.985316e+003
3.619790e+002, 1.989804e+003
3.624612e+002, 1.995380e+003
3.629433e+002, 2.002975e+003
3.634254e+002, 2.014722e+003
3.639075e+002, 2.026578e+003
3.643896e+002, 2.036436e+003
3.648717e+002, 2.044586e+003
3.653539e+002, 2.054989e+003
3.658360e+002, 2.069533e+003
3.663181e+002, 2.085747e+003
3.668002e+002, 2.102395e+003
3.672823e+002, 2.119521e+003
3.677644e+002, 2.136775e+003
3.682466e+002, 2.154278e+003
3.687287e+002, 2.171952e+003
3.692108e+002, 2.189321e+003
3.696929e+002, 2.207137e+003
3.701750e+002, 2.224065e+003
3.706571e+002, 2.239172e+003
3.711393e+002, 2.251609e+003
3.716214e+002, 2.265668e+003
3.721035e+002, 2.282478e+003
3.725856e+002, 2.300319e+003
3.730677e+002, 2.316896e+003
3.735498e+002, 2.332498e+003
3.740320e+002, 2.346580e+003
3.745141e+002, 2.358534e+003
3.749962e+002, 2.368516e+003
3.754783e+002, 2.379199e+003
3.759604e+002, 2.390421e+003
3.764425e+002, 2.402545e+003
3.769247e+002, 2.416289e+003
3.774068e+002, 2.431860e+003
3.778889e+002, 2.446585e+003
3.783710e+002, 2.459662e+003
3.788531e+002, 2.471975e+003
3.793352e+002, 2.485766e+003
3.798174e+002, 2.500929e+003
3.802995e+002, 2.517280e+003
3.807816e+002, 2.535116e+003
3.812637e+002, 2.554214e+003
3.817458e+002, 2.571997e+003
3.822279e+002, 2.588400e+003
3.827101e+002, 2.603987e+003
3.831922e+002, 2.620501e+003
3.836743e+002, 2.637459e+003
3.841564e+002, 2.651891e+003
3.846385e+002, 2.661785e+003
3.851206e+002, 2.668978e+003
3.856028e+002, 2.677532e+003
3.860849e+002, 2.687277e+003
3.865670e+002, 2.694868e+003
3.870491e+002, 2.697677e+003
3.875312e+002, 2.696683e+003
3.880133e+002, 2.693798e+003
3.884955e+002, 2.690544e+003
3.889776e+002, 2.683781e+003
3.894597e+002, 2.670451e+003
3.899418e+002, 2.651367e+003
3.904239e+002, 2.628797e+003
3.909060e+002, 2.602888e+003
3.913882e+002, 2.574647e+003
3.918703e+002, 2.545024e+003
3.923524e+002, 2.513961e+003
3.928345e+002, 2.480841e+003
3.933166e+002, 2.444450e+003
3.937987e+002, 2.405871e+003
3.942809e+002, 2.366984e+003
3.947630e+002, 2.325979e+003
3.952451e+002, 2.286760e+003
3.957272e+002, 2.250152e+003
3.962093e+002, 2.216318e+003
3.966914e+002, 2.184638e+003
3.971736e+002, 2.156166e+003
3.976557e+002, 2.129012e+003
3.981378e+002, 2.101897e+003
3.986199e+002, 2.072565e+003
3.991020e+002, 2.046402e+003
3.995841e+002, 2.024026e+003
4.000663e+002, 2.004855e+003
4.005484e+002, 1.987567e+003
4.010305e+002, 1.972693e+003
4.015126e+002, 1.959044e+003
4.019947e+002, 1.946383e+003
4.024768e+002, 1.935028e+003
4.029590e+002, 1.923408e+003
4.034411e+002, 1.910809e+003
4.039232e+002, 1.898774e+003
4.044053e+002, 1.889352e+003
4.048874e+002, 1.883372e+003
4.053695e+002, 1.877136e+003
4.058517e+002, 1.869835e+003
4.063338e+002, 1.861752e+003
4.068159e+002, 1.853473e+003
4.072980e+002, 1.844787e+003
4.077801e+002, 1.836965e+003
4.082622e+002, 1.831631e+003
4.087444e+002, 1.828517e+003
4.092265e+002, 1.824117e+003
4.097086e+002, 1.817992e+003
4.101907e+002, 1.810730e+003
4.106728e+002, 1.802602e+003
4.111549e+002, 1.793794e+003
4.116371e+002, 1.785800e+003
4.121192e+002, 1.779732e+003
4.126013e+002, 1.774861e+003
4.130834e+002, 1.770221e+003
4.135655e+002, 1.765804e+003
4.140476e+002, 1.760538e+003
4.145298e+002, 1.752099e+003
4.150119e+002, 1.742481e+003
4.154940e+002, 1.734871e+003
4.159761e+002, 1.730809e+003
4.164582e+002, 1.728169e+003
4.169403e+002, 1.725467e+003
4.174225e+002, 1.722847e+003
4.179046e+002, 1.720716e+003
4.183867e+002, 1.719256e+003
4.188688e+002, 1.718473e+003
4.193509e+002, 1.718387e+003
4.198330e+002, 1.719007e+003
4.203152e+002, 1.720415e+003
4.207973e+002, 1.722198e+003
4.212794e+002, 1.724984e+003
4.217615e+002, 1.729496e+003
4.222436e+002, 1.736178e+003
4.227257e+002, 1.744299e+003
4.232079e+002, 1.753601e+003
4.236900e+002, 1.764107e+003
4.241721e+002, 1.776460e+003
4.246542e+002, 1.790041e+003
4.251363e+002, 1.806064e+003
4.256184e+002, 1.825447e+003
4.261006e+002, 1.848891e+003
4.265827e+002, 1.873815e+003
4.270648e+002, 1.900500e+003
4.275469e+002, 1.928540e+003
4.280290e+002, 1.956808e+003
4.285111e+002, 1.985341e+003
4.289933e+002, 2.013899e+003
4.294754e+002, 2.042644e+003
4.299575e+002, 2.071613e+003
4.304396e+002, 2.098603e+003
4.309217e+002, 2.124358e+003
4.314038e+002, 2.146313e+003
4.318860e+002, 2.162304e+003
4.323681e+002, 2.172348e+003
4.328502e+002, 2.175814e+003
4.333323e+002, 2.172089e+003
4.338144e+002, 2.162595e+003
4.342965e+002, 2.148438e+003
4.347787e+002, 2.129964e+003
4.352608e+002, 2.111585e+003
4.357429e+002, 2.095468e+003
4.362250e+002, 2.081214e+003
4.367071e+002, 2.067569e+003
4.371892e+002, 2.054390e+003
4.376714e+002, 2.043287e+003
4.381535e+002, 2.036045e+003
4.386356e+002, 2.031975e+003
4.391177e+002, 2.030041e+003
4.395998e+002, 2.030654e+003
4.400819e+002, 2.032452e+003
4.405641e+002, 2.033686e+003
4.410462e+002, 2.035007e+003
4.415283e+002, 2.038738e+003
4.420104e+002, 2.048502e+003
4.424925e+002, 2.059425e+003
4.429746e+002, 2.067436e+003
4.434568e+002, 2.070745e+003
4.439389e+002, 2.076310e+003
4.444210e+002, 2.088142e+003
4.449031e+002, 2.102762e+003
4.453852e+002, 2.116063e+003
4.458673e+002, 2.126403e+003
4.463495e+002, 2.135983e+003
4.468316e+002, 2.144845e+003
4.473137e+002, 2.153059e+003
4.477958e+002, 2.161933e+003
4.482779e+002, 2.171951e+003
4.487600e+002, 2.181982e+003
4.492422e+002, 2.191415e+003
4.497243e+002, 2.199955e+003
4.502064e+002, 2.208947e+003
4.506885e+002, 2.219328e+003
4.511706e+002, 2.229580e+003
4.516527e+002, 2.236909e+003
4.521349e+002, 2.240941e+003
4.526170e+002, 2.244175e+003
4.530991e+002, 2.247469e+003
4.535812e+002, 2.250687e+003
4.540633e+002, 2.252468e+003
4.545454e+002, 2.252800e+003
4.550276e+002, 2.252360e+003
4.555097e+002, 2.252051e+003
4.559918e+002, 2.251546e+003
4.564739e+002, 2.249179e+003
4.569560e+002, 2.244512e+003
4.574381e+002, 2.238300e+003
4.579203e+002, 2.231597e+003
4.584024e+002, 2.224188e+003
4.588845e+002, 2.215313e+003
4.593666e+002, 2.203428e+003
4.598488e+002, 2.190527e+003
4.603309e+002, 2.179004e+003
4.608130e+002, 2.168851e+003
4.612951e+002, 2.158854e+003
4.617772e+002, 2.148813e+003
4.622593e+002, 2.138476e+003
4.627415e+002, 2.127849e+003
4.632236e+002, 2.117405e+003
4.637057e+002, 2.105896e+003
4.641878e+002, 2.091715e+003
4.646699e+002, 2.076401e+003
4.651520e+002, 2.062624e+003
4.656342e+002, 2.052401e+003
4.661163e+002, 2.042982e+003
4.665984e+002, 2.033388e+003
4.670805e+002, 2.023540e+003
4.675626e+002, 2.014453e+003
4.680447e+002, 2.007072e+003
4.685269e+002, 1.999722e+003
4.690090e+002, 1.990964e+003
4.694911e+002, 1.979172e+003
4.699732e+002, 1.969407e+003
4.704553e+002, 1.962423e+003
4.709374e+002, 1.957281e+003
4.714196e+002, 1.951892e+003
4.719017e+002, 1.946270e+003
4.723838e+002, 1.940426e+003
4.728659e+002, 1.934320e+003
4.733480e+002, 1.927956e+003
4.738301e+002, 1.921355e+003
4.743123e+002, 1.914326e+003
4.747944e+002, 1.908161e+003
4.752765e+002, 1.905132e+003
4.757586e+002, 1.904315e+003
4.762407e+002, 1.901353e+003
4.767228e+002, 1.894730e+003
4.772050e+002, 1.887197e+003
4.776871e+002, 1.882462e+003
4.781692e+002, 1.879952e+003
4.786513e+002, 1.877951e+003
4.791334e+002, 1.875652e+003
4.796155e+002, 1.873349e+003
4.800977e+002, 1.871371e+003
4.805798e+002, 1.869712e+003
4.810619e+002, 1.868032e+003
4.815440e+002, 1.865539e+003
4.820261e+002, 1.863254e+003
4.825082e+002, 1.862169e+003
4.829904e+002, 1.863552e+003
4.834725e+002, 1.864605e+003
4.839546e+002, 1.863721e+003
4.844367e+002, 1.862026e+003
4.849188e+002, 1.861905e+003
4.854009e+002, 1.866236e+003
4.858831e+002, 1.869642e+003
4.863652e+002, 1.870121e+003
4.868473e+002, 1.867366e+003
4.873294e+002, 1.866506e+003
4.878115e+002, 1.868307e+003
4.882936e+002, 1.871120e+003
4.887758e+002, 1.873832e+003
4.892579e+002, 1.876363e+003
4.897400e+002, 1.879083e+003
4.902221e+002, 1.882023e+003
4.907042e+002, 1.885130e+003
4.911863e+002, 1.888701e+003
4.916685e+002, 1.892863e+003
4.921506e+002, 1.895386e+003
4.926327e+002, 1.894166e+003
4.931148e+002, 1.890762e+003
4.935969e+002, 1.891184e+003
4.940790e+002, 1.895409e+003
4.945612e+002, 1.899627e+003
4.950433e+002, 1.900272e+003
4.955254e+002, 1.898828e+003
4.960075e+002, 1.898271e+003
4.964896e+002, 1.899441e+003
4.969717e+002, 1.900608e+003
4.974539e+002, 1.899534e+003
4.979360e+002, 1.897413e+003
4.984181e+002, 1.896464e+003
4.989002e+002, 1.898516e+003
4.993823e+002, 1.901172e+003
4.998644e+002, 1.903608e+003
5.003466e+002, 1.905722e+003
5.008287e+002, 1.906683e+003
5.013108e+002, 1.904638e+003
5.017929e+002, 1.902554e+003
5.022750e+002, 1.902252e+003
5.027571e+002, 1.905166e+003
5.032393e+002, 1.907423e+003
5.037214e+002, 1.908599e+003
5.042035e+002, 1.909249e+003
5.046856e+002, 1.909973e+003
5.051677e+002, 1.910217e+003
5.056498e+002, 1.911688e+003
5.061320e+002, 1.914736e+003
5.066141e+002, 1.919293e+003
5.070962e+002, 1.925136e+003
5.075783e+002, 1.932572e+003
5.080604e+002, 1.939926e+003
5.085425e+002, 1.945476e+003
5.090247e+002, 1.949575e+003
5.095068e+002, 1.956311e+003
5.099889e+002, 1.966151e+003
5.104710e+002, 1.976833e+003
5.109531e+002, 1.985201e+003
5.114352e+002, 1.992244e+003
5.119174e+002, 2.001036e+003
5.123995e+002, 2.013422e+003
5.128816e+002, 2.026767e+003
5.133637e+002, 2.038802e+003
5.138458e+002, 2.049656e+003
5.143279e+002, 2.059691e+003
5.148101e+002, 2.066892e+003
5.152922e+002, 2.075004e+003
5.157743e+002, 2.087417e+003
5.162564e+002, 2.104842e+003
5.167385e+002, 2.121781e+003
5.172206e+002, 2.135701e+003
5.177028e+002, 2.148542e+003
5.181849e+002, 2.161811e+003
5.186670e+002, 2.176276e+003
5.191491e+002, 2.190447e+003
5.196312e+002, 2.204050e+003
5.201133e+002, 2.217269e+003
5.205955e+002, 2.230913e+003
5.210776e+002, 2.245152e+003
5.215597e+002, 2.259190e+003
5.220418e+002, 2.272906e+003
5.225239e+002, 2.286293e+003
5.230060e+002, 2.298241e+003
5.234882e+002, 2.308378e+003
5.239703e+002, 2.318483e+003
5.244524e+002, 2.331142e+003
5.249345e+002, 2.345743e+003
5.254166e+002, 2.355690e+003
5.258987e+002, 2.359336e+003
5.263809e+002, 2.361941e+003
5.268630e+002, 2.371275e+003
5.273451e+002, 2.385483e+003
5.278272e+002, 2.398491e+003
5.283093e+002, 2.407030e+003
5.287914e+002, 2.414235e+003
5.292736e+002, 2.423529e+003
5.297557e+002, 2.434551e+003
5.302378e+002, 2.445166e+003
5.307199e+002, 2.453523e+003
5.312020e+002, 2.461826e+003
5.316841e+002, 2.471651e+003
5.321663e+002, 2.483659e+003
5.326484e+002, 2.495672e+003
5.331305e+002, 2.507525e+003
5.336126e+002, 2.519090e+003
5.340947e+002, 2.530407e+003
5.345768e+002, 2.540518e+003
5.350590e+002, 2.551538e+003
5.355411e+002, 2.563982e+003
5.360232e+002, 2.577296e+003
5.365053e+002, 2.589954e+003
5.369874e+002, 2.602238e+003
5.374695e+002, 2.612565e+003
5.379517e+002, 2.619602e+003
5.384338e+002, 2.623667e+003
5.389159e+002, 2.629053e+003
5.393980e+002, 2.635997e+003
5.398801e+002, 2.642596e+003
5.403622e+002, 2.647828e+003
5.408444e+002, 2.651398e+003
5.413265e+002, 2.651694e+003
5.418086e+002, 2.647897e+003
5.422907e+002, 2.643302e+003
5.427728e+002, 2.642596e+003
5.432549e+002, 2.643935e+003
5.437371e+002, 2.643327e+003
5.442192e+002, 2.638961e+003
5.447013e+002, 2.632252e+003
5.451834e+002, 2.622801e+003
5.456655e+002, 2.611398e+003
5.461476e+002, 2.601510e+003
5.466298e+002, 2.597090e+003
5.471119e+002, 2.592506e+003
5.475940e+002, 2.584455e+003
5.480761e+002, 2.571601e+003
5.485582e+002, 2.559315e+003
5.490403e+002, 2.549356e+003
5.495225e+002, 2.539085e+003
5.500046e+002, 2.526365e+003
5.504867e+002, 2.510107e+003
5.509688e+002, 2.493702e+003
5.514509e+002, 2.477602e+003
5.519330e+002, 2.461240e+003
5.524152e+002, 2.443233e+003
5.528973e+002, 2.423140e+003
5.533794e+002, 2.404050e+003
5.538615e+002, 2.387528e+003
5.543436e+002, 2.372777e+003
5.548257e+002, 2.357321e+003
5.553079e+002, 2.341285e+003
5.557900e+002, 2.324203e+003
5.562721e+002, 2.304695e+003
5.567542e+002, 2.284453e+003
5.572363e+002, 2.266447e+003
5.577184e+002, 2.251193e+003
5.582006e+002, 2.237242e+003
5.586827e+002, 2.223591e+003
5.591648e+002, 2.210646e+003
5.596469e+002, 2.198670e+003
5.601290e+002, 2.189549e+003
5.606111e+002, 2.179631e+003
5.610933e+002, 2.166406e+003
5.615754e+002, 2.151456e+003
5.620575e+002, 2.139276e+003
5.625396e+002, 2.131836e+003
5.630217e+002, 2.125866e+003
5.635038e+002, 2.120484e+003
5.639860e+002, 2.115650e+003
5.644681e+002, 2.112144e+003
5.649502e+002, 2.110636e+003
5.654323e+002, 2.109220e+003
5.659144e+002, 2.105792e+003
5.663965e+002, 2.099983e+003
5.668787e+002, 2.097877e+003
5.673608e+002, 2.100340e+003
5.678429e+002, 2.105142e+003
5.683250e+002, 2.109501e+003
5.688071e+002, 2.113569e+003
5.692892e+002, 2.117808e+003
5.697714e+002, 2.122186e+003
5.702535e+002, 2.126997e+003
5.707356e+002, 2.132064e+003
5.712177e+002, 2.137758e+003
5.716998e+002, 2.145002e+003
5.721819e+002, 2.156046e+003
5.726641e+002, 2.167585e+003
5.731462e+002, 2.177021e+003
5.736283e+002, 2.184238e+003
5.741104e+002, 2.192025e+003
5.745925e+002, 2.201046e+003
5.750746e+002, 2.211110e+003
5.755568e+002, 2.222364e+003
5.760389e+002, 2.235610e+003
5.765210e+002, 2.248268e+003
5.770031e+002, 2.260544e+003
5.774852e+002, 2.272239e+003
5.779673e+002, 2.283016e+003
5.784495e+002, 2.292770e+003
5.789316e+002, 2.302420e+003
5.794137e+002, 2.312092e+003
5.798958e+002, 2.321845e+003
5.803779e+002, 2.332750e+003
5.808600e+002, 2.344749e+003
5.813422e+002, 2.355720e+003
5.818243e+002, 2.363441e+003
5.823064e+002, 2.369598e+003
5.827885e+002, 2.377820e+003
5.832706e+002, 2.388099e+003
5.837527e+002, 2.398426e+003
5.842349e+002, 2.407510e+003
5.847170e+002, 2.415829e+003
5.851991e+002, 2.423879e+003
5.856812e+002, 2.431878e+003
5.861633e+002, 2.439303e+003
5.866454e+002, 2.445257e+003
5.871276e+002, 2.450755e+003
5.876097e+002, 2.456967e+003
5.880918e+002, 2.465164e+003
5.885739e+002, 2.472878e+003
5.890560e+002, 2.479509e+003
5.895381e+002, 2.485524e+003
5.900203e+002, 2.492220e+003
5.905024e+002, 2.499767e+003
5.909845e+002, 2.507816e+003
5.914666e+002, 2.516125e+003
5.919487e+002, 2.524808e+003
5.924308e+002, 2.534701e+003
5.929130e+002, 2.545997e+003
5.933951e+002, 2.557204e+003
5.938772e+002, 2.566170e+003
5.943593e+002, 2.574046e+003
5.948414e+002, 2.584385e+003
5.953235e+002, 2.597617e+003
5.958057e+002, 2.611737e+003
5.962878e+002, 2.625104e+003
5.967699e+002, 2.638073e+003
5.972520e+002, 2.651000e+003
5.977341e+002, 2.664102e+003
5.982162e+002, 2.677139e+003
5.986984e+002, 2.690275e+003
5.991805e+002, 2.703139e+003
5.996626e+002, 2.715515e+003
6.001447e+002, 2.726426e+003
6.006268e+002, 2.737905e+003
6.011089e+002, 2.751069e+003
6.015911e+002, 2.765665e+003
6.020732e+002, 2.778057e+003
6.025553e+002, 2.787060e+003
6.030374e+002, 2.795937e+003
6.035195e+002, 2.806553e+003
6.040016e+002, 2.818987e+003
6.044838e+002, 2.830667e+003
6.049659e+002, 2.841671e+003
6.054480e+002, 2.851137e+003
6.059301e+002, 2.856523e+003
6.064122e+002, 2.859362e+003
6.068943e+002, 2.865567e+003
6.073765e+002, 2.877054e+003
6.078586e+002, 2.889385e+003
6.083407e+002, 2.898255e+003
6.088228e+002, 2.904604e+003
6.093049e+002, 2.909958e+003
6.097870e+002, 2.915129e+003
6.102692e+002, 2.919320e+003
6.107513e+002, 2.921308e+003
6.112334e+002, 2.921815e+003
6.117155e+002, 2.923468e+003
6.121976e+002, 2.929352e+003
6.126797e+002, 2.933814e+003
6.131619e+002, 2.934565e+003
6.136440e+002, 2.931370e+003
6.141261e+002, 2.929296e+003
6.146082e+002, 2.929226e+003
6.150903e+002, 2.928554e+003
6.155724e+002, 2.925575e+003
6.160546e+002, 2.920297e+003
6.165367e+002, 2.913314e+003
6.170188e+002, 2.904519e+003
6.175009e+002, 2.894719e+003
6.179830e+002, 2.885015e+003
6.184651e+002, 2.875105e+003
6.189473e+002, 2.864052e+003
6.194294e+002, 2.851497e+003
6.199115e+002, 2.838132e+003
6.203936e+002, 2.823797e+003
6.208757e+002, 2.809115e+003
6.213578e+002, 2.795198e+003
6.218400e+002, 2.783163e+003
6.223221e+002, 2.771304e+003
6.228042e+002, 2.759331e+003
6.232863e+002, 2.747095e+003
6.237684e+002, 2.734038e+003
6.242505e+002, 2.718843e+003
6.247327e+002, 2.704227e+003
6.252148e+002, 2.692103e+003
6.256969e+002, 2.683042e+003
6.261790e+002, 2.668808e+003
6.266611e+002, 2.648141e+003
6.271432e+002, 2.625869e+003
6.276254e+002, 2.606091e+003
6.281075e+002, 2.588514e+003
6.285896e+002, 2.569083e+003
6.290717e+002, 2.547122e+003
6.295538e+002, 2.526095e+003
6.300359e+002, 2.511895e+003
6.305181e+002, 2.501531e+003
6.310002e+002, 2.488186e+003
6.314823e+002, 2.468375e+003
6.319644e+002, 2.447666e+003
6.324465e+002, 2.429488e+003
6.329286e+002, 2.413208e+003
6.334108e+002, 2.397824e+003
6.338929e+002, 2.382918e+003
6.343750e+002, 2.368740e+003
6.348571e+002, 2.354257e+003
6.353392e+002, 2.339919e+003
6.358214e+002, 2.329710e+003
6.363035e+002, 2.325496e+003
6.367856e+002, 2.322090e+003
6.372677e+002, 2.317343e+003
6.377498e+002, 2.311219e+003
6.382319e+002, 2.305422e+003
6.387141e+002, 2.299895e+003
6.391962e+002, 2.294519e+003
6.396783e+002, 2.288431e+003
6.401604e+002, 2.282317e+003
6.406425e+002, 2.278601e+003
6.411246e+002, 2.277610e+003
6.416068e+002, 2.278676e+003
6.420889e+002, 2.282126e+003
6.425710e+002, 2.287023e+003
6.430531e+002, 2.292029e+003
6.435352e+002, 2.297104e+003
6.440173e+002, 2.301901e+003
6.444995e+002, 2.305002e+003
6.449816e+002, 2.308024e+003
6.454637e+002, 2.313895e+003
6.459458e+002, 2.326352e+003
6.464279e+002, 2.337422e+003
6.469100e+002, 2.344774e+003
6.473922e+002, 2.349710e+003
6.478743e+002, 2.357323e+003
6.483564e+002, 2.368074e+003
6.488385e+002, 2.379886e+003
6.493206e+002, 2.392098e+003
6.498027e+002, 2.404700e+003
6.502849e+002, 2.416651e+003
6.507670e+002, 2.427977e+003
6.512491e+002, 2.439844e+003
6.517312e+002, 2.454642e+003
6.522133e+002, 2.469788e+003
6.526954e+002, 2.481155e+003
6.531776e+002, 2.488079e+003
6.536597e+002, 2.494772e+003
6.541418e+002, 2.503124e+003
6.546239e+002, 2.512952e+003
6.551060e+002, 2.524051e+003
6.555881e+002, 2.535828e+003
6.560703e+002, 2.549837e+003
6.565524e+002, 2.568116e+003
6.570345e+002, 2.587748e+003
6.575166e+002, 2.604965e+003
6.579987e+002, 2.618623e+003
6.584808e+002, 2.632897e+003
6.589630e+002, 2.648269e+003
6.594451e+002, 2.664815e+003
6.599272e+002, 2.683362e+003
6.604093e+002, 2.703833e+003
6.608914e+002, 2.724058e+003
6.613735e+002, 2.742813e+003
6.618557e+002, 2.761212e+003
6.623378e+002, 2.781072e+003
6.628199e+002, 2.802460e+003
6.633020e+002, 2.825448e+003
6.637841e+002, 2.851659e+003
6.642662e+002, 2.878394e+003
6.647484e+002, 2.902696e+003
6.652305e+002, 2.924301e+003
6.657126e+002, 2.949886e+003
6.661947e+002, 2.985003e+003
6.666768e+002, 3.021296e+003
6.671589e+002, 3.054152e+003
6.676411e+002, 3.082344e+003
6.681232e+002, 3.111412e+003
6.686053e+002, 3.141297e+003
6.690874e+002, 3.171989e+003
6.695695e+002, 3.203928e+003
6.700516e+002, 3.237052e+003
6.705338e+002, 3.268748e+003
6.710159e+002, 3.298593e+003
6.714980e+002, 3.327094e+003
6.719801e+002, 3.353825e+003
6.724622e+002, 3.379621e+003
6.729443e+002, 3.405760e+003
6.734265e+002, 3.433314e+003
6.739086e+002, 3.460820e+003
6.743907e+002, 3.488379e+003
6.748728e+002, 3.515593e+003
6.753549e+002, 3.541203e+003
6.758370e+002, 3.564206e+003
6.763192e+002, 3.587168e+003
6.768013e+002, 3.610222e+003
6.772834e+002, 3.633737e+003
6.777655e+002, 3.658145e+003
6.782476e+002, 3.683005e+003
6.787297e+002, 3.709668e+003
6.792119e+002, 3.739118e+003
6.796940e+002, 3.770684e+003
6.801761e+002, 3.799031e+003
6.806582e+002, 3.823845e+003
6.811403e+002, 3.849685e+003
6.816224e+002, 3.879799e+003
6.821046e+002, 3.912880e+003
6.825867e+002, 3.945338e+003
6.830688e+002, 3.977184e+003
6.835509e+002, 4.012001e+003
6.840330e+002, 4.052917e+003
6.845151e+002, 4.097639e+003
6.849973e+002, 4.144900e+003
6.854794e+002, 4.195460e+003
6.859615e+002, 4.246775e+003
6.864436e+002, 4.297392e+003
6.869257e+002, 4.349985e+003
6.874078e+002, 4.406534e+003
6.878900e+002, 4.467688e+003
6.883721e+002, 4.533054e+003
6.888542e+002, 4.601777e+003
6.893363e+002, 4.674948e+003
6.898184e+002, 4.752600e+003
6.903005e+002, 4.834446e+003
6.907827e+002, 4.921468e+003
6.912648e+002, 5.013979e+003
6.917469e+002, 5.110690e+003
6.922290e+002, 5.209061e+003
6.927111e+002, 5.309884e+003
6.931932e+002, 5.411929e+003
6.936754e+002, 5.511427e+003
6.941575e+002, 5.615272e+003
6.946396e+002, 5.729673e+003
6.951217e+002, 5.851227e+003
6.956038e+002, 5.970464e+003
6.960859e+002, 6.080144e+003
6.965681e+002, 6.191542e+003
6.970502e+002, 6.308814e+003
6.975323e+002, 6.430960e+003
6.980144e+002, 6.547183e+003
6.984965e+002, 6.656189e+003
6.989786e+002, 6.765415e+003
6.994608e+002, 6.880096e+003
6.999429e+002, 6.999249e+003
7.004250e+002, 7.115374e+003
7.009071e+002, 7.229143e+003
7.013892e+002, 7.343604e+003
7.018713e+002, 7.460500e+003
7.023535e+002, 7.579724e+003
7.028356e+002, 7.700500e+003
7.033177e+002, 7.822857e+003
7.037998e+002, 7.949625e+003
7.042819e+002, 8.082727e+003
7.047640e+002, 8.221260e+003
7.052462e+002, 8.364959e+003
7.057283e+002, 8.510558e+003
7.062104e+002, 8.664661e+003
7.066925e+002, 8.828156e+003
7.071746e+002, 8.998564e+003
7.076567e+002, 9.173036e+003
7.081389e+002, 9.350518e+003
7.086210e+002, 9.536222e+003
7.091031e+002, 9.731665e+003
7.095852e+002, 9.935854e+003
7.100673e+002, 1.015067e+004
7.105494e+002, 1.037228e+004
7.110316e+002, 1.059774e+004
7.115137e+002, 1.082716e+004
7.119958e+002, 1.105430e+004
7.124779e+002, 1.127723e+004
7.129600e+002, 1.149741e+004
7.134421e+002, 1.171401e+004
7.139243e+002, 1.193632e+004
7.144064e+002, 1.214765e+004
7.148885e+002, 1.234574e+004
7.153706e+002, 1.253088e+004
7.158527e+002, 1.269626e+004
7.163348e+002, 1.283783e+004
7.168170e+002, 1.297319e+004
7.172991e+002, 1.311005e+004
7.177812e+002, 1.324308e+004
7.182633e+002, 1.334792e+004
7.187454e+002, 1.342723e+004
7.192275e+002, 1.349616e+004
7.197097e+002, 1.356617e+004
7.201918e+002, 1.363037e+004
7.206739e+002, 1.368426e+004
7.211560e+002, 1.372663e+004
7.216381e+002, 1.375437e+004
7.221202e+002, 1.376377e+004
7.226024e+002, 1.375956e+004
7.230845e+002, 1.374579e+004
7.235666e+002, 1.372372e+004
7.240487e+002, 1.368155e+004
7.245308e+002, 1.361878e+004
7.250129e+002, 1.353643e+004
7.254951e+002, 1.343587e+004
7.259772e+002, 1.331645e+004
7.264593e+002, 1.317579e+004
7.269414e+002, 1.301363e+004
7.274235e+002, 1.283269e+004
7.279056e+002, 1.263118e+004
7.283878e+002, 1.241369e+004
7.288699e+002, 1.218929e+004
7.293520e+002, 1.195712e+004
7.298341e+002, 1.171814e+004
7.303162e+002, 1.146601e+004
7.307983e+002, 1.121081e+004
7.312805e+002, 1.095963e+004
7.317626e+002, 1.072078e+004
7.322447e+002, 1.047428e+004
7.327268e+002, 1.021867e+004
7.332089e+002, 9.956724e+003
7.336910e+002, 9.688923e+003
7.341732e+002, 9.412111e+003
7.346553e+002, 9.145622e+003
7.351374e+002, 8.897165e+003
7.356195e+002, 8.653184e+003
7.361016e+002, 8.394977e+003
7.365837e+002, 8.125235e+003
7.370659e+002, 7.853396e+003
7.375480e+002, 7.582290e+003
7.380301e+002, 7.308792e+003
7.385122e+002, 7.029154e+003
7.389943e+002, 6.747903e+003
7.394764e+002, 6.474755e+003
7.399586e+002, 6.215948e+003
7.404407e+002, 5.962302e+003
7.409228e+002, 5.709481e+003
7.414049e+002, 5.460696e+003
7.418870e+002, 5.220890e+003
7.423691e+002, 4.993266e+003
7.428513e+002, 4.778943e+003
7.433334e+002, 4.580024e+003
7.438155e+002, 4.393919e+003
7.442976e+002, 4.213561e+003
7.447797e+002, 4.038627e+003
7.452618e+002, 3.873508e+003
7.457440e+002, 3.719129e+003
7.462261e+002, 3.574635e+003
7.467082e+002, 3.436037e+003
7.471903e+002, 3.305090e+003
7.476724e+002, 3.183667e+003
7.481545e+002, 3.076199e+003
7.486367e+002, 2.975104e+003
7.491188e+002, 2.876391e+003
7.496009e+002, 2.779351e+003
7.500830e+002, 2.688562e+003
7.505651e+002, 2.603444e+003
7.510472e+002, 2.523085e+003
7.515294e+002, 2.448286e+003
7.520115e+002, 2.378155e+003
7.524936e+002, 2.311188e+003
7.529757e+002, 2.247112e+003
7.534578e+002, 2.186125e+003
7.539399e+002, 2.130294e+003
7.544221e+002, 2.077794e+003
7.549042e+002, 2.027518e+003
7.553863e+002, 1.979021e+003
7.558684e+002, 1.933465e+003
7.563505e+002, 1.890757e+003
7.568326e+002, 1.850986e+003
7.573148e+002, 1.814689e+003
7.577969e+002, 1.782490e+003
7.582790e+002, 1.749924e+003
7.587611e+002, 1.715718e+003
7.592432e+002, 1.682564e+003
7.597253e+002, 1.652471e+003
7.602075e+002, 1.625200e+003
7.606896e+002, 1.597958e+003
7.611717e+002, 1.570283e+003
7.616538e+002, 1.543837e+003
7.621359e+002, 1.520239e+003
7.626180e+002, 1.498285e+003
7.631002e+002, 1.476506e+003
7.635823e+002, 1.454703e+003
7.640644e+002, 1.433427e+003
7.645465e+002, 1.411830e+003
7.650286e+002, 1.391322e+003
7.655107e+002, 1.373491e+003
7.659929e+002, 1.359905e+003
7.664750e+002, 1.345154e+003
7.669571e+002, 1.328376e+003
7.674392e+002, 1.311352e+003
7.679213e+002, 1.295848e+003
7.684034e+002, 1.281890e+003
7.688856e+002, 1.266846e+003
7.693677e+002, 1.250344e+003
7.698498e+002, 1.234470e+003
7.703319e+002, 1.221629e+003
7.708140e+002, 1.210817e+003
7.712961e+002, 1.200294e+003
7.717783e+002, 1.189819e+003
7.722604e+002, 1.179105e+003
7.727425e+002, 1.167502e+003
7.732246e+002, 1.155857e+003
7.737067e+002, 1.144931e+003
7.741888e+002, 1.135342e+003
7.746710e+002, 1.125600e+003
7.751531e+002, 1.115576e+003
7.756352e+002, 1.105567e+003
7.761173e+002, 1.095747e+003
7.765994e+002, 1.086167e+003
7.770815e+002, 1.077512e+003
7.775637e+002, 1.069916e+003
7.780458e+002, 1.062972e+003
7.785279e+002, 1.056559e+003
7.790100e+002, 1.050370e+003
7.794921e+002, 1.043838e+003
7.799742e+002, 1.036881e+003
7.804564e+002, 1.029498e+003
7.809385e+002, 1.020921e+003
7.814206e+002, 1.012133e+003
7.819027e+002, 1.004500e+003
7.823848e+002, 9.986381e+002
7.828669e+002, 9.930215e+002
7.833491e+002, 9.877859e+002
7.838312e+002, 9.824178e+002
7.843133e+002, 9.757961e+002
7.847954e+002, 9.680466e+002
7.852775e+002, 9.612875e+002
7.857596e+002, 9.563562e+002
7.862418e+002, 9.518271e+002
7.867239e+002, 9.455508e+002
7.872060e+002, 9.385499e+002
7.876881e+002, 9.325690e+002
7.881702e+002, 9.294886e+002
7.886523e+002, 9.260132e+002
7.891345e+002, 9.209658e+002
7.896166e+002, 9.148429e+002
7.900987e+002, 9.082746e+002
7.905808e+002, 9.005217e+002
7.910629e+002, 8.942811e+002
7.915450e+002, 8.904443e+002
7.920272e+002, 8.876852e+002
7.925093e+002, 8.836332e+002
7.929914e+002, 8.784044e+002
7.934735e+002, 8.732972e+002
7.939556e+002, 8.687018e+002
7.944377e+002, 8.641900e+002
7.949199e+002, 8.590440e+002
7.954020e+002, 8.536125e+002
7.958841e+002, 8.487080e+002
7.963662e+002, 8.449268e+002
7.968483e+002, 8.412114e+002
7.973304e+002, 8.373197e+002
7.978126e+002, 8.332996e+002
7.982947e+002, 8.293287e+002
7.987768e+002, 8.254268e+002
7.992589e+002, 8.214440e+002
7.997410e+002, 8.173008e+002
8.002231e+002, 8.131544e+002
8.007053e+002, 8.093920e+002
8.011874e+002, 8.059393e+002
8.016695e+002, 8.023688e+002
8.021516e+002, 7.986382e+002
8.026337e+002, 7.946960e+002
8.031158e+002, 7.901519e+002
8.035980e+002, 7.854988e+002
8.040801e+002, 7.814276e+002
8.045622e+002, 7.786089e+002
8.050443e+002, 7.759120e+002
8.055264e+002, 7.732545e+002
8.060085e+002, 7.705553e+002
8.064907e+002, 7.676539e+002
8.069728e+002, 7.645149e+002
8.074549e+002, 7.611531e+002
8.079370e+002, 7.573350e+002
8.084191e+002, 7.536599e+002
8.089012e+002, 7.512057e+002
8.093834e+002, 7.496907e+002
8.098655e+002, 7.484538e+002
8.103476e+002, 7.478859e+002
8.108297e+002, 7.465742e+002
8.113118e+002, 7.429127e+002
8.117939e+002, 7.381464e+002
8.122761e+002, 7.344297e+002
8.127582e+002, 7.329434e+002
8.132403e+002, 7.311968e+002
8.137224e+002, 7.289283e+002
8.142045e+002, 7.263189e+002
8.146866e+002, 7.236887e+002
8.151688e+002, 7.210834e+002
8.156509e+002, 7.181391e+002
8.161330e+002, 7.145305e+002
8.166151e+002, 7.111619e+002
8.170972e+002, 7.096517e+002
8.175793e+002, 7.091371e+002
8.180615e+002, 7.079569e+002
8.185436e+002, 7.048613e+002
8.190257e+002, 7.019431e+002
8.195078e+002, 7.003638e+002
8.199899e+002, 6.992175e+002
8.204720e+002, 6.969746e+002
8.209542e+002, 6.927205e+002
8.214363e+002, 6.900159e+002
8.219184e+002, 6.898348e+002
8.224005e+002, 6.903879e+002
8.228826e+002, 6.886432e+002
8.233647e+002, 6.850660e+002
8.238469e+002, 6.817186e+002
8.243290e+002, 6.789960e+002
8.248111e+002, 6.769071e+002
8.252932e+002, 6.763831e+002
8.257753e+002, 6.761406e+002
8.262574e+002, 6.744180e+002
8.267396e+002, 6.684368e+002
8.272217e+002, 6.644110e+002
8.277038e+002, 6.638692e+002
8.281859e+002, 6.646443e+002
8.286681e+002, 6.641034e+002
8.291502e+002, 6.620717e+002
8.296323e+002, 6.603671e+002
8.301144e+002, 6.593370e+002
8.305966e+002, 6.582294e+002
8.310787e+002, 6.554059e+002
8.315608e+002, 6.519340e+002
8.320429e+002, 6.500667e+002
8.325250e+002, 6.508887e+002
8.330071e+002, 6.515652e+002
8.334893e+002, 6.507141e+002
8.339714e+002, 6.489482e+002
8.344535e+002, 6.468189e+002
8.349356e+002, 6.438707e+002
8.354177e+002, 6.417808e+002
8.358998e+002, 6.409775e+002
8.363820e+002, 6.403330e+002
8.368641e+002, 6.385194e+002
8.373462e+002, 6.357408e+002
8.378283e+002, 6.332177e+002
8.383104e+002, 6.311306e+002
8.387925e+002, 6.292576e+002
8.392747e+002, 6.276048e+002
8.397568e+002, 6.259457e+002
8.402389e+002, 6.238216e+002
8.407210e+002, 6.207314e+002
8.412031e+002, 6.187201e+002
8.416852e+002, 6.192845e+002
8.421674e+002, 6.200443e+002
8.426495e+002, 6.194123e+002
8.431316e+002, 6.171022e+002
8.436137e+002, 6.151990e+002
8.440958e+002, 6.137086e+002
8.445779e+002, 6.124276e+002
8.450601e+002, 6.111282e+002
8.455422e+002, 6.099328e+002
8.460243e+002, 6.092133e+002
8.465064e+002, 6.090114e+002
8.469885e+002, 6.084888e+002
8.474706e+002, 6.068946e+002
8.479528e+002, 6.051059e+002
8.484349e+002, 6.037373e+002
8.489170e+002, 6.028925e+002
8.493991e+002, 6.018905e+002
8.498812e+002, 6.007073e+002
8.503633e+002, 5.994404e+002
8.508455e+002, 5.980535e+002
8.513276e+002, 5.966024e+002
8.518097e+002, 5.955071e+002
8.522918e+002, 5.947230e+002
8.527739e+002, 5.939199e+002
8.532560e+002, 5.924832e+002
8.537382e+002, 5.911971e+002
8.542203e+002, 5.910959e+002
8.547024e+002, 5.920350e+002
8.551845e+002, 5.919420e+002
8.556666e+002, 5.891204e+002
8.561487e+002, 5.867894e+002
8.566309e+002, 5.861946e+002
8.571130e+002, 5.869532e+002
8.575951e+002, 5.867382e+002
8.580772e+002, 5.855251e+002
8.585593e+002, 5.845087e+002
8.590414e+002, 5.846424e+002
8.595236e+002, 5.850552e+002
8.600057e+002, 5.845759e+002
8.604878e+002, 5.833279e+002
8.609699e+002, 5.816838e+002
8.614520e+002, 5.787097e+002
8.619341e+002, 5.765331e+002
8.624163e+002, 5.763024e+002
8.628984e+002, 5.773734e+002
8.633805e+002, 5.783527e+002
8.638626e+002, 5.794270e+002
8.643447e+002, 5.795750e+002
8.648268e+002, 5.782603e+002
8.653090e+002, 5.763142e+002
8.657911e+002, 5.752588e+002
8.662732e+002, 5.748812e+002
8.667553e+002, 5.746503e+002
8.672374e+002, 5.747399e+002
8.677195e+002, 5.743436e+002
8.682017e+002, 5.723275e+002
8.686838e+002, 5.697319e+002
8.691659e+002, 5.683489e+002
8.696480e+002, 5.690130e+002
8.701301e+002, 5.694806e+002
8.706122e+002, 5.697589e+002
8.710944e+002, 5.694974e+002
8.715765e+002, 5.678264e+002
8.720586e+002, 5.650444e+002
8.725407e+002, 5.628260e+002
8.730228e+002, 5.614977e+002
8.735049e+002, 5.607064e+002
8.739871e+002, 5.604634e+002
8.744692e+002, 5.604222e+002
8.749513e+002, 5.601632e+002
8.754334e+002, 5.594225e+002
8.759155e+002, 5.589483e+002
8.763976e+002, 5.591075e+002
8.768798e+002, 5.591740e+002
8.773619e+002, 5.585107e+002
8.778440e+002, 5.570915e+002
8.783261e+002, 5.556591e+002
8.788082e+002, 5.541931e+002
8.792903e+002, 5.531712e+002
8.797725e+002, 5.534857e+002
8.802546e+002, 5.542004e+002
8.807367e+002, 5.540526e+002
8.812188e+002, 5.529100e+002
8.817009e+002, 5.518424e+002
8.821830e+002, 5.512555e+002
8.826652e+002, 5.508065e+002
8.831473e+002, 5.504470e+002
8.836294e+002, 5.501570e+002
8.841115e+002, 5.491292e+002
8.845936e+002, 5.471862e+002
8.850757e+002, 5.457276e+002
8.855579e+002, 5.458765e+002
8.860400e+002, 5.468676e+002
8.865221e+002, 5.475645e+002
8.870042e+002, 5.478998e+002
8.874863e+002, 5.476355e+002
8.879684e+002, 5.460406e+002
8.884506e+002, 5.444451e+002
8.889327e+002, 5.434000e+002
8.894148e+002, 5.428046e+002
8.898969e+002, 5.423306e+002
8.903790e+002, 5.420059e+002
8.908611e+002, 5.417209e+002
8.913433e+002, 5.414572e+002
8.918254e+002, 5.412053e+002
8.923075e+002, 5.409333e+002
8.927896e+002, 5.406573e+002
8.932717e+002, 5.404382e+002
8.937538e+002, 5.404540e+002
8.942360e+002, 5.402950e+002
8.947181e+002, 5.394876e+002
8.952002e+002, 5.384723e+002
8.956823e+002, 5.379529e+002
8.961644e+002, 5.384548e+002
8.966465e+002, 5.382444e+002
8.971287e+002, 5.369247e+002
8.976108e+002, 5.354813e+002
8.980929e+002, 5.353895e+002
8.985750e+002, 5.362640e+002
8.990571e+002, 5.366575e+002
8.995392e+002, 5.363398e+002
9.000214e+002, 5.356744e+002
9.005035e+002, 5.345235e+002
9.009856e+002, 5.333994e+002
9.014677e+002, 5.327959e+002
9.019498e+002, 5.329957e+002
9.024319e+002, 5.328911e+002
9.029141e+002, 5.322220e+002
9.033962e+002, 5.316750e+002
9.038783e+002, 5.318567e+002
9.043604e+002, 5.326136e+002
9.048425e+002, 5.327711e+002
9.053246e+002, 5.323463e+002
9.058068e+002, 5.316705e+002
9.062889e+002, 5.307442e+002
9.067710e+002, 5.298455e+002
9.072531e+002, 5.292042e+002
9.077352e+002, 5.288139e+002
9.082173e+002, 5.284835e+002
9.086995e+002, 5.282156e+002
9.091816e+002, 5.279778e+002
9.096637e+002, 5.277911e+002
9.101458e+002, 5.276266e+002
9.106279e+002, 5.274260e+002
9.111100e+002, 5.271793e+002
9.115922e+002, 5.267756e+002
9.120743e+002, 5.261208e+002
9.125564e+002, 5.253608e+002
9.130385e+002, 5.245355e+002
9.135206e+002, 5.237265e+002
9.140027e+002, 5.230587e+002
9.144849e+002, 5.220905e+002
9.149670e+002, 5.220022e+002
9.154491e+002, 5.232172e+002
9.159312e+002, 5.249310e+002
9.164133e+002, 5.263239e+002
9.168954e+002, 5.273691e+002
9.173776e+002, 5.274227e+002
9.178597e+002, 5.262953e+002
9.183418e+002, 5.250112e+002
9.188239e+002, 5.243629e+002
9.193060e+002, 5.241719e+002
9.197881e+002, 5.244131e+002
9.202703e+002, 5.252921e+002
9.207524e+002, 5.254516e+002
9.212345e+002, 5.239730e+002
9.217166e+002, 5.227034e+002
9.221987e+002, 5.229149e+002
9.226808e+002, 5.244803e+002
9.231630e+002, 5.248336e+002
9.236451e+002, 5.239858e+002
9.241272e+002, 5.228094e+002
9.246093e+002, 5.212479e+002
9.250914e+002, 5.201382e+002
9.255735e+002, 5.208719e+002
9.260557e+002, 5.229851e+002
9.265378e+002, 5.242888e+002
9.270199e+002, 5.234069e+002
9.275020e+002, 5.226278e+002
9.279841e+002, 5.224840e+002
9.284662e+002, 5.227234e+002
9.289484e+002, 5.227115e+002
9.294305e+002, 5.224533e+002
9.299126e+002, 5.220518e+002
9.303947e+002, 5.213102e+002
9.308768e+002, 5.209346e+002
9.313589e+002, 5.223434e+002
9.318411e+002, 5.243798e+002
9.323232e+002, 5.253100e+002
9.328053e+002, 5.235736e+002
9.332874e+002, 5.226083e+002
9.337695e+002, 5.230102e+002
9.342516e+002, 5.238680e+002
9.347338e+002, 5.243282e+002
9.352159e+002, 5.244152e+002
9.356980e+002, 5.246195e+002
9.361801e+002, 5.249847e+002
9.366622e+002, 5.252591e+002
9.371443e+002, 5.249539e+002
9.376265e+002, 5.246371e+002
9.381086e+002, 5.251122e+002
9.385907e+002, 5.264613e+002
9.390728e+002, 5.269954e+002
9.395549e+002, 5.256730e+002
9.400370e+002, 5.245970e+002
9.405192e+002, 5.244567e+002
9.410013e+002, 5.251964e+002
9.414834e+002, 5.270090e+002
9.419655e+002, 5.297548e+002
9.424476e+002, 5.318010e+002
9.429297e+002, 5.318052e+002
9.434119e+002, 5.313836e+002
9.438940e+002, 5.320061e+002
9.443761e+002, 5.332432e+002
9.448582e+002, 5.341910e+002
9.453403e+002, 5.334739e+002
9.458224e+002, 5.343416e+002
9.463046e+002, 5.373770e+002
9.467867e+002, 5.417205e+002
9.472688e+002, 5.468809e+002
9.477509e+002, 5.524675e+002
9.482330e+002, 5.554007e+002
9.487151e+002, 5.547965e+002
9.491973e+002, 5.546722e+002
9.496794e+002, 5.593184e+002
9.501615e+002, 5.652815e+002
9.506436e+002, 5.692302e+002
9.511257e+002, 5.700223e+002
9.516078e+002, 5.721554e+002
9.520900e+002, 5.759268e+002
9.525721e+002, 5.805274e+002
9.530542e+002, 5.853583e+002
9.535363e+002, 5.906634e+002
9.540184e+002, 5.980665e+002
9.545005e+002, 6.071523e+002
9.549827e+002, 6.157032e+002
9.554648e+002, 6.210385e+002
9.559469e+002, 6.268495e+002
9.564290e+002, 6.352443e+002
9.569111e+002, 6.459861e+002
9.573932e+002, 6.579188e+002
9.578754e+002, 6.713723e+002
9.583575e+002, 6.849451e+002
9.588396e+002, 6.978727e+002
9.593217e+002, 7.116343e+002
9.598038e+002, 7.281971e+002
9.602859e+002, 7.472838e+002
9.607681e+002, 7.679114e+002
9.612502e+002, 7.897335e+002
9.617323e+002, 8.139373e+002
9.622144e+002, 8.404135e+002
9.626965e+002, 8.701083e+002
9.631786e+002, 9.040506e+002
9.636608e+002, 9.421251e+002
9.641429e+002, 9.817050e+002
9.646250e+002, 1.021414e+003
9.651071e+002, 1.067334e+003
9.655892e+002, 1.125499e+003
9.660714e+002, 1.191751e+003
9.665535e+002, 1.259875e+003
9.670356e+002, 1.330133e+003
9.675177e+002, 1.407310e+003
9.679998e+002, 1.492335e+003
9.684819e+002, 1.586080e+003
9.689641e+002, 1.688479e+003
9.694462e+002, 1.800577e+003
9.699283e+002, 1.926338e+003
9.704104e+002, 2.065587e+003
9.708925e+002, 2.219472e+003
9.713746e+002, 2.389090e+003
9.718568e+002, 2.575013e+003
9.723389e+002, 2.782477e+003
9.728210e+002, 3.008093e+003
9.733031e+002, 3.249411e+003
9.737852e+002, 3.510912e+003
9.742673e+002, 3.773701e+003
9.747495e+002, 4.055097e+003
9.752316e+002, 4.318055e+003
9.757137e+002, 4.550694e+003
9.761958e+002, 4.754573e+003
9.766779e+002, 4.869670e+003
9.771600e+002, 4.895678e+003
9.776422e+002, 4.818405e+003
9.781243e+002, 4.596443e+003
9.786064e+002, 4.291554e+003
9.790885e+002, 3.929074e+003
9.795706e+002, 3.527199e+003
9.800527e+002, 3.148852e+003
9.805349e+002, 2.795555e+003
9.810170e+002, 2.482306e+003
9.814991e+002, 2.211317e+003
9.819812e+002, 1.979096e+003
9.824633e+002, 1.782892e+003
9.829454e+002, 1.620112e+003
9.834276e+002, 1.481759e+003
9.839097e+002, 1.365845e+003
9.843918e+002, 1.267046e+003
9.848739e+002, 1.183209e+003
9.853560e+002, 1.111853e+003
9.858381e+002, 1.052097e+003
9.863203e+002, 1.004727e+003
9.868024e+002, 9.617646e+002
9.872845e+002, 9.232246e+002
9.877666e+002, 8.890266e+002
9.882487e+002, 8.596181e+002
9.887308e+002, 8.344322e+002
9.892130e+002, 8.119406e+002
9.896951e+002, 7.921105e+002
9.901772e+002, 7.739589e+002
9.906593e+002, 7.573314e+002
9.911414e+002, 7.420361e+002
9.916235e+002, 7.279133e+002
9.921057e+002, 7.151035e+002
9.925878e+002, 7.037805e+002
9.930699e+002, 6.939240e+002
9.935520e+002, 6.855927e+002
9.940341e+002, 6.790071e+002
9.945162e+002, 6.728979e+002
9.949984e+002, 6.652457e+002
9.954805e+002, 6.573743e+002
9.959626e+002, 6.511884e+002
9.964447e+002, 6.473786e+002
9.969268e+002, 6.437049e+002
9.974089e+002, 6.402355e+002
9.978911e+002, 6.362785e+002
9.983732e+002, 6.309069e+002
9.988553e+002, 6.245891e+002
9.993374e+002, 6.209041e+002
9.998195e+002, 6.196489e+002
1.000302e+003, 6.185605e+002
1.000784e+003, 6.163196e+002
1.001266e+003, 6.137822e+002
1.001748e+003, 6.113340e+002
1.002230e+003, 6.090417e+002
1.002712e+003, 6.071487e+002
1.003194e+003, 6.060867e+002
1.003676e+003, 6.042540e+002
1.004159e+003, 6.011957e+002
1.004641e+003, 5.978816e+002
1.005123e+003, 5.952276e+002
1.005605e+003, 5.933450e+002
1.006087e+003, 5.927370e+002
1.006569e+003, 5.936119e+002
1.007051e+003, 5.942723e+002
1.007533e+003, 5.937967e+002
1.008016e+003, 5.929467e+002
1.008498e+003, 5.920482e+002
1.008980e+003, 5.911326e+002
1.009462e+003, 5.908170e+002
1.009944e+003, 5.911522e+002
1.010426e+003, 5.911847e+002
1.010908e+003, 5.902213e+002
1.011390e+003, 5.890019e+002
1.011872e+003, 5.883254e+002
1.012355e+003, 5.880713e+002
1.012837e+003, 5.879824e+002
1.013319e+003, 5.884474e+002
1.013801e+003, 5.884085e+002
1.014283e+003, 5.877260e+002
1.014765e+003, 5.866376e+002
1.015247e+003, 5.851915e+002
1.015729e+003, 5.835073e+002
1.016211e+003, 5.823337e+002
1.016694e+003, 5.817287e+002
1.017176e+003, 5.814108e+002
1.017658e+003, 5.814252e+002
1.018140e+003, 5.814500e+002
1.018622e+003, 5.813815e+002
1.019104e+003, 5.811565e+002
1.019586e+003, 5.801948e+002
1.020068e+003, 5.781005e+002
1.020551e+003, 5.769728e+002
1.021033e+003, 5.777019e+002
1.021515e+003, 5.793162e+002
1.021997e+003, 5.806484e+002
1.022479e+003, 5.815865e+002
1.022961e+003, 5.818417e+002
1.023443e+003, 5.809630e+002
1.023925e+003, 5.801935e+002
1.024407e+003, 5.798761e+002
1.024890e+003, 5.797238e+002
1.025372e+003, 5.794590e+002
1.025854e+003, 5.790843e+002
1.026336e+003, 5.792883e+002
1.026818e+003, 5.800665e+002
1.027300e+003, 5.810724e+002
1.027782e+003, 5.822457e+002
1.028264e+003, 5.834101e+002
1.028746e+003, 5.846926e+002
1.029229e+003, 5.858712e+002
1.029711e+003, 5.860502e+002
1.030193e+003, 5.844912e+002
1.030675e+003, 5.837267e+002
1.031157e+003, 5.841634e+002
1.031639e+003, 5.856019e+002
1.032121e+003, 5.886438e+002
1.032603e+003, 5.923192e+002
1.033086e+003, 5.939862e+002
1.033568e+003, 5.929045e+002
1.034050e+003, 5.923200e+002
1.034532e+003, 5.942249e+002
1.035014e+003, 5.964744e+002
1.035496e+003, 5.978054e+002
1.035978e+003, 5.983365e+002
1.036460e+003, 5.995495e+002
1.036943e+003, 6.014166e+002
1.037425e+003, 6.034678e+002
1.037907e+003, 6.051407e+002
1.038389e+003, 6.072997e+002
1.038871e+003, 6.121311e+002
1.039353e+003, 6.176569e+002
1.039835e+003, 6.201215e+002
1.040317e+003, 6.145477e+002
1.040799e+003, 6.145801e+002
1.041281e+003, 6.223043e+002
1.041764e+003, 6.316355e+002
1.042246e+003, 6.372263e+002
1.042728e+003, 6.396412e+002
1.043210e+003, 6.388918e+002
1.043692e+003, 6.354092e+002
1.044174e+003, 6.340466e+002
1.044656e+003, 6.391165e+002
1.045138e+003, 6.447734e+002
1.045621e+003, 6.483488e+002
1.046103e+003, 6.506843e+002
1.046585e+003, 6.543945e+002
1.047067e+003, 6.595032e+002
1.047549e+003, 6.638885e+002
1.048031e+003, 6.666561e+002
1.048513e+003, 6.697087e+002
1.048995e+003, 6.755334e+002
1.049478e+003, 6.823588e+002
1.049960e+003, 6.879925e+002
1.050442e+003, 6.914271e+002
1.050924e+003, 6.965861e+002
1.051406e+003, 7.044180e+002
1.051888e+003, 7.119255e+002
1.052370e+003, 7.170280e+002
1.052852e+003, 7.208890e+002
1.053334e+003, 7.266241e+002
1.053817e+003, 7.337942e+002
1.054299e+003, 7.409608e+002
1.054781e+003, 7.469246e+002
1.055263e+003, 7.534668e+002
1.055745e+003, 7.617390e+002
1.056227e+003, 7.704365e+002
1.056709e+003, 7.780096e+002
1.057191e+003, 7.844330e+002
1.057673e+003, 7.910233e+002
1.058156e+003, 7.978799e+002
1.058638e+003, 8.054257e+002
1.059120e+003, 8.145496e+002
1.059602e+003, 8.241845e+002
1.060084e+003, 8.336837e+002
1.060566e+003, 8.429667e+002
1.061048e+003, 8.515690e+002
1.061530e+003, 8.595074e+002
1.062013e+003, 8.667491e+002
1.062495e+003, 8.728770e+002
1.062977e+003, 8.791943e+002
1.063459e+003, 8.886954e+002
1.063941e+003, 8.998309e+002
1.064423e+003, 9.097419e+002
1.064905e+003, 9.175753e+002
1.065387e+003, 9.249445e+002
1.065870e+003, 9.317789e+002
1.066352e+003, 9.387698e+002
1.066834e+003, 9.465501e+002
1.067316e+003, 9.548527e+002
1.067798e+003, 9.621824e+002
1.068280e+003, 9.685955e+002
1.068762e+003, 9.743997e+002
1.069244e+003, 9.796397e+002
1.069726e+003, 9.845587e+002
1.070208e+003, 9.895543e+002
1.070691e+003, 9.941194e+002
1.071173e+003, 9.973919e+002
1.071655e+003, 9.992769e+002
1.072137e+003, 1.000183e+003
1.072619e+003, 9.999806e+002
1.073101e+003, 9.996990e+002
1.073583e+003, 1.001165e+003
1.074065e+003, 1.002595e+003
1.074548e+003, 1.001760e+003
1.075030e+003, 9.986257e+002
1.075512e+003, 9.939027e+002
1.075994e+003, 9.857592e+002
1.076476e+003, 9.793577e+002
1.076958e+003, 9.768025e+002
1.077440e+003, 9.752012e+002
1.077922e+003, 9.681891e+002
1.078405e+003, 9.575823e+002
1.078887e+003, 9.496863e+002
1.079369e+003, 9.462161e+002
1.079851e+003, 9.421299e+002
1.080333e+003, 9.335392e+002
1.080815e+003, 9.245085e+002
1.081297e+003, 9.175689e+002
1.081779e+003, 9.125867e+002
1.082261e+003, 9.087221e+002
1.082744e+003, 9.059323e+002
1.083226e+003, 9.032344e+002
1.083708e+003, 9.003735e+002
1.084190e+003, 8.971221e+002
1.084672e+003, 8.929286e+002
1.085154e+003, 8.883305e+002
1.085636e+003, 8.841385e+002
1.086118e+003, 8.805460e+002
1.086601e+003, 8.770557e+002
1.087083e+003, 8.736341e+002
1.087565e+003, 8.704514e+002
1.088047e+003, 8.678602e+002
1.088529e+003, 8.655104e+002
1.089011e+003, 8.630056e+002
1.089493e+003, 8.602120e+002
1.089975e+003, 8.565539e+002
1.090458e+003, 8.506576e+002
1.090940e+003, 8.455145e+002
1.091422e+003, 8.418860e+002
1.091904e+003, 8.390079e+002
1.092386e+003, 8.359166e+002
1.092868e+003, 8.326434e+002
1.093350e+003, 8.295147e+002
1.093832e+003, 8.265842e+002
1.094314e+003, 8.230938e+002
1.094797e+003, 8.176901e+002
1.095279e+003, 8.124315e+002
1.095761e+003, 8.087526e+002
1.096243e+003, 8.062448e+002
1.096725e+003, 8.029914e+002
1.097207e+003, 7.989772e+002
1.097689e+003, 7.945512e+002
1.098171e+003, 7.896121e+002
1.098653e+003, 7.848272e+002
1.099136e+003, 7.811219e+002
1.099618e+003, 7.777285e+002
1.100100e+003, 7.736185e+002
1.100582e+003, 7.684538e+002
1.101064e+003, 7.636531e+002
1.101546e+003, 7.590435e+002
1.102028e+003, 7.554055e+002
1.102510e+003, 7.536888e+002
1.102993e+003, 7.526840e+002
1.103475e+003, 7.503609e+002
1.103957e+003, 7.470230e+002
1.104439e+003, 7.433547e+002
1.104921e+003, 7.383782e+002
1.105403e+003, 7.351151e+002
1.105885e+003, 7.347171e+002
1.106367e+003, 7.346168e+002
1.106849e+003, 7.318069e+002
1.107332e+003, 7.272548e+002
1.107814e+003, 7.249451e+002
1.108296e+003, 7.248089e+002
1.108778e+003, 7.252321e+002
1.109260e+003, 7.257881e+002
1.109742e+003, 7.262440e+002
1.110224e+003, 7.264164e+002
1.110706e+003, 7.265108e+002
1.111188e+003, 7.268123e+002
1.111671e+003, 7.273342e+002
1.112153e+003, 7.282228e+002
1.112635e+003, 7.295168e+002
1.113117e+003, 7.311243e+002
1.113599e+003, 7.334337e+002
1.114081e+003, 7.356668e+002
1.114563e+003, 7.368990e+002
1.115045e+003, 7.373049e+002
1.115528e+003, 7.385605e+002
1.116010e+003, 7.408767e+002
1.116492e+003, 7.426523e+002
1.116974e+003, 7.431780e+002
1.117456e+003, 7.435576e+002
1.117938e+003, 7.456451e+002
1.118420e+003, 7.481685e+002
1.118902e+003, 7.494473e+002
1.119385e+003, 7.489045e+002
1.119867e+003, 7.479908e+002
1.120349e+003, 7.466964e+002
1.120831e+003, 7.452014e+002
1.121313e+003, 7.437888e+002
1.121795e+003, 7.420731e+002
1.122277e+003, 7.388867e+002
1.122759e+003, 7.347482e+002
1.123241e+003, 7.309039e+002
1.123724e+003, 7.283224e+002
1.124206e+003, 7.251951e+002
1.124688e+003, 7.210434e+002
1.125170e+003, 7.166928e+002
1.125652e+003, 7.129785e+002
1.126134e+003, 7.097175e+002
1.126616e+003, 7.061660e+002
1.127098e+003, 7.022553e+002
1.127580e+003, 6.975579e+002
1.128063e+003, 6.906066e+002
1.128545e+003, 6.842570e+002
1.129027e+003, 6.806802e+002
1.129509e+003, 6.777885e+002
1.129991e+003, 6.723925e+002
1.130473e+003, 6.645957e+002
1.130955e+003, 6.589578e+002
1.131437e+003, 6.558704e+002
1.131920e+003, 6.537430e+002
1.132402e+003, 6.526149e+002
1.132884e+003, 6.508186e+002
1.133366e+003, 6.465241e+002
1.133848e+003, 6.405494e+002
1.134330e+003, 6.358165e+002
1.134812e+003, 6.324738e+002
1.135294e+003, 6.290417e+002
1.135776e+003, 6.251239e+002
1.136259e+003, 6.216359e+002
1.136741e+003, 6.205858e+002
1.137223e+003, 6.197097e+002
1.137705e+003, 6.161129e+002
1.138187e+003, 6.093447e+002
1.138669e+003, 6.047264e+002
1.139151e+003, 6.031041e+002
1.139633e+003, 6.005609e+002
1.140115e+003, 5.951462e+002
1.140598e+003, 5.893721e+002
1.141080e+003, 5.879799e+002
1.141562e+003, 5.883371e+002
1.142044e+003, 5.858971e+002
1.142526e+003, 5.783209e+002
1.143008e+003, 5.730586e+002
1.143490e+003, 5.714891e+002
1.143972e+003, 5.703854e+002
1.144455e+003, 5.679342e+002
1.144937e+003, 5.648273e+002
1.145419e+003, 5.625823e+002
1.145901e+003, 5.610294e+002
1.146383e+003, 5.596927e+002
1.146865e+003, 5.589125e+002
1.147347e+003, 5.574612e+002
1.147829e+003, 5.548068e+002
1.148312e+003, 5.519703e+002
1.148794e+003, 5.497461e+002
1.149276e+003, 5.480215e+002
1.149758e+003, 5.464247e+002
1.150240e+003, 5.449235e+002
1.150722e+003, 5.433661e+002
1.151204e+003, 5.415449e+002
1.151686e+003, 5.398301e+002
1.152168e+003, 5.385717e+002
1.152651e+003, 5.372742e+002
1.153133e+003, 5.351951e+002
1.153615e+003, 5.324525e+002
1.154097e+003, 5.301535e+002
1.154579e+003, 5.283937e+002
1.155061e+003, 5.269596e+002
1.155543e+003, 5.261885e+002
1.156025e+003, 5.252139e+002
1.156507e+003, 5.227802e+002
1.156990e+003, 5.200948e+002
1.157472e+003, 5.200175e+002
1.157954e+003, 5.225717e+002
1.158436e+003, 5.232191e+002
1.158918e+003, 5.211914e+002
1.159400e+003, 5.190450e+002
1.159882e+003, 5.194672e+002
1.160364e+003, 5.200513e+002
1.160847e+003, 5.186939e+002
1.161329e+003, 5.157781e+002
1.161811e+003, 5.133300e+002
1.162293e+003, 5.113226e+002
1.162775e+003, 5.105467e+002
1.163257e+003, 5.115446e+002
1.163739e+003, 5.124316e+002
1.164221e+003, 5.107962e+002
1.164703e+003, 5.084391e+002
1.165186e+003, 5.073889e+002
1.165668e+003, 5.078990e+002
1.166150e+003, 5.072531e+002
1.166632e+003, 5.052627e+002
1.167114e+003, 5.031994e+002
1.167596e+003, 5.012553e+002
1.168078e+003, 5.000273e+002
1.168560e+003, 5.011590e+002
1.169042e+003, 5.030805e+002
1.169525e+003, 5.034708e+002
1.170007e+003, 5.012821e+002
1.170489e+003, 5.004962e+002
1.170971e+003, 5.016034e+002
1.171453e+003, 5.022409e+002
1.171935e+003, 5.006906e+002
1.172417e+003, 4.985210e+002
1.172899e+003, 4.982178e+002
1.173382e+003, 4.990834e+002
1.173864e+003, 4.998915e+002
1.174346e+003, 5.004935e+002
1.174828e+003, 5.006597e+002
1.175310e+003, 5.003570e+002
1.175792e+003, 4.996826e+002
1.176274e+003, 4.985882e+002
1.176756e+003, 4.972275e+002
1.177239e+003, 4.954921e+002
1.177721e+003, 4.937318e+002
1.178203e+003, 4.928127e+002
1.178685e+003, 4.941950e+002
1.179167e+003, 4.946489e+002
1.179649e+003, 4.937836e+002
1.180131e+003, 4.924544e+002
1.180613e+003, 4.913479e+002
1.181095e+003, 4.904083e+002
1.181578e+003, 4.896178e+002
1.182060e+003, 4.888943e+002
1.182542e+003, 4.879150e+002
1.183024e+003, 4.856869e+002
1.183506e+003, 4.845434e+002
1.183988e+003, 4.850486e+002
1.184470e+003, 4.862527e+002
1.184952e+003, 4.873640e+002
1.185434e+003, 4.882182e+002
1.185917e+003, 4.883439e+002
1.186399e+003, 4.877466e+002
1.186881e+003, 4.868297e+002
1.187363e+003, 4.849118e+002
1.187845e+003, 4.838743e+002
1.188327e+003, 4.843212e+002
1.188809e+003, 4.854648e+002
1.189291e+003, 4.863059e+002
1.189774e+003, 4.868404e+002
1.190256e+003, 4.871164e+002
1.190738e+003, 4.871324e+002
1.191220e+003, 4.867143e+002
1.191702e+003, 4.849841e+002
1.192184e+003, 4.838894e+002
1.192666e+003, 4.843569e+002
1.193148e+003, 4.854178e+002
1.193630e+003, 4.847171e+002
1.194113e+003, 4.829588e+002
1.194595e+003, 4.829479e+002
1.195077e+003, 4.853955e+002
1.195559e+003, 4.866499e+002
1.196041e+003, 4.834627e+002
1.196523e+003, 4.805390e+002
1.197005e+003, 4.796017e+002
1.197487e+003, 4.801978e+002
1.197969e+003, 4.817888e+002
1.198452e+003, 4.838868e+002
1.198934e+003, 4.845997e+002
1.199416e+003, 4.832359e+002
1.199898e+003, 4.817127e+002
1.200380e+003, 4.811053e+002
1.200862e+003, 4.802620e+002
1.201344e+003, 4.784485e+002
1.201826e+003, 4.760843e+002
1.202309e+003, 4.748410e+002
1.202791e+003, 4.744700e+002
1.203273e+003, 4.739725e+002
1.203755e+003, 4.728756e+002
1.204237e+003, 4.721860e+002
1.204719e+003, 4.730492e+002
1.205201e+003, 4.737640e+002
1.205683e+003, 4.732861e+002
1.206166e+003, 4.719160e+002
1.206648e+003, 4.709130e+002
1.207130e+003, 4.702354e+002
1.207612e+003, 4.696245e+002
1.208094e+003, 4.688383e+002
1.208576e+003, 4.684532e+002
1.209058e+003, 4.692908e+002
1.209540e+003, 4.700527e+002
1.210022e+003, 4.698511e+002
1.210505e+003, 4.688453e+002
1.210987e+003, 4.679149e+002
1.211469e+003, 4.670964e+002
1.211951e+003, 4.666094e+002
1.212433e+003, 4.665263e+002
1.212915e+003, 4.668183e+002
1.213397e+003, 4.680665e+002
1.213879e+003, 4.690951e+002
1.214361e+003, 4.690485e+002
1.214844e+003, 4.679966e+002
1.215326e+003, 4.659765e+002
1.215808e+003, 4.632759e+002
1.216290e+003, 4.613131e+002
1.216772e+003, 4.611862e+002
1.217254e+003, 4.613942e+002
1.217736e+003, 4.618816e+002
1.218218e+003, 4.620963e+002
1.218701e+003, 4.612319e+002
1.219183e+003, 4.595732e+002
1.219665e+003, 4.592731e+002
1.220147e+003, 4.600989e+002
1.220629e+003, 4.606472e+002
1.221111e+003, 4.602608e+002
1.221593e+003, 4.594258e+002
1.222075e+003, 4.578054e+002
1.222557e+003, 4.563903e+002
1.223040e+003, 4.566307e+002
1.223522e+003, 4.580084e+002
1.224004e+003, 4.577951e+002
1.224486e+003, 4.561418e+002
1.224968e+003, 4.544160e+002
1.225450e+003, 4.527426e+002
1.225932e+003, 4.519070e+002
1.226414e+003, 4.525525e+002
1.226896e+003, 4.533629e+002
1.227379e+003, 4.518637e+002
1.227861e+003, 4.493091e+002
1.228343e+003, 4.517990e+002
1.228825e+003, 4.584787e+002
1.229307e+003, 4.618665e+002
1.229789e+003, 4.547044e+002
1.230271e+003, 4.491320e+002
1.230753e+003, 4.482978e+002
1.231236e+003, 4.493388e+002
1.231718e+003, 4.484843e+002
1.232200e+003, 4.466034e+002
1.232682e+003, 4.465354e+002
1.233164e+003, 4.481544e+002
1.233646e+003, 4.488584e+002
1.234128e+003, 4.464650e+002
1.234610e+003, 4.446107e+002
1.235093e+003, 4.441405e+002
1.235575e+003, 4.442119e+002
1.236057e+003, 4.435645e+002
1.236539e+003, 4.426493e+002
1.237021e+003, 4.425941e+002
1.237503e+003, 4.434030e+002
1.237985e+003, 4.441729e+002
1.238467e+003, 4.450932e+002
1.238949e+003, 4.450378e+002
1.239432e+003, 4.434643e+002
1.239914e+003, 4.415882e+002
1.240396e+003, 4.412372e+002
1.240878e+003, 4.417180e+002
1.241360e+003, 4.417833e+002
1.241842e+003, 4.413449e+002
1.242324e+003, 4.409770e+002
1.242806e+003, 4.409997e+002
1.243288e+003, 4.405663e+002
1.243771e+003, 4.392972e+002
1.244253e+003, 4.380988e+002
1.244735e+003, 4.385170e+002
1.245217e+003, 4.395801e+002
1.245699e+003, 4.399552e+002
1.246181e+003, 4.395044e+002
1.246663e+003, 4.382564e+002
1.247145e+003, 4.356016e+002
1.247628e+003, 4.342039e+002
1.248110e+003, 4.349307e+002
1.248592e+003, 4.360089e+002
1.249074e+003, 4.350948e+002
1.249556e+003, 4.333341e+002
1.250038e+003, 4.320070e+002
1.250520e+003, 4.312369e+002
1.251002e+003, 4.305417e+002
1.251484e+003, 4.299757e+002
1.251967e+003, 4.290641e+002
1.252449e+003, 4.275427e+002
1.252931e+003, 4.263209e+002
1.253413e+003, 4.270121e+002
1.253895e+003, 4.280374e+002
1.254377e+003, 4.277582e+002
1.254859e+003, 4.261142e+002
1.255341e+003, 4.241134e+002
1.255823e+003, 4.215883e+002
1.256306e+003, 4.203239e+002
1.256788e+003, 4.209821e+002
1.257270e+003, 4.217054e+002
1.257752e+003, 4.204545e+002
1.258234e+003, 4.187531e+002
1.258716e+003, 4.180695e+002
1.259198e+003, 4.181587e+002
1.259680e+003, 4.176743e+002
1.260163e+003, 4.166064e+002
1.260645e+003, 4.152990e+002
1.261127e+003, 4.137777e+002
1.261609e+003, 4.122970e+002
1.262091e+003, 4.109914e+002
1.262573e+003, 4.098565e+002
1.263055e+003, 4.086985e+002
1.263537e+003, 4.077381e+002
1.264020e+003, 4.084204e+002
1.264502e+003, 4.103613e+002
1.264984e+003, 4.101783e+002
1.265466e+003, 4.067372e+002
1.265948e+003, 4.038653e+002
1.266430e+003, 4.046740e+002
1.266912e+003, 4.057207e+002
1.267394e+003, 4.052386e+002
1.267876e+003, 4.037567e+002
1.268359e+003, 4.025503e+002
1.268841e+003, 4.016019e+002
1.269323e+003, 4.009881e+002
1.269805e+003, 4.008223e+002
1.270287e+003, 4.001831e+002
1.270769e+003, 3.979561e+002
1.271251e+003, 3.961009e+002
1.271733e+003, 3.953248e+002
1.272215e+003, 3.952112e+002
1.272698e+003, 3.950816e+002
1.273180e+003, 3.948553e+002
1.273662e+003, 3.943537e+002
1.274144e+003, 3.935375e+002
1.274626e+003, 3.924575e+002
1.275108e+003, 3.908916e+002
1.275590e+003, 3.895777e+002
1.276072e+003, 3.888155e+002
1.276555e+003, 3.883260e+002
1.277037e+003, 3.876198e+002
1.277519e+003, 3.869039e+002
1.278001e+003, 3.866456e+002
1.278483e+003, 3.869774e+002
1.278965e+003, 3.865110e+002
1.279447e+003, 3.849802e+002
1.279929e+003, 3.833730e+002
1.280411e+003, 3.819022e+002
1.280894e+003, 3.807490e+002
1.281376e+003, 3.802622e+002
1.281858e+003, 3.801189e+002
1.282340e+003, 3.800609e+002
1.282822e+003, 3.800305e+002
1.283304e+003, 3.794807e+002
1.283786e+003, 3.783260e+002
1.284268e+003, 3.777648e+002
1.284750e+003, 3.783664e+002
1.285233e+003, 3.785907e+002
1.285715e+003, 3.764829e+002
1.286197e+003, 3.738608e+002
1.286679e+003, 3.721380e+002
1.287161e+003, 3.712127e+002
1.287643e+003, 3.705916e+002
1.288125e+003, 3.702656e+002
1.288607e+003, 3.702912e+002
1.289090e+003, 3.708802e+002
1.289572e+003, 3.705215e+002
1.290054e+003, 3.668664e+002
1.290536e+003, 3.635554e+002
1.291018e+003, 3.626920e+002
1.291500e+003, 3.633429e+002
1.291982e+003, 3.627850e+002
1.292464e+003, 3.614656e+002
1.292947e+003, 3.611628e+002
1.293429e+003, 3.623370e+002
1.293911e+003, 3.632324e+002
1.294393e+003, 3.632890e+002
1.294875e+003, 3.625797e+002
1.295357e+003, 3.606779e+002
1.295839e+003, 3.586174e+002
1.296321e+003, 3.587350e+002
1.296803e+003, 3.600158e+002
1.297286e+003, 3.606348e+002
1.297768e+003, 3.603098e+002
1.298250e+003, 3.593524e+002
1.298732e+003, 3.574603e+002
1.299214e+003, 3.559903e+002
1.299696e+003, 3.553225e+002
1.300178e+003, 3.551511e+002
1.300660e+003, 3.552909e+002
##END=



