##NAMES=Bario-olgite
##RRUFFID=R060614
##IDEAL CHEMISTRY=Na(Na,Sr,Ce)_2_Ba(PO_4_)_2_
##LOCALITY=Palitra pegmatite, Kedykverpakhk Mountain, Lovozero massif, Kola Peninsula, Russia
##OWNER=RRUFF
##SOURCE=Michael Scott
##DESCRIPTION=Grayish-green grains associated with brown manaksite R060693, and purple ussingite
##STATUS=The identification of this mineral has been confirmed by single-crystal X-ray diffraction.
##URL=rruff.info/R060614
9.059570e+001, 1.663268e+004
9.107782e+001, 1.609113e+004
9.155994e+001, 1.589936e+004
9.204205e+001, 1.625417e+004
9.252417e+001, 1.682844e+004
9.300629e+001, 1.754649e+004
9.348840e+001, 1.826923e+004
9.397052e+001, 1.882021e+004
9.445264e+001, 1.905855e+004
9.493475e+001, 1.919580e+004
9.541687e+001, 1.931863e+004
9.589898e+001, 1.946221e+004
9.638110e+001, 1.960142e+004
9.686321e+001, 1.970382e+004
9.734533e+001, 1.974187e+004
9.782745e+001, 1.970421e+004
9.830956e+001, 1.973726e+004
9.879168e+001, 1.989017e+004
9.927380e+001, 2.004475e+004
9.975591e+001, 2.016046e+004
1.002380e+002, 2.024907e+004
1.007201e+002, 2.034657e+004
1.012023e+002, 2.047361e+004
1.016844e+002, 2.062754e+004
1.021665e+002, 2.078228e+004
1.026486e+002, 2.093937e+004
1.031307e+002, 2.109459e+004
1.036128e+002, 2.124051e+004
1.040950e+002, 2.137484e+004
1.045771e+002, 2.151029e+004
1.050592e+002, 2.164772e+004
1.055413e+002, 2.178602e+004
1.060234e+002, 2.192558e+004
1.065055e+002, 2.207110e+004
1.069877e+002, 2.221817e+004
1.074698e+002, 2.234940e+004
1.079519e+002, 2.244512e+004
1.084340e+002, 2.254654e+004
1.089161e+002, 2.266873e+004
1.093982e+002, 2.280923e+004
1.098804e+002, 2.295943e+004
1.103625e+002, 2.311143e+004
1.108446e+002, 2.326219e+004
1.113267e+002, 2.342636e+004
1.118088e+002, 2.362173e+004
1.122909e+002, 2.381508e+004
1.127731e+002, 2.398144e+004
1.132552e+002, 2.412159e+004
1.137373e+002, 2.426361e+004
1.142194e+002, 2.444820e+004
1.147015e+002, 2.472270e+004
1.151836e+002, 2.495779e+004
1.156658e+002, 2.514598e+004
1.161479e+002, 2.530174e+004
1.166300e+002, 2.542700e+004
1.171121e+002, 2.552035e+004
1.175942e+002, 2.560730e+004
1.180763e+002, 2.575284e+004
1.185584e+002, 2.596996e+004
1.190406e+002, 2.620023e+004
1.195227e+002, 2.644502e+004
1.200048e+002, 2.669281e+004
1.204869e+002, 2.690884e+004
1.209690e+002, 2.705945e+004
1.214511e+002, 2.718092e+004
1.219333e+002, 2.734863e+004
1.224154e+002, 2.757826e+004
1.228975e+002, 2.782633e+004
1.233796e+002, 2.805940e+004
1.238617e+002, 2.827825e+004
1.243438e+002, 2.847898e+004
1.248260e+002, 2.862923e+004
1.253081e+002, 2.876933e+004
1.257902e+002, 2.893976e+004
1.262723e+002, 2.915907e+004
1.267544e+002, 2.940829e+004
1.272365e+002, 2.964406e+004
1.277187e+002, 2.986720e+004
1.282008e+002, 3.007413e+004
1.286829e+002, 3.025498e+004
1.291650e+002, 3.042489e+004
1.296471e+002, 3.060113e+004
1.301292e+002, 3.079315e+004
1.306114e+002, 3.100147e+004
1.310935e+002, 3.123253e+004
1.315756e+002, 3.152283e+004
1.320577e+002, 3.180419e+004
1.325398e+002, 3.205140e+004
1.330219e+002, 3.227420e+004
1.335041e+002, 3.249619e+004
1.339862e+002, 3.273825e+004
1.344683e+002, 3.300361e+004
1.349504e+002, 3.327971e+004
1.354325e+002, 3.359616e+004
1.359146e+002, 3.389887e+004
1.363968e+002, 3.414169e+004
1.368789e+002, 3.432588e+004
1.373610e+002, 3.450138e+004
1.378431e+002, 3.472089e+004
1.383252e+002, 3.499403e+004
1.388073e+002, 3.528083e+004
1.392895e+002, 3.559254e+004
1.397716e+002, 3.591243e+004
1.402537e+002, 3.622296e+004
1.407358e+002, 3.651930e+004
1.412179e+002, 3.680448e+004
1.417000e+002, 3.707668e+004
1.421821e+002, 3.733668e+004
1.426643e+002, 3.759543e+004
1.431464e+002, 3.784695e+004
1.436285e+002, 3.809809e+004
1.441106e+002, 3.838141e+004
1.445927e+002, 3.873477e+004
1.450748e+002, 3.908576e+004
1.455570e+002, 3.936588e+004
1.460391e+002, 3.957439e+004
1.465212e+002, 3.977287e+004
1.470033e+002, 4.001668e+004
1.474854e+002, 4.031151e+004
1.479675e+002, 4.059949e+004
1.484497e+002, 4.088447e+004
1.489318e+002, 4.115185e+004
1.494139e+002, 4.138142e+004
1.498960e+002, 4.157053e+004
1.503781e+002, 4.175218e+004
1.508602e+002, 4.197249e+004
1.513424e+002, 4.224447e+004
1.518245e+002, 4.253555e+004
1.523066e+002, 4.286382e+004
1.527887e+002, 4.319485e+004
1.532708e+002, 4.350538e+004
1.537529e+002, 4.378485e+004
1.542351e+002, 4.403949e+004
1.547172e+002, 4.428301e+004
1.551993e+002, 4.449518e+004
1.556814e+002, 4.471939e+004
1.561635e+002, 4.495733e+004
1.566456e+002, 4.520844e+004
1.571278e+002, 4.547270e+004
1.576099e+002, 4.575098e+004
1.580920e+002, 4.603916e+004
1.585741e+002, 4.631958e+004
1.590562e+002, 4.660714e+004
1.595383e+002, 4.687241e+004
1.600205e+002, 4.707832e+004
1.605026e+002, 4.725287e+004
1.609847e+002, 4.746714e+004
1.614668e+002, 4.777204e+004
1.619489e+002, 4.814098e+004
1.624310e+002, 4.844553e+004
1.629131e+002, 4.862740e+004
1.633953e+002, 4.880496e+004
1.638774e+002, 4.905514e+004
1.643595e+002, 4.937113e+004
1.648416e+002, 4.968021e+004
1.653237e+002, 4.993227e+004
1.658058e+002, 5.014659e+004
1.662880e+002, 5.037176e+004
1.667701e+002, 5.062495e+004
1.672522e+002, 5.088273e+004
1.677343e+002, 5.111503e+004
1.682164e+002, 5.131664e+004
1.686985e+002, 5.151569e+004
1.691807e+002, 5.171761e+004
1.696628e+002, 5.192782e+004
1.701449e+002, 5.215845e+004
1.706270e+002, 5.242005e+004
1.711091e+002, 5.270017e+004
1.715912e+002, 5.296891e+004
1.720734e+002, 5.321750e+004
1.725555e+002, 5.347092e+004
1.730376e+002, 5.375470e+004
1.735197e+002, 5.404798e+004
1.740018e+002, 5.432077e+004
1.744839e+002, 5.454978e+004
1.749661e+002, 5.474396e+004
1.754482e+002, 5.495534e+004
1.759303e+002, 5.521488e+004
1.764124e+002, 5.545737e+004
1.768945e+002, 5.564346e+004
1.773766e+002, 5.580146e+004
1.778588e+002, 5.598013e+004
1.783409e+002, 5.621920e+004
1.788230e+002, 5.651980e+004
1.793051e+002, 5.680206e+004
1.797872e+002, 5.704216e+004
1.802693e+002, 5.728750e+004
1.807515e+002, 5.755771e+004
1.812336e+002, 5.784598e+004
1.817157e+002, 5.812898e+004
1.821978e+002, 5.838596e+004
1.826799e+002, 5.861262e+004
1.831620e+002, 5.885136e+004
1.836441e+002, 5.910732e+004
1.841263e+002, 5.936700e+004
1.846084e+002, 5.962938e+004
1.850905e+002, 5.989082e+004
1.855726e+002, 6.013979e+004
1.860547e+002, 6.036125e+004
1.865368e+002, 6.054995e+004
1.870190e+002, 6.075521e+004
1.875011e+002, 6.098861e+004
1.879832e+002, 6.122810e+004
1.884653e+002, 6.145933e+004
1.889474e+002, 6.167974e+004
1.894296e+002, 6.189328e+004
1.899117e+002, 6.209945e+004
1.903938e+002, 6.229853e+004
1.908759e+002, 6.250993e+004
1.913580e+002, 6.273944e+004
1.918401e+002, 6.297968e+004
1.923223e+002, 6.322460e+004
1.928044e+002, 6.347443e+004
1.932865e+002, 6.372662e+004
1.937686e+002, 6.398670e+004
1.942507e+002, 6.425012e+004
1.947328e+002, 6.449632e+004
1.952150e+002, 6.470688e+004
1.956971e+002, 6.489840e+004
1.961792e+002, 6.510266e+004
1.966613e+002, 6.532056e+004
1.971434e+002, 6.555509e+004
1.976255e+002, 6.582027e+004
1.981077e+002, 6.610509e+004
1.985898e+002, 6.637579e+004
1.990719e+002, 6.659098e+004
1.995540e+002, 6.677271e+004
2.000361e+002, 6.702083e+004
2.005182e+002, 6.738884e+004
2.010004e+002, 6.775495e+004
2.014825e+002, 6.805008e+004
2.019646e+002, 6.829113e+004
2.024467e+002, 6.851688e+004
2.029288e+002, 6.874341e+004
2.034109e+002, 6.897288e+004
2.038930e+002, 6.923638e+004
2.043752e+002, 6.958139e+004
2.048573e+002, 6.991141e+004
2.053394e+002, 7.016552e+004
2.058215e+002, 7.037088e+004
2.063036e+002, 7.059989e+004
2.067857e+002, 7.092805e+004
2.072679e+002, 7.136512e+004
2.077500e+002, 7.171173e+004
2.082321e+002, 7.186341e+004
2.087142e+002, 7.201498e+004
2.091963e+002, 7.222608e+004
2.096784e+002, 7.248965e+004
2.101606e+002, 7.276738e+004
2.106427e+002, 7.302380e+004
2.111248e+002, 7.325129e+004
2.116069e+002, 7.351118e+004
2.120890e+002, 7.380813e+004
2.125711e+002, 7.412798e+004
2.130533e+002, 7.448951e+004
2.135354e+002, 7.487523e+004
2.140175e+002, 7.524174e+004
2.144996e+002, 7.554330e+004
2.149817e+002, 7.576452e+004
2.154638e+002, 7.603380e+004
2.159460e+002, 7.635566e+004
2.164281e+002, 7.670954e+004
2.169102e+002, 7.712284e+004
2.173923e+002, 7.757278e+004
2.178744e+002, 7.798122e+004
2.183565e+002, 7.825998e+004
2.188387e+002, 7.838430e+004
2.193208e+002, 7.862229e+004
2.198029e+002, 7.905588e+004
2.202850e+002, 7.952254e+004
2.207671e+002, 7.993561e+004
2.212492e+002, 8.028829e+004
2.217314e+002, 8.060512e+004
2.222135e+002, 8.089911e+004
2.226956e+002, 8.116857e+004
2.231777e+002, 8.145880e+004
2.236598e+002, 8.178355e+004
2.241419e+002, 8.211888e+004
2.246240e+002, 8.245613e+004
2.251062e+002, 8.279341e+004
2.255883e+002, 8.310624e+004
2.260704e+002, 8.336213e+004
2.265525e+002, 8.356916e+004
2.270346e+002, 8.380569e+004
2.275167e+002, 8.407065e+004
2.279989e+002, 8.437055e+004
2.284810e+002, 8.473920e+004
2.289631e+002, 8.518094e+004
2.294452e+002, 8.558233e+004
2.299273e+002, 8.581659e+004
2.304094e+002, 8.594328e+004
2.308916e+002, 8.613115e+004
2.313737e+002, 8.645660e+004
2.318558e+002, 8.682727e+004
2.323379e+002, 8.714511e+004
2.328200e+002, 8.740739e+004
2.333021e+002, 8.763440e+004
2.337843e+002, 8.779602e+004
2.342664e+002, 8.793849e+004
2.347485e+002, 8.813826e+004
2.352306e+002, 8.843803e+004
2.357127e+002, 8.878321e+004
2.361948e+002, 8.910988e+004
2.366770e+002, 8.942248e+004
2.371591e+002, 8.970501e+004
2.376412e+002, 8.994748e+004
2.381233e+002, 9.015717e+004
2.386054e+002, 9.034016e+004
2.390875e+002, 9.050190e+004
2.395697e+002, 9.063242e+004
2.400518e+002, 9.068723e+004
2.405339e+002, 9.061871e+004
2.410160e+002, 9.063140e+004
2.414981e+002, 9.086966e+004
2.419802e+002, 9.119636e+004
2.424624e+002, 9.149063e+004
2.429445e+002, 9.171055e+004
2.434266e+002, 9.188153e+004
2.439087e+002, 9.203570e+004
2.443908e+002, 9.215302e+004
2.448729e+002, 9.230859e+004
2.453550e+002, 9.254763e+004
2.458372e+002, 9.281648e+004
2.463193e+002, 9.307800e+004
2.468014e+002, 9.332113e+004
2.472835e+002, 9.353780e+004
2.477656e+002, 9.372048e+004
2.482477e+002, 9.387453e+004
2.487299e+002, 9.397402e+004
2.492120e+002, 9.395402e+004
2.496941e+002, 9.392006e+004
2.501762e+002, 9.396463e+004
2.506583e+002, 9.411417e+004
2.511404e+002, 9.430605e+004
2.516226e+002, 9.443675e+004
2.521047e+002, 9.448306e+004
2.525868e+002, 9.451660e+004
2.530689e+002, 9.450634e+004
2.535510e+002, 9.451235e+004
2.540331e+002, 9.459624e+004
2.545153e+002, 9.476639e+004
2.549974e+002, 9.496052e+004
2.554795e+002, 9.507483e+004
2.559616e+002, 9.504052e+004
2.564437e+002, 9.507712e+004
2.569258e+002, 9.524248e+004
2.574080e+002, 9.542784e+004
2.578901e+002, 9.555870e+004
2.583722e+002, 9.562374e+004
2.588543e+002, 9.566730e+004
2.593364e+002, 9.575182e+004
2.598185e+002, 9.590610e+004
2.603007e+002, 9.602787e+004
2.607828e+002, 9.613364e+004
2.612649e+002, 9.620352e+004
2.617470e+002, 9.619694e+004
2.622291e+002, 9.612592e+004
2.627112e+002, 9.606025e+004
2.631934e+002, 9.608311e+004
2.636755e+002, 9.622327e+004
2.641576e+002, 9.635157e+004
2.646397e+002, 9.645669e+004
2.651218e+002, 9.656092e+004
2.656039e+002, 9.667691e+004
2.660861e+002, 9.680395e+004
2.665682e+002, 9.693752e+004
2.670503e+002, 9.708097e+004
2.675324e+002, 9.724847e+004
2.680145e+002, 9.731741e+004
2.684966e+002, 9.720248e+004
2.689788e+002, 9.708768e+004
2.694609e+002, 9.707714e+004
2.699430e+002, 9.715473e+004
2.704251e+002, 9.723204e+004
2.709072e+002, 9.723202e+004
2.713893e+002, 9.715019e+004
2.718715e+002, 9.712685e+004
2.723536e+002, 9.719830e+004
2.728357e+002, 9.727880e+004
2.733178e+002, 9.734216e+004
2.737999e+002, 9.738553e+004
2.742820e+002, 9.741145e+004
2.747642e+002, 9.742312e+004
2.752463e+002, 9.741875e+004
2.757284e+002, 9.737315e+004
2.762105e+002, 9.723512e+004
2.766926e+002, 9.712047e+004
2.771747e+002, 9.708313e+004
2.776568e+002, 9.709851e+004
2.781389e+002, 9.710749e+004
2.786211e+002, 9.707491e+004
2.791032e+002, 9.701597e+004
2.795853e+002, 9.699805e+004
2.800674e+002, 9.706502e+004
2.805495e+002, 9.711330e+004
2.810316e+002, 9.712438e+004
2.815138e+002, 9.709904e+004
2.819959e+002, 9.702539e+004
2.824780e+002, 9.689008e+004
2.829601e+002, 9.673107e+004
2.834422e+002, 9.665562e+004
2.839243e+002, 9.671027e+004
2.844065e+002, 9.674627e+004
2.848886e+002, 9.671448e+004
2.853707e+002, 9.665138e+004
2.858528e+002, 9.660102e+004
2.863349e+002, 9.657459e+004
2.868170e+002, 9.658607e+004
2.872992e+002, 9.667381e+004
2.877813e+002, 9.686589e+004
2.882634e+002, 9.703016e+004
2.887455e+002, 9.712002e+004
2.892276e+002, 9.718103e+004
2.897097e+002, 9.728066e+004
2.901919e+002, 9.743642e+004
2.906740e+002, 9.758272e+004
2.911561e+002, 9.762729e+004
2.916382e+002, 9.755298e+004
2.921203e+002, 9.750812e+004
2.926024e+002, 9.750361e+004
2.930846e+002, 9.753670e+004
2.935667e+002, 9.761462e+004
2.940488e+002, 9.773756e+004
2.945309e+002, 9.787301e+004
2.950130e+002, 9.798377e+004
2.954951e+002, 9.807202e+004
2.959773e+002, 9.821010e+004
2.964594e+002, 9.841879e+004
2.969415e+002, 9.866456e+004
2.974236e+002, 9.894623e+004
2.979057e+002, 9.925464e+004
2.983878e+002, 9.952554e+004
2.988700e+002, 9.969291e+004
2.993521e+002, 9.977984e+004
2.998342e+002, 9.994354e+004
3.003163e+002, 1.002309e+005
3.007984e+002, 1.005481e+005
3.012805e+002, 1.008377e+005
3.017627e+002, 1.011086e+005
3.022448e+002, 1.014107e+005
3.027269e+002, 1.017811e+005
3.032090e+002, 1.021956e+005
3.036911e+002, 1.025817e+005
3.041732e+002, 1.029367e+005
3.046554e+002, 1.032759e+005
3.051375e+002, 1.035729e+005
3.056196e+002, 1.038575e+005
3.061017e+002, 1.042165e+005
3.065838e+002, 1.046969e+005
3.070659e+002, 1.052401e+005
3.075481e+002, 1.057254e+005
3.080302e+002, 1.061400e+005
3.085123e+002, 1.065657e+005
3.089944e+002, 1.070289e+005
3.094765e+002, 1.075198e+005
3.099586e+002, 1.080145e+005
3.104408e+002, 1.085030e+005
3.109229e+002, 1.090035e+005
3.114050e+002, 1.095414e+005
3.118871e+002, 1.101176e+005
3.123692e+002, 1.106957e+005
3.128513e+002, 1.112345e+005
3.133335e+002, 1.117860e+005
3.138156e+002, 1.124341e+005
3.142977e+002, 1.131920e+005
3.147798e+002, 1.139688e+005
3.152619e+002, 1.146882e+005
3.157440e+002, 1.153524e+005
3.162262e+002, 1.160018e+005
3.167083e+002, 1.165995e+005
3.171904e+002, 1.172114e+005
3.176725e+002, 1.179003e+005
3.181546e+002, 1.186663e+005
3.186367e+002, 1.194478e+005
3.191188e+002, 1.202037e+005
3.196010e+002, 1.209424e+005
3.200831e+002, 1.217152e+005
3.205652e+002, 1.225720e+005
3.210473e+002, 1.234167e+005
3.215294e+002, 1.241748e+005
3.220115e+002, 1.248700e+005
3.224937e+002, 1.255978e+005
3.229758e+002, 1.263968e+005
3.234579e+002, 1.272575e+005
3.239400e+002, 1.281436e+005
3.244221e+002, 1.290877e+005
3.249042e+002, 1.299917e+005
3.253864e+002, 1.307795e+005
3.258685e+002, 1.315112e+005
3.263506e+002, 1.323104e+005
3.268327e+002, 1.332210e+005
3.273148e+002, 1.341966e+005
3.277969e+002, 1.351923e+005
3.282791e+002, 1.362275e+005
3.287612e+002, 1.371798e+005
3.292433e+002, 1.379680e+005
3.297254e+002, 1.386854e+005
3.302075e+002, 1.394228e+005
3.306896e+002, 1.401959e+005
3.311718e+002, 1.410179e+005
3.316539e+002, 1.419205e+005
3.321360e+002, 1.429105e+005
3.326181e+002, 1.438781e+005
3.331002e+002, 1.447940e+005
3.335823e+002, 1.456996e+005
3.340645e+002, 1.466051e+005
3.345466e+002, 1.475164e+005
3.350287e+002, 1.485080e+005
3.355108e+002, 1.496659e+005
3.359929e+002, 1.509446e+005
3.364750e+002, 1.519994e+005
3.369572e+002, 1.526605e+005
3.374393e+002, 1.533139e+005
3.379214e+002, 1.541587e+005
3.384035e+002, 1.551234e+005
3.388856e+002, 1.560204e+005
3.393677e+002, 1.567561e+005
3.398499e+002, 1.573855e+005
3.403320e+002, 1.580485e+005
3.408141e+002, 1.587423e+005
3.412962e+002, 1.594640e+005
3.417783e+002, 1.602381e+005
3.422604e+002, 1.610317e+005
3.427426e+002, 1.618161e+005
3.432247e+002, 1.625805e+005
3.437068e+002, 1.632866e+005
3.441889e+002, 1.638653e+005
3.446710e+002, 1.642453e+005
3.451531e+002, 1.647054e+005
3.456353e+002, 1.653138e+005
3.461174e+002, 1.659539e+005
3.465995e+002, 1.665300e+005
3.470816e+002, 1.670364e+005
3.475637e+002, 1.675545e+005
3.480458e+002, 1.681743e+005
3.485280e+002, 1.689098e+005
3.490101e+002, 1.694045e+005
3.494922e+002, 1.694584e+005
3.499743e+002, 1.695171e+005
3.504564e+002, 1.697983e+005
3.509385e+002, 1.702340e+005
3.514207e+002, 1.706504e+005
3.519028e+002, 1.709461e+005
3.523849e+002, 1.711412e+005
3.528670e+002, 1.713192e+005
3.533491e+002, 1.714337e+005
3.538312e+002, 1.715893e+005
3.543134e+002, 1.718357e+005
3.547955e+002, 1.721152e+005
3.552776e+002, 1.723709e+005
3.557597e+002, 1.725814e+005
3.562418e+002, 1.727440e+005
3.567239e+002, 1.728506e+005
3.572061e+002, 1.728518e+005
3.576882e+002, 1.728973e+005
3.581703e+002, 1.730704e+005
3.586524e+002, 1.732208e+005
3.591345e+002, 1.732313e+005
3.596166e+002, 1.731024e+005
3.600987e+002, 1.729198e+005
3.605808e+002, 1.727620e+005
3.610630e+002, 1.726295e+005
3.615451e+002, 1.725121e+005
3.620272e+002, 1.724217e+005
3.625093e+002, 1.723323e+005
3.629914e+002, 1.722567e+005
3.634735e+002, 1.721735e+005
3.639557e+002, 1.720478e+005
3.644378e+002, 1.718576e+005
3.649199e+002, 1.716111e+005
3.654020e+002, 1.713387e+005
3.658841e+002, 1.709855e+005
3.663662e+002, 1.706864e+005
3.668484e+002, 1.704836e+005
3.673305e+002, 1.703274e+005
3.678126e+002, 1.701833e+005
3.682947e+002, 1.700371e+005
3.687768e+002, 1.698696e+005
3.692589e+002, 1.696576e+005
3.697411e+002, 1.694188e+005
3.702232e+002, 1.690807e+005
3.707053e+002, 1.685135e+005
3.711874e+002, 1.679582e+005
3.716695e+002, 1.675438e+005
3.721516e+002, 1.672668e+005
3.726338e+002, 1.670370e+005
3.731159e+002, 1.667873e+005
3.735980e+002, 1.665178e+005
3.740801e+002, 1.662232e+005
3.745622e+002, 1.658762e+005
3.750443e+002, 1.655348e+005
3.755265e+002, 1.652029e+005
3.760086e+002, 1.648911e+005
3.764907e+002, 1.646246e+005
3.769728e+002, 1.644239e+005
3.774549e+002, 1.642513e+005
3.779370e+002, 1.640150e+005
3.784192e+002, 1.636882e+005
3.789013e+002, 1.633743e+005
3.793834e+002, 1.630778e+005
3.798655e+002, 1.628194e+005
3.803476e+002, 1.626304e+005
3.808297e+002, 1.625163e+005
3.813119e+002, 1.624260e+005
3.817940e+002, 1.623195e+005
3.822761e+002, 1.621966e+005
3.827582e+002, 1.620414e+005
3.832403e+002, 1.618112e+005
3.837224e+002, 1.615985e+005
3.842046e+002, 1.614625e+005
3.846867e+002, 1.613935e+005
3.851688e+002, 1.613509e+005
3.856509e+002, 1.613213e+005
3.861330e+002, 1.613024e+005
3.866151e+002, 1.612951e+005
3.870973e+002, 1.613075e+005
3.875794e+002, 1.613006e+005
3.880615e+002, 1.612286e+005
3.885436e+002, 1.611276e+005
3.890257e+002, 1.610425e+005
3.895078e+002, 1.609656e+005
3.899900e+002, 1.609341e+005
3.904721e+002, 1.609913e+005
3.909542e+002, 1.611296e+005
3.914363e+002, 1.612944e+005
3.919184e+002, 1.614769e+005
3.924005e+002, 1.616674e+005
3.928827e+002, 1.618734e+005
3.933648e+002, 1.621050e+005
3.938469e+002, 1.622593e+005
3.943290e+002, 1.622447e+005
3.948111e+002, 1.621451e+005
3.952932e+002, 1.620832e+005
3.957754e+002, 1.620756e+005
3.962575e+002, 1.621184e+005
3.967396e+002, 1.622365e+005
3.972217e+002, 1.624186e+005
3.977038e+002, 1.625300e+005
3.981859e+002, 1.624900e+005
3.986681e+002, 1.624456e+005
3.991501e+002, 1.624871e+005
3.996323e+002, 1.626055e+005
4.001144e+002, 1.627706e+005
4.005965e+002, 1.629823e+005
4.010786e+002, 1.632057e+005
4.015607e+002, 1.633266e+005
4.020428e+002, 1.632579e+005
4.025250e+002, 1.632535e+005
4.030071e+002, 1.633873e+005
4.034892e+002, 1.635933e+005
4.039713e+002, 1.638257e+005
4.044534e+002, 1.640653e+005
4.049355e+002, 1.642529e+005
4.054177e+002, 1.643088e+005
4.058998e+002, 1.641960e+005
4.063819e+002, 1.641284e+005
4.068640e+002, 1.641286e+005
4.073461e+002, 1.641470e+005
4.078282e+002, 1.641440e+005
4.083104e+002, 1.641385e+005
4.087925e+002, 1.641974e+005
4.092746e+002, 1.643749e+005
4.097567e+002, 1.646211e+005
4.102388e+002, 1.647064e+005
4.107209e+002, 1.644800e+005
4.112031e+002, 1.642779e+005
4.116852e+002, 1.641685e+005
4.121673e+002, 1.640734e+005
4.126494e+002, 1.638877e+005
4.131315e+002, 1.635966e+005
4.136136e+002, 1.633121e+005
4.140958e+002, 1.632168e+005
4.145779e+002, 1.633996e+005
4.150600e+002, 1.634107e+005
4.155421e+002, 1.631083e+005
4.160242e+002, 1.627614e+005
4.165063e+002, 1.624588e+005
4.169885e+002, 1.621945e+005
4.174706e+002, 1.619315e+005
4.179527e+002, 1.616357e+005
4.184348e+002, 1.613314e+005
4.189169e+002, 1.611109e+005
4.193990e+002, 1.610294e+005
4.198812e+002, 1.609117e+005
4.203633e+002, 1.607004e+005
4.208454e+002, 1.604338e+005
4.213275e+002, 1.601571e+005
4.218096e+002, 1.598833e+005
4.222917e+002, 1.595482e+005
4.227739e+002, 1.590509e+005
4.232560e+002, 1.584011e+005
4.237381e+002, 1.577890e+005
4.242202e+002, 1.572356e+005
4.247023e+002, 1.567383e+005
4.251844e+002, 1.563257e+005
4.256666e+002, 1.559685e+005
4.261487e+002, 1.555549e+005
4.266308e+002, 1.549989e+005
4.271129e+002, 1.543761e+005
4.275950e+002, 1.538106e+005
4.280771e+002, 1.533041e+005
4.285593e+002, 1.527774e+005
4.290414e+002, 1.521746e+005
4.295235e+002, 1.515349e+005
4.300056e+002, 1.509551e+005
4.304877e+002, 1.504733e+005
4.309698e+002, 1.499672e+005
4.314520e+002, 1.493618e+005
4.319341e+002, 1.486952e+005
4.324162e+002, 1.480380e+005
4.328983e+002, 1.474125e+005
4.333804e+002, 1.467911e+005
4.338625e+002, 1.461385e+005
4.343447e+002, 1.454495e+005
4.348268e+002, 1.447808e+005
4.353089e+002, 1.441541e+005
4.357910e+002, 1.435308e+005
4.362731e+002, 1.429048e+005
4.367552e+002, 1.422653e+005
4.372374e+002, 1.415712e+005
4.377195e+002, 1.407880e+005
4.382016e+002, 1.399551e+005
4.386837e+002, 1.392383e+005
4.391658e+002, 1.387686e+005
4.396479e+002, 1.382464e+005
4.401301e+002, 1.376308e+005
4.406122e+002, 1.369690e+005
4.410943e+002, 1.363031e+005
4.415764e+002, 1.356471e+005
4.420585e+002, 1.349930e+005
4.425406e+002, 1.343396e+005
4.430227e+002, 1.336892e+005
4.435049e+002, 1.330144e+005
4.439870e+002, 1.322432e+005
4.444691e+002, 1.315253e+005
4.449512e+002, 1.309331e+005
4.454333e+002, 1.304254e+005
4.459154e+002, 1.299319e+005
4.463976e+002, 1.294246e+005
4.468797e+002, 1.288951e+005
4.473618e+002, 1.283146e+005
4.478439e+002, 1.276533e+005
4.483260e+002, 1.270293e+005
4.488081e+002, 1.264621e+005
4.492903e+002, 1.259366e+005
4.497724e+002, 1.254613e+005
4.502545e+002, 1.250283e+005
4.507366e+002, 1.245925e+005
4.512187e+002, 1.241240e+005
4.517008e+002, 1.236245e+005
4.521830e+002, 1.231135e+005
4.526651e+002, 1.225957e+005
4.531472e+002, 1.220603e+005
4.536293e+002, 1.214431e+005
4.541114e+002, 1.208178e+005
4.545935e+002, 1.203095e+005
4.550757e+002, 1.199997e+005
4.555578e+002, 1.197077e+005
4.560399e+002, 1.192551e+005
4.565220e+002, 1.186835e+005
4.570041e+002, 1.181664e+005
4.574862e+002, 1.177552e+005
4.579684e+002, 1.174096e+005
4.584505e+002, 1.171209e+005
4.589326e+002, 1.168953e+005
4.594147e+002, 1.165457e+005
4.598968e+002, 1.159239e+005
4.603789e+002, 1.152497e+005
4.608611e+002, 1.147036e+005
4.613432e+002, 1.142872e+005
4.618253e+002, 1.139420e+005
4.623074e+002, 1.136448e+005
4.627895e+002, 1.133762e+005
4.632716e+002, 1.130438e+005
4.637538e+002, 1.125701e+005
4.642359e+002, 1.121394e+005
4.647180e+002, 1.118269e+005
4.652001e+002, 1.115338e+005
4.656822e+002, 1.111381e+005
4.661643e+002, 1.106258e+005
4.666465e+002, 1.101035e+005
4.671286e+002, 1.096889e+005
4.676107e+002, 1.093884e+005
4.680928e+002, 1.091003e+005
4.685749e+002, 1.088528e+005
4.690570e+002, 1.085854e+005
4.695392e+002, 1.082528e+005
4.700213e+002, 1.078977e+005
4.705034e+002, 1.075894e+005
4.709855e+002, 1.073591e+005
4.714676e+002, 1.071685e+005
4.719497e+002, 1.069532e+005
4.724319e+002, 1.067108e+005
4.729140e+002, 1.064570e+005
4.733961e+002, 1.062070e+005
4.738782e+002, 1.059350e+005
4.743603e+002, 1.056359e+005
4.748424e+002, 1.053060e+005
4.753246e+002, 1.049243e+005
4.758067e+002, 1.044071e+005
4.762888e+002, 1.038577e+005
4.767709e+002, 1.035274e+005
4.772530e+002, 1.034529e+005
4.777351e+002, 1.033779e+005
4.782173e+002, 1.031813e+005
4.786994e+002, 1.029137e+005
4.791815e+002, 1.026590e+005
4.796636e+002, 1.024234e+005
4.801457e+002, 1.021905e+005
4.806278e+002, 1.019609e+005
4.811100e+002, 1.017259e+005
4.815920e+002, 1.014540e+005
4.820742e+002, 1.011368e+005
4.825563e+002, 1.008425e+005
4.830384e+002, 1.006401e+005
4.835205e+002, 1.005289e+005
4.840026e+002, 1.003815e+005
4.844847e+002, 1.001615e+005
4.849669e+002, 9.994691e+004
4.854490e+002, 9.978516e+004
4.859311e+002, 9.964595e+004
4.864132e+002, 9.947274e+004
4.868953e+002, 9.924406e+004
4.873774e+002, 9.898899e+004
4.878596e+002, 9.876073e+004
4.883417e+002, 9.858481e+004
4.888238e+002, 9.835877e+004
4.893059e+002, 9.798229e+004
4.897880e+002, 9.766032e+004
4.902701e+002, 9.754107e+004
4.907523e+002, 9.755697e+004
4.912344e+002, 9.754434e+004
4.917165e+002, 9.740228e+004
4.921986e+002, 9.717546e+004
4.926807e+002, 9.698544e+004
4.931628e+002, 9.684592e+004
4.936450e+002, 9.670725e+004
4.941271e+002, 9.653326e+004
4.946092e+002, 9.637721e+004
4.950913e+002, 9.631077e+004
4.955734e+002, 9.632078e+004
4.960555e+002, 9.627725e+004
4.965377e+002, 9.603273e+004
4.970198e+002, 9.567159e+004
4.975019e+002, 9.544063e+004
4.979840e+002, 9.537002e+004
4.984661e+002, 9.530802e+004
4.989482e+002, 9.516555e+004
4.994304e+002, 9.497913e+004
4.999125e+002, 9.482421e+004
5.003946e+002, 9.471952e+004
5.008767e+002, 9.460846e+004
5.013588e+002, 9.442402e+004
5.018409e+002, 9.422387e+004
5.023231e+002, 9.412857e+004
5.028052e+002, 9.416445e+004
5.032873e+002, 9.421813e+004
5.037694e+002, 9.418146e+004
5.042515e+002, 9.405013e+004
5.047336e+002, 9.393055e+004
5.052158e+002, 9.382416e+004
5.056979e+002, 9.372670e+004
5.061800e+002, 9.363173e+004
5.066621e+002, 9.354592e+004
5.071442e+002, 9.348633e+004
5.076263e+002, 9.345754e+004
5.081085e+002, 9.343565e+004
5.085906e+002, 9.337784e+004
5.090727e+002, 9.325964e+004
5.095548e+002, 9.319269e+004
5.100369e+002, 9.325151e+004
5.105190e+002, 9.328654e+004
5.110012e+002, 9.324352e+004
5.114833e+002, 9.313387e+004
5.119654e+002, 9.296887e+004
5.124475e+002, 9.273459e+004
5.129296e+002, 9.251188e+004
5.134117e+002, 9.247434e+004
5.138939e+002, 9.265155e+004
5.143760e+002, 9.278952e+004
5.148581e+002, 9.285417e+004
5.153402e+002, 9.283676e+004
5.158223e+002, 9.270145e+004
5.163044e+002, 9.246902e+004
5.167866e+002, 9.227213e+004
5.172687e+002, 9.218235e+004
5.177508e+002, 9.214853e+004
5.182329e+002, 9.210445e+004
5.187150e+002, 9.205138e+004
5.191971e+002, 9.202436e+004
5.196793e+002, 9.204876e+004
5.201614e+002, 9.209859e+004
5.206435e+002, 9.211745e+004
5.211256e+002, 9.210992e+004
5.216077e+002, 9.206786e+004
5.220898e+002, 9.197587e+004
5.225720e+002, 9.185830e+004
5.230541e+002, 9.171806e+004
5.235362e+002, 9.156813e+004
5.240183e+002, 9.144595e+004
5.245004e+002, 9.137948e+004
5.249825e+002, 9.136297e+004
5.254647e+002, 9.136935e+004
5.259468e+002, 9.145738e+004
5.264289e+002, 9.148152e+004
5.269110e+002, 9.135257e+004
5.273931e+002, 9.121161e+004
5.278752e+002, 9.119201e+004
5.283574e+002, 9.129561e+004
5.288395e+002, 9.141109e+004
5.293216e+002, 9.144622e+004
5.298037e+002, 9.140931e+004
5.302858e+002, 9.134375e+004
5.307679e+002, 9.123438e+004
5.312501e+002, 9.113220e+004
5.317322e+002, 9.106950e+004
5.322143e+002, 9.102036e+004
5.326964e+002, 9.095529e+004
5.331785e+002, 9.086717e+004
5.336606e+002, 9.078230e+004
5.341428e+002, 9.072137e+004
5.346249e+002, 9.067479e+004
5.351070e+002, 9.061313e+004
5.355891e+002, 9.052978e+004
5.360712e+002, 9.047315e+004
5.365533e+002, 9.049892e+004
5.370355e+002, 9.058436e+004
5.375176e+002, 9.059014e+004
5.379997e+002, 9.043632e+004
5.384818e+002, 9.030827e+004
5.389639e+002, 9.027929e+004
5.394460e+002, 9.029495e+004
5.399282e+002, 9.030098e+004
5.404103e+002, 9.028030e+004
5.408924e+002, 9.021878e+004
5.413745e+002, 9.009310e+004
5.418566e+002, 8.990016e+004
5.423387e+002, 8.975237e+004
5.428209e+002, 8.971364e+004
5.433029e+002, 8.964528e+004
5.437850e+002, 8.947355e+004
5.442672e+002, 8.928048e+004
5.447493e+002, 8.917305e+004
5.452314e+002, 8.917591e+004
5.457135e+002, 8.919841e+004
5.461956e+002, 8.915155e+004
5.466777e+002, 8.903739e+004
5.471599e+002, 8.887160e+004
5.476420e+002, 8.862593e+004
5.481241e+002, 8.839167e+004
5.486062e+002, 8.821674e+004
5.490883e+002, 8.809355e+004
5.495704e+002, 8.802177e+004
5.500526e+002, 8.802336e+004
5.505347e+002, 8.803036e+004
5.510168e+002, 8.802127e+004
5.514989e+002, 8.798305e+004
5.519810e+002, 8.786932e+004
5.524631e+002, 8.766833e+004
5.529453e+002, 8.746858e+004
5.534274e+002, 8.736360e+004
5.539095e+002, 8.735341e+004
5.543916e+002, 8.726535e+004
5.548737e+002, 8.704159e+004
5.553558e+002, 8.682128e+004
5.558380e+002, 8.663832e+004
5.563201e+002, 8.648043e+004
5.568022e+002, 8.633439e+004
5.572843e+002, 8.619527e+004
5.577664e+002, 8.606635e+004
5.582485e+002, 8.595604e+004
5.587307e+002, 8.586666e+004
5.592128e+002, 8.574612e+004
5.596949e+002, 8.556253e+004
5.601770e+002, 8.539526e+004
5.606591e+002, 8.530575e+004
5.611412e+002, 8.523008e+004
5.616234e+002, 8.508052e+004
5.621055e+002, 8.483049e+004
5.625876e+002, 8.456263e+004
5.630697e+002, 8.435138e+004
5.635518e+002, 8.418064e+004
5.640339e+002, 8.398978e+004
5.645161e+002, 8.376374e+004
5.649982e+002, 8.355739e+004
5.654803e+002, 8.342715e+004
5.659624e+002, 8.334902e+004
5.664445e+002, 8.321410e+004
5.669266e+002, 8.297468e+004
5.674088e+002, 8.274682e+004
5.678909e+002, 8.255498e+004
5.683730e+002, 8.240371e+004
5.688551e+002, 8.233073e+004
5.693372e+002, 8.232616e+004
5.698193e+002, 8.228199e+004
5.703015e+002, 8.208713e+004
5.707836e+002, 8.175180e+004
5.712657e+002, 8.149373e+004
5.717478e+002, 8.140122e+004
5.722299e+002, 8.126696e+004
5.727120e+002, 8.101303e+004
5.731942e+002, 8.073277e+004
5.736763e+002, 8.051764e+004
5.741584e+002, 8.037789e+004
5.746405e+002, 8.025407e+004
5.751226e+002, 8.009684e+004
5.756047e+002, 7.991240e+004
5.760869e+002, 7.973369e+004
5.765690e+002, 7.957063e+004
5.770511e+002, 7.936775e+004
5.775332e+002, 7.905448e+004
5.780153e+002, 7.871380e+004
5.784974e+002, 7.848896e+004
5.789796e+002, 7.841030e+004
5.794617e+002, 7.832023e+004
5.799438e+002, 7.816594e+004
5.804259e+002, 7.796584e+004
5.809080e+002, 7.772361e+004
5.813901e+002, 7.744966e+004
5.818723e+002, 7.718536e+004
5.823544e+002, 7.695939e+004
5.828365e+002, 7.675762e+004
5.833186e+002, 7.652963e+004
5.838007e+002, 7.624170e+004
5.842828e+002, 7.597862e+004
5.847650e+002, 7.577398e+004
5.852471e+002, 7.556567e+004
5.857292e+002, 7.529596e+004
5.862113e+002, 7.498337e+004
5.866934e+002, 7.469647e+004
5.871755e+002, 7.448494e+004
5.876577e+002, 7.431334e+004
5.881398e+002, 7.411698e+004
5.886219e+002, 7.390221e+004
5.891040e+002, 7.360434e+004
5.895861e+002, 7.312671e+004
5.900682e+002, 7.264811e+004
5.905504e+002, 7.235493e+004
5.910325e+002, 7.221991e+004
5.915146e+002, 7.207238e+004
5.919967e+002, 7.185795e+004
5.924788e+002, 7.161348e+004
5.929609e+002, 7.135938e+004
5.934431e+002, 7.110241e+004
5.939252e+002, 7.086286e+004
5.944073e+002, 7.065034e+004
5.948894e+002, 7.044177e+004
5.953715e+002, 7.019872e+004
5.958536e+002, 6.990200e+004
5.963358e+002, 6.965820e+004
5.968179e+002, 6.955130e+004
5.973000e+002, 6.939677e+004
5.977821e+002, 6.909943e+004
5.982642e+002, 6.872395e+004
5.987463e+002, 6.835516e+004
5.992285e+002, 6.802299e+004
5.997106e+002, 6.772580e+004
6.001927e+002, 6.746292e+004
6.006748e+002, 6.723278e+004
6.011569e+002, 6.703414e+004
6.016390e+002, 6.690423e+004
6.021212e+002, 6.672734e+004
6.026033e+002, 6.639083e+004
6.030854e+002, 6.597845e+004
6.035675e+002, 6.562023e+004
6.040496e+002, 6.533772e+004
6.045317e+002, 6.508591e+004
6.050139e+002, 6.486905e+004
6.054960e+002, 6.465529e+004
6.059781e+002, 6.438648e+004
6.064602e+002, 6.406272e+004
6.069423e+002, 6.374607e+004
6.074244e+002, 6.348396e+004
6.079066e+002, 6.326498e+004
6.083887e+002, 6.303411e+004
6.088708e+002, 6.279034e+004
6.093529e+002, 6.253684e+004
6.098350e+002, 6.226381e+004
6.103171e+002, 6.199022e+004
6.107993e+002, 6.173670e+004
6.112814e+002, 6.149627e+004
6.117635e+002, 6.123939e+004
6.122456e+002, 6.093913e+004
6.127277e+002, 6.062435e+004
6.132098e+002, 6.036214e+004
6.136920e+002, 6.015696e+004
6.141741e+002, 5.992804e+004
6.146562e+002, 5.962989e+004
6.151383e+002, 5.933384e+004
6.156204e+002, 5.913302e+004
6.161025e+002, 5.900706e+004
6.165847e+002, 5.883137e+004
6.170668e+002, 5.852710e+004
6.175489e+002, 5.821889e+004
6.180310e+002, 5.799584e+004
6.185131e+002, 5.782518e+004
6.189952e+002, 5.764076e+004
6.194774e+002, 5.742243e+004
6.199595e+002, 5.718156e+004
6.204416e+002, 5.692252e+004
6.209237e+002, 5.663802e+004
6.214058e+002, 5.643434e+004
6.218879e+002, 5.638361e+004
6.223701e+002, 5.632863e+004
6.228522e+002, 5.627618e+004
6.233343e+002, 5.618268e+004
6.238164e+002, 5.598855e+004
6.242985e+002, 5.568973e+004
6.247806e+002, 5.536553e+004
6.252628e+002, 5.505042e+004
6.257448e+002, 5.476420e+004
6.262269e+002, 5.458030e+004
6.267090e+002, 5.450821e+004
6.271912e+002, 5.443911e+004
6.276733e+002, 5.432774e+004
6.281554e+002, 5.418602e+004
6.286375e+002, 5.403482e+004
6.291196e+002, 5.387970e+004
6.296017e+002, 5.369742e+004
6.300839e+002, 5.343046e+004
6.305660e+002, 5.318236e+004
6.310481e+002, 5.304012e+004
6.315302e+002, 5.297338e+004
6.320123e+002, 5.290476e+004
6.324944e+002, 5.279918e+004
6.329766e+002, 5.266698e+004
6.334587e+002, 5.252163e+004
6.339408e+002, 5.235778e+004
6.344229e+002, 5.220590e+004
6.349050e+002, 5.208300e+004
6.353871e+002, 5.195102e+004
6.358693e+002, 5.177191e+004
6.363514e+002, 5.158139e+004
6.368335e+002, 5.143725e+004
6.373156e+002, 5.136008e+004
6.377977e+002, 5.130075e+004
6.382798e+002, 5.122635e+004
6.387620e+002, 5.114600e+004
6.392441e+002, 5.108127e+004
6.397262e+002, 5.103387e+004
6.402083e+002, 5.097593e+004
6.406904e+002, 5.088848e+004
6.411725e+002, 5.077832e+004
6.416547e+002, 5.066700e+004
6.421368e+002, 5.055196e+004
6.426189e+002, 5.043977e+004
6.431010e+002, 5.032478e+004
6.435831e+002, 5.021754e+004
6.440652e+002, 5.012593e+004
6.445474e+002, 5.004731e+004
6.450295e+002, 4.997395e+004
6.455116e+002, 4.990263e+004
6.459937e+002, 4.983259e+004
6.464758e+002, 4.976117e+004
6.469579e+002, 4.968846e+004
6.474401e+002, 4.962487e+004
6.479222e+002, 4.957562e+004
6.484043e+002, 4.952866e+004
6.488864e+002, 4.947018e+004
6.493685e+002, 4.940706e+004
6.498506e+002, 4.936464e+004
6.503328e+002, 4.937899e+004
6.508149e+002, 4.936204e+004
6.512970e+002, 4.924036e+004
6.517791e+002, 4.909059e+004
6.522612e+002, 4.901099e+004
6.527433e+002, 4.900637e+004
6.532255e+002, 4.901440e+004
6.537076e+002, 4.898814e+004
6.541897e+002, 4.894016e+004
6.546718e+002, 4.892021e+004
6.551539e+002, 4.894498e+004
6.556360e+002, 4.895652e+004
6.561182e+002, 4.893884e+004
6.566003e+002, 4.891163e+004
6.570824e+002, 4.886136e+004
6.575645e+002, 4.880813e+004
6.580466e+002, 4.881404e+004
6.585287e+002, 4.893692e+004
6.590109e+002, 4.907128e+004
6.594930e+002, 4.911283e+004
6.599751e+002, 4.908601e+004
6.604572e+002, 4.905512e+004
6.609393e+002, 4.903349e+004
6.614214e+002, 4.902089e+004
6.619036e+002, 4.901859e+004
6.623857e+002, 4.902564e+004
6.628678e+002, 4.902978e+004
6.633499e+002, 4.903281e+004
6.638320e+002, 4.903149e+004
6.643141e+002, 4.901357e+004
6.647963e+002, 4.900107e+004
6.652784e+002, 4.901329e+004
6.657605e+002, 4.904838e+004
6.662426e+002, 4.909414e+004
6.667247e+002, 4.915180e+004
6.672068e+002, 4.920178e+004
6.676890e+002, 4.920072e+004
6.681711e+002, 4.915034e+004
6.686532e+002, 4.910480e+004
6.691353e+002, 4.907205e+004
6.696174e+002, 4.905680e+004
6.700995e+002, 4.906493e+004
6.705817e+002, 4.909643e+004
6.710638e+002, 4.914093e+004
6.715459e+002, 4.921755e+004
6.720280e+002, 4.928285e+004
6.725101e+002, 4.930547e+004
6.729922e+002, 4.931941e+004
6.734744e+002, 4.937193e+004
6.739565e+002, 4.946017e+004
6.744386e+002, 4.953459e+004
6.749207e+002, 4.955366e+004
6.754028e+002, 4.953783e+004
6.758849e+002, 4.956036e+004
6.763671e+002, 4.963584e+004
6.768492e+002, 4.968217e+004
6.773313e+002, 4.965166e+004
6.778134e+002, 4.962381e+004
6.782955e+002, 4.968084e+004
6.787776e+002, 4.979555e+004
6.792598e+002, 4.986867e+004
6.797419e+002, 4.985152e+004
6.802240e+002, 4.982123e+004
6.807061e+002, 4.982677e+004
6.811882e+002, 4.984724e+004
6.816703e+002, 4.983902e+004
6.821525e+002, 4.980061e+004
6.826346e+002, 4.978555e+004
6.831167e+002, 4.984454e+004
6.835988e+002, 4.995523e+004
6.840809e+002, 5.000128e+004
6.845630e+002, 4.993518e+004
6.850452e+002, 4.990852e+004
6.855273e+002, 4.997684e+004
6.860094e+002, 5.005887e+004
6.864915e+002, 5.012167e+004
6.869736e+002, 5.015955e+004
6.874557e+002, 5.016384e+004
6.879379e+002, 5.011939e+004
6.884200e+002, 5.006050e+004
6.889021e+002, 5.000486e+004
6.893842e+002, 4.995971e+004
6.898663e+002, 4.994503e+004
6.903484e+002, 4.996396e+004
6.908306e+002, 5.000419e+004
6.913127e+002, 5.006249e+004
6.917948e+002, 5.012950e+004
6.922769e+002, 5.015842e+004
6.927590e+002, 5.012978e+004
6.932411e+002, 5.009314e+004
6.937233e+002, 5.003252e+004
6.942054e+002, 4.998295e+004
6.946875e+002, 4.998145e+004
6.951696e+002, 5.000807e+004
6.956517e+002, 5.000483e+004
6.961339e+002, 4.993451e+004
6.966160e+002, 4.986391e+004
6.970981e+002, 4.988816e+004
6.975802e+002, 4.997568e+004
6.980623e+002, 5.000325e+004
6.985444e+002, 4.994777e+004
6.990266e+002, 4.990314e+004
6.995087e+002, 4.994923e+004
6.999908e+002, 5.004789e+004
7.004729e+002, 5.005298e+004
7.009550e+002, 4.987625e+004
7.014371e+002, 4.973833e+004
7.019193e+002, 4.966435e+004
7.024014e+002, 4.960863e+004
7.028835e+002, 4.954169e+004
7.033656e+002, 4.947127e+004
7.038477e+002, 4.942239e+004
7.043298e+002, 4.940827e+004
7.048120e+002, 4.939979e+004
7.052941e+002, 4.936395e+004
7.057762e+002, 4.930365e+004
7.062583e+002, 4.922719e+004
7.067404e+002, 4.913285e+004
7.072225e+002, 4.904045e+004
7.077046e+002, 4.895332e+004
7.081867e+002, 4.888168e+004
7.086688e+002, 4.886157e+004
7.091509e+002, 4.894478e+004
7.096331e+002, 4.894439e+004
7.101152e+002, 4.876963e+004
7.105973e+002, 4.858367e+004
7.110794e+002, 4.848555e+004
7.115615e+002, 4.844470e+004
7.120436e+002, 4.839290e+004
7.125258e+002, 4.830529e+004
7.130079e+002, 4.821725e+004
7.134900e+002, 4.818250e+004
7.139721e+002, 4.818658e+004
7.144542e+002, 4.814635e+004
7.149363e+002, 4.805583e+004
7.154185e+002, 4.794616e+004
7.159006e+002, 4.782973e+004
7.163827e+002, 4.770499e+004
7.168648e+002, 4.756090e+004
7.173469e+002, 4.738936e+004
7.178290e+002, 4.725106e+004
7.183112e+002, 4.718025e+004
7.187933e+002, 4.711335e+004
7.192754e+002, 4.701347e+004
7.197575e+002, 4.689994e+004
7.202396e+002, 4.680442e+004
7.207217e+002, 4.673393e+004
7.212039e+002, 4.666673e+004
7.216860e+002, 4.657643e+004
7.221681e+002, 4.647326e+004
7.226502e+002, 4.640476e+004
7.231323e+002, 4.637620e+004
7.236144e+002, 4.633797e+004
7.240966e+002, 4.628338e+004
7.245787e+002, 4.620002e+004
7.250608e+002, 4.606330e+004
7.255429e+002, 4.587356e+004
7.260250e+002, 4.569757e+004
7.265071e+002, 4.553075e+004
7.269893e+002, 4.538748e+004
7.274714e+002, 4.529209e+004
7.279535e+002, 4.521156e+004
7.284356e+002, 4.510116e+004
7.289177e+002, 4.496329e+004
7.293998e+002, 4.484651e+004
7.298820e+002, 4.479388e+004
7.303641e+002, 4.477155e+004
7.308462e+002, 4.470118e+004
7.313283e+002, 4.458152e+004
7.318104e+002, 4.444169e+004
7.322925e+002, 4.427305e+004
7.327747e+002, 4.411866e+004
7.332568e+002, 4.403141e+004
7.337389e+002, 4.399092e+004
7.342210e+002, 4.388978e+004
7.347031e+002, 4.366706e+004
7.351852e+002, 4.347869e+004
7.356674e+002, 4.340122e+004
7.361495e+002, 4.333286e+004
7.366316e+002, 4.317216e+004
7.371137e+002, 4.294487e+004
7.375958e+002, 4.274268e+004
7.380779e+002, 4.260984e+004
7.385601e+002, 4.251573e+004
7.390422e+002, 4.242652e+004
7.395243e+002, 4.233945e+004
7.400064e+002, 4.222209e+004
7.404885e+002, 4.206878e+004
7.409706e+002, 4.190113e+004
7.414528e+002, 4.172681e+004
7.419349e+002, 4.154997e+004
7.424170e+002, 4.138126e+004
7.428991e+002, 4.122564e+004
7.433812e+002, 4.106097e+004
7.438633e+002, 4.085138e+004
7.443455e+002, 4.066826e+004
7.448276e+002, 4.059254e+004
7.453097e+002, 4.055179e+004
7.457918e+002, 4.041670e+004
7.462739e+002, 4.015986e+004
7.467560e+002, 3.989785e+004
7.472382e+002, 3.976011e+004
7.477203e+002, 3.970315e+004
7.482024e+002, 3.959505e+004
7.486845e+002, 3.943471e+004
7.491666e+002, 3.925426e+004
7.496487e+002, 3.905443e+004
7.501309e+002, 3.886348e+004
7.506130e+002, 3.871810e+004
7.510951e+002, 3.862229e+004
7.515772e+002, 3.850532e+004
7.520593e+002, 3.836071e+004
7.525414e+002, 3.820468e+004
7.530236e+002, 3.803983e+004
7.535057e+002, 3.786417e+004
7.539878e+002, 3.765132e+004
7.544699e+002, 3.742127e+004
7.549520e+002, 3.725073e+004
7.554341e+002, 3.720761e+004
7.559163e+002, 3.718990e+004
7.563984e+002, 3.704195e+004
7.568805e+002, 3.679191e+004
7.573626e+002, 3.656791e+004
7.578447e+002, 3.639169e+004
7.583268e+002, 3.621834e+004
7.588090e+002, 3.601489e+004
7.592911e+002, 3.579184e+004
7.597732e+002, 3.558065e+004
7.602553e+002, 3.535041e+004
7.607374e+002, 3.519142e+004
7.612195e+002, 3.519243e+004
7.617017e+002, 3.516796e+004
7.621838e+002, 3.500674e+004
7.626659e+002, 3.477157e+004
7.631480e+002, 3.456511e+004
7.636301e+002, 3.441657e+004
7.641122e+002, 3.428323e+004
7.645944e+002, 3.413448e+004
7.650765e+002, 3.398032e+004
7.655586e+002, 3.383158e+004
7.660407e+002, 3.369017e+004
7.665228e+002, 3.357436e+004
7.670049e+002, 3.349267e+004
7.674871e+002, 3.340915e+004
7.679692e+002, 3.327362e+004
7.684513e+002, 3.308175e+004
7.689334e+002, 3.291319e+004
7.694155e+002, 3.276979e+004
7.698976e+002, 3.264530e+004
7.703798e+002, 3.257317e+004
7.708619e+002, 3.249053e+004
7.713440e+002, 3.234023e+004
7.718261e+002, 3.213133e+004
7.723082e+002, 3.192167e+004
7.727903e+002, 3.171004e+004
7.732725e+002, 3.153239e+004
7.737546e+002, 3.142957e+004
7.742367e+002, 3.137127e+004
7.747188e+002, 3.132724e+004
7.752009e+002, 3.128317e+004
7.756830e+002, 3.120123e+004
7.761652e+002, 3.105258e+004
7.766473e+002, 3.086672e+004
7.771294e+002, 3.071644e+004
7.776115e+002, 3.060889e+004
7.780936e+002, 3.048558e+004
7.785757e+002, 3.033018e+004
7.790579e+002, 3.018209e+004
7.795400e+002, 3.006153e+004
7.800221e+002, 2.996294e+004
7.805042e+002, 2.988412e+004
7.809863e+002, 2.983221e+004
7.814684e+002, 2.976041e+004
7.819506e+002, 2.965013e+004
7.824327e+002, 2.952386e+004
7.829148e+002, 2.938038e+004
7.833969e+002, 2.923587e+004
7.838790e+002, 2.911679e+004
7.843611e+002, 2.902871e+004
7.848433e+002, 2.895435e+004
7.853254e+002, 2.887853e+004
7.858075e+002, 2.880378e+004
7.862896e+002, 2.874268e+004
7.867717e+002, 2.869576e+004
7.872538e+002, 2.863813e+004
7.877360e+002, 2.856348e+004
7.882181e+002, 2.847666e+004
7.887002e+002, 2.837868e+004
7.891823e+002, 2.827183e+004
7.896644e+002, 2.817861e+004
7.901465e+002, 2.810896e+004
7.906286e+002, 2.803761e+004
7.911107e+002, 2.796961e+004
7.915928e+002, 2.789308e+004
7.920750e+002, 2.779627e+004
7.925571e+002, 2.768554e+004
7.930392e+002, 2.756844e+004
7.935213e+002, 2.744512e+004
7.940034e+002, 2.734175e+004
7.944855e+002, 2.730109e+004
7.949677e+002, 2.728781e+004
7.954498e+002, 2.722598e+004
7.959319e+002, 2.712080e+004
7.964140e+002, 2.704006e+004
7.968961e+002, 2.701256e+004
7.973782e+002, 2.701001e+004
7.978604e+002, 2.699853e+004
7.983425e+002, 2.697901e+004
7.988246e+002, 2.691646e+004
7.993067e+002, 2.677503e+004
7.997888e+002, 2.665466e+004
8.002709e+002, 2.660854e+004
8.007531e+002, 2.656985e+004
8.012352e+002, 2.647244e+004
8.017173e+002, 2.633324e+004
8.021994e+002, 2.624286e+004
8.026815e+002, 2.625294e+004
8.031636e+002, 2.627559e+004
8.036458e+002, 2.626777e+004
8.041279e+002, 2.624648e+004
8.046100e+002, 2.623938e+004
8.050921e+002, 2.623993e+004
8.055742e+002, 2.621138e+004
8.060563e+002, 2.613252e+004
8.065385e+002, 2.603700e+004
8.070206e+002, 2.598529e+004
8.075027e+002, 2.597274e+004
8.079848e+002, 2.592777e+004
8.084669e+002, 2.583814e+004
8.089490e+002, 2.576661e+004
8.094312e+002, 2.575321e+004
8.099133e+002, 2.575534e+004
8.103954e+002, 2.570244e+004
8.108775e+002, 2.557990e+004
8.113596e+002, 2.550025e+004
8.118417e+002, 2.549551e+004
8.123239e+002, 2.549251e+004
8.128060e+002, 2.546687e+004
8.132881e+002, 2.543762e+004
8.137702e+002, 2.542779e+004
8.142523e+002, 2.543388e+004
8.147344e+002, 2.543219e+004
8.152166e+002, 2.541005e+004
8.156987e+002, 2.537761e+004
8.161808e+002, 2.534014e+004
8.166629e+002, 2.530184e+004
8.171450e+002, 2.527669e+004
8.176271e+002, 2.526366e+004
8.181093e+002, 2.523551e+004
8.185914e+002, 2.517293e+004
8.190735e+002, 2.510812e+004
8.195556e+002, 2.511281e+004
8.200377e+002, 2.520539e+004
8.205198e+002, 2.524787e+004
8.210020e+002, 2.521785e+004
8.214841e+002, 2.518015e+004
8.219662e+002, 2.517031e+004
8.224483e+002, 2.515590e+004
8.229304e+002, 2.508853e+004
8.234125e+002, 2.497079e+004
8.238947e+002, 2.488746e+004
8.243768e+002, 2.487999e+004
8.248589e+002, 2.488121e+004
8.253410e+002, 2.486074e+004
8.258231e+002, 2.483463e+004
8.263052e+002, 2.482668e+004
8.267874e+002, 2.483279e+004
8.272695e+002, 2.482970e+004
8.277516e+002, 2.480561e+004
8.282337e+002, 2.476090e+004
8.287158e+002, 2.467179e+004
8.291979e+002, 2.455997e+004
8.296801e+002, 2.452929e+004
8.301622e+002, 2.458924e+004
8.306443e+002, 2.465192e+004
8.311264e+002, 2.467715e+004
8.316085e+002, 2.467163e+004
8.320906e+002, 2.464453e+004
8.325728e+002, 2.459370e+004
8.330549e+002, 2.453600e+004
8.335370e+002, 2.444900e+004
8.340191e+002, 2.438838e+004
8.345012e+002, 2.437455e+004
8.349833e+002, 2.438391e+004
8.354655e+002, 2.441142e+004
8.359476e+002, 2.444773e+004
8.364297e+002, 2.445649e+004
8.369118e+002, 2.441211e+004
8.373939e+002, 2.436182e+004
8.378760e+002, 2.433121e+004
8.383582e+002, 2.430862e+004
8.388403e+002, 2.427901e+004
8.393224e+002, 2.424436e+004
8.398045e+002, 2.421435e+004
8.402866e+002, 2.419357e+004
8.407687e+002, 2.418462e+004
8.412509e+002, 2.420130e+004
8.417330e+002, 2.423563e+004
8.422151e+002, 2.423316e+004
8.426972e+002, 2.418993e+004
8.431793e+002, 2.416691e+004
8.436614e+002, 2.419604e+004
8.441436e+002, 2.422325e+004
8.446257e+002, 2.417643e+004
8.451078e+002, 2.405820e+004
8.455899e+002, 2.399547e+004
8.460720e+002, 2.405029e+004
8.465541e+002, 2.406963e+004
8.470363e+002, 2.399055e+004
8.475184e+002, 2.391967e+004
8.480005e+002, 2.394231e+004
8.484826e+002, 2.402130e+004
8.489647e+002, 2.406465e+004
8.494468e+002, 2.404237e+004
8.499290e+002, 2.401399e+004
8.504111e+002, 2.401470e+004
8.508932e+002, 2.402269e+004
8.513753e+002, 2.402083e+004
8.518574e+002, 2.400708e+004
8.523395e+002, 2.397503e+004
8.528217e+002, 2.392567e+004
8.533038e+002, 2.388121e+004
8.537859e+002, 2.386951e+004
8.542680e+002, 2.387490e+004
8.547501e+002, 2.384300e+004
8.552322e+002, 2.377389e+004
8.557144e+002, 2.371521e+004
8.561965e+002, 2.367752e+004
8.566786e+002, 2.364677e+004
8.571607e+002, 2.361065e+004
8.576428e+002, 2.357519e+004
8.581249e+002, 2.356176e+004
8.586071e+002, 2.359355e+004
8.590892e+002, 2.359641e+004
8.595713e+002, 2.354899e+004
8.600534e+002, 2.349815e+004
8.605355e+002, 2.345334e+004
8.610176e+002, 2.341768e+004
8.614998e+002, 2.339631e+004
8.619819e+002, 2.338898e+004
8.624640e+002, 2.338344e+004
8.629461e+002, 2.339239e+004
8.634282e+002, 2.338241e+004
8.639103e+002, 2.329899e+004
8.643925e+002, 2.319938e+004
8.648746e+002, 2.317929e+004
8.653567e+002, 2.323171e+004
8.658388e+002, 2.326883e+004
8.663209e+002, 2.323814e+004
8.668030e+002, 2.317965e+004
8.672852e+002, 2.315638e+004
8.677673e+002, 2.316060e+004
8.682494e+002, 2.315209e+004
8.687315e+002, 2.312852e+004
8.692136e+002, 2.308949e+004
8.696957e+002, 2.302898e+004
8.701779e+002, 2.297378e+004
8.706600e+002, 2.296537e+004
8.711421e+002, 2.300439e+004
8.716242e+002, 2.300698e+004
8.721063e+002, 2.294139e+004
8.725884e+002, 2.289516e+004
8.730705e+002, 2.289514e+004
8.735526e+002, 2.290709e+004
8.740347e+002, 2.293906e+004
8.745168e+002, 2.296367e+004
8.749990e+002, 2.290116e+004
8.754811e+002, 2.268888e+004
8.759632e+002, 2.254428e+004
8.764453e+002, 2.260117e+004
8.769274e+002, 2.269753e+004
8.774095e+002, 2.272609e+004
8.778917e+002, 2.270425e+004
8.783738e+002, 2.267059e+004
8.788559e+002, 2.263707e+004
8.793380e+002, 2.260316e+004
8.798201e+002, 2.256785e+004
8.803022e+002, 2.253275e+004
8.807844e+002, 2.248929e+004
8.812665e+002, 2.244768e+004
8.817486e+002, 2.245955e+004
8.822307e+002, 2.252891e+004
8.827128e+002, 2.258007e+004
8.831949e+002, 2.256299e+004
8.836771e+002, 2.250739e+004
8.841592e+002, 2.247849e+004
8.846413e+002, 2.248381e+004
8.851234e+002, 2.245391e+004
8.856055e+002, 2.236851e+004
8.860876e+002, 2.229867e+004
8.865698e+002, 2.228264e+004
8.870519e+002, 2.227808e+004
8.875340e+002, 2.222671e+004
8.880161e+002, 2.213381e+004
8.884982e+002, 2.208054e+004
8.889803e+002, 2.210259e+004
8.894625e+002, 2.211711e+004
8.899446e+002, 2.209660e+004
8.904267e+002, 2.207675e+004
8.909088e+002, 2.208715e+004
8.913909e+002, 2.211573e+004
8.918730e+002, 2.214360e+004
8.923552e+002, 2.216729e+004
8.928373e+002, 2.215583e+004
8.933194e+002, 2.205028e+004
8.938015e+002, 2.193278e+004
8.942836e+002, 2.190230e+004
8.947657e+002, 2.192538e+004
8.952479e+002, 2.192395e+004
8.957300e+002, 2.188559e+004
8.962121e+002, 2.185926e+004
8.966942e+002, 2.188597e+004
8.971763e+002, 2.193083e+004
8.976584e+002, 2.191080e+004
8.981406e+002, 2.183549e+004
8.986227e+002, 2.180794e+004
8.991048e+002, 2.184106e+004
8.995869e+002, 2.187854e+004
9.000690e+002, 2.189846e+004
9.005511e+002, 2.189496e+004
9.010333e+002, 2.185256e+004
9.015154e+002, 2.176775e+004
9.019975e+002, 2.172323e+004
9.024796e+002, 2.172973e+004
9.029617e+002, 2.175706e+004
9.034438e+002, 2.182595e+004
9.039260e+002, 2.188852e+004
9.044081e+002, 2.190226e+004
9.048902e+002, 2.188599e+004
9.053723e+002, 2.188996e+004
9.058544e+002, 2.193073e+004
9.063365e+002, 2.195942e+004
9.068187e+002, 2.196396e+004
9.073008e+002, 2.195325e+004
9.077829e+002, 2.192823e+004
9.082650e+002, 2.189327e+004
9.087471e+002, 2.184471e+004
9.092292e+002, 2.178800e+004
9.097114e+002, 2.175190e+004
9.101935e+002, 2.176091e+004
9.106756e+002, 2.178575e+004
9.111577e+002, 2.180614e+004
9.116398e+002, 2.181708e+004
9.121219e+002, 2.180017e+004
9.126041e+002, 2.176207e+004
9.130862e+002, 2.173928e+004
9.135683e+002, 2.174916e+004
9.140504e+002, 2.177080e+004
9.145325e+002, 2.177677e+004
9.150146e+002, 2.176983e+004
9.154968e+002, 2.176376e+004
9.159789e+002, 2.175854e+004
9.164610e+002, 2.176095e+004
9.169431e+002, 2.177395e+004
9.174252e+002, 2.178985e+004
9.179073e+002, 2.180264e+004
9.183895e+002, 2.181303e+004
9.188716e+002, 2.182458e+004
9.193537e+002, 2.184373e+004
9.198358e+002, 2.184658e+004
9.203179e+002, 2.181978e+004
9.208000e+002, 2.179529e+004
9.212822e+002, 2.178940e+004
9.217643e+002, 2.178930e+004
9.222464e+002, 2.177778e+004
9.227285e+002, 2.175553e+004
9.232106e+002, 2.174690e+004
9.236927e+002, 2.175958e+004
9.241749e+002, 2.178009e+004
9.246570e+002, 2.181287e+004
9.251391e+002, 2.184480e+004
9.256212e+002, 2.185876e+004
9.261033e+002, 2.186563e+004
9.265854e+002, 2.189615e+004
9.270676e+002, 2.196060e+004
9.275497e+002, 2.200544e+004
9.280318e+002, 2.197796e+004
9.285139e+002, 2.192954e+004
9.289960e+002, 2.189747e+004
9.294781e+002, 2.188899e+004
9.299603e+002, 2.192645e+004
9.304424e+002, 2.200354e+004
9.309245e+002, 2.207448e+004
9.314066e+002, 2.211084e+004
9.318887e+002, 2.212214e+004
9.323708e+002, 2.211426e+004
9.328530e+002, 2.209355e+004
9.333351e+002, 2.208861e+004
9.338172e+002, 2.209989e+004
9.342993e+002, 2.210302e+004
9.347814e+002, 2.208621e+004
9.352635e+002, 2.208804e+004
9.357457e+002, 2.215660e+004
9.362278e+002, 2.227684e+004
9.367099e+002, 2.236183e+004
9.371920e+002, 2.240879e+004
9.376741e+002, 2.242594e+004
9.381563e+002, 2.239022e+004
9.386384e+002, 2.238072e+004
9.391205e+002, 2.246400e+004
9.396026e+002, 2.258158e+004
9.400847e+002, 2.262627e+004
9.405668e+002, 2.258391e+004
9.410490e+002, 2.255218e+004
9.415311e+002, 2.251048e+004
9.420132e+002, 2.250714e+004
9.424953e+002, 2.258073e+004
9.429774e+002, 2.266938e+004
9.434595e+002, 2.273366e+004
9.439417e+002, 2.277591e+004
9.444238e+002, 2.280338e+004
9.449059e+002, 2.280789e+004
9.453880e+002, 2.283529e+004
9.458701e+002, 2.292495e+004
9.463522e+002, 2.301854e+004
9.468344e+002, 2.306583e+004
9.473165e+002, 2.309903e+004
9.477986e+002, 2.317563e+004
9.482807e+002, 2.329081e+004
9.487628e+002, 2.337900e+004
9.492449e+002, 2.339950e+004
9.497271e+002, 2.339571e+004
9.502092e+002, 2.339290e+004
9.506913e+002, 2.340211e+004
9.511734e+002, 2.345229e+004
9.516555e+002, 2.353054e+004
9.521376e+002, 2.359014e+004
9.526198e+002, 2.361646e+004
9.531019e+002, 2.363626e+004
9.535840e+002, 2.367112e+004
9.540661e+002, 2.372315e+004
9.545482e+002, 2.381428e+004
9.550303e+002, 2.393309e+004
9.555124e+002, 2.399336e+004
9.559945e+002, 2.398346e+004
9.564766e+002, 2.397769e+004
9.569587e+002, 2.401550e+004
9.574409e+002, 2.408254e+004
9.579230e+002, 2.416134e+004
9.584051e+002, 2.425162e+004
9.588872e+002, 2.431001e+004
9.593693e+002, 2.433483e+004
9.598514e+002, 2.433411e+004
9.603336e+002, 2.430528e+004
9.608157e+002, 2.425980e+004
9.612978e+002, 2.419794e+004
9.617799e+002, 2.413104e+004
9.622620e+002, 2.409211e+004
9.627441e+002, 2.409095e+004
9.632263e+002, 2.408733e+004
9.637084e+002, 2.406455e+004
9.641905e+002, 2.406250e+004
9.646726e+002, 2.411253e+004
9.651547e+002, 2.417012e+004
9.656368e+002, 2.419295e+004
9.661190e+002, 2.418870e+004
9.666011e+002, 2.419552e+004
9.670832e+002, 2.421404e+004
9.675653e+002, 2.425210e+004
9.680474e+002, 2.432325e+004
9.685295e+002, 2.440161e+004
9.690117e+002, 2.448385e+004
9.694938e+002, 2.455766e+004
9.699759e+002, 2.460666e+004
9.704580e+002, 2.463044e+004
9.709401e+002, 2.464101e+004
9.714222e+002, 2.462226e+004
9.719044e+002, 2.462632e+004
9.723865e+002, 2.471054e+004
9.728686e+002, 2.481506e+004
9.733507e+002, 2.487482e+004
9.738328e+002, 2.490069e+004
9.743149e+002, 2.492487e+004
9.747971e+002, 2.495926e+004
9.752792e+002, 2.501145e+004
9.757613e+002, 2.509272e+004
9.762434e+002, 2.518897e+004
9.767255e+002, 2.529415e+004
9.772076e+002, 2.539554e+004
9.776898e+002, 2.545052e+004
9.781719e+002, 2.546935e+004
9.786540e+002, 2.552470e+004
9.791361e+002, 2.565125e+004
9.796182e+002, 2.580090e+004
9.801003e+002, 2.592586e+004
9.805825e+002, 2.602201e+004
9.810646e+002, 2.604366e+004
9.815467e+002, 2.600723e+004
9.820288e+002, 2.605863e+004
9.825109e+002, 2.622628e+004
9.829930e+002, 2.641998e+004
9.834752e+002, 2.658624e+004
9.839573e+002, 2.671665e+004
9.844394e+002, 2.678701e+004
9.849215e+002, 2.679678e+004
9.854036e+002, 2.681199e+004
9.858857e+002, 2.682629e+004
9.863679e+002, 2.688866e+004
9.868500e+002, 2.702044e+004
9.873321e+002, 2.717834e+004
9.878142e+002, 2.733372e+004
9.882963e+002, 2.748235e+004
9.887784e+002, 2.761147e+004
9.892606e+002, 2.772011e+004
9.897427e+002, 2.780704e+004
9.902248e+002, 2.784523e+004
9.907069e+002, 2.791614e+004
9.911890e+002, 2.807854e+004
9.916711e+002, 2.824661e+004
9.921533e+002, 2.831471e+004
9.926354e+002, 2.830980e+004
9.931175e+002, 2.839559e+004
9.935996e+002, 2.867380e+004
9.940817e+002, 2.885894e+004
9.945638e+002, 2.885721e+004
9.950460e+002, 2.887060e+004
9.955281e+002, 2.900153e+004
9.960102e+002, 2.916870e+004
9.964923e+002, 2.927151e+004
9.969744e+002, 2.931904e+004
9.974565e+002, 2.941108e+004
9.979387e+002, 2.958676e+004
9.984208e+002, 2.977330e+004
9.989029e+002, 2.999308e+004
9.993850e+002, 3.017490e+004
9.998671e+002, 3.023327e+004
1.000349e+003, 3.024494e+004
1.000831e+003, 3.032466e+004
1.001313e+003, 3.048177e+004
1.001796e+003, 3.063089e+004
1.002278e+003, 3.071759e+004
1.002760e+003, 3.081700e+004
1.003242e+003, 3.098718e+004
1.003724e+003, 3.117323e+004
1.004206e+003, 3.132537e+004
1.004688e+003, 3.145362e+004
1.005170e+003, 3.158980e+004
1.005653e+003, 3.174074e+004
1.006135e+003, 3.188695e+004
1.006617e+003, 3.201091e+004
1.007099e+003, 3.213333e+004
1.007581e+003, 3.227976e+004
1.008063e+003, 3.243244e+004
1.008545e+003, 3.255476e+004
1.009027e+003, 3.266044e+004
1.009509e+003, 3.280363e+004
1.009992e+003, 3.299904e+004
1.010474e+003, 3.318954e+004
1.010956e+003, 3.331616e+004
1.011438e+003, 3.341688e+004
1.011920e+003, 3.353386e+004
1.012402e+003, 3.367394e+004
1.012884e+003, 3.386589e+004
1.013366e+003, 3.410099e+004
1.013849e+003, 3.432900e+004
1.014331e+003, 3.452871e+004
1.014813e+003, 3.471344e+004
1.015295e+003, 3.489747e+004
1.015777e+003, 3.507875e+004
1.016259e+003, 3.526023e+004
1.016741e+003, 3.543576e+004
1.017223e+003, 3.555690e+004
1.017705e+003, 3.562364e+004
1.018188e+003, 3.572602e+004
1.018670e+003, 3.591207e+004
1.019152e+003, 3.611999e+004
1.019634e+003, 3.625546e+004
1.020116e+003, 3.634163e+004
1.020598e+003, 3.650390e+004
1.021080e+003, 3.673847e+004
1.021562e+003, 3.696721e+004
1.022044e+003, 3.717840e+004
1.022527e+003, 3.734435e+004
1.023009e+003, 3.744018e+004
1.023491e+003, 3.752773e+004
1.023973e+003, 3.771812e+004
1.024455e+003, 3.800243e+004
1.024937e+003, 3.821801e+004
1.025419e+003, 3.835452e+004
1.025901e+003, 3.850406e+004
1.026384e+003, 3.868518e+004
1.026866e+003, 3.887820e+004
1.027348e+003, 3.907443e+004
1.027830e+003, 3.926754e+004
1.028312e+003, 3.943845e+004
1.028794e+003, 3.958571e+004
1.029276e+003, 3.978768e+004
1.029758e+003, 4.006473e+004
1.030240e+003, 4.032650e+004
1.030723e+003, 4.054926e+004
1.031205e+003, 4.077365e+004
1.031687e+003, 4.103498e+004
1.032169e+003, 4.130505e+004
1.032651e+003, 4.151842e+004
1.033133e+003, 4.165923e+004
1.033615e+003, 4.187480e+004
1.034097e+003, 4.219806e+004
1.034579e+003, 4.252747e+004
1.035062e+003, 4.286785e+004
1.035544e+003, 4.317246e+004
1.036026e+003, 4.338925e+004
1.036508e+003, 4.355791e+004
1.036990e+003, 4.375828e+004
1.037472e+003, 4.399121e+004
1.037954e+003, 4.424834e+004
1.038436e+003, 4.453705e+004
1.038919e+003, 4.483578e+004
1.039401e+003, 4.516272e+004
1.039883e+003, 4.547320e+004
1.040365e+003, 4.573222e+004
1.040847e+003, 4.595705e+004
1.041329e+003, 4.616764e+004
1.041811e+003, 4.634593e+004
1.042293e+003, 4.661123e+004
1.042776e+003, 4.708091e+004
1.043258e+003, 4.747848e+004
1.043740e+003, 4.773189e+004
1.044222e+003, 4.792038e+004
1.044704e+003, 4.803021e+004
1.045186e+003, 4.813211e+004
1.045668e+003, 4.837529e+004
1.046150e+003, 4.879319e+004
1.046632e+003, 4.917199e+004
1.047115e+003, 4.945859e+004
1.047597e+003, 4.974527e+004
1.048079e+003, 5.005046e+004
1.048561e+003, 5.036507e+004
1.049043e+003, 5.069409e+004
1.049525e+003, 5.102389e+004
1.050007e+003, 5.132121e+004
1.050489e+003, 5.157256e+004
1.050971e+003, 5.189017e+004
1.051454e+003, 5.235719e+004
1.051936e+003, 5.280663e+004
1.052418e+003, 5.316821e+004
1.052900e+003, 5.351554e+004
1.053382e+003, 5.391960e+004
1.053864e+003, 5.434227e+004
1.054346e+003, 5.469938e+004
1.054828e+003, 5.497859e+004
1.055311e+003, 5.527823e+004
1.055793e+003, 5.562418e+004
1.056275e+003, 5.599513e+004
1.056757e+003, 5.637450e+004
1.057239e+003, 5.678548e+004
1.057721e+003, 5.728789e+004
1.058203e+003, 5.781420e+004
1.058685e+003, 5.823588e+004
1.059167e+003, 5.853642e+004
1.059650e+003, 5.887338e+004
1.060132e+003, 5.931759e+004
1.060614e+003, 5.978082e+004
1.061096e+003, 6.026212e+004
1.061578e+003, 6.072021e+004
1.062060e+003, 6.109971e+004
1.062542e+003, 6.144828e+004
1.063024e+003, 6.182999e+004
1.063506e+003, 6.225904e+004
1.063989e+003, 6.275388e+004
1.064471e+003, 6.338884e+004
1.064953e+003, 6.399765e+004
1.065435e+003, 6.450292e+004
1.065917e+003, 6.496527e+004
1.066399e+003, 6.541182e+004
1.066881e+003, 6.585692e+004
1.067363e+003, 6.630913e+004
1.067846e+003, 6.677048e+004
1.068328e+003, 6.725419e+004
1.068810e+003, 6.778329e+004
1.069292e+003, 6.830398e+004
1.069774e+003, 6.875813e+004
1.070256e+003, 6.923031e+004
1.070738e+003, 6.982716e+004
1.071220e+003, 7.046038e+004
1.071703e+003, 7.098110e+004
1.072185e+003, 7.139658e+004
1.072667e+003, 7.189158e+004
1.073149e+003, 7.257476e+004
1.073631e+003, 7.324938e+004
1.074113e+003, 7.380056e+004
1.074595e+003, 7.433498e+004
1.075077e+003, 7.492028e+004
1.075559e+003, 7.554184e+004
1.076042e+003, 7.619025e+004
1.076524e+003, 7.685410e+004
1.077006e+003, 7.750012e+004
1.077488e+003, 7.811649e+004
1.077970e+003, 7.872166e+004
1.078452e+003, 7.928331e+004
1.078934e+003, 7.988615e+004
1.079416e+003, 8.061757e+004
1.079898e+003, 8.140623e+004
1.080380e+003, 8.217359e+004
1.080863e+003, 8.291816e+004
1.081345e+003, 8.367677e+004
1.081827e+003, 8.446133e+004
1.082309e+003, 8.524644e+004
1.082791e+003, 8.597670e+004
1.083273e+003, 8.675952e+004
1.083755e+003, 8.772493e+004
1.084237e+003, 8.872295e+004
1.084720e+003, 8.956145e+004
1.085202e+003, 9.029278e+004
1.085684e+003, 9.111351e+004
1.086166e+003, 9.208208e+004
1.086648e+003, 9.303724e+004
1.087130e+003, 9.390040e+004
1.087612e+003, 9.474406e+004
1.088094e+003, 9.559027e+004
1.088577e+003, 9.645884e+004
1.089059e+003, 9.736943e+004
1.089541e+003, 9.831447e+004
1.090023e+003, 9.925144e+004
1.090505e+003, 1.001792e+005
1.090987e+003, 1.011821e+005
1.091469e+003, 1.023693e+005
1.091951e+003, 1.035459e+005
1.092433e+003, 1.046838e+005
1.092916e+003, 1.057287e+005
1.093398e+003, 1.065378e+005
1.093880e+003, 1.072590e+005
1.094362e+003, 1.081387e+005
1.094844e+003, 1.092045e+005
1.095326e+003, 1.103045e+005
1.095808e+003, 1.113732e+005
1.096290e+003, 1.124911e+005
1.096772e+003, 1.137210e+005
1.097255e+003, 1.149675e+005
1.097737e+003, 1.161584e+005
1.098219e+003, 1.173477e+005
1.098701e+003, 1.186278e+005
1.099183e+003, 1.199880e+005
1.099665e+003, 1.213325e+005
1.100147e+003, 1.226197e+005
1.100629e+003, 1.239300e+005
1.101112e+003, 1.253036e+005
1.101594e+003, 1.266721e+005
1.102076e+003, 1.279377e+005
1.102558e+003, 1.292370e+005
1.103040e+003, 1.307673e+005
1.103522e+003, 1.324590e+005
1.104004e+003, 1.340025e+005
1.104486e+003, 1.352671e+005
1.104969e+003, 1.366729e+005
1.105451e+003, 1.383917e+005
1.105933e+003, 1.401299e+005
1.106415e+003, 1.417563e+005
1.106897e+003, 1.433938e+005
1.107379e+003, 1.452225e+005
1.107861e+003, 1.471324e+005
1.108343e+003, 1.488194e+005
1.108825e+003, 1.502092e+005
1.109307e+003, 1.517005e+005
1.109790e+003, 1.533689e+005
1.110272e+003, 1.550853e+005
1.110754e+003, 1.568391e+005
1.111236e+003, 1.586090e+005
1.111718e+003, 1.603813e+005
1.112200e+003, 1.621724e+005
1.112682e+003, 1.639978e+005
1.113164e+003, 1.658532e+005
1.113647e+003, 1.677598e+005
1.114129e+003, 1.697016e+005
1.114611e+003, 1.717146e+005
1.115093e+003, 1.738558e+005
1.115575e+003, 1.759861e+005
1.116057e+003, 1.780196e+005
1.116539e+003, 1.800383e+005
1.117021e+003, 1.821225e+005
1.117504e+003, 1.842744e+005
1.117986e+003, 1.865169e+005
1.118468e+003, 1.888721e+005
1.118950e+003, 1.912369e+005
1.119432e+003, 1.936112e+005
1.119914e+003, 1.959807e+005
1.120396e+003, 1.983266e+005
1.120878e+003, 2.007070e+005
1.121360e+003, 2.031887e+005
1.121843e+003, 2.057525e+005
1.122325e+003, 2.083342e+005
1.122807e+003, 2.109484e+005
1.123289e+003, 2.134863e+005
1.123771e+003, 2.159372e+005
1.124253e+003, 2.183675e+005
1.124735e+003, 2.207502e+005
1.125217e+003, 2.232517e+005
1.125699e+003, 2.259907e+005
1.126182e+003, 2.288834e+005
1.126664e+003, 2.317829e+005
1.127146e+003, 2.346848e+005
1.127628e+003, 2.374653e+005
1.128110e+003, 2.400667e+005
1.128592e+003, 2.429858e+005
1.129074e+003, 2.463150e+005
1.129556e+003, 2.495970e+005
1.130039e+003, 2.526002e+005
1.130521e+003, 2.555111e+005
1.131003e+003, 2.585274e+005
1.131485e+003, 2.616367e+005
1.131967e+003, 2.647689e+005
1.132449e+003, 2.679267e+005
1.132931e+003, 2.711778e+005
1.133413e+003, 2.745438e+005
1.133896e+003, 2.778358e+005
1.134378e+003, 2.809994e+005
1.134860e+003, 2.841820e+005
1.135342e+003, 2.875047e+005
1.135824e+003, 2.908795e+005
1.136306e+003, 2.941020e+005
1.136788e+003, 2.972460e+005
1.137270e+003, 3.006380e+005
1.137752e+003, 3.042266e+005
1.138234e+003, 3.077008e+005
1.138717e+003, 3.110438e+005
1.139199e+003, 3.145565e+005
1.139681e+003, 3.184121e+005
1.140163e+003, 3.223120e+005
1.140645e+003, 3.259646e+005
1.141127e+003, 3.294681e+005
1.141609e+003, 3.329734e+005
1.142091e+003, 3.365068e+005
1.142574e+003, 3.401594e+005
1.143056e+003, 3.438834e+005
1.143538e+003, 3.475084e+005
1.144020e+003, 3.509935e+005
1.144502e+003, 3.544635e+005
1.144984e+003, 3.579683e+005
1.145466e+003, 3.616335e+005
1.145948e+003, 3.657307e+005
1.146431e+003, 3.699580e+005
1.146913e+003, 3.739022e+005
1.147395e+003, 3.776977e+005
1.147877e+003, 3.816687e+005
1.148359e+003, 3.858158e+005
1.148841e+003, 3.898350e+005
1.149323e+003, 3.935937e+005
1.149805e+003, 3.973230e+005
1.150287e+003, 4.011153e+005
1.150770e+003, 4.049974e+005
1.151252e+003, 4.090628e+005
1.151734e+003, 4.131687e+005
1.152216e+003, 4.171333e+005
1.152698e+003, 4.210118e+005
1.153180e+003, 4.249693e+005
1.153662e+003, 4.290418e+005
1.154144e+003, 4.331785e+005
1.154626e+003, 4.374820e+005
1.155109e+003, 4.417109e+005
1.155591e+003, 4.456852e+005
1.156073e+003, 4.496713e+005
1.156555e+003, 4.539091e+005
1.157037e+003, 4.582286e+005
1.157519e+003, 4.623782e+005
1.158001e+003, 4.664056e+005
1.158483e+003, 4.706683e+005
1.158966e+003, 4.754477e+005
1.159448e+003, 4.800033e+005
1.159930e+003, 4.840163e+005
1.160412e+003, 4.882003e+005
1.160894e+003, 4.929097e+005
1.161376e+003, 4.976975e+005
1.161858e+003, 5.022381e+005
1.162340e+003, 5.066014e+005
1.162822e+003, 5.109058e+005
1.163305e+003, 5.151379e+005
1.163787e+003, 5.195406e+005
1.164269e+003, 5.241176e+005
1.164751e+003, 5.288722e+005
1.165233e+003, 5.339088e+005
1.165715e+003, 5.387189e+005
1.166197e+003, 5.429818e+005
1.166679e+003, 5.471664e+005
1.167161e+003, 5.518323e+005
1.167644e+003, 5.568948e+005
1.168126e+003, 5.621579e+005
1.168608e+003, 5.676366e+005
1.169090e+003, 5.728166e+005
1.169572e+003, 5.776534e+005
1.170054e+003, 5.822606e+005
1.170536e+003, 5.866366e+005
1.171018e+003, 5.913014e+005
1.171500e+003, 5.966428e+005
1.171983e+003, 6.022839e+005
1.172465e+003, 6.076593e+005
1.172947e+003, 6.128320e+005
1.173429e+003, 6.180654e+005
1.173911e+003, 6.233203e+005
1.174393e+003, 6.284407e+005
1.174875e+003, 6.334483e+005
1.175357e+003, 6.385377e+005
1.175840e+003, 6.438088e+005
1.176322e+003, 6.491219e+005
1.176804e+003, 6.543436e+005
1.177286e+003, 6.596804e+005
1.177768e+003, 6.655009e+005
1.178250e+003, 6.715171e+005
1.178732e+003, 6.773385e+005
1.179214e+003, 6.830117e+005
1.179697e+003, 6.886809e+005
1.180179e+003, 6.944021e+005
1.180661e+003, 7.000428e+005
1.181143e+003, 7.055096e+005
1.181625e+003, 7.111867e+005
1.182107e+003, 7.175287e+005
1.182589e+003, 7.238453e+005
1.183071e+003, 7.295190e+005
1.183553e+003, 7.350612e+005
1.184036e+003, 7.409842e+005
1.184518e+003, 7.471365e+005
1.185000e+003, 7.532116e+005
1.185482e+003, 7.591650e+005
1.185964e+003, 7.650951e+005
1.186446e+003, 7.709759e+005
1.186928e+003, 7.769542e+005
1.187410e+003, 7.829184e+005
1.187892e+003, 7.891749e+005
1.188375e+003, 7.962304e+005
1.188857e+003, 8.032915e+005
1.189339e+003, 8.093821e+005
1.189821e+003, 8.149567e+005
1.190303e+003, 8.212371e+005
1.190785e+003, 8.284240e+005
1.191267e+003, 8.350501e+005
1.191749e+003, 8.407702e+005
1.192232e+003, 8.468307e+005
1.192714e+003, 8.534273e+005
1.193196e+003, 8.603559e+005
1.193678e+003, 8.675809e+005
1.194160e+003, 8.748534e+005
1.194642e+003, 8.818029e+005
1.195124e+003, 8.885464e+005
1.195606e+003, 8.955816e+005
1.196089e+003, 9.028771e+005
1.196571e+003, 9.096073e+005
1.197053e+003, 9.157343e+005
1.197535e+003, 9.221219e+005
1.198017e+003, 9.289413e+005
1.198499e+003, 9.356588e+005
1.198981e+003, 9.419199e+005
1.199463e+003, 9.481887e+005
1.199945e+003, 9.551249e+005
1.200427e+003, 9.624079e+005
1.200910e+003, 9.696338e+005
1.201392e+003, 9.766997e+005
1.201874e+003, 9.834203e+005
1.202356e+003, 9.898156e+005
1.202838e+003, 9.958601e+005
1.203320e+003, 1.001660e+006
1.203802e+003, 1.007736e+006
1.204284e+003, 1.014457e+006
1.204767e+003, 1.021363e+006
1.205249e+003, 1.028271e+006
1.205731e+003, 1.034995e+006
1.206213e+003, 1.041245e+006
1.206695e+003, 1.047264e+006
1.207177e+003, 1.053203e+006
1.207659e+003, 1.059246e+006
1.208141e+003, 1.065909e+006
1.208624e+003, 1.073334e+006
1.209106e+003, 1.080209e+006
1.209588e+003, 1.085654e+006
1.210070e+003, 1.091312e+006
1.210552e+003, 1.097949e+006
1.211034e+003, 1.104444e+006
1.211516e+003, 1.110052e+006
1.211998e+003, 1.115403e+006
1.212480e+003, 1.121128e+006
1.212963e+003, 1.127112e+006
1.213445e+003, 1.132839e+006
1.213927e+003, 1.138210e+006
1.214409e+003, 1.143794e+006
1.214891e+003, 1.149717e+006
1.215373e+003, 1.155287e+006
1.215855e+003, 1.160324e+006
1.216337e+003, 1.165314e+006
1.216819e+003, 1.170556e+006
1.217302e+003, 1.175502e+006
1.217784e+003, 1.179329e+006
1.218266e+003, 1.182587e+006
1.218748e+003, 1.187151e+006
1.219230e+003, 1.192673e+006
1.219712e+003, 1.197334e+006
1.220194e+003, 1.201203e+006
1.220676e+003, 1.205092e+006
1.221159e+003, 1.209183e+006
1.221641e+003, 1.213106e+006
1.222123e+003, 1.216658e+006
1.222605e+003, 1.220468e+006
1.223087e+003, 1.225574e+006
1.223569e+003, 1.230857e+006
1.224051e+003, 1.234818e+006
1.224533e+003, 1.238327e+006
1.225016e+003, 1.242512e+006
1.225498e+003, 1.247100e+006
1.225980e+003, 1.251423e+006
1.226462e+003, 1.255317e+006
1.226944e+003, 1.258930e+006
1.227426e+003, 1.262243e+006
1.227908e+003, 1.265339e+006
1.228390e+003, 1.268003e+006
1.228872e+003, 1.270727e+006
1.229354e+003, 1.274016e+006
1.229837e+003, 1.277148e+006
1.230319e+003, 1.279404e+006
1.230801e+003, 1.281199e+006
1.231283e+003, 1.283340e+006
1.231765e+003, 1.285822e+006
1.232247e+003, 1.287938e+006
1.232729e+003, 1.289597e+006
1.233211e+003, 1.291215e+006
1.233694e+003, 1.292820e+006
1.234176e+003, 1.294450e+006
1.234658e+003, 1.296190e+006
1.235140e+003, 1.297660e+006
1.235622e+003, 1.298585e+006
1.236104e+003, 1.299104e+006
1.236586e+003, 1.299332e+006
1.237068e+003, 1.299419e+006
1.237551e+003, 1.300220e+006
1.238033e+003, 1.301466e+006
1.238515e+003, 1.301869e+006
1.238997e+003, 1.301477e+006
1.239479e+003, 1.301138e+006
1.239961e+003, 1.301133e+006
1.240443e+003, 1.301452e+006
1.240925e+003, 1.302176e+006
1.241407e+003, 1.302780e+006
1.241890e+003, 1.302688e+006
1.242372e+003, 1.302312e+006
1.242854e+003, 1.301887e+006
1.243336e+003, 1.301553e+006
1.243818e+003, 1.301576e+006
1.244300e+003, 1.301775e+006
1.244782e+003, 1.301771e+006
1.245264e+003, 1.301505e+006
1.245746e+003, 1.301126e+006
1.246229e+003, 1.300802e+006
1.246711e+003, 1.300130e+006
1.247193e+003, 1.298530e+006
1.247675e+003, 1.297265e+006
1.248157e+003, 1.297151e+006
1.248639e+003, 1.297003e+006
1.249121e+003, 1.295744e+006
1.249603e+003, 1.294164e+006
1.250085e+003, 1.293820e+006
1.250568e+003, 1.294592e+006
1.251050e+003, 1.294417e+006
1.251532e+003, 1.293222e+006
1.252014e+003, 1.291680e+006
1.252496e+003, 1.289806e+006
1.252978e+003, 1.288439e+006
1.253460e+003, 1.287825e+006
1.253942e+003, 1.287055e+006
1.254425e+003, 1.285467e+006
1.254907e+003, 1.283873e+006
1.255389e+003, 1.283762e+006
1.255871e+003, 1.284174e+006
1.256353e+003, 1.283169e+006
1.256835e+003, 1.281431e+006
1.257317e+003, 1.280087e+006
1.257799e+003, 1.279211e+006
1.258281e+003, 1.278794e+006
1.258764e+003, 1.278687e+006
1.259246e+003, 1.278194e+006
1.259728e+003, 1.276918e+006
1.260210e+003, 1.275653e+006
1.260692e+003, 1.274833e+006
1.261174e+003, 1.274037e+006
1.261656e+003, 1.272872e+006
1.262138e+003, 1.271841e+006
1.262620e+003, 1.271436e+006
1.263103e+003, 1.271354e+006
1.263585e+003, 1.271172e+006
1.264067e+003, 1.270859e+006
1.264549e+003, 1.270241e+006
1.265031e+003, 1.269075e+006
1.265513e+003, 1.268423e+006
1.265995e+003, 1.268433e+006
1.266477e+003, 1.268248e+006
1.266960e+003, 1.267643e+006
1.267442e+003, 1.267052e+006
1.267924e+003, 1.266728e+006
1.268406e+003, 1.266437e+006
1.268888e+003, 1.265860e+006
1.269370e+003, 1.265184e+006
1.269852e+003, 1.264813e+006
1.270334e+003, 1.264691e+006
1.270817e+003, 1.264666e+006
1.271299e+003, 1.264754e+006
1.271781e+003, 1.265193e+006
1.272263e+003, 1.265833e+006
1.272745e+003, 1.265936e+006
1.273227e+003, 1.265223e+006
1.273709e+003, 1.264620e+006
1.274191e+003, 1.264546e+006
1.274673e+003, 1.264916e+006
1.275156e+003, 1.265712e+006
1.275638e+003, 1.266903e+006
1.276120e+003, 1.268854e+006
1.276602e+003, 1.270880e+006
1.277084e+003, 1.272250e+006
1.277566e+003, 1.273027e+006
1.278048e+003, 1.273421e+006
1.278530e+003, 1.273316e+006
1.279012e+003, 1.274011e+006
1.279495e+003, 1.275594e+006
1.279977e+003, 1.277499e+006
1.280459e+003, 1.279827e+006
1.280941e+003, 1.281962e+006
1.281423e+003, 1.283675e+006
1.281905e+003, 1.285065e+006
1.282387e+003, 1.286185e+006
1.282869e+003, 1.287308e+006
1.283352e+003, 1.288902e+006
1.283834e+003, 1.290706e+006
1.284316e+003, 1.292063e+006
1.284798e+003, 1.293034e+006
##END=



