##NAMES=Barylite
##RRUFFID=R060620
##IDEAL CHEMISTRY=BaBe_2_Si_2_O_7_
##LOCALITY=Zomba, Malawi
##OWNER=RRUFF
##SOURCE=Michael Scott
##DESCRIPTION=Colorless long prismatic single crystals associated with aegirine
##STATUS=The identification of this mineral is confirmed by single-crystal X-ray diffraction and chemical analysis.
##URL=rruff.info/R060620
##MEASURED CHEMISTRY=Ba_1.00_Be_2.00_Si_2.00_O_7_ ; Be not measured but estimated by difference and stoichiometry
9.001007e+001, 0.000000e+000
9.049219e+001, 3.224376e+001
9.097430e+001, 3.192169e+001
9.145642e+001, 3.192211e+001
9.193854e+001, 3.223861e+001
9.242065e+001, 3.281660e+001
9.290277e+001, 3.410020e+001
9.338489e+001, 3.564732e+001
9.386700e+001, 3.639683e+001
9.434912e+001, 3.569175e+001
9.483124e+001, 3.403774e+001
9.531335e+001, 3.219984e+001
9.579547e+001, 3.008661e+001
9.627759e+001, 2.842138e+001
9.675970e+001, 2.849637e+001
9.724182e+001, 3.016331e+001
9.772394e+001, 3.136812e+001
9.820605e+001, 3.091807e+001
9.868817e+001, 2.897193e+001
9.917029e+001, 2.751053e+001
9.965240e+001, 2.655093e+001
1.001345e+002, 2.607325e+001
1.006166e+002, 2.619848e+001
1.010988e+002, 2.707067e+001
1.015809e+002, 2.792181e+001
1.020630e+002, 2.830331e+001
1.025451e+002, 2.811525e+001
1.030272e+002, 2.800490e+001
1.035093e+002, 2.814454e+001
1.039915e+002, 2.837977e+001
1.044736e+002, 2.794845e+001
1.049557e+002, 2.637995e+001
1.054378e+002, 2.483038e+001
1.059199e+002, 2.415661e+001
1.064020e+002, 2.495976e+001
1.068842e+002, 2.549591e+001
1.073663e+002, 2.532725e+001
1.078484e+002, 2.443576e+001
1.083305e+002, 2.435168e+001
1.088126e+002, 2.618075e+001
1.092947e+002, 2.819005e+001
1.097769e+002, 2.878140e+001
1.102590e+002, 2.613376e+001
1.107411e+002, 2.391166e+001
1.112232e+002, 2.296006e+001
1.117053e+002, 2.369507e+001
1.121874e+002, 2.391049e+001
1.126696e+002, 2.271776e+001
1.131517e+002, 2.111689e+001
1.136338e+002, 2.040384e+001
1.141159e+002, 2.181403e+001
1.145980e+002, 2.328655e+001
1.150801e+002, 2.409082e+001
1.155623e+002, 2.395900e+001
1.160444e+002, 2.357535e+001
1.165265e+002, 2.296883e+001
1.170086e+002, 2.222779e+001
1.174907e+002, 2.155948e+001
1.179728e+002, 2.062004e+001
1.184550e+002, 2.002279e+001
1.189371e+002, 2.032319e+001
1.194192e+002, 2.259212e+001
1.199013e+002, 2.429791e+001
1.203834e+002, 2.343816e+001
1.208655e+002, 2.065548e+001
1.213477e+002, 1.845632e+001
1.218298e+002, 1.883274e+001
1.223119e+002, 2.031250e+001
1.227940e+002, 2.135480e+001
1.232761e+002, 2.142179e+001
1.237582e+002, 2.094427e+001
1.242404e+002, 1.998863e+001
1.247225e+002, 1.861236e+001
1.252046e+002, 1.752215e+001
1.256867e+002, 1.751591e+001
1.261688e+002, 1.816821e+001
1.266509e+002, 1.870965e+001
1.271331e+002, 1.872147e+001
1.276152e+002, 1.849186e+001
1.280973e+002, 1.846436e+001
1.285794e+002, 1.865283e+001
1.290615e+002, 1.887544e+001
1.295436e+002, 1.895736e+001
1.300258e+002, 1.891399e+001
1.305079e+002, 1.881335e+001
1.309900e+002, 1.870889e+001
1.314721e+002, 1.857380e+001
1.319542e+002, 1.821075e+001
1.324363e+002, 1.750857e+001
1.329185e+002, 1.690945e+001
1.334006e+002, 1.747832e+001
1.338827e+002, 1.921259e+001
1.343648e+002, 2.032546e+001
1.348469e+002, 1.935330e+001
1.353290e+002, 1.649139e+001
1.358112e+002, 1.457570e+001
1.362933e+002, 1.387118e+001
1.367754e+002, 1.415764e+001
1.372575e+002, 1.514958e+001
1.377396e+002, 1.699685e+001
1.382217e+002, 1.891307e+001
1.387039e+002, 2.070939e+001
1.391860e+002, 2.254426e+001
1.396681e+002, 2.302610e+001
1.401502e+002, 2.160925e+001
1.406323e+002, 1.879365e+001
1.411144e+002, 1.664907e+001
1.415966e+002, 1.522341e+001
1.420787e+002, 1.437361e+001
1.425608e+002, 1.405631e+001
1.430429e+002, 1.442435e+001
1.435250e+002, 1.490558e+001
1.440071e+002, 1.550014e+001
1.444893e+002, 1.618934e+001
1.449714e+002, 1.661439e+001
1.454535e+002, 1.672406e+001
1.459356e+002, 1.661390e+001
1.464177e+002, 1.622473e+001
1.468998e+002, 1.448189e+001
1.473820e+002, 1.420167e+001
1.478641e+002, 1.688569e+001
1.483462e+002, 2.344716e+001
1.488283e+002, 2.633705e+001
1.493104e+002, 2.256936e+001
1.497925e+002, 1.654772e+001
1.502747e+002, 1.334503e+001
1.507568e+002, 1.606995e+001
1.512389e+002, 1.847781e+001
1.517210e+002, 1.909645e+001
1.522031e+002, 1.724864e+001
1.526852e+002, 1.577013e+001
1.531674e+002, 1.466459e+001
1.536495e+002, 1.394829e+001
1.541316e+002, 1.363298e+001
1.546137e+002, 1.384754e+001
1.550958e+002, 1.435351e+001
1.555779e+002, 1.522583e+001
1.560601e+002, 1.693530e+001
1.565422e+002, 1.790868e+001
1.570243e+002, 1.719338e+001
1.575064e+002, 1.561601e+001
1.579885e+002, 1.477739e+001
1.584706e+002, 1.525853e+001
1.589528e+002, 1.638220e+001
1.594349e+002, 1.789174e+001
1.599170e+002, 1.996754e+001
1.603991e+002, 2.203505e+001
1.608812e+002, 2.434680e+001
1.613633e+002, 2.658688e+001
1.618455e+002, 2.792601e+001
1.623276e+002, 2.673887e+001
1.628097e+002, 2.537091e+001
1.632918e+002, 2.533010e+001
1.637739e+002, 2.760633e+001
1.642560e+002, 3.037447e+001
1.647382e+002, 3.270185e+001
1.652203e+002, 3.481540e+001
1.657024e+002, 3.758333e+001
1.661845e+002, 4.242951e+001
1.666666e+002, 4.768279e+001
1.671487e+002, 5.174989e+001
1.676309e+002, 5.321254e+001
1.681130e+002, 5.446222e+001
1.685951e+002, 5.683196e+001
1.690772e+002, 6.024219e+001
1.695593e+002, 6.417925e+001
1.700414e+002, 6.855659e+001
1.705236e+002, 7.324565e+001
1.710057e+002, 7.803841e+001
1.714878e+002, 8.312051e+001
1.719699e+002, 8.815394e+001
1.724520e+002, 9.255501e+001
1.729341e+002, 9.641177e+001
1.734163e+002, 1.006117e+002
1.738984e+002, 1.058201e+002
1.743805e+002, 1.118496e+002
1.748626e+002, 1.182068e+002
1.753447e+002, 1.248876e+002
1.758268e+002, 1.318234e+002
1.763090e+002, 1.387121e+002
1.767911e+002, 1.454873e+002
1.772732e+002, 1.530556e+002
1.777553e+002, 1.617564e+002
1.782374e+002, 1.710443e+002
1.787195e+002, 1.804320e+002
1.792017e+002, 1.900892e+002
1.796838e+002, 1.997041e+002
1.801659e+002, 2.084047e+002
1.806480e+002, 2.162221e+002
1.811301e+002, 2.239518e+002
1.816122e+002, 2.323017e+002
1.820944e+002, 2.412979e+002
1.825765e+002, 2.508293e+002
1.830586e+002, 2.595754e+002
1.835407e+002, 2.689684e+002
1.840228e+002, 2.820106e+002
1.845049e+002, 2.983751e+002
1.849871e+002, 3.195291e+002
1.854692e+002, 3.471187e+002
1.859513e+002, 3.810047e+002
1.864334e+002, 4.192147e+002
1.869155e+002, 4.610620e+002
1.873976e+002, 5.066661e+002
1.878798e+002, 5.591822e+002
1.883619e+002, 6.201976e+002
1.888440e+002, 6.817300e+002
1.893261e+002, 7.403055e+002
1.898082e+002, 7.949914e+002
1.902903e+002, 8.230701e+002
1.907725e+002, 8.070588e+002
1.912546e+002, 7.522294e+002
1.917367e+002, 6.867241e+002
1.922188e+002, 6.086586e+002
1.927009e+002, 5.281511e+002
1.931830e+002, 4.618063e+002
1.936652e+002, 4.096954e+002
1.941473e+002, 3.679627e+002
1.946294e+002, 3.365074e+002
1.951115e+002, 3.148636e+002
1.955936e+002, 2.983051e+002
1.960757e+002, 2.868859e+002
1.965579e+002, 2.797099e+002
1.970400e+002, 2.753194e+002
1.975221e+002, 2.737051e+002
1.980042e+002, 2.746323e+002
1.984863e+002, 2.785688e+002
1.989684e+002, 2.855250e+002
1.994506e+002, 2.930166e+002
1.999327e+002, 3.012206e+002
2.004148e+002, 3.093448e+002
2.008969e+002, 3.166297e+002
2.013790e+002, 3.238742e+002
2.018611e+002, 3.265637e+002
2.023433e+002, 3.210349e+002
2.028254e+002, 3.066819e+002
2.033075e+002, 2.912975e+002
2.037896e+002, 2.748476e+002
2.042717e+002, 2.583751e+002
2.047538e+002, 2.447209e+002
2.052360e+002, 2.340533e+002
2.057181e+002, 2.254734e+002
2.062002e+002, 2.185398e+002
2.066823e+002, 2.132691e+002
2.071644e+002, 2.095489e+002
2.076465e+002, 2.076842e+002
2.081287e+002, 2.071831e+002
2.086108e+002, 2.067102e+002
2.090929e+002, 2.064365e+002
2.095750e+002, 2.057180e+002
2.100571e+002, 2.040546e+002
2.105392e+002, 2.012325e+002
2.110214e+002, 1.984472e+002
2.115035e+002, 1.957690e+002
2.119856e+002, 1.932171e+002
2.124677e+002, 1.906252e+002
2.129498e+002, 1.876777e+002
2.134319e+002, 1.853877e+002
2.139140e+002, 1.843240e+002
2.143962e+002, 1.845523e+002
2.148783e+002, 1.858791e+002
2.153604e+002, 1.887213e+002
2.158425e+002, 1.925937e+002
2.163246e+002, 1.953352e+002
2.168067e+002, 1.965210e+002
2.172889e+002, 1.974456e+002
2.177710e+002, 1.990998e+002
2.182531e+002, 2.021154e+002
2.187352e+002, 2.038633e+002
2.192173e+002, 2.035001e+002
2.196994e+002, 2.016961e+002
2.201816e+002, 2.017567e+002
2.206637e+002, 2.044810e+002
2.211458e+002, 2.076641e+002
2.216279e+002, 2.098203e+002
2.221100e+002, 2.104063e+002
2.225921e+002, 2.114585e+002
2.230743e+002, 2.132577e+002
2.235564e+002, 2.156501e+002
2.240385e+002, 2.178755e+002
2.245206e+002, 2.193008e+002
2.250027e+002, 2.214688e+002
2.254848e+002, 2.253323e+002
2.259670e+002, 2.311062e+002
2.264491e+002, 2.379618e+002
2.269312e+002, 2.457691e+002
2.274133e+002, 2.545855e+002
2.278954e+002, 2.650025e+002
2.283775e+002, 2.761756e+002
2.288597e+002, 2.898564e+002
2.293418e+002, 3.067603e+002
2.298239e+002, 3.262155e+002
2.303060e+002, 3.502627e+002
2.307881e+002, 3.788498e+002
2.312702e+002, 4.121552e+002
2.317524e+002, 4.506024e+002
2.322345e+002, 4.969527e+002
2.327166e+002, 5.437946e+002
2.331987e+002, 5.895294e+002
2.336808e+002, 6.473015e+002
2.341629e+002, 6.743511e+002
2.346451e+002, 6.626874e+002
2.351272e+002, 6.179877e+002
2.356093e+002, 5.628754e+002
2.360914e+002, 4.880615e+002
2.365735e+002, 4.156138e+002
2.370556e+002, 3.576317e+002
2.375378e+002, 3.170260e+002
2.380199e+002, 2.847185e+002
2.385020e+002, 2.618079e+002
2.389841e+002, 2.467517e+002
2.394662e+002, 2.344802e+002
2.399483e+002, 2.258517e+002
2.404305e+002, 2.188178e+002
2.409126e+002, 2.122359e+002
2.413947e+002, 2.058493e+002
2.418768e+002, 2.004922e+002
2.423589e+002, 1.963415e+002
2.428410e+002, 1.932445e+002
2.433232e+002, 1.906460e+002
2.438053e+002, 1.887585e+002
2.442874e+002, 1.870918e+002
2.447695e+002, 1.853566e+002
2.452516e+002, 1.831898e+002
2.457337e+002, 1.817807e+002
2.462159e+002, 1.815730e+002
2.466980e+002, 1.820854e+002
2.471801e+002, 1.817126e+002
2.476622e+002, 1.798545e+002
2.481443e+002, 1.780052e+002
2.486264e+002, 1.769025e+002
2.491086e+002, 1.768218e+002
2.495907e+002, 1.768388e+002
2.500728e+002, 1.771204e+002
2.505549e+002, 1.774425e+002
2.510370e+002, 1.771158e+002
2.515191e+002, 1.756409e+002
2.520013e+002, 1.743148e+002
2.524834e+002, 1.737715e+002
2.529655e+002, 1.744446e+002
2.534476e+002, 1.747708e+002
2.539297e+002, 1.745947e+002
2.544118e+002, 1.741442e+002
2.548940e+002, 1.738699e+002
2.553761e+002, 1.736265e+002
2.558582e+002, 1.738185e+002
2.563403e+002, 1.747294e+002
2.568224e+002, 1.766885e+002
2.573046e+002, 1.782104e+002
2.577867e+002, 1.790230e+002
2.582688e+002, 1.795515e+002
2.587509e+002, 1.806123e+002
2.592330e+002, 1.822756e+002
2.597151e+002, 1.843053e+002
2.601973e+002, 1.868997e+002
2.606794e+002, 1.904510e+002
2.611615e+002, 1.926450e+002
2.616436e+002, 1.934591e+002
2.621257e+002, 1.929281e+002
2.626078e+002, 1.907816e+002
2.630900e+002, 1.862653e+002
2.635721e+002, 1.819906e+002
2.640542e+002, 1.789205e+002
2.645363e+002, 1.771720e+002
2.650184e+002, 1.756600e+002
2.655005e+002, 1.743769e+002
2.659827e+002, 1.733121e+002
2.664648e+002, 1.724432e+002
2.669469e+002, 1.718062e+002
2.674290e+002, 1.712781e+002
2.679111e+002, 1.707977e+002
2.683932e+002, 1.703571e+002
2.688754e+002, 1.701237e+002
2.693575e+002, 1.701221e+002
2.698396e+002, 1.702813e+002
2.703217e+002, 1.705914e+002
2.708038e+002, 1.711532e+002
2.712859e+002, 1.714276e+002
2.717681e+002, 1.710509e+002
2.722502e+002, 1.700680e+002
2.727323e+002, 1.700851e+002
2.732144e+002, 1.715058e+002
2.736965e+002, 1.731041e+002
2.741786e+002, 1.733531e+002
2.746608e+002, 1.719241e+002
2.751429e+002, 1.709641e+002
2.756250e+002, 1.711327e+002
2.761071e+002, 1.722559e+002
2.765892e+002, 1.730546e+002
2.770714e+002, 1.734883e+002
2.775535e+002, 1.736773e+002
2.780356e+002, 1.735998e+002
2.785177e+002, 1.731993e+002
2.789998e+002, 1.730924e+002
2.794819e+002, 1.733671e+002
2.799641e+002, 1.740354e+002
2.804462e+002, 1.753910e+002
2.809283e+002, 1.776642e+002
2.814104e+002, 1.796475e+002
2.818925e+002, 1.800506e+002
2.823746e+002, 1.788449e+002
2.828568e+002, 1.783000e+002
2.833389e+002, 1.790166e+002
2.838210e+002, 1.804527e+002
2.843031e+002, 1.811056e+002
2.847852e+002, 1.809315e+002
2.852673e+002, 1.804009e+002
2.857495e+002, 1.797652e+002
2.862316e+002, 1.790350e+002
2.867137e+002, 1.782464e+002
2.871958e+002, 1.772890e+002
2.876779e+002, 1.764489e+002
2.881600e+002, 1.764720e+002
2.886422e+002, 1.773706e+002
2.891243e+002, 1.783127e+002
2.896064e+002, 1.786629e+002
2.900885e+002, 1.785561e+002
2.905706e+002, 1.787411e+002
2.910527e+002, 1.793708e+002
2.915349e+002, 1.800884e+002
2.920170e+002, 1.802050e+002
2.924991e+002, 1.797762e+002
2.929812e+002, 1.794662e+002
2.934633e+002, 1.795834e+002
2.939454e+002, 1.800976e+002
2.944276e+002, 1.810743e+002
2.949097e+002, 1.826170e+002
2.953918e+002, 1.841350e+002
2.958739e+002, 1.847274e+002
2.963560e+002, 1.845652e+002
2.968381e+002, 1.844818e+002
2.973203e+002, 1.849182e+002
2.978024e+002, 1.856938e+002
2.982845e+002, 1.864697e+002
2.987666e+002, 1.872444e+002
2.992487e+002, 1.880060e+002
2.997308e+002, 1.887868e+002
3.002130e+002, 1.895620e+002
3.006951e+002, 1.902459e+002
3.011772e+002, 1.907114e+002
3.016593e+002, 1.911100e+002
3.021414e+002, 1.915815e+002
3.026235e+002, 1.921258e+002
3.031057e+002, 1.929482e+002
3.035878e+002, 1.945746e+002
3.040699e+002, 1.965646e+002
3.045520e+002, 1.980245e+002
3.050341e+002, 1.980889e+002
3.055162e+002, 1.980301e+002
3.059984e+002, 1.993507e+002
3.064805e+002, 2.018814e+002
3.069626e+002, 2.045532e+002
3.074447e+002, 2.065981e+002
3.079268e+002, 2.083457e+002
3.084089e+002, 2.101655e+002
3.088911e+002, 2.120805e+002
3.093732e+002, 2.142090e+002
3.098553e+002, 2.166440e+002
3.103374e+002, 2.193596e+002
3.108195e+002, 2.223313e+002
3.113016e+002, 2.256571e+002
3.117838e+002, 2.291303e+002
3.122659e+002, 2.325388e+002
3.127480e+002, 2.356569e+002
3.132301e+002, 2.391148e+002
3.137122e+002, 2.432385e+002
3.141943e+002, 2.480131e+002
3.146765e+002, 2.533219e+002
3.151586e+002, 2.593032e+002
3.156407e+002, 2.656487e+002
3.161228e+002, 2.721146e+002
3.166049e+002, 2.784845e+002
3.170870e+002, 2.856597e+002
3.175692e+002, 2.941060e+002
3.180513e+002, 3.035270e+002
3.185334e+002, 3.134660e+002
3.190155e+002, 3.229374e+002
3.194976e+002, 3.336163e+002
3.199797e+002, 3.461009e+002
3.204619e+002, 3.604517e+002
3.209440e+002, 3.764568e+002
3.214261e+002, 3.943593e+002
3.219082e+002, 4.136052e+002
3.223903e+002, 4.336049e+002
3.228724e+002, 4.534852e+002
3.233546e+002, 4.748428e+002
3.238367e+002, 4.976339e+002
3.243188e+002, 5.219194e+002
3.248009e+002, 5.492224e+002
3.252830e+002, 5.794763e+002
3.257651e+002, 6.127311e+002
3.262473e+002, 6.489528e+002
3.267294e+002, 6.900475e+002
3.272115e+002, 7.319188e+002
3.276936e+002, 7.763021e+002
3.281757e+002, 8.217171e+002
3.286578e+002, 8.627699e+002
3.291400e+002, 8.994446e+002
3.296221e+002, 9.318329e+002
3.301042e+002, 9.596729e+002
3.305863e+002, 9.758046e+002
3.310684e+002, 9.992350e+002
3.315505e+002, 1.028837e+003
3.320327e+002, 1.065771e+003
3.325148e+002, 1.112880e+003
3.329969e+002, 1.175376e+003
3.334790e+002, 1.241313e+003
3.339611e+002, 1.308309e+003
3.344432e+002, 1.377186e+003
3.349254e+002, 1.444921e+003
3.354075e+002, 1.515864e+003
3.358896e+002, 1.581154e+003
3.363717e+002, 1.629478e+003
3.368538e+002, 1.662012e+003
3.373359e+002, 1.673513e+003
3.378180e+002, 1.661556e+003
3.383001e+002, 1.626470e+003
3.387823e+002, 1.573077e+003
3.392644e+002, 1.498712e+003
3.397465e+002, 1.412702e+003
3.402286e+002, 1.321538e+003
3.407107e+002, 1.224649e+003
3.411928e+002, 1.130088e+003
3.416750e+002, 1.040072e+003
3.421571e+002, 9.544073e+002
3.426392e+002, 8.778029e+002
3.431213e+002, 8.099584e+002
3.436034e+002, 7.492258e+002
3.440855e+002, 6.939050e+002
3.445677e+002, 6.444116e+002
3.450498e+002, 5.997281e+002
3.455319e+002, 5.601800e+002
3.460140e+002, 5.252819e+002
3.464961e+002, 4.946958e+002
3.469782e+002, 4.684580e+002
3.474604e+002, 4.446994e+002
3.479425e+002, 4.227176e+002
3.484246e+002, 4.024755e+002
3.489067e+002, 3.849001e+002
3.493888e+002, 3.702384e+002
3.498709e+002, 3.572091e+002
3.503531e+002, 3.442422e+002
3.508352e+002, 3.315756e+002
3.513173e+002, 3.201454e+002
3.517994e+002, 3.103326e+002
3.522815e+002, 3.019140e+002
3.527636e+002, 2.945643e+002
3.532458e+002, 2.882789e+002
3.537279e+002, 2.827608e+002
3.542100e+002, 2.779251e+002
3.546921e+002, 2.736583e+002
3.551742e+002, 2.697829e+002
3.556563e+002, 2.661942e+002
3.561385e+002, 2.629656e+002
3.566206e+002, 2.600721e+002
3.571027e+002, 2.575417e+002
3.575848e+002, 2.555849e+002
3.580669e+002, 2.556029e+002
3.585490e+002, 2.555952e+002
3.590312e+002, 2.535499e+002
3.595133e+002, 2.485394e+002
3.599954e+002, 2.426274e+002
3.604775e+002, 2.360566e+002
3.609596e+002, 2.294264e+002
3.614417e+002, 2.241062e+002
3.619239e+002, 2.214394e+002
3.624060e+002, 2.195586e+002
3.628881e+002, 2.173881e+002
3.633702e+002, 2.146726e+002
3.638523e+002, 2.124411e+002
3.643344e+002, 2.109510e+002
3.648166e+002, 2.101465e+002
3.652987e+002, 2.099629e+002
3.657808e+002, 2.109030e+002
3.662629e+002, 2.119518e+002
3.667450e+002, 2.128388e+002
3.672271e+002, 2.135576e+002
3.677093e+002, 2.143563e+002
3.681914e+002, 2.152824e+002
3.686735e+002, 2.162820e+002
3.691556e+002, 2.173239e+002
3.696377e+002, 2.178525e+002
3.701198e+002, 2.191001e+002
3.706020e+002, 2.215893e+002
3.710841e+002, 2.248954e+002
3.715662e+002, 2.274660e+002
3.720483e+002, 2.287520e+002
3.725304e+002, 2.299286e+002
3.730125e+002, 2.314567e+002
3.734947e+002, 2.333759e+002
3.739768e+002, 2.354259e+002
3.744589e+002, 2.372674e+002
3.749410e+002, 2.395336e+002
3.754231e+002, 2.432188e+002
3.759052e+002, 2.485295e+002
3.763874e+002, 2.547029e+002
3.768695e+002, 2.611187e+002
3.773516e+002, 2.679290e+002
3.778337e+002, 2.773324e+002
3.783158e+002, 2.894868e+002
3.787979e+002, 3.040711e+002
3.792801e+002, 3.206211e+002
3.797622e+002, 3.392808e+002
3.802443e+002, 3.597424e+002
3.807264e+002, 3.816322e+002
3.812085e+002, 4.058393e+002
3.816906e+002, 4.363397e+002
3.821728e+002, 4.731169e+002
3.826549e+002, 5.102916e+002
3.831370e+002, 5.519570e+002
3.836191e+002, 5.923191e+002
3.841012e+002, 6.057186e+002
3.845833e+002, 5.877610e+002
3.850655e+002, 5.488474e+002
3.855476e+002, 4.940623e+002
3.860297e+002, 4.275847e+002
3.865118e+002, 3.675899e+002
3.869939e+002, 3.218860e+002
3.874760e+002, 2.876330e+002
3.879582e+002, 2.618654e+002
3.884403e+002, 2.443044e+002
3.889224e+002, 2.314033e+002
3.894045e+002, 2.218562e+002
3.898866e+002, 2.148411e+002
3.903687e+002, 2.091841e+002
3.908509e+002, 2.047419e+002
3.913330e+002, 2.013887e+002
3.918151e+002, 1.995182e+002
3.922972e+002, 1.988114e+002
3.927793e+002, 1.979252e+002
3.932614e+002, 1.955593e+002
3.937436e+002, 1.931747e+002
3.942257e+002, 1.918533e+002
3.947078e+002, 1.921761e+002
3.951899e+002, 1.926347e+002
3.956720e+002, 1.927515e+002
3.961541e+002, 1.926541e+002
3.966363e+002, 1.925490e+002
3.971184e+002, 1.922510e+002
3.976005e+002, 1.921690e+002
3.980826e+002, 1.925343e+002
3.985647e+002, 1.934240e+002
3.990468e+002, 1.941705e+002
3.995290e+002, 1.947861e+002
4.000111e+002, 1.951896e+002
4.004932e+002, 1.953008e+002
4.009753e+002, 1.944772e+002
4.014574e+002, 1.942288e+002
4.019395e+002, 1.947645e+002
4.024217e+002, 1.959927e+002
4.029038e+002, 1.974491e+002
4.033859e+002, 1.989122e+002
4.038680e+002, 2.009300e+002
4.043501e+002, 2.038516e+002
4.048322e+002, 2.078753e+002
4.053144e+002, 2.119059e+002
4.057965e+002, 2.155315e+002
4.062786e+002, 2.195925e+002
4.067607e+002, 2.256913e+002
4.072428e+002, 2.341897e+002
4.077249e+002, 2.428269e+002
4.082071e+002, 2.510347e+002
4.086892e+002, 2.587567e+002
4.091713e+002, 2.661495e+002
4.096534e+002, 2.736906e+002
4.101355e+002, 2.781576e+002
4.106176e+002, 2.757640e+002
4.110998e+002, 2.673435e+002
4.115819e+002, 2.573644e+002
4.120640e+002, 2.459700e+002
4.125461e+002, 2.345919e+002
4.130282e+002, 2.249283e+002
4.135103e+002, 2.170565e+002
4.139925e+002, 2.111508e+002
4.144746e+002, 2.079326e+002
4.149567e+002, 2.064737e+002
4.154388e+002, 2.058569e+002
4.159209e+002, 2.061763e+002
4.164030e+002, 2.057325e+002
4.168852e+002, 2.024855e+002
4.173673e+002, 1.976178e+002
4.178494e+002, 1.930586e+002
4.183315e+002, 1.894686e+002
4.188136e+002, 1.864629e+002
4.192957e+002, 1.837919e+002
4.197779e+002, 1.814812e+002
4.202600e+002, 1.795317e+002
4.207421e+002, 1.780410e+002
4.212242e+002, 1.768722e+002
4.217063e+002, 1.759774e+002
4.221884e+002, 1.754002e+002
4.226706e+002, 1.749580e+002
4.231527e+002, 1.746088e+002
4.236348e+002, 1.743615e+002
4.241169e+002, 1.742286e+002
4.245990e+002, 1.744100e+002
4.250811e+002, 1.745118e+002
4.255633e+002, 1.742090e+002
4.260454e+002, 1.733173e+002
4.265275e+002, 1.733465e+002
4.270096e+002, 1.753034e+002
4.274917e+002, 1.773799e+002
4.279738e+002, 1.779840e+002
4.284560e+002, 1.761475e+002
4.289381e+002, 1.748605e+002
4.294202e+002, 1.745361e+002
4.299023e+002, 1.749759e+002
4.303844e+002, 1.756126e+002
4.308665e+002, 1.766013e+002
4.313487e+002, 1.773316e+002
4.318308e+002, 1.772812e+002
4.323129e+002, 1.763805e+002
4.327950e+002, 1.762449e+002
4.332771e+002, 1.770640e+002
4.337592e+002, 1.781925e+002
4.342414e+002, 1.786654e+002
4.347235e+002, 1.785644e+002
4.352056e+002, 1.788952e+002
4.356877e+002, 1.801900e+002
4.361698e+002, 1.819642e+002
4.366519e+002, 1.831058e+002
4.371341e+002, 1.836549e+002
4.376162e+002, 1.843087e+002
4.380983e+002, 1.856481e+002
4.385804e+002, 1.874338e+002
4.390625e+002, 1.892603e+002
4.395446e+002, 1.910567e+002
4.400268e+002, 1.929034e+002
4.405089e+002, 1.950798e+002
4.409910e+002, 1.973613e+002
4.414731e+002, 1.992552e+002
4.419552e+002, 2.004481e+002
4.424373e+002, 2.012757e+002
4.429195e+002, 2.017592e+002
4.434016e+002, 2.019257e+002
4.438837e+002, 2.024314e+002
4.443658e+002, 2.033803e+002
4.448479e+002, 2.048723e+002
4.453300e+002, 2.070202e+002
4.458122e+002, 2.112619e+002
4.462943e+002, 2.143216e+002
4.467764e+002, 2.158102e+002
4.472585e+002, 2.157486e+002
4.477406e+002, 2.141815e+002
4.482227e+002, 2.092874e+002
4.487049e+002, 2.047007e+002
4.491870e+002, 2.015176e+002
4.496691e+002, 2.000289e+002
4.501512e+002, 1.982910e+002
4.506333e+002, 1.957988e+002
4.511154e+002, 1.936314e+002
4.515976e+002, 1.930161e+002
4.520797e+002, 1.945372e+002
4.525618e+002, 1.956478e+002
4.530439e+002, 1.957917e+002
4.535260e+002, 1.953645e+002
4.540081e+002, 1.955387e+002
4.544903e+002, 1.963341e+002
4.549724e+002, 1.976313e+002
4.554545e+002, 1.993046e+002
4.559366e+002, 2.013858e+002
4.564187e+002, 2.042867e+002
4.569008e+002, 2.080348e+002
4.573830e+002, 2.123947e+002
4.578651e+002, 2.167776e+002
4.583472e+002, 2.214459e+002
4.588293e+002, 2.270471e+002
4.593114e+002, 2.339028e+002
4.597935e+002, 2.417340e+002
4.602757e+002, 2.501643e+002
4.607578e+002, 2.592759e+002
4.612399e+002, 2.696437e+002
4.617220e+002, 2.817346e+002
4.622041e+002, 2.951996e+002
4.626862e+002, 3.106211e+002
4.631684e+002, 3.291772e+002
4.636505e+002, 3.445094e+002
4.641326e+002, 3.557250e+002
4.646147e+002, 3.609367e+002
4.650968e+002, 3.577422e+002
4.655789e+002, 3.399151e+002
4.660611e+002, 3.192382e+002
4.665432e+002, 2.970262e+002
4.670253e+002, 2.739117e+002
4.675074e+002, 2.545228e+002
4.679895e+002, 2.399201e+002
4.684716e+002, 2.287637e+002
4.689538e+002, 2.207871e+002
4.694359e+002, 2.176716e+002
4.699180e+002, 2.142410e+002
4.704001e+002, 2.103484e+002
4.708822e+002, 2.062015e+002
4.713643e+002, 2.020268e+002
4.718465e+002, 1.977069e+002
4.723286e+002, 1.936656e+002
4.728107e+002, 1.898811e+002
4.732928e+002, 1.864789e+002
4.737749e+002, 1.840452e+002
4.742570e+002, 1.827086e+002
4.747392e+002, 1.817337e+002
4.752213e+002, 1.805220e+002
4.757034e+002, 1.791555e+002
4.761855e+002, 1.782940e+002
4.766676e+002, 1.781201e+002
4.771497e+002, 1.780731e+002
4.776319e+002, 1.771906e+002
4.781140e+002, 1.757642e+002
4.785961e+002, 1.747569e+002
4.790782e+002, 1.750291e+002
4.795603e+002, 1.756679e+002
4.800424e+002, 1.755748e+002
4.805246e+002, 1.748216e+002
4.810067e+002, 1.740057e+002
4.814888e+002, 1.733907e+002
4.819709e+002, 1.729402e+002
4.824530e+002, 1.726167e+002
4.829352e+002, 1.723843e+002
4.834173e+002, 1.723458e+002
4.838994e+002, 1.727622e+002
4.843815e+002, 1.733486e+002
4.848636e+002, 1.736678e+002
4.853457e+002, 1.735143e+002
4.858279e+002, 1.731932e+002
4.863100e+002, 1.725972e+002
4.867921e+002, 1.717364e+002
4.872742e+002, 1.714353e+002
4.877563e+002, 1.722556e+002
4.882384e+002, 1.730687e+002
4.887206e+002, 1.731586e+002
4.892027e+002, 1.720276e+002
4.896848e+002, 1.716083e+002
4.901669e+002, 1.722873e+002
4.906490e+002, 1.732946e+002
4.911311e+002, 1.732149e+002
4.916133e+002, 1.718269e+002
4.920954e+002, 1.709239e+002
4.925775e+002, 1.712876e+002
4.930596e+002, 1.724950e+002
4.935417e+002, 1.728859e+002
4.940238e+002, 1.724460e+002
4.945060e+002, 1.719380e+002
4.949881e+002, 1.720136e+002
4.954702e+002, 1.724465e+002
4.959523e+002, 1.726538e+002
4.964344e+002, 1.725231e+002
4.969165e+002, 1.723188e+002
4.973987e+002, 1.723548e+002
4.978808e+002, 1.725014e+002
4.983629e+002, 1.725145e+002
4.988450e+002, 1.723344e+002
4.993271e+002, 1.719554e+002
4.998092e+002, 1.710790e+002
5.002914e+002, 1.698669e+002
5.007735e+002, 1.692520e+002
5.012556e+002, 1.702566e+002
5.017377e+002, 1.714678e+002
5.022198e+002, 1.719897e+002
5.027019e+002, 1.713503e+002
5.031841e+002, 1.710105e+002
5.036662e+002, 1.715468e+002
5.041483e+002, 1.723128e+002
5.046304e+002, 1.725495e+002
5.051125e+002, 1.719931e+002
5.055946e+002, 1.713084e+002
5.060768e+002, 1.703957e+002
5.065589e+002, 1.694099e+002
5.070410e+002, 1.691992e+002
5.075231e+002, 1.699884e+002
5.080052e+002, 1.709115e+002
5.084873e+002, 1.716009e+002
5.089695e+002, 1.720463e+002
5.094516e+002, 1.721305e+002
5.099337e+002, 1.717921e+002
5.104158e+002, 1.713394e+002
5.108979e+002, 1.710893e+002
5.113800e+002, 1.710204e+002
5.118622e+002, 1.710610e+002
5.123443e+002, 1.712226e+002
5.128264e+002, 1.714384e+002
5.133085e+002, 1.715976e+002
5.137906e+002, 1.717299e+002
5.142728e+002, 1.719402e+002
5.147549e+002, 1.724088e+002
5.152370e+002, 1.729046e+002
5.157191e+002, 1.732525e+002
5.162012e+002, 1.734407e+002
5.166833e+002, 1.734744e+002
5.171655e+002, 1.734929e+002
5.176476e+002, 1.732918e+002
5.181297e+002, 1.726831e+002
5.186118e+002, 1.707087e+002
5.190939e+002, 1.694729e+002
5.195760e+002, 1.698790e+002
5.200582e+002, 1.712205e+002
5.205403e+002, 1.717768e+002
5.210224e+002, 1.707760e+002
5.215045e+002, 1.700674e+002
5.219866e+002, 1.702821e+002
5.224688e+002, 1.714185e+002
5.229509e+002, 1.720769e+002
5.234330e+002, 1.721404e+002
5.239151e+002, 1.720042e+002
5.243972e+002, 1.718137e+002
5.248793e+002, 1.715580e+002
5.253615e+002, 1.719600e+002
5.258436e+002, 1.732323e+002
5.263257e+002, 1.747676e+002
5.268078e+002, 1.757645e+002
5.272899e+002, 1.762528e+002
5.277720e+002, 1.763245e+002
5.282542e+002, 1.757409e+002
5.287363e+002, 1.749732e+002
5.292184e+002, 1.745115e+002
5.297005e+002, 1.743814e+002
5.301826e+002, 1.746999e+002
5.306647e+002, 1.761476e+002
5.311469e+002, 1.777070e+002
5.316290e+002, 1.783489e+002
5.321111e+002, 1.776823e+002
5.325932e+002, 1.773298e+002
5.330753e+002, 1.779635e+002
5.335574e+002, 1.792214e+002
5.340396e+002, 1.807165e+002
5.345217e+002, 1.827283e+002
5.350038e+002, 1.845817e+002
5.354859e+002, 1.859549e+002
5.359680e+002, 1.870979e+002
5.364501e+002, 1.889080e+002
5.369323e+002, 1.919716e+002
5.374144e+002, 1.947071e+002
5.378965e+002, 1.965083e+002
5.383786e+002, 1.973569e+002
5.388607e+002, 1.979424e+002
5.393428e+002, 1.983138e+002
5.398250e+002, 1.982479e+002
5.403071e+002, 1.974300e+002
5.407892e+002, 1.959267e+002
5.412713e+002, 1.941657e+002
5.417534e+002, 1.921043e+002
5.422355e+002, 1.901252e+002
5.427177e+002, 1.886733e+002
5.431998e+002, 1.877273e+002
5.436819e+002, 1.872648e+002
5.441640e+002, 1.878469e+002
5.446461e+002, 1.885103e+002
5.451282e+002, 1.882525e+002
5.456104e+002, 1.871955e+002
5.460925e+002, 1.861082e+002
5.465746e+002, 1.854967e+002
5.470567e+002, 1.849212e+002
5.475388e+002, 1.840364e+002
5.480209e+002, 1.826723e+002
5.485031e+002, 1.814266e+002
5.489852e+002, 1.803199e+002
5.494673e+002, 1.794313e+002
5.499494e+002, 1.788564e+002
5.504315e+002, 1.788948e+002
5.509136e+002, 1.787571e+002
5.513958e+002, 1.782235e+002
5.518779e+002, 1.774924e+002
5.523600e+002, 1.771777e+002
5.528421e+002, 1.773448e+002
5.533242e+002, 1.776923e+002
5.538063e+002, 1.781908e+002
5.542885e+002, 1.787933e+002
5.547706e+002, 1.790849e+002
5.552527e+002, 1.790453e+002
5.557348e+002, 1.789165e+002
5.562169e+002, 1.789080e+002
5.566990e+002, 1.789753e+002
5.571812e+002, 1.790047e+002
5.576633e+002, 1.789811e+002
5.581454e+002, 1.789141e+002
5.586275e+002, 1.788042e+002
5.591096e+002, 1.786606e+002
5.595917e+002, 1.784955e+002
5.600739e+002, 1.780049e+002
5.605560e+002, 1.777895e+002
5.610381e+002, 1.784014e+002
5.615202e+002, 1.796221e+002
5.620023e+002, 1.805121e+002
5.624844e+002, 1.805253e+002
5.629666e+002, 1.804199e+002
5.634487e+002, 1.805240e+002
5.639308e+002, 1.808834e+002
5.644129e+002, 1.812451e+002
5.648950e+002, 1.816167e+002
5.653771e+002, 1.819788e+002
5.658593e+002, 1.821987e+002
5.663414e+002, 1.820754e+002
5.668235e+002, 1.827722e+002
5.673056e+002, 1.846413e+002
5.677877e+002, 1.870228e+002
5.682698e+002, 1.887641e+002
5.687520e+002, 1.899030e+002
5.692341e+002, 1.908021e+002
5.697162e+002, 1.915551e+002
5.701983e+002, 1.922006e+002
5.706804e+002, 1.928373e+002
5.711625e+002, 1.934550e+002
5.716447e+002, 1.939886e+002
5.721268e+002, 1.941843e+002
5.726089e+002, 1.944020e+002
5.730910e+002, 1.949998e+002
5.735731e+002, 1.960484e+002
5.740552e+002, 1.972837e+002
5.745374e+002, 1.991770e+002
5.750195e+002, 2.009172e+002
5.755016e+002, 2.017545e+002
5.759837e+002, 2.013757e+002
5.764658e+002, 2.002846e+002
5.769479e+002, 1.984647e+002
5.774301e+002, 1.959711e+002
5.779122e+002, 1.927564e+002
5.783943e+002, 1.880901e+002
5.788764e+002, 1.840779e+002
5.793585e+002, 1.813017e+002
5.798406e+002, 1.796645e+002
5.803228e+002, 1.786710e+002
5.808049e+002, 1.784204e+002
5.812870e+002, 1.781729e+002
5.817691e+002, 1.771672e+002
5.822512e+002, 1.757078e+002
5.827333e+002, 1.751257e+002
5.832155e+002, 1.755627e+002
5.836975e+002, 1.762413e+002
5.841796e+002, 1.766308e+002
5.846617e+002, 1.767271e+002
5.851439e+002, 1.764682e+002
5.856260e+002, 1.755701e+002
5.861081e+002, 1.748073e+002
5.865902e+002, 1.748496e+002
5.870723e+002, 1.753431e+002
5.875544e+002, 1.756030e+002
5.880366e+002, 1.750512e+002
5.885187e+002, 1.746224e+002
5.890008e+002, 1.746900e+002
5.894829e+002, 1.752299e+002
5.899650e+002, 1.756336e+002
5.904471e+002, 1.758712e+002
5.909293e+002, 1.759992e+002
5.914114e+002, 1.759922e+002
5.918935e+002, 1.757995e+002
5.923756e+002, 1.758578e+002
5.928577e+002, 1.762458e+002
5.933398e+002, 1.766707e+002
5.938220e+002, 1.768638e+002
5.943041e+002, 1.768331e+002
5.947862e+002, 1.765971e+002
5.952683e+002, 1.760984e+002
5.957504e+002, 1.755630e+002
5.962325e+002, 1.750486e+002
5.967147e+002, 1.747136e+002
5.971968e+002, 1.749667e+002
5.976789e+002, 1.768480e+002
5.981610e+002, 1.786660e+002
5.986431e+002, 1.789881e+002
5.991252e+002, 1.780993e+002
5.996074e+002, 1.773670e+002
6.000895e+002, 1.773238e+002
6.005716e+002, 1.775096e+002
6.010537e+002, 1.776856e+002
6.015358e+002, 1.777813e+002
6.020179e+002, 1.781530e+002
6.025001e+002, 1.789898e+002
6.029822e+002, 1.799201e+002
6.034643e+002, 1.807112e+002
6.039464e+002, 1.814121e+002
6.044285e+002, 1.817562e+002
6.049106e+002, 1.816161e+002
6.053928e+002, 1.813252e+002
6.058749e+002, 1.813527e+002
6.063570e+002, 1.816920e+002
6.068391e+002, 1.822454e+002
6.073212e+002, 1.830022e+002
6.078033e+002, 1.839280e+002
6.082855e+002, 1.851246e+002
6.087676e+002, 1.864845e+002
6.092497e+002, 1.876593e+002
6.097318e+002, 1.884192e+002
6.102139e+002, 1.889277e+002
6.106960e+002, 1.890720e+002
6.111782e+002, 1.888855e+002
6.116603e+002, 1.892265e+002
6.121424e+002, 1.909633e+002
6.126245e+002, 1.929143e+002
6.131066e+002, 1.943355e+002
6.135887e+002, 1.949462e+002
6.140709e+002, 1.955542e+002
6.145530e+002, 1.959774e+002
6.150351e+002, 1.965758e+002
6.155172e+002, 1.978133e+002
6.159993e+002, 1.998738e+002
6.164814e+002, 2.017633e+002
6.169636e+002, 2.032412e+002
6.174457e+002, 2.046250e+002
6.179278e+002, 2.067269e+002
6.184099e+002, 2.094568e+002
6.188920e+002, 2.118635e+002
6.193741e+002, 2.131792e+002
6.198563e+002, 2.142410e+002
6.203384e+002, 2.163511e+002
6.208205e+002, 2.193453e+002
6.213026e+002, 2.224131e+002
6.217847e+002, 2.252175e+002
6.222668e+002, 2.278342e+002
6.227490e+002, 2.302097e+002
6.232311e+002, 2.323357e+002
6.237132e+002, 2.344690e+002
6.241953e+002, 2.367178e+002
6.246774e+002, 2.389751e+002
6.251595e+002, 2.411949e+002
6.256417e+002, 2.436021e+002
6.261238e+002, 2.455907e+002
6.266059e+002, 2.472835e+002
6.270880e+002, 2.484146e+002
6.275701e+002, 2.484391e+002
6.280522e+002, 2.472388e+002
6.285344e+002, 2.461614e+002
6.290165e+002, 2.456577e+002
6.294986e+002, 2.451746e+002
6.299807e+002, 2.436357e+002
6.304628e+002, 2.411201e+002
6.309449e+002, 2.381340e+002
6.314271e+002, 2.345455e+002
6.319092e+002, 2.308281e+002
6.323913e+002, 2.272771e+002
6.328734e+002, 2.239541e+002
6.333555e+002, 2.213245e+002
6.338376e+002, 2.204386e+002
6.343198e+002, 2.196386e+002
6.348019e+002, 2.177882e+002
6.352840e+002, 2.145121e+002
6.357661e+002, 2.115483e+002
6.362482e+002, 2.088737e+002
6.367303e+002, 2.067033e+002
6.372125e+002, 2.052752e+002
6.376946e+002, 2.049192e+002
6.381767e+002, 2.043181e+002
6.386588e+002, 2.033366e+002
6.391409e+002, 2.022576e+002
6.396230e+002, 2.015257e+002
6.401052e+002, 2.011173e+002
6.405873e+002, 2.008064e+002
6.410694e+002, 2.007992e+002
6.415515e+002, 2.004143e+002
6.420336e+002, 1.977251e+002
6.425157e+002, 1.936933e+002
6.429979e+002, 1.910920e+002
6.434800e+002, 1.926917e+002
6.439621e+002, 1.950710e+002
6.444442e+002, 1.957373e+002
6.449263e+002, 1.949592e+002
6.454084e+002, 1.945477e+002
6.458906e+002, 1.958034e+002
6.463727e+002, 1.969257e+002
6.468548e+002, 1.968008e+002
6.473369e+002, 1.951310e+002
6.478190e+002, 1.945649e+002
6.483011e+002, 1.956146e+002
6.487833e+002, 1.970090e+002
6.492654e+002, 1.978742e+002
6.497475e+002, 1.982034e+002
6.502296e+002, 1.980320e+002
6.507117e+002, 1.972266e+002
6.511938e+002, 1.964507e+002
6.516760e+002, 1.966958e+002
6.521581e+002, 1.976691e+002
6.526402e+002, 1.984224e+002
6.531223e+002, 1.985704e+002
6.536044e+002, 1.987144e+002
6.540865e+002, 1.994399e+002
6.545687e+002, 2.005532e+002
6.550508e+002, 2.016809e+002
6.555329e+002, 2.025002e+002
6.560150e+002, 2.035130e+002
6.564971e+002, 2.051998e+002
6.569792e+002, 2.073396e+002
6.574614e+002, 2.087559e+002
6.579435e+002, 2.087760e+002
6.584256e+002, 2.089548e+002
6.589077e+002, 2.098082e+002
6.593898e+002, 2.113125e+002
6.598719e+002, 2.128846e+002
6.603541e+002, 2.144979e+002
6.608362e+002, 2.162923e+002
6.613183e+002, 2.186312e+002
6.618004e+002, 2.212668e+002
6.622825e+002, 2.231266e+002
6.627646e+002, 2.240970e+002
6.632468e+002, 2.252698e+002
6.637289e+002, 2.277491e+002
6.642110e+002, 2.309570e+002
6.646931e+002, 2.341141e+002
6.651752e+002, 2.369314e+002
6.656573e+002, 2.400317e+002
6.661395e+002, 2.437482e+002
6.666216e+002, 2.479058e+002
6.671037e+002, 2.522884e+002
6.675858e+002, 2.562994e+002
6.680679e+002, 2.613023e+002
6.685500e+002, 2.672654e+002
6.690322e+002, 2.743232e+002
6.695143e+002, 2.826703e+002
6.699964e+002, 2.924396e+002
6.704785e+002, 3.030177e+002
6.709606e+002, 3.142099e+002
6.714427e+002, 3.261386e+002
6.719249e+002, 3.388994e+002
6.724070e+002, 3.525319e+002
6.728891e+002, 3.670443e+002
6.733712e+002, 3.823483e+002
6.738533e+002, 3.984854e+002
6.743354e+002, 4.146586e+002
6.748176e+002, 4.311298e+002
6.752997e+002, 4.500451e+002
6.757818e+002, 4.720033e+002
6.762639e+002, 4.968727e+002
6.767460e+002, 5.247359e+002
6.772281e+002, 5.551203e+002
6.777103e+002, 5.885644e+002
6.781924e+002, 6.245807e+002
6.786745e+002, 6.639897e+002
6.791566e+002, 7.076891e+002
6.796387e+002, 7.558824e+002
6.801208e+002, 8.082292e+002
6.806030e+002, 8.654318e+002
6.810851e+002, 9.264658e+002
6.815672e+002, 9.933640e+002
6.820493e+002, 1.064532e+003
6.825314e+002, 1.137157e+003
6.830135e+002, 1.212224e+003
6.834957e+002, 1.282712e+003
6.839778e+002, 1.348148e+003
6.844599e+002, 1.402349e+003
6.849420e+002, 1.431539e+003
6.854241e+002, 1.431612e+003
6.859063e+002, 1.405986e+003
6.863884e+002, 1.349473e+003
6.868705e+002, 1.267280e+003
6.873526e+002, 1.176040e+003
6.878347e+002, 1.067349e+003
6.883168e+002, 9.620090e+002
6.887990e+002, 8.650342e+002
6.892811e+002, 7.757467e+002
6.897632e+002, 6.985399e+002
6.902453e+002, 6.341033e+002
6.907274e+002, 5.783875e+002
6.912095e+002, 5.308334e+002
6.916917e+002, 4.907656e+002
6.921738e+002, 4.558373e+002
6.926559e+002, 4.264091e+002
6.931380e+002, 4.008641e+002
6.936201e+002, 3.789596e+002
6.941022e+002, 3.599906e+002
6.945844e+002, 3.431880e+002
6.950665e+002, 3.286215e+002
6.955486e+002, 3.157980e+002
6.960307e+002, 3.047589e+002
6.965128e+002, 2.953099e+002
6.969949e+002, 2.872505e+002
6.974771e+002, 2.812406e+002
6.979592e+002, 2.751761e+002
6.984413e+002, 2.690434e+002
6.989234e+002, 2.629410e+002
6.994055e+002, 2.567015e+002
6.998876e+002, 2.503024e+002
7.003698e+002, 2.452999e+002
7.008519e+002, 2.422178e+002
7.013340e+002, 2.400723e+002
7.018161e+002, 2.379174e+002
7.022982e+002, 2.356302e+002
7.027803e+002, 2.328403e+002
7.032625e+002, 2.286045e+002
7.037446e+002, 2.248018e+002
7.042267e+002, 2.232601e+002
7.047088e+002, 2.230664e+002
7.051909e+002, 2.222270e+002
7.056730e+002, 2.194193e+002
7.061552e+002, 2.168115e+002
7.066373e+002, 2.148633e+002
7.071194e+002, 2.135148e+002
7.076015e+002, 2.125747e+002
7.080836e+002, 2.122012e+002
7.085657e+002, 2.117574e+002
7.090479e+002, 2.109372e+002
7.095300e+002, 2.098349e+002
7.100121e+002, 2.088666e+002
7.104942e+002, 2.080214e+002
7.109763e+002, 2.071731e+002
7.114584e+002, 2.062216e+002
7.119406e+002, 2.052132e+002
7.124227e+002, 2.041284e+002
7.129048e+002, 2.029748e+002
7.133869e+002, 2.020420e+002
7.138690e+002, 2.015201e+002
7.143511e+002, 2.012370e+002
7.148333e+002, 2.011842e+002
7.153154e+002, 2.016224e+002
7.157975e+002, 2.013583e+002
7.162796e+002, 1.998995e+002
7.167617e+002, 1.983426e+002
7.172438e+002, 1.975674e+002
7.177260e+002, 1.976512e+002
7.182081e+002, 1.978175e+002
7.186902e+002, 1.980600e+002
7.191723e+002, 1.982276e+002
7.196544e+002, 1.980014e+002
7.201365e+002, 1.975652e+002
7.206187e+002, 1.974531e+002
7.211008e+002, 1.979310e+002
7.215829e+002, 1.982892e+002
7.220650e+002, 1.977138e+002
7.225471e+002, 1.967871e+002
7.230292e+002, 1.962791e+002
7.235114e+002, 1.969583e+002
7.239935e+002, 1.974050e+002
7.244756e+002, 1.973958e+002
7.249577e+002, 1.970287e+002
7.254398e+002, 1.963248e+002
7.259219e+002, 1.949700e+002
7.264041e+002, 1.943054e+002
7.268862e+002, 1.948005e+002
7.273683e+002, 1.959627e+002
7.278504e+002, 1.967949e+002
7.283325e+002, 1.972736e+002
7.288146e+002, 1.971800e+002
7.292968e+002, 1.958013e+002
7.297789e+002, 1.943249e+002
7.302610e+002, 1.942436e+002
7.307431e+002, 1.952331e+002
7.312252e+002, 1.962171e+002
7.317073e+002, 1.966849e+002
7.321895e+002, 1.970956e+002
7.326716e+002, 1.979808e+002
7.331537e+002, 1.992108e+002
7.336358e+002, 1.990613e+002
7.341179e+002, 1.965316e+002
7.346000e+002, 1.943279e+002
7.350822e+002, 1.936965e+002
7.355643e+002, 1.944653e+002
7.360464e+002, 1.950254e+002
7.365285e+002, 1.953745e+002
7.370106e+002, 1.955885e+002
7.374927e+002, 1.958548e+002
7.379749e+002, 1.959735e+002
7.384570e+002, 1.953516e+002
7.389391e+002, 1.940037e+002
7.394212e+002, 1.930494e+002
7.399033e+002, 1.937277e+002
7.403854e+002, 1.946343e+002
7.408676e+002, 1.945932e+002
7.413497e+002, 1.930289e+002
7.418318e+002, 1.923700e+002
7.423139e+002, 1.935318e+002
7.427960e+002, 1.947490e+002
7.432781e+002, 1.946775e+002
7.437603e+002, 1.930426e+002
7.442424e+002, 1.921420e+002
7.447245e+002, 1.921415e+002
7.452066e+002, 1.924290e+002
7.456887e+002, 1.923163e+002
7.461708e+002, 1.919911e+002
7.466530e+002, 1.919531e+002
7.471351e+002, 1.923107e+002
7.476172e+002, 1.928338e+002
7.480993e+002, 1.935018e+002
7.485814e+002, 1.941796e+002
7.490635e+002, 1.947021e+002
7.495457e+002, 1.949118e+002
7.500278e+002, 1.951721e+002
7.505099e+002, 1.957175e+002
7.509920e+002, 1.962041e+002
7.514741e+002, 1.961294e+002
7.519562e+002, 1.952718e+002
7.524384e+002, 1.947933e+002
7.529205e+002, 1.949017e+002
7.534026e+002, 1.953287e+002
7.538847e+002, 1.957558e+002
7.543668e+002, 1.961525e+002
7.548489e+002, 1.964180e+002
7.553311e+002, 1.965283e+002
7.558132e+002, 1.964815e+002
7.562953e+002, 1.961510e+002
7.567774e+002, 1.956835e+002
7.572595e+002, 1.953438e+002
7.577416e+002, 1.956785e+002
7.582238e+002, 1.956021e+002
7.587059e+002, 1.945738e+002
7.591880e+002, 1.930463e+002
7.596701e+002, 1.919189e+002
7.601522e+002, 1.912231e+002
7.606343e+002, 1.908406e+002
7.611165e+002, 1.908469e+002
7.615986e+002, 1.910386e+002
7.620807e+002, 1.906978e+002
7.625628e+002, 1.899830e+002
7.630449e+002, 1.898350e+002
7.635270e+002, 1.914907e+002
7.640092e+002, 1.931925e+002
7.644913e+002, 1.930132e+002
7.649734e+002, 1.914755e+002
7.654555e+002, 1.902105e+002
7.659376e+002, 1.894852e+002
7.664197e+002, 1.894810e+002
7.669019e+002, 1.908362e+002
7.673840e+002, 1.930938e+002
7.678661e+002, 1.940939e+002
7.683482e+002, 1.935038e+002
7.688303e+002, 1.926013e+002
7.693124e+002, 1.917547e+002
7.697946e+002, 1.910298e+002
7.702767e+002, 1.906670e+002
7.707588e+002, 1.906462e+002
7.712409e+002, 1.907790e+002
7.717230e+002, 1.910031e+002
7.722051e+002, 1.912908e+002
7.726873e+002, 1.918004e+002
7.731694e+002, 1.924429e+002
7.736515e+002, 1.925923e+002
7.741336e+002, 1.912569e+002
7.746157e+002, 1.901404e+002
7.750978e+002, 1.901818e+002
7.755800e+002, 1.913208e+002
7.760621e+002, 1.917445e+002
7.765442e+002, 1.911881e+002
7.770263e+002, 1.906752e+002
7.775084e+002, 1.909422e+002
7.779905e+002, 1.917390e+002
7.784727e+002, 1.917502e+002
7.789548e+002, 1.910195e+002
7.794369e+002, 1.903409e+002
7.799190e+002, 1.904803e+002
7.804011e+002, 1.908141e+002
7.808832e+002, 1.906217e+002
7.813654e+002, 1.898666e+002
7.818475e+002, 1.893639e+002
7.823296e+002, 1.895271e+002
7.828117e+002, 1.898732e+002
7.832938e+002, 1.900891e+002
7.837759e+002, 1.901208e+002
7.842581e+002, 1.908298e+002
7.847402e+002, 1.925432e+002
7.852223e+002, 1.939028e+002
7.857044e+002, 1.935582e+002
7.861865e+002, 1.920540e+002
7.866686e+002, 1.916226e+002
7.871508e+002, 1.923200e+002
7.876329e+002, 1.932171e+002
7.881150e+002, 1.937755e+002
7.885971e+002, 1.941102e+002
7.890792e+002, 1.943884e+002
7.895613e+002, 1.946738e+002
7.900435e+002, 1.944923e+002
7.905256e+002, 1.931516e+002
7.910077e+002, 1.918098e+002
7.914898e+002, 1.910024e+002
7.919719e+002, 1.907337e+002
7.924540e+002, 1.911979e+002
7.929362e+002, 1.926214e+002
7.934183e+002, 1.937964e+002
7.939004e+002, 1.932649e+002
7.943825e+002, 1.917114e+002
7.948646e+002, 1.911663e+002
7.953467e+002, 1.917795e+002
7.958289e+002, 1.925705e+002
7.963110e+002, 1.928465e+002
7.967931e+002, 1.929742e+002
7.972752e+002, 1.933462e+002
7.977573e+002, 1.941906e+002
7.982394e+002, 1.944679e+002
7.987216e+002, 1.938143e+002
7.992037e+002, 1.928679e+002
7.996858e+002, 1.917994e+002
8.001679e+002, 1.904320e+002
8.006500e+002, 1.906811e+002
8.011321e+002, 1.928204e+002
8.016143e+002, 1.948787e+002
8.020964e+002, 1.948032e+002
8.025785e+002, 1.934514e+002
8.030606e+002, 1.923030e+002
8.035427e+002, 1.915099e+002
8.040248e+002, 1.912315e+002
8.045070e+002, 1.921366e+002
8.049891e+002, 1.931832e+002
8.054712e+002, 1.935413e+002
8.059533e+002, 1.928706e+002
8.064354e+002, 1.922508e+002
8.069175e+002, 1.915975e+002
8.073997e+002, 1.911264e+002
8.078818e+002, 1.909633e+002
8.083639e+002, 1.911100e+002
8.088460e+002, 1.918369e+002
8.093281e+002, 1.932219e+002
8.098102e+002, 1.943321e+002
8.102924e+002, 1.940227e+002
8.107745e+002, 1.930622e+002
8.112566e+002, 1.923468e+002
8.117387e+002, 1.919641e+002
8.122208e+002, 1.922437e+002
8.127029e+002, 1.944522e+002
8.131851e+002, 1.965217e+002
8.136672e+002, 1.968115e+002
8.141493e+002, 1.946949e+002
8.146314e+002, 1.935899e+002
8.151135e+002, 1.937634e+002
8.155956e+002, 1.943047e+002
8.160778e+002, 1.945182e+002
8.165599e+002, 1.944761e+002
8.170420e+002, 1.945703e+002
8.175241e+002, 1.948254e+002
8.180062e+002, 1.949030e+002
8.184883e+002, 1.941089e+002
8.189705e+002, 1.932707e+002
8.194526e+002, 1.933709e+002
8.199347e+002, 1.946973e+002
8.204168e+002, 1.956000e+002
8.208989e+002, 1.954957e+002
8.213810e+002, 1.950880e+002
8.218632e+002, 1.946730e+002
8.223453e+002, 1.942392e+002
8.228274e+002, 1.939057e+002
8.233095e+002, 1.936694e+002
8.237916e+002, 1.936035e+002
8.242737e+002, 1.939534e+002
8.247559e+002, 1.944681e+002
8.252380e+002, 1.945624e+002
8.257201e+002, 1.942169e+002
8.262022e+002, 1.939148e+002
8.266843e+002, 1.937759e+002
8.271664e+002, 1.939179e+002
8.276486e+002, 1.946355e+002
8.281307e+002, 1.961373e+002
8.286128e+002, 1.966579e+002
8.290949e+002, 1.956085e+002
8.295770e+002, 1.945930e+002
8.300591e+002, 1.945791e+002
8.305413e+002, 1.954597e+002
8.310234e+002, 1.961081e+002
8.315055e+002, 1.965219e+002
8.319876e+002, 1.966210e+002
8.324697e+002, 1.961027e+002
8.329518e+002, 1.953975e+002
8.334340e+002, 1.949395e+002
8.339161e+002, 1.947521e+002
8.343982e+002, 1.947067e+002
8.348803e+002, 1.948399e+002
8.353624e+002, 1.950300e+002
8.358445e+002, 1.952004e+002
8.363267e+002, 1.953568e+002
8.368088e+002, 1.957036e+002
8.372909e+002, 1.962917e+002
8.377730e+002, 1.968350e+002
8.382551e+002, 1.972269e+002
8.387372e+002, 1.974451e+002
8.392194e+002, 1.972969e+002
8.397015e+002, 1.968609e+002
8.401836e+002, 1.965908e+002
8.406657e+002, 1.969234e+002
8.411478e+002, 1.973456e+002
8.416299e+002, 1.975185e+002
8.421121e+002, 1.974639e+002
8.425942e+002, 1.975103e+002
8.430763e+002, 1.978027e+002
8.435584e+002, 1.979604e+002
8.440405e+002, 1.977748e+002
8.445226e+002, 1.973894e+002
8.450048e+002, 1.974819e+002
8.454869e+002, 1.980108e+002
8.459690e+002, 1.983568e+002
8.464511e+002, 1.981239e+002
8.469332e+002, 1.976219e+002
8.474153e+002, 1.970254e+002
8.478975e+002, 1.964261e+002
8.483796e+002, 1.960813e+002
8.488617e+002, 1.962229e+002
8.493438e+002, 1.964861e+002
8.498259e+002, 1.968985e+002
8.503080e+002, 1.973280e+002
8.507902e+002, 1.973625e+002
8.512723e+002, 1.969197e+002
8.517544e+002, 1.965885e+002
8.522365e+002, 1.965514e+002
8.527186e+002, 1.966907e+002
8.532007e+002, 1.969386e+002
8.536829e+002, 1.971943e+002
8.541650e+002, 1.971677e+002
8.546471e+002, 1.962711e+002
8.551292e+002, 1.956728e+002
8.556113e+002, 1.962224e+002
8.560934e+002, 1.973747e+002
8.565756e+002, 1.981161e+002
8.570577e+002, 1.981294e+002
8.575398e+002, 1.982858e+002
8.580219e+002, 1.986785e+002
8.585040e+002, 1.992582e+002
8.589861e+002, 2.001894e+002
8.594683e+002, 2.013156e+002
8.599504e+002, 2.016127e+002
8.604325e+002, 2.005717e+002
8.609146e+002, 1.995338e+002
8.613967e+002, 2.002605e+002
8.618788e+002, 2.014832e+002
8.623610e+002, 2.015571e+002
8.628431e+002, 1.988461e+002
8.633252e+002, 1.972451e+002
8.638073e+002, 1.973938e+002
8.642894e+002, 1.983960e+002
8.647715e+002, 1.996239e+002
8.652537e+002, 2.011279e+002
8.657358e+002, 2.017868e+002
8.662179e+002, 2.014516e+002
8.667000e+002, 2.007853e+002
8.671821e+002, 2.000093e+002
8.676642e+002, 1.995240e+002
8.681464e+002, 2.002278e+002
8.686285e+002, 2.025227e+002
8.691106e+002, 2.041251e+002
8.695927e+002, 2.032360e+002
8.700748e+002, 2.021278e+002
8.705569e+002, 2.023877e+002
8.710391e+002, 2.042908e+002
8.715212e+002, 2.056153e+002
8.720033e+002, 2.062712e+002
8.724854e+002, 2.066443e+002
8.729675e+002, 2.068159e+002
8.734496e+002, 2.069568e+002
8.739318e+002, 2.074798e+002
8.744139e+002, 2.083834e+002
8.748960e+002, 2.095138e+002
8.753781e+002, 2.109069e+002
8.758602e+002, 2.123865e+002
8.763423e+002, 2.137640e+002
8.768245e+002, 2.150417e+002
8.773066e+002, 2.167377e+002
8.777887e+002, 2.190640e+002
8.782708e+002, 2.213493e+002
8.787529e+002, 2.233177e+002
8.792350e+002, 2.250510e+002
8.797172e+002, 2.264637e+002
8.801993e+002, 2.277355e+002
8.806814e+002, 2.300912e+002
8.811635e+002, 2.353337e+002
8.816456e+002, 2.408872e+002
8.821277e+002, 2.446169e+002
8.826099e+002, 2.470877e+002
8.830920e+002, 2.500131e+002
8.835741e+002, 2.535875e+002
8.840562e+002, 2.578873e+002
8.845383e+002, 2.631931e+002
8.850204e+002, 2.690678e+002
8.855026e+002, 2.745755e+002
8.859847e+002, 2.797340e+002
8.864668e+002, 2.850435e+002
8.869489e+002, 2.910247e+002
8.874310e+002, 2.963340e+002
8.879131e+002, 2.997985e+002
8.883953e+002, 3.014585e+002
8.888774e+002, 3.013949e+002
8.893595e+002, 2.994303e+002
8.898416e+002, 2.959693e+002
8.903237e+002, 2.906516e+002
8.908058e+002, 2.843027e+002
8.912880e+002, 2.774220e+002
8.917701e+002, 2.699547e+002
8.922522e+002, 2.630612e+002
8.927343e+002, 2.567920e+002
8.932164e+002, 2.511687e+002
8.936985e+002, 2.463846e+002
8.941807e+002, 2.422002e+002
8.946628e+002, 2.382139e+002
8.951449e+002, 2.343969e+002
8.956270e+002, 2.307195e+002
8.961091e+002, 2.269031e+002
8.965912e+002, 2.234414e+002
8.970734e+002, 2.205825e+002
8.975555e+002, 2.183768e+002
8.980376e+002, 2.164856e+002
8.985197e+002, 2.149556e+002
8.990018e+002, 2.135680e+002
8.994839e+002, 2.119674e+002
8.999661e+002, 2.105097e+002
9.004482e+002, 2.101493e+002
9.009303e+002, 2.106995e+002
9.014124e+002, 2.109217e+002
9.018945e+002, 2.098422e+002
9.023766e+002, 2.086513e+002
9.028588e+002, 2.078067e+002
9.033409e+002, 2.073152e+002
9.038230e+002, 2.071774e+002
9.043051e+002, 2.074455e+002
9.047872e+002, 2.078755e+002
9.052693e+002, 2.085058e+002
9.057515e+002, 2.091036e+002
9.062336e+002, 2.089159e+002
9.067157e+002, 2.082841e+002
9.071978e+002, 2.082203e+002
9.076799e+002, 2.097950e+002
9.081620e+002, 2.111981e+002
9.086442e+002, 2.116010e+002
9.091263e+002, 2.113109e+002
9.096084e+002, 2.108022e+002
9.100905e+002, 2.097747e+002
9.105726e+002, 2.094623e+002
9.110547e+002, 2.101384e+002
9.115369e+002, 2.111595e+002
9.120190e+002, 2.118547e+002
9.125011e+002, 2.121994e+002
9.129832e+002, 2.119782e+002
9.134653e+002, 2.110461e+002
9.139474e+002, 2.102936e+002
9.144296e+002, 2.103109e+002
9.149117e+002, 2.107334e+002
9.153938e+002, 2.113507e+002
9.158759e+002, 2.122808e+002
9.163580e+002, 2.126335e+002
9.168401e+002, 2.120509e+002
9.173223e+002, 2.117671e+002
9.178044e+002, 2.129147e+002
9.182865e+002, 2.150528e+002
9.187686e+002, 2.166811e+002
9.192507e+002, 2.177931e+002
9.197328e+002, 2.184915e+002
9.202150e+002, 2.181133e+002
9.206971e+002, 2.180034e+002
9.211792e+002, 2.192970e+002
9.216613e+002, 2.218036e+002
9.221434e+002, 2.236825e+002
9.226255e+002, 2.245968e+002
9.231077e+002, 2.255413e+002
9.235898e+002, 2.265859e+002
9.240719e+002, 2.280681e+002
9.245540e+002, 2.312564e+002
9.250361e+002, 2.357227e+002
9.255182e+002, 2.395859e+002
9.260004e+002, 2.416049e+002
9.264825e+002, 2.437766e+002
9.269646e+002, 2.473671e+002
9.274467e+002, 2.519364e+002
9.279288e+002, 2.568434e+002
9.284109e+002, 2.624592e+002
9.288931e+002, 2.674603e+002
9.293752e+002, 2.714896e+002
9.298573e+002, 2.754173e+002
9.303394e+002, 2.801579e+002
9.308215e+002, 2.856371e+002
9.313036e+002, 2.918020e+002
9.317858e+002, 2.986900e+002
9.322679e+002, 3.059748e+002
9.327500e+002, 3.133270e+002
9.332321e+002, 3.211457e+002
9.337142e+002, 3.301198e+002
9.341964e+002, 3.404283e+002
9.346785e+002, 3.503988e+002
9.351606e+002, 3.600382e+002
9.356427e+002, 3.691814e+002
9.361248e+002, 3.779596e+002
9.366069e+002, 3.860785e+002
9.370891e+002, 3.924064e+002
9.375712e+002, 3.969242e+002
9.380533e+002, 3.990676e+002
9.385354e+002, 3.984025e+002
9.390175e+002, 3.954154e+002
9.394996e+002, 3.894260e+002
9.399818e+002, 3.812788e+002
9.404639e+002, 3.734523e+002
9.409460e+002, 3.659720e+002
9.414281e+002, 3.590567e+002
9.419102e+002, 3.525099e+002
9.423923e+002, 3.471149e+002
9.428745e+002, 3.440624e+002
9.433566e+002, 3.431972e+002
9.438387e+002, 3.442858e+002
9.443208e+002, 3.474630e+002
9.448029e+002, 3.518113e+002
9.452850e+002, 3.564701e+002
9.457672e+002, 3.623329e+002
9.462493e+002, 3.703351e+002
9.467314e+002, 3.805420e+002
9.472135e+002, 3.922433e+002
9.476956e+002, 4.053573e+002
9.481777e+002, 4.201786e+002
9.486599e+002, 4.367952e+002
9.491420e+002, 4.550426e+002
9.496241e+002, 4.740038e+002
9.501062e+002, 4.938584e+002
9.505883e+002, 5.161378e+002
9.510704e+002, 5.416038e+002
9.515526e+002, 5.698616e+002
9.520347e+002, 6.003065e+002
9.525168e+002, 6.332278e+002
9.529989e+002, 6.699355e+002
9.534810e+002, 7.108251e+002
9.539631e+002, 7.536360e+002
9.544453e+002, 7.977783e+002
9.549274e+002, 8.434014e+002
9.554095e+002, 8.918205e+002
9.558916e+002, 9.416053e+002
9.563737e+002, 9.911875e+002
9.568558e+002, 1.043449e+003
9.573380e+002, 1.089063e+003
9.578201e+002, 1.129253e+003
9.583022e+002, 1.158390e+003
9.587843e+002, 1.171858e+003
9.592664e+002, 1.169653e+003
9.597485e+002, 1.150155e+003
9.602307e+002, 1.112651e+003
9.607128e+002, 1.064062e+003
9.611949e+002, 1.006746e+003
9.616770e+002, 9.439246e+002
9.621591e+002, 8.789515e+002
9.626412e+002, 8.119870e+002
9.631234e+002, 7.497099e+002
9.636055e+002, 6.938815e+002
9.640876e+002, 6.432800e+002
9.645697e+002, 5.966980e+002
9.650518e+002, 5.546714e+002
9.655339e+002, 5.181289e+002
9.660161e+002, 4.869521e+002
9.664982e+002, 4.596887e+002
9.669803e+002, 4.362899e+002
9.674624e+002, 4.156632e+002
9.679445e+002, 3.977415e+002
9.684266e+002, 3.817051e+002
9.689088e+002, 3.665699e+002
9.693909e+002, 3.511097e+002
9.698730e+002, 3.378458e+002
9.703551e+002, 3.271376e+002
9.708372e+002, 3.181346e+002
9.713193e+002, 3.097445e+002
9.718015e+002, 3.020621e+002
9.722836e+002, 2.953928e+002
9.727657e+002, 2.898106e+002
9.732478e+002, 2.848002e+002
9.737299e+002, 2.795376e+002
9.742120e+002, 2.749261e+002
9.746942e+002, 2.721403e+002
9.751763e+002, 2.712626e+002
9.756584e+002, 2.692655e+002
9.761405e+002, 2.650869e+002
9.766226e+002, 2.617746e+002
9.771047e+002, 2.606299e+002
9.775869e+002, 2.609370e+002
9.780690e+002, 2.608571e+002
9.785511e+002, 2.605331e+002
9.790332e+002, 2.605156e+002
9.795153e+002, 2.612162e+002
9.799974e+002, 2.619958e+002
9.804796e+002, 2.624985e+002
9.809617e+002, 2.628805e+002
9.814438e+002, 2.633986e+002
9.819259e+002, 2.642342e+002
9.824080e+002, 2.647162e+002
9.828901e+002, 2.648424e+002
9.833723e+002, 2.645298e+002
9.838544e+002, 2.633123e+002
9.843365e+002, 2.617355e+002
9.848186e+002, 2.609903e+002
9.853007e+002, 2.611449e+002
9.857828e+002, 2.610319e+002
9.862650e+002, 2.603138e+002
9.867471e+002, 2.589950e+002
9.872292e+002, 2.569973e+002
9.877113e+002, 2.544370e+002
9.881934e+002, 2.517681e+002
9.886755e+002, 2.489624e+002
9.891577e+002, 2.466967e+002
9.896398e+002, 2.454639e+002
9.901219e+002, 2.445356e+002
9.906040e+002, 2.428970e+002
9.910861e+002, 2.409911e+002
9.915682e+002, 2.395690e+002
9.920504e+002, 2.389930e+002
9.925325e+002, 2.386946e+002
9.930146e+002, 2.385172e+002
9.934967e+002, 2.387116e+002
9.939788e+002, 2.398518e+002
9.944609e+002, 2.417411e+002
9.949431e+002, 2.424678e+002
9.954252e+002, 2.419405e+002
9.959073e+002, 2.413134e+002
9.963894e+002, 2.418486e+002
9.968715e+002, 2.422625e+002
9.973536e+002, 2.416641e+002
9.978358e+002, 2.399916e+002
9.983179e+002, 2.375891e+002
9.988000e+002, 2.340905e+002
9.992821e+002, 2.308867e+002
9.997642e+002, 2.284581e+002
1.000246e+003, 2.263806e+002
1.000728e+003, 2.238143e+002
1.001211e+003, 2.209458e+002
1.001693e+003, 2.182959e+002
1.002175e+003, 2.158052e+002
1.002657e+003, 2.139893e+002
1.003139e+003, 2.135315e+002
1.003621e+003, 2.135717e+002
1.004103e+003, 2.133950e+002
1.004585e+003, 2.130317e+002
1.005068e+003, 2.121629e+002
1.005550e+003, 2.107240e+002
1.006032e+003, 2.093219e+002
1.006514e+003, 2.081608e+002
1.006996e+003, 2.074478e+002
1.007478e+003, 2.076524e+002
1.007960e+003, 2.086194e+002
1.008442e+003, 2.094334e+002
1.008924e+003, 2.097482e+002
1.009407e+003, 2.099980e+002
1.009889e+003, 2.102461e+002
1.010371e+003, 2.104995e+002
1.010853e+003, 2.107251e+002
1.011335e+003, 2.109568e+002
1.011817e+003, 2.114279e+002
1.012299e+003, 2.122577e+002
1.012781e+003, 2.130759e+002
1.013263e+003, 2.136343e+002
1.013746e+003, 2.140442e+002
1.014228e+003, 2.145208e+002
1.014710e+003, 2.152549e+002
1.015192e+003, 2.149906e+002
1.015674e+003, 2.134400e+002
1.016156e+003, 2.118377e+002
1.016638e+003, 2.110010e+002
1.017120e+003, 2.105866e+002
1.017603e+003, 2.099168e+002
1.018085e+003, 2.090137e+002
1.018567e+003, 2.079831e+002
1.019049e+003, 2.064894e+002
1.019531e+003, 2.053376e+002
1.020013e+003, 2.050098e+002
1.020495e+003, 2.049631e+002
1.020977e+003, 2.043033e+002
1.021459e+003, 2.030023e+002
1.021942e+003, 2.021971e+002
1.022424e+003, 2.020532e+002
1.022906e+003, 2.022172e+002
1.023388e+003, 2.025967e+002
1.023870e+003, 2.029614e+002
1.024352e+003, 2.032141e+002
1.024834e+003, 2.033714e+002
1.025316e+003, 2.026342e+002
1.025799e+003, 2.002986e+002
1.026281e+003, 1.985194e+002
1.026763e+003, 1.983113e+002
1.027245e+003, 1.991068e+002
1.027727e+003, 1.995889e+002
1.028209e+003, 1.997884e+002
1.028691e+003, 1.997851e+002
1.029173e+003, 1.994394e+002
1.029656e+003, 1.991697e+002
1.030138e+003, 1.993973e+002
1.030620e+003, 1.996470e+002
1.031102e+003, 1.993245e+002
1.031584e+003, 1.982154e+002
1.032066e+003, 1.978955e+002
1.032548e+003, 1.984934e+002
1.033030e+003, 1.989055e+002
1.033512e+003, 1.975486e+002
1.033995e+003, 1.959334e+002
1.034477e+003, 1.962898e+002
1.034959e+003, 1.982982e+002
1.035441e+003, 1.993874e+002
1.035923e+003, 1.980041e+002
1.036405e+003, 1.971806e+002
1.036887e+003, 1.977830e+002
1.037369e+003, 1.989346e+002
1.037851e+003, 1.987038e+002
1.038334e+003, 1.975018e+002
1.038816e+003, 1.969647e+002
1.039298e+003, 1.976022e+002
1.039780e+003, 1.982819e+002
1.040262e+003, 1.984437e+002
1.040744e+003, 1.982555e+002
1.041226e+003, 1.977470e+002
1.041708e+003, 1.968862e+002
1.042191e+003, 1.964537e+002
1.042673e+003, 1.964562e+002
1.043155e+003, 1.967924e+002
1.043637e+003, 1.977756e+002
1.044119e+003, 1.987428e+002
1.044601e+003, 1.985486e+002
1.045083e+003, 1.976408e+002
1.045565e+003, 1.970527e+002
1.046047e+003, 1.977198e+002
1.046530e+003, 1.977254e+002
1.047012e+003, 1.965197e+002
1.047494e+003, 1.951962e+002
1.047976e+003, 1.951298e+002
1.048458e+003, 1.960469e+002
1.048940e+003, 1.966940e+002
1.049422e+003, 1.969747e+002
1.049904e+003, 1.969893e+002
1.050386e+003, 1.966187e+002
1.050869e+003, 1.961696e+002
1.051351e+003, 1.956015e+002
1.051833e+003, 1.950890e+002
1.052315e+003, 1.955753e+002
1.052797e+003, 1.972714e+002
1.053279e+003, 1.983520e+002
1.053761e+003, 1.982869e+002
1.054243e+003, 1.975606e+002
1.054726e+003, 1.962226e+002
1.055208e+003, 1.948617e+002
1.055690e+003, 1.943793e+002
1.056172e+003, 1.952755e+002
1.056654e+003, 1.960635e+002
1.057136e+003, 1.966415e+002
1.057618e+003, 1.970447e+002
1.058100e+003, 1.973038e+002
1.058583e+003, 1.974041e+002
1.059065e+003, 1.971480e+002
1.059547e+003, 1.966363e+002
1.060029e+003, 1.963320e+002
1.060511e+003, 1.966366e+002
1.060993e+003, 1.970182e+002
1.061475e+003, 1.974893e+002
1.061957e+003, 1.977824e+002
1.062439e+003, 1.973645e+002
1.062922e+003, 1.960746e+002
1.063404e+003, 1.956469e+002
1.063886e+003, 1.962931e+002
1.064368e+003, 1.970905e+002
1.064850e+003, 1.972923e+002
1.065332e+003, 1.971864e+002
1.065814e+003, 1.969919e+002
1.066296e+003, 1.967395e+002
1.066778e+003, 1.965505e+002
1.067261e+003, 1.964091e+002
1.067743e+003, 1.963907e+002
1.068225e+003, 1.965694e+002
1.068707e+003, 1.967836e+002
1.069189e+003, 1.967076e+002
1.069671e+003, 1.964331e+002
1.070153e+003, 1.961143e+002
1.070635e+003, 1.956855e+002
1.071118e+003, 1.956178e+002
1.071600e+003, 1.965664e+002
1.072082e+003, 1.974942e+002
1.072564e+003, 1.977822e+002
1.073046e+003, 1.974849e+002
1.073528e+003, 1.972104e+002
1.074010e+003, 1.969732e+002
1.074492e+003, 1.969209e+002
1.074974e+003, 1.973492e+002
1.075457e+003, 1.977515e+002
1.075939e+003, 1.975893e+002
1.076421e+003, 1.972031e+002
1.076903e+003, 1.972280e+002
1.077385e+003, 1.979909e+002
1.077867e+003, 1.981414e+002
1.078349e+003, 1.974707e+002
1.078831e+003, 1.968193e+002
1.079313e+003, 1.971237e+002
1.079796e+003, 1.978530e+002
1.080278e+003, 1.983535e+002
1.080760e+003, 1.985581e+002
1.081242e+003, 1.983068e+002
1.081724e+003, 1.968295e+002
1.082206e+003, 1.958619e+002
1.082688e+003, 1.958901e+002
1.083170e+003, 1.964459e+002
1.083652e+003, 1.967573e+002
1.084135e+003, 1.968632e+002
1.084617e+003, 1.968349e+002
1.085099e+003, 1.966464e+002
1.085581e+003, 1.966473e+002
1.086063e+003, 1.973014e+002
1.086545e+003, 1.979771e+002
1.087027e+003, 1.983312e+002
1.087509e+003, 1.983665e+002
1.087992e+003, 1.980484e+002
1.088474e+003, 1.973730e+002
1.088956e+003, 1.967005e+002
1.089438e+003, 1.960356e+002
1.089920e+003, 1.956807e+002
1.090402e+003, 1.961723e+002
1.090884e+003, 1.970467e+002
1.091366e+003, 1.976709e+002
1.091849e+003, 1.979107e+002
1.092331e+003, 1.980227e+002
1.092813e+003, 1.979791e+002
1.093295e+003, 1.979018e+002
1.093777e+003, 1.980184e+002
1.094259e+003, 1.980932e+002
1.094741e+003, 1.973527e+002
1.095223e+003, 1.961306e+002
1.095705e+003, 1.955999e+002
1.096188e+003, 1.971107e+002
1.096670e+003, 1.980614e+002
1.097152e+003, 1.977545e+002
1.097634e+003, 1.970961e+002
1.098116e+003, 1.974376e+002
1.098598e+003, 1.984905e+002
1.099080e+003, 1.987880e+002
1.099562e+003, 1.982087e+002
1.100044e+003, 1.976696e+002
1.100527e+003, 1.981019e+002
1.101009e+003, 1.983448e+002
1.101491e+003, 1.974464e+002
1.101973e+003, 1.959232e+002
1.102455e+003, 1.954959e+002
1.102937e+003, 1.961738e+002
1.103419e+003, 1.969444e+002
1.103901e+003, 1.976348e+002
1.104384e+003, 1.980347e+002
1.104866e+003, 1.976555e+002
1.105348e+003, 1.970604e+002
1.105830e+003, 1.968147e+002
1.106312e+003, 1.970148e+002
1.106794e+003, 1.972965e+002
1.107276e+003, 1.977103e+002
1.107758e+003, 1.979933e+002
1.108240e+003, 1.979685e+002
1.108723e+003, 1.978161e+002
1.109205e+003, 1.979348e+002
1.109687e+003, 1.981163e+002
1.110169e+003, 1.979389e+002
1.110651e+003, 1.968292e+002
1.111133e+003, 1.962282e+002
1.111615e+003, 1.964054e+002
1.112097e+003, 1.967644e+002
1.112579e+003, 1.968081e+002
1.113062e+003, 1.966617e+002
1.113544e+003, 1.968600e+002
1.114026e+003, 1.973138e+002
1.114508e+003, 1.975691e+002
1.114990e+003, 1.970334e+002
1.115472e+003, 1.967439e+002
1.115954e+003, 1.972989e+002
1.116436e+003, 1.980374e+002
1.116919e+003, 1.980884e+002
1.117401e+003, 1.974962e+002
1.117883e+003, 1.967314e+002
1.118365e+003, 1.958369e+002
1.118847e+003, 1.952487e+002
1.119329e+003, 1.954788e+002
1.119811e+003, 1.959358e+002
1.120293e+003, 1.963725e+002
1.120776e+003, 1.967056e+002
1.121258e+003, 1.965989e+002
1.121740e+003, 1.959724e+002
1.122222e+003, 1.957478e+002
1.122704e+003, 1.962129e+002
1.123186e+003, 1.966920e+002
1.123668e+003, 1.962087e+002
1.124150e+003, 1.955525e+002
1.124632e+003, 1.957422e+002
1.125115e+003, 1.970107e+002
1.125597e+003, 1.973672e+002
1.126079e+003, 1.964846e+002
1.126561e+003, 1.957183e+002
1.127043e+003, 1.956098e+002
1.127525e+003, 1.958479e+002
1.128007e+003, 1.959927e+002
1.128489e+003, 1.960932e+002
1.128971e+003, 1.962565e+002
1.129454e+003, 1.966353e+002
1.129936e+003, 1.967079e+002
1.130418e+003, 1.962751e+002
1.130900e+003, 1.958581e+002
1.131382e+003, 1.958353e+002
1.131864e+003, 1.960427e+002
1.132346e+003, 1.960237e+002
1.132828e+003, 1.957950e+002
1.133311e+003, 1.954130e+002
1.133793e+003, 1.942821e+002
1.134275e+003, 1.938605e+002
1.134757e+003, 1.948808e+002
1.135239e+003, 1.962405e+002
1.135721e+003, 1.969433e+002
1.136203e+003, 1.970424e+002
1.136685e+003, 1.970354e+002
1.137167e+003, 1.969364e+002
1.137650e+003, 1.967665e+002
1.138132e+003, 1.960823e+002
1.138614e+003, 1.958265e+002
1.139096e+003, 1.970134e+002
1.139578e+003, 1.986764e+002
1.140060e+003, 1.991965e+002
1.140542e+003, 1.985534e+002
1.141024e+003, 1.980847e+002
1.141506e+003, 1.979385e+002
1.141989e+003, 1.978798e+002
1.142471e+003, 1.976329e+002
1.142953e+003, 1.974825e+002
1.143435e+003, 1.980600e+002
1.143917e+003, 1.989855e+002
1.144399e+003, 1.982068e+002
1.144881e+003, 1.953070e+002
1.145363e+003, 1.936611e+002
1.145846e+003, 1.941778e+002
1.146328e+003, 1.954895e+002
1.146810e+003, 1.965867e+002
1.147292e+003, 1.973626e+002
1.147774e+003, 1.975704e+002
1.148256e+003, 1.971196e+002
1.148738e+003, 1.971201e+002
1.149220e+003, 1.977770e+002
1.149703e+003, 1.981573e+002
1.150185e+003, 1.978051e+002
1.150667e+003, 1.972742e+002
1.151149e+003, 1.975432e+002
1.151631e+003, 1.981357e+002
1.152113e+003, 1.982086e+002
1.152595e+003, 1.972817e+002
1.153077e+003, 1.970522e+002
1.153559e+003, 1.980739e+002
1.154042e+003, 1.986889e+002
1.154524e+003, 1.976363e+002
1.155006e+003, 1.959294e+002
1.155488e+003, 1.960796e+002
1.155970e+003, 1.973922e+002
1.156452e+003, 1.981586e+002
1.156934e+003, 1.973244e+002
1.157416e+003, 1.968564e+002
1.157898e+003, 1.971780e+002
1.158381e+003, 1.976073e+002
1.158863e+003, 1.976077e+002
1.159345e+003, 1.972917e+002
1.159827e+003, 1.970025e+002
1.160309e+003, 1.967863e+002
1.160791e+003, 1.968403e+002
1.161273e+003, 1.974704e+002
1.161755e+003, 1.981100e+002
1.162238e+003, 1.987646e+002
1.162720e+003, 1.992054e+002
1.163202e+003, 1.990973e+002
1.163684e+003, 1.985219e+002
1.164166e+003, 1.978492e+002
1.164648e+003, 1.971538e+002
1.165130e+003, 1.969724e+002
1.165612e+003, 1.985909e+002
1.166094e+003, 1.996304e+002
1.166577e+003, 1.984329e+002
1.167059e+003, 1.965034e+002
1.167541e+003, 1.963857e+002
1.168023e+003, 1.979027e+002
1.168505e+003, 1.987113e+002
1.168987e+003, 1.985721e+002
1.169469e+003, 1.983687e+002
1.169951e+003, 1.985020e+002
1.170433e+003, 1.989757e+002
1.170916e+003, 2.003559e+002
1.171398e+003, 2.019390e+002
1.171880e+003, 2.016444e+002
1.172362e+003, 1.995047e+002
1.172844e+003, 1.981133e+002
1.173326e+003, 1.980091e+002
1.173808e+003, 1.983150e+002
1.174290e+003, 1.984334e+002
1.174773e+003, 1.985657e+002
1.175255e+003, 1.990396e+002
1.175737e+003, 1.997087e+002
1.176219e+003, 1.996623e+002
1.176701e+003, 1.988621e+002
1.177183e+003, 1.981215e+002
1.177665e+003, 1.976250e+002
1.178147e+003, 1.973679e+002
1.178630e+003, 1.973497e+002
1.179112e+003, 1.975637e+002
1.179594e+003, 1.981494e+002
1.180076e+003, 1.990975e+002
1.180558e+003, 1.995561e+002
1.181040e+003, 1.994933e+002
1.181522e+003, 1.992468e+002
1.182004e+003, 1.987885e+002
1.182486e+003, 1.985426e+002
1.182969e+003, 1.993970e+002
1.183451e+003, 2.004888e+002
1.183933e+003, 2.006814e+002
1.184415e+003, 1.997041e+002
1.184897e+003, 1.988656e+002
1.185379e+003, 1.981250e+002
1.185861e+003, 1.977473e+002
1.186343e+003, 1.980429e+002
1.186825e+003, 1.985330e+002
1.187308e+003, 1.985755e+002
1.187790e+003, 1.984560e+002
1.188272e+003, 1.986587e+002
1.188754e+003, 1.994581e+002
1.189236e+003, 1.998930e+002
1.189718e+003, 1.998865e+002
1.190200e+003, 1.999058e+002
1.190682e+003, 2.005254e+002
1.191165e+003, 2.011182e+002
1.191647e+003, 2.006131e+002
1.192129e+003, 1.995269e+002
1.192611e+003, 1.989189e+002
1.193093e+003, 1.993103e+002
1.193575e+003, 1.994111e+002
1.194057e+003, 1.991385e+002
1.194539e+003, 1.988480e+002
1.195021e+003, 1.989816e+002
1.195504e+003, 1.991474e+002
1.195986e+003, 1.985191e+002
1.196468e+003, 1.974724e+002
1.196950e+003, 1.971662e+002
1.197432e+003, 1.981670e+002
1.197914e+003, 1.991297e+002
1.198396e+003, 2.000952e+002
1.198878e+003, 2.005673e+002
1.199360e+003, 1.993330e+002
1.199843e+003, 1.977757e+002
1.200325e+003, 1.983826e+002
1.200807e+003, 2.005800e+002
1.201289e+003, 2.016548e+002
1.201771e+003, 2.005196e+002
1.202253e+003, 1.996940e+002
1.202735e+003, 1.994902e+002
1.203217e+003, 1.995456e+002
1.203700e+003, 1.996647e+002
1.204182e+003, 1.996719e+002
1.204664e+003, 1.990993e+002
1.205146e+003, 1.980724e+002
1.205628e+003, 1.975771e+002
1.206110e+003, 1.979047e+002
1.206592e+003, 1.984170e+002
1.207074e+003, 1.990516e+002
1.207557e+003, 1.997295e+002
1.208039e+003, 2.004618e+002
1.208521e+003, 2.011110e+002
1.209003e+003, 2.014772e+002
1.209485e+003, 2.015483e+002
1.209967e+003, 2.014094e+002
1.210449e+003, 2.007744e+002
1.210931e+003, 2.007898e+002
1.211413e+003, 2.019814e+002
1.211896e+003, 2.031400e+002
1.212378e+003, 2.022056e+002
1.212860e+003, 2.004349e+002
1.213342e+003, 1.997688e+002
1.213824e+003, 2.004233e+002
1.214306e+003, 2.007702e+002
1.214788e+003, 2.004966e+002
1.215270e+003, 2.003011e+002
1.215752e+003, 2.003670e+002
1.216235e+003, 2.005958e+002
1.216717e+003, 2.009874e+002
1.217199e+003, 2.013840e+002
1.217681e+003, 2.015866e+002
1.218163e+003, 2.015675e+002
1.218645e+003, 2.012024e+002
1.219127e+003, 2.002859e+002
1.219609e+003, 1.996919e+002
1.220092e+003, 1.997806e+002
1.220574e+003, 2.001197e+002
1.221056e+003, 2.000049e+002
1.221538e+003, 1.997496e+002
1.222020e+003, 1.997844e+002
1.222502e+003, 2.001962e+002
1.222984e+003, 2.009677e+002
1.223466e+003, 2.024134e+002
1.223948e+003, 2.030307e+002
1.224431e+003, 2.019669e+002
1.224913e+003, 2.004280e+002
1.225395e+003, 1.998857e+002
1.225877e+003, 2.001346e+002
1.226359e+003, 2.010149e+002
1.226841e+003, 2.026994e+002
1.227323e+003, 2.040783e+002
1.227805e+003, 2.052736e+002
1.228287e+003, 2.055572e+002
1.228770e+003, 2.043161e+002
1.229252e+003, 2.025838e+002
1.229734e+003, 2.015274e+002
1.230216e+003, 2.010071e+002
1.230698e+003, 2.009970e+002
1.231180e+003, 2.017146e+002
1.231662e+003, 2.015000e+002
1.232144e+003, 2.001051e+002
1.232627e+003, 1.992358e+002
1.233109e+003, 1.998908e+002
1.233591e+003, 2.010745e+002
1.234073e+003, 2.016640e+002
1.234555e+003, 2.020133e+002
1.235037e+003, 2.027000e+002
1.235519e+003, 2.039320e+002
1.236001e+003, 2.045166e+002
1.236484e+003, 2.044189e+002
1.236966e+003, 2.039428e+002
1.237448e+003, 2.029803e+002
1.237930e+003, 2.021102e+002
1.238412e+003, 2.021018e+002
1.238894e+003, 2.024417e+002
1.239376e+003, 2.024171e+002
1.239858e+003, 2.019467e+002
1.240340e+003, 2.014191e+002
1.240823e+003, 2.008228e+002
1.241305e+003, 2.005244e+002
1.241787e+003, 2.008973e+002
1.242269e+003, 2.013898e+002
1.242751e+003, 2.014316e+002
1.243233e+003, 2.013783e+002
1.243715e+003, 2.017436e+002
1.244197e+003, 2.026160e+002
1.244679e+003, 2.029536e+002
1.245162e+003, 2.027696e+002
1.245644e+003, 2.025497e+002
1.246126e+003, 2.026243e+002
1.246608e+003, 2.026661e+002
1.247090e+003, 2.023055e+002
1.247572e+003, 2.019064e+002
1.248054e+003, 2.019422e+002
1.248536e+003, 2.024462e+002
1.249019e+003, 2.024223e+002
1.249501e+003, 2.019433e+002
1.249983e+003, 2.017703e+002
1.250465e+003, 2.024842e+002
1.250947e+003, 2.034128e+002
1.251429e+003, 2.045864e+002
1.251911e+003, 2.055014e+002
1.252393e+003, 2.055835e+002
1.252875e+003, 2.048822e+002
1.253358e+003, 2.042846e+002
1.253840e+003, 2.038199e+002
1.254322e+003, 2.036809e+002
1.254804e+003, 2.042561e+002
1.255286e+003, 2.047969e+002
1.255768e+003, 2.050931e+002
1.256250e+003, 2.052018e+002
1.256732e+003, 2.051949e+002
1.257214e+003, 2.050400e+002
1.257697e+003, 2.042969e+002
1.258179e+003, 2.031538e+002
1.258661e+003, 2.024748e+002
1.259143e+003, 2.029000e+002
1.259625e+003, 2.035102e+002
1.260107e+003, 2.042456e+002
1.260589e+003, 2.049111e+002
1.261071e+003, 2.053448e+002
1.261554e+003, 2.055753e+002
1.262036e+003, 2.056191e+002
1.262518e+003, 2.055309e+002
1.263000e+003, 2.054957e+002
1.263482e+003, 2.059763e+002
1.263964e+003, 2.057671e+002
1.264446e+003, 2.044013e+002
1.264928e+003, 2.032040e+002
1.265411e+003, 2.034725e+002
1.265893e+003, 2.045737e+002
1.266375e+003, 2.055762e+002
1.266857e+003, 2.063697e+002
1.267339e+003, 2.066849e+002
1.267821e+003, 2.061398e+002
1.268303e+003, 2.056529e+002
1.268785e+003, 2.052311e+002
1.269267e+003, 2.049304e+002
1.269750e+003, 2.047099e+002
1.270232e+003, 2.047088e+002
1.270714e+003, 2.053653e+002
1.271196e+003, 2.063397e+002
1.271678e+003, 2.067605e+002
1.272160e+003, 2.062029e+002
1.272642e+003, 2.063612e+002
1.273124e+003, 2.073609e+002
1.273606e+003, 2.083018e+002
1.274089e+003, 2.085684e+002
1.274571e+003, 2.084484e+002
1.275053e+003, 2.078765e+002
1.275535e+003, 2.072253e+002
1.276017e+003, 2.072444e+002
1.276499e+003, 2.081758e+002
1.276981e+003, 2.079975e+002
1.277463e+003, 2.066913e+002
1.277946e+003, 2.055620e+002
1.278428e+003, 2.052834e+002
1.278910e+003, 2.056650e+002
1.279392e+003, 2.074072e+002
1.279874e+003, 2.092039e+002
1.280356e+003, 2.093213e+002
1.280838e+003, 2.078164e+002
1.281320e+003, 2.072863e+002
1.281802e+003, 2.076898e+002
1.282285e+003, 2.082697e+002
1.282767e+003, 2.090396e+002
1.283249e+003, 2.093551e+002
1.283731e+003, 2.088849e+002
1.284213e+003, 2.079731e+002
1.284695e+003, 2.064892e+002
1.285177e+003, 2.047807e+002
1.285659e+003, 2.048079e+002
1.286141e+003, 2.062167e+002
1.286624e+003, 2.075138e+002
1.287106e+003, 2.081014e+002
1.287588e+003, 2.084212e+002
1.288070e+003, 2.084657e+002
1.288552e+003, 2.084490e+002
1.289034e+003, 2.086366e+002
1.289516e+003, 2.088486e+002
1.289998e+003, 2.084872e+002
1.290481e+003, 2.078264e+002
1.290963e+003, 2.075766e+002
1.291445e+003, 2.084529e+002
1.291927e+003, 2.087224e+002
1.292409e+003, 2.081504e+002
1.292891e+003, 2.078738e+002
1.293373e+003, 2.092370e+002
1.293855e+003, 2.109286e+002
1.294338e+003, 2.111451e+002
1.294820e+003, 2.105057e+002
1.295302e+003, 2.101620e+002
1.295784e+003, 2.102229e+002
1.296266e+003, 2.105745e+002
1.296748e+003, 2.112469e+002
1.297230e+003, 2.116596e+002
1.297712e+003, 2.110962e+002
1.298194e+003, 2.105566e+002
1.298677e+003, 2.111601e+002
1.299159e+003, 2.120093e+002
1.299641e+003, 2.119550e+002
1.300123e+003, 2.109668e+002
1.300605e+003, 2.101071e+002
1.301087e+003, 2.094026e+002
1.301569e+003, 2.091463e+002
1.302051e+003, 2.101382e+002
1.302533e+003, 2.105335e+002
1.303016e+003, 2.096768e+002
##END=



