##NAMES=Barylite
##RRUFFID=R060620
##IDEAL CHEMISTRY=BaBe_2_Si_2_O_7_
##LOCALITY=Zomba, Malawi
##OWNER=RRUFF
##SOURCE=Michael Scott
##DESCRIPTION=Colorless long prismatic single crystals associated with aegirine
##STATUS=The identification of this mineral is confirmed by single-crystal X-ray diffraction and chemical analysis.
##URL=rruff.info/R060620
##MEASURED CHEMISTRY=Ba_1.00_Be_2.00_Si_2.00_O_7_ ; Be not measured but estimated by difference and stoichiometry
9.112140e+001, 0.000000e+000
9.160352e+001, 9.665740e+002
9.208563e+001, 9.429188e+002
9.256775e+001, 9.399987e+002
9.304987e+001, 9.687059e+002
9.353198e+001, 1.004018e+003
9.401410e+001, 1.027307e+003
9.449622e+001, 1.038561e+003
9.497833e+001, 1.042325e+003
9.546045e+001, 1.042120e+003
9.594257e+001, 1.037821e+003
9.642468e+001, 1.034859e+003
9.690680e+001, 1.035789e+003
9.738892e+001, 1.036610e+003
9.787103e+001, 1.035904e+003
9.835315e+001, 1.032610e+003
9.883527e+001, 1.027386e+003
9.931738e+001, 1.023913e+003
9.979950e+001, 1.023254e+003
1.002816e+002, 1.021996e+003
1.007637e+002, 1.018882e+003
1.012458e+002, 1.015509e+003
1.017280e+002, 1.013338e+003
1.022101e+002, 1.012694e+003
1.026922e+002, 1.012959e+003
1.031743e+002, 1.012962e+003
1.036564e+002, 1.012347e+003
1.041385e+002, 1.012891e+003
1.046207e+002, 1.015431e+003
1.051028e+002, 1.019589e+003
1.055849e+002, 1.024285e+003
1.060670e+002, 1.029306e+003
1.065491e+002, 1.034203e+003
1.070313e+002, 1.038281e+003
1.075134e+002, 1.041293e+003
1.079955e+002, 1.044589e+003
1.084776e+002, 1.048876e+003
1.089597e+002, 1.053572e+003
1.094418e+002, 1.061811e+003
1.099240e+002, 1.074085e+003
1.104061e+002, 1.090067e+003
1.108882e+002, 1.109707e+003
1.113703e+002, 1.132947e+003
1.118524e+002, 1.160021e+003
1.123345e+002, 1.192041e+003
1.128167e+002, 1.234955e+003
1.132988e+002, 1.275143e+003
1.137809e+002, 1.314336e+003
1.142630e+002, 1.349002e+003
1.147451e+002, 1.374538e+003
1.152272e+002, 1.387430e+003
1.157094e+002, 1.388446e+003
1.161915e+002, 1.389820e+003
1.166736e+002, 1.389708e+003
1.171557e+002, 1.391609e+003
1.176378e+002, 1.395229e+003
1.181199e+002, 1.401444e+003
1.186021e+002, 1.412760e+003
1.190842e+002, 1.431625e+003
1.195663e+002, 1.459018e+003
1.200484e+002, 1.488340e+003
1.205305e+002, 1.518550e+003
1.210126e+002, 1.551295e+003
1.214948e+002, 1.588127e+003
1.219769e+002, 1.629359e+003
1.224590e+002, 1.673590e+003
1.229411e+002, 1.719450e+003
1.234232e+002, 1.766835e+003
1.239053e+002, 1.816950e+003
1.243875e+002, 1.867510e+003
1.248696e+002, 1.920891e+003
1.253517e+002, 1.982344e+003
1.258338e+002, 2.050058e+003
1.263159e+002, 2.131810e+003
1.267980e+002, 2.225735e+003
1.272802e+002, 2.333392e+003
1.277623e+002, 2.460339e+003
1.282444e+002, 2.606298e+003
1.287265e+002, 2.768453e+003
1.292086e+002, 2.972896e+003
1.296907e+002, 3.201753e+003
1.301729e+002, 3.492894e+003
1.306550e+002, 3.875098e+003
1.311371e+002, 4.348476e+003
1.316192e+002, 4.886509e+003
1.321013e+002, 5.492533e+003
1.325834e+002, 6.379492e+003
1.330656e+002, 6.885353e+003
1.335477e+002, 7.010454e+003
1.340298e+002, 6.828656e+003
1.345119e+002, 6.308630e+003
1.349940e+002, 5.461837e+003
1.354761e+002, 4.440558e+003
1.359583e+002, 3.596719e+003
1.364404e+002, 2.990558e+003
1.369225e+002, 2.509245e+003
1.374046e+002, 2.184140e+003
1.378867e+002, 1.972940e+003
1.383688e+002, 1.829353e+003
1.388510e+002, 1.736638e+003
1.393331e+002, 1.685864e+003
1.398152e+002, 1.649432e+003
1.402973e+002, 1.626833e+003
1.407794e+002, 1.614373e+003
1.412615e+002, 1.611496e+003
1.417437e+002, 1.617849e+003
1.422258e+002, 1.631916e+003
1.427079e+002, 1.653305e+003
1.431900e+002, 1.682932e+003
1.436721e+002, 1.719562e+003
1.441542e+002, 1.762947e+003
1.446364e+002, 1.813759e+003
1.451185e+002, 1.874448e+003
1.456006e+002, 1.946229e+003
1.460827e+002, 2.020359e+003
1.465648e+002, 2.106568e+003
1.470469e+002, 2.188706e+003
1.475291e+002, 2.249518e+003
1.480112e+002, 2.284715e+003
1.484933e+002, 2.293320e+003
1.489754e+002, 2.270809e+003
1.494575e+002, 2.205569e+003
1.499396e+002, 2.125259e+003
1.504218e+002, 2.035723e+003
1.509039e+002, 1.940268e+003
1.513860e+002, 1.842640e+003
1.518681e+002, 1.743521e+003
1.523502e+002, 1.643577e+003
1.528323e+002, 1.554103e+003
1.533145e+002, 1.475209e+003
1.537966e+002, 1.408503e+003
1.542787e+002, 1.356285e+003
1.547608e+002, 1.316508e+003
1.552429e+002, 1.285274e+003
1.557250e+002, 1.259722e+003
1.562072e+002, 1.240073e+003
1.566893e+002, 1.224444e+003
1.571714e+002, 1.213403e+003
1.576535e+002, 1.204818e+003
1.581356e+002, 1.198461e+003
1.586177e+002, 1.193953e+003
1.590999e+002, 1.190302e+003
1.595820e+002, 1.186507e+003
1.600641e+002, 1.182428e+003
1.605462e+002, 1.180178e+003
1.610283e+002, 1.180525e+003
1.615104e+002, 1.182061e+003
1.619926e+002, 1.184341e+003
1.624747e+002, 1.187254e+003
1.629568e+002, 1.189493e+003
1.634389e+002, 1.189023e+003
1.639210e+002, 1.186024e+003
1.644031e+002, 1.184160e+003
1.648853e+002, 1.184189e+003
1.653674e+002, 1.185674e+003
1.658495e+002, 1.187796e+003
1.663316e+002, 1.190183e+003
1.668137e+002, 1.194067e+003
1.672958e+002, 1.201928e+003
1.677780e+002, 1.212698e+003
1.682601e+002, 1.222147e+003
1.687422e+002, 1.227343e+003
1.692243e+002, 1.229350e+003
1.697064e+002, 1.232307e+003
1.701885e+002, 1.236760e+003
1.706707e+002, 1.242212e+003
1.711528e+002, 1.248426e+003
1.716349e+002, 1.255278e+003
1.721170e+002, 1.262346e+003
1.725991e+002, 1.269403e+003
1.730812e+002, 1.276458e+003
1.735634e+002, 1.283274e+003
1.740455e+002, 1.289162e+003
1.745276e+002, 1.295409e+003
1.750097e+002, 1.301680e+003
1.754918e+002, 1.308463e+003
1.759739e+002, 1.317242e+003
1.764561e+002, 1.329644e+003
1.769382e+002, 1.346330e+003
1.774203e+002, 1.364985e+003
1.779024e+002, 1.385814e+003
1.783845e+002, 1.408124e+003
1.788666e+002, 1.433331e+003
1.793488e+002, 1.460541e+003
1.798309e+002, 1.486465e+003
1.803130e+002, 1.506407e+003
1.807951e+002, 1.519507e+003
1.812772e+002, 1.527086e+003
1.817593e+002, 1.526725e+003
1.822415e+002, 1.523229e+003
1.827236e+002, 1.518255e+003
1.832057e+002, 1.512785e+003
1.836878e+002, 1.509488e+003
1.841699e+002, 1.512281e+003
1.846520e+002, 1.522037e+003
1.851342e+002, 1.538158e+003
1.856163e+002, 1.560127e+003
1.860984e+002, 1.588680e+003
1.865805e+002, 1.625708e+003
1.870626e+002, 1.672016e+003
1.875447e+002, 1.724278e+003
1.880269e+002, 1.780565e+003
1.885090e+002, 1.846418e+003
1.889911e+002, 1.896042e+003
1.894732e+002, 1.926930e+003
1.899553e+002, 1.937255e+003
1.904374e+002, 1.920172e+003
1.909196e+002, 1.868610e+003
1.914017e+002, 1.799046e+003
1.918838e+002, 1.730855e+003
1.923659e+002, 1.662950e+003
1.928480e+002, 1.604200e+003
1.933301e+002, 1.558792e+003
1.938123e+002, 1.525954e+003
1.942944e+002, 1.502877e+003
1.947765e+002, 1.490604e+003
1.952586e+002, 1.487077e+003
1.957407e+002, 1.488038e+003
1.962228e+002, 1.493472e+003
1.967050e+002, 1.503996e+003
1.971871e+002, 1.520966e+003
1.976692e+002, 1.544208e+003
1.981513e+002, 1.569952e+003
1.986334e+002, 1.599344e+003
1.991155e+002, 1.629656e+003
1.995977e+002, 1.662752e+003
2.000798e+002, 1.697834e+003
2.005619e+002, 1.725303e+003
2.010440e+002, 1.736334e+003
2.015261e+002, 1.730213e+003
2.020082e+002, 1.712328e+003
2.024904e+002, 1.673537e+003
2.029725e+002, 1.629498e+003
2.034546e+002, 1.584748e+003
2.039367e+002, 1.541037e+003
2.044188e+002, 1.500864e+003
2.049009e+002, 1.467287e+003
2.053831e+002, 1.440555e+003
2.058652e+002, 1.420407e+003
2.063473e+002, 1.409320e+003
2.068294e+002, 1.402158e+003
2.073115e+002, 1.396950e+003
2.077936e+002, 1.393000e+003
2.082758e+002, 1.390032e+003
2.087579e+002, 1.387952e+003
2.092400e+002, 1.388059e+003
2.097221e+002, 1.386035e+003
2.102042e+002, 1.380737e+003
2.106863e+002, 1.374526e+003
2.111685e+002, 1.368457e+003
2.116506e+002, 1.362966e+003
2.121327e+002, 1.358480e+003
2.126148e+002, 1.355693e+003
2.130969e+002, 1.355763e+003
2.135790e+002, 1.355282e+003
2.140612e+002, 1.353444e+003
2.145433e+002, 1.351588e+003
2.150254e+002, 1.350754e+003
2.155075e+002, 1.351191e+003
2.159896e+002, 1.352465e+003
2.164717e+002, 1.354089e+003
2.169539e+002, 1.356601e+003
2.174360e+002, 1.358018e+003
2.179181e+002, 1.356577e+003
2.184002e+002, 1.354885e+003
2.188823e+002, 1.355950e+003
2.193644e+002, 1.360514e+003
2.198466e+002, 1.366131e+003
2.203287e+002, 1.368968e+003
2.208108e+002, 1.368043e+003
2.212929e+002, 1.370126e+003
2.217750e+002, 1.380079e+003
2.222571e+002, 1.392020e+003
2.227393e+002, 1.397734e+003
2.232214e+002, 1.394895e+003
2.237035e+002, 1.389577e+003
2.241856e+002, 1.389198e+003
2.246677e+002, 1.393283e+003
2.251498e+002, 1.398338e+003
2.256320e+002, 1.403358e+003
2.261141e+002, 1.408835e+003
2.265962e+002, 1.415776e+003
2.270783e+002, 1.424637e+003
2.275604e+002, 1.434140e+003
2.280425e+002, 1.442323e+003
2.285247e+002, 1.449666e+003
2.290068e+002, 1.459182e+003
2.294889e+002, 1.471601e+003
2.299710e+002, 1.486951e+003
2.304531e+002, 1.505736e+003
2.309352e+002, 1.528600e+003
2.314174e+002, 1.553672e+003
2.318995e+002, 1.581993e+003
2.323816e+002, 1.611664e+003
2.328637e+002, 1.636912e+003
2.333458e+002, 1.659287e+003
2.338279e+002, 1.675576e+003
2.343101e+002, 1.673955e+003
2.347922e+002, 1.647301e+003
2.352743e+002, 1.613187e+003
2.357564e+002, 1.578140e+003
2.362385e+002, 1.544067e+003
2.367206e+002, 1.514799e+003
2.372028e+002, 1.493260e+003
2.376849e+002, 1.478468e+003
2.381670e+002, 1.465861e+003
2.386491e+002, 1.455140e+003
2.391312e+002, 1.447525e+003
2.396133e+002, 1.444139e+003
2.400955e+002, 1.443541e+003
2.405776e+002, 1.443178e+003
2.410597e+002, 1.441220e+003
2.415418e+002, 1.438397e+003
2.420239e+002, 1.438552e+003
2.425060e+002, 1.444813e+003
2.429882e+002, 1.449819e+003
2.434703e+002, 1.450546e+003
2.439524e+002, 1.448958e+003
2.444345e+002, 1.447920e+003
2.449166e+002, 1.449094e+003
2.453987e+002, 1.452054e+003
2.458809e+002, 1.454822e+003
2.463630e+002, 1.457552e+003
2.468451e+002, 1.459820e+003
2.473272e+002, 1.461100e+003
2.478093e+002, 1.462017e+003
2.482914e+002, 1.463405e+003
2.487736e+002, 1.465748e+003
2.492557e+002, 1.468771e+003
2.497378e+002, 1.471306e+003
2.502199e+002, 1.472600e+003
2.507020e+002, 1.474358e+003
2.511841e+002, 1.476981e+003
2.516663e+002, 1.480106e+003
2.521484e+002, 1.483297e+003
2.526305e+002, 1.486366e+003
2.531126e+002, 1.489341e+003
2.535947e+002, 1.492388e+003
2.540768e+002, 1.495366e+003
2.545590e+002, 1.498593e+003
2.550411e+002, 1.501527e+003
2.555232e+002, 1.504930e+003
2.560053e+002, 1.509935e+003
2.564874e+002, 1.516995e+003
2.569695e+002, 1.525231e+003
2.574517e+002, 1.532495e+003
2.579338e+002, 1.535886e+003
2.584159e+002, 1.541937e+003
2.588980e+002, 1.552804e+003
2.593801e+002, 1.565440e+003
2.598622e+002, 1.577648e+003
2.603444e+002, 1.588558e+003
2.608265e+002, 1.597005e+003
2.613086e+002, 1.600736e+003
2.617907e+002, 1.597744e+003
2.622728e+002, 1.592395e+003
2.627549e+002, 1.581992e+003
2.632371e+002, 1.570555e+003
2.637192e+002, 1.562038e+003
2.642013e+002, 1.557476e+003
2.646834e+002, 1.555511e+003
2.651655e+002, 1.554341e+003
2.656476e+002, 1.554526e+003
2.661298e+002, 1.554166e+003
2.666119e+002, 1.552194e+003
2.670940e+002, 1.550237e+003
2.675761e+002, 1.549666e+003
2.680582e+002, 1.550774e+003
2.685403e+002, 1.553399e+003
2.690225e+002, 1.557791e+003
2.695046e+002, 1.564709e+003
2.699867e+002, 1.569587e+003
2.704688e+002, 1.571063e+003
2.709509e+002, 1.571241e+003
2.714330e+002, 1.571433e+003
2.719152e+002, 1.571896e+003
2.723973e+002, 1.573265e+003
2.728794e+002, 1.576574e+003
2.733615e+002, 1.581984e+003
2.738436e+002, 1.585682e+003
2.743257e+002, 1.585218e+003
2.748079e+002, 1.584720e+003
2.752900e+002, 1.588159e+003
2.757721e+002, 1.595484e+003
2.762542e+002, 1.602647e+003
2.767363e+002, 1.606461e+003
2.772184e+002, 1.607195e+003
2.777006e+002, 1.608990e+003
2.781827e+002, 1.612178e+003
2.786648e+002, 1.616149e+003
2.791469e+002, 1.620825e+003
2.796290e+002, 1.626075e+003
2.801111e+002, 1.631062e+003
2.805933e+002, 1.635159e+003
2.810754e+002, 1.638635e+003
2.815575e+002, 1.642558e+003
2.820396e+002, 1.647361e+003
2.825217e+002, 1.652083e+003
2.830038e+002, 1.656310e+003
2.834860e+002, 1.660023e+003
2.839681e+002, 1.663105e+003
2.844502e+002, 1.665372e+003
2.849323e+002, 1.667045e+003
2.854144e+002, 1.668480e+003
2.858965e+002, 1.669162e+003
2.863787e+002, 1.670809e+003
2.868608e+002, 1.675239e+003
2.873429e+002, 1.681613e+003
2.878250e+002, 1.686840e+003
2.883071e+002, 1.689527e+003
2.887892e+002, 1.691130e+003
2.892714e+002, 1.693678e+003
2.897535e+002, 1.697156e+003
2.902356e+002, 1.701230e+003
2.907177e+002, 1.706073e+003
2.911998e+002, 1.711405e+003
2.916819e+002, 1.716606e+003
2.921641e+002, 1.721656e+003
2.926462e+002, 1.726307e+003
2.931283e+002, 1.729960e+003
2.936104e+002, 1.732750e+003
2.940925e+002, 1.736091e+003
2.945746e+002, 1.740858e+003
2.950568e+002, 1.746490e+003
2.955389e+002, 1.752006e+003
2.960210e+002, 1.757420e+003
2.965031e+002, 1.762330e+003
2.969852e+002, 1.765771e+003
2.974673e+002, 1.768332e+003
2.979495e+002, 1.771758e+003
2.984316e+002, 1.777561e+003
2.989137e+002, 1.784171e+003
2.993958e+002, 1.788889e+003
2.998779e+002, 1.791224e+003
3.003600e+002, 1.793780e+003
3.008422e+002, 1.798139e+003
3.013243e+002, 1.803939e+003
3.018064e+002, 1.810772e+003
3.022885e+002, 1.819298e+003
3.027706e+002, 1.828189e+003
3.032527e+002, 1.835848e+003
3.037349e+002, 1.842226e+003
3.042170e+002, 1.848523e+003
3.046991e+002, 1.855223e+003
3.051812e+002, 1.862213e+003
3.056633e+002, 1.869232e+003
3.061454e+002, 1.876062e+003
3.066276e+002, 1.883349e+003
3.071097e+002, 1.891604e+003
3.075918e+002, 1.900798e+003
3.080739e+002, 1.910846e+003
3.085560e+002, 1.921806e+003
3.090381e+002, 1.933523e+003
3.095203e+002, 1.945496e+003
3.100024e+002, 1.957700e+003
3.104845e+002, 1.970799e+003
3.109666e+002, 1.985211e+003
3.114487e+002, 2.000875e+003
3.119308e+002, 2.017395e+003
3.124130e+002, 2.034456e+003
3.128951e+002, 2.052667e+003
3.133772e+002, 2.071979e+003
3.138593e+002, 2.092464e+003
3.143414e+002, 2.114493e+003
3.148235e+002, 2.137376e+003
3.153057e+002, 2.161985e+003
3.157878e+002, 2.191430e+003
3.162699e+002, 2.227000e+003
3.167520e+002, 2.264699e+003
3.172341e+002, 2.300778e+003
3.177162e+002, 2.336421e+003
3.181984e+002, 2.374972e+003
3.186805e+002, 2.419612e+003
3.191626e+002, 2.466788e+003
3.196447e+002, 2.510253e+003
3.201268e+002, 2.549074e+003
3.206089e+002, 2.588832e+003
3.210911e+002, 2.633258e+003
3.215732e+002, 2.680785e+003
3.220553e+002, 2.729016e+003
3.225374e+002, 2.776723e+003
3.230195e+002, 2.826673e+003
3.235016e+002, 2.880541e+003
3.239838e+002, 2.938614e+003
3.244659e+002, 3.002487e+003
3.249480e+002, 3.073153e+003
3.254301e+002, 3.150198e+003
3.259122e+002, 3.231020e+003
3.263943e+002, 3.315816e+003
3.268765e+002, 3.406441e+003
3.273586e+002, 3.504936e+003
3.278407e+002, 3.611077e+003
3.283228e+002, 3.720806e+003
3.288049e+002, 3.831052e+003
3.292870e+002, 3.948237e+003
3.297692e+002, 4.076047e+003
3.302513e+002, 4.213791e+003
3.307334e+002, 4.362731e+003
3.312155e+002, 4.521540e+003
3.316976e+002, 4.691665e+003
3.321797e+002, 4.878092e+003
3.326619e+002, 5.083920e+003
3.331440e+002, 5.298814e+003
3.336261e+002, 5.527385e+003
3.341082e+002, 5.759726e+003
3.345903e+002, 5.970625e+003
3.350724e+002, 6.163776e+003
3.355546e+002, 6.324108e+003
3.360367e+002, 6.437564e+003
3.365188e+002, 6.505183e+003
3.370009e+002, 6.509291e+003
3.374830e+002, 6.424722e+003
3.379651e+002, 6.268744e+003
3.384473e+002, 6.076409e+003
3.389294e+002, 5.842384e+003
3.394115e+002, 5.586755e+003
3.398936e+002, 5.317384e+003
3.403757e+002, 5.036148e+003
3.408578e+002, 4.764663e+003
3.413400e+002, 4.505094e+003
3.418221e+002, 4.264793e+003
3.423042e+002, 4.050080e+003
3.427863e+002, 3.860565e+003
3.432684e+002, 3.689260e+003
3.437505e+002, 3.533689e+003
3.442327e+002, 3.393588e+003
3.447148e+002, 3.269406e+003
3.451969e+002, 3.162625e+003
3.456790e+002, 3.068043e+003
3.461611e+002, 2.981237e+003
3.466432e+002, 2.901331e+003
3.471254e+002, 2.830328e+003
3.476075e+002, 2.771199e+003
3.480896e+002, 2.720181e+003
3.485717e+002, 2.674575e+003
3.490538e+002, 2.634045e+003
3.495359e+002, 2.596536e+003
3.500181e+002, 2.559834e+003
3.505002e+002, 2.525020e+003
3.509823e+002, 2.495472e+003
3.514644e+002, 2.474040e+003
3.519465e+002, 2.455829e+003
3.524286e+002, 2.437547e+003
3.529108e+002, 2.419592e+003
3.533929e+002, 2.403550e+003
3.538750e+002, 2.390373e+003
3.543571e+002, 2.379603e+003
3.548392e+002, 2.369927e+003
3.553214e+002, 2.361150e+003
3.558035e+002, 2.353621e+003
3.562856e+002, 2.348126e+003
3.567677e+002, 2.343879e+003
3.572498e+002, 2.339445e+003
3.577319e+002, 2.334377e+003
3.582141e+002, 2.329266e+003
3.586962e+002, 2.325054e+003
3.591783e+002, 2.322019e+003
3.596604e+002, 2.318141e+003
3.601425e+002, 2.312488e+003
3.606246e+002, 2.306315e+003
3.611068e+002, 2.300214e+003
3.615889e+002, 2.294390e+003
3.620710e+002, 2.290204e+003
3.625531e+002, 2.288914e+003
3.630352e+002, 2.290600e+003
3.635173e+002, 2.292911e+003
3.639995e+002, 2.295477e+003
3.644816e+002, 2.298964e+003
3.649637e+002, 2.304373e+003
3.654458e+002, 2.310997e+003
3.659279e+002, 2.316946e+003
3.664100e+002, 2.321110e+003
3.668922e+002, 2.324214e+003
3.673743e+002, 2.328598e+003
3.678564e+002, 2.335530e+003
3.683385e+002, 2.341840e+003
3.688206e+002, 2.347512e+003
3.693027e+002, 2.352185e+003
3.697849e+002, 2.354557e+003
3.702670e+002, 2.354433e+003
3.707491e+002, 2.354409e+003
3.712312e+002, 2.358188e+003
3.717133e+002, 2.367156e+003
3.721954e+002, 2.376031e+003
3.726776e+002, 2.384875e+003
3.731597e+002, 2.393552e+003
3.736418e+002, 2.401758e+003
3.741239e+002, 2.409677e+003
3.746060e+002, 2.417812e+003
3.750881e+002, 2.426485e+003
3.755703e+002, 2.435728e+003
3.760524e+002, 2.447500e+003
3.765345e+002, 2.461604e+003
3.770166e+002, 2.478430e+003
3.774987e+002, 2.497477e+003
3.779808e+002, 2.519564e+003
3.784630e+002, 2.545713e+003
3.789451e+002, 2.576393e+003
3.794272e+002, 2.611625e+003
3.799093e+002, 2.651249e+003
3.803914e+002, 2.694424e+003
3.808735e+002, 2.744694e+003
3.813557e+002, 2.809371e+003
3.818378e+002, 2.875229e+003
3.823199e+002, 2.940974e+003
3.828020e+002, 3.001977e+003
3.832841e+002, 3.042805e+003
3.837662e+002, 3.045186e+003
3.842484e+002, 3.005938e+003
3.847305e+002, 2.950058e+003
3.852126e+002, 2.856288e+003
3.856947e+002, 2.765438e+003
3.861768e+002, 2.685586e+003
3.866589e+002, 2.618868e+003
3.871411e+002, 2.566914e+003
3.876232e+002, 2.531385e+003
3.881053e+002, 2.509768e+003
3.885874e+002, 2.493979e+003
3.890695e+002, 2.486311e+003
3.895516e+002, 2.480492e+003
3.900338e+002, 2.474216e+003
3.905159e+002, 2.469220e+003
3.909980e+002, 2.467602e+003
3.914801e+002, 2.469906e+003
3.919622e+002, 2.473892e+003
3.924443e+002, 2.476880e+003
3.929265e+002, 2.478738e+003
3.934086e+002, 2.480998e+003
3.938907e+002, 2.484859e+003
3.943728e+002, 2.488171e+003
3.948549e+002, 2.488637e+003
3.953370e+002, 2.487174e+003
3.958192e+002, 2.487288e+003
3.963013e+002, 2.492228e+003
3.967834e+002, 2.500447e+003
3.972655e+002, 2.506817e+003
3.977476e+002, 2.510991e+003
3.982297e+002, 2.514173e+003
3.987119e+002, 2.515333e+003
3.991940e+002, 2.516378e+003
3.996761e+002, 2.520121e+003
4.001582e+002, 2.527944e+003
4.006403e+002, 2.537105e+003
4.011224e+002, 2.545021e+003
4.016046e+002, 2.551790e+003
4.020867e+002, 2.558074e+003
4.025688e+002, 2.563731e+003
4.030509e+002, 2.569355e+003
4.035330e+002, 2.574977e+003
4.040151e+002, 2.580488e+003
4.044973e+002, 2.588449e+003
4.049794e+002, 2.601525e+003
4.054615e+002, 2.617345e+003
4.059436e+002, 2.631546e+003
4.064257e+002, 2.643316e+003
4.069078e+002, 2.655464e+003
4.073900e+002, 2.671296e+003
4.078721e+002, 2.689603e+003
4.083542e+002, 2.704436e+003
4.088363e+002, 2.715643e+003
4.093184e+002, 2.723007e+003
4.098005e+002, 2.725737e+003
4.102827e+002, 2.724306e+003
4.107648e+002, 2.719721e+003
4.112469e+002, 2.711770e+003
4.117290e+002, 2.702230e+003
4.122111e+002, 2.694961e+003
4.126932e+002, 2.689394e+003
4.131754e+002, 2.686879e+003
4.136575e+002, 2.688467e+003
4.141396e+002, 2.692770e+003
4.146217e+002, 2.699735e+003
4.151038e+002, 2.708858e+003
4.155859e+002, 2.716718e+003
4.160681e+002, 2.719859e+003
4.165502e+002, 2.717889e+003
4.170323e+002, 2.714617e+003
4.175144e+002, 2.708257e+003
4.179965e+002, 2.702653e+003
4.184786e+002, 2.698839e+003
4.189608e+002, 2.696982e+003
4.194429e+002, 2.697188e+003
4.199250e+002, 2.699541e+003
4.204071e+002, 2.703816e+003
4.208892e+002, 2.709571e+003
4.213713e+002, 2.719332e+003
4.218535e+002, 2.726633e+003
4.223356e+002, 2.729527e+003
4.228177e+002, 2.731352e+003
4.232998e+002, 2.734768e+003
4.237819e+002, 2.740040e+003
4.242640e+002, 2.745496e+003
4.247462e+002, 2.749167e+003
4.252283e+002, 2.750838e+003
4.257104e+002, 2.754170e+003
4.261925e+002, 2.761009e+003
4.266746e+002, 2.767578e+003
4.271567e+002, 2.772758e+003
4.276389e+002, 2.776974e+003
4.281210e+002, 2.780681e+003
4.286031e+002, 2.783925e+003
4.290852e+002, 2.787491e+003
4.295673e+002, 2.793340e+003
4.300494e+002, 2.802376e+003
4.305316e+002, 2.810476e+003
4.310137e+002, 2.816505e+003
4.314958e+002, 2.821315e+003
4.319779e+002, 2.824665e+003
4.324600e+002, 2.826813e+003
4.329421e+002, 2.829549e+003
4.334243e+002, 2.834362e+003
4.339064e+002, 2.840925e+003
4.343885e+002, 2.848001e+003
4.348706e+002, 2.855914e+003
4.353527e+002, 2.863517e+003
4.358348e+002, 2.869400e+003
4.363170e+002, 2.874600e+003
4.367991e+002, 2.881092e+003
4.372812e+002, 2.890121e+003
4.377633e+002, 2.899450e+003
4.382454e+002, 2.906576e+003
4.387275e+002, 2.911893e+003
4.392097e+002, 2.918084e+003
4.396918e+002, 2.926333e+003
4.401739e+002, 2.935398e+003
4.406560e+002, 2.943684e+003
4.411381e+002, 2.951369e+003
4.416202e+002, 2.957755e+003
4.421024e+002, 2.961768e+003
4.425845e+002, 2.964848e+003
4.430666e+002, 2.968501e+003
4.435487e+002, 2.972888e+003
4.440308e+002, 2.977563e+003
4.445129e+002, 2.982147e+003
4.449951e+002, 2.986711e+003
4.454772e+002, 2.992042e+003
4.459593e+002, 2.999475e+003
4.464414e+002, 3.005993e+003
4.469235e+002, 3.010730e+003
4.474056e+002, 3.013968e+003
4.478878e+002, 3.015774e+003
4.483699e+002, 3.016216e+003
4.488520e+002, 3.016331e+003
4.493341e+002, 3.017667e+003
4.498162e+002, 3.020391e+003
4.502983e+002, 3.024033e+003
4.507805e+002, 3.028540e+003
4.512626e+002, 3.033843e+003
4.517447e+002, 3.040581e+003
4.522268e+002, 3.048137e+003
4.527089e+002, 3.055133e+003
4.531910e+002, 3.060586e+003
4.536732e+002, 3.064801e+003
4.541553e+002, 3.068862e+003
4.546374e+002, 3.071880e+003
4.551195e+002, 3.076358e+003
4.556016e+002, 3.082459e+003
4.560837e+002, 3.090057e+003
4.565659e+002, 3.099513e+003
4.570480e+002, 3.110748e+003
4.575301e+002, 3.122209e+003
4.580122e+002, 3.132109e+003
4.584943e+002, 3.140523e+003
4.589764e+002, 3.149529e+003
4.594586e+002, 3.159002e+003
4.599407e+002, 3.169404e+003
4.604228e+002, 3.181688e+003
4.609049e+002, 3.194803e+003
4.613870e+002, 3.206784e+003
4.618691e+002, 3.216540e+003
4.623513e+002, 3.225551e+003
4.628334e+002, 3.236086e+003
4.633155e+002, 3.248023e+003
4.637976e+002, 3.258622e+003
4.642797e+002, 3.268754e+003
4.647618e+002, 3.274904e+003
4.652440e+002, 3.270914e+003
4.657261e+002, 3.256617e+003
4.662082e+002, 3.244906e+003
4.666903e+002, 3.241218e+003
4.671724e+002, 3.241796e+003
4.676545e+002, 3.242366e+003
4.681367e+002, 3.242591e+003
4.686188e+002, 3.243627e+003
4.691009e+002, 3.246467e+003
4.695830e+002, 3.250680e+003
4.700651e+002, 3.254135e+003
4.705472e+002, 3.255350e+003
4.710294e+002, 3.257736e+003
4.715115e+002, 3.263406e+003
4.719936e+002, 3.270185e+003
4.724757e+002, 3.275070e+003
4.729578e+002, 3.277372e+003
4.734399e+002, 3.279009e+003
4.739221e+002, 3.282267e+003
4.744042e+002, 3.287403e+003
4.748863e+002, 3.292674e+003
4.753684e+002, 3.298904e+003
4.758505e+002, 3.304422e+003
4.763326e+002, 3.308200e+003
4.768148e+002, 3.310906e+003
4.772969e+002, 3.313642e+003
4.777790e+002, 3.316921e+003
4.782611e+002, 3.320547e+003
4.787432e+002, 3.323620e+003
4.792253e+002, 3.324777e+003
4.797075e+002, 3.329300e+003
4.801896e+002, 3.342235e+003
4.806717e+002, 3.354995e+003
4.811538e+002, 3.362446e+003
4.816359e+002, 3.365134e+003
4.821180e+002, 3.367132e+003
4.826002e+002, 3.371203e+003
4.830823e+002, 3.376560e+003
4.835644e+002, 3.380755e+003
4.840465e+002, 3.383228e+003
4.845286e+002, 3.386577e+003
4.850107e+002, 3.392580e+003
4.854929e+002, 3.399781e+003
4.859750e+002, 3.406649e+003
4.864571e+002, 3.413030e+003
4.869392e+002, 3.418852e+003
4.874213e+002, 3.423814e+003
4.879034e+002, 3.428218e+003
4.883856e+002, 3.432558e+003
4.888677e+002, 3.436884e+003
4.893498e+002, 3.441550e+003
4.898319e+002, 3.446781e+003
4.903140e+002, 3.452659e+003
4.907961e+002, 3.459121e+003
4.912783e+002, 3.466726e+003
4.917604e+002, 3.474380e+003
4.922425e+002, 3.482025e+003
4.927246e+002, 3.489333e+003
4.932067e+002, 3.495594e+003
4.936888e+002, 3.500542e+003
4.941710e+002, 3.504911e+003
4.946531e+002, 3.509771e+003
4.951352e+002, 3.515414e+003
4.956173e+002, 3.520624e+003
4.960994e+002, 3.524287e+003
4.965815e+002, 3.528646e+003
4.970637e+002, 3.535481e+003
4.975458e+002, 3.543800e+003
4.980279e+002, 3.551472e+003
4.985100e+002, 3.557312e+003
4.989921e+002, 3.561703e+003
4.994742e+002, 3.565471e+003
4.999564e+002, 3.567900e+003
5.004385e+002, 3.571487e+003
5.009206e+002, 3.577683e+003
5.014027e+002, 3.584259e+003
5.018848e+002, 3.589614e+003
5.023669e+002, 3.593910e+003
5.028491e+002, 3.598524e+003
5.033312e+002, 3.604328e+003
5.038133e+002, 3.611160e+003
5.042954e+002, 3.619070e+003
5.047775e+002, 3.628550e+003
5.052596e+002, 3.636601e+003
5.057418e+002, 3.640449e+003
5.062239e+002, 3.642783e+003
5.067060e+002, 3.647856e+003
5.071881e+002, 3.656709e+003
5.076702e+002, 3.664781e+003
5.081523e+002, 3.668212e+003
5.086345e+002, 3.669903e+003
5.091166e+002, 3.675231e+003
5.095987e+002, 3.685025e+003
5.100808e+002, 3.695385e+003
5.105629e+002, 3.703423e+003
5.110450e+002, 3.709149e+003
5.115272e+002, 3.713679e+003
5.120093e+002, 3.715751e+003
5.124914e+002, 3.718290e+003
5.129735e+002, 3.721410e+003
5.134556e+002, 3.725779e+003
5.139377e+002, 3.733195e+003
5.144199e+002, 3.743753e+003
5.149020e+002, 3.754438e+003
5.153841e+002, 3.761141e+003
5.158662e+002, 3.763130e+003
5.163483e+002, 3.766173e+003
5.168304e+002, 3.770256e+003
5.173126e+002, 3.775485e+003
5.177947e+002, 3.783574e+003
5.182768e+002, 3.792328e+003
5.187589e+002, 3.797965e+003
5.192410e+002, 3.798809e+003
5.197231e+002, 3.798810e+003
5.202053e+002, 3.804354e+003
5.206874e+002, 3.815912e+003
5.211695e+002, 3.825909e+003
5.216516e+002, 3.833131e+003
5.221337e+002, 3.838762e+003
5.226158e+002, 3.842822e+003
5.230980e+002, 3.846023e+003
5.235801e+002, 3.850524e+003
5.240622e+002, 3.858145e+003
5.245443e+002, 3.866326e+003
5.250264e+002, 3.871684e+003
5.255085e+002, 3.874883e+003
5.259907e+002, 3.879865e+003
5.264728e+002, 3.888643e+003
5.269549e+002, 3.898500e+003
5.274370e+002, 3.905109e+003
5.279191e+002, 3.907926e+003
5.284012e+002, 3.911748e+003
5.288834e+002, 3.917429e+003
5.293655e+002, 3.923960e+003
5.298476e+002, 3.931199e+003
5.303297e+002, 3.938733e+003
5.308118e+002, 3.945377e+003
5.312939e+002, 3.950406e+003
5.317761e+002, 3.954683e+003
5.322582e+002, 3.960382e+003
5.327403e+002, 3.967507e+003
5.332224e+002, 3.976067e+003
5.337045e+002, 3.986908e+003
5.341866e+002, 3.998115e+003
5.346688e+002, 4.009217e+003
5.351509e+002, 4.019735e+003
5.356330e+002, 4.028663e+003
5.361151e+002, 4.034891e+003
5.365972e+002, 4.039687e+003
5.370793e+002, 4.046901e+003
5.375615e+002, 4.057305e+003
5.380436e+002, 4.066919e+003
5.385257e+002, 4.075246e+003
5.390078e+002, 4.081681e+003
5.394899e+002, 4.085120e+003
5.399720e+002, 4.085753e+003
5.404542e+002, 4.086395e+003
5.409363e+002, 4.088258e+003
5.414184e+002, 4.091052e+003
5.419005e+002, 4.094804e+003
5.423826e+002, 4.099424e+003
5.428647e+002, 4.103161e+003
5.433469e+002, 4.104577e+003
5.438290e+002, 4.105073e+003
5.443111e+002, 4.108399e+003
5.447932e+002, 4.115097e+003
5.452753e+002, 4.122700e+003
5.457574e+002, 4.132466e+003
5.462396e+002, 4.141872e+003
5.467217e+002, 4.148182e+003
5.472038e+002, 4.151802e+003
5.476859e+002, 4.155126e+003
5.481680e+002, 4.159738e+003
5.486501e+002, 4.165636e+003
5.491323e+002, 4.173005e+003
5.496144e+002, 4.183103e+003
5.500965e+002, 4.192441e+003
5.505786e+002, 4.201407e+003
5.510607e+002, 4.209074e+003
5.515428e+002, 4.213913e+003
5.520250e+002, 4.216432e+003
5.525071e+002, 4.219334e+003
5.529892e+002, 4.224615e+003
5.534713e+002, 4.231736e+003
5.539534e+002, 4.239588e+003
5.544355e+002, 4.248497e+003
5.549177e+002, 4.256321e+003
5.553998e+002, 4.261129e+003
5.558819e+002, 4.265207e+003
5.563640e+002, 4.271847e+003
5.568461e+002, 4.281409e+003
5.573282e+002, 4.290858e+003
5.578104e+002, 4.298913e+003
5.582925e+002, 4.306343e+003
5.587746e+002, 4.314083e+003
5.592567e+002, 4.322171e+003
5.597388e+002, 4.329843e+003
5.602209e+002, 4.336625e+003
5.607031e+002, 4.342796e+003
5.611852e+002, 4.349273e+003
5.616673e+002, 4.356814e+003
5.621494e+002, 4.363682e+003
5.626315e+002, 4.368470e+003
5.631136e+002, 4.373673e+003
5.635958e+002, 4.381854e+003
5.640779e+002, 4.392367e+003
5.645600e+002, 4.402044e+003
5.650421e+002, 4.408411e+003
5.655242e+002, 4.412758e+003
5.660063e+002, 4.419705e+003
5.664885e+002, 4.430310e+003
5.669706e+002, 4.440263e+003
5.674527e+002, 4.447476e+003
5.679348e+002, 4.454460e+003
5.684169e+002, 4.463391e+003
5.688990e+002, 4.473972e+003
5.693812e+002, 4.483816e+003
5.698633e+002, 4.491233e+003
5.703454e+002, 4.497337e+003
5.708275e+002, 4.503627e+003
5.713096e+002, 4.510092e+003
5.717917e+002, 4.516364e+003
5.722739e+002, 4.522302e+003
5.727560e+002, 4.528077e+003
5.732381e+002, 4.533781e+003
5.737202e+002, 4.538984e+003
5.742023e+002, 4.545955e+003
5.746844e+002, 4.559261e+003
5.751666e+002, 4.570686e+003
5.756487e+002, 4.573114e+003
5.761308e+002, 4.568913e+003
5.766129e+002, 4.564806e+003
5.770950e+002, 4.564256e+003
5.775771e+002, 4.566028e+003
5.780593e+002, 4.567014e+003
5.785414e+002, 4.565484e+003
5.790235e+002, 4.567869e+003
5.795056e+002, 4.578458e+003
5.799877e+002, 4.589329e+003
5.804698e+002, 4.597304e+003
5.809520e+002, 4.602720e+003
5.814341e+002, 4.606818e+003
5.819162e+002, 4.609641e+003
5.823983e+002, 4.612429e+003
5.828804e+002, 4.616895e+003
5.833625e+002, 4.622938e+003
5.838447e+002, 4.629069e+003
5.843268e+002, 4.634386e+003
5.848089e+002, 4.640995e+003
5.852910e+002, 4.652509e+003
5.857731e+002, 4.668200e+003
5.862552e+002, 4.680115e+003
5.867374e+002, 4.685846e+003
5.872195e+002, 4.689486e+003
5.877016e+002, 4.691116e+003
5.881837e+002, 4.692613e+003
5.886658e+002, 4.697492e+003
5.891479e+002, 4.706694e+003
5.896301e+002, 4.717600e+003
5.901122e+002, 4.727034e+003
5.905943e+002, 4.734767e+003
5.910764e+002, 4.743175e+003
5.915585e+002, 4.754797e+003
5.920406e+002, 4.764021e+003
5.925228e+002, 4.768400e+003
5.930049e+002, 4.770193e+003
5.934870e+002, 4.771046e+003
5.939691e+002, 4.771539e+003
5.944512e+002, 4.774259e+003
5.949333e+002, 4.783135e+003
5.954155e+002, 4.796603e+003
5.958976e+002, 4.807430e+003
5.963797e+002, 4.814626e+003
5.968618e+002, 4.821955e+003
5.973439e+002, 4.832716e+003
5.978260e+002, 4.844591e+003
5.983082e+002, 4.851914e+003
5.987903e+002, 4.852990e+003
5.992724e+002, 4.853878e+003
5.997545e+002, 4.855647e+003
6.002366e+002, 4.858758e+003
6.007188e+002, 4.864060e+003
6.012009e+002, 4.871366e+003
6.016830e+002, 4.879322e+003
6.021651e+002, 4.886981e+003
6.026472e+002, 4.894741e+003
6.031293e+002, 4.904261e+003
6.036115e+002, 4.917306e+003
6.040936e+002, 4.928822e+003
6.045757e+002, 4.937634e+003
6.050578e+002, 4.945669e+003
6.055399e+002, 4.954448e+003
6.060220e+002, 4.963506e+003
6.065042e+002, 4.971080e+003
6.069863e+002, 4.975499e+003
6.074684e+002, 4.978876e+003
6.079505e+002, 4.984791e+003
6.084326e+002, 4.993203e+003
6.089147e+002, 5.001789e+003
6.093969e+002, 5.009731e+003
6.098790e+002, 5.018106e+003
6.103611e+002, 5.028557e+003
6.108432e+002, 5.040916e+003
6.113253e+002, 5.052320e+003
6.118074e+002, 5.062054e+003
6.122896e+002, 5.071217e+003
6.127717e+002, 5.080167e+003
6.132538e+002, 5.088990e+003
6.137359e+002, 5.097281e+003
6.142180e+002, 5.105085e+003
6.147001e+002, 5.114120e+003
6.151823e+002, 5.127063e+003
6.156644e+002, 5.144269e+003
6.161465e+002, 5.157604e+003
6.166286e+002, 5.164146e+003
6.171107e+002, 5.170604e+003
6.175928e+002, 5.179290e+003
6.180750e+002, 5.188352e+003
6.185571e+002, 5.194604e+003
6.190392e+002, 5.197729e+003
6.195213e+002, 5.203624e+003
6.200034e+002, 5.219091e+003
6.204855e+002, 5.239935e+003
6.209677e+002, 5.256409e+003
6.214498e+002, 5.267958e+003
6.219319e+002, 5.280055e+003
6.224140e+002, 5.296151e+003
6.228961e+002, 5.313638e+003
6.233782e+002, 5.326673e+003
6.238604e+002, 5.333928e+003
6.243425e+002, 5.341636e+003
6.248246e+002, 5.350431e+003
6.253067e+002, 5.359878e+003
6.257888e+002, 5.370581e+003
6.262709e+002, 5.381622e+003
6.267531e+002, 5.391417e+003
6.272352e+002, 5.399144e+003
6.277173e+002, 5.404767e+003
6.281994e+002, 5.407564e+003
6.286815e+002, 5.406743e+003
6.291636e+002, 5.407511e+003
6.296458e+002, 5.412075e+003
6.301279e+002, 5.415639e+003
6.306100e+002, 5.415412e+003
6.310921e+002, 5.412776e+003
6.315742e+002, 5.409849e+003
6.320563e+002, 5.406563e+003
6.325385e+002, 5.404858e+003
6.330206e+002, 5.407698e+003
6.335027e+002, 5.412731e+003
6.339848e+002, 5.414964e+003
6.344669e+002, 5.413735e+003
6.349490e+002, 5.411900e+003
6.354312e+002, 5.411267e+003
6.359133e+002, 5.411907e+003
6.363954e+002, 5.414115e+003
6.368775e+002, 5.418417e+003
6.373596e+002, 5.423723e+003
6.378417e+002, 5.431170e+003
6.383239e+002, 5.438640e+003
6.388060e+002, 5.445088e+003
6.392881e+002, 5.450199e+003
6.397702e+002, 5.453328e+003
6.402523e+002, 5.453529e+003
6.407344e+002, 5.452970e+003
6.412166e+002, 5.456298e+003
6.416987e+002, 5.463713e+003
6.421808e+002, 5.470362e+003
6.426629e+002, 5.475053e+003
6.431450e+002, 5.479174e+003
6.436271e+002, 5.483727e+003
6.441093e+002, 5.488703e+003
6.445914e+002, 5.494149e+003
6.450735e+002, 5.500214e+003
6.455556e+002, 5.506575e+003
6.460377e+002, 5.513422e+003
6.465198e+002, 5.520355e+003
6.470020e+002, 5.526287e+003
6.474841e+002, 5.531250e+003
6.479662e+002, 5.537238e+003
6.484483e+002, 5.546411e+003
6.489304e+002, 5.557946e+003
6.494125e+002, 5.565967e+003
6.498947e+002, 5.566971e+003
6.503768e+002, 5.570982e+003
6.508589e+002, 5.582692e+003
6.513410e+002, 5.595437e+003
6.518231e+002, 5.604853e+003
6.523052e+002, 5.610909e+003
6.527874e+002, 5.615617e+003
6.532695e+002, 5.618363e+003
6.537516e+002, 5.621774e+003
6.542337e+002, 5.630372e+003
6.547158e+002, 5.642841e+003
6.551979e+002, 5.652456e+003
6.556801e+002, 5.656794e+003
6.561622e+002, 5.660872e+003
6.566443e+002, 5.670687e+003
6.571264e+002, 5.686656e+003
6.576085e+002, 5.699989e+003
6.580906e+002, 5.707495e+003
6.585728e+002, 5.716737e+003
6.590549e+002, 5.732311e+003
6.595370e+002, 5.748911e+003
6.600191e+002, 5.760842e+003
6.605012e+002, 5.767560e+003
6.609833e+002, 5.772622e+003
6.614655e+002, 5.778328e+003
6.619476e+002, 5.784978e+003
6.624297e+002, 5.792842e+003
6.629118e+002, 5.801579e+003
6.633939e+002, 5.814342e+003
6.638760e+002, 5.833286e+003
6.643582e+002, 5.855182e+003
6.648403e+002, 5.875821e+003
6.653224e+002, 5.895380e+003
6.658045e+002, 5.917462e+003
6.662866e+002, 5.943787e+003
6.667687e+002, 5.971567e+003
6.672509e+002, 5.998377e+003
6.677330e+002, 6.025794e+003
6.682151e+002, 6.056977e+003
6.686972e+002, 6.092560e+003
6.691793e+002, 6.129432e+003
6.696614e+002, 6.164537e+003
6.701436e+002, 6.198172e+003
6.706257e+002, 6.234677e+003
6.711078e+002, 6.276085e+003
6.715899e+002, 6.316344e+003
6.720720e+002, 6.351771e+003
6.725541e+002, 6.387170e+003
6.730363e+002, 6.425450e+003
6.735184e+002, 6.467080e+003
6.740005e+002, 6.513986e+003
6.744826e+002, 6.567095e+003
6.749647e+002, 6.626268e+003
6.754468e+002, 6.692300e+003
6.759290e+002, 6.764422e+003
6.764111e+002, 6.839234e+003
6.768932e+002, 6.915417e+003
6.773753e+002, 6.998335e+003
6.778574e+002, 7.093354e+003
6.783395e+002, 7.200460e+003
6.788217e+002, 7.320119e+003
6.793038e+002, 7.455527e+003
6.797859e+002, 7.600556e+003
6.802680e+002, 7.754714e+003
6.807501e+002, 7.916377e+003
6.812322e+002, 8.088843e+003
6.817144e+002, 8.268624e+003
6.821965e+002, 8.443949e+003
6.826786e+002, 8.616798e+003
6.831607e+002, 8.771771e+003
6.836428e+002, 8.892610e+003
6.841249e+002, 8.976310e+003
6.846071e+002, 8.990345e+003
6.850892e+002, 8.921421e+003
6.855713e+002, 8.791560e+003
6.860534e+002, 8.617776e+003
6.865355e+002, 8.398251e+003
6.870176e+002, 8.173661e+003
6.874998e+002, 7.928614e+003
6.879819e+002, 7.699132e+003
6.884640e+002, 7.489787e+003
6.889461e+002, 7.303420e+003
6.894282e+002, 7.143031e+003
6.899103e+002, 7.008237e+003
6.903925e+002, 6.893277e+003
6.908746e+002, 6.795545e+003
6.913567e+002, 6.713826e+003
6.918388e+002, 6.647907e+003
6.923209e+002, 6.598213e+003
6.928030e+002, 6.554040e+003
6.932852e+002, 6.512412e+003
6.937673e+002, 6.475873e+003
6.942494e+002, 6.448170e+003
6.947315e+002, 6.428858e+003
6.952136e+002, 6.409887e+003
6.956957e+002, 6.388531e+003
6.961779e+002, 6.370331e+003
6.966600e+002, 6.359028e+003
6.971421e+002, 6.350769e+003
6.976242e+002, 6.340541e+003
6.981063e+002, 6.328367e+003
6.985884e+002, 6.318688e+003
6.990706e+002, 6.315236e+003
6.995527e+002, 6.316054e+003
7.000348e+002, 6.315429e+003
7.005169e+002, 6.312940e+003
7.009990e+002, 6.311706e+003
7.014811e+002, 6.312752e+003
7.019633e+002, 6.314571e+003
7.024454e+002, 6.315256e+003
7.029275e+002, 6.315534e+003
7.034096e+002, 6.318194e+003
7.038917e+002, 6.325745e+003
7.043738e+002, 6.332750e+003
7.048560e+002, 6.336520e+003
7.053381e+002, 6.338778e+003
7.058202e+002, 6.341193e+003
7.063023e+002, 6.344187e+003
7.067844e+002, 6.347967e+003
7.072665e+002, 6.352663e+003
7.077487e+002, 6.358234e+003
7.082308e+002, 6.364976e+003
7.087129e+002, 6.373628e+003
7.091950e+002, 6.379795e+003
7.096771e+002, 6.381556e+003
7.101592e+002, 6.382575e+003
7.106414e+002, 6.384648e+003
7.111235e+002, 6.387787e+003
7.116056e+002, 6.392241e+003
7.120877e+002, 6.398770e+003
7.125698e+002, 6.405002e+003
7.130519e+002, 6.409363e+003
7.135341e+002, 6.413054e+003
7.140162e+002, 6.417449e+003
7.144983e+002, 6.422594e+003
7.149804e+002, 6.428085e+003
7.154625e+002, 6.433786e+003
7.159446e+002, 6.439261e+003
7.164268e+002, 6.443005e+003
7.169089e+002, 6.443850e+003
7.173910e+002, 6.448565e+003
7.178731e+002, 6.460910e+003
7.183552e+002, 6.472274e+003
7.188373e+002, 6.477302e+003
7.193195e+002, 6.479474e+003
7.198016e+002, 6.483992e+003
7.202837e+002, 6.492056e+003
7.207658e+002, 6.499772e+003
7.212479e+002, 6.504125e+003
7.217300e+002, 6.507999e+003
7.222122e+002, 6.515376e+003
7.226943e+002, 6.525257e+003
7.231764e+002, 6.533244e+003
7.236585e+002, 6.537390e+003
7.241406e+002, 6.540463e+003
7.246227e+002, 6.546714e+003
7.251049e+002, 6.556516e+003
7.255870e+002, 6.566170e+003
7.260691e+002, 6.574449e+003
7.265512e+002, 6.584537e+003
7.270333e+002, 6.602107e+003
7.275154e+002, 6.619102e+003
7.279976e+002, 6.625163e+003
7.284797e+002, 6.619763e+003
7.289618e+002, 6.616775e+003
7.294439e+002, 6.622400e+003
7.299260e+002, 6.632551e+003
7.304081e+002, 6.647142e+003
7.308903e+002, 6.662858e+003
7.313724e+002, 6.670713e+003
7.318545e+002, 6.668556e+003
7.323366e+002, 6.665149e+003
7.328187e+002, 6.670212e+003
7.333008e+002, 6.682804e+003
7.337830e+002, 6.691336e+003
7.342651e+002, 6.693941e+003
7.347472e+002, 6.696580e+003
7.352293e+002, 6.699351e+003
7.357114e+002, 6.703681e+003
7.361935e+002, 6.712154e+003
7.366757e+002, 6.723507e+003
7.371578e+002, 6.732213e+003
7.376399e+002, 6.735408e+003
7.381220e+002, 6.737040e+003
7.386041e+002, 6.738589e+003
7.390862e+002, 6.740736e+003
7.395684e+002, 6.744788e+003
7.400505e+002, 6.750746e+003
7.405326e+002, 6.757447e+003
7.410147e+002, 6.764130e+003
7.414968e+002, 6.770690e+003
7.419789e+002, 6.776773e+003
7.424611e+002, 6.782052e+003
7.429432e+002, 6.787987e+003
7.434253e+002, 6.795336e+003
7.439074e+002, 6.802518e+003
7.443895e+002, 6.807781e+003
7.448716e+002, 6.812484e+003
7.453538e+002, 6.819749e+003
7.458359e+002, 6.831533e+003
7.463180e+002, 6.841057e+003
7.468001e+002, 6.841130e+003
7.472822e+002, 6.840429e+003
7.477643e+002, 6.850193e+003
7.482465e+002, 6.867561e+003
7.487286e+002, 6.881428e+003
7.492107e+002, 6.886708e+003
7.496928e+002, 6.888024e+003
7.501749e+002, 6.892261e+003
7.506570e+002, 6.899617e+003
7.511392e+002, 6.905941e+003
7.516213e+002, 6.910492e+003
7.521034e+002, 6.915815e+003
7.525855e+002, 6.924060e+003
7.530676e+002, 6.932753e+003
7.535497e+002, 6.938283e+003
7.540319e+002, 6.940471e+003
7.545140e+002, 6.944120e+003
7.549961e+002, 6.950898e+003
7.554782e+002, 6.958838e+003
7.559603e+002, 6.967280e+003
7.564424e+002, 6.975820e+003
7.569246e+002, 6.984335e+003
7.574067e+002, 6.992596e+003
7.578888e+002, 6.999519e+003
7.583709e+002, 7.003844e+003
7.588530e+002, 7.006608e+003
7.593351e+002, 7.011103e+003
7.598173e+002, 7.017286e+003
7.602994e+002, 7.025986e+003
7.607815e+002, 7.039360e+003
7.612636e+002, 7.051718e+003
7.617457e+002, 7.057674e+003
7.622278e+002, 7.058318e+003
7.627100e+002, 7.059366e+003
7.631921e+002, 7.061389e+003
7.636742e+002, 7.063201e+003
7.641563e+002, 7.061822e+003
7.646384e+002, 7.062407e+003
7.651205e+002, 7.071243e+003
7.656027e+002, 7.085708e+003
7.660848e+002, 7.098448e+003
7.665669e+002, 7.106138e+003
7.670490e+002, 7.110452e+003
7.675311e+002, 7.112213e+003
7.680132e+002, 7.112180e+003
7.684954e+002, 7.114908e+003
7.689775e+002, 7.120919e+003
7.694596e+002, 7.127291e+003
7.699417e+002, 7.132242e+003
7.704238e+002, 7.137318e+003
7.709059e+002, 7.145593e+003
7.713881e+002, 7.158333e+003
7.718702e+002, 7.168945e+003
7.723523e+002, 7.175537e+003
7.728344e+002, 7.182322e+003
7.733165e+002, 7.191628e+003
7.737986e+002, 7.201295e+003
7.742808e+002, 7.207811e+003
7.747629e+002, 7.211395e+003
7.752450e+002, 7.217291e+003
7.757271e+002, 7.231770e+003
7.762092e+002, 7.247826e+003
7.766913e+002, 7.253481e+003
7.771735e+002, 7.251260e+003
7.776556e+002, 7.251013e+003
7.781377e+002, 7.254959e+003
7.786198e+002, 7.262519e+003
7.791019e+002, 7.273980e+003
7.795840e+002, 7.288037e+003
7.800662e+002, 7.297817e+003
7.805483e+002, 7.301328e+003
7.810304e+002, 7.304271e+003
7.815125e+002, 7.306512e+003
7.819946e+002, 7.308713e+003
7.824767e+002, 7.310013e+003
7.829589e+002, 7.311814e+003
7.834410e+002, 7.317111e+003
7.839231e+002, 7.327297e+003
7.844052e+002, 7.337705e+003
7.848873e+002, 7.345736e+003
7.853694e+002, 7.352359e+003
7.858516e+002, 7.358706e+003
7.863337e+002, 7.364713e+003
7.868158e+002, 7.369619e+003
7.872979e+002, 7.373148e+003
7.877800e+002, 7.376404e+003
7.882621e+002, 7.381124e+003
7.887443e+002, 7.387201e+003
7.892264e+002, 7.390766e+003
7.897085e+002, 7.389583e+003
7.901906e+002, 7.392508e+003
7.906727e+002, 7.406540e+003
7.911548e+002, 7.421478e+003
7.916370e+002, 7.424768e+003
7.921191e+002, 7.418561e+003
7.926012e+002, 7.418174e+003
7.930833e+002, 7.430611e+003
7.935654e+002, 7.443229e+003
7.940475e+002, 7.450929e+003
7.945297e+002, 7.456652e+003
7.950118e+002, 7.464083e+003
7.954939e+002, 7.472620e+003
7.959760e+002, 7.478469e+003
7.964581e+002, 7.479275e+003
7.969402e+002, 7.478101e+003
7.974224e+002, 7.478966e+003
7.979045e+002, 7.481826e+003
7.983866e+002, 7.487454e+003
7.988687e+002, 7.496405e+003
7.993508e+002, 7.502851e+003
7.998329e+002, 7.502797e+003
8.003151e+002, 7.500068e+003
8.007972e+002, 7.501927e+003
8.012793e+002, 7.510007e+003
8.017614e+002, 7.516299e+003
8.022435e+002, 7.520979e+003
8.027256e+002, 7.523919e+003
8.032078e+002, 7.522450e+003
8.036899e+002, 7.520988e+003
8.041720e+002, 7.524298e+003
8.046541e+002, 7.532574e+003
8.051362e+002, 7.542601e+003
8.056183e+002, 7.554680e+003
8.061005e+002, 7.565442e+003
8.065826e+002, 7.570085e+003
8.070647e+002, 7.570985e+003
8.075468e+002, 7.573550e+003
8.080289e+002, 7.578614e+003
8.085110e+002, 7.583690e+003
8.089932e+002, 7.586962e+003
8.094753e+002, 7.589281e+003
8.099574e+002, 7.593452e+003
8.104395e+002, 7.600664e+003
8.109216e+002, 7.604150e+003
8.114037e+002, 7.601464e+003
8.118859e+002, 7.598481e+003
8.123680e+002, 7.597053e+003
8.128501e+002, 7.597596e+003
8.133322e+002, 7.600882e+003
8.138143e+002, 7.607081e+003
8.142964e+002, 7.614928e+003
8.147786e+002, 7.625403e+003
8.152607e+002, 7.636114e+003
8.157428e+002, 7.646924e+003
8.162249e+002, 7.656461e+003
8.167070e+002, 7.662000e+003
8.171891e+002, 7.663686e+003
8.176713e+002, 7.665421e+003
8.181534e+002, 7.670808e+003
8.186355e+002, 7.677018e+003
8.191176e+002, 7.676725e+003
8.195997e+002, 7.671225e+003
8.200818e+002, 7.672055e+003
8.205640e+002, 7.681873e+003
8.210461e+002, 7.691958e+003
8.215282e+002, 7.696018e+003
8.220103e+002, 7.695972e+003
8.224924e+002, 7.697611e+003
8.229745e+002, 7.701110e+003
8.234567e+002, 7.705912e+003
8.239388e+002, 7.714786e+003
8.244209e+002, 7.721854e+003
8.249030e+002, 7.724565e+003
8.253851e+002, 7.724636e+003
8.258672e+002, 7.723272e+003
8.263494e+002, 7.720847e+003
8.268315e+002, 7.721112e+003
8.273136e+002, 7.729409e+003
8.277957e+002, 7.737837e+003
8.282778e+002, 7.738556e+003
8.287599e+002, 7.735031e+003
8.292421e+002, 7.733127e+003
8.297242e+002, 7.734264e+003
8.302063e+002, 7.737911e+003
8.306884e+002, 7.743992e+003
8.311705e+002, 7.751385e+003
8.316526e+002, 7.757636e+003
8.321348e+002, 7.762688e+003
8.326169e+002, 7.765556e+003
8.330990e+002, 7.765271e+003
8.335811e+002, 7.765091e+003
8.340632e+002, 7.766337e+003
8.345453e+002, 7.769253e+003
8.350275e+002, 7.774979e+003
8.355096e+002, 7.785362e+003
8.359917e+002, 7.792586e+003
8.364738e+002, 7.794551e+003
8.369559e+002, 7.795709e+003
8.374380e+002, 7.796310e+003
8.379202e+002, 7.797826e+003
8.384023e+002, 7.803044e+003
8.388844e+002, 7.811454e+003
8.393665e+002, 7.817850e+003
8.398486e+002, 7.818999e+003
8.403307e+002, 7.817653e+003
8.408129e+002, 7.814453e+003
8.412950e+002, 7.811558e+003
8.417771e+002, 7.815230e+003
8.422592e+002, 7.825032e+003
8.427413e+002, 7.831818e+003
8.432234e+002, 7.829475e+003
8.437056e+002, 7.822798e+003
8.441877e+002, 7.821638e+003
8.446698e+002, 7.826447e+003
8.451519e+002, 7.831009e+003
8.456340e+002, 7.835081e+003
8.461161e+002, 7.838960e+003
8.465983e+002, 7.842861e+003
8.470804e+002, 7.846478e+003
8.475625e+002, 7.849270e+003
8.480446e+002, 7.851140e+003
8.485267e+002, 7.853217e+003
8.490089e+002, 7.856237e+003
8.494910e+002, 7.858503e+003
8.499731e+002, 7.857768e+003
8.504552e+002, 7.857458e+003
8.509373e+002, 7.862445e+003
8.514194e+002, 7.870784e+003
8.519016e+002, 7.875064e+003
8.523837e+002, 7.870950e+003
8.528658e+002, 7.866236e+003
8.533479e+002, 7.870060e+003
8.538300e+002, 7.877229e+003
8.543121e+002, 7.876509e+003
8.547943e+002, 7.869471e+003
8.552764e+002, 7.867955e+003
8.557585e+002, 7.877115e+003
8.562406e+002, 7.889525e+003
8.567227e+002, 7.895233e+003
8.572048e+002, 7.894852e+003
8.576870e+002, 7.897345e+003
8.581691e+002, 7.903412e+003
8.586512e+002, 7.909544e+003
8.591333e+002, 7.915512e+003
8.596154e+002, 7.920171e+003
8.600975e+002, 7.921810e+003
8.605797e+002, 7.921092e+003
8.610618e+002, 7.921947e+003
8.615439e+002, 7.925976e+003
8.620260e+002, 7.928912e+003
8.625081e+002, 7.930031e+003
8.629902e+002, 7.930308e+003
8.634724e+002, 7.929724e+003
8.639545e+002, 7.928994e+003
8.644366e+002, 7.929187e+003
8.649187e+002, 7.930572e+003
8.654008e+002, 7.932417e+003
8.658829e+002, 7.934020e+003
8.663651e+002, 7.936042e+003
8.668472e+002, 7.940951e+003
8.673293e+002, 7.946594e+003
8.678114e+002, 7.946001e+003
8.682935e+002, 7.938750e+003
8.687756e+002, 7.934280e+003
8.692578e+002, 7.940297e+003
8.697399e+002, 7.952223e+003
8.702220e+002, 7.958164e+003
8.707041e+002, 7.957674e+003
8.711862e+002, 7.960060e+003
8.716683e+002, 7.967051e+003
8.721505e+002, 7.973175e+003
8.726326e+002, 7.975357e+003
8.731147e+002, 7.975243e+003
8.735968e+002, 7.975177e+003
8.740789e+002, 7.974605e+003
8.745610e+002, 7.977017e+003
8.750432e+002, 7.987673e+003
8.755253e+002, 7.994200e+003
8.760074e+002, 7.989764e+003
8.764895e+002, 7.983333e+003
8.769716e+002, 7.982800e+003
8.774537e+002, 7.987290e+003
8.779359e+002, 7.991073e+003
8.784180e+002, 7.992044e+003
8.789001e+002, 7.992541e+003
8.793822e+002, 7.993678e+003
8.798643e+002, 7.995386e+003
8.803464e+002, 7.997889e+003
8.808286e+002, 8.000894e+003
8.813107e+002, 8.003394e+003
8.817928e+002, 8.005126e+003
8.822749e+002, 8.007566e+003
8.827570e+002, 8.012603e+003
8.832391e+002, 8.019471e+003
8.837213e+002, 8.025631e+003
8.842034e+002, 8.031158e+003
8.846855e+002, 8.037413e+003
8.851676e+002, 8.044932e+003
8.856497e+002, 8.051753e+003
8.861318e+002, 8.056722e+003
8.866140e+002, 8.059426e+003
8.870961e+002, 8.058131e+003
8.875782e+002, 8.050571e+003
8.880603e+002, 8.044688e+003
8.885424e+002, 8.040390e+003
8.890245e+002, 8.037893e+003
8.895067e+002, 8.038624e+003
8.899888e+002, 8.040299e+003
8.904709e+002, 8.039561e+003
8.909530e+002, 8.036313e+003
8.914351e+002, 8.035833e+003
8.919172e+002, 8.042905e+003
8.923994e+002, 8.048282e+003
8.928815e+002, 8.047031e+003
8.933636e+002, 8.043220e+003
8.938457e+002, 8.042021e+003
8.943278e+002, 8.041969e+003
8.948099e+002, 8.036497e+003
8.952921e+002, 8.022061e+003
8.957742e+002, 8.008378e+003
8.962563e+002, 8.005978e+003
8.967384e+002, 8.009818e+003
8.972205e+002, 8.012167e+003
8.977026e+002, 8.012825e+003
8.981848e+002, 8.012472e+003
8.986669e+002, 8.011407e+003
8.991490e+002, 8.010584e+003
8.996311e+002, 8.011136e+003
9.001132e+002, 8.012397e+003
9.005953e+002, 8.011210e+003
9.010775e+002, 8.007158e+003
9.015596e+002, 8.005667e+003
9.020417e+002, 8.008197e+003
9.025238e+002, 8.010845e+003
9.030059e+002, 8.011171e+003
9.034880e+002, 8.010151e+003
9.039702e+002, 8.009537e+003
9.044523e+002, 8.008702e+003
9.049344e+002, 8.010556e+003
9.054165e+002, 8.018672e+003
9.058986e+002, 8.024721e+003
9.063807e+002, 8.024814e+003
9.068629e+002, 8.023708e+003
9.073450e+002, 8.025906e+003
9.078271e+002, 8.030719e+003
9.083092e+002, 8.034186e+003
9.087913e+002, 8.034362e+003
9.092734e+002, 8.035086e+003
9.097556e+002, 8.039155e+003
9.102377e+002, 8.043632e+003
9.107198e+002, 8.046340e+003
9.112019e+002, 8.047313e+003
9.116840e+002, 8.046424e+003
9.121661e+002, 8.043938e+003
9.126483e+002, 8.042300e+003
9.131304e+002, 8.044077e+003
9.136125e+002, 8.047487e+003
9.140946e+002, 8.049358e+003
9.145767e+002, 8.050393e+003
9.150588e+002, 8.053730e+003
9.155410e+002, 8.059472e+003
9.160231e+002, 8.062683e+003
9.165052e+002, 8.059924e+003
9.169873e+002, 8.054681e+003
9.174694e+002, 8.053602e+003
9.179515e+002, 8.056787e+003
9.184337e+002, 8.062011e+003
9.189158e+002, 8.070386e+003
9.193979e+002, 8.075085e+003
9.198800e+002, 8.072001e+003
9.203621e+002, 8.068036e+003
9.208442e+002, 8.071694e+003
9.213264e+002, 8.081729e+003
9.218085e+002, 8.084657e+003
9.222906e+002, 8.071696e+003
9.227727e+002, 8.066096e+003
9.232548e+002, 8.072889e+003
9.237369e+002, 8.082586e+003
9.242191e+002, 8.094448e+003
9.247012e+002, 8.104801e+003
9.251833e+002, 8.106253e+003
9.256654e+002, 8.097489e+003
9.261475e+002, 8.093893e+003
9.266296e+002, 8.103153e+003
9.271118e+002, 8.115036e+003
9.275939e+002, 8.126441e+003
9.280760e+002, 8.136328e+003
9.285581e+002, 8.142454e+003
9.290402e+002, 8.146125e+003
9.295223e+002, 8.151146e+003
9.300045e+002, 8.158963e+003
9.304866e+002, 8.170141e+003
9.309687e+002, 8.187228e+003
9.314508e+002, 8.206815e+003
9.319329e+002, 8.224422e+003
9.324150e+002, 8.239650e+003
9.328972e+002, 8.251701e+003
9.333793e+002, 8.260610e+003
9.338614e+002, 8.268736e+003
9.343435e+002, 8.277923e+003
9.348256e+002, 8.288101e+003
9.353077e+002, 8.300073e+003
9.357899e+002, 8.313498e+003
9.362720e+002, 8.323649e+003
9.367541e+002, 8.329995e+003
9.372362e+002, 8.332657e+003
9.377183e+002, 8.331419e+003
9.382004e+002, 8.327354e+003
9.386826e+002, 8.321881e+003
9.391647e+002, 8.314979e+003
9.396468e+002, 8.307349e+003
9.401289e+002, 8.297635e+003
9.406110e+002, 8.290498e+003
9.410931e+002, 8.286578e+003
9.415753e+002, 8.285835e+003
9.420574e+002, 8.287999e+003
9.425395e+002, 8.293442e+003
9.430216e+002, 8.303400e+003
9.435037e+002, 8.319578e+003
9.439858e+002, 8.335107e+003
9.444680e+002, 8.347127e+003
9.449501e+002, 8.361295e+003
9.454322e+002, 8.378900e+003
9.459143e+002, 8.400393e+003
9.463964e+002, 8.426382e+003
9.468785e+002, 8.456717e+003
9.473607e+002, 8.490384e+003
9.478428e+002, 8.528284e+003
9.483249e+002, 8.567350e+003
9.488070e+002, 8.603455e+003
9.492891e+002, 8.641896e+003
9.497712e+002, 8.686120e+003
9.502534e+002, 8.736913e+003
9.507355e+002, 8.794406e+003
9.512176e+002, 8.858386e+003
9.516997e+002, 8.928003e+003
9.521818e+002, 9.001855e+003
9.526639e+002, 9.081343e+003
9.531461e+002, 9.168671e+003
9.536282e+002, 9.262640e+003
9.541103e+002, 9.360210e+003
9.545924e+002, 9.460756e+003
9.550745e+002, 9.565784e+003
9.555566e+002, 9.676906e+003
9.560388e+002, 9.783443e+003
9.565209e+002, 9.875104e+003
9.570030e+002, 9.950272e+003
9.574851e+002, 1.000233e+004
9.579672e+002, 1.003145e+004
9.584493e+002, 1.002964e+004
9.589315e+002, 9.995101e+003
9.594136e+002, 9.928203e+003
9.598957e+002, 9.826372e+003
9.603778e+002, 9.697428e+003
9.608599e+002, 9.558585e+003
9.613420e+002, 9.406543e+003
9.618242e+002, 9.263578e+003
9.623063e+002, 9.130388e+003
9.627884e+002, 9.005632e+003
9.632705e+002, 8.888811e+003
9.637526e+002, 8.781029e+003
9.642347e+002, 8.682535e+003
9.647169e+002, 8.593936e+003
9.651990e+002, 8.518537e+003
9.656811e+002, 8.459305e+003
9.661632e+002, 8.409348e+003
9.666453e+002, 8.376830e+003
9.671274e+002, 8.344302e+003
9.676096e+002, 8.299293e+003
9.680917e+002, 8.252957e+003
9.685738e+002, 8.222183e+003
9.690559e+002, 8.206922e+003
9.695380e+002, 8.186681e+003
9.700201e+002, 8.146868e+003
9.705023e+002, 8.113856e+003
9.709844e+002, 8.102053e+003
9.714665e+002, 8.095961e+003
9.719486e+002, 8.082486e+003
9.724307e+002, 8.064866e+003
9.729128e+002, 8.052222e+003
9.733950e+002, 8.046852e+003
9.738771e+002, 8.041662e+003
9.743592e+002, 8.031816e+003
9.748413e+002, 8.020897e+003
9.753234e+002, 8.011995e+003
9.758055e+002, 8.004057e+003
9.762877e+002, 7.994264e+003
9.767698e+002, 7.983701e+003
9.772519e+002, 7.977575e+003
9.777340e+002, 7.978445e+003
9.782161e+002, 7.980607e+003
9.786982e+002, 7.977611e+003
9.791804e+002, 7.971829e+003
9.796625e+002, 7.966865e+003
9.801446e+002, 7.963161e+003
9.806267e+002, 7.962372e+003
9.811088e+002, 7.964537e+003
9.815909e+002, 7.967361e+003
9.820731e+002, 7.969506e+003
9.825552e+002, 7.969935e+003
9.830373e+002, 7.966396e+003
9.835194e+002, 7.959287e+003
9.840015e+002, 7.950459e+003
9.844836e+002, 7.939998e+003
9.849658e+002, 7.934067e+003
9.854479e+002, 7.935281e+003
9.859300e+002, 7.935134e+003
9.864121e+002, 7.925241e+003
9.868942e+002, 7.908628e+003
9.873763e+002, 7.895572e+003
9.878585e+002, 7.885711e+003
9.883406e+002, 7.882653e+003
9.888227e+002, 7.888708e+003
9.893048e+002, 7.894294e+003
9.897869e+002, 7.895853e+003
9.902690e+002, 7.894442e+003
9.907512e+002, 7.890783e+003
9.912333e+002, 7.885101e+003
9.917154e+002, 7.880547e+003
9.921975e+002, 7.877686e+003
9.926796e+002, 7.874689e+003
9.931617e+002, 7.871125e+003
9.936439e+002, 7.867853e+003
9.941260e+002, 7.865444e+003
9.946081e+002, 7.863467e+003
9.950902e+002, 7.861447e+003
9.955723e+002, 7.859432e+003
9.960544e+002, 7.856803e+003
9.965366e+002, 7.851958e+003
9.970187e+002, 7.848805e+003
9.975008e+002, 7.851586e+003
9.979829e+002, 7.852586e+003
9.984650e+002, 7.844323e+003
9.989471e+002, 7.832188e+003
9.994293e+002, 7.826838e+003
9.999114e+002, 7.830111e+003
1.000393e+003, 7.829132e+003
1.000876e+003, 7.815530e+003
1.001358e+003, 7.803128e+003
1.001840e+003, 7.797593e+003
1.002322e+003, 7.795901e+003
1.002804e+003, 7.797797e+003
1.003286e+003, 7.800616e+003
1.003768e+003, 7.798748e+003
1.004250e+003, 7.790417e+003
1.004733e+003, 7.782518e+003
1.005215e+003, 7.779153e+003
1.005697e+003, 7.777212e+003
1.006179e+003, 7.774172e+003
1.006661e+003, 7.771344e+003
1.007143e+003, 7.770669e+003
1.007625e+003, 7.771921e+003
1.008107e+003, 7.773720e+003
1.008589e+003, 7.775533e+003
1.009072e+003, 7.777102e+003
1.009554e+003, 7.778630e+003
1.010036e+003, 7.779376e+003
1.010518e+003, 7.777687e+003
1.011000e+003, 7.774755e+003
1.011482e+003, 7.773306e+003
1.011964e+003, 7.773328e+003
1.012446e+003, 7.772258e+003
1.012929e+003, 7.768533e+003
1.013411e+003, 7.764597e+003
1.013893e+003, 7.764686e+003
1.014375e+003, 7.766065e+003
1.014857e+003, 7.762461e+003
1.015339e+003, 7.755158e+003
1.015821e+003, 7.749005e+003
1.016303e+003, 7.745052e+003
1.016785e+003, 7.741407e+003
1.017268e+003, 7.736777e+003
1.017750e+003, 7.731866e+003
1.018232e+003, 7.728067e+003
1.018714e+003, 7.724933e+003
1.019196e+003, 7.719764e+003
1.019678e+003, 7.712967e+003
1.020160e+003, 7.709094e+003
1.020642e+003, 7.709350e+003
1.021125e+003, 7.709515e+003
1.021607e+003, 7.706063e+003
1.022089e+003, 7.700695e+003
1.022571e+003, 7.698196e+003
1.023053e+003, 7.698167e+003
1.023535e+003, 7.691623e+003
1.024017e+003, 7.677780e+003
1.024499e+003, 7.670132e+003
1.024981e+003, 7.673591e+003
1.025464e+003, 7.679501e+003
1.025946e+003, 7.680263e+003
1.026428e+003, 7.677042e+003
1.026910e+003, 7.673046e+003
1.027392e+003, 7.668074e+003
1.027874e+003, 7.664014e+003
1.028356e+003, 7.660580e+003
1.028838e+003, 7.660240e+003
1.029321e+003, 7.665060e+003
1.029803e+003, 7.669495e+003
1.030285e+003, 7.667593e+003
1.030767e+003, 7.661068e+003
1.031249e+003, 7.658203e+003
1.031731e+003, 7.660932e+003
1.032213e+003, 7.659147e+003
1.032695e+003, 7.649973e+003
1.033177e+003, 7.643047e+003
1.033660e+003, 7.643151e+003
1.034142e+003, 7.644733e+003
1.034624e+003, 7.641656e+003
1.035106e+003, 7.634934e+003
1.035588e+003, 7.631220e+003
1.036070e+003, 7.632558e+003
1.036552e+003, 7.631934e+003
1.037034e+003, 7.627658e+003
1.037516e+003, 7.624351e+003
1.037999e+003, 7.626229e+003
1.038481e+003, 7.627250e+003
1.038963e+003, 7.619518e+003
1.039445e+003, 7.604542e+003
1.039927e+003, 7.593986e+003
1.040409e+003, 7.590499e+003
1.040891e+003, 7.586815e+003
1.041373e+003, 7.583196e+003
1.041855e+003, 7.579067e+003
1.042338e+003, 7.573715e+003
1.042820e+003, 7.568206e+003
1.043302e+003, 7.563448e+003
1.043784e+003, 7.559490e+003
1.044266e+003, 7.556454e+003
1.044748e+003, 7.556571e+003
1.045230e+003, 7.553943e+003
1.045712e+003, 7.545288e+003
1.046195e+003, 7.537485e+003
1.046677e+003, 7.534091e+003
1.047159e+003, 7.532308e+003
1.047641e+003, 7.528018e+003
1.048123e+003, 7.522026e+003
1.048605e+003, 7.520559e+003
1.049087e+003, 7.528491e+003
1.049569e+003, 7.533205e+003
1.050052e+003, 7.531609e+003
1.050534e+003, 7.527892e+003
1.051016e+003, 7.522761e+003
1.051498e+003, 7.517278e+003
1.051980e+003, 7.511438e+003
1.052462e+003, 7.505938e+003
1.052944e+003, 7.504283e+003
1.053426e+003, 7.508890e+003
1.053908e+003, 7.513611e+003
1.054391e+003, 7.522636e+003
1.054873e+003, 7.524997e+003
1.055355e+003, 7.507914e+003
1.055837e+003, 7.486228e+003
1.056319e+003, 7.477406e+003
1.056801e+003, 7.480567e+003
1.057283e+003, 7.483141e+003
1.057765e+003, 7.482742e+003
1.058248e+003, 7.480390e+003
1.058730e+003, 7.474163e+003
1.059212e+003, 7.468649e+003
1.059694e+003, 7.467606e+003
1.060176e+003, 7.467873e+003
1.060658e+003, 7.465029e+003
1.061140e+003, 7.459785e+003
1.061622e+003, 7.457095e+003
1.062104e+003, 7.459851e+003
1.062587e+003, 7.460805e+003
1.063069e+003, 7.454958e+003
1.063551e+003, 7.449289e+003
1.064033e+003, 7.449188e+003
1.064515e+003, 7.450540e+003
1.064997e+003, 7.447787e+003
1.065479e+003, 7.441745e+003
1.065961e+003, 7.437595e+003
1.066443e+003, 7.437380e+003
1.066926e+003, 7.437037e+003
1.067408e+003, 7.434878e+003
1.067890e+003, 7.432097e+003
1.068372e+003, 7.429429e+003
1.068854e+003, 7.426451e+003
1.069336e+003, 7.422039e+003
1.069818e+003, 7.416849e+003
1.070300e+003, 7.413151e+003
1.070782e+003, 7.411874e+003
1.071265e+003, 7.410602e+003
1.071747e+003, 7.408579e+003
1.072229e+003, 7.405865e+003
1.072711e+003, 7.402199e+003
1.073193e+003, 7.398114e+003
1.073675e+003, 7.394500e+003
1.074157e+003, 7.391009e+003
1.074639e+003, 7.385829e+003
1.075122e+003, 7.377904e+003
1.075604e+003, 7.372814e+003
1.076086e+003, 7.378190e+003
1.076568e+003, 7.381154e+003
1.077050e+003, 7.371634e+003
1.077532e+003, 7.357933e+003
1.078014e+003, 7.347413e+003
1.078496e+003, 7.340595e+003
1.078979e+003, 7.336622e+003
1.079461e+003, 7.335388e+003
1.079943e+003, 7.334314e+003
1.080425e+003, 7.333008e+003
1.080907e+003, 7.330604e+003
1.081389e+003, 7.325375e+003
1.081871e+003, 7.319896e+003
1.082353e+003, 7.317252e+003
1.082835e+003, 7.316136e+003
1.083318e+003, 7.313218e+003
1.083800e+003, 7.307780e+003
1.084282e+003, 7.302569e+003
1.084764e+003, 7.298175e+003
1.085246e+003, 7.295071e+003
1.085728e+003, 7.295146e+003
1.086210e+003, 7.295103e+003
1.086692e+003, 7.290048e+003
1.087175e+003, 7.283610e+003
1.087657e+003, 7.284540e+003
1.088139e+003, 7.293479e+003
1.088621e+003, 7.296740e+003
1.089103e+003, 7.282981e+003
1.089585e+003, 7.270713e+003
1.090067e+003, 7.271071e+003
1.090549e+003, 7.272735e+003
1.091031e+003, 7.265438e+003
1.091514e+003, 7.254411e+003
1.091996e+003, 7.248298e+003
1.092478e+003, 7.247903e+003
1.092960e+003, 7.248600e+003
1.093442e+003, 7.251237e+003
1.093924e+003, 7.250255e+003
1.094406e+003, 7.241047e+003
1.094888e+003, 7.230292e+003
1.095370e+003, 7.220671e+003
1.095853e+003, 7.213238e+003
1.096335e+003, 7.209754e+003
1.096817e+003, 7.209604e+003
1.097299e+003, 7.209588e+003
1.097781e+003, 7.210281e+003
1.098263e+003, 7.207620e+003
1.098745e+003, 7.195795e+003
1.099227e+003, 7.185768e+003
1.099709e+003, 7.185723e+003
1.100192e+003, 7.188601e+003
1.100674e+003, 7.186693e+003
1.101156e+003, 7.180792e+003
1.101638e+003, 7.175894e+003
1.102120e+003, 7.173319e+003
1.102602e+003, 7.170053e+003
1.103084e+003, 7.164764e+003
1.103566e+003, 7.159194e+003
1.104049e+003, 7.153413e+003
1.104531e+003, 7.147999e+003
1.105013e+003, 7.142667e+003
1.105495e+003, 7.138136e+003
1.105977e+003, 7.136768e+003
1.106459e+003, 7.139690e+003
1.106941e+003, 7.139514e+003
1.107423e+003, 7.132130e+003
1.107906e+003, 7.125521e+003
1.108388e+003, 7.122460e+003
1.108870e+003, 7.120255e+003
1.109352e+003, 7.118788e+003
1.109834e+003, 7.116366e+003
1.110316e+003, 7.108869e+003
1.110798e+003, 7.095686e+003
1.111280e+003, 7.087573e+003
1.111762e+003, 7.092010e+003
1.112245e+003, 7.091666e+003
1.112727e+003, 7.078671e+003
1.113209e+003, 7.067133e+003
1.113691e+003, 7.066114e+003
1.114173e+003, 7.068969e+003
1.114655e+003, 7.066878e+003
1.115137e+003, 7.060281e+003
1.115619e+003, 7.055641e+003
1.116102e+003, 7.054447e+003
1.116584e+003, 7.052463e+003
1.117066e+003, 7.049164e+003
1.117548e+003, 7.045635e+003
1.118030e+003, 7.042332e+003
1.118512e+003, 7.038677e+003
1.118994e+003, 7.032907e+003
1.119476e+003, 7.026464e+003
1.119958e+003, 7.025822e+003
1.120441e+003, 7.034807e+003
1.120923e+003, 7.036943e+003
1.121405e+003, 7.028245e+003
1.121887e+003, 7.021668e+003
1.122369e+003, 7.021814e+003
1.122851e+003, 7.022588e+003
1.123333e+003, 7.019382e+003
1.123815e+003, 7.013907e+003
1.124297e+003, 7.010140e+003
1.124780e+003, 7.008442e+003
1.125262e+003, 7.003710e+003
1.125744e+003, 6.994147e+003
1.126226e+003, 6.988810e+003
1.126708e+003, 6.990442e+003
1.127190e+003, 6.992426e+003
1.127672e+003, 6.991079e+003
1.128154e+003, 6.988214e+003
1.128636e+003, 6.986647e+003
1.129119e+003, 6.985959e+003
1.129601e+003, 6.982458e+003
1.130083e+003, 6.975729e+003
1.130565e+003, 6.970086e+003
1.131047e+003, 6.965958e+003
1.131529e+003, 6.962548e+003
1.132011e+003, 6.959398e+003
1.132493e+003, 6.958192e+003
1.132976e+003, 6.961338e+003
1.133458e+003, 6.966267e+003
1.133940e+003, 6.964976e+003
1.134422e+003, 6.958019e+003
1.134904e+003, 6.952072e+003
1.135386e+003, 6.947460e+003
1.135868e+003, 6.944333e+003
1.136350e+003, 6.942678e+003
1.136833e+003, 6.939123e+003
1.137315e+003, 6.930955e+003
1.137797e+003, 6.921651e+003
1.138279e+003, 6.917959e+003
1.138761e+003, 6.917843e+003
1.139243e+003, 6.913296e+003
1.139725e+003, 6.905772e+003
1.140207e+003, 6.902091e+003
1.140689e+003, 6.902806e+003
1.141172e+003, 6.903423e+003
1.141654e+003, 6.901799e+003
1.142136e+003, 6.899178e+003
1.142618e+003, 6.897351e+003
1.143100e+003, 6.894838e+003
1.143582e+003, 6.887659e+003
1.144064e+003, 6.878502e+003
1.144546e+003, 6.873651e+003
1.145029e+003, 6.872116e+003
1.145511e+003, 6.868222e+003
1.145993e+003, 6.860813e+003
1.146475e+003, 6.855505e+003
1.146957e+003, 6.857081e+003
1.147439e+003, 6.859688e+003
1.147921e+003, 6.857775e+003
1.148403e+003, 6.853442e+003
1.148885e+003, 6.848102e+003
1.149368e+003, 6.842831e+003
1.149850e+003, 6.839719e+003
1.150332e+003, 6.838371e+003
1.150814e+003, 6.835587e+003
1.151296e+003, 6.829656e+003
1.151778e+003, 6.824958e+003
1.152260e+003, 6.827598e+003
1.152742e+003, 6.828439e+003
1.153224e+003, 6.817278e+003
1.153707e+003, 6.804345e+003
1.154189e+003, 6.803037e+003
1.154671e+003, 6.808429e+003
1.155153e+003, 6.806158e+003
1.155635e+003, 6.793229e+003
1.156117e+003, 6.783771e+003
1.156599e+003, 6.786204e+003
1.157081e+003, 6.787104e+003
1.157563e+003, 6.780608e+003
1.158046e+003, 6.773187e+003
1.158528e+003, 6.768217e+003
1.159010e+003, 6.765141e+003
1.159492e+003, 6.763136e+003
1.159974e+003, 6.762086e+003
1.160456e+003, 6.761609e+003
1.160938e+003, 6.763015e+003
1.161420e+003, 6.762292e+003
1.161903e+003, 6.755623e+003
1.162385e+003, 6.752109e+003
1.162867e+003, 6.758827e+003
1.163349e+003, 6.763993e+003
1.163831e+003, 6.756255e+003
1.164313e+003, 6.741495e+003
1.164795e+003, 6.734417e+003
1.165277e+003, 6.736081e+003
1.165760e+003, 6.736339e+003
1.166242e+003, 6.735050e+003
1.166724e+003, 6.733017e+003
1.167206e+003, 6.730875e+003
1.167688e+003, 6.726010e+003
1.168170e+003, 6.715999e+003
1.168652e+003, 6.705962e+003
1.169134e+003, 6.703185e+003
1.169616e+003, 6.705502e+003
1.170099e+003, 6.702173e+003
1.170581e+003, 6.693116e+003
1.171063e+003, 6.684612e+003
1.171545e+003, 6.676995e+003
1.172027e+003, 6.674512e+003
1.172509e+003, 6.678494e+003
1.172991e+003, 6.683614e+003
1.173473e+003, 6.686103e+003
1.173956e+003, 6.685675e+003
1.174438e+003, 6.680722e+003
1.174920e+003, 6.672731e+003
1.175402e+003, 6.666678e+003
1.175884e+003, 6.662023e+003
1.176366e+003, 6.656201e+003
1.176848e+003, 6.649333e+003
1.177330e+003, 6.644614e+003
1.177813e+003, 6.643302e+003
1.178295e+003, 6.641966e+003
1.178777e+003, 6.636524e+003
1.179259e+003, 6.630989e+003
1.179741e+003, 6.633791e+003
1.180223e+003, 6.637247e+003
1.180705e+003, 6.627286e+003
1.181187e+003, 6.610008e+003
1.181669e+003, 6.600049e+003
1.182151e+003, 6.599212e+003
1.182634e+003, 6.599188e+003
1.183116e+003, 6.596698e+003
1.183598e+003, 6.592670e+003
1.184080e+003, 6.586575e+003
1.184562e+003, 6.580349e+003
1.185044e+003, 6.574978e+003
1.185526e+003, 6.570357e+003
1.186008e+003, 6.565896e+003
1.186490e+003, 6.562106e+003
1.186973e+003, 6.560702e+003
1.187455e+003, 6.562156e+003
1.187937e+003, 6.562124e+003
1.188419e+003, 6.557457e+003
1.188901e+003, 6.554647e+003
1.189383e+003, 6.557968e+003
1.189865e+003, 6.559876e+003
1.190347e+003, 6.556417e+003
1.190830e+003, 6.549696e+003
1.191312e+003, 6.540999e+003
1.191794e+003, 6.530933e+003
1.192276e+003, 6.522445e+003
1.192758e+003, 6.515660e+003
1.193240e+003, 6.509921e+003
1.193722e+003, 6.505092e+003
1.194204e+003, 6.501883e+003
1.194687e+003, 6.500656e+003
1.195169e+003, 6.500877e+003
1.195651e+003, 6.502970e+003
1.196133e+003, 6.504140e+003
1.196615e+003, 6.499452e+003
1.197097e+003, 6.490024e+003
1.197579e+003, 6.482378e+003
1.198061e+003, 6.476432e+003
1.198543e+003, 6.471234e+003
1.199026e+003, 6.466658e+003
1.199508e+003, 6.462283e+003
1.199990e+003, 6.458022e+003
1.200472e+003, 6.454648e+003
1.200954e+003, 6.452987e+003
1.201436e+003, 6.451686e+003
1.201918e+003, 6.449654e+003
1.202400e+003, 6.445909e+003
1.202883e+003, 6.436710e+003
1.203365e+003, 6.424826e+003
1.203847e+003, 6.416763e+003
1.204329e+003, 6.412610e+003
1.204811e+003, 6.408572e+003
1.205293e+003, 6.403305e+003
1.205775e+003, 6.399061e+003
1.206257e+003, 6.399189e+003
1.206740e+003, 6.398401e+003
1.207222e+003, 6.391892e+003
1.207704e+003, 6.383708e+003
1.208186e+003, 6.376419e+003
1.208668e+003, 6.370625e+003
1.209150e+003, 6.367433e+003
1.209632e+003, 6.366226e+003
1.210114e+003, 6.364029e+003
1.210596e+003, 6.360249e+003
1.211078e+003, 6.355313e+003
1.211561e+003, 6.346112e+003
1.212043e+003, 6.340073e+003
1.212525e+003, 6.344118e+003
1.213007e+003, 6.346797e+003
1.213489e+003, 6.338452e+003
1.213971e+003, 6.325912e+003
1.214453e+003, 6.319842e+003
1.214935e+003, 6.319855e+003
1.215417e+003, 6.319724e+003
1.215900e+003, 6.319530e+003
1.216382e+003, 6.319129e+003
1.216864e+003, 6.319315e+003
1.217346e+003, 6.315274e+003
1.217828e+003, 6.304911e+003
1.218310e+003, 6.292569e+003
1.218792e+003, 6.280757e+003
1.219274e+003, 6.271945e+003
1.219757e+003, 6.272542e+003
1.220239e+003, 6.279716e+003
1.220721e+003, 6.279053e+003
1.221203e+003, 6.272104e+003
1.221685e+003, 6.266791e+003
1.222167e+003, 6.263427e+003
1.222649e+003, 6.256459e+003
1.223131e+003, 6.244446e+003
1.223614e+003, 6.234175e+003
1.224096e+003, 6.230835e+003
1.224578e+003, 6.231178e+003
1.225060e+003, 6.233027e+003
1.225542e+003, 6.235265e+003
1.226024e+003, 6.238010e+003
1.226506e+003, 6.239264e+003
1.226988e+003, 6.235529e+003
1.227470e+003, 6.227641e+003
1.227953e+003, 6.218273e+003
1.228435e+003, 6.208046e+003
1.228917e+003, 6.200604e+003
1.229399e+003, 6.200530e+003
1.229881e+003, 6.198876e+003
1.230363e+003, 6.189558e+003
1.230845e+003, 6.181337e+003
1.231327e+003, 6.181716e+003
1.231810e+003, 6.184217e+003
1.232292e+003, 6.180338e+003
1.232774e+003, 6.171771e+003
1.233256e+003, 6.165660e+003
1.233738e+003, 6.162868e+003
1.234220e+003, 6.158760e+003
1.234702e+003, 6.153100e+003
1.235184e+003, 6.146583e+003
1.235667e+003, 6.138548e+003
1.236149e+003, 6.133382e+003
1.236631e+003, 6.134062e+003
1.237113e+003, 6.135588e+003
1.237595e+003, 6.132032e+003
1.238077e+003, 6.124562e+003
1.238559e+003, 6.115756e+003
1.239041e+003, 6.106113e+003
1.239523e+003, 6.098346e+003
1.240005e+003, 6.092089e+003
1.240488e+003, 6.084198e+003
1.240970e+003, 6.074881e+003
1.241452e+003, 6.069616e+003
1.241934e+003, 6.071104e+003
1.242416e+003, 6.074181e+003
1.242898e+003, 6.075583e+003
1.243380e+003, 6.074518e+003
1.243862e+003, 6.068689e+003
1.244344e+003, 6.061194e+003
1.244827e+003, 6.054401e+003
1.245309e+003, 6.049079e+003
1.245791e+003, 6.046912e+003
1.246273e+003, 6.047124e+003
1.246755e+003, 6.045432e+003
1.247237e+003, 6.040275e+003
1.247719e+003, 6.034765e+003
1.248201e+003, 6.029312e+003
1.248684e+003, 6.023970e+003
1.249166e+003, 6.017596e+003
1.249648e+003, 6.012833e+003
1.250130e+003, 6.012525e+003
1.250612e+003, 6.013337e+003
1.251094e+003, 6.010613e+003
1.251576e+003, 6.004979e+003
1.252058e+003, 6.000892e+003
1.252541e+003, 5.999180e+003
1.253023e+003, 5.991419e+003
1.253505e+003, 5.976265e+003
1.253987e+003, 5.969873e+003
1.254469e+003, 5.976162e+003
1.254951e+003, 5.981718e+003
1.255433e+003, 5.978771e+003
1.255915e+003, 5.972476e+003
1.256397e+003, 5.969210e+003
1.256880e+003, 5.966670e+003
1.257362e+003, 5.958868e+003
1.257844e+003, 5.949290e+003
1.258326e+003, 5.945041e+003
1.258808e+003, 5.945029e+003
1.259290e+003, 5.945987e+003
1.259772e+003, 5.946886e+003
1.260254e+003, 5.947422e+003
1.260737e+003, 5.947680e+003
1.261219e+003, 5.945968e+003
1.261701e+003, 5.941472e+003
1.262183e+003, 5.934735e+003
1.262665e+003, 5.921542e+003
1.263147e+003, 5.910917e+003
1.263629e+003, 5.911017e+003
1.264111e+003, 5.916633e+003
1.264594e+003, 5.922663e+003
1.265076e+003, 5.927547e+003
1.265558e+003, 5.923595e+003
1.266040e+003, 5.906627e+003
1.266522e+003, 5.895971e+003
1.267004e+003, 5.892917e+003
1.267486e+003, 5.891861e+003
1.267968e+003, 5.892309e+003
1.268450e+003, 5.891843e+003
1.268932e+003, 5.889183e+003
1.269415e+003, 5.885479e+003
1.269897e+003, 5.881993e+003
1.270379e+003, 5.878392e+003
1.270861e+003, 5.873885e+003
1.271343e+003, 5.868571e+003
1.271825e+003, 5.861915e+003
1.272307e+003, 5.854870e+003
1.272789e+003, 5.850748e+003
1.273271e+003, 5.849276e+003
1.273754e+003, 5.847599e+003
1.274236e+003, 5.844509e+003
1.274718e+003, 5.838729e+003
1.275200e+003, 5.824509e+003
1.275682e+003, 5.815036e+003
1.276164e+003, 5.822779e+003
1.276646e+003, 5.832859e+003
1.277128e+003, 5.836930e+003
1.277611e+003, 5.835612e+003
1.278093e+003, 5.827651e+003
1.278575e+003, 5.815819e+003
1.279057e+003, 5.808856e+003
1.279539e+003, 5.807966e+003
1.280021e+003, 5.806321e+003
1.280503e+003, 5.801976e+003
1.280985e+003, 5.799065e+003
1.281468e+003, 5.799764e+003
1.281950e+003, 5.802739e+003
1.282432e+003, 5.808094e+003
1.282914e+003, 5.810809e+003
1.283396e+003, 5.806328e+003
1.283878e+003, 5.798857e+003
1.284360e+003, 5.795827e+003
1.284842e+003, 5.793390e+003
1.285324e+003, 5.781752e+003
##END=



