##NAMES=Barylite
##RRUFFID=R060606
##IDEAL CHEMISTRY=BaBe_2_Si_2_O_7_
##LOCALITY=Hackmann Valley, Yukspor Mountain, Khibiny, Kola, Russia
##OWNER=RRUFF
##SOURCE=Michael Scott
##DESCRIPTION=Radiating group of colorless flattened bladed crystals on white microcline. Polytype barylite-1O, formally known as clinobarylite.
##STATUS=The identification of this mineral is confirmed by single-crystal X-ray diffraction and chemical analysis.
##URL=rruff.info/R060606
##MEASURED CHEMISTRY=Ba_1.00_Be_2.00_Si_2.00_O_7_ ; trace amounts of Ti; BeO estimated by difference
8.975323e+001, 0.000000e+000
9.023535e+001, 2.281917e+002
9.071747e+001, 2.275438e+002
9.119958e+001, 2.264414e+002
9.168170e+001, 2.292467e+002
9.216382e+001, 2.304724e+002
9.264594e+001, 2.289532e+002
9.312805e+001, 2.255143e+002
9.361017e+001, 2.215041e+002
9.409229e+001, 2.177076e+002
9.457440e+001, 2.143980e+002
9.505651e+001, 2.107737e+002
9.553863e+001, 2.063100e+002
9.602074e+001, 2.019946e+002
9.650286e+001, 1.987910e+002
9.698498e+001, 1.969704e+002
9.746709e+001, 1.957861e+002
9.794921e+001, 1.945859e+002
9.843133e+001, 1.934165e+002
9.891344e+001, 1.922464e+002
9.939556e+001, 1.907824e+002
9.987768e+001, 1.891953e+002
1.003598e+002, 1.880367e+002
1.008419e+002, 1.876089e+002
1.013240e+002, 1.879315e+002
1.018061e+002, 1.886041e+002
1.022883e+002, 1.897511e+002
1.027704e+002, 1.911333e+002
1.032525e+002, 1.923505e+002
1.037346e+002, 1.932488e+002
1.042167e+002, 1.947330e+002
1.046988e+002, 1.975299e+002
1.051810e+002, 2.012122e+002
1.056631e+002, 2.053432e+002
1.061452e+002, 2.105321e+002
1.066273e+002, 2.161641e+002
1.071094e+002, 2.197507e+002
1.075915e+002, 2.209718e+002
1.080737e+002, 2.201494e+002
1.085558e+002, 2.173508e+002
1.090379e+002, 2.128172e+002
1.095200e+002, 2.070593e+002
1.100021e+002, 2.003075e+002
1.104842e+002, 1.923625e+002
1.109664e+002, 1.845947e+002
1.114485e+002, 1.761319e+002
1.119306e+002, 1.684750e+002
1.124127e+002, 1.623366e+002
1.128948e+002, 1.578388e+002
1.133769e+002, 1.546160e+002
1.138591e+002, 1.522246e+002
1.143412e+002, 1.510132e+002
1.148233e+002, 1.501438e+002
1.153054e+002, 1.497445e+002
1.157875e+002, 1.496016e+002
1.162696e+002, 1.495267e+002
1.167517e+002, 1.494535e+002
1.172339e+002, 1.493956e+002
1.177160e+002, 1.493825e+002
1.181981e+002, 1.493656e+002
1.186802e+002, 1.494581e+002
1.191623e+002, 1.497047e+002
1.196444e+002, 1.500851e+002
1.201266e+002, 1.505480e+002
1.206087e+002, 1.510620e+002
1.210908e+002, 1.516642e+002
1.215729e+002, 1.524079e+002
1.220550e+002, 1.533797e+002
1.225371e+002, 1.543418e+002
1.230193e+002, 1.550128e+002
1.235014e+002, 1.553489e+002
1.239835e+002, 1.557793e+002
1.244656e+002, 1.567009e+002
1.249477e+002, 1.577533e+002
1.254298e+002, 1.586973e+002
1.259120e+002, 1.595775e+002
1.263941e+002, 1.601359e+002
1.268762e+002, 1.596671e+002
1.273583e+002, 1.574688e+002
1.278404e+002, 1.553696e+002
1.283225e+002, 1.539380e+002
1.288047e+002, 1.529161e+002
1.292868e+002, 1.519488e+002
1.297689e+002, 1.507862e+002
1.302510e+002, 1.494631e+002
1.307331e+002, 1.484962e+002
1.312152e+002, 1.482213e+002
1.316974e+002, 1.479977e+002
1.321795e+002, 1.475915e+002
1.326616e+002, 1.470952e+002
1.331437e+002, 1.467589e+002
1.336258e+002, 1.468028e+002
1.341079e+002, 1.472763e+002
1.345901e+002, 1.478921e+002
1.350722e+002, 1.488265e+002
1.355543e+002, 1.497373e+002
1.360364e+002, 1.505582e+002
1.365185e+002, 1.512345e+002
1.370006e+002, 1.515506e+002
1.374828e+002, 1.511882e+002
1.379649e+002, 1.499859e+002
1.384470e+002, 1.487973e+002
1.389291e+002, 1.476061e+002
1.394112e+002, 1.464720e+002
1.398933e+002, 1.454209e+002
1.403755e+002, 1.444335e+002
1.408576e+002, 1.436502e+002
1.413397e+002, 1.432847e+002
1.418218e+002, 1.432829e+002
1.423039e+002, 1.435383e+002
1.427860e+002, 1.440232e+002
1.432681e+002, 1.447348e+002
1.437503e+002, 1.456239e+002
1.442324e+002, 1.464914e+002
1.447145e+002, 1.478240e+002
1.451966e+002, 1.501768e+002
1.456787e+002, 1.535355e+002
1.461608e+002, 1.569056e+002
1.466430e+002, 1.595168e+002
1.471251e+002, 1.613457e+002
1.476072e+002, 1.626576e+002
1.480893e+002, 1.635210e+002
1.485714e+002, 1.638302e+002
1.490535e+002, 1.633994e+002
1.495357e+002, 1.622081e+002
1.500178e+002, 1.604821e+002
1.504999e+002, 1.584569e+002
1.509820e+002, 1.557529e+002
1.514641e+002, 1.535760e+002
1.519462e+002, 1.522547e+002
1.524284e+002, 1.512614e+002
1.529105e+002, 1.501690e+002
1.533926e+002, 1.488249e+002
1.538747e+002, 1.473700e+002
1.543568e+002, 1.461615e+002
1.548389e+002, 1.454198e+002
1.553211e+002, 1.446986e+002
1.558032e+002, 1.438672e+002
1.562853e+002, 1.430728e+002
1.567674e+002, 1.425650e+002
1.572495e+002, 1.424883e+002
1.577316e+002, 1.426838e+002
1.582138e+002, 1.424582e+002
1.586959e+002, 1.415882e+002
1.591780e+002, 1.406204e+002
1.596601e+002, 1.396192e+002
1.601422e+002, 1.386120e+002
1.606243e+002, 1.376268e+002
1.611065e+002, 1.366471e+002
1.615886e+002, 1.357407e+002
1.620707e+002, 1.351528e+002
1.625528e+002, 1.350654e+002
1.630349e+002, 1.350906e+002
1.635170e+002, 1.349079e+002
1.639991e+002, 1.345601e+002
1.644813e+002, 1.344911e+002
1.649634e+002, 1.350900e+002
1.654455e+002, 1.361617e+002
1.659276e+002, 1.372184e+002
1.664097e+002, 1.383289e+002
1.668918e+002, 1.393165e+002
1.673740e+002, 1.398579e+002
1.678561e+002, 1.398305e+002
1.683382e+002, 1.399360e+002
1.688203e+002, 1.407670e+002
1.693024e+002, 1.419314e+002
1.697845e+002, 1.429541e+002
1.702667e+002, 1.435372e+002
1.707488e+002, 1.439369e+002
1.712309e+002, 1.447369e+002
1.717130e+002, 1.460060e+002
1.721951e+002, 1.476010e+002
1.726772e+002, 1.494799e+002
1.731594e+002, 1.515864e+002
1.736415e+002, 1.538623e+002
1.741236e+002, 1.562773e+002
1.746057e+002, 1.588259e+002
1.750878e+002, 1.614602e+002
1.755699e+002, 1.644091e+002
1.760521e+002, 1.671809e+002
1.765342e+002, 1.701312e+002
1.770163e+002, 1.728000e+002
1.774984e+002, 1.744546e+002
1.779805e+002, 1.745984e+002
1.784626e+002, 1.732253e+002
1.789448e+002, 1.704864e+002
1.794269e+002, 1.646441e+002
1.799090e+002, 1.591457e+002
1.803911e+002, 1.548456e+002
1.808732e+002, 1.517497e+002
1.813553e+002, 1.495928e+002
1.818375e+002, 1.481571e+002
1.823196e+002, 1.474517e+002
1.828017e+002, 1.475735e+002
1.832838e+002, 1.485368e+002
1.837659e+002, 1.500848e+002
1.842480e+002, 1.523298e+002
1.847301e+002, 1.551418e+002
1.852123e+002, 1.580752e+002
1.856944e+002, 1.607339e+002
1.861765e+002, 1.630769e+002
1.866586e+002, 1.652580e+002
1.871407e+002, 1.673116e+002
1.876228e+002, 1.691735e+002
1.881050e+002, 1.705417e+002
1.885871e+002, 1.714234e+002
1.890692e+002, 1.725867e+002
1.895513e+002, 1.748647e+002
1.900334e+002, 1.782497e+002
1.905155e+002, 1.817959e+002
1.909977e+002, 1.852669e+002
1.914798e+002, 1.889021e+002
1.919619e+002, 1.930754e+002
1.924440e+002, 1.979057e+002
1.929261e+002, 2.029127e+002
1.934082e+002, 2.076298e+002
1.938904e+002, 2.121516e+002
1.943725e+002, 2.167397e+002
1.948546e+002, 2.215224e+002
1.953367e+002, 2.264324e+002
1.958188e+002, 2.312405e+002
1.963009e+002, 2.356824e+002
1.967831e+002, 2.406013e+002
1.972652e+002, 2.465238e+002
1.977473e+002, 2.533485e+002
1.982294e+002, 2.608503e+002
1.987115e+002, 2.688132e+002
1.991936e+002, 2.773700e+002
1.996758e+002, 2.869230e+002
2.001579e+002, 2.972786e+002
2.006400e+002, 3.092013e+002
2.011221e+002, 3.232917e+002
2.016042e+002, 3.390254e+002
2.020863e+002, 3.550631e+002
2.025685e+002, 3.717303e+002
2.030506e+002, 3.887598e+002
2.035327e+002, 4.009357e+002
2.040148e+002, 4.083334e+002
2.044969e+002, 4.097467e+002
2.049790e+002, 4.030749e+002
2.054612e+002, 3.900606e+002
2.059433e+002, 3.743154e+002
2.064254e+002, 3.579715e+002
2.069075e+002, 3.408271e+002
2.073896e+002, 3.270677e+002
2.078717e+002, 3.181728e+002
2.083539e+002, 3.115639e+002
2.088360e+002, 3.077861e+002
2.093181e+002, 3.059243e+002
2.098002e+002, 3.042577e+002
2.102823e+002, 3.014884e+002
2.107644e+002, 2.978019e+002
2.112466e+002, 2.913961e+002
2.117287e+002, 2.815053e+002
2.122108e+002, 2.699721e+002
2.126929e+002, 2.564583e+002
2.131750e+002, 2.416893e+002
2.136571e+002, 2.271010e+002
2.141393e+002, 2.139728e+002
2.146214e+002, 2.023575e+002
2.151035e+002, 1.920279e+002
2.155856e+002, 1.827112e+002
2.160677e+002, 1.745412e+002
2.165498e+002, 1.676902e+002
2.170320e+002, 1.620880e+002
2.175141e+002, 1.573549e+002
2.179962e+002, 1.532123e+002
2.184783e+002, 1.497160e+002
2.189604e+002, 1.467739e+002
2.194425e+002, 1.446229e+002
2.199247e+002, 1.427433e+002
2.204068e+002, 1.407377e+002
2.208889e+002, 1.386320e+002
2.213710e+002, 1.368359e+002
2.218531e+002, 1.357897e+002
2.223352e+002, 1.355558e+002
2.228174e+002, 1.350002e+002
2.232995e+002, 1.338612e+002
2.237816e+002, 1.325962e+002
2.242637e+002, 1.314538e+002
2.247458e+002, 1.304633e+002
2.252279e+002, 1.297534e+002
2.257100e+002, 1.295753e+002
2.261922e+002, 1.298401e+002
2.266743e+002, 1.297846e+002
2.271564e+002, 1.291119e+002
2.276385e+002, 1.282563e+002
2.281206e+002, 1.275881e+002
2.286027e+002, 1.271271e+002
2.290849e+002, 1.267897e+002
2.295670e+002, 1.265371e+002
2.300491e+002, 1.263718e+002
2.305312e+002, 1.262965e+002
2.310133e+002, 1.263215e+002
2.314954e+002, 1.264335e+002
2.319776e+002, 1.267070e+002
2.324597e+002, 1.271905e+002
2.329418e+002, 1.274916e+002
2.334239e+002, 1.270814e+002
2.339060e+002, 1.263724e+002
2.343881e+002, 1.260129e+002
2.348703e+002, 1.263200e+002
2.353524e+002, 1.269155e+002
2.358345e+002, 1.272400e+002
2.363166e+002, 1.271976e+002
2.367987e+002, 1.272914e+002
2.372808e+002, 1.281179e+002
2.377630e+002, 1.291233e+002
2.382451e+002, 1.296384e+002
2.387272e+002, 1.293062e+002
2.392093e+002, 1.286160e+002
2.396914e+002, 1.284013e+002
2.401735e+002, 1.288473e+002
2.406557e+002, 1.291702e+002
2.411378e+002, 1.288354e+002
2.416199e+002, 1.283314e+002
2.421020e+002, 1.281331e+002
2.425841e+002, 1.284280e+002
2.430662e+002, 1.290110e+002
2.435484e+002, 1.295847e+002
2.440305e+002, 1.302168e+002
2.445126e+002, 1.306414e+002
2.449947e+002, 1.305095e+002
2.454768e+002, 1.302954e+002
2.459589e+002, 1.304463e+002
2.464410e+002, 1.311269e+002
2.469232e+002, 1.320557e+002
2.474053e+002, 1.327636e+002
2.478874e+002, 1.331778e+002
2.483695e+002, 1.335268e+002
2.488516e+002, 1.335669e+002
2.493337e+002, 1.337244e+002
2.498159e+002, 1.344072e+002
2.502980e+002, 1.357288e+002
2.507801e+002, 1.373579e+002
2.512622e+002, 1.387205e+002
2.517443e+002, 1.395642e+002
2.522264e+002, 1.407107e+002
2.527086e+002, 1.424871e+002
2.531907e+002, 1.443760e+002
2.536728e+002, 1.460676e+002
2.541549e+002, 1.474633e+002
2.546370e+002, 1.486117e+002
2.551191e+002, 1.495702e+002
2.556013e+002, 1.502435e+002
2.560834e+002, 1.509160e+002
2.565655e+002, 1.518690e+002
2.570476e+002, 1.526369e+002
2.575297e+002, 1.528396e+002
2.580118e+002, 1.524474e+002
2.584940e+002, 1.517804e+002
2.589761e+002, 1.512318e+002
2.594582e+002, 1.507280e+002
2.599403e+002, 1.505708e+002
2.604224e+002, 1.506829e+002
2.609045e+002, 1.511131e+002
2.613867e+002, 1.519898e+002
2.618688e+002, 1.532712e+002
2.623509e+002, 1.547210e+002
2.628330e+002, 1.560965e+002
2.633151e+002, 1.574212e+002
2.637972e+002, 1.585603e+002
2.642794e+002, 1.595182e+002
2.647615e+002, 1.603268e+002
2.652436e+002, 1.608976e+002
2.657257e+002, 1.612913e+002
2.662078e+002, 1.617203e+002
2.666899e+002, 1.623921e+002
2.671721e+002, 1.633336e+002
2.676542e+002, 1.643692e+002
2.681363e+002, 1.654359e+002
2.686184e+002, 1.666282e+002
2.691005e+002, 1.682975e+002
2.695826e+002, 1.702183e+002
2.700648e+002, 1.717781e+002
2.705469e+002, 1.725903e+002
2.710290e+002, 1.726764e+002
2.715111e+002, 1.708435e+002
2.719932e+002, 1.658732e+002
2.724753e+002, 1.606334e+002
2.729575e+002, 1.560553e+002
2.734396e+002, 1.521882e+002
2.739217e+002, 1.488799e+002
2.744038e+002, 1.460090e+002
2.748859e+002, 1.435993e+002
2.753680e+002, 1.420939e+002
2.758501e+002, 1.417500e+002
2.763322e+002, 1.417758e+002
2.768144e+002, 1.420283e+002
2.772965e+002, 1.424512e+002
2.777786e+002, 1.429477e+002
2.782607e+002, 1.434603e+002
2.787428e+002, 1.440132e+002
2.792249e+002, 1.447345e+002
2.797071e+002, 1.456259e+002
2.801892e+002, 1.466431e+002
2.806713e+002, 1.478829e+002
2.811534e+002, 1.492299e+002
2.816355e+002, 1.504536e+002
2.821176e+002, 1.514341e+002
2.825998e+002, 1.523043e+002
2.830819e+002, 1.534438e+002
2.835640e+002, 1.553294e+002
2.840461e+002, 1.565887e+002
2.845282e+002, 1.567735e+002
2.850103e+002, 1.562097e+002
2.854925e+002, 1.553419e+002
2.859746e+002, 1.543050e+002
2.864567e+002, 1.530512e+002
2.869388e+002, 1.513788e+002
2.874209e+002, 1.490700e+002
2.879030e+002, 1.471360e+002
2.883852e+002, 1.458890e+002
2.888673e+002, 1.450484e+002
2.893494e+002, 1.443450e+002
2.898315e+002, 1.437236e+002
2.903136e+002, 1.431103e+002
2.907957e+002, 1.423691e+002
2.912779e+002, 1.414648e+002
2.917600e+002, 1.407498e+002
2.922421e+002, 1.402378e+002
2.927242e+002, 1.399422e+002
2.932063e+002, 1.399489e+002
2.936884e+002, 1.402619e+002
2.941706e+002, 1.406324e+002
2.946527e+002, 1.407804e+002
2.951348e+002, 1.407167e+002
2.956169e+002, 1.409696e+002
2.960990e+002, 1.419051e+002
2.965811e+002, 1.429125e+002
2.970633e+002, 1.433959e+002
2.975454e+002, 1.433871e+002
2.980275e+002, 1.435268e+002
2.985096e+002, 1.443214e+002
2.989917e+002, 1.456746e+002
2.994738e+002, 1.468023e+002
2.999560e+002, 1.474216e+002
3.004381e+002, 1.480677e+002
3.009202e+002, 1.493128e+002
3.014023e+002, 1.509590e+002
3.018844e+002, 1.521291e+002
3.023665e+002, 1.523669e+002
3.028487e+002, 1.517775e+002
3.033308e+002, 1.508015e+002
3.038129e+002, 1.493227e+002
3.042950e+002, 1.476933e+002
3.047771e+002, 1.458864e+002
3.052592e+002, 1.440339e+002
3.057414e+002, 1.424749e+002
3.062235e+002, 1.413401e+002
3.067056e+002, 1.405594e+002
3.071877e+002, 1.400207e+002
3.076698e+002, 1.396812e+002
3.081519e+002, 1.396043e+002
3.086341e+002, 1.399908e+002
3.091162e+002, 1.406177e+002
3.095983e+002, 1.410596e+002
3.100804e+002, 1.411715e+002
3.105625e+002, 1.412410e+002
3.110446e+002, 1.417148e+002
3.115268e+002, 1.426082e+002
3.120089e+002, 1.433669e+002
3.124910e+002, 1.437684e+002
3.129731e+002, 1.440307e+002
3.134552e+002, 1.444583e+002
3.139373e+002, 1.451011e+002
3.144195e+002, 1.456835e+002
3.149016e+002, 1.458344e+002
3.153837e+002, 1.456092e+002
3.158658e+002, 1.457985e+002
3.163479e+002, 1.466622e+002
3.168300e+002, 1.478250e+002
3.173121e+002, 1.490830e+002
3.177943e+002, 1.504094e+002
3.182764e+002, 1.516068e+002
3.187585e+002, 1.524617e+002
3.192406e+002, 1.530879e+002
3.197227e+002, 1.540338e+002
3.202048e+002, 1.553233e+002
3.206870e+002, 1.568979e+002
3.211691e+002, 1.588111e+002
3.216512e+002, 1.610013e+002
3.221333e+002, 1.633150e+002
3.226154e+002, 1.657207e+002
3.230975e+002, 1.681415e+002
3.235797e+002, 1.703152e+002
3.240618e+002, 1.721692e+002
3.245439e+002, 1.740040e+002
3.250260e+002, 1.763067e+002
3.255081e+002, 1.786157e+002
3.259902e+002, 1.800786e+002
3.264724e+002, 1.804130e+002
3.269545e+002, 1.798806e+002
3.274366e+002, 1.788333e+002
3.279187e+002, 1.773684e+002
3.284008e+002, 1.751385e+002
3.288829e+002, 1.715790e+002
3.293651e+002, 1.674518e+002
3.298472e+002, 1.635027e+002
3.303293e+002, 1.598596e+002
3.308114e+002, 1.566285e+002
3.312935e+002, 1.539616e+002
3.317756e+002, 1.519207e+002
3.322578e+002, 1.499752e+002
3.327399e+002, 1.479161e+002
3.332220e+002, 1.461059e+002
3.337041e+002, 1.449253e+002
3.341862e+002, 1.443229e+002
3.346683e+002, 1.437982e+002
3.351505e+002, 1.430023e+002
3.356326e+002, 1.419890e+002
3.361147e+002, 1.411834e+002
3.365968e+002, 1.406656e+002
3.370789e+002, 1.402343e+002
3.375610e+002, 1.396960e+002
3.380432e+002, 1.391738e+002
3.385253e+002, 1.390592e+002
3.390074e+002, 1.396192e+002
3.394895e+002, 1.404956e+002
3.399716e+002, 1.406597e+002
3.404537e+002, 1.396798e+002
3.409359e+002, 1.388922e+002
3.414180e+002, 1.386526e+002
3.419001e+002, 1.387055e+002
3.423822e+002, 1.387436e+002
3.428643e+002, 1.386792e+002
3.433464e+002, 1.385672e+002
3.438286e+002, 1.384671e+002
3.443107e+002, 1.383411e+002
3.447928e+002, 1.383772e+002
3.452749e+002, 1.387032e+002
3.457570e+002, 1.391034e+002
3.462391e+002, 1.394064e+002
3.467213e+002, 1.396028e+002
3.472034e+002, 1.397988e+002
3.476855e+002, 1.400889e+002
3.481676e+002, 1.404807e+002
3.486497e+002, 1.408480e+002
3.491318e+002, 1.409691e+002
3.496140e+002, 1.412883e+002
3.500961e+002, 1.419859e+002
3.505782e+002, 1.430284e+002
3.510603e+002, 1.443129e+002
3.515424e+002, 1.457717e+002
3.520245e+002, 1.474288e+002
3.525067e+002, 1.494255e+002
3.529888e+002, 1.520369e+002
3.534709e+002, 1.546389e+002
3.539530e+002, 1.571931e+002
3.544351e+002, 1.596803e+002
3.549172e+002, 1.621750e+002
3.553994e+002, 1.646860e+002
3.558815e+002, 1.669954e+002
3.563636e+002, 1.687288e+002
3.568457e+002, 1.695314e+002
3.573278e+002, 1.704349e+002
3.578099e+002, 1.715679e+002
3.582920e+002, 1.726966e+002
3.587741e+002, 1.735526e+002
3.592563e+002, 1.741856e+002
3.597384e+002, 1.749101e+002
3.602205e+002, 1.760146e+002
3.607026e+002, 1.774955e+002
3.611847e+002, 1.794290e+002
3.616668e+002, 1.820020e+002
3.621490e+002, 1.847923e+002
3.626311e+002, 1.876127e+002
3.631132e+002, 1.905640e+002
3.635953e+002, 1.937979e+002
3.640774e+002, 1.974113e+002
3.645595e+002, 2.013843e+002
3.650417e+002, 2.056089e+002
3.655238e+002, 2.096868e+002
3.660059e+002, 2.146558e+002
3.664880e+002, 2.206764e+002
3.669701e+002, 2.275384e+002
3.674522e+002, 2.349714e+002
3.679344e+002, 2.428778e+002
3.684165e+002, 2.515352e+002
3.688986e+002, 2.616030e+002
3.693807e+002, 2.737381e+002
3.698628e+002, 2.854682e+002
3.703449e+002, 2.983876e+002
3.708271e+002, 3.095667e+002
3.713092e+002, 3.186064e+002
3.717913e+002, 3.247305e+002
3.722734e+002, 3.263745e+002
3.727555e+002, 3.218319e+002
3.732376e+002, 3.112268e+002
3.737198e+002, 2.975609e+002
3.742019e+002, 2.777252e+002
3.746840e+002, 2.585142e+002
3.751661e+002, 2.415783e+002
3.756482e+002, 2.267764e+002
3.761303e+002, 2.139384e+002
3.766125e+002, 2.029323e+002
3.770946e+002, 1.937313e+002
3.775767e+002, 1.863468e+002
3.780588e+002, 1.810596e+002
3.785409e+002, 1.768424e+002
3.790230e+002, 1.735335e+002
3.795052e+002, 1.710832e+002
3.799873e+002, 1.697418e+002
3.804694e+002, 1.695414e+002
3.809515e+002, 1.696809e+002
3.814336e+002, 1.692283e+002
3.819157e+002, 1.682042e+002
3.823979e+002, 1.678139e+002
3.828800e+002, 1.686252e+002
3.833621e+002, 1.696354e+002
3.838442e+002, 1.701628e+002
3.843263e+002, 1.702963e+002
3.848084e+002, 1.703964e+002
3.852906e+002, 1.703855e+002
3.857727e+002, 1.705178e+002
3.862548e+002, 1.714902e+002
3.867369e+002, 1.734881e+002
3.872190e+002, 1.756476e+002
3.877011e+002, 1.774176e+002
3.881833e+002, 1.790722e+002
3.886654e+002, 1.810309e+002
3.891475e+002, 1.834725e+002
3.896296e+002, 1.860513e+002
3.901117e+002, 1.887055e+002
3.905938e+002, 1.913607e+002
3.910760e+002, 1.934830e+002
3.915581e+002, 1.953407e+002
3.920402e+002, 1.959570e+002
3.925223e+002, 1.938690e+002
3.930044e+002, 1.890044e+002
3.934865e+002, 1.835366e+002
3.939687e+002, 1.778037e+002
3.944508e+002, 1.721604e+002
3.949329e+002, 1.671421e+002
3.954150e+002, 1.627640e+002
3.958971e+002, 1.592110e+002
3.963792e+002, 1.567645e+002
3.968614e+002, 1.554089e+002
3.973435e+002, 1.542991e+002
3.978256e+002, 1.534350e+002
3.983077e+002, 1.527622e+002
3.987898e+002, 1.521831e+002
3.992719e+002, 1.517471e+002
3.997540e+002, 1.516773e+002
4.002361e+002, 1.521449e+002
4.007183e+002, 1.529537e+002
4.012004e+002, 1.535407e+002
4.016825e+002, 1.539079e+002
4.021646e+002, 1.540974e+002
4.026467e+002, 1.541954e+002
4.031288e+002, 1.540836e+002
4.036110e+002, 1.535156e+002
4.040931e+002, 1.524682e+002
4.045752e+002, 1.513096e+002
4.050573e+002, 1.504653e+002
4.055394e+002, 1.500002e+002
4.060215e+002, 1.495950e+002
4.065037e+002, 1.490179e+002
4.069858e+002, 1.487097e+002
4.074679e+002, 1.490352e+002
4.079500e+002, 1.498163e+002
4.084321e+002, 1.506176e+002
4.089142e+002, 1.511837e+002
4.093964e+002, 1.515342e+002
4.098785e+002, 1.517674e+002
4.103606e+002, 1.516704e+002
4.108427e+002, 1.517332e+002
4.113248e+002, 1.521955e+002
4.118069e+002, 1.527229e+002
4.122891e+002, 1.529464e+002
4.127712e+002, 1.527930e+002
4.132533e+002, 1.525379e+002
4.137354e+002, 1.526006e+002
4.142175e+002, 1.531436e+002
4.146996e+002, 1.533481e+002
4.151818e+002, 1.527583e+002
4.156639e+002, 1.522468e+002
4.161460e+002, 1.521127e+002
4.166281e+002, 1.523345e+002
4.171102e+002, 1.528081e+002
4.175923e+002, 1.535237e+002
4.180745e+002, 1.543910e+002
4.185566e+002, 1.550775e+002
4.190387e+002, 1.554265e+002
4.195208e+002, 1.559402e+002
4.200029e+002, 1.567998e+002
4.204850e+002, 1.578629e+002
4.209672e+002, 1.590233e+002
4.214493e+002, 1.602556e+002
4.219314e+002, 1.615441e+002
4.224135e+002, 1.628590e+002
4.228956e+002, 1.642015e+002
4.233777e+002, 1.656116e+002
4.238599e+002, 1.669218e+002
4.243420e+002, 1.685638e+002
4.248241e+002, 1.709300e+002
4.253062e+002, 1.738834e+002
4.257883e+002, 1.769643e+002
4.262704e+002, 1.801705e+002
4.267526e+002, 1.833149e+002
4.272347e+002, 1.861977e+002
4.277168e+002, 1.888537e+002
4.281989e+002, 1.909743e+002
4.286810e+002, 1.925475e+002
4.291631e+002, 1.933100e+002
4.296453e+002, 1.929115e+002
4.301274e+002, 1.909908e+002
4.306095e+002, 1.887239e+002
4.310916e+002, 1.863621e+002
4.315737e+002, 1.841195e+002
4.320558e+002, 1.825166e+002
4.325380e+002, 1.817429e+002
4.330201e+002, 1.812275e+002
4.335022e+002, 1.802130e+002
4.339843e+002, 1.785727e+002
4.344664e+002, 1.776742e+002
4.349485e+002, 1.781152e+002
4.354307e+002, 1.788395e+002
4.359128e+002, 1.791680e+002
4.363949e+002, 1.791653e+002
4.368770e+002, 1.791950e+002
4.373591e+002, 1.794601e+002
4.378412e+002, 1.799320e+002
4.383234e+002, 1.805012e+002
4.388055e+002, 1.809450e+002
4.392876e+002, 1.817869e+002
4.397697e+002, 1.830039e+002
4.402518e+002, 1.846660e+002
4.407339e+002, 1.870141e+002
4.412160e+002, 1.899960e+002
4.416982e+002, 1.931150e+002
4.421803e+002, 1.957291e+002
4.426624e+002, 1.977083e+002
4.431445e+002, 2.001860e+002
4.436266e+002, 2.038742e+002
4.441087e+002, 2.073205e+002
4.445909e+002, 2.102833e+002
4.450730e+002, 2.126409e+002
4.455551e+002, 2.144020e+002
4.460372e+002, 2.155999e+002
4.465193e+002, 2.159316e+002
4.470014e+002, 2.144933e+002
4.474836e+002, 2.106379e+002
4.479657e+002, 2.069424e+002
4.484478e+002, 2.036794e+002
4.489299e+002, 2.008552e+002
4.494120e+002, 1.984811e+002
4.498941e+002, 1.965643e+002
4.503763e+002, 1.951293e+002
4.508584e+002, 1.943702e+002
4.513405e+002, 1.941428e+002
4.518226e+002, 1.937792e+002
4.523047e+002, 1.930661e+002
4.527868e+002, 1.927254e+002
4.532690e+002, 1.933827e+002
4.537511e+002, 1.946376e+002
4.542332e+002, 1.959992e+002
4.547153e+002, 1.973866e+002
4.551974e+002, 1.988072e+002
4.556795e+002, 2.000469e+002
4.561617e+002, 2.012608e+002
4.566438e+002, 2.034029e+002
4.571259e+002, 2.071925e+002
4.576080e+002, 2.110528e+002
4.580901e+002, 2.131236e+002
4.585722e+002, 2.135616e+002
4.590544e+002, 2.121257e+002
4.595365e+002, 2.078152e+002
4.600186e+002, 2.022951e+002
4.605007e+002, 1.963716e+002
4.609828e+002, 1.903820e+002
4.614649e+002, 1.854039e+002
4.619471e+002, 1.821234e+002
4.624292e+002, 1.803027e+002
4.629113e+002, 1.789182e+002
4.633934e+002, 1.778134e+002
4.638755e+002, 1.773080e+002
4.643576e+002, 1.778775e+002
4.648398e+002, 1.788222e+002
4.653219e+002, 1.793530e+002
4.658040e+002, 1.793591e+002
4.662861e+002, 1.793549e+002
4.667682e+002, 1.798902e+002
4.672503e+002, 1.809988e+002
4.677325e+002, 1.823699e+002
4.682146e+002, 1.842937e+002
4.686967e+002, 1.861730e+002
4.691788e+002, 1.878496e+002
4.696609e+002, 1.893765e+002
4.701430e+002, 1.907478e+002
4.706252e+002, 1.919451e+002
4.711073e+002, 1.932477e+002
4.715894e+002, 1.953349e+002
4.720715e+002, 1.985296e+002
4.725536e+002, 2.010840e+002
4.730357e+002, 2.026222e+002
4.735179e+002, 2.035005e+002
4.740000e+002, 2.038584e+002
4.744821e+002, 2.037183e+002
4.749642e+002, 2.031159e+002
4.754463e+002, 2.020395e+002
4.759284e+002, 2.005264e+002
4.764106e+002, 1.984789e+002
4.768927e+002, 1.957845e+002
4.773748e+002, 1.933282e+002
4.778569e+002, 1.916884e+002
4.783390e+002, 1.904506e+002
4.788211e+002, 1.888992e+002
4.793033e+002, 1.868667e+002
4.797854e+002, 1.850432e+002
4.802675e+002, 1.840005e+002
4.807496e+002, 1.833436e+002
4.812317e+002, 1.821624e+002
4.817138e+002, 1.802615e+002
4.821959e+002, 1.786727e+002
4.826780e+002, 1.784433e+002
4.831602e+002, 1.795633e+002
4.836423e+002, 1.802096e+002
4.841244e+002, 1.802134e+002
4.846065e+002, 1.799606e+002
4.850886e+002, 1.794310e+002
4.855707e+002, 1.787873e+002
4.860529e+002, 1.781704e+002
4.865350e+002, 1.776372e+002
4.870171e+002, 1.774922e+002
4.874992e+002, 1.783137e+002
4.879813e+002, 1.806583e+002
4.884634e+002, 1.824676e+002
4.889456e+002, 1.832830e+002
4.894277e+002, 1.840918e+002
4.899098e+002, 1.852453e+002
4.903919e+002, 1.867821e+002
4.908740e+002, 1.887465e+002
4.913561e+002, 1.912372e+002
4.918383e+002, 1.939485e+002
4.923204e+002, 1.960577e+002
4.928025e+002, 1.975080e+002
4.932846e+002, 1.984990e+002
4.937667e+002, 1.990429e+002
4.942488e+002, 1.991429e+002
4.947310e+002, 1.987125e+002
4.952131e+002, 1.977791e+002
4.956952e+002, 1.965438e+002
4.961773e+002, 1.949669e+002
4.966594e+002, 1.932143e+002
4.971415e+002, 1.916466e+002
4.976237e+002, 1.901872e+002
4.981058e+002, 1.893181e+002
4.985879e+002, 1.894936e+002
4.990700e+002, 1.903895e+002
4.995521e+002, 1.913594e+002
5.000342e+002, 1.924133e+002
5.005164e+002, 1.934429e+002
5.009985e+002, 1.942085e+002
5.014806e+002, 1.949685e+002
5.019627e+002, 1.962154e+002
5.024448e+002, 1.980489e+002
5.029269e+002, 2.002103e+002
5.034091e+002, 2.024126e+002
5.038912e+002, 2.046728e+002
5.043733e+002, 2.075124e+002
5.048554e+002, 2.111857e+002
5.053375e+002, 2.150782e+002
5.058196e+002, 2.188214e+002
5.063018e+002, 2.226933e+002
5.067839e+002, 2.270760e+002
5.072660e+002, 2.321119e+002
5.077481e+002, 2.377261e+002
5.082302e+002, 2.438610e+002
5.087123e+002, 2.507686e+002
5.091945e+002, 2.573047e+002
5.096766e+002, 2.632915e+002
5.101587e+002, 2.690647e+002
5.106408e+002, 2.754242e+002
5.111229e+002, 2.815855e+002
5.116050e+002, 2.860672e+002
5.120872e+002, 2.880451e+002
5.125693e+002, 2.882926e+002
5.130514e+002, 2.884706e+002
5.135335e+002, 2.888458e+002
5.140156e+002, 2.870966e+002
5.144977e+002, 2.824987e+002
5.149799e+002, 2.756243e+002
5.154620e+002, 2.665840e+002
5.159441e+002, 2.556796e+002
5.164262e+002, 2.448076e+002
5.169083e+002, 2.341779e+002
5.173904e+002, 2.242959e+002
5.178726e+002, 2.157951e+002
5.183547e+002, 2.086604e+002
5.188368e+002, 2.026192e+002
5.193189e+002, 1.977005e+002
5.198010e+002, 1.936051e+002
5.202831e+002, 1.897448e+002
5.207653e+002, 1.858669e+002
5.212474e+002, 1.827965e+002
5.217295e+002, 1.811294e+002
5.222116e+002, 1.800184e+002
5.226937e+002, 1.788152e+002
5.231758e+002, 1.774590e+002
5.236580e+002, 1.760798e+002
5.241401e+002, 1.747385e+002
5.246222e+002, 1.735125e+002
5.251043e+002, 1.728110e+002
5.255864e+002, 1.733054e+002
5.260685e+002, 1.733732e+002
5.265507e+002, 1.725497e+002
5.270328e+002, 1.714937e+002
5.275149e+002, 1.706661e+002
5.279970e+002, 1.701618e+002
5.284791e+002, 1.699211e+002
5.289612e+002, 1.700492e+002
5.294434e+002, 1.704217e+002
5.299255e+002, 1.701822e+002
5.304076e+002, 1.690119e+002
5.308897e+002, 1.679733e+002
5.313718e+002, 1.675340e+002
5.318539e+002, 1.674595e+002
5.323361e+002, 1.675890e+002
5.328182e+002, 1.679297e+002
5.333003e+002, 1.682652e+002
5.337824e+002, 1.684513e+002
5.342645e+002, 1.685332e+002
5.347466e+002, 1.686512e+002
5.352288e+002, 1.688368e+002
5.357109e+002, 1.688560e+002
5.361930e+002, 1.684535e+002
5.366751e+002, 1.677232e+002
5.371572e+002, 1.672712e+002
5.376393e+002, 1.670425e+002
5.381215e+002, 1.671259e+002
5.386036e+002, 1.678926e+002
5.390857e+002, 1.688267e+002
5.395678e+002, 1.692685e+002
5.400499e+002, 1.690943e+002
5.405320e+002, 1.686186e+002
5.410142e+002, 1.681233e+002
5.414963e+002, 1.675996e+002
5.419784e+002, 1.673430e+002
5.424604e+002, 1.675282e+002
5.429426e+002, 1.677913e+002
5.434247e+002, 1.680698e+002
5.439068e+002, 1.683827e+002
5.443889e+002, 1.688160e+002
5.448710e+002, 1.693779e+002
5.453531e+002, 1.698435e+002
5.458353e+002, 1.698737e+002
5.463174e+002, 1.695162e+002
5.467995e+002, 1.693540e+002
5.472816e+002, 1.694858e+002
5.477637e+002, 1.696682e+002
5.482458e+002, 1.696478e+002
5.487280e+002, 1.696006e+002
5.492101e+002, 1.698921e+002
5.496922e+002, 1.708277e+002
5.501743e+002, 1.715815e+002
5.506564e+002, 1.715426e+002
5.511385e+002, 1.709677e+002
5.516207e+002, 1.702894e+002
5.521028e+002, 1.695894e+002
5.525849e+002, 1.691028e+002
5.530670e+002, 1.690902e+002
5.535491e+002, 1.695558e+002
5.540313e+002, 1.699378e+002
5.545134e+002, 1.702852e+002
5.549955e+002, 1.705079e+002
5.554776e+002, 1.704417e+002
5.559597e+002, 1.703027e+002
5.564418e+002, 1.703947e+002
5.569240e+002, 1.707751e+002
5.574061e+002, 1.711976e+002
5.578882e+002, 1.713320e+002
5.583703e+002, 1.711562e+002
5.588524e+002, 1.712993e+002
5.593345e+002, 1.720821e+002
5.598167e+002, 1.727182e+002
5.602988e+002, 1.728696e+002
5.607809e+002, 1.727777e+002
5.612630e+002, 1.727244e+002
5.617451e+002, 1.727799e+002
5.622272e+002, 1.728705e+002
5.627094e+002, 1.729125e+002
5.631915e+002, 1.729359e+002
5.636736e+002, 1.730709e+002
5.641557e+002, 1.733601e+002
5.646378e+002, 1.736140e+002
5.651199e+002, 1.736539e+002
5.656021e+002, 1.735471e+002
5.660842e+002, 1.735942e+002
5.665663e+002, 1.738555e+002
5.670484e+002, 1.741845e+002
5.675305e+002, 1.745388e+002
5.680126e+002, 1.749313e+002
5.684948e+002, 1.754046e+002
5.689769e+002, 1.759516e+002
5.694590e+002, 1.764968e+002
5.699411e+002, 1.769614e+002
5.704232e+002, 1.773522e+002
5.709053e+002, 1.777543e+002
5.713875e+002, 1.781318e+002
5.718696e+002, 1.785760e+002
5.723517e+002, 1.790556e+002
5.728338e+002, 1.796340e+002
5.733159e+002, 1.805318e+002
5.737980e+002, 1.817040e+002
5.742802e+002, 1.826117e+002
5.747623e+002, 1.826877e+002
5.752444e+002, 1.820982e+002
5.757265e+002, 1.814990e+002
5.762086e+002, 1.808752e+002
5.766907e+002, 1.803108e+002
5.771729e+002, 1.799109e+002
5.776550e+002, 1.795613e+002
5.781371e+002, 1.790775e+002
5.786192e+002, 1.784336e+002
5.791013e+002, 1.777599e+002
5.795834e+002, 1.769199e+002
5.800656e+002, 1.761859e+002
5.805477e+002, 1.759751e+002
5.810298e+002, 1.762392e+002
5.815119e+002, 1.765285e+002
5.819940e+002, 1.765890e+002
5.824761e+002, 1.764045e+002
5.829583e+002, 1.758972e+002
5.834404e+002, 1.743453e+002
5.839225e+002, 1.735935e+002
5.844046e+002, 1.743034e+002
5.848867e+002, 1.752388e+002
5.853688e+002, 1.755179e+002
5.858510e+002, 1.752663e+002
5.863331e+002, 1.751739e+002
5.868152e+002, 1.757319e+002
5.872973e+002, 1.766051e+002
5.877794e+002, 1.769877e+002
5.882615e+002, 1.768050e+002
5.887437e+002, 1.766514e+002
5.892258e+002, 1.767677e+002
5.897079e+002, 1.768442e+002
5.901900e+002, 1.764623e+002
5.906721e+002, 1.757229e+002
5.911542e+002, 1.753003e+002
5.916364e+002, 1.757100e+002
5.921185e+002, 1.762563e+002
5.926006e+002, 1.762402e+002
5.930827e+002, 1.758634e+002
5.935648e+002, 1.758158e+002
5.940469e+002, 1.763729e+002
5.945291e+002, 1.770587e+002
5.950112e+002, 1.771540e+002
5.954933e+002, 1.764129e+002
5.959754e+002, 1.762203e+002
5.964575e+002, 1.769644e+002
5.969396e+002, 1.777411e+002
5.974218e+002, 1.783398e+002
5.979039e+002, 1.787364e+002
5.983860e+002, 1.788312e+002
5.988681e+002, 1.786093e+002
5.993502e+002, 1.784413e+002
5.998323e+002, 1.789326e+002
6.003145e+002, 1.800458e+002
6.007966e+002, 1.806560e+002
6.012787e+002, 1.805473e+002
6.017608e+002, 1.802851e+002
6.022429e+002, 1.800359e+002
6.027250e+002, 1.798827e+002
6.032072e+002, 1.799873e+002
6.036893e+002, 1.804146e+002
6.041714e+002, 1.809587e+002
6.046535e+002, 1.817845e+002
6.051356e+002, 1.825466e+002
6.056177e+002, 1.825233e+002
6.060999e+002, 1.817325e+002
6.065820e+002, 1.811128e+002
6.070641e+002, 1.813559e+002
6.075462e+002, 1.822947e+002
6.080283e+002, 1.831872e+002
6.085104e+002, 1.841509e+002
6.089926e+002, 1.848816e+002
6.094747e+002, 1.852893e+002
6.099568e+002, 1.855351e+002
6.104389e+002, 1.857423e+002
6.109210e+002, 1.858964e+002
6.114031e+002, 1.858752e+002
6.118853e+002, 1.855332e+002
6.123674e+002, 1.850823e+002
6.128495e+002, 1.850254e+002
6.133316e+002, 1.854057e+002
6.138137e+002, 1.856471e+002
6.142958e+002, 1.854984e+002
6.147780e+002, 1.853148e+002
6.152601e+002, 1.855337e+002
6.157422e+002, 1.860750e+002
6.162243e+002, 1.864444e+002
6.167064e+002, 1.864915e+002
6.171885e+002, 1.863873e+002
6.176707e+002, 1.861684e+002
6.181528e+002, 1.858895e+002
6.186349e+002, 1.856551e+002
6.191170e+002, 1.854959e+002
6.195991e+002, 1.853597e+002
6.200812e+002, 1.851572e+002
6.205634e+002, 1.848633e+002
6.210455e+002, 1.848724e+002
6.215276e+002, 1.854206e+002
6.220097e+002, 1.859968e+002
6.224918e+002, 1.865633e+002
6.229739e+002, 1.870667e+002
6.234561e+002, 1.874527e+002
6.239382e+002, 1.877105e+002
6.244203e+002, 1.878729e+002
6.249023e+002, 1.878695e+002
6.253845e+002, 1.878032e+002
6.258666e+002, 1.880125e+002
6.263487e+002, 1.885349e+002
6.268308e+002, 1.889742e+002
6.273129e+002, 1.891705e+002
6.277950e+002, 1.891627e+002
6.282772e+002, 1.889468e+002
6.287593e+002, 1.884338e+002
6.292414e+002, 1.881586e+002
6.297235e+002, 1.884450e+002
6.302056e+002, 1.887731e+002
6.306877e+002, 1.886518e+002
6.311699e+002, 1.882864e+002
6.316520e+002, 1.882707e+002
6.321341e+002, 1.888779e+002
6.326162e+002, 1.896951e+002
6.330983e+002, 1.899411e+002
6.335804e+002, 1.894268e+002
6.340626e+002, 1.893524e+002
6.345447e+002, 1.902121e+002
6.350268e+002, 1.908838e+002
6.355089e+002, 1.906601e+002
6.359910e+002, 1.900288e+002
6.364731e+002, 1.897635e+002
6.369553e+002, 1.901112e+002
6.374374e+002, 1.905406e+002
6.379195e+002, 1.906710e+002
6.384016e+002, 1.906226e+002
6.388837e+002, 1.905823e+002
6.393658e+002, 1.905776e+002
6.398480e+002, 1.907048e+002
6.403301e+002, 1.910730e+002
6.408122e+002, 1.915652e+002
6.412943e+002, 1.917906e+002
6.417764e+002, 1.914342e+002
6.422585e+002, 1.912664e+002
6.427407e+002, 1.913865e+002
6.432228e+002, 1.916040e+002
6.437049e+002, 1.918228e+002
6.441870e+002, 1.920356e+002
6.446691e+002, 1.922882e+002
6.451512e+002, 1.926239e+002
6.456334e+002, 1.929145e+002
6.461155e+002, 1.928304e+002
6.465976e+002, 1.923784e+002
6.470797e+002, 1.923421e+002
6.475618e+002, 1.929996e+002
6.480439e+002, 1.937486e+002
6.485261e+002, 1.941185e+002
6.490082e+002, 1.942132e+002
6.494903e+002, 1.943489e+002
6.499724e+002, 1.946368e+002
6.504545e+002, 1.948332e+002
6.509366e+002, 1.947147e+002
6.514188e+002, 1.945220e+002
6.519009e+002, 1.946186e+002
6.523830e+002, 1.949868e+002
6.528651e+002, 1.952454e+002
6.533472e+002, 1.950890e+002
6.538293e+002, 1.946537e+002
6.543115e+002, 1.944661e+002
6.547936e+002, 1.946621e+002
6.552757e+002, 1.947741e+002
6.557578e+002, 1.945733e+002
6.562399e+002, 1.944151e+002
6.567220e+002, 1.945290e+002
6.572042e+002, 1.948530e+002
6.576863e+002, 1.951682e+002
6.581684e+002, 1.953591e+002
6.586505e+002, 1.955658e+002
6.591326e+002, 1.959798e+002
6.596147e+002, 1.965140e+002
6.600969e+002, 1.968727e+002
6.605790e+002, 1.969845e+002
6.610611e+002, 1.971835e+002
6.615432e+002, 1.978085e+002
6.620253e+002, 1.988027e+002
6.625074e+002, 1.995350e+002
6.629896e+002, 1.996540e+002
6.634717e+002, 1.999770e+002
6.639538e+002, 2.005964e+002
6.644359e+002, 2.014312e+002
6.649180e+002, 2.024328e+002
6.654001e+002, 2.035891e+002
6.658823e+002, 2.048674e+002
6.663644e+002, 2.061890e+002
6.668465e+002, 2.077377e+002
6.673286e+002, 2.099946e+002
6.678107e+002, 2.129371e+002
6.682928e+002, 2.157205e+002
6.687750e+002, 2.180272e+002
6.692571e+002, 2.204070e+002
6.697392e+002, 2.233015e+002
6.702213e+002, 2.267271e+002
6.707034e+002, 2.304622e+002
6.711855e+002, 2.347808e+002
6.716677e+002, 2.390603e+002
6.721498e+002, 2.429511e+002
6.726319e+002, 2.467509e+002
6.731140e+002, 2.509362e+002
6.735961e+002, 2.554497e+002
6.740782e+002, 2.596644e+002
6.745604e+002, 2.629838e+002
6.750425e+002, 2.658949e+002
6.755246e+002, 2.700360e+002
6.760067e+002, 2.755669e+002
6.764888e+002, 2.816253e+002
6.769709e+002, 2.882108e+002
6.774531e+002, 2.951651e+002
6.779352e+002, 3.020826e+002
6.784173e+002, 3.091831e+002
6.788994e+002, 3.172567e+002
6.793815e+002, 3.264929e+002
6.798636e+002, 3.367330e+002
6.803458e+002, 3.480104e+002
6.808279e+002, 3.601731e+002
6.813100e+002, 3.733667e+002
6.817921e+002, 3.874211e+002
6.822742e+002, 4.016704e+002
6.827563e+002, 4.157520e+002
6.832385e+002, 4.293399e+002
6.837206e+002, 4.411529e+002
6.842027e+002, 4.520114e+002
6.846848e+002, 4.592355e+002
6.851669e+002, 4.627386e+002
6.856490e+002, 4.621282e+002
6.861312e+002, 4.568192e+002
6.866133e+002, 4.471042e+002
6.870954e+002, 4.335230e+002
6.875775e+002, 4.151059e+002
6.880596e+002, 3.950078e+002
6.885417e+002, 3.751464e+002
6.890239e+002, 3.559464e+002
6.895060e+002, 3.384811e+002
6.899881e+002, 3.228535e+002
6.904702e+002, 3.089272e+002
6.909523e+002, 2.965089e+002
6.914344e+002, 2.856147e+002
6.919166e+002, 2.761030e+002
6.923987e+002, 2.683061e+002
6.928808e+002, 2.614423e+002
6.933629e+002, 2.558216e+002
6.938450e+002, 2.507688e+002
6.943271e+002, 2.456831e+002
6.948093e+002, 2.408089e+002
6.952914e+002, 2.369712e+002
6.957735e+002, 2.347581e+002
6.962556e+002, 2.329754e+002
6.967377e+002, 2.301459e+002
6.972198e+002, 2.266204e+002
6.977020e+002, 2.235671e+002
6.981841e+002, 2.211810e+002
6.986662e+002, 2.192566e+002
6.991483e+002, 2.177402e+002
6.996304e+002, 2.165237e+002
7.001125e+002, 2.152105e+002
7.005947e+002, 2.133606e+002
7.010768e+002, 2.121191e+002
7.015589e+002, 2.122734e+002
7.020410e+002, 2.123262e+002
7.025231e+002, 2.110404e+002
7.030052e+002, 2.089840e+002
7.034874e+002, 2.075317e+002
7.039695e+002, 2.073244e+002
7.044516e+002, 2.074816e+002
7.049337e+002, 2.068086e+002
7.054158e+002, 2.055336e+002
7.058979e+002, 2.048591e+002
7.063801e+002, 2.049846e+002
7.068622e+002, 2.050821e+002
7.073442e+002, 2.046049e+002
7.078264e+002, 2.038223e+002
7.083085e+002, 2.034523e+002
7.087906e+002, 2.037436e+002
7.092727e+002, 2.037827e+002
7.097548e+002, 2.032045e+002
7.102369e+002, 2.026524e+002
7.107191e+002, 2.026270e+002
7.112012e+002, 2.028676e+002
7.116833e+002, 2.028174e+002
7.121654e+002, 2.022827e+002
7.126475e+002, 2.017057e+002
7.131296e+002, 2.016961e+002
7.136118e+002, 2.021213e+002
7.140939e+002, 2.022129e+002
7.145760e+002, 2.019065e+002
7.150581e+002, 2.015291e+002
7.155402e+002, 2.011469e+002
7.160223e+002, 2.008646e+002
7.165045e+002, 2.009421e+002
7.169866e+002, 2.014799e+002
7.174687e+002, 2.017436e+002
7.179508e+002, 2.014529e+002
7.184329e+002, 2.011082e+002
7.189150e+002, 2.009301e+002
7.193972e+002, 2.008660e+002
7.198793e+002, 2.008377e+002
7.203614e+002, 2.008156e+002
7.208435e+002, 2.007718e+002
7.213256e+002, 2.006098e+002
7.218077e+002, 2.004177e+002
7.222899e+002, 2.006268e+002
7.227720e+002, 2.013053e+002
7.232541e+002, 2.018173e+002
7.237362e+002, 2.019275e+002
7.242183e+002, 2.018405e+002
7.247004e+002, 2.017708e+002
7.251826e+002, 2.017175e+002
7.256647e+002, 2.016414e+002
7.261468e+002, 2.013902e+002
7.266289e+002, 2.012975e+002
7.271110e+002, 2.015819e+002
7.275931e+002, 2.020308e+002
7.280753e+002, 2.024181e+002
7.285574e+002, 2.027097e+002
7.290395e+002, 2.029978e+002
7.295216e+002, 2.033805e+002
7.300037e+002, 2.037476e+002
7.304858e+002, 2.038180e+002
7.309680e+002, 2.035821e+002
7.314501e+002, 2.032630e+002
7.319322e+002, 2.027830e+002
7.324143e+002, 2.025151e+002
7.328964e+002, 2.029035e+002
7.333785e+002, 2.037909e+002
7.338607e+002, 2.043158e+002
7.343428e+002, 2.041488e+002
7.348249e+002, 2.041257e+002
7.353070e+002, 2.046344e+002
7.357891e+002, 2.051749e+002
7.362712e+002, 2.052997e+002
7.367534e+002, 2.050885e+002
7.372355e+002, 2.048303e+002
7.377176e+002, 2.046494e+002
7.381997e+002, 2.046535e+002
7.386818e+002, 2.049308e+002
7.391639e+002, 2.055022e+002
7.396461e+002, 2.068466e+002
7.401282e+002, 2.093123e+002
7.406103e+002, 2.110541e+002
7.410924e+002, 2.107151e+002
7.415745e+002, 2.092271e+002
7.420566e+002, 2.086853e+002
7.425388e+002, 2.093907e+002
7.430209e+002, 2.099053e+002
7.435030e+002, 2.099760e+002
7.439851e+002, 2.099740e+002
7.444672e+002, 2.099822e+002
7.449493e+002, 2.100904e+002
7.454315e+002, 2.104623e+002
7.459136e+002, 2.111193e+002
7.463957e+002, 2.118161e+002
7.468778e+002, 2.124371e+002
7.473599e+002, 2.128902e+002
7.478420e+002, 2.127643e+002
7.483242e+002, 2.120418e+002
7.488063e+002, 2.114782e+002
7.492884e+002, 2.114063e+002
7.497705e+002, 2.113797e+002
7.502526e+002, 2.107966e+002
7.507347e+002, 2.096086e+002
7.512169e+002, 2.088437e+002
7.516990e+002, 2.087819e+002
7.521811e+002, 2.087421e+002
7.526632e+002, 2.086418e+002
7.531453e+002, 2.084520e+002
7.536274e+002, 2.081348e+002
7.541096e+002, 2.077059e+002
7.545917e+002, 2.072086e+002
7.550738e+002, 2.066188e+002
7.555559e+002, 2.060715e+002
7.560380e+002, 2.057180e+002
7.565201e+002, 2.055654e+002
7.570023e+002, 2.057473e+002
7.574844e+002, 2.063139e+002
7.579665e+002, 2.067458e+002
7.584486e+002, 2.066223e+002
7.589307e+002, 2.061382e+002
7.594128e+002, 2.059572e+002
7.598950e+002, 2.063699e+002
7.603771e+002, 2.065556e+002
7.608592e+002, 2.062945e+002
7.613413e+002, 2.060514e+002
7.618234e+002, 2.060585e+002
7.623055e+002, 2.062236e+002
7.627877e+002, 2.064140e+002
7.632698e+002, 2.065977e+002
7.637519e+002, 2.066916e+002
7.642340e+002, 2.065311e+002
7.647161e+002, 2.062957e+002
7.651982e+002, 2.062885e+002
7.656804e+002, 2.064870e+002
7.661625e+002, 2.067162e+002
7.666446e+002, 2.069142e+002
7.671267e+002, 2.070565e+002
7.676088e+002, 2.070928e+002
7.680909e+002, 2.070151e+002
7.685731e+002, 2.070614e+002
7.690552e+002, 2.074163e+002
7.695373e+002, 2.075897e+002
7.700194e+002, 2.071826e+002
7.705015e+002, 2.067912e+002
7.709836e+002, 2.069919e+002
7.714658e+002, 2.076785e+002
7.719479e+002, 2.081965e+002
7.724300e+002, 2.082915e+002
7.729121e+002, 2.081888e+002
7.733942e+002, 2.078523e+002
7.738763e+002, 2.075037e+002
7.743585e+002, 2.075811e+002
7.748406e+002, 2.080670e+002
7.753227e+002, 2.085016e+002
7.758048e+002, 2.085761e+002
7.762869e+002, 2.084459e+002
7.767690e+002, 2.085133e+002
7.772512e+002, 2.088423e+002
7.777333e+002, 2.089520e+002
7.782154e+002, 2.087968e+002
7.786975e+002, 2.084418e+002
7.791796e+002, 2.076573e+002
7.796617e+002, 2.068093e+002
7.801439e+002, 2.065582e+002
7.806260e+002, 2.070367e+002
7.811081e+002, 2.075235e+002
7.815902e+002, 2.079054e+002
7.820723e+002, 2.081780e+002
7.825544e+002, 2.082581e+002
7.830366e+002, 2.082549e+002
7.835187e+002, 2.084285e+002
7.840008e+002, 2.087980e+002
7.844829e+002, 2.089686e+002
7.849650e+002, 2.084473e+002
7.854471e+002, 2.075291e+002
7.859293e+002, 2.071219e+002
7.864114e+002, 2.072327e+002
7.868935e+002, 2.074739e+002
7.873756e+002, 2.077744e+002
7.878577e+002, 2.081098e+002
7.883398e+002, 2.084543e+002
7.888220e+002, 2.088124e+002
7.893040e+002, 2.092043e+002
7.897861e+002, 2.097331e+002
7.902682e+002, 2.101506e+002
7.907504e+002, 2.103574e+002
7.912325e+002, 2.105245e+002
7.917146e+002, 2.107079e+002
7.921967e+002, 2.109510e+002
7.926788e+002, 2.113749e+002
7.931609e+002, 2.120547e+002
7.936431e+002, 2.126261e+002
7.941252e+002, 2.127110e+002
7.946073e+002, 2.124937e+002
7.950894e+002, 2.122121e+002
7.955715e+002, 2.119250e+002
7.960536e+002, 2.119426e+002
7.965358e+002, 2.124173e+002
7.970179e+002, 2.129886e+002
7.975000e+002, 2.131727e+002
7.979821e+002, 2.129605e+002
7.984642e+002, 2.125142e+002
7.989464e+002, 2.114921e+002
7.994285e+002, 2.108513e+002
7.999106e+002, 2.111114e+002
8.003927e+002, 2.116203e+002
8.008748e+002, 2.119328e+002
8.013569e+002, 2.120719e+002
8.018391e+002, 2.122342e+002
8.023212e+002, 2.124935e+002
8.028033e+002, 2.127567e+002
8.032854e+002, 2.128388e+002
8.037675e+002, 2.129847e+002
8.042496e+002, 2.136665e+002
8.047318e+002, 2.147199e+002
8.052139e+002, 2.154407e+002
8.056960e+002, 2.154278e+002
8.061781e+002, 2.151173e+002
8.066602e+002, 2.151986e+002
8.071423e+002, 2.156436e+002
8.076245e+002, 2.160894e+002
8.081066e+002, 2.165420e+002
8.085887e+002, 2.168946e+002
8.090708e+002, 2.170905e+002
8.095529e+002, 2.171723e+002
8.100350e+002, 2.171816e+002
8.105172e+002, 2.170979e+002
8.109993e+002, 2.170784e+002
8.114814e+002, 2.171488e+002
8.119635e+002, 2.172494e+002
8.124456e+002, 2.174541e+002
8.129277e+002, 2.176174e+002
8.134099e+002, 2.176511e+002
8.138920e+002, 2.175168e+002
8.143741e+002, 2.170933e+002
8.148562e+002, 2.161192e+002
8.153383e+002, 2.152644e+002
8.158204e+002, 2.154644e+002
8.163026e+002, 2.162588e+002
8.167847e+002, 2.166369e+002
8.172668e+002, 2.164958e+002
8.177489e+002, 2.161574e+002
8.182310e+002, 2.157840e+002
8.187131e+002, 2.154379e+002
8.191953e+002, 2.152317e+002
8.196774e+002, 2.151618e+002
8.201595e+002, 2.152878e+002
8.206416e+002, 2.158518e+002
8.211237e+002, 2.161458e+002
8.216058e+002, 2.156172e+002
8.220880e+002, 2.148884e+002
8.225701e+002, 2.146666e+002
8.230522e+002, 2.149428e+002
8.235343e+002, 2.152226e+002
8.240164e+002, 2.153774e+002
8.244985e+002, 2.155543e+002
8.249807e+002, 2.160759e+002
8.254628e+002, 2.164869e+002
8.259449e+002, 2.159691e+002
8.264270e+002, 2.147855e+002
8.269091e+002, 2.141901e+002
8.273912e+002, 2.149816e+002
8.278734e+002, 2.161967e+002
8.283555e+002, 2.163905e+002
8.288376e+002, 2.158206e+002
8.293197e+002, 2.155390e+002
8.298018e+002, 2.156392e+002
8.302839e+002, 2.159649e+002
8.307661e+002, 2.164999e+002
8.312482e+002, 2.170389e+002
8.317303e+002, 2.172267e+002
8.322124e+002, 2.170033e+002
8.326945e+002, 2.168585e+002
8.331766e+002, 2.168102e+002
8.336588e+002, 2.168178e+002
8.341409e+002, 2.169543e+002
8.346230e+002, 2.170736e+002
8.351051e+002, 2.170477e+002
8.355872e+002, 2.168906e+002
8.360693e+002, 2.166885e+002
8.365515e+002, 2.162452e+002
8.370336e+002, 2.161155e+002
8.375157e+002, 2.170782e+002
8.379978e+002, 2.182012e+002
8.384799e+002, 2.182541e+002
8.389620e+002, 2.174226e+002
8.394442e+002, 2.166199e+002
8.399263e+002, 2.162749e+002
8.404084e+002, 2.163321e+002
8.408905e+002, 2.169315e+002
8.413726e+002, 2.179206e+002
8.418547e+002, 2.183514e+002
8.423369e+002, 2.181777e+002
8.428190e+002, 2.179395e+002
8.433011e+002, 2.178203e+002
8.437832e+002, 2.177271e+002
8.442653e+002, 2.175219e+002
8.447474e+002, 2.172114e+002
8.452296e+002, 2.171365e+002
8.457117e+002, 2.174570e+002
8.461938e+002, 2.177814e+002
8.466759e+002, 2.180099e+002
8.471580e+002, 2.182929e+002
8.476401e+002, 2.189351e+002
8.481223e+002, 2.196680e+002
8.486044e+002, 2.197869e+002
8.490865e+002, 2.189135e+002
8.495686e+002, 2.183233e+002
8.500507e+002, 2.191814e+002
8.505328e+002, 2.202761e+002
8.510150e+002, 2.202464e+002
8.514971e+002, 2.194543e+002
8.519792e+002, 2.188790e+002
8.524613e+002, 2.188259e+002
8.529434e+002, 2.189797e+002
8.534255e+002, 2.190406e+002
8.539077e+002, 2.190664e+002
8.543898e+002, 2.192841e+002
8.548719e+002, 2.196936e+002
8.553540e+002, 2.199203e+002
8.558361e+002, 2.198302e+002
8.563182e+002, 2.198156e+002
8.568004e+002, 2.202245e+002
8.572825e+002, 2.208887e+002
8.577646e+002, 2.212835e+002
8.582467e+002, 2.214444e+002
8.587288e+002, 2.212437e+002
8.592109e+002, 2.201484e+002
8.596931e+002, 2.193230e+002
8.601752e+002, 2.193322e+002
8.606573e+002, 2.197441e+002
8.611394e+002, 2.200475e+002
8.616215e+002, 2.201855e+002
8.621036e+002, 2.203633e+002
8.625858e+002, 2.208221e+002
8.630679e+002, 2.211827e+002
8.635500e+002, 2.210495e+002
8.640321e+002, 2.207311e+002
8.645142e+002, 2.206208e+002
8.649963e+002, 2.207760e+002
8.654785e+002, 2.211609e+002
8.659606e+002, 2.217835e+002
8.664427e+002, 2.223937e+002
8.669248e+002, 2.225506e+002
8.674069e+002, 2.223367e+002
8.678890e+002, 2.221891e+002
8.683712e+002, 2.221340e+002
8.688533e+002, 2.220518e+002
8.693354e+002, 2.218528e+002
8.698175e+002, 2.217621e+002
8.702996e+002, 2.221662e+002
8.707817e+002, 2.230748e+002
8.712639e+002, 2.233394e+002
8.717459e+002, 2.223762e+002
8.722280e+002, 2.217973e+002
8.727101e+002, 2.221519e+002
8.731923e+002, 2.227037e+002
8.736744e+002, 2.231553e+002
8.741565e+002, 2.234488e+002
8.746386e+002, 2.234509e+002
8.751207e+002, 2.230346e+002
8.756028e+002, 2.226496e+002
8.760850e+002, 2.223834e+002
8.765671e+002, 2.222721e+002
8.770492e+002, 2.223860e+002
8.775313e+002, 2.226583e+002
8.780134e+002, 2.230245e+002
8.784955e+002, 2.234422e+002
8.789777e+002, 2.237943e+002
8.794598e+002, 2.239751e+002
8.799419e+002, 2.240544e+002
8.804240e+002, 2.239415e+002
8.809061e+002, 2.238178e+002
8.813882e+002, 2.246076e+002
8.818704e+002, 2.263810e+002
8.823525e+002, 2.277653e+002
8.828346e+002, 2.278616e+002
8.833167e+002, 2.271537e+002
8.837988e+002, 2.265717e+002
8.842809e+002, 2.260870e+002
8.847631e+002, 2.259716e+002
8.852452e+002, 2.263972e+002
8.857273e+002, 2.267625e+002
8.862094e+002, 2.267964e+002
8.866915e+002, 2.267430e+002
8.871736e+002, 2.267988e+002
8.876558e+002, 2.269780e+002
8.881379e+002, 2.274892e+002
8.886200e+002, 2.290062e+002
8.891021e+002, 2.299111e+002
8.895842e+002, 2.292065e+002
8.900663e+002, 2.284841e+002
8.905485e+002, 2.290948e+002
8.910306e+002, 2.304503e+002
8.915127e+002, 2.312305e+002
8.919948e+002, 2.310609e+002
8.924769e+002, 2.307498e+002
8.929590e+002, 2.309793e+002
8.934412e+002, 2.311865e+002
8.939233e+002, 2.305752e+002
8.944054e+002, 2.295281e+002
8.948875e+002, 2.288690e+002
8.953696e+002, 2.287597e+002
8.958517e+002, 2.288675e+002
8.963339e+002, 2.289580e+002
8.968160e+002, 2.290754e+002
8.972981e+002, 2.293626e+002
8.977802e+002, 2.297881e+002
8.982623e+002, 2.300257e+002
8.987444e+002, 2.300335e+002
8.992266e+002, 2.299951e+002
8.997087e+002, 2.299937e+002
9.001908e+002, 2.299898e+002
9.006729e+002, 2.298950e+002
9.011550e+002, 2.296925e+002
9.016371e+002, 2.297722e+002
9.021193e+002, 2.303185e+002
9.026014e+002, 2.308058e+002
9.030835e+002, 2.311862e+002
9.035656e+002, 2.314280e+002
9.040477e+002, 2.314041e+002
9.045298e+002, 2.312396e+002
9.050120e+002, 2.312722e+002
9.054941e+002, 2.316309e+002
9.059762e+002, 2.319214e+002
9.064583e+002, 2.316872e+002
9.069404e+002, 2.317427e+002
9.074225e+002, 2.331584e+002
9.079047e+002, 2.348605e+002
9.083868e+002, 2.350971e+002
9.088689e+002, 2.338284e+002
9.093510e+002, 2.328789e+002
9.098331e+002, 2.335283e+002
9.103152e+002, 2.346198e+002
9.107974e+002, 2.349388e+002
9.112795e+002, 2.348730e+002
9.117616e+002, 2.349768e+002
9.122437e+002, 2.353952e+002
9.127258e+002, 2.365296e+002
9.132079e+002, 2.385718e+002
9.136901e+002, 2.405492e+002
9.141722e+002, 2.409300e+002
9.146543e+002, 2.400735e+002
9.151364e+002, 2.400972e+002
9.156185e+002, 2.410221e+002
9.161006e+002, 2.422966e+002
9.165828e+002, 2.438691e+002
9.170649e+002, 2.454153e+002
9.175470e+002, 2.466985e+002
9.180291e+002, 2.477332e+002
9.185112e+002, 2.485334e+002
9.189933e+002, 2.488338e+002
9.194755e+002, 2.496189e+002
9.199576e+002, 2.512851e+002
9.204397e+002, 2.528726e+002
9.209218e+002, 2.538169e+002
9.214039e+002, 2.546208e+002
9.218860e+002, 2.558124e+002
9.223682e+002, 2.573919e+002
9.228503e+002, 2.590887e+002
9.233324e+002, 2.609759e+002
9.238145e+002, 2.628270e+002
9.242966e+002, 2.645047e+002
9.247787e+002, 2.661834e+002
9.252609e+002, 2.678952e+002
9.257430e+002, 2.697356e+002
9.262251e+002, 2.718729e+002
9.267072e+002, 2.743592e+002
9.271893e+002, 2.770154e+002
9.276714e+002, 2.797445e+002
9.281536e+002, 2.825434e+002
9.286357e+002, 2.855392e+002
9.291178e+002, 2.885829e+002
9.295999e+002, 2.915289e+002
9.300820e+002, 2.942797e+002
9.305641e+002, 2.966312e+002
9.310463e+002, 2.985150e+002
9.315284e+002, 2.995936e+002
9.320105e+002, 2.991763e+002
9.324926e+002, 2.974769e+002
9.329747e+002, 2.953128e+002
9.334568e+002, 2.927416e+002
9.339390e+002, 2.896823e+002
9.344211e+002, 2.860840e+002
9.349032e+002, 2.824085e+002
9.353853e+002, 2.790940e+002
9.358674e+002, 2.761918e+002
9.363495e+002, 2.740246e+002
9.368317e+002, 2.726588e+002
9.373138e+002, 2.717470e+002
9.377959e+002, 2.712870e+002
9.382780e+002, 2.711742e+002
9.387601e+002, 2.712680e+002
9.392422e+002, 2.717388e+002
9.397244e+002, 2.729104e+002
9.402065e+002, 2.748372e+002
9.406886e+002, 2.771177e+002
9.411707e+002, 2.800537e+002
9.416528e+002, 2.829194e+002
9.421349e+002, 2.850279e+002
9.426171e+002, 2.875135e+002
9.430992e+002, 2.914708e+002
9.435813e+002, 2.964464e+002
9.440634e+002, 3.011441e+002
9.445455e+002, 3.052170e+002
9.450276e+002, 3.094138e+002
9.455098e+002, 3.137843e+002
9.459919e+002, 3.186253e+002
9.464740e+002, 3.239846e+002
9.469561e+002, 3.299737e+002
9.474382e+002, 3.368293e+002
9.479203e+002, 3.444655e+002
9.484025e+002, 3.524211e+002
9.488846e+002, 3.602609e+002
9.493667e+002, 3.688394e+002
9.498488e+002, 3.795011e+002
9.503309e+002, 3.911733e+002
9.508130e+002, 4.023592e+002
9.512952e+002, 4.130623e+002
9.517773e+002, 4.241812e+002
9.522594e+002, 4.358853e+002
9.527415e+002, 4.467180e+002
9.532236e+002, 4.558856e+002
9.537057e+002, 4.625148e+002
9.541878e+002, 4.644423e+002
9.546699e+002, 4.618711e+002
9.551520e+002, 4.559650e+002
9.556342e+002, 4.468529e+002
9.561163e+002, 4.347809e+002
9.565984e+002, 4.195694e+002
9.570805e+002, 4.028873e+002
9.575626e+002, 3.874101e+002
9.580447e+002, 3.730220e+002
9.585269e+002, 3.591229e+002
9.590090e+002, 3.454998e+002
9.594911e+002, 3.330135e+002
9.599732e+002, 3.217527e+002
9.604553e+002, 3.119334e+002
9.609374e+002, 3.039570e+002
9.614196e+002, 2.975376e+002
9.619017e+002, 2.919160e+002
9.623838e+002, 2.872195e+002
9.628659e+002, 2.829349e+002
9.633480e+002, 2.790197e+002
9.638301e+002, 2.755966e+002
9.643123e+002, 2.727677e+002
9.647944e+002, 2.703713e+002
9.652765e+002, 2.683258e+002
9.657586e+002, 2.665908e+002
9.662407e+002, 2.650349e+002
9.667228e+002, 2.638104e+002
9.672050e+002, 2.624094e+002
9.676871e+002, 2.604483e+002
9.681692e+002, 2.585799e+002
9.686513e+002, 2.571739e+002
9.691334e+002, 2.560979e+002
9.696155e+002, 2.552619e+002
9.700977e+002, 2.545929e+002
9.705798e+002, 2.537994e+002
9.710619e+002, 2.526015e+002
9.715440e+002, 2.515053e+002
9.720261e+002, 2.510339e+002
9.725082e+002, 2.506674e+002
9.729904e+002, 2.496848e+002
9.734725e+002, 2.483798e+002
9.739546e+002, 2.476118e+002
9.744367e+002, 2.475795e+002
9.749188e+002, 2.474573e+002
9.754009e+002, 2.464248e+002
9.758831e+002, 2.451312e+002
9.763652e+002, 2.446206e+002
9.768473e+002, 2.444545e+002
9.773294e+002, 2.436017e+002
9.778115e+002, 2.420597e+002
9.782936e+002, 2.405138e+002
9.787758e+002, 2.392826e+002
9.792579e+002, 2.382845e+002
9.797400e+002, 2.374406e+002
9.802221e+002, 2.367354e+002
9.807042e+002, 2.361067e+002
9.811863e+002, 2.355759e+002
9.816685e+002, 2.353703e+002
9.821506e+002, 2.355359e+002
9.826327e+002, 2.356924e+002
9.831148e+002, 2.355939e+002
9.835969e+002, 2.353384e+002
9.840790e+002, 2.350681e+002
9.845612e+002, 2.347827e+002
9.850433e+002, 2.347844e+002
9.855254e+002, 2.351657e+002
9.860075e+002, 2.352112e+002
9.864896e+002, 2.345842e+002
9.869717e+002, 2.340793e+002
9.874539e+002, 2.344463e+002
9.879360e+002, 2.353291e+002
9.884181e+002, 2.355698e+002
9.889002e+002, 2.348992e+002
9.893823e+002, 2.345275e+002
9.898644e+002, 2.345022e+002
9.903466e+002, 2.346966e+002
9.908287e+002, 2.352361e+002
9.913108e+002, 2.358038e+002
9.917929e+002, 2.361651e+002
9.922750e+002, 2.363049e+002
9.927571e+002, 2.361082e+002
9.932393e+002, 2.352655e+002
9.937214e+002, 2.346515e+002
9.942035e+002, 2.344211e+002
9.946856e+002, 2.342498e+002
9.951677e+002, 2.341963e+002
9.956498e+002, 2.340161e+002
9.961320e+002, 2.331716e+002
9.966141e+002, 2.318321e+002
9.970962e+002, 2.313106e+002
9.975783e+002, 2.325631e+002
9.980604e+002, 2.334639e+002
9.985425e+002, 2.333123e+002
9.990247e+002, 2.328199e+002
9.995068e+002, 2.322137e+002
9.999889e+002, 2.316601e+002
1.000471e+003, 2.314140e+002
1.000953e+003, 2.314619e+002
1.001435e+003, 2.314020e+002
1.001917e+003, 2.309305e+002
1.002399e+003, 2.305237e+002
1.002882e+003, 2.304585e+002
1.003364e+003, 2.305606e+002
1.003846e+003, 2.307489e+002
1.004328e+003, 2.309491e+002
1.004810e+003, 2.310908e+002
1.005292e+003, 2.311440e+002
1.005774e+003, 2.310311e+002
1.006256e+003, 2.306052e+002
1.006739e+003, 2.301270e+002
1.007221e+003, 2.297431e+002
1.007703e+003, 2.295248e+002
1.008185e+003, 2.297487e+002
1.008667e+003, 2.302192e+002
1.009149e+003, 2.303670e+002
1.009631e+003, 2.300029e+002
1.010113e+003, 2.294274e+002
1.010595e+003, 2.287435e+002
1.011078e+003, 2.281801e+002
1.011560e+003, 2.281738e+002
1.012042e+003, 2.285339e+002
1.012524e+003, 2.289644e+002
1.013006e+003, 2.293278e+002
1.013488e+003, 2.292229e+002
1.013970e+003, 2.284830e+002
1.014452e+003, 2.275478e+002
1.014935e+003, 2.267338e+002
1.015417e+003, 2.262264e+002
1.015899e+003, 2.268901e+002
1.016381e+003, 2.283452e+002
1.016863e+003, 2.285878e+002
1.017345e+003, 2.274390e+002
1.017827e+003, 2.264525e+002
1.018309e+003, 2.264314e+002
1.018791e+003, 2.268565e+002
1.019274e+003, 2.270614e+002
1.019756e+003, 2.270804e+002
1.020238e+003, 2.270554e+002
1.020720e+003, 2.269903e+002
1.021202e+003, 2.268677e+002
1.021684e+003, 2.266608e+002
1.022166e+003, 2.270026e+002
1.022648e+003, 2.283800e+002
1.023130e+003, 2.298993e+002
1.023613e+003, 2.300170e+002
1.024095e+003, 2.288389e+002
1.024577e+003, 2.281586e+002
1.025059e+003, 2.280181e+002
1.025541e+003, 2.280736e+002
1.026023e+003, 2.283210e+002
1.026505e+003, 2.284823e+002
1.026987e+003, 2.283742e+002
1.027469e+003, 2.280847e+002
1.027952e+003, 2.277236e+002
1.028434e+003, 2.272674e+002
1.028916e+003, 2.273258e+002
1.029398e+003, 2.280979e+002
1.029880e+003, 2.286999e+002
1.030362e+003, 2.290000e+002
1.030844e+003, 2.290110e+002
1.031326e+003, 2.286412e+002
1.031809e+003, 2.280978e+002
1.032291e+003, 2.277944e+002
1.032773e+003, 2.277513e+002
1.033255e+003, 2.278289e+002
1.033737e+003, 2.282523e+002
1.034219e+003, 2.282757e+002
1.034701e+003, 2.274181e+002
1.035183e+003, 2.266561e+002
1.035666e+003, 2.267241e+002
1.036148e+003, 2.272718e+002
1.036630e+003, 2.275397e+002
1.037112e+003, 2.274212e+002
1.037594e+003, 2.276263e+002
1.038076e+003, 2.286339e+002
1.038558e+003, 2.291783e+002
1.039040e+003, 2.286136e+002
1.039522e+003, 2.279860e+002
1.040005e+003, 2.280259e+002
1.040487e+003, 2.284529e+002
1.040969e+003, 2.286572e+002
1.041451e+003, 2.285648e+002
1.041933e+003, 2.286399e+002
1.042415e+003, 2.291460e+002
1.042897e+003, 2.294639e+002
1.043379e+003, 2.294007e+002
1.043861e+003, 2.291990e+002
1.044344e+003, 2.288853e+002
1.044826e+003, 2.285905e+002
1.045308e+003, 2.286043e+002
1.045790e+003, 2.290080e+002
1.046272e+003, 2.292818e+002
1.046754e+003, 2.292385e+002
1.047236e+003, 2.292477e+002
1.047718e+003, 2.295447e+002
1.048201e+003, 2.297830e+002
1.048683e+003, 2.295572e+002
1.049165e+003, 2.291626e+002
1.049647e+003, 2.292860e+002
1.050129e+003, 2.300847e+002
1.050611e+003, 2.303666e+002
1.051093e+003, 2.292992e+002
1.051575e+003, 2.285016e+002
1.052057e+003, 2.285158e+002
1.052540e+003, 2.289011e+002
1.053022e+003, 2.293678e+002
1.053504e+003, 2.299524e+002
1.053986e+003, 2.309314e+002
1.054468e+003, 2.323672e+002
1.054950e+003, 2.331891e+002
1.055432e+003, 2.329158e+002
1.055914e+003, 2.322556e+002
1.056396e+003, 2.309732e+002
1.056879e+003, 2.298560e+002
1.057361e+003, 2.296192e+002
1.057843e+003, 2.299166e+002
1.058325e+003, 2.301804e+002
1.058807e+003, 2.303102e+002
1.059289e+003, 2.301843e+002
1.059771e+003, 2.294295e+002
1.060253e+003, 2.288650e+002
1.060736e+003, 2.289548e+002
1.061218e+003, 2.291996e+002
1.061700e+003, 2.291579e+002
1.062182e+003, 2.290300e+002
1.062664e+003, 2.292739e+002
1.063146e+003, 2.299178e+002
1.063628e+003, 2.303435e+002
1.064110e+003, 2.301194e+002
1.064593e+003, 2.299348e+002
1.065075e+003, 2.302086e+002
1.065557e+003, 2.304952e+002
1.066039e+003, 2.304846e+002
1.066521e+003, 2.302407e+002
1.067003e+003, 2.297426e+002
1.067485e+003, 2.290818e+002
1.067967e+003, 2.288588e+002
1.068449e+003, 2.295406e+002
1.068932e+003, 2.302738e+002
1.069414e+003, 2.306617e+002
1.069896e+003, 2.309734e+002
1.070378e+003, 2.315733e+002
1.070860e+003, 2.321370e+002
1.071342e+003, 2.320700e+002
1.071824e+003, 2.314217e+002
1.072306e+003, 2.309368e+002
1.072788e+003, 2.308013e+002
1.073271e+003, 2.310633e+002
1.073753e+003, 2.323004e+002
1.074235e+003, 2.333629e+002
1.074717e+003, 2.332385e+002
1.075199e+003, 2.325431e+002
1.075681e+003, 2.319987e+002
1.076163e+003, 2.317432e+002
1.076645e+003, 2.317747e+002
1.077127e+003, 2.321653e+002
1.077610e+003, 2.326045e+002
1.078092e+003, 2.329130e+002
1.078574e+003, 2.332630e+002
1.079056e+003, 2.339040e+002
1.079538e+003, 2.345646e+002
1.080020e+003, 2.349622e+002
1.080502e+003, 2.350709e+002
1.080984e+003, 2.349037e+002
1.081467e+003, 2.343847e+002
1.081949e+003, 2.340001e+002
1.082431e+003, 2.340149e+002
1.082913e+003, 2.341741e+002
1.083395e+003, 2.345396e+002
1.083877e+003, 2.348002e+002
1.084359e+003, 2.344397e+002
1.084841e+003, 2.337222e+002
1.085323e+003, 2.334393e+002
1.085806e+003, 2.338409e+002
1.086288e+003, 2.342292e+002
1.086770e+003, 2.342972e+002
1.087252e+003, 2.342916e+002
1.087734e+003, 2.344308e+002
1.088216e+003, 2.344771e+002
1.088698e+003, 2.340986e+002
1.089180e+003, 2.334816e+002
1.089662e+003, 2.329872e+002
1.090145e+003, 2.326863e+002
1.090627e+003, 2.326887e+002
1.091109e+003, 2.334892e+002
1.091591e+003, 2.339970e+002
1.092073e+003, 2.334930e+002
1.092555e+003, 2.327618e+002
1.093037e+003, 2.325459e+002
1.093519e+003, 2.324887e+002
1.094002e+003, 2.317328e+002
1.094484e+003, 2.302518e+002
1.094966e+003, 2.293514e+002
1.095448e+003, 2.298474e+002
1.095930e+003, 2.303891e+002
1.096412e+003, 2.306236e+002
1.096894e+003, 2.306721e+002
1.097376e+003, 2.305950e+002
1.097859e+003, 2.303912e+002
1.098341e+003, 2.299190e+002
1.098823e+003, 2.292641e+002
1.099305e+003, 2.289957e+002
1.099787e+003, 2.296004e+002
1.100269e+003, 2.298494e+002
1.100751e+003, 2.288947e+002
1.101233e+003, 2.281455e+002
1.101715e+003, 2.285726e+002
1.102198e+003, 2.293402e+002
1.102680e+003, 2.295851e+002
1.103162e+003, 2.293557e+002
1.103644e+003, 2.290790e+002
1.104126e+003, 2.288010e+002
1.104608e+003, 2.285305e+002
1.105090e+003, 2.281664e+002
1.105572e+003, 2.279471e+002
1.106054e+003, 2.277800e+002
1.106537e+003, 2.279485e+002
1.107019e+003, 2.290657e+002
1.107501e+003, 2.306095e+002
1.107983e+003, 2.312788e+002
1.108465e+003, 2.308347e+002
1.108947e+003, 2.303624e+002
1.109429e+003, 2.297269e+002
1.109911e+003, 2.293941e+002
1.110394e+003, 2.298104e+002
1.110876e+003, 2.301817e+002
1.111358e+003, 2.297425e+002
1.111840e+003, 2.290853e+002
1.112322e+003, 2.293316e+002
1.112804e+003, 2.305574e+002
1.113286e+003, 2.312643e+002
1.113768e+003, 2.309975e+002
1.114250e+003, 2.309661e+002
1.114733e+003, 2.314659e+002
1.115215e+003, 2.319184e+002
1.115697e+003, 2.320674e+002
1.116179e+003, 2.320528e+002
1.116661e+003, 2.318835e+002
1.117143e+003, 2.316575e+002
1.117625e+003, 2.321745e+002
1.118107e+003, 2.342782e+002
1.118589e+003, 2.350249e+002
1.119072e+003, 2.334715e+002
1.119554e+003, 2.324277e+002
1.120036e+003, 2.329579e+002
1.120518e+003, 2.339870e+002
1.121000e+003, 2.346442e+002
1.121482e+003, 2.350684e+002
1.121964e+003, 2.357409e+002
1.122446e+003, 2.368423e+002
1.122929e+003, 2.369464e+002
1.123411e+003, 2.355674e+002
1.123893e+003, 2.349368e+002
1.124375e+003, 2.358147e+002
1.124857e+003, 2.366419e+002
1.125339e+003, 2.364069e+002
1.125821e+003, 2.355678e+002
1.126303e+003, 2.348456e+002
1.126786e+003, 2.342522e+002
1.127268e+003, 2.340958e+002
1.127750e+003, 2.344497e+002
1.128232e+003, 2.345393e+002
1.128714e+003, 2.342190e+002
1.129196e+003, 2.340417e+002
1.129678e+003, 2.343146e+002
1.130160e+003, 2.344709e+002
1.130642e+003, 2.337732e+002
1.131125e+003, 2.325792e+002
1.131607e+003, 2.321615e+002
1.132089e+003, 2.324883e+002
1.132571e+003, 2.331284e+002
1.133053e+003, 2.340372e+002
1.133535e+003, 2.344035e+002
1.134017e+003, 2.339821e+002
1.134499e+003, 2.335623e+002
1.134981e+003, 2.337818e+002
1.135464e+003, 2.342329e+002
1.135946e+003, 2.341200e+002
1.136428e+003, 2.336115e+002
1.136910e+003, 2.332814e+002
1.137392e+003, 2.331592e+002
1.137874e+003, 2.334414e+002
1.138356e+003, 2.340891e+002
1.138838e+003, 2.346380e+002
1.139321e+003, 2.348527e+002
1.139803e+003, 2.347196e+002
1.140285e+003, 2.340501e+002
1.140767e+003, 2.331860e+002
1.141249e+003, 2.327723e+002
1.141731e+003, 2.326436e+002
1.142213e+003, 2.324246e+002
1.142695e+003, 2.321376e+002
1.143177e+003, 2.320519e+002
1.143660e+003, 2.322220e+002
1.144142e+003, 2.323488e+002
1.144624e+003, 2.322215e+002
1.145106e+003, 2.319646e+002
1.145588e+003, 2.315974e+002
1.146070e+003, 2.312673e+002
1.146552e+003, 2.311930e+002
1.147034e+003, 2.312843e+002
1.147516e+003, 2.315044e+002
1.147999e+003, 2.317149e+002
1.148481e+003, 2.313847e+002
1.148963e+003, 2.301528e+002
1.149445e+003, 2.292106e+002
1.149927e+003, 2.294590e+002
1.150409e+003, 2.300927e+002
1.150891e+003, 2.307034e+002
1.151373e+003, 2.312453e+002
1.151856e+003, 2.317927e+002
1.152338e+003, 2.322188e+002
1.152820e+003, 2.322229e+002
1.153302e+003, 2.317431e+002
1.153784e+003, 2.311745e+002
1.154266e+003, 2.303160e+002
1.154748e+003, 2.298606e+002
1.155230e+003, 2.303840e+002
1.155713e+003, 2.309988e+002
1.156195e+003, 2.312716e+002
1.156677e+003, 2.312366e+002
1.157159e+003, 2.307634e+002
1.157641e+003, 2.299920e+002
1.158123e+003, 2.298391e+002
1.158605e+003, 2.309326e+002
1.159087e+003, 2.314813e+002
1.159569e+003, 2.307634e+002
1.160052e+003, 2.303394e+002
1.160534e+003, 2.309339e+002
1.161016e+003, 2.316064e+002
1.161498e+003, 2.316202e+002
1.161980e+003, 2.312555e+002
1.162462e+003, 2.311914e+002
1.162944e+003, 2.315190e+002
1.163426e+003, 2.310395e+002
1.163908e+003, 2.291164e+002
1.164391e+003, 2.283539e+002
1.164873e+003, 2.294920e+002
1.165355e+003, 2.306375e+002
1.165837e+003, 2.308848e+002
1.166319e+003, 2.307412e+002
1.166801e+003, 2.306629e+002
1.167283e+003, 2.308459e+002
1.167765e+003, 2.325179e+002
1.168247e+003, 2.357876e+002
1.168730e+003, 2.368426e+002
1.169212e+003, 2.354529e+002
1.169694e+003, 2.343637e+002
1.170176e+003, 2.343222e+002
1.170658e+003, 2.348213e+002
1.171140e+003, 2.355923e+002
1.171622e+003, 2.361383e+002
1.172104e+003, 2.354397e+002
1.172587e+003, 2.339502e+002
1.173069e+003, 2.332076e+002
1.173551e+003, 2.330254e+002
1.174033e+003, 2.326422e+002
1.174515e+003, 2.320418e+002
1.174997e+003, 2.317298e+002
1.175479e+003, 2.318811e+002
1.175961e+003, 2.321706e+002
1.176443e+003, 2.323517e+002
1.176926e+003, 2.324869e+002
1.177408e+003, 2.326438e+002
1.177890e+003, 2.328114e+002
1.178372e+003, 2.329708e+002
1.178854e+003, 2.331302e+002
1.179336e+003, 2.334100e+002
1.179818e+003, 2.337256e+002
1.180300e+003, 2.336270e+002
1.180782e+003, 2.328595e+002
1.181265e+003, 2.322481e+002
1.181747e+003, 2.325807e+002
1.182229e+003, 2.328933e+002
1.182711e+003, 2.324658e+002
1.183193e+003, 2.318024e+002
1.183675e+003, 2.311209e+002
1.184157e+003, 2.307000e+002
1.184639e+003, 2.312022e+002
1.185122e+003, 2.326290e+002
1.185604e+003, 2.333821e+002
1.186086e+003, 2.323462e+002
1.186568e+003, 2.318376e+002
1.187050e+003, 2.329356e+002
1.187532e+003, 2.337665e+002
1.188014e+003, 2.332497e+002
1.188496e+003, 2.323667e+002
1.188979e+003, 2.319772e+002
1.189461e+003, 2.319590e+002
1.189943e+003, 2.319880e+002
1.190425e+003, 2.320787e+002
1.190907e+003, 2.321119e+002
1.191389e+003, 2.320131e+002
1.191871e+003, 2.321093e+002
1.192353e+003, 2.326019e+002
1.192835e+003, 2.327913e+002
1.193318e+003, 2.321900e+002
1.193800e+003, 2.315360e+002
1.194282e+003, 2.317801e+002
1.194764e+003, 2.326687e+002
1.195246e+003, 2.332594e+002
1.195728e+003, 2.335536e+002
1.196210e+003, 2.334359e+002
1.196692e+003, 2.329303e+002
1.197174e+003, 2.326534e+002
1.197657e+003, 2.327430e+002
1.198139e+003, 2.326767e+002
1.198621e+003, 2.321025e+002
1.199103e+003, 2.316265e+002
1.199585e+003, 2.322608e+002
1.200067e+003, 2.333968e+002
1.200549e+003, 2.338816e+002
1.201031e+003, 2.338884e+002
1.201514e+003, 2.337749e+002
1.201996e+003, 2.335608e+002
1.202478e+003, 2.329724e+002
1.202960e+003, 2.320639e+002
1.203442e+003, 2.317474e+002
1.203924e+003, 2.328203e+002
1.204406e+003, 2.338250e+002
1.204888e+003, 2.334890e+002
1.205370e+003, 2.328121e+002
1.205853e+003, 2.324100e+002
1.206335e+003, 2.323163e+002
1.206817e+003, 2.327414e+002
1.207299e+003, 2.334100e+002
1.207781e+003, 2.335782e+002
1.208263e+003, 2.330601e+002
1.208745e+003, 2.327823e+002
1.209227e+003, 2.331915e+002
1.209709e+003, 2.335217e+002
1.210192e+003, 2.335244e+002
1.210674e+003, 2.335170e+002
1.211156e+003, 2.338453e+002
1.211638e+003, 2.340665e+002
1.212120e+003, 2.335862e+002
1.212602e+003, 2.326508e+002
1.213084e+003, 2.322125e+002
1.213566e+003, 2.323415e+002
1.214049e+003, 2.326649e+002
1.214531e+003, 2.333094e+002
1.215013e+003, 2.335791e+002
1.215495e+003, 2.332388e+002
1.215977e+003, 2.330408e+002
1.216459e+003, 2.334037e+002
1.216941e+003, 2.340132e+002
1.217423e+003, 2.345643e+002
1.217906e+003, 2.349241e+002
1.218388e+003, 2.344425e+002
1.218870e+003, 2.333773e+002
1.219352e+003, 2.331646e+002
1.219834e+003, 2.336821e+002
1.220316e+003, 2.338437e+002
1.220798e+003, 2.334568e+002
1.221280e+003, 2.330484e+002
1.221762e+003, 2.328924e+002
1.222245e+003, 2.330313e+002
1.222727e+003, 2.337654e+002
1.223209e+003, 2.345534e+002
1.223691e+003, 2.347882e+002
1.224173e+003, 2.346900e+002
1.224655e+003, 2.343530e+002
1.225137e+003, 2.339986e+002
1.225619e+003, 2.341284e+002
1.226101e+003, 2.346826e+002
1.226584e+003, 2.348046e+002
1.227066e+003, 2.340181e+002
1.227548e+003, 2.333219e+002
1.228030e+003, 2.329513e+002
1.228512e+003, 2.328847e+002
1.228994e+003, 2.335663e+002
1.229476e+003, 2.341072e+002
1.229958e+003, 2.335211e+002
1.230441e+003, 2.324707e+002
1.230923e+003, 2.321651e+002
1.231405e+003, 2.325824e+002
1.231887e+003, 2.330076e+002
1.232369e+003, 2.335034e+002
1.232851e+003, 2.337792e+002
1.233333e+003, 2.337304e+002
1.233815e+003, 2.338235e+002
1.234297e+003, 2.342620e+002
1.234780e+003, 2.345607e+002
1.235262e+003, 2.343366e+002
1.235744e+003, 2.338958e+002
1.236226e+003, 2.337548e+002
1.236708e+003, 2.338522e+002
1.237190e+003, 2.339898e+002
1.237672e+003, 2.341306e+002
1.238154e+003, 2.340790e+002
1.238636e+003, 2.338580e+002
1.239119e+003, 2.336587e+002
1.239601e+003, 2.335419e+002
1.240083e+003, 2.334721e+002
1.240565e+003, 2.334241e+002
1.241047e+003, 2.334373e+002
1.241529e+003, 2.337024e+002
1.242011e+003, 2.338892e+002
1.242493e+003, 2.333259e+002
1.242975e+003, 2.327690e+002
1.243458e+003, 2.333416e+002
1.243940e+003, 2.346134e+002
1.244422e+003, 2.356488e+002
1.244904e+003, 2.362551e+002
1.245386e+003, 2.362514e+002
1.245868e+003, 2.349685e+002
1.246350e+003, 2.342287e+002
1.246832e+003, 2.347786e+002
1.247315e+003, 2.353237e+002
1.247797e+003, 2.355779e+002
1.248279e+003, 2.354776e+002
1.248761e+003, 2.347414e+002
1.249243e+003, 2.338453e+002
1.249725e+003, 2.336704e+002
1.250207e+003, 2.341781e+002
1.250689e+003, 2.348048e+002
1.251172e+003, 2.356011e+002
1.251654e+003, 2.358762e+002
1.252136e+003, 2.355620e+002
1.252618e+003, 2.350396e+002
1.253100e+003, 2.344265e+002
1.253582e+003, 2.342726e+002
1.254064e+003, 2.350021e+002
1.254546e+003, 2.358944e+002
1.255028e+003, 2.359433e+002
1.255510e+003, 2.354663e+002
1.255993e+003, 2.349221e+002
1.256475e+003, 2.343726e+002
1.256957e+003, 2.337023e+002
1.257439e+003, 2.332095e+002
1.257921e+003, 2.338877e+002
1.258403e+003, 2.356200e+002
1.258885e+003, 2.365788e+002
1.259367e+003, 2.357418e+002
1.259850e+003, 2.350034e+002
1.260332e+003, 2.354732e+002
1.260814e+003, 2.359460e+002
1.261296e+003, 2.357478e+002
1.261778e+003, 2.354385e+002
1.262260e+003, 2.353868e+002
1.262742e+003, 2.355569e+002
1.263224e+003, 2.359657e+002
1.263707e+003, 2.365470e+002
1.264189e+003, 2.367214e+002
1.264671e+003, 2.363134e+002
1.265153e+003, 2.360875e+002
1.265635e+003, 2.360586e+002
1.266117e+003, 2.362144e+002
1.266599e+003, 2.366030e+002
1.267081e+003, 2.368148e+002
1.267563e+003, 2.366153e+002
1.268046e+003, 2.361555e+002
1.268528e+003, 2.354905e+002
1.269010e+003, 2.349268e+002
1.269492e+003, 2.354793e+002
1.269974e+003, 2.365641e+002
1.270456e+003, 2.364918e+002
1.270938e+003, 2.357004e+002
1.271420e+003, 2.356870e+002
1.271902e+003, 2.364769e+002
1.272385e+003, 2.369869e+002
1.272867e+003, 2.368027e+002
1.273349e+003, 2.366710e+002
1.273831e+003, 2.371811e+002
1.274313e+003, 2.376565e+002
1.274795e+003, 2.376638e+002
1.275277e+003, 2.376355e+002
1.275759e+003, 2.380163e+002
1.276242e+003, 2.383982e+002
1.276724e+003, 2.381261e+002
1.277206e+003, 2.374822e+002
1.277688e+003, 2.374795e+002
1.278170e+003, 2.382310e+002
1.278652e+003, 2.385571e+002
1.279134e+003, 2.382886e+002
1.279616e+003, 2.382339e+002
1.280099e+003, 2.385260e+002
1.280581e+003, 2.387799e+002
1.281063e+003, 2.388633e+002
1.281545e+003, 2.387535e+002
1.282027e+003, 2.383955e+002
1.282509e+003, 2.380384e+002
1.282991e+003, 2.381331e+002
1.283473e+003, 2.385276e+002
1.283955e+003, 2.389478e+002
##END=



