##NAMES=Barytolamprophyllite
##RRUFFID=R120087
##IDEAL CHEMISTRY=(BaK)Ti^4+^_2_Na_3_Ti^4+^(Si_2_O_7_)_2_O_2_(OH)_2_
##LOCALITY=Coyote Peak, Orick, Humboldt County, California, USA
##OWNER=RRUFF
##SOURCE=Michael Scott
##DESCRIPTION=Tabular reddish brown massive, associated with phlogopite, bartonite and R070139 erdite
##STATUS=The identification of this mineral has been confirmed only by single crystal X-ray diffraction.
##URL=rruff.info/R120087
9.001007e+001, 0.000000e+000
9.049219e+001, 1.259963e+001
9.097430e+001, 1.297724e+001
9.145642e+001, 1.280271e+001
9.193854e+001, 1.214192e+001
9.242065e+001, 1.154356e+001
9.290277e+001, 1.154506e+001
9.338489e+001, 1.194532e+001
9.386700e+001, 1.228173e+001
9.434912e+001, 1.240226e+001
9.483124e+001, 1.235311e+001
9.531335e+001, 1.219593e+001
9.579547e+001, 1.191955e+001
9.627759e+001, 1.161004e+001
9.675970e+001, 1.134663e+001
9.724182e+001, 1.113034e+001
9.772394e+001, 1.095624e+001
9.820605e+001, 1.080196e+001
9.868817e+001, 1.067369e+001
9.917029e+001, 1.068805e+001
9.965240e+001, 1.090541e+001
1.001345e+002, 1.116872e+001
1.006166e+002, 1.114167e+001
1.010988e+002, 1.076664e+001
1.015809e+002, 1.035136e+001
1.020630e+002, 1.004629e+001
1.025451e+002, 9.855180e+000
1.030272e+002, 9.756156e+000
1.035093e+002, 9.795094e+000
1.039915e+002, 9.920046e+000
1.044736e+002, 9.817992e+000
1.049557e+002, 9.123060e+000
1.054378e+002, 8.735447e+000
1.059199e+002, 9.437339e+000
1.064020e+002, 1.235646e+001
1.068842e+002, 1.427248e+001
1.073663e+002, 1.457250e+001
1.078484e+002, 1.323408e+001
1.083305e+002, 1.197083e+001
1.088126e+002, 1.065455e+001
1.092947e+002, 9.496116e+000
1.097769e+002, 8.690013e+000
1.102590e+002, 8.464902e+000
1.107411e+002, 8.362296e+000
1.112232e+002, 8.359217e+000
1.117053e+002, 8.508147e+000
1.121874e+002, 8.524094e+000
1.126696e+002, 8.253888e+000
1.131517e+002, 7.873918e+000
1.136338e+002, 7.612762e+000
1.141159e+002, 7.597302e+000
1.145980e+002, 7.630306e+000
1.150801e+002, 7.620140e+000
1.155623e+002, 7.483676e+000
1.160444e+002, 7.482993e+000
1.165265e+002, 7.863235e+000
1.170086e+002, 8.434344e+000
1.174907e+002, 8.788069e+000
1.179728e+002, 8.640074e+000
1.184550e+002, 8.319514e+000
1.189371e+002, 8.018383e+000
1.194192e+002, 7.730494e+000
1.199013e+002, 7.540420e+000
1.203834e+002, 7.621863e+000
1.208655e+002, 7.886495e+000
1.213477e+002, 7.988943e+000
1.218298e+002, 7.485475e+000
1.223119e+002, 6.809877e+000
1.227940e+002, 6.436793e+000
1.232761e+002, 6.760495e+000
1.237582e+002, 7.214516e+000
1.242404e+002, 7.282011e+000
1.247225e+002, 6.990533e+000
1.252046e+002, 6.679327e+000
1.256867e+002, 6.674035e+000
1.261688e+002, 6.829229e+000
1.266509e+002, 6.880957e+000
1.271331e+002, 6.576087e+000
1.276152e+002, 6.160588e+000
1.280973e+002, 6.037416e+000
1.285794e+002, 6.224756e+000
1.290615e+002, 6.484002e+000
1.295436e+002, 6.563035e+000
1.300258e+002, 6.496039e+000
1.305079e+002, 6.431842e+000
1.309900e+002, 6.513753e+000
1.314721e+002, 6.658055e+000
1.319542e+002, 6.560861e+000
1.324363e+002, 6.160365e+000
1.329185e+002, 5.681624e+000
1.334006e+002, 5.480083e+000
1.338827e+002, 5.554602e+000
1.343648e+002, 5.661158e+000
1.348469e+002, 5.671136e+000
1.353290e+002, 5.590950e+000
1.358112e+002, 5.503968e+000
1.362933e+002, 5.400983e+000
1.367754e+002, 5.313508e+000
1.372575e+002, 5.315405e+000
1.377396e+002, 5.413313e+000
1.382217e+002, 5.574811e+000
1.387039e+002, 5.827403e+000
1.391860e+002, 6.204029e+000
1.396681e+002, 6.441544e+000
1.401502e+002, 6.505935e+000
1.406323e+002, 6.412133e+000
1.411144e+002, 6.202086e+000
1.415966e+002, 5.822567e+000
1.420787e+002, 5.426202e+000
1.425608e+002, 5.117818e+000
1.430429e+002, 4.895331e+000
1.435250e+002, 4.773456e+000
1.440071e+002, 4.789032e+000
1.444893e+002, 4.934371e+000
1.449714e+002, 5.012888e+000
1.454535e+002, 4.988304e+000
1.459356e+002, 4.931459e+000
1.464177e+002, 4.914828e+000
1.468998e+002, 4.999489e+000
1.473820e+002, 5.025163e+000
1.478641e+002, 4.920815e+000
1.483462e+002, 4.646586e+000
1.488283e+002, 4.531088e+000
1.493104e+002, 4.696251e+000
1.497925e+002, 4.962173e+000
1.502747e+002, 5.122371e+000
1.507568e+002, 5.059274e+000
1.512389e+002, 5.008087e+000
1.517210e+002, 5.037663e+000
1.522031e+002, 5.201561e+000
1.526852e+002, 5.275618e+000
1.531674e+002, 5.108170e+000
1.536495e+002, 4.881505e+000
1.541316e+002, 4.857814e+000
1.546137e+002, 5.377213e+000
1.550958e+002, 5.827019e+000
1.555779e+002, 5.968949e+000
1.560601e+002, 5.579100e+000
1.565422e+002, 5.366946e+000
1.570243e+002, 5.605307e+000
1.575064e+002, 6.081666e+000
1.579885e+002, 6.384530e+000
1.584706e+002, 6.083637e+000
1.589528e+002, 5.839612e+000
1.594349e+002, 5.982475e+000
1.599170e+002, 6.762312e+000
1.603991e+002, 7.576347e+000
1.608812e+002, 8.311495e+000
1.613633e+002, 8.963337e+000
1.618455e+002, 9.520283e+000
1.623276e+002, 9.704775e+000
1.628097e+002, 9.956767e+000
1.632918e+002, 1.057318e+001
1.637739e+002, 1.178165e+001
1.642560e+002, 1.313833e+001
1.647382e+002, 1.448279e+001
1.652203e+002, 1.582609e+001
1.657024e+002, 1.721061e+001
1.661845e+002, 1.861846e+001
1.666666e+002, 2.010011e+001
1.671487e+002, 2.169030e+001
1.676309e+002, 2.353507e+001
1.681130e+002, 2.537315e+001
1.685951e+002, 2.704453e+001
1.690772e+002, 2.856350e+001
1.695593e+002, 2.996742e+001
1.700414e+002, 3.124809e+001
1.705236e+002, 3.244010e+001
1.710057e+002, 3.356826e+001
1.714878e+002, 3.465210e+001
1.719699e+002, 3.568411e+001
1.724520e+002, 3.664119e+001
1.729341e+002, 3.752928e+001
1.734163e+002, 3.836663e+001
1.738984e+002, 3.913293e+001
1.743805e+002, 3.986754e+001
1.748626e+002, 4.061273e+001
1.753447e+002, 4.161512e+001
1.758268e+002, 4.253142e+001
1.763090e+002, 4.276626e+001
1.767911e+002, 4.230975e+001
1.772732e+002, 4.201805e+001
1.777553e+002, 4.275261e+001
1.782374e+002, 4.403078e+001
1.787195e+002, 4.494855e+001
1.792017e+002, 4.479772e+001
1.796838e+002, 4.421455e+001
1.801659e+002, 4.417477e+001
1.806480e+002, 4.470074e+001
1.811301e+002, 4.545919e+001
1.816122e+002, 4.622044e+001
1.820944e+002, 4.697421e+001
1.825765e+002, 4.766452e+001
1.830586e+002, 4.817160e+001
1.835407e+002, 4.861487e+001
1.840228e+002, 4.929094e+001
1.845049e+002, 5.021296e+001
1.849871e+002, 5.127201e+001
1.854692e+002, 5.240142e+001
1.859513e+002, 5.358353e+001
1.864334e+002, 5.465691e+001
1.869155e+002, 5.544967e+001
1.873976e+002, 5.606977e+001
1.878798e+002, 5.690611e+001
1.883619e+002, 5.798902e+001
1.888440e+002, 5.920094e+001
1.893261e+002, 6.039366e+001
1.898082e+002, 6.157562e+001
1.902903e+002, 6.271427e+001
1.907725e+002, 6.371210e+001
1.912546e+002, 6.463181e+001
1.917367e+002, 6.581942e+001
1.922188e+002, 6.737691e+001
1.927009e+002, 6.899367e+001
1.931830e+002, 7.001909e+001
1.936652e+002, 7.044699e+001
1.941473e+002, 7.095650e+001
1.946294e+002, 7.195586e+001
1.951115e+002, 7.340630e+001
1.955936e+002, 7.484277e+001
1.960757e+002, 7.624766e+001
1.965579e+002, 7.761332e+001
1.970400e+002, 7.886375e+001
1.975221e+002, 7.997562e+001
1.980042e+002, 8.120759e+001
1.984863e+002, 8.276269e+001
1.989684e+002, 8.463807e+001
1.994506e+002, 8.652531e+001
1.999327e+002, 8.841311e+001
2.004148e+002, 9.026517e+001
2.008969e+002, 9.192399e+001
2.013790e+002, 9.335898e+001
2.018611e+002, 9.485466e+001
2.023433e+002, 9.664530e+001
2.028254e+002, 9.877031e+001
2.033075e+002, 1.006841e+002
2.037896e+002, 1.022030e+002
2.042717e+002, 1.035900e+002
2.047538e+002, 1.055923e+002
2.052360e+002, 1.083646e+002
2.057181e+002, 1.111705e+002
2.062002e+002, 1.134930e+002
2.066823e+002, 1.152153e+002
2.071644e+002, 1.172482e+002
2.076465e+002, 1.198148e+002
2.081287e+002, 1.226469e+002
2.086108e+002, 1.250038e+002
2.090929e+002, 1.267987e+002
2.095750e+002, 1.283680e+002
2.100571e+002, 1.298870e+002
2.105392e+002, 1.313740e+002
2.110214e+002, 1.327613e+002
2.115035e+002, 1.340281e+002
2.119856e+002, 1.351956e+002
2.124677e+002, 1.364236e+002
2.129498e+002, 1.378333e+002
2.134319e+002, 1.390502e+002
2.139140e+002, 1.397885e+002
2.143962e+002, 1.398753e+002
2.148783e+002, 1.401430e+002
2.153604e+002, 1.407717e+002
2.158425e+002, 1.416195e+002
2.163246e+002, 1.421082e+002
2.168067e+002, 1.422347e+002
2.172889e+002, 1.420208e+002
2.177710e+002, 1.413875e+002
2.182531e+002, 1.400991e+002
2.187352e+002, 1.391084e+002
2.192173e+002, 1.386536e+002
2.196994e+002, 1.385460e+002
2.201816e+002, 1.378816e+002
2.206637e+002, 1.363679e+002
2.211458e+002, 1.347801e+002
2.216279e+002, 1.336610e+002
2.221100e+002, 1.332467e+002
2.225921e+002, 1.326471e+002
2.230743e+002, 1.317678e+002
2.235564e+002, 1.306511e+002
2.240385e+002, 1.294263e+002
2.245206e+002, 1.280855e+002
2.250027e+002, 1.266999e+002
2.254848e+002, 1.253021e+002
2.259670e+002, 1.238684e+002
2.264491e+002, 1.225191e+002
2.269312e+002, 1.212901e+002
2.274133e+002, 1.201574e+002
2.278954e+002, 1.189139e+002
2.283775e+002, 1.174717e+002
2.288597e+002, 1.160833e+002
2.293418e+002, 1.149441e+002
2.298239e+002, 1.142082e+002
2.303060e+002, 1.133603e+002
2.307881e+002, 1.123237e+002
2.312702e+002, 1.111379e+002
2.317524e+002, 1.100043e+002
2.322345e+002, 1.088042e+002
2.327166e+002, 1.078345e+002
2.331987e+002, 1.073597e+002
2.336808e+002, 1.077816e+002
2.341629e+002, 1.077816e+002
2.346451e+002, 1.070816e+002
2.351272e+002, 1.058808e+002
2.356093e+002, 1.050759e+002
2.360914e+002, 1.049377e+002
2.365735e+002, 1.048241e+002
2.370556e+002, 1.043400e+002
2.375378e+002, 1.031962e+002
2.380199e+002, 1.023233e+002
2.385020e+002, 1.018415e+002
2.389841e+002, 1.016679e+002
2.394662e+002, 1.014890e+002
2.399483e+002, 1.013063e+002
2.404305e+002, 1.011225e+002
2.409126e+002, 1.009445e+002
2.413947e+002, 1.008042e+002
2.418768e+002, 1.006087e+002
2.423589e+002, 1.003710e+002
2.428410e+002, 1.000778e+002
2.433232e+002, 9.964885e+001
2.438053e+002, 9.896398e+001
2.442874e+002, 9.830991e+001
2.447695e+002, 9.784177e+001
2.452516e+002, 9.762746e+001
2.457337e+002, 9.745026e+001
2.462159e+002, 9.740612e+001
2.466980e+002, 9.737718e+001
2.471801e+002, 9.694704e+001
2.476622e+002, 9.582022e+001
2.481443e+002, 9.472855e+001
2.486264e+002, 9.407218e+001
2.491086e+002, 9.413940e+001
2.495907e+002, 9.393041e+001
2.500728e+002, 9.334444e+001
2.505549e+002, 9.249866e+001
2.510370e+002, 9.170634e+001
2.515191e+002, 9.101833e+001
2.520013e+002, 9.030483e+001
2.524834e+002, 8.946217e+001
2.529655e+002, 8.834446e+001
2.534476e+002, 8.752793e+001
2.539297e+002, 8.716376e+001
2.544118e+002, 8.703587e+001
2.548940e+002, 8.663618e+001
2.553761e+002, 8.583735e+001
2.558582e+002, 8.498766e+001
2.563403e+002, 8.421831e+001
2.568224e+002, 8.352305e+001
2.573046e+002, 8.294717e+001
2.577867e+002, 8.257671e+001
2.582688e+002, 8.227364e+001
2.587509e+002, 8.177515e+001
2.592330e+002, 8.105986e+001
2.597151e+002, 8.019817e+001
2.601973e+002, 7.911722e+001
2.606794e+002, 7.768706e+001
2.611615e+002, 7.673071e+001
2.616436e+002, 7.640501e+001
2.621257e+002, 7.642677e+001
2.626078e+002, 7.632896e+001
2.630900e+002, 7.606283e+001
2.635721e+002, 7.580149e+001
2.640542e+002, 7.562109e+001
2.645363e+002, 7.554269e+001
2.650184e+002, 7.539677e+001
2.655005e+002, 7.516591e+001
2.659827e+002, 7.488924e+001
2.664648e+002, 7.458018e+001
2.669469e+002, 7.417150e+001
2.674290e+002, 7.393916e+001
2.679111e+002, 7.402532e+001
2.683932e+002, 7.445744e+001
2.688754e+002, 7.472018e+001
2.693575e+002, 7.474329e+001
2.698396e+002, 7.470191e+001
2.703217e+002, 7.483652e+001
2.708038e+002, 7.519878e+001
2.712859e+002, 7.552319e+001
2.717681e+002, 7.570362e+001
2.722502e+002, 7.574683e+001
2.727323e+002, 7.594386e+001
2.732144e+002, 7.635890e+001
2.736965e+002, 7.678928e+001
2.741786e+002, 7.693800e+001
2.746608e+002, 7.670986e+001
2.751429e+002, 7.673684e+001
2.756250e+002, 7.723677e+001
2.761071e+002, 7.813908e+001
2.765892e+002, 7.895251e+001
2.770714e+002, 7.966253e+001
2.775535e+002, 8.028857e+001
2.780356e+002, 8.081882e+001
2.785177e+002, 8.124121e+001
2.789998e+002, 8.169980e+001
2.794819e+002, 8.226525e+001
2.799641e+002, 8.288234e+001
2.804462e+002, 8.323959e+001
2.809283e+002, 8.328075e+001
2.814104e+002, 8.330653e+001
2.818925e+002, 8.362314e+001
2.823746e+002, 8.423697e+001
2.828568e+002, 8.466601e+001
2.833389e+002, 8.472995e+001
2.838210e+002, 8.464230e+001
2.843031e+002, 8.507516e+001
2.847852e+002, 8.608879e+001
2.852673e+002, 8.714628e+001
2.857495e+002, 8.784315e+001
2.862316e+002, 8.821148e+001
2.867137e+002, 8.863291e+001
2.871958e+002, 8.913029e+001
2.876779e+002, 8.974358e+001
2.881600e+002, 9.059794e+001
2.886422e+002, 9.169633e+001
2.891243e+002, 9.285103e+001
2.896064e+002, 9.399404e+001
2.900885e+002, 9.510338e+001
2.905706e+002, 9.597718e+001
2.910527e+002, 9.655097e+001
2.915349e+002, 9.699203e+001
2.920170e+002, 9.750032e+001
2.924991e+002, 9.807815e+001
2.929812e+002, 9.882297e+001
2.934633e+002, 9.991945e+001
2.939454e+002, 1.012312e+002
2.944276e+002, 1.022374e+002
2.949097e+002, 1.028322e+002
2.953918e+002, 1.034281e+002
2.958739e+002, 1.046364e+002
2.963560e+002, 1.063354e+002
2.968381e+002, 1.080070e+002
2.973203e+002, 1.093359e+002
2.978024e+002, 1.104640e+002
2.982845e+002, 1.117262e+002
2.987666e+002, 1.131493e+002
2.992487e+002, 1.145478e+002
2.997308e+002, 1.156916e+002
3.002130e+002, 1.166700e+002
3.006951e+002, 1.177193e+002
3.011772e+002, 1.189267e+002
3.016593e+002, 1.202585e+002
3.021414e+002, 1.217399e+002
3.026235e+002, 1.233540e+002
3.031057e+002, 1.249515e+002
3.035878e+002, 1.264289e+002
3.040699e+002, 1.277898e+002
3.045520e+002, 1.289962e+002
3.050341e+002, 1.298877e+002
3.055162e+002, 1.307557e+002
3.059984e+002, 1.319854e+002
3.064805e+002, 1.335179e+002
3.069626e+002, 1.350289e+002
3.074447e+002, 1.362446e+002
3.079268e+002, 1.373125e+002
3.084089e+002, 1.384119e+002
3.088911e+002, 1.396377e+002
3.093732e+002, 1.408344e+002
3.098553e+002, 1.419281e+002
3.103374e+002, 1.428985e+002
3.108195e+002, 1.436973e+002
3.113016e+002, 1.443296e+002
3.117838e+002, 1.447478e+002
3.122659e+002, 1.448468e+002
3.127480e+002, 1.444369e+002
3.132301e+002, 1.441088e+002
3.137122e+002, 1.443701e+002
3.141943e+002, 1.449693e+002
3.146765e+002, 1.453714e+002
3.151586e+002, 1.452748e+002
3.156407e+002, 1.449512e+002
3.161228e+002, 1.445679e+002
3.166049e+002, 1.441617e+002
3.170870e+002, 1.436340e+002
3.175692e+002, 1.430391e+002
3.180513e+002, 1.422807e+002
3.185334e+002, 1.412247e+002
3.190155e+002, 1.393636e+002
3.194976e+002, 1.375948e+002
3.199797e+002, 1.364518e+002
3.204619e+002, 1.360350e+002
3.209440e+002, 1.353858e+002
3.214261e+002, 1.340584e+002
3.219082e+002, 1.324414e+002
3.223903e+002, 1.309069e+002
3.228724e+002, 1.293392e+002
3.233546e+002, 1.280550e+002
3.238367e+002, 1.272953e+002
3.243188e+002, 1.270339e+002
3.248009e+002, 1.265632e+002
3.252830e+002, 1.256834e+002
3.257651e+002, 1.246209e+002
3.262473e+002, 1.235244e+002
3.267294e+002, 1.220904e+002
3.272115e+002, 1.209937e+002
3.276936e+002, 1.204008e+002
3.281757e+002, 1.202406e+002
3.286578e+002, 1.201206e+002
3.291400e+002, 1.199578e+002
3.296221e+002, 1.199021e+002
3.301042e+002, 1.200320e+002
3.305863e+002, 1.205649e+002
3.310684e+002, 1.209223e+002
3.315505e+002, 1.209951e+002
3.320327e+002, 1.209090e+002
3.325148e+002, 1.209346e+002
3.329969e+002, 1.210633e+002
3.334790e+002, 1.213064e+002
3.339611e+002, 1.216329e+002
3.344432e+002, 1.219711e+002
3.349254e+002, 1.227101e+002
3.354075e+002, 1.240755e+002
3.358896e+002, 1.256353e+002
3.363717e+002, 1.267507e+002
3.368538e+002, 1.271947e+002
3.373359e+002, 1.277327e+002
3.378180e+002, 1.287020e+002
3.383001e+002, 1.300845e+002
3.387823e+002, 1.307045e+002
3.392644e+002, 1.302562e+002
3.397465e+002, 1.296437e+002
3.402286e+002, 1.298858e+002
3.407107e+002, 1.311896e+002
3.411928e+002, 1.320907e+002
3.416750e+002, 1.321802e+002
3.421571e+002, 1.316974e+002
3.426392e+002, 1.316070e+002
3.431213e+002, 1.319847e+002
3.436034e+002, 1.323538e+002
3.440855e+002, 1.323321e+002
3.445677e+002, 1.319372e+002
3.450498e+002, 1.315780e+002
3.455319e+002, 1.313077e+002
3.460140e+002, 1.310905e+002
3.464961e+002, 1.309091e+002
3.469782e+002, 1.307588e+002
3.474604e+002, 1.304897e+002
3.479425e+002, 1.299619e+002
3.484246e+002, 1.292371e+002
3.489067e+002, 1.285642e+002
3.493888e+002, 1.279661e+002
3.498709e+002, 1.273700e+002
3.503531e+002, 1.266052e+002
3.508352e+002, 1.257429e+002
3.513173e+002, 1.250505e+002
3.517994e+002, 1.247498e+002
3.522815e+002, 1.246481e+002
3.527636e+002, 1.244421e+002
3.532458e+002, 1.241301e+002
3.537279e+002, 1.237418e+002
3.542100e+002, 1.233657e+002
3.546921e+002, 1.229195e+002
3.551742e+002, 1.222554e+002
3.556563e+002, 1.212262e+002
3.561385e+002, 1.200573e+002
3.566206e+002, 1.187931e+002
3.571027e+002, 1.175002e+002
3.575848e+002, 1.165411e+002
3.580669e+002, 1.165194e+002
3.585490e+002, 1.167288e+002
3.590312e+002, 1.164541e+002
3.595133e+002, 1.153623e+002
3.599954e+002, 1.142082e+002
3.604775e+002, 1.134283e+002
3.609596e+002, 1.129015e+002
3.614417e+002, 1.123812e+002
3.619239e+002, 1.118134e+002
3.624060e+002, 1.111855e+002
3.628881e+002, 1.105168e+002
3.633702e+002, 1.098337e+002
3.638523e+002, 1.089799e+002
3.643344e+002, 1.076934e+002
3.648166e+002, 1.062828e+002
3.652987e+002, 1.050905e+002
3.657808e+002, 1.045187e+002
3.662629e+002, 1.038825e+002
3.667450e+002, 1.029606e+002
3.672271e+002, 1.017505e+002
3.677093e+002, 1.005916e+002
3.681914e+002, 9.951052e+001
3.686735e+002, 9.849883e+001
3.691556e+002, 9.754160e+001
3.696377e+002, 9.638728e+001
3.701198e+002, 9.563783e+001
3.706020e+002, 9.564919e+001
3.710841e+002, 9.612839e+001
3.715662e+002, 9.599712e+001
3.720483e+002, 9.491445e+001
3.725304e+002, 9.363653e+001
3.730125e+002, 9.242032e+001
3.734947e+002, 9.118883e+001
3.739768e+002, 9.027872e+001
3.744589e+002, 8.977145e+001
3.749410e+002, 8.950976e+001
3.754231e+002, 8.926598e+001
3.759052e+002, 8.905085e+001
3.763874e+002, 8.882067e+001
3.768695e+002, 8.854613e+001
3.773516e+002, 8.822869e+001
3.778337e+002, 8.801028e+001
3.783158e+002, 8.789417e+001
3.787979e+002, 8.786301e+001
3.792801e+002, 8.790910e+001
3.797622e+002, 8.803524e+001
3.802443e+002, 8.821258e+001
3.807264e+002, 8.845972e+001
3.812085e+002, 8.873695e+001
3.816906e+002, 8.896106e+001
3.821728e+002, 8.913170e+001
3.826549e+002, 8.920852e+001
3.831370e+002, 8.898740e+001
3.836191e+002, 8.860906e+001
3.841012e+002, 8.868456e+001
3.845833e+002, 8.933480e+001
3.850655e+002, 9.024270e+001
3.855476e+002, 9.113099e+001
3.860297e+002, 9.195913e+001
3.865118e+002, 9.253216e+001
3.869939e+002, 9.263609e+001
3.874760e+002, 9.248454e+001
3.879582e+002, 9.238205e+001
3.884403e+002, 9.233601e+001
3.889224e+002, 9.226772e+001
3.894045e+002, 9.214709e+001
3.898866e+002, 9.195953e+001
3.903687e+002, 9.167528e+001
3.908509e+002, 9.120911e+001
3.913330e+002, 9.073245e+001
3.918151e+002, 9.043347e+001
3.922972e+002, 9.024977e+001
3.927793e+002, 8.992142e+001
3.932614e+002, 8.928809e+001
3.937436e+002, 8.848544e+001
3.942257e+002, 8.759348e+001
3.947078e+002, 8.663496e+001
3.951899e+002, 8.557772e+001
3.956720e+002, 8.429459e+001
3.961541e+002, 8.292398e+001
3.966363e+002, 8.168883e+001
3.971184e+002, 8.070161e+001
3.976005e+002, 7.980273e+001
3.980826e+002, 7.896172e+001
3.985647e+002, 7.818506e+001
3.990468e+002, 7.738820e+001
3.995290e+002, 7.651562e+001
4.000111e+002, 7.564688e+001
4.004932e+002, 7.484248e+001
4.009753e+002, 7.407294e+001
4.014574e+002, 7.341033e+001
4.019395e+002, 7.292287e+001
4.024217e+002, 7.256263e+001
4.029038e+002, 7.209679e+001
4.033859e+002, 7.140979e+001
4.038680e+002, 7.078722e+001
4.043501e+002, 7.036792e+001
4.048322e+002, 7.019026e+001
4.053144e+002, 7.011391e+001
4.057965e+002, 7.019338e+001
4.062786e+002, 7.031018e+001
4.067607e+002, 7.025477e+001
4.072428e+002, 6.999400e+001
4.077249e+002, 6.973637e+001
4.082071e+002, 6.953069e+001
4.086892e+002, 6.938291e+001
4.091713e+002, 6.933994e+001
4.096534e+002, 6.940331e+001
4.101355e+002, 6.956387e+001
4.106176e+002, 6.993339e+001
4.110998e+002, 7.044375e+001
4.115819e+002, 7.064934e+001
4.120640e+002, 7.037576e+001
4.125461e+002, 6.990728e+001
4.130282e+002, 6.974751e+001
4.135103e+002, 6.983870e+001
4.139925e+002, 6.983803e+001
4.144746e+002, 6.935289e+001
4.149567e+002, 6.871010e+001
4.154388e+002, 6.853394e+001
4.159209e+002, 6.893127e+001
4.164030e+002, 6.924295e+001
4.168852e+002, 6.871389e+001
4.173673e+002, 6.776436e+001
4.178494e+002, 6.707842e+001
4.183315e+002, 6.717768e+001
4.188136e+002, 6.740811e+001
4.192957e+002, 6.733891e+001
4.197779e+002, 6.701198e+001
4.202600e+002, 6.670915e+001
4.207421e+002, 6.666525e+001
4.212242e+002, 6.663146e+001
4.217063e+002, 6.641536e+001
4.221884e+002, 6.586337e+001
4.226706e+002, 6.535098e+001
4.231527e+002, 6.502441e+001
4.236348e+002, 6.478968e+001
4.241169e+002, 6.446858e+001
4.245990e+002, 6.395697e+001
4.250811e+002, 6.342487e+001
4.255633e+002, 6.293834e+001
4.260454e+002, 6.251609e+001
4.265275e+002, 6.200074e+001
4.270096e+002, 6.131478e+001
4.274917e+002, 6.058894e+001
4.279738e+002, 5.992632e+001
4.284560e+002, 5.934475e+001
4.289381e+002, 5.879982e+001
4.294202e+002, 5.834341e+001
4.299023e+002, 5.791562e+001
4.303844e+002, 5.725116e+001
4.308665e+002, 5.627843e+001
4.313487e+002, 5.528288e+001
4.318308e+002, 5.443488e+001
4.323129e+002, 5.375108e+001
4.327950e+002, 5.291842e+001
4.332771e+002, 5.188539e+001
4.337592e+002, 5.084298e+001
4.342414e+002, 5.002913e+001
4.347235e+002, 4.943166e+001
4.352056e+002, 4.890810e+001
4.356877e+002, 4.845050e+001
4.361698e+002, 4.801577e+001
4.366519e+002, 4.746511e+001
4.371341e+002, 4.680799e+001
4.376162e+002, 4.620969e+001
4.380983e+002, 4.583797e+001
4.385804e+002, 4.559063e+001
4.390625e+002, 4.529811e+001
4.395446e+002, 4.493518e+001
4.400268e+002, 4.451517e+001
4.405089e+002, 4.393882e+001
4.409910e+002, 4.331510e+001
4.414731e+002, 4.287496e+001
4.419552e+002, 4.283098e+001
4.424373e+002, 4.291179e+001
4.429195e+002, 4.300305e+001
4.434016e+002, 4.309327e+001
4.438837e+002, 4.305401e+001
4.443658e+002, 4.269930e+001
4.448479e+002, 4.226579e+001
4.453300e+002, 4.194307e+001
4.458122e+002, 4.183696e+001
4.462943e+002, 4.174854e+001
4.467764e+002, 4.163142e+001
4.472585e+002, 4.150631e+001
4.477406e+002, 4.142640e+001
4.482227e+002, 4.137701e+001
4.487049e+002, 4.139322e+001
4.491870e+002, 4.151224e+001
4.496691e+002, 4.176480e+001
4.501512e+002, 4.192806e+001
4.506333e+002, 4.196423e+001
4.511154e+002, 4.195159e+001
4.515976e+002, 4.194560e+001
4.520797e+002, 4.191777e+001
4.525618e+002, 4.200105e+001
4.530439e+002, 4.224808e+001
4.535260e+002, 4.260304e+001
4.540081e+002, 4.292773e+001
4.544903e+002, 4.323026e+001
4.549724e+002, 4.345683e+001
4.554545e+002, 4.352140e+001
4.559366e+002, 4.345863e+001
4.564187e+002, 4.354317e+001
4.569008e+002, 4.380045e+001
4.573830e+002, 4.410569e+001
4.578651e+002, 4.432517e+001
4.583472e+002, 4.447143e+001
4.588293e+002, 4.456319e+001
4.593114e+002, 4.452978e+001
4.597935e+002, 4.452450e+001
4.602757e+002, 4.477105e+001
4.607578e+002, 4.523406e+001
4.612399e+002, 4.573874e+001
4.617220e+002, 4.623529e+001
4.622041e+002, 4.669108e+001
4.626862e+002, 4.704671e+001
4.631684e+002, 4.726550e+001
4.636505e+002, 4.751137e+001
4.641326e+002, 4.792071e+001
4.646147e+002, 4.838794e+001
4.650968e+002, 4.878310e+001
4.655789e+002, 4.899072e+001
4.660611e+002, 4.918956e+001
4.665432e+002, 4.944468e+001
4.670253e+002, 4.974974e+001
4.675074e+002, 5.002570e+001
4.679895e+002, 5.020590e+001
4.684716e+002, 5.040301e+001
4.689538e+002, 5.068049e+001
4.694359e+002, 5.112202e+001
4.699180e+002, 5.144659e+001
4.704001e+002, 5.159198e+001
4.708822e+002, 5.166537e+001
4.713643e+002, 5.187120e+001
4.718465e+002, 5.233189e+001
4.723286e+002, 5.255138e+001
4.728107e+002, 5.231409e+001
4.732928e+002, 5.172345e+001
4.737749e+002, 5.136698e+001
4.742570e+002, 5.127000e+001
4.747392e+002, 5.128558e+001
4.752213e+002, 5.144365e+001
4.757034e+002, 5.167878e+001
4.761855e+002, 5.145235e+001
4.766676e+002, 5.060595e+001
4.771497e+002, 4.964128e+001
4.776319e+002, 4.932404e+001
4.781140e+002, 4.947628e+001
4.785961e+002, 4.952230e+001
4.790782e+002, 4.902049e+001
4.795603e+002, 4.840030e+001
4.800424e+002, 4.824046e+001
4.805246e+002, 4.848179e+001
4.810067e+002, 4.864825e+001
4.814888e+002, 4.834099e+001
4.819709e+002, 4.788099e+001
4.824530e+002, 4.755961e+001
4.829352e+002, 4.748378e+001
4.834173e+002, 4.742032e+001
4.838994e+002, 4.723829e+001
4.843815e+002, 4.701824e+001
4.848636e+002, 4.688484e+001
4.853457e+002, 4.692013e+001
4.858279e+002, 4.698873e+001
4.863100e+002, 4.708833e+001
4.867921e+002, 4.721694e+001
4.872742e+002, 4.725006e+001
4.877563e+002, 4.707743e+001
4.882384e+002, 4.692295e+001
4.887206e+002, 4.690737e+001
4.892027e+002, 4.704561e+001
4.896848e+002, 4.731863e+001
4.901669e+002, 4.785631e+001
4.906490e+002, 4.838915e+001
4.911311e+002, 4.844731e+001
4.916133e+002, 4.796875e+001
4.920954e+002, 4.743305e+001
4.925775e+002, 4.693803e+001
4.930596e+002, 4.651025e+001
4.935417e+002, 4.626881e+001
4.940238e+002, 4.621574e+001
4.945060e+002, 4.621592e+001
4.949881e+002, 4.624665e+001
4.954702e+002, 4.624928e+001
4.959523e+002, 4.605683e+001
4.964344e+002, 4.562523e+001
4.969165e+002, 4.510067e+001
4.973987e+002, 4.463346e+001
4.978808e+002, 4.417577e+001
4.983629e+002, 4.364675e+001
4.988450e+002, 4.281198e+001
4.993271e+002, 4.206349e+001
4.998092e+002, 4.179610e+001
5.002914e+002, 4.190533e+001
5.007735e+002, 4.183600e+001
5.012556e+002, 4.118904e+001
5.017377e+002, 4.043133e+001
5.022198e+002, 3.985026e+001
5.027019e+002, 3.956621e+001
5.031841e+002, 3.921729e+001
5.036662e+002, 3.864151e+001
5.041483e+002, 3.802662e+001
5.046304e+002, 3.760441e+001
5.051125e+002, 3.753696e+001
5.055946e+002, 3.740632e+001
5.060768e+002, 3.712846e+001
5.065589e+002, 3.673458e+001
5.070410e+002, 3.637018e+001
5.075231e+002, 3.603019e+001
5.080052e+002, 3.573353e+001
5.084873e+002, 3.548931e+001
5.089695e+002, 3.530059e+001
5.094516e+002, 3.515586e+001
5.099337e+002, 3.506692e+001
5.104158e+002, 3.497071e+001
5.108979e+002, 3.479782e+001
5.113800e+002, 3.455435e+001
5.118622e+002, 3.425332e+001
5.123443e+002, 3.382159e+001
5.128264e+002, 3.344675e+001
5.133085e+002, 3.345349e+001
5.137906e+002, 3.375010e+001
5.142728e+002, 3.400731e+001
5.147549e+002, 3.401058e+001
5.152370e+002, 3.391387e+001
5.157191e+002, 3.384777e+001
5.162012e+002, 3.382489e+001
5.166833e+002, 3.378114e+001
5.171655e+002, 3.359251e+001
5.176476e+002, 3.341988e+001
5.181297e+002, 3.340210e+001
5.186118e+002, 3.369115e+001
5.190939e+002, 3.398323e+001
5.195760e+002, 3.427598e+001
5.200582e+002, 3.453666e+001
5.205403e+002, 3.469724e+001
5.210224e+002, 3.469060e+001
5.215045e+002, 3.467098e+001
5.219866e+002, 3.464643e+001
5.224688e+002, 3.461756e+001
5.229509e+002, 3.476423e+001
5.234330e+002, 3.513274e+001
5.239151e+002, 3.556896e+001
5.243972e+002, 3.594739e+001
5.248793e+002, 3.626375e+001
5.253615e+002, 3.666065e+001
5.258436e+002, 3.717522e+001
5.263257e+002, 3.771264e+001
5.268078e+002, 3.809553e+001
5.272899e+002, 3.835991e+001
5.277720e+002, 3.867371e+001
5.282542e+002, 3.913668e+001
5.287363e+002, 3.965324e+001
5.292184e+002, 4.013620e+001
5.297005e+002, 4.057305e+001
5.301826e+002, 4.091994e+001
5.306647e+002, 4.109655e+001
5.311469e+002, 4.120250e+001
5.316290e+002, 4.132248e+001
5.321111e+002, 4.146981e+001
5.325932e+002, 4.162172e+001
5.330753e+002, 4.172982e+001
5.335574e+002, 4.185604e+001
5.340396e+002, 4.206262e+001
5.345217e+002, 4.251836e+001
5.350038e+002, 4.287328e+001
5.354859e+002, 4.313200e+001
5.359680e+002, 4.326171e+001
5.364501e+002, 4.311645e+001
5.369323e+002, 4.245132e+001
5.374144e+002, 4.193562e+001
5.378965e+002, 4.191918e+001
5.383786e+002, 4.242308e+001
5.388607e+002, 4.244603e+001
5.393428e+002, 4.187870e+001
5.398250e+002, 4.116518e+001
5.403071e+002, 4.066808e+001
5.407892e+002, 4.038616e+001
5.412713e+002, 4.030248e+001
5.417534e+002, 4.047413e+001
5.422355e+002, 4.068298e+001
5.427177e+002, 4.054740e+001
5.431998e+002, 4.017883e+001
5.436819e+002, 3.993626e+001
5.441640e+002, 4.017687e+001
5.446461e+002, 4.048642e+001
5.451282e+002, 4.039503e+001
5.456104e+002, 3.997507e+001
5.460925e+002, 3.967779e+001
5.465746e+002, 3.979277e+001
5.470567e+002, 4.007117e+001
5.475388e+002, 4.037941e+001
5.480209e+002, 4.073757e+001
5.485031e+002, 4.098767e+001
5.489852e+002, 4.092540e+001
5.494673e+002, 4.082242e+001
5.499494e+002, 4.097428e+001
5.504315e+002, 4.162376e+001
5.509136e+002, 4.215345e+001
5.513958e+002, 4.247981e+001
5.518779e+002, 4.265126e+001
5.523600e+002, 4.277915e+001
5.528421e+002, 4.282609e+001
5.533242e+002, 4.296239e+001
5.538063e+002, 4.328886e+001
5.542885e+002, 4.377870e+001
5.547706e+002, 4.420171e+001
5.552527e+002, 4.454809e+001
5.557348e+002, 4.493176e+001
5.562169e+002, 4.552652e+001
5.566990e+002, 4.623147e+001
5.571812e+002, 4.675312e+001
5.576633e+002, 4.698552e+001
5.581454e+002, 4.726392e+001
5.586275e+002, 4.790528e+001
5.591096e+002, 4.881824e+001
5.595917e+002, 4.985690e+001
5.600739e+002, 5.108344e+001
5.605560e+002, 5.229269e+001
5.610381e+002, 5.339262e+001
5.615202e+002, 5.438368e+001
5.620023e+002, 5.531737e+001
5.624844e+002, 5.602351e+001
5.629666e+002, 5.683453e+001
5.634487e+002, 5.795477e+001
5.639308e+002, 5.948207e+001
5.644129e+002, 6.077973e+001
5.648950e+002, 6.159312e+001
5.653771e+002, 6.245473e+001
5.658593e+002, 6.391257e+001
5.663414e+002, 6.619531e+001
5.668235e+002, 6.804847e+001
5.673056e+002, 6.920135e+001
5.677877e+002, 7.013389e+001
5.682698e+002, 7.183248e+001
5.687520e+002, 7.426165e+001
5.692341e+002, 7.656917e+001
5.697162e+002, 7.843156e+001
5.701983e+002, 7.999387e+001
5.706804e+002, 8.142330e+001
5.711625e+002, 8.276164e+001
5.716447e+002, 8.432929e+001
5.721268e+002, 8.656171e+001
5.726089e+002, 8.899880e+001
5.730910e+002, 9.119167e+001
5.735731e+002, 9.310832e+001
5.740552e+002, 9.479517e+001
5.745374e+002, 9.606983e+001
5.750195e+002, 9.724816e+001
5.755016e+002, 9.862997e+001
5.759837e+002, 1.004771e+002
5.764658e+002, 1.022694e+002
5.769479e+002, 1.040905e+002
5.774301e+002, 1.058069e+002
5.779122e+002, 1.071945e+002
5.783943e+002, 1.083652e+002
5.788764e+002, 1.089720e+002
5.793585e+002, 1.087584e+002
5.798406e+002, 1.078640e+002
5.803228e+002, 1.073770e+002
5.808049e+002, 1.073925e+002
5.812870e+002, 1.072036e+002
5.817691e+002, 1.062852e+002
5.822512e+002, 1.047567e+002
5.827333e+002, 1.030502e+002
5.832155e+002, 1.011750e+002
5.836975e+002, 9.923392e+001
5.841796e+002, 9.722310e+001
5.846617e+002, 9.519725e+001
5.851439e+002, 9.322939e+001
5.856260e+002, 9.133350e+001
5.861081e+002, 8.951360e+001
5.865902e+002, 8.783780e+001
5.870723e+002, 8.622591e+001
5.875544e+002, 8.455715e+001
5.880366e+002, 8.259231e+001
5.885187e+002, 8.072808e+001
5.890008e+002, 7.913536e+001
5.894829e+002, 7.779949e+001
5.899650e+002, 7.640351e+001
5.904471e+002, 7.492305e+001
5.909293e+002, 7.340014e+001
5.914114e+002, 7.179189e+001
5.918935e+002, 7.001234e+001
5.923756e+002, 6.877158e+001
5.928577e+002, 6.820379e+001
5.933398e+002, 6.780639e+001
5.938220e+002, 6.708154e+001
5.943041e+002, 6.605264e+001
5.947862e+002, 6.484657e+001
5.952683e+002, 6.340248e+001
5.957504e+002, 6.200801e+001
5.962325e+002, 6.112719e+001
5.967147e+002, 6.058400e+001
5.971968e+002, 5.993526e+001
5.976789e+002, 5.879155e+001
5.981610e+002, 5.762582e+001
5.986431e+002, 5.689806e+001
5.991252e+002, 5.649056e+001
5.996074e+002, 5.584033e+001
6.000895e+002, 5.452322e+001
6.005716e+002, 5.310004e+001
6.010537e+002, 5.185265e+001
6.015358e+002, 5.087456e+001
6.020179e+002, 4.976424e+001
6.025001e+002, 4.838417e+001
6.029822e+002, 4.699926e+001
6.034643e+002, 4.581811e+001
6.039464e+002, 4.488656e+001
6.044285e+002, 4.393430e+001
6.049106e+002, 4.291956e+001
6.053928e+002, 4.191060e+001
6.058749e+002, 4.098541e+001
6.063570e+002, 4.013990e+001
6.068391e+002, 3.937640e+001
6.073212e+002, 3.872094e+001
6.078033e+002, 3.811548e+001
6.082855e+002, 3.753471e+001
6.087676e+002, 3.694204e+001
6.092497e+002, 3.618038e+001
6.097318e+002, 3.485913e+001
6.102139e+002, 3.356428e+001
6.106960e+002, 3.286660e+001
6.111782e+002, 3.276844e+001
6.116603e+002, 3.258191e+001
6.121424e+002, 3.196744e+001
6.126245e+002, 3.125708e+001
6.131066e+002, 3.064123e+001
6.135887e+002, 3.009670e+001
6.140709e+002, 2.974304e+001
6.145530e+002, 2.973425e+001
6.150351e+002, 2.977510e+001
6.155172e+002, 2.951868e+001
6.159993e+002, 2.887113e+001
6.164814e+002, 2.835359e+001
6.169636e+002, 2.807410e+001
6.174457e+002, 2.790950e+001
6.179278e+002, 2.758149e+001
6.184099e+002, 2.711377e+001
6.188920e+002, 2.675548e+001
6.193741e+002, 2.669643e+001
6.198563e+002, 2.673783e+001
6.203384e+002, 2.652361e+001
6.208205e+002, 2.611755e+001
6.213026e+002, 2.584012e+001
6.217847e+002, 2.602558e+001
6.222668e+002, 2.630252e+001
6.227490e+002, 2.640726e+001
6.232311e+002, 2.630958e+001
6.237132e+002, 2.611860e+001
6.241953e+002, 2.569447e+001
6.246774e+002, 2.530323e+001
6.251595e+002, 2.514212e+001
6.256417e+002, 2.539796e+001
6.261238e+002, 2.552369e+001
6.266059e+002, 2.550318e+001
6.270880e+002, 2.537077e+001
6.275701e+002, 2.511934e+001
6.280522e+002, 2.472178e+001
6.285344e+002, 2.447236e+001
6.290165e+002, 2.444630e+001
6.294986e+002, 2.458065e+001
6.299807e+002, 2.481991e+001
6.304628e+002, 2.513688e+001
6.309449e+002, 2.537954e+001
6.314271e+002, 2.544173e+001
6.319092e+002, 2.541368e+001
6.323913e+002, 2.539585e+001
6.328734e+002, 2.537946e+001
6.333555e+002, 2.530929e+001
6.338376e+002, 2.502461e+001
6.343198e+002, 2.478072e+001
6.348019e+002, 2.476668e+001
6.352840e+002, 2.506085e+001
6.357661e+002, 2.526422e+001
6.362482e+002, 2.528614e+001
6.367303e+002, 2.524805e+001
6.372125e+002, 2.522636e+001
6.376946e+002, 2.522025e+001
6.381767e+002, 2.523123e+001
6.386588e+002, 2.525289e+001
6.391409e+002, 2.530324e+001
6.396230e+002, 2.542338e+001
6.401052e+002, 2.560853e+001
6.405873e+002, 2.576987e+001
6.410694e+002, 2.586246e+001
6.415515e+002, 2.595772e+001
6.420336e+002, 2.624628e+001
6.425157e+002, 2.663596e+001
6.429979e+002, 2.686071e+001
6.434800e+002, 2.658160e+001
6.439621e+002, 2.626040e+001
6.444442e+002, 2.624911e+001
6.449263e+002, 2.650266e+001
6.454084e+002, 2.672816e+001
6.458906e+002, 2.671628e+001
6.463727e+002, 2.675544e+001
6.468548e+002, 2.702637e+001
6.473369e+002, 2.757511e+001
6.478190e+002, 2.798672e+001
6.483011e+002, 2.823852e+001
6.487833e+002, 2.838193e+001
6.492654e+002, 2.841000e+001
6.497475e+002, 2.830474e+001
6.502296e+002, 2.833732e+001
6.507117e+002, 2.854763e+001
6.511938e+002, 2.879942e+001
6.516760e+002, 2.881487e+001
6.521581e+002, 2.872079e+001
6.526402e+002, 2.895600e+001
6.531223e+002, 2.978763e+001
6.536044e+002, 3.065841e+001
6.540865e+002, 3.103875e+001
6.545687e+002, 3.111061e+001
6.550508e+002, 3.122822e+001
6.555329e+002, 3.156469e+001
6.560150e+002, 3.193058e+001
6.564971e+002, 3.227760e+001
6.569792e+002, 3.260067e+001
6.574614e+002, 3.287540e+001
6.579435e+002, 3.297179e+001
6.584256e+002, 3.320211e+001
6.589077e+002, 3.370230e+001
6.593898e+002, 3.445955e+001
6.598719e+002, 3.519924e+001
6.603541e+002, 3.595283e+001
6.608362e+002, 3.653911e+001
6.613183e+002, 3.664144e+001
6.618004e+002, 3.644742e+001
6.622825e+002, 3.679412e+001
6.627646e+002, 3.775345e+001
6.632468e+002, 3.878510e+001
6.637289e+002, 3.933997e+001
6.642110e+002, 3.970875e+001
6.646931e+002, 4.029816e+001
6.651752e+002, 4.130549e+001
6.656573e+002, 4.225560e+001
6.661395e+002, 4.285908e+001
6.666216e+002, 4.332846e+001
6.671037e+002, 4.392522e+001
6.675858e+002, 4.471189e+001
6.680679e+002, 4.561161e+001
6.685500e+002, 4.666616e+001
6.690322e+002, 4.780616e+001
6.695143e+002, 4.884127e+001
6.699964e+002, 4.974872e+001
6.704785e+002, 5.068684e+001
6.709606e+002, 5.170462e+001
6.714427e+002, 5.278912e+001
6.719249e+002, 5.389035e+001
6.724070e+002, 5.501205e+001
6.728891e+002, 5.615528e+001
6.733712e+002, 5.732487e+001
6.738533e+002, 5.850517e+001
6.743354e+002, 5.961605e+001
6.748176e+002, 6.067706e+001
6.752997e+002, 6.185414e+001
6.757818e+002, 6.332964e+001
6.762639e+002, 6.485767e+001
6.767460e+002, 6.626527e+001
6.772281e+002, 6.743345e+001
6.777103e+002, 6.878944e+001
6.781924e+002, 7.048626e+001
6.786745e+002, 7.223049e+001
6.791566e+002, 7.380252e+001
6.796387e+002, 7.514823e+001
6.801208e+002, 7.662930e+001
6.806030e+002, 7.832828e+001
6.810851e+002, 8.003759e+001
6.815672e+002, 8.156889e+001
6.820493e+002, 8.292253e+001
6.825314e+002, 8.416653e+001
6.830135e+002, 8.530590e+001
6.834957e+002, 8.633333e+001
6.839778e+002, 8.715848e+001
6.844599e+002, 8.786906e+001
6.849420e+002, 8.859852e+001
6.854241e+002, 8.963315e+001
6.859063e+002, 9.046585e+001
6.863884e+002, 9.075817e+001
6.868705e+002, 9.067983e+001
6.873526e+002, 9.084172e+001
6.878347e+002, 9.155608e+001
6.883168e+002, 9.211982e+001
6.887990e+002, 9.237173e+001
6.892811e+002, 9.232189e+001
6.897632e+002, 9.198256e+001
6.902453e+002, 9.134148e+001
6.907274e+002, 9.051578e+001
6.912095e+002, 8.954088e+001
6.916917e+002, 8.844485e+001
6.921738e+002, 8.731955e+001
6.926559e+002, 8.617171e+001
6.931380e+002, 8.485100e+001
6.936201e+002, 8.318414e+001
6.941022e+002, 8.133700e+001
6.945844e+002, 7.938036e+001
6.950665e+002, 7.729076e+001
6.955486e+002, 7.540282e+001
6.960307e+002, 7.413877e+001
6.965128e+002, 7.292577e+001
6.969949e+002, 7.126379e+001
6.974771e+002, 6.877988e+001
6.979592e+002, 6.663434e+001
6.984413e+002, 6.491313e+001
6.989234e+002, 6.344422e+001
6.994055e+002, 6.211013e+001
6.998876e+002, 6.091839e+001
7.003698e+002, 5.946863e+001
7.008519e+002, 5.765040e+001
7.013340e+002, 5.570961e+001
7.018161e+002, 5.391340e+001
7.022982e+002, 5.227516e+001
7.027803e+002, 5.083379e+001
7.032625e+002, 4.968883e+001
7.037446e+002, 4.863618e+001
7.042267e+002, 4.760949e+001
7.047088e+002, 4.657822e+001
7.051909e+002, 4.547950e+001
7.056730e+002, 4.409245e+001
7.061552e+002, 4.288625e+001
7.066373e+002, 4.204208e+001
7.071194e+002, 4.147413e+001
7.076015e+002, 4.076936e+001
7.080836e+002, 3.987141e+001
7.085657e+002, 3.901891e+001
7.090479e+002, 3.830746e+001
7.095300e+002, 3.771452e+001
7.100121e+002, 3.719360e+001
7.104942e+002, 3.673577e+001
7.109763e+002, 3.619152e+001
7.114584e+002, 3.527106e+001
7.119406e+002, 3.430006e+001
7.124227e+002, 3.373717e+001
7.129048e+002, 3.359208e+001
7.133869e+002, 3.345844e+001
7.138690e+002, 3.311723e+001
7.143511e+002, 3.273679e+001
7.148333e+002, 3.243515e+001
7.153154e+002, 3.227532e+001
7.157975e+002, 3.202921e+001
7.162796e+002, 3.162913e+001
7.167617e+002, 3.122342e+001
7.172438e+002, 3.093590e+001
7.177260e+002, 3.078298e+001
7.182081e+002, 3.059573e+001
7.186902e+002, 3.036026e+001
7.191723e+002, 3.011462e+001
7.196544e+002, 2.987735e+001
7.201365e+002, 2.966867e+001
7.206187e+002, 2.954610e+001
7.211008e+002, 2.953460e+001
7.215829e+002, 2.956901e+001
7.220650e+002, 2.963394e+001
7.225471e+002, 2.970258e+001
7.230292e+002, 2.974035e+001
7.235114e+002, 2.973187e+001
7.239935e+002, 2.969428e+001
7.244756e+002, 2.952185e+001
7.249577e+002, 2.935934e+001
7.254398e+002, 2.950272e+001
7.259219e+002, 3.010909e+001
7.264041e+002, 3.052582e+001
7.268862e+002, 3.057039e+001
7.273683e+002, 3.038608e+001
7.278504e+002, 3.029547e+001
7.283325e+002, 3.028751e+001
7.288146e+002, 3.028911e+001
7.292968e+002, 3.027154e+001
7.297789e+002, 3.024367e+001
7.302610e+002, 3.021347e+001
7.307431e+002, 3.018115e+001
7.312252e+002, 3.014736e+001
7.317073e+002, 3.005022e+001
7.321895e+002, 3.001182e+001
7.326716e+002, 3.008891e+001
7.331537e+002, 3.028251e+001
7.336358e+002, 3.054860e+001
7.341179e+002, 3.102636e+001
7.346000e+002, 3.133828e+001
7.350822e+002, 3.125834e+001
7.355643e+002, 3.084107e+001
7.360464e+002, 3.065038e+001
7.365285e+002, 3.069650e+001
7.370106e+002, 3.076819e+001
7.374927e+002, 3.069717e+001
7.379749e+002, 3.055880e+001
7.384570e+002, 3.047186e+001
7.389391e+002, 3.044364e+001
7.394212e+002, 3.046067e+001
7.399033e+002, 3.050556e+001
7.403854e+002, 3.059953e+001
7.408676e+002, 3.077119e+001
7.413497e+002, 3.105053e+001
7.418318e+002, 3.130220e+001
7.423139e+002, 3.154450e+001
7.427960e+002, 3.173050e+001
7.432781e+002, 3.179610e+001
7.437603e+002, 3.170391e+001
7.442424e+002, 3.179122e+001
7.447245e+002, 3.210735e+001
7.452066e+002, 3.243663e+001
7.456887e+002, 3.253569e+001
7.461708e+002, 3.247489e+001
7.466530e+002, 3.242864e+001
7.471351e+002, 3.242425e+001
7.476172e+002, 3.245000e+001
7.480993e+002, 3.245065e+001
7.485814e+002, 3.249869e+001
7.490635e+002, 3.267850e+001
7.495457e+002, 3.309510e+001
7.500278e+002, 3.351301e+001
7.505099e+002, 3.391791e+001
7.509920e+002, 3.429193e+001
7.514741e+002, 3.460028e+001
7.519562e+002, 3.481850e+001
7.524384e+002, 3.506786e+001
7.529205e+002, 3.537654e+001
7.534026e+002, 3.568839e+001
7.538847e+002, 3.590795e+001
7.543668e+002, 3.604935e+001
7.548489e+002, 3.616362e+001
7.553311e+002, 3.622442e+001
7.558132e+002, 3.634123e+001
7.562953e+002, 3.660973e+001
7.567774e+002, 3.700141e+001
7.572595e+002, 3.746005e+001
7.577416e+002, 3.815069e+001
7.582238e+002, 3.869715e+001
7.587059e+002, 3.891266e+001
7.591880e+002, 3.896069e+001
7.596701e+002, 3.916729e+001
7.601522e+002, 3.954110e+001
7.606343e+002, 4.008654e+001
7.611165e+002, 4.092297e+001
7.615986e+002, 4.182072e+001
7.620807e+002, 4.209855e+001
7.625628e+002, 4.186802e+001
7.630449e+002, 4.178175e+001
7.635270e+002, 4.227779e+001
7.640092e+002, 4.293160e+001
7.644913e+002, 4.332842e+001
7.649734e+002, 4.355204e+001
7.654555e+002, 4.387043e+001
7.659376e+002, 4.450402e+001
7.664197e+002, 4.511157e+001
7.669019e+002, 4.552697e+001
7.673840e+002, 4.580354e+001
7.678661e+002, 4.620069e+001
7.683482e+002, 4.675420e+001
7.688303e+002, 4.732546e+001
7.693124e+002, 4.790020e+001
7.697946e+002, 4.843085e+001
7.702767e+002, 4.865941e+001
7.707588e+002, 4.863149e+001
7.712409e+002, 4.877401e+001
7.717230e+002, 4.950096e+001
7.722051e+002, 5.041489e+001
7.726873e+002, 5.118136e+001
7.731694e+002, 5.179149e+001
7.736515e+002, 5.225379e+001
7.741336e+002, 5.243370e+001
7.746157e+002, 5.260513e+001
7.750978e+002, 5.284700e+001
7.755800e+002, 5.316259e+001
7.760621e+002, 5.370369e+001
7.765442e+002, 5.455775e+001
7.770263e+002, 5.539237e+001
7.775084e+002, 5.599220e+001
7.779905e+002, 5.641400e+001
7.784727e+002, 5.690127e+001
7.789548e+002, 5.745234e+001
7.794369e+002, 5.804198e+001
7.799190e+002, 5.868342e+001
7.804011e+002, 5.933240e+001
7.808832e+002, 5.995955e+001
7.813654e+002, 6.055665e+001
7.818475e+002, 6.112881e+001
7.823296e+002, 6.164437e+001
7.828117e+002, 6.216386e+001
7.832938e+002, 6.272831e+001
7.837759e+002, 6.334399e+001
7.842581e+002, 6.391640e+001
7.847402e+002, 6.441049e+001
7.852223e+002, 6.496262e+001
7.857044e+002, 6.574515e+001
7.861865e+002, 6.667236e+001
7.866686e+002, 6.738361e+001
7.871508e+002, 6.787560e+001
7.876329e+002, 6.840716e+001
7.881150e+002, 6.930210e+001
7.885971e+002, 7.026153e+001
7.890792e+002, 7.091724e+001
7.895613e+002, 7.119031e+001
7.900435e+002, 7.164308e+001
7.905256e+002, 7.261833e+001
7.910077e+002, 7.362891e+001
7.914898e+002, 7.441116e+001
7.919719e+002, 7.490989e+001
7.924540e+002, 7.556233e+001
7.929362e+002, 7.641734e+001
7.934183e+002, 7.717319e+001
7.939004e+002, 7.734146e+001
7.943825e+002, 7.722153e+001
7.948646e+002, 7.776109e+001
7.953467e+002, 7.903979e+001
7.958289e+002, 8.031546e+001
7.963110e+002, 8.104109e+001
7.967931e+002, 8.152633e+001
7.972752e+002, 8.199242e+001
7.977573e+002, 8.246737e+001
7.982394e+002, 8.295700e+001
7.987216e+002, 8.341412e+001
7.992037e+002, 8.393953e+001
7.996858e+002, 8.464145e+001
8.001679e+002, 8.557554e+001
8.006500e+002, 8.625822e+001
8.011321e+002, 8.667798e+001
8.016143e+002, 8.698338e+001
8.020964e+002, 8.722404e+001
8.025785e+002, 8.747093e+001
8.030606e+002, 8.786195e+001
8.035427e+002, 8.841441e+001
8.040248e+002, 8.908894e+001
8.045070e+002, 9.005571e+001
8.049891e+002, 9.100597e+001
8.054712e+002, 9.166718e+001
8.059533e+002, 9.187358e+001
8.064354e+002, 9.226128e+001
8.069175e+002, 9.298137e+001
8.073997e+002, 9.366453e+001
8.078818e+002, 9.398770e+001
8.083639e+002, 9.395816e+001
8.088460e+002, 9.403746e+001
8.093281e+002, 9.423891e+001
8.098102e+002, 9.457295e+001
8.102924e+002, 9.511451e+001
8.107745e+002, 9.576529e+001
8.112566e+002, 9.643143e+001
8.117387e+002, 9.710902e+001
8.122208e+002, 9.765390e+001
8.127029e+002, 9.782359e+001
8.131851e+002, 9.797730e+001
8.136672e+002, 9.837469e+001
8.141493e+002, 9.907056e+001
8.146314e+002, 9.978613e+001
8.151135e+002, 1.005210e+002
8.155956e+002, 1.012625e+002
8.160778e+002, 1.020211e+002
8.165599e+002, 1.027760e+002
8.170420e+002, 1.034364e+002
8.175241e+002, 1.039993e+002
8.180062e+002, 1.044054e+002
8.184883e+002, 1.043432e+002
8.189705e+002, 1.042721e+002
8.194526e+002, 1.046978e+002
8.199347e+002, 1.057486e+002
8.204168e+002, 1.067448e+002
8.208989e+002, 1.073926e+002
8.213810e+002, 1.080956e+002
8.218632e+002, 1.091324e+002
8.223453e+002, 1.105713e+002
8.228274e+002, 1.116193e+002
8.233095e+002, 1.122014e+002
8.237916e+002, 1.127593e+002
8.242737e+002, 1.136346e+002
8.247559e+002, 1.147293e+002
8.252380e+002, 1.159030e+002
8.257201e+002, 1.171307e+002
8.262022e+002, 1.182564e+002
8.266843e+002, 1.188301e+002
8.271664e+002, 1.195337e+002
8.276486e+002, 1.209270e+002
8.281307e+002, 1.232065e+002
8.286128e+002, 1.251684e+002
8.290949e+002, 1.266780e+002
8.295770e+002, 1.281162e+002
8.300591e+002, 1.296925e+002
8.305413e+002, 1.313937e+002
8.310234e+002, 1.331825e+002
8.315055e+002, 1.350561e+002
8.319876e+002, 1.368693e+002
8.324697e+002, 1.384617e+002
8.329518e+002, 1.399891e+002
8.334340e+002, 1.416094e+002
8.339161e+002, 1.433320e+002
8.343982e+002, 1.452199e+002
8.348803e+002, 1.473855e+002
8.353624e+002, 1.496405e+002
8.358445e+002, 1.519552e+002
8.363267e+002, 1.543096e+002
8.368088e+002, 1.564088e+002
8.372909e+002, 1.581691e+002
8.377730e+002, 1.600184e+002
8.382551e+002, 1.622526e+002
8.387372e+002, 1.647315e+002
8.392194e+002, 1.671327e+002
8.397015e+002, 1.694596e+002
8.401836e+002, 1.717294e+002
8.406657e+002, 1.739520e+002
8.411478e+002, 1.761214e+002
8.416299e+002, 1.780918e+002
8.421121e+002, 1.799291e+002
8.425942e+002, 1.821372e+002
8.430763e+002, 1.849748e+002
8.435584e+002, 1.877754e+002
8.440405e+002, 1.903085e+002
8.445226e+002, 1.926504e+002
8.450048e+002, 1.950278e+002
8.454869e+002, 1.974525e+002
8.459690e+002, 2.001447e+002
8.464511e+002, 2.034427e+002
8.469332e+002, 2.068344e+002
8.474153e+002, 2.096496e+002
8.478975e+002, 2.120858e+002
8.483796e+002, 2.147004e+002
8.488617e+002, 2.181540e+002
8.493438e+002, 2.212735e+002
8.498259e+002, 2.234354e+002
8.503080e+002, 2.251035e+002
8.507902e+002, 2.274876e+002
8.512723e+002, 2.306663e+002
8.517544e+002, 2.340449e+002
8.522365e+002, 2.376633e+002
8.527186e+002, 2.410635e+002
8.532007e+002, 2.431744e+002
8.536829e+002, 2.443837e+002
8.541650e+002, 2.457737e+002
8.546471e+002, 2.479789e+002
8.551292e+002, 2.502057e+002
8.556113e+002, 2.521462e+002
8.560934e+002, 2.538242e+002
8.565756e+002, 2.553133e+002
8.570577e+002, 2.565314e+002
8.575398e+002, 2.577725e+002
8.580219e+002, 2.591235e+002
8.585040e+002, 2.604563e+002
8.589861e+002, 2.614803e+002
8.594683e+002, 2.622639e+002
8.599504e+002, 2.632092e+002
8.604325e+002, 2.644839e+002
8.609146e+002, 2.656628e+002
8.613967e+002, 2.662044e+002
8.618788e+002, 2.664711e+002
8.623610e+002, 2.669271e+002
8.628431e+002, 2.678615e+002
8.633252e+002, 2.686449e+002
8.638073e+002, 2.690916e+002
8.642894e+002, 2.695068e+002
8.647715e+002, 2.701299e+002
8.652537e+002, 2.709565e+002
8.657358e+002, 2.721737e+002
8.662179e+002, 2.738327e+002
8.667000e+002, 2.757359e+002
8.671821e+002, 2.773526e+002
8.676642e+002, 2.792386e+002
8.681464e+002, 2.823386e+002
8.686285e+002, 2.870073e+002
8.691106e+002, 2.916743e+002
8.695927e+002, 2.952205e+002
8.700748e+002, 2.990542e+002
8.705569e+002, 3.040887e+002
8.710391e+002, 3.104594e+002
8.715212e+002, 3.168158e+002
8.720033e+002, 3.229801e+002
8.724854e+002, 3.297162e+002
8.729675e+002, 3.378167e+002
8.734496e+002, 3.468163e+002
8.739318e+002, 3.551854e+002
8.744139e+002, 3.629608e+002
8.748960e+002, 3.712398e+002
8.753781e+002, 3.807914e+002
8.758602e+002, 3.909386e+002
8.763423e+002, 4.011789e+002
8.768245e+002, 4.114468e+002
8.773066e+002, 4.224263e+002
8.777887e+002, 4.344281e+002
8.782708e+002, 4.464761e+002
8.787529e+002, 4.581981e+002
8.792350e+002, 4.696439e+002
8.797172e+002, 4.811291e+002
8.801993e+002, 4.925754e+002
8.806814e+002, 5.043181e+002
8.811635e+002, 5.167919e+002
8.816456e+002, 5.293881e+002
8.821277e+002, 5.416365e+002
8.826099e+002, 5.536374e+002
8.830920e+002, 5.657009e+002
8.835741e+002, 5.786129e+002
8.840562e+002, 5.905771e+002
8.845383e+002, 6.013511e+002
8.850204e+002, 6.111625e+002
8.855026e+002, 6.203644e+002
8.859847e+002, 6.289744e+002
8.864668e+002, 6.374928e+002
8.869489e+002, 6.461654e+002
8.874310e+002, 6.545612e+002
8.879131e+002, 6.626661e+002
8.883953e+002, 6.699330e+002
8.888774e+002, 6.755864e+002
8.893595e+002, 6.785793e+002
8.898416e+002, 6.811796e+002
8.903237e+002, 6.837885e+002
8.908058e+002, 6.861199e+002
8.912880e+002, 6.880146e+002
8.917701e+002, 6.895080e+002
8.922522e+002, 6.899258e+002
8.927343e+002, 6.891442e+002
8.932164e+002, 6.877482e+002
8.936985e+002, 6.866072e+002
8.941807e+002, 6.851300e+002
8.946628e+002, 6.822260e+002
8.951449e+002, 6.775541e+002
8.956270e+002, 6.728619e+002
8.961091e+002, 6.693807e+002
8.965912e+002, 6.654871e+002
8.970734e+002, 6.601537e+002
8.975555e+002, 6.533416e+002
8.980376e+002, 6.460706e+002
8.985197e+002, 6.383379e+002
8.990018e+002, 6.305748e+002
8.994839e+002, 6.233463e+002
8.999661e+002, 6.162834e+002
9.004482e+002, 6.087999e+002
9.009303e+002, 6.008216e+002
9.014124e+002, 5.924252e+002
9.018945e+002, 5.831042e+002
9.023766e+002, 5.737972e+002
9.028588e+002, 5.648238e+002
9.033409e+002, 5.562081e+002
9.038230e+002, 5.477650e+002
9.043051e+002, 5.396526e+002
9.047872e+002, 5.307111e+002
9.052693e+002, 5.201671e+002
9.057515e+002, 5.088636e+002
9.062336e+002, 4.983802e+002
9.067157e+002, 4.885123e+002
9.071978e+002, 4.786800e+002
9.076799e+002, 4.687354e+002
9.081620e+002, 4.587001e+002
9.086442e+002, 4.484169e+002
9.091263e+002, 4.380313e+002
9.096084e+002, 4.277171e+002
9.100905e+002, 4.175435e+002
9.105726e+002, 4.072389e+002
9.110547e+002, 3.965657e+002
9.115369e+002, 3.858776e+002
9.120190e+002, 3.755117e+002
9.125011e+002, 3.654689e+002
9.129832e+002, 3.557728e+002
9.134653e+002, 3.464467e+002
9.139474e+002, 3.373324e+002
9.144296e+002, 3.282151e+002
9.149117e+002, 3.193386e+002
9.153938e+002, 3.110127e+002
9.158759e+002, 3.034309e+002
9.163580e+002, 2.953757e+002
9.168401e+002, 2.864147e+002
9.173223e+002, 2.780396e+002
9.178044e+002, 2.714780e+002
9.182865e+002, 2.663717e+002
9.187686e+002, 2.613280e+002
9.192507e+002, 2.563166e+002
9.197328e+002, 2.512097e+002
9.202150e+002, 2.455794e+002
9.206971e+002, 2.401511e+002
9.211792e+002, 2.351667e+002
9.216613e+002, 2.307117e+002
9.221434e+002, 2.272145e+002
9.226255e+002, 2.250829e+002
9.231077e+002, 2.228725e+002
9.235898e+002, 2.200654e+002
9.240719e+002, 2.170353e+002
9.245540e+002, 2.146834e+002
9.250361e+002, 2.128411e+002
9.255182e+002, 2.108659e+002
9.260004e+002, 2.083348e+002
9.264825e+002, 2.058578e+002
9.269646e+002, 2.037184e+002
9.274467e+002, 2.018740e+002
9.279288e+002, 2.003089e+002
9.284109e+002, 1.990246e+002
9.288931e+002, 1.979639e+002
9.293752e+002, 1.972172e+002
9.298573e+002, 1.965208e+002
9.303394e+002, 1.953916e+002
9.308215e+002, 1.940499e+002
9.313036e+002, 1.933249e+002
9.317858e+002, 1.933442e+002
9.322679e+002, 1.935159e+002
9.327500e+002, 1.934758e+002
9.332321e+002, 1.933900e+002
9.337142e+002, 1.934190e+002
9.341964e+002, 1.936103e+002
9.346785e+002, 1.935632e+002
9.351606e+002, 1.930491e+002
9.356427e+002, 1.928783e+002
9.361248e+002, 1.936563e+002
9.366069e+002, 1.950565e+002
9.370891e+002, 1.958837e+002
9.375712e+002, 1.962547e+002
9.380533e+002, 1.967050e+002
9.385354e+002, 1.976288e+002
9.390175e+002, 1.986114e+002
9.394996e+002, 1.994588e+002
9.399818e+002, 2.001696e+002
9.404639e+002, 2.007467e+002
9.409460e+002, 2.011514e+002
9.414281e+002, 2.015122e+002
9.419102e+002, 2.018650e+002
9.423923e+002, 2.021420e+002
9.428745e+002, 2.022644e+002
9.433566e+002, 2.022216e+002
9.438387e+002, 2.019407e+002
9.443208e+002, 2.013409e+002
9.448029e+002, 2.007562e+002
9.452850e+002, 2.007363e+002
9.457672e+002, 2.005889e+002
9.462493e+002, 1.996228e+002
9.467314e+002, 1.977109e+002
9.472135e+002, 1.955598e+002
9.476956e+002, 1.932036e+002
9.481777e+002, 1.905155e+002
9.486599e+002, 1.873850e+002
9.491420e+002, 1.839046e+002
9.496241e+002, 1.803612e+002
9.501062e+002, 1.767329e+002
9.505883e+002, 1.727964e+002
9.510704e+002, 1.682488e+002
9.515526e+002, 1.635203e+002
9.520347e+002, 1.587760e+002
9.525168e+002, 1.540457e+002
9.529989e+002, 1.495263e+002
9.534810e+002, 1.452473e+002
9.539631e+002, 1.410319e+002
9.544453e+002, 1.368076e+002
9.549274e+002, 1.326617e+002
9.554095e+002, 1.287569e+002
9.558916e+002, 1.250529e+002
9.563737e+002, 1.213543e+002
9.568558e+002, 1.174016e+002
9.573380e+002, 1.138243e+002
9.578201e+002, 1.110340e+002
9.583022e+002, 1.085609e+002
9.587843e+002, 1.059966e+002
9.592664e+002, 1.033246e+002
9.597485e+002, 1.005381e+002
9.602307e+002, 9.761105e+001
9.607128e+002, 9.483657e+001
9.611949e+002, 9.252372e+001
9.616770e+002, 9.050314e+001
9.621591e+002, 8.856776e+001
9.626412e+002, 8.668974e+001
9.631234e+002, 8.497497e+001
9.636055e+002, 8.353548e+001
9.640876e+002, 8.216329e+001
9.645697e+002, 8.075236e+001
9.650518e+002, 7.934438e+001
9.655339e+002, 7.804147e+001
9.660161e+002, 7.683910e+001
9.664982e+002, 7.586831e+001
9.669803e+002, 7.526051e+001
9.674624e+002, 7.476942e+001
9.679445e+002, 7.413640e+001
9.684266e+002, 7.343114e+001
9.689088e+002, 7.278220e+001
9.693909e+002, 7.222254e+001
9.698730e+002, 7.172265e+001
9.703551e+002, 7.129710e+001
9.708372e+002, 7.090121e+001
9.713193e+002, 7.052788e+001
9.718015e+002, 7.015945e+001
9.722836e+002, 6.953300e+001
9.727657e+002, 6.862440e+001
9.732478e+002, 6.772312e+001
9.737299e+002, 6.699919e+001
9.742120e+002, 6.641158e+001
9.746942e+002, 6.592972e+001
9.751763e+002, 6.555454e+001
9.756584e+002, 6.528310e+001
9.761405e+002, 6.514234e+001
9.766226e+002, 6.503432e+001
9.771047e+002, 6.493179e+001
9.775869e+002, 6.482900e+001
9.780690e+002, 6.473724e+001
9.785511e+002, 6.463847e+001
9.790332e+002, 6.446009e+001
9.795153e+002, 6.411008e+001
9.799974e+002, 6.376057e+001
9.804796e+002, 6.342278e+001
9.809617e+002, 6.317982e+001
9.814438e+002, 6.315569e+001
9.819259e+002, 6.344127e+001
9.824080e+002, 6.365217e+001
9.828901e+002, 6.374927e+001
9.833723e+002, 6.385731e+001
9.838544e+002, 6.421974e+001
9.843365e+002, 6.464143e+001
9.848186e+002, 6.464831e+001
9.853007e+002, 6.421941e+001
9.857828e+002, 6.398294e+001
9.862650e+002, 6.437376e+001
9.867471e+002, 6.485978e+001
9.872292e+002, 6.526594e+001
9.877113e+002, 6.556779e+001
9.881934e+002, 6.553846e+001
9.886755e+002, 6.515368e+001
9.891577e+002, 6.501228e+001
9.896398e+002, 6.543414e+001
9.901219e+002, 6.605165e+001
9.906040e+002, 6.650385e+001
9.910861e+002, 6.681869e+001
9.915682e+002, 6.704192e+001
9.920504e+002, 6.708475e+001
9.925325e+002, 6.719676e+001
9.930146e+002, 6.745760e+001
9.934967e+002, 6.771183e+001
9.939788e+002, 6.773924e+001
9.944609e+002, 6.759264e+001
9.949431e+002, 6.778824e+001
9.954252e+002, 6.835303e+001
9.959073e+002, 6.893877e+001
9.963894e+002, 6.936877e+001
9.968715e+002, 6.966244e+001
9.973536e+002, 6.974046e+001
9.978358e+002, 6.964208e+001
9.983179e+002, 6.980009e+001
9.988000e+002, 7.027038e+001
9.992821e+002, 7.088280e+001
9.997642e+002, 7.163102e+001
1.000246e+003, 7.244328e+001
1.000728e+003, 7.321923e+001
1.001211e+003, 7.392579e+001
1.001693e+003, 7.442989e+001
1.002175e+003, 7.460659e+001
1.002657e+003, 7.477675e+001
1.003139e+003, 7.502677e+001
1.003621e+003, 7.537115e+001
1.004103e+003, 7.583206e+001
1.004585e+003, 7.644144e+001
1.005068e+003, 7.692263e+001
1.005550e+003, 7.724878e+001
1.006032e+003, 7.774034e+001
1.006514e+003, 7.886523e+001
1.006996e+003, 8.015393e+001
1.007478e+003, 8.102763e+001
1.007960e+003, 8.152083e+001
1.008442e+003, 8.196419e+001
1.008924e+003, 8.245467e+001
1.009407e+003, 8.290855e+001
1.009889e+003, 8.332648e+001
1.010371e+003, 8.368667e+001
1.010853e+003, 8.382859e+001
1.011335e+003, 8.383024e+001
1.011817e+003, 8.424036e+001
1.012299e+003, 8.527602e+001
1.012781e+003, 8.635397e+001
1.013263e+003, 8.694925e+001
1.013746e+003, 8.744289e+001
1.014228e+003, 8.831572e+001
1.014710e+003, 8.978796e+001
1.015192e+003, 9.049709e+001
1.015674e+003, 9.021474e+001
1.016156e+003, 8.990971e+001
1.016638e+003, 9.020694e+001
1.017120e+003, 9.087328e+001
1.017603e+003, 9.138235e+001
1.018085e+003, 9.180912e+001
1.018567e+003, 9.240482e+001
1.019049e+003, 9.340824e+001
1.019531e+003, 9.444799e+001
1.020013e+003, 9.556223e+001
1.020495e+003, 9.655703e+001
1.020977e+003, 9.704491e+001
1.021459e+003, 9.700720e+001
1.021942e+003, 9.723782e+001
1.022424e+003, 9.786678e+001
1.022906e+003, 9.853464e+001
1.023388e+003, 9.878925e+001
1.023870e+003, 9.900129e+001
1.024352e+003, 9.963766e+001
1.024834e+003, 1.007918e+002
1.025316e+003, 1.015804e+002
1.025799e+003, 1.016825e+002
1.026281e+003, 1.019858e+002
1.026763e+003, 1.029116e+002
1.027245e+003, 1.042200e+002
1.027727e+003, 1.054207e+002
1.028209e+003, 1.065059e+002
1.028691e+003, 1.074343e+002
1.029173e+003, 1.080668e+002
1.029656e+003, 1.087399e+002
1.030138e+003, 1.096195e+002
1.030620e+003, 1.106032e+002
1.031102e+003, 1.115794e+002
1.031584e+003, 1.125357e+002
1.032066e+003, 1.135634e+002
1.032548e+003, 1.146677e+002
1.033030e+003, 1.158427e+002
1.033512e+003, 1.171348e+002
1.033995e+003, 1.184490e+002
1.034477e+003, 1.195648e+002
1.034959e+003, 1.205351e+002
1.035441e+003, 1.217707e+002
1.035923e+003, 1.235623e+002
1.036405e+003, 1.253348e+002
1.036887e+003, 1.269911e+002
1.037369e+003, 1.285702e+002
1.037851e+003, 1.301827e+002
1.038334e+003, 1.318010e+002
1.038816e+003, 1.334003e+002
1.039298e+003, 1.349476e+002
1.039780e+003, 1.366202e+002
1.040262e+003, 1.384948e+002
1.040744e+003, 1.406004e+002
1.041226e+003, 1.430562e+002
1.041708e+003, 1.459234e+002
1.042191e+003, 1.482686e+002
1.042673e+003, 1.500397e+002
1.043155e+003, 1.519941e+002
1.043637e+003, 1.547224e+002
1.044119e+003, 1.577485e+002
1.044601e+003, 1.603938e+002
1.045083e+003, 1.628503e+002
1.045565e+003, 1.654556e+002
1.046047e+003, 1.685739e+002
1.046530e+003, 1.714814e+002
1.047012e+003, 1.740162e+002
1.047494e+003, 1.764421e+002
1.047976e+003, 1.789120e+002
1.048458e+003, 1.815303e+002
1.048940e+003, 1.848064e+002
1.049422e+003, 1.887656e+002
1.049904e+003, 1.924722e+002
1.050386e+003, 1.951385e+002
1.050869e+003, 1.976046e+002
1.051351e+003, 2.004395e+002
1.051833e+003, 2.035247e+002
1.052315e+003, 2.062825e+002
1.052797e+003, 2.086711e+002
1.053279e+003, 2.111282e+002
1.053761e+003, 2.138840e+002
1.054243e+003, 2.165736e+002
1.054726e+003, 2.186366e+002
1.055208e+003, 2.203959e+002
1.055690e+003, 2.223648e+002
1.056172e+003, 2.248752e+002
1.056654e+003, 2.268111e+002
1.057136e+003, 2.279005e+002
1.057618e+003, 2.288187e+002
1.058100e+003, 2.301938e+002
1.058583e+003, 2.316852e+002
1.059065e+003, 2.317910e+002
1.059547e+003, 2.307229e+002
1.060029e+003, 2.294483e+002
1.060511e+003, 2.287692e+002
1.060993e+003, 2.276727e+002
1.061475e+003, 2.254676e+002
1.061957e+003, 2.227233e+002
1.062439e+003, 2.202938e+002
1.062922e+003, 2.182856e+002
1.063404e+003, 2.156319e+002
1.063886e+003, 2.122485e+002
1.064368e+003, 2.083461e+002
1.064850e+003, 2.038488e+002
1.065332e+003, 1.990764e+002
1.065814e+003, 1.942984e+002
1.066296e+003, 1.895724e+002
1.066778e+003, 1.848402e+002
1.067261e+003, 1.802516e+002
1.067743e+003, 1.752602e+002
1.068225e+003, 1.696346e+002
1.068707e+003, 1.636911e+002
1.069189e+003, 1.581545e+002
1.069671e+003, 1.528432e+002
1.070153e+003, 1.473510e+002
1.070635e+003, 1.415878e+002
1.071118e+003, 1.357679e+002
1.071600e+003, 1.299799e+002
1.072082e+003, 1.243306e+002
1.072564e+003, 1.189126e+002
1.073046e+003, 1.137528e+002
1.073528e+003, 1.085302e+002
1.074010e+003, 1.033106e+002
1.074492e+003, 9.840307e+001
1.074974e+003, 9.410905e+001
1.075457e+003, 9.010680e+001
1.075939e+003, 8.610213e+001
1.076421e+003, 8.226759e+001
1.076903e+003, 7.888573e+001
1.077385e+003, 7.622095e+001
1.077867e+003, 7.318180e+001
1.078349e+003, 6.959830e+001
1.078831e+003, 6.623286e+001
1.079313e+003, 6.397050e+001
1.079796e+003, 6.227723e+001
1.080278e+003, 6.037568e+001
1.080760e+003, 5.825003e+001
1.081242e+003, 5.622496e+001
1.081724e+003, 5.444473e+001
1.082206e+003, 5.271111e+001
1.082688e+003, 5.098193e+001
1.083170e+003, 4.933498e+001
1.083652e+003, 4.793375e+001
1.084135e+003, 4.674510e+001
1.084617e+003, 4.572392e+001
1.085099e+003, 4.488367e+001
1.085581e+003, 4.403331e+001
1.086063e+003, 4.298557e+001
1.086545e+003, 4.196855e+001
1.087027e+003, 4.112492e+001
1.087509e+003, 4.043707e+001
1.087992e+003, 3.965678e+001
1.088474e+003, 3.878187e+001
1.088956e+003, 3.801080e+001
1.089438e+003, 3.746791e+001
1.089920e+003, 3.698302e+001
1.090402e+003, 3.633053e+001
1.090884e+003, 3.564856e+001
1.091366e+003, 3.515125e+001
1.091849e+003, 3.501241e+001
1.092331e+003, 3.463181e+001
1.092813e+003, 3.394775e+001
1.093295e+003, 3.323044e+001
1.093777e+003, 3.263105e+001
1.094259e+003, 3.215700e+001
1.094741e+003, 3.184043e+001
1.095223e+003, 3.165527e+001
1.095705e+003, 3.151116e+001
1.096188e+003, 3.145374e+001
1.096670e+003, 3.132521e+001
1.097152e+003, 3.108423e+001
1.097634e+003, 3.078701e+001
1.098116e+003, 3.048196e+001
1.098598e+003, 3.017739e+001
1.099080e+003, 2.992461e+001
1.099562e+003, 2.972656e+001
1.100044e+003, 2.954731e+001
1.100527e+003, 2.934931e+001
1.101009e+003, 2.918125e+001
1.101491e+003, 2.909099e+001
1.101973e+003, 2.904686e+001
1.102455e+003, 2.897884e+001
1.102937e+003, 2.888853e+001
1.103419e+003, 2.864356e+001
1.103901e+003, 2.817191e+001
1.104384e+003, 2.770611e+001
1.104866e+003, 2.739886e+001
1.105348e+003, 2.726427e+001
1.105830e+003, 2.739306e+001
1.106312e+003, 2.784644e+001
1.106794e+003, 2.800526e+001
1.107276e+003, 2.781723e+001
1.107758e+003, 2.752501e+001
1.108240e+003, 2.715005e+001
1.108723e+003, 2.684232e+001
1.109205e+003, 2.690997e+001
1.109687e+003, 2.719851e+001
1.110169e+003, 2.741365e+001
1.110651e+003, 2.749812e+001
1.111133e+003, 2.743180e+001
1.111615e+003, 2.710744e+001
1.112097e+003, 2.683499e+001
1.112579e+003, 2.692761e+001
1.113062e+003, 2.725875e+001
1.113544e+003, 2.741649e+001
1.114026e+003, 2.740535e+001
1.114508e+003, 2.726114e+001
1.114990e+003, 2.678515e+001
1.115472e+003, 2.645184e+001
1.115954e+003, 2.648713e+001
1.116436e+003, 2.667808e+001
1.116919e+003, 2.679088e+001
1.117401e+003, 2.682472e+001
1.117883e+003, 2.672909e+001
1.118365e+003, 2.649981e+001
1.118847e+003, 2.625329e+001
1.119329e+003, 2.601745e+001
1.119811e+003, 2.584441e+001
1.120293e+003, 2.581616e+001
1.120776e+003, 2.587965e+001
1.121258e+003, 2.584610e+001
1.121740e+003, 2.570056e+001
1.122222e+003, 2.558711e+001
1.122704e+003, 2.551926e+001
1.123186e+003, 2.556232e+001
1.123668e+003, 2.590734e+001
1.124150e+003, 2.631870e+001
1.124632e+003, 2.655148e+001
1.125115e+003, 2.655928e+001
1.125597e+003, 2.650026e+001
1.126079e+003, 2.637643e+001
1.126561e+003, 2.617618e+001
1.127043e+003, 2.584336e+001
1.127525e+003, 2.551472e+001
1.128007e+003, 2.549507e+001
1.128489e+003, 2.561384e+001
1.128971e+003, 2.554983e+001
1.129454e+003, 2.507252e+001
1.129936e+003, 2.484863e+001
1.130418e+003, 2.501478e+001
1.130900e+003, 2.528440e+001
1.131382e+003, 2.554529e+001
1.131864e+003, 2.575441e+001
1.132346e+003, 2.573745e+001
1.132828e+003, 2.555317e+001
1.133311e+003, 2.539570e+001
1.133793e+003, 2.537086e+001
1.134275e+003, 2.535052e+001
1.134757e+003, 2.525650e+001
1.135239e+003, 2.520408e+001
1.135721e+003, 2.534876e+001
1.136203e+003, 2.565441e+001
1.136685e+003, 2.581896e+001
1.137167e+003, 2.584193e+001
1.137650e+003, 2.581598e+001
1.138132e+003, 2.580604e+001
1.138614e+003, 2.575147e+001
1.139096e+003, 2.557733e+001
1.139578e+003, 2.535906e+001
1.140060e+003, 2.519332e+001
1.140542e+003, 2.507757e+001
1.141024e+003, 2.513756e+001
1.141506e+003, 2.539591e+001
1.141989e+003, 2.565354e+001
1.142471e+003, 2.584600e+001
1.142953e+003, 2.589663e+001
1.143435e+003, 2.561953e+001
1.143917e+003, 2.512805e+001
1.144399e+003, 2.497635e+001
1.144881e+003, 2.522318e+001
1.145363e+003, 2.541965e+001
1.145846e+003, 2.546041e+001
1.146328e+003, 2.544519e+001
1.146810e+003, 2.548507e+001
1.147292e+003, 2.552344e+001
1.147774e+003, 2.548846e+001
1.148256e+003, 2.536427e+001
1.148738e+003, 2.527806e+001
1.149220e+003, 2.524698e+001
1.149703e+003, 2.518490e+001
1.150185e+003, 2.501983e+001
1.150667e+003, 2.489201e+001
1.151149e+003, 2.514249e+001
1.151631e+003, 2.552177e+001
1.152113e+003, 2.559728e+001
1.152595e+003, 2.513949e+001
1.153077e+003, 2.488322e+001
1.153559e+003, 2.492494e+001
1.154042e+003, 2.505304e+001
1.154524e+003, 2.519024e+001
1.155006e+003, 2.531123e+001
1.155488e+003, 2.539039e+001
1.155970e+003, 2.540455e+001
1.156452e+003, 2.528292e+001
1.156934e+003, 2.481002e+001
1.157416e+003, 2.457161e+001
1.157898e+003, 2.472407e+001
1.158381e+003, 2.495842e+001
1.158863e+003, 2.503117e+001
1.159345e+003, 2.499396e+001
1.159827e+003, 2.505470e+001
1.160309e+003, 2.519456e+001
1.160791e+003, 2.533678e+001
1.161273e+003, 2.559285e+001
1.161755e+003, 2.563565e+001
1.162238e+003, 2.524689e+001
1.162720e+003, 2.477483e+001
1.163202e+003, 2.457563e+001
1.163684e+003, 2.462461e+001
1.164166e+003, 2.478406e+001
1.164648e+003, 2.503787e+001
1.165130e+003, 2.530409e+001
1.165612e+003, 2.564972e+001
1.166094e+003, 2.586373e+001
1.166577e+003, 2.582804e+001
1.167059e+003, 2.562825e+001
1.167541e+003, 2.532064e+001
1.168023e+003, 2.492529e+001
1.168505e+003, 2.476426e+001
1.168987e+003, 2.487094e+001
1.169469e+003, 2.498942e+001
1.169951e+003, 2.493228e+001
1.170433e+003, 2.484198e+001
1.170916e+003, 2.476019e+001
1.171398e+003, 2.472184e+001
1.171880e+003, 2.485085e+001
1.172362e+003, 2.514457e+001
1.172844e+003, 2.540240e+001
1.173326e+003, 2.560299e+001
1.173808e+003, 2.562580e+001
1.174290e+003, 2.510615e+001
1.174773e+003, 2.458678e+001
1.175255e+003, 2.460378e+001
1.175737e+003, 2.503167e+001
1.176219e+003, 2.517703e+001
1.176701e+003, 2.502477e+001
1.177183e+003, 2.493496e+001
1.177665e+003, 2.501932e+001
1.178147e+003, 2.514426e+001
1.178630e+003, 2.524768e+001
1.179112e+003, 2.528316e+001
1.179594e+003, 2.512990e+001
1.180076e+003, 2.478956e+001
1.180558e+003, 2.477009e+001
1.181040e+003, 2.510225e+001
1.181522e+003, 2.548301e+001
1.182004e+003, 2.587568e+001
1.182486e+003, 2.609840e+001
1.182969e+003, 2.582755e+001
1.183451e+003, 2.534397e+001
1.183933e+003, 2.493845e+001
1.184415e+003, 2.460312e+001
1.184897e+003, 2.469707e+001
1.185379e+003, 2.531427e+001
1.185861e+003, 2.576082e+001
1.186343e+003, 2.559966e+001
1.186825e+003, 2.519762e+001
1.187308e+003, 2.485897e+001
1.187790e+003, 2.462252e+001
1.188272e+003, 2.458644e+001
1.188754e+003, 2.489115e+001
1.189236e+003, 2.494112e+001
1.189718e+003, 2.466161e+001
1.190200e+003, 2.451291e+001
1.190682e+003, 2.496890e+001
1.191165e+003, 2.557774e+001
1.191647e+003, 2.579273e+001
1.192129e+003, 2.570901e+001
1.192611e+003, 2.549799e+001
1.193093e+003, 2.504209e+001
1.193575e+003, 2.483162e+001
1.194057e+003, 2.492676e+001
1.194539e+003, 2.504751e+001
1.195021e+003, 2.485597e+001
1.195504e+003, 2.464031e+001
1.195986e+003, 2.489951e+001
1.196468e+003, 2.546632e+001
1.196950e+003, 2.582408e+001
1.197432e+003, 2.574962e+001
1.197914e+003, 2.580658e+001
1.198396e+003, 2.608418e+001
1.198878e+003, 2.629226e+001
1.199360e+003, 2.608449e+001
1.199843e+003, 2.567908e+001
1.200325e+003, 2.533029e+001
1.200807e+003, 2.506215e+001
1.201289e+003, 2.493499e+001
1.201771e+003, 2.504053e+001
1.202253e+003, 2.509218e+001
1.202735e+003, 2.504538e+001
1.203217e+003, 2.498311e+001
1.203700e+003, 2.500888e+001
1.204182e+003, 2.507064e+001
1.204664e+003, 2.506530e+001
1.205146e+003, 2.500941e+001
1.205628e+003, 2.506602e+001
1.206110e+003, 2.535480e+001
1.206592e+003, 2.553200e+001
1.207074e+003, 2.552980e+001
1.207557e+003, 2.544184e+001
1.208039e+003, 2.527690e+001
1.208521e+003, 2.516156e+001
1.209003e+003, 2.534148e+001
1.209485e+003, 2.581341e+001
1.209967e+003, 2.618466e+001
1.210449e+003, 2.645683e+001
1.210931e+003, 2.649565e+001
1.211413e+003, 2.621253e+001
1.211896e+003, 2.585061e+001
1.212378e+003, 2.573019e+001
1.212860e+003, 2.574228e+001
1.213342e+003, 2.574133e+001
1.213824e+003, 2.571025e+001
1.214306e+003, 2.568215e+001
1.214788e+003, 2.567788e+001
1.215270e+003, 2.562270e+001
1.215752e+003, 2.546895e+001
1.216235e+003, 2.532836e+001
1.216717e+003, 2.545697e+001
1.217199e+003, 2.565412e+001
1.217681e+003, 2.555988e+001
1.218163e+003, 2.509231e+001
1.218645e+003, 2.492844e+001
1.219127e+003, 2.523099e+001
1.219609e+003, 2.545929e+001
1.220092e+003, 2.541590e+001
1.220574e+003, 2.528181e+001
1.221056e+003, 2.537490e+001
1.221538e+003, 2.552883e+001
1.222020e+003, 2.545736e+001
1.222502e+003, 2.506558e+001
1.222984e+003, 2.491473e+001
1.223466e+003, 2.510217e+001
1.223948e+003, 2.526619e+001
1.224431e+003, 2.525567e+001
1.224913e+003, 2.519675e+001
1.225395e+003, 2.528056e+001
1.225877e+003, 2.542988e+001
1.226359e+003, 2.554440e+001
1.226841e+003, 2.560495e+001
1.227323e+003, 2.562247e+001
1.227805e+003, 2.558765e+001
1.228287e+003, 2.554590e+001
1.228770e+003, 2.550266e+001
1.229252e+003, 2.548689e+001
1.229734e+003, 2.553960e+001
1.230216e+003, 2.564387e+001
1.230698e+003, 2.581198e+001
1.231180e+003, 2.609781e+001
1.231662e+003, 2.609933e+001
1.232144e+003, 2.576078e+001
1.232627e+003, 2.546129e+001
1.233109e+003, 2.538295e+001
1.233591e+003, 2.541123e+001
1.234073e+003, 2.542220e+001
1.234555e+003, 2.544634e+001
1.235037e+003, 2.555948e+001
1.235519e+003, 2.581660e+001
1.236001e+003, 2.581352e+001
1.236484e+003, 2.552040e+001
1.236966e+003, 2.522981e+001
1.237448e+003, 2.504317e+001
1.237930e+003, 2.499600e+001
1.238412e+003, 2.521354e+001
1.238894e+003, 2.554718e+001
1.239376e+003, 2.581927e+001
1.239858e+003, 2.604712e+001
1.240340e+003, 2.599047e+001
1.240823e+003, 2.563497e+001
1.241305e+003, 2.532941e+001
1.241787e+003, 2.531557e+001
1.242269e+003, 2.534760e+001
1.242751e+003, 2.508399e+001
1.243233e+003, 2.483128e+001
1.243715e+003, 2.505713e+001
1.244197e+003, 2.585962e+001
1.244679e+003, 2.603117e+001
1.245162e+003, 2.558606e+001
1.245644e+003, 2.515478e+001
1.246126e+003, 2.503745e+001
1.246608e+003, 2.509603e+001
1.247090e+003, 2.541952e+001
1.247572e+003, 2.574410e+001
1.248054e+003, 2.574415e+001
1.248536e+003, 2.540334e+001
1.249019e+003, 2.526072e+001
1.249501e+003, 2.529843e+001
1.249983e+003, 2.531251e+001
1.250465e+003, 2.510048e+001
1.250947e+003, 2.495058e+001
1.251429e+003, 2.504055e+001
1.251911e+003, 2.524487e+001
1.252393e+003, 2.547965e+001
1.252875e+003, 2.573707e+001
1.253358e+003, 2.587546e+001
1.253840e+003, 2.590425e+001
1.254322e+003, 2.589540e+001
1.254804e+003, 2.585594e+001
1.255286e+003, 2.582380e+001
1.255768e+003, 2.582966e+001
1.256250e+003, 2.582866e+001
1.256732e+003, 2.576412e+001
1.257214e+003, 2.565561e+001
1.257697e+003, 2.560789e+001
1.258179e+003, 2.562486e+001
1.258661e+003, 2.571922e+001
1.259143e+003, 2.603376e+001
1.259625e+003, 2.622728e+001
1.260107e+003, 2.622527e+001
1.260589e+003, 2.612101e+001
1.261071e+003, 2.594343e+001
1.261554e+003, 2.573614e+001
1.262036e+003, 2.565998e+001
1.262518e+003, 2.568046e+001
1.263000e+003, 2.567495e+001
1.263482e+003, 2.551222e+001
1.263964e+003, 2.546512e+001
1.264446e+003, 2.559188e+001
1.264928e+003, 2.574766e+001
1.265411e+003, 2.581968e+001
1.265893e+003, 2.583190e+001
1.266375e+003, 2.582927e+001
1.266857e+003, 2.580682e+001
1.267339e+003, 2.574658e+001
1.267821e+003, 2.552415e+001
1.268303e+003, 2.554197e+001
1.268785e+003, 2.590268e+001
1.269267e+003, 2.614850e+001
1.269750e+003, 2.567815e+001
1.270232e+003, 2.506706e+001
1.270714e+003, 2.517069e+001
1.271196e+003, 2.570193e+001
1.271678e+003, 2.596240e+001
1.272160e+003, 2.577322e+001
1.272642e+003, 2.570527e+001
1.273124e+003, 2.578387e+001
1.273606e+003, 2.587771e+001
1.274089e+003, 2.589478e+001
1.274571e+003, 2.588147e+001
1.275053e+003, 2.588596e+001
1.275535e+003, 2.588419e+001
1.276017e+003, 2.583449e+001
1.276499e+003, 2.573135e+001
1.276981e+003, 2.558614e+001
1.277463e+003, 2.540159e+001
1.277946e+003, 2.531815e+001
1.278428e+003, 2.553210e+001
1.278910e+003, 2.576171e+001
1.279392e+003, 2.584204e+001
1.279874e+003, 2.583183e+001
1.280356e+003, 2.577718e+001
1.280838e+003, 2.568201e+001
1.281320e+003, 2.573516e+001
1.281802e+003, 2.590992e+001
1.282285e+003, 2.596261e+001
1.282767e+003, 2.555048e+001
1.283249e+003, 2.526784e+001
1.283731e+003, 2.542679e+001
1.284213e+003, 2.569314e+001
1.284695e+003, 2.579645e+001
1.285177e+003, 2.575865e+001
1.285659e+003, 2.562244e+001
1.286141e+003, 2.543121e+001
1.286624e+003, 2.536014e+001
1.287106e+003, 2.563694e+001
1.287588e+003, 2.580933e+001
1.288070e+003, 2.580245e+001
1.288552e+003, 2.572211e+001
1.289034e+003, 2.560496e+001
1.289516e+003, 2.549983e+001
1.289998e+003, 2.552148e+001
1.290481e+003, 2.564721e+001
1.290963e+003, 2.581985e+001
1.291445e+003, 2.612770e+001
1.291927e+003, 2.626829e+001
1.292409e+003, 2.619795e+001
1.292891e+003, 2.612819e+001
1.293373e+003, 2.634566e+001
1.293855e+003, 2.654006e+001
1.294338e+003, 2.612716e+001
1.294820e+003, 2.545857e+001
1.295302e+003, 2.525075e+001
1.295784e+003, 2.568349e+001
1.296266e+003, 2.598846e+001
1.296748e+003, 2.616713e+001
1.297230e+003, 2.618536e+001
1.297712e+003, 2.581421e+001
1.298194e+003, 2.551754e+001
1.298677e+003, 2.581823e+001
1.299159e+003, 2.630406e+001
1.299641e+003, 2.644915e+001
1.300123e+003, 2.624310e+001
1.300605e+003, 2.611067e+001
1.301087e+003, 2.605182e+001
1.301569e+003, 2.607763e+001
1.302051e+003, 2.635061e+001
1.302533e+003, 2.645495e+001
1.303016e+003, 2.623970e+001
##END=



