##NAMES=Bastnasite-(La)
##RRUFFID=R070142
##IDEAL CHEMISTRY=LaCO_3_F
##LOCALITY=Mochalin Log, Kyshtym, Chelyabinsk Oblast', Urals Region, Russia
##OWNER=RRUFF
##SOURCE=Michael Scott
##DESCRIPTION=Vitreous yellow massive component of a nodule, associated with belovite-(Ce), R070163
##STATUS=The identification of this mineral is confirmed by single-crystal X-ray diffraction and chemical analysis.
##URL=rruff.info/R070142
##MEASURED CHEMISTRY=(La_0.53_Ce_0.44_Nd_0.03_)_Î£=1_CO_3_F_1.00_
155.0028, 3696.940
155.4849, 3709.163
155.9670, 3718.387
156.4492, 3721.841
156.9313, 3726.691
157.4134, 3736.883
157.8955, 3754.153
158.3776, 3767.189
158.8597, 3770.249
159.3419, 3767.737
159.8240, 3765.767
160.3061, 3763.755
160.7882, 3764.580
161.2703, 3770.630
161.7524, 3784.247
162.2346, 3797.048
162.7167, 3805.725
163.1988, 3811.045
163.6809, 3814.565
164.1630, 3812.936
164.6451, 3812.093
165.1273, 3817.334
165.6094, 3834.008
166.0915, 3849.417
166.5736, 3853.778
167.0557, 3849.797
167.5379, 3847.323
168.0200, 3851.858
168.5021, 3860.679
168.9842, 3871.718
169.4663, 3890.997
169.9484, 3905.466
170.4306, 3901.233
170.9127, 3880.142
171.3948, 3857.247
171.8769, 3841.094
172.3590, 3830.306
172.8411, 3823.032
173.3233, 3822.614
173.8054, 3823.206
174.2875, 3817.645
174.7696, 3805.813
175.2517, 3793.194
175.7338, 3783.706
176.2160, 3776.898
176.6981, 3771.880
177.1802, 3770.023
177.6623, 3769.234
178.1444, 3764.802
178.6265, 3755.862
179.1087, 3748.956
179.5908, 3754.247
180.0729, 3768.581
180.5550, 3780.701
181.0371, 3781.135
181.5192, 3775.414
182.0014, 3775.373
182.4835, 3781.663
182.9656, 3794.320
183.4477, 3818.647
183.9298, 3852.688
184.4119, 3881.630
184.8941, 3895.299
185.3762, 3896.575
185.8583, 3894.153
186.3404, 3887.668
186.8225, 3880.261
187.3046, 3879.090
187.7868, 3884.056
188.2689, 3886.953
188.7510, 3879.218
189.2331, 3862.971
189.7152, 3852.593
190.1973, 3853.888
190.6795, 3859.148
191.1616, 3845.360
191.6437, 3810.359
192.1258, 3778.044
192.6079, 3771.882
193.0900, 3790.606
193.5722, 3805.372
194.0543, 3809.545
194.5364, 3805.800
195.0185, 3802.456
195.5006, 3798.940
195.9827, 3798.502
196.4649, 3804.984
196.9470, 3818.695
197.4291, 3834.099
197.9112, 3850.917
198.3933, 3868.534
198.8754, 3880.438
199.3576, 3883.694
199.8397, 3889.423
200.3218, 3915.187
200.8039, 3964.764
201.2860, 4004.831
201.7681, 4021.323
202.2503, 4015.280
202.7324, 4020.554
203.2145, 4038.625
203.6966, 4065.297
204.1787, 4096.817
204.6608, 4134.261
205.1430, 4170.322
205.6251, 4200.750
206.1072, 4224.583
206.5893, 4256.722
207.0714, 4300.464
207.5535, 4348.426
208.0357, 4386.628
208.5178, 4410.115
208.9999, 4438.421
209.4820, 4480.114
209.9641, 4537.496
210.4462, 4596.604
210.9284, 4660.455
211.4105, 4723.790
211.8926, 4771.518
212.3747, 4794.675
212.8568, 4824.886
213.3389, 4879.621
213.8211, 4967.415
214.3032, 5045.708
214.7853, 5110.158
215.2674, 5167.181
215.7495, 5232.364
216.2316, 5309.791
216.7138, 5388.704
217.1959, 5462.588
217.6780, 5527.653
218.1601, 5601.226
218.6422, 5686.073
219.1243, 5778.824
219.6065, 5867.926
220.0886, 5950.511
220.5707, 6033.324
221.0528, 6115.542
221.5349, 6190.884
222.0170, 6287.068
222.4992, 6418.185
222.9813, 6571.161
223.4634, 6694.980
223.9455, 6774.105
224.4276, 6847.141
224.9097, 6936.247
225.3919, 7047.579
225.8740, 7163.716
226.3561, 7285.614
226.8382, 7411.491
227.3203, 7537.667
227.8024, 7660.804
228.2846, 7786.818
228.7667, 7923.754
229.2488, 8079.295
229.7309, 8222.965
230.2130, 8345.482
230.6951, 8449.883
231.1773, 8565.503
231.6594, 8693.686
232.1415, 8830.518
232.6236, 8975.038
233.1057, 9135.377
233.5878, 9286.852
234.0700, 9424.788
234.5521, 9549.576
235.0342, 9672.784
235.5163, 9787.506
235.9984, 9907.176
236.4805, 10043.50
236.9627, 10200.04
237.4448, 10362.74
237.9269, 10529.80
238.4090, 10701.10
238.8911, 10871.91
239.3732, 11035.25
239.8554, 11205.45
240.3375, 11397.46
240.8196, 11629.62
241.3017, 11847.98
241.7838, 12041.12
242.2659, 12208.40
242.7481, 12395.90
243.2302, 12614.15
243.7123, 12841.98
244.1944, 13059.70
244.6765, 13260.58
245.1586, 13466.26
245.6408, 13684.87
246.1229, 13917.59
246.6050, 14127.76
247.0871, 14307.05
247.5692, 14472.43
248.0513, 14643.11
248.5335, 14837.70
249.0156, 15000.61
249.4977, 15110.11
249.9798, 15165.72
250.4619, 15243.57
250.9440, 15365.12
251.4262, 15486.40
251.9083, 15565.44
252.3904, 15596.42
252.8725, 15596.75
253.3546, 15570.20
253.8367, 15516.86
254.3189, 15429.76
254.8010, 15300.12
255.2831, 15148.06
255.7652, 14990.30
256.2473, 14821.47
256.7295, 14663.27
257.2116, 14529.72
257.6937, 14422.03
258.1758, 14279.05
258.6579, 14088.05
259.1400, 13877.07
259.6222, 13669.77
260.1043, 13467.75
260.5864, 13270.89
261.0685, 13079.47
261.5506, 12896.67
262.0327, 12706.95
262.5149, 12503.71
262.9970, 12305.05
263.4791, 12135.70
263.9612, 12003.78
264.4433, 11873.86
264.9254, 11736.82
265.4076, 11594.52
265.8897, 11452.74
266.3718, 11312.64
266.8539, 11169.15
267.3360, 11012.45
267.8181, 10839.58
268.3003, 10668.93
268.7824, 10506.44
269.2645, 10351.50
269.7466, 10194.41
270.2287, 10034.00
270.7108, 9874.419
271.1930, 9717.439
271.6751, 9563.671
272.1572, 9413.274
272.6393, 9265.840
273.1214, 9120.156
273.6035, 8986.279
274.0857, 8867.331
274.5678, 8750.579
275.0499, 8618.198
275.5320, 8466.806
276.0141, 8328.319
276.4962, 8214.109
276.9784, 8118.707
277.4605, 8009.016
277.9426, 7880.183
278.4247, 7753.514
278.9068, 7656.227
279.3889, 7590.912
279.8711, 7514.108
280.3532, 7410.838
280.8353, 7289.898
281.3174, 7191.928
281.7995, 7121.951
282.2816, 7054.004
282.7638, 6961.284
283.2459, 6844.313
283.7280, 6737.125
284.2101, 6650.448
284.6922, 6576.614
285.1743, 6489.996
285.6565, 6390.147
286.1386, 6288.809
286.6207, 6191.639
287.1028, 6099.601
287.5849, 6023.960
288.0670, 5973.633
288.5492, 5935.890
289.0313, 5882.938
289.5134, 5815.129
289.9955, 5737.086
290.4776, 5644.516
290.9597, 5542.728
291.4419, 5453.018
291.9240, 5380.998
292.4061, 5320.797
292.8882, 5263.404
293.3703, 5208.945
293.8524, 5155.263
294.3346, 5098.340
294.8167, 5040.684
295.2988, 4989.115
295.7809, 4947.120
296.2630, 4907.338
296.7451, 4856.898
297.2273, 4797.217
297.7094, 4737.020
298.1915, 4676.521
298.6736, 4619.486
299.1557, 4576.378
299.6378, 4551.602
300.1200, 4532.792
300.6021, 4504.019
301.0842, 4467.787
301.5663, 4433.799
302.0484, 4411.751
302.5305, 4394.155
303.0127, 4368.625
303.4948, 4330.300
303.9769, 4294.417
304.4590, 4281.642
304.9411, 4283.633
305.4232, 4277.404
305.9054, 4242.847
306.3875, 4197.609
306.8696, 4160.255
307.3517, 4133.495
307.8338, 4111.270
308.3159, 4086.928
308.7981, 4064.137
309.2802, 4049.983
309.7623, 4063.623
310.2444, 4076.961
310.7265, 4063.743
311.2086, 4018.188
311.6908, 3974.764
312.1729, 3952.522
312.6550, 3945.179
313.1371, 3944.156
313.6192, 3948.435
314.1013, 3956.135
314.5835, 3969.787
315.0656, 3990.213
315.5477, 4002.702
316.0298, 3993.081
316.5119, 3974.816
316.9940, 3962.651
317.4762, 3960.354
317.9583, 3965.818
318.4404, 3982.269
318.9225, 4009.491
319.4046, 4032.357
319.8867, 4047.909
320.3689, 4056.474
320.8510, 4058.325
321.3331, 4037.415
321.8152, 4026.446
322.2973, 4040.640
322.7794, 4077.012
323.2616, 4101.190
323.7437, 4097.829
324.2258, 4086.804
324.7079, 4080.478
325.1900, 4080.486
325.6721, 4084.797
326.1543, 4094.434
326.6364, 4108.690
327.1185, 4123.933
327.6006, 4140.005
328.0827, 4157.143
328.5648, 4175.432
329.0470, 4194.345
329.5291, 4215.776
330.0112, 4247.023
330.4933, 4280.593
330.9754, 4292.193
331.4576, 4256.021
331.9397, 4230.240
332.4218, 4242.378
332.9039, 4317.779
333.3860, 4365.206
333.8681, 4371.322
334.3503, 4356.431
334.8324, 4360.166
335.3145, 4391.769
335.7966, 4421.814
336.2787, 4440.183
336.7608, 4445.788
337.2430, 4445.578
337.7251, 4437.607
338.2072, 4426.669
338.6893, 4418.196
339.1714, 4411.584
339.6535, 4410.847
340.1357, 4418.510
340.6178, 4434.038
341.0999, 4450.372
341.5820, 4468.956
342.0641, 4484.342
342.5462, 4490.358
343.0284, 4486.978
343.5105, 4480.808
343.9926, 4472.428
344.4747, 4462.922
344.9568, 4455.126
345.4389, 4448.866
345.9211, 4446.627
346.4032, 4454.550
346.8853, 4469.732
347.3674, 4478.491
347.8495, 4478.081
348.3316, 4469.685
348.8138, 4451.702
349.2959, 4425.105
349.7780, 4400.443
350.2601, 4385.479
350.7422, 4377.056
351.2243, 4368.630
351.7065, 4358.679
352.1886, 4349.530
352.6707, 4344.195
353.1528, 4341.892
353.6349, 4340.181
354.1170, 4341.462
354.5992, 4340.804
355.0813, 4329.717
355.5634, 4304.848
356.0455, 4283.906
356.5276, 4286.670
357.0097, 4301.530
357.4919, 4308.300
357.9740, 4289.357
358.4561, 4266.470
358.9382, 4254.216
359.4203, 4253.731
359.9024, 4254.714
360.3846, 4255.809
360.8667, 4254.545
361.3488, 4248.291
361.8309, 4221.911
362.3130, 4204.314
362.7951, 4210.350
363.2773, 4238.018
363.7594, 4262.875
364.2415, 4278.067
364.7236, 4288.489
365.2057, 4297.286
365.6878, 4301.519
366.1700, 4307.928
366.6521, 4317.610
367.1342, 4330.139
367.6163, 4343.826
368.0984, 4360.011
368.5805, 4376.008
369.0627, 4390.757
369.5448, 4403.425
370.0269, 4415.967
370.5090, 4425.359
370.9911, 4435.554
371.4732, 4455.137
371.9554, 4490.586
372.4375, 4524.209
372.9196, 4549.092
373.4017, 4563.286
373.8838, 4582.821
374.3659, 4609.664
374.8481, 4639.633
375.3302, 4667.654
375.8123, 4693.981
376.2944, 4717.605
376.7765, 4734.962
377.2586, 4748.772
377.7408, 4782.774
378.2229, 4842.640
378.7050, 4900.711
379.1871, 4926.100
379.6692, 4920.684
380.1513, 4930.652
380.6335, 4968.748
381.1156, 5022.195
381.5977, 5065.253
382.0798, 5098.003
382.5619, 5122.394
383.0440, 5135.098
383.5262, 5140.499
384.0083, 5151.839
384.4904, 5172.386
384.9725, 5193.665
385.4546, 5201.258
385.9367, 5200.278
386.4189, 5206.616
386.9010, 5242.629
387.3831, 5283.484
387.8652, 5297.616
388.3473, 5282.285
388.8294, 5259.150
389.3116, 5245.991
389.7937, 5234.849
390.2758, 5214.672
390.7579, 5162.205
391.2400, 5115.623
391.7221, 5107.364
392.2043, 5131.983
392.6864, 5142.190
393.1685, 5105.185
393.6506, 5052.487
394.1327, 5007.776
394.6148, 4981.929
395.0970, 4956.786
395.5791, 4929.410
396.0612, 4899.561
396.5433, 4867.288
397.0254, 4829.165
397.5075, 4791.478
397.9897, 4756.392
398.4718, 4724.429
398.9539, 4694.281
399.4360, 4667.876
399.9181, 4642.562
400.4002, 4615.071
400.8824, 4589.155
401.3645, 4554.698
401.8466, 4503.480
402.3287, 4433.695
402.8108, 4390.658
403.2929, 4385.741
403.7751, 4391.123
404.2572, 4381.739
404.7393, 4354.112
405.2214, 4327.471
405.7035, 4306.857
406.1856, 4288.447
406.6678, 4257.042
407.1499, 4210.056
407.6320, 4166.829
408.1141, 4142.127
408.5962, 4134.029
409.0783, 4125.635
409.5605, 4116.575
410.0426, 4104.153
410.5247, 4082.561
411.0068, 4053.287
411.4889, 4023.638
411.9710, 3994.764
412.4532, 3968.596
412.9353, 3948.292
413.4174, 3934.095
413.8995, 3923.955
414.3816, 3922.449
414.8637, 3922.640
415.3459, 3912.653
415.8280, 3881.147
416.3101, 3845.708
416.7922, 3817.245
417.2743, 3795.964
417.7564, 3780.190
418.2386, 3775.566
418.7207, 3772.502
419.2028, 3763.174
419.6849, 3742.481
420.1670, 3723.495
420.6491, 3713.578
421.1313, 3707.822
421.6134, 3697.203
422.0955, 3677.947
422.5776, 3655.249
423.0597, 3628.950
423.5418, 3597.705
424.0240, 3571.186
424.5061, 3548.770
424.9882, 3531.993
425.4703, 3523.002
425.9524, 3530.357
426.4345, 3531.332
426.9167, 3520.654
427.3988, 3500.635
427.8809, 3485.844
428.3630, 3478.761
428.8451, 3472.019
429.3272, 3461.414
429.8094, 3446.392
430.2915, 3430.762
430.7736, 3414.514
431.2557, 3398.060
431.7378, 3382.266
432.2199, 3367.122
432.7021, 3352.891
433.1842, 3339.363
433.6663, 3326.884
434.1484, 3316.668
434.6305, 3308.858
435.1126, 3301.691
435.5948, 3292.833
436.0769, 3283.330
436.5590, 3276.441
437.0411, 3275.451
437.5232, 3274.286
438.0053, 3262.242
438.4875, 3242.649
438.9696, 3228.927
439.4517, 3237.698
439.9338, 3251.352
440.4159, 3252.396
440.8980, 3235.567
441.3802, 3216.617
441.8623, 3200.843
442.3444, 3188.439
442.8265, 3179.685
443.3086, 3184.651
443.7907, 3183.858
444.2729, 3163.791
444.7550, 3124.020
445.2371, 3098.824
445.7192, 3102.991
446.2013, 3116.787
446.6834, 3127.755
447.1656, 3141.216
447.6477, 3143.057
448.1298, 3122.979
448.6119, 3092.182
449.0940, 3083.694
449.5761, 3109.962
450.0583, 3134.435
450.5404, 3141.623
451.0225, 3129.666
451.5046, 3119.980
451.9867, 3112.608
452.4688, 3107.607
452.9510, 3105.924
453.4331, 3107.668
453.9152, 3109.596
454.3973, 3113.537
454.8794, 3115.220
455.3615, 3097.870
455.8437, 3062.175
456.3258, 3032.490
456.8079, 3029.516
457.2900, 3044.398
457.7721, 3060.202
458.2542, 3075.985
458.7364, 3086.948
459.2185, 3083.450
459.7006, 3071.518
460.1827, 3063.874
460.6648, 3069.187
461.1469, 3078.625
461.6291, 3087.405
462.1112, 3095.294
462.5933, 3100.165
463.0754, 3098.640
463.5575, 3095.086
464.0396, 3093.062
464.5218, 3097.027
465.0039, 3097.592
465.4860, 3090.844
465.9681, 3079.333
466.4502, 3069.707
466.9323, 3063.049
467.4145, 3057.493
467.8966, 3051.880
468.3787, 3045.321
468.8608, 3044.149
469.3429, 3051.870
469.8250, 3061.036
470.3072, 3062.472
470.7893, 3052.463
471.2714, 3049.861
471.7535, 3060.127
472.2356, 3078.939
472.7177, 3092.513
473.1999, 3100.698
473.6820, 3104.068
474.1641, 3099.836
474.6462, 3090.279
475.1284, 3086.730
475.6105, 3090.767
476.0926, 3096.142
476.5747, 3094.223
477.0568, 3087.795
477.5389, 3083.964
478.0211, 3085.103
478.5032, 3090.401
478.9853, 3103.695
479.4674, 3122.882
479.9495, 3134.189
480.4316, 3125.018
480.9138, 3107.560
481.3959, 3090.188
481.8780, 3071.700
482.3601, 3060.190
482.8422, 3062.166
483.3243, 3072.058
483.8065, 3081.126
484.2886, 3084.387
484.7707, 3090.111
485.2528, 3104.843
485.7349, 3128.627
486.2170, 3137.557
486.6992, 3118.845
487.1813, 3098.859
487.6634, 3096.596
488.1455, 3121.871
488.6276, 3135.133
489.1097, 3129.743
489.5919, 3115.636
490.0740, 3114.236
490.5561, 3127.119
491.0382, 3138.756
491.5203, 3143.368
492.0024, 3141.557
492.4846, 3132.452
492.9667, 3115.437
493.4488, 3102.832
493.9309, 3111.564
494.4130, 3133.156
494.8951, 3146.503
495.3773, 3144.323
495.8594, 3138.469
496.3415, 3141.728
496.8236, 3150.894
497.3057, 3157.804
497.7878, 3154.906
498.2700, 3151.198
498.7521, 3155.192
499.2342, 3168.167
499.7163, 3174.209
500.1984, 3157.938
500.6805, 3137.459
501.1627, 3127.247
501.6448, 3144.155
502.1269, 3154.168
502.6090, 3149.282
503.0911, 3135.394
503.5732, 3128.662
504.0554, 3136.791
504.5375, 3139.975
505.0196, 3126.732
505.5017, 3093.980
505.9838, 3087.404
506.4659, 3116.409
506.9481, 3149.896
507.4302, 3150.846
507.9123, 3119.069
508.3944, 3100.817
508.8765, 3108.104
509.3586, 3127.174
509.8408, 3131.592
510.3229, 3123.473
510.8050, 3118.146
511.2871, 3129.597
511.7692, 3147.115
512.2513, 3153.797
512.7335, 3148.741
513.2156, 3141.416
513.6977, 3137.510
514.1798, 3135.502
514.6619, 3133.554
515.1440, 3129.791
515.6262, 3127.761
516.1083, 3132.331
516.5904, 3139.921
517.0725, 3141.279
517.5546, 3128.077
518.0367, 3114.061
518.5189, 3104.154
519.0010, 3098.736
519.4831, 3094.416
519.9652, 3089.242
520.4473, 3087.167
520.9294, 3093.388
521.4116, 3112.399
521.8937, 3122.807
522.3758, 3117.664
522.8579, 3106.589
523.3400, 3118.192
523.8221, 3154.478
524.3043, 3180.843
524.7864, 3171.791
525.2685, 3140.098
525.7506, 3129.282
526.2327, 3139.869
526.7148, 3154.450
527.1970, 3158.807
527.6791, 3156.755
528.1612, 3154.808
528.6433, 3154.783
529.1254, 3154.558
529.6075, 3149.608
530.0897, 3143.398
530.5718, 3143.242
531.0539, 3156.659
531.5360, 3172.559
532.0181, 3186.516
532.5002, 3198.177
532.9824, 3209.095
533.4645, 3217.977
533.9466, 3227.178
534.4287, 3238.630
534.9108, 3259.445
535.3929, 3268.704
535.8751, 3260.918
536.3572, 3245.192
536.8393, 3236.893
537.3214, 3236.027
537.8035, 3243.098
538.2856, 3263.358
538.7678, 3291.290
539.2499, 3297.655
539.7320, 3281.452
540.2141, 3267.432
540.6962, 3281.981
541.1783, 3312.123
541.6605, 3325.015
542.1426, 3312.457
542.6247, 3299.236
543.1068, 3314.984
543.5889, 3344.972
544.0710, 3364.086
544.5532, 3349.133
545.0353, 3333.046
545.5174, 3333.196
545.9995, 3347.212
546.4816, 3361.869
546.9637, 3377.287
547.4459, 3389.316
547.9280, 3394.834
548.4101, 3389.692
548.8922, 3390.109
549.3743, 3399.052
549.8564, 3411.074
550.3386, 3420.420
550.8207, 3426.192
551.3028, 3432.091
551.7849, 3438.180
552.2670, 3445.097
552.7491, 3456.164
553.2313, 3471.648
553.7134, 3483.949
554.1955, 3485.589
554.6776, 3481.172
555.1597, 3485.324
555.6418, 3498.432
556.1240, 3510.538
556.6061, 3511.253
557.0882, 3506.283
557.5703, 3503.538
558.0524, 3504.404
558.5345, 3508.838
559.0167, 3520.818
559.4988, 3535.933
559.9809, 3545.664
560.4630, 3539.499
560.9451, 3535.633
561.4272, 3543.161
561.9094, 3562.487
562.3915, 3571.817
562.8736, 3559.246
563.3557, 3549.537
563.8378, 3558.482
564.3199, 3594.482
564.8021, 3619.657
565.2842, 3632.486
565.7663, 3636.124
566.2484, 3630.415
566.7305, 3615.594
567.2126, 3608.911
567.6948, 3615.434
568.1769, 3632.400
568.6590, 3659.026
569.1411, 3693.493
569.6232, 3723.953
570.1053, 3745.186
570.5875, 3757.936
571.0696, 3759.727
571.5517, 3749.841
572.0338, 3743.239
572.5159, 3747.432
572.9980, 3758.902
573.4802, 3774.604
573.9623, 3797.893
574.4444, 3820.123
574.9265, 3839.582
575.4086, 3857.003
575.8907, 3873.782
576.3729, 3894.495
576.8550, 3905.739
577.3371, 3895.475
577.8192, 3868.676
578.3013, 3885.115
578.7834, 3956.317
579.2656, 4023.681
579.7477, 4035.321
580.2298, 4002.307
580.7119, 3996.537
581.1940, 4025.292
581.6761, 4069.052
582.1583, 4112.393
582.6404, 4154.199
583.1225, 4192.323
583.6046, 4227.921
584.0867, 4257.231
584.5688, 4271.814
585.0510, 4277.270
585.5331, 4289.249
586.0152, 4321.543
586.4973, 4354.620
586.9794, 4376.805
587.4615, 4384.874
587.9437, 4405.978
588.4258, 4448.481
588.9079, 4497.198
589.3900, 4544.441
589.8721, 4594.400
590.3542, 4627.646
590.8364, 4635.967
591.3185, 4638.164
591.8006, 4665.633
592.2827, 4717.961
592.7648, 4770.627
593.2469, 4819.552
593.7291, 4861.359
594.2112, 4885.649
594.6933, 4894.945
595.1754, 4901.908
595.6575, 4908.827
596.1396, 4920.369
596.6218, 4945.866
597.1039, 4986.983
597.5860, 5019.537
598.0681, 5022.534
598.5502, 5016.853
599.0323, 5019.425
599.5145, 5043.807
599.9966, 5061.360
600.4787, 5073.380
600.9608, 5076.517
601.4429, 5061.886
601.9250, 5015.496
602.4072, 4985.373
602.8893, 4989.123
603.3714, 5016.385
603.8535, 5024.606
604.3356, 5013.550
604.8177, 4988.160
605.2999, 4942.597
605.7820, 4885.365
606.2641, 4846.000
606.7462, 4826.038
607.2283, 4803.560
607.7104, 4754.432
608.1926, 4693.868
608.6747, 4640.046
609.1568, 4597.889
609.6389, 4563.339
610.1210, 4544.061
610.6031, 4529.868
611.0853, 4504.587
611.5674, 4456.273
612.0495, 4406.392
612.5316, 4357.627
613.0137, 4310.259
613.4958, 4268.785
613.9780, 4234.193
614.4601, 4204.388
614.9422, 4182.217
615.4243, 4167.258
615.9064, 4136.298
616.3885, 4086.076
616.8707, 4038.832
617.3528, 4025.706
617.8349, 4032.236
618.3170, 4019.084
618.7991, 3974.178
619.2813, 3921.484
619.7634, 3876.260
620.2455, 3839.161
620.7276, 3810.744
621.2097, 3795.665
621.6918, 3785.340
622.1740, 3781.344
622.6561, 3780.933
623.1382, 3770.047
623.6203, 3736.184
624.1024, 3704.041
624.5845, 3682.005
625.0667, 3670.739
625.5488, 3660.989
626.0309, 3652.657
626.5130, 3645.927
626.9951, 3643.987
627.4772, 3645.677
627.9594, 3635.196
628.4415, 3608.142
628.9236, 3579.920
629.4057, 3571.723
629.8878, 3576.757
630.3699, 3580.002
630.8521, 3575.014
631.3342, 3567.813
631.8163, 3564.329
632.2984, 3562.155
632.7805, 3554.867
633.2626, 3532.057
633.7448, 3511.614
634.2269, 3502.225
634.7090, 3504.264
635.1911, 3502.929
635.6732, 3494.523
636.1553, 3487.831
636.6375, 3491.334
637.1196, 3508.365
637.6017, 3505.244
638.0838, 3476.212
638.5659, 3445.497
639.0480, 3446.542
639.5302, 3471.142
640.0123, 3486.159
640.4944, 3482.165
640.9765, 3470.238
641.4586, 3456.892
641.9407, 3444.682
642.4229, 3438.588
642.9050, 3448.026
643.3871, 3457.180
643.8692, 3458.577
644.3513, 3452.925
644.8334, 3446.342
645.3156, 3436.530
645.7977, 3429.231
646.2798, 3426.867
646.7619, 3429.948
647.2440, 3433.322
647.7261, 3438.031
648.2083, 3440.413
648.6904, 3433.984
649.1725, 3420.407
649.6546, 3417.497
650.1367, 3428.586
650.6188, 3443.512
651.1010, 3451.667
651.5831, 3454.618
652.0652, 3455.208
652.5473, 3451.164
653.0294, 3449.583
653.5115, 3459.938
653.9937, 3475.934
654.4758, 3483.438
654.9579, 3463.482
655.4400, 3450.015
655.9221, 3458.820
656.4042, 3486.573
656.8864, 3501.666
657.3685, 3500.236
657.8506, 3493.572
658.3327, 3484.988
658.8148, 3474.582
659.2969, 3471.433
659.7791, 3475.747
660.2612, 3485.817
660.7433, 3505.068
661.2254, 3528.229
661.7075, 3541.213
662.1896, 3538.986
662.6718, 3537.024
663.1539, 3552.291
663.6360, 3574.108
664.1181, 3587.507
664.6002, 3582.162
665.0823, 3574.644
665.5645, 3568.693
666.0466, 3563.445
666.5287, 3555.842
667.0108, 3540.095
667.4929, 3532.951
667.9750, 3542.968
668.4572, 3565.478
668.9393, 3571.672
669.4214, 3559.757
669.9035, 3548.195
670.3856, 3548.797
670.8677, 3558.348
671.3499, 3570.877
671.8320, 3586.016
672.3141, 3598.183
672.7962, 3601.352
673.2783, 3600.158
673.7604, 3598.801
674.2426, 3597.473
674.7247, 3597.882
675.2068, 3600.207
675.6889, 3604.740
676.1710, 3612.014
676.6531, 3624.454
677.1353, 3635.157
677.6174, 3642.849
678.0995, 3649.270
678.5816, 3657.842
679.0637, 3668.771
679.5458, 3680.339
680.0280, 3692.578
680.5101, 3704.549
680.9922, 3717.447
681.4743, 3729.567
681.9564, 3733.135
682.4385, 3709.362
682.9207, 3685.150
683.4028, 3690.345
683.8849, 3723.766
684.3670, 3746.104
684.8491, 3739.117
685.3312, 3721.093
685.8134, 3701.194
686.2955, 3678.708
686.7776, 3658.162
687.2597, 3640.086
687.7418, 3623.499
688.2239, 3608.674
688.7061, 3595.774
689.1882, 3578.770
689.6703, 3555.314
690.1524, 3534.058
690.6345, 3523.627
691.1166, 3524.138
691.5988, 3537.757
692.0809, 3579.525
692.5630, 3611.769
693.0451, 3595.491
693.5272, 3551.263
694.0093, 3521.716
694.4915, 3532.763
694.9736, 3545.890
695.4557, 3547.472
695.9378, 3541.533
696.4199, 3548.819
696.9020, 3575.534
697.3842, 3601.384
697.8663, 3619.299
698.3484, 3629.367
698.8305, 3629.116
699.3126, 3618.238
699.7947, 3609.142
700.2769, 3612.070
700.7590, 3622.481
701.2411, 3633.897
701.7232, 3645.781
702.2053, 3657.676
702.6874, 3671.957
703.1696, 3684.443
703.6517, 3689.885
704.1338, 3674.888
704.6159, 3678.218
705.0980, 3714.600
705.5801, 3761.133
706.0623, 3792.836
706.5444, 3806.591
707.0265, 3815.761
707.5086, 3818.815
707.9907, 3824.101
708.4728, 3850.268
708.9550, 3893.676
709.4371, 3933.676
709.9192, 3963.915
710.4013, 3986.538
710.8834, 3997.609
711.3655, 4002.584
711.8477, 4015.951
712.3298, 4049.099
712.8119, 4086.679
713.2940, 4124.993
713.7761, 4163.239
714.2582, 4196.104
714.7404, 4218.411
715.2225, 4243.818
715.7046, 4277.241
716.1867, 4318.477
716.6688, 4373.747
717.1509, 4444.309
717.6331, 4513.422
718.1152, 4562.122
718.5973, 4600.311
719.0794, 4648.983
719.5615, 4710.959
720.0436, 4775.183
720.5258, 4835.499
721.0079, 4894.177
721.4900, 4953.870
721.9721, 5010.765
722.4542, 5075.320
722.9363, 5153.379
723.4185, 5237.182
723.9006, 5320.040
724.3827, 5399.441
724.8648, 5486.443
725.3469, 5585.537
725.8290, 5686.984
726.3112, 5776.466
726.7933, 5853.934
727.2754, 5921.207
727.7575, 5977.757
728.2396, 6024.812
728.7217, 6057.273
729.2039, 6081.278
729.6860, 6111.322
730.1681, 6170.741
730.6502, 6219.259
731.1323, 6233.752
731.6144, 6220.679
732.0966, 6224.476
732.5787, 6265.891
733.0608, 6286.948
733.5429, 6263.209
734.0250, 6200.624
734.5071, 6143.998
734.9893, 6094.229
735.4714, 6025.750
735.9535, 5920.428
736.4356, 5785.583
736.9177, 5622.219
737.3998, 5433.317
737.8820, 5254.990
738.3641, 5115.323
738.8462, 4989.887
739.3283, 4858.433
739.8104, 4710.228
740.2925, 4586.596
740.7747, 4495.165
741.2568, 4421.087
741.7389, 4354.637
742.2210, 4296.840
742.7031, 4239.558
743.1852, 4181.713
743.6674, 4126.152
744.1495, 4071.977
744.6316, 4022.344
745.1137, 3985.870
745.5958, 3967.990
746.0779, 3954.049
746.5601, 3935.287
747.0422, 3912.814
747.5243, 3888.443
748.0064, 3853.424
748.4885, 3827.875
748.9706, 3821.212
749.4528, 3823.118
749.9349, 3815.254
750.4170, 3793.024
750.8991, 3779.093
751.3812, 3780.420
751.8633, 3790.728
752.3455, 3800.802
752.8276, 3809.008
753.3097, 3807.573
753.7918, 3786.681
754.2739, 3759.804
754.7560, 3734.319
755.2382, 3712.404
755.7203, 3702.101
756.2024, 3720.813
756.6845, 3736.654
757.1666, 3733.882
757.6487, 3715.930
758.1309, 3710.414
758.6130, 3723.471
759.0951, 3732.762
759.5772, 3726.263
760.0593, 3707.030
760.5414, 3691.291
761.0236, 3678.733
761.5057, 3666.869
761.9878, 3651.831
762.4699, 3637.784
762.9520, 3631.140
763.4341, 3632.347
763.9163, 3630.273
764.3984, 3615.611
764.8805, 3600.207
765.3626, 3591.397
765.8447, 3590.058
766.3268, 3591.757
766.8090, 3598.253
767.2911, 3604.210
767.7732, 3603.818
768.2553, 3598.058
768.7374, 3596.189
769.2195, 3598.979
769.7017, 3603.959
770.1838, 3613.960
770.6659, 3622.612
771.1480, 3618.321
771.6301, 3592.197
772.1122, 3575.930
772.5944, 3594.637
773.0765, 3621.283
773.5586, 3628.197
774.0407, 3599.392
774.5228, 3585.264
775.0049, 3591.513
775.4871, 3606.466
775.9692, 3616.042
776.4513, 3620.497
776.9334, 3620.727
777.4155, 3615.559
777.8976, 3610.387
778.3798, 3613.187
778.8619, 3619.798
779.3440, 3622.955
779.8261, 3613.817
780.3082, 3609.308
780.7903, 3619.246
781.2725, 3636.073
781.7546, 3646.746
782.2367, 3651.605
782.7188, 3648.371
783.2009, 3633.371
783.6830, 3614.117
784.1652, 3607.528
784.6473, 3612.244
785.1294, 3616.557
785.6115, 3615.990
786.0936, 3613.453
786.5757, 3610.812
787.0579, 3608.777
787.5400, 3609.000
788.0221, 3615.196
788.5042, 3620.395
788.9863, 3622.000
789.4684, 3620.835
789.9506, 3619.220
790.4327, 3616.581
790.9148, 3615.242
791.3969, 3616.660
791.8790, 3619.340
792.3611, 3617.888
792.8433, 3612.986
793.3254, 3609.763
793.8075, 3612.470
794.2896, 3616.972
794.7717, 3621.603
795.2538, 3625.170
795.7360, 3622.731
796.2181, 3599.073
796.7002, 3583.631
797.1823, 3591.466
797.6644, 3618.439
798.1465, 3629.999
798.6287, 3621.074
799.1108, 3616.277
799.5929, 3631.455
800.0750, 3658.265
800.5571, 3670.715
801.0392, 3670.012
801.5214, 3665.052
802.0035, 3654.201
802.4856, 3647.051
802.9677, 3654.996
803.4498, 3677.156
803.9319, 3692.564
804.4141, 3696.984
804.8962, 3693.199
805.3783, 3679.142
805.8604, 3655.189
806.3425, 3639.879
806.8246, 3633.511
807.3068, 3632.913
807.7889, 3636.217
808.2710, 3643.776
808.7531, 3660.482
809.2352, 3685.180
809.7173, 3702.442
810.1995, 3694.132
810.6816, 3682.542
811.1637, 3686.702
811.6458, 3711.033
812.1279, 3714.981
812.6100, 3685.861
813.0922, 3652.472
813.5743, 3626.752
814.0564, 3608.977
814.5385, 3609.033
815.0206, 3627.714
815.5027, 3647.454
815.9849, 3652.908
816.4670, 3652.068
816.9491, 3655.720
817.4312, 3664.629
817.9133, 3675.659
818.3954, 3694.053
818.8776, 3708.595
819.3597, 3710.910
819.8418, 3699.617
820.3239, 3688.507
820.8060, 3675.792
821.2881, 3667.478
821.7703, 3671.604
822.2524, 3684.626
822.7345, 3684.024
823.2166, 3669.572
823.6987, 3659.944
824.1808, 3676.915
824.6630, 3701.113
825.1451, 3713.541
825.6272, 3711.657
826.1093, 3707.444
826.5914, 3695.540
827.0735, 3689.705
827.5557, 3699.110
828.0378, 3725.664
828.5199, 3744.157
829.0020, 3754.033
829.4841, 3757.399
829.9662, 3754.033
830.4484, 3745.726
830.9305, 3734.467
831.4126, 3720.603
831.8947, 3709.087
832.3768, 3703.828
832.8589, 3701.624
833.3411, 3699.346
833.8232, 3695.548
834.3053, 3700.106
834.7874, 3715.351
835.2695, 3734.881
835.7516, 3758.981
836.2338, 3786.438
836.7159, 3794.960
837.1980, 3784.539
837.6801, 3769.084
838.1622, 3751.215
838.6443, 3739.056
839.1265, 3746.902
839.6086, 3776.620
840.0907, 3796.824
840.5728, 3786.380
841.0549, 3774.127
841.5370, 3776.830
842.0192, 3796.036
842.5013, 3798.178
842.9834, 3778.735
843.4655, 3763.337
843.9476, 3775.620
844.4298, 3803.942
844.9119, 3823.129
845.3940, 3832.331
845.8762, 3831.669
846.3583, 3806.536
846.8404, 3783.447
847.3225, 3781.838
847.8046, 3804.910
848.2867, 3827.398
848.7689, 3852.438
849.2510, 3870.043
849.7331, 3872.297
850.2152, 3861.986
850.6973, 3857.970
851.1794, 3860.252
851.6616, 3868.331
852.1437, 3889.163
852.6258, 3910.636
853.1079, 3917.373
853.5900, 3910.919
854.0721, 3909.456
854.5543, 3922.212
855.0364, 3937.800
855.5185, 3952.221
856.0006, 3965.575
856.4827, 3980.873
856.9648, 3999.376
857.4470, 4011.558
857.9291, 4011.761
858.4112, 4002.821
858.8933, 3980.237
859.3754, 3950.554
859.8575, 3943.276
860.3397, 4006.638
860.8218, 4065.050
861.3039, 4071.426
861.7860, 4033.123
862.2681, 4012.332
862.7502, 4010.363
863.2324, 4024.667
863.7145, 4063.784
864.1966, 4112.354
864.6787, 4118.563
865.1608, 4089.332
865.6429, 4066.929
866.1251, 4083.675
866.6072, 4105.188
867.0893, 4103.367
867.5714, 4085.318
868.0535, 4070.776
868.5356, 4062.469
869.0178, 4060.652
869.4999, 4068.466
869.9820, 4081.071
870.4641, 4084.584
870.9462, 4079.174
871.4283, 4077.616
871.9105, 4088.140
872.3926, 4096.866
872.8747, 4077.829
873.3568, 4045.091
873.8389, 4026.046
874.3210, 4042.357
874.8032, 4059.254
875.2853, 4067.597
875.7674, 4072.039
876.2495, 4080.827
876.7316, 4097.297
877.2137, 4098.094
877.6959, 4074.152
878.1780, 4047.849
878.6601, 4058.799
879.1422, 4091.177
879.6243, 4108.373
880.1064, 4095.064
880.5886, 4078.752
881.0707, 4067.882
881.5528, 4064.206
882.0349, 4071.294
882.5170, 4098.515
882.9991, 4111.391
883.4813, 4104.606
883.9634, 4093.799
884.4455, 4100.284
884.9276, 4117.852
885.4097, 4119.415
885.8918, 4099.650
886.3740, 4083.623
886.8561, 4095.206
887.3382, 4116.053
887.8203, 4129.935
888.3024, 4132.154
888.7845, 4135.148
889.2667, 4136.888
889.7488, 4143.188
890.2309, 4161.805
890.7130, 4190.776
891.1951, 4208.755
891.6772, 4215.427
892.1594, 4215.741
892.6415, 4208.608
893.1236, 4200.285
893.6057, 4196.194
894.0878, 4196.725
894.5699, 4201.103
895.0521, 4215.949
895.5342, 4226.465
896.0163, 4225.320
896.4984, 4214.293
896.9805, 4205.742
897.4626, 4199.481
897.9448, 4205.746
898.4269, 4245.108
898.9090, 4290.270
899.3911, 4304.776
899.8732, 4295.642
900.3553, 4289.170
900.8375, 4302.873
901.3196, 4311.176
901.8017, 4303.537
902.2838, 4286.511
902.7659, 4277.975
903.2480, 4278.122
903.7302, 4286.750
904.2123, 4308.224
904.6944, 4330.562
905.1765, 4332.752
905.6586, 4323.103
906.1407, 4319.363
906.6229, 4328.976
907.1050, 4344.283
907.5871, 4375.625
908.0692, 4405.101
908.5513, 4405.182
909.0334, 4366.191
909.5156, 4345.618
909.9977, 4352.586
910.4798, 4372.149
910.9619, 4392.913
911.4440, 4410.698
911.9261, 4414.897
912.4083, 4400.438
912.8904, 4386.584
913.3725, 4378.263
913.8546, 4377.509
914.3367, 4388.514
914.8188, 4418.371
915.3010, 4426.860
915.7831, 4408.396
916.2652, 4389.275
916.7473, 4393.270
917.2294, 4412.090
917.7115, 4427.168
918.1937, 4437.632
918.6758, 4447.308
919.1579, 4459.903
919.6400, 4470.895
920.1221, 4477.213
920.6042, 4479.047
921.0864, 4480.132
921.5685, 4480.405
922.0506, 4480.062
922.5327, 4478.641
923.0148, 4477.025
923.4969, 4480.446
923.9791, 4486.372
924.4612, 4484.977
924.9433, 4461.038
925.4254, 4439.268
925.9075, 4434.482
926.3896, 4441.042
926.8718, 4442.075
927.3539, 4434.149
927.8360, 4430.192
928.3181, 4433.114
928.8002, 4439.875
929.2823, 4446.133
929.7645, 4451.941
930.2466, 4457.450
930.7287, 4462.695
931.2108, 4467.378
931.6929, 4471.033
932.1750, 4474.127
932.6572, 4477.000
933.1393, 4479.053
933.6214, 4483.905
934.1035, 4494.488
934.5856, 4500.061
935.0677, 4483.322
935.5499, 4454.635
936.0320, 4442.708
936.5141, 4449.985
936.9962, 4463.809
937.4783, 4482.327
937.9604, 4500.171
938.4426, 4515.188
938.9247, 4527.328
939.4068, 4529.304
939.8889, 4518.157
940.3710, 4506.529
940.8531, 4504.102
941.3353, 4503.500
941.8174, 4476.963
942.2995, 4433.130
942.7816, 4406.706
943.2637, 4432.260
943.7458, 4461.238
944.2280, 4470.800
944.7101, 4466.549
945.1922, 4464.702
945.6743, 4466.311
946.1564, 4466.092
946.6385, 4461.683
947.1207, 4458.219
947.6028, 4465.989
948.0849, 4480.666
948.5670, 4492.091
949.0491, 4496.826
949.5313, 4500.435
950.0134, 4508.762
950.4955, 4514.851
950.9776, 4512.000
951.4597, 4497.256
951.9418, 4484.592
952.4240, 4473.905
952.9061, 4465.729
953.3882, 4461.836
953.8703, 4460.360
954.3524, 4454.368
954.8345, 4444.637
955.3167, 4446.760
955.7988, 4489.229
956.2809, 4523.729
956.7630, 4521.396
957.2451, 4490.271
957.7272, 4480.355
958.2094, 4494.741
958.6915, 4505.083
959.1736, 4498.708
959.6557, 4483.988
960.1378, 4470.210
960.6199, 4458.535
961.1021, 4450.955
961.5842, 4452.445
962.0663, 4452.849
962.5484, 4449.709
963.0305, 4444.544
963.5126, 4437.737
963.9948, 4428.729
964.4769, 4428.559
964.9590, 4440.060
965.4411, 4451.254
965.9232, 4446.856
966.4053, 4436.314
966.8875, 4431.415
967.3696, 4434.779
967.8517, 4439.263
968.3338, 4445.083
968.8159, 4449.648
969.2980, 4452.299
969.7802, 4452.779
970.2623, 4443.785
970.7444, 4426.030
971.2265, 4417.140
971.7086, 4445.507
972.1907, 4472.748
972.6729, 4456.119
973.1550, 4408.819
973.6371, 4378.139
974.1192, 4382.205
974.6013, 4385.726
975.0834, 4381.271
975.5656, 4375.279
976.0477, 4384.202
976.5298, 4403.503
977.0119, 4410.553
977.4940, 4397.063
977.9761, 4380.222
978.4583, 4371.319
978.9404, 4366.276
979.4225, 4360.714
979.9046, 4352.713
980.3867, 4349.497
980.8688, 4352.155
981.3510, 4356.723
981.8331, 4363.539
982.3152, 4369.300
982.7973, 4359.793
983.2794, 4337.448
983.7615, 4323.663
984.2437, 4343.996
984.7258, 4361.772
985.2079, 4352.361
985.6900, 4325.404
986.1721, 4313.666
986.6542, 4319.361
987.1364, 4327.965
987.6185, 4336.945
988.1006, 4343.790
988.5827, 4343.486
989.0648, 4338.687
989.5469, 4334.639
990.0291, 4336.342
990.5112, 4331.943
990.9933, 4310.795
991.4754, 4289.646
991.9575, 4283.725
992.4396, 4293.541
992.9218, 4299.317
993.4039, 4300.297
993.8860, 4301.272
994.3681, 4307.408
994.8502, 4314.450
995.3323, 4319.602
995.8145, 4322.376
996.2966, 4319.100
996.7787, 4305.134
997.2608, 4292.166
997.7429, 4281.932
998.2250, 4276.459
998.7072, 4286.271
999.1893, 4306.886
999.6714, 4318.466
1000.154, 4312.186
1000.636, 4298.097
1001.118, 4270.873
1001.600, 4245.126
1002.082, 4240.980
1002.564, 4271.220
1003.046, 4286.081
1003.528, 4281.588
1004.010, 4272.855
1004.493, 4276.182
1004.975, 4284.553
1005.457, 4279.452
1005.939, 4261.410
1006.421, 4254.424
1006.903, 4286.435
1007.385, 4313.113
1007.867, 4316.205
1008.349, 4299.812
1008.832, 4275.362
1009.314, 4242.841
1009.796, 4226.189
1010.278, 4240.024
1010.760, 4261.292
1011.242, 4265.539
1011.724, 4259.800
1012.206, 4254.271
1012.689, 4248.889
1013.171, 4249.216
1013.653, 4259.055
1014.135, 4268.596
1014.617, 4267.399
1015.099, 4257.879
1015.581, 4251.115
1016.063, 4247.690
1016.545, 4248.228
1017.028, 4258.384
1017.510, 4267.842
1017.992, 4268.578
1018.474, 4262.142
1018.956, 4259.221
1019.438, 4260.367
1019.920, 4263.249
1020.402, 4268.635
1020.885, 4272.578
1021.367, 4263.981
1021.849, 4250.490
1022.331, 4247.769
1022.813, 4267.936
1023.295, 4282.313
1023.777, 4279.045
1024.259, 4272.353
1024.741, 4272.728
1025.224, 4280.211
1025.706, 4285.874
1026.188, 4289.689
1026.670, 4294.846
1027.152, 4308.352
1027.634, 4320.195
1028.116, 4320.797
1028.598, 4311.763
1029.080, 4304.147
1029.563, 4299.213
1030.045, 4294.566
1030.527, 4290.001
1031.009, 4284.984
1031.491, 4274.448
1031.973, 4263.342
1032.455, 4264.874
1032.937, 4285.827
1033.420, 4307.196
1033.902, 4324.782
1034.384, 4336.309
1034.866, 4339.972
1035.348, 4335.565
1035.830, 4326.191
1036.312, 4311.458
1036.794, 4301.626
1037.276, 4306.900
1037.759, 4317.345
1038.241, 4325.421
1038.723, 4330.128
1039.205, 4328.377
1039.687, 4312.313
1040.169, 4302.461
1040.651, 4301.174
1041.133, 4307.635
1041.615, 4326.682
1042.098, 4352.593
1042.580, 4364.988
1043.062, 4359.760
1043.544, 4350.648
1044.026, 4338.177
1044.508, 4330.999
1044.990, 4336.614
1045.472, 4354.072
1045.955, 4364.188
1046.437, 4366.290
1046.919, 4371.006
1047.401, 4388.871
1047.883, 4405.385
1048.365, 4399.460
1048.847, 4380.198
1049.329, 4365.025
1049.812, 4352.894
1050.294, 4356.031
1050.776, 4381.052
1051.258, 4410.465
1051.740, 4428.764
1052.222, 4436.085
1052.704, 4426.863
1053.186, 4401.557
1053.668, 4383.901
1054.151, 4388.926
1054.633, 4404.110
1055.115, 4428.477
1055.597, 4457.452
1056.079, 4471.678
1056.561, 4469.657
1057.043, 4472.860
1057.525, 4489.042
1058.007, 4509.361
1058.490, 4527.192
1058.972, 4541.113
1059.454, 4548.339
1059.936, 4541.942
1060.418, 4544.946
1060.900, 4558.226
1061.382, 4580.584
1061.864, 4618.629
1062.347, 4664.432
1062.829, 4686.270
1063.311, 4689.178
1063.793, 4699.475
1064.275, 4733.135
1064.757, 4774.247
1065.239, 4820.877
1065.721, 4869.630
1066.203, 4915.283
1066.686, 4958.080
1067.168, 4994.024
1067.650, 5020.499
1068.132, 5053.182
1068.614, 5111.776
1069.096, 5180.718
1069.578, 5244.397
1070.060, 5299.787
1070.542, 5366.823
1071.025, 5449.137
1071.507, 5535.041
1071.989, 5620.810
1072.471, 5707.510
1072.953, 5791.989
1073.435, 5882.398
1073.917, 6001.923
1074.399, 6171.413
1074.882, 6346.998
1075.364, 6509.857
1075.846, 6683.288
1076.328, 6889.387
1076.810, 7127.297
1077.292, 7388.019
1077.774, 7673.784
1078.256, 7992.512
1078.739, 8344.936
1079.221, 8738.963
1079.703, 9161.409
1080.185, 9626.387
1080.667, 10170.20
1081.149, 10794.41
1081.631, 11482.80
1082.113, 12231.63
1082.595, 13042.68
1083.078, 13908.17
1083.560, 14819.09
1084.042, 15757.60
1084.524, 16719.63
1085.006, 17721.87
1085.488, 18823.67
1085.970, 19891.65
1086.452, 20876.62
1086.934, 21782.73
1087.417, 22671.96
1087.899, 23522.37
1088.381, 24253.32
1088.863, 24832.34
1089.345, 25286.02
1089.827, 25660.04
1090.309, 25880.19
1090.791, 25895.39
1091.274, 25713.27
1091.756, 25237.32
1092.238, 24464.37
1092.720, 23452.05
1093.202, 22158.11
1093.684, 20709.76
1094.166, 19157.49
1094.648, 17553.52
1095.130, 16043.77
1095.613, 14620.72
1096.095, 13327.72
1096.577, 12175.92
1097.059, 11141.84
1097.541, 10202.50
1098.023, 9370.830
1098.505, 8669.928
1098.987, 8107.901
1099.470, 7612.546
1099.952, 7160.190
1100.434, 6770.954
1100.916, 6464.771
1101.398, 6224.606
1101.880, 6008.664
1102.362, 5818.102
1102.844, 5654.306
1103.327, 5520.617
1103.809, 5408.714
1104.291, 5323.177
1104.773, 5250.541
1105.255, 5177.848
1105.737, 5103.812
1106.219, 5036.751
1106.701, 4976.141
1107.183, 4923.485
1107.666, 4879.023
1108.148, 4842.676
1108.630, 4818.886
1109.112, 4802.856
1109.594, 4781.354
1110.076, 4754.146
1110.558, 4718.075
1111.040, 4669.475
1111.522, 4623.019
1112.005, 4591.063
1112.487, 4573.943
1112.969, 4579.855
1113.451, 4608.732
1113.933, 4621.048
1114.415, 4603.174
1114.897, 4575.994
1115.379, 4541.082
1115.862, 4505.560
1116.344, 4488.174
1116.826, 4484.175
1117.308, 4479.663
1117.790, 4470.658
1118.272, 4461.921
1118.754, 4456.640
1119.236, 4451.123
1119.719, 4442.159
1120.201, 4430.500
1120.683, 4422.993
1121.165, 4419.749
1121.647, 4421.980
1122.129, 4441.231
1122.611, 4453.713
1123.093, 4441.338
1123.575, 4413.994
1124.057, 4384.981
1124.540, 4350.510
1125.022, 4337.382
1125.504, 4348.104
1125.986, 4365.862
1126.468, 4388.019
1126.950, 4401.314
1127.432, 4382.059
1127.914, 4339.165
1128.397, 4319.370
1128.879, 4337.229
1129.361, 4344.014
1129.843, 4327.566
1130.325, 4308.115
1130.807, 4315.575
1131.289, 4336.406
1131.771, 4350.192
1132.254, 4353.953
1132.736, 4353.029
1133.218, 4347.706
1133.700, 4338.835
1134.182, 4322.988
1134.664, 4307.353
1135.146, 4315.228
1135.628, 4338.156
1136.110, 4350.851
1136.593, 4341.968
1137.075, 4333.059
1137.557, 4333.797
1138.039, 4335.266
1138.521, 4330.445
1139.003, 4320.909
1139.485, 4323.755
1139.967, 4337.066
1140.449, 4347.044
1140.932, 4343.040
1141.414, 4337.787
1141.896, 4336.479
1142.378, 4338.433
1142.860, 4343.988
1143.342, 4353.968
1143.824, 4357.650
1144.306, 4354.506
1144.789, 4347.238
1145.271, 4333.007
1145.753, 4319.981
1146.235, 4316.414
1146.717, 4319.512
1147.199, 4316.878
1147.681, 4305.781
1148.163, 4299.774
1148.646, 4300.182
1149.128, 4309.421
1149.610, 4341.435
1150.092, 4376.533
1150.574, 4392.280
1151.056, 4386.197
1151.538, 4370.738
1152.020, 4338.991
1152.502, 4321.957
1152.984, 4332.737
1153.467, 4354.939
1153.949, 4365.749
1154.431, 4369.037
1154.913, 4371.598
1155.395, 4376.323
1155.877, 4373.037
1156.359, 4356.321
1156.841, 4340.728
1157.324, 4332.743
1157.806, 4331.325
1158.288, 4335.167
1158.770, 4343.275
1159.252, 4353.249
1159.734, 4368.178
1160.216, 4377.989
1160.698, 4381.649
1161.181, 4379.072
1161.663, 4364.189
1162.145, 4342.052
1162.627, 4345.196
1163.109, 4368.628
1163.591, 4384.133
1164.073, 4365.781
1164.555, 4350.935
1165.037, 4353.221
1165.520, 4364.455
1166.002, 4380.433
1166.484, 4399.320
1166.966, 4395.583
1167.448, 4368.569
1167.930, 4344.154
1168.412, 4336.902
1168.894, 4339.196
1169.376, 4353.159
1169.859, 4371.437
1170.341, 4376.893
1170.823, 4369.858
1171.305, 4369.403
1171.787, 4379.277
1172.269, 4389.776
1172.751, 4393.316
1173.233, 4394.170
1173.716, 4397.250
1174.198, 4400.971
1174.680, 4389.902
1175.162, 4362.503
1175.644, 4359.225
1176.126, 4399.947
1176.608, 4439.861
1177.090, 4431.771
1177.573, 4404.676
1178.055, 4386.317
1178.537, 4378.888
1179.019, 4380.142
1179.501, 4391.271
1179.983, 4400.626
1180.465, 4403.668
1180.947, 4401.825
1181.429, 4389.697
1181.911, 4376.836
1182.394, 4379.188
1182.876, 4405.249
1183.358, 4418.376
1183.840, 4416.467
1184.322, 4413.533
1184.804, 4422.600
1185.286, 4432.399
1185.768, 4423.893
1186.251, 4405.944
1186.733, 4397.971
1187.215, 4410.838
1187.697, 4414.882
1188.179, 4407.421
1188.661, 4398.542
1189.143, 4394.310
1189.625, 4395.627
1190.108, 4407.571
1190.590, 4426.599
1191.072, 4440.442
1191.554, 4449.468
1192.036, 4445.992
1192.518, 4425.467
1193.000, 4403.266
1193.482, 4397.623
1193.964, 4400.628
1194.447, 4400.653
1194.929, 4397.314
1195.411, 4395.435
1195.893, 4397.732
1196.375, 4396.867
1196.857, 4388.816
1197.339, 4383.336
1197.821, 4399.677
1198.303, 4426.060
1198.786, 4442.362
1199.268, 4445.911
1199.750, 4448.105
1200.232, 4455.018
1200.714, 4452.989
1201.196, 4435.562
1201.678, 4411.544
1202.160, 4391.611
1202.643, 4378.559
1203.125, 4380.633
1203.607, 4402.605
1204.089, 4419.785
1204.571, 4430.980
1205.053, 4431.290
1205.535, 4415.073
1206.017, 4391.118
1206.500, 4372.986
1206.982, 4362.764
1207.464, 4366.444
1207.946, 4391.668
1208.428, 4411.820
1208.910, 4421.369
1209.392, 4429.415
1209.874, 4443.247
1210.356, 4457.518
1210.839, 4455.644
1211.321, 4443.117
1211.803, 4433.456
1212.285, 4429.556
1212.767, 4432.723
1213.249, 4447.158
1213.731, 4459.659
1214.213, 4455.630
1214.695, 4444.239
1215.178, 4458.864
1215.660, 4488.609
1216.142, 4500.727
1216.624, 4459.872
1217.106, 4435.717
1217.588, 4438.065
1218.070, 4452.147
1218.552, 4473.978
1219.035, 4494.869
1219.517, 4485.800
1219.999, 4454.269
1220.481, 4432.501
1220.963, 4443.000
1221.445, 4448.628
1221.927, 4442.584
1222.409, 4434.498
1222.891, 4435.438
1223.374, 4441.864
1223.856, 4444.812
1224.338, 4444.950
1224.820, 4449.124
1225.302, 4466.735
1225.784, 4478.664
1226.266, 4482.760
1226.748, 4479.481
1227.230, 4463.766
1227.713, 4443.243
1228.195, 4433.820
1228.677, 4436.045
1229.159, 4440.189
1229.641, 4447.749
1230.123, 4448.938
1230.605, 4439.496
1231.087, 4428.321
1231.570, 4429.072
1232.052, 4436.872
1232.534, 4442.592
1233.016, 4445.176
1233.498, 4452.181
1233.980, 4468.873
1234.462, 4481.144
1234.944, 4484.160
1235.427, 4483.858
1235.909, 4490.464
1236.391, 4499.386
1236.873, 4502.934
1237.355, 4499.770
1237.837, 4495.918
1238.319, 4491.723
1238.801, 4486.612
1239.283, 4477.086
1239.766, 4473.860
1240.248, 4508.201
1240.730, 4552.806
1241.212, 4563.715
1241.694, 4527.898
1242.176, 4503.184
1242.658, 4494.155
1243.140, 4488.118
1243.622, 4479.243
1244.105, 4473.058
1244.587, 4481.360
1245.069, 4494.848
1245.551, 4499.984
1246.033, 4492.028
1246.515, 4490.936
1246.997, 4498.573
1247.479, 4503.441
1247.962, 4498.477
1248.444, 4492.104
1248.926, 4491.432
1249.408, 4497.294
1249.890, 4515.859
1250.372, 4553.340
1250.854, 4554.746
1251.336, 4515.417
1251.818, 4490.268
1252.301, 4519.845
1252.783, 4554.405
1253.265, 4535.357
1253.747, 4497.087
1254.229, 4486.910
1254.711, 4510.872
1255.193, 4520.514
1255.675, 4515.600
1256.157, 4514.719
1256.640, 4532.733
1257.122, 4551.734
1257.604, 4558.607
1258.086, 4558.141
1258.568, 4557.918
1259.050, 4558.789
1259.532, 4543.208
1260.014, 4512.749
1260.497, 4494.273
1260.979, 4514.235
1261.461, 4536.849
1261.943, 4542.097
1262.425, 4539.626
1262.907, 4541.042
1263.389, 4546.006
1263.871, 4529.249
1264.354, 4494.923
1264.836, 4476.310
1265.318, 4512.979
1265.800, 4541.870
1266.282, 4531.086
1266.764, 4509.920
1267.246, 4504.775
1267.728, 4512.718
1268.210, 4515.958
1268.693, 4514.858
1269.175, 4513.752
1269.657, 4507.966
1270.139, 4513.332
1270.621, 4539.593
1271.103, 4566.253
1271.585, 4572.603
1272.067, 4562.807
1272.549, 4542.917
1273.032, 4517.113
1273.514, 4500.867
1273.996, 4500.280
1274.478, 4513.037
1274.960, 4544.816
1275.442, 4574.678
1275.924, 4581.757
1276.406, 4572.445
1276.889, 4553.806
1277.371, 4528.569
1277.853, 4505.666
1278.335, 4483.276
1278.817, 4471.804
1279.299, 4473.188
1279.781, 4481.441
1280.263, 4498.595
1280.745, 4513.396
1281.228, 4507.297
1281.710, 4487.223
1282.192, 4479.109
1282.674, 4486.581
1283.156, 4497.611
1283.638, 4512.093
1284.120, 4521.623
1284.602, 4515.951
1285.084, 4505.624
1285.567, 4495.073
1286.049, 4488.091
1286.531, 4494.115
1287.013, 4514.678
1287.495, 4527.901
1287.977, 4532.019
1288.459, 4526.433
1288.941, 4489.770
1289.424, 4466.167
1289.906, 4500.018
1290.388, 4551.021
1290.870, 4555.596
1291.352, 4520.106
1291.834, 4492.040
1292.316, 4475.299
1292.798, 4465.959
1293.281, 4469.736
1293.763, 4469.876
1294.245, 4457.672
1294.727, 4444.797
1295.209, 4453.431
1295.691, 4473.152
1296.173, 4469.704
1296.655, 4444.004
1297.137, 4426.192
1297.620, 4429.238
1298.102, 4441.060
1298.584, 4463.949
1299.066, 4485.513
1299.548, 4489.284
1300.030, 4482.897
1300.512, 4474.700
1300.994, 4466.915
1301.476, 4470.891
1301.959, 4497.089
1302.441, 4500.065
1302.923, 4469.602
1303.405, 4438.301
1303.887, 4438.282
1304.369, 4452.793
1304.851, 4472.000
1305.333, 4490.941
1305.816, 4496.020
1306.298, 4485.701
1306.780, 4476.620
1307.262, 4470.633
1307.744, 4467.435
1308.226, 4470.190
1308.708, 4472.209
1309.190, 4467.851
1309.672, 4460.727
1310.155, 4457.809
1310.637, 4458.017
1311.119, 4449.677
1311.601, 4432.681
1312.083, 4424.303
1312.565, 4441.218
1313.047, 4458.878
1313.529, 4468.980
1314.011, 4478.159
1314.494, 4500.228
1314.976, 4527.029
1315.458, 4536.627
##END=



