##NAMES=Bavsiite
##RRUFFID=R150042
##IDEAL CHEMISTRY=Ba_2_V^4+^_2_O_2_[Si_4_O_12_]
##LOCALITY=Gun Claim, Yukon Territory, Canada
##OWNER=RRUFF
##SOURCE=Gunnar Farber
##DESCRIPTION=Isolated aggregates of blueish crystals with good cleavage, associated with pale grey walstromite, pellyite, diopside, benitoite, suzukiite (R150039) and celsian
##STATUS=The identification of this mineral has been confirmed by single-crystal X-ray diffraction.
##URL=rruff.info/R150042
9.059570e+001, 1.036844e+003
9.107782e+001, 1.035338e+003
9.155994e+001, 1.034853e+003
9.204205e+001, 1.036118e+003
9.252417e+001, 1.037911e+003
9.300629e+001, 1.039843e+003
9.348840e+001, 1.036419e+003
9.397052e+001, 1.021441e+003
9.445264e+001, 9.934841e+002
9.493475e+001, 9.657047e+002
9.541687e+001, 9.404342e+002
9.589898e+001, 9.186356e+002
9.638110e+001, 8.992734e+002
9.686321e+001, 8.812693e+002
9.734533e+001, 8.634844e+002
9.782745e+001, 8.447416e+002
9.830956e+001, 8.294905e+002
9.879168e+001, 8.186082e+002
9.927380e+001, 8.091597e+002
9.975591e+001, 8.005546e+002
1.002380e+002, 7.925725e+002
1.007201e+002, 7.850402e+002
1.012023e+002, 7.779827e+002
1.016844e+002, 7.711688e+002
1.021665e+002, 7.638912e+002
1.026486e+002, 7.548322e+002
1.031307e+002, 7.459944e+002
1.036128e+002, 7.391689e+002
1.040950e+002, 7.343337e+002
1.045771e+002, 7.310321e+002
1.050592e+002, 7.287282e+002
1.055413e+002, 7.274464e+002
1.060234e+002, 7.276271e+002
1.065055e+002, 7.294406e+002
1.069877e+002, 7.328104e+002
1.074698e+002, 7.379141e+002
1.079519e+002, 7.477247e+002
1.084340e+002, 7.553896e+002
1.089161e+002, 7.581694e+002
1.093982e+002, 7.567018e+002
1.098804e+002, 7.527354e+002
1.103625e+002, 7.475827e+002
1.108446e+002, 7.411643e+002
1.113267e+002, 7.339601e+002
1.118088e+002, 7.259672e+002
1.122909e+002, 7.172730e+002
1.127731e+002, 7.075918e+002
1.132552e+002, 6.970627e+002
1.137373e+002, 6.861667e+002
1.142194e+002, 6.756995e+002
1.147015e+002, 6.656917e+002
1.151836e+002, 6.559743e+002
1.156658e+002, 6.467586e+002
1.161479e+002, 6.376860e+002
1.166300e+002, 6.282852e+002
1.171121e+002, 6.183320e+002
1.175942e+002, 6.082181e+002
1.180763e+002, 5.989941e+002
1.185584e+002, 5.907064e+002
1.190406e+002, 5.828622e+002
1.195227e+002, 5.751518e+002
1.200048e+002, 5.677576e+002
1.204869e+002, 5.610462e+002
1.209690e+002, 5.549683e+002
1.214511e+002, 5.500850e+002
1.219333e+002, 5.468520e+002
1.224154e+002, 5.454637e+002
1.228975e+002, 5.453580e+002
1.233796e+002, 5.463914e+002
1.238617e+002, 5.486828e+002
1.243438e+002, 5.510844e+002
1.248260e+002, 5.534807e+002
1.253081e+002, 5.555355e+002
1.257902e+002, 5.566760e+002
1.262723e+002, 5.563074e+002
1.267544e+002, 5.553859e+002
1.272365e+002, 5.560441e+002
1.277187e+002, 5.586702e+002
1.282008e+002, 5.624820e+002
1.286829e+002, 5.674067e+002
1.291650e+002, 5.731125e+002
1.296471e+002, 5.791122e+002
1.301292e+002, 5.850486e+002
1.306114e+002, 5.909866e+002
1.310935e+002, 5.978671e+002
1.315756e+002, 6.055233e+002
1.320577e+002, 6.144352e+002
1.325398e+002, 6.252028e+002
1.330219e+002, 6.374442e+002
1.335041e+002, 6.503043e+002
1.339862e+002, 6.632077e+002
1.344683e+002, 6.763739e+002
1.349504e+002, 6.881719e+002
1.354325e+002, 7.010536e+002
1.359146e+002, 7.110720e+002
1.363968e+002, 7.166462e+002
1.368789e+002, 7.173958e+002
1.373610e+002, 7.126613e+002
1.378431e+002, 7.007889e+002
1.383252e+002, 6.800158e+002
1.388073e+002, 6.594775e+002
1.392895e+002, 6.390066e+002
1.397716e+002, 6.192005e+002
1.402537e+002, 6.008104e+002
1.407358e+002, 5.841676e+002
1.412179e+002, 5.686352e+002
1.417000e+002, 5.529460e+002
1.421821e+002, 5.370302e+002
1.426643e+002, 5.236600e+002
1.431464e+002, 5.144696e+002
1.436285e+002, 5.088756e+002
1.441106e+002, 5.047574e+002
1.445927e+002, 5.019652e+002
1.450748e+002, 5.004118e+002
1.455570e+002, 4.995569e+002
1.460391e+002, 4.994121e+002
1.465212e+002, 5.005284e+002
1.470033e+002, 5.036158e+002
1.474854e+002, 5.088311e+002
1.479675e+002, 5.145579e+002
1.484497e+002, 5.205867e+002
1.489318e+002, 5.270857e+002
1.494139e+002, 5.342280e+002
1.498960e+002, 5.420157e+002
1.503781e+002, 5.503845e+002
1.508602e+002, 5.590850e+002
1.513424e+002, 5.679305e+002
1.518245e+002, 5.778164e+002
1.523066e+002, 5.910690e+002
1.527887e+002, 6.040027e+002
1.532708e+002, 6.140791e+002
1.537529e+002, 6.202507e+002
1.542351e+002, 6.229258e+002
1.547172e+002, 6.230048e+002
1.551993e+002, 6.183949e+002
1.556814e+002, 6.133304e+002
1.561635e+002, 6.076198e+002
1.566456e+002, 6.016901e+002
1.571278e+002, 5.958314e+002
1.576099e+002, 5.901217e+002
1.580920e+002, 5.848634e+002
1.585741e+002, 5.815186e+002
1.590562e+002, 5.801937e+002
1.595383e+002, 5.802784e+002
1.600205e+002, 5.821094e+002
1.605026e+002, 5.853024e+002
1.609847e+002, 5.889136e+002
1.614668e+002, 5.922092e+002
1.619489e+002, 5.956923e+002
1.624310e+002, 6.011012e+002
1.629131e+002, 6.089916e+002
1.633953e+002, 6.180131e+002
1.638774e+002, 6.271494e+002
1.643595e+002, 6.365216e+002
1.648416e+002, 6.472030e+002
1.653237e+002, 6.601176e+002
1.658058e+002, 6.749276e+002
1.662880e+002, 6.906301e+002
1.667701e+002, 7.080323e+002
1.672522e+002, 7.256655e+002
1.677343e+002, 7.427016e+002
1.682164e+002, 7.597404e+002
1.686985e+002, 7.731747e+002
1.691807e+002, 7.815439e+002
1.696628e+002, 7.849337e+002
1.701449e+002, 7.822697e+002
1.706270e+002, 7.724642e+002
1.711091e+002, 7.567371e+002
1.715912e+002, 7.373984e+002
1.720734e+002, 7.130016e+002
1.725555e+002, 6.873745e+002
1.730376e+002, 6.607350e+002
1.735197e+002, 6.341187e+002
1.740018e+002, 6.088906e+002
1.744839e+002, 5.860612e+002
1.749661e+002, 5.653352e+002
1.754482e+002, 5.452219e+002
1.759303e+002, 5.256653e+002
1.764124e+002, 5.068954e+002
1.768945e+002, 4.886912e+002
1.773766e+002, 4.713097e+002
1.778588e+002, 4.553950e+002
1.783409e+002, 4.414071e+002
1.788230e+002, 4.293324e+002
1.793051e+002, 4.178638e+002
1.797872e+002, 4.072969e+002
1.802693e+002, 3.970167e+002
1.807515e+002, 3.868668e+002
1.812336e+002, 3.768590e+002
1.817157e+002, 3.671228e+002
1.821978e+002, 3.576718e+002
1.826799e+002, 3.484109e+002
1.831620e+002, 3.406582e+002
1.836441e+002, 3.349343e+002
1.841263e+002, 3.298636e+002
1.846084e+002, 3.246751e+002
1.850905e+002, 3.194393e+002
1.855726e+002, 3.148602e+002
1.860547e+002, 3.117026e+002
1.865368e+002, 3.102148e+002
1.870190e+002, 3.085405e+002
1.875011e+002, 3.063676e+002
1.879832e+002, 3.042489e+002
1.884653e+002, 3.024546e+002
1.889474e+002, 3.010433e+002
1.894296e+002, 3.002081e+002
1.899117e+002, 3.003039e+002
1.903938e+002, 3.013257e+002
1.908759e+002, 3.023932e+002
1.913580e+002, 3.031960e+002
1.918401e+002, 3.040997e+002
1.923223e+002, 3.054422e+002
1.928044e+002, 3.072361e+002
1.932865e+002, 3.096302e+002
1.937686e+002, 3.131001e+002
1.942507e+002, 3.173685e+002
1.947328e+002, 3.217344e+002
1.952150e+002, 3.262851e+002
1.956971e+002, 3.307561e+002
1.961792e+002, 3.347619e+002
1.966613e+002, 3.384756e+002
1.971434e+002, 3.411897e+002
1.976255e+002, 3.428797e+002
1.981077e+002, 3.434082e+002
1.985898e+002, 3.420461e+002
1.990719e+002, 3.379709e+002
1.995540e+002, 3.315733e+002
2.000361e+002, 3.244387e+002
2.005182e+002, 3.158883e+002
2.010004e+002, 3.075641e+002
2.014825e+002, 3.003339e+002
2.019646e+002, 2.940070e+002
2.024467e+002, 2.881777e+002
2.029288e+002, 2.826035e+002
2.034109e+002, 2.772779e+002
2.038930e+002, 2.722564e+002
2.043752e+002, 2.673970e+002
2.048573e+002, 2.630967e+002
2.053394e+002, 2.595272e+002
2.058215e+002, 2.566422e+002
2.063036e+002, 2.543031e+002
2.067857e+002, 2.524994e+002
2.072679e+002, 2.512602e+002
2.077500e+002, 2.499940e+002
2.082321e+002, 2.484158e+002
2.087142e+002, 2.470739e+002
2.091963e+002, 2.462419e+002
2.096784e+002, 2.458256e+002
2.101606e+002, 2.455336e+002
2.106427e+002, 2.450804e+002
2.111248e+002, 2.444077e+002
2.116069e+002, 2.441252e+002
2.120890e+002, 2.443322e+002
2.125711e+002, 2.447873e+002
2.130533e+002, 2.455489e+002
2.135354e+002, 2.465117e+002
2.140175e+002, 2.474369e+002
2.144996e+002, 2.480948e+002
2.149817e+002, 2.484375e+002
2.154638e+002, 2.488439e+002
2.159460e+002, 2.492223e+002
2.164281e+002, 2.497265e+002
2.169102e+002, 2.505133e+002
2.173923e+002, 2.515314e+002
2.178744e+002, 2.525413e+002
2.183565e+002, 2.532684e+002
2.188387e+002, 2.536422e+002
2.193208e+002, 2.545677e+002
2.198029e+002, 2.565677e+002
2.202850e+002, 2.586295e+002
2.207671e+002, 2.601267e+002
2.212492e+002, 2.610529e+002
2.217314e+002, 2.617907e+002
2.222135e+002, 2.626491e+002
2.226956e+002, 2.636369e+002
2.231777e+002, 2.645655e+002
2.236598e+002, 2.655602e+002
2.241419e+002, 2.664095e+002
2.246240e+002, 2.669041e+002
2.251062e+002, 2.670470e+002
2.255883e+002, 2.670987e+002
2.260704e+002, 2.674432e+002
2.265525e+002, 2.679155e+002
2.270346e+002, 2.675233e+002
2.275167e+002, 2.653313e+002
2.279989e+002, 2.627932e+002
2.284810e+002, 2.613492e+002
2.289631e+002, 2.610938e+002
2.294452e+002, 2.610074e+002
2.299273e+002, 2.601064e+002
2.304094e+002, 2.588257e+002
2.308916e+002, 2.583772e+002
2.313737e+002, 2.595159e+002
2.318558e+002, 2.612709e+002
2.323379e+002, 2.625158e+002
2.328200e+002, 2.631692e+002
2.333021e+002, 2.638766e+002
2.337843e+002, 2.649547e+002
2.342664e+002, 2.663831e+002
2.347485e+002, 2.681960e+002
2.352306e+002, 2.704550e+002
2.357127e+002, 2.730592e+002
2.361948e+002, 2.758891e+002
2.366770e+002, 2.789591e+002
2.371591e+002, 2.822714e+002
2.376412e+002, 2.859621e+002
2.381233e+002, 2.898713e+002
2.386054e+002, 2.938432e+002
2.390875e+002, 2.977432e+002
2.395697e+002, 3.018170e+002
2.400518e+002, 3.065291e+002
2.405339e+002, 3.121198e+002
2.410160e+002, 3.176506e+002
2.414981e+002, 3.225131e+002
2.419802e+002, 3.272453e+002
2.424624e+002, 3.323321e+002
2.429445e+002, 3.379093e+002
2.434266e+002, 3.439416e+002
2.439087e+002, 3.506192e+002
2.443908e+002, 3.584920e+002
2.448729e+002, 3.654337e+002
2.453550e+002, 3.704616e+002
2.458372e+002, 3.745860e+002
2.463193e+002, 3.786709e+002
2.468014e+002, 3.830314e+002
2.472835e+002, 3.872049e+002
2.477656e+002, 3.905817e+002
2.482477e+002, 3.933998e+002
2.487299e+002, 3.946664e+002
2.492120e+002, 3.940440e+002
2.496941e+002, 3.921512e+002
2.501762e+002, 3.893323e+002
2.506583e+002, 3.856990e+002
2.511404e+002, 3.813185e+002
2.516226e+002, 3.761854e+002
2.521047e+002, 3.700504e+002
2.525868e+002, 3.637448e+002
2.530689e+002, 3.568559e+002
2.535510e+002, 3.501667e+002
2.540331e+002, 3.441624e+002
2.545153e+002, 3.389933e+002
2.549974e+002, 3.345021e+002
2.554795e+002, 3.304960e+002
2.559616e+002, 3.272816e+002
2.564437e+002, 3.239344e+002
2.569258e+002, 3.204977e+002
2.574080e+002, 3.169147e+002
2.578901e+002, 3.130011e+002
2.583722e+002, 3.087971e+002
2.588543e+002, 3.046264e+002
2.593364e+002, 3.010600e+002
2.598185e+002, 2.988505e+002
2.603007e+002, 2.952395e+002
2.607828e+002, 2.891903e+002
2.612649e+002, 2.828121e+002
2.617470e+002, 2.774258e+002
2.622291e+002, 2.731316e+002
2.627112e+002, 2.692409e+002
2.631934e+002, 2.649341e+002
2.636755e+002, 2.600513e+002
2.641576e+002, 2.553142e+002
2.646397e+002, 2.508486e+002
2.651218e+002, 2.464077e+002
2.656039e+002, 2.416340e+002
2.660861e+002, 2.366791e+002
2.665682e+002, 2.321495e+002
2.670503e+002, 2.286883e+002
2.675324e+002, 2.264852e+002
2.680145e+002, 2.242811e+002
2.684966e+002, 2.220432e+002
2.689788e+002, 2.198337e+002
2.694609e+002, 2.176776e+002
2.699430e+002, 2.155828e+002
2.704251e+002, 2.135453e+002
2.709072e+002, 2.115388e+002
2.713893e+002, 2.095683e+002
2.718715e+002, 2.079070e+002
2.723536e+002, 2.064024e+002
2.728357e+002, 2.052768e+002
2.733178e+002, 2.048919e+002
2.737999e+002, 2.050064e+002
2.742820e+002, 2.049667e+002
2.747642e+002, 2.042848e+002
2.752463e+002, 2.030427e+002
2.757284e+002, 2.022905e+002
2.762105e+002, 2.022173e+002
2.766926e+002, 2.022921e+002
2.771747e+002, 2.022720e+002
2.776568e+002, 2.022621e+002
2.781389e+002, 2.025759e+002
2.786211e+002, 2.034496e+002
2.791032e+002, 2.046806e+002
2.795853e+002, 2.053746e+002
2.800674e+002, 2.050322e+002
2.805495e+002, 2.048566e+002
2.810316e+002, 2.053118e+002
2.815138e+002, 2.061168e+002
2.819959e+002, 2.067212e+002
2.824780e+002, 2.068487e+002
2.829601e+002, 2.067719e+002
2.834422e+002, 2.071974e+002
2.839243e+002, 2.081693e+002
2.844065e+002, 2.094454e+002
2.848886e+002, 2.112627e+002
2.853707e+002, 2.132846e+002
2.858528e+002, 2.149108e+002
2.863349e+002, 2.158977e+002
2.868170e+002, 2.167457e+002
2.872992e+002, 2.183595e+002
2.877813e+002, 2.208904e+002
2.882634e+002, 2.235483e+002
2.887455e+002, 2.264322e+002
2.892276e+002, 2.292823e+002
2.897097e+002, 2.317090e+002
2.901919e+002, 2.336156e+002
2.906740e+002, 2.353267e+002
2.911561e+002, 2.374588e+002
2.916382e+002, 2.401940e+002
2.921203e+002, 2.416678e+002
2.926024e+002, 2.410539e+002
2.930846e+002, 2.394548e+002
2.935667e+002, 2.376838e+002
2.940488e+002, 2.358620e+002
2.945309e+002, 2.343602e+002
2.950130e+002, 2.336669e+002
2.954951e+002, 2.337916e+002
2.959773e+002, 2.334914e+002
2.964594e+002, 2.322297e+002
2.969415e+002, 2.308846e+002
2.974236e+002, 2.299912e+002
2.979057e+002, 2.296029e+002
2.983878e+002, 2.298112e+002
2.988700e+002, 2.307930e+002
2.993521e+002, 2.324910e+002
2.998342e+002, 2.341993e+002
3.003163e+002, 2.355689e+002
3.007984e+002, 2.372437e+002
3.012805e+002, 2.398494e+002
3.017627e+002, 2.431892e+002
3.022448e+002, 2.464158e+002
3.027269e+002, 2.491439e+002
3.032090e+002, 2.514148e+002
3.036911e+002, 2.534286e+002
3.041732e+002, 2.550509e+002
3.046554e+002, 2.566808e+002
3.051375e+002, 2.588795e+002
3.056196e+002, 2.612528e+002
3.061017e+002, 2.627588e+002
3.065838e+002, 2.629645e+002
3.070659e+002, 2.621907e+002
3.075481e+002, 2.611676e+002
3.080302e+002, 2.602884e+002
3.085123e+002, 2.580651e+002
3.089944e+002, 2.533760e+002
3.094765e+002, 2.471669e+002
3.099586e+002, 2.409842e+002
3.104408e+002, 2.351976e+002
3.109229e+002, 2.296825e+002
3.114050e+002, 2.243455e+002
3.118871e+002, 2.191489e+002
3.123692e+002, 2.142121e+002
3.128513e+002, 2.093106e+002
3.133335e+002, 2.048007e+002
3.138156e+002, 2.013555e+002
3.142977e+002, 1.991246e+002
3.147798e+002, 1.968779e+002
3.152619e+002, 1.932300e+002
3.157440e+002, 1.883028e+002
3.162262e+002, 1.842280e+002
3.167083e+002, 1.815220e+002
3.171904e+002, 1.794866e+002
3.176725e+002, 1.776809e+002
3.181546e+002, 1.760579e+002
3.186367e+002, 1.744976e+002
3.191188e+002, 1.728382e+002
3.196010e+002, 1.712083e+002
3.200831e+002, 1.700511e+002
3.205652e+002, 1.699626e+002
3.210473e+002, 1.697370e+002
3.215294e+002, 1.683461e+002
3.220115e+002, 1.661747e+002
3.224937e+002, 1.646922e+002
3.229758e+002, 1.648426e+002
3.234579e+002, 1.657986e+002
3.239400e+002, 1.653387e+002
3.244221e+002, 1.627131e+002
3.249042e+002, 1.605515e+002
3.253864e+002, 1.601774e+002
3.258685e+002, 1.608401e+002
3.263506e+002, 1.611030e+002
3.268327e+002, 1.604843e+002
3.273148e+002, 1.594658e+002
3.277969e+002, 1.587518e+002
3.282791e+002, 1.583479e+002
3.287612e+002, 1.580975e+002
3.292433e+002, 1.582605e+002
3.297254e+002, 1.584319e+002
3.302075e+002, 1.579535e+002
3.306896e+002, 1.567114e+002
3.311718e+002, 1.555601e+002
3.316539e+002, 1.555231e+002
3.321360e+002, 1.567076e+002
3.326181e+002, 1.571009e+002
3.331002e+002, 1.559037e+002
3.335823e+002, 1.544539e+002
3.340645e+002, 1.536780e+002
3.345466e+002, 1.535919e+002
3.350287e+002, 1.538025e+002
3.355108e+002, 1.541011e+002
3.359929e+002, 1.544674e+002
3.364750e+002, 1.547492e+002
3.369572e+002, 1.550986e+002
3.374393e+002, 1.552230e+002
3.379214e+002, 1.548204e+002
3.384035e+002, 1.540915e+002
3.388856e+002, 1.535359e+002
3.393677e+002, 1.534086e+002
3.398499e+002, 1.535372e+002
3.403320e+002, 1.534258e+002
3.408141e+002, 1.527074e+002
3.412962e+002, 1.524328e+002
3.417783e+002, 1.532565e+002
3.422604e+002, 1.544708e+002
3.427426e+002, 1.551083e+002
3.432247e+002, 1.548906e+002
3.437068e+002, 1.542924e+002
3.441889e+002, 1.539143e+002
3.446710e+002, 1.537298e+002
3.451531e+002, 1.539868e+002
3.456353e+002, 1.551980e+002
3.461174e+002, 1.564971e+002
3.465995e+002, 1.570982e+002
3.470816e+002, 1.570094e+002
3.475637e+002, 1.569388e+002
3.480458e+002, 1.576041e+002
3.485280e+002, 1.590723e+002
3.490101e+002, 1.596473e+002
3.494922e+002, 1.582813e+002
3.499743e+002, 1.572307e+002
3.504564e+002, 1.576688e+002
3.509385e+002, 1.591914e+002
3.514207e+002, 1.607954e+002
3.519028e+002, 1.619073e+002
3.523849e+002, 1.626205e+002
3.528670e+002, 1.633366e+002
3.533491e+002, 1.642738e+002
3.538312e+002, 1.649437e+002
3.543134e+002, 1.649800e+002
3.547955e+002, 1.648382e+002
3.552776e+002, 1.651011e+002
3.557597e+002, 1.659629e+002
3.562418e+002, 1.670987e+002
3.567239e+002, 1.679737e+002
3.572061e+002, 1.685062e+002
3.576882e+002, 1.689037e+002
3.581703e+002, 1.690361e+002
3.586524e+002, 1.691433e+002
3.591345e+002, 1.695503e+002
3.596166e+002, 1.701792e+002
3.600987e+002, 1.705343e+002
3.605808e+002, 1.700834e+002
3.610630e+002, 1.687217e+002
3.615451e+002, 1.675532e+002
3.620272e+002, 1.667858e+002
3.625093e+002, 1.659844e+002
3.629914e+002, 1.649461e+002
3.634735e+002, 1.637676e+002
3.639557e+002, 1.626331e+002
3.644378e+002, 1.616367e+002
3.649199e+002, 1.608126e+002
3.654020e+002, 1.603191e+002
3.658841e+002, 1.604249e+002
3.663662e+002, 1.605165e+002
3.668484e+002, 1.606393e+002
3.673305e+002, 1.606577e+002
3.678126e+002, 1.603753e+002
3.682947e+002, 1.597508e+002
3.687768e+002, 1.590172e+002
3.692589e+002, 1.585160e+002
3.697411e+002, 1.582615e+002
3.702232e+002, 1.582227e+002
3.707053e+002, 1.583962e+002
3.711874e+002, 1.587675e+002
3.716695e+002, 1.594943e+002
3.721516e+002, 1.604675e+002
3.726338e+002, 1.613148e+002
3.731159e+002, 1.615986e+002
3.735980e+002, 1.613477e+002
3.740801e+002, 1.615907e+002
3.745622e+002, 1.627092e+002
3.750443e+002, 1.638860e+002
3.755265e+002, 1.647832e+002
3.760086e+002, 1.655713e+002
3.764907e+002, 1.665071e+002
3.769728e+002, 1.677186e+002
3.774549e+002, 1.691559e+002
3.779370e+002, 1.707740e+002
3.784192e+002, 1.727032e+002
3.789013e+002, 1.744387e+002
3.793834e+002, 1.758188e+002
3.798655e+002, 1.769711e+002
3.803476e+002, 1.778646e+002
3.808297e+002, 1.785024e+002
3.813119e+002, 1.792454e+002
3.817940e+002, 1.805872e+002
3.822761e+002, 1.825135e+002
3.827582e+002, 1.841425e+002
3.832403e+002, 1.852832e+002
3.837224e+002, 1.861715e+002
3.842046e+002, 1.869952e+002
3.846867e+002, 1.877361e+002
3.851688e+002, 1.883427e+002
3.856509e+002, 1.887157e+002
3.861330e+002, 1.889405e+002
3.866151e+002, 1.892283e+002
3.870973e+002, 1.896094e+002
3.875794e+002, 1.899367e+002
3.880615e+002, 1.900516e+002
3.885436e+002, 1.900779e+002
3.890257e+002, 1.902263e+002
3.895078e+002, 1.906658e+002
3.899900e+002, 1.909943e+002
3.904721e+002, 1.907427e+002
3.909542e+002, 1.899879e+002
3.914363e+002, 1.893635e+002
3.919184e+002, 1.891440e+002
3.924005e+002, 1.890583e+002
3.928827e+002, 1.887618e+002
3.933648e+002, 1.882639e+002
3.938469e+002, 1.875907e+002
3.943290e+002, 1.866040e+002
3.948111e+002, 1.854977e+002
3.952932e+002, 1.846242e+002
3.957754e+002, 1.840444e+002
3.962575e+002, 1.835033e+002
3.967396e+002, 1.827444e+002
3.972217e+002, 1.817964e+002
3.977038e+002, 1.809923e+002
3.981859e+002, 1.804646e+002
3.986681e+002, 1.799736e+002
3.991501e+002, 1.793389e+002
3.996323e+002, 1.785991e+002
4.001144e+002, 1.778743e+002
4.005965e+002, 1.771892e+002
4.010786e+002, 1.766137e+002
4.015607e+002, 1.763997e+002
4.020428e+002, 1.767471e+002
4.025250e+002, 1.770394e+002
4.030071e+002, 1.774031e+002
4.034892e+002, 1.775499e+002
4.039713e+002, 1.768691e+002
4.044534e+002, 1.753006e+002
4.049355e+002, 1.738172e+002
4.054177e+002, 1.736736e+002
4.058998e+002, 1.753162e+002
4.063819e+002, 1.760497e+002
4.068640e+002, 1.750809e+002
4.073461e+002, 1.740790e+002
4.078282e+002, 1.739386e+002
4.083104e+002, 1.744534e+002
4.087925e+002, 1.749842e+002
4.092746e+002, 1.751539e+002
4.097567e+002, 1.749802e+002
4.102388e+002, 1.745323e+002
4.107209e+002, 1.730531e+002
4.112031e+002, 1.723175e+002
4.116852e+002, 1.731173e+002
4.121673e+002, 1.743562e+002
4.126494e+002, 1.750746e+002
4.131315e+002, 1.749935e+002
4.136136e+002, 1.743352e+002
4.140958e+002, 1.732585e+002
4.145779e+002, 1.715290e+002
4.150600e+002, 1.703099e+002
4.155421e+002, 1.700899e+002
4.160242e+002, 1.699462e+002
4.165063e+002, 1.694277e+002
4.169885e+002, 1.686927e+002
4.174706e+002, 1.682411e+002
4.179527e+002, 1.685277e+002
4.184348e+002, 1.692019e+002
4.189169e+002, 1.689236e+002
4.193990e+002, 1.670923e+002
4.198812e+002, 1.656498e+002
4.203633e+002, 1.653615e+002
4.208454e+002, 1.656180e+002
4.213275e+002, 1.659147e+002
4.218096e+002, 1.661306e+002
4.222917e+002, 1.663945e+002
4.227739e+002, 1.667611e+002
4.232560e+002, 1.672414e+002
4.237381e+002, 1.680943e+002
4.242202e+002, 1.694526e+002
4.247023e+002, 1.710801e+002
4.251844e+002, 1.728813e+002
4.256666e+002, 1.747980e+002
4.261487e+002, 1.766316e+002
4.266308e+002, 1.781443e+002
4.271129e+002, 1.795988e+002
4.275950e+002, 1.814324e+002
4.280771e+002, 1.836805e+002
4.285593e+002, 1.859561e+002
4.290414e+002, 1.883202e+002
4.295235e+002, 1.904016e+002
4.300056e+002, 1.915242e+002
4.304877e+002, 1.914521e+002
4.309698e+002, 1.909590e+002
4.314520e+002, 1.903947e+002
4.319341e+002, 1.896866e+002
4.324162e+002, 1.886564e+002
4.328983e+002, 1.872517e+002
4.333804e+002, 1.856213e+002
4.338625e+002, 1.839326e+002
4.343447e+002, 1.821916e+002
4.348268e+002, 1.802668e+002
4.353089e+002, 1.778898e+002
4.357910e+002, 1.755505e+002
4.362731e+002, 1.735866e+002
4.367552e+002, 1.719565e+002
4.372374e+002, 1.704644e+002
4.377195e+002, 1.690105e+002
4.382016e+002, 1.675849e+002
4.386837e+002, 1.661763e+002
4.391658e+002, 1.643794e+002
4.396479e+002, 1.631277e+002
4.401301e+002, 1.628648e+002
4.406122e+002, 1.629633e+002
4.410943e+002, 1.628463e+002
4.415764e+002, 1.623987e+002
4.420585e+002, 1.618726e+002
4.425406e+002, 1.615842e+002
4.430227e+002, 1.616003e+002
4.435049e+002, 1.613647e+002
4.439870e+002, 1.604697e+002
4.444691e+002, 1.597468e+002
4.449512e+002, 1.597281e+002
4.454333e+002, 1.600045e+002
4.459154e+002, 1.598622e+002
4.463976e+002, 1.589099e+002
4.468797e+002, 1.574800e+002
4.473618e+002, 1.562111e+002
4.478439e+002, 1.549625e+002
4.483260e+002, 1.543035e+002
4.488081e+002, 1.549864e+002
4.492903e+002, 1.558193e+002
4.497724e+002, 1.559387e+002
4.502545e+002, 1.553626e+002
4.507366e+002, 1.548708e+002
4.512187e+002, 1.550859e+002
4.517008e+002, 1.558843e+002
4.521830e+002, 1.568309e+002
4.526651e+002, 1.580835e+002
4.531472e+002, 1.590557e+002
4.536293e+002, 1.587816e+002
4.541114e+002, 1.581558e+002
4.545935e+002, 1.585877e+002
4.550757e+002, 1.607582e+002
4.555578e+002, 1.632846e+002
4.560399e+002, 1.649162e+002
4.565220e+002, 1.658887e+002
4.570041e+002, 1.672900e+002
4.574862e+002, 1.694928e+002
4.579684e+002, 1.720944e+002
4.584505e+002, 1.746625e+002
4.589326e+002, 1.772017e+002
4.594147e+002, 1.796370e+002
4.598968e+002, 1.818592e+002
4.603789e+002, 1.840323e+002
4.608611e+002, 1.861285e+002
4.613432e+002, 1.882447e+002
4.618253e+002, 1.909099e+002
4.623074e+002, 1.946468e+002
4.627895e+002, 1.990037e+002
4.632716e+002, 2.021580e+002
4.637538e+002, 2.031802e+002
4.642359e+002, 2.043102e+002
4.647180e+002, 2.061951e+002
4.652001e+002, 2.081046e+002
4.656822e+002, 2.093503e+002
4.661643e+002, 2.097770e+002
4.666465e+002, 2.095689e+002
4.671286e+002, 2.089831e+002
4.676107e+002, 2.080843e+002
4.680928e+002, 2.060802e+002
4.685749e+002, 2.013135e+002
4.690570e+002, 1.972016e+002
4.695392e+002, 1.951580e+002
4.700213e+002, 1.942233e+002
4.705034e+002, 1.929099e+002
4.709855e+002, 1.905495e+002
4.714676e+002, 1.877610e+002
4.719497e+002, 1.856750e+002
4.724319e+002, 1.844714e+002
4.729140e+002, 1.831909e+002
4.733961e+002, 1.815690e+002
4.738782e+002, 1.799574e+002
4.743603e+002, 1.787510e+002
4.748424e+002, 1.778004e+002
4.753246e+002, 1.764473e+002
4.758067e+002, 1.740823e+002
4.762888e+002, 1.711401e+002
4.767709e+002, 1.685023e+002
4.772530e+002, 1.661943e+002
4.777351e+002, 1.640830e+002
4.782173e+002, 1.619435e+002
4.786994e+002, 1.600905e+002
4.791815e+002, 1.590618e+002
4.796636e+002, 1.590894e+002
4.801457e+002, 1.591702e+002
4.806278e+002, 1.589071e+002
4.811100e+002, 1.583319e+002
4.815920e+002, 1.573460e+002
4.820742e+002, 1.559055e+002
4.825563e+002, 1.546059e+002
4.830384e+002, 1.539458e+002
4.835205e+002, 1.539562e+002
4.840026e+002, 1.543099e+002
4.844847e+002, 1.555225e+002
4.849669e+002, 1.564970e+002
4.854490e+002, 1.563845e+002
4.859311e+002, 1.558179e+002
4.864132e+002, 1.560052e+002
4.868953e+002, 1.573911e+002
4.873774e+002, 1.592861e+002
4.878596e+002, 1.604817e+002
4.883417e+002, 1.603984e+002
4.888238e+002, 1.612583e+002
4.893059e+002, 1.637287e+002
4.897880e+002, 1.663364e+002
4.902701e+002, 1.681907e+002
4.907523e+002, 1.696002e+002
4.912344e+002, 1.714057e+002
4.917165e+002, 1.741431e+002
4.921986e+002, 1.775002e+002
4.926807e+002, 1.805729e+002
4.931628e+002, 1.831178e+002
4.936450e+002, 1.860319e+002
4.941271e+002, 1.897660e+002
4.946092e+002, 1.937246e+002
4.950913e+002, 1.975491e+002
4.955734e+002, 2.012061e+002
4.960555e+002, 2.048625e+002
4.965377e+002, 2.082713e+002
4.970198e+002, 2.117674e+002
4.975019e+002, 2.164624e+002
4.979840e+002, 2.226412e+002
4.984661e+002, 2.287717e+002
4.989482e+002, 2.337342e+002
4.994304e+002, 2.382961e+002
4.999125e+002, 2.437961e+002
5.003946e+002, 2.502823e+002
5.008767e+002, 2.577933e+002
5.013588e+002, 2.667576e+002
5.018409e+002, 2.766955e+002
5.023231e+002, 2.867676e+002
5.028052e+002, 2.967717e+002
5.032873e+002, 3.073986e+002
5.037694e+002, 3.193009e+002
5.042515e+002, 3.326241e+002
5.047336e+002, 3.463419e+002
5.052158e+002, 3.603925e+002
5.056979e+002, 3.748439e+002
5.061800e+002, 3.900812e+002
5.066621e+002, 4.056469e+002
5.071442e+002, 4.209236e+002
5.076263e+002, 4.356668e+002
5.081085e+002, 4.497111e+002
5.085906e+002, 4.630743e+002
5.090727e+002, 4.767541e+002
5.095548e+002, 4.861519e+002
5.100369e+002, 4.908760e+002
5.105190e+002, 4.916385e+002
5.110012e+002, 4.886435e+002
5.114833e+002, 4.818261e+002
5.119654e+002, 4.708211e+002
5.124475e+002, 4.551873e+002
5.129296e+002, 4.360315e+002
5.134117e+002, 4.143654e+002
5.138939e+002, 3.895246e+002
5.143760e+002, 3.667127e+002
5.148581e+002, 3.476429e+002
5.153402e+002, 3.303549e+002
5.158223e+002, 3.130789e+002
5.163044e+002, 2.959564e+002
5.167866e+002, 2.800826e+002
5.172687e+002, 2.658536e+002
5.177508e+002, 2.530818e+002
5.182329e+002, 2.415949e+002
5.187150e+002, 2.313655e+002
5.191971e+002, 2.221483e+002
5.196793e+002, 2.138889e+002
5.201614e+002, 2.064880e+002
5.206435e+002, 1.999787e+002
5.211256e+002, 1.943828e+002
5.216077e+002, 1.892746e+002
5.220898e+002, 1.845844e+002
5.225720e+002, 1.803740e+002
5.230541e+002, 1.768852e+002
5.235362e+002, 1.740278e+002
5.240183e+002, 1.713101e+002
5.245004e+002, 1.683732e+002
5.249825e+002, 1.653323e+002
5.254647e+002, 1.627234e+002
5.259468e+002, 1.608449e+002
5.264289e+002, 1.590324e+002
5.269110e+002, 1.572536e+002
5.273931e+002, 1.554866e+002
5.278752e+002, 1.535954e+002
5.283574e+002, 1.516452e+002
5.288395e+002, 1.500108e+002
5.293216e+002, 1.492446e+002
5.298037e+002, 1.491195e+002
5.302858e+002, 1.480990e+002
5.307679e+002, 1.457117e+002
5.312501e+002, 1.435297e+002
5.317322e+002, 1.424290e+002
5.322143e+002, 1.417887e+002
5.326964e+002, 1.409844e+002
5.331785e+002, 1.399036e+002
5.336606e+002, 1.388169e+002
5.341428e+002, 1.378474e+002
5.346249e+002, 1.370051e+002
5.351070e+002, 1.363833e+002
5.355891e+002, 1.360183e+002
5.360712e+002, 1.354964e+002
5.365533e+002, 1.342934e+002
5.370355e+002, 1.326573e+002
5.375176e+002, 1.320694e+002
5.379997e+002, 1.335029e+002
5.384818e+002, 1.346918e+002
5.389639e+002, 1.349396e+002
5.394460e+002, 1.346207e+002
5.399282e+002, 1.341185e+002
5.404103e+002, 1.335511e+002
5.408924e+002, 1.329506e+002
5.413745e+002, 1.323201e+002
5.418566e+002, 1.316489e+002
5.423387e+002, 1.313130e+002
5.428209e+002, 1.316843e+002
5.433029e+002, 1.319610e+002
5.437850e+002, 1.320354e+002
5.442672e+002, 1.319081e+002
5.447493e+002, 1.314836e+002
5.452314e+002, 1.307624e+002
5.457135e+002, 1.301045e+002
5.461956e+002, 1.298970e+002
5.466777e+002, 1.301203e+002
5.471599e+002, 1.306254e+002
5.476420e+002, 1.316044e+002
5.481241e+002, 1.324374e+002
5.486062e+002, 1.324986e+002
5.490883e+002, 1.322070e+002
5.495704e+002, 1.322574e+002
5.500526e+002, 1.328934e+002
5.505347e+002, 1.336054e+002
5.510168e+002, 1.340409e+002
5.514989e+002, 1.343300e+002
5.519810e+002, 1.347812e+002
5.524631e+002, 1.354631e+002
5.529453e+002, 1.361474e+002
5.534274e+002, 1.366396e+002
5.539095e+002, 1.369388e+002
5.543916e+002, 1.370506e+002
5.548737e+002, 1.365843e+002
5.553558e+002, 1.364234e+002
5.558380e+002, 1.372728e+002
5.563201e+002, 1.383522e+002
5.568022e+002, 1.386029e+002
5.572843e+002, 1.378043e+002
5.577664e+002, 1.366668e+002
5.582485e+002, 1.360315e+002
5.587307e+002, 1.359302e+002
5.592128e+002, 1.355193e+002
5.596949e+002, 1.345899e+002
5.601770e+002, 1.336452e+002
5.606591e+002, 1.329602e+002
5.611412e+002, 1.323109e+002
5.616234e+002, 1.313388e+002
5.621055e+002, 1.299211e+002
5.625876e+002, 1.285783e+002
5.630697e+002, 1.279081e+002
5.635518e+002, 1.276886e+002
5.640339e+002, 1.271189e+002
5.645161e+002, 1.260348e+002
5.649982e+002, 1.249610e+002
5.654803e+002, 1.243021e+002
5.659624e+002, 1.239673e+002
5.664445e+002, 1.235081e+002
5.669266e+002, 1.229486e+002
5.674088e+002, 1.222338e+002
5.678909e+002, 1.210437e+002
5.683730e+002, 1.198312e+002
5.688551e+002, 1.192192e+002
5.693372e+002, 1.192826e+002
5.698193e+002, 1.196077e+002
5.703015e+002, 1.198411e+002
5.707836e+002, 1.199815e+002
5.712657e+002, 1.199842e+002
5.717478e+002, 1.196634e+002
5.722299e+002, 1.194538e+002
5.727120e+002, 1.195735e+002
5.731942e+002, 1.197344e+002
5.736763e+002, 1.195336e+002
5.741584e+002, 1.189780e+002
5.746405e+002, 1.186291e+002
5.751226e+002, 1.191787e+002
5.756047e+002, 1.203668e+002
5.760869e+002, 1.212011e+002
5.765690e+002, 1.217497e+002
5.770511e+002, 1.215970e+002
5.775332e+002, 1.198472e+002
5.780153e+002, 1.176828e+002
5.784974e+002, 1.170947e+002
5.789796e+002, 1.184598e+002
5.794617e+002, 1.198365e+002
5.799438e+002, 1.205523e+002
5.804259e+002, 1.208640e+002
5.809080e+002, 1.209852e+002
5.813901e+002, 1.209715e+002
5.818723e+002, 1.209392e+002
5.823544e+002, 1.209584e+002
5.828365e+002, 1.210189e+002
5.833186e+002, 1.210820e+002
5.838007e+002, 1.210886e+002
5.842828e+002, 1.211962e+002
5.847650e+002, 1.214117e+002
5.852471e+002, 1.217198e+002
5.857292e+002, 1.221051e+002
5.862113e+002, 1.225734e+002
5.866934e+002, 1.231842e+002
5.871755e+002, 1.240445e+002
5.876577e+002, 1.249379e+002
5.881398e+002, 1.252947e+002
5.886219e+002, 1.250300e+002
5.891040e+002, 1.247936e+002
5.895861e+002, 1.246401e+002
5.900682e+002, 1.246842e+002
5.905504e+002, 1.251478e+002
5.910325e+002, 1.259471e+002
5.915146e+002, 1.265274e+002
5.919967e+002, 1.265338e+002
5.924788e+002, 1.264100e+002
5.929609e+002, 1.265231e+002
5.934431e+002, 1.268158e+002
5.939252e+002, 1.271300e+002
5.944073e+002, 1.274153e+002
5.948894e+002, 1.276255e+002
5.953715e+002, 1.277008e+002
5.958536e+002, 1.276439e+002
5.963358e+002, 1.274265e+002
5.968179e+002, 1.271503e+002
5.973000e+002, 1.266292e+002
5.977821e+002, 1.254959e+002
5.982642e+002, 1.241839e+002
5.987463e+002, 1.233657e+002
5.992285e+002, 1.232547e+002
5.997106e+002, 1.233346e+002
6.001927e+002, 1.229818e+002
6.006748e+002, 1.222082e+002
6.011569e+002, 1.213620e+002
6.016390e+002, 1.203532e+002
6.021212e+002, 1.194990e+002
6.026033e+002, 1.190835e+002
6.030854e+002, 1.189121e+002
6.035675e+002, 1.187323e+002
6.040496e+002, 1.185399e+002
6.045317e+002, 1.182590e+002
6.050139e+002, 1.177262e+002
6.054960e+002, 1.171347e+002
6.059781e+002, 1.167878e+002
6.064602e+002, 1.167085e+002
6.069423e+002, 1.167364e+002
6.074244e+002, 1.167920e+002
6.079066e+002, 1.168272e+002
6.083887e+002, 1.166162e+002
6.088708e+002, 1.159711e+002
6.093529e+002, 1.153379e+002
6.098350e+002, 1.147410e+002
6.103171e+002, 1.141564e+002
6.107993e+002, 1.133109e+002
6.112814e+002, 1.124265e+002
6.117635e+002, 1.122602e+002
6.122456e+002, 1.135505e+002
6.127277e+002, 1.154185e+002
6.132098e+002, 1.158192e+002
6.136920e+002, 1.145935e+002
6.141741e+002, 1.138311e+002
6.146562e+002, 1.142716e+002
6.151383e+002, 1.150309e+002
6.156204e+002, 1.152630e+002
6.161025e+002, 1.150368e+002
6.165847e+002, 1.146890e+002
6.170668e+002, 1.139372e+002
6.175489e+002, 1.134295e+002
6.180310e+002, 1.138281e+002
6.185131e+002, 1.147280e+002
6.189952e+002, 1.152981e+002
6.194774e+002, 1.152939e+002
6.199595e+002, 1.150370e+002
6.204416e+002, 1.148566e+002
6.209237e+002, 1.147335e+002
6.214058e+002, 1.149947e+002
6.218879e+002, 1.164893e+002
6.223701e+002, 1.173056e+002
6.228522e+002, 1.166280e+002
6.233343e+002, 1.153325e+002
6.238164e+002, 1.142559e+002
6.242985e+002, 1.135811e+002
6.247806e+002, 1.130822e+002
6.252628e+002, 1.125921e+002
6.257448e+002, 1.121400e+002
6.262269e+002, 1.118450e+002
6.267090e+002, 1.117252e+002
6.271912e+002, 1.115206e+002
6.276733e+002, 1.109358e+002
6.281554e+002, 1.103640e+002
6.286375e+002, 1.107209e+002
6.291196e+002, 1.122482e+002
6.296017e+002, 1.133550e+002
6.300839e+002, 1.136785e+002
6.305660e+002, 1.136291e+002
6.310481e+002, 1.133278e+002
6.315302e+002, 1.129011e+002
6.320123e+002, 1.125217e+002
6.324944e+002, 1.122693e+002
6.329766e+002, 1.122073e+002
6.334587e+002, 1.125402e+002
6.339408e+002, 1.134191e+002
6.344229e+002, 1.139024e+002
6.349050e+002, 1.136662e+002
6.353871e+002, 1.134325e+002
6.358693e+002, 1.136831e+002
6.363514e+002, 1.140834e+002
6.368335e+002, 1.140736e+002
6.373156e+002, 1.134450e+002
6.377977e+002, 1.127558e+002
6.382798e+002, 1.122455e+002
6.387620e+002, 1.119987e+002
6.392441e+002, 1.123481e+002
6.397262e+002, 1.132976e+002
6.402083e+002, 1.140921e+002
6.406904e+002, 1.142050e+002
6.411725e+002, 1.138413e+002
6.416547e+002, 1.136853e+002
6.421368e+002, 1.138829e+002
6.426189e+002, 1.140862e+002
6.431010e+002, 1.144253e+002
6.435831e+002, 1.146541e+002
6.440652e+002, 1.144296e+002
6.445474e+002, 1.139702e+002
6.450295e+002, 1.138439e+002
6.455116e+002, 1.143794e+002
6.459937e+002, 1.152323e+002
6.464758e+002, 1.159303e+002
6.469579e+002, 1.164723e+002
6.474401e+002, 1.167236e+002
6.479222e+002, 1.166132e+002
6.484043e+002, 1.163074e+002
6.488864e+002, 1.156936e+002
6.493685e+002, 1.149833e+002
6.498506e+002, 1.148872e+002
6.503328e+002, 1.159422e+002
6.508149e+002, 1.168693e+002
6.512970e+002, 1.171302e+002
6.517791e+002, 1.170130e+002
6.522612e+002, 1.167272e+002
6.527433e+002, 1.163787e+002
6.532255e+002, 1.162230e+002
6.537076e+002, 1.164823e+002
6.541897e+002, 1.170072e+002
6.546718e+002, 1.172323e+002
6.551539e+002, 1.170499e+002
6.556360e+002, 1.168244e+002
6.561182e+002, 1.164169e+002
6.566003e+002, 1.161415e+002
6.570824e+002, 1.163591e+002
6.575645e+002, 1.168703e+002
6.580466e+002, 1.170091e+002
6.585287e+002, 1.161486e+002
6.590109e+002, 1.154256e+002
6.594930e+002, 1.163326e+002
6.599751e+002, 1.182240e+002
6.604572e+002, 1.192261e+002
6.609393e+002, 1.189191e+002
6.614214e+002, 1.181757e+002
6.619036e+002, 1.176713e+002
6.623857e+002, 1.174153e+002
6.628678e+002, 1.175077e+002
6.633499e+002, 1.183825e+002
6.638320e+002, 1.190361e+002
6.643141e+002, 1.192449e+002
6.647963e+002, 1.193116e+002
6.652784e+002, 1.195266e+002
6.657605e+002, 1.198442e+002
6.662426e+002, 1.199440e+002
6.667247e+002, 1.194959e+002
6.672068e+002, 1.189432e+002
6.676890e+002, 1.191927e+002
6.681711e+002, 1.202189e+002
6.686532e+002, 1.211570e+002
6.691353e+002, 1.218684e+002
6.696174e+002, 1.222985e+002
6.700995e+002, 1.221806e+002
6.705817e+002, 1.216244e+002
6.710638e+002, 1.216824e+002
6.715459e+002, 1.228535e+002
6.720280e+002, 1.240433e+002
6.725101e+002, 1.247837e+002
6.729922e+002, 1.254337e+002
6.734744e+002, 1.265178e+002
6.739565e+002, 1.279932e+002
6.744386e+002, 1.293013e+002
6.749207e+002, 1.300161e+002
6.754028e+002, 1.302607e+002
6.758849e+002, 1.303189e+002
6.763671e+002, 1.300249e+002
6.768492e+002, 1.302876e+002
6.773313e+002, 1.314297e+002
6.778134e+002, 1.330433e+002
6.782955e+002, 1.351015e+002
6.787776e+002, 1.373819e+002
6.792598e+002, 1.390435e+002
6.797419e+002, 1.395939e+002
6.802240e+002, 1.398686e+002
6.807061e+002, 1.401301e+002
6.811882e+002, 1.405202e+002
6.816703e+002, 1.413729e+002
6.821525e+002, 1.426849e+002
6.826346e+002, 1.440204e+002
6.831167e+002, 1.450290e+002
6.835988e+002, 1.457567e+002
6.840809e+002, 1.464305e+002
6.845630e+002, 1.470257e+002
6.850452e+002, 1.476186e+002
6.855273e+002, 1.483890e+002
6.860094e+002, 1.490032e+002
6.864915e+002, 1.492268e+002
6.869736e+002, 1.491262e+002
6.874557e+002, 1.488927e+002
6.879379e+002, 1.484516e+002
6.884200e+002, 1.481580e+002
6.889021e+002, 1.483818e+002
6.893842e+002, 1.489840e+002
6.898663e+002, 1.497446e+002
6.903484e+002, 1.506142e+002
6.908306e+002, 1.512998e+002
6.913127e+002, 1.515802e+002
6.917948e+002, 1.514870e+002
6.922769e+002, 1.512081e+002
6.927590e+002, 1.512542e+002
6.932411e+002, 1.502441e+002
6.937233e+002, 1.474537e+002
6.942054e+002, 1.442839e+002
6.946875e+002, 1.413002e+002
6.951696e+002, 1.386483e+002
6.956517e+002, 1.365204e+002
6.961339e+002, 1.350965e+002
6.966160e+002, 1.339177e+002
6.970981e+002, 1.323338e+002
6.975802e+002, 1.305553e+002
6.980623e+002, 1.293351e+002
6.985444e+002, 1.288095e+002
6.990266e+002, 1.286195e+002
6.995087e+002, 1.285801e+002
6.999908e+002, 1.286430e+002
7.004729e+002, 1.286313e+002
7.009550e+002, 1.287037e+002
7.014371e+002, 1.284412e+002
7.019193e+002, 1.275008e+002
7.024014e+002, 1.265354e+002
7.028835e+002, 1.258785e+002
7.033656e+002, 1.255239e+002
7.038477e+002, 1.254392e+002
7.043298e+002, 1.256455e+002
7.048120e+002, 1.258081e+002
7.052941e+002, 1.253014e+002
7.057762e+002, 1.243418e+002
7.062583e+002, 1.241250e+002
7.067404e+002, 1.248824e+002
7.072225e+002, 1.254988e+002
7.077046e+002, 1.251426e+002
7.081867e+002, 1.243503e+002
7.086688e+002, 1.246174e+002
7.091509e+002, 1.267403e+002
7.096331e+002, 1.278306e+002
7.101152e+002, 1.264400e+002
7.105973e+002, 1.251962e+002
7.110794e+002, 1.259181e+002
7.115615e+002, 1.278283e+002
7.120436e+002, 1.294582e+002
7.125258e+002, 1.302729e+002
7.130079e+002, 1.305824e+002
7.134900e+002, 1.306250e+002
7.139721e+002, 1.304534e+002
7.144542e+002, 1.303313e+002
7.149363e+002, 1.302475e+002
7.154185e+002, 1.303585e+002
7.159006e+002, 1.308599e+002
7.163827e+002, 1.314694e+002
7.168648e+002, 1.317020e+002
7.173469e+002, 1.315232e+002
7.178290e+002, 1.312375e+002
7.183112e+002, 1.309093e+002
7.187933e+002, 1.304373e+002
7.192754e+002, 1.296100e+002
7.197575e+002, 1.286754e+002
7.202396e+002, 1.279411e+002
7.207217e+002, 1.275040e+002
7.212039e+002, 1.273401e+002
7.216860e+002, 1.275396e+002
7.221681e+002, 1.279688e+002
7.226502e+002, 1.280568e+002
7.231323e+002, 1.277591e+002
7.236144e+002, 1.274998e+002
7.240966e+002, 1.274262e+002
7.245787e+002, 1.274270e+002
7.250608e+002, 1.274151e+002
7.255429e+002, 1.273881e+002
7.260250e+002, 1.272087e+002
7.265071e+002, 1.265052e+002
7.269893e+002, 1.260863e+002
7.274714e+002, 1.265140e+002
7.279535e+002, 1.272201e+002
7.284356e+002, 1.276259e+002
7.289177e+002, 1.276258e+002
7.293998e+002, 1.273350e+002
7.298820e+002, 1.267827e+002
7.303641e+002, 1.260947e+002
7.308462e+002, 1.254988e+002
7.313283e+002, 1.249896e+002
7.318104e+002, 1.248063e+002
7.322925e+002, 1.251104e+002
7.327747e+002, 1.254807e+002
7.332568e+002, 1.255738e+002
7.337389e+002, 1.254358e+002
7.342210e+002, 1.253403e+002
7.347031e+002, 1.252338e+002
7.351852e+002, 1.252498e+002
7.356674e+002, 1.256891e+002
7.361495e+002, 1.260403e+002
7.366316e+002, 1.258153e+002
7.371137e+002, 1.251262e+002
7.375958e+002, 1.243141e+002
7.380779e+002, 1.235120e+002
7.385601e+002, 1.229475e+002
7.390422e+002, 1.230189e+002
7.395243e+002, 1.236733e+002
7.400064e+002, 1.244952e+002
7.404885e+002, 1.255477e+002
7.409706e+002, 1.263035e+002
7.414528e+002, 1.263666e+002
7.419349e+002, 1.260158e+002
7.424170e+002, 1.258460e+002
7.428991e+002, 1.258718e+002
7.433812e+002, 1.260054e+002
7.438633e+002, 1.261969e+002
7.443455e+002, 1.265407e+002
7.448276e+002, 1.271935e+002
7.453097e+002, 1.279912e+002
7.457918e+002, 1.286534e+002
7.462739e+002, 1.291152e+002
7.467560e+002, 1.296212e+002
7.472382e+002, 1.305027e+002
7.477203e+002, 1.315933e+002
7.482024e+002, 1.323639e+002
7.486845e+002, 1.328107e+002
7.491666e+002, 1.331369e+002
7.496487e+002, 1.333787e+002
7.501309e+002, 1.335991e+002
7.506130e+002, 1.338540e+002
7.510951e+002, 1.341381e+002
7.515772e+002, 1.345644e+002
7.520593e+002, 1.352922e+002
7.525414e+002, 1.359391e+002
7.530236e+002, 1.366418e+002
7.535057e+002, 1.370686e+002
7.539878e+002, 1.367525e+002
7.544699e+002, 1.358356e+002
7.549520e+002, 1.349939e+002
7.554341e+002, 1.346685e+002
7.559163e+002, 1.344626e+002
7.563984e+002, 1.338188e+002
7.568805e+002, 1.328074e+002
7.573626e+002, 1.316928e+002
7.578447e+002, 1.305012e+002
7.583268e+002, 1.294330e+002
7.588090e+002, 1.286341e+002
7.592911e+002, 1.280626e+002
7.597732e+002, 1.275839e+002
7.602553e+002, 1.273966e+002
7.607374e+002, 1.269355e+002
7.612195e+002, 1.259121e+002
7.617017e+002, 1.249455e+002
7.621838e+002, 1.243015e+002
7.626659e+002, 1.239199e+002
7.631480e+002, 1.238057e+002
7.636301e+002, 1.239859e+002
7.641122e+002, 1.238414e+002
7.645944e+002, 1.223905e+002
7.650765e+002, 1.205980e+002
7.655586e+002, 1.200903e+002
7.660407e+002, 1.207452e+002
7.665228e+002, 1.216599e+002
7.670049e+002, 1.225225e+002
7.674871e+002, 1.230612e+002
7.679692e+002, 1.228138e+002
7.684513e+002, 1.217224e+002
7.689334e+002, 1.212967e+002
7.694155e+002, 1.221447e+002
7.698976e+002, 1.226600e+002
7.703798e+002, 1.221845e+002
7.708619e+002, 1.215014e+002
7.713440e+002, 1.212485e+002
7.718261e+002, 1.213684e+002
7.723082e+002, 1.213721e+002
7.727903e+002, 1.209676e+002
7.732725e+002, 1.205619e+002
7.737546e+002, 1.203903e+002
7.742367e+002, 1.204230e+002
7.747188e+002, 1.207211e+002
7.752009e+002, 1.212190e+002
7.756830e+002, 1.215610e+002
7.761652e+002, 1.214913e+002
7.766473e+002, 1.212291e+002
7.771294e+002, 1.213772e+002
7.776115e+002, 1.220622e+002
7.780936e+002, 1.222307e+002
7.785757e+002, 1.213513e+002
7.790579e+002, 1.208205e+002
7.795400e+002, 1.218044e+002
7.800221e+002, 1.234395e+002
7.805042e+002, 1.242587e+002
7.809863e+002, 1.240903e+002
7.814684e+002, 1.237936e+002
7.819506e+002, 1.234661e+002
7.824327e+002, 1.231837e+002
7.829148e+002, 1.230097e+002
7.833969e+002, 1.229078e+002
7.838790e+002, 1.227318e+002
7.843611e+002, 1.224890e+002
7.848433e+002, 1.225172e+002
7.853254e+002, 1.232745e+002
7.858075e+002, 1.244492e+002
7.862896e+002, 1.251151e+002
7.867717e+002, 1.252662e+002
7.872538e+002, 1.250842e+002
7.877360e+002, 1.244807e+002
7.882181e+002, 1.239814e+002
7.887002e+002, 1.242332e+002
7.891823e+002, 1.250755e+002
7.896644e+002, 1.251293e+002
7.901465e+002, 1.234935e+002
7.906286e+002, 1.224033e+002
7.911107e+002, 1.222875e+002
7.915928e+002, 1.225208e+002
7.920750e+002, 1.229904e+002
7.925571e+002, 1.234292e+002
7.930392e+002, 1.232988e+002
7.935213e+002, 1.223402e+002
7.940034e+002, 1.213724e+002
7.944855e+002, 1.211730e+002
7.949677e+002, 1.214287e+002
7.954498e+002, 1.215497e+002
7.959319e+002, 1.215380e+002
7.964140e+002, 1.217113e+002
7.968961e+002, 1.222212e+002
7.973782e+002, 1.227509e+002
7.978604e+002, 1.228125e+002
7.983425e+002, 1.223709e+002
7.988246e+002, 1.223550e+002
7.993067e+002, 1.231857e+002
7.997888e+002, 1.236783e+002
8.002709e+002, 1.233252e+002
8.007531e+002, 1.226921e+002
8.012352e+002, 1.220554e+002
8.017173e+002, 1.214751e+002
8.021994e+002, 1.211533e+002
8.026815e+002, 1.212004e+002
8.031636e+002, 1.214314e+002
8.036458e+002, 1.219474e+002
8.041279e+002, 1.224730e+002
8.046100e+002, 1.226082e+002
8.050921e+002, 1.224210e+002
8.055742e+002, 1.223156e+002
8.060563e+002, 1.225193e+002
8.065385e+002, 1.227876e+002
8.070206e+002, 1.226191e+002
8.075027e+002, 1.220709e+002
8.079848e+002, 1.220333e+002
8.084669e+002, 1.226677e+002
8.089490e+002, 1.231623e+002
8.094312e+002, 1.231272e+002
8.099133e+002, 1.228060e+002
8.103954e+002, 1.225001e+002
8.108775e+002, 1.221725e+002
8.113596e+002, 1.221488e+002
8.118417e+002, 1.228203e+002
8.123239e+002, 1.232941e+002
8.128060e+002, 1.231472e+002
8.132881e+002, 1.228245e+002
8.137702e+002, 1.227610e+002
8.142523e+002, 1.229457e+002
8.147344e+002, 1.230850e+002
8.152166e+002, 1.230045e+002
8.156987e+002, 1.228840e+002
8.161808e+002, 1.229141e+002
8.166629e+002, 1.230445e+002
8.171450e+002, 1.231575e+002
8.176271e+002, 1.232442e+002
8.181093e+002, 1.233774e+002
8.185914e+002, 1.236031e+002
8.190735e+002, 1.238694e+002
8.195556e+002, 1.240866e+002
8.200377e+002, 1.242604e+002
8.205198e+002, 1.243541e+002
8.210020e+002, 1.244410e+002
8.214841e+002, 1.242983e+002
8.219662e+002, 1.235209e+002
8.224483e+002, 1.227004e+002
8.229304e+002, 1.225422e+002
8.234125e+002, 1.230312e+002
8.238947e+002, 1.235247e+002
8.243768e+002, 1.239115e+002
8.248589e+002, 1.242611e+002
8.253410e+002, 1.246699e+002
8.258231e+002, 1.250186e+002
8.263052e+002, 1.251500e+002
8.267874e+002, 1.250836e+002
8.272695e+002, 1.249514e+002
8.277516e+002, 1.248187e+002
8.282337e+002, 1.246929e+002
8.287158e+002, 1.245019e+002
8.291979e+002, 1.243180e+002
8.296801e+002, 1.244965e+002
8.301622e+002, 1.250682e+002
8.306443e+002, 1.257356e+002
8.311264e+002, 1.264140e+002
8.316085e+002, 1.269069e+002
8.320906e+002, 1.268134e+002
8.325728e+002, 1.259796e+002
8.330549e+002, 1.256875e+002
8.335370e+002, 1.264355e+002
8.340191e+002, 1.270107e+002
8.345012e+002, 1.270469e+002
8.349833e+002, 1.268900e+002
8.354655e+002, 1.268133e+002
8.359476e+002, 1.268059e+002
8.364297e+002, 1.267199e+002
8.369118e+002, 1.264748e+002
8.373939e+002, 1.262023e+002
8.378760e+002, 1.259580e+002
8.383582e+002, 1.257353e+002
8.388403e+002, 1.254044e+002
8.393224e+002, 1.250824e+002
8.398045e+002, 1.251735e+002
8.402866e+002, 1.258704e+002
8.407687e+002, 1.267810e+002
8.412509e+002, 1.274206e+002
8.417330e+002, 1.278059e+002
8.422151e+002, 1.279681e+002
8.426972e+002, 1.278903e+002
8.431793e+002, 1.278725e+002
8.436614e+002, 1.280379e+002
8.441436e+002, 1.282605e+002
8.446257e+002, 1.284236e+002
8.451078e+002, 1.285238e+002
8.455899e+002, 1.284111e+002
8.460720e+002, 1.277337e+002
8.465541e+002, 1.273620e+002
8.470363e+002, 1.275241e+002
8.475184e+002, 1.278571e+002
8.480005e+002, 1.282799e+002
8.484826e+002, 1.286707e+002
8.489647e+002, 1.287561e+002
8.494468e+002, 1.283816e+002
8.499290e+002, 1.280862e+002
8.504111e+002, 1.281640e+002
8.508932e+002, 1.284609e+002
8.513753e+002, 1.289700e+002
8.518574e+002, 1.295414e+002
8.523395e+002, 1.298805e+002
8.528217e+002, 1.298968e+002
8.533038e+002, 1.296819e+002
8.537859e+002, 1.292651e+002
8.542680e+002, 1.287382e+002
8.547501e+002, 1.283767e+002
8.552322e+002, 1.281797e+002
8.557144e+002, 1.281450e+002
8.561965e+002, 1.282923e+002
8.566786e+002, 1.285231e+002
8.571607e+002, 1.287959e+002
8.576428e+002, 1.290716e+002
8.581249e+002, 1.292269e+002
8.586071e+002, 1.292489e+002
8.590892e+002, 1.291726e+002
8.595713e+002, 1.288952e+002
8.600534e+002, 1.286406e+002
8.605355e+002, 1.284914e+002
8.610176e+002, 1.284034e+002
8.614998e+002, 1.283886e+002
8.619819e+002, 1.284269e+002
8.624640e+002, 1.282499e+002
8.629461e+002, 1.272452e+002
8.634282e+002, 1.265298e+002
8.639103e+002, 1.272257e+002
8.643925e+002, 1.284963e+002
8.648746e+002, 1.293160e+002
8.653567e+002, 1.294984e+002
8.658388e+002, 1.290007e+002
8.663209e+002, 1.277163e+002
8.668030e+002, 1.264004e+002
8.672852e+002, 1.264340e+002
8.677673e+002, 1.275233e+002
8.682494e+002, 1.281364e+002
8.687315e+002, 1.281796e+002
8.692136e+002, 1.278320e+002
8.696957e+002, 1.270809e+002
8.701779e+002, 1.262574e+002
8.706600e+002, 1.257842e+002
8.711421e+002, 1.256603e+002
8.716242e+002, 1.258490e+002
8.721063e+002, 1.266867e+002
8.725884e+002, 1.272436e+002
8.730705e+002, 1.271946e+002
8.735526e+002, 1.269764e+002
8.740347e+002, 1.267744e+002
8.745168e+002, 1.266112e+002
8.749990e+002, 1.265519e+002
8.754811e+002, 1.267056e+002
8.759632e+002, 1.266591e+002
8.764453e+002, 1.261062e+002
8.769274e+002, 1.254585e+002
8.774095e+002, 1.248459e+002
8.778917e+002, 1.244224e+002
8.783738e+002, 1.244729e+002
8.788559e+002, 1.250115e+002
8.793380e+002, 1.256718e+002
8.798201e+002, 1.263165e+002
8.803022e+002, 1.267435e+002
8.807844e+002, 1.263610e+002
8.812665e+002, 1.254619e+002
8.817486e+002, 1.252177e+002
8.822307e+002, 1.257807e+002
8.827128e+002, 1.263482e+002
8.831949e+002, 1.263905e+002
8.836771e+002, 1.262274e+002
8.841592e+002, 1.266232e+002
8.846413e+002, 1.277365e+002
8.851234e+002, 1.281748e+002
8.856055e+002, 1.277019e+002
8.860876e+002, 1.271103e+002
8.865698e+002, 1.264906e+002
8.870519e+002, 1.260582e+002
8.875340e+002, 1.261846e+002
8.880161e+002, 1.268192e+002
8.884982e+002, 1.271708e+002
8.889803e+002, 1.269036e+002
8.894625e+002, 1.267954e+002
8.899446e+002, 1.271858e+002
8.904267e+002, 1.275831e+002
8.909088e+002, 1.276116e+002
8.913909e+002, 1.274001e+002
8.918730e+002, 1.272533e+002
8.923552e+002, 1.272579e+002
8.928373e+002, 1.272428e+002
8.933194e+002, 1.270357e+002
8.938015e+002, 1.268085e+002
8.942836e+002, 1.266905e+002
8.947657e+002, 1.267107e+002
8.952479e+002, 1.270424e+002
8.957300e+002, 1.276373e+002
8.962121e+002, 1.280001e+002
8.966942e+002, 1.277141e+002
8.971763e+002, 1.271340e+002
8.976584e+002, 1.270520e+002
8.981406e+002, 1.273947e+002
8.986227e+002, 1.273259e+002
8.991048e+002, 1.267207e+002
8.995869e+002, 1.263294e+002
9.000690e+002, 1.265196e+002
9.005511e+002, 1.270784e+002
9.010333e+002, 1.277787e+002
9.015154e+002, 1.286532e+002
9.019975e+002, 1.288895e+002
9.024796e+002, 1.280846e+002
9.029617e+002, 1.273881e+002
9.034438e+002, 1.269729e+002
9.039260e+002, 1.267726e+002
9.044081e+002, 1.268743e+002
9.048902e+002, 1.271393e+002
9.053723e+002, 1.271974e+002
9.058544e+002, 1.269249e+002
9.063365e+002, 1.266899e+002
9.068187e+002, 1.265008e+002
9.073008e+002, 1.264594e+002
9.077829e+002, 1.267300e+002
9.082650e+002, 1.271324e+002
9.087471e+002, 1.273988e+002
9.092292e+002, 1.275087e+002
9.097114e+002, 1.276876e+002
9.101935e+002, 1.281129e+002
9.106756e+002, 1.285872e+002
9.111577e+002, 1.290159e+002
9.116398e+002, 1.293074e+002
9.121219e+002, 1.291637e+002
9.126041e+002, 1.286759e+002
9.130862e+002, 1.283476e+002
9.135683e+002, 1.284177e+002
9.140504e+002, 1.286932e+002
9.145325e+002, 1.289422e+002
9.150146e+002, 1.291702e+002
9.154968e+002, 1.294744e+002
9.159789e+002, 1.298678e+002
9.164610e+002, 1.299279e+002
9.169431e+002, 1.294796e+002
9.174252e+002, 1.290006e+002
9.179073e+002, 1.288887e+002
9.183895e+002, 1.290526e+002
9.188716e+002, 1.291545e+002
9.193537e+002, 1.291412e+002
9.198358e+002, 1.292019e+002
9.203179e+002, 1.293642e+002
9.208000e+002, 1.295590e+002
9.212822e+002, 1.298498e+002
9.217643e+002, 1.300985e+002
9.222464e+002, 1.300599e+002
9.227285e+002, 1.297548e+002
9.232106e+002, 1.297172e+002
9.236927e+002, 1.303377e+002
9.241749e+002, 1.308029e+002
9.246570e+002, 1.305082e+002
9.251391e+002, 1.303102e+002
9.256212e+002, 1.310845e+002
9.261033e+002, 1.324362e+002
9.265854e+002, 1.334791e+002
9.270676e+002, 1.339525e+002
9.275497e+002, 1.342082e+002
9.280318e+002, 1.344387e+002
9.285139e+002, 1.345963e+002
9.289960e+002, 1.344214e+002
9.294781e+002, 1.342143e+002
9.299603e+002, 1.346700e+002
9.304424e+002, 1.357834e+002
9.309245e+002, 1.368339e+002
9.314066e+002, 1.373502e+002
9.318887e+002, 1.376416e+002
9.323708e+002, 1.381280e+002
9.328530e+002, 1.388028e+002
9.333351e+002, 1.398052e+002
9.338172e+002, 1.410930e+002
9.342993e+002, 1.418241e+002
9.347814e+002, 1.416389e+002
9.352635e+002, 1.412226e+002
9.357457e+002, 1.413052e+002
9.362278e+002, 1.418201e+002
9.367099e+002, 1.423956e+002
9.371920e+002, 1.430429e+002
9.376741e+002, 1.437080e+002
9.381563e+002, 1.444082e+002
9.386384e+002, 1.450796e+002
9.391205e+002, 1.457129e+002
9.396026e+002, 1.462832e+002
9.400847e+002, 1.467490e+002
9.405668e+002, 1.471036e+002
9.410490e+002, 1.473895e+002
9.415311e+002, 1.477250e+002
9.420132e+002, 1.478366e+002
9.424953e+002, 1.473482e+002
9.429774e+002, 1.469129e+002
9.434595e+002, 1.470718e+002
9.439417e+002, 1.476614e+002
9.444238e+002, 1.481889e+002
9.449059e+002, 1.485011e+002
9.453880e+002, 1.489791e+002
9.458701e+002, 1.499127e+002
9.463522e+002, 1.508959e+002
9.468344e+002, 1.515454e+002
9.473165e+002, 1.521346e+002
9.477986e+002, 1.531058e+002
9.482807e+002, 1.544453e+002
9.487628e+002, 1.557791e+002
9.492449e+002, 1.569983e+002
9.497271e+002, 1.579067e+002
9.502092e+002, 1.580049e+002
9.506913e+002, 1.578570e+002
9.511734e+002, 1.582940e+002
9.516555e+002, 1.593087e+002
9.521376e+002, 1.607829e+002
9.526198e+002, 1.626111e+002
9.531019e+002, 1.641816e+002
9.535840e+002, 1.647517e+002
9.540661e+002, 1.648562e+002
9.545482e+002, 1.660283e+002
9.550303e+002, 1.680306e+002
9.555124e+002, 1.691285e+002
9.559945e+002, 1.690869e+002
9.564766e+002, 1.691737e+002
9.569587e+002, 1.700699e+002
9.574409e+002, 1.714913e+002
9.579230e+002, 1.730955e+002
9.584051e+002, 1.748769e+002
9.588872e+002, 1.758135e+002
9.593693e+002, 1.756284e+002
9.598514e+002, 1.758440e+002
9.603336e+002, 1.769654e+002
9.608157e+002, 1.781142e+002
9.612978e+002, 1.784368e+002
9.617799e+002, 1.784141e+002
9.622620e+002, 1.794741e+002
9.627441e+002, 1.821537e+002
9.632263e+002, 1.842498e+002
9.637084e+002, 1.854086e+002
9.641905e+002, 1.864507e+002
9.646726e+002, 1.875247e+002
9.651547e+002, 1.886295e+002
9.656368e+002, 1.896435e+002
9.661190e+002, 1.906695e+002
9.666011e+002, 1.921689e+002
9.670832e+002, 1.944306e+002
9.675653e+002, 1.967005e+002
9.680474e+002, 1.988017e+002
9.685295e+002, 2.008906e+002
9.690117e+002, 2.028620e+002
9.694938e+002, 2.049786e+002
9.699759e+002, 2.076644e+002
9.704580e+002, 2.108919e+002
9.709401e+002, 2.140687e+002
9.714222e+002, 2.170767e+002
9.719044e+002, 2.197214e+002
9.723865e+002, 2.216688e+002
9.728686e+002, 2.233577e+002
9.733507e+002, 2.249958e+002
9.738328e+002, 2.268209e+002
9.743149e+002, 2.294556e+002
9.747971e+002, 2.329704e+002
9.752792e+002, 2.362054e+002
9.757613e+002, 2.381641e+002
9.762434e+002, 2.394061e+002
9.767255e+002, 2.406147e+002
9.772076e+002, 2.416980e+002
9.776898e+002, 2.424915e+002
9.781719e+002, 2.429699e+002
9.786540e+002, 2.431034e+002
9.791361e+002, 2.428802e+002
9.796182e+002, 2.424387e+002
9.801003e+002, 2.419463e+002
9.805825e+002, 2.413752e+002
9.810646e+002, 2.408270e+002
9.815467e+002, 2.402089e+002
9.820288e+002, 2.386370e+002
9.825109e+002, 2.359459e+002
9.829930e+002, 2.328001e+002
9.834752e+002, 2.295771e+002
9.839573e+002, 2.264709e+002
9.844394e+002, 2.239394e+002
9.849215e+002, 2.219931e+002
9.854036e+002, 2.197522e+002
9.858857e+002, 2.172318e+002
9.863679e+002, 2.141918e+002
9.868500e+002, 2.103016e+002
9.873321e+002, 2.067636e+002
9.878142e+002, 2.048029e+002
9.882963e+002, 2.037092e+002
9.887784e+002, 2.011321e+002
9.892606e+002, 1.964363e+002
9.897427e+002, 1.925645e+002
9.902248e+002, 1.898711e+002
9.907069e+002, 1.873102e+002
9.911890e+002, 1.844747e+002
9.916711e+002, 1.817172e+002
9.921533e+002, 1.794518e+002
9.926354e+002, 1.775798e+002
9.931175e+002, 1.755214e+002
9.935996e+002, 1.729021e+002
9.940817e+002, 1.707826e+002
9.945638e+002, 1.692451e+002
9.950460e+002, 1.681156e+002
9.955281e+002, 1.675585e+002
9.960102e+002, 1.672219e+002
9.964923e+002, 1.669570e+002
9.969744e+002, 1.666409e+002
9.974565e+002, 1.655707e+002
9.979387e+002, 1.626377e+002
9.984208e+002, 1.605776e+002
9.989029e+002, 1.608457e+002
9.993850e+002, 1.613941e+002
9.998671e+002, 1.607610e+002
1.000349e+003, 1.596951e+002
1.000831e+003, 1.594997e+002
1.001313e+003, 1.602384e+002
1.001796e+003, 1.606859e+002
1.002278e+003, 1.602352e+002
1.002760e+003, 1.595337e+002
1.003242e+003, 1.585777e+002
1.003724e+003, 1.578408e+002
1.004206e+003, 1.579394e+002
1.004688e+003, 1.585443e+002
1.005170e+003, 1.589872e+002
1.005653e+003, 1.591016e+002
1.006135e+003, 1.591263e+002
1.006617e+003, 1.592243e+002
1.007099e+003, 1.592786e+002
1.007581e+003, 1.589875e+002
1.008063e+003, 1.587037e+002
1.008545e+003, 1.589062e+002
1.009027e+003, 1.595862e+002
1.009509e+003, 1.606826e+002
1.009992e+003, 1.621199e+002
1.010474e+003, 1.634043e+002
1.010956e+003, 1.640500e+002
1.011438e+003, 1.643383e+002
1.011920e+003, 1.645465e+002
1.012402e+003, 1.647693e+002
1.012884e+003, 1.651308e+002
1.013366e+003, 1.657157e+002
1.013849e+003, 1.669551e+002
1.014331e+003, 1.690156e+002
1.014813e+003, 1.709039e+002
1.015295e+003, 1.713315e+002
1.015777e+003, 1.709046e+002
1.016259e+003, 1.712474e+002
1.016741e+003, 1.721375e+002
1.017223e+003, 1.724430e+002
1.017705e+003, 1.720465e+002
1.018188e+003, 1.716590e+002
1.018670e+003, 1.716422e+002
1.019152e+003, 1.718418e+002
1.019634e+003, 1.719534e+002
1.020116e+003, 1.721239e+002
1.020598e+003, 1.732756e+002
1.021080e+003, 1.753561e+002
1.021562e+003, 1.771020e+002
1.022044e+003, 1.782990e+002
1.022527e+003, 1.789997e+002
1.023009e+003, 1.791383e+002
1.023491e+003, 1.792834e+002
1.023973e+003, 1.804570e+002
1.024455e+003, 1.825744e+002
1.024937e+003, 1.841064e+002
1.025419e+003, 1.849505e+002
1.025901e+003, 1.861462e+002
1.026384e+003, 1.880648e+002
1.026866e+003, 1.895556e+002
1.027348e+003, 1.898742e+002
1.027830e+003, 1.894078e+002
1.028312e+003, 1.889500e+002
1.028794e+003, 1.885448e+002
1.029276e+003, 1.868245e+002
1.029758e+003, 1.833891e+002
1.030240e+003, 1.800098e+002
1.030723e+003, 1.769929e+002
1.031205e+003, 1.741082e+002
1.031687e+003, 1.711290e+002
1.032169e+003, 1.682652e+002
1.032651e+003, 1.659686e+002
1.033133e+003, 1.643145e+002
1.033615e+003, 1.625945e+002
1.034097e+003, 1.606104e+002
1.034579e+003, 1.589809e+002
1.035062e+003, 1.578086e+002
1.035544e+003, 1.570498e+002
1.036026e+003, 1.569104e+002
1.036508e+003, 1.570346e+002
1.036990e+003, 1.566360e+002
1.037472e+003, 1.555815e+002
1.037954e+003, 1.547529e+002
1.038436e+003, 1.543105e+002
1.038919e+003, 1.538428e+002
1.039401e+003, 1.531645e+002
1.039883e+003, 1.525721e+002
1.040365e+003, 1.523692e+002
1.040847e+003, 1.523524e+002
1.041329e+003, 1.520590e+002
1.041811e+003, 1.514006e+002
1.042293e+003, 1.509380e+002
1.042776e+003, 1.506330e+002
1.043258e+003, 1.505933e+002
1.043740e+003, 1.512552e+002
1.044222e+003, 1.517752e+002
1.044704e+003, 1.513594e+002
1.045186e+003, 1.504998e+002
1.045668e+003, 1.502179e+002
1.046150e+003, 1.506820e+002
1.046632e+003, 1.509739e+002
1.047115e+003, 1.505788e+002
1.047597e+003, 1.505768e+002
1.048079e+003, 1.512262e+002
1.048561e+003, 1.523579e+002
1.049043e+003, 1.541959e+002
1.049525e+003, 1.563019e+002
1.050007e+003, 1.579538e+002
1.050489e+003, 1.590534e+002
1.050971e+003, 1.597877e+002
1.051454e+003, 1.598413e+002
1.051936e+003, 1.600053e+002
1.052418e+003, 1.603120e+002
1.052900e+003, 1.610060e+002
1.053382e+003, 1.624354e+002
1.053864e+003, 1.643072e+002
1.054346e+003, 1.659080e+002
1.054828e+003, 1.671174e+002
1.055311e+003, 1.692835e+002
1.055793e+003, 1.735969e+002
1.056275e+003, 1.777913e+002
1.056757e+003, 1.803114e+002
1.057239e+003, 1.831894e+002
1.057721e+003, 1.870252e+002
1.058203e+003, 1.926824e+002
1.058685e+003, 2.007041e+002
1.059167e+003, 2.112848e+002
1.059650e+003, 2.273186e+002
1.060132e+003, 2.560983e+002
1.060614e+003, 2.819367e+002
1.061096e+003, 3.058857e+002
1.061578e+003, 3.179753e+002
1.062060e+003, 3.055837e+002
1.062542e+003, 2.784865e+002
1.063024e+003, 2.506585e+002
1.063506e+003, 2.250598e+002
1.063989e+003, 2.043401e+002
1.064471e+003, 1.905366e+002
1.064953e+003, 1.801002e+002
1.065435e+003, 1.726641e+002
1.065917e+003, 1.669454e+002
1.066399e+003, 1.620146e+002
1.066881e+003, 1.581034e+002
1.067363e+003, 1.560536e+002
1.067846e+003, 1.557746e+002
1.068328e+003, 1.555869e+002
1.068810e+003, 1.548884e+002
1.069292e+003, 1.541365e+002
1.069774e+003, 1.533650e+002
1.070256e+003, 1.527921e+002
1.070738e+003, 1.526147e+002
1.071220e+003, 1.527197e+002
1.071703e+003, 1.530950e+002
1.072185e+003, 1.536205e+002
1.072667e+003, 1.537433e+002
1.073149e+003, 1.530017e+002
1.073631e+003, 1.524287e+002
1.074113e+003, 1.526156e+002
1.074595e+003, 1.530279e+002
1.075077e+003, 1.533953e+002
1.075559e+003, 1.536767e+002
1.076042e+003, 1.537732e+002
1.076524e+003, 1.537533e+002
1.077006e+003, 1.539516e+002
1.077488e+003, 1.546009e+002
1.077970e+003, 1.550953e+002
1.078452e+003, 1.552253e+002
1.078934e+003, 1.550280e+002
1.079416e+003, 1.541977e+002
1.079898e+003, 1.532877e+002
1.080380e+003, 1.530340e+002
1.080863e+003, 1.533156e+002
1.081345e+003, 1.533960e+002
1.081827e+003, 1.529406e+002
1.082309e+003, 1.528296e+002
1.082791e+003, 1.537884e+002
1.083273e+003, 1.548268e+002
1.083755e+003, 1.553413e+002
1.084237e+003, 1.556153e+002
1.084720e+003, 1.558667e+002
1.085202e+003, 1.561845e+002
1.085684e+003, 1.567947e+002
1.086166e+003, 1.578252e+002
1.086648e+003, 1.584138e+002
1.087130e+003, 1.578656e+002
1.087612e+003, 1.571934e+002
1.088094e+003, 1.569831e+002
1.088577e+003, 1.568352e+002
1.089059e+003, 1.561223e+002
1.089541e+003, 1.552410e+002
1.090023e+003, 1.551767e+002
1.090505e+003, 1.561338e+002
1.090987e+003, 1.569695e+002
1.091469e+003, 1.569564e+002
1.091951e+003, 1.571419e+002
1.092433e+003, 1.584106e+002
1.092916e+003, 1.596313e+002
1.093398e+003, 1.599458e+002
1.093880e+003, 1.595553e+002
1.094362e+003, 1.585948e+002
1.094844e+003, 1.572085e+002
1.095326e+003, 1.566389e+002
1.095808e+003, 1.577789e+002
1.096290e+003, 1.590544e+002
1.096772e+003, 1.603560e+002
1.097255e+003, 1.611981e+002
1.097737e+003, 1.609173e+002
1.098219e+003, 1.602151e+002
1.098701e+003, 1.600699e+002
1.099183e+003, 1.604793e+002
1.099665e+003, 1.606800e+002
1.100147e+003, 1.602132e+002
1.100629e+003, 1.601217e+002
1.101112e+003, 1.609346e+002
1.101594e+003, 1.618718e+002
1.102076e+003, 1.628753e+002
1.102558e+003, 1.635635e+002
1.103040e+003, 1.632789e+002
1.103522e+003, 1.623254e+002
1.104004e+003, 1.619356e+002
1.104486e+003, 1.625474e+002
1.104969e+003, 1.628875e+002
1.105451e+003, 1.622720e+002
1.105933e+003, 1.619507e+002
1.106415e+003, 1.627146e+002
1.106897e+003, 1.636141e+002
1.107379e+003, 1.637829e+002
1.107861e+003, 1.635073e+002
1.108343e+003, 1.635729e+002
1.108825e+003, 1.641138e+002
1.109307e+003, 1.645501e+002
1.109790e+003, 1.647982e+002
1.110272e+003, 1.649850e+002
1.110754e+003, 1.650522e+002
1.111236e+003, 1.651516e+002
1.111718e+003, 1.654581e+002
1.112200e+003, 1.658172e+002
1.112682e+003, 1.659053e+002
1.113164e+003, 1.656935e+002
1.113647e+003, 1.657854e+002
1.114129e+003, 1.664209e+002
1.114611e+003, 1.669622e+002
1.115093e+003, 1.672939e+002
1.115575e+003, 1.676321e+002
1.116057e+003, 1.681913e+002
1.116539e+003, 1.686883e+002
1.117021e+003, 1.687495e+002
1.117504e+003, 1.684367e+002
1.117986e+003, 1.682038e+002
1.118468e+003, 1.680572e+002
1.118950e+003, 1.679443e+002
1.119432e+003, 1.676131e+002
1.119914e+003, 1.678649e+002
1.120396e+003, 1.692592e+002
1.120878e+003, 1.708350e+002
1.121360e+003, 1.718744e+002
1.121843e+003, 1.723947e+002
1.122325e+003, 1.723659e+002
1.122807e+003, 1.716284e+002
1.123289e+003, 1.713125e+002
1.123771e+003, 1.714595e+002
1.124253e+003, 1.719541e+002
1.124735e+003, 1.729461e+002
1.125217e+003, 1.737161e+002
1.125699e+003, 1.737002e+002
1.126182e+003, 1.734230e+002
1.126664e+003, 1.737905e+002
1.127146e+003, 1.747717e+002
1.127628e+003, 1.758860e+002
1.128110e+003, 1.771955e+002
1.128592e+003, 1.778926e+002
1.129074e+003, 1.777388e+002
1.129556e+003, 1.780345e+002
1.130039e+003, 1.794487e+002
1.130521e+003, 1.810500e+002
1.131003e+003, 1.817480e+002
1.131485e+003, 1.818166e+002
1.131967e+003, 1.821966e+002
1.132449e+003, 1.828728e+002
1.132931e+003, 1.835690e+002
1.133413e+003, 1.842761e+002
1.133896e+003, 1.851092e+002
1.134378e+003, 1.861042e+002
1.134860e+003, 1.872185e+002
1.135342e+003, 1.884650e+002
1.135824e+003, 1.895714e+002
1.136306e+003, 1.898774e+002
1.136788e+003, 1.896402e+002
1.137270e+003, 1.897249e+002
1.137752e+003, 1.901855e+002
1.138234e+003, 1.914090e+002
1.138717e+003, 1.933206e+002
1.139199e+003, 1.949118e+002
1.139681e+003, 1.956728e+002
1.140163e+003, 1.960448e+002
1.140645e+003, 1.963080e+002
1.141127e+003, 1.967289e+002
1.141609e+003, 1.979675e+002
1.142091e+003, 1.996747e+002
1.142574e+003, 2.011520e+002
1.143056e+003, 2.023394e+002
1.143538e+003, 2.033042e+002
1.144020e+003, 2.041101e+002
1.144502e+003, 2.050106e+002
1.144984e+003, 2.061481e+002
1.145466e+003, 2.075577e+002
1.145948e+003, 2.097039e+002
1.146431e+003, 2.117995e+002
1.146913e+003, 2.125249e+002
1.147395e+003, 2.125848e+002
1.147877e+003, 2.133790e+002
1.148359e+003, 2.149985e+002
1.148841e+003, 2.166110e+002
1.149323e+003, 2.178685e+002
1.149805e+003, 2.190895e+002
1.150287e+003, 2.203942e+002
1.150770e+003, 2.218279e+002
1.151252e+003, 2.234204e+002
1.151734e+003, 2.251599e+002
1.152216e+003, 2.270670e+002
1.152698e+003, 2.290977e+002
1.153180e+003, 2.311894e+002
1.153662e+003, 2.333284e+002
1.154144e+003, 2.354418e+002
1.154626e+003, 2.373582e+002
1.155109e+003, 2.394726e+002
1.155591e+003, 2.421745e+002
1.156073e+003, 2.448286e+002
1.156555e+003, 2.470173e+002
1.157037e+003, 2.489515e+002
1.157519e+003, 2.510749e+002
1.158001e+003, 2.533029e+002
1.158483e+003, 2.548276e+002
1.158966e+003, 2.547867e+002
1.159448e+003, 2.557601e+002
1.159930e+003, 2.585967e+002
1.160412e+003, 2.615429e+002
1.160894e+003, 2.647251e+002
1.161376e+003, 2.671854e+002
1.161858e+003, 2.675341e+002
1.162340e+003, 2.670489e+002
1.162822e+003, 2.687742e+002
1.163305e+003, 2.730800e+002
1.163787e+003, 2.755391e+002
1.164269e+003, 2.753969e+002
1.164751e+003, 2.755582e+002
1.165233e+003, 2.763470e+002
1.165715e+003, 2.776414e+002
1.166197e+003, 2.794819e+002
1.166679e+003, 2.816075e+002
1.167161e+003, 2.838369e+002
1.167644e+003, 2.859686e+002
1.168126e+003, 2.869980e+002
1.168608e+003, 2.868652e+002
1.169090e+003, 2.876063e+002
1.169572e+003, 2.893344e+002
1.170054e+003, 2.908145e+002
1.170536e+003, 2.917105e+002
1.171018e+003, 2.920362e+002
1.171500e+003, 2.917360e+002
1.171983e+003, 2.913329e+002
1.172465e+003, 2.918802e+002
1.172947e+003, 2.929316e+002
1.173429e+003, 2.927099e+002
1.173911e+003, 2.916686e+002
1.174393e+003, 2.918774e+002
1.174875e+003, 2.931934e+002
1.175357e+003, 2.934487e+002
1.175840e+003, 2.918744e+002
1.176322e+003, 2.897434e+002
1.176804e+003, 2.879786e+002
1.177286e+003, 2.864542e+002
1.177768e+003, 2.853824e+002
1.178250e+003, 2.841801e+002
1.178732e+003, 2.813984e+002
1.179214e+003, 2.780659e+002
1.179697e+003, 2.765218e+002
1.180179e+003, 2.766856e+002
1.180661e+003, 2.765689e+002
1.181143e+003, 2.753686e+002
1.181625e+003, 2.736644e+002
1.182107e+003, 2.716015e+002
1.182589e+003, 2.694058e+002
1.183071e+003, 2.670525e+002
1.183553e+003, 2.648025e+002
1.184036e+003, 2.630730e+002
1.184518e+003, 2.615600e+002
1.185000e+003, 2.595699e+002
1.185482e+003, 2.570480e+002
1.185964e+003, 2.548573e+002
1.186446e+003, 2.530151e+002
1.186928e+003, 2.517932e+002
1.187410e+003, 2.521465e+002
1.187892e+003, 2.519967e+002
1.188375e+003, 2.499181e+002
1.188857e+003, 2.474376e+002
1.189339e+003, 2.460315e+002
1.189821e+003, 2.453311e+002
1.190303e+003, 2.443289e+002
1.190785e+003, 2.430072e+002
1.191267e+003, 2.414516e+002
1.191749e+003, 2.394060e+002
1.192232e+003, 2.378702e+002
1.192714e+003, 2.370609e+002
1.193196e+003, 2.366682e+002
1.193678e+003, 2.366664e+002
1.194160e+003, 2.366108e+002
1.194642e+003, 2.358896e+002
1.195124e+003, 2.347438e+002
1.195606e+003, 2.341990e+002
1.196089e+003, 2.342241e+002
1.196571e+003, 2.339598e+002
1.197053e+003, 2.333921e+002
1.197535e+003, 2.331039e+002
1.198017e+003, 2.332242e+002
1.198499e+003, 2.332635e+002
1.198981e+003, 2.329039e+002
1.199463e+003, 2.325361e+002
1.199945e+003, 2.326842e+002
1.200427e+003, 2.331851e+002
1.200910e+003, 2.340297e+002
1.201392e+003, 2.348412e+002
1.201874e+003, 2.346322e+002
1.202356e+003, 2.336234e+002
1.202838e+003, 2.327018e+002
1.203320e+003, 2.321182e+002
1.203802e+003, 2.316253e+002
1.204284e+003, 2.310399e+002
1.204767e+003, 2.306203e+002
1.205249e+003, 2.306281e+002
1.205731e+003, 2.308136e+002
1.206213e+003, 2.310132e+002
1.206695e+003, 2.312382e+002
1.207177e+003, 2.316011e+002
1.207659e+003, 2.319974e+002
1.208141e+003, 2.320958e+002
1.208624e+003, 2.318021e+002
1.209106e+003, 2.317436e+002
1.209588e+003, 2.322185e+002
1.210070e+003, 2.327198e+002
1.210552e+003, 2.331790e+002
1.211034e+003, 2.336011e+002
1.211516e+003, 2.340292e+002
1.211998e+003, 2.343834e+002
1.212480e+003, 2.345517e+002
1.212963e+003, 2.345823e+002
1.213445e+003, 2.346749e+002
1.213927e+003, 2.348794e+002
1.214409e+003, 2.348475e+002
1.214891e+003, 2.344805e+002
1.215373e+003, 2.342095e+002
1.215855e+003, 2.340413e+002
1.216337e+003, 2.344455e+002
1.216819e+003, 2.357959e+002
1.217302e+003, 2.371640e+002
1.217784e+003, 2.373743e+002
1.218266e+003, 2.367677e+002
1.218748e+003, 2.362217e+002
1.219230e+003, 2.358071e+002
1.219712e+003, 2.359341e+002
1.220194e+003, 2.365497e+002
1.220676e+003, 2.374280e+002
1.221159e+003, 2.384050e+002
1.221641e+003, 2.387969e+002
1.222123e+003, 2.382093e+002
1.222605e+003, 2.376205e+002
1.223087e+003, 2.381503e+002
1.223569e+003, 2.390582e+002
1.224051e+003, 2.394774e+002
1.224533e+003, 2.397688e+002
1.225016e+003, 2.404516e+002
1.225498e+003, 2.413608e+002
1.225980e+003, 2.420215e+002
1.226462e+003, 2.424274e+002
1.226944e+003, 2.432146e+002
1.227426e+003, 2.450570e+002
1.227908e+003, 2.459114e+002
1.228390e+003, 2.439285e+002
1.228872e+003, 2.423182e+002
1.229354e+003, 2.425589e+002
1.229837e+003, 2.435652e+002
1.230319e+003, 2.449023e+002
1.230801e+003, 2.461837e+002
1.231283e+003, 2.466182e+002
1.231765e+003, 2.462549e+002
1.232247e+003, 2.467211e+002
1.232729e+003, 2.483465e+002
1.233211e+003, 2.498548e+002
1.233694e+003, 2.513163e+002
1.234176e+003, 2.521712e+002
1.234658e+003, 2.521310e+002
1.235140e+003, 2.520115e+002
1.235622e+003, 2.524262e+002
1.236104e+003, 2.530128e+002
1.236586e+003, 2.530905e+002
1.237068e+003, 2.528379e+002
1.237551e+003, 2.530072e+002
1.238033e+003, 2.535326e+002
1.238515e+003, 2.541816e+002
1.238997e+003, 2.549007e+002
1.239479e+003, 2.555884e+002
1.239961e+003, 2.562279e+002
1.240443e+003, 2.569535e+002
1.240925e+003, 2.578745e+002
1.241407e+003, 2.587859e+002
1.241890e+003, 2.595514e+002
1.242372e+003, 2.601511e+002
1.242854e+003, 2.604525e+002
1.243336e+003, 2.606766e+002
1.243818e+003, 2.609899e+002
1.244300e+003, 2.614874e+002
1.244782e+003, 2.623846e+002
1.245264e+003, 2.636747e+002
1.245746e+003, 2.647867e+002
1.246229e+003, 2.655391e+002
1.246711e+003, 2.661617e+002
1.247193e+003, 2.663303e+002
1.247675e+003, 2.668722e+002
1.248157e+003, 2.681368e+002
1.248639e+003, 2.698163e+002
1.249121e+003, 2.721478e+002
1.249603e+003, 2.742921e+002
1.250085e+003, 2.745032e+002
1.250568e+003, 2.729525e+002
1.251050e+003, 2.727379e+002
1.251532e+003, 2.739762e+002
1.252014e+003, 2.753008e+002
1.252496e+003, 2.766137e+002
1.252978e+003, 2.780031e+002
1.253460e+003, 2.794945e+002
1.253942e+003, 2.808447e+002
1.254425e+003, 2.818768e+002
1.254907e+003, 2.827124e+002
1.255389e+003, 2.832888e+002
1.255871e+003, 2.839420e+002
1.256353e+003, 2.856051e+002
1.256835e+003, 2.876420e+002
1.257317e+003, 2.886122e+002
1.257799e+003, 2.889420e+002
1.258281e+003, 2.901022e+002
1.258764e+003, 2.922129e+002
1.259246e+003, 2.939327e+002
1.259728e+003, 2.945401e+002
1.260210e+003, 2.952759e+002
1.260692e+003, 2.970793e+002
1.261174e+003, 2.986691e+002
1.261656e+003, 2.991398e+002
1.262138e+003, 2.994739e+002
1.262620e+003, 3.005378e+002
1.263103e+003, 3.019046e+002
1.263585e+003, 3.027402e+002
1.264067e+003, 3.031563e+002
1.264549e+003, 3.041187e+002
1.265031e+003, 3.058421e+002
1.265513e+003, 3.074269e+002
1.265995e+003, 3.089315e+002
1.266477e+003, 3.098849e+002
1.266960e+003, 3.100875e+002
1.267442e+003, 3.104201e+002
1.267924e+003, 3.114009e+002
1.268406e+003, 3.124642e+002
1.268888e+003, 3.128368e+002
1.269370e+003, 3.130190e+002
1.269852e+003, 3.143964e+002
1.270334e+003, 3.164141e+002
1.270817e+003, 3.177267e+002
1.271299e+003, 3.184289e+002
1.271781e+003, 3.188361e+002
1.272263e+003, 3.191558e+002
1.272745e+003, 3.198380e+002
1.273227e+003, 3.210558e+002
1.273709e+003, 3.222478e+002
1.274191e+003, 3.232037e+002
1.274673e+003, 3.238878e+002
1.275156e+003, 3.237595e+002
1.275638e+003, 3.239552e+002
1.276120e+003, 3.256690e+002
1.276602e+003, 3.277747e+002
1.277084e+003, 3.291705e+002
1.277566e+003, 3.298115e+002
1.278048e+003, 3.296513e+002
1.278530e+003, 3.285328e+002
1.279012e+003, 3.281152e+002
1.279495e+003, 3.285161e+002
1.279977e+003, 3.292396e+002
1.280459e+003, 3.304029e+002
1.280941e+003, 3.309004e+002
1.281423e+003, 3.302062e+002
1.281905e+003, 3.299435e+002
1.282387e+003, 3.314815e+002
1.282869e+003, 3.337483e+002
1.283352e+003, 3.350661e+002
1.283834e+003, 3.356266e+002
1.284316e+003, 3.358072e+002
1.284798e+003, 3.356242e+002
##END=



