##NAMES=Bayldonite
##RRUFFID=R050670
##IDEAL CHEMISTRY=Cu^2+^_3_Pb^2+^O(As^5+^O_3_OH)_2_(OH)_2_
##LOCALITY=Tsumeb mine, Tsumeb, Otavi District, Oshikoto, Namibia
##OWNER=RRUFF
##SOURCE=University of Arizona Mineral Museum
##DESCRIPTION=Green botryoidal coating asociated with olivenite R050670, malachite balls and azurite
##STATUS=The identification of this mineral has been confirmed by X-ray diffraction and chemical analysis
##URL=rruff.info/R050670
##MEASURED CHEMISTRY=Pb_1.00_Cu_3.00_O(As_1.00_O_3_OH)_2_(OH)_2_
90.26367, 24.38206
90.74579, 24.90618
91.22791, 24.69147
91.71002, 23.81822
92.19214, 22.98946
92.67426, 22.97512
93.15637, 23.47837
93.63850, 23.70318
94.12061, 23.16338
94.60273, 22.22949
95.08485, 21.80885
95.56696, 21.95205
96.04908, 22.29213
96.53120, 22.39165
97.01331, 22.26228
97.49543, 22.17523
97.97755, 22.28726
98.45966, 22.58297
98.94178, 22.80867
99.42390, 22.98391
99.90602, 23.05682
100.3881, 22.89137
100.8703, 22.42704
101.3524, 21.93258
101.8345, 21.50651
102.3166, 21.12984
102.7987, 20.94727
103.2808, 21.08268
103.7630, 21.41744
104.2451, 21.38148
104.7272, 20.71567
105.2093, 20.02108
105.6914, 19.69176
106.1735, 19.90896
106.6557, 20.18698
107.1378, 20.46091
107.6199, 20.73061
108.1020, 21.09659
108.5841, 21.78700
109.0662, 22.45591
109.5484, 22.80195
110.0305, 22.56285
110.5126, 22.26594
110.9947, 21.91607
111.4768, 21.42721
111.9590, 21.27845
112.4411, 21.41003
112.9232, 21.93121
113.4053, 22.97747
113.8874, 25.54030
114.3695, 27.85597
114.8517, 29.09627
115.3338, 28.66840
115.8159, 28.43546
116.2980, 28.95752
116.7801, 30.06241
117.2622, 31.35814
117.7444, 32.72529
118.2265, 34.22590
118.7086, 35.88894
119.1907, 37.71852
119.6728, 39.74644
120.1549, 41.95693
120.6371, 44.36981
121.1192, 47.07728
121.6013, 50.05188
122.0834, 53.35030
122.5655, 57.04059
123.0477, 61.35323
123.5298, 65.88231
124.0119, 70.30030
124.4940, 74.61103
124.9761, 78.88683
125.4582, 83.21994
125.9404, 87.53014
126.4225, 91.62103
126.9046, 95.29047
127.3867, 98.73228
127.8688, 102.2564
128.3509, 105.8706
128.8331, 109.4901
129.3152, 112.7700
129.7973, 115.8747
130.2794, 119.5309
130.7615, 124.4435
131.2436, 130.2333
131.7258, 135.4030
132.2079, 139.7263
132.6900, 143.9296
133.1721, 149.0152
133.6542, 154.9670
134.1364, 161.6958
134.6185, 169.8261
135.1006, 179.2908
135.5827, 187.2179
136.0648, 193.0918
136.5469, 197.7513
137.0291, 203.2344
137.5112, 209.6582
137.9933, 216.2799
138.4754, 222.9445
138.9575, 229.7561
139.4396, 235.5600
139.9218, 239.9943
140.4039, 243.3014
140.8860, 246.4486
141.3681, 249.1982
141.8502, 252.1789
142.3323, 255.8227
142.8145, 260.3372
143.2966, 265.0981
143.7787, 269.9514
144.2608, 274.9430
144.7429, 280.2632
145.2251, 286.1821
145.7072, 292.2519
146.1893, 298.0399
146.6714, 303.1398
147.1535, 308.5498
147.6356, 314.4182
148.1178, 320.7356
148.5999, 327.4166
149.0820, 334.5988
149.5641, 342.0638
150.0462, 349.4836
150.5283, 356.6163
151.0105, 363.8502
151.4926, 367.9427
151.9747, 371.7475
152.4568, 375.5237
152.9389, 379.4482
153.4210, 383.2921
153.9032, 386.7975
154.3853, 389.8750
154.8674, 392.6252
155.3495, 395.0562
155.8316, 397.1568
156.3138, 399.0568
156.7959, 400.3369
157.2780, 401.4539
157.7601, 403.2681
158.2422, 406.6977
158.7243, 410.3241
159.2065, 413.3911
159.6886, 415.0712
160.1707, 417.4220
160.6528, 421.6423
161.1349, 427.0451
161.6170, 431.8214
162.0992, 435.2330
162.5813, 437.8737
163.0634, 440.0756
163.5455, 441.4759
164.0276, 443.0469
164.5097, 445.5602
164.9919, 448.7235
165.4740, 451.3957
165.9561, 452.6281
166.4382, 453.3013
166.9203, 454.2576
167.4025, 456.3661
167.8846, 458.1803
168.3667, 458.6408
168.8488, 457.9102
169.3309, 457.0098
169.8130, 456.6415
170.2952, 456.4291
170.7773, 455.9146
171.2594, 454.8694
171.7415, 453.5116
172.2236, 452.0410
172.7057, 450.4433
173.1879, 448.5490
173.6700, 446.2982
174.1521, 443.6504
174.6342, 440.5421
175.1163, 436.7853
175.5984, 432.5919
176.0806, 428.2322
176.5627, 423.6878
177.0448, 418.9762
177.5269, 414.3085
178.0090, 409.5287
178.4911, 404.1226
178.9733, 397.3303
179.4554, 390.0234
179.9375, 383.4146
180.4196, 377.5851
180.9017, 372.3877
181.3839, 367.9502
181.8660, 364.1429
182.3481, 360.3261
182.8302, 356.0020
183.3123, 351.5173
183.7944, 347.6378
184.2766, 344.3486
184.7587, 341.6679
185.2408, 340.0380
185.7229, 339.2523
186.2050, 337.9307
186.6871, 334.7463
187.1693, 330.3467
187.6514, 327.3529
188.1335, 325.9370
188.6156, 325.4992
189.0977, 325.5681
189.5798, 326.0894
190.0620, 326.1154
190.5441, 324.7301
191.0262, 322.2089
191.5083, 320.3777
191.9904, 318.7513
192.4725, 318.6081
192.9547, 318.2106
193.4368, 317.5741
193.9189, 315.9016
194.4010, 315.6286
194.8831, 314.8323
195.3652, 314.0405
195.8474, 314.0412
196.3295, 312.6578
196.8116, 312.7003
197.2937, 312.2112
197.7758, 312.0047
198.2579, 311.2716
198.7401, 310.7362
199.2222, 310.7815
199.7043, 310.5471
200.1864, 309.8579
200.6685, 309.8290
201.1507, 308.6953
201.6328, 308.5816
202.1149, 308.9233
202.5970, 308.3965
203.0791, 308.5122
203.5612, 308.4203
204.0434, 307.2898
204.5255, 308.0394
205.0076, 308.0144
205.4897, 307.1934
205.9718, 307.9602
206.4539, 307.3065
206.9361, 307.2860
207.4182, 308.1519
207.9003, 309.6639
208.3824, 310.7378
208.8645, 311.3311
209.3466, 311.6102
209.8288, 311.5979
210.3109, 311.1886
210.7930, 310.9538
211.2751, 310.9606
211.7572, 311.1723
212.2393, 311.4693
212.7215, 311.8652
213.2036, 312.3048
213.6857, 312.7613
214.1678, 313.2486
214.6499, 313.6897
215.1321, 314.0286
215.6142, 314.3201
216.0963, 314.8600
216.5784, 315.8322
217.0605, 316.6978
217.5426, 317.0396
218.0248, 316.6057
218.5069, 316.3996
218.9890, 316.6054
219.4711, 317.1133
219.9532, 317.3160
220.4353, 316.8767
220.9175, 316.6913
221.3996, 317.0421
221.8817, 318.2041
222.3638, 319.0848
222.8459, 319.6996
223.3280, 319.2514
223.8102, 320.1758
224.2923, 320.5501
224.7744, 320.9019
225.2565, 322.0194
225.7386, 321.7258
226.2208, 322.8313
226.7029, 323.2806
227.1850, 323.8819
227.6671, 324.0328
228.1492, 323.4971
228.6313, 322.8456
229.1135, 322.4283
229.5956, 322.3449
230.0777, 322.2758
230.5598, 322.2474
231.0419, 322.2252
231.5240, 321.9507
232.0062, 320.9967
232.4883, 320.3773
232.9704, 320.4155
233.4525, 320.4731
233.9346, 320.2494
234.4167, 319.7597
234.8989, 318.2071
235.3810, 318.0270
235.8631, 317.2969
236.3452, 316.5442
236.8273, 316.5573
237.3095, 315.1592
237.7916, 315.1602
238.2737, 314.6027
238.7558, 314.3008
239.2379, 313.4454
239.7200, 312.7610
240.2022, 312.6302
240.6843, 311.5195
241.1664, 312.2941
241.6485, 312.6764
242.1306, 312.4576
242.6127, 311.7930
243.0949, 311.2677
243.5770, 310.9264
244.0591, 310.6740
244.5412, 310.4605
245.0233, 310.2434
245.5054, 310.1732
245.9876, 310.2719
246.4697, 310.5236
246.9518, 310.9393
247.4339, 311.8119
247.9160, 312.4137
248.3981, 312.3034
248.8803, 311.0058
249.3624, 310.1125
249.8445, 309.6489
250.3266, 309.6009
250.8087, 309.9901
251.2909, 311.0345
251.7730, 312.1461
252.2551, 313.0988
252.7372, 314.0047
253.2193, 314.4476
253.7014, 314.2868
254.1836, 313.7206
254.6657, 313.1571
255.1478, 312.4800
255.6299, 312.0121
256.1120, 311.9238
256.5941, 312.3586
257.0763, 312.7359
257.5584, 313.0749
258.0405, 313.3538
258.5226, 313.4773
259.0047, 313.2914
259.4868, 313.2789
259.9690, 313.7194
260.4511, 314.8045
260.9332, 315.4539
261.4153, 315.5652
261.8974, 315.3385
262.3795, 315.0422
262.8617, 314.5326
263.3438, 314.2909
263.8259, 314.5143
264.3080, 315.2574
264.7901, 316.1104
265.2722, 317.1849
265.7544, 318.2336
266.2365, 318.7984
266.7186, 318.6664
267.2007, 318.7040
267.6829, 319.2587
268.1650, 320.3834
268.6471, 321.2767
269.1292, 322.0562
269.6113, 322.4526
270.0934, 321.8189
270.5756, 319.6476
271.0577, 318.4339
271.5398, 319.2268
272.0219, 321.9501
272.5040, 323.4817
272.9861, 323.4511
273.4683, 322.9985
273.9504, 323.3773
274.4325, 324.7482
274.9146, 326.0400
275.3967, 326.9788
275.8788, 327.6150
276.3610, 328.3344
276.8431, 329.1952
277.3252, 329.9423
277.8073, 330.1825
278.2894, 329.8402
278.7715, 329.9410
279.2537, 330.9133
279.7358, 332.4403
280.2179, 333.0009
280.7000, 332.3714
281.1821, 331.8071
281.6642, 332.5018
282.1464, 334.4650
282.6285, 336.1392
283.1106, 337.1654
283.5927, 337.8329
284.0748, 338.9749
284.5569, 340.6408
285.0391, 342.3480
285.5212, 343.7628
286.0033, 344.9029
286.4854, 345.8688
286.9675, 346.3964
287.4496, 347.1692
287.9318, 350.2616
288.4139, 355.7414
288.8960, 360.3615
289.3781, 361.3759
289.8602, 359.6282
290.3424, 359.5636
290.8245, 361.8677
291.3066, 365.1800
291.7887, 367.2684
292.2708, 368.2773
292.7530, 369.4547
293.2351, 371.4153
293.7172, 374.0715
294.1993, 377.2281
294.6814, 380.9831
295.1635, 384.8036
295.6457, 387.7863
296.1278, 390.1481
296.6099, 392.7920
297.0920, 396.2860
297.5741, 400.2662
298.0562, 403.9757
298.5384, 407.3554
299.0205, 410.6574
299.5026, 414.0854
299.9847, 417.6024
300.4668, 421.2290
300.9489, 424.7759
301.4311, 428.4780
301.9132, 432.6832
302.3953, 437.4109
302.8774, 442.1557
303.3595, 446.5287
303.8416, 450.6715
304.3238, 454.9454
304.8059, 459.3528
305.2880, 463.9421
305.7701, 468.7675
306.2522, 473.8235
306.7343, 478.7871
307.2165, 483.4354
307.6986, 487.9266
308.1807, 492.4906
308.6628, 497.3647
309.1449, 502.1211
309.6270, 506.5553
310.1092, 510.6897
310.5913, 514.4636
311.0734, 518.0753
311.5555, 521.1985
312.0376, 523.4578
312.5197, 524.6650
313.0019, 525.3344
313.4840, 525.7755
313.9661, 525.9044
314.4482, 525.5607
314.9304, 524.4683
315.4125, 523.0387
315.8946, 521.6194
316.3767, 520.3516
316.8588, 518.5710
317.3409, 515.4050
317.8231, 511.7169
318.3052, 508.6562
318.7873, 507.7945
319.2694, 506.5277
319.7515, 503.0332
320.2336, 496.9614
320.7158, 492.6746
321.1979, 493.4161
321.6800, 495.5971
322.1621, 495.9786
322.6442, 491.7448
323.1263, 487.8859
323.6085, 485.7507
324.0906, 485.2505
324.5727, 484.6424
325.0548, 483.6568
325.5369, 482.5150
326.0190, 481.3539
326.5012, 480.8853
326.9833, 479.5824
327.4654, 476.8385
327.9475, 473.0446
328.4296, 469.8103
328.9117, 468.0020
329.3939, 465.9922
329.8760, 463.1087
330.3581, 459.0797
330.8402, 454.6117
331.3223, 449.3200
331.8044, 443.6585
332.2866, 438.5736
332.7687, 434.5533
333.2508, 430.4437
333.7329, 425.7807
334.2150, 420.3571
334.6971, 415.2616
335.1793, 410.4264
335.6614, 405.9252
336.1435, 402.0189
336.6256, 398.9934
337.1077, 395.7147
337.5899, 391.7996
338.0720, 387.2733
338.5541, 383.6173
339.0362, 381.0545
339.5183, 378.8243
340.0005, 376.1592
340.4826, 372.9053
340.9647, 370.1949
341.4468, 368.3101
341.9289, 367.0548
342.4110, 365.7737
342.8932, 364.4576
343.3753, 363.2161
343.8574, 362.3430
344.3395, 361.7655
344.8216, 360.3763
345.3037, 357.7559
345.7859, 354.8806
346.2680, 353.6724
346.7501, 354.0222
347.2322, 354.3945
347.7143, 353.9148
348.1964, 352.8071
348.6786, 351.7188
349.1607, 350.6303
349.6428, 349.7541
350.1249, 349.5548
350.6070, 349.8015
351.0891, 349.7466
351.5713, 348.7089
352.0534, 347.3850
352.5355, 347.0385
353.0176, 347.6305
353.4997, 347.9883
353.9818, 346.8081
354.4640, 344.8864
354.9461, 343.4475
355.4282, 343.0568
355.9103, 343.0177
356.3924, 342.8166
356.8745, 342.4710
357.3567, 342.0523
357.8388, 341.4063
358.3209, 340.2149
358.8030, 340.9049
359.2851, 341.3137
359.7672, 341.4565
360.2494, 340.5365
360.7315, 340.9889
361.2136, 340.8912
361.6957, 340.7711
362.1779, 341.4167
362.6600, 340.6512
363.1421, 341.2846
363.6242, 341.3596
364.1063, 341.6902
364.5884, 341.4673
365.0706, 341.4155
365.5527, 341.9172
366.0348, 342.1123
366.5169, 341.8258
366.9990, 342.1726
367.4811, 341.3878
367.9633, 341.5960
368.4454, 342.2327
368.9275, 341.9739
369.4096, 342.3309
369.8917, 342.4534
370.3738, 341.5102
370.8560, 342.4203
371.3381, 342.5289
371.8202, 341.8145
372.3023, 342.6611
372.7844, 342.0602
373.2665, 341.9760
373.7487, 342.7023
374.2308, 342.6322
374.7129, 342.3740
375.1950, 342.3182
375.6771, 342.5404
376.1592, 342.7144
376.6414, 342.6633
377.1235, 342.4508
377.6056, 342.8038
378.0877, 343.8849
378.5698, 345.0166
379.0519, 345.5897
379.5341, 345.5981
380.0162, 345.5236
380.4983, 345.3630
380.9804, 345.2634
381.4625, 345.6119
381.9446, 346.4042
382.4268, 347.3024
382.9089, 348.2487
383.3910, 349.1489
383.8731, 349.5929
384.3553, 349.4411
384.8374, 349.3383
385.3195, 350.4580
385.8016, 352.3143
386.2837, 353.4888
386.7658, 352.5141
387.2480, 350.9097
387.7301, 350.6590
388.2122, 351.7314
388.6943, 353.1826
389.1764, 354.7031
389.6585, 356.0596
390.1407, 356.8793
390.6228, 356.7496
391.1049, 356.5054
391.5870, 356.6869
392.0691, 357.1954
392.5512, 357.7349
393.0334, 358.0849
393.5155, 358.4815
393.9976, 359.1293
394.4797, 360.1663
394.9618, 361.0688
395.4439, 361.8845
395.9261, 362.4114
396.4082, 362.3819
396.8903, 360.5681
397.3724, 359.3560
397.8545, 359.7810
398.3366, 361.9454
398.8188, 363.4012
399.3009, 363.4795
399.7830, 363.1314
400.2651, 362.9276
400.7472, 362.6094
401.2293, 362.8711
401.7115, 364.2816
402.1936, 366.2452
402.6757, 366.8146
403.1578, 365.0954
403.6399, 363.5141
404.1220, 363.1806
404.6042, 364.3418
405.0863, 365.3127
405.5684, 366.1063
406.0505, 366.6713
406.5326, 366.7748
407.0147, 366.3080
407.4969, 366.2579
407.9790, 367.0534
408.4611, 368.4350
408.9432, 369.2301
409.4254, 369.3702
409.9075, 369.6268
410.3896, 370.8610
410.8717, 372.8061
411.3538, 374.1479
411.8359, 374.4818
412.3181, 374.6577
412.8002, 376.1357
413.2823, 378.5707
413.7644, 380.6878
414.2465, 381.2694
414.7286, 381.3726
415.2108, 382.5834
415.6929, 384.9907
416.1750, 387.4414
416.6571, 388.8730
417.1392, 389.8514
417.6213, 391.1867
418.1035, 393.1159
418.5856, 395.4899
419.0677, 398.3625
419.5498, 401.6536
420.0319, 404.9474
420.5140, 408.1422
420.9962, 411.2843
421.4783, 414.3749
421.9604, 417.3107
422.4425, 420.4560
422.9246, 424.1496
423.4067, 427.9901
423.8889, 431.4771
424.3710, 434.9717
424.8531, 437.6306
425.3352, 439.0222
425.8173, 439.1512
426.2994, 439.3452
426.7816, 440.0081
427.2637, 440.3230
427.7458, 439.7585
428.2279, 438.1496
428.7100, 436.0639
429.1921, 433.7120
429.6743, 430.8148
430.1564, 426.5666
430.6385, 420.6119
431.1206, 414.6773
431.6028, 409.4572
432.0849, 404.8910
432.5670, 400.6598
433.0491, 396.8031
433.5312, 393.0711
434.0133, 389.0358
434.4955, 384.7809
434.9776, 380.8230
435.4597, 377.1819
435.9418, 374.0446
436.4239, 372.0117
436.9060, 370.9774
437.3882, 370.1411
437.8703, 368.9870
438.3524, 367.7228
438.8345, 366.6520
439.3166, 365.8165
439.7987, 365.0842
440.2809, 364.2905
440.7630, 363.5362
441.2451, 362.9877
441.7272, 363.1838
442.2093, 363.1769
442.6914, 362.1837
443.1736, 360.3841
443.6557, 358.9952
444.1378, 358.6567
444.6199, 358.7393
445.1020, 358.8967
445.5841, 359.2370
446.0663, 359.3551
446.5484, 358.9355
447.0305, 358.3218
447.5126, 358.0981
447.9947, 358.8919
448.4768, 359.3190
448.9590, 358.8558
449.4411, 357.4712
449.9232, 356.8232
450.4053, 357.2277
450.8874, 357.8939
451.3695, 358.1594
451.8517, 357.8258
452.3338, 358.0533
452.8159, 359.2168
453.2980, 360.6643
453.7801, 360.9081
454.2622, 359.8601
454.7444, 358.8604
455.2265, 358.5602
455.7086, 358.8122
456.1907, 359.0212
456.6729, 359.1886
457.1550, 359.3534
457.6371, 359.5772
458.1192, 359.8306
458.6013, 360.0363
459.0834, 360.1458
459.5656, 360.2544
460.0477, 360.3676
460.5298, 360.5477
461.0119, 360.9683
461.4940, 362.0524
461.9761, 363.1945
462.4583, 363.9017
462.9404, 364.1206
463.4225, 364.2025
463.9046, 364.2616
464.3867, 364.2853
464.8688, 364.2612
465.3510, 364.1163
465.8331, 364.0057
466.3152, 363.8058
466.7973, 363.6339
467.2794, 363.9154
467.7615, 365.4234
468.2437, 366.6530
468.7258, 366.9585
469.2079, 366.0005
469.6900, 365.6817
470.1721, 366.2062
470.6542, 367.1478
471.1364, 368.0908
471.6185, 369.0314
472.1006, 370.0011
472.5827, 371.0663
473.0648, 372.1266
473.5469, 372.8210
474.0291, 373.1235
474.5112, 373.3810
474.9933, 373.6417
475.4754, 373.9950
475.9575, 374.9006
476.4396, 376.4184
476.9218, 378.1640
477.4039, 379.7831
477.8860, 381.3033
478.3681, 382.7690
478.8503, 384.1771
479.3324, 385.5523
479.8145, 386.8703
480.2966, 388.1697
480.7787, 389.5372
481.2608, 391.1347
481.7430, 392.7575
482.2251, 394.2349
482.7072, 395.5117
483.1893, 396.8459
483.6714, 398.5528
484.1535, 400.2650
484.6357, 401.6164
485.1178, 401.9545
485.5999, 402.6318
486.0820, 403.9952
486.5641, 405.8823
487.0462, 407.7456
487.5284, 409.5548
488.0105, 411.4054
488.4926, 413.4878
488.9747, 415.9444
489.4568, 417.5219
489.9389, 417.8989
490.4211, 417.9529
490.9032, 418.6593
491.3853, 420.0541
491.8674, 421.5138
492.3495, 422.9503
492.8316, 424.3143
493.3138, 425.5275
493.7959, 426.5873
494.2780, 427.4305
494.7601, 428.1777
495.2422, 428.6331
495.7243, 428.1272
496.2065, 426.5784
496.6886, 425.2608
497.1707, 425.7681
497.6528, 426.9385
498.1349, 427.1807
498.6170, 425.8185
499.0992, 423.7623
499.5813, 421.1742
500.0634, 418.2463
500.5455, 415.4275
501.0276, 412.9029
501.5097, 410.4930
501.9919, 408.2296
502.4740, 406.2144
502.9561, 403.7020
503.4382, 399.7181
503.9203, 395.8487
504.4025, 393.2348
504.8846, 392.7394
505.3667, 391.7808
505.8488, 390.1051
506.3309, 387.9648
506.8130, 385.7694
507.2952, 383.4004
507.7773, 381.5570
508.2594, 380.7306
508.7415, 380.7005
509.2236, 380.0887
509.7057, 378.8556
510.1879, 377.5626
510.6700, 376.5456
511.1521, 375.8280
511.6342, 375.5553
512.1163, 375.8656
512.5984, 376.2148
513.0806, 376.1051
513.5627, 375.6053
514.0448, 374.8592
514.5269, 373.4781
515.0090, 372.2398
515.4911, 371.8049
515.9733, 372.0599
516.4554, 372.2361
516.9375, 371.9698
517.4196, 371.5751
517.9017, 371.1944
518.3839, 370.7301
518.8660, 370.5573
519.3481, 371.1754
519.8302, 371.8907
520.3123, 371.9072
520.7944, 370.6489
521.2766, 369.7710
521.7587, 369.6850
522.2408, 370.1496
522.7229, 370.1670
523.2050, 369.6285
523.6871, 369.0707
524.1693, 368.7366
524.6514, 368.6294
525.1335, 368.6930
525.6156, 368.9354
526.0977, 369.3163
526.5798, 369.8530
527.0620, 370.5030
527.5441, 371.1804
528.0262, 371.9802
528.5083, 372.5514
528.9904, 372.1193
529.4725, 371.1263
529.9547, 370.6621
530.4368, 371.6681
530.9189, 373.0498
531.4010, 374.1779
531.8831, 375.0302
532.3652, 375.6927
532.8474, 376.2610
533.3295, 376.6173
533.8116, 376.6622
534.2937, 376.0018
534.7758, 375.6925
535.2579, 375.9650
535.7401, 376.5057
536.2222, 376.8332
536.7043, 376.7998
537.1865, 376.9535
537.6686, 377.5274
538.1507, 378.3755
538.6328, 378.6903
539.1149, 378.3856
539.5970, 378.1329
540.0792, 378.5538
540.5613, 379.4294
541.0434, 379.5838
541.5255, 378.9126
542.0076, 378.1202
542.4897, 377.9081
542.9719, 378.0720
543.4540, 378.2206
543.9361, 378.2956
544.4182, 378.2238
544.9003, 377.8773
545.3824, 377.3336
545.8646, 376.7705
546.3467, 376.1758
546.8288, 375.6465
547.3109, 375.2470
547.7930, 374.9837
548.2751, 374.7359
548.7573, 374.4051
549.2394, 374.1518
549.7215, 374.0893
550.2036, 374.4130
550.6857, 374.4769
551.1678, 374.1581
551.6500, 373.7135
552.1321, 373.4902
552.6142, 373.5034
553.0963, 373.6699
553.5784, 374.0406
554.0605, 374.4981
554.5427, 374.7162
555.0248, 374.7052
555.5069, 374.6319
555.9890, 374.5550
556.4711, 374.4937
556.9532, 374.5464
557.4354, 374.7126
557.9175, 374.7387
558.3996, 374.3437
558.8817, 373.7419
559.3638, 373.1353
559.8459, 372.4705
560.3281, 372.0211
560.8102, 371.8876
561.2923, 372.0449
561.7744, 372.4586
562.2565, 373.7220
562.7386, 374.5726
563.2208, 374.5515
563.7029, 373.8192
564.1850, 373.5285
564.6671, 373.9641
565.1492, 374.3417
565.6313, 374.1292
566.1135, 373.2336
566.5956, 373.1779
567.0777, 374.1606
567.5598, 375.2829
568.0419, 375.5510
568.5240, 375.1058
569.0062, 374.6353
569.4883, 374.1909
569.9704, 373.9789
570.4525, 374.4190
570.9346, 375.3213
571.4167, 376.1712
571.8989, 376.8577
572.3810, 377.3262
572.8631, 377.5716
573.3452, 377.5826
573.8273, 377.3038
574.3094, 376.0645
574.7916, 375.0424
575.2737, 375.0150
575.7558, 376.5381
576.2379, 377.4927
576.7200, 377.6132
577.2021, 377.3226
577.6843, 376.9723
578.1664, 376.5728
578.6485, 376.0141
579.1306, 375.0850
579.6127, 374.2013
580.0948, 374.3213
580.5770, 375.4427
581.0591, 376.5933
581.5412, 377.4240
582.0233, 378.0036
582.5054, 378.5088
582.9875, 378.9175
583.4697, 379.1046
583.9518, 378.6617
584.4340, 378.1211
584.9161, 378.2144
585.3982, 379.1154
585.8803, 379.7383
586.3624, 379.2286
586.8445, 378.3448
587.3267, 377.7856
587.8088, 377.9467
588.2909, 378.1191
588.7730, 378.2233
589.2551, 378.2933
589.7372, 378.3763
590.2194, 378.4332
590.7015, 378.5808
591.1836, 378.8747
591.6657, 379.2772
592.1478, 379.5926
592.6299, 379.8068
593.1121, 379.9916
593.5942, 380.1729
594.0763, 380.3537
594.5584, 380.6586
595.0405, 381.1035
595.5226, 381.2680
596.0048, 380.4411
596.4869, 379.2123
596.9690, 378.4070
597.4511, 378.2193
597.9332, 378.4713
598.4153, 379.3138
598.8975, 380.4731
599.3796, 381.5609
599.8617, 382.9018
600.3438, 383.7089
600.8259, 383.4904
601.3080, 382.5226
601.7902, 381.8612
602.2723, 381.6091
602.7544, 381.4905
603.2365, 381.3600
603.7186, 381.2194
604.2007, 381.5095
604.6829, 382.3149
605.1650, 383.0909
605.6471, 383.2975
606.1292, 383.0632
606.6113, 383.0069
607.0934, 383.2342
607.5756, 383.3893
608.0577, 382.7978
608.5398, 381.9449
609.0219, 381.7090
609.5040, 382.8807
609.9861, 384.0285
610.4683, 384.3621
610.9504, 384.1071
611.4325, 383.7438
611.9146, 383.3200
612.3967, 382.9024
612.8788, 382.3820
613.3610, 381.8093
613.8431, 381.8155
614.3252, 382.8500
614.8073, 383.7113
615.2894, 383.6348
615.7715, 382.5348
616.2537, 382.1588
616.7358, 382.6167
617.2179, 383.2466
617.7000, 383.1648
618.1821, 382.6631
618.6642, 382.9137
619.1464, 384.3032
619.6285, 385.7683
620.1106, 386.1120
620.5927, 385.8023
621.0748, 385.6493
621.5569, 386.2267
622.0391, 386.7597
622.5212, 386.8983
623.0033, 386.7279
623.4854, 386.5075
623.9675, 386.1454
624.4496, 385.9057
624.9318, 385.9740
625.4139, 386.3424
625.8960, 386.2181
626.3781, 385.2805
626.8602, 384.6077
627.3423, 385.0718
627.8245, 386.6291
628.3066, 387.7230
628.7887, 388.2946
629.2708, 388.5166
629.7529, 388.3583
630.2350, 387.9974
630.7172, 387.8123
631.1993, 387.8383
631.6815, 388.1671
632.1636, 389.3253
632.6457, 390.7297
633.1278, 391.4745
633.6099, 390.4484
634.0920, 389.5767
634.5742, 389.6322
635.0563, 390.3616
635.5384, 390.7469
636.0205, 390.6182
636.5026, 390.3566
636.9847, 389.9919
637.4669, 389.5561
637.9490, 389.5205
638.4311, 389.9691
638.9132, 390.4625
639.3953, 390.6183
639.8774, 390.5540
640.3596, 390.9648
640.8417, 391.9306
641.3238, 392.6293
641.8059, 391.8800
642.2880, 390.5117
642.7701, 389.7398
643.2523, 389.9843
643.7344, 390.3930
644.2165, 390.5690
644.6986, 390.6366
645.1807, 390.7607
645.6628, 390.8965
646.1450, 391.1982
646.6271, 391.8606
647.1092, 392.6635
647.5913, 392.9756
648.0734, 392.5894
648.5555, 392.3343
649.0377, 392.6404
649.5198, 393.2598
650.0019, 392.7514
650.4840, 391.1253
650.9661, 390.0406
651.4482, 391.2706
651.9304, 393.4942
652.4125, 394.2776
652.8946, 393.5403
653.3767, 392.6620
653.8588, 392.4650
654.3409, 392.5816
654.8231, 392.6754
655.3052, 392.5847
655.7873, 392.7819
656.2694, 393.8081
656.7515, 394.9200
657.2336, 395.3551
657.7158, 394.5921
658.1979, 394.2919
658.6800, 394.6758
659.1621, 395.4529
659.6442, 396.2232
660.1263, 396.9828
660.6085, 397.4250
661.0906, 397.3139
661.5727, 396.9891
662.0548, 396.9932
662.5369, 397.2972
663.0190, 397.7944
663.5012, 398.8635
663.9833, 399.7698
664.4654, 399.8139
664.9475, 399.0874
665.4296, 398.3992
665.9117, 396.7414
666.3939, 397.5917
666.8760, 398.1609
667.3581, 398.4640
667.8402, 397.7042
668.3223, 398.3169
668.8044, 398.3796
669.2866, 398.4198
669.7687, 399.2256
670.2508, 398.6205
670.7329, 399.4142
671.2150, 399.6495
671.6971, 400.1404
672.1793, 400.0779
672.6614, 400.1863
673.1435, 400.8483
673.6256, 401.2038
674.1077, 401.2766
674.5898, 401.0832
675.0720, 401.0121
675.5541, 401.7863
676.0362, 402.1577
676.5183, 401.2592
677.0004, 399.7242
677.4825, 399.3510
677.9647, 400.9096
678.4468, 402.1566
678.9290, 402.4024
679.4111, 401.8669
679.8932, 401.4964
680.3753, 401.2858
680.8574, 401.4254
681.3395, 402.4175
681.8217, 403.7290
682.3038, 404.0385
682.7859, 403.4107
683.2680, 402.8502
683.7501, 403.1968
684.2322, 403.7816
684.7144, 403.9968
685.1965, 403.6812
685.6786, 403.5190
686.1607, 403.8336
686.6428, 404.2604
687.1249, 404.5224
687.6071, 404.4433
688.0892, 404.6283
688.5713, 405.1739
689.0534, 405.8392
689.5355, 406.1745
690.0176, 403.7913
690.4998, 405.8387
690.9819, 407.1073
691.4640, 407.6393
691.9461, 405.2279
692.4282, 406.6172
692.9103, 406.4834
693.3925, 406.2872
693.8746, 408.2114
694.3567, 406.2281
694.8388, 408.1188
695.3209, 408.4630
695.8030, 409.5150
696.2852, 409.0345
696.7673, 409.0272
697.2494, 410.5531
697.7315, 411.5005
698.2136, 412.0182
698.6957, 412.2260
699.1779, 412.0887
699.6600, 411.7877
700.1421, 412.3294
700.6242, 413.6667
701.1063, 414.8215
701.5884, 414.9004
702.0706, 414.5243
702.5527, 414.4146
703.0348, 414.6273
703.5169, 414.9786
703.9990, 415.5517
704.4811, 416.1071
704.9633, 416.4491
705.4454, 416.4410
705.9275, 416.5500
706.4096, 416.7651
706.8917, 417.1110
707.3738, 417.6591
707.8560, 418.4330
708.3381, 419.1473
708.8202, 419.8216
709.3023, 420.2958
709.7844, 420.1928
710.2665, 419.7220
710.7487, 419.4144
711.2308, 419.3009
711.7129, 419.6585
712.1950, 421.1795
712.6771, 423.1906
713.1592, 424.6792
713.6414, 424.7907
714.1235, 424.9597
714.6056, 425.7220
715.0877, 426.7015
715.5698, 427.0510
716.0519, 426.3810
716.5341, 426.1001
717.0162, 426.5938
717.4983, 427.6651
717.9804, 429.0152
718.4625, 430.5937
718.9446, 431.5452
719.4268, 430.9171
719.9089, 429.7919
720.3910, 429.6124
720.8731, 430.2093
721.3552, 430.8539
721.8373, 431.1840
722.3195, 431.4649
722.8016, 431.9389
723.2837, 432.6118
723.7658, 432.8485
724.2479, 432.3506
724.7300, 431.8023
725.2122, 431.4965
725.6943, 431.4360
726.1765, 431.5262
726.6586, 431.7925
727.1407, 432.0538
727.6228, 432.0573
728.1049, 431.9687
728.5870, 432.3544
729.0692, 433.2782
729.5513, 433.8401
730.0334, 432.7624
730.5155, 431.3838
730.9976, 431.0876
731.4797, 432.5542
731.9619, 433.6646
732.4440, 433.6909
732.9261, 433.4779
733.4082, 433.6664
733.8903, 434.3872
734.3724, 435.0879
734.8546, 435.7336
735.3367, 436.3658
735.8188, 437.0423
736.3009, 437.7501
736.7830, 438.4361
737.2651, 439.0951
737.7473, 439.7089
738.2294, 440.1418
738.7115, 440.5440
739.1936, 441.1391
739.6757, 442.1217
740.1578, 443.1408
740.6400, 443.9825
741.1221, 444.8296
741.6042, 446.0195
742.0863, 447.7193
742.5684, 449.3870
743.0505, 450.9377
743.5327, 452.4165
744.0148, 453.9752
744.4969, 455.5843
744.9790, 457.0014
745.4611, 457.9218
745.9432, 458.8765
746.4254, 460.9426
746.9075, 463.6300
747.3896, 465.6426
747.8717, 465.3548
748.3538, 465.3444
748.8359, 467.0543
749.3181, 470.1360
749.8002, 472.5942
750.2823, 474.0009
750.7644, 475.4392
751.2465, 477.2902
751.7286, 479.4277
752.2108, 480.9708
752.6929, 481.9077
753.1750, 483.2242
753.6571, 486.0247
754.1392, 489.2891
754.6213, 491.2300
755.1035, 492.0211
755.5856, 492.6043
756.0677, 493.5239
756.5498, 494.3596
757.0319, 494.8177
757.5140, 494.8636
757.9962, 494.9744
758.4783, 495.2814
758.9604, 495.5030
759.4425, 495.5639
759.9246, 495.4559
760.4067, 494.8841
760.8889, 493.8137
761.3710, 492.6011
761.8531, 491.2882
762.3352, 490.0917
762.8173, 489.5402
763.2994, 489.6437
763.7816, 489.7827
764.2637, 489.9461
764.7458, 489.7413
765.2279, 488.8161
765.7100, 487.0014
766.1921, 485.1055
766.6743, 482.9765
767.1564, 481.0429
767.6385, 479.6707
768.1206, 478.9373
768.6027, 477.8620
769.0848, 476.3755
769.5670, 474.8930
770.0491, 473.9308
770.5312, 473.1931
771.0133, 471.8980
771.4954, 469.8664
771.9775, 468.3016
772.4597, 468.3548
772.9418, 468.9612
773.4240, 469.2086
773.9061, 468.7616
774.3882, 468.4930
774.8703, 468.6577
775.3524, 468.7618
775.8345, 468.1962
776.3167, 466.8421
776.7988, 466.4285
777.2809, 467.1632
777.7630, 468.3431
778.2451, 469.2599
778.7272, 470.0589
779.2094, 471.0636
779.6915, 472.3775
780.1736, 473.6633
780.6557, 474.5271
781.1378, 475.3484
781.6199, 476.5041
782.1021, 478.2957
782.5842, 479.9643
783.0663, 481.2824
783.5484, 482.7288
784.0305, 484.7726
784.5126, 487.4331
784.9948, 490.6194
785.4769, 494.3526
785.9590, 498.3954
786.4411, 502.3907
786.9232, 506.4946
787.4053, 510.9917
787.8875, 515.8320
788.3696, 521.4841
788.8517, 528.7562
789.3338, 536.7702
789.8159, 544.6416
790.2980, 551.7970
790.7802, 559.5724
791.2623, 567.9483
791.7444, 576.9767
792.2265, 586.4462
792.7086, 596.4696
793.1907, 607.1293
793.6729, 618.6926
794.1550, 630.2673
794.6371, 640.2404
795.1192, 649.8839
795.6013, 661.3722
796.0834, 675.7706
796.5656, 691.0774
797.0477, 706.6192
797.5298, 722.8439
798.0119, 740.3860
798.4940, 760.3044
798.9761, 779.3933
799.4583, 797.2997
799.9404, 814.5522
800.4225, 832.8076
800.9046, 851.6307
801.3867, 869.0309
801.8688, 884.7002
802.3510, 898.3340
802.8331, 910.4041
803.3152, 919.7911
803.7973, 924.8535
804.2794, 925.2535
804.7615, 921.3084
805.2437, 912.2453
805.7258, 899.1725
806.2079, 882.5463
806.6900, 861.3317
807.1721, 840.5842
807.6542, 821.1088
808.1364, 801.9453
808.6185, 781.4016
809.1006, 760.1923
809.5827, 740.4199
810.0648, 722.5921
810.5469, 706.1515
811.0291, 690.3821
811.5112, 675.9409
811.9933, 663.3970
812.4754, 653.6655
812.9575, 644.7015
813.4396, 636.3016
813.9218, 628.6567
814.4039, 622.1212
814.8860, 616.6734
815.3681, 611.9406
815.8502, 607.8913
816.3323, 604.3820
816.8145, 601.0295
817.2966, 598.1691
817.7787, 596.3819
818.2608, 595.9270
818.7429, 596.1314
819.2251, 596.5605
819.7072, 597.5515
820.1893, 599.5501
820.6714, 603.1844
821.1536, 606.2010
821.6357, 608.0332
822.1178, 610.2727
822.5999, 614.8483
823.0820, 621.4648
823.5641, 628.1413
824.0463, 634.6513
824.5284, 641.4398
825.0105, 648.8986
825.4926, 656.8171
825.9747, 664.7690
826.4568, 672.4581
826.9390, 680.8937
827.4211, 690.4857
827.9032, 700.8389
828.3853, 711.9691
828.8674, 723.9891
829.3495, 735.6888
829.8317, 746.8281
830.3138, 758.3026
830.7959, 770.5263
831.2780, 783.5200
831.7601, 797.8990
832.2422, 813.6833
832.7244, 828.8597
833.2065, 841.7010
833.6886, 853.5920
834.1707, 865.8923
834.6528, 879.3867
835.1349, 890.3896
835.6171, 899.2416
836.0992, 905.0203
836.5813, 906.9152
837.0634, 905.0008
837.5455, 900.6182
838.0276, 893.7061
838.5098, 883.4412
838.9919, 868.4172
839.4740, 850.0725
839.9561, 829.4404
840.4382, 806.4943
840.9203, 783.1603
841.4025, 759.0422
841.8846, 735.6518
842.3667, 713.2704
842.8488, 691.9149
843.3309, 672.3560
843.8130, 654.6652
844.2952, 638.4131
844.7773, 623.4114
845.2594, 609.6069
845.7415, 597.2250
846.2236, 586.1417
846.7057, 575.9676
847.1879, 566.6084
847.6700, 557.9896
848.1521, 550.1414
848.6342, 543.0564
849.1163, 536.4363
849.5984, 530.2730
850.0806, 524.6569
850.5627, 519.7284
851.0448, 515.3639
851.5269, 511.1362
852.0090, 507.1000
852.4911, 503.7332
852.9733, 501.8232
853.4554, 500.1927
853.9375, 497.6780
854.4196, 494.5804
854.9017, 491.6366
855.3839, 489.0683
855.8660, 486.7200
856.3481, 484.5800
856.8302, 482.6198
857.3123, 480.7010
857.7944, 478.7816
858.2766, 477.3759
858.7587, 476.8034
859.2408, 476.3607
859.7229, 474.8234
860.2050, 472.6850
860.6871, 470.9946
861.1693, 470.4167
861.6514, 469.8520
862.1335, 468.6908
862.6156, 467.4272
863.0977, 466.7977
863.5798, 467.2237
864.0620, 466.9812
864.5441, 465.7387
865.0262, 464.2398
865.5083, 463.3906
865.9904, 463.0388
866.4726, 462.7437
866.9547, 462.4425
867.4368, 462.0623
867.9189, 461.1423
868.4011, 460.3531
868.8832, 460.4107
869.3653, 462.0175
869.8474, 462.9086
870.3295, 462.9713
870.8116, 462.4894
871.2938, 461.4044
871.7759, 459.8222
872.2580, 459.0669
872.7401, 459.1745
873.2222, 459.5070
873.7043, 459.7235
874.1865, 459.8040
874.6686, 459.5700
875.1507, 459.0066
875.6328, 458.9037
876.1149, 460.0266
876.5970, 461.0319
877.0792, 461.4106
877.5613, 461.2133
878.0434, 460.8313
878.5255, 460.2463
879.0076, 459.9658
879.4897, 460.3721
879.9719, 461.2055
880.4540, 462.5089
880.9361, 463.9964
881.4182, 464.6747
881.9003, 463.1618
882.3824, 461.8380
882.8646, 461.4684
883.3467, 461.8964
883.8288, 462.9468
884.3109, 464.8239
884.7930, 466.1418
885.2751, 466.3817
885.7573, 466.1595
886.2394, 466.5157
886.7215, 467.2291
887.2036, 467.7734
887.6857, 468.0494
888.1678, 467.9831
888.6500, 467.4269
889.1321, 466.5531
889.6142, 465.5793
890.0963, 464.4666
890.5784, 463.4468
891.0605, 462.5808
891.5427, 461.6979
892.0248, 460.4584
892.5069, 459.0256
892.9890, 457.9086
893.4711, 457.2158
893.9532, 456.5945
894.4354, 455.7778
894.9175, 454.9668
895.3996, 454.3538
895.8817, 454.0429
896.3638, 453.5371
896.8459, 452.7926
897.3281, 451.9424
897.8102, 451.0201
898.2923, 450.0485
898.7744, 449.1689
899.2565, 448.3874
899.7386, 447.8204
900.2208, 447.7873
900.7029, 447.7736
901.1850, 447.2624
901.6671, 446.3454
902.1492, 445.7869
902.6313, 445.8013
903.1135, 445.9677
903.5956, 446.3041
904.0777, 446.6360
904.5598, 446.4451
905.0419, 445.7736
905.5240, 444.8923
906.0062, 443.6969
906.4883, 442.6809
906.9704, 440.4293
907.4525, 442.1282
907.9346, 443.0486
908.4167, 443.2323
908.8989, 440.4726
909.3810, 441.5136
909.8631, 441.0315
910.3452, 440.4869
910.8273, 442.0629
911.3094, 439.7313
911.7916, 441.2736
912.2737, 441.2695
912.7558, 441.9732
913.2380, 441.1443
913.7201, 440.7888
914.2022, 441.9663
914.6843, 442.2950
915.1664, 441.2896
915.6486, 442.0383
916.1307, 439.6532
916.6128, 440.0180
917.0949, 440.0014
917.5770, 440.5927
918.0591, 441.4201
918.5413, 442.4092
919.0234, 443.1942
919.5055, 443.1655
919.9876, 442.5303
920.4697, 442.1895
920.9518, 442.8610
921.4340, 443.2641
921.9161, 443.0418
922.3982, 442.4171
922.8803, 441.8747
923.3624, 441.4205
923.8445, 441.2259
924.3267, 441.4180
924.8088, 441.6986
925.2909, 441.8085
925.7730, 441.7714
926.2551, 441.6317
926.7372, 441.4875
927.2194, 441.0563
927.7015, 439.9670
928.1836, 438.9736
928.6657, 438.9131
929.1478, 439.7895
929.6299, 440.2467
930.1121, 440.2051
930.5942, 440.0444
931.0763, 439.8843
931.5584, 439.9093
932.0405, 440.5836
932.5226, 441.9137
933.0048, 442.4982
933.4869, 441.0666
933.9690, 440.0026
934.4511, 440.3086
934.9332, 441.6359
935.4153, 442.1588
935.8975, 441.9118
936.3796, 441.6786
936.8617, 441.8287
937.3438, 442.1376
937.8259, 442.5232
938.3080, 442.8745
938.7902, 442.9648
939.2723, 442.2945
939.7544, 442.0078
940.2365, 442.5194
940.7186, 443.1226
941.2007, 442.6071
941.6829, 441.1111
942.1650, 440.3044
942.6471, 440.4606
943.1292, 440.8911
943.6113, 440.9576
944.0934, 440.9930
944.5756, 441.3878
945.0577, 442.2851
945.5398, 443.0239
946.0219, 443.6719
946.5040, 443.9730
946.9861, 443.6948
947.4683, 442.9451
947.9504, 442.3423
948.4325, 441.8826
948.9146, 441.5625
949.3967, 441.4456
949.8788, 441.4055
950.3610, 441.3952
950.8431, 441.3879
951.3252, 441.2928
951.8073, 440.9207
952.2894, 440.8622
952.7715, 441.3745
953.2537, 441.9706
953.7358, 441.6540
954.2179, 440.6905
954.7000, 440.1706
955.1821, 440.3819
955.6642, 440.7868
956.1464, 441.0630
956.6285, 441.3274
957.1106, 441.7053
957.5927, 442.2441
958.0748, 442.7635
958.5569, 443.3984
959.0391, 443.6332
959.5212, 442.7136
960.0033, 441.1971
960.4855, 440.9132
960.9676, 441.6662
961.4497, 442.3498
961.9318, 442.2028
962.4139, 442.0146
962.8961, 442.3057
963.3782, 442.8433
963.8603, 442.9123
964.3424, 442.3247
964.8245, 442.1388
965.3066, 442.6778
965.7888, 443.4247
966.2709, 443.6747
966.7530, 443.5848
967.2351, 443.4377
967.7172, 443.3038
968.1993, 443.1059
968.6815, 442.5529
969.1636, 442.1511
969.6457, 442.2921
970.1278, 443.0269
970.6099, 443.5938
971.0920, 443.9799
971.5742, 444.2661
972.0563, 444.6126
972.5384, 444.8065
973.0205, 444.3403
973.5026, 443.4228
973.9847, 442.9154
974.4669, 443.2069
974.9490, 443.8522
975.4311, 444.9895
975.9132, 446.2390
976.3953, 446.7301
976.8774, 446.5272
977.3596, 446.5768
977.8417, 447.1948
978.3238, 447.6612
978.8059, 446.9586
979.2880, 445.9512
979.7701, 445.6618
980.2523, 446.6173
980.7344, 447.0006
981.2165, 446.4440
981.6986, 445.9019
982.1807, 446.0951
982.6628, 446.7867
983.1450, 446.8265
983.6271, 446.3162
984.1092, 445.9102
984.5913, 445.7758
985.0734, 446.0532
985.5555, 447.2948
986.0377, 448.9449
986.5198, 449.5224
987.0019, 448.6310
987.4840, 447.9726
987.9661, 447.8265
988.4482, 447.9472
988.9304, 448.0917
989.4125, 448.2426
989.8946, 448.3916
990.3767, 448.5658
990.8588, 448.5822
991.3409, 448.1403
991.8231, 447.7411
992.3052, 447.7221
992.7873, 446.6217
993.2694, 448.4548
993.7515, 449.5093
994.2336, 449.8271
994.7158, 447.2015
995.1979, 448.3766
995.6800, 448.0286
996.1621, 447.6181
996.6442, 449.3282
997.1263, 447.1307
997.6085, 448.8072
998.0906, 448.9373
998.5727, 449.7751
999.0548, 449.0803
999.5369, 448.8589
1000.019, 450.1705
1000.501, 450.6333
1000.983, 449.7621
1001.465, 450.6449
1001.948, 448.3940
1002.430, 448.8929
1002.912, 450.5783
1003.394, 449.7842
1003.876, 450.6950
1004.358, 450.9564
1004.840, 448.2669
1005.322, 450.7095
1005.804, 450.9326
1006.287, 448.8769
1006.769, 451.1436
1007.251, 449.4019
1007.733, 449.0911
1008.215, 449.8569
1008.697, 449.5002
1009.179, 450.9133
1009.661, 450.6215
1010.144, 450.1775
1010.626, 450.8310
1011.108, 451.5689
1011.590, 451.6388
1012.072, 451.3036
1012.554, 450.5067
1013.036, 449.4085
1013.518, 449.1448
1014.000, 450.5603
1014.483, 451.6287
1014.965, 451.8042
1015.447, 451.4683
1015.929, 451.3425
1016.411, 451.3809
1016.893, 451.3799
1017.375, 451.2303
1017.857, 451.2457
1018.340, 451.8785
1018.822, 452.5709
1019.304, 452.7832
1019.786, 452.4178
1020.268, 452.3177
1020.750, 452.5081
1021.232, 452.7716
1021.714, 453.1452
1022.196, 453.3981
1022.679, 452.8771
1023.161, 451.9186
1023.643, 451.5004
1024.125, 452.7826
1024.607, 453.4694
1025.089, 451.2961
1025.571, 453.2660
1026.053, 454.4572
1026.536, 454.9121
1027.018, 452.4232
1027.500, 453.7352
1027.982, 453.5239
1028.464, 453.2502
1028.946, 455.0970
1029.428, 453.0362
1029.910, 454.8494
1030.392, 455.1161
1030.875, 456.0911
1031.357, 455.5331
1031.839, 456.2697
1032.321, 457.0720
1032.803, 457.1884
1033.285, 456.8588
1033.767, 456.5733
1034.249, 456.4177
1034.732, 456.4530
1035.214, 456.8406
1035.696, 457.2852
1036.178, 457.5530
1036.660, 457.6473
1037.142, 458.0051
1037.624, 458.6034
1038.106, 456.9969
1038.589, 458.8235
1039.071, 459.8714
1039.553, 460.1825
1040.035, 457.5503
1040.517, 458.7188
1040.999, 458.3642
1041.481, 457.9471
1041.963, 459.6506
1042.445, 457.4465
1042.927, 459.1163
1043.410, 459.2399
1043.892, 460.0710
1044.374, 459.3697
1044.856, 459.1417
1045.338, 460.4467
1045.820, 460.9029
1046.302, 460.0251
1046.784, 460.9012
1047.267, 458.6437
1047.749, 459.1360
1048.231, 460.8148
1048.713, 460.0141
1049.195, 460.9183
1049.677, 461.1731
1050.159, 458.4771
1050.641, 460.9130
1051.124, 461.1295
1051.606, 459.0671
1052.088, 461.3272
1052.570, 459.5790
1053.052, 459.2615
1053.534, 460.0207
1054.016, 459.6575
1054.498, 461.0639
1054.980, 460.7655
1055.463, 460.3148
1055.945, 460.5288
1056.427, 458.8593
1056.909, 460.0095
1057.391, 461.5089
1057.873, 464.7641
1058.355, 465.5251
1058.837, 462.9293
1059.319, 460.2790
1059.802, 460.1268
1060.284, 460.9594
1060.766, 461.9842
1061.248, 463.0866
1061.730, 463.1837
1062.212, 461.9513
1062.694, 461.5345
1063.176, 463.2049
1063.659, 465.2472
1064.141, 464.6924
1064.623, 462.9019
1065.105, 462.2877
1065.587, 464.4589
1066.069, 465.5602
1066.551, 464.7352
1067.033, 463.5451
1067.516, 462.9243
1067.998, 462.8614
1068.480, 463.7770
1068.962, 465.4091
1069.444, 466.2881
1069.926, 464.7432
1070.408, 463.1983
1070.890, 462.7805
1071.372, 463.1046
1071.854, 463.8481
1072.337, 465.1571
1072.819, 465.1993
1073.301, 463.6574
1073.783, 462.2044
1074.265, 462.7669
1074.747, 463.9564
1075.229, 464.2682
1075.711, 463.6964
1076.194, 463.8193
1076.676, 465.3066
1077.158, 466.0256
1077.640, 465.2495
1078.122, 463.7146
1078.604, 462.1631
1079.086, 460.9446
1079.568, 461.0248
1080.051, 463.0249
1080.533, 464.5472
1081.015, 464.6066
1081.497, 464.0888
1081.979, 463.1353
1082.461, 461.9428
1082.943, 461.9095
1083.425, 462.8952
1083.907, 463.8439
1084.390, 464.3055
1084.872, 464.5221
1085.354, 464.5113
1085.836, 464.4084
1086.318, 464.3642
1086.800, 464.3280
1087.282, 464.6686
1087.764, 465.4613
1088.247, 466.0366
1088.729, 465.4305
1089.211, 464.6257
1089.693, 464.9442
1090.175, 466.1024
1090.657, 466.8731
1091.139, 466.7650
1091.621, 466.7741
1092.104, 467.0442
1092.586, 467.4476
1093.068, 467.9814
1093.550, 468.4774
1094.032, 468.4973
1094.514, 467.9904
1094.996, 467.3983
1095.478, 466.5010
1095.960, 466.0952
1096.443, 466.7433
1096.925, 467.9305
1097.407, 467.9887
1097.889, 467.0895
1098.371, 466.4727
1098.853, 466.4693
1099.335, 466.8027
1099.817, 467.5096
1100.299, 468.2974
1100.782, 468.9316
1101.264, 469.4141
1101.746, 469.7417
1102.228, 469.9273
1102.710, 469.7658
1103.192, 468.7812
1103.674, 467.8880
1104.156, 468.5015
1104.639, 469.8183
1105.121, 470.5185
1105.603, 470.0700
1106.085, 469.5212
1106.567, 468.7596
1107.049, 468.2323
1107.531, 468.5386
1108.013, 469.2215
1108.495, 469.2541
1108.978, 468.8076
1109.460, 468.6259
1109.942, 469.2033
1110.424, 469.7889
1110.906, 470.3450
1111.388, 470.7175
1111.870, 470.4790
1112.352, 469.8552
1112.834, 469.9792
1113.317, 470.9175
1113.799, 471.6911
1114.281, 471.4232
1114.763, 471.1833
1115.245, 471.6601
1115.727, 472.4819
1116.209, 472.6390
1116.691, 472.1588
1117.174, 471.8043
1117.656, 471.8029
1118.138, 471.6277
1118.620, 470.2323
1119.102, 468.9211
1119.584, 469.1615
1120.066, 470.9165
1120.548, 471.6327
1121.031, 471.1585
1121.513, 470.6837
1121.995, 470.6494
1122.477, 470.7944
1122.959, 470.6689
1123.441, 470.5658
1123.923, 470.9638
1124.405, 472.2643
1124.887, 473.0969
1125.370, 473.3542
1125.852, 473.3867
1126.334, 473.3152
1126.816, 473.2202
1127.298, 473.4403
1127.780, 473.7613
1128.262, 473.6612
1128.744, 472.0475
1129.227, 471.4536
1129.709, 472.7315
1130.191, 474.0544
1130.673, 473.3282
1131.155, 471.3350
1131.637, 471.4718
1132.119, 473.4278
1132.601, 475.0190
1133.083, 474.7294
1133.566, 474.3932
1134.048, 474.7790
1134.530, 475.3141
1135.012, 475.1095
1135.494, 474.2621
1135.976, 473.7987
1136.458, 473.8081
1136.940, 474.0008
1137.422, 474.3060
1137.905, 474.6115
1138.387, 474.8237
1138.869, 474.9982
1139.351, 475.2903
1139.833, 475.7125
1140.315, 476.0794
1140.797, 476.3749
1141.279, 476.5042
1141.762, 476.4955
1142.244, 476.1950
1142.726, 475.1142
1143.208, 473.3892
1143.690, 472.9990
1144.172, 474.2059
1144.654, 475.1498
1145.136, 475.1225
1145.619, 475.0078
1146.101, 475.9561
1146.583, 477.3979
1147.065, 478.7639
1147.547, 480.0264
1148.029, 480.5905
1148.511, 480.3783
1148.993, 479.6620
1149.475, 478.3401
1149.958, 476.8989
1150.440, 475.9471
1150.922, 475.5126
1151.404, 475.7137
1151.886, 477.0656
1152.368, 477.8289
1152.850, 477.6949
1153.332, 477.4387
1153.814, 477.5275
1154.297, 477.8560
1154.779, 478.3613
1155.261, 478.8788
1155.743, 478.9217
1156.225, 477.4913
1156.707, 476.8452
1157.189, 477.6107
1157.671, 478.5943
1158.154, 478.7773
1158.636, 478.3208
1159.118, 477.5809
1159.600, 476.7402
1160.082, 476.6351
1160.564, 478.6342
1161.046, 480.1663
1161.528, 480.4060
1162.010, 480.0225
1162.493, 479.5827
1162.975, 479.1516
1163.457, 479.2424
1163.939, 479.8403
1164.421, 480.4290
1164.903, 480.6720
1165.385, 480.8787
1165.867, 481.2715
1166.349, 481.6504
1166.832, 481.5420
1167.314, 481.0085
1167.796, 481.0204
1168.278, 481.6893
1168.760, 482.2950
1169.242, 482.1528
1169.724, 481.9680
1170.206, 482.1779
1170.689, 482.6767
1171.171, 483.3499
1171.653, 484.1939
1172.135, 484.3866
1172.617, 483.6839
1173.099, 483.0909
1173.581, 484.0138
1174.063, 484.8853
1174.546, 483.8759
1175.028, 481.6376
1175.510, 481.7229
1175.992, 484.2657
1176.474, 485.9157
1176.956, 485.7433
1177.438, 484.7899
1177.920, 483.3878
1178.402, 482.1422
1178.885, 481.6573
1179.367, 481.9293
1179.849, 482.6461
1180.331, 483.9117
1180.813, 484.5028
1181.295, 483.7616
1181.777, 482.8161
1182.259, 482.8621
1182.742, 483.3467
1183.224, 483.5989
1183.706, 483.5031
1184.188, 484.0373
1184.670, 485.3329
1185.152, 486.3283
1185.634, 486.3993
1186.116, 486.2014
1186.599, 486.5406
1187.081, 487.0419
1187.563, 487.1616
1188.045, 486.7277
1188.527, 486.3436
1189.009, 485.9910
1189.491, 485.7862
1189.973, 485.8865
1190.455, 486.0554
1190.938, 485.8241
1191.420, 485.5270
1191.902, 485.7680
1192.384, 486.9524
1192.866, 487.7633
1193.348, 488.1874
1193.830, 488.3330
1194.312, 488.1119
1194.794, 487.7968
1195.277, 487.7729
1195.759, 487.9166
1196.241, 487.9532
1196.723, 487.6036
1197.205, 487.7892
1197.687, 488.6666
1198.169, 489.4199
1198.651, 489.1064
1199.134, 488.5114
1199.616, 488.7571
1200.098, 489.5604
1200.580, 490.2000
1201.062, 490.5557
1201.544, 490.7882
1202.026, 490.9554
1202.508, 490.7697
1202.990, 489.3863
1203.473, 487.9222
1203.955, 488.0428
1204.437, 489.3603
1204.919, 490.5015
1205.401, 491.3429
1205.883, 491.8226
1206.365, 491.9150
1206.847, 491.7529
1207.329, 491.0639
1207.812, 490.4792
1208.294, 491.3579
1208.776, 493.1750
1209.258, 493.4087
1209.740, 490.8243
1210.222, 489.4322
1210.704, 489.8643
1211.186, 490.7412
1211.669, 490.3860
1212.151, 489.8367
1212.633, 490.8211
1213.115, 492.9882
1213.597, 493.7717
1214.079, 492.2749
1214.561, 491.6178
1215.043, 492.3598
1215.526, 493.4606
1216.008, 494.0005
1216.490, 494.1339
1216.972, 494.0042
1217.454, 493.6251
1217.936, 492.9825
1218.418, 491.7988
1218.900, 491.3910
1219.382, 492.0918
1219.865, 493.0824
1220.347, 493.4291
1220.829, 493.5844
1221.311, 494.2606
1221.793, 495.3449
1222.275, 495.5016
1222.757, 494.3304
1223.239, 493.7784
1223.722, 494.2834
1224.204, 495.2077
1224.686, 496.4610
1225.168, 497.3313
1225.650, 496.6989
1226.132, 494.7075
1226.614, 493.8245
1227.096, 494.2655
1227.578, 494.7425
1228.061, 494.9828
1228.543, 495.1725
1229.025, 495.2907
1229.507, 495.6110
1229.989, 496.6817
1230.471, 498.3470
1230.953, 499.0232
1231.435, 498.6061
1231.917, 498.0606
1232.400, 497.5445
1232.882, 497.2525
1233.364, 497.6405
1233.846, 498.1157
1234.328, 498.1256
1234.810, 497.7167
1235.292, 497.1546
1235.774, 496.4143
1236.257, 496.4298
1236.739, 497.6029
1237.221, 498.6769
1237.703, 498.4985
1238.185, 497.8631
1238.667, 497.1743
1239.149, 496.5898
1239.631, 497.0013
1240.114, 498.3509
1240.596, 499.1387
1241.078, 498.9205
1241.560, 498.4985
1242.042, 498.4914
1242.524, 498.4395
1243.006, 497.8035
1243.488, 496.9098
1243.970, 497.2230
1244.453, 498.5779
1244.935, 499.6207
1245.417, 499.9834
1245.899, 500.3072
1246.381, 501.3048
1246.863, 502.0069
1247.345, 501.7421
1247.827, 500.9036
1248.309, 500.9135
1248.792, 501.5337
1249.274, 501.5954
1249.756, 500.6908
1250.238, 500.1157
1250.720, 500.8946
1251.202, 501.6844
1251.684, 501.8929
1252.166, 501.7595
1252.649, 501.9545
1253.131, 502.3243
1253.613, 502.3497
1254.095, 501.8375
1254.577, 501.5468
1255.059, 501.9531
1255.541, 502.2338
1256.023, 501.9922
1256.505, 501.6037
1256.988, 502.0450
1257.470, 502.8873
1257.952, 503.1825
1258.434, 502.6983
1258.916, 502.1905
1259.398, 501.5853
1259.880, 501.4769
1260.362, 502.2498
1260.844, 503.2652
1261.327, 503.3994
1261.809, 503.1016
1262.291, 502.9921
1262.773, 503.1678
1263.255, 503.7695
1263.737, 505.0030
1264.219, 505.8365
1264.701, 505.7955
1265.184, 505.5929
1265.666, 506.3785
1266.148, 507.3554
1266.630, 507.3730
1267.112, 506.3018
1267.594, 506.2209
1268.076, 507.2598
1268.558, 508.2910
1269.041, 509.0422
1269.523, 509.4632
1270.005, 509.2992
1270.487, 508.9517
1270.969, 508.7103
1271.451, 508.6191
1271.933, 508.9256
1272.415, 509.6305
1272.897, 510.6231
1273.380, 512.0353
1273.862, 512.7916
1274.344, 511.3506
1274.826, 509.7245
1275.308, 509.1924
1275.790, 509.4808
1276.272, 509.8310
1276.754, 510.1897
1277.237, 510.2778
1277.719, 510.0345
1278.201, 509.5464
1278.683, 508.2547
1279.165, 507.5372
1279.647, 508.2241
1280.129, 509.4596
1280.611, 509.2432
1281.094, 508.1081
1281.576, 507.4494
1282.058, 507.4931
1282.540, 507.9258
1283.022, 508.9149
1283.504, 509.8684
1283.986, 510.6950
1284.468, 511.2888
1284.950, 511.3587
1285.432, 511.1447
1285.915, 510.9816
1286.397, 510.9147
1286.879, 511.0192
1287.361, 511.3528
1287.843, 511.6409
1288.325, 511.8128
1288.807, 511.9547
1289.289, 511.8058
1289.772, 511.9472
1290.254, 513.7824
1290.736, 516.7085
1291.218, 516.4681
1291.700, 512.5638
1292.182, 510.3221
1292.664, 510.7215
1293.146, 511.9437
1293.629, 512.9987
1294.111, 513.7885
1294.593, 514.0821
1295.075, 514.1274
1295.557, 514.4378
1296.039, 514.9786
1296.521, 515.3754
1297.003, 515.6161
1297.485, 515.8195
1297.968, 516.0030
1298.450, 516.0604
1298.932, 515.9427
1299.414, 515.7556
1299.896, 515.5814
1300.378, 515.4846
1300.860, 515.6137
1301.342, 515.9665
1301.824, 516.4329
1302.307, 516.5232
##END=



