##NAMES=Bazhenovite
##RRUFFID=R130224
##IDEAL CHEMISTRY=Ca_8_S_5_(S_2_O_3_)(OH)_12_&#183;20H_2_O
##LOCALITY=Korkino, Chelyabinsk coal basin, S. Urals, Russia
##OWNER=RRUFF
##SOURCE=Rock Currier
##DESCRIPTION=Aggregate of tabular pale yellowish-orange crystals
##STATUS=The identification of this mineral has been confirmed only by single crystal X-ray diffraction.
##URL=rruff.info/R130224
8.936163e+001, 0.000000e+000
8.984375e+001, 4.048416e+002
9.032587e+001, 4.074243e+002
9.080798e+001, 4.079442e+002
9.129010e+001, 4.056479e+002
9.177222e+001, 4.021607e+002
9.225433e+001, 3.996669e+002
9.273645e+001, 3.980328e+002
9.321857e+001, 3.958927e+002
9.370068e+001, 3.920284e+002
9.418280e+001, 3.867231e+002
9.466492e+001, 3.808671e+002
9.514703e+001, 3.741455e+002
9.562915e+001, 3.671967e+002
9.611127e+001, 3.616963e+002
9.659338e+001, 3.577834e+002
9.707550e+001, 3.548104e+002
9.755762e+001, 3.523245e+002
9.803973e+001, 3.503302e+002
9.852185e+001, 3.479408e+002
9.900397e+001, 3.444944e+002
9.948608e+001, 3.399402e+002
9.996820e+001, 3.361322e+002
1.004503e+002, 3.332948e+002
1.009324e+002, 3.309005e+002
1.014146e+002, 3.277310e+002
1.018967e+002, 3.234612e+002
1.023788e+002, 3.192655e+002
1.028609e+002, 3.156337e+002
1.033430e+002, 3.125559e+002
1.038251e+002, 3.102574e+002
1.043073e+002, 3.091707e+002
1.047894e+002, 3.089515e+002
1.052715e+002, 3.078588e+002
1.057536e+002, 3.059277e+002
1.062357e+002, 3.030778e+002
1.067178e+002, 2.990294e+002
1.072000e+002, 2.919620e+002
1.076821e+002, 2.864234e+002
1.081642e+002, 2.838051e+002
1.086463e+002, 2.844426e+002
1.091284e+002, 2.833247e+002
1.096105e+002, 2.788001e+002
1.100927e+002, 2.732261e+002
1.105748e+002, 2.688435e+002
1.110569e+002, 2.659922e+002
1.115390e+002, 2.640455e+002
1.120211e+002, 2.633612e+002
1.125032e+002, 2.646411e+002
1.129854e+002, 2.645543e+002
1.134675e+002, 2.618300e+002
1.139496e+002, 2.576395e+002
1.144317e+002, 2.536322e+002
1.149138e+002, 2.493519e+002
1.153959e+002, 2.459895e+002
1.158781e+002, 2.444781e+002
1.163602e+002, 2.463559e+002
1.168423e+002, 2.470989e+002
1.173244e+002, 2.441482e+002
1.178065e+002, 2.387376e+002
1.182886e+002, 2.340075e+002
1.187708e+002, 2.316984e+002
1.192529e+002, 2.303777e+002
1.197350e+002, 2.289509e+002
1.202171e+002, 2.268895e+002
1.206992e+002, 2.249436e+002
1.211813e+002, 2.241518e+002
1.216635e+002, 2.241980e+002
1.221456e+002, 2.233369e+002
1.226277e+002, 2.192618e+002
1.231098e+002, 2.139077e+002
1.235919e+002, 2.098491e+002
1.240740e+002, 2.091112e+002
1.245562e+002, 2.093943e+002
1.250383e+002, 2.080806e+002
1.255204e+002, 2.051769e+002
1.260025e+002, 2.023355e+002
1.264846e+002, 2.014017e+002
1.269667e+002, 2.016958e+002
1.274489e+002, 2.015189e+002
1.279310e+002, 1.998386e+002
1.284131e+002, 1.972400e+002
1.288952e+002, 1.946765e+002
1.293773e+002, 1.920828e+002
1.298594e+002, 1.899347e+002
1.303416e+002, 1.892229e+002
1.308237e+002, 1.897366e+002
1.313058e+002, 1.898911e+002
1.317879e+002, 1.886371e+002
1.322700e+002, 1.862369e+002
1.327521e+002, 1.838932e+002
1.332343e+002, 1.815920e+002
1.337164e+002, 1.795524e+002
1.341985e+002, 1.782091e+002
1.346806e+002, 1.776048e+002
1.351627e+002, 1.771321e+002
1.356448e+002, 1.765383e+002
1.361270e+002, 1.758268e+002
1.366091e+002, 1.746392e+002
1.370912e+002, 1.727612e+002
1.375733e+002, 1.704646e+002
1.380554e+002, 1.685470e+002
1.385375e+002, 1.670615e+002
1.390197e+002, 1.657879e+002
1.395018e+002, 1.645575e+002
1.399839e+002, 1.633865e+002
1.404660e+002, 1.622380e+002
1.409481e+002, 1.610968e+002
1.414302e+002, 1.599706e+002
1.419124e+002, 1.588810e+002
1.423945e+002, 1.577949e+002
1.428766e+002, 1.567957e+002
1.433587e+002, 1.559843e+002
1.438408e+002, 1.554503e+002
1.443229e+002, 1.549470e+002
1.448051e+002, 1.545229e+002
1.452872e+002, 1.542456e+002
1.457693e+002, 1.534430e+002
1.462514e+002, 1.517834e+002
1.467335e+002, 1.497982e+002
1.472156e+002, 1.481321e+002
1.476978e+002, 1.469358e+002
1.481799e+002, 1.458983e+002
1.486620e+002, 1.449995e+002
1.491441e+002, 1.444270e+002
1.496262e+002, 1.434904e+002
1.501083e+002, 1.417312e+002
1.505905e+002, 1.396950e+002
1.510726e+002, 1.383364e+002
1.515547e+002, 1.386056e+002
1.520368e+002, 1.387448e+002
1.525189e+002, 1.381767e+002
1.530010e+002, 1.363483e+002
1.534832e+002, 1.347578e+002
1.539653e+002, 1.337231e+002
1.544474e+002, 1.330034e+002
1.549295e+002, 1.320198e+002
1.554116e+002, 1.301712e+002
1.558937e+002, 1.284247e+002
1.563759e+002, 1.272525e+002
1.568580e+002, 1.271782e+002
1.573401e+002, 1.270617e+002
1.578222e+002, 1.265750e+002
1.583043e+002, 1.258430e+002
1.587864e+002, 1.253262e+002
1.592686e+002, 1.254761e+002
1.597507e+002, 1.256898e+002
1.602328e+002, 1.255819e+002
1.607149e+002, 1.248550e+002
1.611970e+002, 1.240026e+002
1.616791e+002, 1.230924e+002
1.621613e+002, 1.221583e+002
1.626434e+002, 1.213366e+002
1.631255e+002, 1.207412e+002
1.636076e+002, 1.202673e+002
1.640897e+002, 1.198219e+002
1.645718e+002, 1.194394e+002
1.650540e+002, 1.190251e+002
1.655361e+002, 1.185373e+002
1.660182e+002, 1.179734e+002
1.665003e+002, 1.173475e+002
1.669824e+002, 1.167123e+002
1.674645e+002, 1.159993e+002
1.679467e+002, 1.151344e+002
1.684288e+002, 1.136759e+002
1.689109e+002, 1.123294e+002
1.693930e+002, 1.116201e+002
1.698751e+002, 1.115776e+002
1.703572e+002, 1.118561e+002
1.708394e+002, 1.124654e+002
1.713215e+002, 1.132146e+002
1.718036e+002, 1.137729e+002
1.722857e+002, 1.140435e+002
1.727678e+002, 1.140365e+002
1.732499e+002, 1.135806e+002
1.737321e+002, 1.125762e+002
1.742142e+002, 1.117839e+002
1.746963e+002, 1.121300e+002
1.751784e+002, 1.131997e+002
1.756605e+002, 1.140137e+002
1.761426e+002, 1.134373e+002
1.766248e+002, 1.125172e+002
1.771069e+002, 1.127826e+002
1.775890e+002, 1.145155e+002
1.780711e+002, 1.168283e+002
1.785532e+002, 1.189078e+002
1.790353e+002, 1.208126e+002
1.795175e+002, 1.226709e+002
1.799996e+002, 1.245673e+002
1.804817e+002, 1.264752e+002
1.809638e+002, 1.283451e+002
1.814459e+002, 1.301304e+002
1.819280e+002, 1.319990e+002
1.824102e+002, 1.344306e+002
1.828923e+002, 1.372746e+002
1.833744e+002, 1.398682e+002
1.838565e+002, 1.414357e+002
1.843386e+002, 1.423765e+002
1.848207e+002, 1.438419e+002
1.853029e+002, 1.461284e+002
1.857850e+002, 1.487629e+002
1.862671e+002, 1.511635e+002
1.867492e+002, 1.533113e+002
1.872313e+002, 1.550711e+002
1.877134e+002, 1.559987e+002
1.881956e+002, 1.563400e+002
1.886777e+002, 1.572974e+002
1.891598e+002, 1.592727e+002
1.896419e+002, 1.617319e+002
1.901240e+002, 1.634785e+002
1.906061e+002, 1.645047e+002
1.910883e+002, 1.654386e+002
1.915704e+002, 1.668255e+002
1.920525e+002, 1.686236e+002
1.925346e+002, 1.702149e+002
1.930167e+002, 1.712646e+002
1.934988e+002, 1.720757e+002
1.939810e+002, 1.732993e+002
1.944631e+002, 1.748267e+002
1.949452e+002, 1.769084e+002
1.954273e+002, 1.791772e+002
1.959094e+002, 1.816253e+002
1.963915e+002, 1.839793e+002
1.968737e+002, 1.860307e+002
1.973558e+002, 1.879968e+002
1.978379e+002, 1.907953e+002
1.983200e+002, 1.945002e+002
1.988021e+002, 1.986009e+002
1.992842e+002, 2.027375e+002
1.997664e+002, 2.069550e+002
2.002485e+002, 2.108953e+002
2.007306e+002, 2.146082e+002
2.012127e+002, 2.180325e+002
2.016948e+002, 2.207857e+002
2.021769e+002, 2.227862e+002
2.026591e+002, 2.244467e+002
2.031412e+002, 2.260555e+002
2.036233e+002, 2.275958e+002
2.041054e+002, 2.292807e+002
2.045875e+002, 2.311715e+002
2.050696e+002, 2.332516e+002
2.055518e+002, 2.353840e+002
2.060339e+002, 2.375611e+002
2.065160e+002, 2.397999e+002
2.069981e+002, 2.419949e+002
2.074802e+002, 2.439680e+002
2.079623e+002, 2.465801e+002
2.084445e+002, 2.500416e+002
2.089266e+002, 2.543493e+002
2.094087e+002, 2.590845e+002
2.098908e+002, 2.641226e+002
2.103729e+002, 2.698263e+002
2.108550e+002, 2.765446e+002
2.113372e+002, 2.841267e+002
2.118193e+002, 2.929395e+002
2.123014e+002, 3.030869e+002
2.127835e+002, 3.144670e+002
2.132656e+002, 3.274576e+002
2.137477e+002, 3.429490e+002
2.142299e+002, 3.588552e+002
2.147120e+002, 3.722747e+002
2.151941e+002, 3.823586e+002
2.156762e+002, 3.926591e+002
2.161583e+002, 4.040456e+002
2.166404e+002, 4.164054e+002
2.171226e+002, 4.312816e+002
2.176047e+002, 4.537648e+002
2.180868e+002, 4.728391e+002
2.185689e+002, 4.750353e+002
2.190510e+002, 4.568329e+002
2.195331e+002, 4.297359e+002
2.200153e+002, 3.934277e+002
2.204974e+002, 3.461583e+002
2.209795e+002, 3.075074e+002
2.214616e+002, 2.780666e+002
2.219437e+002, 2.560630e+002
2.224258e+002, 2.393290e+002
2.229080e+002, 2.292346e+002
2.233901e+002, 2.216904e+002
2.238722e+002, 2.161032e+002
2.243543e+002, 2.125583e+002
2.248364e+002, 2.095521e+002
2.253185e+002, 2.070728e+002
2.258007e+002, 2.051610e+002
2.262828e+002, 2.039148e+002
2.267649e+002, 2.036165e+002
2.272470e+002, 2.034300e+002
2.277291e+002, 2.031622e+002
2.282112e+002, 2.028012e+002
2.286934e+002, 2.023843e+002
2.291755e+002, 2.018541e+002
2.296576e+002, 2.013142e+002
2.301397e+002, 2.008783e+002
2.306218e+002, 2.004314e+002
2.311039e+002, 2.003054e+002
2.315861e+002, 2.006971e+002
2.320682e+002, 2.017411e+002
2.325503e+002, 2.024141e+002
2.330324e+002, 2.026015e+002
2.335145e+002, 2.025281e+002
2.339966e+002, 2.024401e+002
2.344788e+002, 2.022255e+002
2.349609e+002, 2.022139e+002
2.354430e+002, 2.025746e+002
2.359251e+002, 2.034034e+002
2.364072e+002, 2.039200e+002
2.368893e+002, 2.039666e+002
2.373715e+002, 2.038295e+002
2.378536e+002, 2.038620e+002
2.383357e+002, 2.041309e+002
2.388178e+002, 2.044367e+002
2.392999e+002, 2.046580e+002
2.397820e+002, 2.047202e+002
2.402642e+002, 2.052510e+002
2.407463e+002, 2.064924e+002
2.412284e+002, 2.079895e+002
2.417105e+002, 2.092021e+002
2.421926e+002, 2.100674e+002
2.426747e+002, 2.107507e+002
2.431569e+002, 2.112756e+002
2.436390e+002, 2.116388e+002
2.441211e+002, 2.118845e+002
2.446032e+002, 2.121157e+002
2.450853e+002, 2.121431e+002
2.455674e+002, 2.117306e+002
2.460496e+002, 2.107464e+002
2.465317e+002, 2.095657e+002
2.470138e+002, 2.082300e+002
2.474959e+002, 2.067209e+002
2.479780e+002, 2.052675e+002
2.484601e+002, 2.039962e+002
2.489423e+002, 2.026550e+002
2.494244e+002, 2.009379e+002
2.499065e+002, 1.986596e+002
2.503886e+002, 1.963614e+002
2.508707e+002, 1.939887e+002
2.513528e+002, 1.915202e+002
2.518350e+002, 1.899629e+002
2.523171e+002, 1.897652e+002
2.527992e+002, 1.900048e+002
2.532813e+002, 1.897082e+002
2.537634e+002, 1.885544e+002
2.542455e+002, 1.875505e+002
2.547277e+002, 1.868366e+002
2.552098e+002, 1.864070e+002
2.556919e+002, 1.865199e+002
2.561740e+002, 1.876087e+002
2.566561e+002, 1.886921e+002
2.571382e+002, 1.886741e+002
2.576204e+002, 1.868778e+002
2.581025e+002, 1.856512e+002
2.585846e+002, 1.856811e+002
2.590667e+002, 1.868796e+002
2.595488e+002, 1.873127e+002
2.600309e+002, 1.867335e+002
2.605131e+002, 1.857444e+002
2.609952e+002, 1.848194e+002
2.614773e+002, 1.838870e+002
2.619594e+002, 1.832212e+002
2.624415e+002, 1.829629e+002
2.629236e+002, 1.830586e+002
2.634058e+002, 1.829386e+002
2.638879e+002, 1.824789e+002
2.643700e+002, 1.820157e+002
2.648521e+002, 1.818685e+002
2.653342e+002, 1.822045e+002
2.658163e+002, 1.822970e+002
2.662985e+002, 1.820175e+002
2.667806e+002, 1.814090e+002
2.672627e+002, 1.806477e+002
2.677448e+002, 1.796410e+002
2.682269e+002, 1.786828e+002
2.687090e+002, 1.780087e+002
2.691912e+002, 1.776701e+002
2.696733e+002, 1.773606e+002
2.701554e+002, 1.770397e+002
2.706375e+002, 1.767173e+002
2.711196e+002, 1.764597e+002
2.716017e+002, 1.762887e+002
2.720839e+002, 1.761185e+002
2.725660e+002, 1.758944e+002
2.730481e+002, 1.756085e+002
2.735302e+002, 1.753259e+002
2.740123e+002, 1.750759e+002
2.744944e+002, 1.748179e+002
2.749766e+002, 1.743813e+002
2.754587e+002, 1.737076e+002
2.759408e+002, 1.730935e+002
2.764229e+002, 1.727709e+002
2.769050e+002, 1.727664e+002
2.773871e+002, 1.727165e+002
2.778693e+002, 1.726130e+002
2.783514e+002, 1.724345e+002
2.788335e+002, 1.721167e+002
2.793156e+002, 1.716426e+002
2.797977e+002, 1.711147e+002
2.802798e+002, 1.705194e+002
2.807620e+002, 1.698594e+002
2.812441e+002, 1.694257e+002
2.817262e+002, 1.692595e+002
2.822083e+002, 1.692707e+002
2.826904e+002, 1.693197e+002
2.831725e+002, 1.694057e+002
2.836547e+002, 1.695201e+002
2.841368e+002, 1.697464e+002
2.846189e+002, 1.700524e+002
2.851010e+002, 1.699925e+002
2.855831e+002, 1.694561e+002
2.860652e+002, 1.688365e+002
2.865474e+002, 1.688020e+002
2.870295e+002, 1.693390e+002
2.875116e+002, 1.697884e+002
2.879937e+002, 1.697835e+002
2.884758e+002, 1.694145e+002
2.889579e+002, 1.692124e+002
2.894401e+002, 1.691898e+002
2.899222e+002, 1.692563e+002
2.904043e+002, 1.694165e+002
2.908864e+002, 1.696327e+002
2.913685e+002, 1.695844e+002
2.918506e+002, 1.689348e+002
2.923328e+002, 1.679541e+002
2.928149e+002, 1.675274e+002
2.932970e+002, 1.676853e+002
2.937791e+002, 1.679748e+002
2.942612e+002, 1.679133e+002
2.947433e+002, 1.675804e+002
2.952255e+002, 1.672878e+002
2.957076e+002, 1.671304e+002
2.961897e+002, 1.670829e+002
2.966718e+002, 1.672008e+002
2.971539e+002, 1.674760e+002
2.976360e+002, 1.675993e+002
2.981182e+002, 1.670965e+002
2.986003e+002, 1.662292e+002
2.990824e+002, 1.656591e+002
2.995645e+002, 1.656802e+002
3.000466e+002, 1.659565e+002
3.005287e+002, 1.660321e+002
3.010109e+002, 1.659270e+002
3.014930e+002, 1.657825e+002
3.019751e+002, 1.656749e+002
3.024572e+002, 1.656020e+002
3.029393e+002, 1.655896e+002
3.034214e+002, 1.657158e+002
3.039036e+002, 1.657718e+002
3.043857e+002, 1.654475e+002
3.048678e+002, 1.648360e+002
3.053499e+002, 1.642665e+002
3.058320e+002, 1.638771e+002
3.063141e+002, 1.636727e+002
3.067963e+002, 1.636991e+002
3.072784e+002, 1.640180e+002
3.077605e+002, 1.644066e+002
3.082426e+002, 1.647630e+002
3.087247e+002, 1.650522e+002
3.092068e+002, 1.651909e+002
3.096890e+002, 1.648846e+002
3.101711e+002, 1.645491e+002
3.106532e+002, 1.646369e+002
3.111353e+002, 1.652915e+002
3.116174e+002, 1.658475e+002
3.120995e+002, 1.657449e+002
3.125817e+002, 1.652744e+002
3.130638e+002, 1.649068e+002
3.135459e+002, 1.648843e+002
3.140280e+002, 1.649834e+002
3.145101e+002, 1.651399e+002
3.149922e+002, 1.653637e+002
3.154744e+002, 1.654164e+002
3.159565e+002, 1.649136e+002
3.164386e+002, 1.642710e+002
3.169207e+002, 1.639669e+002
3.174028e+002, 1.645940e+002
3.178849e+002, 1.651836e+002
3.183671e+002, 1.653028e+002
3.188492e+002, 1.649668e+002
3.193313e+002, 1.646114e+002
3.198134e+002, 1.642334e+002
3.202955e+002, 1.639711e+002
3.207776e+002, 1.639367e+002
3.212598e+002, 1.645280e+002
3.217419e+002, 1.649464e+002
3.222240e+002, 1.648753e+002
3.227061e+002, 1.644169e+002
3.231882e+002, 1.641156e+002
3.236703e+002, 1.640632e+002
3.241525e+002, 1.642014e+002
3.246346e+002, 1.645153e+002
3.251167e+002, 1.653869e+002
3.255988e+002, 1.659110e+002
3.260809e+002, 1.658432e+002
3.265630e+002, 1.653580e+002
3.270452e+002, 1.649311e+002
3.275273e+002, 1.645670e+002
3.280094e+002, 1.642925e+002
3.284915e+002, 1.641111e+002
3.289736e+002, 1.640018e+002
3.294557e+002, 1.640436e+002
3.299379e+002, 1.643997e+002
3.304200e+002, 1.648557e+002
3.309021e+002, 1.650455e+002
3.313842e+002, 1.646532e+002
3.318663e+002, 1.644148e+002
3.323484e+002, 1.645914e+002
3.328306e+002, 1.652733e+002
3.333127e+002, 1.657592e+002
3.337948e+002, 1.660833e+002
3.342769e+002, 1.661778e+002
3.347590e+002, 1.658830e+002
3.352411e+002, 1.648609e+002
3.357233e+002, 1.642221e+002
3.362054e+002, 1.643292e+002
3.366875e+002, 1.651228e+002
3.371696e+002, 1.655536e+002
3.376517e+002, 1.654776e+002
3.381339e+002, 1.653216e+002
3.386160e+002, 1.654743e+002
3.390981e+002, 1.660249e+002
3.395802e+002, 1.664534e+002
3.400623e+002, 1.666927e+002
3.405444e+002, 1.667523e+002
3.410266e+002, 1.665854e+002
3.415087e+002, 1.661237e+002
3.419908e+002, 1.657386e+002
3.424729e+002, 1.657451e+002
3.429550e+002, 1.661376e+002
3.434371e+002, 1.662767e+002
3.439193e+002, 1.660097e+002
3.444014e+002, 1.656544e+002
3.448835e+002, 1.658144e+002
3.453656e+002, 1.664868e+002
3.458477e+002, 1.672989e+002
3.463298e+002, 1.683873e+002
3.468120e+002, 1.695421e+002
3.472941e+002, 1.696365e+002
3.477762e+002, 1.685224e+002
3.482583e+002, 1.670334e+002
3.487404e+002, 1.659498e+002
3.492225e+002, 1.652827e+002
3.497047e+002, 1.650930e+002
3.501868e+002, 1.657336e+002
3.506689e+002, 1.667163e+002
3.511510e+002, 1.671579e+002
3.516331e+002, 1.670620e+002
3.521152e+002, 1.668031e+002
3.525974e+002, 1.666496e+002
3.530795e+002, 1.665571e+002
3.535616e+002, 1.664463e+002
3.540437e+002, 1.662972e+002
3.545258e+002, 1.661180e+002
3.550079e+002, 1.658421e+002
3.554901e+002, 1.655141e+002
3.559722e+002, 1.653248e+002
3.564543e+002, 1.655251e+002
3.569364e+002, 1.658625e+002
3.574185e+002, 1.660404e+002
3.579006e+002, 1.659074e+002
3.583828e+002, 1.658821e+002
3.588649e+002, 1.664347e+002
3.593470e+002, 1.672812e+002
3.598291e+002, 1.678512e+002
3.603112e+002, 1.677232e+002
3.607933e+002, 1.673727e+002
3.612755e+002, 1.670276e+002
3.617576e+002, 1.666944e+002
3.622397e+002, 1.664761e+002
3.627218e+002, 1.663827e+002
3.632039e+002, 1.664330e+002
3.636860e+002, 1.666480e+002
3.641682e+002, 1.673719e+002
3.646503e+002, 1.679331e+002
3.651324e+002, 1.680536e+002
3.656145e+002, 1.677491e+002
3.660966e+002, 1.674309e+002
3.665787e+002, 1.669870e+002
3.670609e+002, 1.666637e+002
3.675430e+002, 1.666187e+002
3.680251e+002, 1.671347e+002
3.685072e+002, 1.676169e+002
3.689893e+002, 1.681321e+002
3.694714e+002, 1.686015e+002
3.699536e+002, 1.687223e+002
3.704357e+002, 1.680999e+002
3.709178e+002, 1.675455e+002
3.713999e+002, 1.674066e+002
3.718820e+002, 1.678770e+002
3.723641e+002, 1.682710e+002
3.728463e+002, 1.686257e+002
3.733284e+002, 1.688750e+002
3.738105e+002, 1.688560e+002
3.742926e+002, 1.683468e+002
3.747747e+002, 1.680744e+002
3.752568e+002, 1.683182e+002
3.757390e+002, 1.690859e+002
3.762211e+002, 1.696895e+002
3.767032e+002, 1.701413e+002
3.771853e+002, 1.704106e+002
3.776674e+002, 1.703822e+002
3.781495e+002, 1.699988e+002
3.786317e+002, 1.698537e+002
3.791138e+002, 1.701604e+002
3.795959e+002, 1.707184e+002
3.800780e+002, 1.708625e+002
3.805601e+002, 1.705581e+002
3.810422e+002, 1.702211e+002
3.815244e+002, 1.701186e+002
3.820065e+002, 1.702282e+002
3.824886e+002, 1.704473e+002
3.829707e+002, 1.707932e+002
3.834528e+002, 1.711772e+002
3.839349e+002, 1.714865e+002
3.844171e+002, 1.717293e+002
3.848992e+002, 1.719424e+002
3.853813e+002, 1.721049e+002
3.858634e+002, 1.722654e+002
3.863455e+002, 1.725304e+002
3.868276e+002, 1.729050e+002
3.873098e+002, 1.732869e+002
3.877919e+002, 1.736473e+002
3.882740e+002, 1.739471e+002
3.887561e+002, 1.741073e+002
3.892382e+002, 1.739423e+002
3.897203e+002, 1.737823e+002
3.902025e+002, 1.739979e+002
3.906846e+002, 1.744995e+002
3.911667e+002, 1.748763e+002
3.916488e+002, 1.746991e+002
3.921309e+002, 1.744016e+002
3.926130e+002, 1.743513e+002
3.930952e+002, 1.746723e+002
3.935773e+002, 1.751311e+002
3.940594e+002, 1.757912e+002
3.945415e+002, 1.765073e+002
3.950236e+002, 1.770092e+002
3.955057e+002, 1.769818e+002
3.959879e+002, 1.769333e+002
3.964700e+002, 1.770572e+002
3.969521e+002, 1.773816e+002
3.974342e+002, 1.778021e+002
3.979163e+002, 1.783145e+002
3.983984e+002, 1.789122e+002
3.988806e+002, 1.795888e+002
3.993627e+002, 1.805002e+002
3.998448e+002, 1.813132e+002
4.003269e+002, 1.820423e+002
4.008090e+002, 1.826674e+002
4.012911e+002, 1.829901e+002
4.017733e+002, 1.826904e+002
4.022554e+002, 1.824680e+002
4.027375e+002, 1.827443e+002
4.032196e+002, 1.838624e+002
4.037017e+002, 1.845919e+002
4.041838e+002, 1.847494e+002
4.046660e+002, 1.846392e+002
4.051481e+002, 1.848177e+002
4.056302e+002, 1.853144e+002
4.061123e+002, 1.860049e+002
4.065944e+002, 1.869736e+002
4.070765e+002, 1.881916e+002
4.075587e+002, 1.888381e+002
4.080408e+002, 1.887756e+002
4.085229e+002, 1.886753e+002
4.090050e+002, 1.894374e+002
4.094871e+002, 1.909724e+002
4.099692e+002, 1.919799e+002
4.104514e+002, 1.919514e+002
4.109335e+002, 1.914920e+002
4.114156e+002, 1.919250e+002
4.118977e+002, 1.931828e+002
4.123798e+002, 1.945336e+002
4.128619e+002, 1.954345e+002
4.133441e+002, 1.960829e+002
4.138262e+002, 1.969041e+002
4.143083e+002, 1.979848e+002
4.147904e+002, 1.990604e+002
4.152725e+002, 1.998253e+002
4.157546e+002, 2.004029e+002
4.162368e+002, 2.010672e+002
4.167189e+002, 2.019248e+002
4.172010e+002, 2.029199e+002
4.176831e+002, 2.040950e+002
4.181652e+002, 2.054240e+002
4.186473e+002, 2.066767e+002
4.191295e+002, 2.075376e+002
4.196116e+002, 2.083502e+002
4.200937e+002, 2.094055e+002
4.205758e+002, 2.108563e+002
4.210579e+002, 2.124537e+002
4.215400e+002, 2.144000e+002
4.220222e+002, 2.164543e+002
4.225043e+002, 2.180776e+002
4.229864e+002, 2.185554e+002
4.234685e+002, 2.190781e+002
4.239506e+002, 2.201294e+002
4.244327e+002, 2.218756e+002
4.249149e+002, 2.236833e+002
4.253970e+002, 2.255839e+002
4.258791e+002, 2.274989e+002
4.263612e+002, 2.294252e+002
4.268433e+002, 2.318495e+002
4.273254e+002, 2.334301e+002
4.278076e+002, 2.335466e+002
4.282897e+002, 2.325078e+002
4.287718e+002, 2.325857e+002
4.292539e+002, 2.341267e+002
4.297360e+002, 2.360582e+002
4.302181e+002, 2.377688e+002
4.307003e+002, 2.392318e+002
4.311824e+002, 2.406484e+002
4.316645e+002, 2.420505e+002
4.321466e+002, 2.433648e+002
4.326287e+002, 2.444588e+002
4.331108e+002, 2.453252e+002
4.335930e+002, 2.459826e+002
4.340751e+002, 2.463102e+002
4.345572e+002, 2.464544e+002
4.350393e+002, 2.469511e+002
4.355214e+002, 2.478083e+002
4.360035e+002, 2.487093e+002
4.364857e+002, 2.494331e+002
4.369678e+002, 2.499752e+002
4.374499e+002, 2.503683e+002
4.379320e+002, 2.506875e+002
4.384141e+002, 2.507188e+002
4.388962e+002, 2.500840e+002
4.393784e+002, 2.489396e+002
4.398605e+002, 2.477483e+002
4.403426e+002, 2.469168e+002
4.408247e+002, 2.460409e+002
4.413068e+002, 2.446536e+002
4.417889e+002, 2.426781e+002
4.422711e+002, 2.408194e+002
4.427532e+002, 2.393704e+002
4.432353e+002, 2.382480e+002
4.437174e+002, 2.373658e+002
4.441995e+002, 2.367127e+002
4.446816e+002, 2.362827e+002
4.451638e+002, 2.361896e+002
4.456459e+002, 2.363547e+002
4.461280e+002, 2.364157e+002
4.466101e+002, 2.365102e+002
4.470922e+002, 2.363328e+002
4.475743e+002, 2.355949e+002
4.480565e+002, 2.336645e+002
4.485386e+002, 2.328094e+002
4.490207e+002, 2.335603e+002
4.495028e+002, 2.350591e+002
4.499849e+002, 2.362606e+002
4.504670e+002, 2.372696e+002
4.509492e+002, 2.377164e+002
4.514313e+002, 2.372069e+002
4.519134e+002, 2.359850e+002
4.523955e+002, 2.359324e+002
4.528776e+002, 2.372481e+002
4.533597e+002, 2.390428e+002
4.538419e+002, 2.407550e+002
4.543240e+002, 2.423769e+002
4.548061e+002, 2.441160e+002
4.552882e+002, 2.459371e+002
4.557703e+002, 2.479766e+002
4.562524e+002, 2.504049e+002
4.567346e+002, 2.532366e+002
4.572167e+002, 2.563202e+002
4.576988e+002, 2.598702e+002
4.581809e+002, 2.635528e+002
4.586630e+002, 2.668787e+002
4.591451e+002, 2.698275e+002
4.596273e+002, 2.725784e+002
4.601094e+002, 2.748499e+002
4.605915e+002, 2.771141e+002
4.610736e+002, 2.799800e+002
4.615557e+002, 2.836808e+002
4.620378e+002, 2.878553e+002
4.625200e+002, 2.924513e+002
4.630021e+002, 2.973672e+002
4.634842e+002, 3.023105e+002
4.639663e+002, 3.063469e+002
4.644484e+002, 3.111323e+002
4.649305e+002, 3.176146e+002
4.654127e+002, 3.259213e+002
4.658948e+002, 3.343051e+002
4.663769e+002, 3.424072e+002
4.668590e+002, 3.504063e+002
4.673411e+002, 3.583954e+002
4.678232e+002, 3.666650e+002
4.683054e+002, 3.747275e+002
4.687875e+002, 3.825054e+002
4.692696e+002, 3.900024e+002
4.697517e+002, 3.974083e+002
4.702338e+002, 4.052617e+002
4.707159e+002, 4.119616e+002
4.711981e+002, 4.173395e+002
4.716802e+002, 4.214744e+002
4.721623e+002, 4.222484e+002
4.726444e+002, 4.197302e+002
4.731265e+002, 4.137148e+002
4.736086e+002, 4.031699e+002
4.740908e+002, 3.881589e+002
4.745729e+002, 3.724816e+002
4.750550e+002, 3.564477e+002
4.755371e+002, 3.406620e+002
4.760192e+002, 3.258605e+002
4.765013e+002, 3.120886e+002
4.769835e+002, 3.002165e+002
4.774656e+002, 2.907811e+002
4.779477e+002, 2.833930e+002
4.784298e+002, 2.776758e+002
4.789119e+002, 2.736304e+002
4.793940e+002, 2.704783e+002
4.798762e+002, 2.676776e+002
4.803583e+002, 2.653811e+002
4.808404e+002, 2.638019e+002
4.813225e+002, 2.632601e+002
4.818046e+002, 2.630736e+002
4.822867e+002, 2.628589e+002
4.827689e+002, 2.627310e+002
4.832510e+002, 2.629816e+002
4.837331e+002, 2.641613e+002
4.842152e+002, 2.653626e+002
4.846973e+002, 2.661720e+002
4.851794e+002, 2.664999e+002
4.856616e+002, 2.667954e+002
4.861437e+002, 2.670899e+002
4.866258e+002, 2.673708e+002
4.871079e+002, 2.676286e+002
4.875900e+002, 2.678495e+002
4.880721e+002, 2.680815e+002
4.885543e+002, 2.684104e+002
4.890364e+002, 2.687225e+002
4.895185e+002, 2.686864e+002
4.900006e+002, 2.682674e+002
4.904827e+002, 2.675929e+002
4.909648e+002, 2.667077e+002
4.914470e+002, 2.656095e+002
4.919291e+002, 2.643662e+002
4.924112e+002, 2.630089e+002
4.928933e+002, 2.613813e+002
4.933754e+002, 2.592696e+002
4.938575e+002, 2.567370e+002
4.943397e+002, 2.540076e+002
4.948218e+002, 2.510133e+002
4.953039e+002, 2.481254e+002
4.957860e+002, 2.460600e+002
4.962681e+002, 2.446162e+002
4.967502e+002, 2.431103e+002
4.972324e+002, 2.411243e+002
4.977145e+002, 2.389199e+002
4.981966e+002, 2.365996e+002
4.986787e+002, 2.341506e+002
4.991608e+002, 2.320566e+002
4.996429e+002, 2.307791e+002
5.001251e+002, 2.298414e+002
5.006072e+002, 2.287826e+002
5.010893e+002, 2.273806e+002
5.015714e+002, 2.260264e+002
5.020535e+002, 2.248031e+002
5.025356e+002, 2.236768e+002
5.030178e+002, 2.225636e+002
5.034999e+002, 2.211564e+002
5.039820e+002, 2.200782e+002
5.044641e+002, 2.196082e+002
5.049462e+002, 2.197798e+002
5.054283e+002, 2.196742e+002
5.059105e+002, 2.191259e+002
5.063926e+002, 2.185673e+002
5.068747e+002, 2.182837e+002
5.073568e+002, 2.182675e+002
5.078389e+002, 2.186304e+002
5.083210e+002, 2.194635e+002
5.088032e+002, 2.205326e+002
5.092853e+002, 2.213412e+002
5.097674e+002, 2.219187e+002
5.102495e+002, 2.227820e+002
5.107316e+002, 2.243133e+002
5.112137e+002, 2.262034e+002
5.116959e+002, 2.277250e+002
5.121780e+002, 2.289000e+002
5.126601e+002, 2.302205e+002
5.131422e+002, 2.321897e+002
5.136243e+002, 2.344528e+002
5.141064e+002, 2.366397e+002
5.145886e+002, 2.387783e+002
5.150707e+002, 2.404976e+002
5.155528e+002, 2.409322e+002
5.160349e+002, 2.409623e+002
5.165170e+002, 2.418653e+002
5.169991e+002, 2.451035e+002
5.174813e+002, 2.482122e+002
5.179634e+002, 2.503578e+002
5.184455e+002, 2.516188e+002
5.189276e+002, 2.527692e+002
5.194097e+002, 2.540885e+002
5.198918e+002, 2.551325e+002
5.203740e+002, 2.557523e+002
5.208561e+002, 2.560288e+002
5.213382e+002, 2.555810e+002
5.218203e+002, 2.541536e+002
5.223024e+002, 2.522861e+002
5.227845e+002, 2.505846e+002
5.232667e+002, 2.490998e+002
5.237488e+002, 2.474336e+002
5.242309e+002, 2.454182e+002
5.247130e+002, 2.432747e+002
5.251951e+002, 2.416018e+002
5.256772e+002, 2.403839e+002
5.261594e+002, 2.391814e+002
5.266415e+002, 2.376095e+002
5.271236e+002, 2.358847e+002
5.276057e+002, 2.344713e+002
5.280878e+002, 2.333902e+002
5.285699e+002, 2.326337e+002
5.290521e+002, 2.328654e+002
5.295342e+002, 2.332084e+002
5.300163e+002, 2.324140e+002
5.304984e+002, 2.296923e+002
5.309805e+002, 2.266481e+002
5.314626e+002, 2.239550e+002
5.319448e+002, 2.215993e+002
5.324269e+002, 2.195628e+002
5.329090e+002, 2.178979e+002
5.333911e+002, 2.164678e+002
5.338732e+002, 2.153166e+002
5.343553e+002, 2.144646e+002
5.348375e+002, 2.133985e+002
5.353196e+002, 2.121407e+002
5.358017e+002, 2.106369e+002
5.362838e+002, 2.087885e+002
5.367659e+002, 2.062941e+002
5.372480e+002, 2.042613e+002
5.377302e+002, 2.027961e+002
5.382123e+002, 2.016591e+002
5.386944e+002, 2.006332e+002
5.391765e+002, 1.997360e+002
5.396586e+002, 1.985376e+002
5.401407e+002, 1.967663e+002
5.406229e+002, 1.947756e+002
5.411050e+002, 1.935362e+002
5.415871e+002, 1.929917e+002
5.420692e+002, 1.925507e+002
5.425513e+002, 1.919864e+002
5.430334e+002, 1.912335e+002
5.435156e+002, 1.900096e+002
5.439977e+002, 1.882680e+002
5.444798e+002, 1.868509e+002
5.449619e+002, 1.865911e+002
5.454440e+002, 1.868895e+002
5.459261e+002, 1.871001e+002
5.464083e+002, 1.870559e+002
5.468904e+002, 1.868874e+002
5.473725e+002, 1.864598e+002
5.478546e+002, 1.859441e+002
5.483367e+002, 1.856988e+002
5.488188e+002, 1.862284e+002
5.493010e+002, 1.865420e+002
5.497831e+002, 1.862701e+002
5.502652e+002, 1.854242e+002
5.507473e+002, 1.849905e+002
5.512294e+002, 1.851988e+002
5.517115e+002, 1.854312e+002
5.521937e+002, 1.852204e+002
5.526758e+002, 1.844864e+002
5.531579e+002, 1.841719e+002
5.536400e+002, 1.844356e+002
5.541221e+002, 1.848033e+002
5.546042e+002, 1.845054e+002
5.550864e+002, 1.836710e+002
5.555685e+002, 1.831046e+002
5.560506e+002, 1.830972e+002
5.565327e+002, 1.834159e+002
5.570148e+002, 1.839284e+002
5.574969e+002, 1.845360e+002
5.579791e+002, 1.848719e+002
5.584612e+002, 1.845285e+002
5.589433e+002, 1.839557e+002
5.594254e+002, 1.834929e+002
5.599075e+002, 1.831622e+002
5.603896e+002, 1.828872e+002
5.608718e+002, 1.826495e+002
5.613539e+002, 1.824509e+002
5.618360e+002, 1.822842e+002
5.623181e+002, 1.819641e+002
5.628002e+002, 1.819751e+002
5.632823e+002, 1.825769e+002
5.637645e+002, 1.834182e+002
5.642466e+002, 1.839788e+002
5.647287e+002, 1.842314e+002
5.652108e+002, 1.842532e+002
5.656929e+002, 1.840097e+002
5.661750e+002, 1.835566e+002
5.666572e+002, 1.830496e+002
5.671393e+002, 1.824486e+002
5.676214e+002, 1.820995e+002
5.681035e+002, 1.823697e+002
5.685856e+002, 1.830763e+002
5.690677e+002, 1.835530e+002
5.695499e+002, 1.837701e+002
5.700320e+002, 1.837814e+002
5.705141e+002, 1.834294e+002
5.709962e+002, 1.829510e+002
5.714783e+002, 1.827755e+002
5.719604e+002, 1.831756e+002
5.724426e+002, 1.835445e+002
5.729247e+002, 1.833476e+002
5.734068e+002, 1.828726e+002
5.738889e+002, 1.826304e+002
5.743710e+002, 1.829985e+002
5.748531e+002, 1.834213e+002
5.753353e+002, 1.837702e+002
5.758174e+002, 1.840334e+002
5.762995e+002, 1.841399e+002
5.767816e+002, 1.839655e+002
5.772637e+002, 1.837835e+002
5.777458e+002, 1.837496e+002
5.782280e+002, 1.839382e+002
5.787101e+002, 1.837994e+002
5.791922e+002, 1.831564e+002
5.796743e+002, 1.825735e+002
5.801564e+002, 1.828587e+002
5.806385e+002, 1.839412e+002
5.811207e+002, 1.844801e+002
5.816028e+002, 1.841146e+002
5.820849e+002, 1.833884e+002
5.825670e+002, 1.830112e+002
5.830491e+002, 1.829474e+002
5.835313e+002, 1.830686e+002
5.840134e+002, 1.834666e+002
5.844955e+002, 1.839147e+002
5.849776e+002, 1.842674e+002
5.854597e+002, 1.845083e+002
5.859418e+002, 1.845568e+002
5.864240e+002, 1.841169e+002
5.869061e+002, 1.836714e+002
5.873882e+002, 1.835521e+002
5.878703e+002, 1.839274e+002
5.883524e+002, 1.841038e+002
5.888345e+002, 1.836943e+002
5.893167e+002, 1.832536e+002
5.897988e+002, 1.832602e+002
5.902809e+002, 1.840708e+002
5.907630e+002, 1.844804e+002
5.912451e+002, 1.842638e+002
5.917272e+002, 1.837515e+002
5.922094e+002, 1.835627e+002
5.926915e+002, 1.837136e+002
5.931736e+002, 1.839717e+002
5.936557e+002, 1.843578e+002
5.941378e+002, 1.847348e+002
5.946199e+002, 1.846488e+002
5.951021e+002, 1.841647e+002
5.955842e+002, 1.838049e+002
5.960663e+002, 1.841005e+002
5.965484e+002, 1.846068e+002
5.970305e+002, 1.847810e+002
5.975126e+002, 1.845697e+002
5.979948e+002, 1.843337e+002
5.984769e+002, 1.842717e+002
5.989590e+002, 1.842774e+002
5.994411e+002, 1.842527e+002
5.999232e+002, 1.840912e+002
6.004053e+002, 1.840447e+002
6.008875e+002, 1.842507e+002
6.013696e+002, 1.845587e+002
6.018517e+002, 1.847633e+002
6.023338e+002, 1.848394e+002
6.028159e+002, 1.848503e+002
6.032980e+002, 1.847628e+002
6.037802e+002, 1.846324e+002
6.042623e+002, 1.847051e+002
6.047444e+002, 1.850115e+002
6.052265e+002, 1.852487e+002
6.057086e+002, 1.851413e+002
6.061907e+002, 1.848364e+002
6.066729e+002, 1.849024e+002
6.071550e+002, 1.853299e+002
6.076371e+002, 1.857867e+002
6.081192e+002, 1.860321e+002
6.086013e+002, 1.861328e+002
6.090834e+002, 1.861496e+002
6.095656e+002, 1.860702e+002
6.100477e+002, 1.860098e+002
6.105298e+002, 1.860079e+002
6.110119e+002, 1.860717e+002
6.114940e+002, 1.862102e+002
6.119761e+002, 1.864423e+002
6.124583e+002, 1.867372e+002
6.129404e+002, 1.871920e+002
6.134225e+002, 1.876989e+002
6.139046e+002, 1.880307e+002
6.143867e+002, 1.881768e+002
6.148688e+002, 1.881463e+002
6.153510e+002, 1.878340e+002
6.158331e+002, 1.873318e+002
6.163152e+002, 1.873085e+002
6.167973e+002, 1.878128e+002
6.172794e+002, 1.882784e+002
6.177615e+002, 1.881689e+002
6.182437e+002, 1.877254e+002
6.187258e+002, 1.876723e+002
6.192079e+002, 1.880535e+002
6.196900e+002, 1.885153e+002
6.201721e+002, 1.887810e+002
6.206542e+002, 1.889388e+002
6.211364e+002, 1.891263e+002
6.216185e+002, 1.894775e+002
6.221006e+002, 1.896333e+002
6.225827e+002, 1.890422e+002
6.230648e+002, 1.882866e+002
6.235469e+002, 1.881794e+002
6.240291e+002, 1.899042e+002
6.245112e+002, 1.910259e+002
6.249933e+002, 1.909681e+002
6.254754e+002, 1.900895e+002
6.259575e+002, 1.895814e+002
6.264396e+002, 1.895007e+002
6.269218e+002, 1.896246e+002
6.274039e+002, 1.898990e+002
6.278860e+002, 1.903106e+002
6.283681e+002, 1.908444e+002
6.288502e+002, 1.915093e+002
6.293323e+002, 1.920473e+002
6.298145e+002, 1.920709e+002
6.302966e+002, 1.918777e+002
6.307787e+002, 1.920883e+002
6.312608e+002, 1.927833e+002
6.317429e+002, 1.935567e+002
6.322250e+002, 1.941382e+002
6.327072e+002, 1.946194e+002
6.331893e+002, 1.951018e+002
6.336714e+002, 1.955608e+002
6.341535e+002, 1.960915e+002
6.346356e+002, 1.967552e+002
6.351177e+002, 1.974923e+002
6.355999e+002, 1.982246e+002
6.360820e+002, 1.989997e+002
6.365641e+002, 1.996764e+002
6.370462e+002, 2.001579e+002
6.375283e+002, 2.005468e+002
6.380104e+002, 2.012336e+002
6.384926e+002, 2.022768e+002
6.389747e+002, 2.032839e+002
6.394568e+002, 2.040056e+002
6.399389e+002, 2.045813e+002
6.404210e+002, 2.055390e+002
6.409031e+002, 2.068644e+002
6.413853e+002, 2.081355e+002
6.418674e+002, 2.088807e+002
6.423495e+002, 2.094889e+002
6.428316e+002, 2.104869e+002
6.433137e+002, 2.119891e+002
6.437958e+002, 2.133647e+002
6.442780e+002, 2.140784e+002
6.447601e+002, 2.146600e+002
6.452422e+002, 2.155751e+002
6.457243e+002, 2.172016e+002
6.462064e+002, 2.187005e+002
6.466885e+002, 2.200298e+002
6.471707e+002, 2.212071e+002
6.476528e+002, 2.222208e+002
6.481349e+002, 2.230470e+002
6.486170e+002, 2.238132e+002
6.490991e+002, 2.245836e+002
6.495812e+002, 2.252731e+002
6.500634e+002, 2.257067e+002
6.505455e+002, 2.258928e+002
6.510276e+002, 2.258983e+002
6.515097e+002, 2.256454e+002
6.519918e+002, 2.252987e+002
6.524739e+002, 2.252470e+002
6.529561e+002, 2.253958e+002
6.534382e+002, 2.252367e+002
6.539203e+002, 2.243797e+002
6.544024e+002, 2.231844e+002
6.548845e+002, 2.218262e+002
6.553666e+002, 2.203150e+002
6.558488e+002, 2.188111e+002
6.563309e+002, 2.175037e+002
6.568130e+002, 2.160940e+002
6.572951e+002, 2.143537e+002
6.577772e+002, 2.119907e+002
6.582593e+002, 2.101264e+002
6.587415e+002, 2.089266e+002
6.592236e+002, 2.079588e+002
6.597057e+002, 2.066638e+002
6.601878e+002, 2.050586e+002
6.606699e+002, 2.037252e+002
6.611520e+002, 2.028402e+002
6.616342e+002, 2.021400e+002
6.621163e+002, 2.011888e+002
6.625984e+002, 2.001231e+002
6.630805e+002, 1.993089e+002
6.635626e+002, 1.990501e+002
6.640447e+002, 1.989307e+002
6.645269e+002, 1.986600e+002
6.650090e+002, 1.982940e+002
6.654911e+002, 1.979899e+002
6.659732e+002, 1.978495e+002
6.664553e+002, 1.977289e+002
6.669374e+002, 1.976033e+002
6.674196e+002, 1.974689e+002
6.679017e+002, 1.972415e+002
6.683838e+002, 1.968682e+002
6.688659e+002, 1.965036e+002
6.693480e+002, 1.962075e+002
6.698301e+002, 1.959814e+002
6.703123e+002, 1.959460e+002
6.707944e+002, 1.961483e+002
6.712765e+002, 1.961773e+002
6.717586e+002, 1.953381e+002
6.722407e+002, 1.941006e+002
6.727228e+002, 1.935548e+002
6.732050e+002, 1.938894e+002
6.736871e+002, 1.945999e+002
6.741692e+002, 1.957251e+002
6.746513e+002, 1.968388e+002
6.751334e+002, 1.974187e+002
6.756155e+002, 1.970248e+002
6.760977e+002, 1.965599e+002
6.765798e+002, 1.963471e+002
6.770619e+002, 1.961377e+002
6.775440e+002, 1.955030e+002
6.780261e+002, 1.940105e+002
6.785082e+002, 1.930478e+002
6.789904e+002, 1.929628e+002
6.794725e+002, 1.934783e+002
6.799546e+002, 1.939541e+002
6.804367e+002, 1.943858e+002
6.809188e+002, 1.946832e+002
6.814009e+002, 1.947658e+002
6.818831e+002, 1.947170e+002
6.823652e+002, 1.946348e+002
6.828473e+002, 1.945392e+002
6.833294e+002, 1.945278e+002
6.838115e+002, 1.947738e+002
6.842936e+002, 1.950358e+002
6.847758e+002, 1.951752e+002
6.852579e+002, 1.951787e+002
6.857400e+002, 1.950090e+002
6.862221e+002, 1.941955e+002
6.867042e+002, 1.936047e+002
6.871863e+002, 1.937934e+002
6.876685e+002, 1.950915e+002
6.881506e+002, 1.956673e+002
6.886327e+002, 1.952982e+002
6.891148e+002, 1.946721e+002
6.895969e+002, 1.942908e+002
6.900790e+002, 1.941590e+002
6.905612e+002, 1.945571e+002
6.910433e+002, 1.956209e+002
6.915254e+002, 1.966453e+002
6.920075e+002, 1.966738e+002
6.924896e+002, 1.960887e+002
6.929717e+002, 1.955680e+002
6.934539e+002, 1.952431e+002
6.939360e+002, 1.951339e+002
6.944181e+002, 1.954934e+002
6.949002e+002, 1.960202e+002
6.953823e+002, 1.962473e+002
6.958644e+002, 1.957869e+002
6.963466e+002, 1.953684e+002
6.968287e+002, 1.950719e+002
6.973108e+002, 1.948966e+002
6.977929e+002, 1.948836e+002
6.982750e+002, 1.951105e+002
6.987571e+002, 1.952372e+002
6.992393e+002, 1.951825e+002
6.997214e+002, 1.949387e+002
7.002035e+002, 1.943337e+002
7.006856e+002, 1.934243e+002
7.011677e+002, 1.927303e+002
7.016498e+002, 1.927203e+002
7.021320e+002, 1.929843e+002
7.026141e+002, 1.930579e+002
7.030962e+002, 1.929496e+002
7.035783e+002, 1.928703e+002
7.040604e+002, 1.930276e+002
7.045425e+002, 1.931449e+002
7.050247e+002, 1.929819e+002
7.055068e+002, 1.924089e+002
7.059889e+002, 1.922074e+002
7.064710e+002, 1.924992e+002
7.069531e+002, 1.930058e+002
7.074352e+002, 1.936411e+002
7.079174e+002, 1.944457e+002
7.083995e+002, 1.948767e+002
7.088816e+002, 1.948999e+002
7.093637e+002, 1.946789e+002
7.098458e+002, 1.941900e+002
7.103279e+002, 1.936073e+002
7.108101e+002, 1.933855e+002
7.112922e+002, 1.936588e+002
7.117743e+002, 1.940794e+002
7.122564e+002, 1.945269e+002
7.127385e+002, 1.949177e+002
7.132206e+002, 1.951471e+002
7.137028e+002, 1.950547e+002
7.141849e+002, 1.949852e+002
7.146670e+002, 1.950139e+002
7.151491e+002, 1.950959e+002
7.156312e+002, 1.951568e+002
7.161133e+002, 1.951345e+002
7.165955e+002, 1.952621e+002
7.170776e+002, 1.955848e+002
7.175597e+002, 1.960666e+002
7.180418e+002, 1.967238e+002
7.185239e+002, 1.975242e+002
7.190060e+002, 1.981040e+002
7.194882e+002, 1.982087e+002
7.199703e+002, 1.981384e+002
7.204524e+002, 1.982610e+002
7.209345e+002, 1.985167e+002
7.214166e+002, 1.987370e+002
7.218987e+002, 1.988220e+002
7.223809e+002, 1.988693e+002
7.228630e+002, 1.989833e+002
7.233451e+002, 1.991326e+002
7.238272e+002, 1.990385e+002
7.243093e+002, 1.985751e+002
7.247914e+002, 1.980442e+002
7.252736e+002, 1.974873e+002
7.257557e+002, 1.969325e+002
7.262378e+002, 1.967608e+002
7.267199e+002, 1.970090e+002
7.272020e+002, 1.973400e+002
7.276841e+002, 1.977153e+002
7.281663e+002, 1.979742e+002
7.286484e+002, 1.976081e+002
7.291305e+002, 1.966293e+002
7.296126e+002, 1.957041e+002
7.300947e+002, 1.952829e+002
7.305768e+002, 1.951027e+002
7.310590e+002, 1.948267e+002
7.315411e+002, 1.942528e+002
7.320232e+002, 1.944448e+002
7.325053e+002, 1.969029e+002
7.329874e+002, 1.991079e+002
7.334695e+002, 1.993469e+002
7.339517e+002, 1.967822e+002
7.344338e+002, 1.951969e+002
7.349159e+002, 1.947202e+002
7.353980e+002, 1.948220e+002
7.358801e+002, 1.951144e+002
7.363622e+002, 1.955316e+002
7.368444e+002, 1.958083e+002
7.373265e+002, 1.959089e+002
7.378086e+002, 1.958466e+002
7.382907e+002, 1.954541e+002
7.387728e+002, 1.949782e+002
7.392549e+002, 1.947739e+002
7.397371e+002, 1.952405e+002
7.402192e+002, 1.954659e+002
7.407013e+002, 1.948538e+002
7.411834e+002, 1.940083e+002
7.416655e+002, 1.937620e+002
7.421476e+002, 1.944732e+002
7.426298e+002, 1.948914e+002
7.431119e+002, 1.947322e+002
7.435940e+002, 1.943900e+002
7.440761e+002, 1.947019e+002
7.445582e+002, 1.955835e+002
7.450403e+002, 1.962156e+002
7.455225e+002, 1.962955e+002
7.460046e+002, 1.961105e+002
7.464867e+002, 1.958920e+002
7.469688e+002, 1.956879e+002
7.474509e+002, 1.956072e+002
7.479330e+002, 1.957913e+002
7.484152e+002, 1.960058e+002
7.488973e+002, 1.961542e+002
7.493794e+002, 1.962647e+002
7.498615e+002, 1.964577e+002
7.503436e+002, 1.970274e+002
7.508257e+002, 1.971235e+002
7.513079e+002, 1.962931e+002
7.517900e+002, 1.949348e+002
7.522721e+002, 1.946546e+002
7.527542e+002, 1.954506e+002
7.532363e+002, 1.961530e+002
7.537184e+002, 1.960420e+002
7.542006e+002, 1.955914e+002
7.546827e+002, 1.955115e+002
7.551648e+002, 1.957502e+002
7.556469e+002, 1.960914e+002
7.561290e+002, 1.967428e+002
7.566111e+002, 1.971789e+002
7.570933e+002, 1.969352e+002
7.575754e+002, 1.960574e+002
7.580575e+002, 1.955831e+002
7.585396e+002, 1.957946e+002
7.590217e+002, 1.960593e+002
7.595038e+002, 1.960841e+002
7.599860e+002, 1.959129e+002
7.604681e+002, 1.961478e+002
7.609502e+002, 1.968218e+002
7.614323e+002, 1.974843e+002
7.619144e+002, 1.978835e+002
7.623965e+002, 1.980506e+002
7.628787e+002, 1.979461e+002
7.633608e+002, 1.976006e+002
7.638429e+002, 1.973391e+002
7.643250e+002, 1.974259e+002
7.648071e+002, 1.976134e+002
7.652892e+002, 1.977279e+002
7.657714e+002, 1.977401e+002
7.662535e+002, 1.978239e+002
7.667356e+002, 1.981008e+002
7.672177e+002, 1.983079e+002
7.676998e+002, 1.982961e+002
7.681819e+002, 1.980567e+002
7.686641e+002, 1.976299e+002
7.691462e+002, 1.969548e+002
7.696283e+002, 1.965892e+002
7.701104e+002, 1.973616e+002
7.705925e+002, 1.986761e+002
7.710746e+002, 1.993289e+002
7.715568e+002, 1.991862e+002
7.720389e+002, 1.989433e+002
7.725210e+002, 1.991183e+002
7.730031e+002, 1.993075e+002
7.734852e+002, 1.991245e+002
7.739673e+002, 1.982763e+002
7.744495e+002, 1.978543e+002
7.749316e+002, 1.980518e+002
7.754137e+002, 1.984823e+002
7.758958e+002, 1.989189e+002
7.763779e+002, 1.993773e+002
7.768600e+002, 1.996053e+002
7.773422e+002, 1.995678e+002
7.778243e+002, 1.994829e+002
7.783064e+002, 1.996901e+002
7.787885e+002, 1.999791e+002
7.792706e+002, 1.998393e+002
7.797527e+002, 1.990933e+002
7.802349e+002, 1.985660e+002
7.807170e+002, 1.990235e+002
7.811991e+002, 1.997650e+002
7.816812e+002, 2.001732e+002
7.821633e+002, 1.999961e+002
7.826454e+002, 1.997662e+002
7.831276e+002, 1.993928e+002
7.836097e+002, 1.990764e+002
7.840918e+002, 1.990761e+002
7.845739e+002, 1.993985e+002
7.850560e+002, 1.995755e+002
7.855381e+002, 1.995505e+002
7.860203e+002, 1.994296e+002
7.865024e+002, 1.992579e+002
7.869845e+002, 1.990907e+002
7.874666e+002, 1.989971e+002
7.879487e+002, 1.989521e+002
7.884308e+002, 1.991160e+002
7.889130e+002, 1.996289e+002
7.893951e+002, 2.003546e+002
7.898772e+002, 2.011935e+002
7.903593e+002, 2.025964e+002
7.908414e+002, 2.032107e+002
7.913235e+002, 2.027590e+002
7.918057e+002, 2.018739e+002
7.922878e+002, 2.012312e+002
7.927699e+002, 2.008209e+002
7.932520e+002, 2.007005e+002
7.937341e+002, 2.009303e+002
7.942162e+002, 2.011924e+002
7.946984e+002, 2.009669e+002
7.951805e+002, 2.005990e+002
7.956626e+002, 2.006997e+002
7.961447e+002, 2.017390e+002
7.966268e+002, 2.025112e+002
7.971089e+002, 2.023533e+002
7.975911e+002, 2.018328e+002
7.980732e+002, 2.015940e+002
7.985553e+002, 2.017748e+002
7.990374e+002, 2.019367e+002
7.995195e+002, 2.020525e+002
8.000016e+002, 2.021602e+002
8.004838e+002, 2.023031e+002
8.009659e+002, 2.024833e+002
8.014480e+002, 2.026784e+002
8.019301e+002, 2.028526e+002
8.024122e+002, 2.031799e+002
8.028943e+002, 2.043164e+002
8.033765e+002, 2.055136e+002
8.038586e+002, 2.057253e+002
8.043407e+002, 2.039164e+002
8.048228e+002, 2.025228e+002
8.053049e+002, 2.022090e+002
8.057870e+002, 2.024476e+002
8.062692e+002, 2.027976e+002
8.067513e+002, 2.033279e+002
8.072334e+002, 2.036745e+002
8.077155e+002, 2.037763e+002
8.081976e+002, 2.037536e+002
8.086797e+002, 2.037142e+002
8.091619e+002, 2.036740e+002
8.096440e+002, 2.036921e+002
8.101261e+002, 2.037943e+002
8.106082e+002, 2.038996e+002
8.110903e+002, 2.039118e+002
8.115724e+002, 2.039124e+002
8.120546e+002, 2.039918e+002
8.125367e+002, 2.041969e+002
8.130188e+002, 2.044588e+002
8.135009e+002, 2.049082e+002
8.139830e+002, 2.052859e+002
8.144651e+002, 2.052164e+002
8.149473e+002, 2.046589e+002
8.154294e+002, 2.043757e+002
8.159115e+002, 2.044509e+002
8.163936e+002, 2.047791e+002
8.168757e+002, 2.055989e+002
8.173578e+002, 2.064870e+002
8.178400e+002, 2.065356e+002
8.183221e+002, 2.051810e+002
8.188042e+002, 2.042832e+002
8.192863e+002, 2.053374e+002
8.197684e+002, 2.069170e+002
8.202505e+002, 2.076049e+002
8.207327e+002, 2.067251e+002
8.212148e+002, 2.063618e+002
8.216969e+002, 2.066875e+002
8.221790e+002, 2.072074e+002
8.226611e+002, 2.074341e+002
8.231432e+002, 2.073890e+002
8.236254e+002, 2.070975e+002
8.241075e+002, 2.065131e+002
8.245896e+002, 2.061091e+002
8.250717e+002, 2.065408e+002
8.255538e+002, 2.072858e+002
8.260359e+002, 2.077494e+002
8.265181e+002, 2.077755e+002
8.270002e+002, 2.077089e+002
8.274823e+002, 2.074907e+002
8.279644e+002, 2.073261e+002
8.284465e+002, 2.074322e+002
8.289286e+002, 2.079759e+002
8.294108e+002, 2.079095e+002
8.298929e+002, 2.071199e+002
8.303750e+002, 2.062348e+002
8.308571e+002, 2.057228e+002
8.313392e+002, 2.055758e+002
8.318214e+002, 2.059060e+002
8.323035e+002, 2.067404e+002
8.327856e+002, 2.074681e+002
8.332677e+002, 2.076206e+002
8.337498e+002, 2.075656e+002
8.342319e+002, 2.075494e+002
8.347141e+002, 2.075851e+002
8.351962e+002, 2.077220e+002
8.356783e+002, 2.080083e+002
8.361604e+002, 2.083021e+002
8.366425e+002, 2.085058e+002
8.371246e+002, 2.086228e+002
8.376068e+002, 2.087363e+002
8.380889e+002, 2.088464e+002
8.385710e+002, 2.089206e+002
8.390531e+002, 2.088846e+002
8.395352e+002, 2.088318e+002
8.400173e+002, 2.088464e+002
8.404995e+002, 2.089374e+002
8.409816e+002, 2.091293e+002
8.414637e+002, 2.097571e+002
8.419458e+002, 2.101528e+002
8.424279e+002, 2.098713e+002
8.429100e+002, 2.089348e+002
8.433922e+002, 2.087382e+002
8.438743e+002, 2.094093e+002
8.443564e+002, 2.101074e+002
8.448385e+002, 2.103225e+002
8.453206e+002, 2.102037e+002
8.458027e+002, 2.100112e+002
8.462849e+002, 2.097727e+002
8.467670e+002, 2.096556e+002
8.472491e+002, 2.097922e+002
8.477312e+002, 2.100434e+002
8.482133e+002, 2.104355e+002
8.486954e+002, 2.109242e+002
8.491776e+002, 2.111255e+002
8.496597e+002, 2.108573e+002
8.501418e+002, 2.106776e+002
8.506239e+002, 2.108192e+002
8.511060e+002, 2.111653e+002
8.515881e+002, 2.113360e+002
8.520703e+002, 2.113405e+002
8.525524e+002, 2.112430e+002
8.530345e+002, 2.109899e+002
8.535166e+002, 2.107277e+002
8.539987e+002, 2.104162e+002
8.544808e+002, 2.101966e+002
8.549630e+002, 2.104317e+002
8.554451e+002, 2.117816e+002
8.559272e+002, 2.129243e+002
8.564093e+002, 2.136966e+002
8.568914e+002, 2.140488e+002
8.573735e+002, 2.137113e+002
8.578557e+002, 2.125925e+002
8.583378e+002, 2.118931e+002
8.588199e+002, 2.120195e+002
8.593020e+002, 2.125168e+002
8.597841e+002, 2.127954e+002
8.602662e+002, 2.129251e+002
8.607484e+002, 2.130390e+002
8.612305e+002, 2.131474e+002
8.617126e+002, 2.133071e+002
8.621947e+002, 2.137592e+002
8.626768e+002, 2.141768e+002
8.631589e+002, 2.140558e+002
8.636411e+002, 2.130586e+002
8.641232e+002, 2.125371e+002
8.646053e+002, 2.127369e+002
8.650874e+002, 2.131395e+002
8.655695e+002, 2.129709e+002
8.660516e+002, 2.124361e+002
8.665338e+002, 2.122191e+002
8.670159e+002, 2.124986e+002
8.674980e+002, 2.128235e+002
8.679801e+002, 2.128758e+002
8.684622e+002, 2.128168e+002
8.689443e+002, 2.128108e+002
8.694265e+002, 2.129374e+002
8.699086e+002, 2.129607e+002
8.703907e+002, 2.127660e+002
8.708728e+002, 2.126501e+002
8.713549e+002, 2.129520e+002
8.718370e+002, 2.136204e+002
8.723192e+002, 2.140155e+002
8.728013e+002, 2.141162e+002
8.732834e+002, 2.140675e+002
8.737655e+002, 2.138813e+002
8.742476e+002, 2.136737e+002
8.747297e+002, 2.136071e+002
8.752119e+002, 2.136996e+002
8.756940e+002, 2.136448e+002
8.761761e+002, 2.129034e+002
8.766582e+002, 2.125154e+002
8.771403e+002, 2.130984e+002
8.776224e+002, 2.145327e+002
8.781046e+002, 2.151065e+002
8.785867e+002, 2.147898e+002
8.790688e+002, 2.142826e+002
8.795509e+002, 2.139726e+002
8.800330e+002, 2.137494e+002
8.805151e+002, 2.134010e+002
8.809973e+002, 2.129914e+002
8.814794e+002, 2.127603e+002
8.819615e+002, 2.130614e+002
8.824436e+002, 2.132906e+002
8.829257e+002, 2.131853e+002
8.834078e+002, 2.128466e+002
8.838900e+002, 2.124935e+002
8.843721e+002, 2.120808e+002
8.848542e+002, 2.119293e+002
8.853363e+002, 2.122449e+002
8.858184e+002, 2.126794e+002
8.863005e+002, 2.124758e+002
8.867827e+002, 2.118977e+002
8.872648e+002, 2.116260e+002
8.877469e+002, 2.120076e+002
8.882290e+002, 2.125880e+002
8.887111e+002, 2.135085e+002
8.891932e+002, 2.143679e+002
8.896754e+002, 2.145470e+002
8.901575e+002, 2.136714e+002
8.906396e+002, 2.131155e+002
8.911217e+002, 2.130589e+002
8.916038e+002, 2.131799e+002
8.920859e+002, 2.129886e+002
8.925681e+002, 2.126454e+002
8.930502e+002, 2.127404e+002
8.935323e+002, 2.134419e+002
8.940144e+002, 2.140236e+002
8.944965e+002, 2.137556e+002
8.949786e+002, 2.132928e+002
8.954608e+002, 2.131832e+002
8.959429e+002, 2.135478e+002
8.964250e+002, 2.141312e+002
8.969071e+002, 2.151467e+002
8.973892e+002, 2.159387e+002
8.978713e+002, 2.159845e+002
8.983535e+002, 2.153884e+002
8.988356e+002, 2.146001e+002
8.993177e+002, 2.136559e+002
8.997998e+002, 2.130326e+002
9.002819e+002, 2.132734e+002
9.007640e+002, 2.137701e+002
9.012462e+002, 2.141506e+002
9.017283e+002, 2.143835e+002
9.022104e+002, 2.143968e+002
9.026925e+002, 2.138759e+002
9.031746e+002, 2.136873e+002
9.036567e+002, 2.142187e+002
9.041389e+002, 2.151890e+002
9.046210e+002, 2.157304e+002
9.051031e+002, 2.158674e+002
9.055852e+002, 2.158186e+002
9.060673e+002, 2.154376e+002
9.065494e+002, 2.152338e+002
9.070316e+002, 2.157675e+002
9.075137e+002, 2.167794e+002
9.079958e+002, 2.178236e+002
9.084779e+002, 2.194736e+002
9.089600e+002, 2.200843e+002
9.094421e+002, 2.189550e+002
9.099243e+002, 2.173542e+002
9.104064e+002, 2.171470e+002
9.108885e+002, 2.182430e+002
9.113706e+002, 2.189629e+002
9.118527e+002, 2.190484e+002
9.123348e+002, 2.188116e+002
9.128170e+002, 2.183630e+002
9.132991e+002, 2.178627e+002
9.137812e+002, 2.174226e+002
9.142633e+002, 2.169618e+002
9.147454e+002, 2.170340e+002
9.152275e+002, 2.181090e+002
9.157097e+002, 2.192588e+002
9.161918e+002, 2.199007e+002
9.166739e+002, 2.200464e+002
9.171560e+002, 2.205938e+002
9.176381e+002, 2.215444e+002
9.181202e+002, 2.221847e+002
9.186024e+002, 2.217041e+002
9.190845e+002, 2.208707e+002
9.195666e+002, 2.203967e+002
9.200487e+002, 2.203049e+002
9.205308e+002, 2.205192e+002
9.210129e+002, 2.214128e+002
9.214951e+002, 2.221321e+002
9.219772e+002, 2.223863e+002
9.224593e+002, 2.223508e+002
9.229414e+002, 2.225808e+002
9.234235e+002, 2.230668e+002
9.239056e+002, 2.234982e+002
9.243878e+002, 2.237504e+002
9.248699e+002, 2.239487e+002
9.253520e+002, 2.241590e+002
9.258341e+002, 2.244393e+002
9.263162e+002, 2.248871e+002
9.267983e+002, 2.256112e+002
9.272805e+002, 2.264102e+002
9.277626e+002, 2.275010e+002
9.282447e+002, 2.284325e+002
9.287268e+002, 2.285649e+002
9.292089e+002, 2.278933e+002
9.296910e+002, 2.278077e+002
9.301732e+002, 2.284434e+002
9.306553e+002, 2.292592e+002
9.311374e+002, 2.296823e+002
9.316195e+002, 2.300649e+002
9.321016e+002, 2.309203e+002
9.325837e+002, 2.323164e+002
9.330659e+002, 2.334596e+002
9.335480e+002, 2.339641e+002
9.340301e+002, 2.344017e+002
9.345122e+002, 2.349871e+002
9.349943e+002, 2.356861e+002
9.354764e+002, 2.362167e+002
9.359586e+002, 2.365866e+002
9.364407e+002, 2.370194e+002
9.369228e+002, 2.376505e+002
9.374049e+002, 2.383856e+002
9.378870e+002, 2.391143e+002
9.383691e+002, 2.398763e+002
9.388513e+002, 2.407450e+002
9.393334e+002, 2.417473e+002
9.398155e+002, 2.429037e+002
9.402976e+002, 2.443123e+002
9.407797e+002, 2.457690e+002
9.412618e+002, 2.469283e+002
9.417440e+002, 2.478057e+002
9.422261e+002, 2.485048e+002
9.427082e+002, 2.490110e+002
9.431903e+002, 2.495830e+002
9.436724e+002, 2.503858e+002
9.441545e+002, 2.514207e+002
9.446367e+002, 2.527436e+002
9.451188e+002, 2.544417e+002
9.456009e+002, 2.560381e+002
9.460830e+002, 2.573324e+002
9.465651e+002, 2.587475e+002
9.470472e+002, 2.606015e+002
9.475294e+002, 2.628352e+002
9.480115e+002, 2.647542e+002
9.484936e+002, 2.663865e+002
9.489757e+002, 2.679925e+002
9.494578e+002, 2.696673e+002
9.499399e+002, 2.714437e+002
9.504221e+002, 2.733872e+002
9.509042e+002, 2.754751e+002
9.513863e+002, 2.775599e+002
9.518684e+002, 2.795851e+002
9.523505e+002, 2.817561e+002
9.528326e+002, 2.841896e+002
9.533148e+002, 2.867041e+002
9.537969e+002, 2.887374e+002
9.542790e+002, 2.905030e+002
9.547611e+002, 2.928772e+002
9.552432e+002, 2.960175e+002
9.557253e+002, 2.999371e+002
9.562075e+002, 3.058801e+002
9.566896e+002, 3.118683e+002
9.571717e+002, 3.156636e+002
9.576538e+002, 3.158539e+002
9.581359e+002, 3.180162e+002
9.586180e+002, 3.227214e+002
9.591002e+002, 3.279850e+002
9.595823e+002, 3.323930e+002
9.600644e+002, 3.361961e+002
9.605465e+002, 3.399502e+002
9.610286e+002, 3.437270e+002
9.615107e+002, 3.478333e+002
9.619929e+002, 3.525158e+002
9.624750e+002, 3.575527e+002
9.629571e+002, 3.630875e+002
9.634392e+002, 3.689141e+002
9.639213e+002, 3.744807e+002
9.644034e+002, 3.796856e+002
9.648856e+002, 3.848981e+002
9.653677e+002, 3.903414e+002
9.658498e+002, 3.955807e+002
9.663319e+002, 3.998803e+002
9.668140e+002, 4.035070e+002
9.672961e+002, 4.069004e+002
9.677783e+002, 4.102070e+002
9.682604e+002, 4.133148e+002
9.687425e+002, 4.161918e+002
9.692246e+002, 4.188675e+002
9.697067e+002, 4.214089e+002
9.701888e+002, 4.237689e+002
9.706710e+002, 4.260627e+002
9.711531e+002, 4.282838e+002
9.716352e+002, 4.303030e+002
9.721173e+002, 4.322808e+002
9.725994e+002, 4.337989e+002
9.730815e+002, 4.340157e+002
9.735637e+002, 4.331386e+002
9.740458e+002, 4.324882e+002
9.745279e+002, 4.331936e+002
9.750100e+002, 4.332840e+002
9.754921e+002, 4.320087e+002
9.759742e+002, 4.299837e+002
9.764564e+002, 4.288530e+002
9.769385e+002, 4.285470e+002
9.774206e+002, 4.277251e+002
9.779027e+002, 4.258130e+002
9.783848e+002, 4.240567e+002
9.788669e+002, 4.238691e+002
9.793491e+002, 4.244227e+002
9.798312e+002, 4.247743e+002
9.803133e+002, 4.248657e+002
9.807954e+002, 4.243650e+002
9.812775e+002, 4.229706e+002
9.817596e+002, 4.215013e+002
9.822418e+002, 4.205108e+002
9.827239e+002, 4.199276e+002
9.832060e+002, 4.194629e+002
9.836881e+002, 4.190889e+002
9.841702e+002, 4.186391e+002
9.846523e+002, 4.179376e+002
9.851345e+002, 4.171864e+002
9.856166e+002, 4.164743e+002
9.860987e+002, 4.158018e+002
9.865808e+002, 4.150863e+002
9.870629e+002, 4.141173e+002
9.875450e+002, 4.138446e+002
9.880272e+002, 4.146060e+002
9.885093e+002, 4.157804e+002
9.889914e+002, 4.161519e+002
9.894735e+002, 4.162855e+002
9.899556e+002, 4.173904e+002
9.904377e+002, 4.198719e+002
9.909199e+002, 4.227298e+002
9.914020e+002, 4.248367e+002
9.918841e+002, 4.278706e+002
9.923662e+002, 4.331868e+002
9.928483e+002, 4.407823e+002
9.933304e+002, 4.475686e+002
9.938126e+002, 4.534683e+002
9.942947e+002, 4.599091e+002
9.947768e+002, 4.681718e+002
9.952589e+002, 4.771756e+002
9.957410e+002, 4.858903e+002
9.962231e+002, 4.943233e+002
9.967053e+002, 5.027929e+002
9.971874e+002, 5.099300e+002
9.976695e+002, 5.191183e+002
9.981516e+002, 5.315344e+002
9.986337e+002, 5.453047e+002
9.991158e+002, 5.579288e+002
9.995980e+002, 5.695951e+002
1.000080e+003, 5.808815e+002
1.000562e+003, 5.920793e+002
1.001044e+003, 6.025643e+002
1.001526e+003, 6.128267e+002
1.002009e+003, 6.216608e+002
1.002491e+003, 6.280491e+002
1.002973e+003, 6.318900e+002
1.003455e+003, 6.332374e+002
1.003937e+003, 6.321145e+002
1.004419e+003, 6.284329e+002
1.004901e+003, 6.218107e+002
1.005383e+003, 6.128807e+002
1.005865e+003, 6.027343e+002
1.006348e+003, 5.913576e+002
1.006830e+003, 5.783975e+002
1.007312e+003, 5.629158e+002
1.007794e+003, 5.469748e+002
1.008276e+003, 5.304205e+002
1.008758e+003, 5.139682e+002
1.009240e+003, 4.980519e+002
1.009722e+003, 4.827024e+002
1.010205e+003, 4.683922e+002
1.010687e+003, 4.550162e+002
1.011169e+003, 4.423607e+002
1.011651e+003, 4.300970e+002
1.012133e+003, 4.183313e+002
1.012615e+003, 4.068141e+002
1.013097e+003, 3.956490e+002
1.013579e+003, 3.858911e+002
1.014061e+003, 3.783777e+002
1.014544e+003, 3.711077e+002
1.015026e+003, 3.635215e+002
1.015508e+003, 3.559097e+002
1.015990e+003, 3.485972e+002
1.016472e+003, 3.416963e+002
1.016954e+003, 3.357336e+002
1.017436e+003, 3.309711e+002
1.017918e+003, 3.267596e+002
1.018401e+003, 3.230792e+002
1.018883e+003, 3.195001e+002
1.019365e+003, 3.155057e+002
1.019847e+003, 3.109700e+002
1.020329e+003, 3.065793e+002
1.020811e+003, 3.023078e+002
1.021293e+003, 2.983305e+002
1.021775e+003, 2.947630e+002
1.022257e+003, 2.915824e+002
1.022740e+003, 2.888362e+002
1.023222e+003, 2.864163e+002
1.023704e+003, 2.839261e+002
1.024186e+003, 2.810121e+002
1.024668e+003, 2.783009e+002
1.025150e+003, 2.760155e+002
1.025632e+003, 2.738976e+002
1.026114e+003, 2.712564e+002
1.026596e+003, 2.682716e+002
1.027079e+003, 2.664205e+002
1.027561e+003, 2.660792e+002
1.028043e+003, 2.657097e+002
1.028525e+003, 2.638124e+002
1.029007e+003, 2.615175e+002
1.029489e+003, 2.597954e+002
1.029971e+003, 2.587657e+002
1.030453e+003, 2.578741e+002
1.030936e+003, 2.572162e+002
1.031418e+003, 2.563617e+002
1.031900e+003, 2.550340e+002
1.032382e+003, 2.534870e+002
1.032864e+003, 2.521665e+002
1.033346e+003, 2.510432e+002
1.033828e+003, 2.500829e+002
1.034310e+003, 2.493670e+002
1.034792e+003, 2.486704e+002
1.035275e+003, 2.479095e+002
1.035757e+003, 2.471735e+002
1.036239e+003, 2.465572e+002
1.036721e+003, 2.460667e+002
1.037203e+003, 2.454522e+002
1.037685e+003, 2.447189e+002
1.038167e+003, 2.440562e+002
1.038649e+003, 2.435840e+002
1.039132e+003, 2.432656e+002
1.039614e+003, 2.431100e+002
1.040096e+003, 2.430919e+002
1.040578e+003, 2.431233e+002
1.041060e+003, 2.434177e+002
1.041542e+003, 2.430812e+002
1.042024e+003, 2.416909e+002
1.042506e+003, 2.401590e+002
1.042989e+003, 2.401321e+002
1.043471e+003, 2.409172e+002
1.043953e+003, 2.409708e+002
1.044435e+003, 2.398494e+002
1.044917e+003, 2.388873e+002
1.045399e+003, 2.386680e+002
1.045881e+003, 2.386747e+002
1.046363e+003, 2.386943e+002
1.046845e+003, 2.387216e+002
1.047328e+003, 2.386865e+002
1.047810e+003, 2.385970e+002
1.048292e+003, 2.385615e+002
1.048774e+003, 2.387148e+002
1.049256e+003, 2.388314e+002
1.049738e+003, 2.388121e+002
1.050220e+003, 2.386118e+002
1.050702e+003, 2.381125e+002
1.051184e+003, 2.370409e+002
1.051667e+003, 2.363130e+002
1.052149e+003, 2.359302e+002
1.052631e+003, 2.359407e+002
1.053113e+003, 2.367445e+002
1.053595e+003, 2.378224e+002
1.054077e+003, 2.380063e+002
1.054559e+003, 2.373963e+002
1.055041e+003, 2.369926e+002
1.055523e+003, 2.376963e+002
1.056006e+003, 2.380189e+002
1.056488e+003, 2.373418e+002
1.056970e+003, 2.362430e+002
1.057452e+003, 2.360491e+002
1.057934e+003, 2.366291e+002
1.058416e+003, 2.366902e+002
1.058898e+003, 2.359178e+002
1.059380e+003, 2.350527e+002
1.059863e+003, 2.344447e+002
1.060345e+003, 2.342012e+002
1.060827e+003, 2.346480e+002
1.061309e+003, 2.358161e+002
1.061791e+003, 2.362070e+002
1.062273e+003, 2.356585e+002
1.062755e+003, 2.350799e+002
1.063237e+003, 2.348519e+002
1.063719e+003, 2.348357e+002
1.064202e+003, 2.349395e+002
1.064684e+003, 2.350654e+002
1.065166e+003, 2.350110e+002
1.065648e+003, 2.344138e+002
1.066130e+003, 2.342042e+002
1.066612e+003, 2.346888e+002
1.067094e+003, 2.352431e+002
1.067576e+003, 2.352878e+002
1.068059e+003, 2.349374e+002
1.068541e+003, 2.348553e+002
1.069023e+003, 2.350261e+002
1.069505e+003, 2.352418e+002
1.069987e+003, 2.356335e+002
1.070469e+003, 2.357673e+002
1.070951e+003, 2.350430e+002
1.071433e+003, 2.340277e+002
1.071916e+003, 2.338380e+002
1.072398e+003, 2.345733e+002
1.072880e+003, 2.353139e+002
1.073362e+003, 2.359647e+002
1.073844e+003, 2.363923e+002
1.074326e+003, 2.362236e+002
1.074808e+003, 2.359113e+002
1.075290e+003, 2.359019e+002
1.075772e+003, 2.362458e+002
1.076255e+003, 2.368602e+002
1.076737e+003, 2.378803e+002
1.077219e+003, 2.387860e+002
1.077701e+003, 2.393607e+002
1.078183e+003, 2.397878e+002
1.078665e+003, 2.403636e+002
1.079147e+003, 2.410846e+002
1.079629e+003, 2.419733e+002
1.080111e+003, 2.431380e+002
1.080594e+003, 2.441795e+002
1.081076e+003, 2.446686e+002
1.081558e+003, 2.452832e+002
1.082040e+003, 2.465019e+002
1.082522e+003, 2.482353e+002
1.083004e+003, 2.493985e+002
1.083486e+003, 2.500750e+002
1.083968e+003, 2.509862e+002
1.084450e+003, 2.526687e+002
1.084933e+003, 2.545575e+002
1.085415e+003, 2.564938e+002
1.085897e+003, 2.583091e+002
1.086379e+003, 2.597420e+002
1.086861e+003, 2.605676e+002
1.087343e+003, 2.619388e+002
1.087825e+003, 2.639666e+002
1.088307e+003, 2.661527e+002
1.088790e+003, 2.682477e+002
1.089272e+003, 2.701292e+002
1.089754e+003, 2.714296e+002
1.090236e+003, 2.723217e+002
1.090718e+003, 2.737998e+002
1.091200e+003, 2.765385e+002
1.091682e+003, 2.789880e+002
1.092164e+003, 2.809111e+002
1.092646e+003, 2.823898e+002
1.093129e+003, 2.834761e+002
1.093611e+003, 2.842245e+002
1.094093e+003, 2.849576e+002
1.094575e+003, 2.857745e+002
1.095057e+003, 2.856890e+002
1.095539e+003, 2.832613e+002
1.096021e+003, 2.809397e+002
1.096503e+003, 2.801135e+002
1.096986e+003, 2.801157e+002
1.097468e+003, 2.782049e+002
1.097950e+003, 2.745578e+002
1.098432e+003, 2.707465e+002
1.098914e+003, 2.671839e+002
1.099396e+003, 2.637652e+002
1.099878e+003, 2.603671e+002
1.100360e+003, 2.571064e+002
1.100843e+003, 2.540255e+002
1.101325e+003, 2.510431e+002
1.101807e+003, 2.488283e+002
1.102289e+003, 2.474308e+002
1.102771e+003, 2.461500e+002
1.103253e+003, 2.446097e+002
1.103735e+003, 2.429759e+002
1.104217e+003, 2.413485e+002
1.104699e+003, 2.398203e+002
1.105182e+003, 2.385490e+002
1.105664e+003, 2.375479e+002
1.106146e+003, 2.369019e+002
1.106628e+003, 2.366976e+002
1.107110e+003, 2.366253e+002
1.107592e+003, 2.364461e+002
1.108074e+003, 2.361821e+002
1.108556e+003, 2.357966e+002
1.109038e+003, 2.353379e+002
1.109521e+003, 2.350424e+002
1.110003e+003, 2.352096e+002
1.110485e+003, 2.352765e+002
1.110967e+003, 2.351669e+002
1.111449e+003, 2.348555e+002
1.111931e+003, 2.340177e+002
1.112413e+003, 2.329012e+002
1.112895e+003, 2.328905e+002
1.113377e+003, 2.341689e+002
1.113860e+003, 2.351090e+002
1.114342e+003, 2.342929e+002
1.114824e+003, 2.332966e+002
1.115306e+003, 2.330124e+002
1.115788e+003, 2.332330e+002
1.116270e+003, 2.332917e+002
1.116752e+003, 2.331922e+002
1.117234e+003, 2.330575e+002
1.117717e+003, 2.329098e+002
1.118199e+003, 2.327735e+002
1.118681e+003, 2.325558e+002
1.119163e+003, 2.324373e+002
1.119645e+003, 2.326582e+002
1.120127e+003, 2.332379e+002
1.120609e+003, 2.336749e+002
1.121091e+003, 2.339746e+002
1.121573e+003, 2.340653e+002
1.122056e+003, 2.338329e+002
1.122538e+003, 2.335087e+002
1.123020e+003, 2.332764e+002
1.123502e+003, 2.331930e+002
1.123984e+003, 2.333946e+002
1.124466e+003, 2.342683e+002
1.124948e+003, 2.344869e+002
1.125430e+003, 2.337944e+002
1.125913e+003, 2.330854e+002
1.126395e+003, 2.330317e+002
1.126877e+003, 2.333514e+002
1.127359e+003, 2.334422e+002
1.127841e+003, 2.333624e+002
1.128323e+003, 2.332664e+002
1.128805e+003, 2.329234e+002
1.129287e+003, 2.330518e+002
1.129770e+003, 2.340805e+002
1.130252e+003, 2.350639e+002
1.130734e+003, 2.348674e+002
1.131216e+003, 2.338348e+002
1.131698e+003, 2.333006e+002
1.132180e+003, 2.332940e+002
1.132662e+003, 2.336238e+002
1.133144e+003, 2.348075e+002
1.133626e+003, 2.355334e+002
1.134109e+003, 2.349872e+002
1.134591e+003, 2.340088e+002
1.135073e+003, 2.340539e+002
1.135555e+003, 2.349961e+002
1.136037e+003, 2.351460e+002
1.136519e+003, 2.342915e+002
1.137001e+003, 2.336160e+002
1.137483e+003, 2.344579e+002
1.137965e+003, 2.352966e+002
1.138448e+003, 2.349237e+002
1.138930e+003, 2.337820e+002
1.139412e+003, 2.332681e+002
1.139894e+003, 2.334151e+002
1.140376e+003, 2.335046e+002
1.140858e+003, 2.333705e+002
1.141340e+003, 2.332521e+002
1.141822e+003, 2.334302e+002
1.142304e+003, 2.336873e+002
1.142787e+003, 2.338132e+002
1.143269e+003, 2.337925e+002
1.143751e+003, 2.338176e+002
1.144233e+003, 2.338904e+002
1.144715e+003, 2.339678e+002
1.145197e+003, 2.340057e+002
1.145679e+003, 2.340953e+002
1.146161e+003, 2.344178e+002
1.146644e+003, 2.348267e+002
1.147126e+003, 2.350975e+002
1.147608e+003, 2.350879e+002
1.148090e+003, 2.354717e+002
1.148572e+003, 2.365283e+002
1.149054e+003, 2.371016e+002
1.149536e+003, 2.364178e+002
1.150018e+003, 2.351591e+002
1.150500e+003, 2.342693e+002
1.150983e+003, 2.337653e+002
1.151465e+003, 2.337217e+002
1.151947e+003, 2.346731e+002
1.152429e+003, 2.349303e+002
1.152911e+003, 2.340672e+002
1.153393e+003, 2.331966e+002
1.153875e+003, 2.331363e+002
1.154357e+003, 2.336273e+002
1.154840e+003, 2.341166e+002
1.155322e+003, 2.345565e+002
1.155804e+003, 2.347731e+002
1.156286e+003, 2.344879e+002
1.156768e+003, 2.342787e+002
1.157250e+003, 2.342711e+002
1.157732e+003, 2.342993e+002
1.158214e+003, 2.341817e+002
1.158697e+003, 2.339661e+002
1.159179e+003, 2.338082e+002
1.159661e+003, 2.337335e+002
1.160143e+003, 2.338659e+002
1.160625e+003, 2.347019e+002
1.161107e+003, 2.351799e+002
1.161589e+003, 2.347931e+002
1.162071e+003, 2.340967e+002
1.162553e+003, 2.337257e+002
1.163036e+003, 2.336672e+002
1.163518e+003, 2.339308e+002
1.164000e+003, 2.344891e+002
1.164482e+003, 2.348808e+002
1.164964e+003, 2.345623e+002
1.165446e+003, 2.343133e+002
1.165928e+003, 2.346973e+002
1.166410e+003, 2.352876e+002
1.166892e+003, 2.351642e+002
1.167375e+003, 2.343980e+002
1.167857e+003, 2.340537e+002
1.168339e+003, 2.342815e+002
1.168821e+003, 2.346363e+002
1.169303e+003, 2.348875e+002
1.169785e+003, 2.350721e+002
1.170267e+003, 2.352565e+002
1.170749e+003, 2.353850e+002
1.171231e+003, 2.351724e+002
1.171714e+003, 2.346203e+002
1.172196e+003, 2.344994e+002
1.172678e+003, 2.350373e+002
1.173160e+003, 2.355652e+002
1.173642e+003, 2.353195e+002
1.174124e+003, 2.349883e+002
1.174606e+003, 2.352512e+002
1.175088e+003, 2.359825e+002
1.175571e+003, 2.363723e+002
1.176053e+003, 2.364145e+002
1.176535e+003, 2.362823e+002
1.177017e+003, 2.359551e+002
1.177499e+003, 2.357159e+002
1.177981e+003, 2.360262e+002
1.178463e+003, 2.364249e+002
1.178945e+003, 2.363516e+002
1.179427e+003, 2.357872e+002
1.179910e+003, 2.357347e+002
1.180392e+003, 2.362556e+002
1.180874e+003, 2.366284e+002
1.181356e+003, 2.364909e+002
1.181838e+003, 2.363114e+002
1.182320e+003, 2.366950e+002
1.182802e+003, 2.372572e+002
1.183284e+003, 2.375581e+002
1.183767e+003, 2.375468e+002
1.184249e+003, 2.373237e+002
1.184731e+003, 2.368538e+002
1.185213e+003, 2.363972e+002
1.185695e+003, 2.360406e+002
1.186177e+003, 2.358221e+002
1.186659e+003, 2.359747e+002
1.187141e+003, 2.362163e+002
1.187624e+003, 2.360909e+002
1.188106e+003, 2.353916e+002
1.188588e+003, 2.348924e+002
1.189070e+003, 2.345653e+002
1.189552e+003, 2.346507e+002
1.190034e+003, 2.355715e+002
1.190516e+003, 2.366776e+002
1.190998e+003, 2.372101e+002
1.191480e+003, 2.373291e+002
1.191963e+003, 2.372837e+002
1.192445e+003, 2.370007e+002
1.192927e+003, 2.368530e+002
1.193409e+003, 2.368501e+002
1.193891e+003, 2.369231e+002
1.194373e+003, 2.369458e+002
1.194855e+003, 2.370694e+002
1.195337e+003, 2.377043e+002
1.195819e+003, 2.385560e+002
1.196302e+003, 2.389387e+002
1.196784e+003, 2.384031e+002
1.197266e+003, 2.382444e+002
1.197748e+003, 2.385659e+002
1.198230e+003, 2.389188e+002
1.198712e+003, 2.388734e+002
1.199194e+003, 2.386968e+002
1.199676e+003, 2.388763e+002
1.200158e+003, 2.392194e+002
1.200641e+003, 2.391430e+002
1.201123e+003, 2.382209e+002
1.201605e+003, 2.377066e+002
1.202087e+003, 2.377030e+002
1.202569e+003, 2.379726e+002
1.203051e+003, 2.384909e+002
1.203533e+003, 2.390224e+002
1.204015e+003, 2.392195e+002
1.204498e+003, 2.391518e+002
1.204980e+003, 2.390922e+002
1.205462e+003, 2.390173e+002
1.205944e+003, 2.391328e+002
1.206426e+003, 2.395076e+002
1.206908e+003, 2.398708e+002
1.207390e+003, 2.398608e+002
1.207872e+003, 2.397437e+002
1.208354e+003, 2.399639e+002
1.208837e+003, 2.404180e+002
1.209319e+003, 2.404921e+002
1.209801e+003, 2.396983e+002
1.210283e+003, 2.397644e+002
1.210765e+003, 2.411253e+002
1.211247e+003, 2.424838e+002
1.211729e+003, 2.422683e+002
1.212211e+003, 2.414141e+002
1.212694e+003, 2.411366e+002
1.213176e+003, 2.413729e+002
1.213658e+003, 2.413027e+002
1.214140e+003, 2.407376e+002
1.214622e+003, 2.402466e+002
1.215104e+003, 2.399240e+002
1.215586e+003, 2.396582e+002
1.216068e+003, 2.392630e+002
1.216551e+003, 2.389002e+002
1.217033e+003, 2.388128e+002
1.217515e+003, 2.389747e+002
1.217997e+003, 2.390682e+002
1.218479e+003, 2.390713e+002
1.218961e+003, 2.389411e+002
1.219443e+003, 2.385764e+002
1.219925e+003, 2.384751e+002
1.220407e+003, 2.395419e+002
1.220890e+003, 2.409350e+002
1.221372e+003, 2.417709e+002
1.221854e+003, 2.419665e+002
1.222336e+003, 2.417867e+002
1.222818e+003, 2.411541e+002
1.223300e+003, 2.404792e+002
1.223782e+003, 2.397790e+002
1.224264e+003, 2.393334e+002
1.224746e+003, 2.395542e+002
1.225229e+003, 2.401191e+002
1.225711e+003, 2.409038e+002
1.226193e+003, 2.417899e+002
1.226675e+003, 2.419102e+002
1.227157e+003, 2.410711e+002
1.227639e+003, 2.405391e+002
1.228121e+003, 2.406365e+002
1.228603e+003, 2.408516e+002
1.229085e+003, 2.405523e+002
1.229568e+003, 2.401760e+002
1.230050e+003, 2.402415e+002
1.230532e+003, 2.406975e+002
1.231014e+003, 2.407489e+002
1.231496e+003, 2.403286e+002
1.231978e+003, 2.401125e+002
1.232460e+003, 2.402901e+002
1.232942e+003, 2.405287e+002
1.233425e+003, 2.403764e+002
1.233907e+003, 2.402471e+002
1.234389e+003, 2.407118e+002
1.234871e+003, 2.416016e+002
1.235353e+003, 2.417051e+002
1.235835e+003, 2.409818e+002
1.236317e+003, 2.404253e+002
1.236799e+003, 2.402859e+002
1.237281e+003, 2.403099e+002
1.237764e+003, 2.402127e+002
1.238246e+003, 2.402552e+002
1.238728e+003, 2.408548e+002
1.239210e+003, 2.417852e+002
1.239692e+003, 2.419943e+002
1.240174e+003, 2.415105e+002
1.240656e+003, 2.411612e+002
1.241138e+003, 2.411560e+002
1.241621e+003, 2.412411e+002
1.242103e+003, 2.412580e+002
1.242585e+003, 2.412731e+002
1.243067e+003, 2.413461e+002
1.243549e+003, 2.414466e+002
1.244031e+003, 2.414246e+002
1.244513e+003, 2.413062e+002
1.244995e+003, 2.413477e+002
1.245478e+003, 2.416431e+002
1.245960e+003, 2.418753e+002
1.246442e+003, 2.418669e+002
1.246924e+003, 2.416987e+002
1.247406e+003, 2.413168e+002
1.247888e+003, 2.408923e+002
1.248370e+003, 2.411139e+002
1.248852e+003, 2.417997e+002
1.249334e+003, 2.420790e+002
1.249817e+003, 2.416529e+002
1.250299e+003, 2.415411e+002
1.250781e+003, 2.427962e+002
1.251263e+003, 2.437947e+002
1.251745e+003, 2.438185e+002
1.252227e+003, 2.432375e+002
1.252709e+003, 2.428949e+002
1.253191e+003, 2.427126e+002
1.253673e+003, 2.423865e+002
1.254156e+003, 2.417948e+002
1.254638e+003, 2.415675e+002
1.255120e+003, 2.420936e+002
1.255602e+003, 2.427402e+002
1.256084e+003, 2.433458e+002
1.256566e+003, 2.438868e+002
1.257048e+003, 2.442715e+002
1.257530e+003, 2.445690e+002
1.258012e+003, 2.449660e+002
1.258495e+003, 2.455269e+002
1.258977e+003, 2.458036e+002
1.259459e+003, 2.456598e+002
1.259941e+003, 2.453813e+002
1.260423e+003, 2.449454e+002
1.260905e+003, 2.446570e+002
1.261387e+003, 2.453588e+002
1.261869e+003, 2.463488e+002
1.262352e+003, 2.464538e+002
1.262834e+003, 2.454370e+002
1.263316e+003, 2.449144e+002
1.263798e+003, 2.450355e+002
1.264280e+003, 2.454854e+002
1.264762e+003, 2.463428e+002
1.265244e+003, 2.469615e+002
1.265726e+003, 2.461319e+002
1.266208e+003, 2.449153e+002
1.266691e+003, 2.445414e+002
1.267173e+003, 2.451246e+002
1.267655e+003, 2.457599e+002
1.268137e+003, 2.465318e+002
1.268619e+003, 2.465555e+002
1.269101e+003, 2.454064e+002
1.269583e+003, 2.443042e+002
1.270065e+003, 2.446418e+002
1.270548e+003, 2.453441e+002
1.271030e+003, 2.454063e+002
1.271512e+003, 2.449666e+002
1.271994e+003, 2.446647e+002
1.272476e+003, 2.445058e+002
1.272958e+003, 2.446347e+002
1.273440e+003, 2.451206e+002
1.273922e+003, 2.456243e+002
1.274405e+003, 2.458838e+002
1.274887e+003, 2.461156e+002
1.275369e+003, 2.465427e+002
1.275851e+003, 2.470034e+002
1.276333e+003, 2.469265e+002
1.276815e+003, 2.464386e+002
1.277297e+003, 2.462262e+002
1.277779e+003, 2.464379e+002
1.278261e+003, 2.465872e+002
1.278744e+003, 2.461749e+002
1.279226e+003, 2.459776e+002
1.279708e+003, 2.463601e+002
1.280190e+003, 2.469892e+002
1.280672e+003, 2.472341e+002
1.281154e+003, 2.472116e+002
1.281636e+003, 2.471955e+002
1.282118e+003, 2.472223e+002
1.282600e+003, 2.473583e+002
1.283083e+003, 2.477554e+002
1.283565e+003, 2.480430e+002
1.284047e+003, 2.481593e+002
1.284529e+003, 2.480867e+002
1.285011e+003, 2.475629e+002
1.285493e+003, 2.469628e+002
1.285975e+003, 2.470527e+002
1.286457e+003, 2.478197e+002
1.286939e+003, 2.479404e+002
1.287422e+003, 2.470187e+002
1.287904e+003, 2.465887e+002
1.288386e+003, 2.470391e+002
1.288868e+003, 2.475986e+002
1.289350e+003, 2.472898e+002
1.289832e+003, 2.467818e+002
1.290314e+003, 2.467897e+002
1.290796e+003, 2.472398e+002
1.291279e+003, 2.475017e+002
1.291761e+003, 2.475430e+002
1.292243e+003, 2.477274e+002
1.292725e+003, 2.481202e+002
1.293207e+003, 2.483794e+002
1.293689e+003, 2.479455e+002
1.294171e+003, 2.475643e+002
1.294653e+003, 2.478926e+002
1.295135e+003, 2.485413e+002
1.295618e+003, 2.489006e+002
1.296100e+003, 2.489825e+002
1.296582e+003, 2.488528e+002
1.297064e+003, 2.485553e+002
1.297546e+003, 2.483100e+002
1.298028e+003, 2.482198e+002
1.298510e+003, 2.481225e+002
1.298992e+003, 2.479107e+002
1.299475e+003, 2.477929e+002
1.299957e+003, 2.480210e+002
1.300439e+003, 2.485764e+002
1.300921e+003, 2.495434e+002
1.301403e+003, 2.508169e+002
1.301885e+003, 2.518224e+002
##END=



