##NAMES=Bazhenovite
##RRUFFID=R130224
##IDEAL CHEMISTRY=Ca_8_S_5_(S_2_O_3_)(OH)_12_&#183;20H_2_O
##LOCALITY=Korkino, Chelyabinsk coal basin, S. Urals, Russia
##OWNER=RRUFF
##SOURCE=Rock Currier
##DESCRIPTION=Aggregate of tabular pale yellowish-orange crystals
##STATUS=The identification of this mineral has been confirmed only by single crystal X-ray diffraction.
##URL=rruff.info/R130224
8.975323e+001, 0.000000e+000
9.023535e+001, 2.134035e+002
9.071747e+001, 2.135736e+002
9.119958e+001, 2.128197e+002
9.168170e+001, 2.139459e+002
9.216382e+001, 2.140215e+002
9.264594e+001, 2.132375e+002
9.312805e+001, 2.123892e+002
9.361017e+001, 2.116902e+002
9.409229e+001, 2.102570e+002
9.457440e+001, 2.076134e+002
9.505651e+001, 2.050308e+002
9.553863e+001, 2.026861e+002
9.602074e+001, 2.005114e+002
9.650286e+001, 1.983986e+002
9.698498e+001, 1.961628e+002
9.746709e+001, 1.935534e+002
9.794921e+001, 1.914876e+002
9.843133e+001, 1.902402e+002
9.891344e+001, 1.890942e+002
9.939556e+001, 1.878499e+002
9.987768e+001, 1.865122e+002
1.003598e+002, 1.851334e+002
1.008419e+002, 1.836433e+002
1.013240e+002, 1.821599e+002
1.018061e+002, 1.810545e+002
1.022883e+002, 1.806002e+002
1.027704e+002, 1.803071e+002
1.032525e+002, 1.797538e+002
1.037346e+002, 1.789173e+002
1.042167e+002, 1.778917e+002
1.046988e+002, 1.764517e+002
1.051810e+002, 1.748427e+002
1.056631e+002, 1.734810e+002
1.061452e+002, 1.727654e+002
1.066273e+002, 1.724670e+002
1.071094e+002, 1.715934e+002
1.075915e+002, 1.695849e+002
1.080737e+002, 1.676454e+002
1.085558e+002, 1.662800e+002
1.090379e+002, 1.653828e+002
1.095200e+002, 1.646650e+002
1.100021e+002, 1.638521e+002
1.104842e+002, 1.628863e+002
1.109664e+002, 1.621546e+002
1.114485e+002, 1.616332e+002
1.119306e+002, 1.613325e+002
1.124127e+002, 1.613709e+002
1.128948e+002, 1.617100e+002
1.133769e+002, 1.621379e+002
1.138591e+002, 1.623534e+002
1.143412e+002, 1.622717e+002
1.148233e+002, 1.620811e+002
1.153054e+002, 1.618085e+002
1.157875e+002, 1.614211e+002
1.162696e+002, 1.608630e+002
1.167517e+002, 1.601067e+002
1.172339e+002, 1.592188e+002
1.177160e+002, 1.583579e+002
1.181981e+002, 1.575581e+002
1.186802e+002, 1.567045e+002
1.191623e+002, 1.557315e+002
1.196444e+002, 1.546731e+002
1.201266e+002, 1.536215e+002
1.206087e+002, 1.526395e+002
1.210908e+002, 1.516706e+002
1.215729e+002, 1.505991e+002
1.220550e+002, 1.493673e+002
1.225371e+002, 1.481302e+002
1.230193e+002, 1.470466e+002
1.235014e+002, 1.461289e+002
1.239835e+002, 1.452332e+002
1.244656e+002, 1.441584e+002
1.249477e+002, 1.431252e+002
1.254298e+002, 1.423535e+002
1.259120e+002, 1.419439e+002
1.263941e+002, 1.418190e+002
1.268762e+002, 1.418280e+002
1.273583e+002, 1.420327e+002
1.278404e+002, 1.422851e+002
1.283225e+002, 1.426293e+002
1.288047e+002, 1.429705e+002
1.292868e+002, 1.431591e+002
1.297689e+002, 1.430667e+002
1.302510e+002, 1.427263e+002
1.307331e+002, 1.426221e+002
1.312152e+002, 1.432691e+002
1.316974e+002, 1.436658e+002
1.321795e+002, 1.433830e+002
1.326616e+002, 1.426077e+002
1.331437e+002, 1.418231e+002
1.336258e+002, 1.414548e+002
1.341079e+002, 1.415790e+002
1.345901e+002, 1.416543e+002
1.350722e+002, 1.415540e+002
1.355543e+002, 1.415126e+002
1.360364e+002, 1.416461e+002
1.365185e+002, 1.419709e+002
1.370006e+002, 1.424678e+002
1.374828e+002, 1.431534e+002
1.379649e+002, 1.440923e+002
1.384470e+002, 1.448957e+002
1.389291e+002, 1.453685e+002
1.394112e+002, 1.457658e+002
1.398933e+002, 1.463699e+002
1.403755e+002, 1.472364e+002
1.408576e+002, 1.483269e+002
1.413397e+002, 1.495613e+002
1.418218e+002, 1.509071e+002
1.423039e+002, 1.525637e+002
1.427860e+002, 1.547322e+002
1.432681e+002, 1.573049e+002
1.437503e+002, 1.598537e+002
1.442324e+002, 1.620189e+002
1.447145e+002, 1.644909e+002
1.451966e+002, 1.679801e+002
1.456787e+002, 1.724754e+002
1.461608e+002, 1.770755e+002
1.466430e+002, 1.810845e+002
1.471251e+002, 1.844858e+002
1.476072e+002, 1.874967e+002
1.480893e+002, 1.899960e+002
1.485714e+002, 1.922166e+002
1.490535e+002, 1.943447e+002
1.495357e+002, 1.963918e+002
1.500178e+002, 1.981221e+002
1.504999e+002, 1.992234e+002
1.509820e+002, 1.998247e+002
1.514641e+002, 1.993865e+002
1.519462e+002, 1.979337e+002
1.524284e+002, 1.956442e+002
1.529105e+002, 1.925944e+002
1.533926e+002, 1.888359e+002
1.538747e+002, 1.844160e+002
1.543568e+002, 1.794502e+002
1.548389e+002, 1.737077e+002
1.553211e+002, 1.676147e+002
1.558032e+002, 1.608733e+002
1.562853e+002, 1.538868e+002
1.567674e+002, 1.470611e+002
1.572495e+002, 1.405639e+002
1.577316e+002, 1.344951e+002
1.582138e+002, 1.293761e+002
1.586959e+002, 1.253542e+002
1.591780e+002, 1.219290e+002
1.596601e+002, 1.190504e+002
1.601422e+002, 1.167022e+002
1.606243e+002, 1.148929e+002
1.611065e+002, 1.137059e+002
1.615886e+002, 1.130599e+002
1.620707e+002, 1.124769e+002
1.625528e+002, 1.119891e+002
1.630349e+002, 1.115292e+002
1.635170e+002, 1.110496e+002
1.639991e+002, 1.105554e+002
1.644813e+002, 1.101008e+002
1.649634e+002, 1.096831e+002
1.654455e+002, 1.093491e+002
1.659276e+002, 1.091926e+002
1.664097e+002, 1.093793e+002
1.668918e+002, 1.096241e+002
1.673740e+002, 1.095614e+002
1.678561e+002, 1.091242e+002
1.683382e+002, 1.086981e+002
1.688203e+002, 1.085345e+002
1.693024e+002, 1.085111e+002
1.697845e+002, 1.084927e+002
1.702667e+002, 1.084306e+002
1.707488e+002, 1.083426e+002
1.712309e+002, 1.082897e+002
1.717130e+002, 1.083526e+002
1.721951e+002, 1.082903e+002
1.726772e+002, 1.079177e+002
1.731594e+002, 1.074004e+002
1.736415e+002, 1.069846e+002
1.741236e+002, 1.068531e+002
1.746057e+002, 1.069384e+002
1.750878e+002, 1.068337e+002
1.755699e+002, 1.065186e+002
1.760521e+002, 1.059982e+002
1.765342e+002, 1.050939e+002
1.770163e+002, 1.040017e+002
1.774984e+002, 1.030570e+002
1.779805e+002, 1.025126e+002
1.784626e+002, 1.023712e+002
1.789448e+002, 1.022217e+002
1.794269e+002, 1.021649e+002
1.799090e+002, 1.020026e+002
1.803911e+002, 1.016141e+002
1.808732e+002, 1.010565e+002
1.813553e+002, 1.004821e+002
1.818375e+002, 1.000217e+002
1.823196e+002, 9.969173e+001
1.828017e+002, 9.931673e+001
1.832838e+002, 9.877978e+001
1.837659e+002, 9.830734e+001
1.842480e+002, 9.814157e+001
1.847301e+002, 9.821125e+001
1.852123e+002, 9.813844e+001
1.856944e+002, 9.753020e+001
1.861765e+002, 9.628468e+001
1.866586e+002, 9.532129e+001
1.871407e+002, 9.485359e+001
1.876228e+002, 9.451069e+001
1.881050e+002, 9.401785e+001
1.885871e+002, 9.334962e+001
1.890692e+002, 9.265349e+001
1.895513e+002, 9.207223e+001
1.900334e+002, 9.160686e+001
1.905155e+002, 9.114181e+001
1.909977e+002, 9.056662e+001
1.914798e+002, 9.003435e+001
1.919619e+002, 8.973621e+001
1.924440e+002, 8.971484e+001
1.929261e+002, 8.981722e+001
1.934082e+002, 8.991367e+001
1.938904e+002, 9.001598e+001
1.943725e+002, 9.018449e+001
1.948546e+002, 9.042018e+001
1.953367e+002, 9.073783e+001
1.958188e+002, 9.116196e+001
1.963009e+002, 9.168656e+001
1.967831e+002, 9.234687e+001
1.972652e+002, 9.312769e+001
1.977473e+002, 9.404187e+001
1.982294e+002, 9.514191e+001
1.987115e+002, 9.663670e+001
1.991936e+002, 9.839242e+001
1.996758e+002, 9.982919e+001
2.001579e+002, 1.009320e+002
2.006400e+002, 1.016683e+002
2.011221e+002, 1.019603e+002
2.016042e+002, 1.019157e+002
2.020863e+002, 1.017822e+002
2.025685e+002, 1.016279e+002
2.030506e+002, 1.014718e+002
2.035327e+002, 1.016744e+002
2.040148e+002, 1.025041e+002
2.044969e+002, 1.034505e+002
2.049790e+002, 1.043059e+002
2.054612e+002, 1.051089e+002
2.059433e+002, 1.059957e+002
2.064254e+002, 1.071014e+002
2.069075e+002, 1.084419e+002
2.073896e+002, 1.096836e+002
2.078717e+002, 1.104363e+002
2.083539e+002, 1.114493e+002
2.088360e+002, 1.130378e+002
2.093181e+002, 1.151134e+002
2.098002e+002, 1.173644e+002
2.102823e+002, 1.194700e+002
2.107644e+002, 1.213249e+002
2.112466e+002, 1.238895e+002
2.117287e+002, 1.274004e+002
2.122108e+002, 1.313061e+002
2.126929e+002, 1.357007e+002
2.131750e+002, 1.403723e+002
2.136571e+002, 1.448948e+002
2.141393e+002, 1.488670e+002
2.146214e+002, 1.522322e+002
2.151035e+002, 1.554111e+002
2.155856e+002, 1.578998e+002
2.160677e+002, 1.606869e+002
2.165498e+002, 1.647180e+002
2.170320e+002, 1.697028e+002
2.175141e+002, 1.746715e+002
2.179962e+002, 1.792351e+002
2.184783e+002, 1.836512e+002
2.189604e+002, 1.821960e+002
2.194425e+002, 1.723368e+002
2.199247e+002, 1.594771e+002
2.204068e+002, 1.453854e+002
2.208889e+002, 1.307484e+002
2.213710e+002, 1.174972e+002
2.218531e+002, 1.073104e+002
2.223352e+002, 1.005704e+002
2.228174e+002, 9.507677e+001
2.232995e+002, 9.119052e+001
2.237816e+002, 8.824475e+001
2.242637e+002, 8.593803e+001
2.247458e+002, 8.421138e+001
2.252279e+002, 8.279975e+001
2.257100e+002, 8.148643e+001
2.261922e+002, 8.032861e+001
2.266743e+002, 7.952744e+001
2.271564e+002, 7.934033e+001
2.276385e+002, 7.936651e+001
2.281206e+002, 7.923616e+001
2.286027e+002, 7.892700e+001
2.290849e+002, 7.864566e+001
2.295670e+002, 7.853906e+001
2.300491e+002, 7.858263e+001
2.305312e+002, 7.870542e+001
2.310133e+002, 7.905250e+001
2.314954e+002, 7.938831e+001
2.319776e+002, 7.935198e+001
2.324597e+002, 7.887570e+001
2.329418e+002, 7.850652e+001
2.334239e+002, 7.879296e+001
2.339060e+002, 7.937920e+001
2.343881e+002, 7.970827e+001
2.348703e+002, 7.947722e+001
2.353524e+002, 7.906776e+001
2.358345e+002, 7.903342e+001
2.363166e+002, 7.946130e+001
2.367987e+002, 7.990311e+001
2.372808e+002, 8.014509e+001
2.377630e+002, 8.026743e+001
2.382451e+002, 8.033678e+001
2.387272e+002, 8.035435e+001
2.392093e+002, 8.035520e+001
2.396914e+002, 8.039122e+001
2.401735e+002, 8.046365e+001
2.406557e+002, 8.056983e+001
2.411378e+002, 8.069032e+001
2.416199e+002, 8.084964e+001
2.421020e+002, 8.112490e+001
2.425841e+002, 8.158720e+001
2.430662e+002, 8.203235e+001
2.435484e+002, 8.203686e+001
2.440305e+002, 8.137830e+001
2.445126e+002, 8.089000e+001
2.449947e+002, 8.109219e+001
2.454768e+002, 8.140354e+001
2.459589e+002, 8.128051e+001
2.464410e+002, 8.052385e+001
2.469232e+002, 7.946452e+001
2.474053e+002, 7.868181e+001
2.478874e+002, 7.834511e+001
2.483695e+002, 7.788345e+001
2.488516e+002, 7.714133e+001
2.493337e+002, 7.628747e+001
2.498159e+002, 7.541111e+001
2.502980e+002, 7.454384e+001
2.507801e+002, 7.373610e+001
2.512622e+002, 7.307696e+001
2.517443e+002, 7.263577e+001
2.522264e+002, 7.220016e+001
2.527086e+002, 7.171355e+001
2.531907e+002, 7.124672e+001
2.536728e+002, 7.085133e+001
2.541549e+002, 7.053993e+001
2.546370e+002, 7.028160e+001
2.551191e+002, 7.001527e+001
2.556013e+002, 6.967339e+001
2.560834e+002, 6.948569e+001
2.565655e+002, 6.964190e+001
2.570476e+002, 6.979187e+001
2.575297e+002, 6.959695e+001
2.580118e+002, 6.905183e+001
2.584940e+002, 6.852363e+001
2.589761e+002, 6.857894e+001
2.594582e+002, 6.968981e+001
2.599403e+002, 7.016635e+001
2.604224e+002, 6.974612e+001
2.609045e+002, 6.904398e+001
2.613867e+002, 6.832078e+001
2.618688e+002, 6.766591e+001
2.623509e+002, 6.714628e+001
2.628330e+002, 6.684881e+001
2.633151e+002, 6.684241e+001
2.637972e+002, 6.682147e+001
2.642794e+002, 6.678574e+001
2.647615e+002, 6.673922e+001
2.652436e+002, 6.671458e+001
2.657257e+002, 6.669373e+001
2.662078e+002, 6.660525e+001
2.666899e+002, 6.637051e+001
2.671721e+002, 6.596294e+001
2.676542e+002, 6.557368e+001
2.681363e+002, 6.507526e+001
2.686184e+002, 6.470200e+001
2.691005e+002, 6.469256e+001
2.695826e+002, 6.495108e+001
2.700648e+002, 6.511992e+001
2.705469e+002, 6.487231e+001
2.710290e+002, 6.418526e+001
2.715111e+002, 6.382300e+001
2.719932e+002, 6.410185e+001
2.724753e+002, 6.432255e+001
2.729575e+002, 6.409958e+001
2.734396e+002, 6.355750e+001
2.739217e+002, 6.309491e+001
2.744038e+002, 6.300637e+001
2.748859e+002, 6.324366e+001
2.753680e+002, 6.320263e+001
2.758501e+002, 6.271832e+001
2.763322e+002, 6.220811e+001
2.768144e+002, 6.175731e+001
2.772965e+002, 6.138348e+001
2.777786e+002, 6.112707e+001
2.782607e+002, 6.102473e+001
2.787428e+002, 6.103437e+001
2.792249e+002, 6.097355e+001
2.797071e+002, 6.079383e+001
2.801892e+002, 6.061626e+001
2.806713e+002, 6.048890e+001
2.811534e+002, 6.038192e+001
2.816355e+002, 6.022198e+001
2.821176e+002, 5.996414e+001
2.825998e+002, 5.967936e+001
2.830819e+002, 5.957091e+001
2.835640e+002, 5.972804e+001
2.840461e+002, 5.986026e+001
2.845282e+002, 5.997443e+001
2.850103e+002, 6.001234e+001
2.854925e+002, 5.981309e+001
2.859746e+002, 5.929107e+001
2.864567e+002, 5.872225e+001
2.869388e+002, 5.862684e+001
2.874209e+002, 5.916967e+001
2.879030e+002, 5.957744e+001
2.883852e+002, 5.965800e+001
2.888673e+002, 5.956902e+001
2.893494e+002, 5.950931e+001
2.898315e+002, 5.952640e+001
2.903136e+002, 5.950935e+001
2.907957e+002, 5.924703e+001
2.912779e+002, 5.867150e+001
2.917600e+002, 5.843127e+001
2.922421e+002, 5.894096e+001
2.927242e+002, 5.961641e+001
2.932063e+002, 5.987809e+001
2.936884e+002, 5.965429e+001
2.941706e+002, 5.923319e+001
2.946527e+002, 5.882188e+001
2.951348e+002, 5.842915e+001
2.956169e+002, 5.816668e+001
2.960990e+002, 5.807953e+001
2.965811e+002, 5.809462e+001
2.970633e+002, 5.822291e+001
2.975454e+002, 5.844275e+001
2.980275e+002, 5.857314e+001
2.985096e+002, 5.844753e+001
2.989917e+002, 5.811376e+001
2.994738e+002, 5.791856e+001
2.999560e+002, 5.798200e+001
3.004381e+002, 5.807273e+001
3.009202e+002, 5.811164e+001
3.014023e+002, 5.808075e+001
3.018844e+002, 5.787471e+001
3.023665e+002, 5.734924e+001
3.028487e+002, 5.667616e+001
3.033308e+002, 5.636915e+001
3.038129e+002, 5.662214e+001
3.042950e+002, 5.688113e+001
3.047771e+002, 5.682749e+001
3.052592e+002, 5.658623e+001
3.057414e+002, 5.650216e+001
3.062235e+002, 5.673952e+001
3.067056e+002, 5.712982e+001
3.071877e+002, 5.737417e+001
3.076698e+002, 5.750881e+001
3.081519e+002, 5.745396e+001
3.086341e+002, 5.698649e+001
3.091162e+002, 5.635234e+001
3.095983e+002, 5.601667e+001
3.100804e+002, 5.613413e+001
3.105625e+002, 5.641182e+001
3.110446e+002, 5.645612e+001
3.115268e+002, 5.626310e+001
3.120089e+002, 5.610183e+001
3.124910e+002, 5.607825e+001
3.129731e+002, 5.608868e+001
3.134552e+002, 5.598402e+001
3.139373e+002, 5.573846e+001
3.144195e+002, 5.549586e+001
3.149016e+002, 5.538942e+001
3.153837e+002, 5.541589e+001
3.158658e+002, 5.546520e+001
3.163479e+002, 5.553271e+001
3.168300e+002, 5.561720e+001
3.173121e+002, 5.573581e+001
3.177943e+002, 5.588391e+001
3.182764e+002, 5.600455e+001
3.187585e+002, 5.606031e+001
3.192406e+002, 5.605350e+001
3.197227e+002, 5.602415e+001
3.202048e+002, 5.593497e+001
3.206870e+002, 5.586098e+001
3.211691e+002, 5.588858e+001
3.216512e+002, 5.597758e+001
3.221333e+002, 5.597595e+001
3.226154e+002, 5.579454e+001
3.230975e+002, 5.550048e+001
3.235797e+002, 5.525373e+001
3.240618e+002, 5.500286e+001
3.245439e+002, 5.488532e+001
3.250260e+002, 5.503006e+001
3.255081e+002, 5.532955e+001
3.259902e+002, 5.560350e+001
3.264724e+002, 5.580930e+001
3.269545e+002, 5.592267e+001
3.274366e+002, 5.586314e+001
3.279187e+002, 5.559594e+001
3.284008e+002, 5.539388e+001
3.288829e+002, 5.534198e+001
3.293651e+002, 5.536511e+001
3.298472e+002, 5.537551e+001
3.303293e+002, 5.535790e+001
3.308114e+002, 5.535205e+001
3.312935e+002, 5.540837e+001
3.317756e+002, 5.553255e+001
3.322578e+002, 5.561353e+001
3.327399e+002, 5.560717e+001
3.332220e+002, 5.558662e+001
3.337041e+002, 5.563265e+001
3.341862e+002, 5.573195e+001
3.346683e+002, 5.576965e+001
3.351505e+002, 5.564501e+001
3.356326e+002, 5.538822e+001
3.361147e+002, 5.523303e+001
3.365968e+002, 5.526666e+001
3.370789e+002, 5.529619e+001
3.375610e+002, 5.520205e+001
3.380432e+002, 5.504053e+001
3.385253e+002, 5.496303e+001
3.390074e+002, 5.505471e+001
3.394895e+002, 5.523753e+001
3.399716e+002, 5.529629e+001
3.404537e+002, 5.519117e+001
3.409359e+002, 5.505898e+001
3.414180e+002, 5.484718e+001
3.419001e+002, 5.465010e+001
3.423822e+002, 5.463958e+001
3.428643e+002, 5.486513e+001
3.433464e+002, 5.513147e+001
3.438286e+002, 5.515584e+001
3.443107e+002, 5.481369e+001
3.447928e+002, 5.457567e+001
3.452749e+002, 5.442554e+001
3.457570e+002, 5.439468e+001
3.462391e+002, 5.458003e+001
3.467213e+002, 5.495057e+001
3.472034e+002, 5.531667e+001
3.476855e+002, 5.552068e+001
3.481676e+002, 5.555794e+001
3.486497e+002, 5.542122e+001
3.491318e+002, 5.494654e+001
3.496140e+002, 5.449426e+001
3.500961e+002, 5.417447e+001
3.505782e+002, 5.400004e+001
3.510603e+002, 5.401789e+001
3.515424e+002, 5.428759e+001
3.520245e+002, 5.470139e+001
3.525067e+002, 5.478704e+001
3.529888e+002, 5.414564e+001
3.534709e+002, 5.367189e+001
3.539530e+002, 5.355312e+001
3.544351e+002, 5.362627e+001
3.549172e+002, 5.369262e+001
3.553994e+002, 5.368449e+001
3.558815e+002, 5.368547e+001
3.563636e+002, 5.385429e+001
3.568457e+002, 5.438478e+001
3.573278e+002, 5.467566e+001
3.578099e+002, 5.455863e+001
3.582920e+002, 5.435154e+001
3.587741e+002, 5.427217e+001
3.592563e+002, 5.433422e+001
3.597384e+002, 5.441664e+001
3.602205e+002, 5.439503e+001
3.607026e+002, 5.425176e+001
3.611847e+002, 5.417591e+001
3.616668e+002, 5.426649e+001
3.621490e+002, 5.431781e+001
3.626311e+002, 5.422601e+001
3.631132e+002, 5.404660e+001
3.635953e+002, 5.388846e+001
3.640774e+002, 5.381657e+001
3.645595e+002, 5.381854e+001
3.650417e+002, 5.384587e+001
3.655238e+002, 5.395586e+001
3.660059e+002, 5.400909e+001
3.664880e+002, 5.389565e+001
3.669701e+002, 5.376755e+001
3.674522e+002, 5.381483e+001
3.679344e+002, 5.408550e+001
3.684165e+002, 5.440886e+001
3.688986e+002, 5.449693e+001
3.693807e+002, 5.422607e+001
3.698628e+002, 5.405615e+001
3.703449e+002, 5.405386e+001
3.708271e+002, 5.410556e+001
3.713092e+002, 5.418282e+001
3.717913e+002, 5.426596e+001
3.722734e+002, 5.431898e+001
3.727555e+002, 5.429085e+001
3.732376e+002, 5.418644e+001
3.737198e+002, 5.417150e+001
3.742019e+002, 5.437786e+001
3.746840e+002, 5.450967e+001
3.751661e+002, 5.438742e+001
3.756482e+002, 5.415009e+001
3.761303e+002, 5.403206e+001
3.766125e+002, 5.417426e+001
3.770946e+002, 5.443280e+001
3.775767e+002, 5.445715e+001
3.780588e+002, 5.413484e+001
3.785409e+002, 5.389711e+001
3.790230e+002, 5.395383e+001
3.795052e+002, 5.408429e+001
3.799873e+002, 5.411091e+001
3.804694e+002, 5.399923e+001
3.809515e+002, 5.386473e+001
3.814336e+002, 5.378856e+001
3.819157e+002, 5.377165e+001
3.823979e+002, 5.391854e+001
3.828800e+002, 5.444035e+001
3.833621e+002, 5.488784e+001
3.838442e+002, 5.490627e+001
3.843263e+002, 5.459158e+001
3.848084e+002, 5.429881e+001
3.852906e+002, 5.424688e+001
3.857727e+002, 5.434495e+001
3.862548e+002, 5.436320e+001
3.867369e+002, 5.425750e+001
3.872190e+002, 5.423277e+001
3.877011e+002, 5.451933e+001
3.881833e+002, 5.493157e+001
3.886654e+002, 5.520034e+001
3.891475e+002, 5.523185e+001
3.896296e+002, 5.519010e+001
3.901117e+002, 5.522495e+001
3.905938e+002, 5.532299e+001
3.910760e+002, 5.536825e+001
3.915581e+002, 5.529211e+001
3.920402e+002, 5.518623e+001
3.925223e+002, 5.518901e+001
3.930044e+002, 5.530823e+001
3.934865e+002, 5.541199e+001
3.939687e+002, 5.545548e+001
3.944508e+002, 5.544967e+001
3.949329e+002, 5.538244e+001
3.954150e+002, 5.524190e+001
3.958971e+002, 5.514425e+001
3.963792e+002, 5.521514e+001
3.968614e+002, 5.544083e+001
3.973435e+002, 5.561496e+001
3.978256e+002, 5.565764e+001
3.983077e+002, 5.570975e+001
3.987898e+002, 5.588224e+001
3.992719e+002, 5.614780e+001
3.997540e+002, 5.641951e+001
4.002361e+002, 5.667373e+001
4.007183e+002, 5.687352e+001
4.012004e+002, 5.687809e+001
4.016825e+002, 5.647172e+001
4.021646e+002, 5.627542e+001
4.026467e+002, 5.651799e+001
4.031288e+002, 5.697093e+001
4.036110e+002, 5.741223e+001
4.040931e+002, 5.777995e+001
4.045752e+002, 5.806482e+001
4.050573e+002, 5.824733e+001
4.055394e+002, 5.830450e+001
4.060215e+002, 5.836036e+001
4.065037e+002, 5.836602e+001
4.069858e+002, 5.841616e+001
4.074679e+002, 5.856721e+001
4.079500e+002, 5.880235e+001
4.084321e+002, 5.908561e+001
4.089142e+002, 5.940587e+001
4.093964e+002, 5.973693e+001
4.098785e+002, 5.996081e+001
4.103606e+002, 5.990194e+001
4.108427e+002, 5.996318e+001
4.113248e+002, 6.021421e+001
4.118069e+002, 6.057640e+001
4.122891e+002, 6.101411e+001
4.127712e+002, 6.150133e+001
4.132533e+002, 6.196173e+001
4.137354e+002, 6.226437e+001
4.142175e+002, 6.233710e+001
4.146996e+002, 6.254817e+001
4.151818e+002, 6.308040e+001
4.156639e+002, 6.358270e+001
4.161460e+002, 6.390650e+001
4.166281e+002, 6.408931e+001
4.171102e+002, 6.422102e+001
4.175923e+002, 6.432039e+001
4.180745e+002, 6.444846e+001
4.185566e+002, 6.485550e+001
4.190387e+002, 6.569234e+001
4.195208e+002, 6.646980e+001
4.200029e+002, 6.693810e+001
4.204850e+002, 6.733204e+001
4.209672e+002, 6.792068e+001
4.214493e+002, 6.877618e+001
4.219314e+002, 6.957582e+001
4.224135e+002, 6.989473e+001
4.228956e+002, 6.976305e+001
4.233777e+002, 6.982046e+001
4.238599e+002, 7.018730e+001
4.243420e+002, 7.073864e+001
4.248241e+002, 7.148797e+001
4.253062e+002, 7.235374e+001
4.257883e+002, 7.303617e+001
4.262704e+002, 7.325784e+001
4.267526e+002, 7.329424e+001
4.272347e+002, 7.354914e+001
4.277168e+002, 7.403443e+001
4.281989e+002, 7.460975e+001
4.286810e+002, 7.529693e+001
4.291631e+002, 7.597232e+001
4.296453e+002, 7.637341e+001
4.301274e+002, 7.638174e+001
4.306095e+002, 7.638351e+001
4.310916e+002, 7.653578e+001
4.315737e+002, 7.681972e+001
4.320558e+002, 7.723494e+001
4.325380e+002, 7.779499e+001
4.330201e+002, 7.837668e+001
4.335022e+002, 7.886633e+001
4.339843e+002, 7.926287e+001
4.344664e+002, 7.945364e+001
4.349485e+002, 7.911835e+001
4.354307e+002, 7.884394e+001
4.359128e+002, 7.910390e+001
4.363949e+002, 7.978499e+001
4.368770e+002, 8.048543e+001
4.373591e+002, 8.100216e+001
4.378412e+002, 8.130289e+001
4.383234e+002, 8.124802e+001
4.388055e+002, 8.043066e+001
4.392876e+002, 7.977420e+001
4.397697e+002, 7.940017e+001
4.402518e+002, 7.918116e+001
4.407339e+002, 7.907114e+001
4.412160e+002, 7.902560e+001
4.416982e+002, 7.890347e+001
4.421803e+002, 7.851885e+001
4.426624e+002, 7.781665e+001
4.431445e+002, 7.725052e+001
4.436266e+002, 7.698173e+001
4.441087e+002, 7.668528e+001
4.445909e+002, 7.614817e+001
4.450730e+002, 7.554128e+001
4.455551e+002, 7.515984e+001
4.460372e+002, 7.517220e+001
4.465193e+002, 7.542254e+001
4.470014e+002, 7.556584e+001
4.474836e+002, 7.555643e+001
4.479657e+002, 7.557589e+001
4.484478e+002, 7.569518e+001
4.489299e+002, 7.582658e+001
4.494120e+002, 7.591087e+001
4.498941e+002, 7.594753e+001
4.503763e+002, 7.598193e+001
4.508584e+002, 7.604089e+001
4.513405e+002, 7.612460e+001
4.518226e+002, 7.618434e+001
4.523047e+002, 7.611199e+001
4.527868e+002, 7.628394e+001
4.532690e+002, 7.716856e+001
4.537511e+002, 7.838058e+001
4.542332e+002, 7.938548e+001
4.547153e+002, 8.003093e+001
4.551974e+002, 8.051830e+001
4.556795e+002, 8.095451e+001
4.561617e+002, 8.135876e+001
4.566438e+002, 8.182604e+001
4.571259e+002, 8.239024e+001
4.576080e+002, 8.301356e+001
4.580901e+002, 8.367360e+001
4.585722e+002, 8.437180e+001
4.590544e+002, 8.502093e+001
4.595365e+002, 8.560047e+001
4.600186e+002, 8.612643e+001
4.605007e+002, 8.649577e+001
4.609828e+002, 8.677693e+001
4.614649e+002, 8.730521e+001
4.619471e+002, 8.831117e+001
4.624292e+002, 8.970255e+001
4.629113e+002, 9.112959e+001
4.633934e+002, 9.258110e+001
4.638755e+002, 9.408006e+001
4.643576e+002, 9.563077e+001
4.648398e+002, 9.724319e+001
4.653219e+002, 9.892781e+001
4.658040e+002, 1.006903e+002
4.662861e+002, 1.024953e+002
4.667682e+002, 1.042762e+002
4.672503e+002, 1.060156e+002
4.677325e+002, 1.080399e+002
4.682146e+002, 1.107432e+002
4.686967e+002, 1.133132e+002
4.691788e+002, 1.154077e+002
4.696609e+002, 1.172594e+002
4.701430e+002, 1.193197e+002
4.706252e+002, 1.218119e+002
4.711073e+002, 1.242364e+002
4.715894e+002, 1.257964e+002
4.720715e+002, 1.265186e+002
4.725536e+002, 1.262627e+002
4.730357e+002, 1.248288e+002
4.735179e+002, 1.224692e+002
4.740000e+002, 1.189975e+002
4.744821e+002, 1.146475e+002
4.749642e+002, 1.101483e+002
4.754463e+002, 1.056723e+002
4.759284e+002, 1.014565e+002
4.764106e+002, 9.802309e+001
4.768927e+002, 9.544962e+001
4.773748e+002, 9.325496e+001
4.778569e+002, 9.123366e+001
4.783390e+002, 8.948441e+001
4.788211e+002, 8.813155e+001
4.793033e+002, 8.720942e+001
4.797854e+002, 8.658230e+001
4.802675e+002, 8.622649e+001
4.807496e+002, 8.611085e+001
4.812317e+002, 8.624258e+001
4.817138e+002, 8.663347e+001
4.821959e+002, 8.703578e+001
4.826780e+002, 8.719949e+001
4.831602e+002, 8.713279e+001
4.836423e+002, 8.726257e+001
4.841244e+002, 8.774280e+001
4.846065e+002, 8.823823e+001
4.850886e+002, 8.854722e+001
4.855707e+002, 8.879471e+001
4.860529e+002, 8.928862e+001
4.865350e+002, 9.014053e+001
4.870171e+002, 9.100475e+001
4.874992e+002, 9.127258e+001
4.879813e+002, 9.062431e+001
4.884634e+002, 9.025536e+001
4.889456e+002, 9.042407e+001
4.894277e+002, 9.057793e+001
4.899098e+002, 9.046555e+001
4.903919e+002, 9.012033e+001
4.908740e+002, 8.967517e+001
4.913561e+002, 8.921016e+001
4.918383e+002, 8.870110e+001
4.923204e+002, 8.807581e+001
4.928025e+002, 8.731448e+001
4.932846e+002, 8.649657e+001
4.937667e+002, 8.562318e+001
4.942488e+002, 8.471442e+001
4.947310e+002, 8.377103e+001
4.952131e+002, 8.279966e+001
4.956952e+002, 8.182009e+001
4.961773e+002, 8.088048e+001
4.966594e+002, 7.994736e+001
4.971415e+002, 7.889179e+001
4.976237e+002, 7.766235e+001
4.981058e+002, 7.654009e+001
4.985879e+002, 7.572768e+001
4.990700e+002, 7.509748e+001
4.995521e+002, 7.438216e+001
5.000342e+002, 7.348755e+001
5.005164e+002, 7.270011e+001
5.009985e+002, 7.222475e+001
5.014806e+002, 7.193076e+001
5.019627e+002, 7.156409e+001
5.024448e+002, 7.107303e+001
5.029269e+002, 7.059936e+001
5.034091e+002, 7.028259e+001
5.038912e+002, 7.012766e+001
5.043733e+002, 6.997581e+001
5.048554e+002, 6.982290e+001
5.053375e+002, 6.967753e+001
5.058196e+002, 6.954568e+001
5.063018e+002, 6.942238e+001
5.067839e+002, 6.925870e+001
5.072660e+002, 6.904572e+001
5.077481e+002, 6.891530e+001
5.082302e+002, 6.910970e+001
5.087123e+002, 6.977435e+001
5.091945e+002, 7.023740e+001
5.096766e+002, 7.027522e+001
5.101587e+002, 7.033321e+001
5.106408e+002, 7.056383e+001
5.111229e+002, 7.094221e+001
5.116050e+002, 7.137991e+001
5.120872e+002, 7.181799e+001
5.125693e+002, 7.234832e+001
5.130514e+002, 7.323478e+001
5.135335e+002, 7.456186e+001
5.140156e+002, 7.560091e+001
5.144977e+002, 7.596362e+001
5.149799e+002, 7.622179e+001
5.154620e+002, 7.680046e+001
5.159441e+002, 7.768788e+001
5.164262e+002, 7.876084e+001
5.169083e+002, 8.022047e+001
5.173904e+002, 8.169763e+001
5.178726e+002, 8.269430e+001
5.183547e+002, 8.322656e+001
5.188368e+002, 8.361649e+001
5.193189e+002, 8.401880e+001
5.198010e+002, 8.436616e+001
5.202831e+002, 8.449135e+001
5.207653e+002, 8.440244e+001
5.212474e+002, 8.413833e+001
5.217295e+002, 8.370670e+001
5.222116e+002, 8.310259e+001
5.226937e+002, 8.229276e+001
5.231758e+002, 8.129953e+001
5.236580e+002, 8.016846e+001
5.241401e+002, 7.890775e+001
5.246222e+002, 7.758386e+001
5.251043e+002, 7.652220e+001
5.255864e+002, 7.599426e+001
5.260685e+002, 7.536061e+001
5.265507e+002, 7.437332e+001
5.270328e+002, 7.339291e+001
5.275149e+002, 7.277824e+001
5.279970e+002, 7.252567e+001
5.284791e+002, 7.230481e+001
5.289612e+002, 7.181523e+001
5.294434e+002, 7.110464e+001
5.299255e+002, 7.047270e+001
5.304076e+002, 6.999222e+001
5.308897e+002, 6.942519e+001
5.313718e+002, 6.849711e+001
5.318539e+002, 6.751431e+001
5.323361e+002, 6.683485e+001
5.328182e+002, 6.655761e+001
5.333003e+002, 6.626600e+001
5.337824e+002, 6.572719e+001
5.342645e+002, 6.497168e+001
5.347466e+002, 6.399771e+001
5.352288e+002, 6.278745e+001
5.357109e+002, 6.159011e+001
5.361930e+002, 6.058706e+001
5.366751e+002, 5.976321e+001
5.371572e+002, 5.900755e+001
5.376393e+002, 5.830092e+001
5.381215e+002, 5.767517e+001
5.386036e+002, 5.713349e+001
5.390857e+002, 5.667710e+001
5.395678e+002, 5.633987e+001
5.400499e+002, 5.611346e+001
5.405320e+002, 5.590022e+001
5.410142e+002, 5.560513e+001
5.414963e+002, 5.522766e+001
5.419784e+002, 5.477692e+001
5.424604e+002, 5.407809e+001
5.429426e+002, 5.352160e+001
5.434247e+002, 5.327478e+001
5.439068e+002, 5.316819e+001
5.443889e+002, 5.301823e+001
5.448710e+002, 5.277441e+001
5.453531e+002, 5.249836e+001
5.458353e+002, 5.221547e+001
5.463174e+002, 5.193739e+001
5.467995e+002, 5.185054e+001
5.472816e+002, 5.207109e+001
5.477637e+002, 5.225684e+001
5.482458e+002, 5.215886e+001
5.487280e+002, 5.189196e+001
5.492101e+002, 5.161715e+001
5.496922e+002, 5.134007e+001
5.501743e+002, 5.110482e+001
5.506564e+002, 5.095300e+001
5.511385e+002, 5.085992e+001
5.516207e+002, 5.078263e+001
5.521028e+002, 5.071310e+001
5.525849e+002, 5.062804e+001
5.530670e+002, 5.049085e+001
5.535491e+002, 5.030125e+001
5.540313e+002, 5.021785e+001
5.545134e+002, 5.028436e+001
5.549955e+002, 5.038762e+001
5.554776e+002, 5.063706e+001
5.559597e+002, 5.084326e+001
5.564418e+002, 5.068814e+001
5.569240e+002, 5.013216e+001
5.574061e+002, 4.954179e+001
5.578882e+002, 4.934776e+001
5.583703e+002, 4.956406e+001
5.588524e+002, 4.980305e+001
5.593345e+002, 5.016500e+001
5.598167e+002, 5.039350e+001
5.602988e+002, 5.034752e+001
5.607809e+002, 5.016282e+001
5.612630e+002, 4.997965e+001
5.617451e+002, 4.982715e+001
5.622272e+002, 4.974560e+001
5.627094e+002, 4.983619e+001
5.631915e+002, 5.003025e+001
5.636736e+002, 5.008572e+001
5.641557e+002, 4.995833e+001
5.646378e+002, 4.977421e+001
5.651199e+002, 4.960302e+001
5.656021e+002, 4.944947e+001
5.660842e+002, 4.932464e+001
5.665663e+002, 4.924559e+001
5.670484e+002, 4.917136e+001
5.675305e+002, 4.903497e+001
5.680126e+002, 4.892146e+001
5.684948e+002, 4.896251e+001
5.689769e+002, 4.916674e+001
5.694590e+002, 4.941625e+001
5.699411e+002, 4.960538e+001
5.704232e+002, 4.973621e+001
5.709053e+002, 4.983448e+001
5.713875e+002, 4.996673e+001
5.718696e+002, 4.996802e+001
5.723517e+002, 4.971643e+001
5.728338e+002, 4.938952e+001
5.733159e+002, 4.910268e+001
5.737980e+002, 4.889585e+001
5.742802e+002, 4.883435e+001
5.747623e+002, 4.909784e+001
5.752444e+002, 4.956939e+001
5.757265e+002, 4.972670e+001
5.762086e+002, 4.950254e+001
5.766907e+002, 4.923986e+001
5.771729e+002, 4.903993e+001
5.776550e+002, 4.893590e+001
5.781371e+002, 4.900762e+001
5.786192e+002, 4.931942e+001
5.791013e+002, 4.952077e+001
5.795834e+002, 4.942921e+001
5.800656e+002, 4.918789e+001
5.805477e+002, 4.888380e+001
5.810298e+002, 4.856415e+001
5.815119e+002, 4.840900e+001
5.819940e+002, 4.856237e+001
5.824761e+002, 4.890653e+001
5.829583e+002, 4.903644e+001
5.834404e+002, 4.872915e+001
5.839225e+002, 4.854169e+001
5.844046e+002, 4.850423e+001
5.848867e+002, 4.856305e+001
5.853688e+002, 4.878735e+001
5.858510e+002, 4.908495e+001
5.863331e+002, 4.920033e+001
5.868152e+002, 4.892774e+001
5.872973e+002, 4.845989e+001
5.877794e+002, 4.825627e+001
5.882615e+002, 4.835623e+001
5.887437e+002, 4.844394e+001
5.892258e+002, 4.838825e+001
5.897079e+002, 4.836083e+001
5.901900e+002, 4.861764e+001
5.906721e+002, 4.909059e+001
5.911542e+002, 4.932071e+001
5.916364e+002, 4.898256e+001
5.921185e+002, 4.850457e+001
5.926006e+002, 4.821943e+001
5.930827e+002, 4.809605e+001
5.935648e+002, 4.801582e+001
5.940469e+002, 4.793420e+001
5.945291e+002, 4.791619e+001
5.950112e+002, 4.808327e+001
5.954933e+002, 4.853270e+001
5.959754e+002, 4.871886e+001
5.964575e+002, 4.841496e+001
5.969396e+002, 4.814171e+001
5.974218e+002, 4.811177e+001
5.979039e+002, 4.821584e+001
5.983860e+002, 4.828003e+001
5.988681e+002, 4.824606e+001
5.993502e+002, 4.819535e+001
5.998323e+002, 4.824937e+001
6.003145e+002, 4.840174e+001
6.007966e+002, 4.845592e+001
6.012787e+002, 4.834223e+001
6.017608e+002, 4.825969e+001
6.022429e+002, 4.835550e+001
6.027250e+002, 4.854512e+001
6.032072e+002, 4.871566e+001
6.036893e+002, 4.887352e+001
6.041714e+002, 4.895447e+001
6.046535e+002, 4.884142e+001
6.051356e+002, 4.866897e+001
6.056177e+002, 4.867471e+001
6.060999e+002, 4.886543e+001
6.065820e+002, 4.901695e+001
6.070641e+002, 4.896028e+001
6.075462e+002, 4.874335e+001
6.080283e+002, 4.857879e+001
6.085104e+002, 4.840022e+001
6.089926e+002, 4.838275e+001
6.094747e+002, 4.869210e+001
6.099568e+002, 4.902979e+001
6.104389e+002, 4.921645e+001
6.109210e+002, 4.923822e+001
6.114031e+002, 4.913023e+001
6.118853e+002, 4.887421e+001
6.123674e+002, 4.856917e+001
6.128495e+002, 4.841999e+001
6.133316e+002, 4.843325e+001
6.138137e+002, 4.853531e+001
6.142958e+002, 4.878218e+001
6.147780e+002, 4.901537e+001
6.152601e+002, 4.904200e+001
6.157422e+002, 4.889878e+001
6.162243e+002, 4.880038e+001
6.167064e+002, 4.887478e+001
6.171885e+002, 4.892323e+001
6.176707e+002, 4.872396e+001
6.181528e+002, 4.842335e+001
6.186349e+002, 4.834793e+001
6.191170e+002, 4.858885e+001
6.195991e+002, 4.893621e+001
6.200812e+002, 4.915919e+001
6.205634e+002, 4.925933e+001
6.210455e+002, 4.921707e+001
6.215276e+002, 4.884757e+001
6.220097e+002, 4.856069e+001
6.224918e+002, 4.844034e+001
6.229739e+002, 4.844276e+001
6.234561e+002, 4.855033e+001
6.239382e+002, 4.874889e+001
6.244203e+002, 4.896216e+001
6.249023e+002, 4.911720e+001
6.253845e+002, 4.924063e+001
6.258666e+002, 4.943887e+001
6.263487e+002, 4.972970e+001
6.268308e+002, 4.989162e+001
6.273129e+002, 4.976411e+001
6.277950e+002, 4.950706e+001
6.282772e+002, 4.942838e+001
6.287593e+002, 4.955013e+001
6.292414e+002, 4.969273e+001
6.297235e+002, 4.988467e+001
6.302056e+002, 5.004083e+001
6.306877e+002, 5.000859e+001
6.311699e+002, 4.990006e+001
6.316520e+002, 5.000398e+001
6.321341e+002, 5.045263e+001
6.326162e+002, 5.104948e+001
6.330983e+002, 5.148037e+001
6.335804e+002, 5.174117e+001
6.340626e+002, 5.184972e+001
6.345447e+002, 5.161612e+001
6.350268e+002, 5.148198e+001
6.355089e+002, 5.165118e+001
6.359910e+002, 5.202702e+001
6.364731e+002, 5.249316e+001
6.369553e+002, 5.305098e+001
6.374374e+002, 5.355772e+001
6.379195e+002, 5.390917e+001
6.384016e+002, 5.413684e+001
6.388837e+002, 5.423852e+001
6.393658e+002, 5.422515e+001
6.398480e+002, 5.434297e+001
6.403301e+002, 5.478160e+001
6.408122e+002, 5.543493e+001
6.412943e+002, 5.595048e+001
6.417764e+002, 5.611785e+001
6.422585e+002, 5.645618e+001
6.427407e+002, 5.710612e+001
6.432228e+002, 5.779939e+001
6.437049e+002, 5.844451e+001
6.441870e+002, 5.898664e+001
6.446691e+002, 5.933872e+001
6.451512e+002, 5.943782e+001
6.456334e+002, 5.940097e+001
6.461155e+002, 5.931683e+001
6.465976e+002, 5.918885e+001
6.470797e+002, 5.947942e+001
6.475618e+002, 6.043163e+001
6.480439e+002, 6.144329e+001
6.485261e+002, 6.209615e+001
6.490082e+002, 6.243914e+001
6.494903e+002, 6.259229e+001
6.499724e+002, 6.242794e+001
6.504545e+002, 6.228629e+001
6.509366e+002, 6.239985e+001
6.514188e+002, 6.255347e+001
6.519009e+002, 6.245368e+001
6.523830e+002, 6.209764e+001
6.528651e+002, 6.172575e+001
6.533472e+002, 6.152968e+001
6.538293e+002, 6.142607e+001
6.543115e+002, 6.109088e+001
6.547936e+002, 6.044544e+001
6.552757e+002, 5.975998e+001
6.557578e+002, 5.906021e+001
6.562399e+002, 5.833454e+001
6.567220e+002, 5.749930e+001
6.572042e+002, 5.662513e+001
6.576863e+002, 5.593966e+001
6.581684e+002, 5.563321e+001
6.586505e+002, 5.537281e+001
6.591326e+002, 5.484182e+001
6.596147e+002, 5.410680e+001
6.600969e+002, 5.327819e+001
6.605790e+002, 5.237393e+001
6.610611e+002, 5.164096e+001
6.615432e+002, 5.133586e+001
6.620253e+002, 5.140797e+001
6.625074e+002, 5.131375e+001
6.629896e+002, 5.086954e+001
6.634717e+002, 5.050101e+001
6.639538e+002, 5.023194e+001
6.644359e+002, 5.005998e+001
6.649180e+002, 5.009598e+001
6.654001e+002, 5.024569e+001
6.658823e+002, 5.017044e+001
6.663644e+002, 4.955000e+001
6.668465e+002, 4.877254e+001
6.673286e+002, 4.864305e+001
6.678107e+002, 4.913742e+001
6.682928e+002, 4.938859e+001
6.687750e+002, 4.914347e+001
6.692571e+002, 4.875340e+001
6.697392e+002, 4.850808e+001
6.702213e+002, 4.840637e+001
6.707034e+002, 4.838181e+001
6.711855e+002, 4.853943e+001
6.716677e+002, 4.864283e+001
6.721498e+002, 4.853199e+001
6.726319e+002, 4.837889e+001
6.731140e+002, 4.842842e+001
6.735961e+002, 4.866200e+001
6.740782e+002, 4.880782e+001
6.745604e+002, 4.863608e+001
6.750425e+002, 4.826158e+001
6.755246e+002, 4.807340e+001
6.760067e+002, 4.812107e+001
6.764888e+002, 4.813136e+001
6.769709e+002, 4.799305e+001
6.774531e+002, 4.787004e+001
6.779352e+002, 4.794938e+001
6.784173e+002, 4.815990e+001
6.788994e+002, 4.824028e+001
6.793815e+002, 4.804848e+001
6.798636e+002, 4.781962e+001
6.803458e+002, 4.764949e+001
6.808279e+002, 4.754809e+001
6.813100e+002, 4.756139e+001
6.817921e+002, 4.768093e+001
6.822742e+002, 4.779185e+001
6.827563e+002, 4.779153e+001
6.832385e+002, 4.771497e+001
6.837206e+002, 4.775123e+001
6.842027e+002, 4.800869e+001
6.846848e+002, 4.814069e+001
6.851669e+002, 4.798391e+001
6.856490e+002, 4.779078e+001
6.861312e+002, 4.766635e+001
6.866133e+002, 4.762482e+001
6.870954e+002, 4.769860e+001
6.875775e+002, 4.799987e+001
6.880596e+002, 4.824198e+001
6.885417e+002, 4.810377e+001
6.890239e+002, 4.772290e+001
6.895060e+002, 4.737846e+001
6.899881e+002, 4.712444e+001
6.904702e+002, 4.703107e+001
6.909523e+002, 4.718463e+001
6.914344e+002, 4.751938e+001
6.919166e+002, 4.770543e+001
6.923987e+002, 4.767424e+001
6.928808e+002, 4.759656e+001
6.933629e+002, 4.744125e+001
6.938450e+002, 4.728176e+001
6.943271e+002, 4.712676e+001
6.948093e+002, 4.700568e+001
6.952914e+002, 4.699637e+001
6.957735e+002, 4.716859e+001
6.962556e+002, 4.735043e+001
6.967377e+002, 4.732346e+001
6.972198e+002, 4.714415e+001
6.977020e+002, 4.701040e+001
6.981841e+002, 4.695353e+001
6.986662e+002, 4.693493e+001
6.991483e+002, 4.696009e+001
6.996304e+002, 4.698304e+001
7.001125e+002, 4.682368e+001
7.005947e+002, 4.620773e+001
7.010768e+002, 4.583450e+001
7.015589e+002, 4.590679e+001
7.020410e+002, 4.604441e+001
7.025231e+002, 4.600275e+001
7.030052e+002, 4.584509e+001
7.034874e+002, 4.574280e+001
7.039695e+002, 4.576925e+001
7.044516e+002, 4.587642e+001
7.049337e+002, 4.607886e+001
7.054158e+002, 4.632726e+001
7.058979e+002, 4.632861e+001
7.063801e+002, 4.601461e+001
7.068622e+002, 4.574200e+001
7.073442e+002, 4.572487e+001
7.078264e+002, 4.588201e+001
7.083085e+002, 4.601590e+001
7.087906e+002, 4.613295e+001
7.092727e+002, 4.621102e+001
7.097548e+002, 4.622617e+001
7.102369e+002, 4.622361e+001
7.107191e+002, 4.624906e+001
7.112012e+002, 4.627061e+001
7.116833e+002, 4.621069e+001
7.121654e+002, 4.604350e+001
7.126475e+002, 4.587171e+001
7.131296e+002, 4.582187e+001
7.136118e+002, 4.587403e+001
7.140939e+002, 4.590217e+001
7.145760e+002, 4.588814e+001
7.150581e+002, 4.595970e+001
7.155402e+002, 4.624812e+001
7.160223e+002, 4.657849e+001
7.165045e+002, 4.659393e+001
7.169866e+002, 4.620660e+001
7.174687e+002, 4.606322e+001
7.179508e+002, 4.644946e+001
7.184329e+002, 4.684415e+001
7.189150e+002, 4.698116e+001
7.193972e+002, 4.696539e+001
7.198793e+002, 4.695402e+001
7.203614e+002, 4.699291e+001
7.208435e+002, 4.705143e+001
7.213256e+002, 4.710463e+001
7.218077e+002, 4.715200e+001
7.222899e+002, 4.721693e+001
7.227720e+002, 4.731678e+001
7.232541e+002, 4.728100e+001
7.237362e+002, 4.700938e+001
7.242183e+002, 4.664855e+001
7.247004e+002, 4.634039e+001
7.251826e+002, 4.608385e+001
7.256647e+002, 4.593703e+001
7.261468e+002, 4.602155e+001
7.266289e+002, 4.607374e+001
7.271110e+002, 4.599974e+001
7.275931e+002, 4.584318e+001
7.280753e+002, 4.562411e+001
7.285574e+002, 4.536880e+001
7.290395e+002, 4.514044e+001
7.295216e+002, 4.497670e+001
7.300037e+002, 4.488569e+001
7.304858e+002, 4.492876e+001
7.309680e+002, 4.511406e+001
7.314501e+002, 4.518278e+001
7.319322e+002, 4.505976e+001
7.324143e+002, 4.486442e+001
7.328964e+002, 4.463141e+001
7.333785e+002, 4.440216e+001
7.338607e+002, 4.437253e+001
7.343428e+002, 4.475213e+001
7.348249e+002, 4.500542e+001
7.353070e+002, 4.487669e+001
7.357891e+002, 4.469941e+001
7.362712e+002, 4.479195e+001
7.367534e+002, 4.508187e+001
7.372355e+002, 4.529317e+001
7.377176e+002, 4.528722e+001
7.381997e+002, 4.517871e+001
7.386818e+002, 4.513537e+001
7.391639e+002, 4.514817e+001
7.396461e+002, 4.513239e+001
7.401282e+002, 4.508403e+001
7.406103e+002, 4.499049e+001
7.410924e+002, 4.481659e+001
7.415745e+002, 4.461338e+001
7.420566e+002, 4.449854e+001
7.425388e+002, 4.449119e+001
7.430209e+002, 4.449593e+001
7.435030e+002, 4.451738e+001
7.439851e+002, 4.453670e+001
7.444672e+002, 4.456665e+001
7.449493e+002, 4.457934e+001
7.454315e+002, 4.450215e+001
7.459136e+002, 4.432858e+001
7.463957e+002, 4.419532e+001
7.468778e+002, 4.428613e+001
7.473599e+002, 4.451179e+001
7.478420e+002, 4.456425e+001
7.483242e+002, 4.443756e+001
7.488063e+002, 4.440622e+001
7.492884e+002, 4.459688e+001
7.497705e+002, 4.483102e+001
7.502526e+002, 4.490294e+001
7.507347e+002, 4.480337e+001
7.512169e+002, 4.468065e+001
7.516990e+002, 4.443597e+001
7.521811e+002, 4.429802e+001
7.526632e+002, 4.442916e+001
7.531453e+002, 4.460656e+001
7.536274e+002, 4.458776e+001
7.541096e+002, 4.440680e+001
7.545917e+002, 4.430778e+001
7.550738e+002, 4.446257e+001
7.555559e+002, 4.469184e+001
7.560380e+002, 4.470036e+001
7.565201e+002, 4.455552e+001
7.570023e+002, 4.457061e+001
7.574844e+002, 4.480396e+001
7.579665e+002, 4.509277e+001
7.584486e+002, 4.536263e+001
7.589307e+002, 4.556219e+001
7.594128e+002, 4.550799e+001
7.598950e+002, 4.492692e+001
7.603771e+002, 4.458922e+001
7.608592e+002, 4.468070e+001
7.613413e+002, 4.480310e+001
7.618234e+002, 4.477918e+001
7.623055e+002, 4.465751e+001
7.627877e+002, 4.451596e+001
7.632698e+002, 4.437354e+001
7.637519e+002, 4.427288e+001
7.642340e+002, 4.424166e+001
7.647161e+002, 4.427423e+001
7.651982e+002, 4.440024e+001
7.656804e+002, 4.459486e+001
7.661625e+002, 4.471641e+001
7.666446e+002, 4.470689e+001
7.671267e+002, 4.465822e+001
7.676088e+002, 4.469580e+001
7.680909e+002, 4.482527e+001
7.685731e+002, 4.490037e+001
7.690552e+002, 4.489254e+001
7.695373e+002, 4.487652e+001
7.700194e+002, 4.491698e+001
7.705015e+002, 4.491767e+001
7.709836e+002, 4.476273e+001
7.714658e+002, 4.448497e+001
7.719479e+002, 4.426207e+001
7.724300e+002, 4.415326e+001
7.729121e+002, 4.412055e+001
7.733942e+002, 4.418477e+001
7.738763e+002, 4.428846e+001
7.743585e+002, 4.431264e+001
7.748406e+002, 4.426531e+001
7.753227e+002, 4.430366e+001
7.758048e+002, 4.454705e+001
7.762869e+002, 4.486824e+001
7.767690e+002, 4.491663e+001
7.772512e+002, 4.461955e+001
7.777333e+002, 4.457082e+001
7.782154e+002, 4.499242e+001
7.786975e+002, 4.532335e+001
7.791796e+002, 4.518418e+001
7.796617e+002, 4.479361e+001
7.801439e+002, 4.450737e+001
7.806260e+002, 4.434303e+001
7.811081e+002, 4.423339e+001
7.815902e+002, 4.417636e+001
7.820723e+002, 4.415411e+001
7.825544e+002, 4.413355e+001
7.830366e+002, 4.414701e+001
7.835187e+002, 4.428492e+001
7.840008e+002, 4.454998e+001
7.844829e+002, 4.478571e+001
7.849650e+002, 4.482576e+001
7.854471e+002, 4.474029e+001
7.859293e+002, 4.475002e+001
7.864114e+002, 4.485676e+001
7.868935e+002, 4.492826e+001
7.873756e+002, 4.492969e+001
7.878577e+002, 4.489188e+001
7.883398e+002, 4.482800e+001
7.888220e+002, 4.474614e+001
7.893040e+002, 4.471615e+001
7.897861e+002, 4.469815e+001
7.902682e+002, 4.478722e+001
7.907504e+002, 4.514803e+001
7.912325e+002, 4.547257e+001
7.917146e+002, 4.555736e+001
7.921967e+002, 4.545097e+001
7.926788e+002, 4.526898e+001
7.931609e+002, 4.504239e+001
7.936431e+002, 4.483881e+001
7.941252e+002, 4.471499e+001
7.946073e+002, 4.465519e+001
7.950894e+002, 4.468419e+001
7.955715e+002, 4.477209e+001
7.960536e+002, 4.468688e+001
7.965358e+002, 4.431277e+001
7.970179e+002, 4.393934e+001
7.975000e+002, 4.400527e+001
7.979821e+002, 4.453957e+001
7.984642e+002, 4.479810e+001
7.989464e+002, 4.463025e+001
7.994285e+002, 4.446097e+001
7.999106e+002, 4.437460e+001
8.003927e+002, 4.434013e+001
8.008748e+002, 4.434792e+001
8.013569e+002, 4.439227e+001
8.018391e+002, 4.444977e+001
8.023212e+002, 4.448824e+001
8.028033e+002, 4.457698e+001
8.032854e+002, 4.482496e+001
8.037675e+002, 4.509674e+001
8.042496e+002, 4.526920e+001
8.047318e+002, 4.531110e+001
8.052139e+002, 4.514780e+001
8.056960e+002, 4.472394e+001
8.061781e+002, 4.428471e+001
8.066602e+002, 4.423428e+001
8.071423e+002, 4.455072e+001
8.076245e+002, 4.503064e+001
8.081066e+002, 4.576735e+001
8.085887e+002, 4.610833e+001
8.090708e+002, 4.559312e+001
8.095529e+002, 4.476690e+001
8.100350e+002, 4.446352e+001
8.105172e+002, 4.478786e+001
8.109993e+002, 4.496779e+001
8.114814e+002, 4.493458e+001
8.119635e+002, 4.484686e+001
8.124456e+002, 4.466711e+001
8.129277e+002, 4.450959e+001
8.134099e+002, 4.450425e+001
8.138920e+002, 4.463120e+001
8.143741e+002, 4.475544e+001
8.148562e+002, 4.480191e+001
8.153383e+002, 4.483667e+001
8.158204e+002, 4.494319e+001
8.163026e+002, 4.508537e+001
8.167847e+002, 4.518781e+001
8.172668e+002, 4.524089e+001
8.177489e+002, 4.525979e+001
8.182310e+002, 4.525382e+001
8.187131e+002, 4.521286e+001
8.191953e+002, 4.509917e+001
8.196774e+002, 4.488439e+001
8.201595e+002, 4.477012e+001
8.206416e+002, 4.474446e+001
8.211237e+002, 4.484370e+001
8.216058e+002, 4.521119e+001
8.220880e+002, 4.561937e+001
8.225701e+002, 4.582552e+001
8.230522e+002, 4.583031e+001
8.235343e+002, 4.573979e+001
8.240164e+002, 4.546163e+001
8.244985e+002, 4.522780e+001
8.249807e+002, 4.518337e+001
8.254628e+002, 4.520673e+001
8.259449e+002, 4.512297e+001
8.264270e+002, 4.496334e+001
8.269091e+002, 4.494081e+001
8.273912e+002, 4.520448e+001
8.278734e+002, 4.551444e+001
8.283555e+002, 4.545180e+001
8.288376e+002, 4.513390e+001
8.293197e+002, 4.512875e+001
8.298018e+002, 4.548827e+001
8.302839e+002, 4.564694e+001
8.307661e+002, 4.525785e+001
8.312482e+002, 4.472453e+001
8.317303e+002, 4.476276e+001
8.322124e+002, 4.550828e+001
8.326945e+002, 4.582702e+001
8.331766e+002, 4.539027e+001
8.336588e+002, 4.499213e+001
8.341409e+002, 4.473510e+001
8.346230e+002, 4.464301e+001
8.351051e+002, 4.485322e+001
8.355872e+002, 4.527586e+001
8.360693e+002, 4.548850e+001
8.365515e+002, 4.518752e+001
8.370336e+002, 4.493389e+001
8.375157e+002, 4.516676e+001
8.379978e+002, 4.552218e+001
8.384799e+002, 4.554666e+001
8.389620e+002, 4.528619e+001
8.394442e+002, 4.503384e+001
8.399263e+002, 4.492759e+001
8.404084e+002, 4.491948e+001
8.408905e+002, 4.494981e+001
8.413726e+002, 4.502205e+001
8.418547e+002, 4.519113e+001
8.423369e+002, 4.546856e+001
8.428190e+002, 4.564951e+001
8.433011e+002, 4.565106e+001
8.437832e+002, 4.555050e+001
8.442653e+002, 4.542833e+001
8.447474e+002, 4.528440e+001
8.452296e+002, 4.512305e+001
8.457117e+002, 4.481647e+001
8.461938e+002, 4.468527e+001
8.466759e+002, 4.496726e+001
8.471580e+002, 4.522794e+001
8.476401e+002, 4.512344e+001
8.481223e+002, 4.480030e+001
8.486044e+002, 4.461262e+001
8.490865e+002, 4.466241e+001
8.495686e+002, 4.479559e+001
8.500507e+002, 4.498148e+001
8.505328e+002, 4.516888e+001
8.510150e+002, 4.533781e+001
8.514971e+002, 4.546063e+001
8.519792e+002, 4.545935e+001
8.524613e+002, 4.532304e+001
8.529434e+002, 4.516371e+001
8.534255e+002, 4.507156e+001
8.539077e+002, 4.505946e+001
8.543898e+002, 4.523540e+001
8.548719e+002, 4.559951e+001
8.553540e+002, 4.575555e+001
8.558361e+002, 4.560158e+001
8.563182e+002, 4.530219e+001
8.568004e+002, 4.488665e+001
8.572825e+002, 4.448848e+001
8.577646e+002, 4.457902e+001
8.582467e+002, 4.564615e+001
8.587288e+002, 4.613639e+001
8.592109e+002, 4.559612e+001
8.596931e+002, 4.502620e+001
8.601752e+002, 4.468889e+001
8.606573e+002, 4.456247e+001
8.611394e+002, 4.468958e+001
8.616215e+002, 4.504854e+001
8.621036e+002, 4.528090e+001
8.625858e+002, 4.509351e+001
8.630679e+002, 4.489587e+001
8.635500e+002, 4.504056e+001
8.640321e+002, 4.531073e+001
8.645142e+002, 4.536982e+001
8.649963e+002, 4.522268e+001
8.654785e+002, 4.512685e+001
8.659606e+002, 4.524174e+001
8.664427e+002, 4.540367e+001
8.669248e+002, 4.534668e+001
8.674069e+002, 4.510911e+001
8.678890e+002, 4.485664e+001
8.683712e+002, 4.459489e+001
8.688533e+002, 4.449515e+001
8.693354e+002, 4.466354e+001
8.698175e+002, 4.489874e+001
8.702996e+002, 4.491640e+001
8.707817e+002, 4.471362e+001
8.712639e+002, 4.464547e+001
8.717459e+002, 4.482821e+001
8.722280e+002, 4.494074e+001
8.727101e+002, 4.490653e+001
8.731923e+002, 4.480869e+001
8.736744e+002, 4.466643e+001
8.741565e+002, 4.450207e+001
8.746386e+002, 4.435545e+001
8.751207e+002, 4.421682e+001
8.756028e+002, 4.414983e+001
8.760850e+002, 4.417119e+001
8.765671e+002, 4.427794e+001
8.770492e+002, 4.460622e+001
8.775313e+002, 4.496549e+001
8.780134e+002, 4.497624e+001
8.784955e+002, 4.459950e+001
8.789777e+002, 4.425438e+001
8.794598e+002, 4.431417e+001
8.799419e+002, 4.453704e+001
8.804240e+002, 4.450850e+001
8.809061e+002, 4.429757e+001
8.813882e+002, 4.417705e+001
8.818704e+002, 4.418364e+001
8.823525e+002, 4.412029e+001
8.828346e+002, 4.383834e+001
8.833167e+002, 4.351805e+001
8.837988e+002, 4.358655e+001
8.842809e+002, 4.412735e+001
8.847631e+002, 4.442765e+001
8.852452e+002, 4.444739e+001
8.857273e+002, 4.430763e+001
8.862094e+002, 4.389777e+001
8.866915e+002, 4.350391e+001
8.871736e+002, 4.351087e+001
8.876558e+002, 4.388568e+001
8.881379e+002, 4.410434e+001
8.886200e+002, 4.406031e+001
8.891021e+002, 4.398926e+001
8.895842e+002, 4.388493e+001
8.900663e+002, 4.380985e+001
8.905485e+002, 4.390929e+001
8.910306e+002, 4.404164e+001
8.915127e+002, 4.386993e+001
8.919948e+002, 4.328418e+001
8.924769e+002, 4.280495e+001
8.929590e+002, 4.283409e+001
8.934412e+002, 4.307640e+001
8.939233e+002, 4.330491e+001
8.944054e+002, 4.347717e+001
8.948875e+002, 4.346820e+001
8.953696e+002, 4.329303e+001
8.958517e+002, 4.320906e+001
8.963339e+002, 4.343038e+001
8.968160e+002, 4.378006e+001
8.972981e+002, 4.390561e+001
8.977802e+002, 4.382263e+001
8.982623e+002, 4.364524e+001
8.987444e+002, 4.336512e+001
8.992266e+002, 4.324964e+001
8.997087e+002, 4.347002e+001
9.001908e+002, 4.379052e+001
9.006729e+002, 4.385749e+001
9.011550e+002, 4.365900e+001
9.016371e+002, 4.346056e+001
9.021193e+002, 4.317451e+001
9.026014e+002, 4.305224e+001
9.030835e+002, 4.328234e+001
9.035656e+002, 4.355223e+001
9.040477e+002, 4.367027e+001
9.045298e+002, 4.366280e+001
9.050120e+002, 4.357901e+001
9.054941e+002, 4.336304e+001
9.059762e+002, 4.324732e+001
9.064583e+002, 4.340960e+001
9.069404e+002, 4.356018e+001
9.074225e+002, 4.347731e+001
9.079047e+002, 4.330072e+001
9.083868e+002, 4.326482e+001
9.088689e+002, 4.337903e+001
9.093510e+002, 4.340810e+001
9.098331e+002, 4.312568e+001
9.103152e+002, 4.284094e+001
9.107974e+002, 4.290866e+001
9.112795e+002, 4.318232e+001
9.117616e+002, 4.341998e+001
9.122437e+002, 4.358916e+001
9.127258e+002, 4.374575e+001
9.132079e+002, 4.391616e+001
9.136901e+002, 4.397046e+001
9.141722e+002, 4.361409e+001
9.146543e+002, 4.297843e+001
9.151364e+002, 4.288933e+001
9.156185e+002, 4.336804e+001
9.161006e+002, 4.378924e+001
9.165828e+002, 4.400713e+001
9.170649e+002, 4.408804e+001
9.175470e+002, 4.406585e+001
9.180291e+002, 4.397054e+001
9.185112e+002, 4.390452e+001
9.189933e+002, 4.383891e+001
9.194755e+002, 4.388112e+001
9.199576e+002, 4.411195e+001
9.204397e+002, 4.433546e+001
9.209218e+002, 4.450184e+001
9.214039e+002, 4.460527e+001
9.218860e+002, 4.461083e+001
9.223682e+002, 4.452473e+001
9.228503e+002, 4.447766e+001
9.233324e+002, 4.453301e+001
9.238145e+002, 4.456798e+001
9.242966e+002, 4.454601e+001
9.247787e+002, 4.449281e+001
9.252609e+002, 4.432766e+001
9.257430e+002, 4.417386e+001
9.262251e+002, 4.433388e+001
9.267072e+002, 4.490684e+001
9.271893e+002, 4.539917e+001
9.276714e+002, 4.537189e+001
9.281536e+002, 4.520569e+001
9.286357e+002, 4.528428e+001
9.291178e+002, 4.551667e+001
9.295999e+002, 4.572750e+001
9.300820e+002, 4.587920e+001
9.305641e+002, 4.597489e+001
9.310463e+002, 4.600034e+001
9.315284e+002, 4.606535e+001
9.320105e+002, 4.645255e+001
9.324926e+002, 4.703385e+001
9.329747e+002, 4.722770e+001
9.334568e+002, 4.702471e+001
9.339390e+002, 4.676411e+001
9.344211e+002, 4.655077e+001
9.349032e+002, 4.656339e+001
9.353853e+002, 4.705444e+001
9.358674e+002, 4.790757e+001
9.363495e+002, 4.843079e+001
9.368317e+002, 4.857225e+001
9.373138e+002, 4.858590e+001
9.377959e+002, 4.840484e+001
9.382780e+002, 4.830980e+001
9.387601e+002, 4.845482e+001
9.392422e+002, 4.878155e+001
9.397244e+002, 4.921159e+001
9.402065e+002, 4.977406e+001
9.406886e+002, 5.026087e+001
9.411707e+002, 5.071310e+001
9.416528e+002, 5.103776e+001
9.421349e+002, 5.104060e+001
9.426171e+002, 5.106854e+001
9.430992e+002, 5.140342e+001
9.435813e+002, 5.196478e+001
9.440634e+002, 5.252965e+001
9.445455e+002, 5.307877e+001
9.450276e+002, 5.354248e+001
9.455098e+002, 5.377950e+001
9.459919e+002, 5.405067e+001
9.464740e+002, 5.453043e+001
9.469561e+002, 5.514691e+001
9.474382e+002, 5.585731e+001
9.479203e+002, 5.660316e+001
9.484025e+002, 5.722002e+001
9.488846e+002, 5.758803e+001
9.493667e+002, 5.788018e+001
9.498488e+002, 5.817295e+001
9.503309e+002, 5.855000e+001
9.508130e+002, 5.921625e+001
9.512952e+002, 6.009049e+001
9.517773e+002, 6.085693e+001
9.522594e+002, 6.142241e+001
9.527415e+002, 6.203009e+001
9.532236e+002, 6.292202e+001
9.537057e+002, 6.401746e+001
9.541878e+002, 6.517580e+001
9.546699e+002, 6.637525e+001
9.551520e+002, 6.746001e+001
9.556342e+002, 6.841422e+001
9.561163e+002, 6.931846e+001
9.565984e+002, 7.021447e+001
9.570805e+002, 7.111906e+001
9.575626e+002, 7.203011e+001
9.580447e+002, 7.295788e+001
9.585269e+002, 7.412993e+001
9.590090e+002, 7.563884e+001
9.594911e+002, 7.699606e+001
9.599732e+002, 7.801446e+001
9.604553e+002, 7.904195e+001
9.609374e+002, 8.032087e+001
9.614196e+002, 8.179763e+001
9.619017e+002, 8.333692e+001
9.623838e+002, 8.499466e+001
9.628659e+002, 8.653268e+001
9.633480e+002, 8.780666e+001
9.638301e+002, 8.914814e+001
9.643123e+002, 9.068851e+001
9.647944e+002, 9.228928e+001
9.652765e+002, 9.387138e+001
9.657586e+002, 9.542088e+001
9.662407e+002, 9.689780e+001
9.667228e+002, 9.835625e+001
9.672050e+002, 9.963048e+001
9.676871e+002, 1.006730e+002
9.681692e+002, 1.015371e+002
9.686513e+002, 1.021572e+002
9.691334e+002, 1.026696e+002
9.696155e+002, 1.032649e+002
9.700977e+002, 1.039467e+002
9.705798e+002, 1.045307e+002
9.710619e+002, 1.049703e+002
9.715440e+002, 1.052349e+002
9.720261e+002, 1.051589e+002
9.725082e+002, 1.050138e+002
9.729904e+002, 1.051123e+002
9.734725e+002, 1.053812e+002
9.739546e+002, 1.056764e+002
9.744367e+002, 1.059212e+002
9.749188e+002, 1.058825e+002
9.754009e+002, 1.051856e+002
9.758831e+002, 1.043116e+002
9.763652e+002, 1.039427e+002
9.768473e+002, 1.038756e+002
9.773294e+002, 1.036765e+002
9.778115e+002, 1.033120e+002
9.782936e+002, 1.029151e+002
9.787758e+002, 1.025477e+002
9.792579e+002, 1.023505e+002
9.797400e+002, 1.026430e+002
9.802221e+002, 1.031950e+002
9.807042e+002, 1.031006e+002
9.811863e+002, 1.024652e+002
9.816685e+002, 1.022395e+002
9.821506e+002, 1.026107e+002
9.826327e+002, 1.028180e+002
9.831148e+002, 1.023522e+002
9.835969e+002, 1.014977e+002
9.840790e+002, 1.007482e+002
9.845612e+002, 1.001044e+002
9.850433e+002, 9.963030e+001
9.855254e+002, 9.933589e+001
9.860075e+002, 9.914449e+001
9.864896e+002, 9.900840e+001
9.869717e+002, 9.906046e+001
9.874539e+002, 9.943364e+001
9.879360e+002, 1.000541e+002
9.884181e+002, 1.007006e+002
9.889002e+002, 1.013817e+002
9.893823e+002, 1.020339e+002
9.898644e+002, 1.025570e+002
9.903466e+002, 1.032419e+002
9.908287e+002, 1.041593e+002
9.913108e+002, 1.053040e+002
9.917929e+002, 1.067243e+002
9.922750e+002, 1.083823e+002
9.927571e+002, 1.100332e+002
9.932393e+002, 1.114914e+002
9.937214e+002, 1.132696e+002
9.942035e+002, 1.155786e+002
9.946856e+002, 1.179809e+002
9.951677e+002, 1.202024e+002
9.956498e+002, 1.224990e+002
9.961320e+002, 1.251234e+002
9.966141e+002, 1.280880e+002
9.970962e+002, 1.312968e+002
9.975783e+002, 1.347972e+002
9.980604e+002, 1.384137e+002
9.985425e+002, 1.421253e+002
9.990247e+002, 1.458975e+002
9.995068e+002, 1.498123e+002
9.999889e+002, 1.536821e+002
1.000471e+003, 1.572664e+002
1.000953e+003, 1.605233e+002
1.001435e+003, 1.634500e+002
1.001917e+003, 1.663332e+002
1.002399e+003, 1.684252e+002
1.002882e+003, 1.692628e+002
1.003364e+003, 1.691728e+002
1.003846e+003, 1.684338e+002
1.004328e+003, 1.670174e+002
1.004810e+003, 1.647734e+002
1.005292e+003, 1.616857e+002
1.005774e+003, 1.579558e+002
1.006256e+003, 1.535346e+002
1.006739e+003, 1.487251e+002
1.007221e+003, 1.436986e+002
1.007703e+003, 1.385533e+002
1.008185e+003, 1.333489e+002
1.008667e+003, 1.281750e+002
1.009149e+003, 1.231746e+002
1.009631e+003, 1.184281e+002
1.010113e+003, 1.139746e+002
1.010595e+003, 1.098965e+002
1.011078e+003, 1.061253e+002
1.011560e+003, 1.026769e+002
1.012042e+003, 9.943035e+001
1.012524e+003, 9.599883e+001
1.013006e+003, 9.243509e+001
1.013488e+003, 8.920723e+001
1.013970e+003, 8.650431e+001
1.014452e+003, 8.408849e+001
1.014935e+003, 8.167936e+001
1.015417e+003, 7.936095e+001
1.015899e+003, 7.738871e+001
1.016381e+003, 7.570232e+001
1.016863e+003, 7.404930e+001
1.017345e+003, 7.240257e+001
1.017827e+003, 7.085920e+001
1.018309e+003, 6.947195e+001
1.018791e+003, 6.819773e+001
1.019274e+003, 6.702617e+001
1.019756e+003, 6.590402e+001
1.020238e+003, 6.444959e+001
1.020720e+003, 6.269054e+001
1.021202e+003, 6.126109e+001
1.021684e+003, 6.028109e+001
1.022166e+003, 5.940011e+001
1.022648e+003, 5.840398e+001
1.023130e+003, 5.745694e+001
1.023613e+003, 5.686333e+001
1.024095e+003, 5.658985e+001
1.024577e+003, 5.608947e+001
1.025059e+003, 5.534377e+001
1.025541e+003, 5.448748e+001
1.026023e+003, 5.346965e+001
1.026505e+003, 5.270025e+001
1.026987e+003, 5.251092e+001
1.027469e+003, 5.255321e+001
1.027952e+003, 5.215398e+001
1.028434e+003, 5.128230e+001
1.028916e+003, 5.069479e+001
1.029398e+003, 5.050684e+001
1.029880e+003, 5.016322e+001
1.030362e+003, 4.944840e+001
1.030844e+003, 4.883436e+001
1.031326e+003, 4.869803e+001
1.031809e+003, 4.878744e+001
1.032291e+003, 4.857981e+001
1.032773e+003, 4.803295e+001
1.033255e+003, 4.752633e+001
1.033737e+003, 4.687124e+001
1.034219e+003, 4.672095e+001
1.034701e+003, 4.767857e+001
1.035183e+003, 4.842859e+001
1.035666e+003, 4.793122e+001
1.036148e+003, 4.673823e+001
1.036630e+003, 4.600591e+001
1.037112e+003, 4.582668e+001
1.037594e+003, 4.558900e+001
1.038076e+003, 4.521273e+001
1.038558e+003, 4.490785e+001
1.039040e+003, 4.472346e+001
1.039522e+003, 4.460637e+001
1.040005e+003, 4.452922e+001
1.040487e+003, 4.449345e+001
1.040969e+003, 4.453948e+001
1.041451e+003, 4.472509e+001
1.041933e+003, 4.468663e+001
1.042415e+003, 4.419530e+001
1.042897e+003, 4.379144e+001
1.043379e+003, 4.363264e+001
1.043861e+003, 4.353319e+001
1.044344e+003, 4.337942e+001
1.044826e+003, 4.319928e+001
1.045308e+003, 4.304060e+001
1.045790e+003, 4.289793e+001
1.046272e+003, 4.284586e+001
1.046754e+003, 4.304790e+001
1.047236e+003, 4.312728e+001
1.047718e+003, 4.291457e+001
1.048201e+003, 4.262568e+001
1.048683e+003, 4.232041e+001
1.049165e+003, 4.207837e+001
1.049647e+003, 4.206760e+001
1.050129e+003, 4.233316e+001
1.050611e+003, 4.250585e+001
1.051093e+003, 4.245467e+001
1.051575e+003, 4.238165e+001
1.052057e+003, 4.231825e+001
1.052540e+003, 4.227999e+001
1.053022e+003, 4.227473e+001
1.053504e+003, 4.230221e+001
1.053986e+003, 4.237830e+001
1.054468e+003, 4.250740e+001
1.054950e+003, 4.258495e+001
1.055432e+003, 4.257554e+001
1.055914e+003, 4.252110e+001
1.056396e+003, 4.237926e+001
1.056879e+003, 4.225285e+001
1.057361e+003, 4.230065e+001
1.057843e+003, 4.238451e+001
1.058325e+003, 4.221226e+001
1.058807e+003, 4.174868e+001
1.059289e+003, 4.140572e+001
1.059771e+003, 4.145588e+001
1.060253e+003, 4.146249e+001
1.060736e+003, 4.112540e+001
1.061218e+003, 4.081378e+001
1.061700e+003, 4.092850e+001
1.062182e+003, 4.121021e+001
1.062664e+003, 4.113600e+001
1.063146e+003, 4.066314e+001
1.063628e+003, 4.038766e+001
1.064110e+003, 4.075521e+001
1.064593e+003, 4.103129e+001
1.065075e+003, 4.074318e+001
1.065557e+003, 4.041865e+001
1.066039e+003, 4.051953e+001
1.066521e+003, 4.082822e+001
1.067003e+003, 4.097780e+001
1.067485e+003, 4.092093e+001
1.067967e+003, 4.083738e+001
1.068449e+003, 4.081804e+001
1.068932e+003, 4.074141e+001
1.069414e+003, 4.039229e+001
1.069896e+003, 4.012856e+001
1.070378e+003, 4.035005e+001
1.070860e+003, 4.075451e+001
1.071342e+003, 4.088425e+001
1.071824e+003, 4.071425e+001
1.072306e+003, 4.054955e+001
1.072788e+003, 4.047650e+001
1.073271e+003, 4.048207e+001
1.073753e+003, 4.058235e+001
1.074235e+003, 4.073630e+001
1.074717e+003, 4.094804e+001
1.075199e+003, 4.117372e+001
1.075681e+003, 4.137638e+001
1.076163e+003, 4.154218e+001
1.076645e+003, 4.164873e+001
1.077127e+003, 4.168436e+001
1.077610e+003, 4.167535e+001
1.078092e+003, 4.151588e+001
1.078574e+003, 4.144585e+001
1.079056e+003, 4.170266e+001
1.079538e+003, 4.208869e+001
1.080020e+003, 4.237913e+001
1.080502e+003, 4.256728e+001
1.080984e+003, 4.273280e+001
1.081467e+003, 4.288412e+001
1.081949e+003, 4.309292e+001
1.082431e+003, 4.340930e+001
1.082913e+003, 4.377345e+001
1.083395e+003, 4.410313e+001
1.083877e+003, 4.449569e+001
1.084359e+003, 4.513268e+001
1.084841e+003, 4.591141e+001
1.085323e+003, 4.652979e+001
1.085806e+003, 4.688776e+001
1.086288e+003, 4.728697e+001
1.086770e+003, 4.788014e+001
1.087252e+003, 4.851413e+001
1.087734e+003, 4.920362e+001
1.088216e+003, 4.982281e+001
1.088698e+003, 5.015702e+001
1.089180e+003, 5.036033e+001
1.089662e+003, 5.081178e+001
1.090145e+003, 5.159398e+001
1.090627e+003, 5.220441e+001
1.091109e+003, 5.233062e+001
1.091591e+003, 5.241724e+001
1.092073e+003, 5.256339e+001
1.092555e+003, 5.283207e+001
1.093037e+003, 5.345733e+001
1.093519e+003, 5.415067e+001
1.094002e+003, 5.443379e+001
1.094484e+003, 5.425230e+001
1.094966e+003, 5.392627e+001
1.095448e+003, 5.345251e+001
1.095930e+003, 5.300226e+001
1.096412e+003, 5.286890e+001
1.096894e+003, 5.252187e+001
1.097376e+003, 5.143292e+001
1.097859e+003, 5.003709e+001
1.098341e+003, 4.890167e+001
1.098823e+003, 4.806090e+001
1.099305e+003, 4.725344e+001
1.099787e+003, 4.645744e+001
1.100269e+003, 4.561080e+001
1.100751e+003, 4.452741e+001
1.101233e+003, 4.359715e+001
1.101715e+003, 4.317707e+001
1.102198e+003, 4.287566e+001
1.102680e+003, 4.219311e+001
1.103162e+003, 4.125183e+001
1.103644e+003, 4.061535e+001
1.104126e+003, 4.043311e+001
1.104608e+003, 4.033182e+001
1.105090e+003, 4.036723e+001
1.105572e+003, 4.031749e+001
1.106054e+003, 3.999038e+001
1.106537e+003, 3.965368e+001
1.107019e+003, 3.954556e+001
1.107501e+003, 3.959098e+001
1.107983e+003, 3.960696e+001
1.108465e+003, 3.959344e+001
1.108947e+003, 3.947129e+001
1.109429e+003, 3.913086e+001
1.109911e+003, 3.882671e+001
1.110394e+003, 3.858540e+001
1.110876e+003, 3.842058e+001
1.111358e+003, 3.837132e+001
1.111840e+003, 3.838771e+001
1.112322e+003, 3.842279e+001
1.112804e+003, 3.848365e+001
1.113286e+003, 3.838404e+001
1.113768e+003, 3.789213e+001
1.114250e+003, 3.762774e+001
1.114733e+003, 3.775108e+001
1.115215e+003, 3.794893e+001
1.115697e+003, 3.813888e+001
1.116179e+003, 3.829309e+001
1.116661e+003, 3.837860e+001
1.117143e+003, 3.839898e+001
1.117625e+003, 3.837639e+001
1.118107e+003, 3.828648e+001
1.118589e+003, 3.821442e+001
1.119072e+003, 3.817821e+001
1.119554e+003, 3.812418e+001
1.120036e+003, 3.802261e+001
1.120518e+003, 3.791566e+001
1.121000e+003, 3.782080e+001
1.121482e+003, 3.776263e+001
1.121964e+003, 3.784484e+001
1.122446e+003, 3.813632e+001
1.122929e+003, 3.811371e+001
1.123411e+003, 3.764946e+001
1.123893e+003, 3.729735e+001
1.124375e+003, 3.716663e+001
1.124857e+003, 3.720449e+001
1.125339e+003, 3.741137e+001
1.125821e+003, 3.769526e+001
1.126303e+003, 3.790171e+001
1.126786e+003, 3.803283e+001
1.127268e+003, 3.813065e+001
1.127750e+003, 3.819552e+001
1.128232e+003, 3.823159e+001
1.128714e+003, 3.824940e+001
1.129196e+003, 3.813090e+001
1.129678e+003, 3.779561e+001
1.130160e+003, 3.746748e+001
1.130642e+003, 3.741434e+001
1.131125e+003, 3.755582e+001
1.131607e+003, 3.759937e+001
1.132089e+003, 3.755473e+001
1.132571e+003, 3.762026e+001
1.133053e+003, 3.780259e+001
1.133535e+003, 3.789304e+001
1.134017e+003, 3.782808e+001
1.134499e+003, 3.769975e+001
1.134981e+003, 3.757223e+001
1.135464e+003, 3.746130e+001
1.135946e+003, 3.742208e+001
1.136428e+003, 3.742081e+001
1.136910e+003, 3.724173e+001
1.137392e+003, 3.696571e+001
1.137874e+003, 3.710561e+001
1.138356e+003, 3.766829e+001
1.138838e+003, 3.794782e+001
1.139321e+003, 3.758158e+001
1.139803e+003, 3.711536e+001
1.140285e+003, 3.717951e+001
1.140767e+003, 3.753145e+001
1.141249e+003, 3.782149e+001
1.141731e+003, 3.801257e+001
1.142213e+003, 3.794154e+001
1.142695e+003, 3.769173e+001
1.143177e+003, 3.758173e+001
1.143660e+003, 3.769757e+001
1.144142e+003, 3.783687e+001
1.144624e+003, 3.786314e+001
1.145106e+003, 3.783922e+001
1.145588e+003, 3.785358e+001
1.146070e+003, 3.783807e+001
1.146552e+003, 3.762825e+001
1.147034e+003, 3.735852e+001
1.147516e+003, 3.730629e+001
1.147999e+003, 3.746660e+001
1.148481e+003, 3.760028e+001
1.148963e+003, 3.760282e+001
1.149445e+003, 3.759172e+001
1.149927e+003, 3.770711e+001
1.150409e+003, 3.775950e+001
1.150891e+003, 3.750826e+001
1.151373e+003, 3.720522e+001
1.151856e+003, 3.712793e+001
1.152338e+003, 3.722864e+001
1.152820e+003, 3.735900e+001
1.153302e+003, 3.748674e+001
1.153784e+003, 3.754828e+001
1.154266e+003, 3.748511e+001
1.154748e+003, 3.740572e+001
1.155230e+003, 3.732707e+001
1.155713e+003, 3.726400e+001
1.156195e+003, 3.720738e+001
1.156677e+003, 3.718348e+001
1.157159e+003, 3.725429e+001
1.157641e+003, 3.740023e+001
1.158123e+003, 3.747072e+001
1.158605e+003, 3.739557e+001
1.159087e+003, 3.736748e+001
1.159569e+003, 3.750338e+001
1.160052e+003, 3.753999e+001
1.160534e+003, 3.723995e+001
1.161016e+003, 3.701186e+001
1.161498e+003, 3.727250e+001
1.161980e+003, 3.774992e+001
1.162462e+003, 3.781019e+001
1.162944e+003, 3.738897e+001
1.163426e+003, 3.727759e+001
1.163908e+003, 3.767160e+001
1.164391e+003, 3.776318e+001
1.164873e+003, 3.729823e+001
1.165355e+003, 3.697539e+001
1.165837e+003, 3.717086e+001
1.166319e+003, 3.753064e+001
1.166801e+003, 3.763603e+001
1.167283e+003, 3.755549e+001
1.167765e+003, 3.759779e+001
1.168247e+003, 3.777209e+001
1.168730e+003, 3.777029e+001
1.169212e+003, 3.757607e+001
1.169694e+003, 3.730049e+001
1.170176e+003, 3.697001e+001
1.170658e+003, 3.677783e+001
1.171140e+003, 3.687153e+001
1.171622e+003, 3.707712e+001
1.172104e+003, 3.712137e+001
1.172587e+003, 3.704686e+001
1.173069e+003, 3.692833e+001
1.173551e+003, 3.682091e+001
1.174033e+003, 3.704090e+001
1.174515e+003, 3.752128e+001
1.174997e+003, 3.770518e+001
1.175479e+003, 3.740592e+001
1.175961e+003, 3.707136e+001
1.176443e+003, 3.707631e+001
1.176926e+003, 3.721535e+001
1.177408e+003, 3.729441e+001
1.177890e+003, 3.729964e+001
1.178372e+003, 3.715453e+001
1.178854e+003, 3.694359e+001
1.179336e+003, 3.681085e+001
1.179818e+003, 3.678452e+001
1.180300e+003, 3.688522e+001
1.180782e+003, 3.715432e+001
1.181265e+003, 3.727877e+001
1.181747e+003, 3.690769e+001
1.182229e+003, 3.652322e+001
1.182711e+003, 3.640000e+001
1.183193e+003, 3.645073e+001
1.183675e+003, 3.667793e+001
1.184157e+003, 3.696881e+001
1.184639e+003, 3.716507e+001
1.185122e+003, 3.723919e+001
1.185604e+003, 3.717579e+001
1.186086e+003, 3.675269e+001
1.186568e+003, 3.654623e+001
1.187050e+003, 3.692403e+001
1.187532e+003, 3.719767e+001
1.188014e+003, 3.697590e+001
1.188496e+003, 3.660789e+001
1.188979e+003, 3.635841e+001
1.189461e+003, 3.623618e+001
1.189943e+003, 3.628899e+001
1.190425e+003, 3.655337e+001
1.190907e+003, 3.677748e+001
1.191389e+003, 3.695635e+001
1.191871e+003, 3.710968e+001
1.192353e+003, 3.725010e+001
1.192835e+003, 3.733065e+001
1.193318e+003, 3.731654e+001
1.193800e+003, 3.726476e+001
1.194282e+003, 3.724656e+001
1.194764e+003, 3.724662e+001
1.195246e+003, 3.720589e+001
1.195728e+003, 3.712518e+001
1.196210e+003, 3.698460e+001
1.196692e+003, 3.679388e+001
1.197174e+003, 3.677607e+001
1.197657e+003, 3.697730e+001
1.198139e+003, 3.718826e+001
1.198621e+003, 3.728239e+001
1.199103e+003, 3.727534e+001
1.199585e+003, 3.715976e+001
1.200067e+003, 3.697937e+001
1.200549e+003, 3.678267e+001
1.201031e+003, 3.660460e+001
1.201514e+003, 3.650599e+001
1.201996e+003, 3.649990e+001
1.202478e+003, 3.663396e+001
1.202960e+003, 3.689454e+001
1.203442e+003, 3.711436e+001
1.203924e+003, 3.719808e+001
1.204406e+003, 3.720791e+001
1.204888e+003, 3.712429e+001
1.205370e+003, 3.705773e+001
1.205853e+003, 3.716702e+001
1.206335e+003, 3.729749e+001
1.206817e+003, 3.724451e+001
1.207299e+003, 3.705150e+001
1.207781e+003, 3.686129e+001
1.208263e+003, 3.669758e+001
1.208745e+003, 3.662078e+001
1.209227e+003, 3.668507e+001
1.209709e+003, 3.677836e+001
1.210192e+003, 3.696513e+001
1.210674e+003, 3.707114e+001
1.211156e+003, 3.690645e+001
1.211638e+003, 3.670949e+001
1.212120e+003, 3.675793e+001
1.212602e+003, 3.696527e+001
1.213084e+003, 3.699974e+001
1.213566e+003, 3.683175e+001
1.214049e+003, 3.660528e+001
1.214531e+003, 3.624191e+001
1.215013e+003, 3.617307e+001
1.215495e+003, 3.654819e+001
1.215977e+003, 3.689093e+001
1.216459e+003, 3.694608e+001
1.216941e+003, 3.686441e+001
1.217423e+003, 3.682113e+001
1.217906e+003, 3.680182e+001
1.218388e+003, 3.677287e+001
1.218870e+003, 3.672813e+001
1.219352e+003, 3.660229e+001
1.219834e+003, 3.642251e+001
1.220316e+003, 3.635142e+001
1.220798e+003, 3.641219e+001
1.221280e+003, 3.649184e+001
1.221762e+003, 3.653002e+001
1.222245e+003, 3.655627e+001
1.222727e+003, 3.659011e+001
1.223209e+003, 3.663796e+001
1.223691e+003, 3.671320e+001
1.224173e+003, 3.680237e+001
1.224655e+003, 3.694038e+001
1.225137e+003, 3.705476e+001
1.225619e+003, 3.698598e+001
1.226101e+003, 3.673848e+001
1.226584e+003, 3.649758e+001
1.227066e+003, 3.631201e+001
1.227548e+003, 3.618751e+001
1.228030e+003, 3.612892e+001
1.228512e+003, 3.612978e+001
1.228994e+003, 3.626389e+001
1.229476e+003, 3.638192e+001
1.229958e+003, 3.638536e+001
1.230441e+003, 3.628181e+001
1.230923e+003, 3.602499e+001
1.231405e+003, 3.562782e+001
1.231887e+003, 3.559505e+001
1.232369e+003, 3.612141e+001
1.232851e+003, 3.639689e+001
1.233333e+003, 3.631095e+001
1.233815e+003, 3.625196e+001
1.234297e+003, 3.634735e+001
1.234780e+003, 3.644953e+001
1.235262e+003, 3.645567e+001
1.235744e+003, 3.638612e+001
1.236226e+003, 3.624202e+001
1.236708e+003, 3.606946e+001
1.237190e+003, 3.612264e+001
1.237672e+003, 3.632434e+001
1.238154e+003, 3.629241e+001
1.238636e+003, 3.604663e+001
1.239119e+003, 3.585535e+001
1.239601e+003, 3.580706e+001
1.240083e+003, 3.590846e+001
1.240565e+003, 3.620205e+001
1.241047e+003, 3.644582e+001
1.241529e+003, 3.628584e+001
1.242011e+003, 3.609155e+001
1.242493e+003, 3.632515e+001
1.242975e+003, 3.666191e+001
1.243458e+003, 3.665113e+001
1.243940e+003, 3.642363e+001
1.244422e+003, 3.635363e+001
1.244904e+003, 3.648915e+001
1.245386e+003, 3.655370e+001
1.245868e+003, 3.639096e+001
1.246350e+003, 3.631046e+001
1.246832e+003, 3.647221e+001
1.247315e+003, 3.657737e+001
1.247797e+003, 3.652283e+001
1.248279e+003, 3.637562e+001
1.248761e+003, 3.611528e+001
1.249243e+003, 3.585632e+001
1.249725e+003, 3.581118e+001
1.250207e+003, 3.597046e+001
1.250689e+003, 3.621532e+001
1.251172e+003, 3.657683e+001
1.251654e+003, 3.662462e+001
1.252136e+003, 3.631212e+001
1.252618e+003, 3.609185e+001
1.253100e+003, 3.609937e+001
1.253582e+003, 3.619083e+001
1.254064e+003, 3.627468e+001
1.254546e+003, 3.631353e+001
1.255028e+003, 3.621991e+001
1.255510e+003, 3.607175e+001
1.255993e+003, 3.599428e+001
1.256475e+003, 3.598378e+001
1.256957e+003, 3.607583e+001
1.257439e+003, 3.621741e+001
1.257921e+003, 3.628779e+001
1.258403e+003, 3.626835e+001
1.258885e+003, 3.621768e+001
1.259367e+003, 3.613411e+001
1.259850e+003, 3.612489e+001
1.260332e+003, 3.631075e+001
1.260814e+003, 3.648920e+001
1.261296e+003, 3.664589e+001
1.261778e+003, 3.667595e+001
1.262260e+003, 3.636299e+001
1.262742e+003, 3.595217e+001
1.263224e+003, 3.585107e+001
1.263707e+003, 3.602353e+001
1.264189e+003, 3.616983e+001
1.264671e+003, 3.632374e+001
1.265153e+003, 3.630747e+001
1.265635e+003, 3.605035e+001
1.266117e+003, 3.595565e+001
1.266599e+003, 3.613593e+001
1.267081e+003, 3.633578e+001
1.267563e+003, 3.641658e+001
1.268046e+003, 3.641747e+001
1.268528e+003, 3.637793e+001
1.269010e+003, 3.630627e+001
1.269492e+003, 3.618904e+001
1.269974e+003, 3.606898e+001
1.270456e+003, 3.606179e+001
1.270938e+003, 3.614561e+001
1.271420e+003, 3.629953e+001
1.271902e+003, 3.646583e+001
1.272385e+003, 3.642510e+001
1.272867e+003, 3.609269e+001
1.273349e+003, 3.591103e+001
1.273831e+003, 3.632248e+001
1.274313e+003, 3.670165e+001
1.274795e+003, 3.672753e+001
1.275277e+003, 3.662779e+001
1.275759e+003, 3.650450e+001
1.276242e+003, 3.637886e+001
1.276724e+003, 3.625254e+001
1.277206e+003, 3.613685e+001
1.277688e+003, 3.604856e+001
1.278170e+003, 3.597187e+001
1.278652e+003, 3.609027e+001
1.279134e+003, 3.649326e+001
1.279616e+003, 3.677334e+001
1.280099e+003, 3.689140e+001
1.280581e+003, 3.683971e+001
1.281063e+003, 3.659711e+001
1.281545e+003, 3.633136e+001
1.282027e+003, 3.616152e+001
1.282509e+003, 3.611392e+001
1.282991e+003, 3.633108e+001
1.283473e+003, 3.665020e+001
1.283955e+003, 3.672976e+001
##END=



