##NAMES=Behoite
##RRUFFID=R130230
##IDEAL CHEMISTRY=Be(OH)_2_
##LOCALITY=Rode Ranch pegmatite, Llano County, Texas, USA
##OWNER=RRUFF
##SOURCE=Rock Currier
##DESCRIPTION=Colorless vitreous pseudo-octahedral crystals in a yellow crust on brown gadolinite
##STATUS=The identification of this mineral has been confirmed by single-crystal X-ray diffraction.
##URL=rruff.info/R130230
9.059570e+001, 2.894151e+004
9.107782e+001, 2.782063e+004
9.155994e+001, 2.742345e+004
9.204205e+001, 2.826321e+004
9.252417e+001, 2.947960e+004
9.300629e+001, 3.079419e+004
9.348840e+001, 3.194320e+004
9.397052e+001, 3.270377e+004
9.445264e+001, 3.297077e+004
9.493475e+001, 3.316144e+004
9.541687e+001, 3.329770e+004
9.589898e+001, 3.340698e+004
9.638110e+001, 3.349939e+004
9.686321e+001, 3.358357e+004
9.734533e+001, 3.364108e+004
9.782745e+001, 3.360793e+004
9.830956e+001, 3.357780e+004
9.879168e+001, 3.355950e+004
9.927380e+001, 3.355146e+004
9.975591e+001, 3.354286e+004
1.002380e+002, 3.353441e+004
1.007201e+002, 3.353723e+004
1.012023e+002, 3.355718e+004
1.016844e+002, 3.359347e+004
1.021665e+002, 3.363375e+004
1.026486e+002, 3.367895e+004
1.031307e+002, 3.372308e+004
1.036128e+002, 3.375660e+004
1.040950e+002, 3.377515e+004
1.045771e+002, 3.379715e+004
1.050592e+002, 3.382120e+004
1.055413e+002, 3.384752e+004
1.060234e+002, 3.388086e+004
1.065055e+002, 3.392473e+004
1.069877e+002, 3.397586e+004
1.074698e+002, 3.402460e+004
1.079519e+002, 3.406979e+004
1.084340e+002, 3.410932e+004
1.089161e+002, 3.413861e+004
1.093982e+002, 3.416041e+004
1.098804e+002, 3.418165e+004
1.103625e+002, 3.420905e+004
1.108446e+002, 3.424380e+004
1.113267e+002, 3.427497e+004
1.118088e+002, 3.430154e+004
1.122909e+002, 3.432536e+004
1.127731e+002, 3.434634e+004
1.132552e+002, 3.436461e+004
1.137373e+002, 3.438110e+004
1.142194e+002, 3.439681e+004
1.147015e+002, 3.440968e+004
1.151836e+002, 3.442576e+004
1.156658e+002, 3.445043e+004
1.161479e+002, 3.447571e+004
1.166300e+002, 3.449343e+004
1.171121e+002, 3.450056e+004
1.175942e+002, 3.450043e+004
1.180763e+002, 3.450009e+004
1.185584e+002, 3.449963e+004
1.190406e+002, 3.449861e+004
1.195227e+002, 3.449354e+004
1.200048e+002, 3.448707e+004
1.204869e+002, 3.448724e+004
1.209690e+002, 3.449939e+004
1.214511e+002, 3.451916e+004
1.219333e+002, 3.453598e+004
1.224154e+002, 3.454789e+004
1.228975e+002, 3.455948e+004
1.233796e+002, 3.457525e+004
1.238617e+002, 3.459565e+004
1.243438e+002, 3.461479e+004
1.248260e+002, 3.462882e+004
1.253081e+002, 3.464001e+004
1.257902e+002, 3.464982e+004
1.262723e+002, 3.465813e+004
1.267544e+002, 3.466579e+004
1.272365e+002, 3.467491e+004
1.277187e+002, 3.468713e+004
1.282008e+002, 3.469816e+004
1.286829e+002, 3.470492e+004
1.291650e+002, 3.471047e+004
1.296471e+002, 3.471980e+004
1.301292e+002, 3.473736e+004
1.306114e+002, 3.476211e+004
1.310935e+002, 3.477679e+004
1.315756e+002, 3.477008e+004
1.320577e+002, 3.476417e+004
1.325398e+002, 3.476447e+004
1.330219e+002, 3.477034e+004
1.335041e+002, 3.477890e+004
1.339862e+002, 3.478817e+004
1.344683e+002, 3.479897e+004
1.349504e+002, 3.480455e+004
1.354325e+002, 3.480098e+004
1.359146e+002, 3.479639e+004
1.363968e+002, 3.479459e+004
1.368789e+002, 3.479620e+004
1.373610e+002, 3.480068e+004
1.378431e+002, 3.480791e+004
1.383252e+002, 3.481857e+004
1.388073e+002, 3.482838e+004
1.392895e+002, 3.483792e+004
1.397716e+002, 3.484609e+004
1.402537e+002, 3.485070e+004
1.407358e+002, 3.485050e+004
1.412179e+002, 3.484947e+004
1.417000e+002, 3.485201e+004
1.421821e+002, 3.485756e+004
1.426643e+002, 3.486670e+004
1.431464e+002, 3.488364e+004
1.436285e+002, 3.490534e+004
1.441106e+002, 3.492036e+004
1.445927e+002, 3.492316e+004
1.450748e+002, 3.492158e+004
1.455570e+002, 3.492158e+004
1.460391e+002, 3.492335e+004
1.465212e+002, 3.492851e+004
1.470033e+002, 3.494249e+004
1.474854e+002, 3.496731e+004
1.479675e+002, 3.498111e+004
1.484497e+002, 3.496488e+004
1.489318e+002, 3.494543e+004
1.494139e+002, 3.493789e+004
1.498960e+002, 3.494526e+004
1.503781e+002, 3.495918e+004
1.508602e+002, 3.496823e+004
1.513424e+002, 3.497319e+004
1.518245e+002, 3.497067e+004
1.523066e+002, 3.495424e+004
1.527887e+002, 3.493536e+004
1.532708e+002, 3.492307e+004
1.537529e+002, 3.492083e+004
1.542351e+002, 3.492543e+004
1.547172e+002, 3.492891e+004
1.551993e+002, 3.492807e+004
1.556814e+002, 3.493018e+004
1.561635e+002, 3.493679e+004
1.566456e+002, 3.494610e+004
1.571278e+002, 3.495680e+004
1.576099e+002, 3.496840e+004
1.580920e+002, 3.497977e+004
1.585741e+002, 3.498570e+004
1.590562e+002, 3.498375e+004
1.595383e+002, 3.497977e+004
1.600205e+002, 3.497081e+004
1.605026e+002, 3.496032e+004
1.609847e+002, 3.495733e+004
1.614668e+002, 3.496913e+004
1.619489e+002, 3.499121e+004
1.624310e+002, 3.500292e+004
1.629131e+002, 3.499628e+004
1.633953e+002, 3.498783e+004
1.638774e+002, 3.498639e+004
1.643595e+002, 3.499161e+004
1.648416e+002, 3.500007e+004
1.653237e+002, 3.501191e+004
1.658058e+002, 3.502520e+004
1.662880e+002, 3.503550e+004
1.667701e+002, 3.504141e+004
1.672522e+002, 3.504499e+004
1.677343e+002, 3.504961e+004
1.682164e+002, 3.505640e+004
1.686985e+002, 3.505874e+004
1.691807e+002, 3.504677e+004
1.696628e+002, 3.502931e+004
1.701449e+002, 3.501736e+004
1.706270e+002, 3.501694e+004
1.711091e+002, 3.502346e+004
1.715912e+002, 3.502657e+004
1.720734e+002, 3.502527e+004
1.725555e+002, 3.502212e+004
1.730376e+002, 3.501665e+004
1.735197e+002, 3.501069e+004
1.740018e+002, 3.500658e+004
1.744839e+002, 3.500536e+004
1.749661e+002, 3.500730e+004
1.754482e+002, 3.501423e+004
1.759303e+002, 3.503387e+004
1.764124e+002, 3.505024e+004
1.768945e+002, 3.505850e+004
1.773766e+002, 3.506068e+004
1.778588e+002, 3.506036e+004
1.783409e+002, 3.505979e+004
1.788230e+002, 3.505895e+004
1.793051e+002, 3.505962e+004
1.797872e+002, 3.506125e+004
1.802693e+002, 3.506473e+004
1.807515e+002, 3.507080e+004
1.812336e+002, 3.507890e+004
1.817157e+002, 3.508783e+004
1.821978e+002, 3.509648e+004
1.826799e+002, 3.510461e+004
1.831620e+002, 3.511339e+004
1.836441e+002, 3.512693e+004
1.841263e+002, 3.513715e+004
1.846084e+002, 3.513810e+004
1.850905e+002, 3.513081e+004
1.855726e+002, 3.512167e+004
1.860547e+002, 3.511597e+004
1.865368e+002, 3.511415e+004
1.870190e+002, 3.511679e+004
1.875011e+002, 3.512962e+004
1.879832e+002, 3.514285e+004
1.884653e+002, 3.514909e+004
1.889474e+002, 3.514768e+004
1.894296e+002, 3.514295e+004
1.899117e+002, 3.513780e+004
1.903938e+002, 3.513252e+004
1.908759e+002, 3.512993e+004
1.913580e+002, 3.513057e+004
1.918401e+002, 3.513408e+004
1.923223e+002, 3.514268e+004
1.928044e+002, 3.515824e+004
1.932865e+002, 3.517039e+004
1.937686e+002, 3.516370e+004
1.942507e+002, 3.514390e+004
1.947328e+002, 3.512813e+004
1.952150e+002, 3.512095e+004
1.956971e+002, 3.512119e+004
1.961792e+002, 3.512866e+004
1.966613e+002, 3.514765e+004
1.971434e+002, 3.516389e+004
1.976255e+002, 3.516523e+004
1.981077e+002, 3.515555e+004
1.985898e+002, 3.514413e+004
1.990719e+002, 3.513340e+004
1.995540e+002, 3.512414e+004
2.000361e+002, 3.512025e+004
2.005182e+002, 3.512456e+004
2.010004e+002, 3.513093e+004
2.014825e+002, 3.513761e+004
2.019646e+002, 3.514381e+004
2.024467e+002, 3.514755e+004
2.029288e+002, 3.514732e+004
2.034109e+002, 3.514338e+004
2.038930e+002, 3.513723e+004
2.043752e+002, 3.511982e+004
2.048573e+002, 3.511077e+004
2.053394e+002, 3.512639e+004
2.058215e+002, 3.515744e+004
2.063036e+002, 3.518157e+004
2.067857e+002, 3.517726e+004
2.072679e+002, 3.514244e+004
2.077500e+002, 3.512056e+004
2.082321e+002, 3.512025e+004
2.087142e+002, 3.512584e+004
2.091963e+002, 3.513621e+004
2.096784e+002, 3.514896e+004
2.101606e+002, 3.516052e+004
2.106427e+002, 3.516825e+004
2.111248e+002, 3.517243e+004
2.116069e+002, 3.516866e+004
2.120890e+002, 3.514319e+004
2.125711e+002, 3.512304e+004
2.130533e+002, 3.512300e+004
2.135354e+002, 3.513930e+004
2.140175e+002, 3.515680e+004
2.144996e+002, 3.516095e+004
2.149817e+002, 3.514846e+004
2.154638e+002, 3.514606e+004
2.159460e+002, 3.516368e+004
2.164281e+002, 3.518036e+004
2.169102e+002, 3.518350e+004
2.173923e+002, 3.517475e+004
2.178744e+002, 3.516549e+004
2.183565e+002, 3.516642e+004
2.188387e+002, 3.517917e+004
2.193208e+002, 3.518873e+004
2.198029e+002, 3.519360e+004
2.202850e+002, 3.519693e+004
2.207671e+002, 3.520107e+004
2.212492e+002, 3.520583e+004
2.217314e+002, 3.520830e+004
2.222135e+002, 3.520418e+004
2.226956e+002, 3.519323e+004
2.231777e+002, 3.519250e+004
2.236598e+002, 3.521123e+004
2.241419e+002, 3.523325e+004
2.246240e+002, 3.524786e+004
2.251062e+002, 3.525437e+004
2.255883e+002, 3.525484e+004
2.260704e+002, 3.524925e+004
2.265525e+002, 3.523821e+004
2.270346e+002, 3.522821e+004
2.275167e+002, 3.522313e+004
2.279989e+002, 3.521718e+004
2.284810e+002, 3.520389e+004
2.289631e+002, 3.518284e+004
2.294452e+002, 3.516144e+004
2.299273e+002, 3.514633e+004
2.304094e+002, 3.513519e+004
2.308916e+002, 3.512123e+004
2.313737e+002, 3.509654e+004
2.318558e+002, 3.507237e+004
2.323379e+002, 3.506486e+004
2.328200e+002, 3.507662e+004
2.333021e+002, 3.508632e+004
2.337843e+002, 3.507500e+004
2.342664e+002, 3.505362e+004
2.347485e+002, 3.503908e+004
2.352306e+002, 3.503969e+004
2.357127e+002, 3.504543e+004
2.361948e+002, 3.504061e+004
2.366770e+002, 3.502159e+004
2.371591e+002, 3.500695e+004
2.376412e+002, 3.501136e+004
2.381233e+002, 3.502400e+004
2.386054e+002, 3.503433e+004
2.390875e+002, 3.504049e+004
2.395697e+002, 3.504101e+004
2.400518e+002, 3.502974e+004
2.405339e+002, 3.500001e+004
2.410160e+002, 3.498008e+004
2.414981e+002, 3.499071e+004
2.419802e+002, 3.501188e+004
2.424624e+002, 3.502427e+004
2.429445e+002, 3.501996e+004
2.434266e+002, 3.500827e+004
2.439087e+002, 3.500585e+004
2.443908e+002, 3.501670e+004
2.448729e+002, 3.502557e+004
2.453550e+002, 3.502744e+004
2.458372e+002, 3.502595e+004
2.463193e+002, 3.502404e+004
2.468014e+002, 3.502267e+004
2.472835e+002, 3.502063e+004
2.477656e+002, 3.501538e+004
2.482477e+002, 3.500500e+004
2.487299e+002, 3.499571e+004
2.492120e+002, 3.499066e+004
2.496941e+002, 3.498585e+004
2.501762e+002, 3.497750e+004
2.506583e+002, 3.496463e+004
2.511404e+002, 3.495037e+004
2.516226e+002, 3.494092e+004
2.521047e+002, 3.494151e+004
2.525868e+002, 3.493512e+004
2.530689e+002, 3.491645e+004
2.535510e+002, 3.489423e+004
2.540331e+002, 3.487312e+004
2.545153e+002, 3.485492e+004
2.549974e+002, 3.484049e+004
2.554795e+002, 3.483160e+004
2.559616e+002, 3.483164e+004
2.564437e+002, 3.483058e+004
2.569258e+002, 3.482733e+004
2.574080e+002, 3.482395e+004
2.578901e+002, 3.482252e+004
2.583722e+002, 3.482308e+004
2.588543e+002, 3.482336e+004
2.593364e+002, 3.481977e+004
2.598185e+002, 3.480913e+004
2.603007e+002, 3.480275e+004
2.607828e+002, 3.480422e+004
2.612649e+002, 3.480613e+004
2.617470e+002, 3.480139e+004
2.622291e+002, 3.479073e+004
2.627112e+002, 3.478260e+004
2.631934e+002, 3.478789e+004
2.636755e+002, 3.481301e+004
2.641576e+002, 3.482768e+004
2.646397e+002, 3.482609e+004
2.651218e+002, 3.482099e+004
2.656039e+002, 3.481774e+004
2.660861e+002, 3.481740e+004
2.665682e+002, 3.481920e+004
2.670503e+002, 3.482211e+004
2.675324e+002, 3.482542e+004
2.680145e+002, 3.483536e+004
2.684966e+002, 3.486268e+004
2.689788e+002, 3.488561e+004
2.694609e+002, 3.489090e+004
2.699430e+002, 3.488114e+004
2.704251e+002, 3.486805e+004
2.709072e+002, 3.486077e+004
2.713893e+002, 3.485949e+004
2.718715e+002, 3.486050e+004
2.723536e+002, 3.486536e+004
2.728357e+002, 3.487039e+004
2.733178e+002, 3.487320e+004
2.737999e+002, 3.487470e+004
2.742820e+002, 3.487821e+004
2.747642e+002, 3.488674e+004
2.752463e+002, 3.489934e+004
2.757284e+002, 3.490427e+004
2.762105e+002, 3.489497e+004
2.766926e+002, 3.488691e+004
2.771747e+002, 3.488888e+004
2.776568e+002, 3.489603e+004
2.781389e+002, 3.489642e+004
2.786211e+002, 3.488255e+004
2.791032e+002, 3.485855e+004
2.795853e+002, 3.484234e+004
2.800674e+002, 3.483367e+004
2.805495e+002, 3.483109e+004
2.810316e+002, 3.484397e+004
2.815138e+002, 3.486173e+004
2.819959e+002, 3.486364e+004
2.824780e+002, 3.483943e+004
2.829601e+002, 3.479924e+004
2.834422e+002, 3.476876e+004
2.839243e+002, 3.474837e+004
2.844065e+002, 3.473473e+004
2.848886e+002, 3.473227e+004
2.853707e+002, 3.473497e+004
2.858528e+002, 3.473325e+004
2.863349e+002, 3.472358e+004
2.868170e+002, 3.471119e+004
2.872992e+002, 3.470466e+004
2.877813e+002, 3.470441e+004
2.882634e+002, 3.470778e+004
2.887455e+002, 3.471612e+004
2.892276e+002, 3.472715e+004
2.897097e+002, 3.473840e+004
2.901919e+002, 3.474930e+004
2.906740e+002, 3.475983e+004
2.911561e+002, 3.477046e+004
2.916382e+002, 3.478151e+004
2.921203e+002, 3.478927e+004
2.926024e+002, 3.479148e+004
2.930846e+002, 3.479124e+004
2.935667e+002, 3.479155e+004
2.940488e+002, 3.479278e+004
2.945309e+002, 3.479356e+004
2.950130e+002, 3.479312e+004
2.954951e+002, 3.479114e+004
2.959773e+002, 3.478567e+004
2.964594e+002, 3.477385e+004
2.969415e+002, 3.476032e+004
2.974236e+002, 3.474825e+004
2.979057e+002, 3.473773e+004
2.983878e+002, 3.472771e+004
2.988700e+002, 3.471698e+004
2.993521e+002, 3.470609e+004
2.998342e+002, 3.469824e+004
3.003163e+002, 3.470015e+004
3.007984e+002, 3.469886e+004
3.012805e+002, 3.468431e+004
3.017627e+002, 3.465892e+004
3.022448e+002, 3.463391e+004
3.027269e+002, 3.461496e+004
3.032090e+002, 3.460057e+004
3.036911e+002, 3.458577e+004
3.041732e+002, 3.457070e+004
3.046554e+002, 3.455538e+004
3.051375e+002, 3.454034e+004
3.056196e+002, 3.452534e+004
3.061017e+002, 3.450838e+004
3.065838e+002, 3.448714e+004
3.070659e+002, 3.446701e+004
3.075481e+002, 3.445957e+004
3.080302e+002, 3.446641e+004
3.085123e+002, 3.447570e+004
3.089944e+002, 3.448923e+004
3.094765e+002, 3.450170e+004
3.099586e+002, 3.450158e+004
3.104408e+002, 3.448419e+004
3.109229e+002, 3.446122e+004
3.114050e+002, 3.444793e+004
3.118871e+002, 3.444400e+004
3.123692e+002, 3.444234e+004
3.128513e+002, 3.444465e+004
3.133335e+002, 3.444687e+004
3.138156e+002, 3.444250e+004
3.142977e+002, 3.443025e+004
3.147798e+002, 3.441807e+004
3.152619e+002, 3.441404e+004
3.157440e+002, 3.441751e+004
3.162262e+002, 3.441854e+004
3.167083e+002, 3.441164e+004
3.171904e+002, 3.440521e+004
3.176725e+002, 3.440935e+004
3.181546e+002, 3.442322e+004
3.186367e+002, 3.443262e+004
3.191188e+002, 3.442568e+004
3.196010e+002, 3.440654e+004
3.200831e+002, 3.439652e+004
3.205652e+002, 3.440250e+004
3.210473e+002, 3.441046e+004
3.215294e+002, 3.441583e+004
3.220115e+002, 3.441763e+004
3.224937e+002, 3.441140e+004
3.229758e+002, 3.439342e+004
3.234579e+002, 3.436819e+004
3.239400e+002, 3.434681e+004
3.244221e+002, 3.432723e+004
3.249042e+002, 3.431461e+004
3.253864e+002, 3.431625e+004
3.258685e+002, 3.432545e+004
3.263506e+002, 3.432831e+004
3.268327e+002, 3.431945e+004
3.273148e+002, 3.430735e+004
3.277969e+002, 3.430715e+004
3.282791e+002, 3.432165e+004
3.287612e+002, 3.433014e+004
3.292433e+002, 3.432307e+004
3.297254e+002, 3.431077e+004
3.302075e+002, 3.430548e+004
3.306896e+002, 3.430934e+004
3.311718e+002, 3.431619e+004
3.316539e+002, 3.431920e+004
3.321360e+002, 3.431804e+004
3.326181e+002, 3.432331e+004
3.331002e+002, 3.434430e+004
3.335823e+002, 3.436498e+004
3.340645e+002, 3.437020e+004
3.345466e+002, 3.436158e+004
3.350287e+002, 3.435555e+004
3.355108e+002, 3.436390e+004
3.359929e+002, 3.438480e+004
3.364750e+002, 3.440289e+004
3.369572e+002, 3.441496e+004
3.374393e+002, 3.442777e+004
3.379214e+002, 3.444437e+004
3.384035e+002, 3.446381e+004
3.388856e+002, 3.448417e+004
3.393677e+002, 3.450488e+004
3.398499e+002, 3.452493e+004
3.403320e+002, 3.454116e+004
3.408141e+002, 3.455093e+004
3.412962e+002, 3.456198e+004
3.417783e+002, 3.457309e+004
3.422604e+002, 3.458718e+004
3.427426e+002, 3.460993e+004
3.432247e+002, 3.464291e+004
3.437068e+002, 3.467918e+004
3.441889e+002, 3.470943e+004
3.446710e+002, 3.473241e+004
3.451531e+002, 3.475161e+004
3.456353e+002, 3.476393e+004
3.461174e+002, 3.477468e+004
3.465995e+002, 3.479166e+004
3.470816e+002, 3.481349e+004
3.475637e+002, 3.482942e+004
3.480458e+002, 3.483108e+004
3.485280e+002, 3.481819e+004
3.490101e+002, 3.478362e+004
3.494922e+002, 3.472050e+004
3.499743e+002, 3.464707e+004
3.504564e+002, 3.456598e+004
3.509385e+002, 3.448121e+004
3.514207e+002, 3.439832e+004
3.519028e+002, 3.432046e+004
3.523849e+002, 3.424846e+004
3.528670e+002, 3.418548e+004
3.533491e+002, 3.412570e+004
3.538312e+002, 3.408226e+004
3.543134e+002, 3.406878e+004
3.547955e+002, 3.406794e+004
3.552776e+002, 3.405987e+004
3.557597e+002, 3.403768e+004
3.562418e+002, 3.400739e+004
3.567239e+002, 3.397829e+004
3.572061e+002, 3.394624e+004
3.576882e+002, 3.392504e+004
3.581703e+002, 3.392027e+004
3.586524e+002, 3.392081e+004
3.591345e+002, 3.392038e+004
3.596166e+002, 3.391764e+004
3.600987e+002, 3.391362e+004
3.605808e+002, 3.390951e+004
3.610630e+002, 3.390556e+004
3.615451e+002, 3.389757e+004
3.620272e+002, 3.387811e+004
3.625093e+002, 3.386237e+004
3.629914e+002, 3.386001e+004
3.634735e+002, 3.386475e+004
3.639557e+002, 3.386412e+004
3.644378e+002, 3.385018e+004
3.649199e+002, 3.382634e+004
3.654020e+002, 3.380688e+004
3.658841e+002, 3.379312e+004
3.663662e+002, 3.378283e+004
3.668484e+002, 3.377408e+004
3.673305e+002, 3.376944e+004
3.678126e+002, 3.377382e+004
3.682947e+002, 3.378812e+004
3.687768e+002, 3.380495e+004
3.692589e+002, 3.381306e+004
3.697411e+002, 3.381109e+004
3.702232e+002, 3.380359e+004
3.707053e+002, 3.378567e+004
3.711874e+002, 3.376678e+004
3.716695e+002, 3.374970e+004
3.721516e+002, 3.373576e+004
3.726338e+002, 3.372661e+004
3.731159e+002, 3.372487e+004
3.735980e+002, 3.373023e+004
3.740801e+002, 3.373339e+004
3.745622e+002, 3.373021e+004
3.750443e+002, 3.372988e+004
3.755265e+002, 3.373925e+004
3.760086e+002, 3.375236e+004
3.764907e+002, 3.375943e+004
3.769728e+002, 3.375475e+004
3.774549e+002, 3.374368e+004
3.779370e+002, 3.373766e+004
3.784192e+002, 3.373700e+004
3.789013e+002, 3.374080e+004
3.793834e+002, 3.375423e+004
3.798655e+002, 3.376882e+004
3.803476e+002, 3.377632e+004
3.808297e+002, 3.377528e+004
3.813119e+002, 3.377487e+004
3.817940e+002, 3.378572e+004
3.822761e+002, 3.380764e+004
3.827582e+002, 3.382736e+004
3.832403e+002, 3.384117e+004
3.837224e+002, 3.385507e+004
3.842046e+002, 3.387345e+004
3.846867e+002, 3.389537e+004
3.851688e+002, 3.391786e+004
3.856509e+002, 3.393570e+004
3.861330e+002, 3.395335e+004
3.866151e+002, 3.398386e+004
3.870973e+002, 3.403125e+004
3.875794e+002, 3.407609e+004
3.880615e+002, 3.410222e+004
3.885436e+002, 3.412002e+004
3.890257e+002, 3.414409e+004
3.895078e+002, 3.417795e+004
3.899900e+002, 3.421671e+004
3.904721e+002, 3.425746e+004
3.909542e+002, 3.429990e+004
3.914363e+002, 3.434124e+004
3.919184e+002, 3.438035e+004
3.924005e+002, 3.441816e+004
3.928827e+002, 3.445736e+004
3.933648e+002, 3.449862e+004
3.938469e+002, 3.453530e+004
3.943290e+002, 3.456252e+004
3.948111e+002, 3.458447e+004
3.952932e+002, 3.460707e+004
3.957754e+002, 3.463150e+004
3.962575e+002, 3.465752e+004
3.967396e+002, 3.468954e+004
3.972217e+002, 3.472521e+004
3.977038e+002, 3.474314e+004
3.981859e+002, 3.473459e+004
3.986681e+002, 3.471528e+004
3.991501e+002, 3.469363e+004
3.996323e+002, 3.466964e+004
4.001144e+002, 3.464239e+004
4.005965e+002, 3.461165e+004
4.010786e+002, 3.457677e+004
4.015607e+002, 3.453564e+004
4.020428e+002, 3.448541e+004
4.025250e+002, 3.443455e+004
4.030071e+002, 3.438567e+004
4.034892e+002, 3.433607e+004
4.039713e+002, 3.428177e+004
4.044534e+002, 3.422233e+004
4.049355e+002, 3.416190e+004
4.054177e+002, 3.410513e+004
4.058998e+002, 3.405262e+004
4.063819e+002, 3.400334e+004
4.068640e+002, 3.396129e+004
4.073461e+002, 3.391855e+004
4.078282e+002, 3.386689e+004
4.083104e+002, 3.381102e+004
4.087925e+002, 3.376277e+004
4.092746e+002, 3.372940e+004
4.097567e+002, 3.370850e+004
4.102388e+002, 3.368823e+004
4.107209e+002, 3.367520e+004
4.112031e+002, 3.365372e+004
4.116852e+002, 3.361285e+004
4.121673e+002, 3.356838e+004
4.126494e+002, 3.353661e+004
4.131315e+002, 3.352111e+004
4.136136e+002, 3.351183e+004
4.140958e+002, 3.349537e+004
4.145779e+002, 3.346948e+004
4.150600e+002, 3.344525e+004
4.155421e+002, 3.342423e+004
4.160242e+002, 3.340373e+004
4.165063e+002, 3.338205e+004
4.169885e+002, 3.336005e+004
4.174706e+002, 3.333932e+004
4.179527e+002, 3.331883e+004
4.184348e+002, 3.330208e+004
4.189169e+002, 3.330319e+004
4.193990e+002, 3.333233e+004
4.198812e+002, 3.335695e+004
4.203633e+002, 3.336485e+004
4.208454e+002, 3.336507e+004
4.213275e+002, 3.336586e+004
4.218096e+002, 3.336926e+004
4.222917e+002, 3.337000e+004
4.227739e+002, 3.336054e+004
4.232560e+002, 3.334139e+004
4.237381e+002, 3.332479e+004
4.242202e+002, 3.331000e+004
4.247023e+002, 3.330169e+004
4.251844e+002, 3.330649e+004
4.256666e+002, 3.332067e+004
4.261487e+002, 3.333094e+004
4.266308e+002, 3.332802e+004
4.271129e+002, 3.331958e+004
4.275950e+002, 3.331603e+004
4.280771e+002, 3.331740e+004
4.285593e+002, 3.332469e+004
4.290414e+002, 3.334363e+004
4.295235e+002, 3.336639e+004
4.300056e+002, 3.337625e+004
4.304877e+002, 3.337009e+004
4.309698e+002, 3.335859e+004
4.314520e+002, 3.334296e+004
4.319341e+002, 3.332658e+004
4.324162e+002, 3.331639e+004
4.328983e+002, 3.331449e+004
4.333804e+002, 3.331739e+004
4.338625e+002, 3.332246e+004
4.343447e+002, 3.333032e+004
4.348268e+002, 3.333363e+004
4.353089e+002, 3.332836e+004
4.357910e+002, 3.332155e+004
4.362731e+002, 3.331533e+004
4.367552e+002, 3.331111e+004
4.372374e+002, 3.331343e+004
4.377195e+002, 3.332600e+004
4.382016e+002, 3.334486e+004
4.386837e+002, 3.335488e+004
4.391658e+002, 3.334343e+004
4.396479e+002, 3.333933e+004
4.401301e+002, 3.334410e+004
4.406122e+002, 3.335739e+004
4.410943e+002, 3.338490e+004
4.415764e+002, 3.342466e+004
4.420585e+002, 3.346133e+004
4.425406e+002, 3.347681e+004
4.430227e+002, 3.346901e+004
4.435049e+002, 3.345648e+004
4.439870e+002, 3.342814e+004
4.444691e+002, 3.340688e+004
4.449512e+002, 3.340582e+004
4.454333e+002, 3.341565e+004
4.459154e+002, 3.342105e+004
4.463976e+002, 3.341412e+004
4.468797e+002, 3.339858e+004
4.473618e+002, 3.338208e+004
4.478439e+002, 3.336409e+004
4.483260e+002, 3.334638e+004
4.488081e+002, 3.332988e+004
4.492903e+002, 3.331302e+004
4.497724e+002, 3.329043e+004
4.502545e+002, 3.326390e+004
4.507366e+002, 3.324636e+004
4.512187e+002, 3.325666e+004
4.517008e+002, 3.328586e+004
4.521830e+002, 3.329371e+004
4.526651e+002, 3.327278e+004
4.531472e+002, 3.324691e+004
4.536293e+002, 3.322376e+004
4.541114e+002, 3.320593e+004
4.545935e+002, 3.319939e+004
4.550757e+002, 3.320869e+004
4.555578e+002, 3.322292e+004
4.560399e+002, 3.323680e+004
4.565220e+002, 3.324891e+004
4.570041e+002, 3.325235e+004
4.574862e+002, 3.324345e+004
4.579684e+002, 3.322893e+004
4.584505e+002, 3.321828e+004
4.589326e+002, 3.321177e+004
4.594147e+002, 3.320005e+004
4.598968e+002, 3.317803e+004
4.603789e+002, 3.315290e+004
4.608611e+002, 3.313248e+004
4.613432e+002, 3.311585e+004
4.618253e+002, 3.309428e+004
4.623074e+002, 3.306066e+004
4.627895e+002, 3.301983e+004
4.632716e+002, 3.299107e+004
4.637538e+002, 3.298568e+004
4.642359e+002, 3.297681e+004
4.647180e+002, 3.295942e+004
4.652001e+002, 3.293804e+004
4.656822e+002, 3.291348e+004
4.661643e+002, 3.288765e+004
4.666465e+002, 3.286966e+004
4.671286e+002, 3.287155e+004
4.676107e+002, 3.289648e+004
4.680928e+002, 3.290904e+004
4.685749e+002, 3.290156e+004
4.690570e+002, 3.288905e+004
4.695392e+002, 3.286999e+004
4.700213e+002, 3.284963e+004
4.705034e+002, 3.283639e+004
4.709855e+002, 3.283422e+004
4.714676e+002, 3.283607e+004
4.719497e+002, 3.282863e+004
4.724319e+002, 3.280933e+004
4.729140e+002, 3.279268e+004
4.733961e+002, 3.278630e+004
4.738782e+002, 3.277865e+004
4.743603e+002, 3.276011e+004
4.748424e+002, 3.273369e+004
4.753246e+002, 3.271188e+004
4.758067e+002, 3.270682e+004
4.762888e+002, 3.270998e+004
4.767709e+002, 3.270133e+004
4.772530e+002, 3.267916e+004
4.777351e+002, 3.265646e+004
4.782173e+002, 3.263652e+004
4.786994e+002, 3.262142e+004
4.791815e+002, 3.261502e+004
4.796636e+002, 3.261998e+004
4.801457e+002, 3.262423e+004
4.806278e+002, 3.261784e+004
4.811100e+002, 3.260752e+004
4.815920e+002, 3.260861e+004
4.820742e+002, 3.262432e+004
4.825563e+002, 3.263746e+004
4.830384e+002, 3.263161e+004
4.835205e+002, 3.260660e+004
4.840026e+002, 3.258474e+004
4.844847e+002, 3.256321e+004
4.849669e+002, 3.254738e+004
4.854490e+002, 3.254147e+004
4.859311e+002, 3.254215e+004
4.864132e+002, 3.254523e+004
4.868953e+002, 3.254906e+004
4.873774e+002, 3.255049e+004
4.878596e+002, 3.254407e+004
4.883417e+002, 3.252657e+004
4.888238e+002, 3.250963e+004
4.893059e+002, 3.249184e+004
4.897880e+002, 3.247604e+004
4.902701e+002, 3.246500e+004
4.907523e+002, 3.245721e+004
4.912344e+002, 3.244911e+004
4.917165e+002, 3.243851e+004
4.921986e+002, 3.242666e+004
4.926807e+002, 3.241702e+004
4.931628e+002, 3.241045e+004
4.936450e+002, 3.240401e+004
4.941271e+002, 3.239923e+004
4.946092e+002, 3.239294e+004
4.950913e+002, 3.238300e+004
4.955734e+002, 3.236929e+004
4.960555e+002, 3.235268e+004
4.965377e+002, 3.233128e+004
4.970198e+002, 3.230770e+004
4.975019e+002, 3.228949e+004
4.979840e+002, 3.227737e+004
4.984661e+002, 3.226800e+004
4.989482e+002, 3.226344e+004
4.994304e+002, 3.225866e+004
4.999125e+002, 3.224316e+004
5.003946e+002, 3.221068e+004
5.008767e+002, 3.218155e+004
5.013588e+002, 3.216593e+004
5.018409e+002, 3.216035e+004
5.023231e+002, 3.216134e+004
5.028052e+002, 3.216837e+004
5.032873e+002, 3.217262e+004
5.037694e+002, 3.216514e+004
5.042515e+002, 3.214536e+004
5.047336e+002, 3.212665e+004
5.052158e+002, 3.210552e+004
5.056979e+002, 3.208926e+004
5.061800e+002, 3.208328e+004
5.066621e+002, 3.208294e+004
5.071442e+002, 3.208160e+004
5.076263e+002, 3.207677e+004
5.081085e+002, 3.207003e+004
5.085906e+002, 3.206361e+004
5.090727e+002, 3.205725e+004
5.095548e+002, 3.205173e+004
5.100369e+002, 3.205177e+004
5.105190e+002, 3.204769e+004
5.110012e+002, 3.203051e+004
5.114833e+002, 3.200704e+004
5.119654e+002, 3.199023e+004
5.124475e+002, 3.198685e+004
5.129296e+002, 3.199206e+004
5.134117e+002, 3.200104e+004
5.138939e+002, 3.201608e+004
5.143760e+002, 3.201666e+004
5.148581e+002, 3.198740e+004
5.153402e+002, 3.195300e+004
5.158223e+002, 3.193518e+004
5.163044e+002, 3.193193e+004
5.167866e+002, 3.192796e+004
5.172687e+002, 3.191483e+004
5.177508e+002, 3.189877e+004
5.182329e+002, 3.188812e+004
5.187150e+002, 3.188266e+004
5.191971e+002, 3.187733e+004
5.196793e+002, 3.186992e+004
5.201614e+002, 3.186099e+004
5.206435e+002, 3.185221e+004
5.211256e+002, 3.184475e+004
5.216077e+002, 3.183398e+004
5.220898e+002, 3.181728e+004
5.225720e+002, 3.179819e+004
5.230541e+002, 3.177792e+004
5.235362e+002, 3.175787e+004
5.240183e+002, 3.174122e+004
5.245004e+002, 3.173019e+004
5.249825e+002, 3.172481e+004
5.254647e+002, 3.172598e+004
5.259468e+002, 3.174873e+004
5.264289e+002, 3.175595e+004
5.269110e+002, 3.173371e+004
5.273931e+002, 3.170318e+004
5.278752e+002, 3.168056e+004
5.283574e+002, 3.166821e+004
5.288395e+002, 3.165998e+004
5.293216e+002, 3.165103e+004
5.298037e+002, 3.164166e+004
5.302858e+002, 3.163380e+004
5.307679e+002, 3.162855e+004
5.312501e+002, 3.162235e+004
5.317322e+002, 3.161243e+004
5.322143e+002, 3.160130e+004
5.326964e+002, 3.159123e+004
5.331785e+002, 3.158254e+004
5.336606e+002, 3.157482e+004
5.341428e+002, 3.156900e+004
5.346249e+002, 3.156363e+004
5.351070e+002, 3.155441e+004
5.355891e+002, 3.154031e+004
5.360712e+002, 3.152813e+004
5.365533e+002, 3.152462e+004
5.370355e+002, 3.152757e+004
5.375176e+002, 3.152327e+004
5.379997e+002, 3.150181e+004
5.384818e+002, 3.148588e+004
5.389639e+002, 3.148521e+004
5.394460e+002, 3.149206e+004
5.399282e+002, 3.150005e+004
5.404103e+002, 3.150642e+004
5.408924e+002, 3.150502e+004
5.413745e+002, 3.148747e+004
5.418566e+002, 3.145302e+004
5.423387e+002, 3.142918e+004
5.428209e+002, 3.142307e+004
5.433029e+002, 3.141988e+004
5.437850e+002, 3.141789e+004
5.442672e+002, 3.141674e+004
5.447493e+002, 3.141798e+004
5.452314e+002, 3.142163e+004
5.457135e+002, 3.142173e+004
5.461956e+002, 3.140938e+004
5.466777e+002, 3.138585e+004
5.471599e+002, 3.136647e+004
5.476420e+002, 3.135271e+004
5.481241e+002, 3.134187e+004
5.486062e+002, 3.133374e+004
5.490883e+002, 3.132725e+004
5.495704e+002, 3.132039e+004
5.500526e+002, 3.131159e+004
5.505347e+002, 3.130520e+004
5.510168e+002, 3.130779e+004
5.514989e+002, 3.131406e+004
5.519810e+002, 3.131241e+004
5.524631e+002, 3.130031e+004
5.529453e+002, 3.128357e+004
5.534274e+002, 3.126675e+004
5.539095e+002, 3.124974e+004
5.543916e+002, 3.123548e+004
5.548737e+002, 3.122279e+004
5.553558e+002, 3.121362e+004
5.558380e+002, 3.120984e+004
5.563201e+002, 3.120913e+004
5.568022e+002, 3.121106e+004
5.572843e+002, 3.121445e+004
5.577664e+002, 3.121342e+004
5.582485e+002, 3.119950e+004
5.587307e+002, 3.117212e+004
5.592128e+002, 3.115003e+004
5.596949e+002, 3.113415e+004
5.601770e+002, 3.112308e+004
5.606591e+002, 3.112019e+004
5.611412e+002, 3.111954e+004
5.616234e+002, 3.111283e+004
5.621055e+002, 3.109747e+004
5.625876e+002, 3.108218e+004
5.630697e+002, 3.107532e+004
5.635518e+002, 3.107474e+004
5.640339e+002, 3.107358e+004
5.645161e+002, 3.107126e+004
5.649982e+002, 3.106702e+004
5.654803e+002, 3.105791e+004
5.659624e+002, 3.104656e+004
5.664445e+002, 3.104374e+004
5.669266e+002, 3.105818e+004
5.674088e+002, 3.106865e+004
5.678909e+002, 3.106723e+004
5.683730e+002, 3.105819e+004
5.688551e+002, 3.104411e+004
5.693372e+002, 3.102687e+004
5.698193e+002, 3.101273e+004
5.703015e+002, 3.100882e+004
5.707836e+002, 3.101415e+004
5.712657e+002, 3.101026e+004
5.717478e+002, 3.098057e+004
5.722299e+002, 3.096404e+004
5.727120e+002, 3.097717e+004
5.731942e+002, 3.099879e+004
5.736763e+002, 3.101013e+004
5.741584e+002, 3.100799e+004
5.746405e+002, 3.099976e+004
5.751226e+002, 3.098976e+004
5.756047e+002, 3.097870e+004
5.760869e+002, 3.097037e+004
5.765690e+002, 3.096563e+004
5.770511e+002, 3.095958e+004
5.775332e+002, 3.094909e+004
5.780153e+002, 3.093633e+004
5.784974e+002, 3.092511e+004
5.789796e+002, 3.091588e+004
5.794617e+002, 3.090638e+004
5.799438e+002, 3.089677e+004
5.804259e+002, 3.088595e+004
5.809080e+002, 3.087231e+004
5.813901e+002, 3.085606e+004
5.818723e+002, 3.083786e+004
5.823544e+002, 3.081737e+004
5.828365e+002, 3.079693e+004
5.833186e+002, 3.078423e+004
5.838007e+002, 3.078348e+004
5.842828e+002, 3.078497e+004
5.847650e+002, 3.079723e+004
5.852471e+002, 3.080453e+004
5.857292e+002, 3.079412e+004
5.862113e+002, 3.076914e+004
5.866934e+002, 3.074063e+004
5.871755e+002, 3.071334e+004
5.876577e+002, 3.069094e+004
5.881398e+002, 3.068475e+004
5.886219e+002, 3.069739e+004
5.891040e+002, 3.070784e+004
5.895861e+002, 3.071010e+004
5.900682e+002, 3.070939e+004
5.905504e+002, 3.071241e+004
5.910325e+002, 3.071783e+004
5.915146e+002, 3.071676e+004
5.919967e+002, 3.070193e+004
5.924788e+002, 3.068328e+004
5.929609e+002, 3.066671e+004
5.934431e+002, 3.065321e+004
5.939252e+002, 3.064669e+004
5.944073e+002, 3.064908e+004
5.948894e+002, 3.065346e+004
5.953715e+002, 3.064845e+004
5.958536e+002, 3.062806e+004
5.963358e+002, 3.062631e+004
5.968179e+002, 3.067002e+004
5.973000e+002, 3.069993e+004
5.977821e+002, 3.068657e+004
5.982642e+002, 3.064946e+004
5.987463e+002, 3.061600e+004
5.992285e+002, 3.059566e+004
5.997106e+002, 3.058237e+004
6.001927e+002, 3.056725e+004
6.006748e+002, 3.055060e+004
6.011569e+002, 3.054600e+004
6.016390e+002, 3.056029e+004
6.021212e+002, 3.057303e+004
6.026033e+002, 3.057008e+004
6.030854e+002, 3.055869e+004
6.035675e+002, 3.055015e+004
6.040496e+002, 3.054780e+004
6.045317e+002, 3.054212e+004
6.050139e+002, 3.052554e+004
6.054960e+002, 3.050388e+004
6.059781e+002, 3.048433e+004
6.064602e+002, 3.046828e+004
6.069423e+002, 3.045803e+004
6.074244e+002, 3.045713e+004
6.079066e+002, 3.046163e+004
6.083887e+002, 3.045293e+004
6.088708e+002, 3.041463e+004
6.093529e+002, 3.038686e+004
6.098350e+002, 3.037667e+004
6.103171e+002, 3.037284e+004
6.107993e+002, 3.036961e+004
6.112814e+002, 3.036562e+004
6.117635e+002, 3.036050e+004
6.122456e+002, 3.035401e+004
6.127277e+002, 3.034612e+004
6.132098e+002, 3.033682e+004
6.136920e+002, 3.032604e+004
6.141741e+002, 3.031253e+004
6.146562e+002, 3.029394e+004
6.151383e+002, 3.027490e+004
6.156204e+002, 3.026076e+004
6.161025e+002, 3.025051e+004
6.165847e+002, 3.023857e+004
6.170668e+002, 3.022097e+004
6.175489e+002, 3.020408e+004
6.180310e+002, 3.019147e+004
6.185131e+002, 3.018260e+004
6.189952e+002, 3.017912e+004
6.194774e+002, 3.018101e+004
6.199595e+002, 3.017776e+004
6.204416e+002, 3.015424e+004
6.209237e+002, 3.010776e+004
6.214058e+002, 3.008171e+004
6.218879e+002, 3.009460e+004
6.223701e+002, 3.010621e+004
6.228522e+002, 3.011227e+004
6.233343e+002, 3.011101e+004
6.238164e+002, 3.009714e+004
6.242985e+002, 3.007116e+004
6.247806e+002, 3.004708e+004
6.252628e+002, 3.003966e+004
6.257448e+002, 3.004241e+004
6.262269e+002, 3.003745e+004
6.267090e+002, 3.002382e+004
6.271912e+002, 3.000861e+004
6.276733e+002, 2.999234e+004
6.281554e+002, 2.997886e+004
6.286375e+002, 2.997893e+004
6.291196e+002, 2.999747e+004
6.296017e+002, 3.000407e+004
6.300839e+002, 2.998703e+004
6.305660e+002, 2.996297e+004
6.310481e+002, 2.993780e+004
6.315302e+002, 2.991534e+004
6.320123e+002, 2.990269e+004
6.324944e+002, 2.990315e+004
6.329766e+002, 2.991004e+004
6.334587e+002, 2.991347e+004
6.339408e+002, 2.991421e+004
6.344229e+002, 2.990670e+004
6.349050e+002, 2.988194e+004
6.353871e+002, 2.986076e+004
6.358693e+002, 2.985532e+004
6.363514e+002, 2.985788e+004
6.368335e+002, 2.985690e+004
6.373156e+002, 2.984953e+004
6.377977e+002, 2.983932e+004
6.382798e+002, 2.982753e+004
6.387620e+002, 2.981518e+004
6.392441e+002, 2.980383e+004
6.397262e+002, 2.979380e+004
6.402083e+002, 2.978499e+004
6.406904e+002, 2.977744e+004
6.411725e+002, 2.977096e+004
6.416547e+002, 2.976494e+004
6.421368e+002, 2.976360e+004
6.426189e+002, 2.975596e+004
6.431010e+002, 2.973595e+004
6.435831e+002, 2.971494e+004
6.440652e+002, 2.969928e+004
6.445474e+002, 2.968869e+004
6.450295e+002, 2.968096e+004
6.455116e+002, 2.967548e+004
6.459937e+002, 2.966994e+004
6.464758e+002, 2.966175e+004
6.469579e+002, 2.965091e+004
6.474401e+002, 2.963234e+004
6.479222e+002, 2.960084e+004
6.484043e+002, 2.957147e+004
6.488864e+002, 2.955842e+004
6.493685e+002, 2.955704e+004
6.498506e+002, 2.955304e+004
6.503328e+002, 2.954478e+004
6.508149e+002, 2.953517e+004
6.512970e+002, 2.952437e+004
6.517791e+002, 2.951365e+004
6.522612e+002, 2.950533e+004
6.527433e+002, 2.949917e+004
6.532255e+002, 2.949138e+004
6.537076e+002, 2.947824e+004
6.541897e+002, 2.946317e+004
6.546718e+002, 2.946040e+004
6.551539e+002, 2.947711e+004
6.556360e+002, 2.948826e+004
6.561182e+002, 2.948590e+004
6.566003e+002, 2.948041e+004
6.570824e+002, 2.947493e+004
6.575645e+002, 2.947054e+004
6.580466e+002, 2.947047e+004
6.585287e+002, 2.948021e+004
6.590109e+002, 2.948744e+004
6.594930e+002, 2.947720e+004
6.599751e+002, 2.945516e+004
6.604572e+002, 2.943796e+004
6.609393e+002, 2.942929e+004
6.614214e+002, 2.942071e+004
6.619036e+002, 2.940379e+004
6.623857e+002, 2.937996e+004
6.628678e+002, 2.936394e+004
6.633499e+002, 2.936517e+004
6.638320e+002, 2.936240e+004
6.643141e+002, 2.935001e+004
6.647963e+002, 2.933630e+004
6.652784e+002, 2.932729e+004
6.657605e+002, 2.932339e+004
6.662426e+002, 2.932303e+004
6.667247e+002, 2.932702e+004
6.672068e+002, 2.933106e+004
6.676890e+002, 2.932757e+004
6.681711e+002, 2.931668e+004
6.686532e+002, 2.929874e+004
6.691353e+002, 2.926965e+004
6.696174e+002, 2.924387e+004
6.700995e+002, 2.923894e+004
6.705817e+002, 2.925202e+004
6.710638e+002, 2.925365e+004
6.715459e+002, 2.923529e+004
6.720280e+002, 2.921506e+004
6.725101e+002, 2.919390e+004
6.729922e+002, 2.917652e+004
6.734744e+002, 2.917136e+004
6.739565e+002, 2.917671e+004
6.744386e+002, 2.917977e+004
6.749207e+002, 2.917001e+004
6.754028e+002, 2.915196e+004
6.758849e+002, 2.914082e+004
6.763671e+002, 2.913839e+004
6.768492e+002, 2.913466e+004
6.773313e+002, 2.912388e+004
6.778134e+002, 2.911571e+004
6.782955e+002, 2.912386e+004
6.787776e+002, 2.914184e+004
6.792598e+002, 2.914573e+004
6.797419e+002, 2.912396e+004
6.802240e+002, 2.909485e+004
6.807061e+002, 2.906015e+004
6.811882e+002, 2.902863e+004
6.816703e+002, 2.901837e+004
6.821525e+002, 2.903005e+004
6.826346e+002, 2.904319e+004
6.831167e+002, 2.904101e+004
6.835988e+002, 2.902647e+004
6.840809e+002, 2.901368e+004
6.845630e+002, 2.900236e+004
6.850452e+002, 2.899356e+004
6.855273e+002, 2.898633e+004
6.860094e+002, 2.898271e+004
6.864915e+002, 2.898993e+004
6.869736e+002, 2.900197e+004
6.874557e+002, 2.900091e+004
6.879379e+002, 2.897409e+004
6.884200e+002, 2.894225e+004
6.889021e+002, 2.892194e+004
6.893842e+002, 2.891085e+004
6.898663e+002, 2.890593e+004
6.903484e+002, 2.890630e+004
6.908306e+002, 2.890615e+004
6.913127e+002, 2.890130e+004
6.917948e+002, 2.889195e+004
6.922769e+002, 2.887848e+004
6.927590e+002, 2.885261e+004
6.932411e+002, 2.883659e+004
6.937233e+002, 2.884006e+004
6.942054e+002, 2.884572e+004
6.946875e+002, 2.884577e+004
6.951696e+002, 2.883939e+004
6.956517e+002, 2.882643e+004
6.961339e+002, 2.880560e+004
6.966160e+002, 2.878249e+004
6.970981e+002, 2.876159e+004
6.975802e+002, 2.874346e+004
6.980623e+002, 2.872995e+004
6.985444e+002, 2.872149e+004
6.990266e+002, 2.871638e+004
6.995087e+002, 2.871479e+004
6.999908e+002, 2.871454e+004
7.004729e+002, 2.870772e+004
7.009550e+002, 2.868580e+004
7.014371e+002, 2.866976e+004
7.019193e+002, 2.866241e+004
7.024014e+002, 2.865835e+004
7.028835e+002, 2.865781e+004
7.033656e+002, 2.865741e+004
7.038477e+002, 2.864942e+004
7.043298e+002, 2.862974e+004
7.048120e+002, 2.861001e+004
7.052941e+002, 2.860865e+004
7.057762e+002, 2.862104e+004
7.062583e+002, 2.862339e+004
7.067404e+002, 2.861280e+004
7.072225e+002, 2.859774e+004
7.077046e+002, 2.858114e+004
7.081867e+002, 2.856478e+004
7.086688e+002, 2.855396e+004
7.091509e+002, 2.855372e+004
7.096331e+002, 2.854554e+004
7.101152e+002, 2.851469e+004
7.105973e+002, 2.848833e+004
7.110794e+002, 2.848759e+004
7.115615e+002, 2.850130e+004
7.120436e+002, 2.850809e+004
7.125258e+002, 2.850021e+004
7.130079e+002, 2.848731e+004
7.134900e+002, 2.848048e+004
7.139721e+002, 2.847846e+004
7.144542e+002, 2.847621e+004
7.149363e+002, 2.847503e+004
7.154185e+002, 2.846348e+004
7.159006e+002, 2.843007e+004
7.163827e+002, 2.839013e+004
7.168648e+002, 2.837160e+004
7.173469e+002, 2.837858e+004
7.178290e+002, 2.838027e+004
7.183112e+002, 2.837023e+004
7.187933e+002, 2.835864e+004
7.192754e+002, 2.835105e+004
7.197575e+002, 2.834490e+004
7.202396e+002, 2.833614e+004
7.207217e+002, 2.832373e+004
7.212039e+002, 2.830901e+004
7.216860e+002, 2.829273e+004
7.221681e+002, 2.827532e+004
7.226502e+002, 2.825991e+004
7.231323e+002, 2.824736e+004
7.236144e+002, 2.822778e+004
7.240966e+002, 2.819258e+004
7.245787e+002, 2.815763e+004
7.250608e+002, 2.814528e+004
7.255429e+002, 2.815495e+004
7.260250e+002, 2.815535e+004
7.265071e+002, 2.813909e+004
7.269893e+002, 2.812062e+004
7.274714e+002, 2.810029e+004
7.279535e+002, 2.808354e+004
7.284356e+002, 2.807858e+004
7.289177e+002, 2.808458e+004
7.293998e+002, 2.809272e+004
7.298820e+002, 2.809773e+004
7.303641e+002, 2.809838e+004
7.308462e+002, 2.808882e+004
7.313283e+002, 2.806836e+004
7.318104e+002, 2.805593e+004
7.322925e+002, 2.805742e+004
7.327747e+002, 2.806183e+004
7.332568e+002, 2.806003e+004
7.337389e+002, 2.805322e+004
7.342210e+002, 2.804881e+004
7.347031e+002, 2.804599e+004
7.351852e+002, 2.804629e+004
7.356674e+002, 2.805773e+004
7.361495e+002, 2.806595e+004
7.366316e+002, 2.805617e+004
7.371137e+002, 2.803261e+004
7.375958e+002, 2.801020e+004
7.380779e+002, 2.799648e+004
7.385601e+002, 2.798417e+004
7.390422e+002, 2.795868e+004
7.395243e+002, 2.792255e+004
7.400064e+002, 2.790179e+004
7.404885e+002, 2.790202e+004
7.409706e+002, 2.790198e+004
7.414528e+002, 2.788948e+004
7.419349e+002, 2.786977e+004
7.424170e+002, 2.785488e+004
7.428991e+002, 2.784775e+004
7.433812e+002, 2.783563e+004
7.438633e+002, 2.781258e+004
7.443455e+002, 2.778974e+004
7.448276e+002, 2.777386e+004
7.453097e+002, 2.776188e+004
7.457918e+002, 2.774660e+004
7.462739e+002, 2.772698e+004
7.467560e+002, 2.771278e+004
7.472382e+002, 2.772037e+004
7.477203e+002, 2.773973e+004
7.482024e+002, 2.773609e+004
7.486845e+002, 2.770885e+004
7.491666e+002, 2.768676e+004
7.496487e+002, 2.768023e+004
7.501309e+002, 2.768042e+004
7.506130e+002, 2.767708e+004
7.510951e+002, 2.766976e+004
7.515772e+002, 2.766540e+004
7.520593e+002, 2.766641e+004
7.525414e+002, 2.766632e+004
7.530236e+002, 2.766421e+004
7.535057e+002, 2.765941e+004
7.539878e+002, 2.764710e+004
7.544699e+002, 2.763055e+004
7.549520e+002, 2.762285e+004
7.554341e+002, 2.763461e+004
7.559163e+002, 2.765125e+004
7.563984e+002, 2.765325e+004
7.568805e+002, 2.764238e+004
7.573626e+002, 2.762579e+004
7.578447e+002, 2.760440e+004
7.583268e+002, 2.758073e+004
7.588090e+002, 2.755562e+004
7.592911e+002, 2.753079e+004
7.597732e+002, 2.751153e+004
7.602553e+002, 2.749979e+004
7.607374e+002, 2.749132e+004
7.612195e+002, 2.749136e+004
7.617017e+002, 2.748995e+004
7.621838e+002, 2.748588e+004
7.626659e+002, 2.747653e+004
7.631480e+002, 2.745500e+004
7.636301e+002, 2.741889e+004
7.641122e+002, 2.738674e+004
7.645944e+002, 2.737344e+004
7.650765e+002, 2.737210e+004
7.655586e+002, 2.737450e+004
7.660407e+002, 2.737906e+004
7.665228e+002, 2.738045e+004
7.670049e+002, 2.737628e+004
7.674871e+002, 2.737024e+004
7.679692e+002, 2.736726e+004
7.684513e+002, 2.736719e+004
7.689334e+002, 2.736598e+004
7.694155e+002, 2.736084e+004
7.698976e+002, 2.735838e+004
7.703798e+002, 2.736212e+004
7.708619e+002, 2.736693e+004
7.713440e+002, 2.736984e+004
7.718261e+002, 2.737035e+004
7.723082e+002, 2.736768e+004
7.727903e+002, 2.736084e+004
7.732725e+002, 2.735181e+004
7.737546e+002, 2.734002e+004
7.742367e+002, 2.732798e+004
7.747188e+002, 2.732202e+004
7.752009e+002, 2.732126e+004
7.756830e+002, 2.731575e+004
7.761652e+002, 2.729853e+004
7.766473e+002, 2.727454e+004
7.771294e+002, 2.725535e+004
7.776115e+002, 2.724172e+004
7.780936e+002, 2.722811e+004
7.785757e+002, 2.721344e+004
7.790579e+002, 2.720038e+004
7.795400e+002, 2.719249e+004
7.800221e+002, 2.718631e+004
7.805042e+002, 2.717571e+004
7.809863e+002, 2.715932e+004
7.814684e+002, 2.714401e+004
7.819506e+002, 2.713163e+004
7.824327e+002, 2.712051e+004
7.829148e+002, 2.710899e+004
7.833969e+002, 2.709807e+004
7.838790e+002, 2.709054e+004
7.843611e+002, 2.708654e+004
7.848433e+002, 2.708172e+004
7.853254e+002, 2.707156e+004
7.858075e+002, 2.705784e+004
7.862896e+002, 2.704478e+004
7.867717e+002, 2.703231e+004
7.872538e+002, 2.702758e+004
7.877360e+002, 2.703590e+004
7.882181e+002, 2.704122e+004
7.887002e+002, 2.702560e+004
7.891823e+002, 2.699272e+004
7.896644e+002, 2.697441e+004
7.901465e+002, 2.698635e+004
7.906286e+002, 2.698961e+004
7.911107e+002, 2.697338e+004
7.915928e+002, 2.695508e+004
7.920750e+002, 2.694559e+004
7.925571e+002, 2.694302e+004
7.930392e+002, 2.694138e+004
7.935213e+002, 2.693858e+004
7.940034e+002, 2.693629e+004
7.944855e+002, 2.693896e+004
7.949677e+002, 2.694192e+004
7.954498e+002, 2.693440e+004
7.959319e+002, 2.691744e+004
7.964140e+002, 2.690174e+004
7.968961e+002, 2.689152e+004
7.973782e+002, 2.688581e+004
7.978604e+002, 2.688476e+004
7.983425e+002, 2.688881e+004
7.988246e+002, 2.688110e+004
7.993067e+002, 2.685082e+004
7.997888e+002, 2.682791e+004
8.002709e+002, 2.682626e+004
8.007531e+002, 2.682943e+004
8.012352e+002, 2.682737e+004
8.017173e+002, 2.681973e+004
8.021994e+002, 2.680710e+004
8.026815e+002, 2.678337e+004
8.031636e+002, 2.676395e+004
8.036458e+002, 2.675137e+004
8.041279e+002, 2.675129e+004
8.046100e+002, 2.678335e+004
8.050921e+002, 2.683615e+004
8.055742e+002, 2.686778e+004
8.060563e+002, 2.685453e+004
8.065385e+002, 2.682184e+004
8.070206e+002, 2.681199e+004
8.075027e+002, 2.682271e+004
8.079848e+002, 2.682002e+004
8.084669e+002, 2.680047e+004
8.089490e+002, 2.677832e+004
8.094312e+002, 2.675956e+004
8.099133e+002, 2.674194e+004
8.103954e+002, 2.672113e+004
8.108775e+002, 2.669567e+004
8.113596e+002, 2.667788e+004
8.118417e+002, 2.667440e+004
8.123239e+002, 2.667025e+004
8.128060e+002, 2.666063e+004
8.132881e+002, 2.664916e+004
8.137702e+002, 2.663636e+004
8.142523e+002, 2.662480e+004
8.147344e+002, 2.662324e+004
8.152166e+002, 2.664131e+004
8.156987e+002, 2.665974e+004
8.161808e+002, 2.665590e+004
8.166629e+002, 2.663770e+004
8.171450e+002, 2.662104e+004
8.176271e+002, 2.660818e+004
8.181093e+002, 2.659823e+004
8.185914e+002, 2.659057e+004
8.190735e+002, 2.658553e+004
8.195556e+002, 2.658533e+004
8.200377e+002, 2.659196e+004
8.205198e+002, 2.658790e+004
8.210020e+002, 2.656382e+004
8.214841e+002, 2.654621e+004
8.219662e+002, 2.655364e+004
8.224483e+002, 2.656613e+004
8.229304e+002, 2.655906e+004
8.234125e+002, 2.653311e+004
8.238947e+002, 2.651394e+004
8.243768e+002, 2.651272e+004
8.248589e+002, 2.651240e+004
8.253410e+002, 2.650306e+004
8.258231e+002, 2.649276e+004
8.263052e+002, 2.649519e+004
8.267874e+002, 2.650671e+004
8.272695e+002, 2.650827e+004
8.277516e+002, 2.648775e+004
8.282337e+002, 2.646009e+004
8.287158e+002, 2.644599e+004
8.291979e+002, 2.644294e+004
8.296801e+002, 2.644222e+004
8.301622e+002, 2.644304e+004
8.306443e+002, 2.643821e+004
8.311264e+002, 2.642273e+004
8.316085e+002, 2.640342e+004
8.320906e+002, 2.639176e+004
8.325728e+002, 2.638914e+004
8.330549e+002, 2.638297e+004
8.335370e+002, 2.636645e+004
8.340191e+002, 2.635593e+004
8.345012e+002, 2.636279e+004
8.349833e+002, 2.637044e+004
8.354655e+002, 2.636322e+004
8.359476e+002, 2.634362e+004
8.364297e+002, 2.632724e+004
8.369118e+002, 2.632030e+004
8.373939e+002, 2.631544e+004
8.378760e+002, 2.630842e+004
8.383582e+002, 2.630170e+004
8.388403e+002, 2.630091e+004
8.393224e+002, 2.630340e+004
8.398045e+002, 2.629843e+004
8.402866e+002, 2.628095e+004
8.407687e+002, 2.626156e+004
8.412509e+002, 2.625759e+004
8.417330e+002, 2.626541e+004
8.422151e+002, 2.626143e+004
8.426972e+002, 2.624420e+004
8.431793e+002, 2.623347e+004
8.436614e+002, 2.623815e+004
8.441436e+002, 2.624632e+004
8.446257e+002, 2.624286e+004
8.451078e+002, 2.622808e+004
8.455899e+002, 2.622338e+004
8.460720e+002, 2.624071e+004
8.465541e+002, 2.625007e+004
8.470363e+002, 2.624452e+004
8.475184e+002, 2.623423e+004
8.480005e+002, 2.622434e+004
8.484826e+002, 2.621475e+004
8.489647e+002, 2.620443e+004
8.494468e+002, 2.619319e+004
8.499290e+002, 2.618085e+004
8.504111e+002, 2.616381e+004
8.508932e+002, 2.614855e+004
8.513753e+002, 2.614619e+004
8.518574e+002, 2.615038e+004
8.523395e+002, 2.614467e+004
8.528217e+002, 2.612495e+004
8.533038e+002, 2.610165e+004
8.537859e+002, 2.608373e+004
8.542680e+002, 2.607164e+004
8.547501e+002, 2.607063e+004
8.552322e+002, 2.608076e+004
8.557144e+002, 2.607840e+004
8.561965e+002, 2.605678e+004
8.566786e+002, 2.603079e+004
8.571607e+002, 2.600977e+004
8.576428e+002, 2.599407e+004
8.581249e+002, 2.598557e+004
8.586071e+002, 2.599141e+004
8.590892e+002, 2.598851e+004
8.595713e+002, 2.596487e+004
8.600534e+002, 2.594634e+004
8.605355e+002, 2.594668e+004
8.610176e+002, 2.595415e+004
8.614998e+002, 2.595324e+004
8.619819e+002, 2.594268e+004
8.624640e+002, 2.593574e+004
8.629461e+002, 2.594581e+004
8.634282e+002, 2.595251e+004
8.639103e+002, 2.593710e+004
8.643925e+002, 2.591232e+004
8.648746e+002, 2.589738e+004
8.653567e+002, 2.589244e+004
8.658388e+002, 2.588469e+004
8.663209e+002, 2.586636e+004
8.668030e+002, 2.584452e+004
8.672852e+002, 2.582912e+004
8.677673e+002, 2.581982e+004
8.682494e+002, 2.581673e+004
8.687315e+002, 2.582020e+004
8.692136e+002, 2.581744e+004
8.696957e+002, 2.580155e+004
8.701779e+002, 2.578273e+004
8.706600e+002, 2.577529e+004
8.711421e+002, 2.577934e+004
8.716242e+002, 2.577872e+004
8.721063e+002, 2.577214e+004
8.725884e+002, 2.576308e+004
8.730705e+002, 2.575097e+004
8.735526e+002, 2.573749e+004
8.740347e+002, 2.572062e+004
8.745168e+002, 2.570349e+004
8.749990e+002, 2.569466e+004
8.754811e+002, 2.569999e+004
8.759632e+002, 2.569987e+004
8.764453e+002, 2.568134e+004
8.769274e+002, 2.566091e+004
8.774095e+002, 2.565086e+004
8.778917e+002, 2.564761e+004
8.783738e+002, 2.564488e+004
8.788559e+002, 2.564065e+004
8.793380e+002, 2.563426e+004
8.798201e+002, 2.562479e+004
8.803022e+002, 2.561341e+004
8.807844e+002, 2.559790e+004
8.812665e+002, 2.558193e+004
8.817486e+002, 2.558441e+004
8.822307e+002, 2.560675e+004
8.827128e+002, 2.561858e+004
8.831949e+002, 2.559870e+004
8.836771e+002, 2.556517e+004
8.841592e+002, 2.555867e+004
8.846413e+002, 2.558498e+004
8.851234e+002, 2.559276e+004
8.856055e+002, 2.557477e+004
8.860876e+002, 2.555546e+004
8.865698e+002, 2.554271e+004
8.870519e+002, 2.553262e+004
8.875340e+002, 2.551962e+004
8.880161e+002, 2.550422e+004
8.884982e+002, 2.549434e+004
8.889803e+002, 2.549857e+004
8.894625e+002, 2.549654e+004
8.899446e+002, 2.547612e+004
8.904267e+002, 2.545663e+004
8.909088e+002, 2.545479e+004
8.913909e+002, 2.546330e+004
8.918730e+002, 2.546576e+004
8.923552e+002, 2.545755e+004
8.928373e+002, 2.544908e+004
8.933194e+002, 2.545171e+004
8.938015e+002, 2.545370e+004
8.942836e+002, 2.544218e+004
8.947657e+002, 2.542048e+004
8.952479e+002, 2.539177e+004
8.957300e+002, 2.535961e+004
8.962121e+002, 2.533753e+004
8.966942e+002, 2.533733e+004
8.971763e+002, 2.534746e+004
8.976584e+002, 2.534287e+004
8.981406e+002, 2.532548e+004
8.986227e+002, 2.531736e+004
8.991048e+002, 2.532139e+004
8.995869e+002, 2.532063e+004
9.000690e+002, 2.530500e+004
9.005511e+002, 2.528638e+004
9.010333e+002, 2.528420e+004
9.015154e+002, 2.529976e+004
9.019975e+002, 2.530094e+004
9.024796e+002, 2.527620e+004
9.029617e+002, 2.525878e+004
9.034438e+002, 2.526440e+004
9.039260e+002, 2.526997e+004
9.044081e+002, 2.525537e+004
9.048902e+002, 2.522931e+004
9.053723e+002, 2.521545e+004
9.058544e+002, 2.522194e+004
9.063365e+002, 2.522471e+004
9.068187e+002, 2.521157e+004
9.073008e+002, 2.519979e+004
9.077829e+002, 2.520477e+004
9.082650e+002, 2.521472e+004
9.087471e+002, 2.521081e+004
9.092292e+002, 2.519189e+004
9.097114e+002, 2.517413e+004
9.101935e+002, 2.516655e+004
9.106756e+002, 2.516480e+004
9.111577e+002, 2.516988e+004
9.116398e+002, 2.517529e+004
9.121219e+002, 2.516758e+004
9.126041e+002, 2.514758e+004
9.130862e+002, 2.512542e+004
9.135683e+002, 2.510597e+004
9.140504e+002, 2.508829e+004
9.145325e+002, 2.507010e+004
9.150146e+002, 2.505263e+004
9.154968e+002, 2.504210e+004
9.159789e+002, 2.503885e+004
9.164610e+002, 2.503810e+004
9.169431e+002, 2.503964e+004
9.174252e+002, 2.503921e+004
9.179073e+002, 2.503271e+004
9.183895e+002, 2.502191e+004
9.188716e+002, 2.501264e+004
9.193537e+002, 2.500217e+004
9.198358e+002, 2.500028e+004
9.203179e+002, 2.501856e+004
9.208000e+002, 2.502814e+004
9.212822e+002, 2.500581e+004
9.217643e+002, 2.497626e+004
9.222464e+002, 2.497016e+004
9.227285e+002, 2.498633e+004
9.232106e+002, 2.499064e+004
9.236927e+002, 2.496688e+004
9.241749e+002, 2.494601e+004
9.246570e+002, 2.494142e+004
9.251391e+002, 2.493876e+004
9.256212e+002, 2.492339e+004
9.261033e+002, 2.490202e+004
9.265854e+002, 2.489173e+004
9.270676e+002, 2.489798e+004
9.275497e+002, 2.490343e+004
9.280318e+002, 2.489596e+004
9.285139e+002, 2.488324e+004
9.289960e+002, 2.487116e+004
9.294781e+002, 2.486041e+004
9.299603e+002, 2.485301e+004
9.304424e+002, 2.484819e+004
9.309245e+002, 2.483987e+004
9.314066e+002, 2.482340e+004
9.318887e+002, 2.480606e+004
9.323708e+002, 2.480121e+004
9.328530e+002, 2.480549e+004
9.333351e+002, 2.480549e+004
9.338172e+002, 2.480048e+004
9.342993e+002, 2.479169e+004
9.347814e+002, 2.477893e+004
9.352635e+002, 2.476918e+004
9.357457e+002, 2.477142e+004
9.362278e+002, 2.478243e+004
9.367099e+002, 2.478282e+004
9.371920e+002, 2.476930e+004
9.376741e+002, 2.475920e+004
9.381563e+002, 2.475625e+004
9.386384e+002, 2.475274e+004
9.391205e+002, 2.474429e+004
9.396026e+002, 2.473269e+004
9.400847e+002, 2.472065e+004
9.405668e+002, 2.470772e+004
9.410490e+002, 2.469738e+004
9.415311e+002, 2.469193e+004
9.420132e+002, 2.468609e+004
9.424953e+002, 2.467923e+004
9.429774e+002, 2.467163e+004
9.434595e+002, 2.466463e+004
9.439417e+002, 2.465707e+004
9.444238e+002, 2.464475e+004
9.449059e+002, 2.462400e+004
9.453880e+002, 2.460978e+004
9.458701e+002, 2.461681e+004
9.463522e+002, 2.462209e+004
9.468344e+002, 2.460440e+004
9.473165e+002, 2.457894e+004
9.477986e+002, 2.456958e+004
9.482807e+002, 2.457631e+004
9.487628e+002, 2.457812e+004
9.492449e+002, 2.456160e+004
9.497271e+002, 2.454202e+004
9.502092e+002, 2.453362e+004
9.506913e+002, 2.453163e+004
9.511734e+002, 2.452917e+004
9.516555e+002, 2.452609e+004
9.521376e+002, 2.452497e+004
9.526198e+002, 2.452641e+004
9.531019e+002, 2.452650e+004
9.535840e+002, 2.451983e+004
9.540661e+002, 2.451122e+004
9.545482e+002, 2.451738e+004
9.550303e+002, 2.453421e+004
9.555124e+002, 2.453016e+004
9.559945e+002, 2.450088e+004
9.564766e+002, 2.447843e+004
9.569587e+002, 2.448090e+004
9.574409e+002, 2.449400e+004
9.579230e+002, 2.449386e+004
9.584051e+002, 2.448084e+004
9.588872e+002, 2.448209e+004
9.593693e+002, 2.450452e+004
9.598514e+002, 2.450966e+004
9.603336e+002, 2.448265e+004
9.608157e+002, 2.445183e+004
9.612978e+002, 2.443887e+004
9.617799e+002, 2.443763e+004
9.622620e+002, 2.443063e+004
9.627441e+002, 2.441495e+004
9.632263e+002, 2.440266e+004
9.637084e+002, 2.439463e+004
9.641905e+002, 2.438913e+004
9.646726e+002, 2.438636e+004
9.651547e+002, 2.438549e+004
9.656368e+002, 2.438847e+004
9.661190e+002, 2.439324e+004
9.666011e+002, 2.439026e+004
9.670832e+002, 2.437301e+004
9.675653e+002, 2.435890e+004
9.680474e+002, 2.435574e+004
9.685295e+002, 2.435214e+004
9.690117e+002, 2.433747e+004
9.694938e+002, 2.432076e+004
9.699759e+002, 2.431748e+004
9.704580e+002, 2.432700e+004
9.709401e+002, 2.432966e+004
9.714222e+002, 2.431129e+004
9.719044e+002, 2.429301e+004
9.723865e+002, 2.429163e+004
9.728686e+002, 2.429432e+004
9.733507e+002, 2.428718e+004
9.738328e+002, 2.427262e+004
9.743149e+002, 2.425830e+004
9.747971e+002, 2.424677e+004
9.752792e+002, 2.423693e+004
9.757613e+002, 2.422865e+004
9.762434e+002, 2.422088e+004
9.767255e+002, 2.421125e+004
9.772076e+002, 2.420133e+004
9.776898e+002, 2.419376e+004
9.781719e+002, 2.418919e+004
9.786540e+002, 2.418976e+004
9.791361e+002, 2.419643e+004
9.796182e+002, 2.420362e+004
9.801003e+002, 2.420529e+004
9.805825e+002, 2.420160e+004
9.810646e+002, 2.418928e+004
9.815467e+002, 2.417039e+004
9.820288e+002, 2.416442e+004
9.825109e+002, 2.417521e+004
9.829930e+002, 2.418284e+004
9.834752e+002, 2.417369e+004
9.839573e+002, 2.415709e+004
9.844394e+002, 2.415246e+004
9.849215e+002, 2.415999e+004
9.854036e+002, 2.415370e+004
9.858857e+002, 2.412957e+004
9.863679e+002, 2.411697e+004
9.868500e+002, 2.412667e+004
9.873321e+002, 2.413938e+004
9.878142e+002, 2.413887e+004
9.882963e+002, 2.412982e+004
9.887784e+002, 2.412800e+004
9.892606e+002, 2.413864e+004
9.897427e+002, 2.413678e+004
9.902248e+002, 2.411397e+004
9.907069e+002, 2.409459e+004
9.911890e+002, 2.408584e+004
9.916711e+002, 2.408380e+004
9.921533e+002, 2.408603e+004
9.926354e+002, 2.409199e+004
9.931175e+002, 2.409874e+004
9.935996e+002, 2.411335e+004
9.940817e+002, 2.411626e+004
9.945638e+002, 2.409408e+004
9.950460e+002, 2.407595e+004
9.955281e+002, 2.407815e+004
9.960102e+002, 2.408658e+004
9.964923e+002, 2.408518e+004
9.969744e+002, 2.407471e+004
9.974565e+002, 2.406753e+004
9.979387e+002, 2.406823e+004
9.984208e+002, 2.406844e+004
9.989029e+002, 2.406674e+004
9.993850e+002, 2.406315e+004
9.998671e+002, 2.405749e+004
1.000349e+003, 2.405004e+004
1.000831e+003, 2.403936e+004
1.001313e+003, 2.402630e+004
1.001796e+003, 2.401881e+004
1.002278e+003, 2.402657e+004
1.002760e+003, 2.403086e+004
1.003242e+003, 2.401391e+004
1.003724e+003, 2.399550e+004
1.004206e+003, 2.399809e+004
1.004688e+003, 2.401242e+004
1.005170e+003, 2.401630e+004
1.005653e+003, 2.400535e+004
1.006135e+003, 2.399644e+004
1.006617e+003, 2.400413e+004
1.007099e+003, 2.401290e+004
1.007581e+003, 2.400403e+004
1.008063e+003, 2.398972e+004
1.008545e+003, 2.399140e+004
1.009027e+003, 2.400346e+004
1.009509e+003, 2.400315e+004
1.009992e+003, 2.398341e+004
1.010474e+003, 2.396161e+004
1.010956e+003, 2.395390e+004
1.011438e+003, 2.395218e+004
1.011920e+003, 2.394324e+004
1.012402e+003, 2.393111e+004
1.012884e+003, 2.392662e+004
1.013366e+003, 2.392916e+004
1.013849e+003, 2.392855e+004
1.014331e+003, 2.392050e+004
1.014813e+003, 2.391285e+004
1.015295e+003, 2.391707e+004
1.015777e+003, 2.392611e+004
1.016259e+003, 2.391919e+004
1.016741e+003, 2.390047e+004
1.017223e+003, 2.389066e+004
1.017705e+003, 2.389212e+004
1.018188e+003, 2.389313e+004
1.018670e+003, 2.388757e+004
1.019152e+003, 2.388111e+004
1.019634e+003, 2.388291e+004
1.020116e+003, 2.389026e+004
1.020598e+003, 2.388848e+004
1.021080e+003, 2.387802e+004
1.021562e+003, 2.387190e+004
1.022044e+003, 2.387265e+004
1.022527e+003, 2.387096e+004
1.023009e+003, 2.386026e+004
1.023491e+003, 2.385052e+004
1.023973e+003, 2.386149e+004
1.024455e+003, 2.389066e+004
1.024937e+003, 2.389200e+004
1.025419e+003, 2.386130e+004
1.025901e+003, 2.384005e+004
1.026384e+003, 2.383790e+004
1.026866e+003, 2.383587e+004
1.027348e+003, 2.382017e+004
1.027830e+003, 2.380201e+004
1.028312e+003, 2.380422e+004
1.028794e+003, 2.382829e+004
1.029276e+003, 2.383692e+004
1.029758e+003, 2.382584e+004
1.030240e+003, 2.381383e+004
1.030723e+003, 2.380143e+004
1.031205e+003, 2.379645e+004
1.031687e+003, 2.380753e+004
1.032169e+003, 2.382543e+004
1.032651e+003, 2.383054e+004
1.033133e+003, 2.382054e+004
1.033615e+003, 2.381621e+004
1.034097e+003, 2.381749e+004
1.034579e+003, 2.382471e+004
1.035062e+003, 2.384430e+004
1.035544e+003, 2.385939e+004
1.036026e+003, 2.385407e+004
1.036508e+003, 2.383929e+004
1.036990e+003, 2.384058e+004
1.037472e+003, 2.386396e+004
1.037954e+003, 2.386847e+004
1.038436e+003, 2.383547e+004
1.038919e+003, 2.381352e+004
1.039401e+003, 2.381842e+004
1.039883e+003, 2.382872e+004
1.040365e+003, 2.383278e+004
1.040847e+003, 2.383214e+004
1.041329e+003, 2.382893e+004
1.041811e+003, 2.382197e+004
1.042293e+003, 2.381971e+004
1.042776e+003, 2.383216e+004
1.043258e+003, 2.383595e+004
1.043740e+003, 2.382006e+004
1.044222e+003, 2.380124e+004
1.044704e+003, 2.379015e+004
1.045186e+003, 2.378399e+004
1.045668e+003, 2.377557e+004
1.046150e+003, 2.376287e+004
1.046632e+003, 2.375970e+004
1.047115e+003, 2.377779e+004
1.047597e+003, 2.379125e+004
1.048079e+003, 2.378721e+004
1.048561e+003, 2.378272e+004
1.049043e+003, 2.379329e+004
1.049525e+003, 2.381043e+004
1.050007e+003, 2.381697e+004
1.050489e+003, 2.381007e+004
1.050971e+003, 2.380312e+004
1.051454e+003, 2.379470e+004
1.051936e+003, 2.379198e+004
1.052418e+003, 2.380301e+004
1.052900e+003, 2.381473e+004
1.053382e+003, 2.381860e+004
1.053864e+003, 2.381602e+004
1.054346e+003, 2.380921e+004
1.054828e+003, 2.379834e+004
1.055311e+003, 2.379068e+004
1.055793e+003, 2.379464e+004
1.056275e+003, 2.379343e+004
1.056757e+003, 2.377455e+004
1.057239e+003, 2.375504e+004
1.057721e+003, 2.374941e+004
1.058203e+003, 2.375171e+004
1.058685e+003, 2.375010e+004
1.059167e+003, 2.374283e+004
1.059650e+003, 2.373687e+004
1.060132e+003, 2.373874e+004
1.060614e+003, 2.373661e+004
1.061096e+003, 2.372138e+004
1.061578e+003, 2.370486e+004
1.062060e+003, 2.369616e+004
1.062542e+003, 2.369220e+004
1.063024e+003, 2.368663e+004
1.063506e+003, 2.367858e+004
1.063989e+003, 2.367254e+004
1.064471e+003, 2.367611e+004
1.064953e+003, 2.367321e+004
1.065435e+003, 2.364974e+004
1.065917e+003, 2.362464e+004
1.066399e+003, 2.361401e+004
1.066881e+003, 2.361075e+004
1.067363e+003, 2.360248e+004
1.067846e+003, 2.358785e+004
1.068328e+003, 2.357438e+004
1.068810e+003, 2.356938e+004
1.069292e+003, 2.355842e+004
1.069774e+003, 2.352077e+004
1.070256e+003, 2.348955e+004
1.070738e+003, 2.350288e+004
1.071220e+003, 2.353115e+004
1.071703e+003, 2.352589e+004
1.072185e+003, 2.348716e+004
1.072667e+003, 2.346019e+004
1.073149e+003, 2.346800e+004
1.073631e+003, 2.347485e+004
1.074113e+003, 2.345797e+004
1.074595e+003, 2.344050e+004
1.075077e+003, 2.344441e+004
1.075559e+003, 2.345466e+004
1.076042e+003, 2.344842e+004
1.076524e+003, 2.342686e+004
1.077006e+003, 2.340967e+004
1.077488e+003, 2.340480e+004
1.077970e+003, 2.340079e+004
1.078452e+003, 2.338569e+004
1.078934e+003, 2.337693e+004
1.079416e+003, 2.339893e+004
1.079898e+003, 2.342525e+004
1.080380e+003, 2.341965e+004
1.080863e+003, 2.338805e+004
1.081345e+003, 2.336340e+004
1.081827e+003, 2.335658e+004
1.082309e+003, 2.335339e+004
1.082791e+003, 2.334578e+004
1.083273e+003, 2.334156e+004
1.083755e+003, 2.335229e+004
1.084237e+003, 2.336341e+004
1.084720e+003, 2.335321e+004
1.085202e+003, 2.333048e+004
1.085684e+003, 2.332392e+004
1.086166e+003, 2.334277e+004
1.086648e+003, 2.335860e+004
1.087130e+003, 2.335931e+004
1.087612e+003, 2.335391e+004
1.088094e+003, 2.334517e+004
1.088577e+003, 2.333404e+004
1.089059e+003, 2.331826e+004
1.089541e+003, 2.330174e+004
1.090023e+003, 2.329402e+004
1.090505e+003, 2.329712e+004
1.090987e+003, 2.329652e+004
1.091469e+003, 2.328163e+004
1.091951e+003, 2.326930e+004
1.092433e+003, 2.327362e+004
1.092916e+003, 2.327703e+004
1.093398e+003, 2.326169e+004
1.093880e+003, 2.323766e+004
1.094362e+003, 2.322275e+004
1.094844e+003, 2.321932e+004
1.095326e+003, 2.321829e+004
1.095808e+003, 2.321542e+004
1.096290e+003, 2.321681e+004
1.096772e+003, 2.323637e+004
1.097255e+003, 2.324797e+004
1.097737e+003, 2.322111e+004
1.098219e+003, 2.318458e+004
1.098701e+003, 2.318272e+004
1.099183e+003, 2.321293e+004
1.099665e+003, 2.322858e+004
1.100147e+003, 2.320861e+004
1.100629e+003, 2.319480e+004
1.101112e+003, 2.320508e+004
1.101594e+003, 2.321518e+004
1.102076e+003, 2.320974e+004
1.102558e+003, 2.320054e+004
1.103040e+003, 2.320288e+004
1.103522e+003, 2.321315e+004
1.104004e+003, 2.321364e+004
1.104486e+003, 2.319651e+004
1.104969e+003, 2.318634e+004
1.105451e+003, 2.319105e+004
1.105933e+003, 2.319873e+004
1.106415e+003, 2.320919e+004
1.106897e+003, 2.321739e+004
1.107379e+003, 2.322093e+004
1.107861e+003, 2.321882e+004
1.108343e+003, 2.320530e+004
1.108825e+003, 2.317446e+004
1.109307e+003, 2.316430e+004
1.109790e+003, 2.320312e+004
1.110272e+003, 2.322724e+004
1.110754e+003, 2.321456e+004
1.111236e+003, 2.319367e+004
1.111718e+003, 2.317842e+004
1.112200e+003, 2.316766e+004
1.112682e+003, 2.315910e+004
1.113164e+003, 2.315273e+004
1.113647e+003, 2.315047e+004
1.114129e+003, 2.316222e+004
1.114611e+003, 2.316165e+004
1.115093e+003, 2.313385e+004
1.115575e+003, 2.311182e+004
1.116057e+003, 2.311488e+004
1.116539e+003, 2.312577e+004
1.117021e+003, 2.312372e+004
1.117504e+003, 2.311103e+004
1.117986e+003, 2.310533e+004
1.118468e+003, 2.311198e+004
1.118950e+003, 2.311229e+004
1.119432e+003, 2.310179e+004
1.119914e+003, 2.309342e+004
1.120396e+003, 2.309212e+004
1.120878e+003, 2.309233e+004
1.121360e+003, 2.308842e+004
1.121843e+003, 2.308302e+004
1.122325e+003, 2.308479e+004
1.122807e+003, 2.309622e+004
1.123289e+003, 2.309948e+004
1.123771e+003, 2.309188e+004
1.124253e+003, 2.308593e+004
1.124735e+003, 2.308531e+004
1.125217e+003, 2.308326e+004
1.125699e+003, 2.307390e+004
1.126182e+003, 2.306438e+004
1.126664e+003, 2.306846e+004
1.127146e+003, 2.308499e+004
1.127628e+003, 2.309105e+004
1.128110e+003, 2.308502e+004
1.128592e+003, 2.308338e+004
1.129074e+003, 2.308908e+004
1.129556e+003, 2.309090e+004
1.130039e+003, 2.308229e+004
1.130521e+003, 2.307652e+004
1.131003e+003, 2.309058e+004
1.131485e+003, 2.311669e+004
1.131967e+003, 2.312559e+004
1.132449e+003, 2.311851e+004
1.132931e+003, 2.311870e+004
1.133413e+003, 2.312725e+004
1.133896e+003, 2.313092e+004
1.134378e+003, 2.312570e+004
1.134860e+003, 2.312264e+004
1.135342e+003, 2.313175e+004
1.135824e+003, 2.314075e+004
1.136306e+003, 2.311754e+004
1.136788e+003, 2.307636e+004
1.137270e+003, 2.307998e+004
1.137752e+003, 2.311859e+004
1.138234e+003, 2.314022e+004
1.138717e+003, 2.313715e+004
1.139199e+003, 2.313250e+004
1.139681e+003, 2.313816e+004
1.140163e+003, 2.314422e+004
1.140645e+003, 2.313588e+004
1.141127e+003, 2.312404e+004
1.141609e+003, 2.313384e+004
1.142091e+003, 2.315366e+004
1.142574e+003, 2.315603e+004
1.143056e+003, 2.314337e+004
1.143538e+003, 2.313435e+004
1.144020e+003, 2.313458e+004
1.144502e+003, 2.313543e+004
1.144984e+003, 2.312896e+004
1.145466e+003, 2.312496e+004
1.145948e+003, 2.313924e+004
1.146431e+003, 2.315729e+004
1.146913e+003, 2.315888e+004
1.147395e+003, 2.315098e+004
1.147877e+003, 2.314732e+004
1.148359e+003, 2.314995e+004
1.148841e+003, 2.315565e+004
1.149323e+003, 2.316420e+004
1.149805e+003, 2.316824e+004
1.150287e+003, 2.315607e+004
1.150770e+003, 2.314567e+004
1.151252e+003, 2.315463e+004
1.151734e+003, 2.316848e+004
1.152216e+003, 2.317022e+004
1.152698e+003, 2.316372e+004
1.153180e+003, 2.316137e+004
1.153662e+003, 2.316582e+004
1.154144e+003, 2.317090e+004
1.154626e+003, 2.317607e+004
1.155109e+003, 2.317959e+004
1.155591e+003, 2.317955e+004
1.156073e+003, 2.317933e+004
1.156555e+003, 2.318097e+004
1.157037e+003, 2.318375e+004
1.157519e+003, 2.318586e+004
1.158001e+003, 2.318779e+004
1.158483e+003, 2.319370e+004
1.158966e+003, 2.321017e+004
1.159448e+003, 2.321731e+004
1.159930e+003, 2.320046e+004
1.160412e+003, 2.319264e+004
1.160894e+003, 2.321002e+004
1.161376e+003, 2.323092e+004
1.161858e+003, 2.323956e+004
1.162340e+003, 2.324031e+004
1.162822e+003, 2.324239e+004
1.163305e+003, 2.324584e+004
1.163787e+003, 2.324955e+004
1.164269e+003, 2.325160e+004
1.164751e+003, 2.326094e+004
1.165233e+003, 2.328335e+004
1.165715e+003, 2.329848e+004
1.166197e+003, 2.329390e+004
1.166679e+003, 2.328507e+004
1.167161e+003, 2.329010e+004
1.167644e+003, 2.330635e+004
1.168126e+003, 2.332485e+004
1.168608e+003, 2.334582e+004
1.169090e+003, 2.336070e+004
1.169572e+003, 2.336900e+004
1.170054e+003, 2.337022e+004
1.170536e+003, 2.336391e+004
1.171018e+003, 2.336348e+004
1.171500e+003, 2.337882e+004
1.171983e+003, 2.340104e+004
1.172465e+003, 2.341707e+004
1.172947e+003, 2.342798e+004
1.173429e+003, 2.343655e+004
1.173911e+003, 2.344343e+004
1.174393e+003, 2.345095e+004
1.174875e+003, 2.345935e+004
1.175357e+003, 2.346828e+004
1.175840e+003, 2.347748e+004
1.176322e+003, 2.348484e+004
1.176804e+003, 2.348666e+004
1.177286e+003, 2.349030e+004
1.177768e+003, 2.350933e+004
1.178250e+003, 2.353278e+004
1.178732e+003, 2.354282e+004
1.179214e+003, 2.354534e+004
1.179697e+003, 2.355363e+004
1.180179e+003, 2.356903e+004
1.180661e+003, 2.358538e+004
1.181143e+003, 2.360015e+004
1.181625e+003, 2.361459e+004
1.182107e+003, 2.363161e+004
1.182589e+003, 2.364563e+004
1.183071e+003, 2.364875e+004
1.183553e+003, 2.365075e+004
1.184036e+003, 2.366173e+004
1.184518e+003, 2.367832e+004
1.185000e+003, 2.369385e+004
1.185482e+003, 2.370721e+004
1.185964e+003, 2.371796e+004
1.186446e+003, 2.372415e+004
1.186928e+003, 2.373115e+004
1.187410e+003, 2.373746e+004
1.187892e+003, 2.374811e+004
1.188375e+003, 2.376871e+004
1.188857e+003, 2.379198e+004
1.189339e+003, 2.381204e+004
1.189821e+003, 2.382939e+004
1.190303e+003, 2.384403e+004
1.190785e+003, 2.385477e+004
1.191267e+003, 2.387045e+004
1.191749e+003, 2.389301e+004
1.192232e+003, 2.391456e+004
1.192714e+003, 2.393280e+004
1.193196e+003, 2.395255e+004
1.193678e+003, 2.397625e+004
1.194160e+003, 2.400176e+004
1.194642e+003, 2.402604e+004
1.195124e+003, 2.405005e+004
1.195606e+003, 2.407951e+004
1.196089e+003, 2.411380e+004
1.196571e+003, 2.413775e+004
1.197053e+003, 2.415113e+004
1.197535e+003, 2.416892e+004
1.198017e+003, 2.419437e+004
1.198499e+003, 2.421507e+004
1.198981e+003, 2.422271e+004
1.199463e+003, 2.423116e+004
1.199945e+003, 2.426120e+004
1.200427e+003, 2.430305e+004
1.200910e+003, 2.434130e+004
1.201392e+003, 2.437467e+004
1.201874e+003, 2.440118e+004
1.202356e+003, 2.442027e+004
1.202838e+003, 2.442659e+004
1.203320e+003, 2.442193e+004
1.203802e+003, 2.442746e+004
1.204284e+003, 2.445922e+004
1.204767e+003, 2.449331e+004
1.205249e+003, 2.450999e+004
1.205731e+003, 2.452316e+004
1.206213e+003, 2.454548e+004
1.206695e+003, 2.457004e+004
1.207177e+003, 2.458754e+004
1.207659e+003, 2.459968e+004
1.208141e+003, 2.461297e+004
1.208624e+003, 2.462861e+004
1.209106e+003, 2.464599e+004
1.209588e+003, 2.466324e+004
1.210070e+003, 2.468468e+004
1.210552e+003, 2.471713e+004
1.211034e+003, 2.474708e+004
1.211516e+003, 2.476781e+004
1.211998e+003, 2.478268e+004
1.212480e+003, 2.479545e+004
1.212963e+003, 2.480469e+004
1.213445e+003, 2.480324e+004
1.213927e+003, 2.478478e+004
1.214409e+003, 2.478861e+004
1.214891e+003, 2.482285e+004
1.215373e+003, 2.484554e+004
1.215855e+003, 2.484721e+004
1.216337e+003, 2.484577e+004
1.216819e+003, 2.485179e+004
1.217302e+003, 2.485262e+004
1.217784e+003, 2.482909e+004
1.218266e+003, 2.479462e+004
1.218748e+003, 2.479742e+004
1.219230e+003, 2.482754e+004
1.219712e+003, 2.482943e+004
1.220194e+003, 2.480705e+004
1.220676e+003, 2.479853e+004
1.221159e+003, 2.480998e+004
1.221641e+003, 2.481531e+004
1.222123e+003, 2.480004e+004
1.222605e+003, 2.478535e+004
1.223087e+003, 2.479800e+004
1.223569e+003, 2.481668e+004
1.224051e+003, 2.481351e+004
1.224533e+003, 2.480365e+004
1.225016e+003, 2.480824e+004
1.225498e+003, 2.482129e+004
1.225980e+003, 2.482687e+004
1.226462e+003, 2.482349e+004
1.226944e+003, 2.482347e+004
1.227426e+003, 2.483349e+004
1.227908e+003, 2.483879e+004
1.228390e+003, 2.483204e+004
1.228872e+003, 2.482210e+004
1.229354e+003, 2.481209e+004
1.229837e+003, 2.480085e+004
1.230319e+003, 2.478399e+004
1.230801e+003, 2.476722e+004
1.231283e+003, 2.476342e+004
1.231765e+003, 2.477196e+004
1.232247e+003, 2.476584e+004
1.232729e+003, 2.473848e+004
1.233211e+003, 2.471795e+004
1.233694e+003, 2.470727e+004
1.234176e+003, 2.469804e+004
1.234658e+003, 2.468872e+004
1.235140e+003, 2.467570e+004
1.235622e+003, 2.465553e+004
1.236104e+003, 2.463331e+004
1.236586e+003, 2.461804e+004
1.237068e+003, 2.460806e+004
1.237551e+003, 2.459713e+004
1.238033e+003, 2.458487e+004
1.238515e+003, 2.456590e+004
1.238997e+003, 2.454301e+004
1.239479e+003, 2.453336e+004
1.239961e+003, 2.453967e+004
1.240443e+003, 2.454143e+004
1.240925e+003, 2.452384e+004
1.241407e+003, 2.450724e+004
1.241890e+003, 2.451682e+004
1.242372e+003, 2.453103e+004
1.242854e+003, 2.452713e+004
1.243336e+003, 2.451665e+004
1.243818e+003, 2.451229e+004
1.244300e+003, 2.451453e+004
1.244782e+003, 2.452216e+004
1.245264e+003, 2.453441e+004
1.245746e+003, 2.454508e+004
1.246229e+003, 2.455228e+004
1.246711e+003, 2.455832e+004
1.247193e+003, 2.456299e+004
1.247675e+003, 2.456720e+004
1.248157e+003, 2.456827e+004
1.248639e+003, 2.457228e+004
1.249121e+003, 2.458259e+004
1.249603e+003, 2.459954e+004
1.250085e+003, 2.462600e+004
1.250568e+003, 2.466068e+004
1.251050e+003, 2.468163e+004
1.251532e+003, 2.468697e+004
1.252014e+003, 2.469750e+004
1.252496e+003, 2.471481e+004
1.252978e+003, 2.473657e+004
1.253460e+003, 2.476204e+004
1.253942e+003, 2.478735e+004
1.254425e+003, 2.480971e+004
1.254907e+003, 2.483058e+004
1.255389e+003, 2.485248e+004
1.255871e+003, 2.487354e+004
1.256353e+003, 2.488924e+004
1.256835e+003, 2.490185e+004
1.257317e+003, 2.491341e+004
1.257799e+003, 2.492599e+004
1.258281e+003, 2.494437e+004
1.258764e+003, 2.496844e+004
1.259246e+003, 2.499192e+004
1.259728e+003, 2.501212e+004
1.260210e+003, 2.503171e+004
1.260692e+003, 2.505276e+004
1.261174e+003, 2.507255e+004
1.261656e+003, 2.508756e+004
1.262138e+003, 2.510322e+004
1.262620e+003, 2.512454e+004
1.263103e+003, 2.514870e+004
1.263585e+003, 2.517145e+004
1.264067e+003, 2.519270e+004
1.264549e+003, 2.521136e+004
1.265031e+003, 2.522556e+004
1.265513e+003, 2.524296e+004
1.265995e+003, 2.526399e+004
1.266477e+003, 2.528536e+004
1.266960e+003, 2.530662e+004
1.267442e+003, 2.532548e+004
1.267924e+003, 2.534077e+004
1.268406e+003, 2.535239e+004
1.268888e+003, 2.535912e+004
1.269370e+003, 2.536486e+004
1.269852e+003, 2.538244e+004
1.270334e+003, 2.540473e+004
1.270817e+003, 2.541089e+004
1.271299e+003, 2.540647e+004
1.271781e+003, 2.541011e+004
1.272263e+003, 2.542225e+004
1.272745e+003, 2.542865e+004
1.273227e+003, 2.542393e+004
1.273709e+003, 2.542331e+004
1.274191e+003, 2.543715e+004
1.274673e+003, 2.545600e+004
1.275156e+003, 2.547827e+004
1.275638e+003, 2.550041e+004
1.276120e+003, 2.552532e+004
1.276602e+003, 2.554468e+004
1.277084e+003, 2.554292e+004
1.277566e+003, 2.552862e+004
1.278048e+003, 2.553115e+004
1.278530e+003, 2.555298e+004
1.279012e+003, 2.557013e+004
1.279495e+003, 2.557881e+004
1.279977e+003, 2.559321e+004
1.280459e+003, 2.561801e+004
1.280941e+003, 2.563778e+004
1.281423e+003, 2.564642e+004
1.281905e+003, 2.565190e+004
1.282387e+003, 2.566107e+004
1.282869e+003, 2.566876e+004
1.283352e+003, 2.566222e+004
1.283834e+003, 2.564702e+004
1.284316e+003, 2.563319e+004
1.284798e+003, 2.562196e+004
##END=



