##NAMES=Behoite
##RRUFFID=R130229
##IDEAL CHEMISTRY=Be(OH)_2_
##LOCALITY=Clear Creek pegmatite, Burnet County, Texas, USA
##OWNER=RRUFF
##SOURCE=Rock Currier
##DESCRIPTION=Colorless vitreous pseudo-octahedral crystals and intergrown clusters
##STATUS=The identification of this mineral has been confirmed by single-crystal X-ray diffraction.
##URL=rruff.info/R130229
9.059570e+001, 1.059771e+004
9.107782e+001, 1.026869e+004
9.155994e+001, 1.015220e+004
9.204205e+001, 1.040094e+004
9.252417e+001, 1.075887e+004
9.300629e+001, 1.114273e+004
9.348840e+001, 1.146400e+004
9.397052e+001, 1.164534e+004
9.445264e+001, 1.165424e+004
9.493475e+001, 1.164122e+004
9.541687e+001, 1.161355e+004
9.589898e+001, 1.157844e+004
9.638110e+001, 1.154172e+004
9.686321e+001, 1.150817e+004
9.734533e+001, 1.147197e+004
9.782745e+001, 1.141100e+004
9.830956e+001, 1.135773e+004
9.879168e+001, 1.131261e+004
9.927380e+001, 1.127712e+004
9.975591e+001, 1.125167e+004
1.002380e+002, 1.123322e+004
1.007201e+002, 1.121681e+004
1.012023e+002, 1.119877e+004
1.016844e+002, 1.118030e+004
1.021665e+002, 1.116537e+004
1.026486e+002, 1.115169e+004
1.031307e+002, 1.114116e+004
1.036128e+002, 1.113559e+004
1.040950e+002, 1.113455e+004
1.045771e+002, 1.113687e+004
1.050592e+002, 1.113900e+004
1.055413e+002, 1.114070e+004
1.060234e+002, 1.114258e+004
1.065055e+002, 1.114405e+004
1.069877e+002, 1.114520e+004
1.074698e+002, 1.114756e+004
1.079519e+002, 1.115103e+004
1.084340e+002, 1.115463e+004
1.089161e+002, 1.115857e+004
1.093982e+002, 1.116206e+004
1.098804e+002, 1.116345e+004
1.103625e+002, 1.116013e+004
1.108446e+002, 1.115004e+004
1.113267e+002, 1.114522e+004
1.118088e+002, 1.114853e+004
1.122909e+002, 1.115402e+004
1.127731e+002, 1.115964e+004
1.132552e+002, 1.116470e+004
1.137373e+002, 1.116917e+004
1.142194e+002, 1.117286e+004
1.147015e+002, 1.117380e+004
1.151836e+002, 1.117774e+004
1.156658e+002, 1.118873e+004
1.161479e+002, 1.120074e+004
1.166300e+002, 1.120754e+004
1.171121e+002, 1.120681e+004
1.175942e+002, 1.120125e+004
1.180763e+002, 1.119652e+004
1.185584e+002, 1.119129e+004
1.190406e+002, 1.118887e+004
1.195227e+002, 1.119225e+004
1.200048e+002, 1.119949e+004
1.204869e+002, 1.120480e+004
1.209690e+002, 1.120406e+004
1.214511e+002, 1.120108e+004
1.219333e+002, 1.120322e+004
1.224154e+002, 1.121148e+004
1.228975e+002, 1.122287e+004
1.233796e+002, 1.123592e+004
1.238617e+002, 1.125097e+004
1.243438e+002, 1.126436e+004
1.248260e+002, 1.127135e+004
1.253081e+002, 1.127660e+004
1.257902e+002, 1.128445e+004
1.262723e+002, 1.129663e+004
1.267544e+002, 1.131174e+004
1.272365e+002, 1.132669e+004
1.277187e+002, 1.134200e+004
1.282008e+002, 1.135626e+004
1.286829e+002, 1.136811e+004
1.291650e+002, 1.137916e+004
1.296471e+002, 1.139201e+004
1.301292e+002, 1.140917e+004
1.306114e+002, 1.142997e+004
1.310935e+002, 1.144387e+004
1.315756e+002, 1.144987e+004
1.320577e+002, 1.144958e+004
1.325398e+002, 1.144295e+004
1.330219e+002, 1.143012e+004
1.335041e+002, 1.141102e+004
1.339862e+002, 1.138494e+004
1.344683e+002, 1.135031e+004
1.349504e+002, 1.131790e+004
1.354325e+002, 1.129038e+004
1.359146e+002, 1.126248e+004
1.363968e+002, 1.122957e+004
1.368789e+002, 1.119188e+004
1.373610e+002, 1.115499e+004
1.378431e+002, 1.112591e+004
1.383252e+002, 1.110615e+004
1.388073e+002, 1.108756e+004
1.392895e+002, 1.106942e+004
1.397716e+002, 1.105226e+004
1.402537e+002, 1.103681e+004
1.407358e+002, 1.102341e+004
1.412179e+002, 1.101129e+004
1.417000e+002, 1.099998e+004
1.421821e+002, 1.098941e+004
1.426643e+002, 1.097872e+004
1.431464e+002, 1.096707e+004
1.436285e+002, 1.095490e+004
1.441106e+002, 1.094336e+004
1.445927e+002, 1.093107e+004
1.450748e+002, 1.092185e+004
1.455570e+002, 1.091870e+004
1.460391e+002, 1.092164e+004
1.465212e+002, 1.092722e+004
1.470033e+002, 1.093467e+004
1.474854e+002, 1.094482e+004
1.479675e+002, 1.094886e+004
1.484497e+002, 1.093826e+004
1.489318e+002, 1.092511e+004
1.494139e+002, 1.091559e+004
1.498960e+002, 1.091108e+004
1.503781e+002, 1.090904e+004
1.508602e+002, 1.090579e+004
1.513424e+002, 1.090018e+004
1.518245e+002, 1.089586e+004
1.523066e+002, 1.089270e+004
1.527887e+002, 1.089092e+004
1.532708e+002, 1.089108e+004
1.537529e+002, 1.089334e+004
1.542351e+002, 1.089688e+004
1.547172e+002, 1.089966e+004
1.551993e+002, 1.090005e+004
1.556814e+002, 1.090172e+004
1.561635e+002, 1.090751e+004
1.566456e+002, 1.091391e+004
1.571278e+002, 1.091609e+004
1.576099e+002, 1.091143e+004
1.580920e+002, 1.090187e+004
1.585741e+002, 1.089580e+004
1.590562e+002, 1.089551e+004
1.595383e+002, 1.089544e+004
1.600205e+002, 1.089403e+004
1.605026e+002, 1.089180e+004
1.609847e+002, 1.089010e+004
1.614668e+002, 1.088992e+004
1.619489e+002, 1.089073e+004
1.624310e+002, 1.089036e+004
1.629131e+002, 1.088878e+004
1.633953e+002, 1.088620e+004
1.638774e+002, 1.088200e+004
1.643595e+002, 1.087638e+004
1.648416e+002, 1.087172e+004
1.653237e+002, 1.087006e+004
1.658058e+002, 1.087033e+004
1.662880e+002, 1.086988e+004
1.667701e+002, 1.086802e+004
1.672522e+002, 1.086568e+004
1.677343e+002, 1.086407e+004
1.682164e+002, 1.086342e+004
1.686985e+002, 1.086244e+004
1.691807e+002, 1.086033e+004
1.696628e+002, 1.085745e+004
1.701449e+002, 1.085401e+004
1.706270e+002, 1.084984e+004
1.711091e+002, 1.084533e+004
1.715912e+002, 1.084156e+004
1.720734e+002, 1.083922e+004
1.725555e+002, 1.083635e+004
1.730376e+002, 1.083181e+004
1.735197e+002, 1.082643e+004
1.740018e+002, 1.082098e+004
1.744839e+002, 1.081530e+004
1.749661e+002, 1.081007e+004
1.754482e+002, 1.080974e+004
1.759303e+002, 1.082174e+004
1.764124e+002, 1.083050e+004
1.768945e+002, 1.083019e+004
1.773766e+002, 1.082389e+004
1.778588e+002, 1.081719e+004
1.783409e+002, 1.081404e+004
1.788230e+002, 1.081449e+004
1.793051e+002, 1.081518e+004
1.797872e+002, 1.081778e+004
1.802693e+002, 1.081898e+004
1.807515e+002, 1.081660e+004
1.812336e+002, 1.081171e+004
1.817157e+002, 1.080721e+004
1.821978e+002, 1.080576e+004
1.826799e+002, 1.080787e+004
1.831620e+002, 1.080737e+004
1.836441e+002, 1.080133e+004
1.841263e+002, 1.079576e+004
1.846084e+002, 1.079470e+004
1.850905e+002, 1.079753e+004
1.855726e+002, 1.079994e+004
1.860547e+002, 1.079772e+004
1.865368e+002, 1.079006e+004
1.870190e+002, 1.078404e+004
1.875011e+002, 1.077999e+004
1.879832e+002, 1.077734e+004
1.884653e+002, 1.077738e+004
1.889474e+002, 1.077997e+004
1.894296e+002, 1.078036e+004
1.899117e+002, 1.077226e+004
1.903938e+002, 1.075602e+004
1.908759e+002, 1.074355e+004
1.913580e+002, 1.073764e+004
1.918401e+002, 1.073551e+004
1.923223e+002, 1.073479e+004
1.928044e+002, 1.073559e+004
1.932865e+002, 1.073588e+004
1.937686e+002, 1.073282e+004
1.942507e+002, 1.072740e+004
1.947328e+002, 1.072242e+004
1.952150e+002, 1.071905e+004
1.956971e+002, 1.071658e+004
1.961792e+002, 1.071358e+004
1.966613e+002, 1.070969e+004
1.971434e+002, 1.070572e+004
1.976255e+002, 1.070233e+004
1.981077e+002, 1.069931e+004
1.985898e+002, 1.069625e+004
1.990719e+002, 1.069247e+004
1.995540e+002, 1.068833e+004
2.000361e+002, 1.068572e+004
2.005182e+002, 1.068592e+004
2.010004e+002, 1.068596e+004
2.014825e+002, 1.068472e+004
2.019646e+002, 1.068222e+004
2.024467e+002, 1.067843e+004
2.029288e+002, 1.067223e+004
2.034109e+002, 1.066395e+004
2.038930e+002, 1.065918e+004
2.043752e+002, 1.065828e+004
2.048573e+002, 1.066134e+004
2.053394e+002, 1.067187e+004
2.058215e+002, 1.068671e+004
2.063036e+002, 1.069886e+004
2.067857e+002, 1.070198e+004
2.072679e+002, 1.069558e+004
2.077500e+002, 1.068976e+004
2.082321e+002, 1.068513e+004
2.087142e+002, 1.068050e+004
2.091963e+002, 1.067429e+004
2.096784e+002, 1.066753e+004
2.101606e+002, 1.066311e+004
2.106427e+002, 1.066435e+004
2.111248e+002, 1.067250e+004
2.116069e+002, 1.067477e+004
2.120890e+002, 1.066513e+004
2.125711e+002, 1.065579e+004
2.130533e+002, 1.065166e+004
2.135354e+002, 1.065234e+004
2.140175e+002, 1.065492e+004
2.144996e+002, 1.065718e+004
2.149817e+002, 1.065960e+004
2.154638e+002, 1.065752e+004
2.159460e+002, 1.064642e+004
2.164281e+002, 1.063588e+004
2.169102e+002, 1.063114e+004
2.173923e+002, 1.063181e+004
2.178744e+002, 1.063389e+004
2.183565e+002, 1.063372e+004
2.188387e+002, 1.063093e+004
2.193208e+002, 1.062953e+004
2.198029e+002, 1.063013e+004
2.202850e+002, 1.063142e+004
2.207671e+002, 1.063322e+004
2.212492e+002, 1.063525e+004
2.217314e+002, 1.063617e+004
2.222135e+002, 1.063429e+004
2.226956e+002, 1.062944e+004
2.231777e+002, 1.062718e+004
2.236598e+002, 1.063030e+004
2.241419e+002, 1.063392e+004
2.246240e+002, 1.063406e+004
2.251062e+002, 1.063063e+004
2.255883e+002, 1.062667e+004
2.260704e+002, 1.062479e+004
2.265525e+002, 1.062469e+004
2.270346e+002, 1.062351e+004
2.275167e+002, 1.061897e+004
2.279989e+002, 1.061464e+004
2.284810e+002, 1.061489e+004
2.289631e+002, 1.062007e+004
2.294452e+002, 1.062488e+004
2.299273e+002, 1.062483e+004
2.304094e+002, 1.062139e+004
2.308916e+002, 1.061872e+004
2.313737e+002, 1.061710e+004
2.318558e+002, 1.061675e+004
2.323379e+002, 1.061872e+004
2.328200e+002, 1.062350e+004
2.333021e+002, 1.062719e+004
2.337843e+002, 1.062644e+004
2.342664e+002, 1.062304e+004
2.347485e+002, 1.061948e+004
2.352306e+002, 1.061624e+004
2.357127e+002, 1.061319e+004
2.361948e+002, 1.060964e+004
2.366770e+002, 1.060506e+004
2.371591e+002, 1.060222e+004
2.376412e+002, 1.060623e+004
2.381233e+002, 1.061164e+004
2.386054e+002, 1.061172e+004
2.390875e+002, 1.060288e+004
2.395697e+002, 1.059004e+004
2.400518e+002, 1.058082e+004
2.405339e+002, 1.057578e+004
2.410160e+002, 1.057253e+004
2.414981e+002, 1.057166e+004
2.419802e+002, 1.057140e+004
2.424624e+002, 1.057008e+004
2.429445e+002, 1.056710e+004
2.434266e+002, 1.056294e+004
2.439087e+002, 1.055813e+004
2.443908e+002, 1.055205e+004
2.448729e+002, 1.054694e+004
2.453550e+002, 1.054372e+004
2.458372e+002, 1.054143e+004
2.463193e+002, 1.053986e+004
2.468014e+002, 1.053902e+004
2.472835e+002, 1.053740e+004
2.477656e+002, 1.053177e+004
2.482477e+002, 1.051986e+004
2.487299e+002, 1.050927e+004
2.492120e+002, 1.050000e+004
2.496941e+002, 1.049312e+004
2.501762e+002, 1.049086e+004
2.506583e+002, 1.049368e+004
2.511404e+002, 1.049792e+004
2.516226e+002, 1.049720e+004
2.521047e+002, 1.048921e+004
2.525868e+002, 1.048138e+004
2.530689e+002, 1.047420e+004
2.535510e+002, 1.046761e+004
2.540331e+002, 1.046175e+004
2.545153e+002, 1.045661e+004
2.549974e+002, 1.045179e+004
2.554795e+002, 1.044625e+004
2.559616e+002, 1.043808e+004
2.564437e+002, 1.043373e+004
2.569258e+002, 1.043642e+004
2.574080e+002, 1.044002e+004
2.578901e+002, 1.044004e+004
2.583722e+002, 1.043595e+004
2.588543e+002, 1.043083e+004
2.593364e+002, 1.042909e+004
2.598185e+002, 1.043289e+004
2.603007e+002, 1.043461e+004
2.607828e+002, 1.043209e+004
2.612649e+002, 1.042957e+004
2.617470e+002, 1.042983e+004
2.622291e+002, 1.043303e+004
2.627112e+002, 1.043734e+004
2.631934e+002, 1.044072e+004
2.636755e+002, 1.044276e+004
2.641576e+002, 1.044513e+004
2.646397e+002, 1.044759e+004
2.651218e+002, 1.045043e+004
2.656039e+002, 1.045346e+004
2.660861e+002, 1.045686e+004
2.665682e+002, 1.046133e+004
2.670503e+002, 1.046781e+004
2.675324e+002, 1.047685e+004
2.680145e+002, 1.048411e+004
2.684966e+002, 1.048950e+004
2.689788e+002, 1.049361e+004
2.694609e+002, 1.049569e+004
2.699430e+002, 1.049646e+004
2.704251e+002, 1.049788e+004
2.709072e+002, 1.050161e+004
2.713893e+002, 1.050768e+004
2.718715e+002, 1.051446e+004
2.723536e+002, 1.052253e+004
2.728357e+002, 1.053053e+004
2.733178e+002, 1.053848e+004
2.737999e+002, 1.054596e+004
2.742820e+002, 1.055190e+004
2.747642e+002, 1.055547e+004
2.752463e+002, 1.055682e+004
2.757284e+002, 1.055798e+004
2.762105e+002, 1.056032e+004
2.766926e+002, 1.056104e+004
2.771747e+002, 1.055889e+004
2.776568e+002, 1.055436e+004
2.781389e+002, 1.054835e+004
2.786211e+002, 1.054109e+004
2.791032e+002, 1.053306e+004
2.795853e+002, 1.052623e+004
2.800674e+002, 1.051926e+004
2.805495e+002, 1.051472e+004
2.810316e+002, 1.051715e+004
2.815138e+002, 1.052202e+004
2.819959e+002, 1.052116e+004
2.824780e+002, 1.051093e+004
2.829601e+002, 1.049362e+004
2.834422e+002, 1.047429e+004
2.839243e+002, 1.044897e+004
2.844065e+002, 1.042909e+004
2.848886e+002, 1.042044e+004
2.853707e+002, 1.041777e+004
2.858528e+002, 1.041391e+004
2.863349e+002, 1.040659e+004
2.868170e+002, 1.039671e+004
2.872992e+002, 1.038506e+004
2.877813e+002, 1.037088e+004
2.882634e+002, 1.035783e+004
2.887455e+002, 1.034643e+004
2.892276e+002, 1.033654e+004
2.897097e+002, 1.032870e+004
2.901919e+002, 1.032308e+004
2.906740e+002, 1.031783e+004
2.911561e+002, 1.031048e+004
2.916382e+002, 1.030076e+004
2.921203e+002, 1.029103e+004
2.926024e+002, 1.027904e+004
2.930846e+002, 1.026850e+004
2.935667e+002, 1.026484e+004
2.940488e+002, 1.026855e+004
2.945309e+002, 1.027214e+004
2.950130e+002, 1.026801e+004
2.954951e+002, 1.025597e+004
2.959773e+002, 1.024681e+004
2.964594e+002, 1.024265e+004
2.969415e+002, 1.024019e+004
2.974236e+002, 1.023654e+004
2.979057e+002, 1.023178e+004
2.983878e+002, 1.022847e+004
2.988700e+002, 1.022927e+004
2.993521e+002, 1.023316e+004
2.998342e+002, 1.023376e+004
3.003163e+002, 1.022996e+004
3.007984e+002, 1.022392e+004
3.012805e+002, 1.021556e+004
3.017627e+002, 1.020554e+004
3.022448e+002, 1.019663e+004
3.027269e+002, 1.019020e+004
3.032090e+002, 1.018600e+004
3.036911e+002, 1.018318e+004
3.041732e+002, 1.018387e+004
3.046554e+002, 1.018253e+004
3.051375e+002, 1.017484e+004
3.056196e+002, 1.016319e+004
3.061017e+002, 1.015359e+004
3.065838e+002, 1.014845e+004
3.070659e+002, 1.014639e+004
3.075481e+002, 1.014509e+004
3.080302e+002, 1.014470e+004
3.085123e+002, 1.014446e+004
3.089944e+002, 1.014509e+004
3.094765e+002, 1.014554e+004
3.099586e+002, 1.014348e+004
3.104408e+002, 1.013794e+004
3.109229e+002, 1.013141e+004
3.114050e+002, 1.012702e+004
3.118871e+002, 1.012461e+004
3.123692e+002, 1.012357e+004
3.128513e+002, 1.012494e+004
3.133335e+002, 1.012704e+004
3.138156e+002, 1.012753e+004
3.142977e+002, 1.012598e+004
3.147798e+002, 1.012473e+004
3.152619e+002, 1.012709e+004
3.157440e+002, 1.013249e+004
3.162262e+002, 1.013333e+004
3.167083e+002, 1.012346e+004
3.171904e+002, 1.011268e+004
3.176725e+002, 1.011018e+004
3.181546e+002, 1.011569e+004
3.186367e+002, 1.012150e+004
3.191188e+002, 1.012239e+004
3.196010e+002, 1.011936e+004
3.200831e+002, 1.011808e+004
3.205652e+002, 1.012072e+004
3.210473e+002, 1.012296e+004
3.215294e+002, 1.012151e+004
3.220115e+002, 1.011747e+004
3.224937e+002, 1.011487e+004
3.229758e+002, 1.011595e+004
3.234579e+002, 1.011923e+004
3.239400e+002, 1.012082e+004
3.244221e+002, 1.012018e+004
3.249042e+002, 1.011949e+004
3.253864e+002, 1.011847e+004
3.258685e+002, 1.011812e+004
3.263506e+002, 1.012062e+004
3.268327e+002, 1.012702e+004
3.273148e+002, 1.013534e+004
3.277969e+002, 1.014246e+004
3.282791e+002, 1.014804e+004
3.287612e+002, 1.015467e+004
3.292433e+002, 1.016404e+004
3.297254e+002, 1.017414e+004
3.302075e+002, 1.018225e+004
3.306896e+002, 1.018792e+004
3.311718e+002, 1.019331e+004
3.316539e+002, 1.020053e+004
3.321360e+002, 1.020976e+004
3.326181e+002, 1.021962e+004
3.331002e+002, 1.023158e+004
3.335823e+002, 1.024294e+004
3.340645e+002, 1.024991e+004
3.345466e+002, 1.025329e+004
3.350287e+002, 1.025966e+004
3.355108e+002, 1.027419e+004
3.359929e+002, 1.029573e+004
3.364750e+002, 1.031434e+004
3.369572e+002, 1.032553e+004
3.374393e+002, 1.033892e+004
3.379214e+002, 1.036036e+004
3.384035e+002, 1.038719e+004
3.388856e+002, 1.041227e+004
3.393677e+002, 1.043167e+004
3.398499e+002, 1.044861e+004
3.403320e+002, 1.047217e+004
3.408141e+002, 1.050428e+004
3.412962e+002, 1.053804e+004
3.417783e+002, 1.056949e+004
3.422604e+002, 1.060284e+004
3.427426e+002, 1.064420e+004
3.432247e+002, 1.069514e+004
3.437068e+002, 1.075148e+004
3.441889e+002, 1.080743e+004
3.446710e+002, 1.086232e+004
3.451531e+002, 1.091942e+004
3.456353e+002, 1.098661e+004
3.461174e+002, 1.105019e+004
3.465995e+002, 1.110432e+004
3.470816e+002, 1.114607e+004
3.475637e+002, 1.116961e+004
3.480458e+002, 1.117027e+004
3.485280e+002, 1.114743e+004
3.490101e+002, 1.109452e+004
3.494922e+002, 1.099992e+004
3.499743e+002, 1.089289e+004
3.504564e+002, 1.077864e+004
3.509385e+002, 1.066235e+004
3.514207e+002, 1.055105e+004
3.519028e+002, 1.044879e+004
3.523849e+002, 1.035638e+004
3.528670e+002, 1.027694e+004
3.533491e+002, 1.021225e+004
3.538312e+002, 1.015840e+004
3.543134e+002, 1.011616e+004
3.547955e+002, 1.008420e+004
3.552776e+002, 1.006260e+004
3.557597e+002, 1.005118e+004
3.562418e+002, 1.004583e+004
3.567239e+002, 1.003955e+004
3.572061e+002, 1.003167e+004
3.576882e+002, 1.002420e+004
3.581703e+002, 1.001478e+004
3.586524e+002, 1.000739e+004
3.591345e+002, 1.000637e+004
3.596166e+002, 1.001098e+004
3.600987e+002, 1.001584e+004
3.605808e+002, 1.001557e+004
3.610630e+002, 1.000949e+004
3.615451e+002, 1.000434e+004
3.620272e+002, 1.000081e+004
3.625093e+002, 9.997355e+003
3.629914e+002, 9.993389e+003
3.634735e+002, 9.989115e+003
3.639557e+002, 9.985048e+003
3.644378e+002, 9.981475e+003
3.649199e+002, 9.978400e+003
3.654020e+002, 9.975848e+003
3.658841e+002, 9.974571e+003
3.663662e+002, 9.972859e+003
3.668484e+002, 9.967679e+003
3.673305e+002, 9.963457e+003
3.678126e+002, 9.966377e+003
3.682947e+002, 9.977862e+003
3.687768e+002, 9.991169e+003
3.692589e+002, 9.995168e+003
3.697411e+002, 9.985804e+003
3.702232e+002, 9.977999e+003
3.707053e+002, 9.969797e+003
3.711874e+002, 9.965113e+003
3.716695e+002, 9.968142e+003
3.721516e+002, 9.977440e+003
3.726338e+002, 9.986689e+003
3.731159e+002, 9.988726e+003
3.735980e+002, 9.983979e+003
3.740801e+002, 9.988373e+003
3.745622e+002, 1.000886e+004
3.750443e+002, 1.003053e+004
3.755265e+002, 1.004890e+004
3.760086e+002, 1.006505e+004
3.764907e+002, 1.008049e+004
3.769728e+002, 1.009582e+004
3.774549e+002, 1.011146e+004
3.779370e+002, 1.012812e+004
3.784192e+002, 1.014524e+004
3.789013e+002, 1.016508e+004
3.793834e+002, 1.019135e+004
3.798655e+002, 1.021876e+004
3.803476e+002, 1.024172e+004
3.808297e+002, 1.025928e+004
3.813119e+002, 1.027878e+004
3.817940e+002, 1.030849e+004
3.822761e+002, 1.034826e+004
3.827582e+002, 1.038852e+004
3.832403e+002, 1.042857e+004
3.837224e+002, 1.046836e+004
3.842046e+002, 1.050817e+004
3.846867e+002, 1.054774e+004
3.851688e+002, 1.058715e+004
3.856509e+002, 1.062419e+004
3.861330e+002, 1.066110e+004
3.866151e+002, 1.070388e+004
3.870973e+002, 1.075347e+004
3.875794e+002, 1.080490e+004
3.880615e+002, 1.085387e+004
3.885436e+002, 1.090355e+004
3.890257e+002, 1.095919e+004
3.895078e+002, 1.102310e+004
3.899900e+002, 1.109058e+004
3.904721e+002, 1.115713e+004
3.909542e+002, 1.122338e+004
3.914363e+002, 1.129269e+004
3.919184e+002, 1.136695e+004
3.924005e+002, 1.144389e+004
3.928827e+002, 1.152102e+004
3.933648e+002, 1.159856e+004
3.938469e+002, 1.167444e+004
3.943290e+002, 1.174916e+004
3.948111e+002, 1.182125e+004
3.952932e+002, 1.188810e+004
3.957754e+002, 1.195008e+004
3.962575e+002, 1.200585e+004
3.967396e+002, 1.205653e+004
3.972217e+002, 1.210046e+004
3.977038e+002, 1.212915e+004
3.981859e+002, 1.214178e+004
3.986681e+002, 1.213980e+004
3.991501e+002, 1.212308e+004
3.996323e+002, 1.209234e+004
4.001144e+002, 1.204950e+004
4.005965e+002, 1.199500e+004
4.010786e+002, 1.192977e+004
4.015607e+002, 1.185620e+004
4.020428e+002, 1.177387e+004
4.025250e+002, 1.168544e+004
4.030071e+002, 1.158901e+004
4.034892e+002, 1.148758e+004
4.039713e+002, 1.138402e+004
4.044534e+002, 1.127961e+004
4.049355e+002, 1.117512e+004
4.054177e+002, 1.107078e+004
4.058998e+002, 1.096576e+004
4.063819e+002, 1.086955e+004
4.068640e+002, 1.078373e+004
4.073461e+002, 1.070434e+004
4.078282e+002, 1.062995e+004
4.083104e+002, 1.056015e+004
4.087925e+002, 1.049467e+004
4.092746e+002, 1.043274e+004
4.097567e+002, 1.037443e+004
4.102388e+002, 1.031869e+004
4.107209e+002, 1.026536e+004
4.112031e+002, 1.021546e+004
4.116852e+002, 1.016810e+004
4.121673e+002, 1.012459e+004
4.126494e+002, 1.008676e+004
4.131315e+002, 1.005479e+004
4.136136e+002, 1.002630e+004
4.140958e+002, 9.997891e+003
4.145779e+002, 9.968406e+003
4.150600e+002, 9.943240e+003
4.155421e+002, 9.927643e+003
4.160242e+002, 9.911725e+003
4.165063e+002, 9.889621e+003
4.169885e+002, 9.863966e+003
4.174706e+002, 9.841850e+003
4.179527e+002, 9.827954e+003
4.184348e+002, 9.820581e+003
4.189169e+002, 9.813610e+003
4.193990e+002, 9.806270e+003
4.198812e+002, 9.801285e+003
4.203633e+002, 9.802614e+003
4.208454e+002, 9.804879e+003
4.213275e+002, 9.802640e+003
4.218096e+002, 9.794501e+003
4.222917e+002, 9.784526e+003
4.227739e+002, 9.775831e+003
4.232560e+002, 9.768471e+003
4.237381e+002, 9.764365e+003
4.242202e+002, 9.766074e+003
4.247023e+002, 9.767885e+003
4.251844e+002, 9.764316e+003
4.256666e+002, 9.756889e+003
4.261487e+002, 9.751192e+003
4.266308e+002, 9.750018e+003
4.271129e+002, 9.751700e+003
4.275950e+002, 9.754317e+003
4.280771e+002, 9.757950e+003
4.285593e+002, 9.761192e+003
4.290414e+002, 9.763137e+003
4.295235e+002, 9.764342e+003
4.300056e+002, 9.766319e+003
4.304877e+002, 9.770038e+003
4.309698e+002, 9.772519e+003
4.314520e+002, 9.771151e+003
4.319341e+002, 9.767733e+003
4.324162e+002, 9.765580e+003
4.328983e+002, 9.765466e+003
4.333804e+002, 9.767308e+003
4.338625e+002, 9.771911e+003
4.343447e+002, 9.779917e+003
4.348268e+002, 9.784396e+003
4.353089e+002, 9.781063e+003
4.357910e+002, 9.777537e+003
4.362731e+002, 9.779847e+003
4.367552e+002, 9.786590e+003
4.372374e+002, 9.791967e+003
4.377195e+002, 9.792321e+003
4.382016e+002, 9.789334e+003
4.386837e+002, 9.789479e+003
4.391658e+002, 9.794108e+003
4.396479e+002, 9.800247e+003
4.401301e+002, 9.807334e+003
4.406122e+002, 9.816079e+003
4.410943e+002, 9.828618e+003
4.415764e+002, 9.844592e+003
4.420585e+002, 9.859956e+003
4.425406e+002, 9.870036e+003
4.430227e+002, 9.874503e+003
4.435049e+002, 9.876537e+003
4.439870e+002, 9.877715e+003
4.444691e+002, 9.874799e+003
4.449512e+002, 9.866244e+003
4.454333e+002, 9.852999e+003
4.459154e+002, 9.836593e+003
4.463976e+002, 9.817939e+003
4.468797e+002, 9.796300e+003
4.473618e+002, 9.768819e+003
4.478439e+002, 9.732304e+003
4.483260e+002, 9.699465e+003
4.488081e+002, 9.674487e+003
4.492903e+002, 9.652379e+003
4.497724e+002, 9.629512e+003
4.502545e+002, 9.605990e+003
4.507366e+002, 9.585252e+003
4.512187e+002, 9.570516e+003
4.517008e+002, 9.560826e+003
4.521830e+002, 9.552379e+003
4.526651e+002, 9.544434e+003
4.531472e+002, 9.539437e+003
4.536293e+002, 9.539376e+003
4.541114e+002, 9.543054e+003
4.545935e+002, 9.550003e+003
4.550757e+002, 9.562244e+003
4.555578e+002, 9.573479e+003
4.560399e+002, 9.578482e+003
4.565220e+002, 9.577995e+003
4.570041e+002, 9.575125e+003
4.574862e+002, 9.570366e+003
4.579684e+002, 9.564313e+003
4.584505e+002, 9.557962e+003
4.589326e+002, 9.551488e+003
4.594147e+002, 9.542698e+003
4.598968e+002, 9.534393e+003
4.603789e+002, 9.521415e+003
4.608611e+002, 9.496178e+003
4.613432e+002, 9.460659e+003
4.618253e+002, 9.426079e+003
4.623074e+002, 9.399043e+003
4.627895e+002, 9.378283e+003
4.632716e+002, 9.357909e+003
4.637538e+002, 9.336393e+003
4.642359e+002, 9.317246e+003
4.647180e+002, 9.302331e+003
4.652001e+002, 9.288988e+003
4.656822e+002, 9.273558e+003
4.661643e+002, 9.255746e+003
4.666465e+002, 9.239628e+003
4.671286e+002, 9.230101e+003
4.676107e+002, 9.227938e+003
4.680928e+002, 9.223803e+003
4.685749e+002, 9.215122e+003
4.690570e+002, 9.207063e+003
4.695392e+002, 9.201767e+003
4.700213e+002, 9.197720e+003
4.705034e+002, 9.192692e+003
4.709855e+002, 9.185694e+003
4.714676e+002, 9.177432e+003
4.719497e+002, 9.168726e+003
4.724319e+002, 9.159115e+003
4.729140e+002, 9.151280e+003
4.733961e+002, 9.147268e+003
4.738782e+002, 9.143913e+003
4.743603e+002, 9.139335e+003
4.748424e+002, 9.133823e+003
4.753246e+002, 9.128796e+003
4.758067e+002, 9.126042e+003
4.762888e+002, 9.124091e+003
4.767709e+002, 9.119624e+003
4.772530e+002, 9.112498e+003
4.777351e+002, 9.103798e+003
4.782173e+002, 9.091440e+003
4.786994e+002, 9.079325e+003
4.791815e+002, 9.073871e+003
4.796636e+002, 9.076922e+003
4.801457e+002, 9.080748e+003
4.806278e+002, 9.081628e+003
4.811100e+002, 9.080607e+003
4.815920e+002, 9.079054e+003
4.820742e+002, 9.077104e+003
4.825563e+002, 9.076471e+003
4.830384e+002, 9.079780e+003
4.835205e+002, 9.086706e+003
4.840026e+002, 9.087927e+003
4.844847e+002, 9.078254e+003
4.849669e+002, 9.068822e+003
4.854490e+002, 9.064321e+003
4.859311e+002, 9.063048e+003
4.864132e+002, 9.061856e+003
4.868953e+002, 9.059554e+003
4.873774e+002, 9.057029e+003
4.878596e+002, 9.056062e+003
4.883417e+002, 9.058580e+003
4.888238e+002, 9.057192e+003
4.893059e+002, 9.048488e+003
4.897880e+002, 9.039857e+003
4.902701e+002, 9.035095e+003
4.907523e+002, 9.033363e+003
4.912344e+002, 9.032371e+003
4.917165e+002, 9.030997e+003
4.921986e+002, 9.028785e+003
4.926807e+002, 9.023915e+003
4.931628e+002, 9.014792e+003
4.936450e+002, 9.007531e+003
4.941271e+002, 9.004840e+003
4.946092e+002, 9.003504e+003
4.950913e+002, 9.002384e+003
4.955734e+002, 9.001004e+003
4.960555e+002, 8.997715e+003
4.965377e+002, 8.989475e+003
4.970198e+002, 8.978624e+003
4.975019e+002, 8.972027e+003
4.979840e+002, 8.970526e+003
4.984661e+002, 8.969946e+003
4.989482e+002, 8.969081e+003
4.994304e+002, 8.967177e+003
4.999125e+002, 8.962577e+003
5.003946e+002, 8.953660e+003
5.008767e+002, 8.945816e+003
5.013588e+002, 8.942269e+003
5.018409e+002, 8.941432e+003
5.023231e+002, 8.940827e+003
5.028052e+002, 8.939986e+003
5.032873e+002, 8.938378e+003
5.037694e+002, 8.935328e+003
5.042515e+002, 8.930762e+003
5.047336e+002, 8.926744e+003
5.052158e+002, 8.922764e+003
5.056979e+002, 8.919838e+003
5.061800e+002, 8.920169e+003
5.066621e+002, 8.921232e+003
5.071442e+002, 8.918020e+003
5.076263e+002, 8.908996e+003
5.081085e+002, 8.899377e+003
5.085906e+002, 8.898173e+003
5.090727e+002, 8.909351e+003
5.095548e+002, 8.914438e+003
5.100369e+002, 8.907599e+003
5.105190e+002, 8.900399e+003
5.110012e+002, 8.898825e+003
5.114833e+002, 8.899844e+003
5.119654e+002, 8.896597e+003
5.124475e+002, 8.884822e+003
5.129296e+002, 8.869949e+003
5.134117e+002, 8.862359e+003
5.138939e+002, 8.863079e+003
5.143760e+002, 8.863130e+003
5.148581e+002, 8.860947e+003
5.153402e+002, 8.857048e+003
5.158223e+002, 8.851332e+003
5.163044e+002, 8.844172e+003
5.167866e+002, 8.837793e+003
5.172687e+002, 8.833045e+003
5.177508e+002, 8.829634e+003
5.182329e+002, 8.827478e+003
5.187150e+002, 8.826497e+003
5.191971e+002, 8.825968e+003
5.196793e+002, 8.826088e+003
5.201614e+002, 8.825816e+003
5.206435e+002, 8.822510e+003
5.211256e+002, 8.815478e+003
5.216077e+002, 8.808100e+003
5.220898e+002, 8.800535e+003
5.225720e+002, 8.793126e+003
5.230541e+002, 8.785946e+003
5.235362e+002, 8.779193e+003
5.240183e+002, 8.773196e+003
5.245004e+002, 8.768071e+003
5.249825e+002, 8.764135e+003
5.254647e+002, 8.763274e+003
5.259468e+002, 8.772166e+003
5.264289e+002, 8.774337e+003
5.269110e+002, 8.762615e+003
5.273931e+002, 8.748016e+003
5.278752e+002, 8.739774e+003
5.283574e+002, 8.738668e+003
5.288395e+002, 8.739183e+003
5.293216e+002, 8.736402e+003
5.298037e+002, 8.731034e+003
5.302858e+002, 8.727824e+003
5.307679e+002, 8.728646e+003
5.312501e+002, 8.727278e+003
5.317322e+002, 8.717576e+003
5.322143e+002, 8.705968e+003
5.326964e+002, 8.699566e+003
5.331785e+002, 8.700076e+003
5.336606e+002, 8.701168e+003
5.341428e+002, 8.699147e+003
5.346249e+002, 8.694650e+003
5.351070e+002, 8.687958e+003
5.355891e+002, 8.678790e+003
5.360712e+002, 8.671585e+003
5.365533e+002, 8.670285e+003
5.370355e+002, 8.673968e+003
5.375176e+002, 8.676309e+003
5.379997e+002, 8.677090e+003
5.384818e+002, 8.676958e+003
5.389639e+002, 8.675833e+003
5.394460e+002, 8.674022e+003
5.399282e+002, 8.672297e+003
5.404103e+002, 8.670646e+003
5.408924e+002, 8.667451e+003
5.413745e+002, 8.660306e+003
5.418566e+002, 8.648931e+003
5.423387e+002, 8.643269e+003
5.428209e+002, 8.649493e+003
5.433029e+002, 8.654301e+003
5.437850e+002, 8.655314e+003
5.442672e+002, 8.653432e+003
5.447493e+002, 8.649199e+003
5.452314e+002, 8.642925e+003
5.457135e+002, 8.636161e+003
5.461956e+002, 8.630740e+003
5.466777e+002, 8.626520e+003
5.471599e+002, 8.621995e+003
5.476420e+002, 8.616912e+003
5.481241e+002, 8.611944e+003
5.486062e+002, 8.606544e+003
5.490883e+002, 8.601771e+003
5.495704e+002, 8.599869e+003
5.500526e+002, 8.602682e+003
5.505347e+002, 8.605298e+003
5.510168e+002, 8.605143e+003
5.514989e+002, 8.602490e+003
5.519810e+002, 8.597483e+003
5.524631e+002, 8.590106e+003
5.529453e+002, 8.581797e+003
5.534274e+002, 8.573745e+003
5.539095e+002, 8.565907e+003
5.543916e+002, 8.558536e+003
5.548737e+002, 8.550591e+003
5.553558e+002, 8.544213e+003
5.558380e+002, 8.541158e+003
5.563201e+002, 8.539405e+003
5.568022e+002, 8.536524e+003
5.572843e+002, 8.531888e+003
5.577664e+002, 8.526638e+003
5.582485e+002, 8.522178e+003
5.587307e+002, 8.518597e+003
5.592128e+002, 8.513755e+003
5.596949e+002, 8.505911e+003
5.601770e+002, 8.499437e+003
5.606591e+002, 8.497265e+003
5.611412e+002, 8.496466e+003
5.616234e+002, 8.493058e+003
5.621055e+002, 8.485849e+003
5.625876e+002, 8.478446e+003
5.630697e+002, 8.473518e+003
5.635518e+002, 8.470908e+003
5.640339e+002, 8.470774e+003
5.645161e+002, 8.473723e+003
5.649982e+002, 8.475987e+003
5.654803e+002, 8.473879e+003
5.659624e+002, 8.468865e+003
5.664445e+002, 8.467557e+003
5.669266e+002, 8.474046e+003
5.674088e+002, 8.478381e+003
5.678909e+002, 8.475218e+003
5.683730e+002, 8.468950e+003
5.688551e+002, 8.465099e+003
5.693372e+002, 8.464581e+003
5.698193e+002, 8.464977e+003
5.703015e+002, 8.464178e+003
5.707836e+002, 8.462191e+003
5.712657e+002, 8.459308e+003
5.717478e+002, 8.453241e+003
5.722299e+002, 8.449374e+003
5.727120e+002, 8.450389e+003
5.731942e+002, 8.452663e+003
5.736763e+002, 8.452990e+003
5.741584e+002, 8.450811e+003
5.746405e+002, 8.447413e+003
5.751226e+002, 8.443271e+003
5.756047e+002, 8.438740e+003
5.760869e+002, 8.434929e+003
5.765690e+002, 8.431352e+003
5.770511e+002, 8.430657e+003
5.775332e+002, 8.436646e+003
5.780153e+002, 8.444808e+003
5.784974e+002, 8.448333e+003
5.789796e+002, 8.446960e+003
5.794617e+002, 8.441679e+003
5.799438e+002, 8.427667e+003
5.804259e+002, 8.413061e+003
5.809080e+002, 8.409387e+003
5.813901e+002, 8.415752e+003
5.818723e+002, 8.420454e+003
5.823544e+002, 8.415684e+003
5.828365e+002, 8.404691e+003
5.833186e+002, 8.398526e+003
5.838007e+002, 8.401839e+003
5.842828e+002, 8.403117e+003
5.847650e+002, 8.400755e+003
5.852471e+002, 8.397690e+003
5.857292e+002, 8.396842e+003
5.862113e+002, 8.397187e+003
5.866934e+002, 8.394657e+003
5.871755e+002, 8.385716e+003
5.876577e+002, 8.374205e+003
5.881398e+002, 8.369863e+003
5.886219e+002, 8.373928e+003
5.891040e+002, 8.376291e+003
5.895861e+002, 8.372051e+003
5.900682e+002, 8.368093e+003
5.905504e+002, 8.371874e+003
5.910325e+002, 8.382135e+003
5.915146e+002, 8.390771e+003
5.919967e+002, 8.396655e+003
5.924788e+002, 8.398784e+003
5.929609e+002, 8.393402e+003
5.934431e+002, 8.383307e+003
5.939252e+002, 8.377439e+003
5.944073e+002, 8.379332e+003
5.948894e+002, 8.383459e+003
5.953715e+002, 8.381659e+003
5.958536e+002, 8.371640e+003
5.963358e+002, 8.366185e+003
5.968179e+002, 8.368901e+003
5.973000e+002, 8.371496e+003
5.977821e+002, 8.371996e+003
5.982642e+002, 8.370199e+003
5.987463e+002, 8.365201e+003
5.992285e+002, 8.356854e+003
5.997106e+002, 8.348565e+003
6.001927e+002, 8.345020e+003
6.006748e+002, 8.345981e+003
6.011569e+002, 8.345966e+003
6.016390e+002, 8.345030e+003
6.021212e+002, 8.342425e+003
6.026033e+002, 8.336717e+003
6.030854e+002, 8.329299e+003
6.035675e+002, 8.322410e+003
6.040496e+002, 8.316647e+003
6.045317e+002, 8.310303e+003
6.050139e+002, 8.302402e+003
6.054960e+002, 8.293406e+003
6.059781e+002, 8.283293e+003
6.064602e+002, 8.272405e+003
6.069423e+002, 8.263110e+003
6.074244e+002, 8.257493e+003
6.079066e+002, 8.254565e+003
6.083887e+002, 8.249638e+003
6.088708e+002, 8.239406e+003
6.093529e+002, 8.232082e+003
6.098350e+002, 8.231149e+003
6.103171e+002, 8.230611e+003
6.107993e+002, 8.226094e+003
6.112814e+002, 8.217987e+003
6.117635e+002, 8.208875e+003
6.122456e+002, 8.199492e+003
6.127277e+002, 8.191555e+003
6.132098e+002, 8.190646e+003
6.136920e+002, 8.197787e+003
6.141741e+002, 8.198884e+003
6.146562e+002, 8.187322e+003
6.151383e+002, 8.172704e+003
6.156204e+002, 8.164775e+003
6.161025e+002, 8.162439e+003
6.165847e+002, 8.159798e+003
6.170668e+002, 8.155205e+003
6.175489e+002, 8.150375e+003
6.180310e+002, 8.146405e+003
6.185131e+002, 8.142992e+003
6.189952e+002, 8.139706e+003
6.194774e+002, 8.136384e+003
6.199595e+002, 8.132395e+003
6.204416e+002, 8.126767e+003
6.209237e+002, 8.119282e+003
6.214058e+002, 8.113433e+003
6.218879e+002, 8.110540e+003
6.223701e+002, 8.107816e+003
6.228522e+002, 8.104708e+003
6.233343e+002, 8.101532e+003
6.238164e+002, 8.098625e+003
6.242985e+002, 8.096078e+003
6.247806e+002, 8.093799e+003
6.252628e+002, 8.092688e+003
6.257448e+002, 8.091673e+003
6.262269e+002, 8.087021e+003
6.267090e+002, 8.078257e+003
6.271912e+002, 8.070750e+003
6.276733e+002, 8.067314e+003
6.281554e+002, 8.066167e+003
6.286375e+002, 8.063845e+003
6.291196e+002, 8.059989e+003
6.296017e+002, 8.056858e+003
6.300839e+002, 8.054544e+003
6.305660e+002, 8.053198e+003
6.310481e+002, 8.053661e+003
6.315302e+002, 8.055081e+003
6.320123e+002, 8.055782e+003
6.324944e+002, 8.054991e+003
6.329766e+002, 8.052716e+003
6.334587e+002, 8.048268e+003
6.339408e+002, 8.040592e+003
6.344229e+002, 8.036224e+003
6.349050e+002, 8.037976e+003
6.353871e+002, 8.039547e+003
6.358693e+002, 8.037937e+003
6.363514e+002, 8.034517e+003
6.368335e+002, 8.031431e+003
6.373156e+002, 8.029320e+003
6.377977e+002, 8.027034e+003
6.382798e+002, 8.022699e+003
6.387620e+002, 8.017990e+003
6.392441e+002, 8.017367e+003
6.397262e+002, 8.021086e+003
6.402083e+002, 8.022277e+003
6.406904e+002, 8.015674e+003
6.411725e+002, 8.004171e+003
6.416547e+002, 7.997408e+003
6.421368e+002, 7.999567e+003
6.426189e+002, 8.000492e+003
6.431010e+002, 7.999164e+003
6.435831e+002, 7.997475e+003
6.440652e+002, 7.997252e+003
6.445474e+002, 7.997643e+003
6.450295e+002, 7.996131e+003
6.455116e+002, 7.991189e+003
6.459937e+002, 7.984816e+003
6.464758e+002, 7.980272e+003
6.469579e+002, 7.977546e+003
6.474401e+002, 7.974952e+003
6.479222e+002, 7.972860e+003
6.484043e+002, 7.969631e+003
6.488864e+002, 7.962951e+003
6.493685e+002, 7.954139e+003
6.498506e+002, 7.947398e+003
6.503328e+002, 7.942765e+003
6.508149e+002, 7.940783e+003
6.512970e+002, 7.944864e+003
6.517791e+002, 7.950048e+003
6.522612e+002, 7.949722e+003
6.527433e+002, 7.943741e+003
6.532255e+002, 7.936661e+003
6.537076e+002, 7.931623e+003
6.541897e+002, 7.928557e+003
6.546718e+002, 7.927236e+003
6.551539e+002, 7.927726e+003
6.556360e+002, 7.929694e+003
6.561182e+002, 7.936189e+003
6.566003e+002, 7.941351e+003
6.570824e+002, 7.940468e+003
6.575645e+002, 7.935324e+003
6.580466e+002, 7.931856e+003
6.585287e+002, 7.933328e+003
6.590109e+002, 7.935509e+003
6.594930e+002, 7.934350e+003
6.599751e+002, 7.930679e+003
6.604572e+002, 7.926518e+003
6.609393e+002, 7.922271e+003
6.614214e+002, 7.918576e+003
6.619036e+002, 7.915859e+003
6.623857e+002, 7.914204e+003
6.628678e+002, 7.914245e+003
6.633499e+002, 7.917956e+003
6.638320e+002, 7.920939e+003
6.643141e+002, 7.925588e+003
6.647963e+002, 7.927393e+003
6.652784e+002, 7.919622e+003
6.657605e+002, 7.905058e+003
6.662426e+002, 7.894852e+003
6.667247e+002, 7.897279e+003
6.672068e+002, 7.905591e+003
6.676890e+002, 7.907444e+003
6.681711e+002, 7.903029e+003
6.686532e+002, 7.898206e+003
6.691353e+002, 7.893518e+003
6.696174e+002, 7.890629e+003
6.700995e+002, 7.892650e+003
6.705817e+002, 7.898687e+003
6.710638e+002, 7.900112e+003
6.715459e+002, 7.890945e+003
6.720280e+002, 7.884269e+003
6.725101e+002, 7.887546e+003
6.729922e+002, 7.893404e+003
6.734744e+002, 7.892815e+003
6.739565e+002, 7.885625e+003
6.744386e+002, 7.878679e+003
6.749207e+002, 7.877216e+003
6.754028e+002, 7.879778e+003
6.758849e+002, 7.881863e+003
6.763671e+002, 7.883563e+003
6.768492e+002, 7.884292e+003
6.773313e+002, 7.883354e+003
6.778134e+002, 7.882038e+003
6.782955e+002, 7.881231e+003
6.787776e+002, 7.880906e+003
6.792598e+002, 7.881024e+003
6.797419e+002, 7.883038e+003
6.802240e+002, 7.883653e+003
6.807061e+002, 7.879953e+003
6.811882e+002, 7.873994e+003
6.816703e+002, 7.868697e+003
6.821525e+002, 7.864705e+003
6.826346e+002, 7.861729e+003
6.831167e+002, 7.859755e+003
6.835988e+002, 7.858383e+003
6.840809e+002, 7.855514e+003
6.845630e+002, 7.850396e+003
6.850452e+002, 7.845480e+003
6.855273e+002, 7.838674e+003
6.860094e+002, 7.834344e+003
6.864915e+002, 7.838444e+003
6.869736e+002, 7.847308e+003
6.874557e+002, 7.850012e+003
6.879379e+002, 7.840653e+003
6.884200e+002, 7.826939e+003
6.889021e+002, 7.812876e+003
6.893842e+002, 7.800094e+003
6.898663e+002, 7.793780e+003
6.903484e+002, 7.794658e+003
6.908306e+002, 7.796398e+003
6.913127e+002, 7.794006e+003
6.917948e+002, 7.788372e+003
6.922769e+002, 7.783948e+003
6.927590e+002, 7.782656e+003
6.932411e+002, 7.779583e+003
6.937233e+002, 7.774198e+003
6.942054e+002, 7.767557e+003
6.946875e+002, 7.758870e+003
6.951696e+002, 7.749586e+003
6.956517e+002, 7.743154e+003
6.961339e+002, 7.741654e+003
6.966160e+002, 7.741816e+003
6.970981e+002, 7.740589e+003
6.975802e+002, 7.738014e+003
6.980623e+002, 7.733243e+003
6.985444e+002, 7.725882e+003
6.990266e+002, 7.720730e+003
6.995087e+002, 7.722263e+003
6.999908e+002, 7.727872e+003
7.004729e+002, 7.727667e+003
7.009550e+002, 7.716742e+003
7.014371e+002, 7.707215e+003
7.019193e+002, 7.699138e+003
7.024014e+002, 7.692504e+003
7.028835e+002, 7.686974e+003
7.033656e+002, 7.682948e+003
7.038477e+002, 7.681802e+003
7.043298e+002, 7.684442e+003
7.048120e+002, 7.687481e+003
7.052941e+002, 7.686607e+003
7.057762e+002, 7.682489e+003
7.062583e+002, 7.677766e+003
7.067404e+002, 7.672456e+003
7.072225e+002, 7.668705e+003
7.077046e+002, 7.668961e+003
7.081867e+002, 7.670715e+003
7.086688e+002, 7.667189e+003
7.091509e+002, 7.655898e+003
7.096331e+002, 7.645906e+003
7.101152e+002, 7.636813e+003
7.105973e+002, 7.629992e+003
7.110794e+002, 7.626913e+003
7.115615e+002, 7.626458e+003
7.120436e+002, 7.627180e+003
7.125258e+002, 7.628471e+003
7.130079e+002, 7.629106e+003
7.134900e+002, 7.627526e+003
7.139721e+002, 7.624006e+003
7.144542e+002, 7.620315e+003
7.149363e+002, 7.616800e+003
7.154185e+002, 7.611086e+003
7.159006e+002, 7.600549e+003
7.163827e+002, 7.588921e+003
7.168648e+002, 7.583276e+003
7.173469e+002, 7.584934e+003
7.178290e+002, 7.584173e+003
7.183112e+002, 7.579518e+003
7.187933e+002, 7.573029e+003
7.192754e+002, 7.564791e+003
7.197575e+002, 7.555777e+003
7.202396e+002, 7.546653e+003
7.207217e+002, 7.537867e+003
7.212039e+002, 7.530667e+003
7.216860e+002, 7.526862e+003
7.221681e+002, 7.525498e+003
7.226502e+002, 7.523127e+003
7.231323e+002, 7.519815e+003
7.236144e+002, 7.514728e+003
7.240966e+002, 7.506831e+003
7.245787e+002, 7.498253e+003
7.250608e+002, 7.491139e+003
7.255429e+002, 7.485479e+003
7.260250e+002, 7.481974e+003
7.265071e+002, 7.484639e+003
7.269893e+002, 7.484776e+003
7.274714e+002, 7.477350e+003
7.279535e+002, 7.466920e+003
7.284356e+002, 7.457403e+003
7.289177e+002, 7.450170e+003
7.293998e+002, 7.446799e+003
7.298820e+002, 7.449301e+003
7.303641e+002, 7.454808e+003
7.308462e+002, 7.456560e+003
7.313283e+002, 7.454391e+003
7.318104e+002, 7.452019e+003
7.322925e+002, 7.449519e+003
7.327747e+002, 7.448282e+003
7.332568e+002, 7.449483e+003
7.337389e+002, 7.452945e+003
7.342210e+002, 7.457514e+003
7.347031e+002, 7.465705e+003
7.351852e+002, 7.470948e+003
7.356674e+002, 7.471064e+003
7.361495e+002, 7.468351e+003
7.366316e+002, 7.463250e+003
7.371137e+002, 7.457070e+003
7.375958e+002, 7.452273e+003
7.380779e+002, 7.450040e+003
7.385601e+002, 7.449775e+003
7.390422e+002, 7.451391e+003
7.395243e+002, 7.454568e+003
7.400064e+002, 7.456173e+003
7.404885e+002, 7.455945e+003
7.409706e+002, 7.454107e+003
7.414528e+002, 7.449789e+003
7.419349e+002, 7.444697e+003
7.424170e+002, 7.443150e+003
7.428991e+002, 7.446872e+003
7.433812e+002, 7.448042e+003
7.438633e+002, 7.443966e+003
7.443455e+002, 7.439436e+003
7.448276e+002, 7.437520e+003
7.453097e+002, 7.436654e+003
7.457918e+002, 7.433648e+003
7.462739e+002, 7.427891e+003
7.467560e+002, 7.422667e+003
7.472382e+002, 7.421718e+003
7.477203e+002, 7.423721e+003
7.482024e+002, 7.424786e+003
7.486845e+002, 7.424917e+003
7.491666e+002, 7.424088e+003
7.496487e+002, 7.421706e+003
7.501309e+002, 7.419837e+003
7.506130e+002, 7.421642e+003
7.510951e+002, 7.427457e+003
7.515772e+002, 7.429197e+003
7.520593e+002, 7.423646e+003
7.525414e+002, 7.418376e+003
7.530236e+002, 7.415994e+003
7.535057e+002, 7.413741e+003
7.539878e+002, 7.407953e+003
7.544699e+002, 7.399499e+003
7.549520e+002, 7.393367e+003
7.554341e+002, 7.393742e+003
7.559163e+002, 7.394662e+003
7.563984e+002, 7.384872e+003
7.568805e+002, 7.367771e+003
7.573626e+002, 7.360271e+003
7.578447e+002, 7.365720e+003
7.583268e+002, 7.370564e+003
7.588090e+002, 7.364310e+003
7.592911e+002, 7.351252e+003
7.597732e+002, 7.345880e+003
7.602553e+002, 7.355500e+003
7.607374e+002, 7.359824e+003
7.612195e+002, 7.355376e+003
7.617017e+002, 7.349961e+003
7.621838e+002, 7.347145e+003
7.626659e+002, 7.345974e+003
7.631480e+002, 7.344510e+003
7.636301e+002, 7.342243e+003
7.641122e+002, 7.340135e+003
7.645944e+002, 7.338562e+003
7.650765e+002, 7.337761e+003
7.655586e+002, 7.338225e+003
7.660407e+002, 7.339820e+003
7.665228e+002, 7.342070e+003
7.670049e+002, 7.344814e+003
7.674871e+002, 7.347242e+003
7.679692e+002, 7.347932e+003
7.684513e+002, 7.346641e+003
7.689334e+002, 7.348382e+003
7.694155e+002, 7.355625e+003
7.698976e+002, 7.361685e+003
7.703798e+002, 7.367117e+003
7.708619e+002, 7.369224e+003
7.713440e+002, 7.364313e+003
7.718261e+002, 7.353549e+003
7.723082e+002, 7.343100e+003
7.727903e+002, 7.335280e+003
7.732725e+002, 7.328208e+003
7.737546e+002, 7.320205e+003
7.742367e+002, 7.312350e+003
7.747188e+002, 7.307183e+003
7.752009e+002, 7.304404e+003
7.756830e+002, 7.300534e+003
7.761652e+002, 7.293259e+003
7.766473e+002, 7.283497e+003
7.771294e+002, 7.273005e+003
7.776115e+002, 7.261471e+003
7.780936e+002, 7.251323e+003
7.785757e+002, 7.242607e+003
7.790579e+002, 7.235572e+003
7.795400e+002, 7.231918e+003
7.800221e+002, 7.229408e+003
7.805042e+002, 7.224302e+003
7.809863e+002, 7.216044e+003
7.814684e+002, 7.207225e+003
7.819506e+002, 7.196587e+003
7.824327e+002, 7.187440e+003
7.829148e+002, 7.182576e+003
7.833969e+002, 7.180375e+003
7.838790e+002, 7.178680e+003
7.843611e+002, 7.176614e+003
7.848433e+002, 7.173310e+003
7.853254e+002, 7.168061e+003
7.858075e+002, 7.160895e+003
7.862896e+002, 7.149983e+003
7.867717e+002, 7.135206e+003
7.872538e+002, 7.128447e+003
7.877360e+002, 7.135159e+003
7.882181e+002, 7.143018e+003
7.887002e+002, 7.140225e+003
7.891823e+002, 7.128203e+003
7.896644e+002, 7.119123e+003
7.901465e+002, 7.114113e+003
7.906286e+002, 7.110258e+003
7.911107e+002, 7.108328e+003
7.915928e+002, 7.106610e+003
7.920750e+002, 7.103646e+003
7.925571e+002, 7.100096e+003
7.930392e+002, 7.097463e+003
7.935213e+002, 7.096330e+003
7.940034e+002, 7.095931e+003
7.944855e+002, 7.096378e+003
7.949677e+002, 7.096782e+003
7.954498e+002, 7.095367e+003
7.959319e+002, 7.092164e+003
7.964140e+002, 7.087721e+003
7.968961e+002, 7.082047e+003
7.973782e+002, 7.077285e+003
7.978604e+002, 7.076904e+003
7.983425e+002, 7.081179e+003
7.988246e+002, 7.081964e+003
7.993067e+002, 7.076980e+003
7.997888e+002, 7.072525e+003
8.002709e+002, 7.071432e+003
8.007531e+002, 7.070356e+003
8.012352e+002, 7.065735e+003
8.017173e+002, 7.058582e+003
8.021994e+002, 7.054227e+003
8.026815e+002, 7.055483e+003
8.031636e+002, 7.057750e+003
8.036458e+002, 7.058644e+003
8.041279e+002, 7.059309e+003
8.046100e+002, 7.061562e+003
8.050921e+002, 7.065013e+003
8.055742e+002, 7.067852e+003
8.060563e+002, 7.069128e+003
8.065385e+002, 7.068985e+003
8.070206e+002, 7.067259e+003
8.075027e+002, 7.064103e+003
8.079848e+002, 7.061412e+003
8.084669e+002, 7.059401e+003
8.089490e+002, 7.057178e+003
8.094312e+002, 7.054336e+003
8.099133e+002, 7.051131e+003
8.103954e+002, 7.048085e+003
8.108775e+002, 7.045390e+003
8.113596e+002, 7.041451e+003
8.118417e+002, 7.035320e+003
8.123239e+002, 7.029228e+003
8.128060e+002, 7.022963e+003
8.132881e+002, 7.017629e+003
8.137702e+002, 7.014804e+003
8.142523e+002, 7.014081e+003
8.147344e+002, 7.013247e+003
8.152166e+002, 7.010779e+003
8.156987e+002, 7.008682e+003
8.161808e+002, 7.009321e+003
8.166629e+002, 7.011844e+003
8.171450e+002, 7.015323e+003
8.176271e+002, 7.019175e+003
8.181093e+002, 7.020225e+003
8.185914e+002, 7.016447e+003
8.190735e+002, 7.009844e+003
8.195556e+002, 7.004006e+003
8.200377e+002, 6.998731e+003
8.205198e+002, 6.995236e+003
8.210020e+002, 6.994505e+003
8.214841e+002, 6.993494e+003
8.219662e+002, 6.991268e+003
8.224483e+002, 6.988021e+003
8.229304e+002, 6.983072e+003
8.234125e+002, 6.976598e+003
8.238947e+002, 6.973023e+003
8.243768e+002, 6.977202e+003
8.248589e+002, 6.979814e+003
8.253410e+002, 6.974568e+003
8.258231e+002, 6.967208e+003
8.263052e+002, 6.965192e+003
8.267874e+002, 6.967789e+003
8.272695e+002, 6.968456e+003
8.277516e+002, 6.963258e+003
8.282337e+002, 6.955913e+003
8.287158e+002, 6.951803e+003
8.291979e+002, 6.950093e+003
8.296801e+002, 6.947212e+003
8.301622e+002, 6.942852e+003
8.306443e+002, 6.938015e+003
8.311264e+002, 6.932914e+003
8.316085e+002, 6.928396e+003
8.320906e+002, 6.925917e+003
8.325728e+002, 6.925687e+003
8.330549e+002, 6.925745e+003
8.335370e+002, 6.927600e+003
8.340191e+002, 6.927383e+003
8.345012e+002, 6.923142e+003
8.349833e+002, 6.917488e+003
8.354655e+002, 6.911397e+003
8.359476e+002, 6.905599e+003
8.364297e+002, 6.902743e+003
8.369118e+002, 6.906697e+003
8.373939e+002, 6.908950e+003
8.378760e+002, 6.901529e+003
8.383582e+002, 6.892194e+003
8.388403e+002, 6.891751e+003
8.393224e+002, 6.898150e+003
8.398045e+002, 6.901424e+003
8.402866e+002, 6.896878e+003
8.407687e+002, 6.889201e+003
8.412509e+002, 6.884258e+003
8.417330e+002, 6.881784e+003
8.422151e+002, 6.880595e+003
8.426972e+002, 6.880765e+003
8.431793e+002, 6.880583e+003
8.436614e+002, 6.879304e+003
8.441436e+002, 6.877763e+003
8.446257e+002, 6.877034e+003
8.451078e+002, 6.877034e+003
8.455899e+002, 6.876028e+003
8.460720e+002, 6.871209e+003
8.465541e+002, 6.869409e+003
8.470363e+002, 6.875884e+003
8.475184e+002, 6.880954e+003
8.480005e+002, 6.877082e+003
8.484826e+002, 6.867361e+003
8.489647e+002, 6.859186e+003
8.494468e+002, 6.854453e+003
8.499290e+002, 6.851224e+003
8.504111e+002, 6.849094e+003
8.508932e+002, 6.847467e+003
8.513753e+002, 6.846031e+003
8.518574e+002, 6.844574e+003
8.523395e+002, 6.842496e+003
8.528217e+002, 6.839759e+003
8.533038e+002, 6.837438e+003
8.537859e+002, 6.837102e+003
8.542680e+002, 6.837622e+003
8.547501e+002, 6.834986e+003
8.552322e+002, 6.829214e+003
8.557144e+002, 6.823581e+003
8.561965e+002, 6.818429e+003
8.566786e+002, 6.815085e+003
8.571607e+002, 6.815269e+003
8.576428e+002, 6.817478e+003
8.581249e+002, 6.816817e+003
8.586071e+002, 6.811558e+003
8.590892e+002, 6.807055e+003
8.595713e+002, 6.803179e+003
8.600534e+002, 6.800082e+003
8.605355e+002, 6.798108e+003
8.610176e+002, 6.796706e+003
8.614998e+002, 6.795158e+003
8.619819e+002, 6.793393e+003
8.624640e+002, 6.792037e+003
8.629461e+002, 6.792467e+003
8.634282e+002, 6.792147e+003
8.639103e+002, 6.789391e+003
8.643925e+002, 6.784805e+003
8.648746e+002, 6.778104e+003
8.653567e+002, 6.770240e+003
8.658388e+002, 6.764931e+003
8.663209e+002, 6.764615e+003
8.668030e+002, 6.765706e+003
8.672852e+002, 6.761717e+003
8.677673e+002, 6.754030e+003
8.682494e+002, 6.750577e+003
8.687315e+002, 6.751967e+003
8.692136e+002, 6.752905e+003
8.696957e+002, 6.751233e+003
8.701779e+002, 6.748060e+003
8.706600e+002, 6.744881e+003
8.711421e+002, 6.741700e+003
8.716242e+002, 6.737336e+003
8.721063e+002, 6.729895e+003
8.725884e+002, 6.724576e+003
8.730705e+002, 6.723253e+003
8.735526e+002, 6.723376e+003
8.740347e+002, 6.724609e+003
8.745168e+002, 6.725967e+003
8.749990e+002, 6.725097e+003
8.754811e+002, 6.721013e+003
8.759632e+002, 6.716548e+003
8.764453e+002, 6.712646e+003
8.769274e+002, 6.708785e+003
8.774095e+002, 6.704518e+003
8.778917e+002, 6.700057e+003
8.783738e+002, 6.695083e+003
8.788559e+002, 6.689948e+003
8.793380e+002, 6.687251e+003
8.798201e+002, 6.691109e+003
8.803022e+002, 6.696096e+003
8.807844e+002, 6.690337e+003
8.812665e+002, 6.677833e+003
8.817486e+002, 6.674838e+003
8.822307e+002, 6.683408e+003
8.827128e+002, 6.692048e+003
8.831949e+002, 6.693622e+003
8.836771e+002, 6.690211e+003
8.841592e+002, 6.685504e+003
8.846413e+002, 6.678977e+003
8.851234e+002, 6.674832e+003
8.856055e+002, 6.673255e+003
8.860876e+002, 6.673749e+003
8.865698e+002, 6.678557e+003
8.870519e+002, 6.682784e+003
8.875340e+002, 6.680014e+003
8.880161e+002, 6.670731e+003
8.884982e+002, 6.662841e+003
8.889803e+002, 6.656319e+003
8.894625e+002, 6.651537e+003
8.899446e+002, 6.648925e+003
8.904267e+002, 6.647722e+003
8.909088e+002, 6.648722e+003
8.913909e+002, 6.650412e+003
8.918730e+002, 6.649485e+003
8.923552e+002, 6.644901e+003
8.928373e+002, 6.641483e+003
8.933194e+002, 6.647528e+003
8.938015e+002, 6.651955e+003
8.942836e+002, 6.638433e+003
8.947657e+002, 6.615344e+003
8.952479e+002, 6.600871e+003
8.957300e+002, 6.598407e+003
8.962121e+002, 6.599955e+003
8.966942e+002, 6.600078e+003
8.971763e+002, 6.598873e+003
8.976584e+002, 6.595560e+003
8.981406e+002, 6.590571e+003
8.986227e+002, 6.589076e+003
8.991048e+002, 6.591824e+003
8.995869e+002, 6.594251e+003
9.000690e+002, 6.594410e+003
9.005511e+002, 6.592492e+003
9.010333e+002, 6.588643e+003
9.015154e+002, 6.582781e+003
9.019975e+002, 6.576371e+003
9.024796e+002, 6.567592e+003
9.029617e+002, 6.561628e+003
9.034438e+002, 6.559841e+003
9.039260e+002, 6.560890e+003
9.044081e+002, 6.566816e+003
9.048902e+002, 6.574549e+003
9.053723e+002, 6.575453e+003
9.058544e+002, 6.565568e+003
9.063365e+002, 6.557670e+003
9.068187e+002, 6.556515e+003
9.073008e+002, 6.556464e+003
9.077829e+002, 6.555195e+003
9.082650e+002, 6.552381e+003
9.087471e+002, 6.546825e+003
9.092292e+002, 6.539083e+003
9.097114e+002, 6.533002e+003
9.101935e+002, 6.531244e+003
9.106756e+002, 6.531447e+003
9.111577e+002, 6.533087e+003
9.116398e+002, 6.534167e+003
9.121219e+002, 6.529345e+003
9.126041e+002, 6.519775e+003
9.130862e+002, 6.513338e+003
9.135683e+002, 6.513799e+003
9.140504e+002, 6.515583e+003
9.145325e+002, 6.510420e+003
9.150146e+002, 6.499938e+003
9.154968e+002, 6.493259e+003
9.159789e+002, 6.490518e+003
9.164610e+002, 6.488893e+003
9.169431e+002, 6.487765e+003
9.174252e+002, 6.487397e+003
9.179073e+002, 6.488244e+003
9.183895e+002, 6.489803e+003
9.188716e+002, 6.490097e+003
9.193537e+002, 6.488193e+003
9.198358e+002, 6.487481e+003
9.203179e+002, 6.491147e+003
9.208000e+002, 6.491262e+003
9.212822e+002, 6.480864e+003
9.217643e+002, 6.467686e+003
9.222464e+002, 6.460351e+003
9.227285e+002, 6.458721e+003
9.232106e+002, 6.456998e+003
9.236927e+002, 6.453636e+003
9.241749e+002, 6.451031e+003
9.246570e+002, 6.453187e+003
9.251391e+002, 6.453380e+003
9.256212e+002, 6.442424e+003
9.261033e+002, 6.426417e+003
9.265854e+002, 6.419541e+003
9.270676e+002, 6.426225e+003
9.275497e+002, 6.432849e+003
9.280318e+002, 6.429555e+003
9.285139e+002, 6.422775e+003
9.289960e+002, 6.418442e+003
9.294781e+002, 6.415762e+003
9.299603e+002, 6.412117e+003
9.304424e+002, 6.407658e+003
9.309245e+002, 6.406312e+003
9.314066e+002, 6.411181e+003
9.318887e+002, 6.416894e+003
9.323708e+002, 6.413575e+003
9.328530e+002, 6.403671e+003
9.333351e+002, 6.397469e+003
9.338172e+002, 6.395340e+003
9.342993e+002, 6.393471e+003
9.347814e+002, 6.390291e+003
9.352635e+002, 6.388859e+003
9.357457e+002, 6.393485e+003
9.362278e+002, 6.402155e+003
9.367099e+002, 6.402128e+003
9.371920e+002, 6.390670e+003
9.376741e+002, 6.382367e+003
9.381563e+002, 6.379587e+003
9.386384e+002, 6.378507e+003
9.391205e+002, 6.377821e+003
9.396026e+002, 6.376856e+003
9.400847e+002, 6.373906e+003
9.405668e+002, 6.368109e+003
9.410490e+002, 6.365550e+003
9.415311e+002, 6.372822e+003
9.420132e+002, 6.374284e+003
9.424953e+002, 6.360562e+003
9.429774e+002, 6.345929e+003
9.434595e+002, 6.341916e+003
9.439417e+002, 6.345327e+003
9.444238e+002, 6.346518e+003
9.449059e+002, 6.342741e+003
9.453880e+002, 6.340237e+003
9.458701e+002, 6.344396e+003
9.463522e+002, 6.347201e+003
9.468344e+002, 6.341037e+003
9.473165e+002, 6.331534e+003
9.477986e+002, 6.327023e+003
9.482807e+002, 6.327850e+003
9.487628e+002, 6.327866e+003
9.492449e+002, 6.323093e+003
9.497271e+002, 6.318223e+003
9.502092e+002, 6.319189e+003
9.506913e+002, 6.322091e+003
9.511734e+002, 6.321037e+003
9.516555e+002, 6.316219e+003
9.521376e+002, 6.308603e+003
9.526198e+002, 6.299085e+003
9.531019e+002, 6.293067e+003
9.535840e+002, 6.297320e+003
9.540661e+002, 6.306729e+003
9.545482e+002, 6.308293e+003
9.550303e+002, 6.303192e+003
9.555124e+002, 6.299184e+003
9.559945e+002, 6.297338e+003
9.564766e+002, 6.295642e+003
9.569587e+002, 6.292903e+003
9.574409e+002, 6.290222e+003
9.579230e+002, 6.289533e+003
9.584051e+002, 6.290773e+003
9.588872e+002, 6.291402e+003
9.593693e+002, 6.291366e+003
9.598514e+002, 6.290844e+003
9.603336e+002, 6.289700e+003
9.608157e+002, 6.288581e+003
9.612978e+002, 6.288561e+003
9.617799e+002, 6.288563e+003
9.622620e+002, 6.285128e+003
9.627441e+002, 6.275820e+003
9.632263e+002, 6.270655e+003
9.637084e+002, 6.271683e+003
9.641905e+002, 6.274195e+003
9.646726e+002, 6.279444e+003
9.651547e+002, 6.283634e+003
9.656368e+002, 6.283393e+003
9.661190e+002, 6.279175e+003
9.666011e+002, 6.273228e+003
9.670832e+002, 6.263720e+003
9.675653e+002, 6.256764e+003
9.680474e+002, 6.255364e+003
9.685295e+002, 6.254994e+003
9.690117e+002, 6.252186e+003
9.694938e+002, 6.249339e+003
9.699759e+002, 6.251792e+003
9.704580e+002, 6.258773e+003
9.709401e+002, 6.260448e+003
9.714222e+002, 6.248715e+003
9.719044e+002, 6.236767e+003
9.723865e+002, 6.234084e+003
9.728686e+002, 6.234476e+003
9.733507e+002, 6.231604e+003
9.738328e+002, 6.226192e+003
9.743149e+002, 6.220685e+003
9.747971e+002, 6.216082e+003
9.752792e+002, 6.213709e+003
9.757613e+002, 6.216146e+003
9.762434e+002, 6.219717e+003
9.767255e+002, 6.219512e+003
9.772076e+002, 6.216665e+003
9.776898e+002, 6.212701e+003
9.781719e+002, 6.208403e+003
9.786540e+002, 6.206412e+003
9.791361e+002, 6.207946e+003
9.796182e+002, 6.209752e+003
9.801003e+002, 6.207603e+003
9.805825e+002, 6.202535e+003
9.810646e+002, 6.196525e+003
9.815467e+002, 6.190292e+003
9.820288e+002, 6.191715e+003
9.825109e+002, 6.202323e+003
9.829930e+002, 6.209181e+003
9.834752e+002, 6.203224e+003
9.839573e+002, 6.191557e+003
9.844394e+002, 6.188563e+003
9.849215e+002, 6.194350e+003
9.854036e+002, 6.193314e+003
9.858857e+002, 6.183765e+003
9.863679e+002, 6.178021e+003
9.868500e+002, 6.180622e+003
9.873321e+002, 6.183150e+003
9.878142e+002, 6.177599e+003
9.882963e+002, 6.167811e+003
9.887784e+002, 6.166791e+003
9.892606e+002, 6.179076e+003
9.897427e+002, 6.183693e+003
9.902248e+002, 6.177136e+003
9.907069e+002, 6.169373e+003
9.911890e+002, 6.161278e+003
9.916711e+002, 6.155623e+003
9.921533e+002, 6.156307e+003
9.926354e+002, 6.162099e+003
9.931175e+002, 6.165694e+003
9.935996e+002, 6.166857e+003
9.940817e+002, 6.166303e+003
9.945638e+002, 6.162729e+003
9.950460e+002, 6.159048e+003
9.955281e+002, 6.155909e+003
9.960102e+002, 6.153576e+003
9.964923e+002, 6.153098e+003
9.969744e+002, 6.153997e+003
9.974565e+002, 6.152838e+003
9.979387e+002, 6.146405e+003
9.984208e+002, 6.142179e+003
9.989029e+002, 6.143948e+003
9.993850e+002, 6.146471e+003
9.998671e+002, 6.147380e+003
1.000349e+003, 6.146470e+003
1.000831e+003, 6.142919e+003
1.001313e+003, 6.137122e+003
1.001796e+003, 6.132714e+003
1.002278e+003, 6.132005e+003
1.002760e+003, 6.131811e+003
1.003242e+003, 6.130376e+003
1.003724e+003, 6.128701e+003
1.004206e+003, 6.126662e+003
1.004688e+003, 6.125468e+003
1.005170e+003, 6.128968e+003
1.005653e+003, 6.137125e+003
1.006135e+003, 6.140887e+003
1.006617e+003, 6.130619e+003
1.007099e+003, 6.118869e+003
1.007581e+003, 6.118828e+003
1.008063e+003, 6.123821e+003
1.008545e+003, 6.124576e+003
1.009027e+003, 6.121521e+003
1.009509e+003, 6.118604e+003
1.009992e+003, 6.117375e+003
1.010474e+003, 6.118208e+003
1.010956e+003, 6.123391e+003
1.011438e+003, 6.128678e+003
1.011920e+003, 6.126294e+003
1.012402e+003, 6.119382e+003
1.012884e+003, 6.115029e+003
1.013366e+003, 6.113800e+003
1.013849e+003, 6.113422e+003
1.014331e+003, 6.112881e+003
1.014813e+003, 6.112577e+003
1.015295e+003, 6.113413e+003
1.015777e+003, 6.114447e+003
1.016259e+003, 6.111985e+003
1.016741e+003, 6.107354e+003
1.017223e+003, 6.107921e+003
1.017705e+003, 6.114215e+003
1.018188e+003, 6.119305e+003
1.018670e+003, 6.119586e+003
1.019152e+003, 6.117718e+003
1.019634e+003, 6.117458e+003
1.020116e+003, 6.118193e+003
1.020598e+003, 6.116510e+003
1.021080e+003, 6.112528e+003
1.021562e+003, 6.108971e+003
1.022044e+003, 6.106212e+003
1.022527e+003, 6.106013e+003
1.023009e+003, 6.109677e+003
1.023491e+003, 6.115051e+003
1.023973e+003, 6.118897e+003
1.024455e+003, 6.121232e+003
1.024937e+003, 6.122002e+003
1.025419e+003, 6.121063e+003
1.025901e+003, 6.119666e+003
1.026384e+003, 6.117710e+003
1.026866e+003, 6.117104e+003
1.027348e+003, 6.119624e+003
1.027830e+003, 6.122915e+003
1.028312e+003, 6.122180e+003
1.028794e+003, 6.117151e+003
1.029276e+003, 6.115587e+003
1.029758e+003, 6.118971e+003
1.030240e+003, 6.120240e+003
1.030723e+003, 6.116383e+003
1.031205e+003, 6.114433e+003
1.031687e+003, 6.120216e+003
1.032169e+003, 6.129498e+003
1.032651e+003, 6.133156e+003
1.033133e+003, 6.129951e+003
1.033615e+003, 6.131583e+003
1.034097e+003, 6.141226e+003
1.034579e+003, 6.148569e+003
1.035062e+003, 6.150609e+003
1.035544e+003, 6.151429e+003
1.036026e+003, 6.153698e+003
1.036508e+003, 6.156478e+003
1.036990e+003, 6.157605e+003
1.037472e+003, 6.156477e+003
1.037954e+003, 6.156934e+003
1.038436e+003, 6.160967e+003
1.038919e+003, 6.163275e+003
1.039401e+003, 6.159803e+003
1.039883e+003, 6.157841e+003
1.040365e+003, 6.164056e+003
1.040847e+003, 6.174527e+003
1.041329e+003, 6.180690e+003
1.041811e+003, 6.181632e+003
1.042293e+003, 6.183580e+003
1.042776e+003, 6.188323e+003
1.043258e+003, 6.191874e+003
1.043740e+003, 6.191540e+003
1.044222e+003, 6.191831e+003
1.044704e+003, 6.196467e+003
1.045186e+003, 6.203540e+003
1.045668e+003, 6.209038e+003
1.046150e+003, 6.212306e+003
1.046632e+003, 6.216771e+003
1.047115e+003, 6.223674e+003
1.047597e+003, 6.230567e+003
1.048079e+003, 6.235023e+003
1.048561e+003, 6.240997e+003
1.049043e+003, 6.253703e+003
1.049525e+003, 6.268940e+003
1.050007e+003, 6.278533e+003
1.050489e+003, 6.281026e+003
1.050971e+003, 6.283772e+003
1.051454e+003, 6.288229e+003
1.051936e+003, 6.292988e+003
1.052418e+003, 6.298286e+003
1.052900e+003, 6.303095e+003
1.053382e+003, 6.306813e+003
1.053864e+003, 6.309474e+003
1.054346e+003, 6.311387e+003
1.054828e+003, 6.312626e+003
1.055311e+003, 6.312172e+003
1.055793e+003, 6.309922e+003
1.056275e+003, 6.305736e+003
1.056757e+003, 6.298032e+003
1.057239e+003, 6.289889e+003
1.057721e+003, 6.284743e+003
1.058203e+003, 6.280376e+003
1.058685e+003, 6.271876e+003
1.059167e+003, 6.258646e+003
1.059650e+003, 6.247483e+003
1.060132e+003, 6.243104e+003
1.060614e+003, 6.237788e+003
1.061096e+003, 6.228342e+003
1.061578e+003, 6.217063e+003
1.062060e+003, 6.205542e+003
1.062542e+003, 6.193409e+003
1.063024e+003, 6.178914e+003
1.063506e+003, 6.162181e+003
1.063989e+003, 6.148180e+003
1.064471e+003, 6.140539e+003
1.064953e+003, 6.133193e+003
1.065435e+003, 6.125319e+003
1.065917e+003, 6.115099e+003
1.066399e+003, 6.099970e+003
1.066881e+003, 6.082124e+003
1.067363e+003, 6.064016e+003
1.067846e+003, 6.046602e+003
1.068328e+003, 6.032408e+003
1.068810e+003, 6.024697e+003
1.069292e+003, 6.016391e+003
1.069774e+003, 6.000133e+003
1.070256e+003, 5.986425e+003
1.070738e+003, 5.988089e+003
1.071220e+003, 5.994559e+003
1.071703e+003, 5.988480e+003
1.072185e+003, 5.969978e+003
1.072667e+003, 5.955454e+003
1.073149e+003, 5.952528e+003
1.073631e+003, 5.950681e+003
1.074113e+003, 5.945258e+003
1.074595e+003, 5.938888e+003
1.075077e+003, 5.933374e+003
1.075559e+003, 5.928124e+003
1.076042e+003, 5.921998e+003
1.076524e+003, 5.915114e+003
1.077006e+003, 5.908677e+003
1.077488e+003, 5.903146e+003
1.077970e+003, 5.897865e+003
1.078452e+003, 5.890611e+003
1.078934e+003, 5.885591e+003
1.079416e+003, 5.889339e+003
1.079898e+003, 5.894353e+003
1.080380e+003, 5.889639e+003
1.080863e+003, 5.877618e+003
1.081345e+003, 5.870450e+003
1.081827e+003, 5.872951e+003
1.082309e+003, 5.875000e+003
1.082791e+003, 5.872389e+003
1.083273e+003, 5.867506e+003
1.083755e+003, 5.859638e+003
1.084237e+003, 5.851884e+003
1.084720e+003, 5.847290e+003
1.085202e+003, 5.845629e+003
1.085684e+003, 5.845873e+003
1.086166e+003, 5.848037e+003
1.086648e+003, 5.848978e+003
1.087130e+003, 5.847337e+003
1.087612e+003, 5.844136e+003
1.088094e+003, 5.838900e+003
1.088577e+003, 5.833172e+003
1.089059e+003, 5.827503e+003
1.089541e+003, 5.822763e+003
1.090023e+003, 5.821204e+003
1.090505e+003, 5.823310e+003
1.090987e+003, 5.823628e+003
1.091469e+003, 5.819494e+003
1.091951e+003, 5.814117e+003
1.092433e+003, 5.808787e+003
1.092916e+003, 5.802936e+003
1.093398e+003, 5.794674e+003
1.093880e+003, 5.786333e+003
1.094362e+003, 5.782220e+003
1.094844e+003, 5.782672e+003
1.095326e+003, 5.782958e+003
1.095808e+003, 5.780709e+003
1.096290e+003, 5.779432e+003
1.096772e+003, 5.781946e+003
1.097255e+003, 5.783987e+003
1.097737e+003, 5.781233e+003
1.098219e+003, 5.777307e+003
1.098701e+003, 5.778582e+003
1.099183e+003, 5.784240e+003
1.099665e+003, 5.785205e+003
1.100147e+003, 5.775959e+003
1.100629e+003, 5.768993e+003
1.101112e+003, 5.769568e+003
1.101594e+003, 5.770666e+003
1.102076e+003, 5.767761e+003
1.102558e+003, 5.764410e+003
1.103040e+003, 5.765476e+003
1.103522e+003, 5.769636e+003
1.104004e+003, 5.770864e+003
1.104486e+003, 5.767030e+003
1.104969e+003, 5.764254e+003
1.105451e+003, 5.765544e+003
1.105933e+003, 5.765540e+003
1.106415e+003, 5.758932e+003
1.106897e+003, 5.753456e+003
1.107379e+003, 5.758545e+003
1.107861e+003, 5.768937e+003
1.108343e+003, 5.770175e+003
1.108825e+003, 5.758547e+003
1.109307e+003, 5.753292e+003
1.109790e+003, 5.763595e+003
1.110272e+003, 5.769672e+003
1.110754e+003, 5.765356e+003
1.111236e+003, 5.758094e+003
1.111718e+003, 5.751100e+003
1.112200e+003, 5.744654e+003
1.112682e+003, 5.738811e+003
1.113164e+003, 5.733535e+003
1.113647e+003, 5.730695e+003
1.114129e+003, 5.732820e+003
1.114611e+003, 5.733244e+003
1.115093e+003, 5.729925e+003
1.115575e+003, 5.727117e+003
1.116057e+003, 5.727159e+003
1.116539e+003, 5.728150e+003
1.117021e+003, 5.728063e+003
1.117504e+003, 5.726963e+003
1.117986e+003, 5.725303e+003
1.118468e+003, 5.722998e+003
1.118950e+003, 5.720249e+003
1.119432e+003, 5.716665e+003
1.119914e+003, 5.713289e+003
1.120396e+003, 5.709914e+003
1.120878e+003, 5.707708e+003
1.121360e+003, 5.708000e+003
1.121843e+003, 5.710001e+003
1.122325e+003, 5.711688e+003
1.122807e+003, 5.713554e+003
1.123289e+003, 5.711665e+003
1.123771e+003, 5.704274e+003
1.124253e+003, 5.699383e+003
1.124735e+003, 5.699491e+003
1.125217e+003, 5.699839e+003
1.125699e+003, 5.696970e+003
1.126182e+003, 5.693636e+003
1.126664e+003, 5.695243e+003
1.127146e+003, 5.701283e+003
1.127628e+003, 5.701864e+003
1.128110e+003, 5.696328e+003
1.128592e+003, 5.690753e+003
1.129074e+003, 5.685681e+003
1.129556e+003, 5.682420e+003
1.130039e+003, 5.681581e+003
1.130521e+003, 5.682843e+003
1.131003e+003, 5.686269e+003
1.131485e+003, 5.690847e+003
1.131967e+003, 5.693137e+003
1.132449e+003, 5.693174e+003
1.132931e+003, 5.691260e+003
1.133413e+003, 5.687491e+003
1.133896e+003, 5.684937e+003
1.134378e+003, 5.684529e+003
1.134860e+003, 5.683886e+003
1.135342e+003, 5.681023e+003
1.135824e+003, 5.677540e+003
1.136306e+003, 5.676365e+003
1.136788e+003, 5.677050e+003
1.137270e+003, 5.679119e+003
1.137752e+003, 5.681580e+003
1.138234e+003, 5.677818e+003
1.138717e+003, 5.668092e+003
1.139199e+003, 5.663681e+003
1.139681e+003, 5.670372e+003
1.140163e+003, 5.679865e+003
1.140645e+003, 5.684017e+003
1.141127e+003, 5.683747e+003
1.141609e+003, 5.679056e+003
1.142091e+003, 5.672013e+003
1.142574e+003, 5.666589e+003
1.143056e+003, 5.663320e+003
1.143538e+003, 5.662472e+003
1.144020e+003, 5.663820e+003
1.144502e+003, 5.664970e+003
1.144984e+003, 5.663784e+003
1.145466e+003, 5.662760e+003
1.145948e+003, 5.666255e+003
1.146431e+003, 5.669995e+003
1.146913e+003, 5.667346e+003
1.147395e+003, 5.661347e+003
1.147877e+003, 5.657662e+003
1.148359e+003, 5.657112e+003
1.148841e+003, 5.658179e+003
1.149323e+003, 5.660570e+003
1.149805e+003, 5.662221e+003
1.150287e+003, 5.661883e+003
1.150770e+003, 5.660263e+003
1.151252e+003, 5.656718e+003
1.151734e+003, 5.653089e+003
1.152216e+003, 5.651856e+003
1.152698e+003, 5.652044e+003
1.153180e+003, 5.650631e+003
1.153662e+003, 5.647019e+003
1.154144e+003, 5.645068e+003
1.154626e+003, 5.647475e+003
1.155109e+003, 5.649802e+003
1.155591e+003, 5.652701e+003
1.156073e+003, 5.652814e+003
1.156555e+003, 5.644211e+003
1.157037e+003, 5.634104e+003
1.157519e+003, 5.633145e+003
1.158001e+003, 5.640244e+003
1.158483e+003, 5.643658e+003
1.158966e+003, 5.640750e+003
1.159448e+003, 5.637465e+003
1.159930e+003, 5.633441e+003
1.160412e+003, 5.630021e+003
1.160894e+003, 5.626471e+003
1.161376e+003, 5.624880e+003
1.161858e+003, 5.628416e+003
1.162340e+003, 5.634063e+003
1.162822e+003, 5.634813e+003
1.163305e+003, 5.629953e+003
1.163787e+003, 5.628070e+003
1.164269e+003, 5.630555e+003
1.164751e+003, 5.631846e+003
1.165233e+003, 5.630740e+003
1.165715e+003, 5.629727e+003
1.166197e+003, 5.629843e+003
1.166679e+003, 5.630869e+003
1.167161e+003, 5.632497e+003
1.167644e+003, 5.634863e+003
1.168126e+003, 5.639419e+003
1.168608e+003, 5.646361e+003
1.169090e+003, 5.648628e+003
1.169572e+003, 5.645804e+003
1.170054e+003, 5.641625e+003
1.170536e+003, 5.637024e+003
1.171018e+003, 5.635510e+003
1.171500e+003, 5.639886e+003
1.171983e+003, 5.646022e+003
1.172465e+003, 5.647272e+003
1.172947e+003, 5.644888e+003
1.173429e+003, 5.641909e+003
1.173911e+003, 5.639072e+003
1.174393e+003, 5.639669e+003
1.174875e+003, 5.643485e+003
1.175357e+003, 5.647994e+003
1.175840e+003, 5.651991e+003
1.176322e+003, 5.652929e+003
1.176804e+003, 5.647120e+003
1.177286e+003, 5.640911e+003
1.177768e+003, 5.643621e+003
1.178250e+003, 5.649901e+003
1.178732e+003, 5.652412e+003
1.179214e+003, 5.652101e+003
1.179697e+003, 5.651678e+003
1.180179e+003, 5.651612e+003
1.180661e+003, 5.651071e+003
1.181143e+003, 5.649537e+003
1.181625e+003, 5.648811e+003
1.182107e+003, 5.651012e+003
1.182589e+003, 5.653116e+003
1.183071e+003, 5.651850e+003
1.183553e+003, 5.650685e+003
1.184036e+003, 5.654739e+003
1.184518e+003, 5.660677e+003
1.185000e+003, 5.661211e+003
1.185482e+003, 5.655682e+003
1.185964e+003, 5.652056e+003
1.186446e+003, 5.654950e+003
1.186928e+003, 5.655372e+003
1.187410e+003, 5.646727e+003
1.187892e+003, 5.641772e+003
1.188375e+003, 5.650334e+003
1.188857e+003, 5.661136e+003
1.189339e+003, 5.662782e+003
1.189821e+003, 5.658741e+003
1.190303e+003, 5.659259e+003
1.190785e+003, 5.665698e+003
1.191267e+003, 5.668492e+003
1.191749e+003, 5.665797e+003
1.192232e+003, 5.664737e+003
1.192714e+003, 5.667054e+003
1.193196e+003, 5.669001e+003
1.193678e+003, 5.668294e+003
1.194160e+003, 5.667435e+003
1.194642e+003, 5.669549e+003
1.195124e+003, 5.673955e+003
1.195606e+003, 5.677891e+003
1.196089e+003, 5.681391e+003
1.196571e+003, 5.687680e+003
1.197053e+003, 5.696476e+003
1.197535e+003, 5.699027e+003
1.198017e+003, 5.693495e+003
1.198499e+003, 5.688205e+003
1.198981e+003, 5.688331e+003
1.199463e+003, 5.691055e+003
1.199945e+003, 5.692982e+003
1.200427e+003, 5.694635e+003
1.200910e+003, 5.697161e+003
1.201392e+003, 5.700216e+003
1.201874e+003, 5.704063e+003
1.202356e+003, 5.707589e+003
1.202838e+003, 5.706875e+003
1.203320e+003, 5.701622e+003
1.203802e+003, 5.697405e+003
1.204284e+003, 5.697080e+003
1.204767e+003, 5.699899e+003
1.205249e+003, 5.708206e+003
1.205731e+003, 5.716290e+003
1.206213e+003, 5.720392e+003
1.206695e+003, 5.720705e+003
1.207177e+003, 5.714302e+003
1.207659e+003, 5.705378e+003
1.208141e+003, 5.705650e+003
1.208624e+003, 5.718219e+003
1.209106e+003, 5.725417e+003
1.209588e+003, 5.719488e+003
1.210070e+003, 5.713091e+003
1.210552e+003, 5.705685e+003
1.211034e+003, 5.702134e+003
1.211516e+003, 5.709197e+003
1.211998e+003, 5.717411e+003
1.212480e+003, 5.715852e+003
1.212963e+003, 5.707801e+003
1.213445e+003, 5.706233e+003
1.213927e+003, 5.712897e+003
1.214409e+003, 5.717007e+003
1.214891e+003, 5.718367e+003
1.215373e+003, 5.717528e+003
1.215855e+003, 5.714237e+003
1.216337e+003, 5.710481e+003
1.216819e+003, 5.707327e+003
1.217302e+003, 5.704328e+003
1.217784e+003, 5.700834e+003
1.218266e+003, 5.697324e+003
1.218748e+003, 5.695408e+003
1.219230e+003, 5.694827e+003
1.219712e+003, 5.694408e+003
1.220194e+003, 5.693851e+003
1.220676e+003, 5.691211e+003
1.221159e+003, 5.686597e+003
1.221641e+003, 5.683831e+003
1.222123e+003, 5.685076e+003
1.222605e+003, 5.685864e+003
1.223087e+003, 5.679521e+003
1.223569e+003, 5.672454e+003
1.224051e+003, 5.673503e+003
1.224533e+003, 5.677045e+003
1.225016e+003, 5.674824e+003
1.225498e+003, 5.669441e+003
1.225980e+003, 5.667445e+003
1.226462e+003, 5.669429e+003
1.226944e+003, 5.671100e+003
1.227426e+003, 5.671071e+003
1.227908e+003, 5.670107e+003
1.228390e+003, 5.668111e+003
1.228872e+003, 5.665602e+003
1.229354e+003, 5.662533e+003
1.229837e+003, 5.659279e+003
1.230319e+003, 5.655882e+003
1.230801e+003, 5.652672e+003
1.231283e+003, 5.650604e+003
1.231765e+003, 5.649623e+003
1.232247e+003, 5.646343e+003
1.232729e+003, 5.638728e+003
1.233211e+003, 5.635701e+003
1.233694e+003, 5.639166e+003
1.234176e+003, 5.642150e+003
1.234658e+003, 5.642903e+003
1.235140e+003, 5.641029e+003
1.235622e+003, 5.635883e+003
1.236104e+003, 5.629397e+003
1.236586e+003, 5.624511e+003
1.237068e+003, 5.621301e+003
1.237551e+003, 5.621024e+003
1.238033e+003, 5.622672e+003
1.238515e+003, 5.621600e+003
1.238997e+003, 5.617758e+003
1.239479e+003, 5.612291e+003
1.239961e+003, 5.606309e+003
1.240443e+003, 5.604880e+003
1.240925e+003, 5.612296e+003
1.241407e+003, 5.619646e+003
1.241890e+003, 5.617893e+003
1.242372e+003, 5.612458e+003
1.242854e+003, 5.606069e+003
1.243336e+003, 5.601234e+003
1.243818e+003, 5.600840e+003
1.244300e+003, 5.604275e+003
1.244782e+003, 5.611480e+003
1.245264e+003, 5.621690e+003
1.245746e+003, 5.626364e+003
1.246229e+003, 5.617862e+003
1.246711e+003, 5.613732e+003
1.247193e+003, 5.620098e+003
1.247675e+003, 5.626956e+003
1.248157e+003, 5.631287e+003
1.248639e+003, 5.634519e+003
1.249121e+003, 5.637486e+003
1.249603e+003, 5.640135e+003
1.250085e+003, 5.642456e+003
1.250568e+003, 5.644391e+003
1.251050e+003, 5.645120e+003
1.251532e+003, 5.644389e+003
1.252014e+003, 5.645049e+003
1.252496e+003, 5.647348e+003
1.252978e+003, 5.649415e+003
1.253460e+003, 5.650692e+003
1.253942e+003, 5.653393e+003
1.254425e+003, 5.659118e+003
1.254907e+003, 5.666018e+003
1.255389e+003, 5.672440e+003
1.255871e+003, 5.677506e+003
1.256353e+003, 5.678867e+003
1.256835e+003, 5.677974e+003
1.257317e+003, 5.676827e+003
1.257799e+003, 5.676042e+003
1.258281e+003, 5.676345e+003
1.258764e+003, 5.677798e+003
1.259246e+003, 5.679565e+003
1.259728e+003, 5.680996e+003
1.260210e+003, 5.683959e+003
1.260692e+003, 5.692066e+003
1.261174e+003, 5.698322e+003
1.261656e+003, 5.699075e+003
1.262138e+003, 5.697054e+003
1.262620e+003, 5.692858e+003
1.263103e+003, 5.688141e+003
1.263585e+003, 5.684587e+003
1.264067e+003, 5.682483e+003
1.264549e+003, 5.685077e+003
1.265031e+003, 5.695141e+003
1.265513e+003, 5.699850e+003
1.265995e+003, 5.697744e+003
1.266477e+003, 5.696351e+003
1.266960e+003, 5.697515e+003
1.267442e+003, 5.698143e+003
1.267924e+003, 5.696509e+003
1.268406e+003, 5.693510e+003
1.268888e+003, 5.689764e+003
1.269370e+003, 5.686274e+003
1.269852e+003, 5.686361e+003
1.270334e+003, 5.688110e+003
1.270817e+003, 5.686324e+003
1.271299e+003, 5.681965e+003
1.271781e+003, 5.677808e+003
1.272263e+003, 5.674662e+003
1.272745e+003, 5.673131e+003
1.273227e+003, 5.673474e+003
1.273709e+003, 5.673778e+003
1.274191e+003, 5.672781e+003
1.274673e+003, 5.671703e+003
1.275156e+003, 5.671422e+003
1.275638e+003, 5.670914e+003
1.276120e+003, 5.667862e+003
1.276602e+003, 5.665442e+003
1.277084e+003, 5.669765e+003
1.277566e+003, 5.677319e+003
1.278048e+003, 5.675781e+003
1.278530e+003, 5.663567e+003
1.279012e+003, 5.657017e+003
1.279495e+003, 5.656822e+003
1.279977e+003, 5.659536e+003
1.280459e+003, 5.666145e+003
1.280941e+003, 5.669507e+003
1.281423e+003, 5.666642e+003
1.281905e+003, 5.663222e+003
1.282387e+003, 5.663915e+003
1.282869e+003, 5.665776e+003
1.283352e+003, 5.663662e+003
1.283834e+003, 5.658446e+003
1.284316e+003, 5.651575e+003
1.284798e+003, 5.643314e+003
##END=



