##NAMES=Behoite
##RRUFFID=R130230
##IDEAL CHEMISTRY=Be(OH)_2_
##LOCALITY=Rode Ranch pegmatite, Llano County, Texas, USA
##OWNER=RRUFF
##SOURCE=Rock Currier
##DESCRIPTION=Colorless vitreous pseudo-octahedral crystals in a yellow crust on brown gadolinite
##STATUS=The identification of this mineral has been confirmed by single-crystal X-ray diffraction.
##URL=rruff.info/R130230
8.930109e+001, 0.000000e+000
8.978320e+001, 2.897508e+003
9.026532e+001, 2.894717e+003
9.074744e+001, 2.897301e+003
9.122955e+001, 2.907711e+003
9.171167e+001, 2.923688e+003
9.219379e+001, 2.945681e+003
9.267590e+001, 2.973144e+003
9.315802e+001, 2.988764e+003
9.364014e+001, 2.972428e+003
9.412225e+001, 2.934061e+003
9.460437e+001, 2.900255e+003
9.508649e+001, 2.879712e+003
9.556860e+001, 2.865949e+003
9.605072e+001, 2.845319e+003
9.653284e+001, 2.819950e+003
9.701495e+001, 2.794733e+003
9.749707e+001, 2.772991e+003
9.797919e+001, 2.754381e+003
9.846130e+001, 2.738634e+003
9.894342e+001, 2.724912e+003
9.942554e+001, 2.713264e+003
9.990765e+001, 2.707714e+003
1.003898e+002, 2.710158e+003
1.008719e+002, 2.714476e+003
1.013540e+002, 2.711018e+003
1.018361e+002, 2.697771e+003
1.023182e+002, 2.684764e+003
1.028004e+002, 2.675386e+003
1.032825e+002, 2.669914e+003
1.037646e+002, 2.666957e+003
1.042467e+002, 2.666098e+003
1.047288e+002, 2.667929e+003
1.052109e+002, 2.673801e+003
1.056931e+002, 2.683632e+003
1.061752e+002, 2.697491e+003
1.066573e+002, 2.715890e+003
1.071394e+002, 2.741935e+003
1.076215e+002, 2.767363e+003
1.081036e+002, 2.795500e+003
1.085858e+002, 2.824451e+003
1.090679e+002, 2.842465e+003
1.095500e+002, 2.841663e+003
1.100321e+002, 2.836382e+003
1.105142e+002, 2.834284e+003
1.109963e+002, 2.834601e+003
1.114785e+002, 2.838868e+003
1.119606e+002, 2.848094e+003
1.124427e+002, 2.862096e+003
1.129248e+002, 2.877155e+003
1.134069e+002, 2.892877e+003
1.138890e+002, 2.909320e+003
1.143712e+002, 2.926726e+003
1.148533e+002, 2.944610e+003
1.153354e+002, 2.963792e+003
1.158175e+002, 2.986395e+003
1.162996e+002, 3.013453e+003
1.167817e+002, 3.035557e+003
1.172639e+002, 3.044761e+003
1.177460e+002, 3.048557e+003
1.182281e+002, 3.056439e+003
1.187102e+002, 3.079094e+003
1.191923e+002, 3.101850e+003
1.196744e+002, 3.114027e+003
1.201566e+002, 3.112226e+003
1.206387e+002, 3.110467e+003
1.211208e+002, 3.116810e+003
1.216029e+002, 3.129343e+003
1.220850e+002, 3.144280e+003
1.225671e+002, 3.157925e+003
1.230493e+002, 3.173654e+003
1.235314e+002, 3.197207e+003
1.240135e+002, 3.233565e+003
1.244956e+002, 3.267539e+003
1.249777e+002, 3.281179e+003
1.254598e+002, 3.278483e+003
1.259420e+002, 3.274403e+003
1.264241e+002, 3.279135e+003
1.269062e+002, 3.288974e+003
1.273883e+002, 3.296906e+003
1.278704e+002, 3.300366e+003
1.283525e+002, 3.302684e+003
1.288347e+002, 3.309884e+003
1.293168e+002, 3.321703e+003
1.297989e+002, 3.332922e+003
1.302810e+002, 3.340125e+003
1.307631e+002, 3.343452e+003
1.312452e+002, 3.344093e+003
1.317274e+002, 3.343745e+003
1.322095e+002, 3.340279e+003
1.326916e+002, 3.326178e+003
1.331737e+002, 3.300277e+003
1.336558e+002, 3.271071e+003
1.341379e+002, 3.246299e+003
1.346201e+002, 3.225910e+003
1.351022e+002, 3.204891e+003
1.355843e+002, 3.180863e+003
1.360664e+002, 3.154637e+003
1.365485e+002, 3.133395e+003
1.370306e+002, 3.117597e+003
1.375128e+002, 3.105524e+003
1.379949e+002, 3.094006e+003
1.384770e+002, 3.082219e+003
1.389591e+002, 3.075114e+003
1.394412e+002, 3.076414e+003
1.399233e+002, 3.087169e+003
1.404055e+002, 3.091039e+003
1.408876e+002, 3.086497e+003
1.413697e+002, 3.076449e+003
1.418518e+002, 3.064856e+003
1.423339e+002, 3.050181e+003
1.428160e+002, 3.037419e+003
1.432982e+002, 3.028537e+003
1.437803e+002, 3.024508e+003
1.442624e+002, 3.021527e+003
1.447445e+002, 3.019751e+003
1.452266e+002, 3.019004e+003
1.457087e+002, 3.018942e+003
1.461909e+002, 3.019721e+003
1.466730e+002, 3.021043e+003
1.471551e+002, 3.023019e+003
1.476372e+002, 3.027427e+003
1.481193e+002, 3.029503e+003
1.486014e+002, 3.028167e+003
1.490836e+002, 3.024401e+003
1.495657e+002, 3.021440e+003
1.500478e+002, 3.018903e+003
1.505299e+002, 3.017548e+003
1.510120e+002, 3.017711e+003
1.514941e+002, 3.020514e+003
1.519763e+002, 3.023437e+003
1.524584e+002, 3.027043e+003
1.529405e+002, 3.030935e+003
1.534226e+002, 3.033312e+003
1.539047e+002, 3.031131e+003
1.543868e+002, 3.029247e+003
1.548690e+002, 3.030298e+003
1.553511e+002, 3.039211e+003
1.558332e+002, 3.046115e+003
1.563153e+002, 3.048994e+003
1.567974e+002, 3.048178e+003
1.572795e+002, 3.046458e+003
1.577617e+002, 3.043115e+003
1.582438e+002, 3.039828e+003
1.587259e+002, 3.037812e+003
1.592080e+002, 3.037693e+003
1.596901e+002, 3.038625e+003
1.601722e+002, 3.040557e+003
1.606544e+002, 3.043482e+003
1.611365e+002, 3.046970e+003
1.616186e+002, 3.050840e+003
1.621007e+002, 3.055186e+003
1.625828e+002, 3.060182e+003
1.630649e+002, 3.066713e+003
1.635471e+002, 3.073114e+003
1.640292e+002, 3.078696e+003
1.645113e+002, 3.083406e+003
1.649934e+002, 3.087346e+003
1.654755e+002, 3.090822e+003
1.659576e+002, 3.093449e+003
1.664398e+002, 3.094729e+003
1.669219e+002, 3.093066e+003
1.674040e+002, 3.090956e+003
1.678861e+002, 3.089524e+003
1.683682e+002, 3.088747e+003
1.688503e+002, 3.089892e+003
1.693325e+002, 3.095241e+003
1.698146e+002, 3.102945e+003
1.702967e+002, 3.109915e+003
1.707788e+002, 3.114459e+003
1.712609e+002, 3.118003e+003
1.717430e+002, 3.122044e+003
1.722252e+002, 3.126867e+003
1.727073e+002, 3.130870e+003
1.731894e+002, 3.131813e+003
1.736715e+002, 3.130914e+003
1.741536e+002, 3.130864e+003
1.746357e+002, 3.133559e+003
1.751179e+002, 3.137567e+003
1.756000e+002, 3.141297e+003
1.760821e+002, 3.144606e+003
1.765642e+002, 3.147531e+003
1.770463e+002, 3.149373e+003
1.775284e+002, 3.150683e+003
1.780106e+002, 3.153110e+003
1.784927e+002, 3.159239e+003
1.789748e+002, 3.166707e+003
1.794569e+002, 3.171077e+003
1.799390e+002, 3.171555e+003
1.804211e+002, 3.170637e+003
1.809033e+002, 3.170664e+003
1.813854e+002, 3.171679e+003
1.818675e+002, 3.173786e+003
1.823496e+002, 3.177418e+003
1.828317e+002, 3.182173e+003
1.833138e+002, 3.187566e+003
1.837960e+002, 3.193811e+003
1.842781e+002, 3.199780e+003
1.847602e+002, 3.202784e+003
1.852423e+002, 3.203276e+003
1.857244e+002, 3.204900e+003
1.862065e+002, 3.210684e+003
1.866887e+002, 3.219573e+003
1.871708e+002, 3.227948e+003
1.876529e+002, 3.235594e+003
1.881350e+002, 3.242112e+003
1.886171e+002, 3.246030e+003
1.890992e+002, 3.247438e+003
1.895814e+002, 3.248809e+003
1.900635e+002, 3.251660e+003
1.905456e+002, 3.255907e+003
1.910277e+002, 3.261000e+003
1.915098e+002, 3.267537e+003
1.919919e+002, 3.273946e+003
1.924741e+002, 3.276102e+003
1.929562e+002, 3.273820e+003
1.934383e+002, 3.271315e+003
1.939204e+002, 3.270767e+003
1.944025e+002, 3.272206e+003
1.948846e+002, 3.276656e+003
1.953668e+002, 3.285105e+003
1.958489e+002, 3.295640e+003
1.963310e+002, 3.303745e+003
1.968131e+002, 3.309240e+003
1.972952e+002, 3.313557e+003
1.977773e+002, 3.316899e+003
1.982595e+002, 3.319169e+003
1.987416e+002, 3.323854e+003
1.992237e+002, 3.332132e+003
1.997058e+002, 3.342421e+003
2.001879e+002, 3.350148e+003
2.006700e+002, 3.355067e+003
2.011522e+002, 3.358977e+003
2.016343e+002, 3.362600e+003
2.021164e+002, 3.365770e+003
2.025985e+002, 3.370614e+003
2.030806e+002, 3.377526e+003
2.035627e+002, 3.386153e+003
2.040449e+002, 3.395747e+003
2.045270e+002, 3.406773e+003
2.050091e+002, 3.417156e+003
2.054912e+002, 3.424834e+003
2.059733e+002, 3.429060e+003
2.064554e+002, 3.435259e+003
2.069376e+002, 3.445148e+003
2.074197e+002, 3.457110e+003
2.079018e+002, 3.464660e+003
2.083839e+002, 3.466197e+003
2.088660e+002, 3.467467e+003
2.093481e+002, 3.472940e+003
2.098303e+002, 3.483939e+003
2.103124e+002, 3.493402e+003
2.107945e+002, 3.500200e+003
2.112766e+002, 3.504988e+003
2.117587e+002, 3.510886e+003
2.122408e+002, 3.518800e+003
2.127230e+002, 3.525995e+003
2.132051e+002, 3.530327e+003
2.136872e+002, 3.530691e+003
2.141693e+002, 3.531994e+003
2.146514e+002, 3.535245e+003
2.151335e+002, 3.539729e+003
2.156157e+002, 3.542116e+003
2.160978e+002, 3.541903e+003
2.165799e+002, 3.540342e+003
2.170620e+002, 3.537826e+003
2.175441e+002, 3.533446e+003
2.180262e+002, 3.530713e+003
2.185084e+002, 3.530500e+003
2.189905e+002, 3.532199e+003
2.194726e+002, 3.532808e+003
2.199547e+002, 3.532098e+003
2.204368e+002, 3.530785e+003
2.209189e+002, 3.529102e+003
2.214011e+002, 3.526400e+003
2.218832e+002, 3.525431e+003
2.223653e+002, 3.527633e+003
2.228474e+002, 3.531845e+003
2.233295e+002, 3.532627e+003
2.238116e+002, 3.528939e+003
2.242938e+002, 3.523530e+003
2.247759e+002, 3.517880e+003
2.252580e+002, 3.511914e+003
2.257401e+002, 3.505941e+003
2.262222e+002, 3.499935e+003
2.267043e+002, 3.493891e+003
2.271865e+002, 3.487724e+003
2.276686e+002, 3.482165e+003
2.281507e+002, 3.475517e+003
2.286328e+002, 3.466388e+003
2.291149e+002, 3.452609e+003
2.295970e+002, 3.441568e+003
2.300792e+002, 3.434488e+003
2.305613e+002, 3.430509e+003
2.310434e+002, 3.426441e+003
2.315255e+002, 3.421897e+003
2.320076e+002, 3.418024e+003
2.324897e+002, 3.415489e+003
2.329719e+002, 3.414436e+003
2.334540e+002, 3.414636e+003
2.339361e+002, 3.416723e+003
2.344182e+002, 3.420070e+003
2.349003e+002, 3.422300e+003
2.353824e+002, 3.422407e+003
2.358646e+002, 3.422843e+003
2.363467e+002, 3.424760e+003
2.368288e+002, 3.428312e+003
2.373109e+002, 3.432968e+003
2.377930e+002, 3.439059e+003
2.382751e+002, 3.446131e+003
2.387573e+002, 3.452729e+003
2.392394e+002, 3.458783e+003
2.397215e+002, 3.464317e+003
2.402036e+002, 3.469286e+003
2.406857e+002, 3.473289e+003
2.411678e+002, 3.477506e+003
2.416500e+002, 3.482103e+003
2.421321e+002, 3.486809e+003
2.426142e+002, 3.491000e+003
2.430963e+002, 3.494294e+003
2.435784e+002, 3.497610e+003
2.440605e+002, 3.501479e+003
2.445427e+002, 3.506725e+003
2.450248e+002, 3.510474e+003
2.455069e+002, 3.512279e+003
2.459890e+002, 3.512824e+003
2.464711e+002, 3.513583e+003
2.469532e+002, 3.514929e+003
2.474354e+002, 3.515982e+003
2.479175e+002, 3.516089e+003
2.483996e+002, 3.514302e+003
2.488817e+002, 3.514937e+003
2.493638e+002, 3.518968e+003
2.498459e+002, 3.524955e+003
2.503281e+002, 3.530301e+003
2.508102e+002, 3.535031e+003
2.512923e+002, 3.539202e+003
2.517744e+002, 3.542826e+003
2.522565e+002, 3.545773e+003
2.527386e+002, 3.548609e+003
2.532208e+002, 3.550879e+003
2.537029e+002, 3.553380e+003
2.541850e+002, 3.557448e+003
2.546671e+002, 3.563469e+003
2.551492e+002, 3.570245e+003
2.556313e+002, 3.577363e+003
2.561135e+002, 3.584720e+003
2.565956e+002, 3.592461e+003
2.570777e+002, 3.600099e+003
2.575598e+002, 3.608350e+003
2.580419e+002, 3.618614e+003
2.585240e+002, 3.632226e+003
2.590062e+002, 3.644426e+003
2.594883e+002, 3.653784e+003
2.599704e+002, 3.659985e+003
2.604525e+002, 3.665390e+003
2.609346e+002, 3.669245e+003
2.614167e+002, 3.673176e+003
2.618989e+002, 3.679044e+003
2.623810e+002, 3.687073e+003
2.628631e+002, 3.696464e+003
2.633452e+002, 3.706946e+003
2.638273e+002, 3.718720e+003
2.643094e+002, 3.732524e+003
2.647916e+002, 3.749970e+003
2.652737e+002, 3.767395e+003
2.657558e+002, 3.780682e+003
2.662379e+002, 3.787719e+003
2.667200e+002, 3.797564e+003
2.672021e+002, 3.812919e+003
2.676843e+002, 3.833073e+003
2.681664e+002, 3.851313e+003
2.686485e+002, 3.866679e+003
2.691306e+002, 3.881965e+003
2.696127e+002, 3.899482e+003
2.700948e+002, 3.919593e+003
2.705770e+002, 3.939895e+003
2.710591e+002, 3.960315e+003
2.715412e+002, 3.980320e+003
2.720233e+002, 3.997937e+003
2.725054e+002, 4.012461e+003
2.729875e+002, 4.025547e+003
2.734697e+002, 4.038804e+003
2.739518e+002, 4.052875e+003
2.744339e+002, 4.063156e+003
2.749160e+002, 4.068130e+003
2.753981e+002, 4.069547e+003
2.758802e+002, 4.072895e+003
2.763624e+002, 4.078584e+003
2.768445e+002, 4.084546e+003
2.773266e+002, 4.089854e+003
2.778087e+002, 4.094594e+003
2.782908e+002, 4.097587e+003
2.787729e+002, 4.098393e+003
2.792551e+002, 4.097874e+003
2.797372e+002, 4.099072e+003
2.802193e+002, 4.102807e+003
2.807014e+002, 4.102920e+003
2.811835e+002, 4.096136e+003
2.816656e+002, 4.082495e+003
2.821478e+002, 4.063820e+003
2.826299e+002, 4.039243e+003
2.831120e+002, 4.011546e+003
2.835941e+002, 3.984471e+003
2.840762e+002, 3.957840e+003
2.845583e+002, 3.933465e+003
2.850405e+002, 3.910979e+003
2.855226e+002, 3.890746e+003
2.860047e+002, 3.877209e+003
2.864868e+002, 3.871490e+003
2.869689e+002, 3.868784e+003
2.874510e+002, 3.861640e+003
2.879332e+002, 3.850393e+003
2.884153e+002, 3.842118e+003
2.888974e+002, 3.841193e+003
2.893795e+002, 3.845573e+003
2.898616e+002, 3.847712e+003
2.903438e+002, 3.847396e+003
2.908259e+002, 3.846215e+003
2.913080e+002, 3.845810e+003
2.917901e+002, 3.846057e+003
2.922722e+002, 3.846336e+003
2.927543e+002, 3.847230e+003
2.932365e+002, 3.847663e+003
2.937186e+002, 3.844344e+003
2.942007e+002, 3.837248e+003
2.946828e+002, 3.829601e+003
2.951649e+002, 3.823195e+003
2.956470e+002, 3.818433e+003
2.961292e+002, 3.816833e+003
2.966113e+002, 3.820408e+003
2.970934e+002, 3.825594e+003
2.975755e+002, 3.825951e+003
2.980576e+002, 3.821928e+003
2.985397e+002, 3.818232e+003
2.990219e+002, 3.819553e+003
2.995040e+002, 3.823650e+003
2.999861e+002, 3.825434e+003
3.004682e+002, 3.823307e+003
3.009503e+002, 3.819946e+003
3.014324e+002, 3.818026e+003
3.019146e+002, 3.817528e+003
3.023967e+002, 3.818213e+003
3.028788e+002, 3.820917e+003
3.033609e+002, 3.824445e+003
3.038430e+002, 3.826833e+003
3.043251e+002, 3.827543e+003
3.048073e+002, 3.828112e+003
3.052894e+002, 3.829515e+003
3.057715e+002, 3.831806e+003
3.062536e+002, 3.835196e+003
3.067357e+002, 3.840766e+003
3.072178e+002, 3.846874e+003
3.077000e+002, 3.851314e+003
3.081821e+002, 3.853635e+003
3.086642e+002, 3.856510e+003
3.091463e+002, 3.862829e+003
3.096284e+002, 3.870766e+003
3.101105e+002, 3.877608e+003
3.105927e+002, 3.881336e+003
3.110748e+002, 3.884048e+003
3.115569e+002, 3.887087e+003
3.120390e+002, 3.890508e+003
3.125211e+002, 3.894161e+003
3.130032e+002, 3.897890e+003
3.134854e+002, 3.901937e+003
3.139675e+002, 3.906516e+003
3.144496e+002, 3.912190e+003
3.149317e+002, 3.918058e+003
3.154138e+002, 3.923834e+003
3.158959e+002, 3.929548e+003
3.163781e+002, 3.935353e+003
3.168602e+002, 3.941934e+003
3.173423e+002, 3.948285e+003
3.178244e+002, 3.953547e+003
3.183065e+002, 3.956350e+003
3.187886e+002, 3.959761e+003
3.192708e+002, 3.964219e+003
3.197529e+002, 3.969942e+003
3.202350e+002, 3.977589e+003
3.207171e+002, 3.989372e+003
3.211992e+002, 4.001458e+003
3.216813e+002, 4.011653e+003
3.221635e+002, 4.018282e+003
3.226456e+002, 4.026048e+003
3.231277e+002, 4.036230e+003
3.236098e+002, 4.047976e+003
3.240919e+002, 4.059942e+003
3.245740e+002, 4.070378e+003
3.250562e+002, 4.082211e+003
3.255383e+002, 4.096685e+003
3.260204e+002, 4.114568e+003
3.265025e+002, 4.132176e+003
3.269846e+002, 4.147285e+003
3.274667e+002, 4.162838e+003
3.279489e+002, 4.182177e+003
3.284310e+002, 4.208125e+003
3.289131e+002, 4.234880e+003
3.293952e+002, 4.261458e+003
3.298773e+002, 4.287840e+003
3.303594e+002, 4.316664e+003
3.308416e+002, 4.349311e+003
3.313237e+002, 4.382939e+003
3.318058e+002, 4.415468e+003
3.322879e+002, 4.446649e+003
3.327700e+002, 4.477279e+003
3.332521e+002, 4.507625e+003
3.337343e+002, 4.537714e+003
3.342164e+002, 4.567747e+003
3.346985e+002, 4.596838e+003
3.351806e+002, 4.626623e+003
3.356627e+002, 4.657980e+003
3.361448e+002, 4.690662e+003
3.366270e+002, 4.724619e+003
3.371091e+002, 4.759292e+003
3.375912e+002, 4.795243e+003
3.380733e+002, 4.833935e+003
3.385554e+002, 4.874588e+003
3.390375e+002, 4.919281e+003
3.395197e+002, 4.968583e+003
3.400018e+002, 5.021982e+003
3.404839e+002, 5.082374e+003
3.409660e+002, 5.148919e+003
3.414481e+002, 5.221804e+003
3.419302e+002, 5.299870e+003
3.424124e+002, 5.383821e+003
3.428945e+002, 5.472159e+003
3.433766e+002, 5.566208e+003
3.438587e+002, 5.664351e+003
3.443408e+002, 5.766050e+003
3.448229e+002, 5.871960e+003
3.453051e+002, 5.973261e+003
3.457872e+002, 6.068229e+003
3.462693e+002, 6.154103e+003
3.467514e+002, 6.216490e+003
3.472335e+002, 6.255637e+003
3.477156e+002, 6.264735e+003
3.481978e+002, 6.229986e+003
3.486799e+002, 6.151883e+003
3.491620e+002, 6.035579e+003
3.496441e+002, 5.867155e+003
3.501262e+002, 5.664194e+003
3.506083e+002, 5.464752e+003
3.510905e+002, 5.268509e+003
3.515726e+002, 5.087218e+003
3.520547e+002, 4.931987e+003
3.525368e+002, 4.801813e+003
3.530189e+002, 4.693712e+003
3.535010e+002, 4.610699e+003
3.539832e+002, 4.546765e+003
3.544653e+002, 4.497321e+003
3.549474e+002, 4.461945e+003
3.554295e+002, 4.433982e+003
3.559116e+002, 4.408235e+003
3.563937e+002, 4.386292e+003
3.568759e+002, 4.370883e+003
3.573580e+002, 4.366605e+003
3.578401e+002, 4.365924e+003
3.583222e+002, 4.363440e+003
3.588043e+002, 4.359733e+003
3.592864e+002, 4.358403e+003
3.597686e+002, 4.362691e+003
3.602507e+002, 4.369501e+003
3.607328e+002, 4.376078e+003
3.612149e+002, 4.381134e+003
3.616970e+002, 4.387050e+003
3.621791e+002, 4.395764e+003
3.626613e+002, 4.406006e+003
3.631434e+002, 4.414915e+003
3.636255e+002, 4.420453e+003
3.641076e+002, 4.425268e+003
3.645897e+002, 4.430587e+003
3.650718e+002, 4.436570e+003
3.655540e+002, 4.442526e+003
3.660361e+002, 4.448885e+003
3.665182e+002, 4.454969e+003
3.670003e+002, 4.459967e+003
3.674824e+002, 4.461316e+003
3.679645e+002, 4.464204e+003
3.684467e+002, 4.469775e+003
3.689288e+002, 4.478051e+003
3.694109e+002, 4.488218e+003
3.698930e+002, 4.500710e+003
3.703751e+002, 4.514906e+003
3.708572e+002, 4.530357e+003
3.713394e+002, 4.545699e+003
3.718215e+002, 4.564453e+003
3.723036e+002, 4.587394e+003
3.727857e+002, 4.613934e+003
3.732678e+002, 4.642246e+003
3.737499e+002, 4.672575e+003
3.742321e+002, 4.704571e+003
3.747142e+002, 4.737246e+003
3.751963e+002, 4.769811e+003
3.756784e+002, 4.807107e+003
3.761605e+002, 4.849092e+003
3.766426e+002, 4.895591e+003
3.771248e+002, 4.945197e+003
3.776069e+002, 4.998617e+003
3.780890e+002, 5.053697e+003
3.785711e+002, 5.108743e+003
3.790532e+002, 5.164652e+003
3.795353e+002, 5.223817e+003
3.800175e+002, 5.286667e+003
3.804996e+002, 5.353502e+003
3.809817e+002, 5.425225e+003
3.814638e+002, 5.501319e+003
3.819459e+002, 5.580662e+003
3.824280e+002, 5.662031e+003
3.829102e+002, 5.746726e+003
3.833923e+002, 5.836176e+003
3.838744e+002, 5.930738e+003
3.843565e+002, 6.026804e+003
3.848386e+002, 6.118631e+003
3.853207e+002, 6.210568e+003
3.858029e+002, 6.308739e+003
3.862850e+002, 6.415029e+003
3.867671e+002, 6.525745e+003
3.872492e+002, 6.637755e+003
3.877313e+002, 6.752084e+003
3.882134e+002, 6.868970e+003
3.886956e+002, 6.985665e+003
3.891777e+002, 7.105228e+003
3.896598e+002, 7.232339e+003
3.901419e+002, 7.366346e+003
3.906240e+002, 7.502607e+003
3.911061e+002, 7.642650e+003
3.915883e+002, 7.783170e+003
3.920704e+002, 7.921419e+003
3.925525e+002, 8.057774e+003
3.930346e+002, 8.190073e+003
3.935167e+002, 8.321393e+003
3.939988e+002, 8.449916e+003
3.944810e+002, 8.572051e+003
3.949631e+002, 8.694142e+003
3.954452e+002, 8.803698e+003
3.959273e+002, 8.894993e+003
3.964094e+002, 8.967444e+003
3.968915e+002, 9.021296e+003
3.973737e+002, 9.059600e+003
3.978558e+002, 9.078179e+003
3.983379e+002, 9.071871e+003
3.988200e+002, 9.036498e+003
3.993021e+002, 8.979483e+003
3.997842e+002, 8.900735e+003
4.002664e+002, 8.800281e+003
4.007485e+002, 8.683052e+003
4.012306e+002, 8.547122e+003
4.017127e+002, 8.397605e+003
4.021948e+002, 8.236797e+003
4.026769e+002, 8.059185e+003
4.031591e+002, 7.881766e+003
4.036412e+002, 7.703349e+003
4.041233e+002, 7.527072e+003
4.046054e+002, 7.355302e+003
4.050875e+002, 7.189269e+003
4.055696e+002, 7.029193e+003
4.060518e+002, 6.874994e+003
4.065339e+002, 6.726671e+003
4.070160e+002, 6.586467e+003
4.074981e+002, 6.455538e+003
4.079802e+002, 6.333646e+003
4.084623e+002, 6.222273e+003
4.089445e+002, 6.120969e+003
4.094266e+002, 6.025393e+003
4.099087e+002, 5.934268e+003
4.103908e+002, 5.848480e+003
4.108729e+002, 5.771103e+003
4.113550e+002, 5.701849e+003
4.118372e+002, 5.639981e+003
4.123193e+002, 5.585737e+003
4.128014e+002, 5.537785e+003
4.132835e+002, 5.492462e+003
4.137656e+002, 5.448810e+003
4.142477e+002, 5.408164e+003
4.147299e+002, 5.372640e+003
4.152120e+002, 5.341327e+003
4.156941e+002, 5.313124e+003
4.161762e+002, 5.286542e+003
4.166583e+002, 5.262870e+003
4.171404e+002, 5.243972e+003
4.176226e+002, 5.229496e+003
4.181047e+002, 5.216233e+003
4.185868e+002, 5.200519e+003
4.190689e+002, 5.185714e+003
4.195510e+002, 5.175039e+003
4.200331e+002, 5.172857e+003
4.205153e+002, 5.170309e+003
4.209974e+002, 5.163085e+003
4.214795e+002, 5.152977e+003
4.219616e+002, 5.144771e+003
4.224437e+002, 5.141000e+003
4.229258e+002, 5.138322e+003
4.234080e+002, 5.134941e+003
4.238901e+002, 5.129707e+003
4.243722e+002, 5.127839e+003
4.248543e+002, 5.131860e+003
4.253364e+002, 5.138593e+003
4.258185e+002, 5.144819e+003
4.263007e+002, 5.148279e+003
4.267828e+002, 5.154810e+003
4.272649e+002, 5.166226e+003
4.277470e+002, 5.181668e+003
4.282291e+002, 5.195909e+003
4.287112e+002, 5.208215e+003
4.291934e+002, 5.220311e+003
4.296755e+002, 5.233040e+003
4.301576e+002, 5.246028e+003
4.306397e+002, 5.261381e+003
4.311218e+002, 5.279988e+003
4.316039e+002, 5.299443e+003
4.320861e+002, 5.315878e+003
4.325682e+002, 5.329064e+003
4.330503e+002, 5.342189e+003
4.335324e+002, 5.355112e+003
4.340145e+002, 5.369192e+003
4.344966e+002, 5.390428e+003
4.349788e+002, 5.419058e+003
4.354609e+002, 5.448979e+003
4.359430e+002, 5.473523e+003
4.364251e+002, 5.495620e+003
4.369072e+002, 5.523195e+003
4.373893e+002, 5.558294e+003
4.378715e+002, 5.598213e+003
4.383536e+002, 5.639305e+003
4.388357e+002, 5.682616e+003
4.393178e+002, 5.731041e+003
4.397999e+002, 5.788913e+003
4.402820e+002, 5.850958e+003
4.407642e+002, 5.913560e+003
4.412463e+002, 5.976985e+003
4.417284e+002, 6.035442e+003
4.422105e+002, 6.086433e+003
4.426926e+002, 6.131108e+003
4.431747e+002, 6.170746e+003
4.436569e+002, 6.210423e+003
4.441390e+002, 6.239329e+003
4.446211e+002, 6.256623e+003
4.451032e+002, 6.260822e+003
4.455853e+002, 6.247063e+003
4.460674e+002, 6.210191e+003
4.465496e+002, 6.159251e+003
4.470317e+002, 6.096220e+003
4.475138e+002, 6.018275e+003
4.479959e+002, 5.936886e+003
4.484780e+002, 5.846208e+003
4.489601e+002, 5.755924e+003
4.494423e+002, 5.673344e+003
4.499244e+002, 5.597455e+003
4.504065e+002, 5.533380e+003
4.508886e+002, 5.482453e+003
4.513707e+002, 5.444140e+003
4.518528e+002, 5.414687e+003
4.523350e+002, 5.394409e+003
4.528171e+002, 5.381613e+003
4.532992e+002, 5.376214e+003
4.537813e+002, 5.378216e+003
4.542634e+002, 5.382436e+003
4.547455e+002, 5.389234e+003
4.552277e+002, 5.396397e+003
4.557098e+002, 5.402792e+003
4.561919e+002, 5.407750e+003
4.566740e+002, 5.407493e+003
4.571561e+002, 5.401088e+003
4.576382e+002, 5.388458e+003
4.581204e+002, 5.370146e+003
4.586025e+002, 5.345833e+003
4.590846e+002, 5.314353e+003
4.595667e+002, 5.272261e+003
4.600488e+002, 5.223301e+003
4.605309e+002, 5.170940e+003
4.610131e+002, 5.114953e+003
4.614952e+002, 5.060106e+003
4.619773e+002, 5.009066e+003
4.624594e+002, 4.962206e+003
4.629415e+002, 4.919381e+003
4.634236e+002, 4.880210e+003
4.639058e+002, 4.846058e+003
4.643879e+002, 4.818315e+003
4.648700e+002, 4.796818e+003
4.653521e+002, 4.776680e+003
4.658342e+002, 4.754674e+003
4.663163e+002, 4.734923e+003
4.667985e+002, 4.719837e+003
4.672806e+002, 4.711951e+003
4.677627e+002, 4.704499e+003
4.682448e+002, 4.698095e+003
4.687269e+002, 4.691782e+003
4.692090e+002, 4.683741e+003
4.696912e+002, 4.671209e+003
4.701733e+002, 4.661899e+003
4.706554e+002, 4.658269e+003
4.711375e+002, 4.659709e+003
4.716196e+002, 4.660728e+003
4.721017e+002, 4.661638e+003
4.725839e+002, 4.661199e+003
4.730660e+002, 4.657929e+003
4.735481e+002, 4.651813e+003
4.740302e+002, 4.646667e+003
4.745123e+002, 4.642862e+003
4.749944e+002, 4.640037e+003
4.754766e+002, 4.637689e+003
4.759587e+002, 4.635894e+003
4.764408e+002, 4.634893e+003
4.769229e+002, 4.635495e+003
4.774050e+002, 4.636642e+003
4.778871e+002, 4.636114e+003
4.783693e+002, 4.634182e+003
4.788514e+002, 4.632950e+003
4.793335e+002, 4.633987e+003
4.798156e+002, 4.636551e+003
4.802977e+002, 4.639839e+003
4.807798e+002, 4.643789e+003
4.812620e+002, 4.648020e+003
4.817441e+002, 4.652856e+003
4.822262e+002, 4.657622e+003
4.827083e+002, 4.661342e+003
4.831904e+002, 4.661192e+003
4.836725e+002, 4.662220e+003
4.841547e+002, 4.667736e+003
4.846368e+002, 4.677180e+003
4.851189e+002, 4.683303e+003
4.856010e+002, 4.681167e+003
4.860831e+002, 4.678479e+003
4.865652e+002, 4.679330e+003
4.870474e+002, 4.686470e+003
4.875295e+002, 4.691014e+003
4.880116e+002, 4.691065e+003
4.884937e+002, 4.689864e+003
4.889758e+002, 4.692482e+003
4.894579e+002, 4.700707e+003
4.899401e+002, 4.707281e+003
4.904222e+002, 4.710084e+003
4.909043e+002, 4.709961e+003
4.913864e+002, 4.710693e+003
4.918685e+002, 4.712256e+003
4.923506e+002, 4.714927e+003
4.928328e+002, 4.720319e+003
4.933149e+002, 4.727345e+003
4.937970e+002, 4.730705e+003
4.942791e+002, 4.729669e+003
4.947612e+002, 4.726827e+003
4.952433e+002, 4.724644e+003
4.957255e+002, 4.722996e+003
4.962076e+002, 4.721422e+003
4.966897e+002, 4.718923e+003
4.971718e+002, 4.717323e+003
4.976539e+002, 4.719527e+003
4.981360e+002, 4.724525e+003
4.986182e+002, 4.728386e+003
4.991003e+002, 4.726910e+003
4.995824e+002, 4.725019e+003
5.000645e+002, 4.726583e+003
5.005466e+002, 4.732940e+003
5.010287e+002, 4.738586e+003
5.015109e+002, 4.741591e+003
5.019930e+002, 4.743211e+003
5.024751e+002, 4.744655e+003
5.029572e+002, 4.744839e+003
5.034393e+002, 4.746298e+003
5.039214e+002, 4.750604e+003
5.044036e+002, 4.756425e+003
5.048857e+002, 4.758985e+003
5.053678e+002, 4.756399e+003
5.058499e+002, 4.753837e+003
5.063320e+002, 4.753182e+003
5.068141e+002, 4.754476e+003
5.072963e+002, 4.757635e+003
5.077784e+002, 4.763188e+003
5.082605e+002, 4.769381e+003
5.087426e+002, 4.774468e+003
5.092247e+002, 4.778522e+003
5.097068e+002, 4.782844e+003
5.101890e+002, 4.787962e+003
5.106711e+002, 4.792845e+003
5.111532e+002, 4.795340e+003
5.116353e+002, 4.795811e+003
5.121174e+002, 4.796056e+003
5.125995e+002, 4.796015e+003
5.130817e+002, 4.796756e+003
5.135638e+002, 4.800346e+003
5.140459e+002, 4.806647e+003
5.145280e+002, 4.812362e+003
5.150101e+002, 4.813797e+003
5.154922e+002, 4.814542e+003
5.159744e+002, 4.818335e+003
5.164565e+002, 4.828398e+003
5.169386e+002, 4.836870e+003
5.174207e+002, 4.840782e+003
5.179028e+002, 4.841625e+003
5.183849e+002, 4.841813e+003
5.188671e+002, 4.840130e+003
5.193492e+002, 4.839574e+003
5.198313e+002, 4.841047e+003
5.203134e+002, 4.844386e+003
5.207955e+002, 4.847669e+003
5.212776e+002, 4.850922e+003
5.217598e+002, 4.853985e+003
5.222419e+002, 4.856558e+003
5.227240e+002, 4.858395e+003
5.232061e+002, 4.860813e+003
5.236882e+002, 4.863701e+003
5.241703e+002, 4.867423e+003
5.246525e+002, 4.873330e+003
5.251346e+002, 4.881231e+003
5.256167e+002, 4.887295e+003
5.260988e+002, 4.890146e+003
5.265809e+002, 4.891006e+003
5.270630e+002, 4.891205e+003
5.275452e+002, 4.891053e+003
5.280273e+002, 4.892084e+003
5.285094e+002, 4.895843e+003
5.289915e+002, 4.900977e+003
5.294736e+002, 4.905727e+003
5.299557e+002, 4.909924e+003
5.304379e+002, 4.915272e+003
5.309200e+002, 4.925033e+003
5.314021e+002, 4.935361e+003
5.318842e+002, 4.942274e+003
5.323663e+002, 4.940787e+003
5.328484e+002, 4.941431e+003
5.333306e+002, 4.948094e+003
5.338127e+002, 4.958500e+003
5.342948e+002, 4.967765e+003
5.347769e+002, 4.976228e+003
5.352590e+002, 4.982749e+003
5.357411e+002, 4.986297e+003
5.362233e+002, 4.987029e+003
5.367054e+002, 4.989891e+003
5.371875e+002, 4.995733e+003
5.376696e+002, 5.002212e+003
5.381517e+002, 5.007502e+003
5.386339e+002, 5.011357e+003
5.391160e+002, 5.017919e+003
5.395981e+002, 5.028124e+003
5.400802e+002, 5.039087e+003
5.405623e+002, 5.046991e+003
5.410444e+002, 5.052287e+003
5.415266e+002, 5.057612e+003
5.420087e+002, 5.063154e+003
5.424908e+002, 5.069799e+003
5.429729e+002, 5.080046e+003
5.434550e+002, 5.092766e+003
5.439371e+002, 5.103874e+003
5.444193e+002, 5.108572e+003
5.449014e+002, 5.112373e+003
5.453835e+002, 5.120868e+003
5.458656e+002, 5.134805e+003
5.463477e+002, 5.146836e+003
5.468298e+002, 5.151176e+003
5.473120e+002, 5.153990e+003
5.477941e+002, 5.160455e+003
5.482762e+002, 5.178933e+003
5.487583e+002, 5.190669e+003
5.492404e+002, 5.190397e+003
5.497225e+002, 5.183730e+003
5.502047e+002, 5.180250e+003
5.506868e+002, 5.182135e+003
5.511689e+002, 5.182936e+003
5.516510e+002, 5.180698e+003
5.521331e+002, 5.176001e+003
5.526152e+002, 5.173334e+003
5.530974e+002, 5.173569e+003
5.535795e+002, 5.171870e+003
5.540616e+002, 5.163714e+003
5.545437e+002, 5.150462e+003
5.550258e+002, 5.139208e+003
5.555079e+002, 5.130226e+003
5.559901e+002, 5.124254e+003
5.564722e+002, 5.123219e+003
5.569543e+002, 5.125586e+003
5.574364e+002, 5.128341e+003
5.579185e+002, 5.131493e+003
5.584006e+002, 5.133284e+003
5.588828e+002, 5.129909e+003
5.593649e+002, 5.124013e+003
5.598470e+002, 5.121704e+003
5.603291e+002, 5.128078e+003
5.608112e+002, 5.135968e+003
5.612933e+002, 5.142783e+003
5.617755e+002, 5.148285e+003
5.622576e+002, 5.152042e+003
5.627397e+002, 5.152239e+003
5.632218e+002, 5.151893e+003
5.637039e+002, 5.152387e+003
5.641860e+002, 5.153764e+003
5.646682e+002, 5.156064e+003
5.651503e+002, 5.159782e+003
5.656324e+002, 5.163993e+003
5.661145e+002, 5.167095e+003
5.665966e+002, 5.168914e+003
5.670787e+002, 5.172580e+003
5.675609e+002, 5.179239e+003
5.680430e+002, 5.187768e+003
5.685251e+002, 5.196323e+003
5.690072e+002, 5.204821e+003
5.694893e+002, 5.211586e+003
5.699714e+002, 5.214708e+003
5.704536e+002, 5.216104e+003
5.709357e+002, 5.217716e+003
5.714178e+002, 5.219696e+003
5.718999e+002, 5.223828e+003
5.723820e+002, 5.232222e+003
5.728641e+002, 5.242642e+003
5.733463e+002, 5.253303e+003
5.738284e+002, 5.264567e+003
5.743105e+002, 5.274295e+003
5.747926e+002, 5.281659e+003
5.752747e+002, 5.287139e+003
5.757568e+002, 5.291247e+003
5.762390e+002, 5.290999e+003
5.767211e+002, 5.293393e+003
5.772032e+002, 5.299406e+003
5.776853e+002, 5.308618e+003
5.781674e+002, 5.319836e+003
5.786495e+002, 5.333920e+003
5.791317e+002, 5.347587e+003
5.796138e+002, 5.359641e+003
5.800959e+002, 5.370152e+003
5.805780e+002, 5.379108e+003
5.810601e+002, 5.386477e+003
5.815422e+002, 5.393844e+003
5.820244e+002, 5.402939e+003
5.825065e+002, 5.413127e+003
5.829886e+002, 5.422095e+003
5.834707e+002, 5.429240e+003
5.839528e+002, 5.437673e+003
5.844349e+002, 5.451771e+003
5.849171e+002, 5.468583e+003
5.853992e+002, 5.483728e+003
5.858813e+002, 5.495657e+003
5.863634e+002, 5.505616e+003
5.868455e+002, 5.512027e+003
5.873276e+002, 5.516609e+003
5.878098e+002, 5.523913e+003
5.882919e+002, 5.536987e+003
5.887740e+002, 5.550627e+003
5.892561e+002, 5.563607e+003
5.897382e+002, 5.575910e+003
5.902203e+002, 5.586929e+003
5.907025e+002, 5.596352e+003
5.911846e+002, 5.604811e+003
5.916667e+002, 5.612436e+003
5.921488e+002, 5.619188e+003
5.926309e+002, 5.626507e+003
5.931130e+002, 5.634709e+003
5.935952e+002, 5.642832e+003
5.940773e+002, 5.649134e+003
5.945594e+002, 5.654308e+003
5.950415e+002, 5.661185e+003
5.955236e+002, 5.671901e+003
5.960057e+002, 5.682146e+003
5.964879e+002, 5.685888e+003
5.969700e+002, 5.685350e+003
5.974521e+002, 5.685653e+003
5.979342e+002, 5.691172e+003
5.984163e+002, 5.696411e+003
5.988984e+002, 5.698047e+003
5.993806e+002, 5.696336e+003
5.998627e+002, 5.694319e+003
6.003448e+002, 5.693663e+003
6.008269e+002, 5.691918e+003
6.013090e+002, 5.687520e+003
6.017911e+002, 5.679325e+003
6.022733e+002, 5.672833e+003
6.027554e+002, 5.668621e+003
6.032375e+002, 5.665279e+003
6.037196e+002, 5.661751e+003
6.042017e+002, 5.658048e+003
6.046838e+002, 5.653940e+003
6.051660e+002, 5.649530e+003
6.056481e+002, 5.644401e+003
6.061302e+002, 5.637046e+003
6.066123e+002, 5.628130e+003
6.070944e+002, 5.620773e+003
6.075765e+002, 5.616877e+003
6.080587e+002, 5.614250e+003
6.085408e+002, 5.610736e+003
6.090229e+002, 5.606344e+003
6.095050e+002, 5.601011e+003
6.099871e+002, 5.593240e+003
6.104692e+002, 5.585683e+003
6.109514e+002, 5.580151e+003
6.114335e+002, 5.576781e+003
6.119156e+002, 5.573304e+003
6.123977e+002, 5.568318e+003
6.128798e+002, 5.563771e+003
6.133619e+002, 5.561180e+003
6.138441e+002, 5.562733e+003
6.143262e+002, 5.560593e+003
6.148083e+002, 5.553192e+003
6.152904e+002, 5.544315e+003
6.157725e+002, 5.539039e+003
6.162546e+002, 5.537625e+003
6.167368e+002, 5.536083e+003
6.172189e+002, 5.533608e+003
6.177010e+002, 5.530769e+003
6.181831e+002, 5.528178e+003
6.186652e+002, 5.526010e+003
6.191473e+002, 5.524955e+003
6.196295e+002, 5.526896e+003
6.201116e+002, 5.529083e+003
6.205937e+002, 5.527634e+003
6.210758e+002, 5.523463e+003
6.215579e+002, 5.521173e+003
6.220400e+002, 5.526216e+003
6.225222e+002, 5.531282e+003
6.230043e+002, 5.530701e+003
6.234864e+002, 5.521977e+003
6.239685e+002, 5.519223e+003
6.244506e+002, 5.530413e+003
6.249327e+002, 5.542412e+003
6.254149e+002, 5.545956e+003
6.258970e+002, 5.536950e+003
6.263791e+002, 5.531725e+003
6.268612e+002, 5.531231e+003
6.273433e+002, 5.533944e+003
6.278254e+002, 5.538834e+003
6.283076e+002, 5.545731e+003
6.287897e+002, 5.550812e+003
6.292718e+002, 5.552506e+003
6.297539e+002, 5.552966e+003
6.302360e+002, 5.555975e+003
6.307181e+002, 5.560721e+003
6.312003e+002, 5.564573e+003
6.316824e+002, 5.563560e+003
6.321645e+002, 5.563283e+003
6.326466e+002, 5.569958e+003
6.331287e+002, 5.582330e+003
6.336108e+002, 5.591477e+003
6.340930e+002, 5.591244e+003
6.345751e+002, 5.589705e+003
6.350572e+002, 5.590790e+003
6.355393e+002, 5.595075e+003
6.360214e+002, 5.599879e+003
6.365035e+002, 5.605552e+003
6.369857e+002, 5.611276e+003
6.374678e+002, 5.616515e+003
6.379499e+002, 5.621301e+003
6.384320e+002, 5.624932e+003
6.389141e+002, 5.627051e+003
6.393962e+002, 5.628729e+003
6.398784e+002, 5.630141e+003
6.403605e+002, 5.632008e+003
6.408426e+002, 5.638303e+003
6.413247e+002, 5.652628e+003
6.418068e+002, 5.667157e+003
6.422889e+002, 5.671845e+003
6.427711e+002, 5.670314e+003
6.432532e+002, 5.670880e+003
6.437353e+002, 5.679139e+003
6.442174e+002, 5.688518e+003
6.446995e+002, 5.696280e+003
6.451816e+002, 5.702481e+003
6.456638e+002, 5.708298e+003
6.461459e+002, 5.713164e+003
6.466280e+002, 5.718401e+003
6.471101e+002, 5.724560e+003
6.475922e+002, 5.731611e+003
6.480743e+002, 5.738853e+003
6.485565e+002, 5.746462e+003
6.490386e+002, 5.753478e+003
6.495207e+002, 5.758076e+003
6.500028e+002, 5.760708e+003
6.504849e+002, 5.766095e+003
6.509670e+002, 5.774677e+003
6.514492e+002, 5.784549e+003
6.519313e+002, 5.794287e+003
6.524134e+002, 5.803694e+003
6.528955e+002, 5.812354e+003
6.533776e+002, 5.820591e+003
6.538597e+002, 5.827556e+003
6.543419e+002, 5.832333e+003
6.548240e+002, 5.835706e+003
6.553061e+002, 5.838773e+003
6.557882e+002, 5.839583e+003
6.562703e+002, 5.842900e+003
6.567524e+002, 5.851311e+003
6.572346e+002, 5.863131e+003
6.577167e+002, 5.873415e+003
6.581988e+002, 5.881989e+003
6.586809e+002, 5.889565e+003
6.591630e+002, 5.896141e+003
6.596451e+002, 5.901883e+003
6.601273e+002, 5.907267e+003
6.606094e+002, 5.912218e+003
6.610915e+002, 5.918607e+003
6.615736e+002, 5.928485e+003
6.620557e+002, 5.940408e+003
6.625378e+002, 5.952224e+003
6.630200e+002, 5.963736e+003
6.635021e+002, 5.973409e+003
6.639842e+002, 5.977567e+003
6.644663e+002, 5.980797e+003
6.649484e+002, 5.987835e+003
6.654305e+002, 6.001299e+003
6.659127e+002, 6.013380e+003
6.663948e+002, 6.021294e+003
6.668769e+002, 6.027486e+003
6.673590e+002, 6.034469e+003
6.678411e+002, 6.042248e+003
6.683232e+002, 6.050976e+003
6.688054e+002, 6.061053e+003
6.692875e+002, 6.071606e+003
6.697696e+002, 6.081227e+003
6.702517e+002, 6.089911e+003
6.707338e+002, 6.097158e+003
6.712159e+002, 6.101892e+003
6.716981e+002, 6.106127e+003
6.721802e+002, 6.113558e+003
6.726623e+002, 6.123521e+003
6.731444e+002, 6.133976e+003
6.736265e+002, 6.144283e+003
6.741086e+002, 6.154212e+003
6.745908e+002, 6.163628e+003
6.750729e+002, 6.172492e+003
6.755550e+002, 6.180950e+003
6.760371e+002, 6.189563e+003
6.765192e+002, 6.197402e+003
6.770013e+002, 6.204169e+003
6.774835e+002, 6.209886e+003
6.779656e+002, 6.214988e+003
6.784477e+002, 6.218952e+003
6.789298e+002, 6.223364e+003
6.794119e+002, 6.228708e+003
6.798940e+002, 6.235020e+003
6.803762e+002, 6.245703e+003
6.808583e+002, 6.261769e+003
6.813404e+002, 6.276916e+003
6.818225e+002, 6.283628e+003
6.823046e+002, 6.284843e+003
6.827867e+002, 6.286705e+003
6.832689e+002, 6.290385e+003
6.837510e+002, 6.295089e+003
6.842331e+002, 6.301356e+003
6.847152e+002, 6.307889e+003
6.851973e+002, 6.312883e+003
6.856794e+002, 6.315429e+003
6.861616e+002, 6.317078e+003
6.866437e+002, 6.315753e+003
6.871258e+002, 6.314369e+003
6.876079e+002, 6.319083e+003
6.880900e+002, 6.333358e+003
6.885721e+002, 6.344386e+003
6.890543e+002, 6.348346e+003
6.895364e+002, 6.347338e+003
6.900185e+002, 6.347164e+003
6.905006e+002, 6.347763e+003
6.909827e+002, 6.348739e+003
6.914648e+002, 6.349465e+003
6.919470e+002, 6.350593e+003
6.924291e+002, 6.353731e+003
6.929112e+002, 6.358482e+003
6.933933e+002, 6.362663e+003
6.938754e+002, 6.363498e+003
6.943575e+002, 6.364711e+003
6.948397e+002, 6.369636e+003
6.953218e+002, 6.379011e+003
6.958039e+002, 6.386071e+003
6.962860e+002, 6.388033e+003
6.967681e+002, 6.389509e+003
6.972502e+002, 6.393204e+003
6.977324e+002, 6.400105e+003
6.982145e+002, 6.404271e+003
6.986966e+002, 6.405028e+003
6.991787e+002, 6.405076e+003
6.996608e+002, 6.407135e+003
7.001429e+002, 6.410803e+003
7.006251e+002, 6.414317e+003
7.011072e+002, 6.417458e+003
7.015893e+002, 6.420049e+003
7.020714e+002, 6.423154e+003
7.025535e+002, 6.425129e+003
7.030356e+002, 6.423109e+003
7.035178e+002, 6.412760e+003
7.039999e+002, 6.404349e+003
7.044820e+002, 6.403567e+003
7.049641e+002, 6.406589e+003
7.054462e+002, 6.407463e+003
7.059283e+002, 6.405250e+003
7.064105e+002, 6.401791e+003
7.068926e+002, 6.396870e+003
7.073747e+002, 6.391124e+003
7.078568e+002, 6.386160e+003
7.083389e+002, 6.382079e+003
7.088210e+002, 6.377541e+003
7.093032e+002, 6.371894e+003
7.097853e+002, 6.365763e+003
7.102674e+002, 6.360470e+003
7.107495e+002, 6.355863e+003
7.112316e+002, 6.351428e+003
7.117137e+002, 6.347185e+003
7.121959e+002, 6.342755e+003
7.126780e+002, 6.336892e+003
7.131601e+002, 6.330063e+003
7.136422e+002, 6.325793e+003
7.141243e+002, 6.327289e+003
7.146064e+002, 6.329372e+003
7.150886e+002, 6.330659e+003
7.155707e+002, 6.331224e+003
7.160528e+002, 6.327631e+003
7.165349e+002, 6.318074e+003
7.170170e+002, 6.308967e+003
7.174991e+002, 6.304515e+003
7.179813e+002, 6.304305e+003
7.184634e+002, 6.304672e+003
7.189455e+002, 6.305539e+003
7.194276e+002, 6.307486e+003
7.199097e+002, 6.312994e+003
7.203918e+002, 6.319033e+003
7.208740e+002, 6.320084e+003
7.213561e+002, 6.314049e+003
7.218382e+002, 6.311312e+003
7.223203e+002, 6.320744e+003
7.228024e+002, 6.333281e+003
7.232845e+002, 6.340727e+003
7.237667e+002, 6.336269e+003
7.242488e+002, 6.337647e+003
7.247309e+002, 6.347903e+003
7.252130e+002, 6.360705e+003
7.256951e+002, 6.368530e+003
7.261772e+002, 6.371026e+003
7.266594e+002, 6.373537e+003
7.271415e+002, 6.376802e+003
7.276236e+002, 6.380400e+003
7.281057e+002, 6.383241e+003
7.285878e+002, 6.385994e+003
7.290699e+002, 6.390448e+003
7.295521e+002, 6.397727e+003
7.300342e+002, 6.406096e+003
7.305163e+002, 6.415188e+003
7.309984e+002, 6.424455e+003
7.314805e+002, 6.432892e+003
7.319626e+002, 6.439539e+003
7.324448e+002, 6.446268e+003
7.329269e+002, 6.454056e+003
7.334090e+002, 6.462068e+003
7.338911e+002, 6.467536e+003
7.343732e+002, 6.469741e+003
7.348553e+002, 6.472048e+003
7.353375e+002, 6.474949e+003
7.358196e+002, 6.479080e+003
7.363017e+002, 6.488085e+003
7.367838e+002, 6.500815e+003
7.372659e+002, 6.510256e+003
7.377480e+002, 6.510398e+003
7.382302e+002, 6.507091e+003
7.387123e+002, 6.505269e+003
7.391944e+002, 6.504756e+003
7.396765e+002, 6.504255e+003
7.401586e+002, 6.503481e+003
7.406407e+002, 6.502405e+003
7.411229e+002, 6.501536e+003
7.416050e+002, 6.500780e+003
7.420871e+002, 6.497051e+003
7.425692e+002, 6.488844e+003
7.430513e+002, 6.481202e+003
7.435334e+002, 6.477067e+003
7.440156e+002, 6.476018e+003
7.444977e+002, 6.474724e+003
7.449798e+002, 6.473189e+003
7.454619e+002, 6.471229e+003
7.459440e+002, 6.467143e+003
7.464261e+002, 6.463364e+003
7.469083e+002, 6.463728e+003
7.473904e+002, 6.468615e+003
7.478725e+002, 6.472800e+003
7.483546e+002, 6.472770e+003
7.488367e+002, 6.471826e+003
7.493188e+002, 6.471482e+003
7.498010e+002, 6.470596e+003
7.502831e+002, 6.475508e+003
7.507652e+002, 6.490300e+003
7.512473e+002, 6.504467e+003
7.517294e+002, 6.508475e+003
7.522115e+002, 6.502456e+003
7.526937e+002, 6.498923e+003
7.531758e+002, 6.498614e+003
7.536579e+002, 6.500975e+003
7.541400e+002, 6.507456e+003
7.546221e+002, 6.515666e+003
7.551042e+002, 6.521158e+003
7.555864e+002, 6.522125e+003
7.560685e+002, 6.524538e+003
7.565506e+002, 6.532252e+003
7.570327e+002, 6.542778e+003
7.575148e+002, 6.553425e+003
7.579969e+002, 6.564458e+003
7.584791e+002, 6.574975e+003
7.589612e+002, 6.584472e+003
7.594433e+002, 6.593947e+003
7.599254e+002, 6.604434e+003
7.604075e+002, 6.615993e+003
7.608896e+002, 6.627597e+003
7.613718e+002, 6.638815e+003
7.618539e+002, 6.650673e+003
7.623360e+002, 6.666106e+003
7.628181e+002, 6.682978e+003
7.633002e+002, 6.696534e+003
7.637823e+002, 6.703660e+003
7.642645e+002, 6.710589e+003
7.647466e+002, 6.720357e+003
7.652287e+002, 6.732208e+003
7.657108e+002, 6.745318e+003
7.661929e+002, 6.760778e+003
7.666750e+002, 6.775991e+003
7.671572e+002, 6.791620e+003
7.676393e+002, 6.806285e+003
7.681214e+002, 6.817729e+003
7.686035e+002, 6.825920e+003
7.690856e+002, 6.830349e+003
7.695677e+002, 6.829389e+003
7.700499e+002, 6.827456e+003
7.705320e+002, 6.832620e+003
7.710141e+002, 6.842329e+003
7.714962e+002, 6.850126e+003
7.719783e+002, 6.854179e+003
7.724604e+002, 6.854521e+003
7.729426e+002, 6.849726e+003
7.734247e+002, 6.841275e+003
7.739068e+002, 6.832661e+003
7.743889e+002, 6.825154e+003
7.748710e+002, 6.816323e+003
7.753531e+002, 6.805863e+003
7.758353e+002, 6.793810e+003
7.763174e+002, 6.779491e+003
7.767995e+002, 6.762925e+003
7.772816e+002, 6.747617e+003
7.777637e+002, 6.735516e+003
7.782458e+002, 6.724834e+003
7.787280e+002, 6.712813e+003
7.792101e+002, 6.699651e+003
7.796922e+002, 6.686155e+003
7.801743e+002, 6.671608e+003
7.806564e+002, 6.657779e+003
7.811385e+002, 6.644947e+003
7.816207e+002, 6.633314e+003
7.821028e+002, 6.624172e+003
7.825849e+002, 6.619251e+003
7.830670e+002, 6.613615e+003
7.835491e+002, 6.605035e+003
7.840313e+002, 6.594889e+003
7.845134e+002, 6.589750e+003
7.849955e+002, 6.589614e+003
7.854776e+002, 6.587686e+003
7.859597e+002, 6.578757e+003
7.864418e+002, 6.567440e+003
7.869240e+002, 6.561182e+003
7.874061e+002, 6.559022e+003
7.878882e+002, 6.557607e+003
7.883703e+002, 6.556709e+003
7.888524e+002, 6.554826e+003
7.893345e+002, 6.551015e+003
7.898167e+002, 6.545438e+003
7.902988e+002, 6.539546e+003
7.907809e+002, 6.531937e+003
7.912630e+002, 6.526903e+003
7.917451e+002, 6.526874e+003
7.922272e+002, 6.530449e+003
7.927094e+002, 6.530905e+003
7.931915e+002, 6.528388e+003
7.936736e+002, 6.526042e+003
7.941557e+002, 6.526062e+003
7.946378e+002, 6.527028e+003
7.951199e+002, 6.527486e+003
7.956021e+002, 6.527366e+003
7.960842e+002, 6.526467e+003
7.965663e+002, 6.521975e+003
7.970484e+002, 6.519273e+003
7.975305e+002, 6.521292e+003
7.980126e+002, 6.527564e+003
7.984948e+002, 6.534752e+003
7.989769e+002, 6.543594e+003
7.994590e+002, 6.551569e+003
7.999411e+002, 6.558106e+003
8.004232e+002, 6.562875e+003
8.009053e+002, 6.562705e+003
8.013875e+002, 6.558189e+003
8.018696e+002, 6.555008e+003
8.023517e+002, 6.557217e+003
8.028338e+002, 6.561951e+003
8.033159e+002, 6.566860e+003
8.037980e+002, 6.571829e+003
8.042802e+002, 6.576719e+003
8.047623e+002, 6.581223e+003
8.052444e+002, 6.585782e+003
8.057265e+002, 6.590293e+003
8.062086e+002, 6.594781e+003
8.066907e+002, 6.600391e+003
8.071729e+002, 6.607661e+003
8.076550e+002, 6.613304e+003
8.081371e+002, 6.615066e+003
8.086192e+002, 6.614358e+003
8.091013e+002, 6.614647e+003
8.095834e+002, 6.615913e+003
8.100656e+002, 6.617972e+003
8.105477e+002, 6.620661e+003
8.110298e+002, 6.624281e+003
8.115119e+002, 6.630187e+003
8.119940e+002, 6.637888e+003
8.124761e+002, 6.643240e+003
8.129583e+002, 6.643904e+003
8.134404e+002, 6.644625e+003
8.139225e+002, 6.647294e+003
8.144046e+002, 6.651338e+003
8.148867e+002, 6.652251e+003
8.153688e+002, 6.649779e+003
8.158510e+002, 6.649359e+003
8.163331e+002, 6.654992e+003
8.168152e+002, 6.663663e+003
8.172973e+002, 6.670518e+003
8.177794e+002, 6.675856e+003
8.182615e+002, 6.681006e+003
8.187437e+002, 6.685569e+003
8.192258e+002, 6.690874e+003
8.197079e+002, 6.697198e+003
8.201900e+002, 6.704737e+003
8.206721e+002, 6.714886e+003
8.211542e+002, 6.731484e+003
8.216364e+002, 6.741812e+003
8.221185e+002, 6.739120e+003
8.226006e+002, 6.728388e+003
8.230827e+002, 6.726487e+003
8.235648e+002, 6.732575e+003
8.240469e+002, 6.739314e+003
8.245291e+002, 6.743450e+003
8.250112e+002, 6.746203e+003
8.254933e+002, 6.748231e+003
8.259754e+002, 6.749923e+003
8.264575e+002, 6.752342e+003
8.269396e+002, 6.753904e+003
8.274218e+002, 6.758780e+003
8.279039e+002, 6.769422e+003
8.283860e+002, 6.783899e+003
8.288681e+002, 6.795726e+003
8.293502e+002, 6.805015e+003
8.298323e+002, 6.811238e+003
8.303145e+002, 6.813257e+003
8.307966e+002, 6.813240e+003
8.312787e+002, 6.814971e+003
8.317608e+002, 6.818136e+003
8.322429e+002, 6.821776e+003
8.327250e+002, 6.824531e+003
8.332072e+002, 6.828570e+003
8.336893e+002, 6.835539e+003
8.341714e+002, 6.844682e+003
8.346535e+002, 6.854097e+003
8.351356e+002, 6.864367e+003
8.356177e+002, 6.873503e+003
8.360999e+002, 6.880615e+003
8.365820e+002, 6.887080e+003
8.370641e+002, 6.895772e+003
8.375462e+002, 6.906670e+003
8.380283e+002, 6.919836e+003
8.385104e+002, 6.936560e+003
8.389926e+002, 6.953161e+003
8.394747e+002, 6.965009e+003
8.399568e+002, 6.973872e+003
8.404389e+002, 6.983012e+003
8.409210e+002, 6.994906e+003
8.414031e+002, 7.005275e+003
8.418853e+002, 7.011954e+003
8.423674e+002, 7.017021e+003
8.428495e+002, 7.023343e+003
8.433316e+002, 7.031173e+003
8.438137e+002, 7.038844e+003
8.442958e+002, 7.046305e+003
8.447780e+002, 7.052858e+003
8.452601e+002, 7.056859e+003
8.457422e+002, 7.059169e+003
8.462243e+002, 7.062255e+003
8.467064e+002, 7.067702e+003
8.471885e+002, 7.071693e+003
8.476707e+002, 7.070708e+003
8.481528e+002, 7.067726e+003
8.486349e+002, 7.066345e+003
8.491170e+002, 7.069424e+003
8.495991e+002, 7.069459e+003
8.500812e+002, 7.064934e+003
8.505634e+002, 7.059849e+003
8.510455e+002, 7.059372e+003
8.515276e+002, 7.062868e+003
8.520097e+002, 7.065108e+003
8.524918e+002, 7.065486e+003
8.529739e+002, 7.064491e+003
8.534561e+002, 7.062170e+003
8.539382e+002, 7.058956e+003
8.544203e+002, 7.054842e+003
8.549024e+002, 7.048783e+003
8.553845e+002, 7.045321e+003
8.558666e+002, 7.047506e+003
8.563488e+002, 7.050351e+003
8.568309e+002, 7.050206e+003
8.573130e+002, 7.046317e+003
8.577951e+002, 7.044515e+003
8.582772e+002, 7.044952e+003
8.587593e+002, 7.045787e+003
8.592415e+002, 7.045411e+003
8.597236e+002, 7.044289e+003
8.602057e+002, 7.043300e+003
8.606878e+002, 7.042511e+003
8.611699e+002, 7.041354e+003
8.616520e+002, 7.039909e+003
8.621342e+002, 7.037765e+003
8.626163e+002, 7.034583e+003
8.630984e+002, 7.030481e+003
8.635805e+002, 7.025572e+003
8.640626e+002, 7.019011e+003
8.645447e+002, 7.014754e+003
8.650269e+002, 7.017107e+003
8.655090e+002, 7.023440e+003
8.659911e+002, 7.024048e+003
8.664732e+002, 7.019567e+003
8.669553e+002, 7.013866e+003
8.674374e+002, 7.006143e+003
8.679196e+002, 7.000819e+003
8.684017e+002, 7.002508e+003
8.688838e+002, 7.010182e+003
8.693659e+002, 7.016148e+003
8.698480e+002, 7.019323e+003
8.703301e+002, 7.020896e+003
8.708123e+002, 7.019831e+003
8.712944e+002, 7.017862e+003
8.717765e+002, 7.023641e+003
8.722586e+002, 7.035937e+003
8.727407e+002, 7.042620e+003
8.732228e+002, 7.034485e+003
8.737050e+002, 7.022511e+003
8.741871e+002, 7.017220e+003
8.746692e+002, 7.016868e+003
8.751513e+002, 7.017605e+003
8.756334e+002, 7.020075e+003
8.761155e+002, 7.021442e+003
8.765977e+002, 7.021245e+003
8.770798e+002, 7.019931e+003
8.775619e+002, 7.017967e+003
8.780440e+002, 7.015314e+003
8.785261e+002, 7.013485e+003
8.790082e+002, 7.013096e+003
8.794904e+002, 7.012735e+003
8.799725e+002, 7.009663e+003
8.804546e+002, 7.005502e+003
8.809367e+002, 7.003125e+003
8.814188e+002, 7.003671e+003
8.819009e+002, 7.005194e+003
8.823831e+002, 7.008795e+003
8.828652e+002, 7.011880e+003
8.833473e+002, 7.011386e+003
8.838294e+002, 7.005554e+003
8.843115e+002, 7.003656e+003
8.847936e+002, 7.006936e+003
8.852758e+002, 7.010965e+003
8.857579e+002, 7.009507e+003
8.862400e+002, 7.005783e+003
8.867221e+002, 7.007901e+003
8.872042e+002, 7.017160e+003
8.876863e+002, 7.026437e+003
8.881685e+002, 7.032594e+003
8.886506e+002, 7.036636e+003
8.891327e+002, 7.038198e+003
8.896148e+002, 7.036535e+003
8.900969e+002, 7.039121e+003
8.905790e+002, 7.047757e+003
8.910612e+002, 7.055618e+003
8.915433e+002, 7.057531e+003
8.920254e+002, 7.055268e+003
8.925075e+002, 7.054975e+003
8.929896e+002, 7.056622e+003
8.934717e+002, 7.060508e+003
8.939539e+002, 7.072198e+003
8.944360e+002, 7.081412e+003
8.949181e+002, 7.079304e+003
8.954002e+002, 7.067607e+003
8.958823e+002, 7.058610e+003
8.963644e+002, 7.052280e+003
8.968466e+002, 7.050774e+003
8.973287e+002, 7.056743e+003
8.978108e+002, 7.066417e+003
8.982929e+002, 7.070235e+003
8.987750e+002, 7.068623e+003
8.992571e+002, 7.063695e+003
8.997393e+002, 7.054534e+003
9.002214e+002, 7.045109e+003
9.007035e+002, 7.038023e+003
9.011856e+002, 7.033132e+003
9.016677e+002, 7.030359e+003
9.021498e+002, 7.034415e+003
9.026320e+002, 7.033041e+003
9.031141e+002, 7.022257e+003
9.035962e+002, 7.009424e+003
9.040783e+002, 7.005932e+003
9.045604e+002, 7.010849e+003
9.050425e+002, 7.012780e+003
9.055247e+002, 7.009976e+003
9.060068e+002, 7.004621e+003
9.064889e+002, 6.996348e+003
9.069710e+002, 6.988053e+003
9.074531e+002, 6.983572e+003
9.079352e+002, 6.985028e+003
9.084174e+002, 6.984631e+003
9.088995e+002, 6.980333e+003
9.093816e+002, 6.975222e+003
9.098637e+002, 6.971122e+003
9.103458e+002, 6.967979e+003
9.108279e+002, 6.965096e+003
9.113101e+002, 6.962455e+003
9.117922e+002, 6.959578e+003
9.122743e+002, 6.955537e+003
9.127564e+002, 6.951375e+003
9.132385e+002, 6.948267e+003
9.137206e+002, 6.946127e+003
9.142028e+002, 6.944196e+003
9.146849e+002, 6.942338e+003
9.151670e+002, 6.940542e+003
9.156491e+002, 6.938718e+003
9.161312e+002, 6.937041e+003
9.166133e+002, 6.936678e+003
9.170955e+002, 6.937736e+003
9.175776e+002, 6.936743e+003
9.180597e+002, 6.930797e+003
9.185418e+002, 6.924787e+003
9.190239e+002, 6.926376e+003
9.195060e+002, 6.932131e+003
9.199882e+002, 6.935342e+003
9.204703e+002, 6.931106e+003
9.209524e+002, 6.927524e+003
9.214345e+002, 6.925353e+003
9.219166e+002, 6.924701e+003
9.223987e+002, 6.926447e+003
9.228809e+002, 6.930765e+003
9.233630e+002, 6.932686e+003
9.238451e+002, 6.931256e+003
9.243272e+002, 6.929321e+003
9.248093e+002, 6.931106e+003
9.252914e+002, 6.933695e+003
9.257736e+002, 6.932506e+003
9.262557e+002, 6.926038e+003
9.267378e+002, 6.921610e+003
9.272199e+002, 6.922719e+003
9.277020e+002, 6.925451e+003
9.281841e+002, 6.928769e+003
9.286663e+002, 6.932706e+003
9.291484e+002, 6.932580e+003
9.296305e+002, 6.928284e+003
9.301126e+002, 6.922971e+003
9.305947e+002, 6.917447e+003
9.310768e+002, 6.912761e+003
9.315590e+002, 6.909211e+003
9.320411e+002, 6.907432e+003
9.325232e+002, 6.910071e+003
9.330053e+002, 6.927143e+003
9.334874e+002, 6.937229e+003
9.339695e+002, 6.931791e+003
9.344517e+002, 6.917725e+003
9.349338e+002, 6.912046e+003
9.354159e+002, 6.914976e+003
9.358980e+002, 6.918899e+003
9.363801e+002, 6.922199e+003
9.368622e+002, 6.924652e+003
9.373444e+002, 6.924492e+003
9.378265e+002, 6.923791e+003
9.383086e+002, 6.925938e+003
9.387907e+002, 6.934808e+003
9.392728e+002, 6.940382e+003
9.397549e+002, 6.937575e+003
9.402371e+002, 6.934302e+003
9.407192e+002, 6.938095e+003
9.412013e+002, 6.949224e+003
9.416834e+002, 6.955384e+003
9.421655e+002, 6.955923e+003
9.426476e+002, 6.955269e+003
9.431298e+002, 6.955382e+003
9.436119e+002, 6.957320e+003
9.440940e+002, 6.963937e+003
9.445761e+002, 6.975036e+003
9.450582e+002, 6.982192e+003
9.455403e+002, 6.981372e+003
9.460225e+002, 6.978645e+003
9.465046e+002, 6.975136e+003
9.469867e+002, 6.971373e+003
9.474688e+002, 6.968607e+003
9.479509e+002, 6.967056e+003
9.484330e+002, 6.969702e+003
9.489152e+002, 6.981771e+003
9.493973e+002, 6.993121e+003
9.498794e+002, 6.990501e+003
9.503615e+002, 6.980977e+003
9.508436e+002, 6.977087e+003
9.513257e+002, 6.989532e+003
9.518079e+002, 6.996718e+003
9.522900e+002, 6.995437e+003
9.527721e+002, 6.991385e+003
9.532542e+002, 6.992241e+003
9.537363e+002, 6.997053e+003
9.542184e+002, 6.997748e+003
9.547006e+002, 6.993093e+003
9.551827e+002, 6.988771e+003
9.556648e+002, 6.990849e+003
9.561469e+002, 6.994357e+003
9.566290e+002, 6.994435e+003
9.571111e+002, 6.990049e+003
9.575933e+002, 6.988108e+003
9.580754e+002, 6.989689e+003
9.585575e+002, 6.992115e+003
9.590396e+002, 6.994219e+003
9.595217e+002, 6.996141e+003
9.600038e+002, 6.997665e+003
9.604860e+002, 6.999215e+003
9.609681e+002, 7.003013e+003
9.614502e+002, 7.012501e+003
9.619323e+002, 7.022190e+003
9.624144e+002, 7.028334e+003
9.628965e+002, 7.032315e+003
9.633787e+002, 7.037299e+003
9.638608e+002, 7.044442e+003
9.643429e+002, 7.049690e+003
9.648250e+002, 7.052229e+003
9.653071e+002, 7.053522e+003
9.657892e+002, 7.054585e+003
9.662714e+002, 7.056083e+003
9.667535e+002, 7.060349e+003
9.672356e+002, 7.068210e+003
9.677177e+002, 7.075236e+003
9.681998e+002, 7.078644e+003
9.686819e+002, 7.080518e+003
9.691641e+002, 7.082450e+003
9.696462e+002, 7.084656e+003
9.701283e+002, 7.084237e+003
9.706104e+002, 7.080497e+003
9.710925e+002, 7.077942e+003
9.715746e+002, 7.079458e+003
9.720568e+002, 7.083675e+003
9.725389e+002, 7.088973e+003
9.730210e+002, 7.094927e+003
9.735031e+002, 7.100030e+003
9.739852e+002, 7.103511e+003
9.744673e+002, 7.106161e+003
9.749495e+002, 7.107350e+003
9.754316e+002, 7.108400e+003
9.759137e+002, 7.112231e+003
9.763958e+002, 7.119160e+003
9.768779e+002, 7.123463e+003
9.773600e+002, 7.123669e+003
9.778422e+002, 7.123594e+003
9.783243e+002, 7.127862e+003
9.788064e+002, 7.134140e+003
9.792885e+002, 7.139400e+003
9.797706e+002, 7.142930e+003
9.802527e+002, 7.146769e+003
9.807349e+002, 7.152475e+003
9.812170e+002, 7.156820e+003
9.816991e+002, 7.156834e+003
9.821812e+002, 7.153505e+003
9.826633e+002, 7.155096e+003
9.831454e+002, 7.161242e+003
9.836276e+002, 7.168609e+003
9.841097e+002, 7.176473e+003
9.845918e+002, 7.183516e+003
9.850739e+002, 7.188298e+003
9.855560e+002, 7.191367e+003
9.860381e+002, 7.194154e+003
9.865203e+002, 7.196421e+003
9.870024e+002, 7.199276e+003
9.874845e+002, 7.203036e+003
9.879666e+002, 7.207212e+003
9.884487e+002, 7.212038e+003
9.889308e+002, 7.216711e+003
9.894130e+002, 7.217982e+003
9.898951e+002, 7.214720e+003
9.903772e+002, 7.213271e+003
9.908593e+002, 7.220139e+003
9.913414e+002, 7.228057e+003
9.918235e+002, 7.231231e+003
9.923057e+002, 7.229349e+003
9.927878e+002, 7.229431e+003
9.932699e+002, 7.231635e+003
9.937520e+002, 7.234705e+003
9.942341e+002, 7.238154e+003
9.947162e+002, 7.241866e+003
9.951984e+002, 7.245568e+003
9.956805e+002, 7.249329e+003
9.961626e+002, 7.253275e+003
9.966447e+002, 7.257408e+003
9.971268e+002, 7.261792e+003
9.976089e+002, 7.265783e+003
9.980911e+002, 7.270580e+003
9.985732e+002, 7.278867e+003
9.990553e+002, 7.290602e+003
9.995374e+002, 7.298535e+003
1.000020e+003, 7.301396e+003
1.000502e+003, 7.302549e+003
1.000984e+003, 7.303984e+003
1.001466e+003, 7.305817e+003
1.001948e+003, 7.308208e+003
1.002430e+003, 7.311166e+003
1.002912e+003, 7.314491e+003
1.003394e+003, 7.318687e+003
1.003876e+003, 7.322119e+003
1.004359e+003, 7.323768e+003
1.004841e+003, 7.324435e+003
1.005323e+003, 7.326066e+003
1.005805e+003, 7.328805e+003
1.006287e+003, 7.333038e+003
1.006769e+003, 7.340019e+003
1.007251e+003, 7.347336e+003
1.007733e+003, 7.352560e+003
1.008216e+003, 7.357989e+003
1.008698e+003, 7.367076e+003
1.009180e+003, 7.381896e+003
1.009662e+003, 7.392313e+003
1.010144e+003, 7.397213e+003
1.010626e+003, 7.400400e+003
1.011108e+003, 7.404478e+003
1.011590e+003, 7.409632e+003
1.012072e+003, 7.416241e+003
1.012555e+003, 7.424307e+003
1.013037e+003, 7.433072e+003
1.013519e+003, 7.441938e+003
1.014001e+003, 7.451925e+003
1.014483e+003, 7.464468e+003
1.014965e+003, 7.478010e+003
1.015447e+003, 7.486153e+003
1.015929e+003, 7.489568e+003
1.016411e+003, 7.494981e+003
1.016894e+003, 7.504932e+003
1.017376e+003, 7.516795e+003
1.017858e+003, 7.530752e+003
1.018340e+003, 7.544050e+003
1.018822e+003, 7.552617e+003
1.019304e+003, 7.552894e+003
1.019786e+003, 7.556752e+003
1.020268e+003, 7.564818e+003
1.020751e+003, 7.575061e+003
1.021233e+003, 7.587188e+003
1.021715e+003, 7.600111e+003
1.022197e+003, 7.610232e+003
1.022679e+003, 7.617982e+003
1.023161e+003, 7.625950e+003
1.023643e+003, 7.634565e+003
1.024125e+003, 7.644513e+003
1.024607e+003, 7.655369e+003
1.025090e+003, 7.667881e+003
1.025572e+003, 7.685260e+003
1.026054e+003, 7.708187e+003
1.026536e+003, 7.725912e+003
1.027018e+003, 7.735810e+003
1.027500e+003, 7.743706e+003
1.027982e+003, 7.756189e+003
1.028464e+003, 7.769931e+003
1.028947e+003, 7.780752e+003
1.029429e+003, 7.787168e+003
1.029911e+003, 7.795116e+003
1.030393e+003, 7.805917e+003
1.030875e+003, 7.816997e+003
1.031357e+003, 7.827136e+003
1.031839e+003, 7.836640e+003
1.032321e+003, 7.844714e+003
1.032803e+003, 7.852429e+003
1.033286e+003, 7.864372e+003
1.033768e+003, 7.888708e+003
1.034250e+003, 7.910927e+003
1.034732e+003, 7.922530e+003
1.035214e+003, 7.929285e+003
1.035696e+003, 7.939062e+003
1.036178e+003, 7.952013e+003
1.036660e+003, 7.967518e+003
1.037143e+003, 7.985981e+003
1.037625e+003, 8.004399e+003
1.038107e+003, 8.018843e+003
1.038589e+003, 8.032745e+003
1.039071e+003, 8.049968e+003
1.039553e+003, 8.070823e+003
1.040035e+003, 8.093923e+003
1.040517e+003, 8.121101e+003
1.041000e+003, 8.147146e+003
1.041482e+003, 8.169758e+003
1.041964e+003, 8.190718e+003
1.042446e+003, 8.212743e+003
1.042928e+003, 8.236244e+003
1.043410e+003, 8.262542e+003
1.043892e+003, 8.293639e+003
1.044374e+003, 8.323036e+003
1.044856e+003, 8.345692e+003
1.045339e+003, 8.364876e+003
1.045821e+003, 8.382843e+003
1.046303e+003, 8.398719e+003
1.046785e+003, 8.420887e+003
1.047267e+003, 8.449764e+003
1.047749e+003, 8.480694e+003
1.048231e+003, 8.511689e+003
1.048713e+003, 8.541457e+003
1.049195e+003, 8.567022e+003
1.049677e+003, 8.589854e+003
1.050160e+003, 8.613547e+003
1.050642e+003, 8.643440e+003
1.051124e+003, 8.667655e+003
1.051606e+003, 8.683831e+003
1.052088e+003, 8.695419e+003
1.052570e+003, 8.706549e+003
1.053052e+003, 8.716977e+003
1.053534e+003, 8.725729e+003
1.054017e+003, 8.732718e+003
1.054499e+003, 8.736156e+003
1.054981e+003, 8.734769e+003
1.055463e+003, 8.729566e+003
1.055945e+003, 8.722367e+003
1.056427e+003, 8.712474e+003
1.056909e+003, 8.692047e+003
1.057391e+003, 8.660090e+003
1.057874e+003, 8.630441e+003
1.058356e+003, 8.609237e+003
1.058838e+003, 8.589624e+003
1.059320e+003, 8.564214e+003
1.059802e+003, 8.534765e+003
1.060284e+003, 8.502570e+003
1.060766e+003, 8.465298e+003
1.061248e+003, 8.432391e+003
1.061730e+003, 8.406842e+003
1.062213e+003, 8.380418e+003
1.062695e+003, 8.345268e+003
1.063177e+003, 8.304546e+003
1.063659e+003, 8.270127e+003
1.064141e+003, 8.240576e+003
1.064623e+003, 8.209947e+003
1.065105e+003, 8.170992e+003
1.065587e+003, 8.135014e+003
1.066070e+003, 8.107638e+003
1.066552e+003, 8.084631e+003
1.067034e+003, 8.060572e+003
1.067516e+003, 8.035475e+003
1.067998e+003, 8.010205e+003
1.068480e+003, 7.985012e+003
1.068962e+003, 7.960372e+003
1.069444e+003, 7.937066e+003
1.069927e+003, 7.914483e+003
1.070409e+003, 7.891473e+003
1.070891e+003, 7.868461e+003
1.071373e+003, 7.846681e+003
1.071855e+003, 7.825959e+003
1.072337e+003, 7.807023e+003
1.072819e+003, 7.789497e+003
1.073301e+003, 7.774640e+003
1.073783e+003, 7.765428e+003
1.074266e+003, 7.760174e+003
1.074748e+003, 7.755705e+003
1.075230e+003, 7.752659e+003
1.075712e+003, 7.746076e+003
1.076194e+003, 7.731687e+003
1.076676e+003, 7.716547e+003
1.077158e+003, 7.704125e+003
1.077640e+003, 7.694456e+003
1.078122e+003, 7.688866e+003
1.078604e+003, 7.686721e+003
1.079087e+003, 7.682757e+003
1.079569e+003, 7.670589e+003
1.080051e+003, 7.659275e+003
1.080533e+003, 7.655183e+003
1.081015e+003, 7.655327e+003
1.081497e+003, 7.654083e+003
1.081979e+003, 7.651353e+003
1.082461e+003, 7.646717e+003
1.082944e+003, 7.639618e+003
1.083426e+003, 7.634214e+003
1.083908e+003, 7.635841e+003
1.084390e+003, 7.640671e+003
1.084872e+003, 7.646137e+003
1.085354e+003, 7.651431e+003
1.085836e+003, 7.649783e+003
1.086318e+003, 7.632728e+003
1.086801e+003, 7.624070e+003
1.087283e+003, 7.632282e+003
1.087765e+003, 7.647291e+003
1.088247e+003, 7.650531e+003
1.088729e+003, 7.645545e+003
1.089211e+003, 7.640958e+003
1.089693e+003, 7.638228e+003
1.090175e+003, 7.637711e+003
1.090657e+003, 7.642341e+003
1.091140e+003, 7.646361e+003
1.091622e+003, 7.646125e+003
1.092104e+003, 7.642328e+003
1.092586e+003, 7.640989e+003
1.093068e+003, 7.641921e+003
1.093550e+003, 7.642955e+003
1.094032e+003, 7.642337e+003
1.094514e+003, 7.642683e+003
1.094997e+003, 7.646919e+003
1.095479e+003, 7.652800e+003
1.095961e+003, 7.657549e+003
1.096443e+003, 7.661586e+003
1.096925e+003, 7.661868e+003
1.097407e+003, 7.657596e+003
1.097889e+003, 7.654747e+003
1.098371e+003, 7.659456e+003
1.098854e+003, 7.667256e+003
1.099336e+003, 7.672972e+003
1.099818e+003, 7.676795e+003
1.100300e+003, 7.680141e+003
1.100782e+003, 7.686498e+003
1.101264e+003, 7.685830e+003
1.101746e+003, 7.673890e+003
1.102228e+003, 7.660619e+003
1.102710e+003, 7.661527e+003
1.103193e+003, 7.671212e+003
1.103675e+003, 7.675980e+003
1.104157e+003, 7.674249e+003
1.104639e+003, 7.672978e+003
1.105121e+003, 7.676739e+003
1.105603e+003, 7.679783e+003
1.106085e+003, 7.679106e+003
1.106567e+003, 7.676604e+003
1.107049e+003, 7.678046e+003
1.107531e+003, 7.683160e+003
1.108014e+003, 7.690044e+003
1.108496e+003, 7.698991e+003
1.108978e+003, 7.706817e+003
1.109460e+003, 7.709419e+003
1.109942e+003, 7.711159e+003
1.110424e+003, 7.716775e+003
1.110906e+003, 7.726638e+003
1.111388e+003, 7.730022e+003
1.111871e+003, 7.726515e+003
1.112353e+003, 7.722110e+003
1.112835e+003, 7.718770e+003
1.113317e+003, 7.717401e+003
1.113799e+003, 7.720593e+003
1.114281e+003, 7.726048e+003
1.114763e+003, 7.730045e+003
1.115245e+003, 7.732782e+003
1.115728e+003, 7.731938e+003
1.116210e+003, 7.726431e+003
1.116692e+003, 7.721375e+003
1.117174e+003, 7.721326e+003
1.117656e+003, 7.724558e+003
1.118138e+003, 7.728587e+003
1.118620e+003, 7.733090e+003
1.119102e+003, 7.737198e+003
1.119584e+003, 7.740406e+003
1.120067e+003, 7.743061e+003
1.120549e+003, 7.744769e+003
1.121031e+003, 7.746310e+003
1.121513e+003, 7.749961e+003
1.121995e+003, 7.754256e+003
1.122477e+003, 7.752936e+003
1.122959e+003, 7.745540e+003
1.123441e+003, 7.740146e+003
1.123924e+003, 7.744458e+003
1.124406e+003, 7.747669e+003
1.124888e+003, 7.743231e+003
1.125370e+003, 7.735412e+003
1.125852e+003, 7.737316e+003
1.126334e+003, 7.748083e+003
1.126816e+003, 7.757382e+003
1.127298e+003, 7.763413e+003
1.127781e+003, 7.765113e+003
1.128263e+003, 7.757664e+003
1.128745e+003, 7.748810e+003
1.129227e+003, 7.745001e+003
1.129709e+003, 7.746129e+003
1.130191e+003, 7.748307e+003
1.130673e+003, 7.751607e+003
1.131155e+003, 7.755198e+003
1.131637e+003, 7.759472e+003
1.132120e+003, 7.762513e+003
1.132602e+003, 7.758313e+003
1.133084e+003, 7.753244e+003
1.133566e+003, 7.757577e+003
1.134048e+003, 7.777424e+003
1.134530e+003, 7.788286e+003
1.135012e+003, 7.788295e+003
1.135494e+003, 7.786579e+003
1.135976e+003, 7.788944e+003
1.136458e+003, 7.793398e+003
1.136941e+003, 7.797629e+003
1.137423e+003, 7.801302e+003
1.137905e+003, 7.803548e+003
1.138387e+003, 7.802294e+003
1.138869e+003, 7.802356e+003
1.139351e+003, 7.803865e+003
1.139833e+003, 7.806901e+003
1.140315e+003, 7.812907e+003
1.140798e+003, 7.820048e+003
1.141280e+003, 7.823998e+003
1.141762e+003, 7.824801e+003
1.142244e+003, 7.823979e+003
1.142726e+003, 7.818832e+003
1.143208e+003, 7.816729e+003
1.143690e+003, 7.820597e+003
1.144172e+003, 7.826459e+003
1.144655e+003, 7.828097e+003
1.145137e+003, 7.826485e+003
1.145619e+003, 7.826276e+003
1.146101e+003, 7.828144e+003
1.146583e+003, 7.827269e+003
1.147065e+003, 7.816458e+003
1.147547e+003, 7.807443e+003
1.148029e+003, 7.805292e+003
1.148511e+003, 7.808911e+003
1.148994e+003, 7.817428e+003
1.149476e+003, 7.829888e+003
1.149958e+003, 7.836112e+003
1.150440e+003, 7.832269e+003
1.150922e+003, 7.829806e+003
1.151404e+003, 7.841477e+003
1.151886e+003, 7.853723e+003
1.152368e+003, 7.854267e+003
1.152851e+003, 7.844775e+003
1.153333e+003, 7.843322e+003
1.153815e+003, 7.849846e+003
1.154297e+003, 7.856119e+003
1.154779e+003, 7.858894e+003
1.155261e+003, 7.860438e+003
1.155743e+003, 7.863104e+003
1.156225e+003, 7.865384e+003
1.156708e+003, 7.865029e+003
1.157190e+003, 7.861462e+003
1.157672e+003, 7.859591e+003
1.158154e+003, 7.859547e+003
1.158636e+003, 7.860612e+003
1.159118e+003, 7.863630e+003
1.159600e+003, 7.866411e+003
1.160082e+003, 7.865755e+003
1.160564e+003, 7.863514e+003
1.161047e+003, 7.862974e+003
1.161529e+003, 7.866392e+003
1.162011e+003, 7.867363e+003
1.162493e+003, 7.865415e+003
1.162975e+003, 7.863302e+003
1.163457e+003, 7.862768e+003
1.163939e+003, 7.863562e+003
1.164421e+003, 7.865365e+003
1.164903e+003, 7.868133e+003
1.165385e+003, 7.871990e+003
1.165868e+003, 7.879006e+003
1.166350e+003, 7.882359e+003
1.166832e+003, 7.880221e+003
1.167314e+003, 7.877532e+003
1.167796e+003, 7.880525e+003
1.168278e+003, 7.885981e+003
1.168760e+003, 7.887907e+003
1.169242e+003, 7.886569e+003
1.169725e+003, 7.885885e+003
1.170207e+003, 7.886188e+003
1.170689e+003, 7.888982e+003
1.171171e+003, 7.895202e+003
1.171653e+003, 7.902846e+003
1.172135e+003, 7.911051e+003
1.172617e+003, 7.917951e+003
1.173099e+003, 7.917365e+003
1.173582e+003, 7.908873e+003
1.174064e+003, 7.904485e+003
1.174546e+003, 7.911211e+003
1.175028e+003, 7.919704e+003
1.175510e+003, 7.928516e+003
1.175992e+003, 7.936489e+003
1.176474e+003, 7.941002e+003
1.176956e+003, 7.942627e+003
1.177438e+003, 7.942338e+003
1.177921e+003, 7.939935e+003
1.178403e+003, 7.939080e+003
1.178885e+003, 7.942463e+003
1.179367e+003, 7.946542e+003
1.179849e+003, 7.950025e+003
1.180331e+003, 7.953193e+003
1.180813e+003, 7.957038e+003
1.181295e+003, 7.961231e+003
1.181778e+003, 7.964284e+003
1.182260e+003, 7.965476e+003
1.182742e+003, 7.966710e+003
1.183224e+003, 7.969396e+003
1.183706e+003, 7.971743e+003
1.184188e+003, 7.972053e+003
1.184670e+003, 7.971193e+003
1.185152e+003, 7.973994e+003
1.185635e+003, 7.980084e+003
1.186117e+003, 7.988322e+003
1.186599e+003, 8.000718e+003
1.187081e+003, 8.009841e+003
1.187563e+003, 8.010359e+003
1.188045e+003, 8.007217e+003
1.188527e+003, 8.003147e+003
1.189009e+003, 7.998520e+003
1.189491e+003, 7.997500e+003
1.189974e+003, 7.999970e+003
1.190456e+003, 8.005084e+003
1.190938e+003, 8.015617e+003
1.191420e+003, 8.024380e+003
1.191902e+003, 8.027290e+003
1.192384e+003, 8.027048e+003
1.192866e+003, 8.025816e+003
1.193348e+003, 8.023533e+003
1.193830e+003, 8.023200e+003
1.194313e+003, 8.024750e+003
1.194795e+003, 8.027519e+003
1.195277e+003, 8.031194e+003
1.195759e+003, 8.035834e+003
1.196241e+003, 8.043736e+003
1.196723e+003, 8.051170e+003
1.197205e+003, 8.052644e+003
1.197687e+003, 8.047987e+003
1.198169e+003, 8.046081e+003
1.198652e+003, 8.047282e+003
1.199134e+003, 8.048725e+003
1.199616e+003, 8.049153e+003
1.200098e+003, 8.048635e+003
1.200580e+003, 8.044810e+003
1.201062e+003, 8.041308e+003
1.201544e+003, 8.045514e+003
1.202026e+003, 8.057798e+003
1.202509e+003, 8.063332e+003
1.202991e+003, 8.060740e+003
1.203473e+003, 8.058237e+003
1.203955e+003, 8.061914e+003
1.204437e+003, 8.067389e+003
1.204919e+003, 8.072101e+003
1.205401e+003, 8.076345e+003
1.205883e+003, 8.081452e+003
1.206365e+003, 8.087441e+003
1.206848e+003, 8.090029e+003
1.207330e+003, 8.088384e+003
1.207812e+003, 8.087092e+003
1.208294e+003, 8.089893e+003
1.208776e+003, 8.094079e+003
1.209258e+003, 8.098274e+003
1.209740e+003, 8.102289e+003
1.210222e+003, 8.106059e+003
1.210705e+003, 8.109699e+003
1.211187e+003, 8.110561e+003
1.211669e+003, 8.108056e+003
1.212151e+003, 8.104933e+003
1.212633e+003, 8.101070e+003
1.213115e+003, 8.099698e+003
1.213597e+003, 8.105526e+003
1.214079e+003, 8.115910e+003
1.214562e+003, 8.120941e+003
1.215044e+003, 8.120795e+003
1.215526e+003, 8.122229e+003
1.216008e+003, 8.127064e+003
1.216490e+003, 8.132188e+003
1.216972e+003, 8.134974e+003
1.217454e+003, 8.137094e+003
1.217936e+003, 8.139650e+003
1.218418e+003, 8.142476e+003
1.218901e+003, 8.144375e+003
1.219383e+003, 8.145398e+003
1.219865e+003, 8.149313e+003
1.220347e+003, 8.158327e+003
1.220829e+003, 8.165518e+003
1.221311e+003, 8.162950e+003
1.221793e+003, 8.158916e+003
1.222275e+003, 8.160132e+003
1.222757e+003, 8.165775e+003
1.223240e+003, 8.169999e+003
1.223722e+003, 8.172761e+003
1.224204e+003, 8.171958e+003
1.224686e+003, 8.165351e+003
1.225168e+003, 8.160045e+003
1.225650e+003, 8.161291e+003
1.226132e+003, 8.165688e+003
1.226614e+003, 8.171195e+003
1.227096e+003, 8.177451e+003
1.227579e+003, 8.180526e+003
1.228061e+003, 8.180708e+003
1.228543e+003, 8.179986e+003
1.229025e+003, 8.177656e+003
1.229507e+003, 8.177925e+003
1.229989e+003, 8.185723e+003
1.230471e+003, 8.194895e+003
1.230953e+003, 8.200723e+003
1.231436e+003, 8.203413e+003
1.231918e+003, 8.204093e+003
1.232400e+003, 8.203299e+003
1.232882e+003, 8.205322e+003
1.233364e+003, 8.214659e+003
1.233846e+003, 8.221991e+003
1.234328e+003, 8.219503e+003
1.234810e+003, 8.216429e+003
1.235292e+003, 8.220142e+003
1.235775e+003, 8.229576e+003
1.236257e+003, 8.236882e+003
1.236739e+003, 8.241930e+003
1.237221e+003, 8.243831e+003
1.237703e+003, 8.238913e+003
1.238185e+003, 8.236207e+003
1.238667e+003, 8.240088e+003
1.239149e+003, 8.246563e+003
1.239632e+003, 8.253691e+003
1.240114e+003, 8.261069e+003
1.240596e+003, 8.267357e+003
1.241078e+003, 8.272376e+003
1.241560e+003, 8.275629e+003
1.242042e+003, 8.273674e+003
1.242524e+003, 8.274752e+003
1.243006e+003, 8.283558e+003
1.243489e+003, 8.292166e+003
1.243971e+003, 8.292596e+003
1.244453e+003, 8.287670e+003
1.244935e+003, 8.289762e+003
1.245417e+003, 8.297269e+003
1.245899e+003, 8.304106e+003
1.246381e+003, 8.307690e+003
1.246863e+003, 8.310319e+003
1.247345e+003, 8.311396e+003
1.247828e+003, 8.313540e+003
1.248310e+003, 8.320511e+003
1.248792e+003, 8.329818e+003
1.249274e+003, 8.333850e+003
1.249756e+003, 8.334192e+003
1.250238e+003, 8.336492e+003
1.250720e+003, 8.348312e+003
1.251202e+003, 8.352610e+003
1.251684e+003, 8.345098e+003
1.252167e+003, 8.337350e+003
1.252649e+003, 8.341009e+003
1.253131e+003, 8.350552e+003
1.253613e+003, 8.354810e+003
1.254095e+003, 8.355410e+003
1.254577e+003, 8.358431e+003
1.255059e+003, 8.367551e+003
1.255541e+003, 8.374603e+003
1.256023e+003, 8.378530e+003
1.256506e+003, 8.382265e+003
1.256988e+003, 8.391474e+003
1.257470e+003, 8.400019e+003
1.257952e+003, 8.395952e+003
1.258434e+003, 8.384020e+003
1.258916e+003, 8.379253e+003
1.259398e+003, 8.386640e+003
1.259880e+003, 8.391265e+003
1.260363e+003, 8.391882e+003
1.260845e+003, 8.392654e+003
1.261327e+003, 8.398730e+003
1.261809e+003, 8.405368e+003
1.262291e+003, 8.406545e+003
1.262773e+003, 8.404479e+003
1.263255e+003, 8.405971e+003
1.263737e+003, 8.412983e+003
1.264219e+003, 8.413490e+003
1.264702e+003, 8.406072e+003
1.265184e+003, 8.400729e+003
1.265666e+003, 8.407561e+003
1.266148e+003, 8.417181e+003
1.266630e+003, 8.422810e+003
1.267112e+003, 8.425818e+003
1.267594e+003, 8.429510e+003
1.268076e+003, 8.434005e+003
1.268559e+003, 8.438274e+003
1.269041e+003, 8.442264e+003
1.269523e+003, 8.445956e+003
1.270005e+003, 8.449844e+003
1.270487e+003, 8.452946e+003
1.270969e+003, 8.453451e+003
1.271451e+003, 8.453440e+003
1.271933e+003, 8.455761e+003
1.272416e+003, 8.460226e+003
1.272898e+003, 8.465419e+003
1.273380e+003, 8.471071e+003
1.273862e+003, 8.475930e+003
1.274344e+003, 8.480143e+003
1.274826e+003, 8.482026e+003
1.275308e+003, 8.479618e+003
1.275790e+003, 8.476458e+003
1.276272e+003, 8.477195e+003
1.276755e+003, 8.480999e+003
1.277237e+003, 8.484875e+003
1.277719e+003, 8.488683e+003
1.278201e+003, 8.492931e+003
1.278683e+003, 8.500122e+003
1.279165e+003, 8.504033e+003
1.279647e+003, 8.502166e+003
1.280129e+003, 8.499646e+003
1.280611e+003, 8.502586e+003
1.281094e+003, 8.508958e+003
1.281576e+003, 8.514666e+003
1.282058e+003, 8.519717e+003
1.282540e+003, 8.525294e+003
1.283022e+003, 8.533229e+003
1.283504e+003, 8.538293e+003
1.283986e+003, 8.539332e+003
1.284468e+003, 8.539452e+003
1.284950e+003, 8.540306e+003
1.285433e+003, 8.543118e+003
1.285915e+003, 8.551245e+003
1.286397e+003, 8.562925e+003
1.286879e+003, 8.571360e+003
1.287361e+003, 8.575903e+003
1.287843e+003, 8.577461e+003
1.288325e+003, 8.575666e+003
1.288807e+003, 8.574805e+003
1.289290e+003, 8.579003e+003
1.289772e+003, 8.585389e+003
1.290254e+003, 8.593361e+003
1.290736e+003, 8.600967e+003
1.291218e+003, 8.603562e+003
1.291700e+003, 8.600461e+003
1.292182e+003, 8.601853e+003
1.292664e+003, 8.608325e+003
1.293146e+003, 8.614869e+003
1.293629e+003, 8.618205e+003
1.294111e+003, 8.620282e+003
1.294593e+003, 8.621632e+003
1.295075e+003, 8.622602e+003
1.295557e+003, 8.623769e+003
1.296039e+003, 8.625008e+003
1.296521e+003, 8.624339e+003
1.297003e+003, 8.621941e+003
1.297486e+003, 8.621446e+003
1.297968e+003, 8.627330e+003
1.298450e+003, 8.633755e+003
1.298932e+003, 8.640305e+003
1.299414e+003, 8.645643e+003
1.299896e+003, 8.647248e+003
1.300378e+003, 8.646935e+003
1.300860e+003, 8.649684e+003
1.301343e+003, 8.655584e+003
1.301825e+003, 8.663366e+003
##END=



