##NAMES=Beidellite
##RRUFFID=R070244
##IDEAL CHEMISTRY=(Na,Ca)_0.3_Al_2_(Si,Al)_4_O_10_(OH)_2_&#183;nH_2_O
##LOCALITY=Fort Sandeman, Pakistan
##OWNER=RRUFF
##SOURCE=Michael Scott
##DESCRIPTION=Matted fibrous tan crystals (mountain leather)
##STATUS=The identification of this mineral is not yet confirmed.
##URL=rruff.info/R070244
120.2527, 10734.57
120.7348, 11465.69
121.2169, 12250.77
121.6990, 13086.23
122.1812, 13968.90
122.6633, 14881.50
123.1454, 15806.75
123.6275, 16805.31
124.1096, 17942.17
124.5917, 19205.95
125.0739, 20550.03
125.5560, 21976.24
126.0381, 23453.54
126.5202, 24954.06
127.0023, 26479.16
127.4844, 28014.58
127.9666, 29537.78
128.4487, 31048.85
128.9308, 32562.47
129.4129, 34054.25
129.8950, 35546.85
130.3772, 37078.07
130.8593, 38677.98
131.3414, 40334.11
131.8235, 42009.59
132.3056, 43688.40
132.7877, 45386.53
133.2699, 47117.84
133.7520, 48890.71
134.2341, 50679.51
134.7162, 52484.11
135.1983, 54312.43
135.6804, 56116.44
136.1626, 57896.79
136.6447, 59623.38
137.1268, 61219.35
137.6089, 62650.94
138.0910, 64028.47
138.5731, 65384.97
139.0553, 66752.10
139.5374, 68023.73
140.0195, 69177.38
140.5016, 70231.05
140.9837, 71195.95
141.4658, 72041.07
141.9480, 72861.15
142.4301, 73717.59
142.9122, 74640.73
143.3943, 75530.95
143.8764, 76372.80
144.3585, 77160.57
144.8407, 77977.95
145.3228, 78837.91
145.8049, 79712.34
146.2870, 80566.13
146.7691, 81350.37
147.2512, 82163.69
147.7334, 83018.14
148.2155, 83929.55
148.6976, 84847.74
149.1797, 85725.48
149.6618, 86626.38
150.1439, 87625.14
150.6261, 88839.96
151.1082, 90035.11
151.5903, 91141.06
152.0724, 92125.17
152.5545, 93083.77
153.0366, 94025.76
153.5188, 94941.57
154.0009, 95808.66
154.4830, 96659.88
154.9651, 97443.74
155.4472, 98145.30
155.9293, 98745.09
156.4115, 99285.34
156.8936, 99768.28
157.3757, 100197.9
157.8578, 100596.3
158.3399, 100941.5
158.8221, 101273.0
159.3042, 101619.9
159.7863, 101994.2
160.2684, 102379.6
160.7505, 102773.2
161.2326, 103177.3
161.7148, 103581.5
162.1969, 103979.6
162.6790, 104378.6
163.1611, 104780.0
163.6432, 105189.5
164.1253, 105601.7
164.6075, 106002.3
165.0896, 106390.3
165.5717, 106810.5
166.0538, 107344.8
166.5359, 107917.6
167.0180, 108421.9
167.5002, 108730.9
167.9823, 109010.9
168.4644, 109405.8
168.9465, 109942.6
169.4286, 110481.2
169.9107, 110928.2
170.3929, 111300.0
170.8750, 111642.3
171.3571, 111960.2
171.8392, 112264.3
172.3213, 112567.4
172.8034, 112871.8
173.2856, 113163.5
173.7677, 113410.6
174.2498, 113628.5
174.7319, 113866.1
175.2140, 114195.3
175.6961, 114553.5
176.1783, 114834.3
176.6604, 114990.5
177.1425, 115108.8
177.6246, 115301.7
178.1067, 115557.0
178.5888, 115807.2
179.0710, 115978.9
179.5531, 116106.4
180.0352, 116265.3
180.5173, 116485.5
180.9994, 116731.9
181.4815, 116927.4
181.9637, 117075.9
182.4458, 117247.6
182.9279, 117546.3
183.4100, 117931.4
183.8921, 118249.8
184.3742, 118415.3
184.8564, 118505.1
185.3385, 118702.2
185.8206, 119013.9
186.3027, 119360.6
186.7848, 119695.4
187.2669, 120010.6
187.7491, 120258.3
188.2312, 120369.3
188.7133, 120396.9
189.1954, 120569.4
189.6775, 120912.5
190.1596, 121281.4
190.6418, 121481.0
191.1239, 121514.7
191.6060, 121566.2
192.0881, 121719.5
192.5702, 121963.1
193.0524, 122196.7
193.5345, 122419.1
194.0166, 122633.3
194.4987, 122838.4
194.9808, 123034.3
195.4629, 123225.7
195.9451, 123409.7
196.4272, 123588.6
196.9093, 123774.9
197.3914, 123973.2
197.8735, 124172.0
198.3556, 124347.8
198.8378, 124497.7
199.3199, 124640.5
199.8020, 124777.6
200.2841, 124905.7
200.7662, 125069.9
201.2483, 125294.0
201.7305, 125536.3
202.2126, 125672.8
202.6947, 125671.3
203.1768, 125685.0
203.6589, 125823.1
204.1410, 126105.6
204.6232, 126363.8
205.1053, 126586.2
205.5874, 126773.4
206.0695, 126916.5
206.5516, 126998.0
207.0337, 127080.8
207.5159, 127210.1
207.9980, 127390.4
208.4801, 127587.5
208.9622, 127811.9
209.4443, 128049.4
209.9264, 128219.8
210.4086, 128292.2
210.8907, 128360.1
211.3728, 128505.0
211.8549, 128760.2
212.3370, 128982.0
212.8191, 129146.4
213.3013, 129257.8
213.7834, 129363.7
214.2655, 129457.8
214.7476, 129556.8
215.2297, 129672.3
215.7118, 129803.9
216.1940, 129957.0
216.6761, 130135.2
217.1582, 130338.4
217.6403, 130552.4
218.1224, 130795.3
218.6045, 131021.9
219.0867, 131178.8
219.5688, 131227.6
220.0509, 131296.0
220.5330, 131416.1
221.0151, 131590.9
221.4972, 131740.8
221.9794, 131856.5
222.4615, 131959.2
222.9436, 132073.6
223.4257, 132205.7
223.9078, 132338.6
224.3899, 132466.3
224.8721, 132589.7
225.3542, 132715.2
225.8363, 132839.0
226.3184, 132969.2
226.8005, 133125.6
227.2827, 133343.6
227.7648, 133516.1
228.2469, 133594.5
228.7290, 133555.3
229.2111, 133602.3
229.6932, 133762.2
230.1754, 133985.9
230.6575, 134223.2
231.1396, 134513.3
231.6217, 134743.5
232.1038, 134871.4
232.5859, 134876.5
233.0681, 134885.5
233.5502, 134876.8
234.0323, 134887.0
234.5144, 134975.6
234.9965, 135180.2
235.4786, 135399.7
235.9608, 135612.4
236.4429, 135822.2
236.9250, 135992.2
237.4071, 136099.0
237.8892, 136179.3
238.3713, 136297.4
238.8535, 136495.3
239.3356, 136659.3
239.8177, 136732.9
240.2998, 136665.7
240.7819, 136711.6
241.2640, 136936.3
241.7462, 137236.5
242.2283, 137431.6
242.7104, 137466.1
243.1925, 137486.0
243.6746, 137539.9
244.1567, 137641.8
244.6389, 137727.6
245.1210, 137775.3
245.6031, 137819.8
246.0852, 137927.6
246.5673, 138132.2
247.0494, 138343.3
247.5316, 138534.5
248.0137, 138710.3
248.4958, 138845.3
248.9779, 138909.9
249.4600, 138949.7
249.9421, 139052.6
250.4243, 139256.4
250.9064, 139457.0
251.3885, 139612.8
251.8706, 139706.0
252.3527, 139820.6
252.8348, 139983.4
253.3170, 140151.0
253.7991, 140226.0
254.2812, 140146.1
254.7633, 140091.5
255.2454, 140133.5
255.7275, 140294.6
256.2097, 140472.1
256.6918, 140677.8
257.1739, 140889.8
257.6560, 141067.2
258.1381, 141195.2
258.6202, 141319.4
259.1024, 141460.2
259.5845, 141622.3
260.0666, 141776.0
260.5487, 141923.7
261.0308, 142060.9
261.5129, 142189.2
261.9951, 142314.7
262.4772, 142413.4
262.9593, 142460.4
263.4414, 142432.3
263.9235, 142470.0
264.4056, 142595.1
264.8878, 142766.7
265.3699, 142914.1
265.8520, 143028.3
266.3341, 143147.7
266.8162, 143299.7
267.2983, 143496.3
267.7805, 143630.5
268.2626, 143669.8
268.7447, 143682.0
269.2268, 143806.3
269.7089, 144086.1
270.1910, 144320.6
270.6732, 144410.9
271.1553, 144335.5
271.6374, 144323.5
272.1195, 144385.1
272.6016, 144495.3
273.0837, 144615.4
273.5659, 144745.9
274.0480, 144885.4
274.5301, 145043.7
275.0122, 145221.8
275.4943, 145365.1
275.9764, 145466.2
276.4586, 145546.9
276.9407, 145647.6
277.4228, 145772.3
277.9049, 145870.2
278.3870, 145894.8
278.8691, 145852.7
279.3513, 145903.1
279.8334, 146064.5
280.3155, 146271.4
280.7976, 146453.7
281.2798, 146611.2
281.7619, 146715.2
282.2440, 146727.2
282.7261, 146664.3
283.2082, 146653.8
283.6903, 146698.0
284.1725, 146786.1
284.6546, 146912.7
285.1367, 147075.8
285.6188, 147256.2
286.1009, 147455.5
286.5830, 147667.2
287.0652, 147878.6
287.5473, 148095.0
288.0294, 148268.0
288.5115, 148309.8
288.9936, 148237.7
289.4757, 148194.3
289.9579, 148236.9
290.4400, 148339.7
290.9221, 148429.7
291.4042, 148504.7
291.8863, 148593.5
292.3684, 148760.4
292.8506, 148977.5
293.3327, 149123.8
293.8148, 149119.7
294.2969, 149046.2
294.7790, 149070.0
295.2611, 149191.6
295.7433, 149330.5
296.2254, 149410.5
296.7075, 149453.0
297.1896, 149516.4
297.6717, 149629.1
298.1538, 149762.8
298.6360, 149873.7
299.1181, 149964.1
299.6002, 150050.0
300.0823, 150137.4
300.5644, 150230.6
301.0465, 150338.3
301.5287, 150465.1
302.0108, 150604.2
302.4929, 150771.1
302.9750, 150955.8
303.4571, 151091.2
303.9392, 151087.4
304.4214, 151021.7
304.9035, 150996.1
305.3856, 151032.2
305.8677, 151119.4
306.3498, 151287.4
306.8319, 151509.6
307.3141, 151696.3
307.7962, 151759.8
308.2783, 151775.7
308.7604, 151815.7
309.2425, 151889.5
309.7246, 151997.3
310.2068, 152181.7
310.6889, 152405.9
311.1710, 152577.6
311.6531, 152606.3
312.1352, 152593.5
312.6173, 152611.8
313.0995, 152676.5
313.5816, 152760.5
314.0637, 152851.3
314.5458, 152953.0
315.0279, 153074.4
315.5100, 153264.1
315.9922, 153440.0
316.4743, 153547.9
316.9564, 153562.6
317.4385, 153587.4
317.9206, 153643.5
318.4027, 153732.9
318.8849, 153858.1
319.3670, 154088.8
319.8491, 154294.8
320.3312, 154412.8
320.8133, 154420.6
321.2954, 154450.7
321.7776, 154550.2
322.2597, 154676.7
322.7418, 154785.4
323.2239, 154861.2
323.7060, 154927.1
324.1881, 154976.9
324.6703, 155006.9
325.1524, 155070.8
325.6345, 155223.0
326.1166, 155383.0
326.5987, 155486.8
327.0808, 155490.0
327.5630, 155488.1
328.0451, 155454.5
328.5272, 155396.5
329.0093, 155476.3
329.4914, 155839.6
329.9735, 156207.0
330.4557, 156382.9
330.9378, 156195.2
331.4199, 156119.7
331.9020, 156237.0
332.3841, 156501.9
332.8662, 156691.8
333.3484, 156773.0
333.8305, 156827.9
334.3126, 156894.5
334.7947, 156962.3
335.2768, 157077.5
335.7589, 157262.8
336.2411, 157485.3
336.7232, 157680.2
337.2053, 157861.0
337.6874, 157969.2
338.1695, 157935.7
338.6516, 157730.0
339.1338, 157656.9
339.6159, 157744.0
340.0980, 157929.8
340.5801, 158134.9
341.0622, 158369.4
341.5443, 158550.1
342.0265, 158630.4
342.5086, 158619.9
342.9907, 158605.7
343.4728, 158581.0
343.9549, 158579.8
344.4370, 158646.3
344.9192, 158776.7
345.4013, 158946.1
345.8834, 159200.3
346.3655, 159470.6
346.8476, 159513.3
347.3297, 159320.5
347.8119, 159127.5
348.2940, 159168.9
348.7761, 159390.5
349.2582, 159636.0
349.7403, 159904.5
350.2225, 160137.3
350.7046, 160213.5
351.1867, 160153.2
351.6688, 160106.1
352.1509, 160215.1
352.6331, 160397.3
353.1152, 160522.4
353.5973, 160537.6
354.0794, 160534.3
354.5615, 160596.4
355.0436, 160707.5
355.5258, 160818.1
356.0079, 160883.2
356.4900, 160945.3
356.9721, 161049.6
357.4542, 161218.6
357.9363, 161376.5
358.4185, 161469.6
358.9006, 161523.8
359.3827, 161583.8
359.8648, 161658.4
360.3469, 161749.9
360.8290, 161866.8
361.3112, 162015.1
361.7933, 162152.1
362.2754, 162272.8
362.7575, 162373.0
363.2396, 162448.3
363.7217, 162460.6
364.2039, 162484.0
364.6860, 162540.4
365.1681, 162631.1
365.6502, 162724.8
366.1323, 162846.5
366.6144, 162953.7
367.0966, 163016.4
367.5787, 162939.1
368.0608, 162933.5
368.5429, 163046.3
369.0250, 163252.4
369.5071, 163420.1
369.9893, 163530.5
370.4714, 163624.1
370.9535, 163721.2
371.4356, 163831.7
371.9177, 163918.6
372.3998, 163965.4
372.8820, 163996.8
373.3641, 164074.1
373.8462, 164221.7
374.3283, 164351.8
374.8104, 164417.1
375.2925, 164409.1
375.7747, 164443.4
376.2568, 164527.3
376.7389, 164639.6
377.2210, 164756.5
377.7031, 164878.8
378.1852, 164995.2
378.6674, 165112.8
379.1495, 165221.6
379.6316, 165271.6
380.1137, 165257.1
380.5958, 165231.2
381.0779, 165229.3
381.5601, 165254.0
382.0422, 165318.8
382.5243, 165432.4
383.0064, 165581.3
383.4885, 165786.4
383.9706, 166033.0
384.4528, 166200.9
384.9349, 166107.0
385.4170, 165907.5
385.8991, 165876.7
386.3812, 166089.6
386.8633, 166361.5
387.3455, 166533.8
387.8276, 166633.5
388.3097, 166725.1
388.7918, 166834.7
389.2739, 166952.0
389.7560, 167080.8
390.2382, 167225.5
390.7203, 167332.5
391.2024, 167324.7
391.6845, 167279.2
392.1666, 167285.5
392.6487, 167424.3
393.1309, 167572.4
393.6130, 167683.1
394.0951, 167758.3
394.5772, 167823.6
395.0593, 167875.7
395.5414, 167926.6
396.0236, 167983.3
396.5057, 167998.8
396.9878, 168077.4
397.4699, 168316.2
397.9520, 168636.5
398.4341, 168787.2
398.9163, 168589.1
399.3984, 168406.9
399.8805, 168378.5
400.3626, 168563.0
400.8447, 168726.5
401.3268, 168860.8
401.8090, 168979.9
402.2911, 169108.9
402.7732, 169256.7
403.2553, 169386.8
403.7374, 169483.0
404.2195, 169548.0
404.7017, 169634.1
405.1838, 169751.4
405.6659, 169862.6
406.1480, 169934.0
406.6301, 169966.0
407.1122, 169969.5
407.5944, 169928.4
408.0765, 169878.8
408.5586, 169896.9
409.0407, 169982.6
409.5228, 170137.1
410.0049, 170430.2
410.4871, 170792.6
410.9692, 171022.3
411.4513, 171084.2
411.9334, 171074.0
412.4155, 171081.3
412.8976, 171103.6
413.3798, 171132.6
413.8619, 171168.6
414.3440, 171207.4
414.8261, 171229.3
415.3082, 171234.8
415.7903, 171283.4
416.2725, 171464.5
416.7546, 171691.3
417.2367, 171869.2
417.7188, 171954.0
418.2009, 171995.6
418.6830, 171984.6
419.1652, 171939.7
419.6473, 171930.7
420.1294, 171983.0
420.6115, 172075.4
421.0937, 172207.5
421.5758, 172416.4
422.0579, 172578.5
422.5400, 172647.4
423.0221, 172666.7
423.5042, 172708.8
423.9864, 172766.2
424.4685, 172857.8
424.9506, 173011.9
425.4327, 173237.1
425.9148, 173380.3
426.3969, 173389.5
426.8791, 173375.8
427.3612, 173447.8
427.8433, 173652.0
428.3254, 173791.4
428.8075, 173821.5
429.2896, 173774.3
429.7718, 173740.5
430.2539, 173710.0
430.7360, 173741.3
431.2181, 173913.0
431.7002, 174210.1
432.1823, 174403.1
432.6645, 174466.3
433.1466, 174472.8
433.6287, 174508.5
434.1108, 174570.7
434.5929, 174647.3
435.0750, 174755.5
435.5572, 174865.1
436.0393, 174903.7
436.5214, 174875.1
437.0035, 174861.5
437.4856, 174945.0
437.9677, 175077.9
438.4499, 175192.2
438.9320, 175257.4
439.4141, 175322.6
439.8962, 175423.5
440.3783, 175551.2
440.8604, 175686.3
441.3426, 175852.4
441.8247, 175997.5
442.3068, 176089.0
442.7889, 176117.0
443.2710, 176122.6
443.7531, 176072.8
444.2353, 176023.3
444.7174, 176034.9
445.1995, 176187.9
445.6816, 176323.8
446.1637, 176379.0
446.6458, 176368.8
447.1280, 176478.2
447.6101, 176818.2
448.0922, 177156.2
448.5743, 177360.8
449.0564, 177395.2
449.5385, 177391.2
450.0207, 177332.3
450.5028, 177255.0
450.9849, 177221.5
451.4670, 177229.3
451.9491, 177297.2
452.4312, 177470.1
452.9134, 177723.3
453.3955, 177849.4
453.8776, 177833.2
454.3597, 177797.1
454.8418, 177890.4
455.3239, 178074.7
455.8061, 178176.0
456.2882, 178119.5
456.7703, 178020.1
457.2524, 178034.9
457.7345, 178148.7
458.2166, 178301.6
458.6988, 178490.2
459.1809, 178682.6
459.6630, 178849.9
460.1451, 178994.1
460.6272, 179087.6
461.1093, 179069.3
461.5915, 179003.2
462.0736, 178969.4
462.5557, 178988.1
463.0378, 179049.4
463.5199, 179179.6
464.0020, 179364.7
464.4842, 179508.6
464.9663, 179532.7
465.4484, 179552.6
465.9305, 179638.1
466.4126, 179906.2
466.8947, 180033.4
467.3769, 179898.4
467.8590, 179675.6
468.3411, 179667.9
468.8232, 180006.3
469.3053, 180298.1
469.7874, 180423.8
470.2696, 180394.7
470.7517, 180429.3
471.2338, 180549.0
471.7159, 180666.2
472.1980, 180668.3
472.6801, 180560.4
473.1623, 180572.3
473.6444, 180762.4
474.1265, 181034.3
474.6086, 181256.4
475.0907, 181425.2
475.5728, 181518.3
476.0550, 181443.9
476.5371, 181314.2
477.0192, 181327.7
477.5013, 181492.1
477.9834, 181682.2
478.4655, 181813.5
478.9477, 181909.1
479.4298, 181998.1
479.9119, 182100.7
480.3940, 182185.8
480.8761, 182213.8
481.3582, 182207.7
481.8404, 182234.0
482.3225, 182344.7
482.8046, 182467.4
483.2867, 182569.5
483.7688, 182641.6
484.2509, 182715.7
484.7331, 182785.3
485.2152, 182862.6
485.6973, 182961.4
486.1794, 183089.9
486.6615, 183228.8
487.1436, 183393.3
487.6258, 183567.7
488.1079, 183667.9
488.5900, 183666.8
489.0721, 183664.6
489.5542, 183735.2
490.0363, 183880.2
490.5185, 183938.5
491.0006, 183887.7
491.4827, 183810.0
491.9648, 183794.8
492.4470, 183841.1
492.9291, 183953.8
493.4112, 184174.3
493.8933, 184425.3
494.3754, 184599.9
494.8575, 184699.7
495.3397, 184725.5
495.8218, 184574.9
496.3039, 184400.7
496.7860, 184381.8
497.2681, 184572.2
497.7502, 184804.6
498.2324, 185059.9
498.7145, 185284.7
499.1966, 185411.3
499.6787, 185247.7
500.1608, 185154.0
500.6429, 185305.3
501.1251, 185680.9
501.6072, 185921.1
502.0893, 185906.4
502.5714, 185838.3
503.0535, 185805.3
503.5356, 185807.4
504.0178, 185845.0
504.4999, 185925.1
504.9820, 186034.3
505.4641, 186157.3
505.9462, 186296.5
506.4283, 186437.7
506.9105, 186586.4
507.3926, 186730.7
507.8747, 186823.8
508.3568, 186865.1
508.8389, 186867.0
509.3210, 186774.9
509.8032, 186650.8
510.2853, 186700.3
510.7674, 186987.8
511.2495, 187281.9
511.7316, 187291.7
512.2137, 187135.5
512.6959, 187054.2
513.1780, 187231.9
513.6601, 187447.5
514.1422, 187546.6
514.6243, 187545.5
515.1064, 187565.2
515.5886, 187701.3
516.0707, 187839.0
516.5528, 187897.8
517.0349, 187800.4
517.5170, 187765.8
517.9991, 187855.2
518.4813, 188003.1
518.9634, 188131.8
519.4455, 188248.4
519.9276, 188331.0
520.4097, 188358.8
520.8918, 188344.5
521.3740, 188377.8
521.8561, 188465.3
522.3382, 188578.0
522.8203, 188711.4
523.3024, 188861.6
523.7845, 188978.7
524.2667, 189058.7
524.7488, 189111.7
525.2309, 189138.7
525.7130, 189148.5
526.1951, 189171.4
526.6772, 189227.0
527.1594, 189292.9
527.6415, 189340.2
528.1236, 189373.0
528.6057, 189411.0
529.0878, 189442.5
529.5699, 189498.4
530.0521, 189621.6
530.5342, 189846.2
531.0163, 190011.6
531.4984, 190014.2
531.9805, 189955.4
532.4626, 189943.6
532.9448, 190024.7
533.4269, 190115.9
533.9090, 190207.6
534.3911, 190302.8
534.8732, 190404.1
535.3553, 190493.7
535.8375, 190628.9
536.3196, 190881.8
536.8017, 191271.7
537.2838, 191399.6
537.7659, 191209.2
538.2480, 190945.5
538.7302, 190865.8
539.2123, 190950.4
539.6944, 191074.3
540.1765, 191224.7
540.6586, 191376.5
541.1407, 191500.4
541.6229, 191598.9
542.1050, 191682.4
542.5871, 191739.7
543.0692, 191795.9
543.5513, 191874.6
544.0334, 191976.2
544.5156, 192083.9
544.9977, 192198.5
545.4798, 192311.0
545.9619, 192414.1
546.4440, 192519.2
546.9261, 192596.1
547.4083, 192634.9
547.8904, 192643.8
548.3725, 192631.1
548.8546, 192543.6
549.3367, 192524.0
549.8188, 192625.0
550.3010, 192835.0
550.7831, 193024.5
551.2652, 193198.8
551.7473, 193335.7
552.2294, 193377.9
552.7115, 193343.5
553.1937, 193446.3
553.6758, 193735.9
554.1579, 194025.9
554.6400, 194033.5
555.1221, 193848.2
555.6042, 193728.3
556.0864, 193797.0
556.5685, 193937.6
557.0506, 194040.4
557.5327, 194119.7
558.0148, 194227.4
558.4969, 194454.4
558.9791, 194668.8
559.4612, 194769.7
559.9433, 194717.7
560.4254, 194705.3
560.9075, 194777.2
561.3896, 194899.0
561.8718, 195043.0
562.3539, 195248.9
562.8360, 195407.1
563.3181, 195490.6
563.8002, 195529.2
564.2823, 195603.5
564.7645, 195726.7
565.2466, 195822.7
565.7287, 195857.6
566.2108, 195839.9
566.6929, 195799.3
567.1750, 195734.7
567.6572, 195678.0
568.1393, 195638.3
568.6214, 195629.7
569.1035, 195688.0
569.5856, 195827.0
570.0677, 196000.8
570.5499, 196210.0
571.0320, 196422.3
571.5141, 196588.3
571.9962, 196713.1
572.4783, 196765.2
572.9604, 196647.4
573.4426, 196413.7
573.9247, 196336.8
574.4068, 196634.9
574.8889, 196940.1
575.3710, 197102.2
575.8531, 197083.4
576.3353, 197117.8
576.8174, 197236.4
577.2995, 197361.6
577.7816, 197398.8
578.2637, 197332.8
578.7458, 197349.5
579.2280, 197495.8
579.7101, 197699.5
580.1922, 197842.5
580.6743, 197930.1
581.1564, 197992.2
581.6385, 198025.3
582.1207, 198050.1
582.6028, 198071.0
583.0849, 198095.9
583.5670, 198184.9
584.0491, 198481.1
584.5313, 198787.2
585.0134, 198932.5
585.4955, 198836.5
585.9776, 198759.5
586.4597, 198783.5
586.9418, 198853.3
587.4240, 198905.4
587.9061, 198899.5
588.3882, 198937.1
588.8703, 199053.3
589.3524, 199213.2
589.8345, 199308.5
590.3167, 199323.6
590.7988, 199335.4
591.2809, 199391.9
591.7630, 199474.7
592.2451, 199447.8
592.7272, 199304.8
593.2094, 199212.6
593.6915, 199363.8
594.1736, 199653.7
594.6557, 199889.2
595.1378, 200033.5
595.6199, 200127.6
596.1021, 200171.2
596.5842, 200190.8
597.0663, 200224.0
597.5485, 200292.2
598.0306, 200366.4
598.5127, 200416.8
598.9948, 200460.0
599.4769, 200570.9
599.9590, 200841.5
600.4412, 201074.2
600.9233, 201187.5
601.4054, 201171.2
601.8875, 201223.6
602.3696, 201385.1
602.8517, 201515.0
603.3339, 201435.7
603.8160, 201171.3
604.2981, 201063.5
604.7802, 201170.2
605.2623, 201372.9
605.7444, 201546.6
606.2266, 201696.1
606.7087, 201826.5
607.1908, 201956.5
607.6729, 202055.0
608.1550, 202072.7
608.6371, 202034.7
609.1193, 202022.6
609.6014, 202123.5
610.0835, 202211.2
610.5656, 202187.0
611.0477, 202012.8
611.5298, 201995.4
612.0120, 202272.1
612.4941, 202579.2
612.9762, 202730.4
613.4583, 202667.9
613.9404, 202664.1
614.4225, 202751.5
614.9047, 202861.0
615.3868, 202874.7
615.8689, 202802.4
616.3510, 202771.5
616.8331, 202810.3
617.3152, 202920.6
617.7974, 203174.4
618.2795, 203521.5
618.7616, 203780.4
619.2437, 203773.4
619.7258, 203697.3
620.2079, 203673.8
620.6901, 203711.7
621.1722, 203830.9
621.6543, 204197.9
622.1364, 204537.2
622.6185, 204646.4
623.1006, 204358.4
623.5828, 204193.5
624.0649, 204184.0
624.5470, 204267.9
625.0291, 204381.8
625.5112, 204530.8
625.9933, 204689.6
626.4755, 204871.6
626.9576, 205034.4
627.4397, 205067.8
627.9218, 204986.0
628.4039, 204898.4
628.8860, 204820.2
629.3682, 204787.4
629.8503, 204868.3
630.3324, 205051.7
630.8145, 205255.6
631.2966, 205477.0
631.7787, 205667.8
632.2609, 205781.6
632.7430, 205789.5
633.2251, 205812.0
633.7072, 205883.7
634.1893, 205972.1
634.6714, 206052.6
635.1536, 206129.3
635.6357, 206189.0
636.1178, 206230.6
636.5999, 206254.1
637.0820, 206232.0
637.5641, 206159.5
638.0463, 206174.6
638.5284, 206367.3
639.0105, 206635.2
639.4926, 206764.6
639.9747, 206776.8
640.4568, 206790.9
640.9390, 206901.4
641.4211, 207033.8
641.9032, 207125.1
642.3853, 207170.7
642.8674, 207183.2
643.3495, 207108.9
643.8317, 207042.5
644.3138, 207051.1
644.7959, 207179.5
645.2780, 207314.8
645.7601, 207460.4
646.2422, 207609.6
646.7244, 207767.1
647.2065, 207944.0
647.6886, 208058.0
648.1707, 208076.3
648.6528, 208048.7
649.1349, 208078.5
649.6171, 208157.5
650.0992, 208228.3
650.5813, 208252.8
651.0634, 208261.2
651.5455, 208277.0
652.0276, 208304.8
652.5098, 208368.8
652.9919, 208539.7
653.4740, 208705.8
653.9561, 208788.6
654.4382, 208765.2
654.9203, 208751.5
655.4025, 208744.9
655.8846, 208765.8
656.3667, 208837.3
656.8488, 208992.0
657.3309, 209095.3
657.8130, 209131.4
658.2952, 209136.8
658.7773, 209145.4
659.2594, 209160.6
659.7415, 209232.8
660.2236, 209403.6
660.7057, 209590.2
661.1879, 209647.9
661.6700, 209620.3
662.1521, 209627.9
662.6342, 209789.0
663.1163, 209952.7
663.5984, 210022.6
664.0806, 210005.3
664.5627, 209974.6
665.0448, 209942.0
665.5269, 209905.4
666.0090, 209853.5
666.4911, 209776.1
666.9733, 209771.2
667.4554, 209872.5
667.9375, 209979.0
668.4196, 209989.6
668.9017, 209908.9
669.3839, 209881.6
669.8660, 209923.3
670.3481, 210006.8
670.8302, 210142.8
671.3123, 210293.6
671.7944, 210373.2
672.2766, 210322.4
672.7587, 210245.3
673.2408, 210179.9
673.7229, 210140.3
674.2050, 210152.0
674.6871, 210246.8
675.1693, 210368.5
675.6514, 210522.6
676.1335, 210697.7
676.6156, 210833.9
677.0977, 210931.1
677.5798, 210988.3
678.0620, 210986.3
678.5441, 210935.2
679.0262, 210943.6
679.5083, 211015.4
679.9904, 211084.0
680.4725, 211080.5
680.9547, 211042.4
681.4368, 211028.2
681.9189, 211042.6
682.4010, 211100.6
682.8831, 211286.1
683.3652, 211484.2
683.8474, 211570.8
684.3295, 211412.9
684.8116, 211310.7
685.2937, 211342.7
685.7758, 211437.8
686.2579, 211504.9
686.7401, 211528.8
687.2222, 211571.8
687.7043, 211663.1
688.1864, 211761.8
688.6685, 211725.2
689.1506, 211566.3
689.6328, 211499.1
690.1149, 211690.2
690.5970, 211982.3
691.0791, 212149.7
691.5612, 212207.3
692.0433, 212227.9
692.5255, 212186.4
693.0076, 212173.4
693.4897, 212286.4
693.9718, 212551.1
694.4539, 212693.8
694.9360, 212584.0
695.4182, 212430.2
695.9003, 212328.1
696.3824, 212272.0
696.8645, 212316.8
697.3466, 212494.3
697.8287, 212688.9
698.3109, 212752.3
698.7930, 212714.3
699.2751, 212743.1
699.7572, 212881.3
700.2393, 213040.6
700.7214, 213138.8
701.2036, 213192.5
701.6857, 213228.7
702.1678, 213237.1
702.6499, 213253.1
703.1320, 213303.8
703.6141, 213371.2
704.0963, 213408.9
704.5784, 213384.8
705.0605, 213376.6
705.5426, 213398.6
706.0247, 213449.6
706.5068, 213545.1
706.9890, 213697.9
707.4711, 213793.1
707.9532, 213739.9
708.4353, 213592.3
708.9174, 213456.6
709.3995, 213339.2
709.8817, 213311.6
710.3638, 213516.5
710.8459, 213772.7
711.3280, 213908.1
711.8101, 213891.7
712.2922, 213884.0
712.7744, 213903.0
713.2565, 213967.3
713.7386, 214094.8
714.2207, 214330.9
714.7028, 214518.6
715.1849, 214669.3
715.6671, 214754.7
716.1492, 214693.9
716.6313, 214507.4
717.1134, 214459.7
717.5955, 214632.1
718.0776, 214838.8
718.5598, 214816.5
719.0419, 214666.2
719.5240, 214584.0
720.0061, 214688.6
720.4882, 214816.7
720.9703, 214899.3
721.4525, 214950.9
721.9346, 215004.5
722.4167, 215073.2
722.8988, 215136.0
723.3809, 215206.9
723.8630, 215267.5
724.3452, 215204.7
724.8273, 214988.8
725.3094, 214866.9
725.7915, 215015.9
726.2736, 215321.2
726.7557, 215492.6
727.2379, 215540.9
727.7200, 215550.9
728.2021, 215538.8
728.6842, 215539.1
729.1663, 215597.3
729.6484, 215719.5
730.1306, 215803.6
730.6127, 215749.0
731.0948, 215708.9
731.5769, 215782.0
732.0590, 216019.2
732.5411, 216153.1
733.0233, 216162.2
733.5054, 216116.5
733.9875, 216054.5
734.4696, 215985.1
734.9517, 215981.8
735.4338, 216059.3
735.9160, 216163.0
736.3981, 216267.0
736.8802, 216352.7
737.3623, 216388.3
737.8444, 216339.9
738.3266, 216290.0
738.8087, 216233.3
739.2908, 216205.9
739.7729, 216263.6
740.2551, 216438.5
740.7372, 216649.7
741.2193, 216939.0
741.7014, 217217.2
742.1835, 217250.0
742.6656, 217033.9
743.1478, 216876.0
743.6299, 216896.7
744.1120, 217000.3
744.5941, 217042.9
745.0762, 217041.8
745.5583, 217052.1
746.0405, 217103.4
746.5226, 217171.6
747.0047, 217233.5
747.4868, 217296.3
747.9689, 217406.1
748.4510, 217640.3
748.9332, 217827.6
749.4153, 217911.5
749.8974, 217897.4
750.3795, 217831.6
750.8616, 217701.2
751.3438, 217619.4
751.8259, 217711.2
752.3080, 217893.7
752.7901, 217946.3
753.2722, 217871.9
753.7543, 217827.4
754.2365, 217955.0
754.7186, 218129.8
755.2007, 218251.2
755.6828, 218300.6
756.1649, 218344.8
756.6470, 218420.7
757.1292, 218472.0
757.6113, 218449.9
758.0934, 218320.0
758.5755, 218281.0
759.0576, 218350.9
759.5397, 218449.6
760.0219, 218488.0
760.5040, 218486.2
760.9861, 218508.5
761.4682, 218567.5
761.9503, 218635.9
762.4324, 218680.7
762.9146, 218728.3
763.3967, 218814.9
763.8788, 219015.8
764.3609, 219146.2
764.8430, 219103.9
765.3251, 219016.2
765.8073, 219034.7
766.2894, 219194.0
766.7715, 219322.1
767.2536, 219391.6
767.7357, 219425.7
768.2178, 219449.2
768.7000, 219468.0
769.1821, 219511.5
769.6642, 219621.1
770.1463, 219707.7
770.6284, 219638.5
771.1105, 219498.5
771.5927, 219451.3
772.0748, 219641.6
772.5569, 219822.4
773.0390, 219942.8
773.5211, 220012.0
774.0032, 220036.1
774.4854, 219990.4
774.9675, 219998.5
775.4496, 220125.7
775.9317, 220305.5
776.4138, 220351.7
776.8959, 220288.2
777.3781, 220246.5
777.8602, 220328.1
778.3423, 220434.0
778.8244, 220493.6
779.3065, 220508.5
779.7886, 220490.1
780.2708, 220361.4
780.7529, 220287.0
781.2350, 220331.8
781.7171, 220482.8
782.1992, 220637.4
782.6813, 220816.5
783.1635, 220908.3
783.6456, 220774.1
784.1277, 220520.6
784.6098, 220540.5
785.0919, 220807.0
785.5740, 221050.1
786.0562, 221049.1
786.5383, 220986.4
787.0204, 221028.9
787.5025, 221186.1
787.9846, 221293.5
788.4667, 221254.5
788.9489, 221212.5
789.4310, 221231.4
789.9131, 221315.5
790.3952, 221375.6
790.8773, 221407.6
791.3594, 221431.5
791.8416, 221440.0
792.3237, 221454.3
792.8058, 221553.7
793.2879, 221740.8
793.7700, 221900.6
794.2521, 221958.9
794.7343, 221953.0
795.2164, 221890.7
795.6985, 221744.2
796.1806, 221677.7
796.6627, 221708.9
797.1448, 221817.7
797.6270, 222023.7
798.1091, 222354.7
798.5912, 222555.5
799.0733, 222617.8
799.5554, 222593.9
800.0375, 222451.7
800.5197, 222281.8
801.0018, 222294.5
801.4839, 222542.7
801.9660, 222762.7
802.4481, 222752.1
802.9302, 222669.6
803.4124, 222651.5
803.8945, 222762.2
804.3766, 222831.7
804.8587, 222827.2
805.3408, 222824.7
805.8229, 222912.1
806.3051, 223088.7
806.7872, 223205.7
807.2693, 223247.6
807.7514, 223248.4
808.2335, 223219.2
808.7156, 223180.7
809.1978, 223157.2
809.6799, 223141.0
810.1620, 223182.8
810.6441, 223370.0
811.1262, 223588.1
811.6083, 223725.1
812.0905, 223766.9
812.5726, 223736.4
813.0547, 223577.2
813.5368, 223455.9
814.0189, 223648.8
814.5010, 224085.4
814.9832, 224326.5
815.4653, 224270.4
815.9474, 224161.1
816.4295, 224269.3
816.9116, 224438.5
817.3937, 224455.3
817.8759, 224121.7
818.3580, 223922.8
818.8401, 224047.5
819.3222, 224292.5
819.8043, 224485.9
820.2864, 224627.1
820.7686, 224715.0
821.2507, 224743.9
821.7328, 224733.0
822.2149, 224698.8
822.6970, 224644.7
823.1791, 224565.8
823.6613, 224439.6
824.1434, 224363.5
824.6255, 224428.0
825.1076, 224567.1
825.5897, 224706.2
826.0718, 224874.2
826.5540, 224977.8
827.0361, 224991.7
827.5182, 224972.3
828.0003, 224974.6
828.4824, 224998.9
828.9645, 225095.7
829.4467, 225296.9
829.9288, 225466.4
830.4109, 225386.9
830.8930, 225192.9
831.3751, 225089.5
831.8572, 225141.2
832.3394, 225263.4
832.8215, 225512.2
833.3036, 225771.4
833.7857, 225909.1
834.2678, 225870.9
834.7499, 225867.3
835.2321, 225916.3
835.7142, 225989.3
836.1963, 226069.6
836.6784, 226146.4
837.1605, 226162.2
837.6426, 226088.9
838.1248, 226033.5
838.6069, 226125.1
839.0890, 226258.2
839.5711, 226307.6
840.0532, 226139.3
840.5353, 226091.8
841.0175, 226237.3
841.4996, 226453.1
841.9817, 226615.7
842.4638, 226723.5
842.9459, 226832.8
843.4280, 226946.6
843.9102, 227073.8
844.3923, 227260.8
844.8744, 227456.0
845.3565, 227577.9
845.8386, 227611.1
846.3207, 227571.4
846.8029, 227348.1
847.2850, 227130.8
847.7671, 227091.5
848.2492, 227310.3
848.7313, 227501.6
849.2134, 227673.2
849.6956, 227793.8
850.1777, 227791.4
850.6598, 227710.1
851.1419, 227715.2
851.6240, 227833.6
852.1061, 227965.6
852.5883, 228034.0
853.0704, 228082.5
853.5525, 228160.2
854.0346, 228302.4
854.5167, 228372.2
854.9988, 228276.9
855.4810, 228218.9
855.9631, 228405.0
856.4452, 228842.9
856.9273, 228992.1
857.4094, 228821.4
857.8915, 228613.1
858.3737, 228613.8
858.8558, 228724.4
859.3379, 228825.4
859.8200, 228900.4
860.3021, 228987.5
860.7842, 229128.2
861.2664, 229258.3
861.7485, 229337.4
862.2306, 229360.6
862.7127, 229388.2
863.1948, 229420.3
863.6769, 229456.8
864.1591, 229502.5
864.6412, 229551.6
865.1233, 229564.5
865.6054, 229548.5
866.0875, 229608.3
866.5696, 229948.0
867.0518, 230265.9
867.5339, 230339.3
868.0160, 230140.1
868.4981, 230011.7
868.9802, 229962.7
869.4623, 229969.8
869.9445, 230049.5
870.4266, 230175.1
870.9087, 230187.2
871.3908, 230101.9
871.8729, 230085.8
872.3550, 230348.5
872.8372, 230635.8
873.3193, 230680.9
873.8014, 230534.7
874.2835, 230510.0
874.7656, 230849.5
875.2477, 231111.7
875.7299, 231169.0
876.2120, 231069.2
876.6941, 230965.8
877.1762, 230859.2
877.6583, 230855.2
878.1404, 231089.3
878.6226, 231357.6
879.1047, 231325.0
879.5869, 231107.7
880.0690, 231003.1
880.5511, 231284.1
881.0332, 231507.5
881.5153, 231486.3
881.9974, 231342.7
882.4796, 231326.4
882.9617, 231458.3
883.4438, 231605.1
883.9259, 231746.4
884.4080, 231863.4
884.8901, 231900.6
885.3723, 231890.9
885.8544, 231911.4
886.3365, 232000.3
886.8186, 232105.6
887.3007, 232242.2
887.7828, 232364.8
888.2650, 232404.4
888.7471, 232312.0
889.2292, 232271.3
889.7113, 232309.9
890.1934, 232374.9
890.6755, 232368.1
891.1577, 232330.5
891.6398, 232431.6
892.1219, 232746.4
892.6040, 232969.0
893.0861, 232698.7
893.5682, 232343.9
894.0504, 232327.6
894.5325, 232960.4
895.0146, 233255.5
895.4967, 233073.9
895.9788, 232811.3
896.4609, 232825.3
896.9431, 233063.9
897.4252, 233207.3
897.9073, 233238.1
898.3894, 233231.0
898.8715, 233149.3
899.3536, 233121.5
899.8358, 233331.7
900.3179, 233828.4
900.8000, 234067.1
901.2821, 233824.0
901.7642, 233574.7
902.2463, 233551.0
902.7285, 233714.6
903.2106, 233750.0
903.6927, 233663.1
904.1748, 233614.5
904.6569, 233753.9
905.1390, 233941.0
905.6212, 234040.9
906.1033, 234063.3
906.5854, 234070.0
907.0675, 234020.4
907.5496, 234030.2
908.0317, 234156.1
908.5139, 234347.1
908.9960, 234440.2
909.4781, 234434.3
909.9602, 234427.7
910.4423, 234438.5
910.9244, 234490.4
911.4066, 234661.9
911.8887, 234885.3
912.3708, 235038.1
912.8529, 234977.0
913.3350, 234973.7
913.8171, 235142.7
914.2993, 235344.3
914.7814, 235366.5
915.2635, 235190.7
915.7456, 235086.7
916.2277, 235097.5
916.7098, 235165.6
917.1920, 235225.8
917.6741, 235299.1
918.1562, 235437.5
918.6383, 235693.0
919.1204, 235856.4
919.6025, 235762.6
920.0847, 235637.2
920.5668, 235635.4
921.0489, 235779.4
921.5310, 235890.0
922.0131, 235963.4
922.4952, 236030.8
922.9774, 236129.8
923.4595, 236232.2
923.9416, 236284.2
924.4237, 236287.1
924.9058, 236309.5
925.3879, 236419.4
925.8701, 236512.0
926.3522, 236532.8
926.8343, 236494.3
927.3164, 236501.7
927.7985, 236560.5
928.2806, 236611.9
928.7628, 236598.4
929.2449, 236590.4
929.7270, 236751.1
930.2091, 237010.2
930.6912, 237181.8
931.1733, 237047.2
931.6555, 236980.2
932.1376, 237184.9
932.6197, 237485.9
933.1018, 237554.7
933.5839, 237342.8
934.0660, 237289.6
934.5482, 237514.2
935.0303, 237795.7
935.5124, 237836.5
935.9945, 237738.5
936.4766, 237670.0
936.9587, 237649.7
937.4409, 237716.8
937.9230, 237986.8
938.4051, 238272.4
938.8872, 238424.7
939.3693, 238419.5
939.8514, 238423.1
940.3336, 238434.7
940.8157, 238465.9
941.2978, 238554.3
941.7799, 238654.6
942.2620, 238699.8
942.7441, 238687.3
943.2263, 238654.1
943.7084, 238515.0
944.1905, 238471.1
944.6726, 238645.9
945.1547, 238988.9
945.6368, 239172.4
946.1190, 239190.5
946.6011, 239174.0
947.0832, 239174.5
947.5653, 239180.2
948.0474, 239147.0
948.5295, 239108.0
949.0117, 239139.8
949.4938, 239327.3
949.9759, 239517.8
950.4580, 239710.0
950.9401, 239870.4
951.4222, 239926.0
951.9044, 239874.6
952.3865, 239871.9
952.8686, 239953.9
953.3507, 240034.7
953.8328, 239973.0
954.3149, 239879.0
954.7971, 239898.5
955.2792, 240084.2
955.7613, 240290.6
956.2434, 240563.5
956.7255, 240767.3
957.2076, 240783.8
957.6898, 240621.2
958.1719, 240589.0
958.6540, 240685.2
959.1361, 240780.4
959.6182, 240767.3
960.1003, 240727.0
960.5825, 240716.1
961.0646, 240740.4
961.5467, 240822.7
962.0288, 241053.0
962.5109, 241202.9
962.9930, 241186.2
963.4752, 241081.5
963.9573, 241080.3
964.4394, 241171.0
964.9215, 241289.5
965.4036, 241448.3
965.8857, 241560.9
966.3679, 241479.1
966.8500, 241342.9
967.3321, 241343.6
967.8142, 241680.9
968.2963, 241814.7
968.7784, 241655.4
969.2606, 241467.0
969.7427, 241563.9
970.2248, 241857.4
970.7069, 242026.1
971.1890, 242046.0
971.6711, 242016.6
972.1533, 241957.0
972.6354, 241908.0
973.1175, 241879.6
973.5996, 241875.8
974.0817, 241994.9
974.5638, 242281.3
975.0460, 242532.5
975.5281, 242665.6
976.0102, 242712.2
976.4923, 242689.9
976.9744, 242636.1
977.4565, 242661.3
977.9387, 242943.3
978.4208, 243160.5
978.9029, 243141.7
979.3850, 243020.5
979.8671, 242967.1
980.3492, 242984.6
980.8314, 243069.1
981.3135, 243235.5
981.7956, 243400.7
982.2777, 243477.4
982.7598, 243494.3
983.2419, 243481.9
983.7241, 243439.5
984.2062, 243413.6
984.6883, 243406.4
985.1704, 243433.7
985.6525, 243517.3
986.1346, 243648.5
986.6168, 243733.8
987.0989, 243774.0
987.5810, 243797.5
988.0631, 243783.9
988.5452, 243791.5
989.0273, 243894.5
989.5095, 244061.5
989.9916, 244212.0
990.4737, 244344.1
990.9558, 244434.8
991.4379, 244471.9
991.9200, 244478.9
992.4022, 244480.3
992.8843, 244481.5
993.3664, 244493.6
993.8485, 244509.4
994.3306, 244595.1
994.8127, 244915.5
995.2949, 245245.5
995.7770, 245366.9
996.2591, 245242.6
996.7412, 245129.7
997.2233, 245027.1
997.7054, 244942.6
998.1876, 244856.2
998.6697, 244801.8
999.1518, 244886.2
999.6339, 245077.2
1000.116, 245247.6
1000.598, 245383.1
1001.080, 245437.6
1001.562, 245318.5
1002.044, 245145.4
1002.527, 245124.8
1003.009, 245260.7
1003.491, 245530.4
1003.973, 245968.4
1004.455, 246356.9
1004.937, 246395.4
1005.419, 246263.5
1005.901, 246171.9
1006.384, 246153.0
1006.866, 246209.3
1007.348, 246443.1
1007.830, 246588.1
1008.312, 246415.0
1008.794, 246013.2
1009.276, 245957.7
1009.758, 246211.0
1010.240, 246456.4
1010.723, 246467.3
1011.205, 246453.5
1011.687, 246557.7
1012.169, 246738.3
1012.651, 246867.4
1013.133, 246903.4
1013.615, 247018.7
1014.097, 247267.8
1014.580, 247527.9
1015.062, 247605.1
1015.544, 247574.4
1016.026, 247594.6
1016.508, 247714.9
1016.990, 247763.5
1017.472, 247569.5
1017.954, 247379.4
1018.436, 247342.0
1018.919, 247449.9
1019.401, 247516.2
1019.883, 247540.7
1020.365, 247611.9
1020.847, 247859.0
1021.329, 248112.0
1021.811, 248180.7
1022.293, 248123.1
1022.776, 248083.5
1023.258, 248099.5
1023.740, 248113.9
1024.222, 248104.3
1024.704, 248120.1
1025.186, 248283.5
1025.668, 248531.2
1026.150, 248611.8
1026.632, 248477.3
1027.115, 248364.8
1027.597, 248459.0
1028.079, 248588.8
1028.561, 248621.9
1029.043, 248563.6
1029.525, 248591.5
1030.007, 248710.7
1030.489, 248875.1
1030.972, 249107.4
1031.454, 249323.5
1031.936, 249388.4
1032.418, 249351.9
1032.900, 249320.2
1033.382, 249378.5
1033.864, 249359.6
1034.346, 249194.9
1034.828, 249019.9
1035.311, 249001.2
1035.793, 249116.6
1036.275, 249225.0
1036.757, 249316.0
1037.239, 249396.8
1037.721, 249469.5
1038.203, 249536.8
1038.685, 249592.8
1039.167, 249640.8
1039.650, 249716.5
1040.132, 249826.7
1040.614, 249929.4
1041.096, 249998.8
1041.578, 250070.1
1042.060, 250240.0
1042.542, 250441.2
1043.024, 250537.6
1043.507, 250381.1
1043.989, 250336.8
1044.471, 250549.2
1044.953, 250800.4
1045.435, 250913.9
1045.917, 250902.2
1046.399, 250940.2
1046.881, 251028.3
1047.364, 251108.9
1047.846, 251138.5
1048.328, 251151.3
1048.810, 251196.4
1049.292, 251245.9
1049.774, 251164.8
1050.256, 250863.9
1050.738, 250776.0
1051.220, 251047.9
1051.703, 251401.1
1052.185, 251369.1
1052.667, 251157.7
1053.149, 251134.1
1053.631, 251419.8
1054.113, 251655.6
1054.595, 251669.7
1055.077, 251704.3
1055.559, 251935.7
1056.042, 252303.6
1056.524, 252360.4
1057.006, 252139.3
1057.488, 251912.2
1057.970, 251719.3
1058.452, 251678.4
1058.934, 251998.1
1059.416, 252481.2
1059.899, 252744.0
1060.381, 252718.8
1060.863, 252689.1
1061.345, 252673.8
1061.827, 252671.7
1062.309, 252693.0
1062.791, 252721.0
1063.273, 252708.4
1063.755, 252654.7
1064.238, 252677.5
1064.720, 252894.8
1065.202, 253077.9
1065.684, 253126.7
1066.166, 253119.0
1066.648, 253335.6
1067.130, 253708.0
1067.612, 253924.1
1068.094, 253832.5
1068.577, 253686.9
1069.059, 253579.2
1069.541, 253534.0
1070.023, 253579.9
1070.505, 253736.2
1070.987, 253854.9
1071.469, 253929.6
1071.951, 254040.8
1072.434, 254320.5
1072.916, 254612.9
1073.398, 254712.7
1073.880, 254665.8
1074.362, 254641.0
1074.844, 254671.9
1075.326, 254731.3
1075.808, 254819.2
1076.291, 254929.9
1076.773, 255088.9
1077.255, 255262.3
1077.737, 255335.4
1078.219, 255287.2
1078.701, 255228.8
1079.183, 255135.0
1079.665, 255136.6
1080.147, 255341.2
1080.630, 255693.9
1081.112, 255857.1
1081.594, 255836.3
1082.076, 255807.8
1082.558, 255859.0
1083.040, 255886.1
1083.522, 255659.4
1084.004, 255412.7
1084.486, 255506.6
1084.969, 256227.9
1085.451, 256520.9
1085.933, 256277.2
1086.415, 256004.3
1086.897, 256158.5
1087.379, 256507.4
1087.861, 256649.3
1088.343, 256614.1
1088.826, 256568.2
1089.308, 256514.0
1089.790, 256536.9
1090.272, 256668.2
1090.754, 256859.3
1091.236, 257072.8
1091.718, 257285.4
1092.200, 257361.6
1092.682, 257269.2
1093.165, 257205.5
1093.647, 257314.1
1094.129, 257475.0
1094.611, 257639.6
1095.093, 257795.3
1095.575, 257828.4
1096.057, 257732.3
1096.539, 257680.9
1097.022, 257737.2
1097.504, 257867.8
1097.986, 258171.6
1098.468, 258472.2
1098.950, 258496.0
1099.432, 258029.2
1099.914, 257755.6
1100.396, 257701.2
1100.879, 257769.1
1101.361, 257966.3
1101.843, 258204.4
1102.325, 258301.3
1102.807, 258285.3
1103.289, 258266.8
1103.771, 258192.3
1104.253, 258266.9
1104.735, 258604.3
1105.218, 258995.3
1105.700, 259119.1
1106.182, 259031.9
1106.664, 258983.6
1107.146, 259001.5
1107.628, 259069.4
1108.110, 259244.4
1108.592, 259399.4
1109.074, 259444.8
1109.557, 259412.2
1110.039, 259432.6
1110.521, 259507.5
1111.003, 259529.8
1111.485, 259436.3
1111.967, 259379.0
1112.449, 259567.4
1112.931, 259833.2
1113.414, 259989.8
1113.896, 259996.2
1114.378, 259996.5
1114.860, 259981.8
1115.342, 260001.2
1115.824, 260103.5
1116.306, 260238.3
1116.788, 260292.1
1117.271, 260318.8
1117.753, 260440.5
1118.235, 260973.9
1118.717, 261146.3
1119.199, 260777.1
1119.681, 260302.3
1120.163, 260145.1
1120.645, 260230.3
1121.127, 260356.9
1121.609, 260513.5
1122.092, 260699.1
1122.574, 261017.6
1123.056, 261226.2
1123.538, 261183.8
1124.020, 261041.1
1124.502, 261125.7
1124.984, 261405.9
1125.466, 261622.1
1125.949, 261726.8
1126.431, 261747.9
1126.913, 261615.3
1127.395, 261480.5
1127.877, 261447.6
1128.359, 261511.2
1128.841, 261669.0
1129.323, 261931.4
1129.806, 262089.1
1130.288, 261991.8
1130.770, 261918.6
1131.252, 262269.1
1131.734, 262759.9
1132.216, 263004.8
1132.698, 262898.0
1133.180, 262763.3
1133.662, 262577.4
1134.145, 262467.7
1134.627, 262564.9
1135.109, 262754.7
1135.591, 262859.9
1136.073, 262910.1
1136.555, 262977.2
1137.037, 263128.0
1137.519, 263225.2
1138.001, 263252.3
1138.484, 263242.2
1138.966, 263174.1
1139.448, 263109.1
1139.930, 263230.7
1140.412, 263528.6
1140.894, 263806.2
1141.376, 263941.1
1141.858, 264116.7
1142.341, 264461.1
1142.823, 264790.3
1143.305, 264676.3
1143.787, 264234.5
1144.269, 263985.1
1144.751, 264023.2
1145.233, 264160.1
1145.715, 264386.6
1146.198, 264581.5
1146.680, 264658.5
1147.162, 264654.6
1147.644, 264763.8
1148.126, 264974.6
1148.608, 265119.0
1149.090, 265123.0
1149.572, 265108.4
1150.054, 265189.8
1150.536, 265279.5
1151.019, 265279.5
1151.501, 265177.5
1151.983, 265149.7
1152.465, 265197.1
1152.947, 265292.7
1153.429, 265489.6
1153.911, 265652.1
1154.393, 265574.6
1154.876, 265394.8
1155.358, 265361.1
1155.840, 265526.9
1156.322, 265725.8
1156.804, 265968.0
1157.286, 266169.9
1157.768, 266222.7
1158.250, 266225.4
1158.733, 266293.3
1159.215, 266419.6
1159.697, 266578.7
1160.179, 266868.1
1160.661, 266941.2
1161.143, 266696.5
1161.625, 266401.8
1162.107, 266360.9
1162.589, 266481.6
1163.072, 266648.4
1163.554, 266842.6
1164.036, 266958.5
1164.518, 266908.5
1165.000, 266875.8
1165.482, 266891.4
1165.964, 266965.2
1166.446, 267151.8
1166.928, 267400.8
1167.411, 267616.3
1167.893, 267788.6
1168.375, 267863.2
1168.857, 267729.3
1169.339, 267615.0
1169.821, 267633.3
1170.303, 267712.4
1170.785, 267602.8
1171.268, 267370.5
1171.750, 267226.3
1172.232, 267237.2
1172.714, 267345.5
1173.196, 267664.2
1173.678, 267939.5
1174.160, 267970.6
1174.642, 267814.9
1175.125, 267886.1
1175.607, 268139.9
1176.089, 268328.7
1176.571, 268267.1
1177.053, 268207.9
1177.535, 268315.2
1178.017, 268434.8
1178.499, 268387.0
1178.981, 268175.2
1179.464, 268176.2
1179.946, 268381.8
1180.428, 268587.1
1180.910, 268638.7
1181.392, 268681.8
1181.874, 268846.1
1182.356, 269025.0
1182.838, 269014.4
1183.320, 268801.9
1183.803, 268805.8
1184.285, 269065.5
1184.767, 269303.6
1185.249, 269233.8
1185.731, 269146.4
1186.213, 269321.5
1186.695, 269625.2
1187.177, 269617.7
1187.660, 269264.5
1188.142, 269182.3
1188.624, 269508.3
1189.106, 269815.0
1189.588, 269625.4
1190.070, 269342.3
1190.552, 269307.3
1191.034, 269499.5
1191.516, 269661.0
1191.999, 269792.6
1192.481, 269885.8
1192.963, 269933.5
1193.445, 269966.9
1193.927, 270041.8
1194.409, 270101.5
1194.891, 270040.8
1195.373, 269850.9
1195.855, 269923.5
1196.338, 270302.5
1196.820, 270557.8
1197.302, 270480.7
1197.784, 270294.3
1198.266, 270137.6
1198.748, 270071.2
1199.230, 270229.3
1199.712, 270690.8
1200.195, 270871.6
1200.677, 270732.0
1201.159, 270588.1
1201.641, 270613.5
1202.123, 270713.5
1202.605, 270794.9
1203.087, 270871.6
1203.569, 270983.9
1204.052, 271215.0
1204.534, 271189.7
1205.016, 270847.8
1205.498, 270608.8
1205.980, 270894.2
1206.462, 271330.3
1206.944, 271502.8
1207.426, 271488.6
1207.908, 271449.4
1208.391, 271360.0
1208.873, 271394.0
1209.355, 271581.3
1209.837, 271771.3
1210.319, 271820.8
1210.801, 271814.3
1211.283, 271833.5
1211.765, 271878.5
1212.247, 271949.8
1212.730, 272097.7
1213.212, 272072.8
1213.694, 271800.7
1214.176, 271588.4
1214.658, 271848.5
1215.140, 272246.4
1215.622, 272390.6
1216.104, 272303.2
1216.587, 272237.0
1217.069, 272179.0
1217.551, 272265.4
1218.033, 272546.3
1218.515, 272854.7
1218.997, 273020.7
1219.479, 273100.5
1219.961, 273169.2
1220.443, 273222.1
1220.926, 273127.0
1221.408, 272798.3
1221.890, 272680.5
1222.372, 272923.1
1222.854, 273247.2
1223.336, 273339.0
1223.818, 273311.9
1224.300, 273266.0
1224.782, 273214.6
1225.265, 273280.6
1225.747, 273509.6
1226.229, 273613.3
1226.711, 273447.9
1227.193, 273275.8
1227.675, 273480.7
1228.157, 273822.3
1228.639, 274008.0
1229.122, 273991.1
1229.604, 273999.4
1230.086, 274040.4
1230.568, 274051.9
1231.050, 273986.5
1231.532, 273930.9
1232.014, 274023.2
1232.496, 274162.4
1232.979, 274200.3
1233.461, 274102.7
1233.943, 274170.8
1234.425, 274426.3
1234.907, 274625.0
1235.389, 274637.6
1235.871, 274567.0
1236.353, 274380.8
1236.835, 274247.4
1237.318, 274465.7
1237.800, 275128.0
1238.282, 275374.8
1238.764, 275186.7
1239.246, 274941.3
1239.728, 274769.3
1240.210, 274727.5
1240.692, 274984.9
1241.175, 275341.7
1241.657, 275515.9
1242.139, 275472.3
1242.621, 275455.3
1243.103, 275465.0
1243.585, 275476.5
1244.067, 275461.3
1244.549, 275456.4
1245.031, 275472.6
1245.514, 275525.6
1245.996, 275648.4
1246.478, 275856.0
1246.960, 275940.6
1247.442, 275905.6
1247.924, 275890.3
1248.406, 276002.5
1248.888, 276138.8
1249.370, 276275.6
1249.853, 276381.9
1250.335, 276390.8
1250.817, 276308.4
1251.299, 276364.3
1251.781, 276557.0
1252.263, 276718.0
1252.745, 276691.1
1253.227, 276672.2
1253.710, 276784.3
1254.192, 276922.6
1254.674, 276952.9
1255.156, 276887.2
1255.638, 276791.8
1256.120, 276676.4
1256.602, 276595.6
1257.084, 276517.3
1257.567, 276570.1
1258.049, 276824.6
1258.531, 277171.1
1259.013, 277500.3
1259.495, 277791.2
1259.977, 277968.8
1260.459, 278028.4
1260.941, 277991.5
1261.423, 277754.4
1261.906, 277572.5
1262.388, 277498.4
1262.870, 277507.8
1263.352, 277600.8
1263.834, 277740.2
1264.316, 277821.4
1264.798, 277843.9
1265.280, 277930.1
1265.762, 278217.5
1266.245, 278403.4
1266.727, 278424.3
1267.209, 278349.5
1267.691, 278207.3
1268.173, 278065.8
1268.655, 278046.5
1269.137, 278154.3
1269.619, 278285.1
1270.102, 278435.5
1270.584, 278585.9
1271.066, 278747.0
1271.548, 278853.3
1272.030, 278740.9
1272.512, 278577.8
1272.994, 278593.2
1273.476, 278788.9
1273.958, 278866.4
1274.441, 278779.5
1274.923, 278761.3
1275.405, 278866.1
1275.887, 279037.6
1276.369, 279335.0
1276.851, 279579.7
1277.333, 279540.5
1277.815, 279266.6
1278.297, 279093.1
1278.780, 279022.4
1279.262, 279037.2
1279.744, 279140.3
1280.226, 279288.3
1280.708, 279489.1
1281.190, 279682.4
1281.672, 279815.5
1282.154, 279908.2
1282.637, 280049.1
1283.119, 280224.4
1283.601, 280277.1
1284.083, 280153.5
1284.565, 280065.8
1285.047, 280223.7
1285.529, 280356.3
1286.011, 280314.8
1286.494, 280168.2
1286.976, 280093.8
1287.458, 280083.8
1287.940, 280118.3
1288.422, 280195.7
1288.904, 280295.3
1289.386, 280428.8
1289.868, 280563.3
1290.350, 280706.8
1290.833, 280816.3
1291.315, 280772.1
1291.797, 280638.2
1292.279, 280539.3
1292.761, 280501.6
1293.243, 280463.6
1293.725, 280399.8
1294.207, 280379.4
1294.689, 280429.6
1295.172, 280521.3
1295.654, 280597.5
1296.136, 280697.0
1296.618, 280922.8
1297.100, 281307.5
1297.582, 281408.1
1298.064, 281183.3
1298.546, 280926.8
1299.029, 280694.8
1299.511, 280574.9
1299.993, 280774.5
1300.475, 281046.4
1300.957, 281122.7
1301.439, 281032.6
1301.921, 281012.0
1302.403, 281059.2
1302.885, 281133.6
1303.368, 281245.3
1303.850, 281289.8
1304.332, 281122.1
1304.814, 280930.0
1305.296, 280792.0
1305.778, 280738.3
1306.260, 280939.8
1306.742, 281325.7
1307.224, 281622.8
1307.707, 281760.8
1308.189, 281817.0
1308.671, 281778.4
1309.153, 281709.2
1309.635, 281613.4
1310.117, 281524.3
1310.599, 281505.3
1311.081, 281550.1
1311.564, 281677.5
1312.046, 281914.0
1312.528, 282003.7
1313.010, 281868.4
1313.492, 281767.3
1313.974, 281798.5
1314.456, 281875.6
1314.938, 281875.0
##END=



