##NAMES=Bellbergite
##RRUFFID=R100201
##IDEAL CHEMISTRY=(K,Ba,Sr)_2_Sr_2_Ca_2_(Ca,Na)_4_(Si,Al)_36_O_72_&#183;30H_2_O
##LOCALITY=Caspar quarry, Bellerberg volcano, Ettringen, Mayen, Eifel Mts, Rhineland-Palatinate, Germany
##OWNER=RRUFF
##SOURCE=JÃ¼rgen Wachsmuth, Ulm, Germany
##DESCRIPTION=Transparent colorless hexagonal dipyramidal crystals
##STATUS=The identification of this mineral has been confirmed by single-crystal X-ray diffraction.
##URL=rruff.info/R100201
170.1024, 342.7541
170.5845, 343.8263
171.0666, 344.2835
171.5487, 346.4760
172.0309, 350.2206
172.5130, 352.9496
172.9951, 351.9102
173.4772, 348.8669
173.9593, 346.5551
174.4414, 345.9806
174.9236, 346.6575
175.4057, 348.6678
175.8878, 352.0354
176.3699, 354.8702
176.8520, 354.9276
177.3341, 353.2793
177.8163, 352.2565
178.2984, 353.8270
178.7805, 356.2651
179.2626, 356.8369
179.7447, 355.3977
180.2268, 353.2893
180.7090, 351.0111
181.1911, 348.9665
181.6732, 348.5005
182.1553, 352.1826
182.6374, 357.6068
183.1195, 358.7187
183.6017, 354.7516
184.0838, 350.2332
184.5659, 351.2145
185.0480, 356.6542
185.5301, 361.3517
186.0123, 362.1376
186.4944, 360.1678
186.9765, 359.0360
187.4586, 358.9559
187.9407, 359.3186
188.4228, 358.9543
188.9050, 357.9906
189.3871, 357.8854
189.8692, 360.4736
190.3513, 364.9180
190.8334, 366.6717
191.3155, 365.0333
191.7977, 361.9435
192.2798, 360.1422
192.7619, 359.6217
193.2440, 360.0524
193.7261, 361.8064
194.2082, 364.7076
194.6904, 366.6719
195.1725, 367.4766
195.6546, 367.5674
196.1367, 367.7665
196.6188, 368.1118
197.1009, 368.1280
197.5831, 367.1803
198.0652, 365.2661
198.5473, 364.6106
199.0294, 365.7382
199.5115, 367.5959
199.9937, 367.8891
200.4758, 366.4072
200.9579, 364.6998
201.4400, 363.5586
201.9221, 363.0018
202.4042, 362.6577
202.8864, 362.4569
203.3685, 362.4950
203.8506, 363.1909
204.3327, 364.7515
204.8148, 366.0967
205.2969, 366.5811
205.7791, 366.1042
206.2612, 365.4351
206.7433, 364.4292
207.2254, 363.3956
207.7075, 363.4041
208.1896, 364.9771
208.6718, 366.0766
209.1539, 365.0894
209.6360, 361.2553
210.1181, 359.5121
210.6002, 361.0589
211.0823, 364.3465
211.5645, 364.7018
212.0466, 361.0556
212.5287, 357.0294
213.0108, 354.3731
213.4929, 353.0402
213.9750, 353.3774
214.4572, 356.2605
214.9393, 360.4808
215.4214, 362.2845
215.9035, 360.6422
216.3856, 358.6792
216.8678, 358.2923
217.3499, 360.2607
217.8320, 361.0955
218.3141, 360.0681
218.7962, 357.9526
219.2783, 357.4211
219.7605, 359.4601
220.2426, 361.2714
220.7247, 361.1820
221.2068, 358.3282
221.6889, 355.9833
222.1710, 354.1290
222.6532, 352.9147
223.1353, 353.1019
223.6174, 355.7082
224.0995, 358.0323
224.5816, 358.5185
225.0637, 356.0820
225.5459, 354.6884
226.0280, 355.0714
226.5101, 356.4420
226.9922, 356.1338
227.4743, 352.7207
227.9564, 349.8670
228.4386, 349.6151
228.9207, 353.6218
229.4028, 356.1992
229.8849, 356.9811
230.3670, 356.3542
230.8492, 355.3508
231.3313, 353.8125
231.8134, 352.1523
232.2955, 350.4541
232.7776, 348.4419
233.2597, 347.1407
233.7419, 346.8033
234.2240, 347.1163
234.7061, 347.3127
235.1882, 347.5171
235.6703, 347.4337
236.1524, 346.8900
236.6346, 345.6331
237.1167, 344.4775
237.5988, 343.2828
238.0809, 342.2318
238.5630, 341.8158
239.0451, 342.4987
239.5273, 343.1124
240.0094, 343.0654
240.4915, 341.7771
240.9736, 341.3820
241.4557, 342.3470
241.9378, 343.9823
242.4200, 344.8342
242.9021, 344.5370
243.3842, 344.0215
243.8663, 343.5161
244.3484, 342.7511
244.8306, 342.9290
245.3127, 344.8725
245.7948, 347.3247
246.2769, 347.7567
246.7590, 344.8325
247.2411, 342.1653
247.7233, 341.1412
248.2054, 342.3537
248.6875, 342.9326
249.1696, 342.3495
249.6517, 341.4867
250.1338, 342.0036
250.6160, 345.1777
251.0981, 347.4254
251.5802, 347.3100
252.0623, 344.1915
252.5444, 342.0024
253.0265, 340.8131
253.5087, 340.5134
253.9908, 341.1833
254.4729, 343.6521
254.9550, 345.3951
255.4371, 345.3596
255.9192, 343.1728
256.4014, 342.3329
256.8835, 343.3915
257.3656, 345.2515
257.8477, 346.7461
258.3298, 348.1153
258.8120, 348.5135
259.2941, 347.2379
259.7762, 344.0801
260.2583, 342.9229
260.7404, 344.6161
261.2225, 347.2304
261.7047, 348.7075
262.1868, 348.6322
262.6689, 348.5009
263.1510, 348.7151
263.6331, 349.2482
264.1152, 349.0812
264.5974, 347.6784
265.0795, 346.4061
265.5616, 346.6888
266.0437, 348.9320
266.5258, 351.4838
267.0079, 354.3868
267.4901, 357.4884
267.9722, 359.1425
268.4543, 359.2227
268.9364, 358.1654
269.4185, 355.7935
269.9006, 351.4051
270.3828, 348.9181
270.8649, 349.5150
271.3470, 352.3994
271.8291, 353.6735
272.3112, 352.8664
272.7933, 351.6930
273.2755, 351.4123
273.7576, 352.1384
274.2397, 352.9754
274.7218, 354.0766
275.2039, 355.0598
275.6860, 354.5887
276.1682, 352.3725
276.6503, 349.7802
277.1324, 347.0651
277.6145, 344.0622
278.0966, 343.8919
278.5787, 347.7800
279.0609, 353.4732
279.5430, 355.9217
280.0251, 354.7535
280.5072, 352.6096
280.9893, 350.4159
281.4715, 348.1983
281.9536, 347.4041
282.4357, 348.4255
282.9178, 350.2394
283.3999, 351.0428
283.8820, 350.7743
284.3642, 350.4901
284.8463, 350.7956
285.3284, 351.6072
285.8105, 352.0898
286.2926, 352.2790
286.7747, 351.9840
287.2569, 350.6433
287.7390, 348.3000
288.2211, 346.2182
288.7032, 345.1310
289.1853, 344.7587
289.6674, 343.7229
290.1496, 341.9305
290.6317, 340.0795
291.1138, 339.1423
291.5959, 338.9644
292.0780, 338.4579
292.5602, 337.0296
293.0423, 335.1210
293.5244, 333.7611
294.0065, 332.9614
294.4886, 332.6979
294.9707, 332.6960
295.4529, 333.1540
295.9350, 335.0365
296.4171, 339.7836
296.8992, 344.9751
297.3813, 345.6616
297.8634, 342.1696
298.3456, 338.1220
298.8277, 336.3360
299.3098, 336.0414
299.7919, 335.4038
300.2740, 333.5951
300.7561, 332.1212
301.2383, 333.7576
301.7204, 337.8460
302.2025, 341.2816
302.6846, 341.5995
303.1667, 340.1956
303.6488, 339.1529
304.1310, 338.8499
304.6131, 338.7637
305.0952, 338.1029
305.5773, 337.2036
306.0594, 336.9749
306.5415, 338.9316
307.0237, 341.2859
307.5058, 341.8973
307.9879, 340.3381
308.4700, 338.5843
308.9521, 337.8400
309.4343, 337.9602
309.9164, 338.6547
310.3985, 340.4856
310.8806, 342.3810
311.3627, 343.5336
311.8448, 343.9132
312.3270, 343.8957
312.8091, 343.1087
313.2912, 342.2427
313.7733, 342.1138
314.2554, 344.5835
314.7375, 346.5065
315.2197, 345.3945
315.7018, 341.6827
316.1839, 339.1548
316.6660, 340.5009
317.1481, 343.2436
317.6302, 345.3670
318.1124, 346.3882
318.5945, 346.7412
319.0766, 345.9507
319.5587, 344.4615
320.0408, 343.8009
320.5229, 345.1278
321.0051, 346.9356
321.4872, 348.4842
321.9693, 349.9469
322.4514, 350.5682
322.9335, 349.8895
323.4156, 348.2909
323.8978, 346.5029
324.3799, 343.5420
324.8620, 341.3766
325.3441, 340.7978
325.8262, 342.2305
326.3083, 344.1055
326.7905, 347.5640
327.2726, 351.0056
327.7547, 352.4232
328.2368, 349.6789
328.7189, 347.0780
329.2010, 345.0476
329.6832, 343.4951
330.1653, 343.7778
330.6474, 348.1779
331.1295, 352.7684
331.6116, 354.2716
332.0938, 350.3587
332.5759, 347.0055
333.0580, 344.6979
333.5401, 343.4633
334.0222, 343.9011
334.5043, 347.4235
334.9865, 350.6749
335.4686, 351.4520
335.9507, 348.5684
336.4328, 346.4091
336.9149, 345.2491
337.3970, 344.9149
337.8792, 344.8487
338.3613, 344.7920
338.8434, 345.7217
339.3255, 348.8663
339.8076, 354.9206
340.2898, 357.5579
340.7719, 355.9429
341.2540, 352.4101
341.7361, 350.1678
342.2182, 349.3146
342.7003, 349.2267
343.1825, 350.1894
343.6646, 351.8827
344.1467, 351.5922
344.6288, 348.8852
345.1109, 346.3627
345.5930, 347.5163
346.0752, 351.8621
346.5573, 354.5929
347.0394, 354.2195
347.5215, 351.8256
348.0036, 349.0184
348.4857, 345.8584
348.9679, 344.1614
349.4500, 346.6743
349.9321, 351.8073
350.4142, 354.7629
350.8963, 354.4196
351.3784, 352.7370
351.8606, 351.8488
352.3427, 351.6866
352.8248, 351.9906
353.3069, 352.9821
353.7890, 354.2147
354.2711, 355.1680
354.7533, 355.8171
355.2354, 356.0571
355.7175, 355.5214
356.1996, 354.5382
356.6817, 353.6787
357.1638, 353.1511
357.6460, 352.8604
358.1281, 352.4434
358.6102, 351.9784
359.0923, 352.4413
359.5744, 356.1668
360.0565, 360.2997
360.5387, 361.9297
361.0208, 357.9119
361.5029, 354.1750
361.9850, 354.0432
362.4671, 356.4174
362.9492, 357.9279
363.4314, 356.5510
363.9135, 354.6178
364.3956, 353.2821
364.8777, 352.5295
365.3598, 352.8116
365.8419, 355.3213
366.3241, 358.6797
366.8062, 360.7999
367.2883, 360.0312
367.7704, 359.3091
368.2526, 359.6407
368.7347, 361.3804
369.2168, 362.2140
369.6989, 361.3795
370.1810, 360.0829
370.6631, 359.3319
371.1453, 359.8326
371.6274, 359.7806
372.1095, 358.4293
372.5916, 356.1583
373.0737, 355.6339
373.5558, 357.7565
374.0380, 360.2772
374.5201, 362.0423
375.0022, 362.9489
375.4843, 363.2897
375.9664, 362.7550
376.4485, 361.9374
376.9307, 362.2368
377.4128, 364.0180
377.8949, 365.3461
378.3770, 365.2416
378.8591, 363.7926
379.3412, 362.6650
379.8234, 361.8408
380.3055, 361.4320
380.7876, 361.7773
381.2697, 362.8311
381.7518, 363.6582
382.2339, 363.7833
382.7161, 363.7046
383.1982, 364.9160
383.6803, 367.3580
384.1624, 369.5563
384.6445, 370.5286
385.1266, 370.4040
385.6088, 369.2182
386.0909, 366.6381
386.5730, 364.0862
387.0551, 362.9365
387.5372, 363.1397
388.0193, 364.5631
388.5015, 369.2041
388.9836, 373.9228
389.4657, 374.5907
389.9478, 370.8669
390.4299, 367.2534
390.9120, 366.7822
391.3942, 368.2093
391.8763, 370.0375
392.3584, 373.1459
392.8405, 375.1904
393.3226, 374.1852
393.8047, 370.7903
394.2869, 368.0233
394.7690, 366.7801
395.2511, 366.7202
395.7332, 367.8453
396.2154, 371.0426
396.6975, 373.5537
397.1796, 374.3859
397.6617, 374.2543
398.1438, 374.3867
398.6259, 375.5132
399.1081, 376.3694
399.5902, 376.2624
400.0723, 374.8637
400.5544, 374.8059
401.0365, 377.4297
401.5186, 380.3933
402.0008, 381.6834
402.4829, 380.2502
402.9650, 379.1296
403.4471, 378.6656
403.9292, 378.7595
404.4113, 379.2403
404.8935, 380.6883
405.3756, 381.2103
405.8577, 378.8928
406.3398, 372.8894
406.8219, 371.0717
407.3040, 374.6976
407.7862, 380.2809
408.2683, 382.7436
408.7504, 382.0078
409.2325, 380.9659
409.7146, 380.6201
410.1967, 380.7170
410.6789, 380.2453
411.1610, 379.1835
411.6431, 378.2277
412.1252, 377.9844
412.6073, 378.3296
413.0894, 379.0534
413.5716, 380.3454
414.0537, 381.4549
414.5358, 381.2450
415.0179, 380.0139
415.5000, 378.7324
415.9821, 377.3090
416.4643, 376.4396
416.9464, 377.4430
417.4285, 380.5633
417.9106, 382.9472
418.3927, 381.7117
418.8748, 379.0322
419.3570, 377.5149
419.8391, 379.1610
420.3212, 381.0335
420.8033, 382.0168
421.2854, 382.2138
421.7675, 382.1513
422.2497, 381.9996
422.7318, 381.6354
423.2139, 380.7986
423.6960, 378.5815
424.1781, 377.8463
424.6602, 380.3494
425.1424, 384.1394
425.6245, 386.3251
426.1066, 385.7119
426.5887, 384.9515
427.0709, 384.4803
427.5530, 384.2961
428.0351, 384.4627
428.5172, 385.2123
428.9993, 385.9891
429.4814, 386.2434
429.9636, 385.6285
430.4457, 385.8856
430.9278, 387.3804
431.4099, 389.5975
431.8920, 391.5835
432.3741, 393.4051
432.8563, 394.5970
433.3384, 394.7692
433.8205, 394.0596
434.3026, 393.2250
434.7847, 392.1909
435.2668, 391.5760
435.7490, 392.4176
436.2311, 394.2935
436.7132, 395.5535
437.1953, 395.2942
437.6774, 394.8921
438.1595, 396.6673
438.6417, 400.1118
439.1238, 403.1203
439.6059, 403.7466
440.0880, 403.6405
440.5701, 404.8189
441.0522, 407.7420
441.5344, 410.2675
442.0165, 410.2725
442.4986, 409.3576
442.9807, 409.4832
443.4628, 412.5762
443.9449, 415.5762
444.4271, 416.6266
444.9092, 416.2402
445.3913, 417.4147
445.8734, 423.4756
446.3555, 429.2629
446.8376, 432.0394
447.3198, 429.8307
447.8019, 428.0953
448.2840, 426.7098
448.7661, 425.9740
449.2482, 426.4218
449.7303, 428.8904
450.2125, 431.0831
450.6946, 432.2435
451.1767, 432.5224
451.6588, 434.2598
452.1409, 438.1238
452.6230, 441.9334
453.1052, 443.6696
453.5873, 443.0860
454.0694, 444.2045
454.5515, 447.8303
455.0337, 452.2362
455.5158, 454.2986
455.9979, 454.1758
456.4800, 453.9449
456.9621, 454.2724
457.4442, 455.1740
457.9264, 456.8549
458.4085, 459.2856
458.8906, 461.8949
459.3727, 464.5333
459.8548, 466.9554
460.3369, 468.6025
460.8191, 469.0942
461.3012, 469.4769
461.7833, 470.1680
462.2654, 471.3895
462.7475, 473.5886
463.2296, 478.6558
463.7118, 483.3900
464.1939, 486.0009
464.6760, 486.3869
465.1581, 485.7735
465.6402, 482.5844
466.1223, 479.7056
466.6045, 479.2183
467.0866, 484.2857
467.5687, 488.1563
468.0508, 489.6985
468.5329, 489.8879
469.0150, 490.9617
469.4972, 493.6888
469.9793, 496.0888
470.4614, 497.2677
470.9435, 497.1089
471.4256, 498.2835
471.9077, 501.2835
472.3899, 504.6504
472.8720, 507.2060
473.3541, 508.9709
473.8362, 509.9312
474.3183, 509.8705
474.8004, 509.3720
475.2826, 509.8175
475.7647, 511.1106
476.2468, 511.8964
476.7289, 510.9852
477.2110, 509.1667
477.6931, 507.9011
478.1753, 507.1956
478.6574, 507.6403
479.1395, 511.2042
479.6216, 515.8140
480.1037, 518.2471
480.5858, 516.8288
481.0680, 514.6609
481.5501, 513.4474
482.0322, 513.0643
482.5143, 513.2711
482.9964, 515.0226
483.4786, 516.4478
483.9607, 516.4596
484.4428, 514.8930
484.9249, 513.4756
485.4070, 512.8808
485.8892, 512.3522
486.3713, 511.3367
486.8534, 509.2513
487.3355, 507.5921
487.8176, 506.9892
488.2997, 506.6342
488.7819, 504.6636
489.2640, 500.4149
489.7461, 495.9799
490.2282, 491.9406
490.7103, 488.2582
491.1924, 484.9754
491.6746, 482.1224
492.1567, 479.4366
492.6388, 476.7794
493.1209, 474.1053
493.6030, 471.3144
494.0851, 468.2827
494.5673, 465.3116
495.0494, 463.2544
495.5315, 461.7463
496.0136, 459.5544
496.4957, 455.1596
496.9778, 450.3310
497.4600, 446.8791
497.9421, 444.7676
498.4242, 443.3151
498.9063, 442.6392
499.3884, 442.1315
499.8705, 441.2173
500.3527, 439.6309
500.8348, 438.0387
501.3169, 436.4604
501.7990, 435.1026
502.2811, 434.2525
502.7632, 435.4224
503.2454, 435.5513
503.7275, 432.9932
504.2096, 428.1788
504.6917, 425.9130
505.1738, 427.9497
505.6559, 430.1891
506.1381, 430.3495
506.6202, 427.7792
507.1023, 425.7513
507.5844, 424.2707
508.0665, 423.3330
508.5486, 423.1932
509.0308, 423.8756
509.5129, 424.2444
509.9950, 424.0196
510.4771, 423.2805
510.9592, 421.6581
511.4413, 419.3262
511.9235, 417.9208
512.4056, 420.2223
512.8877, 423.4386
513.3698, 422.6112
513.8519, 417.0927
514.3340, 411.9154
514.8162, 411.6799
515.2983, 413.5620
515.7804, 414.0757
516.2625, 409.9498
516.7446, 407.1392
517.2267, 409.5060
517.7089, 415.0226
518.1910, 418.6835
518.6731, 418.7425
519.1552, 417.4287
519.6373, 414.7648
520.1194, 410.4244
520.6016, 408.3323
521.0837, 409.6821
521.5658, 411.9602
522.0479, 413.4674
522.5300, 414.1064
523.0121, 414.1423
523.4943, 413.2773
523.9764, 412.2331
524.4585, 412.4331
524.9406, 413.8977
525.4227, 415.5308
525.9048, 417.5308
526.3870, 419.1356
526.8691, 417.6004
527.3513, 413.1588
527.8334, 409.4184
528.3155, 409.6689
528.7976, 411.9599
529.2797, 413.5464
529.7618, 414.0742
530.2440, 414.0364
530.7261, 413.4427
531.2082, 412.5897
531.6903, 411.8680
532.1724, 411.1074
532.6545, 410.7983
533.1367, 411.5137
533.6188, 412.8820
534.1009, 413.6049
534.5830, 413.2554
535.0651, 412.4318
535.5472, 411.1046
536.0294, 409.0647
536.5115, 407.9667
536.9936, 407.9118
537.4757, 408.6585
537.9578, 410.2556
538.4399, 412.9533
538.9221, 415.0444
539.4042, 416.4311
539.8863, 417.0489
540.3684, 416.3253
540.8505, 414.4088
541.3326, 413.1259
541.8148, 413.8411
542.2969, 415.2736
542.7790, 414.8473
543.2611, 412.7910
543.7432, 410.9234
544.2253, 410.4366
544.7075, 410.7847
545.1896, 411.6212
545.6717, 413.0591
546.1538, 414.0601
546.6359, 413.5443
547.1180, 412.5682
547.6002, 412.2608
548.0823, 413.4208
548.5644, 414.6514
549.0465, 416.5379
549.5286, 418.3553
550.0107, 417.7946
550.4929, 412.3348
550.9750, 408.3314
551.4571, 408.4083
551.9392, 412.5969
552.4213, 414.7046
552.9034, 414.3668
553.3856, 413.1409
553.8677, 412.0570
554.3498, 411.1251
554.8319, 410.4876
555.3140, 410.1763
555.7961, 410.0949
556.2783, 409.9097
556.7604, 409.8331
557.2425, 410.5634
557.7246, 413.3919
558.2067, 416.0666
558.6888, 415.9967
559.1710, 413.8282
559.6531, 411.7228
560.1352, 411.0085
560.6173, 410.4738
561.0994, 409.0569
561.5815, 406.4129
562.0637, 405.1840
562.5458, 407.2737
563.0279, 410.0672
563.5100, 411.7098
563.9921, 412.0698
564.4742, 411.2918
564.9564, 408.3671
565.4385, 405.0891
565.9206, 404.9561
566.4027, 408.7064
566.8848, 411.9094
567.3669, 413.3587
567.8491, 413.3150
568.3312, 411.8575
568.8133, 409.0771
569.2954, 407.3116
569.7775, 409.4501
570.2596, 413.2543
570.7418, 413.9616
571.2239, 411.1942
571.7060, 408.9781
572.1881, 412.0497
572.6702, 416.5948
573.1523, 418.2230
573.6345, 414.2380
574.1166, 410.1032
574.5987, 407.2469
575.0808, 405.6925
575.5629, 405.4531
576.0450, 408.5105
576.5272, 410.6551
577.0093, 410.5820
577.4914, 408.7403
577.9735, 408.2155
578.4556, 409.6562
578.9377, 411.0891
579.4199, 411.4064
579.9020, 410.5780
580.3841, 410.4774
580.8662, 411.2391
581.3483, 412.0355
581.8304, 412.1007
582.3126, 411.5185
582.7947, 410.5119
583.2768, 409.0377
583.7589, 407.4074
584.2410, 405.3909
584.7231, 403.5028
585.2053, 402.7636
585.6874, 405.1489
586.1696, 407.3517
586.6517, 407.0308
587.1338, 404.8104
587.6159, 403.5465
588.0980, 405.3197
588.5801, 406.9936
589.0623, 406.7185
589.5444, 403.8500
590.0265, 403.4261
590.5086, 406.9491
590.9907, 411.0008
591.4728, 412.8105
591.9550, 411.9845
592.4371, 411.4135
592.9192, 411.3565
593.4013, 411.5272
593.8834, 411.6389
594.3655, 411.6630
594.8477, 411.3310
595.3298, 410.3341
595.8119, 409.2402
596.2940, 409.1359
596.7761, 409.6621
597.2582, 409.6079
597.7404, 407.3211
598.2225, 404.9949
598.7046, 404.4312
599.1867, 405.7035
599.6688, 406.6250
600.1509, 406.0177
600.6331, 405.2274
601.1152, 405.1496
601.5973, 406.3076
602.0794, 406.9554
602.5615, 406.7191
603.0436, 406.3249
603.5258, 406.7529
604.0079, 408.2722
604.4900, 409.1421
604.9721, 408.9663
605.4542, 408.1834
605.9363, 407.7117
606.4185, 407.4968
606.9006, 406.9503
607.3827, 405.3800
607.8648, 403.6081
608.3469, 402.7850
608.8290, 402.8531
609.3112, 403.5313
609.7933, 405.3917
610.2754, 407.2739
610.7575, 408.0558
611.2396, 407.3814
611.7217, 407.3800
612.2039, 409.7274
612.6860, 412.2707
613.1681, 413.3266
613.6502, 411.5928
614.1323, 410.5812
614.6144, 410.6474
615.0966, 411.1639
615.5787, 411.2232
616.0608, 410.7626
616.5429, 410.2809
617.0250, 410.0008
617.5071, 409.6571
617.9893, 408.2249
618.4714, 405.9182
618.9535, 404.4198
619.4356, 404.6219
619.9177, 406.0993
620.3998, 409.3270
620.8820, 413.9263
621.3641, 416.6903
621.8462, 414.5470
622.3283, 410.7839
622.8104, 407.4472
623.2925, 404.4541
623.7747, 403.1974
624.2568, 405.4865
624.7389, 408.6371
625.2210, 410.4398
625.7031, 410.0217
626.1852, 410.2855
626.6674, 411.8891
627.1495, 413.6500
627.6316, 413.2376
628.1137, 410.5417
628.5958, 408.3761
629.0779, 407.5551
629.5601, 407.7300
630.0422, 408.4306
630.5243, 409.5861
631.0064, 410.8781
631.4885, 412.2081
631.9706, 413.5450
632.4528, 415.3474
632.9349, 417.4455
633.4170, 418.1451
633.8991, 415.0880
634.3812, 411.6251
634.8633, 409.7832
635.3455, 410.2675
635.8276, 410.8889
636.3097, 411.5321
636.7918, 412.3277
637.2739, 413.5768
637.7560, 415.6447
638.2382, 416.4139
638.7203, 415.2365
639.2024, 413.5967
639.6845, 414.0182
640.1666, 416.2359
640.6487, 418.1098
641.1309, 419.0112
641.6130, 419.2439
642.0951, 419.2084
642.5772, 418.8398
643.0594, 417.9597
643.5415, 415.2918
644.0236, 413.1175
644.5057, 413.4160
644.9879, 415.8828
645.4700, 417.2924
645.9521, 415.9206
646.4342, 414.2242
646.9163, 413.0560
647.3984, 412.2896
647.8806, 413.2995
648.3627, 417.3840
648.8448, 420.8619
649.3269, 419.7377
649.8090, 414.0270
650.2911, 411.8382
650.7733, 414.3061
651.2554, 417.8604
651.7375, 417.9047
652.2196, 415.7348
652.7017, 414.6044
653.1838, 415.8221
653.6660, 417.5238
654.1481, 418.5757
654.6302, 419.0516
655.1123, 419.0956
655.5944, 417.5592
656.0765, 416.8416
656.5587, 418.7551
657.0408, 422.3824
657.5229, 423.3419
658.0050, 419.8316
658.4871, 416.6649
658.9692, 415.5615
659.4514, 416.3501
659.9335, 417.3350
660.4156, 418.5779
660.8977, 419.4915
661.3798, 419.1520
661.8619, 418.1973
662.3441, 418.7335
662.8262, 420.9338
663.3083, 422.6641
663.7904, 421.6135
664.2725, 419.4775
664.7546, 418.1621
665.2368, 418.3469
665.7189, 418.5733
666.2010, 418.3286
666.6831, 417.8902
667.1652, 417.5822
667.6473, 417.6358
668.1295, 417.4214
668.6116, 416.5816
669.0937, 415.6858
669.5758, 416.1266
670.0579, 418.1076
670.5400, 419.3883
671.0222, 418.9660
671.5043, 417.8078
671.9864, 418.2281
672.4685, 419.8710
672.9506, 420.9966
673.4327, 419.9576
673.9149, 418.4398
674.3970, 417.9747
674.8791, 418.4716
675.3612, 419.0419
675.8433, 419.2945
676.3254, 419.5650
676.8076, 420.1222
677.2897, 421.0909
677.7718, 421.6618
678.2539, 422.0424
678.7360, 421.7515
679.2181, 419.8477
679.7003, 415.9571
680.1824, 415.1155
680.6645, 418.0393
681.1466, 421.6378
681.6287, 422.0631
682.1108, 420.4539
682.5930, 420.2666
683.0751, 422.7379
683.5572, 424.7873
684.0393, 422.6783
684.5214, 418.8230
685.0035, 416.6678
685.4857, 419.1654
685.9678, 421.3261
686.4499, 421.6931
686.9320, 420.8891
687.4141, 420.2891
687.8962, 419.7173
688.3784, 419.7798
688.8605, 421.0099
689.3426, 422.8113
689.8247, 422.7693
690.3068, 420.8024
690.7889, 419.2827
691.2711, 419.8407
691.7532, 421.4041
692.2353, 421.8629
692.7174, 421.3202
693.1995, 420.4431
693.6816, 418.6978
694.1638, 417.4679
694.6459, 418.5008
695.1280, 422.0496
695.6101, 423.9954
696.0922, 421.2258
696.5743, 418.3547
697.0565, 418.1365
697.5386, 421.6309
698.0207, 423.1315
698.5028, 421.9039
698.9849, 420.2539
699.4670, 420.6165
699.9492, 422.7483
700.4313, 424.1995
700.9135, 424.7272
701.3956, 424.3065
701.8777, 421.8651
702.3598, 418.6833
702.8419, 417.0634
703.3240, 418.2640
703.8062, 419.8265
704.2883, 420.5226
704.7704, 420.7698
705.2525, 421.1678
705.7346, 421.6996
706.2167, 422.6212
706.6989, 424.6162
707.1810, 426.7305
707.6631, 426.4401
708.1452, 423.2606
708.6273, 420.6527
709.1094, 419.7317
709.5916, 419.9701
710.0737, 420.2169
710.5558, 420.5309
711.0379, 421.2120
711.5200, 423.3260
712.0021, 425.1896
712.4843, 424.8346
712.9664, 422.6973
713.4485, 421.1673
713.9306, 421.4417
714.4127, 422.2482
714.8948, 423.2196
715.3770, 424.3546
715.8591, 424.9918
716.3412, 425.0720
716.8233, 424.7714
717.3054, 423.9162
717.7875, 422.5576
718.2697, 422.5564
718.7518, 424.0534
719.2339, 425.0371
719.7160, 422.7970
720.1981, 419.2741
720.6802, 417.6774
721.1624, 418.5278
721.6445, 419.9268
722.1266, 421.1758
722.6087, 422.2291
723.0908, 423.0247
723.5729, 423.4543
724.0551, 423.8018
724.5372, 424.1177
725.0193, 424.3266
725.5014, 424.3376
725.9835, 424.1303
726.4656, 423.7990
726.9478, 423.2706
727.4299, 422.8332
727.9120, 422.9672
728.3941, 423.5384
728.8762, 424.0808
729.3583, 424.3200
729.8405, 424.8061
730.3226, 426.7150
730.8047, 429.0358
731.2868, 430.0444
731.7689, 427.3201
732.2510, 425.4647
732.7332, 426.4186
733.2153, 428.7191
733.6974, 429.3817
734.1795, 427.7677
734.6616, 426.1911
735.1437, 425.0749
735.6259, 424.5018
736.1080, 425.2226
736.5901, 427.0179
737.0722, 427.9192
737.5543, 425.5746
738.0364, 422.9195
738.5186, 424.0754
739.0007, 428.0262
739.4828, 431.1783
739.9649, 431.9899
740.4470, 431.6512
740.9291, 430.1436
741.4113, 427.6355
741.8934, 426.0171
742.3755, 425.4076
742.8576, 425.5056
743.3397, 426.3717
743.8218, 427.8955
744.3040, 429.4855
744.7861, 431.1621
745.2682, 431.7209
745.7503, 429.0045
746.2324, 425.1859
746.7145, 424.1059
747.1967, 425.7235
747.6788, 427.4887
748.1609, 427.8979
748.6430, 428.0450
749.1251, 428.7860
749.6072, 430.4481
750.0894, 431.2919
750.5715, 430.6924
751.0536, 430.0330
751.5357, 430.2816
752.0178, 431.5497
752.4999, 432.5234
752.9821, 433.2604
753.4642, 433.3702
753.9463, 431.9212
754.4284, 429.7059
754.9105, 428.1580
755.3926, 427.4052
755.8748, 427.7299
756.3569, 429.8530
756.8390, 432.8001
757.3211, 435.9161
757.8032, 439.9133
758.2853, 442.0307
758.7675, 441.4127
759.2496, 439.6620
759.7318, 437.9541
760.2139, 436.1910
760.6960, 435.4823
761.1781, 436.1021
761.6602, 437.1603
762.1423, 437.5853
762.6245, 437.6072
763.1066, 437.8561
763.5887, 438.6194
764.0708, 439.1244
764.5529, 438.3929
765.0350, 437.2751
765.5172, 436.7772
765.9993, 437.8697
766.4814, 438.5840
766.9635, 438.8162
767.4456, 438.6110
767.9277, 437.6510
768.4099, 435.5588
768.8920, 435.4752
769.3741, 438.5058
769.8562, 442.1783
770.3383, 442.7360
770.8204, 441.0039
771.3026, 439.1823
771.7847, 437.9211
772.2668, 436.8253
772.7489, 435.4027
773.2310, 434.0344
773.7131, 433.3307
774.1953, 434.2581
774.6774, 434.7486
775.1595, 434.1283
775.6416, 433.2370
776.1237, 433.9313
776.6058, 436.5392
777.0880, 438.1269
777.5701, 437.7411
778.0522, 436.4464
778.5343, 436.0526
779.0164, 436.2304
779.4985, 435.9624
779.9807, 433.5489
780.4628, 432.1405
780.9449, 435.2715
781.4270, 440.6183
781.9091, 443.4110
782.3912, 440.6906
782.8734, 437.6959
783.3555, 434.5331
783.8376, 431.8135
784.3197, 431.3742
784.8018, 433.3974
785.2839, 435.6744
785.7661, 437.9738
786.2482, 439.4998
786.7303, 438.0221
787.2124, 434.5685
787.6945, 432.0262
788.1766, 432.6282
788.6588, 433.5868
789.1409, 433.4707
789.6230, 432.5998
790.1051, 431.9369
790.5872, 432.2399
791.0693, 431.5917
791.5515, 428.7886
792.0336, 425.2278
792.5157, 425.6321
792.9978, 430.0250
793.4799, 433.8463
793.9620, 435.1307
794.4442, 435.3016
794.9263, 436.9775
795.4084, 439.3334
795.8905, 440.1022
796.3726, 436.9806
796.8547, 433.4071
797.3369, 430.1198
797.8190, 427.4893
798.3011, 426.4513
798.7832, 427.2641
799.2653, 429.2827
799.7474, 433.0287
800.2296, 437.3779
800.7117, 438.8662
801.1938, 437.7154
801.6759, 436.3468
802.1580, 435.8544
802.6401, 435.5733
803.1223, 434.7275
803.6044, 433.4893
804.0865, 432.3188
804.5686, 431.4940
805.0507, 430.6535
805.5328, 429.0629
806.0150, 427.4216
806.4971, 427.9054
806.9792, 431.4684
807.4613, 433.9850
807.9434, 433.8358
808.4255, 432.4852
808.9077, 433.9005
809.3898, 437.3385
809.8719, 439.4445
810.3540, 437.8737
810.8361, 435.3040
811.3182, 432.9937
811.8004, 431.3345
812.2825, 431.1981
812.7646, 435.0822
813.2467, 437.6903
813.7288, 437.5428
814.2109, 435.7138
814.6931, 434.9978
815.1752, 435.5386
815.6573, 435.8363
816.1394, 435.3367
816.6215, 434.5853
817.1037, 434.7425
817.5858, 435.3989
818.0679, 435.4687
818.5500, 433.7013
819.0322, 432.0924
819.5143, 431.8381
819.9964, 432.4030
820.4785, 432.7253
820.9606, 432.8622
821.4427, 432.3721
821.9249, 430.6081
822.4070, 428.7697
822.8891, 430.2592
823.3712, 434.6272
823.8533, 436.5860
824.3354, 433.6178
824.8176, 429.8669
825.2997, 430.4518
825.7818, 433.4755
826.2639, 435.6703
826.7460, 435.4894
827.2281, 434.9456
827.7103, 434.2682
828.1924, 433.5858
828.6745, 433.0741
829.1566, 432.7841
829.6387, 432.3674
830.1208, 431.5972
830.6030, 431.0919
831.0851, 432.1974
831.5672, 434.3388
832.0493, 436.0104
832.5314, 436.8814
833.0135, 436.9576
833.4957, 435.1823
833.9778, 433.0687
834.4599, 432.3761
834.9420, 435.2638
835.4241, 437.0599
835.9063, 437.6865
836.3884, 437.3116
836.8705, 435.4310
837.3526, 432.1416
837.8347, 431.3484
838.3168, 433.9289
838.7990, 436.8071
839.2811, 436.4256
839.7632, 434.4708
840.2453, 433.1945
840.7274, 433.0536
841.2095, 433.5309
841.6917, 435.2516
842.1738, 436.9368
842.6559, 437.5986
843.1380, 436.9816
843.6201, 436.0016
844.1022, 434.3626
844.5844, 433.3809
845.0665, 435.0297
845.5486, 438.2508
846.0307, 440.1823
846.5128, 440.5732
846.9949, 440.0091
847.4771, 438.5479
847.9592, 436.5340
848.4413, 433.7051
848.9234, 429.4528
849.4055, 428.1662
849.8876, 431.6258
850.3698, 435.3136
850.8519, 436.2629
851.3340, 434.7779
851.8161, 435.0109
852.2982, 436.9443
852.7803, 438.6593
853.2625, 438.6718
853.7446, 437.7818
854.2267, 436.5430
854.7088, 435.0701
855.1909, 434.0923
855.6730, 434.0699
856.1552, 434.4135
856.6373, 435.1431
857.1194, 436.1221
857.6015, 435.8460
858.0836, 434.0133
858.5657, 433.2664
859.0479, 435.5498
859.5300, 439.2409
860.0121, 441.6978
860.4942, 442.9032
860.9763, 442.7220
861.4584, 439.9840
861.9406, 436.9719
862.4227, 434.1494
862.9048, 431.9080
863.3869, 431.4511
863.8690, 433.5805
864.3511, 435.4817
864.8333, 436.4507
865.3154, 436.9057
865.7975, 438.0325
866.2796, 439.5411
866.7617, 440.1257
867.2438, 438.8145
867.7260, 437.3146
868.2081, 437.0233
868.6902, 437.3538
869.1723, 437.3799
869.6544, 435.7934
870.1365, 435.6331
870.6187, 437.8966
871.1008, 440.6898
871.5829, 441.0785
872.0650, 439.2131
872.5471, 438.1783
873.0292, 438.5365
873.5114, 439.2971
873.9935, 439.1911
874.4756, 438.9961
874.9577, 440.0428
875.4399, 443.5192
875.9220, 445.2381
876.4041, 442.3559
876.8862, 438.8666
877.3683, 437.2466
877.8505, 437.7023
878.3326, 438.7967
878.8147, 440.6157
879.2968, 442.3768
879.7789, 443.4794
880.2610, 444.0185
880.7432, 444.3188
881.2253, 444.3703
881.7074, 443.4863
882.1895, 439.9006
882.6716, 436.6032
883.1537, 435.2952
883.6359, 435.8942
884.1180, 437.2200
884.6001, 439.6676
885.0822, 441.1902
885.5643, 440.2055
886.0464, 437.9663
886.5286, 437.6095
887.0107, 438.7534
887.4928, 439.8239
887.9749, 439.8164
888.4570, 439.6743
888.9391, 439.7834
889.4213, 440.1363
889.9034, 440.7502
890.3855, 442.1045
890.8676, 442.4839
891.3497, 441.2563
891.8318, 439.2889
892.3140, 437.8804
892.7961, 437.0823
893.2782, 437.2019
893.7603, 438.6502
894.2424, 440.2826
894.7245, 441.8519
895.2067, 442.8383
895.6888, 442.5737
896.1709, 439.4574
896.6530, 437.5519
897.1351, 437.2276
897.6172, 437.5591
898.0994, 437.5384
898.5815, 437.2749
899.0636, 437.6694
899.5457, 438.8295
900.0278, 440.1407
900.5099, 441.3167
900.9921, 442.2746
901.4742, 443.0992
901.9563, 443.8868
902.4384, 443.5853
902.9205, 441.1612
903.4026, 439.0417
903.8848, 438.4880
904.3669, 439.3014
904.8490, 439.8526
905.3311, 440.1401
905.8132, 440.2627
906.2953, 439.9365
906.7775, 439.7382
907.2596, 440.5575
907.7417, 442.0412
908.2238, 442.9571
908.7059, 441.8563
909.1880, 441.6048
909.6702, 443.3600
910.1523, 445.9621
910.6344, 446.4470
911.1165, 444.8615
911.5986, 443.3393
912.0807, 442.4431
912.5629, 441.8886
913.0450, 441.1626
913.5271, 440.6288
914.0092, 440.9038
914.4913, 442.9946
914.9734, 444.3530
915.4556, 444.1801
915.9377, 443.5423
916.4198, 443.4277
916.9019, 443.8850
917.3840, 443.9272
917.8661, 443.4651
918.3483, 442.9449
918.8304, 442.4075
919.3125, 442.2431
919.7946, 443.3421
920.2767, 445.7971
920.7589, 447.3503
921.2410, 446.7560
921.7231, 445.6392
922.2052, 444.3129
922.6873, 442.9296
923.1694, 443.4157
923.6516, 445.8510
924.1337, 447.0629
924.6158, 444.1700
925.0979, 440.2975
925.5800, 440.0590
926.0621, 442.1626
926.5443, 443.3847
927.0264, 439.9271
927.5085, 439.0403
927.9906, 443.7844
928.4727, 450.6534
928.9548, 453.7734
929.4370, 453.0382
929.9191, 451.3260
930.4012, 448.8322
930.8833, 446.8508
931.3654, 447.6185
931.8475, 449.4757
932.3297, 449.9395
932.8118, 447.9004
933.2939, 446.8011
933.7761, 448.8972
934.2582, 450.6709
934.7403, 449.4739
935.2224, 445.1646
935.7045, 444.0214
936.1866, 446.1208
936.6688, 448.9502
937.1509, 451.9580
937.6330, 453.9113
938.1151, 452.3994
938.5972, 448.1998
939.0793, 445.4082
939.5615, 445.8316
940.0436, 447.2681
940.5257, 449.8032
941.0078, 452.6093
941.4899, 452.9518
941.9720, 450.9413
942.4542, 449.5704
942.9363, 449.9073
943.4184, 450.6267
943.9005, 449.9066
944.3826, 448.7952
944.8647, 448.9007
945.3469, 452.4106
945.8290, 453.4482
946.3111, 449.9991
946.7932, 446.0577
947.2753, 445.4081
947.7574, 447.8447
948.2396, 448.7325
948.7217, 447.9033
949.2038, 447.8154
949.6859, 451.8306
950.1680, 456.3784
950.6501, 458.0388
951.1323, 456.7804
951.6144, 455.7189
952.0965, 455.0483
952.5786, 455.0223
953.0607, 456.0500
953.5428, 457.5555
954.0250, 457.1822
954.5071, 455.4233
954.9892, 455.3767
955.4713, 459.4131
955.9534, 463.5202
956.4355, 464.7623
956.9177, 464.1447
957.3998, 463.0551
957.8819, 460.7677
958.3640, 459.7881
958.8461, 460.3460
959.3282, 461.8732
959.8104, 464.3136
960.2925, 467.2132
960.7746, 468.9253
961.2567, 469.3200
961.7388, 468.9415
962.2209, 466.9745
962.7031, 465.3450
963.1852, 465.5895
963.6673, 467.6620
964.1494, 469.6548
964.6315, 471.6371
965.1136, 473.2429
965.5958, 474.4228
966.0779, 475.0272
966.5600, 474.3326
967.0421, 472.8118
967.5242, 471.7656
968.0063, 471.6638
968.4885, 472.1701
968.9706, 473.9297
969.4527, 475.8129
969.9348, 476.4051
970.4169, 475.4152
970.8990, 474.4064
971.3812, 473.3712
971.8633, 472.8784
972.3454, 474.1463
972.8275, 476.0098
973.3096, 476.6665
973.7917, 475.9553
974.2739, 475.1585
974.7560, 474.1598
975.2381, 473.8230
975.7202, 474.6556
976.2023, 476.3968
976.6844, 477.7440
977.1666, 478.7146
977.6487, 479.7852
978.1308, 481.6297
978.6129, 482.8935
979.0950, 481.5921
979.5771, 478.8873
980.0593, 476.6813
980.5414, 475.1380
981.0235, 474.7124
981.5056, 475.7942
981.9877, 477.4105
982.4698, 478.8639
982.9520, 480.0573
983.4341, 480.0957
983.9162, 478.9377
984.3983, 478.0130
984.8804, 478.7785
985.3625, 479.7990
985.8447, 479.9853
986.3268, 479.3159
986.8089, 478.7903
987.2910, 478.3565
987.7731, 478.3472
988.2552, 479.2539
988.7374, 480.1367
989.2195, 478.4159
989.7016, 475.1234
990.1837, 472.9937
990.6658, 473.4585
991.1479, 474.1966
991.6301, 474.5668
992.1122, 474.5262
992.5944, 473.8345
993.0765, 472.1305
993.5586, 472.1061
994.0407, 474.0018
994.5228, 475.8242
995.0049, 475.8058
995.4871, 474.8185
995.9692, 473.7153
996.4513, 472.6303
996.9334, 472.0778
997.4155, 472.9846
997.8976, 473.4445
998.3798, 472.6673
998.8619, 471.4025
999.3440, 471.9431
999.8261, 473.9876
1000.308, 474.4963
1000.790, 472.3146
1001.272, 469.6444
1001.755, 468.1921
1002.237, 467.2882
1002.719, 466.1449
1003.201, 464.2639
1003.683, 463.5832
1004.165, 464.5128
1004.647, 465.6064
1005.129, 465.9718
1005.612, 465.7752
1006.094, 464.9444
1006.576, 463.8326
1007.058, 464.0480
1007.540, 469.3931
1008.022, 472.9406
1008.504, 469.3297
1008.986, 463.0490
1009.468, 462.4795
1009.951, 468.6660
1010.433, 471.7914
1010.915, 469.9696
1011.397, 466.7306
1011.879, 465.4725
1012.361, 465.4675
1012.843, 465.9878
1013.325, 466.9941
1013.807, 467.9272
1014.290, 469.2843
1014.772, 469.6135
1015.254, 467.6293
1015.736, 464.2910
1016.218, 464.1607
1016.700, 466.6068
1017.182, 467.9247
1017.664, 465.2339
1018.147, 462.5035
1018.629, 462.3237
1019.111, 463.7041
1019.593, 465.1681
1020.075, 466.8431
1020.557, 468.0787
1021.039, 468.9432
1021.521, 468.9954
1022.003, 467.2819
1022.486, 464.6827
1022.968, 462.4086
1023.450, 460.6259
1023.932, 460.1498
1024.414, 463.4857
1024.896, 465.5172
1025.378, 463.7142
1025.860, 459.9330
1026.343, 460.1822
1026.825, 464.0796
1027.307, 466.0658
1027.789, 463.9602
1028.271, 461.6958
1028.753, 463.4264
1029.235, 466.5791
1029.717, 468.2347
1030.199, 467.5457
1030.682, 466.9629
1031.164, 466.4789
1031.646, 466.1073
1032.128, 465.8620
1032.610, 465.7281
1033.092, 465.8367
1033.574, 466.0567
1034.056, 465.9015
1034.539, 464.0290
1035.021, 463.1292
1035.503, 464.5939
1035.985, 467.1153
1036.467, 469.3183
1036.949, 471.2077
1037.431, 471.6174
1037.913, 470.2930
1038.396, 468.7289
1038.878, 467.5344
1039.360, 467.2455
1039.842, 469.2623
1040.324, 473.5922
1040.806, 474.7870
1041.288, 470.8957
1041.770, 467.9794
1042.252, 468.1680
1042.734, 470.1404
1043.217, 471.8639
1043.699, 473.0929
1044.181, 473.0372
1044.663, 470.6953
1045.145, 468.8646
1045.627, 468.9768
1046.109, 469.7445
1046.591, 470.2388
1047.074, 470.4407
1047.556, 471.1706
1048.038, 472.4393
1048.520, 472.7980
1049.002, 470.1999
1049.484, 467.2433
1049.966, 466.4970
1050.448, 467.2084
1050.931, 467.0403
1051.413, 464.6389
1051.895, 464.0415
1052.377, 466.2538
1052.859, 468.9861
1053.341, 469.6779
1053.823, 468.7345
1054.305, 466.3806
1054.787, 462.6402
1055.270, 460.5601
1055.752, 462.9708
1056.234, 465.8185
1056.716, 467.5023
1057.198, 468.1938
1057.680, 468.4123
1058.162, 468.1751
1058.644, 467.8252
1059.126, 467.6005
1059.609, 466.9530
1060.091, 464.4688
1060.573, 461.8196
1061.055, 461.0827
1061.537, 462.9393
1062.019, 464.7632
1062.501, 466.7063
1062.983, 468.0851
1063.466, 468.6155
1063.948, 468.1922
1064.430, 465.7234
1064.912, 462.0723
1065.394, 459.8109
1065.876, 460.6012
1066.358, 462.1548
1066.840, 464.8099
1067.323, 467.1392
1067.805, 466.8339
1068.287, 464.3835
1068.769, 463.7194
1069.251, 465.1336
1069.733, 465.8613
1070.215, 462.6061
1070.697, 459.2340
1071.179, 458.3711
1071.661, 459.6461
1072.144, 461.7409
1072.626, 464.9272
1073.108, 466.8590
1073.590, 466.7109
1074.072, 465.7325
1074.554, 465.3298
1075.036, 465.1382
1075.518, 464.5919
1076.001, 463.4238
1076.483, 462.8314
1076.965, 463.2228
1077.447, 463.5111
1077.929, 462.8376
1078.411, 461.8408
1078.893, 462.8888
1079.375, 465.2672
1079.858, 466.6477
1080.340, 465.5623
1080.822, 464.0524
1081.304, 461.5778
1081.786, 459.9179
1082.268, 461.3283
1082.750, 465.8791
1083.232, 468.7922
1083.714, 469.9739
1084.197, 469.6188
1084.679, 466.4006
1085.161, 463.0688
1085.643, 461.8567
1086.125, 462.3024
1086.607, 462.4723
1087.089, 462.1649
1087.571, 462.1878
1088.054, 462.7069
1088.536, 463.4163
1089.018, 464.3791
1089.500, 465.0869
1089.982, 464.1310
1090.464, 461.3275
1090.946, 460.8791
1091.428, 466.3056
1091.911, 469.5967
1092.393, 467.4894
1092.875, 462.5139
1093.357, 460.6183
1093.839, 461.0148
1094.321, 461.1534
1094.803, 460.1657
1095.285, 459.3900
1095.767, 459.3860
1096.250, 459.9286
1096.732, 461.0975
1097.214, 462.8105
1097.696, 463.1436
1098.178, 462.1930
1098.660, 461.9035
1099.142, 464.2543
1099.624, 466.4875
1100.106, 466.4395
1100.589, 464.9083
1101.071, 463.0736
1101.553, 460.6628
1102.035, 459.0680
1102.517, 458.3115
1102.999, 458.3513
1103.481, 459.8158
1103.963, 461.6238
1104.446, 462.2066
1104.928, 461.7890
1105.410, 461.5087
1105.892, 461.6674
1106.374, 461.9059
1106.856, 462.2452
1107.338, 462.5052
1107.820, 462.2426
1108.302, 461.7553
1108.785, 461.9250
1109.267, 462.8470
1109.749, 463.4224
1110.231, 462.3759
1110.713, 461.9168
1111.195, 463.2902
1111.677, 465.5209
1112.159, 465.5418
1112.641, 463.7727
1113.124, 462.9839
1113.606, 464.1752
1114.088, 465.1182
1114.570, 463.5998
1115.052, 461.8267
1115.534, 462.0006
1116.016, 463.9695
1116.498, 463.0369
1116.981, 459.0527
1117.463, 456.6965
1117.945, 459.1087
1118.427, 462.2668
1118.909, 461.5182
1119.391, 459.2295
1119.873, 458.9687
1120.355, 462.2548
1120.838, 463.9694
1121.320, 463.9046
1121.802, 463.1388
1122.284, 462.1782
1122.766, 461.1378
1123.248, 459.7822
1123.730, 458.4838
1124.212, 458.2188
1124.694, 460.3168
1125.177, 461.9887
1125.659, 463.0457
1126.141, 463.6443
1126.623, 463.9713
1127.105, 463.9630
1127.587, 463.0868
1128.069, 461.5184
1128.551, 460.7018
1129.033, 461.9691
1129.516, 463.2287
1129.998, 463.9913
1130.480, 464.3170
1130.962, 464.3206
1131.444, 463.9888
1131.926, 463.0075
1132.408, 461.2787
1132.890, 460.1946
1133.373, 461.6735
1133.855, 462.9904
1134.337, 462.2360
1134.819, 460.1813
1135.301, 459.5977
1135.783, 460.4427
1136.265, 461.2862
1136.747, 461.7993
1137.229, 462.0778
1137.712, 462.3356
1138.194, 462.3044
1138.676, 461.7829
1139.158, 460.7851
1139.640, 458.3502
1140.122, 454.0553
1140.604, 452.5194
1141.086, 457.0238
1141.569, 462.5011
1142.051, 463.2181
1142.533, 461.4366
1143.015, 460.1500
1143.497, 459.8859
1143.979, 459.9755
1144.461, 460.5872
1144.943, 460.8457
1145.426, 459.6129
1145.908, 458.2015
1146.390, 459.0727
1146.872, 461.3463
1147.354, 463.1991
1147.836, 463.9865
1148.318, 464.4887
1148.800, 464.8578
1149.282, 464.6507
1149.765, 462.9897
1150.247, 460.6778
1150.729, 459.1788
1151.211, 458.6213
1151.693, 459.2885
1152.175, 463.7474
1152.657, 465.7481
1153.139, 463.1665
1153.621, 459.6813
1154.104, 460.2468
1154.586, 463.4902
1155.068, 464.9066
1155.550, 464.2746
1156.032, 462.7044
1156.514, 459.1967
1156.996, 456.7970
1157.478, 456.6049
1157.961, 457.7554
1158.443, 458.8379
1158.925, 459.8909
1159.407, 461.2384
1159.889, 462.9265
1160.371, 464.4137
1160.853, 465.6421
1161.335, 466.2302
1161.818, 465.5392
1162.300, 464.2684
1162.782, 464.9471
1163.264, 467.3029
1163.746, 467.7632
1164.228, 465.1988
1164.710, 462.8398
1165.192, 463.9910
1165.674, 465.3910
1166.156, 464.0906
1166.639, 460.7416
1167.121, 459.9262
1167.603, 461.6353
1168.085, 462.9034
1168.567, 462.7482
1169.049, 462.0229
1169.531, 460.4828
1170.013, 459.4085
1170.496, 460.7463
1170.978, 464.5442
1171.460, 465.4385
1171.942, 463.2526
1172.424, 461.3824
1172.906, 461.3988
1173.388, 462.2516
1173.870, 463.2563
1174.353, 464.2834
1174.835, 465.3977
1175.317, 467.0282
1175.799, 465.8149
1176.281, 461.2248
1176.763, 458.0838
1177.245, 460.5819
1177.727, 464.3053
1178.209, 463.6953
1178.692, 460.9814
1179.174, 460.0050
1179.656, 461.7004
1180.138, 463.9816
1180.620, 467.1115
1181.102, 469.5515
1181.584, 470.4046
1182.066, 469.7810
1182.548, 466.8497
1183.031, 462.6975
1183.513, 459.7635
1183.995, 457.8998
1184.477, 458.9335
1184.959, 463.7413
1185.441, 468.3778
1185.923, 469.0247
1186.405, 467.6172
1186.888, 466.4343
1187.370, 465.5268
1187.852, 464.7586
1188.334, 463.7259
1188.816, 463.8658
1189.298, 465.7633
1189.780, 467.3122
1190.262, 465.0926
1190.745, 461.8320
1191.227, 462.3651
1191.709, 466.0634
1192.191, 468.1881
1192.673, 466.6348
1193.155, 465.8722
1193.637, 466.8594
1194.119, 467.7953
1194.601, 465.6502
1195.084, 462.4684
1195.566, 461.7832
1196.048, 463.6296
1196.530, 465.3067
1197.012, 466.6139
1197.494, 466.9664
1197.976, 465.9566
1198.458, 464.6490
1198.941, 464.2184
1199.423, 464.6709
1199.905, 466.5809
1200.387, 469.9234
1200.869, 471.7689
1201.351, 471.1739
1201.833, 469.8656
1202.315, 468.1639
1202.797, 466.1183
1203.280, 462.9030
1203.762, 459.7992
1204.244, 459.4091
1204.726, 462.2555
1205.208, 464.8256
1205.690, 467.1691
1206.172, 467.7894
1206.654, 465.7552
1207.136, 462.6493
1207.619, 460.6505
1208.101, 459.7855
1208.583, 460.5099
1209.065, 463.2488
1209.547, 464.5726
1210.029, 463.0632
1210.511, 462.3223
1210.993, 464.0960
1211.476, 466.5869
1211.958, 466.1340
1212.440, 464.1527
1212.922, 463.2241
1213.404, 464.0494
1213.886, 464.9098
1214.368, 465.6627
1214.850, 466.2625
1215.333, 466.6637
1215.815, 466.9489
1216.297, 467.3837
1216.779, 467.7808
1217.261, 467.8971
1217.743, 467.8499
1218.225, 466.5477
1218.707, 463.2870
1219.189, 460.5394
1219.672, 459.2399
1220.154, 459.3918
1220.636, 462.4680
1221.118, 466.5074
1221.600, 467.5672
1222.082, 462.7543
1222.564, 461.8633
1223.046, 466.9989
1223.528, 470.8625
1224.011, 468.5242
1224.493, 464.0511
1224.975, 464.8755
1225.457, 468.4282
1225.939, 470.1622
1226.421, 468.1352
1226.903, 466.6920
1227.385, 465.8999
1227.868, 465.6064
1228.350, 465.9653
1228.832, 466.5023
1229.314, 466.1850
1229.796, 465.6289
1230.278, 466.0536
1230.760, 468.6475
1231.242, 469.0131
1231.724, 466.5247
1232.207, 464.8177
1232.689, 466.7915
1233.171, 469.9334
1233.653, 471.6601
1234.135, 472.0505
1234.617, 471.0238
1235.099, 467.8445
1235.581, 465.9528
1236.063, 465.4985
1236.546, 465.4297
1237.028, 464.9656
1237.510, 464.7177
1237.992, 465.8770
1238.474, 467.4875
1238.956, 467.7436
1239.438, 465.9336
1239.920, 465.7915
1240.403, 467.4501
1240.885, 468.9226
1241.367, 468.8744
1241.849, 468.1390
1242.331, 466.5079
1242.813, 465.1135
1243.295, 465.9775
1243.777, 469.9713
1244.260, 470.8937
1244.742, 468.7553
1245.224, 466.6566
1245.706, 467.4000
1246.188, 467.8921
1246.670, 464.9165
1247.152, 461.0885
1247.634, 460.0190
1248.116, 461.9073
1248.599, 463.6378
1249.081, 465.1986
1249.563, 466.7918
1250.045, 469.2191
1250.527, 470.8951
1251.009, 470.0351
1251.491, 468.6748
1251.973, 469.2825
1252.455, 471.6988
1252.938, 471.5486
1253.420, 469.1613
1253.902, 467.4760
1254.384, 469.8891
1254.866, 470.9219
1255.348, 466.2455
1255.830, 461.7321
1256.313, 463.7027
1256.795, 470.7745
1257.277, 474.4561
1257.759, 475.0315
1258.241, 474.4006
1258.723, 472.0731
1259.205, 470.6493
1259.687, 470.9816
1260.169, 471.7168
1260.651, 471.5917
1261.134, 470.9294
1261.616, 470.7248
1262.098, 470.9136
1262.580, 471.2335
1263.062, 472.2438
1263.544, 472.1781
1264.026, 470.4066
1264.508, 468.7166
1264.991, 469.0761
1265.473, 470.3011
1265.955, 469.7954
1266.437, 468.2614
1266.919, 467.6089
1267.401, 469.2745
1267.883, 470.0485
1268.365, 469.7030
1268.848, 469.2050
1269.330, 469.3155
1269.812, 469.6906
1270.294, 469.9356
1270.776, 470.0909
1271.258, 470.2554
1271.740, 470.4876
1272.222, 470.5253
1272.704, 470.3332
1273.187, 470.1772
1273.669, 470.3409
1274.151, 470.5132
1274.633, 470.2088
1275.115, 469.8365
1275.597, 470.1648
1276.079, 471.4380
1276.561, 471.2899
1277.043, 469.7919
1277.526, 469.4048
1278.008, 474.0653
1278.490, 477.4927
1278.972, 473.8253
1279.454, 468.6188
1279.936, 467.8474
1280.418, 471.3344
1280.900, 473.8072
1281.383, 475.2295
1281.865, 475.4647
1282.347, 473.4205
1282.829, 471.5976
1283.311, 470.6649
1283.793, 470.4048
1284.275, 470.6862
1284.757, 471.5266
1285.240, 473.6992
1285.722, 476.5541
1286.204, 477.8928
1286.686, 476.0141
1287.168, 473.9901
1287.650, 471.9596
1288.132, 470.4575
1288.614, 470.0966
1289.096, 470.3748
1289.578, 470.3668
1290.061, 470.1694
1290.543, 469.9460
1291.025, 469.4948
1291.507, 469.6737
1291.989, 470.5671
1292.471, 471.6736
1292.953, 472.8640
1293.435, 473.9064
1293.918, 474.6394
1294.400, 474.9814
1294.882, 474.6793
1295.364, 473.6490
1295.846, 473.2468
1296.328, 473.5033
1296.810, 473.1123
1297.292, 470.4933
1297.775, 468.6911
1298.257, 471.4181
1298.739, 475.0728
1299.221, 476.2207
1299.703, 475.1070
1300.185, 474.0634
1300.667, 473.0845
1301.149, 472.0116
1301.631, 470.4770
1302.114, 469.5180
1302.596, 470.0466
##END=



