##NAMES=Beraunite
##RRUFFID=R060696
##IDEAL CHEMISTRY=Fe^2+^Fe^3+^_5_(PO_4_)_4_(OH)_5_&#183;6H_2_O
##LOCALITY=Three Oak Gap, Shady, Polk County, Arkansas, USA
##OWNER=RRUFF
##SOURCE=Bob Jenkins
##DESCRIPTION=Reddish brown bladed crystals in radial aggregates
##STATUS=The identification of this mineral is confirmed by single-crystal X-ray diffraction and chemical analysis.
##URL=rruff.info/R060696
##MEASURED CHEMISTRY=(Fe^2+^_0.98_Mn_0.02_)_Σ=1_Fe^3+^_5.00_(P_1.00_O_4_)_4_(OH)_5_·6H_2_O
144.6646, 3950.269
145.1467, 3961.878
145.6288, 4016.516
146.1110, 4064.670
146.5931, 4088.208
147.0752, 4072.372
147.5573, 4063.240
148.0394, 4064.394
148.5215, 4072.076
149.0037, 4076.294
149.4858, 4077.435
149.9679, 4074.717
150.4500, 4067.786
150.9321, 4043.538
151.4142, 4030.739
151.8964, 4037.139
152.3785, 4058.852
152.8606, 4073.110
153.3427, 4067.546
153.8248, 4061.687
154.3069, 4067.107
154.7890, 4106.957
155.2712, 4136.067
155.7533, 4140.910
156.2354, 4121.855
156.7175, 4108.281
157.1996, 4104.955
157.6817, 4109.718
158.1639, 4120.529
158.6460, 4147.635
159.1281, 4170.932
159.6102, 4180.138
160.0923, 4172.495
160.5744, 4169.166
161.0566, 4182.453
161.5387, 4202.608
162.0208, 4217.060
162.5029, 4217.583
162.9850, 4213.640
163.4671, 4207.586
163.9493, 4197.089
164.4314, 4194.887
164.9135, 4220.691
165.3956, 4258.996
165.8777, 4280.145
166.3598, 4251.464
166.8420, 4211.324
167.3241, 4191.164
167.8062, 4204.587
168.2883, 4221.135
168.7704, 4214.532
169.2525, 4193.315
169.7346, 4183.387
170.2168, 4216.769
170.6989, 4262.908
171.1810, 4285.857
171.6631, 4261.247
172.1452, 4232.768
172.6273, 4246.003
173.1095, 4294.028
173.5916, 4337.835
174.0737, 4349.330
174.5558, 4339.315
175.0379, 4324.401
175.5201, 4305.224
176.0022, 4286.742
176.4843, 4271.023
176.9664, 4258.530
177.4485, 4259.145
177.9306, 4295.238
178.4128, 4351.512
178.8949, 4393.363
179.3770, 4396.915
179.8591, 4381.797
180.3412, 4385.578
180.8233, 4409.871
181.3055, 4430.918
181.7876, 4412.866
182.2697, 4367.493
182.7518, 4338.325
183.2339, 4360.944
183.7160, 4413.500
184.1982, 4439.098
184.6803, 4434.074
185.1624, 4414.588
185.6445, 4392.552
186.1266, 4369.805
186.6087, 4358.654
187.0908, 4376.615
187.5730, 4414.215
188.0551, 4429.064
188.5372, 4414.147
189.0193, 4388.253
189.5014, 4378.248
189.9835, 4383.918
190.4657, 4399.325
190.9478, 4432.848
191.4299, 4479.640
191.9120, 4493.979
192.3941, 4463.241
192.8762, 4411.963
193.3584, 4388.269
193.8405, 4393.177
194.3226, 4410.675
194.8047, 4437.963
195.2868, 4474.385
195.7689, 4493.309
196.2511, 4487.504
196.7332, 4465.650
197.2153, 4450.187
197.6974, 4440.707
198.1795, 4439.460
198.6616, 4449.985
199.1438, 4473.039
199.6259, 4499.527
200.1080, 4533.194
200.5901, 4568.189
201.0722, 4574.041
201.5543, 4543.605
202.0364, 4508.547
202.5186, 4495.849
203.0007, 4507.847
203.4828, 4525.300
203.9649, 4546.092
204.4470, 4569.489
204.9291, 4590.102
205.4113, 4607.757
205.8934, 4622.859
206.3755, 4637.859
206.8576, 4655.151
207.3397, 4660.218
207.8218, 4645.185
208.3040, 4611.518
208.7861, 4591.667
209.2682, 4591.194
209.7503, 4595.723
210.2324, 4586.805
210.7145, 4558.200
211.1967, 4538.349
211.6788, 4535.766
212.1609, 4551.169
212.6430, 4571.893
213.1251, 4605.416
213.6072, 4634.654
214.0894, 4632.967
214.5715, 4584.269
215.0536, 4546.980
215.5357, 4541.946
216.0178, 4574.135
216.4999, 4594.278
216.9820, 4595.433
217.4642, 4590.671
217.9463, 4601.778
218.4284, 4639.437
218.9105, 4668.230
219.3926, 4675.330
219.8747, 4656.674
220.3569, 4635.219
220.8390, 4604.920
221.3211, 4576.479
221.8032, 4569.819
222.2853, 4599.836
222.7674, 4622.945
223.2496, 4618.473
223.7317, 4570.328
224.2138, 4555.494
224.6959, 4590.060
225.1780, 4648.498
225.6601, 4684.909
226.1423, 4692.572
226.6244, 4689.312
227.1065, 4679.198
227.5886, 4656.195
228.0707, 4644.198
228.5528, 4648.708
229.0350, 4661.797
229.5171, 4664.776
229.9992, 4649.101
230.4813, 4636.681
230.9634, 4637.554
231.4455, 4659.796
231.9276, 4676.214
232.4098, 4688.638
232.8919, 4694.739
233.3740, 4685.981
233.8561, 4648.544
234.3382, 4617.221
234.8203, 4609.065
235.3025, 4641.417
235.7846, 4658.438
236.2667, 4651.478
236.7488, 4630.901
237.2309, 4626.897
237.7130, 4650.322
238.1952, 4674.831
238.6773, 4688.714
239.1594, 4689.097
239.6415, 4684.522
240.1236, 4670.321
240.6057, 4651.809
241.0879, 4646.574
241.5700, 4663.971
242.0521, 4681.576
242.5342, 4688.091
243.0163, 4676.759
243.4984, 4668.273
243.9806, 4661.210
244.4627, 4657.358
244.9448, 4664.292
245.4269, 4691.066
245.9090, 4715.746
246.3911, 4726.124
246.8732, 4711.452
247.3554, 4705.760
247.8375, 4713.241
248.3196, 4730.201
248.8017, 4744.608
249.2838, 4757.967
249.7659, 4766.403
250.2481, 4768.464
250.7302, 4765.325
251.2123, 4752.383
251.6944, 4721.938
252.1765, 4682.779
252.6586, 4663.977
253.1408, 4671.640
253.6229, 4690.846
254.1050, 4718.403
254.5871, 4767.656
255.0692, 4789.142
255.5513, 4765.167
256.0334, 4714.392
256.5156, 4703.085
256.9977, 4755.975
257.4798, 4808.325
257.9619, 4822.073
258.4440, 4777.743
258.9261, 4747.763
259.4083, 4737.077
259.8904, 4742.359
260.3725, 4753.021
260.8546, 4769.470
261.3367, 4790.473
261.8188, 4819.260
262.3010, 4865.705
262.7831, 4887.929
263.2652, 4876.181
263.7473, 4841.617
264.2294, 4817.404
264.7115, 4806.361
265.1937, 4800.148
265.6758, 4794.005
266.1579, 4786.521
266.6400, 4785.305
267.1221, 4792.178
267.6042, 4804.962
268.0864, 4818.500
268.5685, 4834.905
269.0506, 4847.397
269.5327, 4851.487
270.0148, 4845.463
270.4969, 4839.771
270.9791, 4834.594
271.4612, 4830.396
271.9433, 4830.436
272.4254, 4837.879
272.9075, 4839.548
273.3896, 4822.483
273.8718, 4781.558
274.3539, 4764.154
274.8360, 4779.380
275.3181, 4811.535
275.8002, 4824.500
276.2823, 4813.803
276.7645, 4803.476
277.2466, 4807.044
277.7287, 4825.923
278.2108, 4841.828
278.6929, 4855.455
279.1750, 4863.904
279.6572, 4859.111
280.1393, 4839.230
280.6214, 4818.824
281.1035, 4802.344
281.5856, 4789.808
282.0677, 4792.097
282.5499, 4815.323
283.0320, 4841.968
283.5141, 4838.373
283.9962, 4802.777
284.4783, 4767.591
284.9604, 4744.848
285.4425, 4734.712
285.9247, 4744.234
286.4068, 4779.295
286.8889, 4817.252
287.3710, 4820.438
287.8531, 4789.984
288.3352, 4760.301
288.8174, 4748.423
289.2995, 4751.098
289.7816, 4752.267
290.2637, 4752.122
290.7458, 4748.794
291.2279, 4736.717
291.7101, 4717.292
292.1922, 4701.801
292.6743, 4694.554
293.1564, 4694.923
293.6385, 4704.961
294.1206, 4726.365
294.6028, 4745.479
295.0849, 4744.286
295.5670, 4727.022
296.0491, 4710.963
296.5312, 4703.235
297.0133, 4701.504
297.4955, 4703.439
297.9776, 4709.447
298.4597, 4712.492
298.9418, 4702.715
299.4239, 4684.364
299.9060, 4668.280
300.3882, 4655.410
300.8703, 4648.718
301.3524, 4656.304
301.8345, 4677.660
302.3166, 4699.441
302.7987, 4711.075
303.2809, 4715.266
303.7630, 4717.409
304.2451, 4719.148
304.7272, 4719.269
305.2093, 4713.776
305.6914, 4703.451
306.1736, 4696.974
306.6557, 4701.352
307.1378, 4712.881
307.6199, 4727.379
308.1020, 4749.869
308.5841, 4767.833
309.0663, 4766.018
309.5484, 4748.637
310.0305, 4735.135
310.5126, 4743.805
310.9947, 4758.806
311.4768, 4763.958
311.9590, 4751.391
312.4411, 4735.158
312.9232, 4722.030
313.4053, 4711.809
313.8874, 4704.143
314.3695, 4703.650
314.8517, 4702.584
315.3337, 4694.019
315.8159, 4671.935
316.2980, 4652.778
316.7801, 4645.399
317.2622, 4646.048
317.7443, 4646.357
318.2264, 4646.209
318.7086, 4642.842
319.1907, 4633.691
319.6728, 4615.727
320.1549, 4600.005
320.6370, 4585.771
321.1191, 4576.369
321.6013, 4577.157
322.0834, 4597.352
322.5655, 4620.909
323.0476, 4644.126
323.5297, 4668.681
324.0118, 4684.145
324.4940, 4684.578
324.9761, 4676.423
325.4582, 4667.436
325.9403, 4648.282
326.4224, 4638.336
326.9045, 4651.117
327.3867, 4694.981
327.8688, 4707.297
328.3509, 4653.351
328.8330, 4584.772
329.3151, 4545.786
329.7972, 4563.220
330.2794, 4576.413
330.7615, 4571.874
331.2436, 4550.086
331.7257, 4547.679
332.2078, 4583.970
332.6899, 4621.138
333.1721, 4629.654
333.6542, 4591.704
334.1363, 4560.245
334.6184, 4542.383
335.1005, 4535.678
335.5826, 4525.384
336.0648, 4506.702
336.5469, 4492.677
337.0290, 4494.565
337.5111, 4520.907
337.9932, 4530.838
338.4753, 4515.827
338.9575, 4486.292
339.4396, 4470.801
339.9217, 4473.706
340.4038, 4474.834
340.8859, 4458.931
341.3680, 4424.003
341.8502, 4408.718
342.3323, 4420.770
342.8144, 4441.708
343.2965, 4435.036
343.7786, 4398.994
344.2607, 4372.032
344.7429, 4377.567
345.2250, 4410.266
345.7071, 4430.776
346.1892, 4438.069
346.6713, 4439.137
347.1534, 4444.987
347.6355, 4453.673
348.1176, 4452.551
348.5998, 4432.381
349.0819, 4400.313
349.5640, 4368.293
350.0461, 4335.559
350.5282, 4314.163
351.0103, 4323.186
351.4925, 4351.327
351.9746, 4372.518
352.4567, 4377.402
352.9388, 4372.848
353.4209, 4367.625
353.9030, 4361.078
354.3852, 4348.953
354.8673, 4316.596
355.3494, 4281.047
355.8315, 4267.955
356.3136, 4296.669
356.7957, 4323.445
357.2779, 4306.000
357.7600, 4257.463
358.2421, 4215.899
358.7242, 4203.664
359.2063, 4203.687
359.6884, 4202.992
360.1706, 4198.490
360.6527, 4197.129
361.1348, 4205.132
361.6169, 4217.951
362.0990, 4228.092
362.5811, 4233.056
363.0633, 4234.776
363.5454, 4234.245
364.0275, 4231.677
364.5096, 4225.359
364.9917, 4209.939
365.4738, 4192.577
365.9560, 4180.422
366.4381, 4184.961
366.9202, 4184.422
367.4023, 4167.128
367.8844, 4133.041
368.3665, 4118.621
368.8487, 4142.634
369.3308, 4175.767
369.8129, 4200.510
370.2950, 4221.484
370.7771, 4226.585
371.2592, 4203.950
371.7414, 4163.523
372.2235, 4145.590
372.7056, 4161.207
373.1877, 4183.826
373.6698, 4202.262
374.1519, 4218.569
374.6341, 4222.349
375.1162, 4206.825
375.5983, 4184.099
376.0804, 4179.707
376.5625, 4199.245
377.0446, 4217.181
377.5267, 4222.910
378.0089, 4216.471
378.4910, 4210.004
378.9731, 4203.185
379.4552, 4197.604
379.9373, 4197.543
380.4194, 4202.948
380.9016, 4202.668
381.3837, 4189.540
381.8658, 4169.985
382.3479, 4162.582
382.8300, 4167.457
383.3121, 4181.151
383.7943, 4208.467
384.2764, 4242.997
384.7585, 4264.521
385.2406, 4264.632
385.7227, 4256.118
386.2048, 4256.809
386.6870, 4264.585
387.1691, 4270.719
387.6512, 4262.567
388.1333, 4252.177
388.6154, 4260.045
389.0975, 4294.821
389.5797, 4322.122
390.0618, 4300.526
390.5439, 4253.351
391.0260, 4223.453
391.5081, 4249.633
391.9902, 4284.241
392.4724, 4295.419
392.9545, 4280.540
393.4366, 4266.971
393.9187, 4268.720
394.4008, 4276.949
394.8829, 4283.182
395.3651, 4282.678
395.8472, 4282.586
396.3293, 4289.182
396.8114, 4300.119
397.2935, 4299.732
397.7756, 4270.016
398.2578, 4239.227
398.7399, 4222.110
399.2220, 4233.156
399.7041, 4238.223
400.1862, 4238.878
400.6683, 4233.090
401.1505, 4214.944
401.6326, 4167.857
402.1147, 4131.157
402.5968, 4119.158
403.0789, 4136.499
403.5610, 4153.548
404.0432, 4172.527
404.5253, 4188.680
405.0074, 4196.521
405.4895, 4195.685
405.9716, 4187.591
406.4537, 4171.293
406.9359, 4148.000
407.4180, 4121.417
407.9001, 4089.100
408.3822, 4064.730
408.8643, 4062.074
409.3464, 4079.428
409.8285, 4099.430
410.3106, 4123.151
410.7928, 4141.368
411.2749, 4129.925
411.7570, 4092.914
412.2391, 4064.643
412.7212, 4071.941
413.2033, 4099.811
413.6855, 4120.221
414.1676, 4131.335
414.6497, 4134.437
415.1318, 4118.661
415.6139, 4096.344
416.0960, 4091.294
416.5782, 4136.760
417.0603, 4186.255
417.5424, 4198.981
418.0245, 4177.831
418.5066, 4152.752
418.9887, 4131.804
419.4709, 4117.890
419.9530, 4114.319
420.4351, 4132.581
420.9172, 4145.668
421.3993, 4136.621
421.8814, 4115.257
422.3636, 4105.976
422.8457, 4131.419
423.3278, 4155.507
423.8099, 4162.236
424.2920, 4143.016
424.7741, 4129.912
425.2563, 4131.413
425.7384, 4136.431
426.2205, 4131.761
426.7026, 4105.198
427.1847, 4088.393
427.6668, 4091.905
428.1490, 4113.431
428.6311, 4120.750
429.1132, 4108.525
429.5953, 4091.266
430.0774, 4077.560
430.5595, 4066.659
431.0417, 4063.857
431.5238, 4071.524
432.0059, 4085.271
432.4880, 4098.313
432.9701, 4110.988
433.4522, 4116.866
433.9344, 4106.939
434.4165, 4086.241
434.8986, 4079.212
435.3807, 4087.301
435.8628, 4100.099
436.3449, 4107.694
436.8271, 4111.262
437.3092, 4113.717
437.7913, 4112.811
438.2734, 4114.325
438.7555, 4130.523
439.2376, 4157.927
439.7197, 4178.021
440.2018, 4176.379
440.6840, 4162.954
441.1661, 4145.701
441.6482, 4123.114
442.1303, 4105.380
442.6124, 4097.117
443.0945, 4097.328
443.5767, 4104.361
444.0588, 4136.625
444.5409, 4158.413
445.0230, 4148.439
445.5051, 4102.408
445.9872, 4069.483
446.4694, 4069.098
446.9515, 4077.800
447.4336, 4077.841
447.9157, 4056.142
448.3978, 4043.495
448.8799, 4045.313
449.3621, 4057.713
449.8442, 4067.690
450.3263, 4077.029
450.8084, 4080.603
451.2905, 4073.046
451.7726, 4050.928
452.2548, 4042.723
452.7369, 4053.718
453.2190, 4068.763
453.7011, 4065.688
454.1832, 4043.630
454.6653, 4024.812
455.1475, 4017.649
455.6296, 4016.900
456.1117, 4004.903
456.5938, 3981.953
457.0759, 3962.207
457.5580, 3961.475
458.0402, 3971.682
458.5223, 3974.845
459.0044, 3967.591
459.4865, 3955.240
459.9686, 3939.302
460.4507, 3922.274
460.9329, 3909.315
461.4150, 3906.834
461.8971, 3906.813
462.3792, 3902.835
462.8613, 3894.736
463.3434, 3888.465
463.8256, 3885.171
464.3077, 3885.781
464.7898, 3891.228
465.2719, 3912.906
465.7540, 3926.094
466.2361, 3919.807
466.7183, 3900.801
467.2004, 3889.598
467.6825, 3898.263
468.1646, 3904.229
468.6467, 3896.920
469.1288, 3868.647
469.6110, 3862.765
470.0930, 3892.929
470.5752, 3930.277
471.0573, 3943.983
471.5394, 3929.494
472.0215, 3905.334
472.5036, 3868.751
472.9857, 3827.364
473.4679, 3812.338
473.9500, 3826.386
474.4321, 3842.499
474.9142, 3844.109
475.3963, 3833.339
475.8784, 3818.661
476.3606, 3800.143
476.8427, 3780.802
477.3248, 3759.760
477.8069, 3740.559
478.2890, 3732.857
478.7711, 3748.775
479.2533, 3771.969
479.7354, 3791.255
480.2175, 3805.397
480.6996, 3806.077
481.1817, 3768.532
481.6638, 3726.792
482.1460, 3710.228
482.6281, 3732.473
483.1102, 3760.922
483.5923, 3797.915
484.0744, 3831.288
484.5565, 3842.116
485.0387, 3805.090
485.5208, 3766.371
486.0029, 3734.020
486.4850, 3707.792
486.9671, 3695.901
487.4492, 3712.001
487.9314, 3728.139
488.4135, 3722.754
488.8956, 3682.127
489.3777, 3664.124
489.8598, 3683.860
490.3419, 3716.296
490.8241, 3702.372
491.3062, 3634.104
491.7883, 3582.995
492.2704, 3588.229
492.7525, 3634.831
493.2346, 3654.359
493.7168, 3645.564
494.1989, 3626.662
494.6810, 3610.171
495.1631, 3595.836
495.6452, 3582.526
496.1273, 3569.706
496.6095, 3558.553
497.0916, 3551.347
497.5737, 3547.017
498.0558, 3543.035
498.5379, 3538.534
499.0201, 3533.801
499.5022, 3530.455
499.9843, 3528.769
500.4664, 3522.493
500.9485, 3502.409
501.4306, 3480.820
501.9127, 3467.616
502.3948, 3470.858
502.8770, 3474.789
503.3591, 3482.822
503.8412, 3490.441
504.3233, 3485.091
504.8054, 3453.291
505.2875, 3429.025
505.7697, 3427.455
506.2518, 3451.061
506.7339, 3454.258
507.2160, 3430.997
507.6981, 3401.216
508.1802, 3381.583
508.6624, 3372.118
509.1445, 3373.644
509.6266, 3389.677
510.1087, 3411.194
510.5908, 3424.371
511.0729, 3429.229
511.5551, 3425.688
512.0372, 3405.224
512.5193, 3379.888
513.0014, 3372.072
513.4835, 3382.220
513.9656, 3386.198
514.4478, 3349.870
514.9299, 3305.506
515.4120, 3290.907
515.8941, 3341.816
516.3762, 3384.440
516.8583, 3380.218
517.3405, 3346.457
517.8226, 3321.007
518.3047, 3313.890
518.7868, 3314.392
519.2689, 3321.902
519.7510, 3337.709
520.2332, 3347.227
520.7153, 3345.862
521.1974, 3342.952
521.6795, 3346.216
522.1616, 3358.650
522.6437, 3366.697
523.1259, 3367.469
523.6080, 3365.162
524.0901, 3373.167
524.5722, 3392.965
525.0543, 3397.827
525.5364, 3361.306
526.0186, 3303.316
526.5007, 3297.422
526.9828, 3343.378
527.4649, 3380.758
527.9470, 3337.556
528.4291, 3258.385
528.9113, 3217.016
529.3934, 3239.777
529.8755, 3274.527
530.3576, 3288.701
530.8397, 3287.939
531.3218, 3282.728
531.8040, 3272.301
532.2861, 3262.593
532.7682, 3254.604
533.2503, 3248.508
533.7324, 3249.636
534.2145, 3269.266
534.6967, 3288.237
535.1788, 3295.846
535.6609, 3283.317
536.1430, 3278.208
536.6251, 3284.110
537.1072, 3294.463
537.5894, 3299.135
538.0715, 3297.079
538.5536, 3294.311
539.0357, 3291.685
539.5178, 3289.828
539.9999, 3290.942
540.4821, 3295.003
540.9642, 3301.448
541.4463, 3317.043
541.9284, 3333.795
542.4105, 3327.826
542.8926, 3293.680
543.3748, 3262.709
543.8569, 3267.770
544.3390, 3293.828
544.8211, 3317.769
545.3032, 3334.940
545.7853, 3344.674
546.2675, 3338.292
546.7495, 3322.462
547.2316, 3320.226
547.7137, 3358.785
548.1959, 3394.028
548.6780, 3403.537
549.1601, 3375.822
549.6422, 3368.161
550.1243, 3394.778
550.6064, 3428.055
551.0886, 3443.755
551.5707, 3436.478
552.0528, 3429.079
552.5349, 3422.678
553.0170, 3419.051
553.4991, 3425.106
553.9813, 3441.134
554.4634, 3452.538
554.9455, 3446.047
555.4276, 3431.330
555.9097, 3438.161
556.3918, 3465.573
556.8740, 3492.214
557.3561, 3496.773
557.8382, 3492.618
558.3203, 3498.776
558.8024, 3522.965
559.2845, 3545.493
559.7667, 3554.662
560.2488, 3555.233
560.7309, 3554.404
561.2130, 3549.359
561.6951, 3548.172
562.1772, 3552.170
562.6594, 3561.651
563.1415, 3578.722
563.6236, 3614.779
564.1057, 3644.225
564.5878, 3654.745
565.0699, 3642.495
565.5521, 3630.021
566.0342, 3616.094
566.5163, 3604.334
566.9984, 3599.270
567.4805, 3600.789
567.9626, 3603.701
568.4448, 3606.742
568.9269, 3611.080
569.4090, 3619.134
569.8911, 3630.383
570.3732, 3642.925
570.8553, 3660.411
571.3375, 3675.787
571.8196, 3680.253
572.3017, 3674.051
572.7838, 3664.944
573.2659, 3651.447
573.7480, 3639.996
574.2302, 3635.307
574.7123, 3638.977
575.1944, 3648.120
575.6765, 3679.313
576.1586, 3709.625
576.6407, 3704.184
577.1229, 3623.395
577.6050, 3578.021
578.0871, 3601.682
578.5692, 3676.334
579.0513, 3711.329
579.5334, 3699.207
580.0156, 3682.702
580.4977, 3691.165
580.9798, 3718.041
581.4619, 3721.703
581.9440, 3699.721
582.4261, 3674.112
582.9083, 3669.980
583.3904, 3676.974
583.8725, 3674.531
584.3546, 3652.911
584.8367, 3630.261
585.3188, 3615.184
585.8010, 3608.662
586.2831, 3612.395
586.7652, 3631.305
587.2473, 3656.380
587.7294, 3692.089
588.2115, 3737.363
588.6937, 3759.957
589.1758, 3741.874
589.6579, 3719.454
590.1400, 3710.521
590.6221, 3719.811
591.1042, 3723.994
591.5864, 3722.329
592.0685, 3717.005
592.5506, 3707.172
593.0327, 3693.292
593.5148, 3691.197
593.9969, 3709.732
594.4791, 3732.422
594.9612, 3725.513
595.4433, 3697.567
595.9254, 3680.023
596.4075, 3703.978
596.8896, 3735.824
597.3718, 3739.035
597.8539, 3715.643
598.3360, 3701.346
598.8181, 3721.928
599.3002, 3751.011
599.7823, 3771.170
600.2645, 3778.303
600.7466, 3780.843
601.2287, 3770.727
601.7108, 3761.610
602.1929, 3771.562
602.6750, 3815.089
603.1572, 3839.172
603.6393, 3830.671
604.1214, 3802.066
604.6035, 3782.865
605.0856, 3772.992
605.5677, 3773.949
606.0499, 3795.452
606.5320, 3826.402
607.0141, 3834.871
607.4962, 3822.215
607.9783, 3811.376
608.4604, 3827.409
608.9425, 3850.672
609.4246, 3856.724
609.9067, 3836.765
610.3889, 3818.820
610.8710, 3815.184
611.3531, 3820.605
611.8352, 3829.091
612.3173, 3847.347
612.7994, 3859.232
613.2816, 3862.398
613.7637, 3858.336
614.2458, 3850.518
614.7279, 3837.693
615.2100, 3824.200
615.6921, 3809.637
616.1743, 3795.199
616.6564, 3792.028
617.1385, 3800.799
617.6206, 3812.648
618.1027, 3826.191
618.5848, 3837.097
619.0670, 3833.027
619.5491, 3811.005
620.0312, 3786.876
620.5133, 3768.610
620.9954, 3757.514
621.4775, 3755.696
621.9597, 3775.309
622.4418, 3789.244
622.9239, 3787.706
623.4060, 3774.108
623.8881, 3755.759
624.3702, 3721.957
624.8524, 3698.054
625.3345, 3697.276
625.8166, 3715.637
626.2987, 3701.275
626.7808, 3641.910
627.2629, 3588.015
627.7451, 3577.183
628.2272, 3603.853
628.7093, 3613.125
629.1914, 3602.044
629.6735, 3587.051
630.1556, 3585.926
630.6378, 3592.566
631.1199, 3596.414
631.6020, 3595.693
632.0841, 3590.140
632.5662, 3574.021
633.0483, 3554.063
633.5305, 3541.225
634.0126, 3560.628
634.4947, 3564.784
634.9768, 3523.631
635.4589, 3449.830
635.9410, 3416.162
636.4232, 3447.874
636.9053, 3477.873
637.3874, 3474.598
637.8695, 3438.056
638.3516, 3430.641
638.8337, 3457.351
639.3159, 3486.808
639.7980, 3488.337
640.2801, 3470.536
640.7622, 3466.439
641.2443, 3483.093
641.7264, 3497.253
642.2086, 3477.188
642.6907, 3442.581
643.1728, 3424.157
643.6549, 3452.924
644.1370, 3473.429
644.6191, 3451.003
645.1013, 3403.964
645.5834, 3377.268
646.0655, 3407.796
646.5476, 3423.757
647.0297, 3397.724
647.5118, 3337.182
647.9940, 3323.680
648.4761, 3372.009
648.9582, 3423.017
649.4403, 3439.524
649.9224, 3425.614
650.4045, 3424.460
650.8867, 3438.262
651.3688, 3444.714
651.8509, 3408.041
652.3330, 3353.385
652.8151, 3326.927
653.2972, 3345.164
653.7794, 3371.116
654.2615, 3389.994
654.7436, 3400.063
655.2257, 3398.968
655.7078, 3367.814
656.1899, 3346.663
656.6721, 3346.776
657.1542, 3362.522
657.6363, 3381.014
658.1184, 3407.088
658.6005, 3424.636
659.0826, 3425.730
659.5648, 3413.283
660.0469, 3405.584
660.5290, 3402.873
661.0111, 3400.230
661.4932, 3395.148
661.9753, 3387.584
662.4575, 3375.609
662.9396, 3358.919
663.4217, 3345.475
663.9038, 3343.854
664.3859, 3347.071
664.8680, 3347.808
665.3502, 3342.128
665.8323, 3339.128
666.3144, 3349.750
666.7965, 3360.566
667.2786, 3352.143
667.7607, 3302.974
668.2429, 3277.061
668.7250, 3291.898
669.2071, 3329.272
669.6892, 3343.429
670.1713, 3333.484
670.6534, 3317.901
671.1355, 3300.268
671.6176, 3284.082
672.0997, 3278.040
672.5818, 3281.279
673.0640, 3288.278
673.5461, 3309.444
674.0282, 3323.660
674.5103, 3305.481
674.9924, 3250.861
675.4745, 3209.211
675.9567, 3209.104
676.4388, 3219.658
676.9209, 3218.620
677.4030, 3194.555
677.8851, 3186.240
678.3672, 3199.516
678.8494, 3221.059
679.3315, 3238.661
679.8136, 3252.487
680.2957, 3251.809
680.7778, 3231.170
681.2599, 3202.917
681.7421, 3182.049
682.2242, 3168.967
682.7063, 3165.815
683.1884, 3179.301
683.6705, 3197.420
684.1526, 3215.895
684.6348, 3232.241
685.1169, 3238.653
685.5990, 3222.420
686.0811, 3205.419
686.5632, 3195.259
687.0453, 3191.973
687.5275, 3194.181
688.0096, 3206.040
688.4917, 3216.103
688.9738, 3218.403
689.4559, 3212.904
689.9380, 3199.977
690.4202, 3178.030
690.9023, 3161.202
691.3844, 3170.032
691.8665, 3192.700
692.3486, 3205.003
692.8307, 3201.160
693.3129, 3194.149
693.7950, 3192.019
694.2771, 3192.257
694.7592, 3191.871
695.2413, 3187.797
695.7234, 3185.790
696.2056, 3187.805
696.6877, 3192.114
697.1698, 3196.153
697.6519, 3200.393
698.1340, 3204.544
698.6161, 3213.342
699.0983, 3218.951
699.5804, 3185.176
700.0625, 3115.894
700.5446, 3067.024
701.0267, 3086.289
701.5089, 3133.652
701.9910, 3156.624
702.4731, 3156.506
702.9552, 3145.463
703.4373, 3110.898
703.9194, 3082.500
704.4016, 3088.650
704.8837, 3142.721
705.3658, 3158.296
705.8479, 3092.760
706.3300, 3023.707
706.8121, 2999.895
707.2943, 3030.429
707.7764, 3067.742
708.2585, 3115.065
708.7406, 3157.798
709.2227, 3181.948
709.7048, 3187.593
710.1870, 3169.170
710.6691, 3117.047
711.1512, 3066.429
711.6333, 3056.609
712.1154, 3068.178
712.5975, 3070.409
713.0797, 3031.454
713.5618, 3005.645
714.0439, 3020.585
714.5260, 3059.860
715.0081, 3081.775
715.4902, 3078.297
715.9724, 3070.802
716.4545, 3063.391
716.9366, 3055.885
717.4187, 3046.163
717.9008, 3033.896
718.3829, 3027.309
718.8651, 3034.817
719.3472, 3049.234
719.8293, 3059.596
720.3114, 3065.630
720.7935, 3066.182
721.2756, 3048.704
721.7578, 3034.294
722.2399, 3042.380
722.7220, 3078.622
723.2041, 3104.084
723.6862, 3109.583
724.1683, 3105.932
724.6505, 3097.942
725.1326, 3084.615
725.6147, 3070.497
726.0968, 3054.576
726.5789, 3040.941
727.0610, 3034.223
727.5432, 3033.558
728.0253, 3036.781
728.5074, 3044.845
728.9895, 3050.865
729.4716, 3045.269
729.9537, 3034.357
730.4359, 3027.440
730.9180, 3032.458
731.4001, 3034.560
731.8822, 3023.608
732.3643, 3008.836
732.8464, 3008.677
733.3285, 3038.907
733.8106, 3048.320
734.2927, 3017.467
734.7748, 2968.830
735.2570, 2963.630
735.7391, 2999.943
736.2212, 3029.995
736.7033, 3024.770
737.1854, 3009.432
737.6675, 3029.162
738.1497, 3073.034
738.6318, 3100.838
739.1139, 3081.042
739.5960, 3050.267
740.0781, 3022.070
740.5602, 2997.870
741.0424, 2990.044
741.5245, 3014.391
742.0066, 3034.221
742.4887, 3030.318
742.9708, 3002.890
743.4529, 2993.631
743.9351, 3005.098
744.4172, 3016.438
744.8993, 3007.817
745.3814, 2987.408
745.8635, 2971.987
746.3456, 2962.541
746.8278, 2961.527
747.3099, 2978.108
747.7920, 2999.356
748.2741, 3014.486
748.7562, 3021.860
749.2383, 3022.711
749.7205, 3019.000
750.2026, 3007.898
750.6847, 2984.414
751.1668, 2943.386
751.6489, 2913.656
752.1310, 2898.903
752.6132, 2891.272
753.0953, 2871.865
753.5774, 2849.237
754.0595, 2859.872
754.5416, 2925.567
755.0237, 2994.305
755.5059, 3029.342
755.9880, 3036.232
756.4701, 3024.283
756.9522, 2968.468
757.4343, 2926.721
757.9164, 2917.197
758.3986, 2927.315
758.8807, 2934.962
759.3628, 2937.755
759.8449, 2946.980
760.3270, 2969.759
760.8091, 2996.182
761.2913, 3000.834
761.7734, 2986.423
762.2555, 2969.764
762.7376, 2957.329
763.2197, 2947.512
763.7018, 2941.829
764.1840, 2938.050
764.6661, 2928.143
765.1482, 2893.125
765.6303, 2867.743
766.1124, 2871.639
766.5945, 2899.885
767.0767, 2912.620
767.5588, 2900.976
768.0409, 2897.129
768.5230, 2923.831
769.0051, 2970.455
769.4872, 2981.303
769.9694, 2958.529
770.4515, 2942.439
770.9336, 2981.025
771.4157, 3028.686
771.8978, 3027.330
772.3799, 2974.540
772.8621, 2935.203
773.3442, 2948.914
773.8263, 2969.988
774.3084, 2970.506
774.7905, 2944.970
775.2726, 2933.198
775.7548, 2936.284
776.2369, 2950.924
776.7190, 2986.049
777.2011, 3034.984
777.6832, 3042.673
778.1653, 3004.140
778.6475, 2965.224
779.1296, 2974.258
779.6117, 3001.806
780.0938, 3010.477
780.5759, 2987.226
781.0580, 2971.832
781.5402, 2988.739
782.0223, 3010.985
782.5044, 3014.759
782.9865, 2987.915
783.4686, 2973.843
783.9507, 2974.921
784.4329, 2984.978
784.9150, 3001.558
785.3971, 3022.385
785.8792, 3034.486
786.3613, 3035.495
786.8434, 3029.497
787.3256, 3012.031
787.8077, 2993.274
788.2898, 2987.509
788.7719, 3010.569
789.2540, 3026.854
789.7361, 3023.834
790.2183, 3011.442
790.7004, 3000.977
791.1825, 2993.019
791.6646, 2983.940
792.1467, 2971.744
792.6288, 2961.164
793.1110, 2963.210
793.5930, 2974.106
794.0751, 2978.682
794.5573, 2972.263
795.0394, 2958.380
795.5215, 2926.355
796.0036, 2892.515
796.4857, 2883.183
796.9678, 2947.103
797.4500, 2985.012
797.9321, 2962.498
798.4142, 2912.637
798.8963, 2900.943
799.3784, 2938.505
799.8605, 2959.709
800.3427, 2945.798
800.8248, 2914.166
801.3069, 2889.401
801.7890, 2872.959
802.2711, 2870.034
802.7532, 2900.702
803.2354, 2925.139
803.7175, 2908.322
804.1996, 2866.724
804.6817, 2838.739
805.1638, 2842.735
805.6459, 2848.223
806.1281, 2848.502
806.6102, 2847.812
807.0923, 2862.229
807.5744, 2893.363
808.0565, 2914.550
808.5386, 2915.164
809.0208, 2902.127
809.5029, 2873.780
809.9850, 2839.727
810.4671, 2830.397
810.9492, 2894.730
811.4313, 2952.273
811.9135, 2959.409
812.3956, 2926.596
812.8777, 2898.349
813.3598, 2871.568
813.8419, 2860.345
814.3240, 2877.596
814.8062, 2908.720
815.2883, 2896.396
815.7704, 2843.746
816.2525, 2800.964
816.7346, 2796.760
817.2167, 2811.012
817.6989, 2822.653
818.1810, 2832.688
818.6631, 2844.574
819.1452, 2868.150
819.6273, 2885.269
820.1094, 2886.640
820.5916, 2875.667
821.0737, 2864.115
821.5558, 2852.833
822.0379, 2837.678
822.5200, 2812.215
823.0021, 2785.363
823.4843, 2785.131
823.9664, 2807.358
824.4485, 2829.682
824.9306, 2842.143
825.4127, 2848.063
825.8948, 2851.002
826.3770, 2849.842
826.8591, 2839.940
827.3412, 2800.210
827.8233, 2775.854
828.3054, 2786.258
828.7875, 2820.533
829.2697, 2823.722
829.7518, 2792.782
830.2339, 2766.475
830.7160, 2764.837
831.1981, 2776.040
831.6802, 2779.601
832.1624, 2777.961
832.6445, 2779.857
833.1266, 2793.065
833.6087, 2807.483
834.0908, 2823.095
834.5729, 2836.833
835.0551, 2833.563
835.5372, 2801.778
836.0193, 2778.248
836.5014, 2777.632
836.9835, 2791.823
837.4656, 2792.164
837.9478, 2780.607
838.4299, 2772.799
838.9120, 2785.375
839.3941, 2798.422
839.8762, 2788.837
840.3583, 2763.511
840.8405, 2745.015
841.3226, 2740.632
841.8047, 2744.587
842.2868, 2760.698
842.7689, 2783.077
843.2510, 2788.145
843.7332, 2773.789
844.2153, 2757.007
844.6974, 2740.070
845.1795, 2728.475
845.6616, 2736.205
846.1437, 2758.544
846.6259, 2781.038
847.1080, 2804.593
847.5901, 2818.688
848.0722, 2812.469
848.5543, 2792.236
849.0364, 2778.338
849.5186, 2768.990
850.0007, 2772.771
850.4828, 2799.631
850.9649, 2833.104
851.4470, 2824.812
851.9291, 2781.702
852.4113, 2750.523
852.8934, 2754.439
853.3755, 2771.054
853.8576, 2786.026
854.3397, 2797.877
854.8218, 2803.875
855.3040, 2798.689
855.7860, 2793.025
856.2681, 2787.897
856.7502, 2783.870
857.2324, 2781.877
857.7145, 2781.873
858.1966, 2784.363
858.6787, 2789.883
859.1608, 2796.986
859.6429, 2802.213
860.1251, 2807.590
860.6072, 2818.005
861.0893, 2842.566
861.5714, 2862.070
862.0535, 2866.101
862.5356, 2861.823
863.0178, 2862.093
863.4999, 2872.022
863.9820, 2871.037
864.4641, 2853.497
864.9462, 2830.932
865.4283, 2819.366
865.9105, 2817.569
866.3926, 2823.055
866.8747, 2838.519
867.3568, 2850.987
867.8389, 2845.351
868.3210, 2833.626
868.8032, 2829.677
869.2853, 2849.390
869.7674, 2855.672
870.2495, 2840.635
870.7316, 2822.055
871.2137, 2824.380
871.6959, 2845.591
872.1780, 2848.379
872.6601, 2826.118
873.1422, 2802.028
873.6243, 2795.314
874.1064, 2801.189
874.5886, 2817.240
875.0707, 2850.168
875.5528, 2867.972
876.0349, 2847.912
876.5170, 2822.694
876.9991, 2813.898
877.4813, 2824.475
877.9634, 2832.715
878.4455, 2838.062
878.9276, 2844.065
879.4097, 2859.119
879.8918, 2874.929
880.3740, 2874.835
880.8561, 2857.208
881.3382, 2840.828
881.8203, 2836.020
882.3024, 2834.274
882.7845, 2828.763
883.2667, 2818.529
883.7488, 2820.236
884.2309, 2837.917
884.7130, 2853.870
885.1951, 2851.741
885.6772, 2839.994
886.1594, 2848.122
886.6415, 2873.200
887.1236, 2893.009
887.6057, 2888.693
888.0878, 2879.855
888.5699, 2878.249
889.0521, 2883.985
889.5342, 2888.769
890.0163, 2887.589
890.4984, 2895.857
890.9805, 2922.710
891.4626, 2960.769
891.9448, 2990.315
892.4269, 3010.067
892.9090, 3013.762
893.3911, 2984.516
893.8732, 2949.796
894.3553, 2926.264
894.8375, 2913.792
895.3196, 2912.969
895.8017, 2930.242
896.2838, 2951.614
896.7659, 2981.071
897.2480, 3008.628
897.7302, 3009.386
898.2123, 2985.515
898.6944, 2964.130
899.1765, 2951.090
899.6586, 2947.705
900.1407, 2966.882
900.6229, 2993.409
901.1050, 3003.490
901.5871, 2966.571
902.0692, 2949.496
902.5513, 2974.648
903.0334, 3008.090
903.5156, 3007.521
903.9977, 2970.409
904.4798, 2950.248
904.9619, 2953.859
905.4440, 2967.915
905.9261, 2980.148
906.4083, 2993.191
906.8904, 3013.133
907.3725, 3044.213
907.8546, 3066.420
908.3367, 3067.296
908.8188, 3062.360
909.3010, 3060.901
909.7831, 3063.411
910.2652, 3064.931
910.7473, 3065.524
911.2294, 3064.789
911.7115, 3060.928
912.1937, 3056.220
912.6758, 3053.186
913.1579, 3052.233
913.6400, 3055.791
914.1221, 3071.630
914.6042, 3085.322
915.0864, 3087.162
915.5685, 3079.873
916.0506, 3087.409
916.5327, 3113.619
917.0148, 3131.106
917.4969, 3119.490
917.9790, 3099.499
918.4611, 3115.036
918.9432, 3154.917
919.4254, 3185.402
919.9075, 3181.830
920.3896, 3176.760
920.8717, 3181.672
921.3538, 3193.883
921.8359, 3209.667
922.3181, 3232.004
922.8002, 3242.534
923.2823, 3232.931
923.7644, 3221.146
924.2465, 3242.671
924.7286, 3281.747
925.2108, 3301.263
925.6929, 3275.896
926.1750, 3267.054
926.6571, 3328.121
927.1392, 3402.815
927.6213, 3431.320
928.1035, 3392.082
928.5856, 3380.951
929.0677, 3406.822
929.5498, 3433.278
930.0319, 3410.562
930.5140, 3367.181
930.9962, 3370.950
931.4783, 3428.927
931.9604, 3480.728
932.4425, 3488.239
932.9246, 3486.196
933.4067, 3496.385
933.8889, 3518.885
934.3710, 3537.556
934.8531, 3552.463
935.3352, 3562.431
935.8173, 3564.437
936.2994, 3562.091
936.7816, 3562.300
937.2637, 3564.892
937.7458, 3569.254
938.2279, 3562.683
938.7100, 3570.934
939.1921, 3628.295
939.6743, 3704.835
940.1564, 3723.561
940.6385, 3665.164
941.1206, 3631.140
941.6027, 3648.319
942.0848, 3687.401
942.5670, 3702.105
943.0491, 3703.260
943.5312, 3716.488
944.0133, 3759.712
944.4954, 3791.080
944.9775, 3784.675
945.4597, 3763.676
945.9418, 3750.879
946.4239, 3748.659
946.9060, 3743.323
947.3881, 3732.445
947.8702, 3729.004
948.3524, 3755.817
948.8345, 3794.195
949.3166, 3809.126
949.7987, 3798.385
950.2808, 3787.385
950.7629, 3789.341
951.2451, 3792.265
951.7272, 3787.613
952.2093, 3776.996
952.6914, 3782.856
953.1735, 3807.846
953.6556, 3826.130
954.1378, 3819.895
954.6199, 3804.457
955.1020, 3800.353
955.5841, 3806.143
956.0662, 3817.988
956.5483, 3845.832
957.0305, 3865.490
957.5126, 3868.160
957.9947, 3861.132
958.4768, 3852.508
958.9589, 3841.453
959.4410, 3846.170
959.9232, 3873.553
960.4053, 3901.786
960.8874, 3906.434
961.3695, 3896.884
961.8516, 3882.603
962.3337, 3859.136
962.8159, 3854.317
963.2980, 3881.649
963.7801, 3920.125
964.2622, 3965.272
964.7443, 4017.220
965.2264, 4025.063
965.7086, 3988.796
966.1907, 3956.234
966.6728, 3955.852
967.1549, 3978.709
967.6370, 4027.788
968.1191, 4096.839
968.6013, 4148.615
969.0834, 4173.276
969.5655, 4184.175
970.0476, 4180.886
970.5297, 4168.864
971.0118, 4159.201
971.4940, 4152.418
971.9761, 4151.719
972.4582, 4159.076
972.9403, 4170.884
973.4224, 4181.893
973.9045, 4196.861
974.3867, 4222.372
974.8688, 4264.894
975.3509, 4310.537
975.8330, 4365.728
976.3151, 4410.099
976.7972, 4414.375
977.2794, 4390.986
977.7615, 4378.088
978.2436, 4378.601
978.7257, 4394.541
979.2078, 4442.740
979.6899, 4492.952
980.1720, 4525.937
980.6541, 4541.730
981.1362, 4554.704
981.6183, 4563.176
982.1005, 4575.598
982.5826, 4595.334
983.0647, 4621.126
983.5468, 4652.016
984.0289, 4686.795
984.5110, 4721.570
984.9932, 4761.911
985.4753, 4793.944
985.9574, 4801.337
986.4395, 4805.173
986.9216, 4836.108
987.4037, 4900.845
987.8859, 4930.018
988.3680, 4910.967
988.8501, 4893.762
989.3322, 4948.534
989.8143, 5024.987
990.2964, 5052.365
990.7786, 5016.957
991.2607, 4994.770
991.7428, 5011.370
992.2249, 5034.574
992.7070, 5048.304
993.1891, 5057.709
993.6713, 5097.488
994.1534, 5164.963
994.6355, 5230.773
995.1176, 5284.863
995.5997, 5326.234
996.0818, 5351.023
996.5640, 5363.229
997.0461, 5369.737
997.5282, 5362.367
998.0103, 5369.320
998.4924, 5399.179
998.9745, 5432.731
999.4567, 5437.935
999.9388, 5426.001
1000.421, 5435.565
1000.903, 5474.931
1001.385, 5506.130
1001.867, 5489.246
1002.349, 5469.599
1002.831, 5483.728
1003.314, 5531.835
1003.796, 5565.674
1004.278, 5584.179
1004.760, 5596.464
1005.242, 5610.676
1005.724, 5619.238
1006.206, 5602.440
1006.688, 5569.726
1007.171, 5546.558
1007.653, 5551.451
1008.135, 5554.451
1008.617, 5543.641
1009.099, 5532.894
1009.581, 5549.551
1010.063, 5592.307
1010.545, 5605.935
1011.027, 5579.959
1011.510, 5552.377
1011.992, 5565.959
1012.474, 5589.354
1012.956, 5589.292
1013.438, 5557.203
1013.920, 5539.805
1014.402, 5546.634
1014.884, 5551.030
1015.367, 5539.359
1015.849, 5516.564
1016.331, 5493.583
1016.813, 5472.103
1017.295, 5458.642
1017.777, 5468.342
1018.259, 5473.522
1018.741, 5458.552
1019.223, 5433.508
1019.706, 5411.479
1020.188, 5390.421
1020.670, 5388.321
1021.152, 5410.937
1021.634, 5432.924
1022.116, 5419.307
1022.598, 5392.067
1023.080, 5387.604
1023.563, 5412.667
1024.045, 5410.891
1024.527, 5334.646
1025.009, 5273.699
1025.491, 5268.373
1025.973, 5303.670
1026.455, 5320.700
1026.937, 5321.020
1027.419, 5315.752
1027.901, 5308.198
1028.384, 5299.029
1028.866, 5286.155
1029.348, 5273.092
1029.830, 5265.348
1030.312, 5262.760
1030.794, 5269.609
1031.276, 5290.926
1031.758, 5306.134
1032.241, 5290.046
1032.723, 5254.400
1033.205, 5215.784
1033.687, 5176.620
1034.169, 5147.545
1034.651, 5133.942
1035.133, 5132.037
1035.615, 5146.571
1036.098, 5169.454
1036.580, 5163.327
1037.062, 5130.478
1037.544, 5114.541
1038.026, 5141.121
1038.508, 5168.453
1038.990, 5156.991
1039.472, 5123.084
1039.954, 5087.688
1040.437, 5047.040
1040.919, 5021.212
1041.401, 5011.392
1041.883, 5013.142
1042.365, 5034.701
1042.847, 5062.224
1043.329, 5054.948
1043.811, 5016.663
1044.293, 4981.346
1044.776, 4969.809
1045.258, 4959.320
1045.740, 4938.355
1046.222, 4913.838
1046.704, 4905.125
1047.186, 4912.518
1047.668, 4910.423
1048.150, 4890.470
1048.633, 4869.858
1049.115, 4861.673
1049.597, 4864.794
1050.079, 4880.800
1050.561, 4916.683
1051.043, 4940.033
1051.525, 4949.326
1052.007, 4947.936
1052.490, 4936.817
1052.972, 4916.725
1053.454, 4881.416
1053.936, 4837.271
1054.418, 4808.553
1054.900, 4811.876
1055.382, 4826.918
1055.864, 4861.807
1056.346, 4895.237
1056.828, 4891.970
1057.311, 4850.568
1057.793, 4826.559
1058.275, 4827.263
1058.757, 4834.639
1059.239, 4842.133
1059.721, 4841.833
1060.203, 4825.314
1060.685, 4791.358
1061.168, 4748.035
1061.650, 4683.345
1062.132, 4645.215
1062.614, 4659.089
1063.096, 4699.720
1063.578, 4722.754
1064.060, 4730.778
1064.542, 4731.716
1065.025, 4737.765
1065.507, 4717.836
1065.989, 4620.656
1066.471, 4531.160
1066.953, 4527.562
1067.435, 4611.070
1067.917, 4645.598
1068.399, 4630.542
1068.881, 4603.731
1069.364, 4580.027
1069.846, 4564.734
1070.328, 4574.101
1070.810, 4596.193
1071.292, 4582.305
1071.774, 4512.077
1072.256, 4470.065
1072.738, 4477.689
1073.220, 4501.797
1073.703, 4497.546
1074.185, 4477.723
1074.667, 4464.179
1075.149, 4461.967
1075.631, 4455.609
1076.113, 4440.936
1076.595, 4421.492
1077.077, 4398.926
1077.559, 4373.022
1078.042, 4338.708
1078.524, 4298.659
1079.006, 4265.836
1079.488, 4244.129
1079.970, 4234.813
1080.452, 4249.662
1080.934, 4271.838
1081.416, 4280.497
1081.899, 4276.626
1082.381, 4247.516
1082.863, 4188.711
1083.345, 4137.053
1083.827, 4135.854
1084.309, 4150.054
1084.791, 4138.040
1085.273, 4102.195
1085.755, 4073.646
1086.238, 4055.272
1086.720, 4049.228
1087.202, 4061.607
1087.684, 4076.881
1088.166, 4060.446
1088.648, 4026.917
1089.130, 4016.073
1089.612, 4040.618
1090.094, 4063.730
1090.577, 4070.074
1091.059, 4069.900
1091.541, 4069.979
1092.023, 4069.247
1092.505, 4051.774
1092.987, 4019.923
1093.469, 4001.531
1093.951, 4021.561
1094.434, 4044.662
1094.916, 4040.781
1095.398, 4025.004
1095.880, 4022.424
1096.362, 4041.788
1096.844, 4046.541
1097.326, 4033.930
1097.808, 4016.787
1098.291, 4005.368
1098.773, 3996.615
1099.255, 3986.924
1099.737, 3976.221
1100.219, 3965.470
1100.701, 3953.692
1101.183, 3943.995
1101.665, 3937.156
1102.147, 3932.257
1102.630, 3925.031
1103.112, 3918.725
1103.594, 3925.804
1104.076, 3951.214
1104.558, 3968.504
1105.040, 3959.753
1105.522, 3943.816
1106.004, 3928.691
1106.486, 3915.150
1106.969, 3909.149
1107.451, 3910.521
1107.933, 3919.209
1108.415, 3945.399
1108.897, 3961.715
1109.379, 3936.750
1109.861, 3895.339
1110.343, 3871.638
1110.826, 3877.497
1111.308, 3853.346
1111.790, 3793.085
1112.272, 3745.399
1112.754, 3754.873
1113.236, 3791.350
1113.718, 3830.676
1114.200, 3865.809
1114.682, 3873.138
1115.165, 3820.020
1115.647, 3795.656
1116.129, 3819.358
1116.611, 3857.284
1117.093, 3865.844
1117.575, 3854.957
1118.057, 3845.602
1118.539, 3840.289
1119.021, 3833.080
1119.504, 3820.155
1119.986, 3806.525
1120.468, 3792.502
1120.950, 3779.873
1121.432, 3773.899
1121.914, 3774.142
1122.396, 3778.869
1122.878, 3790.055
1123.361, 3798.332
1123.843, 3792.728
1124.325, 3786.210
1124.807, 3788.705
1125.289, 3800.234
1125.771, 3823.556
1126.253, 3858.714
1126.735, 3880.340
1127.218, 3863.311
1127.700, 3837.821
1128.182, 3824.183
1128.664, 3821.939
1129.146, 3832.761
1129.628, 3866.796
1130.110, 3877.707
1130.592, 3860.537
1131.074, 3835.042
1131.557, 3809.542
1132.039, 3791.898
1132.521, 3798.180
1133.003, 3824.409
1133.485, 3847.833
1133.967, 3871.321
1134.449, 3876.637
1134.931, 3854.498
1135.413, 3826.210
1135.896, 3828.065
1136.378, 3846.798
1136.860, 3851.968
1137.342, 3837.893
1137.824, 3831.166
1138.306, 3863.181
1138.788, 3876.810
1139.270, 3843.763
1139.752, 3783.017
1140.235, 3749.857
1140.717, 3740.322
1141.199, 3739.579
1141.681, 3744.966
1142.163, 3752.946
1142.645, 3766.651
1143.127, 3777.688
1143.609, 3778.255
1144.092, 3769.095
1144.574, 3773.275
1145.056, 3788.968
1145.538, 3788.030
1146.020, 3733.879
1146.502, 3749.517
1146.984, 3755.114
1147.466, 3751.213
1147.948, 3709.360
1148.431, 3716.498
1148.913, 3704.013
1149.395, 3690.721
1149.877, 3704.773
1150.359, 3668.440
1150.841, 3682.058
1151.323, 3675.736
1151.805, 3678.539
1152.287, 3661.583
1152.770, 3650.715
1153.252, 3659.630
1153.734, 3628.127
1154.216, 3624.237
1154.698, 3621.470
1155.180, 3618.983
1155.662, 3618.122
1156.144, 3618.778
1156.627, 3607.633
1157.109, 3578.444
1157.591, 3550.612
1158.073, 3529.111
1158.555, 3512.752
1159.037, 3494.281
1159.519, 3480.585
1160.001, 3489.904
1160.484, 3534.905
1160.966, 3558.569
1161.448, 3540.167
1161.930, 3514.972
1162.412, 3496.134
1162.894, 3483.638
1163.376, 3479.730
1163.858, 3482.261
1164.340, 3485.342
1164.823, 3492.213
1165.305, 3489.058
1165.787, 3467.732
1166.269, 3440.524
1166.751, 3412.484
1167.233, 3385.388
1167.715, 3373.351
1168.197, 3375.221
1168.679, 3383.916
1169.162, 3408.367
1169.644, 3423.497
1170.126, 3411.302
1170.608, 3390.417
1171.090, 3380.555
1171.572, 3381.158
1172.054, 3380.738
1172.536, 3378.733
1173.019, 3379.774
1173.501, 3397.308
1173.983, 3408.027
1174.465, 3387.960
1174.947, 3355.154
1175.429, 3348.644
1175.911, 3368.992
1176.393, 3376.566
1176.875, 3364.706
1177.358, 3349.630
1177.840, 3343.680
1178.322, 3340.627
1178.804, 3336.903
1179.286, 3332.037
1179.768, 3322.661
1180.250, 3308.062
1180.732, 3302.684
1181.214, 3311.758
1181.697, 3325.608
1182.179, 3343.779
1182.661, 3356.028
1183.143, 3351.049
1183.625, 3328.132
1184.107, 3292.599
1184.589, 3241.273
1185.071, 3203.166
1185.554, 3191.553
1186.036, 3194.824
1186.518, 3211.621
1187.000, 3229.694
1187.482, 3229.737
1187.964, 3203.908
1188.446, 3189.889
1188.928, 3189.832
1189.411, 3189.540
1189.893, 3180.868
1190.375, 3167.487
1190.857, 3148.614
1191.339, 3130.121
1191.821, 3124.287
1192.303, 3144.287
1192.785, 3150.911
1193.267, 3142.645
1193.750, 3126.131
1194.232, 3096.713
1194.714, 3068.874
1195.196, 3070.177
1195.678, 3089.930
1196.160, 3093.612
1196.642, 3060.802
1197.124, 3042.853
1197.606, 3045.635
1198.089, 3056.523
1198.571, 3069.114
1199.053, 3077.799
1199.535, 3068.472
1200.017, 3044.870
1200.499, 3034.043
1200.981, 3050.816
1201.463, 3058.262
1201.945, 3048.182
1202.428, 3033.900
1202.910, 3030.158
1203.392, 3034.553
1203.874, 3050.074
1204.356, 3075.677
1204.838, 3075.956
1205.320, 3023.967
1205.802, 2993.442
1206.285, 3006.635
1206.767, 3039.976
1207.249, 3067.309
1207.731, 3084.029
1208.213, 3074.719
1208.695, 3032.097
1209.177, 3016.009
1209.659, 3051.175
1210.141, 3073.957
1210.624, 3056.653
1211.106, 3022.879
1211.588, 3016.161
1212.070, 3024.503
1212.552, 3024.232
1213.034, 3006.267
1213.516, 2996.266
1213.998, 2998.135
1214.480, 3005.517
1214.963, 3019.712
1215.445, 3033.082
1215.927, 3027.190
1216.409, 3008.530
1216.891, 2989.024
1217.373, 2964.295
1217.855, 2961.704
1218.337, 2994.614
1218.820, 3022.022
1219.302, 3009.336
1219.784, 2980.128
1220.266, 2993.004
1220.748, 3031.115
1221.230, 3054.900
1221.712, 3042.940
1222.194, 3029.908
1222.677, 3018.478
1223.159, 3004.488
1223.641, 2975.224
1224.123, 2945.625
1224.605, 2953.512
1225.087, 2987.192
1225.569, 3011.485
1226.051, 3005.991
1226.533, 3005.353
1227.016, 3014.770
1227.498, 3020.945
1227.980, 3005.476
1228.462, 2981.615
1228.944, 2975.250
1229.426, 2982.643
1229.908, 2984.979
1230.390, 2968.701
1230.872, 2964.324
1231.355, 2978.212
1231.837, 2994.650
1232.319, 2999.073
1232.801, 2993.485
1233.283, 2973.542
1233.765, 2943.699
1234.247, 2931.507
1234.729, 2946.626
1235.212, 2969.900
1235.694, 3002.893
1236.176, 3029.757
1236.658, 3025.505
1237.140, 3006.443
1237.622, 2990.923
1238.104, 2981.623
1238.586, 2987.058
1239.068, 3018.340
1239.551, 3028.115
1240.033, 3000.553
1240.515, 2970.011
1240.997, 2988.297
1241.479, 3022.543
1241.961, 3024.660
1242.443, 2992.660
1242.925, 2994.115
1243.407, 3043.371
1243.890, 3077.058
1244.372, 3076.491
1244.854, 3063.894
1245.336, 3060.627
1245.818, 3063.760
1246.300, 3075.256
1246.782, 3094.781
1247.264, 3088.051
1247.747, 3048.649
1248.229, 3022.485
1248.711, 3026.374
1249.193, 3040.033
1249.675, 3049.653
1250.157, 3052.190
1250.639, 3038.249
1251.121, 3008.436
1251.604, 3004.452
1252.086, 3028.685
1252.568, 3020.400
1253.050, 3040.094
1253.532, 3049.654
1254.014, 3049.622
1254.496, 3011.273
1254.978, 3022.403
1255.460, 3013.705
1255.943, 3004.185
1256.425, 3022.279
1256.907, 2989.503
1257.389, 3007.159
1257.871, 3004.684
1258.353, 3026.718
1258.835, 3046.732
1259.317, 3033.094
1259.799, 2988.527
1260.281, 2983.206
1260.764, 3012.300
1261.246, 3031.306
1261.728, 3016.233
1262.210, 2996.730
1262.692, 2981.353
1263.174, 2975.927
1263.656, 2989.110
1264.138, 3017.246
1264.621, 3027.430
1265.103, 3022.361
1265.585, 3015.496
1266.067, 3013.712
1266.549, 3009.370
1267.031, 2992.865
1267.513, 2980.442
1267.995, 2987.250
1268.478, 3007.461
1268.960, 3016.247
1269.442, 3013.999
1269.924, 3002.095
1270.406, 2956.811
1270.888, 2943.367
1271.370, 2986.616
1271.852, 3033.069
1272.334, 3035.176
1272.817, 3010.595
1273.299, 3004.116
1273.781, 3013.970
1274.263, 3034.862
1274.745, 3094.458
1275.227, 3112.845
1275.709, 3073.164
1276.191, 3029.350
1276.673, 3027.160
1277.156, 3047.095
1277.638, 3064.552
1278.120, 3075.635
1278.602, 3070.690
1279.084, 3037.858
1279.566, 3009.630
1280.048, 2983.938
1280.530, 2976.648
1281.013, 3018.868
1281.495, 3070.391
1281.977, 3082.733
1282.459, 3070.240
1282.941, 3068.286
1283.423, 3083.385
1283.905, 3088.605
1284.387, 3082.475
1284.870, 3072.641
1285.352, 3055.528
1285.834, 3046.453
1286.316, 3067.175
1286.798, 3099.493
1287.280, 3110.721
1287.762, 3099.718
1288.244, 3087.455
1288.726, 3075.291
1289.208, 3067.862
1289.691, 3075.851
##END=



