##NAMES=Bergslagite
##RRUFFID=R060243
##IDEAL CHEMISTRY=CaBe(As^5+^O_4_)(OH)
##LOCALITY=Langban mine dump, Langban, Filipstad, Varmland, Sweden
##OWNER=RRUFF
##SOURCE=Michael Scott
##DESCRIPTION=Colorless crystalline crust with reddish-brown massive tilasite and black aegirine
##STATUS=The identification of this mineral is confirmed by single-crystal X-ray diffraction and chemical analysis.
##URL=rruff.info/R060243
##MEASURED CHEMISTRY=Ca_1.00_Be_1.00_As_1.00_O_4_(OH) ; Be not analyzed but estimated by stoichiometry
119.8634, 1131.900
120.3455, 1174.990
120.8276, 1228.181
121.3097, 1294.105
121.7919, 1376.089
122.2740, 1465.467
122.7561, 1553.391
123.2382, 1641.128
123.7203, 1733.696
124.2024, 1827.524
124.6846, 1926.872
125.1667, 2050.589
125.6488, 2207.748
126.1309, 2385.031
126.6130, 2577.049
127.0951, 2780.372
127.5773, 2980.284
128.0594, 3155.449
128.5415, 3307.074
129.0236, 3484.223
129.5057, 3708.588
129.9878, 3946.936
130.4700, 4180.236
130.9521, 4407.631
131.4342, 4638.853
131.9163, 4883.319
132.3984, 5143.064
132.8805, 5403.146
133.3627, 5674.412
133.8448, 5936.389
134.3269, 6182.790
134.8090, 6411.031
135.2911, 6620.597
135.7732, 6803.994
136.2554, 6948.554
136.7375, 7107.521
137.2196, 7276.733
137.7017, 7464.154
138.1838, 7672.288
138.6659, 7902.524
139.1481, 8162.078
139.6302, 8459.788
140.1123, 8809.003
140.5944, 9180.051
141.0765, 9553.421
141.5586, 9955.477
142.0408, 10405.65
142.5229, 10906.62
143.0050, 11445.72
143.4871, 12003.50
143.9692, 12588.20
144.4513, 13177.38
144.9335, 13767.06
145.4156, 14362.99
145.8977, 14973.58
146.3798, 15599.89
146.8619, 16226.90
147.3440, 16823.67
147.8261, 17383.05
148.3083, 17918.51
148.7904, 18441.76
149.2725, 18934.05
149.7546, 19385.44
150.2367, 19791.92
150.7188, 20146.54
151.2010, 20433.51
151.6831, 20633.46
152.1652, 20789.42
152.6473, 20891.30
153.1294, 20953.97
153.6115, 20996.12
154.0937, 21024.50
154.5758, 21028.75
155.0579, 20981.89
155.5400, 20859.81
156.0221, 20741.16
156.5042, 20630.20
156.9864, 20531.80
157.4685, 20454.20
157.9506, 20401.00
158.4327, 20366.38
158.9148, 20343.54
159.3969, 20339.13
159.8791, 20326.16
160.3612, 20267.34
160.8433, 20199.96
161.3254, 20198.65
161.8075, 20299.33
162.2896, 20447.32
162.7718, 20541.54
163.2539, 20572.81
163.7360, 20605.14
164.2181, 20659.72
164.7002, 20730.69
165.1823, 20807.23
165.6645, 20889.44
166.1466, 20969.44
166.6287, 21034.60
167.1108, 21085.57
167.5929, 21127.64
168.0750, 21160.25
168.5572, 21185.52
169.0393, 21207.88
169.5214, 21225.27
170.0035, 21245.59
170.4856, 21281.34
170.9677, 21333.88
171.4499, 21384.16
171.9320, 21423.39
172.4141, 21452.85
172.8962, 21474.30
173.3783, 21480.88
173.8604, 21489.98
174.3426, 21518.33
174.8247, 21565.23
175.3068, 21627.43
175.7889, 21711.00
176.2710, 21810.44
176.7531, 21899.92
177.2353, 21955.45
177.7174, 22025.94
178.1995, 22164.63
178.6816, 22368.34
179.1637, 22573.33
179.6458, 22734.60
180.1280, 22862.32
180.6101, 23013.25
181.0922, 23219.98
181.5743, 23422.07
182.0564, 23559.12
182.5385, 23638.98
183.0207, 23729.87
183.5028, 23885.11
183.9849, 24093.42
184.4670, 24282.70
184.9491, 24422.38
185.4312, 24569.93
185.9134, 24762.74
186.3955, 24996.70
186.8776, 25250.63
187.3597, 25514.92
187.8418, 25788.28
188.3239, 26070.47
188.8061, 26366.42
189.2882, 26665.88
189.7703, 26958.64
190.2524, 27246.80
190.7345, 27540.58
191.2166, 27854.77
191.6988, 28184.06
192.1809, 28485.17
192.6630, 28747.24
193.1451, 28993.99
193.6272, 29251.85
194.1093, 29509.24
194.5915, 29733.06
195.0736, 29881.71
195.5557, 29973.82
196.0378, 30111.25
196.5199, 30323.04
197.0020, 30539.94
197.4842, 30733.97
197.9663, 30908.18
198.4484, 31067.05
198.9305, 31209.43
199.4126, 31338.95
199.8947, 31473.66
200.3769, 31612.88
200.8590, 31759.09
201.3411, 31910.32
201.8232, 32068.11
202.3053, 32235.36
202.7874, 32416.78
203.2696, 32607.13
203.7517, 32792.99
204.2338, 32981.55
204.7159, 33149.95
205.1980, 33274.12
205.6801, 33382.21
206.1623, 33512.57
206.6444, 33685.38
207.1265, 33887.44
207.6086, 34091.64
208.0907, 34312.25
208.5728, 34503.17
209.0549, 34634.91
209.5371, 34740.39
210.0192, 34855.51
210.5013, 34996.52
210.9834, 35146.54
211.4655, 35268.50
211.9476, 35345.29
212.4298, 35435.46
212.9119, 35576.28
213.3940, 35724.71
213.8761, 35842.66
214.3582, 35917.52
214.8403, 35962.32
215.3225, 35993.73
215.8046, 36008.66
216.2867, 36019.72
216.7688, 36028.23
217.2509, 36034.80
217.7330, 36041.81
218.2152, 36049.60
218.6973, 36051.88
219.1794, 36039.07
219.6615, 36008.20
220.1436, 35975.46
220.6257, 35945.77
221.1079, 35913.29
221.5900, 35863.06
222.0721, 35797.30
222.5542, 35748.68
223.0363, 35767.67
223.5184, 35866.94
224.0006, 35927.08
224.4827, 35919.02
224.9648, 35880.70
225.4469, 35817.71
225.9290, 35736.79
226.4111, 35656.61
226.8933, 35598.69
227.3754, 35563.55
227.8575, 35515.53
228.3396, 35441.31
228.8217, 35366.31
229.3038, 35295.40
229.7860, 35232.30
230.2681, 35184.84
230.7502, 35164.27
231.2323, 35166.78
231.7144, 35162.76
232.1965, 35153.27
232.6787, 35134.41
233.1608, 35096.30
233.6429, 35049.39
234.1250, 35013.19
234.6071, 35000.36
235.0892, 35005.33
235.5714, 35006.09
236.0535, 34988.30
236.5356, 34995.47
237.0177, 35052.12
237.4998, 35138.06
237.9819, 35230.79
238.4641, 35324.64
238.9462, 35413.49
239.4283, 35481.55
239.9104, 35518.16
240.3925, 35565.05
240.8746, 35645.07
241.3568, 35738.13
241.8389, 35824.50
242.3210, 35895.85
242.8031, 35969.39
243.2852, 36067.20
243.7673, 36190.73
244.2495, 36330.21
244.7316, 36491.95
245.2137, 36664.44
245.6958, 36843.98
246.1779, 37030.43
246.6600, 37212.58
247.1422, 37363.12
247.6243, 37483.32
248.1064, 37660.95
248.5885, 37958.13
249.0706, 38278.53
249.5527, 38530.60
250.0349, 38718.71
250.5170, 38941.56
250.9991, 39289.30
251.4812, 39737.91
251.9633, 40154.94
252.4454, 40502.87
252.9276, 40858.25
253.4097, 41273.32
253.8918, 41741.44
254.3739, 42238.27
254.8560, 42741.34
255.3382, 43266.84
255.8203, 43856.43
256.3024, 44521.00
256.7845, 45219.84
257.2666, 45947.42
257.7487, 46684.81
258.2308, 47402.17
258.7130, 48080.60
259.1951, 48741.14
259.6772, 49414.97
260.1593, 50106.18
260.6414, 50778.65
261.1235, 51400.52
261.6057, 51996.18
262.0878, 52621.94
262.5699, 53299.29
263.0520, 53975.83
263.5341, 54584.81
264.0162, 55138.98
264.4984, 55762.26
264.9805, 56511.23
265.4626, 57349.36
265.9447, 58203.52
266.4268, 59067.54
266.9089, 59959.73
267.3911, 60893.73
267.8732, 61859.96
268.3553, 62832.00
268.8374, 63799.18
269.3195, 64776.59
269.8016, 65808.73
270.2838, 66890.61
270.7659, 67956.46
271.2480, 68948.22
271.7301, 69929.63
272.2122, 71010.19
272.6943, 72218.83
273.1765, 73436.60
273.6586, 74548.51
274.1407, 75554.34
274.6228, 76554.70
275.1049, 77572.70
275.5870, 78583.30
276.0692, 79557.55
276.5513, 80501.57
277.0334, 81463.71
277.5155, 82493.23
277.9976, 83576.40
278.4797, 84578.62
278.9619, 85471.53
279.4440, 86324.91
279.9261, 87197.74
280.4082, 88055.22
280.8903, 88791.46
281.3724, 89349.66
281.8546, 89785.02
282.3367, 90260.88
282.8188, 90864.96
283.3009, 91384.09
283.7830, 91809.10
284.2651, 92128.10
284.7473, 92316.35
285.2294, 92367.84
285.7115, 92326.46
286.1936, 92260.75
286.6757, 92201.59
287.1578, 92030.02
287.6400, 91738.14
288.1221, 91351.95
288.6042, 90880.13
289.0863, 90326.66
289.5684, 89702.79
290.0505, 89021.88
290.5327, 88288.75
291.0148, 87445.00
291.4969, 86434.12
291.9790, 85374.00
292.4611, 84297.95
292.9432, 83204.09
293.4254, 82065.41
293.9075, 80864.02
294.3896, 79608.47
294.8717, 78386.68
295.3538, 77242.55
295.8359, 76064.67
296.3181, 74827.89
296.8002, 73555.95
297.2823, 72277.60
297.7644, 70996.67
298.2465, 69743.08
298.7286, 68575.21
299.2108, 67521.21
299.6929, 66464.72
300.1750, 65382.98
300.6571, 64305.11
301.1392, 63240.38
301.6213, 62187.18
302.1035, 61172.81
302.5856, 60223.00
303.0677, 59338.41
303.5498, 58484.89
304.0319, 57684.05
304.5140, 56895.98
304.9962, 56094.87
305.4783, 55292.82
305.9604, 54517.48
306.4425, 53780.89
306.9246, 53087.46
307.4067, 52452.21
307.8889, 51892.82
308.3710, 51353.22
308.8531, 50803.02
309.3352, 50260.32
309.8173, 49751.54
310.2994, 49287.50
310.7816, 48847.18
311.2637, 48413.26
311.7458, 47986.23
312.2279, 47556.63
312.7100, 47108.34
313.1921, 46670.09
313.6743, 46276.27
314.1564, 45930.52
314.6385, 45599.14
315.1206, 45266.53
315.6027, 44936.01
316.0848, 44609.85
316.5670, 44285.98
317.0491, 43976.84
317.5312, 43695.61
318.0133, 43440.29
318.4954, 43216.37
318.9775, 43060.86
319.4597, 42912.17
319.9418, 42703.80
320.4239, 42444.90
320.9060, 42206.01
321.3881, 42037.43
321.8702, 41928.89
322.3524, 41815.77
322.8345, 41680.15
323.3166, 41561.66
323.7987, 41480.52
324.2808, 41422.57
324.7629, 41364.41
325.2451, 41297.05
325.7272, 41227.09
326.2093, 41165.29
326.6914, 41104.19
327.1735, 41068.83
327.6556, 41071.99
328.1378, 41090.80
328.6199, 41113.48
329.1020, 41136.03
329.5841, 41152.71
330.0662, 41152.60
330.5483, 41130.26
331.0305, 41158.70
331.5126, 41309.93
331.9947, 41436.96
332.4768, 41477.31
332.9589, 41466.94
333.4410, 41471.60
333.9232, 41528.28
334.4053, 41619.16
334.8874, 41692.78
335.3695, 41740.36
335.8516, 41787.16
336.3337, 41840.60
336.8159, 41893.82
337.2980, 41940.29
337.7801, 41978.79
338.2622, 42014.60
338.7443, 42056.47
339.2264, 42105.11
339.7086, 42141.40
340.1907, 42169.29
340.6728, 42175.30
341.1549, 42149.95
341.6370, 42097.71
342.1191, 42034.29
342.6013, 41965.72
343.0834, 41891.54
343.5655, 41803.23
344.0476, 41693.55
344.5297, 41607.52
345.0118, 41586.54
345.4940, 41600.73
345.9761, 41598.43
346.4582, 41572.88
346.9403, 41533.04
347.4224, 41488.75
347.9045, 41436.06
348.3867, 41357.66
348.8688, 41243.47
349.3509, 41113.25
349.8330, 41001.00
350.3151, 40914.50
350.7972, 40797.05
351.2794, 40601.50
351.7615, 40393.72
352.2436, 40245.25
352.7257, 40157.83
353.2078, 40068.85
353.6899, 39922.15
354.1721, 39720.40
354.6542, 39566.44
355.1363, 39491.60
355.6184, 39419.10
356.1005, 39324.64
356.5826, 39216.82
357.0648, 39106.56
357.5469, 38998.03
358.0290, 38901.36
358.5111, 38841.29
358.9932, 38846.86
359.4753, 38837.36
359.9575, 38793.99
360.4396, 38750.85
360.9217, 38741.58
361.4038, 38760.42
361.8859, 38767.20
362.3680, 38721.78
362.8502, 38626.11
363.3322, 38536.96
363.8144, 38465.73
364.2965, 38385.45
364.7786, 38302.07
365.2607, 38201.45
365.7428, 38059.49
366.2249, 37862.52
366.7071, 37635.41
367.1892, 37409.18
367.6713, 37181.24
368.1534, 36973.20
368.6355, 36792.79
369.1176, 36632.70
369.5998, 36485.47
370.0819, 36351.30
370.5640, 36221.22
371.0461, 36080.41
371.5282, 35941.93
372.0103, 35829.74
372.4925, 35745.36
372.9746, 35694.77
373.4567, 35693.80
373.9388, 35735.13
374.4209, 35767.77
374.9030, 35789.19
375.3852, 35801.90
375.8673, 35787.77
376.3494, 35765.44
376.8315, 35786.02
377.3136, 35874.31
377.7957, 36000.15
378.2779, 36105.85
378.7600, 36175.09
379.2421, 36254.23
379.7242, 36344.31
380.2063, 36444.00
380.6884, 36551.39
381.1706, 36667.28
381.6527, 36792.09
382.1348, 36926.25
382.6169, 37069.53
383.0990, 37225.15
383.5811, 37406.50
384.0633, 37584.77
384.5454, 37763.28
385.0275, 37931.69
385.5096, 38078.04
385.9917, 38197.78
386.4738, 38295.80
386.9560, 38378.53
387.4381, 38444.32
387.9202, 38500.73
388.4023, 38542.22
388.8844, 38579.92
389.3665, 38616.01
389.8487, 38653.00
390.3308, 38699.30
390.8129, 38788.68
391.2950, 38883.36
391.7771, 38895.08
392.2592, 38812.67
392.7414, 38719.15
393.2235, 38671.89
393.7056, 38635.87
394.1877, 38537.69
394.6698, 38343.67
395.1519, 38149.01
395.6341, 38004.96
396.1162, 37894.10
396.5983, 37780.21
397.0804, 37653.62
397.5625, 37532.75
398.0446, 37442.25
398.5268, 37390.00
399.0089, 37328.13
399.4910, 37254.68
399.9731, 37174.25
400.4552, 37075.16
400.9373, 36971.53
401.4195, 36893.87
401.9016, 36859.86
402.3837, 36860.12
402.8658, 36866.00
403.3479, 36873.44
403.8300, 36894.52
404.3122, 36947.39
404.7943, 37000.02
405.2764, 37024.64
405.7585, 37021.51
406.2406, 37015.06
406.7227, 37024.67
407.2049, 37050.28
407.6870, 37092.06
408.1691, 37155.55
408.6512, 37226.73
409.1333, 37300.33
409.6154, 37376.73
410.0976, 37455.32
410.5797, 37532.43
411.0618, 37620.62
411.5439, 37738.55
412.0260, 37881.57
412.5081, 38017.00
412.9903, 38132.05
413.4724, 38245.76
413.9545, 38381.85
414.4366, 38539.02
414.9187, 38700.27
415.4008, 38848.39
415.8830, 39011.53
416.3651, 39237.21
416.8472, 39508.97
417.3293, 39743.12
417.8114, 39886.36
418.2935, 39967.30
418.7757, 40082.35
419.2578, 40243.79
419.7399, 40425.42
420.2220, 40641.48
420.7041, 40867.18
421.1862, 41076.48
421.6684, 41268.99
422.1505, 41469.01
422.6326, 41705.22
423.1147, 41977.33
423.5968, 42221.11
424.0789, 42408.32
424.5611, 42604.66
425.0432, 42848.69
425.5253, 43104.21
426.0074, 43317.73
426.4895, 43467.10
426.9716, 43603.87
427.4538, 43803.80
427.9359, 44062.07
428.4180, 44266.13
428.9001, 44364.36
429.3822, 44454.09
429.8643, 44631.50
430.3465, 44879.95
430.8286, 45128.11
431.3107, 45387.66
431.7928, 45617.27
432.2749, 45766.77
432.7570, 45847.84
433.2392, 45915.16
433.7213, 45991.09
434.2034, 46075.73
434.6855, 46170.72
435.1676, 46294.36
435.6497, 46391.63
436.1319, 46456.96
436.6140, 46496.79
437.0961, 46511.88
437.5782, 46505.18
438.0603, 46484.43
438.5424, 46455.78
439.0246, 46418.51
439.5067, 46365.35
439.9888, 46275.92
440.4709, 46203.07
440.9530, 46178.34
441.4352, 46160.26
441.9173, 46116.01
442.3994, 46037.23
442.8815, 45922.27
443.3636, 45753.89
443.8457, 45541.54
444.3279, 45344.36
444.8100, 45161.24
445.2921, 45003.21
445.7742, 44908.43
446.2563, 44841.04
446.7384, 44722.36
447.2206, 44510.63
447.7027, 44284.99
448.1848, 44097.22
448.6669, 43935.43
449.1490, 43773.37
449.6311, 43601.52
450.1133, 43430.71
450.5954, 43277.08
451.0775, 43151.73
451.5596, 42989.23
452.0417, 42735.93
452.5238, 42500.76
453.0060, 42348.97
453.4881, 42253.71
453.9702, 42158.25
454.4523, 42035.01
454.9344, 41895.28
455.4165, 41766.76
455.8987, 41659.79
456.3808, 41533.51
456.8629, 41342.95
457.3450, 41167.42
457.8271, 41051.00
458.3092, 40987.84
458.7914, 40947.04
459.2735, 40915.28
459.7556, 40892.25
460.2377, 40878.50
460.7198, 40874.48
461.2019, 40875.45
461.6841, 40890.29
462.1662, 40898.74
462.6483, 40861.46
463.1304, 40767.39
463.6125, 40689.95
464.0946, 40678.44
464.5768, 40675.17
465.0589, 40624.83
465.5410, 40523.71
466.0231, 40389.70
466.5052, 40233.21
466.9873, 40055.54
467.4695, 39865.91
467.9516, 39652.51
468.4337, 39439.75
468.9158, 39218.08
469.3979, 39004.77
469.8800, 38819.86
470.3622, 38661.19
470.8443, 38510.02
471.3264, 38347.94
471.8085, 38177.80
472.2906, 38009.48
472.7727, 37831.96
473.2549, 37684.06
473.7370, 37638.24
474.2191, 37608.13
474.7012, 37473.90
475.1833, 37190.24
475.6654, 36952.95
476.1476, 36938.26
476.6297, 37041.52
477.1118, 37052.25
477.5939, 36939.01
478.0760, 36800.79
478.5581, 36712.70
479.0403, 36670.02
479.5224, 36614.20
480.0045, 36534.12
480.4866, 36457.24
480.9687, 36398.64
481.4508, 36341.96
481.9330, 36260.49
482.4151, 36151.98
482.8972, 36049.39
483.3793, 35993.84
483.8614, 35987.66
484.3435, 35947.64
484.8257, 35842.27
485.3078, 35748.41
485.7899, 35692.50
486.2720, 35660.13
486.7541, 35637.29
487.2362, 35622.07
487.7183, 35603.05
488.2004, 35576.14
488.6826, 35537.75
489.1647, 35468.30
489.6468, 35358.52
490.1289, 35248.82
490.6110, 35169.84
491.0931, 35120.31
491.5753, 35078.65
492.0574, 35049.11
492.5395, 35022.21
493.0216, 35007.41
493.5037, 34988.35
493.9858, 34929.62
494.4680, 34827.78
494.9501, 34733.31
495.4322, 34711.63
495.9143, 34770.07
496.3964, 34784.26
496.8785, 34725.79
497.3607, 34654.77
497.8428, 34575.24
498.3249, 34497.65
498.8070, 34434.06
499.2891, 34388.28
499.7712, 34353.01
500.2534, 34344.01
500.7355, 34345.07
501.2176, 34271.18
501.6997, 34098.28
502.1818, 33899.40
502.6639, 33708.14
503.1461, 33532.95
503.6282, 33399.81
504.1103, 33327.25
504.5924, 33273.42
505.0745, 33235.80
505.5566, 33202.02
506.0388, 33145.65
506.5209, 33065.62
507.0030, 33000.66
507.4851, 32993.71
507.9672, 33044.69
508.4493, 33078.45
508.9315, 33082.78
509.4136, 33085.09
509.8957, 33077.95
510.3778, 33078.67
510.8599, 33109.25
511.3420, 33173.26
511.8242, 33245.68
512.3063, 33297.72
512.7884, 33339.04
513.2705, 33413.73
513.7526, 33532.62
514.2347, 33638.86
514.7169, 33690.34
515.1990, 33708.10
515.6811, 33751.87
516.1632, 33828.11
516.6453, 33916.34
517.1274, 33992.66
517.6096, 34087.92
518.0917, 34259.21
518.5738, 34496.90
519.0559, 34717.25
519.5380, 34849.21
520.0201, 34911.60
520.5023, 35022.15
520.9844, 35210.78
521.4665, 35396.96
521.9486, 35582.52
522.4307, 35752.07
522.9128, 35872.01
523.3950, 35953.01
523.8771, 36069.03
524.3592, 36297.77
524.8413, 36587.14
525.3234, 36831.97
525.8055, 37031.82
526.2877, 37209.47
526.7698, 37361.18
527.2519, 37512.25
527.7340, 37711.83
528.2161, 37968.76
528.6982, 38227.06
529.1804, 38491.81
529.6625, 38746.01
530.1446, 38968.97
530.6267, 39170.12
531.1088, 39371.50
531.5909, 39584.58
532.0731, 39809.05
532.5552, 40050.97
533.0373, 40324.54
533.5194, 40569.98
534.0015, 40748.18
534.4836, 40930.38
534.9658, 41160.97
535.4479, 41423.91
535.9300, 41678.36
536.4121, 41905.87
536.8942, 42123.63
537.3763, 42349.90
537.8585, 42581.58
538.3406, 42797.39
538.8227, 42987.91
539.3048, 43182.00
539.7869, 43417.13
540.2690, 43700.81
540.7512, 43924.71
541.2333, 44059.86
541.7154, 44176.92
542.1975, 44300.11
542.6796, 44417.09
543.1617, 44513.12
543.6439, 44583.34
544.1260, 44629.55
544.6081, 44658.07
545.0902, 44667.30
545.5723, 44624.39
546.0544, 44504.00
546.5366, 44390.75
547.0187, 44339.98
547.5008, 44310.35
547.9829, 44246.78
548.4650, 44138.12
548.9471, 44028.60
549.4293, 43949.84
549.9114, 43875.04
550.3935, 43760.10
550.8756, 43610.09
551.3577, 43478.86
551.8398, 43400.63
552.3220, 43358.42
552.8041, 43302.38
553.2862, 43249.49
553.7683, 43149.29
554.2504, 42948.18
554.7325, 42753.47
555.2147, 42638.70
555.6968, 42582.46
556.1789, 42514.21
556.6610, 42395.38
557.1431, 42252.92
557.6252, 42122.66
558.1074, 42003.50
558.5895, 41893.51
559.0716, 41800.47
559.5537, 41693.79
560.0358, 41534.67
560.5179, 41322.13
561.0001, 41132.05
561.4822, 40994.41
561.9643, 40845.34
562.4464, 40650.96
562.9285, 40434.55
563.4106, 40224.14
563.8928, 40027.98
564.3749, 39842.14
564.8570, 39666.32
565.3391, 39498.66
565.8212, 39304.07
566.3033, 39069.40
566.7855, 38837.57
567.2676, 38618.19
567.7497, 38413.01
568.2318, 38230.55
568.7139, 38073.12
569.1960, 37905.46
569.6782, 37709.03
570.1603, 37496.55
570.6424, 37267.00
571.1245, 37029.28
571.6066, 36818.86
572.0887, 36655.52
572.5709, 36518.05
573.0530, 36368.58
573.5351, 36206.07
574.0172, 36030.54
574.4993, 35814.11
574.9814, 35613.30
575.4636, 35462.55
575.9457, 35339.65
576.4278, 35206.53
576.9099, 35048.87
577.3920, 34884.72
577.8741, 34738.83
578.3563, 34603.26
578.8384, 34436.25
579.3205, 34226.23
579.8026, 34035.93
580.2847, 33915.45
580.7668, 33848.64
581.2490, 33763.20
581.7311, 33677.98
582.2132, 33549.63
582.6953, 33338.82
583.1774, 33109.02
583.6595, 32903.89
584.1417, 32728.57
584.6238, 32571.13
585.1059, 32427.17
585.5880, 32290.51
586.0701, 32146.83
586.5522, 31995.36
587.0344, 31838.97
587.5165, 31666.44
587.9986, 31504.65
588.4807, 31396.07
588.9628, 31322.46
589.4449, 31206.48
589.9271, 30982.71
590.4092, 30772.72
590.8913, 30645.02
591.3734, 30564.79
591.8555, 30487.21
592.3376, 30399.79
592.8198, 30301.21
593.3019, 30189.19
593.7840, 30065.08
594.2661, 29940.22
594.7482, 29819.07
595.2303, 29688.76
595.7125, 29524.29
596.1946, 29365.83
596.6767, 29247.21
597.1588, 29167.07
597.6409, 29099.84
598.1230, 29052.17
598.6052, 28998.25
599.0873, 28901.65
599.5694, 28776.57
600.0515, 28668.06
600.5336, 28591.04
601.0157, 28529.60
601.4979, 28466.93
601.9800, 28405.11
602.4621, 28319.34
602.9442, 28166.42
603.4263, 28044.09
603.9084, 27999.84
604.3906, 27978.92
604.8727, 27925.25
605.3548, 27829.80
605.8369, 27721.20
606.3190, 27603.92
606.8011, 27492.12
607.2833, 27419.54
607.7654, 27382.38
608.2475, 27330.97
608.7296, 27244.35
609.2117, 27135.67
609.6938, 27023.12
610.1760, 26901.75
610.6581, 26798.17
611.1402, 26727.87
611.6223, 26656.64
612.1044, 26553.39
612.5865, 26449.86
613.0687, 26404.91
613.5508, 26429.86
614.0329, 26444.70
614.5150, 26345.58
614.9971, 26176.54
615.4792, 26087.83
615.9614, 26088.05
616.4435, 26105.41
616.9256, 26114.88
617.4077, 26113.12
617.8898, 26091.80
618.3719, 26043.85
618.8541, 25999.46
619.3362, 25973.36
619.8183, 25937.04
620.3004, 25861.64
620.7825, 25770.15
621.2646, 25696.75
621.7468, 25653.60
622.2289, 25640.38
622.7110, 25675.00
623.1931, 25745.38
623.6752, 25767.78
624.1573, 25729.52
624.6395, 25691.51
625.1216, 25680.62
625.6037, 25690.10
626.0858, 25707.84
626.5679, 25734.01
627.0500, 25765.84
627.5322, 25795.07
628.0143, 25837.24
628.4964, 25920.71
628.9785, 26020.65
629.4606, 26081.82
629.9427, 26083.79
630.4249, 26072.58
630.9070, 26104.43
631.3891, 26177.66
631.8712, 26279.32
632.3533, 26423.97
632.8354, 26545.92
633.3176, 26592.16
633.7997, 26608.39
634.2818, 26686.70
634.7639, 26845.22
635.2460, 26985.53
635.7281, 27068.49
636.2103, 27144.63
636.6924, 27248.41
637.1745, 27372.58
637.6566, 27493.79
638.1387, 27603.67
638.6208, 27719.22
639.1030, 27875.32
639.5851, 28069.85
640.0672, 28206.83
640.5493, 28260.25
641.0314, 28332.84
641.5135, 28480.16
641.9957, 28669.87
642.4778, 28845.94
642.9599, 29005.25
643.4420, 29165.06
643.9241, 29334.74
644.4063, 29500.61
644.8884, 29646.39
645.3705, 29782.11
645.8526, 29926.61
646.3347, 30086.96
646.8168, 30259.38
647.2990, 30453.92
647.7811, 30665.83
648.2632, 30816.39
648.7453, 30893.65
649.2274, 30947.25
649.7095, 30982.66
650.1917, 31017.24
650.6738, 31080.58
651.1559, 31175.80
651.6380, 31270.39
652.1201, 31369.31
652.6022, 31456.76
653.0844, 31520.50
653.5665, 31567.41
654.0486, 31605.46
654.5307, 31638.57
655.0128, 31674.46
655.4949, 31730.22
655.9771, 31797.86
656.4592, 31824.13
656.9413, 31802.74
657.4234, 31772.01
657.9055, 31743.02
658.3876, 31714.68
658.8698, 31691.44
659.3519, 31675.33
659.8340, 31631.54
660.3161, 31542.54
660.7982, 31441.01
661.2803, 31335.38
661.7625, 31228.71
662.2446, 31122.35
662.7267, 31017.62
663.2088, 30918.76
663.6909, 30835.95
664.1730, 30758.01
664.6552, 30649.54
665.1373, 30509.98
665.6194, 30346.39
666.1015, 30146.98
666.5836, 29952.84
667.0657, 29817.17
667.5479, 29742.79
668.0300, 29628.43
668.5121, 29432.70
668.9942, 29250.40
669.4763, 29120.80
669.9584, 29006.70
670.4406, 28865.06
670.9227, 28696.90
671.4048, 28539.74
671.8868, 28423.74
672.3690, 28321.16
672.8511, 28171.54
673.3332, 27982.58
673.8153, 27828.69
674.2974, 27732.85
674.7795, 27631.59
675.2617, 27462.34
675.7438, 27238.94
676.2259, 27063.63
676.7080, 27003.83
677.1901, 26896.93
677.6722, 26709.75
678.1544, 26492.09
678.6365, 26263.77
679.1186, 26036.05
679.6007, 25827.62
680.0828, 25652.50
680.5649, 25482.64
681.0471, 25282.78
681.5292, 25066.29
682.0113, 24869.63
682.4934, 24697.16
682.9755, 24536.35
683.4576, 24380.36
683.9398, 24230.28
684.4219, 24090.01
684.9040, 23973.99
685.3861, 23834.88
685.8682, 23641.07
686.3503, 23456.81
686.8325, 23313.91
687.3146, 23193.65
687.7967, 23063.27
688.2788, 22912.19
688.7609, 22779.14
689.2430, 22704.48
689.7252, 22650.07
690.2073, 22563.94
690.6894, 22452.50
691.1715, 22356.28
691.6536, 22292.17
692.1357, 22233.37
692.6179, 22136.91
693.1000, 21998.76
693.5821, 21896.49
694.0642, 21846.90
694.5463, 21799.19
695.0284, 21737.16
695.5106, 21668.12
695.9927, 21599.36
696.4748, 21530.94
696.9569, 21459.27
697.4390, 21377.32
697.9211, 21298.57
698.4033, 21236.49
698.8854, 21180.79
699.3675, 21120.86
699.8496, 21051.65
700.3317, 20960.64
700.8138, 20829.96
701.2960, 20678.47
701.7781, 20566.51
702.2602, 20495.99
702.7423, 20433.77
703.2244, 20382.45
703.7065, 20316.39
704.1887, 20203.10
704.6708, 20052.77
705.1529, 19935.69
705.6350, 19892.56
706.1171, 19824.84
706.5992, 19704.23
707.0814, 19566.44
707.5635, 19426.45
708.0456, 19293.41
708.5277, 19186.67
709.0098, 19119.60
709.4919, 19049.19
709.9741, 18919.20
710.4562, 18748.84
710.9383, 18591.75
711.4204, 18452.31
711.9025, 18323.42
712.3846, 18201.04
712.8668, 18085.95
713.3489, 17979.32
713.8310, 17878.82
714.3131, 17795.45
714.7952, 17767.83
715.2773, 17709.42
715.7595, 17569.44
716.2416, 17400.78
716.7237, 17264.28
717.2058, 17166.77
717.6879, 17073.71
718.1700, 16973.71
718.6522, 16868.21
719.1343, 16750.41
719.6164, 16629.81
720.0985, 16531.11
720.5806, 16457.87
721.0627, 16384.73
721.5449, 16286.24
722.0270, 16171.42
722.5091, 16077.60
722.9912, 16008.94
723.4733, 15938.76
723.9554, 15863.92
724.4376, 15782.74
724.9197, 15696.67
725.4018, 15603.08
725.8839, 15490.75
726.3660, 15319.62
726.8481, 15192.96
727.3303, 15159.86
727.8124, 15151.23
728.2945, 15130.66
728.7766, 15089.73
729.2587, 15016.13
729.7408, 14902.05
730.2230, 14790.09
730.7051, 14727.87
731.1872, 14701.16
731.6693, 14682.55
732.1514, 14668.25
732.6335, 14633.42
733.1157, 14564.70
733.5978, 14481.50
734.0799, 14411.87
734.5620, 14356.31
735.0441, 14310.65
735.5262, 14283.73
736.0084, 14253.30
736.4905, 14214.98
736.9726, 14169.92
737.4547, 14112.00
737.9368, 14044.76
738.4189, 13993.93
738.9011, 13983.27
739.3832, 13973.63
739.8653, 13932.47
740.3474, 13883.61
740.8295, 13866.54
741.3116, 13878.38
741.7938, 13878.48
742.2759, 13837.89
742.7580, 13781.11
743.2401, 13758.92
743.7222, 13769.02
744.2043, 13762.66
744.6865, 13729.74
745.1686, 13705.88
745.6507, 13717.21
746.1328, 13745.17
746.6149, 13747.81
747.0970, 13714.24
747.5792, 13684.40
748.0613, 13639.10
748.5434, 13619.38
749.0255, 13667.77
749.5076, 13734.74
749.9897, 13756.98
750.4719, 13726.93
750.9540, 13692.06
751.4361, 13670.70
751.9182, 13663.90
752.4003, 13684.14
752.8824, 13717.46
753.3646, 13731.48
753.8467, 13720.79
754.3288, 13704.20
754.8109, 13696.06
755.2930, 13695.41
755.7751, 13701.08
756.2573, 13714.47
756.7394, 13721.93
757.2215, 13717.01
757.7036, 13717.02
758.1857, 13737.46
758.6678, 13769.59
759.1500, 13788.23
759.6321, 13786.78
760.1142, 13790.07
760.5963, 13814.13
761.0784, 13828.36
761.5605, 13798.38
762.0427, 13757.61
762.5248, 13759.33
763.0069, 13812.76
763.4890, 13869.67
763.9711, 13895.15
764.4532, 13907.38
764.9354, 13933.78
765.4175, 13966.58
765.8996, 13976.01
766.3817, 13957.26
766.8638, 13946.37
767.3459, 13976.67
767.8281, 14036.19
768.3102, 14079.42
768.7923, 14100.79
769.2744, 14135.10
769.7565, 14191.11
770.2386, 14252.76
770.7208, 14322.14
771.2029, 14386.34
771.6850, 14406.59
772.1671, 14350.92
772.6492, 14339.96
773.1313, 14427.21
773.6135, 14519.44
774.0956, 14574.07
774.5777, 14601.71
775.0598, 14617.69
775.5419, 14626.84
776.0240, 14635.04
776.5062, 14633.81
776.9883, 14643.27
777.4704, 14700.30
777.9525, 14787.36
778.4346, 14859.56
778.9167, 14906.99
779.3989, 14940.76
779.8810, 14966.58
780.3631, 14991.38
780.8452, 15042.87
781.3273, 15128.57
781.8094, 15178.76
782.2916, 15171.45
782.7737, 15164.22
783.2558, 15189.31
783.7379, 15236.05
784.2200, 15283.99
784.7021, 15335.53
785.1843, 15379.45
785.6664, 15412.66
786.1485, 15441.17
786.6306, 15469.14
787.1127, 15492.64
787.5948, 15503.54
788.0770, 15503.41
788.5591, 15508.54
789.0412, 15534.21
789.5233, 15560.73
790.0054, 15563.15
790.4875, 15556.37
790.9697, 15569.95
791.4518, 15604.73
791.9339, 15642.46
792.4160, 15673.43
792.8981, 15690.76
793.3802, 15676.20
793.8624, 15631.09
794.3445, 15593.66
794.8266, 15566.64
795.3087, 15542.76
795.7908, 15517.67
796.2729, 15496.67
796.7551, 15493.29
797.2372, 15514.24
797.7193, 15495.71
798.2014, 15388.51
798.6835, 15306.21
799.1656, 15281.97
799.6478, 15277.28
800.1299, 15276.64
800.6120, 15269.46
801.0941, 15224.31
801.5762, 15105.12
802.0583, 15002.32
802.5405, 14975.78
803.0226, 14979.12
803.5047, 14972.45
803.9868, 14951.98
804.4689, 14921.99
804.9510, 14884.22
805.4332, 14839.12
805.9153, 14788.22
806.3974, 14730.08
806.8795, 14651.98
807.3616, 14558.03
807.8438, 14491.15
808.3259, 14464.63
808.8080, 14455.79
809.2901, 14443.25
809.7722, 14429.91
810.2543, 14433.88
810.7365, 14464.98
811.2186, 14483.78
811.7007, 14481.40
812.1828, 14473.37
812.6649, 14465.60
813.1470, 14459.26
813.6292, 14457.40
814.1113, 14461.98
814.5934, 14463.31
815.0755, 14444.41
815.5576, 14439.81
816.0397, 14463.00
816.5219, 14510.66
817.0040, 14590.52
817.4861, 14694.37
817.9682, 14780.72
818.4503, 14819.15
818.9324, 14844.81
819.4146, 14892.92
819.8967, 14950.80
820.3788, 14988.64
820.8609, 15011.00
821.3430, 15056.11
821.8251, 15145.08
822.3073, 15248.45
822.7894, 15323.60
823.2715, 15372.87
823.7536, 15408.49
824.2357, 15427.11
824.7178, 15483.21
825.2000, 15598.54
825.6821, 15748.37
826.1642, 15915.44
826.6463, 16095.30
827.1284, 16231.71
827.6105, 16290.00
828.0927, 16373.00
828.5748, 16526.63
829.0569, 16670.26
829.5390, 16779.97
830.0211, 16844.36
830.5032, 16833.39
830.9854, 16726.43
831.4675, 16619.34
831.9496, 16543.44
832.4317, 16464.41
832.9138, 16368.10
833.3959, 16253.58
833.8781, 16110.70
834.3602, 15945.18
834.8423, 15791.32
835.3244, 15655.55
835.8065, 15559.90
836.2886, 15527.50
836.7708, 15550.93
837.2529, 15617.08
837.7350, 15724.73
838.2171, 15877.53
838.6992, 16076.86
839.1813, 16325.97
839.6635, 16634.10
840.1456, 16996.47
840.6277, 17396.65
841.1098, 17835.62
841.5919, 18289.69
842.0740, 18747.30
842.5562, 19243.52
843.0383, 19816.67
843.5204, 20463.35
844.0025, 21173.85
844.4846, 21963.46
844.9667, 22783.21
845.4489, 23584.06
845.9310, 24479.47
846.4131, 25588.15
846.8952, 26805.50
847.3773, 27982.05
847.8594, 29120.64
848.3416, 30200.56
848.8237, 31386.51
849.3058, 32308.82
849.7879, 32862.29
850.2700, 33056.64
850.7521, 32900.92
851.2343, 32399.88
851.7164, 31547.08
852.1985, 30279.06
852.6806, 28818.92
853.1627, 27203.43
853.6448, 25570.94
854.1270, 24041.70
854.6091, 22640.89
855.0912, 21372.46
855.5733, 20243.55
856.0554, 19244.82
856.5375, 18380.42
857.0197, 17639.05
857.5018, 16999.63
857.9839, 16459.39
858.4660, 16024.83
858.9481, 15695.64
859.4302, 15439.35
859.9124, 15237.23
860.3945, 15076.55
860.8766, 14931.54
861.3587, 14802.21
861.8408, 14690.93
862.3229, 14591.52
862.8051, 14532.92
863.2872, 14539.26
863.7693, 14568.51
864.2514, 14571.87
864.7335, 14550.73
865.2156, 14542.98
865.6978, 14542.91
866.1799, 14565.62
866.6620, 14639.64
867.1441, 14707.53
867.6262, 14724.57
868.1083, 14719.46
868.5905, 14743.36
869.0726, 14804.12
869.5547, 14879.20
870.0368, 14966.72
870.5189, 15061.89
871.0010, 15173.78
871.4832, 15284.28
871.9653, 15375.02
872.4474, 15444.81
872.9295, 15496.34
873.4116, 15520.41
873.8937, 15558.39
874.3759, 15700.98
874.8580, 15837.21
875.3401, 15812.59
875.8222, 15656.40
876.3043, 15466.09
876.7864, 15275.32
877.2686, 15075.92
877.7507, 14854.40
878.2328, 14625.14
878.7149, 14414.61
879.1970, 14222.69
879.6791, 14046.18
880.1613, 13885.22
880.6434, 13742.91
881.1255, 13621.66
881.6076, 13520.64
882.0897, 13442.03
882.5718, 13386.16
883.0540, 13322.29
883.5361, 13246.78
884.0182, 13186.90
884.5003, 13150.28
884.9824, 13133.95
885.4645, 13140.70
885.9467, 13163.74
886.4288, 13168.63
886.9109, 13146.85
887.3930, 13126.21
887.8751, 13100.38
888.3572, 13086.13
888.8394, 13094.77
889.3215, 13116.81
889.8036, 13146.08
890.2857, 13183.74
890.7678, 13194.83
891.2499, 13141.95
891.7321, 13110.32
892.2142, 13137.25
892.6963, 13174.13
893.1784, 13187.10
893.6605, 13182.72
894.1426, 13175.99
894.6248, 13166.89
895.1069, 13178.39
895.5890, 13241.77
896.0711, 13305.33
896.5532, 13336.93
897.0353, 13346.84
897.5175, 13343.06
897.9996, 13332.48
898.4817, 13331.04
898.9638, 13348.76
899.4459, 13371.08
899.9280, 13385.93
900.4102, 13396.86
900.8923, 13404.22
901.3744, 13412.65
901.8565, 13437.90
902.3386, 13481.97
902.8207, 13519.47
903.3029, 13524.02
903.7850, 13514.87
904.2671, 13530.42
904.7492, 13563.19
905.2313, 13581.88
905.7134, 13585.40
906.1956, 13604.81
906.6777, 13656.67
907.1598, 13712.27
907.6419, 13727.80
908.1240, 13710.72
908.6061, 13713.11
909.0883, 13735.66
909.5704, 13757.65
910.0525, 13772.69
910.5346, 13801.43
911.0167, 13863.76
911.4988, 13940.44
911.9810, 13982.76
912.4631, 13985.77
912.9452, 13977.80
913.4273, 13942.12
913.9094, 13946.24
914.3915, 14035.62
914.8737, 14133.55
915.3558, 14159.93
915.8379, 14127.75
916.3200, 14121.18
916.8021, 14148.96
917.2842, 14186.03
917.7664, 14233.05
918.2484, 14287.89
918.7305, 14368.59
919.2126, 14444.97
919.6948, 14472.77
920.1769, 14452.04
920.6590, 14445.66
921.1411, 14466.93
921.6232, 14492.01
922.1053, 14516.12
922.5875, 14542.81
923.0696, 14570.32
923.5517, 14603.85
924.0338, 14657.19
924.5159, 14734.68
924.9980, 14797.94
925.4802, 14819.98
925.9623, 14843.03
926.4444, 14891.89
926.9265, 14949.16
927.4086, 14998.27
927.8907, 15039.26
928.3729, 15077.34
928.8550, 15113.89
929.3371, 15150.63
929.8192, 15181.28
930.3013, 15219.84
930.7834, 15281.66
931.2656, 15358.39
931.7477, 15441.07
932.2298, 15525.39
932.7119, 15602.20
933.1940, 15666.03
933.6761, 15725.51
934.1583, 15788.19
934.6404, 15852.17
935.1225, 15912.70
935.6046, 15971.63
936.0867, 16030.91
936.5688, 16092.37
937.0510, 16164.23
937.5331, 16253.20
938.0152, 16353.04
938.4973, 16468.87
938.9794, 16584.14
939.4615, 16638.79
939.9437, 16645.01
940.4258, 16686.65
940.9079, 16793.63
941.3900, 16921.33
941.8721, 17024.54
942.3542, 17115.94
942.8364, 17225.52
943.3185, 17352.06
943.8006, 17496.77
944.2827, 17656.71
944.7648, 17786.51
945.2469, 17861.13
945.7291, 17918.97
946.2112, 18010.07
946.6933, 18129.25
947.1754, 18250.48
947.6575, 18373.27
948.1396, 18505.49
948.6218, 18649.54
949.1039, 18793.49
949.5860, 18931.54
950.0681, 19062.93
950.5502, 19182.22
951.0323, 19289.40
951.5145, 19436.69
951.9966, 19639.05
952.4787, 19799.37
952.9608, 19884.21
953.4429, 19964.45
953.9250, 20095.63
954.4072, 20249.61
954.8893, 20357.07
955.3714, 20409.02
955.8535, 20466.04
956.3356, 20525.00
956.8177, 20599.47
957.2999, 20706.12
957.7820, 20804.52
958.2641, 20850.04
958.7462, 20866.42
959.2283, 20938.85
959.7104, 21103.31
960.1926, 21211.72
960.6747, 21225.48
961.1568, 21251.44
961.6389, 21315.82
962.1210, 21412.94
962.6031, 21554.56
963.0853, 21726.05
963.5674, 21856.26
964.0495, 21914.95
964.5316, 21990.56
965.0137, 22083.68
965.4958, 22193.04
965.9780, 22335.31
966.4601, 22482.39
966.9422, 22597.01
967.4243, 22687.01
967.9064, 22808.62
968.3885, 22997.05
968.8707, 23163.71
969.3528, 23298.51
969.8349, 23417.18
970.3170, 23522.48
970.7991, 23617.72
971.2813, 23710.91
971.7634, 23799.88
972.2455, 23859.97
972.7276, 23865.71
973.2097, 23876.20
973.6918, 23908.13
974.1740, 23937.62
974.6561, 23949.97
975.1382, 23953.76
975.6203, 23968.70
976.1024, 23993.00
976.5845, 23981.79
977.0667, 23856.42
977.5488, 23795.10
978.0309, 23884.88
978.5130, 24003.22
978.9951, 24086.47
979.4772, 24142.94
979.9594, 24184.93
980.4415, 24215.97
980.9236, 24259.01
981.4057, 24301.32
981.8878, 24382.82
982.3699, 24546.76
982.8521, 24723.57
983.3342, 24856.99
983.8163, 24973.53
984.2984, 25130.33
984.7805, 25332.41
985.2626, 25501.54
985.7448, 25555.37
986.2269, 25644.90
986.7090, 25868.68
987.1911, 26111.57
987.6732, 26275.32
988.1553, 26398.54
988.6375, 26564.24
989.1196, 26785.25
989.6017, 26989.24
990.0838, 27132.93
990.5659, 27276.09
991.0480, 27451.78
991.5302, 27631.87
992.0123, 27774.58
992.4944, 27911.06
992.9765, 28105.88
993.4586, 28369.72
993.9407, 28637.82
994.4229, 28876.11
994.9050, 29120.10
995.3871, 29393.75
995.8692, 29671.67
996.3513, 29936.14
996.8334, 30184.63
997.3156, 30404.45
997.7977, 30595.36
998.2798, 30818.61
998.7619, 31121.63
999.2440, 31436.16
999.7261, 31735.88
1000.208, 32025.95
1000.690, 32282.30
1001.172, 32542.26
1001.655, 32893.77
1002.137, 33348.02
1002.619, 33760.77
1003.101, 34025.59
1003.583, 34287.87
1004.065, 34625.97
1004.547, 34991.95
1005.029, 35346.07
1005.512, 35693.69
1005.994, 36044.38
1006.476, 36402.07
1006.958, 36780.62
1007.440, 37211.82
1007.922, 37629.96
1008.404, 37969.81
1008.886, 38314.44
1009.368, 38747.17
1009.851, 39227.51
1010.333, 39668.09
1010.815, 40056.15
1011.297, 40473.17
1011.779, 40986.73
1012.261, 41488.88
1012.743, 41910.86
1013.225, 42325.22
1013.708, 42775.43
1014.190, 43265.61
1014.672, 43816.87
1015.154, 44420.63
1015.636, 44977.32
1016.118, 45402.44
1016.600, 45842.82
1017.082, 46367.69
1017.564, 46920.59
1018.047, 47451.83
1018.529, 47989.39
1019.011, 48578.48
1019.493, 49220.36
1019.975, 49862.63
1020.457, 50491.37
1020.939, 51113.61
1021.421, 51714.30
1021.904, 52324.66
1022.386, 52953.91
1022.868, 53613.74
1023.350, 54346.79
1023.832, 55136.72
1024.314, 55873.73
1024.796, 56483.72
1025.278, 57115.95
1025.760, 57798.55
1026.243, 58526.55
1026.725, 59332.71
1027.207, 60155.29
1027.689, 60908.10
1028.171, 61600.50
1028.653, 62334.36
1029.135, 63138.94
1029.617, 63961.12
1030.099, 64804.63
1030.582, 65652.62
1031.064, 66481.20
1031.546, 67323.88
1032.028, 68203.55
1032.510, 69130.18
1032.992, 70118.34
1033.474, 71204.11
1033.956, 72276.23
1034.439, 73322.92
1034.921, 74349.84
1035.403, 75275.77
1035.885, 76244.09
1036.367, 77397.97
1036.849, 78693.50
1037.331, 79975.11
1037.813, 81227.98
1038.296, 82489.58
1038.778, 83717.15
1039.260, 85009.60
1039.742, 86446.75
1040.224, 87911.81
1040.706, 89310.35
1041.188, 90676.77
1041.670, 92081.74
1042.152, 93528.35
1042.635, 95029.70
1043.117, 96608.04
1043.599, 98180.98
1044.081, 99695.87
1044.563, 101261.5
1045.045, 102944.6
1045.527, 104724.2
1046.009, 106594.9
1046.491, 108557.3
1046.974, 110451.6
1047.456, 112221.7
1047.938, 114106.6
1048.420, 116162.7
1048.902, 118268.0
1049.384, 120355.1
1049.866, 122490.0
1050.348, 124779.0
1050.830, 127209.6
1051.313, 129648.6
1051.795, 132099.2
1052.277, 134601.3
1052.759, 137155.3
1053.241, 139711.2
1053.723, 142220.8
1054.205, 144838.0
1054.687, 147761.1
1055.170, 150898.6
1055.652, 153940.8
1056.134, 156877.5
1056.616, 159891.4
1057.098, 162997.1
1057.580, 166245.3
1058.062, 169654.1
1058.544, 173215.7
1059.026, 176959.0
1059.509, 180797.1
1059.991, 184522.6
1060.473, 188173.1
1060.955, 192011.1
1061.437, 196024.5
1061.919, 200067.9
1062.401, 204128.8
1062.883, 208409.0
1063.365, 213088.7
1063.848, 217935.1
1064.330, 222500.3
1064.812, 227015.4
1065.294, 232048.1
1065.776, 237488.2
1066.258, 242847.7
1066.740, 248091.0
1067.222, 253453.8
1067.705, 259090.6
1068.187, 264905.6
1068.669, 270755.6
1069.151, 276797.1
1069.633, 283395.1
1070.115, 290255.1
1070.597, 296831.9
1071.079, 303158.0
1071.562, 309481.4
1072.044, 315860.3
1072.526, 322403.5
1073.008, 329209.9
1073.490, 336103.0
1073.972, 343065.3
1074.454, 349965.7
1074.936, 356742.8
1075.418, 363397.4
1075.901, 370090.2
1076.383, 376780.4
1076.865, 383131.1
1077.347, 388927.2
1077.829, 394707.5
1078.311, 401109.0
1078.793, 407147.9
1079.275, 412004.6
1079.757, 416301.2
1080.240, 420541.6
1080.722, 424876.2
1081.204, 429669.5
1081.686, 435308.2
1082.168, 440127.6
1082.650, 443553.6
1083.132, 446441.7
1083.614, 448981.0
1084.097, 451140.8
1084.579, 452609.3
1085.061, 453765.4
1085.543, 455503.7
1086.025, 457957.8
1086.507, 459859.5
1086.989, 461121.5
1087.471, 461994.0
1087.953, 462465.6
1088.436, 462611.7
1088.918, 462409.6
1089.400, 461982.0
1089.882, 461481.1
1090.364, 460899.9
1090.846, 460217.5
1091.328, 459491.1
1091.810, 458352.2
1092.292, 456760.7
1092.775, 454849.1
1093.257, 452610.6
1093.739, 450385.0
1094.221, 448555.7
1094.703, 446700.9
1095.185, 443490.6
1095.667, 439146.6
1096.149, 436346.8
1096.632, 434970.8
1097.114, 433108.2
1097.596, 430376.0
1098.078, 427311.6
1098.560, 424200.5
1099.042, 420971.1
1099.524, 417499.8
1100.006, 413859.6
1100.489, 410185.9
1100.971, 406477.2
1101.453, 402758.5
1101.935, 399001.4
1102.417, 395093.8
1102.899, 391007.6
1103.381, 386854.0
1103.863, 382746.6
1104.345, 378579.8
1104.828, 374296.2
1105.310, 369888.3
1105.792, 365379.1
1106.274, 360785.7
1106.756, 356073.6
1107.238, 351290.6
1107.720, 346693.2
1108.202, 342486.0
1108.684, 338107.7
1109.167, 333180.3
1109.649, 328170.0
1110.131, 323264.6
1110.613, 318445.9
1111.095, 313731.3
1111.577, 309062.3
1112.059, 304340.1
1112.541, 299511.0
1113.024, 294757.4
1113.506, 290138.5
1113.988, 285558.9
1114.470, 281070.9
1114.952, 276564.3
1115.434, 271907.9
1115.916, 267293.3
1116.398, 262975.0
1116.880, 258911.4
1117.363, 254700.6
1117.845, 250271.2
1118.327, 246078.5
1118.809, 242164.7
1119.291, 238353.0
1119.773, 234600.3
1120.255, 230892.6
1120.737, 227210.4
1121.219, 223594.8
1121.702, 220173.0
1122.184, 216901.0
1122.666, 213570.5
1123.148, 210227.5
1123.630, 207137.9
1124.112, 204328.6
1124.594, 201536.8
1125.076, 198668.0
1125.559, 195826.3
1126.041, 193101.3
1126.523, 190445.0
1127.005, 187721.9
1127.487, 185076.6
1127.969, 182842.1
1128.451, 180853.8
1128.933, 178738.1
1129.416, 176439.2
1129.898, 174142.0
1130.380, 171903.4
1130.862, 169783.0
1131.344, 167899.9
1131.826, 166065.1
1132.308, 164063.4
1132.790, 162115.3
1133.272, 160500.4
1133.755, 159085.0
1134.237, 157483.3
1134.719, 155627.1
1135.201, 153929.8
1135.683, 152578.4
1136.165, 151189.4
1136.647, 149653.8
1137.129, 148147.2
1137.611, 146744.8
1138.094, 145395.9
1138.576, 144062.9
1139.058, 142743.0
1139.540, 141420.1
1140.022, 140093.4
1140.504, 138799.9
1140.986, 137536.3
1141.468, 136349.0
1141.951, 135259.6
1142.433, 134108.6
1142.915, 132783.7
1143.397, 131456.2
1143.879, 130374.0
1144.361, 129455.4
1144.843, 128453.5
1145.325, 127379.6
1145.807, 126291.8
1146.290, 125202.7
1146.772, 124124.1
1147.254, 123062.5
1147.736, 122065.3
1148.218, 121169.2
1148.700, 120320.2
1149.182, 119528.1
1149.664, 118694.0
1150.146, 117689.9
1150.629, 116603.5
1151.111, 115503.8
1151.593, 114451.6
1152.075, 113562.7
1152.557, 112878.2
1153.039, 112143.0
1153.521, 111219.5
1154.003, 110319.1
1154.486, 109537.4
1154.968, 108741.5
1155.450, 107802.3
1155.932, 106849.4
1156.414, 106039.3
1156.896, 105342.3
1157.378, 104639.8
1157.860, 103933.8
1158.343, 103214.6
1158.825, 102476.4
1159.307, 101729.9
1159.789, 100972.4
1160.271, 100248.6
1160.753, 99590.39
1161.235, 98951.34
1161.717, 98260.70
1162.199, 97546.36
1162.682, 96909.38
1163.164, 96324.14
1163.646, 95641.30
1164.128, 94885.21
1164.610, 94239.52
1165.092, 93732.91
1165.574, 93191.18
1166.056, 92498.23
1166.538, 91837.37
1167.021, 91444.28
1167.503, 91100.30
1167.985, 90565.32
1168.467, 89970.52
1168.949, 89476.16
1169.431, 89063.25
1169.913, 88653.12
1170.395, 88228.61
1170.878, 87805.46
1171.360, 87356.50
1171.842, 86956.05
1172.324, 86655.10
1172.806, 86352.46
1173.288, 85984.02
1173.770, 85628.39
1174.252, 85356.31
1174.734, 85141.84
1175.217, 84925.36
1175.699, 84707.59
1176.181, 84464.42
1176.663, 84183.60
1177.145, 84007.12
1177.627, 83959.45
1178.109, 83883.86
1178.591, 83716.40
1179.073, 83497.18
1179.556, 83247.99
1180.038, 83019.08
1180.520, 82924.14
1181.002, 82904.36
1181.484, 82832.36
1181.966, 82735.25
1182.448, 82691.81
1182.930, 82698.55
1183.413, 82710.10
1183.895, 82709.70
1184.377, 82659.38
1184.859, 82476.76
1185.341, 82322.20
1185.823, 82289.91
1186.305, 82296.31
1186.787, 82304.37
1187.270, 82304.41
1187.752, 82270.02
1188.234, 82220.05
1188.716, 82243.77
1189.198, 82377.02
1189.680, 82416.96
1190.162, 82296.69
1190.644, 82284.97
1191.126, 82454.66
1191.609, 82619.77
1192.091, 82688.51
1192.573, 82732.55
1193.055, 82825.66
1193.537, 82962.13
1194.019, 83158.17
1194.501, 83379.37
1194.983, 83459.91
1195.465, 83446.54
1195.948, 83527.80
1196.430, 83721.05
1196.912, 83946.02
1197.394, 84166.85
##END=



