##NAMES=Bermanite
##RRUFFID=R130057
##IDEAL CHEMISTRY=Mn^2+^Mn^3+^_2_(PO_4_)_2_(OH)_2_&#183;4H_2_O
##LOCALITY=Tip Top mine, Custer, South Dakota, USA
##OWNER=RRUFF
##SOURCE=Thomas A. Loomis
##DESCRIPTION=Dark red plates
##STATUS=The identification of this mineral has been confirmed only by single crystal X-ray diffraction.
##URL=rruff.info/R130057
8.975323e+001, 0.000000e+000
9.023535e+001, 1.231319e+002
9.071747e+001, 1.237147e+002
9.119958e+001, 1.234527e+002
9.168170e+001, 1.239210e+002
9.216382e+001, 1.234898e+002
9.264594e+001, 1.222809e+002
9.312805e+001, 1.207845e+002
9.361017e+001, 1.191687e+002
9.409229e+001, 1.169328e+002
9.457440e+001, 1.133041e+002
9.505651e+001, 1.103878e+002
9.553863e+001, 1.082563e+002
9.602074e+001, 1.067554e+002
9.650286e+001, 1.058654e+002
9.698498e+001, 1.055118e+002
9.746709e+001, 1.052931e+002
9.794921e+001, 1.047916e+002
9.843133e+001, 1.037899e+002
9.891344e+001, 1.028711e+002
9.939556e+001, 1.020821e+002
9.987768e+001, 1.014353e+002
1.003598e+002, 1.010141e+002
1.008419e+002, 1.008621e+002
1.013240e+002, 1.010024e+002
1.018061e+002, 1.013244e+002
1.022883e+002, 1.018438e+002
1.027704e+002, 1.025145e+002
1.032525e+002, 1.032611e+002
1.037346e+002, 1.040545e+002
1.042167e+002, 1.050532e+002
1.046988e+002, 1.065966e+002
1.051810e+002, 1.083640e+002
1.056631e+002, 1.098533e+002
1.061452e+002, 1.107255e+002
1.066273e+002, 1.111288e+002
1.071094e+002, 1.116633e+002
1.075915e+002, 1.122233e+002
1.080737e+002, 1.130817e+002
1.085558e+002, 1.143767e+002
1.090379e+002, 1.160373e+002
1.095200e+002, 1.178746e+002
1.100021e+002, 1.196915e+002
1.104842e+002, 1.214029e+002
1.109664e+002, 1.235192e+002
1.114485e+002, 1.261263e+002
1.119306e+002, 1.290231e+002
1.124127e+002, 1.322529e+002
1.128948e+002, 1.357475e+002
1.133769e+002, 1.393300e+002
1.138591e+002, 1.427121e+002
1.143412e+002, 1.458470e+002
1.148233e+002, 1.488762e+002
1.153054e+002, 1.518625e+002
1.157875e+002, 1.547332e+002
1.162696e+002, 1.573977e+002
1.167517e+002, 1.598260e+002
1.172339e+002, 1.620927e+002
1.177160e+002, 1.643822e+002
1.181981e+002, 1.669268e+002
1.186802e+002, 1.690640e+002
1.191623e+002, 1.707064e+002
1.196444e+002, 1.718081e+002
1.201266e+002, 1.722722e+002
1.206087e+002, 1.721150e+002
1.210908e+002, 1.710921e+002
1.215729e+002, 1.691330e+002
1.220550e+002, 1.661151e+002
1.225371e+002, 1.623824e+002
1.230193e+002, 1.580962e+002
1.235014e+002, 1.531908e+002
1.239835e+002, 1.482113e+002
1.244656e+002, 1.432471e+002
1.249477e+002, 1.384298e+002
1.254298e+002, 1.338984e+002
1.259120e+002, 1.297740e+002
1.263941e+002, 1.259346e+002
1.268762e+002, 1.221080e+002
1.273583e+002, 1.179953e+002
1.278404e+002, 1.144464e+002
1.283225e+002, 1.117720e+002
1.288047e+002, 1.096782e+002
1.292868e+002, 1.078231e+002
1.297689e+002, 1.060229e+002
1.302510e+002, 1.042681e+002
1.307331e+002, 1.024139e+002
1.312152e+002, 1.004493e+002
1.316974e+002, 9.837354e+001
1.321795e+002, 9.612371e+001
1.326616e+002, 9.374940e+001
1.331437e+002, 9.137256e+001
1.336258e+002, 8.908904e+001
1.341079e+002, 8.690108e+001
1.345901e+002, 8.475382e+001
1.350722e+002, 8.267432e+001
1.355543e+002, 8.060235e+001
1.360364e+002, 7.845009e+001
1.365185e+002, 7.623290e+001
1.370006e+002, 7.410909e+001
1.374828e+002, 7.230212e+001
1.379649e+002, 7.086998e+001
1.384470e+002, 6.949443e+001
1.389291e+002, 6.820302e+001
1.394112e+002, 6.693867e+001
1.398933e+002, 6.557033e+001
1.403755e+002, 6.402661e+001
1.408576e+002, 6.257228e+001
1.413397e+002, 6.163531e+001
1.418218e+002, 6.116210e+001
1.423039e+002, 6.074723e+001
1.427860e+002, 6.020989e+001
1.432681e+002, 5.959506e+001
1.437503e+002, 5.907627e+001
1.442324e+002, 5.876791e+001
1.447145e+002, 5.847934e+001
1.451966e+002, 5.800954e+001
1.456787e+002, 5.735926e+001
1.461608e+002, 5.671964e+001
1.466430e+002, 5.626364e+001
1.471251e+002, 5.600725e+001
1.476072e+002, 5.577265e+001
1.480893e+002, 5.554250e+001
1.485714e+002, 5.531308e+001
1.490535e+002, 5.509182e+001
1.495357e+002, 5.487896e+001
1.500178e+002, 5.464946e+001
1.504999e+002, 5.434328e+001
1.509820e+002, 5.384843e+001
1.514641e+002, 5.352921e+001
1.519462e+002, 5.356263e+001
1.524284e+002, 5.366804e+001
1.529105e+002, 5.365620e+001
1.533926e+002, 5.345145e+001
1.538747e+002, 5.306250e+001
1.543568e+002, 5.250095e+001
1.548389e+002, 5.142860e+001
1.553211e+002, 5.059442e+001
1.558032e+002, 5.018441e+001
1.562853e+002, 4.998304e+001
1.567674e+002, 4.975760e+001
1.572495e+002, 4.939589e+001
1.577316e+002, 4.890807e+001
1.582138e+002, 4.832396e+001
1.586959e+002, 4.741598e+001
1.591780e+002, 4.667481e+001
1.596601e+002, 4.629940e+001
1.601422e+002, 4.618883e+001
1.606243e+002, 4.613853e+001
1.611065e+002, 4.607994e+001
1.615886e+002, 4.595543e+001
1.620707e+002, 4.557520e+001
1.625528e+002, 4.476649e+001
1.630349e+002, 4.389497e+001
1.635170e+002, 4.314075e+001
1.639991e+002, 4.249923e+001
1.644813e+002, 4.194072e+001
1.649634e+002, 4.143486e+001
1.654455e+002, 4.101585e+001
1.659276e+002, 4.074485e+001
1.664097e+002, 4.072047e+001
1.668918e+002, 4.077308e+001
1.673740e+002, 4.071318e+001
1.678561e+002, 4.052507e+001
1.683382e+002, 4.029943e+001
1.688203e+002, 4.006808e+001
1.693024e+002, 3.983659e+001
1.697845e+002, 3.960741e+001
1.702667e+002, 3.936796e+001
1.707488e+002, 3.914042e+001
1.712309e+002, 3.898757e+001
1.717130e+002, 3.896097e+001
1.721951e+002, 3.891533e+001
1.726772e+002, 3.874872e+001
1.731594e+002, 3.853748e+001
1.736415e+002, 3.839296e+001
1.741236e+002, 3.839191e+001
1.746057e+002, 3.851005e+001
1.750878e+002, 3.860198e+001
1.755699e+002, 3.867354e+001
1.760521e+002, 3.870630e+001
1.765342e+002, 3.865594e+001
1.770163e+002, 3.856648e+001
1.774984e+002, 3.850831e+001
1.779805e+002, 3.853001e+001
1.784626e+002, 3.863202e+001
1.789448e+002, 3.879601e+001
1.794269e+002, 3.913663e+001
1.799090e+002, 3.942710e+001
1.803911e+002, 3.957927e+001
1.808732e+002, 3.961869e+001
1.813553e+002, 3.961608e+001
1.818375e+002, 3.962360e+001
1.823196e+002, 3.963530e+001
1.828017e+002, 3.972816e+001
1.832838e+002, 3.995957e+001
1.837659e+002, 4.020095e+001
1.842480e+002, 4.040471e+001
1.847301e+002, 4.056235e+001
1.852123e+002, 4.066646e+001
1.856944e+002, 4.068864e+001
1.861765e+002, 4.060938e+001
1.866586e+002, 4.067493e+001
1.871407e+002, 4.102684e+001
1.876228e+002, 4.141655e+001
1.881050e+002, 4.164593e+001
1.885871e+002, 4.169656e+001
1.890692e+002, 4.170948e+001
1.895513e+002, 4.182265e+001
1.900334e+002, 4.203360e+001
1.905155e+002, 4.222261e+001
1.909977e+002, 4.235016e+001
1.914798e+002, 4.246155e+001
1.919619e+002, 4.261494e+001
1.924440e+002, 4.282372e+001
1.929261e+002, 4.304063e+001
1.934082e+002, 4.325981e+001
1.938904e+002, 4.346496e+001
1.943725e+002, 4.356331e+001
1.948546e+002, 4.344947e+001
1.953367e+002, 4.322224e+001
1.958188e+002, 4.307005e+001
1.963009e+002, 4.300984e+001
1.967831e+002, 4.302531e+001
1.972652e+002, 4.313221e+001
1.977473e+002, 4.330234e+001
1.982294e+002, 4.346394e+001
1.987115e+002, 4.359467e+001
1.991936e+002, 4.369099e+001
1.996758e+002, 4.371582e+001
2.001579e+002, 4.355651e+001
2.006400e+002, 4.349146e+001
2.011221e+002, 4.368541e+001
2.016042e+002, 4.407840e+001
2.020863e+002, 4.452031e+001
2.025685e+002, 4.492497e+001
2.030506e+002, 4.529348e+001
2.035327e+002, 4.562770e+001
2.040148e+002, 4.586525e+001
2.044969e+002, 4.613238e+001
2.049790e+002, 4.644756e+001
2.054612e+002, 4.682475e+001
2.059433e+002, 4.729493e+001
2.064254e+002, 4.791072e+001
2.069075e+002, 4.868461e+001
2.073896e+002, 4.935709e+001
2.078717e+002, 4.984523e+001
2.083539e+002, 5.030134e+001
2.088360e+002, 5.083979e+001
2.093181e+002, 5.139708e+001
2.098002e+002, 5.180030e+001
2.102823e+002, 5.186979e+001
2.107644e+002, 5.155641e+001
2.112466e+002, 5.134480e+001
2.117287e+002, 5.132553e+001
2.122108e+002, 5.131385e+001
2.126929e+002, 5.127430e+001
2.131750e+002, 5.118421e+001
2.136571e+002, 5.100903e+001
2.141393e+002, 5.070932e+001
2.146214e+002, 5.026442e+001
2.151035e+002, 4.982857e+001
2.155856e+002, 4.945134e+001
2.160677e+002, 4.903801e+001
2.165498e+002, 4.852943e+001
2.170320e+002, 4.793454e+001
2.175141e+002, 4.728850e+001
2.179962e+002, 4.660231e+001
2.184783e+002, 4.585875e+001
2.189604e+002, 4.533294e+001
2.194425e+002, 4.508360e+001
2.199247e+002, 4.497047e+001
2.204068e+002, 4.497277e+001
2.208889e+002, 4.506186e+001
2.213710e+002, 4.511918e+001
2.218531e+002, 4.503218e+001
2.223352e+002, 4.478806e+001
2.228174e+002, 4.458919e+001
2.232995e+002, 4.446778e+001
2.237816e+002, 4.436682e+001
2.242637e+002, 4.423487e+001
2.247458e+002, 4.407135e+001
2.252279e+002, 4.392962e+001
2.257100e+002, 4.386346e+001
2.261922e+002, 4.386475e+001
2.266743e+002, 4.384681e+001
2.271564e+002, 4.374969e+001
2.276385e+002, 4.366560e+001
2.281206e+002, 4.371024e+001
2.286027e+002, 4.389318e+001
2.290849e+002, 4.406089e+001
2.295670e+002, 4.407038e+001
2.300491e+002, 4.397715e+001
2.305312e+002, 4.393753e+001
2.310133e+002, 4.407618e+001
2.314954e+002, 4.422456e+001
2.319776e+002, 4.415477e+001
2.324597e+002, 4.383495e+001
2.329418e+002, 4.352233e+001
2.334239e+002, 4.345594e+001
2.339060e+002, 4.348806e+001
2.343881e+002, 4.337965e+001
2.348703e+002, 4.298079e+001
2.353524e+002, 4.249193e+001
2.358345e+002, 4.214874e+001
2.363166e+002, 4.193803e+001
2.367987e+002, 4.192616e+001
2.372808e+002, 4.233925e+001
2.377630e+002, 4.291217e+001
2.382451e+002, 4.336354e+001
2.387272e+002, 4.359772e+001
2.392093e+002, 4.368698e+001
2.396914e+002, 4.368478e+001
2.401735e+002, 4.350581e+001
2.406557e+002, 4.351740e+001
2.411378e+002, 4.410259e+001
2.416199e+002, 4.483851e+001
2.421020e+002, 4.525632e+001
2.425841e+002, 4.511924e+001
2.430662e+002, 4.484273e+001
2.435484e+002, 4.522122e+001
2.440305e+002, 4.655417e+001
2.445126e+002, 4.772470e+001
2.449947e+002, 4.837336e+001
2.454768e+002, 4.876949e+001
2.459589e+002, 4.910042e+001
2.464410e+002, 4.942539e+001
2.469232e+002, 4.975599e+001
2.474053e+002, 5.012286e+001
2.478874e+002, 5.054589e+001
2.483695e+002, 5.095573e+001
2.488516e+002, 5.142512e+001
2.493337e+002, 5.182999e+001
2.498159e+002, 5.202833e+001
2.502980e+002, 5.198421e+001
2.507801e+002, 5.184917e+001
2.512622e+002, 5.190119e+001
2.517443e+002, 5.228866e+001
2.522264e+002, 5.252159e+001
2.527086e+002, 5.241114e+001
2.531907e+002, 5.224984e+001
2.536728e+002, 5.226689e+001
2.541549e+002, 5.251087e+001
2.546370e+002, 5.283905e+001
2.551191e+002, 5.302063e+001
2.556013e+002, 5.293187e+001
2.560834e+002, 5.296565e+001
2.565655e+002, 5.312996e+001
2.570476e+002, 5.339105e+001
2.575297e+002, 5.376791e+001
2.580118e+002, 5.424381e+001
2.584940e+002, 5.473872e+001
2.589761e+002, 5.512970e+001
2.594582e+002, 5.531742e+001
2.599403e+002, 5.566149e+001
2.604224e+002, 5.622324e+001
2.609045e+002, 5.686108e+001
2.613867e+002, 5.755616e+001
2.618688e+002, 5.826970e+001
2.623509e+002, 5.888286e+001
2.628330e+002, 5.924220e+001
2.633151e+002, 5.924092e+001
2.637972e+002, 5.937213e+001
2.642794e+002, 5.968819e+001
2.647615e+002, 6.006326e+001
2.652436e+002, 6.045971e+001
2.657257e+002, 6.085616e+001
2.662078e+002, 6.123087e+001
2.666899e+002, 6.157690e+001
2.671721e+002, 6.191874e+001
2.676542e+002, 6.203152e+001
2.681363e+002, 6.178090e+001
2.686184e+002, 6.147491e+001
2.691005e+002, 6.133257e+001
2.695826e+002, 6.129469e+001
2.700648e+002, 6.110841e+001
2.705469e+002, 6.054543e+001
2.710290e+002, 5.959309e+001
2.715111e+002, 5.872294e+001
2.719932e+002, 5.807544e+001
2.724753e+002, 5.735723e+001
2.729575e+002, 5.640004e+001
2.734396e+002, 5.526334e+001
2.739217e+002, 5.412359e+001
2.744038e+002, 5.309689e+001
2.748859e+002, 5.217406e+001
2.753680e+002, 5.126949e+001
2.758501e+002, 5.038609e+001
2.763322e+002, 4.951023e+001
2.768144e+002, 4.864079e+001
2.772965e+002, 4.777130e+001
2.777786e+002, 4.685946e+001
2.782607e+002, 4.585018e+001
2.787428e+002, 4.482579e+001
2.792249e+002, 4.416439e+001
2.797071e+002, 4.412601e+001
2.801892e+002, 4.406192e+001
2.806713e+002, 4.377196e+001
2.811534e+002, 4.335242e+001
2.816355e+002, 4.297039e+001
2.821176e+002, 4.269748e+001
2.825998e+002, 4.250310e+001
2.830819e+002, 4.232561e+001
2.835640e+002, 4.220584e+001
2.840461e+002, 4.202619e+001
2.845282e+002, 4.164442e+001
2.850103e+002, 4.121892e+001
2.854925e+002, 4.100877e+001
2.859746e+002, 4.111264e+001
2.864567e+002, 4.136870e+001
2.869388e+002, 4.150286e+001
2.874209e+002, 4.146899e+001
2.879030e+002, 4.148074e+001
2.883852e+002, 4.156137e+001
2.888673e+002, 4.170868e+001
2.893494e+002, 4.191949e+001
2.898315e+002, 4.219297e+001
2.903136e+002, 4.252839e+001
2.907957e+002, 4.292801e+001
2.912779e+002, 4.338881e+001
2.917600e+002, 4.394594e+001
2.922421e+002, 4.472878e+001
2.927242e+002, 4.553883e+001
2.932063e+002, 4.615125e+001
2.936884e+002, 4.654285e+001
2.941706e+002, 4.689397e+001
2.946527e+002, 4.733828e+001
2.951348e+002, 4.789083e+001
2.956169e+002, 4.859831e+001
2.960990e+002, 4.952776e+001
2.965811e+002, 5.056600e+001
2.970633e+002, 5.165791e+001
2.975454e+002, 5.278913e+001
2.980275e+002, 5.391191e+001
2.985096e+002, 5.496808e+001
2.989917e+002, 5.598706e+001
2.994738e+002, 5.712897e+001
2.999560e+002, 5.835508e+001
3.004381e+002, 5.972419e+001
3.009202e+002, 6.133699e+001
3.014023e+002, 6.315131e+001
3.018844e+002, 6.498796e+001
3.023665e+002, 6.673695e+001
3.028487e+002, 6.847320e+001
3.033308e+002, 7.041491e+001
3.038129e+002, 7.261597e+001
3.042950e+002, 7.491708e+001
3.047771e+002, 7.722199e+001
3.052592e+002, 7.957187e+001
3.057414e+002, 8.208017e+001
3.062235e+002, 8.479511e+001
3.067056e+002, 8.767455e+001
3.071877e+002, 9.061791e+001
3.076698e+002, 9.359821e+001
3.081519e+002, 9.669772e+001
3.086341e+002, 9.995302e+001
3.091162e+002, 1.033375e+002
3.095983e+002, 1.067560e+002
3.100804e+002, 1.101566e+002
3.105625e+002, 1.136525e+002
3.110446e+002, 1.174245e+002
3.115268e+002, 1.214901e+002
3.120089e+002, 1.254882e+002
3.124910e+002, 1.293143e+002
3.129731e+002, 1.330479e+002
3.134552e+002, 1.367779e+002
3.139373e+002, 1.405032e+002
3.144195e+002, 1.443201e+002
3.149016e+002, 1.484569e+002
3.153837e+002, 1.528710e+002
3.158658e+002, 1.568490e+002
3.163479e+002, 1.600291e+002
3.168300e+002, 1.629666e+002
3.173121e+002, 1.661692e+002
3.177943e+002, 1.696366e+002
3.182764e+002, 1.729556e+002
3.187585e+002, 1.759058e+002
3.192406e+002, 1.784417e+002
3.197227e+002, 1.806458e+002
3.202048e+002, 1.826117e+002
3.206870e+002, 1.841844e+002
3.211691e+002, 1.851774e+002
3.216512e+002, 1.856799e+002
3.221333e+002, 1.860356e+002
3.226154e+002, 1.864310e+002
3.230975e+002, 1.867316e+002
3.235797e+002, 1.866291e+002
3.240618e+002, 1.862325e+002
3.245439e+002, 1.853364e+002
3.250260e+002, 1.836358e+002
3.255081e+002, 1.814192e+002
3.259902e+002, 1.792208e+002
3.264724e+002, 1.772163e+002
3.269545e+002, 1.752292e+002
3.274366e+002, 1.729367e+002
3.279187e+002, 1.702909e+002
3.284008e+002, 1.677012e+002
3.288829e+002, 1.654356e+002
3.293651e+002, 1.631825e+002
3.298472e+002, 1.605232e+002
3.303293e+002, 1.573848e+002
3.308114e+002, 1.541090e+002
3.312935e+002, 1.509878e+002
3.317756e+002, 1.480413e+002
3.322578e+002, 1.451754e+002
3.327399e+002, 1.424794e+002
3.332220e+002, 1.398123e+002
3.337041e+002, 1.370031e+002
3.341862e+002, 1.340929e+002
3.346683e+002, 1.312821e+002
3.351505e+002, 1.287485e+002
3.356326e+002, 1.264480e+002
3.361147e+002, 1.240899e+002
3.365968e+002, 1.216419e+002
3.370789e+002, 1.191548e+002
3.375610e+002, 1.166390e+002
3.380432e+002, 1.140931e+002
3.385253e+002, 1.115491e+002
3.390074e+002, 1.090326e+002
3.394895e+002, 1.065076e+002
3.399716e+002, 1.038673e+002
3.404537e+002, 1.010024e+002
3.409359e+002, 9.824526e+001
3.414180e+002, 9.570784e+001
3.419001e+002, 9.329147e+001
3.423822e+002, 9.092104e+001
3.428643e+002, 8.858467e+001
3.433464e+002, 8.619224e+001
3.438286e+002, 8.358746e+001
3.443107e+002, 8.059447e+001
3.447928e+002, 7.794630e+001
3.452749e+002, 7.585494e+001
3.457570e+002, 7.398621e+001
3.462391e+002, 7.213339e+001
3.467213e+002, 7.026952e+001
3.472034e+002, 6.836616e+001
3.476855e+002, 6.638499e+001
3.481676e+002, 6.430611e+001
3.486497e+002, 6.258231e+001
3.491318e+002, 6.156898e+001
3.496140e+002, 6.049195e+001
3.500961e+002, 5.895304e+001
3.505782e+002, 5.709853e+001
3.510603e+002, 5.528160e+001
3.515424e+002, 5.371263e+001
3.520245e+002, 5.235111e+001
3.525067e+002, 5.101180e+001
3.529888e+002, 4.964196e+001
3.534709e+002, 4.836247e+001
3.539530e+002, 4.720515e+001
3.544351e+002, 4.614112e+001
3.549172e+002, 4.513655e+001
3.553994e+002, 4.418040e+001
3.558815e+002, 4.327094e+001
3.563636e+002, 4.239880e+001
3.568457e+002, 4.157662e+001
3.573278e+002, 4.077118e+001
3.578099e+002, 3.996696e+001
3.582920e+002, 3.918751e+001
3.587741e+002, 3.844621e+001
3.592563e+002, 3.774497e+001
3.597384e+002, 3.709247e+001
3.602205e+002, 3.649232e+001
3.607026e+002, 3.594390e+001
3.611847e+002, 3.545809e+001
3.616668e+002, 3.514954e+001
3.621490e+002, 3.478247e+001
3.626311e+002, 3.421084e+001
3.631132e+002, 3.352562e+001
3.635953e+002, 3.291765e+001
3.640774e+002, 3.250628e+001
3.645595e+002, 3.224463e+001
3.650417e+002, 3.193035e+001
3.655238e+002, 3.147531e+001
3.660059e+002, 3.109152e+001
3.664880e+002, 3.086007e+001
3.669701e+002, 3.068010e+001
3.674522e+002, 3.044012e+001
3.679344e+002, 3.010943e+001
3.684165e+002, 2.975972e+001
3.688986e+002, 2.950157e+001
3.693807e+002, 2.935768e+001
3.698628e+002, 2.924951e+001
3.703449e+002, 2.926033e+001
3.708271e+002, 2.923246e+001
3.713092e+002, 2.904260e+001
3.717913e+002, 2.871848e+001
3.722734e+002, 2.839770e+001
3.727555e+002, 2.820361e+001
3.732376e+002, 2.813300e+001
3.737198e+002, 2.806870e+001
3.742019e+002, 2.798474e+001
3.746840e+002, 2.794371e+001
3.751661e+002, 2.799761e+001
3.756482e+002, 2.809781e+001
3.761303e+002, 2.816962e+001
3.766125e+002, 2.817501e+001
3.770946e+002, 2.813682e+001
3.775767e+002, 2.810173e+001
3.780588e+002, 2.806615e+001
3.785409e+002, 2.804396e+001
3.790230e+002, 2.803069e+001
3.795052e+002, 2.803671e+001
3.799873e+002, 2.807718e+001
3.804694e+002, 2.815462e+001
3.809515e+002, 2.824491e+001
3.814336e+002, 2.832952e+001
3.819157e+002, 2.840836e+001
3.823979e+002, 2.846942e+001
3.828800e+002, 2.850176e+001
3.833621e+002, 2.852568e+001
3.838442e+002, 2.853202e+001
3.843263e+002, 2.853602e+001
3.848084e+002, 2.859226e+001
3.852906e+002, 2.878443e+001
3.857727e+002, 2.903928e+001
3.862548e+002, 2.918298e+001
3.867369e+002, 2.919286e+001
3.872190e+002, 2.917176e+001
3.877011e+002, 2.919959e+001
3.881833e+002, 2.922553e+001
3.886654e+002, 2.915825e+001
3.891475e+002, 2.892538e+001
3.896296e+002, 2.869732e+001
3.901117e+002, 2.866662e+001
3.905938e+002, 2.880275e+001
3.910760e+002, 2.885504e+001
3.915581e+002, 2.869827e+001
3.920402e+002, 2.847693e+001
3.925223e+002, 2.840812e+001
3.930044e+002, 2.850338e+001
3.934865e+002, 2.856918e+001
3.939687e+002, 2.846593e+001
3.944508e+002, 2.830705e+001
3.949329e+002, 2.827407e+001
3.954150e+002, 2.839641e+001
3.958971e+002, 2.860634e+001
3.963792e+002, 2.888243e+001
3.968614e+002, 2.921190e+001
3.973435e+002, 2.946338e+001
3.978256e+002, 2.952607e+001
3.983077e+002, 2.960353e+001
3.987898e+002, 2.986968e+001
3.992719e+002, 3.027497e+001
3.997540e+002, 3.062708e+001
4.002361e+002, 3.081940e+001
4.007183e+002, 3.091257e+001
4.012004e+002, 3.107153e+001
4.016825e+002, 3.123677e+001
4.021646e+002, 3.155417e+001
4.026467e+002, 3.211988e+001
4.031288e+002, 3.281923e+001
4.036110e+002, 3.353000e+001
4.040931e+002, 3.421917e+001
4.045752e+002, 3.491399e+001
4.050573e+002, 3.565391e+001
4.055394e+002, 3.645679e+001
4.060215e+002, 3.718597e+001
4.065037e+002, 3.779572e+001
4.069858e+002, 3.838293e+001
4.074679e+002, 3.899361e+001
4.079500e+002, 3.962362e+001
4.084321e+002, 4.024453e+001
4.089142e+002, 4.084065e+001
4.093964e+002, 4.142729e+001
4.098785e+002, 4.209010e+001
4.103606e+002, 4.303081e+001
4.108427e+002, 4.377530e+001
4.113248e+002, 4.424061e+001
4.118069e+002, 4.452184e+001
4.122891e+002, 4.468611e+001
4.127712e+002, 4.476150e+001
4.132533e+002, 4.477887e+001
4.137354e+002, 4.479860e+001
4.142175e+002, 4.486518e+001
4.146996e+002, 4.475185e+001
4.151818e+002, 4.438729e+001
4.156639e+002, 4.390260e+001
4.161460e+002, 4.330175e+001
4.166281e+002, 4.261507e+001
4.171102e+002, 4.191076e+001
4.175923e+002, 4.123607e+001
4.180745e+002, 4.056629e+001
4.185566e+002, 3.977747e+001
4.190387e+002, 3.877093e+001
4.195208e+002, 3.787713e+001
4.200029e+002, 3.729817e+001
4.204850e+002, 3.682104e+001
4.209672e+002, 3.625406e+001
4.214493e+002, 3.555110e+001
4.219314e+002, 3.480801e+001
4.224135e+002, 3.407582e+001
4.228956e+002, 3.336251e+001
4.233777e+002, 3.281465e+001
4.238599e+002, 3.252928e+001
4.243420e+002, 3.231721e+001
4.248241e+002, 3.202173e+001
4.253062e+002, 3.166842e+001
4.257883e+002, 3.134846e+001
4.262704e+002, 3.108494e+001
4.267526e+002, 3.088317e+001
4.272347e+002, 3.075492e+001
4.277168e+002, 3.070019e+001
4.281989e+002, 3.070847e+001
4.286810e+002, 3.079833e+001
4.291631e+002, 3.093952e+001
4.296453e+002, 3.106944e+001
4.301274e+002, 3.121687e+001
4.306095e+002, 3.128711e+001
4.310916e+002, 3.117777e+001
4.315737e+002, 3.096616e+001
4.320558e+002, 3.077177e+001
4.325380e+002, 3.061068e+001
4.330201e+002, 3.057419e+001
4.335022e+002, 3.080271e+001
4.339843e+002, 3.133889e+001
4.344664e+002, 3.183115e+001
4.349485e+002, 3.226520e+001
4.354307e+002, 3.265435e+001
4.359128e+002, 3.296141e+001
4.363949e+002, 3.322097e+001
4.368770e+002, 3.354679e+001
4.373591e+002, 3.401369e+001
4.378412e+002, 3.457808e+001
4.383234e+002, 3.506593e+001
4.388055e+002, 3.531781e+001
4.392876e+002, 3.570026e+001
4.397697e+002, 3.631690e+001
4.402518e+002, 3.702861e+001
4.407339e+002, 3.772600e+001
4.412160e+002, 3.837317e+001
4.416982e+002, 3.896264e+001
4.421803e+002, 3.945411e+001
4.426624e+002, 3.980778e+001
4.431445e+002, 4.036546e+001
4.436266e+002, 4.128879e+001
4.441087e+002, 4.225080e+001
4.445909e+002, 4.315638e+001
4.450730e+002, 4.402748e+001
4.455551e+002, 4.494180e+001
4.460372e+002, 4.594093e+001
4.465193e+002, 4.695295e+001
4.470014e+002, 4.779035e+001
4.474836e+002, 4.836415e+001
4.479657e+002, 4.902755e+001
4.484478e+002, 4.990739e+001
4.489299e+002, 5.085743e+001
4.494120e+002, 5.183265e+001
4.498941e+002, 5.281062e+001
4.503763e+002, 5.372080e+001
4.508584e+002, 5.448415e+001
4.513405e+002, 5.513012e+001
4.518226e+002, 5.577666e+001
4.523047e+002, 5.645511e+001
4.527868e+002, 5.705253e+001
4.532690e+002, 5.749430e+001
4.537511e+002, 5.781299e+001
4.542332e+002, 5.803071e+001
4.547153e+002, 5.812864e+001
4.551974e+002, 5.816931e+001
4.556795e+002, 5.815217e+001
4.561617e+002, 5.810723e+001
4.566438e+002, 5.818757e+001
4.571259e+002, 5.847689e+001
4.576080e+002, 5.882025e+001
4.580901e+002, 5.899131e+001
4.585722e+002, 5.899133e+001
4.590544e+002, 5.905246e+001
4.595365e+002, 5.921395e+001
4.600186e+002, 5.945479e+001
4.605007e+002, 5.973976e+001
4.609828e+002, 6.007952e+001
4.614649e+002, 6.053731e+001
4.619471e+002, 6.116441e+001
4.624292e+002, 6.193109e+001
4.629113e+002, 6.273309e+001
4.633934e+002, 6.343439e+001
4.638755e+002, 6.434406e+001
4.643576e+002, 6.556454e+001
4.648398e+002, 6.698244e+001
4.653219e+002, 6.848038e+001
4.658040e+002, 7.004044e+001
4.662861e+002, 7.170846e+001
4.667682e+002, 7.355195e+001
4.672503e+002, 7.561411e+001
4.677325e+002, 7.757077e+001
4.682146e+002, 7.941325e+001
4.686967e+002, 8.115578e+001
4.691788e+002, 8.283559e+001
4.696609e+002, 8.440191e+001
4.701430e+002, 8.577801e+001
4.706252e+002, 8.693271e+001
4.711073e+002, 8.787002e+001
4.715894e+002, 8.863266e+001
4.720715e+002, 8.927307e+001
4.725536e+002, 8.950860e+001
4.730357e+002, 8.918670e+001
4.735179e+002, 8.850855e+001
4.740000e+002, 8.754541e+001
4.744821e+002, 8.632088e+001
4.749642e+002, 8.485760e+001
4.754463e+002, 8.299336e+001
4.759284e+002, 8.096957e+001
4.764106e+002, 7.938478e+001
4.768927e+002, 7.833952e+001
4.773748e+002, 7.712600e+001
4.778569e+002, 7.524121e+001
4.783390e+002, 7.308206e+001
4.788211e+002, 7.127038e+001
4.793033e+002, 6.986614e+001
4.797854e+002, 6.868661e+001
4.802675e+002, 6.766481e+001
4.807496e+002, 6.680174e+001
4.812317e+002, 6.610945e+001
4.817138e+002, 6.559232e+001
4.821959e+002, 6.520426e+001
4.826780e+002, 6.494585e+001
4.831602e+002, 6.481037e+001
4.836423e+002, 6.452650e+001
4.841244e+002, 6.396153e+001
4.846065e+002, 6.340294e+001
4.850886e+002, 6.305979e+001
4.855707e+002, 6.278040e+001
4.860529e+002, 6.226804e+001
4.865350e+002, 6.141262e+001
4.870171e+002, 6.040525e+001
4.874992e+002, 5.958404e+001
4.879813e+002, 5.910128e+001
4.884634e+002, 5.836194e+001
4.889456e+002, 5.732648e+001
4.894277e+002, 5.612228e+001
4.899098e+002, 5.475508e+001
4.903919e+002, 5.327493e+001
4.908740e+002, 5.177160e+001
4.913561e+002, 5.030696e+001
4.918383e+002, 4.884854e+001
4.923204e+002, 4.728712e+001
4.928025e+002, 4.556337e+001
4.932846e+002, 4.391224e+001
4.937667e+002, 4.234456e+001
4.942488e+002, 4.090736e+001
4.947310e+002, 3.969304e+001
4.952131e+002, 3.868250e+001
4.956952e+002, 3.768134e+001
4.961773e+002, 3.655185e+001
4.966594e+002, 3.533831e+001
4.971415e+002, 3.411234e+001
4.976237e+002, 3.282328e+001
4.981058e+002, 3.177808e+001
4.985879e+002, 3.132642e+001
4.990700e+002, 3.115447e+001
4.995521e+002, 3.061870e+001
5.000342e+002, 2.948823e+001
5.005164e+002, 2.847742e+001
5.009985e+002, 2.808199e+001
5.014806e+002, 2.800231e+001
5.019627e+002, 2.767319e+001
5.024448e+002, 2.697828e+001
5.029269e+002, 2.620668e+001
5.034091e+002, 2.562716e+001
5.038912e+002, 2.524432e+001
5.043733e+002, 2.487455e+001
5.048554e+002, 2.450167e+001
5.053375e+002, 2.415827e+001
5.058196e+002, 2.388736e+001
5.063018e+002, 2.364359e+001
5.067839e+002, 2.335130e+001
5.072660e+002, 2.298538e+001
5.077481e+002, 2.259963e+001
5.082302e+002, 2.227974e+001
5.087123e+002, 2.204101e+001
5.091945e+002, 2.181184e+001
5.096766e+002, 2.159988e+001
5.101587e+002, 2.139038e+001
5.106408e+002, 2.116185e+001
5.111229e+002, 2.093320e+001
5.116050e+002, 2.075335e+001
5.120872e+002, 2.066166e+001
5.125693e+002, 2.057931e+001
5.130514e+002, 2.034899e+001
5.135335e+002, 1.994996e+001
5.140156e+002, 1.954919e+001
5.144977e+002, 1.912188e+001
5.149799e+002, 1.876835e+001
5.154620e+002, 1.860410e+001
5.159441e+002, 1.860099e+001
5.164262e+002, 1.857127e+001
5.169083e+002, 1.841250e+001
5.173904e+002, 1.819754e+001
5.178726e+002, 1.802677e+001
5.183547e+002, 1.789652e+001
5.188368e+002, 1.773034e+001
5.193189e+002, 1.747625e+001
5.198010e+002, 1.718317e+001
5.202831e+002, 1.696822e+001
5.207653e+002, 1.683947e+001
5.212474e+002, 1.674073e+001
5.217295e+002, 1.671936e+001
5.222116e+002, 1.668544e+001
5.226937e+002, 1.651525e+001
5.231758e+002, 1.623751e+001
5.236580e+002, 1.601757e+001
5.241401e+002, 1.598200e+001
5.246222e+002, 1.609423e+001
5.251043e+002, 1.617053e+001
5.255864e+002, 1.627854e+001
5.260685e+002, 1.624065e+001
5.265507e+002, 1.585187e+001
5.270328e+002, 1.545044e+001
5.275149e+002, 1.536950e+001
5.279970e+002, 1.560569e+001
5.284791e+002, 1.585085e+001
5.289612e+002, 1.581752e+001
5.294434e+002, 1.555541e+001
5.299255e+002, 1.535045e+001
5.304076e+002, 1.517667e+001
5.308897e+002, 1.512331e+001
5.313718e+002, 1.538495e+001
5.318539e+002, 1.571285e+001
5.323361e+002, 1.583017e+001
5.328182e+002, 1.567102e+001
5.333003e+002, 1.547687e+001
5.337824e+002, 1.538574e+001
5.342645e+002, 1.537570e+001
5.347466e+002, 1.541499e+001
5.352288e+002, 1.550385e+001
5.357109e+002, 1.558100e+001
5.361930e+002, 1.557652e+001
5.366751e+002, 1.551970e+001
5.371572e+002, 1.558293e+001
5.376393e+002, 1.589401e+001
5.381215e+002, 1.615788e+001
5.386036e+002, 1.624924e+001
5.390857e+002, 1.626768e+001
5.395678e+002, 1.634324e+001
5.400499e+002, 1.649930e+001
5.405320e+002, 1.666152e+001
5.410142e+002, 1.674083e+001
5.414963e+002, 1.673194e+001
5.419784e+002, 1.682180e+001
5.424604e+002, 1.711748e+001
5.429426e+002, 1.738717e+001
5.434247e+002, 1.761756e+001
5.439068e+002, 1.778173e+001
5.443889e+002, 1.778962e+001
5.448710e+002, 1.763247e+001
5.453531e+002, 1.753706e+001
5.458353e+002, 1.782034e+001
5.463174e+002, 1.844296e+001
5.467995e+002, 1.891192e+001
5.472816e+002, 1.914605e+001
5.477637e+002, 1.934195e+001
5.482458e+002, 1.963867e+001
5.487280e+002, 1.997355e+001
5.492101e+002, 2.023252e+001
5.496922e+002, 2.033687e+001
5.501743e+002, 2.048954e+001
5.506564e+002, 2.084931e+001
5.511385e+002, 2.134437e+001
5.516207e+002, 2.184179e+001
5.521028e+002, 2.231504e+001
5.525849e+002, 2.275142e+001
5.530670e+002, 2.312985e+001
5.535491e+002, 2.345134e+001
5.540313e+002, 2.380284e+001
5.545134e+002, 2.416113e+001
5.549955e+002, 2.457177e+001
5.554776e+002, 2.513013e+001
5.559597e+002, 2.571312e+001
5.564418e+002, 2.611979e+001
5.569240e+002, 2.632254e+001
5.574061e+002, 2.652466e+001
5.578882e+002, 2.698913e+001
5.583703e+002, 2.772646e+001
5.588524e+002, 2.835036e+001
5.593345e+002, 2.880091e+001
5.598167e+002, 2.921025e+001
5.602988e+002, 2.955456e+001
5.607809e+002, 2.991837e+001
5.612630e+002, 3.045225e+001
5.617451e+002, 3.121174e+001
5.622272e+002, 3.192746e+001
5.627094e+002, 3.228308e+001
5.631915e+002, 3.239990e+001
5.636736e+002, 3.269414e+001
5.641557e+002, 3.323383e+001
5.646378e+002, 3.385786e+001
5.651199e+002, 3.447588e+001
5.656021e+002, 3.508508e+001
5.660842e+002, 3.567762e+001
5.665663e+002, 3.621642e+001
5.670484e+002, 3.679103e+001
5.675305e+002, 3.746238e+001
5.680126e+002, 3.817171e+001
5.684948e+002, 3.881283e+001
5.689769e+002, 3.938314e+001
5.694590e+002, 4.003425e+001
5.699411e+002, 4.090521e+001
5.704232e+002, 4.198966e+001
5.709053e+002, 4.310259e+001
5.713875e+002, 4.436967e+001
5.718696e+002, 4.549493e+001
5.723517e+002, 4.623082e+001
5.728338e+002, 4.694154e+001
5.733159e+002, 4.802748e+001
5.737980e+002, 4.951971e+001
5.742802e+002, 5.103766e+001
5.747623e+002, 5.225814e+001
5.752444e+002, 5.323153e+001
5.757265e+002, 5.417108e+001
5.762086e+002, 5.508941e+001
5.766907e+002, 5.591419e+001
5.771729e+002, 5.656049e+001
5.776550e+002, 5.710943e+001
5.781371e+002, 5.773219e+001
5.786192e+002, 5.848996e+001
5.791013e+002, 5.905578e+001
5.795834e+002, 5.929868e+001
5.800656e+002, 5.928934e+001
5.805477e+002, 5.905081e+001
5.810298e+002, 5.861830e+001
5.815119e+002, 5.813337e+001
5.819940e+002, 5.768714e+001
5.824761e+002, 5.724941e+001
5.829583e+002, 5.671698e+001
5.834404e+002, 5.607527e+001
5.839225e+002, 5.534647e+001
5.844046e+002, 5.446877e+001
5.848867e+002, 5.355844e+001
5.853688e+002, 5.268579e+001
5.858510e+002, 5.184926e+001
5.863331e+002, 5.102082e+001
5.868152e+002, 5.019470e+001
5.872973e+002, 4.934483e+001
5.877794e+002, 4.839669e+001
5.882615e+002, 4.732571e+001
5.887437e+002, 4.630854e+001
5.892258e+002, 4.534700e+001
5.897079e+002, 4.449804e+001
5.901900e+002, 4.388119e+001
5.906721e+002, 4.345152e+001
5.911542e+002, 4.291830e+001
5.916364e+002, 4.213759e+001
5.921185e+002, 4.126884e+001
5.926006e+002, 4.041471e+001
5.930827e+002, 3.959024e+001
5.935648e+002, 3.882560e+001
5.940469e+002, 3.813507e+001
5.945291e+002, 3.750437e+001
5.950112e+002, 3.691199e+001
5.954933e+002, 3.635779e+001
5.959754e+002, 3.584267e+001
5.964575e+002, 3.537431e+001
5.969396e+002, 3.493080e+001
5.974218e+002, 3.458411e+001
5.979039e+002, 3.422681e+001
5.983860e+002, 3.366700e+001
5.988681e+002, 3.284654e+001
5.993502e+002, 3.199004e+001
5.998323e+002, 3.137408e+001
6.003145e+002, 3.098860e+001
6.007966e+002, 3.061298e+001
6.012787e+002, 3.020649e+001
6.017608e+002, 2.988036e+001
6.022429e+002, 2.982079e+001
6.027250e+002, 2.984591e+001
6.032072e+002, 2.965409e+001
6.036893e+002, 2.913084e+001
6.041714e+002, 2.862363e+001
6.046535e+002, 2.833767e+001
6.051356e+002, 2.816007e+001
6.056177e+002, 2.793448e+001
6.060999e+002, 2.764249e+001
6.065820e+002, 2.732662e+001
6.070641e+002, 2.701447e+001
6.075462e+002, 2.670911e+001
6.080283e+002, 2.642100e+001
6.085104e+002, 2.615758e+001
6.089926e+002, 2.590404e+001
6.094747e+002, 2.566842e+001
6.099568e+002, 2.543559e+001
6.104389e+002, 2.515718e+001
6.109210e+002, 2.486649e+001
6.114031e+002, 2.468482e+001
6.118853e+002, 2.473697e+001
6.123674e+002, 2.486461e+001
6.128495e+002, 2.470072e+001
6.133316e+002, 2.421648e+001
6.138137e+002, 2.376291e+001
6.142958e+002, 2.340546e+001
6.147780e+002, 2.313037e+001
6.152601e+002, 2.294438e+001
6.157422e+002, 2.283362e+001
6.162243e+002, 2.272451e+001
6.167064e+002, 2.262801e+001
6.171885e+002, 2.250339e+001
6.176707e+002, 2.232892e+001
6.181528e+002, 2.210639e+001
6.186349e+002, 2.180980e+001
6.191170e+002, 2.143676e+001
6.195991e+002, 2.109595e+001
6.200812e+002, 2.093497e+001
6.205634e+002, 2.097351e+001
6.210455e+002, 2.087996e+001
6.215276e+002, 2.049380e+001
6.220097e+002, 2.017003e+001
6.224918e+002, 2.002213e+001
6.229739e+002, 1.994905e+001
6.234561e+002, 1.985906e+001
6.239382e+002, 1.973101e+001
6.244203e+002, 1.957338e+001
6.249023e+002, 1.938073e+001
6.253845e+002, 1.916612e+001
6.258666e+002, 1.898083e+001
6.263487e+002, 1.883224e+001
6.268308e+002, 1.861142e+001
6.273129e+002, 1.819186e+001
6.277950e+002, 1.774326e+001
6.282772e+002, 1.765397e+001
6.287593e+002, 1.802878e+001
6.292414e+002, 1.819735e+001
6.297235e+002, 1.789100e+001
6.302056e+002, 1.750059e+001
6.306877e+002, 1.730254e+001
6.311699e+002, 1.724181e+001
6.316520e+002, 1.713572e+001
6.321341e+002, 1.690106e+001
6.326162e+002, 1.660713e+001
6.330983e+002, 1.634993e+001
6.335804e+002, 1.610860e+001
6.340626e+002, 1.602000e+001
6.345447e+002, 1.625650e+001
6.350268e+002, 1.642160e+001
6.355089e+002, 1.631816e+001
6.359910e+002, 1.604952e+001
6.364731e+002, 1.574683e+001
6.369553e+002, 1.541731e+001
6.374374e+002, 1.516921e+001
6.379195e+002, 1.513782e+001
6.384016e+002, 1.522480e+001
6.388837e+002, 1.524290e+001
6.393658e+002, 1.517192e+001
6.398480e+002, 1.509423e+001
6.403301e+002, 1.507440e+001
6.408122e+002, 1.507495e+001
6.412943e+002, 1.496792e+001
6.417764e+002, 1.463059e+001
6.422585e+002, 1.436464e+001
6.427407e+002, 1.418877e+001
6.432228e+002, 1.406740e+001
6.437049e+002, 1.401343e+001
6.441870e+002, 1.399289e+001
6.446691e+002, 1.392032e+001
6.451512e+002, 1.373805e+001
6.456334e+002, 1.354701e+001
6.461155e+002, 1.356131e+001
6.465976e+002, 1.377818e+001
6.470797e+002, 1.382954e+001
6.475618e+002, 1.359745e+001
6.480439e+002, 1.332677e+001
6.485261e+002, 1.319740e+001
6.490082e+002, 1.317907e+001
6.494903e+002, 1.318399e+001
6.499724e+002, 1.323124e+001
6.504545e+002, 1.326146e+001
6.509366e+002, 1.325710e+001
6.514188e+002, 1.321992e+001
6.519009e+002, 1.313036e+001
6.523830e+002, 1.300086e+001
6.528651e+002, 1.289708e+001
6.533472e+002, 1.287149e+001
6.538293e+002, 1.290082e+001
6.543115e+002, 1.289344e+001
6.547936e+002, 1.281961e+001
6.552757e+002, 1.278127e+001
6.557578e+002, 1.287382e+001
6.562399e+002, 1.293396e+001
6.567220e+002, 1.282401e+001
6.572042e+002, 1.260185e+001
6.576863e+002, 1.245553e+001
6.581684e+002, 1.249066e+001
6.586505e+002, 1.257030e+001
6.591326e+002, 1.257348e+001
6.596147e+002, 1.251770e+001
6.600969e+002, 1.244309e+001
6.605790e+002, 1.235748e+001
6.610611e+002, 1.228026e+001
6.615432e+002, 1.222385e+001
6.620253e+002, 1.219033e+001
6.625074e+002, 1.220254e+001
6.629896e+002, 1.236190e+001
6.634717e+002, 1.243163e+001
6.639538e+002, 1.228655e+001
6.644359e+002, 1.212505e+001
6.649180e+002, 1.213486e+001
6.654001e+002, 1.228629e+001
6.658823e+002, 1.240020e+001
6.663644e+002, 1.235647e+001
6.668465e+002, 1.222913e+001
6.673286e+002, 1.215285e+001
6.678107e+002, 1.212572e+001
6.682928e+002, 1.207095e+001
6.687750e+002, 1.194956e+001
6.692571e+002, 1.185164e+001
6.697392e+002, 1.188958e+001
6.702213e+002, 1.204458e+001
6.707034e+002, 1.211662e+001
6.711855e+002, 1.205376e+001
6.716677e+002, 1.196777e+001
6.721498e+002, 1.186767e+001
6.726319e+002, 1.177780e+001
6.731140e+002, 1.172377e+001
6.735961e+002, 1.170804e+001
6.740782e+002, 1.172352e+001
6.745604e+002, 1.177467e+001
6.750425e+002, 1.183647e+001
6.755246e+002, 1.181099e+001
6.760067e+002, 1.166648e+001
6.764888e+002, 1.157490e+001
6.769709e+002, 1.156876e+001
6.774531e+002, 1.162879e+001
6.779352e+002, 1.180933e+001
6.784173e+002, 1.205092e+001
6.788994e+002, 1.212988e+001
6.793815e+002, 1.188751e+001
6.798636e+002, 1.160953e+001
6.803458e+002, 1.141740e+001
6.808279e+002, 1.131612e+001
6.813100e+002, 1.137260e+001
6.817921e+002, 1.156707e+001
6.822742e+002, 1.168436e+001
6.827563e+002, 1.152575e+001
6.832385e+002, 1.117075e+001
6.837206e+002, 1.102400e+001
6.842027e+002, 1.120610e+001
6.846848e+002, 1.133289e+001
6.851669e+002, 1.128851e+001
6.856490e+002, 1.123210e+001
6.861312e+002, 1.128767e+001
6.866133e+002, 1.140929e+001
6.870954e+002, 1.144689e+001
6.875775e+002, 1.131452e+001
6.880596e+002, 1.113323e+001
6.885417e+002, 1.096696e+001
6.890239e+002, 1.084077e+001
6.895060e+002, 1.084578e+001
6.899881e+002, 1.099436e+001
6.904702e+002, 1.113773e+001
6.909523e+002, 1.115608e+001
6.914344e+002, 1.107544e+001
6.919166e+002, 1.102569e+001
6.923987e+002, 1.100065e+001
6.928808e+002, 1.101964e+001
6.933629e+002, 1.117775e+001
6.938450e+002, 1.129127e+001
6.943271e+002, 1.119419e+001
6.948093e+002, 1.096286e+001
6.952914e+002, 1.080471e+001
6.957735e+002, 1.082012e+001
6.962556e+002, 1.090883e+001
6.967377e+002, 1.101311e+001
6.972198e+002, 1.110123e+001
6.977020e+002, 1.102046e+001
6.981841e+002, 1.073480e+001
6.986662e+002, 1.047866e+001
6.991483e+002, 1.041888e+001
6.996304e+002, 1.051391e+001
7.001125e+002, 1.060875e+001
7.005947e+002, 1.075591e+001
7.010768e+002, 1.081889e+001
7.015589e+002, 1.067731e+001
7.020410e+002, 1.056134e+001
7.025231e+002, 1.065147e+001
7.030052e+002, 1.087222e+001
7.034874e+002, 1.105002e+001
7.039695e+002, 1.111037e+001
7.044516e+002, 1.110130e+001
7.049337e+002, 1.105122e+001
7.054158e+002, 1.097563e+001
7.058979e+002, 1.097267e+001
7.063801e+002, 1.106871e+001
7.068622e+002, 1.111069e+001
7.073442e+002, 1.098771e+001
7.078264e+002, 1.076667e+001
7.083085e+002, 1.061458e+001
7.087906e+002, 1.054076e+001
7.092727e+002, 1.050689e+001
7.097548e+002, 1.052833e+001
7.102369e+002, 1.057136e+001
7.107191e+002, 1.062236e+001
7.112012e+002, 1.067872e+001
7.116833e+002, 1.075285e+001
7.121654e+002, 1.084775e+001
7.126475e+002, 1.091068e+001
7.131296e+002, 1.085308e+001
7.136118e+002, 1.070293e+001
7.140939e+002, 1.061461e+001
7.145760e+002, 1.059709e+001
7.150581e+002, 1.062085e+001
7.155402e+002, 1.070303e+001
7.160223e+002, 1.078836e+001
7.165045e+002, 1.076199e+001
7.169866e+002, 1.059470e+001
7.174687e+002, 1.050328e+001
7.179508e+002, 1.057691e+001
7.184329e+002, 1.065461e+001
7.189150e+002, 1.064151e+001
7.193972e+002, 1.058802e+001
7.198793e+002, 1.058248e+001
7.203614e+002, 1.064167e+001
7.208435e+002, 1.069260e+001
7.213256e+002, 1.064582e+001
7.218077e+002, 1.053685e+001
7.222899e+002, 1.052017e+001
7.227720e+002, 1.060973e+001
7.232541e+002, 1.067709e+001
7.237362e+002, 1.068804e+001
7.242183e+002, 1.065006e+001
7.247004e+002, 1.053521e+001
7.251826e+002, 1.034635e+001
7.256647e+002, 1.027581e+001
7.261468e+002, 1.045214e+001
7.266289e+002, 1.060614e+001
7.271110e+002, 1.063617e+001
7.275931e+002, 1.059586e+001
7.280753e+002, 1.051683e+001
7.285574e+002, 1.042528e+001
7.290395e+002, 1.038837e+001
7.295216e+002, 1.047576e+001
7.300037e+002, 1.061225e+001
7.304858e+002, 1.059305e+001
7.309680e+002, 1.040971e+001
7.314501e+002, 1.033099e+001
7.319322e+002, 1.044343e+001
7.324143e+002, 1.059100e+001
7.328964e+002, 1.067181e+001
7.333785e+002, 1.068046e+001
7.338607e+002, 1.060776e+001
7.343428e+002, 1.034475e+001
7.348249e+002, 1.016996e+001
7.353070e+002, 1.018750e+001
7.357891e+002, 1.027573e+001
7.362712e+002, 1.036968e+001
7.367534e+002, 1.044305e+001
7.372355e+002, 1.045510e+001
7.377176e+002, 1.038073e+001
7.381997e+002, 1.028617e+001
7.386818e+002, 1.028523e+001
7.391639e+002, 1.036442e+001
7.396461e+002, 1.038297e+001
7.401282e+002, 1.031483e+001
7.406103e+002, 1.025877e+001
7.410924e+002, 1.029079e+001
7.415745e+002, 1.035471e+001
7.420566e+002, 1.029831e+001
7.425388e+002, 1.003741e+001
7.430209e+002, 9.952606e+000
7.435030e+002, 1.026650e+001
7.439851e+002, 1.056409e+001
7.444672e+002, 1.061698e+001
7.449493e+002, 1.051280e+001
7.454315e+002, 1.039102e+001
7.459136e+002, 1.029644e+001
7.463957e+002, 1.021354e+001
7.468778e+002, 1.012914e+001
7.473599e+002, 1.004499e+001
7.478420e+002, 9.940763e+000
7.483242e+002, 9.813417e+000
7.488063e+002, 9.820402e+000
7.492884e+002, 1.006346e+001
7.497705e+002, 1.033845e+001
7.502526e+002, 1.039334e+001
7.507347e+002, 1.021186e+001
7.512169e+002, 1.010157e+001
7.516990e+002, 1.010411e+001
7.521811e+002, 1.011747e+001
7.526632e+002, 1.010622e+001
7.531453e+002, 1.010584e+001
7.536274e+002, 1.018626e+001
7.541096e+002, 1.031667e+001
7.545917e+002, 1.035838e+001
7.550738e+002, 1.018971e+001
7.555559e+002, 9.987809e+000
7.560380e+002, 1.005829e+001
7.565201e+002, 1.032315e+001
7.570023e+002, 1.040982e+001
7.574844e+002, 1.024712e+001
7.579665e+002, 1.008707e+001
7.584486e+002, 1.011612e+001
7.589307e+002, 1.027379e+001
7.594128e+002, 1.035595e+001
7.598950e+002, 1.030633e+001
7.603771e+002, 1.028263e+001
7.608592e+002, 1.026832e+001
7.613413e+002, 1.029516e+001
7.618234e+002, 1.043417e+001
7.623055e+002, 1.060411e+001
7.627877e+002, 1.067216e+001
7.632698e+002, 1.059898e+001
7.637519e+002, 1.048817e+001
7.642340e+002, 1.038978e+001
7.647161e+002, 1.031605e+001
7.651982e+002, 1.030133e+001
7.656804e+002, 1.033495e+001
7.661625e+002, 1.036255e+001
7.666446e+002, 1.036481e+001
7.671267e+002, 1.033062e+001
7.676088e+002, 1.023049e+001
7.680909e+002, 1.005681e+001
7.685731e+002, 1.000215e+001
7.690552e+002, 1.013089e+001
7.695373e+002, 1.027485e+001
7.700194e+002, 1.043692e+001
7.705015e+002, 1.056893e+001
7.709836e+002, 1.063805e+001
7.714658e+002, 1.064183e+001
7.719479e+002, 1.057874e+001
7.724300e+002, 1.038535e+001
7.729121e+002, 1.020961e+001
7.733942e+002, 1.015034e+001
7.738763e+002, 1.017773e+001
7.743585e+002, 1.028662e+001
7.748406e+002, 1.044888e+001
7.753227e+002, 1.053813e+001
7.758048e+002, 1.046093e+001
7.762869e+002, 1.030853e+001
7.767690e+002, 1.032968e+001
7.772512e+002, 1.057420e+001
7.777333e+002, 1.064564e+001
7.782154e+002, 1.043249e+001
7.786975e+002, 1.020274e+001
7.791796e+002, 1.006328e+001
7.796617e+002, 1.001571e+001
7.801439e+002, 1.008107e+001
7.806260e+002, 1.028861e+001
7.811081e+002, 1.046690e+001
7.815902e+002, 1.058529e+001
7.820723e+002, 1.065098e+001
7.825544e+002, 1.062113e+001
7.830366e+002, 1.055907e+001
7.835187e+002, 1.058611e+001
7.840008e+002, 1.072139e+001
7.844829e+002, 1.084592e+001
7.849650e+002, 1.084426e+001
7.854471e+002, 1.075191e+001
7.859293e+002, 1.067388e+001
7.864114e+002, 1.061090e+001
7.868935e+002, 1.051619e+001
7.873756e+002, 1.035063e+001
7.878577e+002, 1.023854e+001
7.883398e+002, 1.032576e+001
7.888220e+002, 1.057951e+001
7.893040e+002, 1.071737e+001
7.897861e+002, 1.072676e+001
7.902682e+002, 1.064506e+001
7.907504e+002, 1.032520e+001
7.912325e+002, 1.005357e+001
7.917146e+002, 1.009220e+001
7.921967e+002, 1.030857e+001
7.926788e+002, 1.037821e+001
7.931609e+002, 1.016598e+001
7.936431e+002, 9.959242e+000
7.941252e+002, 1.005040e+001
7.946073e+002, 1.030177e+001
7.950894e+002, 1.047495e+001
7.955715e+002, 1.055877e+001
7.960536e+002, 1.056669e+001
7.965358e+002, 1.049637e+001
7.970179e+002, 1.044309e+001
7.975000e+002, 1.056117e+001
7.979821e+002, 1.086502e+001
7.984642e+002, 1.098964e+001
7.989464e+002, 1.083789e+001
7.994285e+002, 1.068372e+001
7.999106e+002, 1.054789e+001
8.003927e+002, 1.047117e+001
8.008748e+002, 1.051163e+001
8.013569e+002, 1.064838e+001
8.018391e+002, 1.077973e+001
8.023212e+002, 1.088092e+001
8.028033e+002, 1.096887e+001
8.032854e+002, 1.111382e+001
8.037675e+002, 1.121049e+001
8.042496e+002, 1.106482e+001
8.047318e+002, 1.073962e+001
8.052139e+002, 1.049632e+001
8.056960e+002, 1.047950e+001
8.061781e+002, 1.058712e+001
8.066602e+002, 1.066994e+001
8.071423e+002, 1.073010e+001
8.076245e+002, 1.080389e+001
8.081066e+002, 1.090441e+001
8.085887e+002, 1.095884e+001
8.090708e+002, 1.092955e+001
8.095529e+002, 1.084371e+001
8.100350e+002, 1.072233e+001
8.105172e+002, 1.054633e+001
8.109993e+002, 1.047190e+001
8.114814e+002, 1.054845e+001
8.119635e+002, 1.066176e+001
8.124456e+002, 1.082510e+001
8.129277e+002, 1.097972e+001
8.134099e+002, 1.106880e+001
8.138920e+002, 1.109426e+001
8.143741e+002, 1.109433e+001
8.148562e+002, 1.108850e+001
8.153383e+002, 1.106379e+001
8.158204e+002, 1.100317e+001
8.163026e+002, 1.091443e+001
8.167847e+002, 1.078421e+001
8.172668e+002, 1.062621e+001
8.177489e+002, 1.056025e+001
8.182310e+002, 1.066262e+001
8.187131e+002, 1.084914e+001
8.191953e+002, 1.095775e+001
8.196774e+002, 1.097690e+001
8.201595e+002, 1.099059e+001
8.206416e+002, 1.100256e+001
8.211237e+002, 1.100256e+001
8.216058e+002, 1.100436e+001
8.220880e+002, 1.097888e+001
8.225701e+002, 1.082892e+001
8.230522e+002, 1.056606e+001
8.235343e+002, 1.052353e+001
8.240164e+002, 1.104244e+001
8.244985e+002, 1.146449e+001
8.249807e+002, 1.141648e+001
8.254628e+002, 1.117910e+001
8.259449e+002, 1.102749e+001
8.264270e+002, 1.100229e+001
8.269091e+002, 1.107047e+001
8.273912e+002, 1.123499e+001
8.278734e+002, 1.138332e+001
8.283555e+002, 1.130118e+001
8.288376e+002, 1.105976e+001
8.293197e+002, 1.096879e+001
8.298018e+002, 1.105618e+001
8.302839e+002, 1.118709e+001
8.307661e+002, 1.130898e+001
8.312482e+002, 1.139710e+001
8.317303e+002, 1.140559e+001
8.322124e+002, 1.132209e+001
8.326945e+002, 1.124901e+001
8.331766e+002, 1.119024e+001
8.336588e+002, 1.113733e+001
8.341409e+002, 1.109913e+001
8.346230e+002, 1.105757e+001
8.351051e+002, 1.097819e+001
8.355872e+002, 1.087649e+001
8.360693e+002, 1.082741e+001
8.365515e+002, 1.087542e+001
8.370336e+002, 1.094530e+001
8.375157e+002, 1.101011e+001
8.379978e+002, 1.106569e+001
8.384799e+002, 1.111363e+001
8.389620e+002, 1.114813e+001
8.394442e+002, 1.115431e+001
8.399263e+002, 1.112521e+001
8.404084e+002, 1.106651e+001
8.408905e+002, 1.096683e+001
8.413726e+002, 1.084000e+001
8.418547e+002, 1.077333e+001
8.423369e+002, 1.077150e+001
8.428190e+002, 1.077501e+001
8.433011e+002, 1.075516e+001
8.437832e+002, 1.075758e+001
8.442653e+002, 1.085247e+001
8.447474e+002, 1.103572e+001
8.452296e+002, 1.111989e+001
8.457117e+002, 1.098709e+001
8.461938e+002, 1.092751e+001
8.466759e+002, 1.103963e+001
8.471580e+002, 1.116060e+001
8.476401e+002, 1.118062e+001
8.481223e+002, 1.113203e+001
8.486044e+002, 1.109630e+001
8.490865e+002, 1.109178e+001
8.495686e+002, 1.111126e+001
8.500507e+002, 1.118721e+001
8.505328e+002, 1.125624e+001
8.510150e+002, 1.123619e+001
8.514971e+002, 1.115930e+001
8.519792e+002, 1.111472e+001
8.524613e+002, 1.112575e+001
8.529434e+002, 1.112839e+001
8.534255e+002, 1.104859e+001
8.539077e+002, 1.092243e+001
8.543898e+002, 1.088201e+001
8.548719e+002, 1.092716e+001
8.553540e+002, 1.090175e+001
8.558361e+002, 1.075478e+001
8.563182e+002, 1.062197e+001
8.568004e+002, 1.060813e+001
8.572825e+002, 1.068329e+001
8.577646e+002, 1.075521e+001
8.582467e+002, 1.084702e+001
8.587288e+002, 1.088369e+001
8.592109e+002, 1.080859e+001
8.596931e+002, 1.074610e+001
8.601752e+002, 1.077472e+001
8.606573e+002, 1.081983e+001
8.611394e+002, 1.074945e+001
8.616215e+002, 1.056284e+001
8.621036e+002, 1.049406e+001
8.625858e+002, 1.076928e+001
8.630679e+002, 1.105048e+001
8.635500e+002, 1.109041e+001
8.640321e+002, 1.100125e+001
8.645142e+002, 1.090776e+001
8.649963e+002, 1.084602e+001
8.654785e+002, 1.085669e+001
8.659606e+002, 1.097103e+001
8.664427e+002, 1.110701e+001
8.669248e+002, 1.112524e+001
8.674069e+002, 1.104938e+001
8.678890e+002, 1.100217e+001
8.683712e+002, 1.099097e+001
8.688533e+002, 1.101025e+001
8.693354e+002, 1.107109e+001
8.698175e+002, 1.111281e+001
8.702996e+002, 1.104278e+001
8.707817e+002, 1.085937e+001
8.712639e+002, 1.074365e+001
8.717459e+002, 1.073046e+001
8.722280e+002, 1.072360e+001
8.727101e+002, 1.067763e+001
8.731923e+002, 1.066245e+001
8.736744e+002, 1.076851e+001
8.741565e+002, 1.093183e+001
8.746386e+002, 1.098824e+001
8.751207e+002, 1.087265e+001
8.756028e+002, 1.076836e+001
8.760850e+002, 1.075313e+001
8.765671e+002, 1.075878e+001
8.770492e+002, 1.074853e+001
8.775313e+002, 1.071814e+001
8.780134e+002, 1.065936e+001
8.784955e+002, 1.057535e+001
8.789777e+002, 1.049659e+001
8.794598e+002, 1.045441e+001
8.799419e+002, 1.042211e+001
8.804240e+002, 1.033463e+001
8.809061e+002, 1.021774e+001
8.813882e+002, 1.017919e+001
8.818704e+002, 1.023186e+001
8.823525e+002, 1.029898e+001
8.828346e+002, 1.034020e+001
8.833167e+002, 1.033007e+001
8.837988e+002, 1.018506e+001
8.842809e+002, 9.865633e+000
8.847631e+002, 9.723063e+000
8.852452e+002, 9.838530e+000
8.857273e+002, 9.924916e+000
8.862094e+002, 9.823179e+000
8.866915e+002, 9.711434e+000
8.871736e+002, 9.831039e+000
8.876558e+002, 1.016093e+001
8.881379e+002, 1.037257e+001
8.886200e+002, 1.045675e+001
8.891021e+002, 1.042247e+001
8.895842e+002, 1.012924e+001
8.900663e+002, 9.851563e+000
8.905485e+002, 9.840280e+000
8.910306e+002, 9.970840e+000
8.915127e+002, 9.967097e+000
8.919948e+002, 9.748405e+000
8.924769e+002, 9.515108e+000
8.929590e+002, 9.380270e+000
8.934412e+002, 9.306611e+000
8.939233e+002, 9.245684e+000
8.944054e+002, 9.217562e+000
8.948875e+002, 9.303045e+000
8.953696e+002, 9.494452e+000
8.958517e+002, 9.646175e+000
8.963339e+002, 9.646363e+000
8.968160e+002, 9.551503e+000
8.972981e+002, 9.441128e+000
8.977802e+002, 9.325985e+000
8.982623e+002, 9.349381e+000
8.987444e+002, 9.542023e+000
8.992266e+002, 9.637052e+000
8.997087e+002, 9.485086e+000
9.001908e+002, 9.236328e+000
9.006729e+002, 9.105515e+000
9.011550e+002, 9.095103e+000
9.016371e+002, 9.158032e+000
9.021193e+002, 9.398806e+000
9.026014e+002, 9.518113e+000
9.030835e+002, 9.386561e+000
9.035656e+002, 9.187832e+000
9.040477e+002, 9.019069e+000
9.045298e+002, 8.883145e+000
9.050120e+002, 8.789317e+000
9.054941e+002, 8.745636e+000
9.059762e+002, 8.724981e+000
9.064583e+002, 8.737345e+000
9.069404e+002, 8.753744e+000
9.074225e+002, 8.757916e+000
9.079047e+002, 8.754901e+000
9.083868e+002, 8.752176e+000
9.088689e+002, 8.751388e+000
9.093510e+002, 8.751102e+000
9.098331e+002, 8.748877e+000
9.103152e+002, 8.749390e+000
9.107974e+002, 8.792482e+000
9.112795e+002, 8.827195e+000
9.117616e+002, 8.696741e+000
9.122437e+002, 8.445165e+000
9.127258e+002, 8.348146e+000
9.132079e+002, 8.536711e+000
9.136901e+002, 8.804610e+000
9.141722e+002, 8.871201e+000
9.146543e+002, 8.771585e+000
9.151364e+002, 8.709044e+000
9.156185e+002, 8.684577e+000
9.161006e+002, 8.668199e+000
9.165828e+002, 8.654989e+000
9.170649e+002, 8.631513e+000
9.175470e+002, 8.575532e+000
9.180291e+002, 8.509858e+000
9.185112e+002, 8.528459e+000
9.189933e+002, 8.710427e+000
9.194755e+002, 8.769703e+000
9.199576e+002, 8.598894e+000
9.204397e+002, 8.459296e+000
9.209218e+002, 8.496259e+000
9.214039e+002, 8.588145e+000
9.218860e+002, 8.597032e+000
9.223682e+002, 8.525152e+000
9.228503e+002, 8.480751e+000
9.233324e+002, 8.537678e+000
9.238145e+002, 8.543986e+000
9.242966e+002, 8.388014e+000
9.247787e+002, 8.227300e+000
9.252609e+002, 8.189677e+000
9.257430e+002, 8.244791e+000
9.262251e+002, 8.319193e+000
9.267072e+002, 8.392470e+000
9.271893e+002, 8.444990e+000
9.276714e+002, 8.446527e+000
9.281536e+002, 8.435957e+000
9.286357e+002, 8.449824e+000
9.291178e+002, 8.482469e+000
9.295999e+002, 8.526335e+000
9.300820e+002, 8.576364e+000
9.305641e+002, 8.628525e+000
9.310463e+002, 8.687217e+000
9.315284e+002, 8.706944e+000
9.320105e+002, 8.559452e+000
9.324926e+002, 8.308125e+000
9.329747e+002, 8.241928e+000
9.334568e+002, 8.365250e+000
9.339390e+002, 8.480004e+000
9.344211e+002, 8.512956e+000
9.349032e+002, 8.506626e+000
9.353853e+002, 8.497581e+000
9.358674e+002, 8.495541e+000
9.363495e+002, 8.574757e+000
9.368317e+002, 8.772890e+000
9.373138e+002, 8.880343e+000
9.377959e+002, 8.837221e+000
9.382780e+002, 8.779987e+000
9.387601e+002, 8.764932e+000
9.392422e+002, 8.798124e+000
9.397244e+002, 8.923771e+000
9.402065e+002, 9.194011e+000
9.406886e+002, 9.246814e+000
9.411707e+002, 8.777795e+000
9.416528e+002, 8.515218e+000
9.421349e+002, 8.794306e+000
9.426171e+002, 9.146633e+000
9.430992e+002, 9.217210e+000
9.435813e+002, 9.084533e+000
9.440634e+002, 8.982405e+000
9.445455e+002, 8.942857e+000
9.450276e+002, 8.985422e+000
9.455098e+002, 9.194012e+000
9.459919e+002, 9.405515e+000
9.464740e+002, 9.513691e+000
9.469561e+002, 9.555716e+000
9.474382e+002, 9.570224e+000
9.479203e+002, 9.575724e+000
9.484025e+002, 9.605162e+000
9.488846e+002, 9.682393e+000
9.493667e+002, 9.773457e+000
9.498488e+002, 9.867079e+000
9.503309e+002, 9.941785e+000
9.508130e+002, 9.945465e+000
9.512952e+002, 9.899517e+000
9.517773e+002, 9.866628e+000
9.522594e+002, 9.872498e+000
9.527415e+002, 9.943219e+000
9.532236e+002, 1.013145e+001
9.537057e+002, 1.036823e+001
9.541878e+002, 1.044291e+001
9.546699e+002, 1.039534e+001
9.551520e+002, 1.052166e+001
9.556342e+002, 1.086348e+001
9.561163e+002, 1.116345e+001
9.565984e+002, 1.127372e+001
9.570805e+002, 1.133062e+001
9.575626e+002, 1.156294e+001
9.580447e+002, 1.196791e+001
9.585269e+002, 1.229019e+001
9.590090e+002, 1.252157e+001
9.594911e+002, 1.269651e+001
9.599732e+002, 1.277489e+001
9.604553e+002, 1.291629e+001
9.609374e+002, 1.330073e+001
9.614196e+002, 1.379672e+001
9.619017e+002, 1.400844e+001
9.623838e+002, 1.376292e+001
9.628659e+002, 1.376762e+001
9.633480e+002, 1.418439e+001
9.638301e+002, 1.463420e+001
9.643123e+002, 1.504304e+001
9.647944e+002, 1.541982e+001
9.652765e+002, 1.575409e+001
9.657586e+002, 1.606094e+001
9.662407e+002, 1.640234e+001
9.667228e+002, 1.677419e+001
9.672050e+002, 1.720638e+001
9.676871e+002, 1.780840e+001
9.681692e+002, 1.836180e+001
9.686513e+002, 1.865193e+001
9.691334e+002, 1.886699e+001
9.696155e+002, 1.930173e+001
9.700977e+002, 1.995526e+001
9.705798e+002, 2.051024e+001
9.710619e+002, 2.078647e+001
9.715440e+002, 2.099369e+001
9.720261e+002, 2.126476e+001
9.725082e+002, 2.153338e+001
9.729904e+002, 2.172685e+001
9.734725e+002, 2.185680e+001
9.739546e+002, 2.197547e+001
9.744367e+002, 2.209313e+001
9.749188e+002, 2.214594e+001
9.754009e+002, 2.206734e+001
9.758831e+002, 2.191292e+001
9.763652e+002, 2.173205e+001
9.768473e+002, 2.154042e+001
9.773294e+002, 2.131572e+001
9.778115e+002, 2.109858e+001
9.782936e+002, 2.111862e+001
9.787758e+002, 2.148320e+001
9.792579e+002, 2.187902e+001
9.797400e+002, 2.184258e+001
9.802221e+002, 2.155066e+001
9.807042e+002, 2.159890e+001
9.811863e+002, 2.195881e+001
9.816685e+002, 2.239508e+001
9.821506e+002, 2.285988e+001
9.826327e+002, 2.346544e+001
9.831148e+002, 2.428247e+001
9.835969e+002, 2.528378e+001
9.840790e+002, 2.641837e+001
9.845612e+002, 2.768390e+001
9.850433e+002, 2.909979e+001
9.855254e+002, 3.065854e+001
9.860075e+002, 3.245452e+001
9.864896e+002, 3.459763e+001
9.869717e+002, 3.673915e+001
9.874539e+002, 3.861948e+001
9.879360e+002, 4.026011e+001
9.884181e+002, 4.173116e+001
9.889002e+002, 4.303267e+001
9.893823e+002, 4.415108e+001
9.898644e+002, 4.514497e+001
9.903466e+002, 4.584086e+001
9.908287e+002, 4.616545e+001
9.913108e+002, 4.619038e+001
9.917929e+002, 4.585552e+001
9.922750e+002, 4.525017e+001
9.927571e+002, 4.490957e+001
9.932393e+002, 4.491189e+001
9.937214e+002, 4.503823e+001
9.942035e+002, 4.534039e+001
9.946856e+002, 4.570222e+001
9.951677e+002, 4.607319e+001
9.956498e+002, 4.648480e+001
9.961320e+002, 4.701723e+001
9.966141e+002, 4.764393e+001
9.970962e+002, 4.816396e+001
9.975783e+002, 4.867090e+001
9.980604e+002, 4.884602e+001
9.985425e+002, 4.864143e+001
9.990247e+002, 4.804452e+001
9.995068e+002, 4.696868e+001
9.999889e+002, 4.553584e+001
1.000471e+003, 4.389172e+001
1.000953e+003, 4.206591e+001
1.001435e+003, 4.007897e+001
1.001917e+003, 3.788523e+001
1.002399e+003, 3.562493e+001
1.002882e+003, 3.327778e+001
1.003364e+003, 3.099060e+001
1.003846e+003, 2.882526e+001
1.004328e+003, 2.683610e+001
1.004810e+003, 2.507437e+001
1.005292e+003, 2.354711e+001
1.005774e+003, 2.218523e+001
1.006256e+003, 2.092443e+001
1.006739e+003, 1.982608e+001
1.007221e+003, 1.901275e+001
1.007703e+003, 1.836070e+001
1.008185e+003, 1.773672e+001
1.008667e+003, 1.710909e+001
1.009149e+003, 1.643520e+001
1.009631e+003, 1.570990e+001
1.010113e+003, 1.501793e+001
1.010595e+003, 1.442725e+001
1.011078e+003, 1.392697e+001
1.011560e+003, 1.352963e+001
1.012042e+003, 1.320338e+001
1.012524e+003, 1.286835e+001
1.013006e+003, 1.252334e+001
1.013488e+003, 1.221581e+001
1.013970e+003, 1.196517e+001
1.014452e+003, 1.175322e+001
1.014935e+003, 1.157513e+001
1.015417e+003, 1.140747e+001
1.015899e+003, 1.118267e+001
1.016381e+003, 1.091304e+001
1.016863e+003, 1.064661e+001
1.017345e+003, 1.039627e+001
1.017827e+003, 1.020754e+001
1.018309e+003, 1.010653e+001
1.018791e+003, 1.003395e+001
1.019274e+003, 9.900435e+000
1.019756e+003, 9.727163e+000
1.020238e+003, 9.632329e+000
1.020720e+003, 9.611599e+000
1.021202e+003, 9.525356e+000
1.021684e+003, 9.345158e+000
1.022166e+003, 9.179467e+000
1.022648e+003, 9.091860e+000
1.023130e+003, 9.046631e+000
1.023613e+003, 8.985233e+000
1.024095e+003, 8.909951e+000
1.024577e+003, 8.857265e+000
1.025059e+003, 8.825072e+000
1.025541e+003, 8.848081e+000
1.026023e+003, 8.953095e+000
1.026505e+003, 9.017411e+000
1.026987e+003, 8.952534e+000
1.027469e+003, 8.826240e+000
1.027952e+003, 8.764729e+000
1.028434e+003, 8.770460e+000
1.028916e+003, 8.775290e+000
1.029398e+003, 8.791525e+000
1.029880e+003, 8.764700e+000
1.030362e+003, 8.687239e+000
1.030844e+003, 8.550655e+000
1.031326e+003, 8.308305e+000
1.031809e+003, 8.048475e+000
1.032291e+003, 7.959524e+000
1.032773e+003, 8.065287e+000
1.033255e+003, 8.143338e+000
1.033737e+003, 8.199349e+000
1.034219e+003, 8.209772e+000
1.034701e+003, 8.116437e+000
1.035183e+003, 8.058491e+000
1.035666e+003, 8.136946e+000
1.036148e+003, 8.308682e+000
1.036630e+003, 8.506391e+000
1.037112e+003, 8.764072e+000
1.037594e+003, 8.850789e+000
1.038076e+003, 8.590539e+000
1.038558e+003, 8.441327e+000
1.039040e+003, 8.531796e+000
1.039522e+003, 8.700624e+000
1.040005e+003, 8.919067e+000
1.040487e+003, 9.120624e+000
1.040969e+003, 9.124852e+000
1.041451e+003, 8.858348e+000
1.041933e+003, 8.783890e+000
1.042415e+003, 9.145177e+000
1.042897e+003, 9.368590e+000
1.043379e+003, 9.246946e+000
1.043861e+003, 9.058007e+000
1.044344e+003, 8.971991e+000
1.044826e+003, 8.948841e+000
1.045308e+003, 8.894960e+000
1.045790e+003, 8.792430e+000
1.046272e+003, 8.748873e+000
1.046754e+003, 8.851548e+000
1.047236e+003, 8.909704e+000
1.047718e+003, 8.821560e+000
1.048201e+003, 8.728059e+000
1.048683e+003, 8.734191e+000
1.049165e+003, 8.801665e+000
1.049647e+003, 8.858174e+000
1.050129e+003, 8.896762e+000
1.050611e+003, 8.907990e+000
1.051093e+003, 8.873105e+000
1.051575e+003, 8.833333e+000
1.052057e+003, 8.785382e+000
1.052540e+003, 8.751519e+000
1.053022e+003, 8.761609e+000
1.053504e+003, 8.791587e+000
1.053986e+003, 8.805577e+000
1.054468e+003, 8.799105e+000
1.054950e+003, 8.747334e+000
1.055432e+003, 8.542777e+000
1.055914e+003, 8.428720e+000
1.056396e+003, 8.588171e+000
1.056879e+003, 8.771419e+000
1.057361e+003, 8.744977e+000
1.057843e+003, 8.628000e+000
1.058325e+003, 8.662086e+000
1.058807e+003, 8.880918e+000
1.059289e+003, 9.068655e+000
1.059771e+003, 9.153330e+000
1.060253e+003, 9.197644e+000
1.060736e+003, 9.199655e+000
1.061218e+003, 9.195920e+000
1.061700e+003, 9.242859e+000
1.062182e+003, 9.290277e+000
1.062664e+003, 9.203818e+000
1.063146e+003, 8.985456e+000
1.063628e+003, 8.920766e+000
1.064110e+003, 9.258652e+000
1.064593e+003, 9.561899e+000
1.065075e+003, 9.638589e+000
1.065557e+003, 9.625119e+000
1.066039e+003, 9.557636e+000
1.066521e+003, 9.505162e+000
1.067003e+003, 9.600016e+000
1.067485e+003, 9.831858e+000
1.067967e+003, 9.963151e+000
1.068449e+003, 9.814382e+000
1.068932e+003, 9.709077e+000
1.069414e+003, 9.849563e+000
1.069896e+003, 1.002932e+001
1.070378e+003, 1.010985e+001
1.070860e+003, 1.012039e+001
1.071342e+003, 1.008933e+001
1.071824e+003, 1.004077e+001
1.072306e+003, 1.005546e+001
1.072788e+003, 1.016868e+001
1.073271e+003, 1.033536e+001
1.073753e+003, 1.059610e+001
1.074235e+003, 1.083864e+001
1.074717e+003, 1.099406e+001
1.075199e+003, 1.107387e+001
1.075681e+003, 1.108210e+001
1.076163e+003, 1.103451e+001
1.076645e+003, 1.097432e+001
1.077127e+003, 1.089493e+001
1.077610e+003, 1.087309e+001
1.078092e+003, 1.099272e+001
1.078574e+003, 1.112914e+001
1.079056e+003, 1.117921e+001
1.079538e+003, 1.121145e+001
1.080020e+003, 1.131895e+001
1.080502e+003, 1.149159e+001
1.080984e+003, 1.165652e+001
1.081467e+003, 1.178706e+001
1.081949e+003, 1.192924e+001
1.082431e+003, 1.215250e+001
1.082913e+003, 1.233805e+001
1.083395e+003, 1.239645e+001
1.083877e+003, 1.239159e+001
1.084359e+003, 1.235000e+001
1.084841e+003, 1.231491e+001
1.085323e+003, 1.238370e+001
1.085806e+003, 1.259259e+001
1.086288e+003, 1.279335e+001
1.086770e+003, 1.294374e+001
1.087252e+003, 1.304477e+001
1.087734e+003, 1.303741e+001
1.088216e+003, 1.303394e+001
1.088698e+003, 1.315354e+001
1.089180e+003, 1.335545e+001
1.089662e+003, 1.356045e+001
1.090145e+003, 1.375370e+001
1.090627e+003, 1.384577e+001
1.091109e+003, 1.371181e+001
1.091591e+003, 1.359256e+001
1.092073e+003, 1.359438e+001
1.092555e+003, 1.364749e+001
1.093037e+003, 1.369361e+001
1.093519e+003, 1.375304e+001
1.094002e+003, 1.391253e+001
1.094484e+003, 1.416434e+001
1.094966e+003, 1.426560e+001
1.095448e+003, 1.388448e+001
1.095930e+003, 1.371973e+001
1.096412e+003, 1.426407e+001
1.096894e+003, 1.481096e+001
1.097376e+003, 1.485069e+001
1.097859e+003, 1.465821e+001
1.098341e+003, 1.462564e+001
1.098823e+003, 1.476719e+001
1.099305e+003, 1.485545e+001
1.099787e+003, 1.473848e+001
1.100269e+003, 1.477563e+001
1.100751e+003, 1.521369e+001
1.101233e+003, 1.564257e+001
1.101715e+003, 1.580690e+001
1.102198e+003, 1.590324e+001
1.102680e+003, 1.614393e+001
1.103162e+003, 1.650975e+001
1.103644e+003, 1.688149e+001
1.104126e+003, 1.727871e+001
1.104608e+003, 1.756656e+001
1.105090e+003, 1.760523e+001
1.105572e+003, 1.768095e+001
1.106054e+003, 1.786374e+001
1.106537e+003, 1.814906e+001
1.107019e+003, 1.854451e+001
1.107501e+003, 1.903640e+001
1.107983e+003, 1.963888e+001
1.108465e+003, 2.041700e+001
1.108947e+003, 2.093827e+001
1.109429e+003, 2.083035e+001
1.109911e+003, 2.094001e+001
1.110394e+003, 2.162266e+001
1.110876e+003, 2.237049e+001
1.111358e+003, 2.288500e+001
1.111840e+003, 2.326758e+001
1.112322e+003, 2.369125e+001
1.112804e+003, 2.416172e+001
1.113286e+003, 2.456731e+001
1.113768e+003, 2.476856e+001
1.114250e+003, 2.513653e+001
1.114733e+003, 2.579999e+001
1.115215e+003, 2.648936e+001
1.115697e+003, 2.706844e+001
1.116179e+003, 2.763888e+001
1.116661e+003, 2.833584e+001
1.117143e+003, 2.913649e+001
1.117625e+003, 2.986726e+001
1.118107e+003, 3.046591e+001
1.118589e+003, 3.112480e+001
1.119072e+003, 3.177395e+001
1.119554e+003, 3.264471e+001
1.120036e+003, 3.394262e+001
1.120518e+003, 3.526943e+001
1.121000e+003, 3.624553e+001
1.121482e+003, 3.702604e+001
1.121964e+003, 3.806669e+001
1.122446e+003, 3.940725e+001
1.122929e+003, 4.075972e+001
1.123411e+003, 4.210374e+001
1.123893e+003, 4.353994e+001
1.124375e+003, 4.507382e+001
1.124857e+003, 4.676454e+001
1.125339e+003, 4.867784e+001
1.125821e+003, 5.070245e+001
1.126303e+003, 5.261308e+001
1.126786e+003, 5.442657e+001
1.127268e+003, 5.647751e+001
1.127750e+003, 5.877617e+001
1.128232e+003, 6.110530e+001
1.128714e+003, 6.340475e+001
1.129196e+003, 6.586533e+001
1.129678e+003, 6.855501e+001
1.130160e+003, 7.147498e+001
1.130642e+003, 7.463713e+001
1.131125e+003, 7.800978e+001
1.131607e+003, 8.147359e+001
1.132089e+003, 8.502587e+001
1.132571e+003, 8.863076e+001
1.133053e+003, 9.230664e+001
1.133535e+003, 9.594801e+001
1.134017e+003, 9.952586e+001
1.134499e+003, 1.028012e+002
1.134981e+003, 1.056025e+002
1.135464e+003, 1.079182e+002
1.135946e+003, 1.096410e+002
1.136428e+003, 1.108692e+002
1.136910e+003, 1.121222e+002
1.137392e+003, 1.132579e+002
1.137874e+003, 1.136302e+002
1.138356e+003, 1.130993e+002
1.138838e+003, 1.116073e+002
1.139321e+003, 1.091157e+002
1.139803e+003, 1.061082e+002
1.140285e+003, 1.030207e+002
1.140767e+003, 9.982979e+001
1.141249e+003, 9.650622e+001
1.141731e+003, 9.302210e+001
1.142213e+003, 8.922919e+001
1.142695e+003, 8.522881e+001
1.143177e+003, 8.131947e+001
1.143660e+003, 7.760562e+001
1.144142e+003, 7.406413e+001
1.144624e+003, 7.066372e+001
1.145106e+003, 6.741920e+001
1.145588e+003, 6.428934e+001
1.146070e+003, 6.136144e+001
1.146552e+003, 5.887707e+001
1.147034e+003, 5.661879e+001
1.147516e+003, 5.407909e+001
1.147999e+003, 5.131436e+001
1.148481e+003, 4.897455e+001
1.148963e+003, 4.737931e+001
1.149445e+003, 4.589478e+001
1.149927e+003, 4.409571e+001
1.150409e+003, 4.229000e+001
1.150891e+003, 4.069120e+001
1.151373e+003, 3.920977e+001
1.151856e+003, 3.776687e+001
1.152338e+003, 3.634929e+001
1.152820e+003, 3.492548e+001
1.153302e+003, 3.348996e+001
1.153784e+003, 3.219634e+001
1.154266e+003, 3.119605e+001
1.154748e+003, 3.019430e+001
1.155230e+003, 2.902841e+001
1.155713e+003, 2.790483e+001
1.156195e+003, 2.693375e+001
1.156677e+003, 2.608843e+001
1.157159e+003, 2.535516e+001
1.157641e+003, 2.470912e+001
1.158123e+003, 2.402399e+001
1.158605e+003, 2.328786e+001
1.159087e+003, 2.250123e+001
1.159569e+003, 2.155744e+001
1.160052e+003, 2.070571e+001
1.160534e+003, 1.999887e+001
1.161016e+003, 1.941422e+001
1.161498e+003, 1.896217e+001
1.161980e+003, 1.860935e+001
1.162462e+003, 1.829661e+001
1.162944e+003, 1.803279e+001
1.163426e+003, 1.769897e+001
1.163908e+003, 1.725412e+001
1.164391e+003, 1.686703e+001
1.164873e+003, 1.658591e+001
1.165355e+003, 1.627984e+001
1.165837e+003, 1.585466e+001
1.166319e+003, 1.547038e+001
1.166801e+003, 1.535460e+001
1.167283e+003, 1.539722e+001
1.167765e+003, 1.508852e+001
1.168247e+003, 1.441034e+001
1.168730e+003, 1.395086e+001
1.169212e+003, 1.374008e+001
1.169694e+003, 1.362808e+001
1.170176e+003, 1.357835e+001
1.170658e+003, 1.346890e+001
1.171140e+003, 1.320952e+001
1.171622e+003, 1.288551e+001
1.172104e+003, 1.260525e+001
1.172587e+003, 1.238246e+001
1.173069e+003, 1.230850e+001
1.173551e+003, 1.233011e+001
1.174033e+003, 1.222087e+001
1.174515e+003, 1.198436e+001
1.174997e+003, 1.180215e+001
1.175479e+003, 1.173890e+001
1.175961e+003, 1.170072e+001
1.176443e+003, 1.161472e+001
1.176926e+003, 1.150301e+001
1.177408e+003, 1.136897e+001
1.177890e+003, 1.124449e+001
1.178372e+003, 1.119373e+001
1.178854e+003, 1.118188e+001
1.179336e+003, 1.112600e+001
1.179818e+003, 1.102866e+001
1.180300e+003, 1.098040e+001
1.180782e+003, 1.103231e+001
1.181265e+003, 1.102350e+001
1.181747e+003, 1.081443e+001
1.182229e+003, 1.056334e+001
1.182711e+003, 1.030455e+001
1.183193e+003, 1.011560e+001
1.183675e+003, 1.016375e+001
1.184157e+003, 1.029387e+001
1.184639e+003, 1.017813e+001
1.185122e+003, 9.787889e+000
1.185604e+003, 9.500630e+000
1.186086e+003, 9.470672e+000
1.186568e+003, 9.436138e+000
1.187050e+003, 9.284093e+000
1.187532e+003, 9.205721e+000
1.188014e+003, 9.407543e+000
1.188496e+003, 9.606915e+000
1.188979e+003, 9.488110e+000
1.189461e+003, 9.177129e+000
1.189943e+003, 9.046037e+000
1.190425e+003, 9.130988e+000
1.190907e+003, 9.187166e+000
1.191389e+003, 9.224136e+000
1.191871e+003, 9.203860e+000
1.192353e+003, 9.116351e+000
1.192835e+003, 8.974456e+000
1.193318e+003, 8.766854e+000
1.193800e+003, 8.559247e+000
1.194282e+003, 8.432873e+000
1.194764e+003, 8.374230e+000
1.195246e+003, 8.330699e+000
1.195728e+003, 8.302912e+000
1.196210e+003, 8.336758e+000
1.196692e+003, 8.426898e+000
1.197174e+003, 8.397572e+000
1.197657e+003, 8.214711e+000
1.198139e+003, 8.099107e+000
1.198621e+003, 8.191947e+000
1.199103e+003, 8.357138e+000
1.199585e+003, 8.454961e+000
1.200067e+003, 8.466594e+000
1.200549e+003, 8.281394e+000
1.201031e+003, 8.010718e+000
1.201514e+003, 7.920681e+000
1.201996e+003, 7.976242e+000
1.202478e+003, 7.968791e+000
1.202960e+003, 7.858130e+000
1.203442e+003, 7.826769e+000
1.203924e+003, 8.034639e+000
1.204406e+003, 8.188118e+000
1.204888e+003, 7.967235e+000
1.205370e+003, 7.704907e+000
1.205853e+003, 7.671473e+000
1.206335e+003, 7.764040e+000
1.206817e+003, 7.912464e+000
1.207299e+003, 8.048705e+000
1.207781e+003, 8.036825e+000
1.208263e+003, 7.842697e+000
1.208745e+003, 7.638875e+000
1.209227e+003, 7.339922e+000
1.209709e+003, 7.226195e+000
1.210192e+003, 7.536086e+000
1.210674e+003, 7.829358e+000
1.211156e+003, 7.895354e+000
1.211638e+003, 7.829630e+000
1.212120e+003, 7.674477e+000
1.212602e+003, 7.476903e+000
1.213084e+003, 7.432085e+000
1.213566e+003, 7.591339e+000
1.214049e+003, 7.636719e+000
1.214531e+003, 7.534673e+000
1.215013e+003, 7.452947e+000
1.215495e+003, 7.426552e+000
1.215977e+003, 7.396355e+000
1.216459e+003, 7.322022e+000
1.216941e+003, 7.286678e+000
1.217423e+003, 7.418855e+000
1.217906e+003, 7.626266e+000
1.218388e+003, 7.570410e+000
1.218870e+003, 7.325304e+000
1.219352e+003, 7.310607e+000
1.219834e+003, 7.486246e+000
1.220316e+003, 7.491414e+000
1.220798e+003, 7.277883e+000
1.221280e+003, 7.144332e+000
1.221762e+003, 7.256733e+000
1.222245e+003, 7.361727e+000
1.222727e+003, 7.106257e+000
1.223209e+003, 6.807884e+000
1.223691e+003, 6.877735e+000
1.224173e+003, 7.089396e+000
1.224655e+003, 7.161127e+000
1.225137e+003, 7.128304e+000
1.225619e+003, 7.097789e+000
1.226101e+003, 7.097680e+000
1.226584e+003, 7.146691e+000
1.227066e+003, 7.286903e+000
1.227548e+003, 7.370089e+000
1.228030e+003, 7.299447e+000
1.228512e+003, 7.222170e+000
1.228994e+003, 7.194755e+000
1.229476e+003, 7.189598e+000
1.229958e+003, 7.269458e+000
1.230441e+003, 7.309493e+000
1.230923e+003, 7.016432e+000
1.231405e+003, 6.409019e+000
1.231887e+003, 6.190333e+000
1.232369e+003, 6.512681e+000
1.232851e+003, 6.768450e+000
1.233333e+003, 6.944121e+000
1.233815e+003, 6.990088e+000
1.234297e+003, 6.855171e+000
1.234780e+003, 6.757121e+000
1.235262e+003, 6.865167e+000
1.235744e+003, 7.054587e+000
1.236226e+003, 7.113437e+000
1.236708e+003, 7.069227e+000
1.237190e+003, 7.028825e+000
1.237672e+003, 6.992006e+000
1.238154e+003, 6.970071e+000
1.238636e+003, 6.951889e+000
1.239119e+003, 6.859969e+000
1.239601e+003, 6.689750e+000
1.240083e+003, 6.584350e+000
1.240565e+003, 6.650720e+000
1.241047e+003, 6.725121e+000
1.241529e+003, 6.608785e+000
1.242011e+003, 6.467814e+000
1.242493e+003, 6.431869e+000
1.242975e+003, 6.493953e+000
1.243458e+003, 6.727411e+000
1.243940e+003, 7.012574e+000
1.244422e+003, 7.090799e+000
1.244904e+003, 6.936198e+000
1.245386e+003, 6.805051e+000
1.245868e+003, 6.757813e+000
1.246350e+003, 6.749291e+000
1.246832e+003, 6.803112e+000
1.247315e+003, 6.852452e+000
1.247797e+003, 6.884858e+000
1.248279e+003, 6.893671e+000
1.248761e+003, 6.876422e+000
1.249243e+003, 6.828703e+000
1.249725e+003, 6.730311e+000
1.250207e+003, 6.587999e+000
1.250689e+003, 6.530036e+000
1.251172e+003, 6.568257e+000
1.251654e+003, 6.547473e+000
1.252136e+003, 6.452122e+000
1.252618e+003, 6.411062e+000
1.253100e+003, 6.462770e+000
1.253582e+003, 6.548526e+000
1.254064e+003, 6.630956e+000
1.254546e+003, 6.691659e+000
1.255028e+003, 6.696565e+000
1.255510e+003, 6.667340e+000
1.255993e+003, 6.622274e+000
1.256475e+003, 6.585813e+000
1.256957e+003, 6.640928e+000
1.257439e+003, 6.734912e+000
1.257921e+003, 6.701544e+000
1.258403e+003, 6.540034e+000
1.258885e+003, 6.461164e+000
1.259367e+003, 6.576933e+000
1.259850e+003, 6.697682e+000
1.260332e+003, 6.765302e+000
1.260814e+003, 6.777730e+000
1.261296e+003, 6.721017e+000
1.261778e+003, 6.622059e+000
1.262260e+003, 6.418034e+000
1.262742e+003, 6.234434e+000
1.263224e+003, 6.326014e+000
1.263707e+003, 6.640876e+000
1.264189e+003, 6.725533e+000
1.264671e+003, 6.482812e+000
1.265153e+003, 6.337459e+000
1.265635e+003, 6.299246e+000
1.266117e+003, 6.341183e+000
1.266599e+003, 6.472238e+000
1.267081e+003, 6.578723e+000
1.267563e+003, 6.596122e+000
1.268046e+003, 6.568751e+000
1.268528e+003, 6.540223e+000
1.269010e+003, 6.522973e+000
1.269492e+003, 6.540882e+000
1.269974e+003, 6.594565e+000
1.270456e+003, 6.738117e+000
1.270938e+003, 6.905043e+000
1.271420e+003, 6.864322e+000
1.271902e+003, 6.656423e+000
1.272385e+003, 6.598152e+000
1.272867e+003, 6.811148e+000
1.273349e+003, 7.022414e+000
1.273831e+003, 7.033741e+000
1.274313e+003, 7.052192e+000
1.274795e+003, 7.278565e+000
1.275277e+003, 7.437668e+000
1.275759e+003, 7.264059e+000
1.276242e+003, 6.989084e+000
1.276724e+003, 6.875003e+000
1.277206e+003, 6.889655e+000
1.277688e+003, 6.890712e+000
1.278170e+003, 6.875192e+000
1.278652e+003, 6.873278e+000
1.279134e+003, 6.900072e+000
1.279616e+003, 6.881844e+000
1.280099e+003, 6.803473e+000
1.280581e+003, 6.716581e+000
1.281063e+003, 6.637805e+000
1.281545e+003, 6.569982e+000
1.282027e+003, 6.513221e+000
1.282509e+003, 6.476914e+000
1.282991e+003, 6.487285e+000
1.283473e+003, 6.524354e+000
1.283955e+003, 6.546767e+000
##END=



