##NAMES=Bermanite
##RRUFFID=R130057
##IDEAL CHEMISTRY=Mn^2+^Mn^3+^_2_(PO_4_)_2_(OH)_2_&#183;4H_2_O
##LOCALITY=Tip Top mine, Custer, South Dakota, USA
##OWNER=RRUFF
##SOURCE=Thomas A. Loomis
##DESCRIPTION=Dark red plates
##STATUS=The identification of this mineral has been confirmed only by single crystal X-ray diffraction.
##URL=rruff.info/R130057
8.936163e+001, 0.000000e+000
8.984375e+001, 1.431745e+002
9.032587e+001, 1.431990e+002
9.080798e+001, 1.432670e+002
9.129010e+001, 1.435892e+002
9.177222e+001, 1.437030e+002
9.225433e+001, 1.430381e+002
9.273645e+001, 1.416199e+002
9.321857e+001, 1.397074e+002
9.370068e+001, 1.372085e+002
9.418280e+001, 1.343273e+002
9.466492e+001, 1.317631e+002
9.514703e+001, 1.298004e+002
9.562915e+001, 1.283100e+002
9.611127e+001, 1.269257e+002
9.659338e+001, 1.256755e+002
9.707550e+001, 1.244323e+002
9.755762e+001, 1.228979e+002
9.803973e+001, 1.210558e+002
9.852185e+001, 1.195176e+002
9.900397e+001, 1.186317e+002
9.948608e+001, 1.184120e+002
9.996820e+001, 1.181416e+002
1.004503e+002, 1.178927e+002
1.009324e+002, 1.175006e+002
1.014146e+002, 1.166020e+002
1.018967e+002, 1.151095e+002
1.023788e+002, 1.133382e+002
1.028609e+002, 1.112928e+002
1.033430e+002, 1.087282e+002
1.038251e+002, 1.067693e+002
1.043073e+002, 1.056951e+002
1.047894e+002, 1.053260e+002
1.052715e+002, 1.047350e+002
1.057536e+002, 1.038479e+002
1.062357e+002, 1.028159e+002
1.067178e+002, 1.016976e+002
1.072000e+002, 1.002178e+002
1.076821e+002, 9.907456e+001
1.081642e+002, 9.856264e+001
1.086463e+002, 9.876270e+001
1.091284e+002, 9.847286e+001
1.096105e+002, 9.746841e+001
1.100927e+002, 9.606762e+001
1.105748e+002, 9.457841e+001
1.110569e+002, 9.246221e+001
1.115390e+002, 9.076871e+001
1.120211e+002, 8.990189e+001
1.125032e+002, 9.016856e+001
1.129854e+002, 9.016543e+001
1.134675e+002, 8.955090e+001
1.139496e+002, 8.858748e+001
1.144317e+002, 8.764453e+001
1.149138e+002, 8.667274e+001
1.153959e+002, 8.584678e+001
1.158781e+002, 8.532432e+001
1.163602e+002, 8.539577e+001
1.168423e+002, 8.519383e+001
1.173244e+002, 8.425107e+001
1.178065e+002, 8.278249e+001
1.182886e+002, 8.133536e+001
1.187708e+002, 7.998981e+001
1.192529e+002, 7.883041e+001
1.197350e+002, 7.796150e+001
1.202171e+002, 7.760533e+001
1.206992e+002, 7.730579e+001
1.211813e+002, 7.677406e+001
1.216635e+002, 7.604034e+001
1.221456e+002, 7.528139e+001
1.226277e+002, 7.459041e+001
1.231098e+002, 7.394379e+001
1.235919e+002, 7.331448e+001
1.240740e+002, 7.284761e+001
1.245562e+002, 7.229673e+001
1.250383e+002, 7.124140e+001
1.255204e+002, 6.968105e+001
1.260025e+002, 6.826748e+001
1.264846e+002, 6.773004e+001
1.269667e+002, 6.779935e+001
1.274489e+002, 6.780195e+001
1.279310e+002, 6.728413e+001
1.284131e+002, 6.652946e+001
1.288952e+002, 6.619252e+001
1.293773e+002, 6.637286e+001
1.298594e+002, 6.656547e+001
1.303416e+002, 6.605118e+001
1.308237e+002, 6.491732e+001
1.313058e+002, 6.376558e+001
1.317879e+002, 6.293672e+001
1.322700e+002, 6.236961e+001
1.327521e+002, 6.175734e+001
1.332343e+002, 6.105151e+001
1.337164e+002, 6.033349e+001
1.341985e+002, 5.969264e+001
1.346806e+002, 5.912395e+001
1.351627e+002, 5.869815e+001
1.356448e+002, 5.859145e+001
1.361270e+002, 5.881236e+001
1.366091e+002, 5.871377e+001
1.370912e+002, 5.811153e+001
1.375733e+002, 5.718884e+001
1.380554e+002, 5.657051e+001
1.385375e+002, 5.635621e+001
1.390197e+002, 5.615137e+001
1.395018e+002, 5.556113e+001
1.399839e+002, 5.444343e+001
1.404660e+002, 5.360368e+001
1.409481e+002, 5.327114e+001
1.414302e+002, 5.339545e+001
1.419124e+002, 5.326953e+001
1.423945e+002, 5.279369e+001
1.428766e+002, 5.220768e+001
1.433587e+002, 5.177940e+001
1.438408e+002, 5.168668e+001
1.443229e+002, 5.139048e+001
1.448051e+002, 5.073272e+001
1.452872e+002, 4.964479e+001
1.457693e+002, 4.861613e+001
1.462514e+002, 4.743703e+001
1.467335e+002, 4.643190e+001
1.472156e+002, 4.604217e+001
1.476978e+002, 4.689278e+001
1.481799e+002, 4.758983e+001
1.486620e+002, 4.769574e+001
1.491441e+002, 4.681635e+001
1.496262e+002, 4.642048e+001
1.501083e+002, 4.691970e+001
1.505905e+002, 4.784026e+001
1.510726e+002, 4.835366e+001
1.515547e+002, 4.836995e+001
1.520368e+002, 4.805711e+001
1.525189e+002, 4.741461e+001
1.530010e+002, 4.613493e+001
1.534832e+002, 4.507222e+001
1.539653e+002, 4.434416e+001
1.544474e+002, 4.387315e+001
1.549295e+002, 4.347290e+001
1.554116e+002, 4.323396e+001
1.558937e+002, 4.297815e+001
1.563759e+002, 4.263324e+001
1.568580e+002, 4.224618e+001
1.573401e+002, 4.169239e+001
1.578222e+002, 4.067671e+001
1.583043e+002, 3.939675e+001
1.587864e+002, 3.858089e+001
1.592686e+002, 3.860640e+001
1.597507e+002, 3.905303e+001
1.602328e+002, 3.966072e+001
1.607149e+002, 4.098227e+001
1.611970e+002, 4.183855e+001
1.616791e+002, 4.152539e+001
1.621613e+002, 4.023333e+001
1.626434e+002, 3.919180e+001
1.631255e+002, 3.926878e+001
1.636076e+002, 3.966631e+001
1.640897e+002, 3.967357e+001
1.645718e+002, 3.832568e+001
1.650540e+002, 3.714257e+001
1.655361e+002, 3.709880e+001
1.660182e+002, 3.815271e+001
1.665003e+002, 3.911308e+001
1.669824e+002, 3.921879e+001
1.674645e+002, 3.890053e+001
1.679467e+002, 3.869007e+001
1.684288e+002, 3.889297e+001
1.689109e+002, 3.920353e+001
1.693930e+002, 3.933388e+001
1.698751e+002, 3.926173e+001
1.703572e+002, 3.936483e+001
1.708394e+002, 3.992307e+001
1.713215e+002, 4.083364e+001
1.718036e+002, 4.191010e+001
1.722857e+002, 4.330654e+001
1.727678e+002, 4.471676e+001
1.732499e+002, 4.575499e+001
1.737321e+002, 4.635489e+001
1.742142e+002, 4.696499e+001
1.746963e+002, 4.796703e+001
1.751784e+002, 4.928426e+001
1.756605e+002, 5.074129e+001
1.761426e+002, 5.242176e+001
1.766248e+002, 5.411857e+001
1.771069e+002, 5.542931e+001
1.775890e+002, 5.622181e+001
1.780711e+002, 5.706933e+001
1.785532e+002, 5.886852e+001
1.790353e+002, 6.135002e+001
1.795175e+002, 6.347865e+001
1.799996e+002, 6.434633e+001
1.804817e+002, 6.451996e+001
1.809638e+002, 6.515562e+001
1.814459e+002, 6.647607e+001
1.819280e+002, 6.804948e+001
1.824102e+002, 6.935575e+001
1.828923e+002, 7.040580e+001
1.833744e+002, 7.142567e+001
1.838565e+002, 7.251053e+001
1.843386e+002, 7.366605e+001
1.848207e+002, 7.484864e+001
1.853029e+002, 7.602461e+001
1.857850e+002, 7.729833e+001
1.862671e+002, 7.891642e+001
1.867492e+002, 8.086208e+001
1.872313e+002, 8.290789e+001
1.877134e+002, 8.484924e+001
1.881956e+002, 8.674967e+001
1.886777e+002, 8.882385e+001
1.891598e+002, 9.115256e+001
1.896419e+002, 9.365289e+001
1.901240e+002, 9.629334e+001
1.906061e+002, 9.912563e+001
1.910883e+002, 1.016833e+002
1.915704e+002, 1.033523e+002
1.920525e+002, 1.042756e+002
1.925346e+002, 1.058221e+002
1.930167e+002, 1.085186e+002
1.934988e+002, 1.117093e+002
1.939810e+002, 1.131880e+002
1.944631e+002, 1.127235e+002
1.949452e+002, 1.120112e+002
1.954273e+002, 1.119835e+002
1.959094e+002, 1.126168e+002
1.963915e+002, 1.132369e+002
1.968737e+002, 1.137819e+002
1.973558e+002, 1.142023e+002
1.978379e+002, 1.142906e+002
1.983200e+002, 1.140286e+002
1.988021e+002, 1.135590e+002
1.992842e+002, 1.129216e+002
1.997664e+002, 1.120968e+002
2.002485e+002, 1.114594e+002
2.007306e+002, 1.110966e+002
2.012127e+002, 1.109781e+002
2.016948e+002, 1.110298e+002
2.021769e+002, 1.113678e+002
2.026591e+002, 1.115355e+002
2.031412e+002, 1.109113e+002
2.036233e+002, 1.093356e+002
2.041054e+002, 1.081835e+002
2.045875e+002, 1.078283e+002
2.050696e+002, 1.081837e+002
2.055518e+002, 1.084984e+002
2.060339e+002, 1.087025e+002
2.065160e+002, 1.090134e+002
2.069981e+002, 1.097596e+002
2.074802e+002, 1.110739e+002
2.079623e+002, 1.121617e+002
2.084445e+002, 1.128169e+002
2.089266e+002, 1.130559e+002
2.094087e+002, 1.131170e+002
2.098908e+002, 1.128478e+002
2.103729e+002, 1.126682e+002
2.108550e+002, 1.131338e+002
2.113372e+002, 1.144567e+002
2.118193e+002, 1.156588e+002
2.123014e+002, 1.165518e+002
2.127835e+002, 1.171323e+002
2.132656e+002, 1.173474e+002
2.137477e+002, 1.171402e+002
2.142299e+002, 1.166530e+002
2.147120e+002, 1.160425e+002
2.151941e+002, 1.152914e+002
2.156762e+002, 1.144468e+002
2.161583e+002, 1.134808e+002
2.166404e+002, 1.123908e+002
2.171226e+002, 1.113709e+002
2.176047e+002, 1.104293e+002
2.180868e+002, 1.095447e+002
2.185689e+002, 1.086920e+002
2.190510e+002, 1.078988e+002
2.195331e+002, 1.070633e+002
2.200153e+002, 1.061481e+002
2.204974e+002, 1.051460e+002
2.209795e+002, 1.040935e+002
2.214616e+002, 1.028912e+002
2.219437e+002, 1.017344e+002
2.224258e+002, 1.008966e+002
2.229080e+002, 1.006014e+002
2.233901e+002, 1.001459e+002
2.238722e+002, 9.923342e+001
2.243543e+002, 9.773489e+001
2.248364e+002, 9.682960e+001
2.253185e+002, 9.669328e+001
2.258007e+002, 9.698685e+001
2.262828e+002, 9.732961e+001
2.267649e+002, 9.780968e+001
2.272470e+002, 9.814845e+001
2.277291e+002, 9.821080e+001
2.282112e+002, 9.793656e+001
2.286934e+002, 9.785339e+001
2.291755e+002, 9.803046e+001
2.296576e+002, 9.833464e+001
2.301397e+002, 9.857478e+001
2.306218e+002, 9.864428e+001
2.311039e+002, 9.885714e+001
2.315861e+002, 9.932918e+001
2.320682e+002, 1.001192e+002
2.325503e+002, 1.008228e+002
2.330324e+002, 1.014701e+002
2.335145e+002, 1.020109e+002
2.339966e+002, 1.023623e+002
2.344788e+002, 1.023907e+002
2.349609e+002, 1.024710e+002
2.354430e+002, 1.027202e+002
2.359251e+002, 1.031729e+002
2.364072e+002, 1.035674e+002
2.368893e+002, 1.039485e+002
2.373715e+002, 1.042345e+002
2.378536e+002, 1.043003e+002
2.383357e+002, 1.039999e+002
2.388178e+002, 1.037254e+002
2.392999e+002, 1.035236e+002
2.397820e+002, 1.033619e+002
2.402642e+002, 1.035509e+002
2.407463e+002, 1.043227e+002
2.412284e+002, 1.052454e+002
2.417105e+002, 1.057599e+002
2.421926e+002, 1.055874e+002
2.426747e+002, 1.055115e+002
2.431569e+002, 1.057620e+002
2.436390e+002, 1.063957e+002
2.441211e+002, 1.068661e+002
2.446032e+002, 1.070215e+002
2.450853e+002, 1.071511e+002
2.455674e+002, 1.076286e+002
2.460496e+002, 1.087174e+002
2.465317e+002, 1.096698e+002
2.470138e+002, 1.102928e+002
2.474959e+002, 1.105570e+002
2.479780e+002, 1.108483e+002
2.484601e+002, 1.110729e+002
2.489423e+002, 1.114209e+002
2.494244e+002, 1.121407e+002
2.499065e+002, 1.134514e+002
2.503886e+002, 1.147055e+002
2.508707e+002, 1.157503e+002
2.513528e+002, 1.165674e+002
2.518350e+002, 1.174146e+002
2.523171e+002, 1.182218e+002
2.527992e+002, 1.191225e+002
2.532813e+002, 1.202966e+002
2.537634e+002, 1.219171e+002
2.542455e+002, 1.233988e+002
2.547277e+002, 1.245643e+002
2.552098e+002, 1.254087e+002
2.556919e+002, 1.264714e+002
2.561740e+002, 1.279507e+002
2.566561e+002, 1.293955e+002
2.571382e+002, 1.303313e+002
2.576204e+002, 1.305934e+002
2.581025e+002, 1.307520e+002
2.585846e+002, 1.308567e+002
2.590667e+002, 1.309163e+002
2.595488e+002, 1.311448e+002
2.600309e+002, 1.316026e+002
2.605131e+002, 1.321356e+002
2.609952e+002, 1.325878e+002
2.614773e+002, 1.329029e+002
2.619594e+002, 1.333100e+002
2.624415e+002, 1.338546e+002
2.629236e+002, 1.345323e+002
2.634058e+002, 1.352831e+002
2.638879e+002, 1.362471e+002
2.643700e+002, 1.370633e+002
2.648521e+002, 1.373580e+002
2.653342e+002, 1.368732e+002
2.658163e+002, 1.367539e+002
2.662985e+002, 1.372873e+002
2.667806e+002, 1.383311e+002
2.672627e+002, 1.391679e+002
2.677448e+002, 1.399043e+002
2.682269e+002, 1.401926e+002
2.687090e+002, 1.395748e+002
2.691912e+002, 1.377081e+002
2.696733e+002, 1.364353e+002
2.701554e+002, 1.362257e+002
2.706375e+002, 1.367099e+002
2.711196e+002, 1.363770e+002
2.716017e+002, 1.350536e+002
2.720839e+002, 1.333958e+002
2.725660e+002, 1.318215e+002
2.730481e+002, 1.303250e+002
2.735302e+002, 1.289283e+002
2.740123e+002, 1.276916e+002
2.744944e+002, 1.265066e+002
2.749766e+002, 1.249779e+002
2.754587e+002, 1.230203e+002
2.759408e+002, 1.210689e+002
2.764229e+002, 1.194882e+002
2.769050e+002, 1.183140e+002
2.773871e+002, 1.169449e+002
2.778693e+002, 1.152769e+002
2.783514e+002, 1.134637e+002
2.788335e+002, 1.118009e+002
2.793156e+002, 1.102572e+002
2.797977e+002, 1.089581e+002
2.802798e+002, 1.080745e+002
2.807620e+002, 1.076165e+002
2.812441e+002, 1.069537e+002
2.817262e+002, 1.059902e+002
2.822083e+002, 1.049278e+002
2.826904e+002, 1.041445e+002
2.831725e+002, 1.036557e+002
2.836547e+002, 1.032116e+002
2.841368e+002, 1.026472e+002
2.846189e+002, 1.019892e+002
2.851010e+002, 1.015554e+002
2.855831e+002, 1.014186e+002
2.860652e+002, 1.013208e+002
2.865474e+002, 1.008075e+002
2.870295e+002, 9.988888e+001
2.875116e+002, 9.905952e+001
2.879937e+002, 9.858548e+001
2.884758e+002, 9.840189e+001
2.889579e+002, 9.812733e+001
2.894401e+002, 9.773286e+001
2.899222e+002, 9.738167e+001
2.904043e+002, 9.734570e+001
2.908864e+002, 9.758154e+001
2.913685e+002, 9.773164e+001
2.918506e+002, 9.754625e+001
2.923328e+002, 9.718725e+001
2.928149e+002, 9.720081e+001
2.932970e+002, 9.761278e+001
2.937791e+002, 9.807121e+001
2.942612e+002, 9.811765e+001
2.947433e+002, 9.787066e+001
2.952255e+002, 9.780691e+001
2.957076e+002, 9.814079e+001
2.961897e+002, 9.872350e+001
2.966718e+002, 9.925797e+001
2.971539e+002, 9.974426e+001
2.976360e+002, 1.002839e+002
2.981182e+002, 1.010125e+002
2.986003e+002, 1.018590e+002
2.990824e+002, 1.026501e+002
2.995645e+002, 1.032724e+002
3.000466e+002, 1.038933e+002
3.005287e+002, 1.047129e+002
3.010109e+002, 1.057284e+002
3.014930e+002, 1.069634e+002
3.019751e+002, 1.085087e+002
3.024572e+002, 1.102665e+002
3.029393e+002, 1.120276e+002
3.034214e+002, 1.137349e+002
3.039036e+002, 1.154980e+002
3.043857e+002, 1.175257e+002
3.048678e+002, 1.197362e+002
3.053499e+002, 1.218762e+002
3.058320e+002, 1.235135e+002
3.063141e+002, 1.250847e+002
3.067963e+002, 1.271074e+002
3.072784e+002, 1.297569e+002
3.077605e+002, 1.326651e+002
3.082426e+002, 1.355826e+002
3.087247e+002, 1.385313e+002
3.092068e+002, 1.415642e+002
3.096890e+002, 1.446241e+002
3.101711e+002, 1.478298e+002
3.106532e+002, 1.512688e+002
3.111353e+002, 1.549560e+002
3.116174e+002, 1.587710e+002
3.120995e+002, 1.626745e+002
3.125817e+002, 1.665993e+002
3.130638e+002, 1.704912e+002
3.135459e+002, 1.743625e+002
3.140280e+002, 1.782070e+002
3.145101e+002, 1.820508e+002
3.149922e+002, 1.858852e+002
3.154744e+002, 1.896543e+002
3.159565e+002, 1.932143e+002
3.164386e+002, 1.967190e+002
3.169207e+002, 2.002962e+002
3.174028e+002, 2.041255e+002
3.178849e+002, 2.079548e+002
3.183671e+002, 2.117493e+002
3.188492e+002, 2.155290e+002
3.193313e+002, 2.190547e+002
3.198134e+002, 2.223481e+002
3.202955e+002, 2.253221e+002
3.207776e+002, 2.278711e+002
3.212598e+002, 2.297385e+002
3.217419e+002, 2.314570e+002
3.222240e+002, 2.331508e+002
3.227061e+002, 2.347975e+002
3.231882e+002, 2.362863e+002
3.236703e+002, 2.381068e+002
3.241525e+002, 2.394108e+002
3.246346e+002, 2.397090e+002
3.251167e+002, 2.385114e+002
3.255988e+002, 2.369248e+002
3.260809e+002, 2.346919e+002
3.265630e+002, 2.321070e+002
3.270452e+002, 2.299667e+002
3.275273e+002, 2.291287e+002
3.280094e+002, 2.280709e+002
3.284915e+002, 2.261835e+002
3.289736e+002, 2.229449e+002
3.294557e+002, 2.200909e+002
3.299379e+002, 2.178569e+002
3.304200e+002, 2.159228e+002
3.309021e+002, 2.138059e+002
3.313842e+002, 2.113302e+002
3.318663e+002, 2.088803e+002
3.323484e+002, 2.065584e+002
3.328306e+002, 2.044378e+002
3.333127e+002, 2.022130e+002
3.337948e+002, 1.997897e+002
3.342769e+002, 1.973349e+002
3.347590e+002, 1.950503e+002
3.352411e+002, 1.929157e+002
3.357233e+002, 1.909832e+002
3.362054e+002, 1.894303e+002
3.366875e+002, 1.881926e+002
3.371696e+002, 1.863395e+002
3.376517e+002, 1.836570e+002
3.381339e+002, 1.807877e+002
3.386160e+002, 1.783121e+002
3.390981e+002, 1.763015e+002
3.395802e+002, 1.742895e+002
3.400623e+002, 1.723188e+002
3.405444e+002, 1.702485e+002
3.410266e+002, 1.675898e+002
3.415087e+002, 1.641551e+002
3.419908e+002, 1.608476e+002
3.424729e+002, 1.584148e+002
3.429550e+002, 1.568676e+002
3.434371e+002, 1.546086e+002
3.439193e+002, 1.513313e+002
3.444014e+002, 1.476674e+002
3.448835e+002, 1.448962e+002
3.453656e+002, 1.430114e+002
3.458477e+002, 1.411485e+002
3.463298e+002, 1.388708e+002
3.468120e+002, 1.362453e+002
3.472941e+002, 1.336140e+002
3.477762e+002, 1.309429e+002
3.482583e+002, 1.283721e+002
3.487404e+002, 1.261197e+002
3.492225e+002, 1.241236e+002
3.497047e+002, 1.221145e+002
3.501868e+002, 1.199558e+002
3.506689e+002, 1.177436e+002
3.511510e+002, 1.155704e+002
3.516331e+002, 1.134470e+002
3.521152e+002, 1.114661e+002
3.525974e+002, 1.097482e+002
3.530795e+002, 1.082209e+002
3.535616e+002, 1.067644e+002
3.540437e+002, 1.054064e+002
3.545258e+002, 1.040330e+002
3.550079e+002, 1.024637e+002
3.554901e+002, 1.007469e+002
3.559722e+002, 9.906999e+001
3.564543e+002, 9.752112e+001
3.569364e+002, 9.608801e+001
3.574185e+002, 9.475784e+001
3.579006e+002, 9.356783e+001
3.583828e+002, 9.238172e+001
3.588649e+002, 9.093335e+001
3.593470e+002, 8.942373e+001
3.598291e+002, 8.824521e+001
3.603112e+002, 8.803297e+001
3.607933e+002, 8.785593e+001
3.612755e+002, 8.705749e+001
3.617576e+002, 8.547631e+001
3.622397e+002, 8.402464e+001
3.627218e+002, 8.314221e+001
3.632039e+002, 8.253780e+001
3.636860e+002, 8.188655e+001
3.641682e+002, 8.110818e+001
3.646503e+002, 8.025935e+001
3.651324e+002, 7.928323e+001
3.656145e+002, 7.818652e+001
3.660966e+002, 7.731348e+001
3.665787e+002, 7.686460e+001
3.670609e+002, 7.656716e+001
3.675430e+002, 7.624649e+001
3.680251e+002, 7.585918e+001
3.685072e+002, 7.548008e+001
3.689893e+002, 7.511475e+001
3.694714e+002, 7.476365e+001
3.699536e+002, 7.444103e+001
3.704357e+002, 7.419138e+001
3.709178e+002, 7.392199e+001
3.713999e+002, 7.358546e+001
3.718820e+002, 7.311275e+001
3.723641e+002, 7.275243e+001
3.728463e+002, 7.256948e+001
3.733284e+002, 7.245949e+001
3.738105e+002, 7.223426e+001
3.742926e+002, 7.178733e+001
3.747747e+002, 7.146673e+001
3.752568e+002, 7.140561e+001
3.757390e+002, 7.160702e+001
3.762211e+002, 7.173689e+001
3.767032e+002, 7.179407e+001
3.771853e+002, 7.178260e+001
3.776674e+002, 7.165598e+001
3.781495e+002, 7.138439e+001
3.786317e+002, 7.127830e+001
3.791138e+002, 7.145542e+001
3.795959e+002, 7.180064e+001
3.800780e+002, 7.193163e+001
3.805601e+002, 7.182815e+001
3.810422e+002, 7.173225e+001
3.815244e+002, 7.187668e+001
3.820065e+002, 7.220081e+001
3.824886e+002, 7.232677e+001
3.829707e+002, 7.217458e+001
3.834528e+002, 7.194610e+001
3.839349e+002, 7.188460e+001
3.844171e+002, 7.198795e+001
3.848992e+002, 7.223123e+001
3.853813e+002, 7.274281e+001
3.858634e+002, 7.334498e+001
3.863455e+002, 7.372489e+001
3.868276e+002, 7.386526e+001
3.873098e+002, 7.392384e+001
3.877919e+002, 7.405447e+001
3.882740e+002, 7.419524e+001
3.887561e+002, 7.422655e+001
3.892382e+002, 7.394631e+001
3.897203e+002, 7.369915e+001
3.902025e+002, 7.387196e+001
3.906846e+002, 7.437332e+001
3.911667e+002, 7.477893e+001
3.916488e+002, 7.468481e+001
3.921309e+002, 7.447942e+001
3.926130e+002, 7.453239e+001
3.930952e+002, 7.509069e+001
3.935773e+002, 7.551984e+001
3.940594e+002, 7.533296e+001
3.945415e+002, 7.485043e+001
3.950236e+002, 7.466663e+001
3.955057e+002, 7.530141e+001
3.959879e+002, 7.597287e+001
3.964700e+002, 7.629682e+001
3.969521e+002, 7.615799e+001
3.974342e+002, 7.625919e+001
3.979163e+002, 7.683091e+001
3.983984e+002, 7.763213e+001
3.988806e+002, 7.844284e+001
3.993627e+002, 7.945797e+001
3.998448e+002, 8.023760e+001
4.003269e+002, 8.062297e+001
4.008090e+002, 8.067861e+001
4.012911e+002, 8.085993e+001
4.017733e+002, 8.104021e+001
4.022554e+002, 8.149400e+001
4.027375e+002, 8.242078e+001
4.032196e+002, 8.409599e+001
4.037017e+002, 8.554632e+001
4.041838e+002, 8.666186e+001
4.046660e+002, 8.761498e+001
4.051481e+002, 8.872673e+001
4.056302e+002, 9.006333e+001
4.061123e+002, 9.133652e+001
4.065944e+002, 9.242259e+001
4.070765e+002, 9.333582e+001
4.075587e+002, 9.424580e+001
4.080408e+002, 9.512246e+001
4.085229e+002, 9.612349e+001
4.090050e+002, 9.752554e+001
4.094871e+002, 9.928590e+001
4.099692e+002, 1.008734e+002
4.104514e+002, 1.021679e+002
4.109335e+002, 1.032424e+002
4.114156e+002, 1.041952e+002
4.118977e+002, 1.050279e+002
4.123798e+002, 1.058688e+002
4.128619e+002, 1.069819e+002
4.133441e+002, 1.081190e+002
4.138262e+002, 1.087546e+002
4.143083e+002, 1.087751e+002
4.147904e+002, 1.085776e+002
4.152725e+002, 1.085545e+002
4.157546e+002, 1.086039e+002
4.162368e+002, 1.085132e+002
4.167189e+002, 1.082841e+002
4.172010e+002, 1.078112e+002
4.176831e+002, 1.068533e+002
4.181652e+002, 1.054538e+002
4.186473e+002, 1.041737e+002
4.191295e+002, 1.035334e+002
4.196116e+002, 1.030512e+002
4.200937e+002, 1.022900e+002
4.205758e+002, 1.008336e+002
4.210579e+002, 9.952453e+001
4.215400e+002, 9.869131e+001
4.220222e+002, 9.819881e+001
4.225043e+002, 9.768931e+001
4.229864e+002, 9.680593e+001
4.234685e+002, 9.614175e+001
4.239506e+002, 9.602658e+001
4.244327e+002, 9.675430e+001
4.249149e+002, 9.709546e+001
4.253970e+002, 9.662138e+001
4.258791e+002, 9.595675e+001
4.263612e+002, 9.571844e+001
4.268433e+002, 9.611527e+001
4.273254e+002, 9.661009e+001
4.278076e+002, 9.711765e+001
4.282897e+002, 9.765576e+001
4.287718e+002, 9.833769e+001
4.292539e+002, 9.919472e+001
4.297360e+002, 1.001089e+002
4.302181e+002, 1.010423e+002
4.307003e+002, 1.020264e+002
4.311824e+002, 1.027478e+002
4.316645e+002, 1.030601e+002
4.321466e+002, 1.033309e+002
4.326287e+002, 1.042343e+002
4.331108e+002, 1.057731e+002
4.335930e+002, 1.074123e+002
4.340751e+002, 1.089586e+002
4.345572e+002, 1.104489e+002
4.350393e+002, 1.120113e+002
4.355214e+002, 1.136418e+002
4.360035e+002, 1.152951e+002
4.364857e+002, 1.167651e+002
4.369678e+002, 1.182079e+002
4.374499e+002, 1.200929e+002
4.379320e+002, 1.226740e+002
4.384141e+002, 1.254224e+002
4.388962e+002, 1.276555e+002
4.393784e+002, 1.295584e+002
4.398605e+002, 1.316758e+002
4.403426e+002, 1.344661e+002
4.408247e+002, 1.374854e+002
4.413068e+002, 1.404338e+002
4.417889e+002, 1.432580e+002
4.422711e+002, 1.460068e+002
4.427532e+002, 1.485391e+002
4.432353e+002, 1.510690e+002
4.437174e+002, 1.538189e+002
4.441995e+002, 1.570086e+002
4.446816e+002, 1.602597e+002
4.451638e+002, 1.634488e+002
4.456459e+002, 1.665981e+002
4.461280e+002, 1.699487e+002
4.466101e+002, 1.738864e+002
4.470922e+002, 1.777380e+002
4.475743e+002, 1.812215e+002
4.480565e+002, 1.841963e+002
4.485386e+002, 1.870720e+002
4.490207e+002, 1.897652e+002
4.495028e+002, 1.923964e+002
4.499849e+002, 1.950953e+002
4.504670e+002, 1.979959e+002
4.509492e+002, 2.007026e+002
4.514313e+002, 2.030397e+002
4.519134e+002, 2.050823e+002
4.523955e+002, 2.074719e+002
4.528776e+002, 2.104022e+002
4.533597e+002, 2.128731e+002
4.538419e+002, 2.139901e+002
4.543240e+002, 2.137800e+002
4.548061e+002, 2.137268e+002
4.552882e+002, 2.140685e+002
4.557703e+002, 2.142971e+002
4.562524e+002, 2.134303e+002
4.567346e+002, 2.116168e+002
4.572167e+002, 2.099506e+002
4.576988e+002, 2.091426e+002
4.581809e+002, 2.086391e+002
4.586630e+002, 2.073841e+002
4.591451e+002, 2.054233e+002
4.596273e+002, 2.033360e+002
4.601094e+002, 2.014413e+002
4.605915e+002, 1.997443e+002
4.610736e+002, 1.982543e+002
4.615557e+002, 1.969485e+002
4.620378e+002, 1.958689e+002
4.625200e+002, 1.951082e+002
4.630021e+002, 1.945839e+002
4.634842e+002, 1.941506e+002
4.639663e+002, 1.934932e+002
4.644484e+002, 1.931382e+002
4.649305e+002, 1.933547e+002
4.654127e+002, 1.941651e+002
4.658948e+002, 1.953244e+002
4.663769e+002, 1.969616e+002
4.668590e+002, 1.988204e+002
4.673411e+002, 2.007076e+002
4.678232e+002, 2.024310e+002
4.683054e+002, 2.044716e+002
4.687875e+002, 2.069587e+002
4.692696e+002, 2.097286e+002
4.697517e+002, 2.124628e+002
4.702338e+002, 2.153689e+002
4.707159e+002, 2.178090e+002
4.711981e+002, 2.195008e+002
4.716802e+002, 2.204207e+002
4.721623e+002, 2.212270e+002
4.726444e+002, 2.219945e+002
4.731265e+002, 2.224238e+002
4.736086e+002, 2.222287e+002
4.740908e+002, 2.214097e+002
4.745729e+002, 2.200094e+002
4.750550e+002, 2.179438e+002
4.755371e+002, 2.154393e+002
4.760192e+002, 2.129048e+002
4.765013e+002, 2.103096e+002
4.769835e+002, 2.075379e+002
4.774656e+002, 2.044032e+002
4.779477e+002, 2.010656e+002
4.784298e+002, 1.977182e+002
4.789119e+002, 1.943651e+002
4.793940e+002, 1.911803e+002
4.798762e+002, 1.882639e+002
4.803583e+002, 1.856083e+002
4.808404e+002, 1.831924e+002
4.813225e+002, 1.809600e+002
4.818046e+002, 1.790061e+002
4.822867e+002, 1.774342e+002
4.827689e+002, 1.761863e+002
4.832510e+002, 1.751093e+002
4.837331e+002, 1.742695e+002
4.842152e+002, 1.734938e+002
4.846973e+002, 1.727326e+002
4.851794e+002, 1.719976e+002
4.856616e+002, 1.711852e+002
4.861437e+002, 1.704167e+002
4.866258e+002, 1.694876e+002
4.871079e+002, 1.682151e+002
4.875900e+002, 1.664106e+002
4.880721e+002, 1.645816e+002
4.885543e+002, 1.628202e+002
4.890364e+002, 1.610473e+002
4.895185e+002, 1.590631e+002
4.900006e+002, 1.568883e+002
4.904827e+002, 1.544761e+002
4.909648e+002, 1.518090e+002
4.914470e+002, 1.488831e+002
4.919291e+002, 1.458212e+002
4.924112e+002, 1.426310e+002
4.928933e+002, 1.393426e+002
4.933754e+002, 1.359638e+002
4.938575e+002, 1.325051e+002
4.943397e+002, 1.290268e+002
4.948218e+002, 1.255147e+002
4.953039e+002, 1.221088e+002
4.957860e+002, 1.190048e+002
4.962681e+002, 1.162067e+002
4.967502e+002, 1.137375e+002
4.972324e+002, 1.118441e+002
4.977145e+002, 1.101077e+002
4.981966e+002, 1.080675e+002
4.986787e+002, 1.056803e+002
4.991608e+002, 1.034480e+002
4.996429e+002, 1.016055e+002
5.001251e+002, 1.000356e+002
5.006072e+002, 9.858220e+001
5.010893e+002, 9.715873e+001
5.015714e+002, 9.594640e+001
5.020535e+002, 9.503922e+001
5.025356e+002, 9.436134e+001
5.030178e+002, 9.373438e+001
5.034999e+002, 9.324855e+001
5.039820e+002, 9.268747e+001
5.044641e+002, 9.199711e+001
5.049462e+002, 9.117600e+001
5.054283e+002, 9.030086e+001
5.059105e+002, 8.932787e+001
5.063926e+002, 8.838166e+001
5.068747e+002, 8.762338e+001
5.073568e+002, 8.712650e+001
5.078389e+002, 8.630373e+001
5.083210e+002, 8.503316e+001
5.088032e+002, 8.356260e+001
5.092853e+002, 8.232005e+001
5.097674e+002, 8.129469e+001
5.102495e+002, 8.031771e+001
5.107316e+002, 7.925703e+001
5.112137e+002, 7.821419e+001
5.116959e+002, 7.747781e+001
5.121780e+002, 7.702685e+001
5.126601e+002, 7.651546e+001
5.131422e+002, 7.563879e+001
5.136243e+002, 7.457430e+001
5.141064e+002, 7.355810e+001
5.145886e+002, 7.265673e+001
5.150707e+002, 7.171377e+001
5.155528e+002, 7.046522e+001
5.160349e+002, 6.916051e+001
5.165170e+002, 6.813950e+001
5.169991e+002, 6.779441e+001
5.174813e+002, 6.746510e+001
5.179634e+002, 6.694144e+001
5.184455e+002, 6.623845e+001
5.189276e+002, 6.551140e+001
5.194097e+002, 6.472198e+001
5.198918e+002, 6.396741e+001
5.203740e+002, 6.330331e+001
5.208561e+002, 6.275877e+001
5.213382e+002, 6.218375e+001
5.218203e+002, 6.151870e+001
5.223024e+002, 6.088957e+001
5.227845e+002, 6.047140e+001
5.232667e+002, 6.031511e+001
5.237488e+002, 6.005356e+001
5.242309e+002, 5.954439e+001
5.247130e+002, 5.895372e+001
5.251951e+002, 5.878955e+001
5.256772e+002, 5.904043e+001
5.261594e+002, 5.919310e+001
5.266415e+002, 5.887557e+001
5.271236e+002, 5.826696e+001
5.276057e+002, 5.771124e+001
5.280878e+002, 5.722014e+001
5.285699e+002, 5.690361e+001
5.290521e+002, 5.710929e+001
5.295342e+002, 5.746343e+001
5.300163e+002, 5.741641e+001
5.304984e+002, 5.653724e+001
5.309805e+002, 5.576535e+001
5.314626e+002, 5.574699e+001
5.319448e+002, 5.619514e+001
5.324269e+002, 5.655227e+001
5.329090e+002, 5.669682e+001
5.333911e+002, 5.668768e+001
5.338732e+002, 5.645730e+001
5.343553e+002, 5.599542e+001
5.348375e+002, 5.572222e+001
5.353196e+002, 5.569702e+001
5.358017e+002, 5.581153e+001
5.362838e+002, 5.604142e+001
5.367659e+002, 5.650698e+001
5.372480e+002, 5.672906e+001
5.377302e+002, 5.661900e+001
5.382123e+002, 5.638049e+001
5.386944e+002, 5.630693e+001
5.391765e+002, 5.640559e+001
5.396586e+002, 5.656284e+001
5.401407e+002, 5.674701e+001
5.406229e+002, 5.697010e+001
5.411050e+002, 5.727238e+001
5.415871e+002, 5.764788e+001
5.420692e+002, 5.802790e+001
5.425513e+002, 5.836337e+001
5.430334e+002, 5.868536e+001
5.435156e+002, 5.905812e+001
5.439977e+002, 5.949056e+001
5.444798e+002, 5.988246e+001
5.449619e+002, 6.013820e+001
5.454440e+002, 6.032154e+001
5.459261e+002, 6.048946e+001
5.464083e+002, 6.052050e+001
5.468904e+002, 6.073208e+001
5.473725e+002, 6.137907e+001
5.478546e+002, 6.226831e+001
5.483367e+002, 6.300153e+001
5.488188e+002, 6.326689e+001
5.493010e+002, 6.364032e+001
5.497831e+002, 6.435871e+001
5.502652e+002, 6.541234e+001
5.507473e+002, 6.607956e+001
5.512294e+002, 6.613387e+001
5.517115e+002, 6.618613e+001
5.521937e+002, 6.665126e+001
5.526758e+002, 6.757835e+001
5.531579e+002, 6.845955e+001
5.536400e+002, 6.926897e+001
5.541221e+002, 7.004881e+001
5.546042e+002, 7.081544e+001
5.550864e+002, 7.158608e+001
5.555685e+002, 7.248911e+001
5.560506e+002, 7.363872e+001
5.565327e+002, 7.482529e+001
5.570148e+002, 7.568226e+001
5.574969e+002, 7.629219e+001
5.579791e+002, 7.697051e+001
5.584612e+002, 7.783096e+001
5.589433e+002, 7.887237e+001
5.594254e+002, 8.015335e+001
5.599075e+002, 8.168562e+001
5.603896e+002, 8.315247e+001
5.608718e+002, 8.438258e+001
5.613539e+002, 8.550800e+001
5.618360e+002, 8.661227e+001
5.623181e+002, 8.755868e+001
5.628002e+002, 8.872320e+001
5.632823e+002, 9.014751e+001
5.637645e+002, 9.178420e+001
5.642466e+002, 9.359068e+001
5.647287e+002, 9.565458e+001
5.652108e+002, 9.764532e+001
5.656929e+002, 9.944435e+001
5.661750e+002, 1.011104e+002
5.666572e+002, 1.029916e+002
5.671393e+002, 1.050919e+002
5.676214e+002, 1.073076e+002
5.681035e+002, 1.096506e+002
5.685856e+002, 1.120666e+002
5.690677e+002, 1.144058e+002
5.695499e+002, 1.166324e+002
5.700320e+002, 1.189365e+002
5.705141e+002, 1.214860e+002
5.709962e+002, 1.242052e+002
5.714783e+002, 1.269784e+002
5.719604e+002, 1.298559e+002
5.724426e+002, 1.326679e+002
5.729247e+002, 1.353714e+002
5.734068e+002, 1.379411e+002
5.738889e+002, 1.403930e+002
5.743710e+002, 1.427079e+002
5.748531e+002, 1.449040e+002
5.753353e+002, 1.470738e+002
5.758174e+002, 1.491806e+002
5.762995e+002, 1.508757e+002
5.767816e+002, 1.519015e+002
5.772637e+002, 1.527963e+002
5.777458e+002, 1.538420e+002
5.782280e+002, 1.551250e+002
5.787101e+002, 1.560510e+002
5.791922e+002, 1.565627e+002
5.796743e+002, 1.568432e+002
5.801564e+002, 1.571435e+002
5.806385e+002, 1.574435e+002
5.811207e+002, 1.573489e+002
5.816028e+002, 1.567402e+002
5.820849e+002, 1.558197e+002
5.825670e+002, 1.548047e+002
5.830491e+002, 1.537280e+002
5.835313e+002, 1.526435e+002
5.840134e+002, 1.517212e+002
5.844955e+002, 1.507126e+002
5.849776e+002, 1.493797e+002
5.854597e+002, 1.477481e+002
5.859418e+002, 1.459699e+002
5.864240e+002, 1.438362e+002
5.869061e+002, 1.418010e+002
5.873882e+002, 1.401948e+002
5.878703e+002, 1.392685e+002
5.883524e+002, 1.379535e+002
5.888345e+002, 1.355590e+002
5.893167e+002, 1.330947e+002
5.897988e+002, 1.314199e+002
5.902809e+002, 1.311168e+002
5.907630e+002, 1.302217e+002
5.912451e+002, 1.283987e+002
5.917272e+002, 1.261082e+002
5.922094e+002, 1.242209e+002
5.926915e+002, 1.227777e+002
5.931736e+002, 1.213401e+002
5.936557e+002, 1.197489e+002
5.941378e+002, 1.180777e+002
5.946199e+002, 1.164407e+002
5.951021e+002, 1.148652e+002
5.955842e+002, 1.134565e+002
5.960663e+002, 1.124774e+002
5.965484e+002, 1.116081e+002
5.970305e+002, 1.103702e+002
5.975126e+002, 1.087091e+002
5.979948e+002, 1.072055e+002
5.984769e+002, 1.064022e+002
5.989590e+002, 1.057945e+002
5.994411e+002, 1.049301e+002
5.999232e+002, 1.034944e+002
6.004053e+002, 1.021741e+002
6.008875e+002, 1.011556e+002
6.013696e+002, 1.002877e+002
6.018517e+002, 9.935072e+001
6.023338e+002, 9.821165e+001
6.028159e+002, 9.729002e+001
6.032980e+002, 9.669846e+001
6.037802e+002, 9.636424e+001
6.042623e+002, 9.602470e+001
6.047444e+002, 9.568493e+001
6.052265e+002, 9.531710e+001
6.057086e+002, 9.484985e+001
6.061907e+002, 9.434191e+001
6.066729e+002, 9.405530e+001
6.071550e+002, 9.398473e+001
6.076371e+002, 9.384476e+001
6.081192e+002, 9.325303e+001
6.086013e+002, 9.251881e+001
6.090834e+002, 9.210344e+001
6.095656e+002, 9.216187e+001
6.100477e+002, 9.218254e+001
6.105298e+002, 9.178013e+001
6.110119e+002, 9.123356e+001
6.114940e+002, 9.085155e+001
6.119761e+002, 9.084791e+001
6.124583e+002, 9.085202e+001
6.129404e+002, 9.079647e+001
6.134225e+002, 9.071715e+001
6.139046e+002, 9.070164e+001
6.143867e+002, 9.080901e+001
6.148688e+002, 9.086873e+001
6.153510e+002, 9.087881e+001
6.158331e+002, 9.080480e+001
6.163152e+002, 9.033352e+001
6.167973e+002, 8.941699e+001
6.172794e+002, 8.857739e+001
6.177615e+002, 8.824885e+001
6.182437e+002, 8.826968e+001
6.187258e+002, 8.822312e+001
6.192079e+002, 8.808896e+001
6.196900e+002, 8.781210e+001
6.201721e+002, 8.726106e+001
6.206542e+002, 8.657236e+001
6.211364e+002, 8.590366e+001
6.216185e+002, 8.523909e+001
6.221006e+002, 8.470060e+001
6.225827e+002, 8.451888e+001
6.230648e+002, 8.443755e+001
6.235469e+002, 8.409800e+001
6.240291e+002, 8.330522e+001
6.245112e+002, 8.240443e+001
6.249933e+002, 8.134116e+001
6.254754e+002, 8.021049e+001
6.259575e+002, 7.939887e+001
6.264396e+002, 7.904367e+001
6.269218e+002, 7.858751e+001
6.274039e+002, 7.773264e+001
6.278860e+002, 7.658216e+001
6.283681e+002, 7.584185e+001
6.288502e+002, 7.552802e+001
6.293323e+002, 7.517884e+001
6.298145e+002, 7.428647e+001
6.302966e+002, 7.315756e+001
6.307787e+002, 7.244454e+001
6.312608e+002, 7.224218e+001
6.317429e+002, 7.199364e+001
6.322250e+002, 7.116533e+001
6.327072e+002, 7.012586e+001
6.331893e+002, 6.926180e+001
6.336714e+002, 6.874726e+001
6.341535e+002, 6.829503e+001
6.346356e+002, 6.787203e+001
6.351177e+002, 6.745734e+001
6.355999e+002, 6.700435e+001
6.360820e+002, 6.643150e+001
6.365641e+002, 6.596029e+001
6.370462e+002, 6.568227e+001
6.375283e+002, 6.551495e+001
6.380104e+002, 6.520333e+001
6.384926e+002, 6.475056e+001
6.389747e+002, 6.410988e+001
6.394568e+002, 6.309433e+001
6.399389e+002, 6.189394e+001
6.404210e+002, 6.120502e+001
6.409031e+002, 6.100296e+001
6.413853e+002, 6.095763e+001
6.418674e+002, 6.094959e+001
6.423495e+002, 6.090109e+001
6.428316e+002, 6.072351e+001
6.433137e+002, 6.040435e+001
6.437958e+002, 5.997081e+001
6.442780e+002, 5.923835e+001
6.447601e+002, 5.850139e+001
6.452422e+002, 5.803112e+001
6.457243e+002, 5.811615e+001
6.462064e+002, 5.809367e+001
6.466885e+002, 5.792496e+001
6.471707e+002, 5.763427e+001
6.476528e+002, 5.720794e+001
6.481349e+002, 5.652309e+001
6.486170e+002, 5.611816e+001
6.490991e+002, 5.619318e+001
6.495812e+002, 5.649573e+001
6.500634e+002, 5.636702e+001
6.505455e+002, 5.583966e+001
6.510276e+002, 5.540341e+001
6.515097e+002, 5.535138e+001
6.519918e+002, 5.548235e+001
6.524739e+002, 5.551835e+001
6.529561e+002, 5.546263e+001
6.534382e+002, 5.533210e+001
6.539203e+002, 5.507085e+001
6.544024e+002, 5.478895e+001
6.548845e+002, 5.454200e+001
6.553666e+002, 5.433343e+001
6.558488e+002, 5.420601e+001
6.563309e+002, 5.424368e+001
6.568130e+002, 5.431008e+001
6.572951e+002, 5.433482e+001
6.577772e+002, 5.435133e+001
6.582593e+002, 5.421519e+001
6.587415e+002, 5.385619e+001
6.592236e+002, 5.345800e+001
6.597057e+002, 5.326677e+001
6.601878e+002, 5.327724e+001
6.606699e+002, 5.318777e+001
6.611520e+002, 5.291634e+001
6.616342e+002, 5.260225e+001
6.621163e+002, 5.241978e+001
6.625984e+002, 5.235295e+001
6.630805e+002, 5.236438e+001
6.635626e+002, 5.255661e+001
6.640447e+002, 5.269965e+001
6.645269e+002, 5.251482e+001
6.650090e+002, 5.213811e+001
6.654911e+002, 5.196289e+001
6.659732e+002, 5.242530e+001
6.664553e+002, 5.280017e+001
6.669374e+002, 5.270441e+001
6.674196e+002, 5.218605e+001
6.679017e+002, 5.202482e+001
6.683838e+002, 5.243649e+001
6.688659e+002, 5.279981e+001
6.693480e+002, 5.276412e+001
6.698301e+002, 5.233642e+001
6.703123e+002, 5.200467e+001
6.707944e+002, 5.176997e+001
6.712765e+002, 5.161802e+001
6.717586e+002, 5.153558e+001
6.722407e+002, 5.152362e+001
6.727228e+002, 5.163933e+001
6.732050e+002, 5.192904e+001
6.736871e+002, 5.209217e+001
6.741692e+002, 5.174926e+001
6.746513e+002, 5.121790e+001
6.751334e+002, 5.087976e+001
6.756155e+002, 5.100355e+001
6.760977e+002, 5.105875e+001
6.765798e+002, 5.082647e+001
6.770619e+002, 5.049044e+001
6.775440e+002, 5.033479e+001
6.780261e+002, 5.046931e+001
6.785082e+002, 5.055459e+001
6.789904e+002, 5.052364e+001
6.794725e+002, 5.041637e+001
6.799546e+002, 5.031097e+001
6.804367e+002, 5.020890e+001
6.809188e+002, 5.018201e+001
6.814009e+002, 5.034690e+001
6.818831e+002, 5.055076e+001
6.823652e+002, 5.047734e+001
6.828473e+002, 5.016863e+001
6.833294e+002, 4.983590e+001
6.838115e+002, 4.948309e+001
6.842936e+002, 4.924259e+001
6.847758e+002, 4.932292e+001
6.852579e+002, 4.972831e+001
6.857400e+002, 4.986757e+001
6.862221e+002, 4.921773e+001
6.867042e+002, 4.857390e+001
6.871863e+002, 4.837126e+001
6.876685e+002, 4.874695e+001
6.881506e+002, 4.897066e+001
6.886327e+002, 4.900609e+001
6.891148e+002, 4.896926e+001
6.895969e+002, 4.897279e+001
6.900790e+002, 4.900933e+001
6.905612e+002, 4.897821e+001
6.910433e+002, 4.887072e+001
6.915254e+002, 4.868530e+001
6.920075e+002, 4.828759e+001
6.924896e+002, 4.783830e+001
6.929717e+002, 4.766888e+001
6.934539e+002, 4.801951e+001
6.939360e+002, 4.836884e+001
6.944181e+002, 4.840020e+001
6.949002e+002, 4.823998e+001
6.953823e+002, 4.808385e+001
6.958644e+002, 4.792258e+001
6.963466e+002, 4.784255e+001
6.968287e+002, 4.794005e+001
6.973108e+002, 4.810603e+001
6.977929e+002, 4.801952e+001
6.982750e+002, 4.759924e+001
6.987571e+002, 4.722988e+001
6.992393e+002, 4.700985e+001
6.997214e+002, 4.694288e+001
7.002035e+002, 4.717748e+001
7.006856e+002, 4.766115e+001
7.011677e+002, 4.792052e+001
7.016498e+002, 4.743473e+001
7.021320e+002, 4.672622e+001
7.026141e+002, 4.637871e+001
7.030962e+002, 4.638048e+001
7.035783e+002, 4.648321e+001
7.040604e+002, 4.664817e+001
7.045425e+002, 4.681628e+001
7.050247e+002, 4.695150e+001
7.055068e+002, 4.704554e+001
7.059889e+002, 4.712941e+001
7.064710e+002, 4.717333e+001
7.069531e+002, 4.724532e+001
7.074352e+002, 4.742572e+001
7.079174e+002, 4.773788e+001
7.083995e+002, 4.789611e+001
7.088816e+002, 4.789775e+001
7.093637e+002, 4.773764e+001
7.098458e+002, 4.724914e+001
7.103279e+002, 4.660807e+001
7.108101e+002, 4.627953e+001
7.112922e+002, 4.640306e+001
7.117743e+002, 4.660102e+001
7.122564e+002, 4.661522e+001
7.127385e+002, 4.652884e+001
7.132206e+002, 4.643856e+001
7.137028e+002, 4.633309e+001
7.141849e+002, 4.627861e+001
7.146670e+002, 4.631496e+001
7.151491e+002, 4.639923e+001
7.156312e+002, 4.647858e+001
7.161133e+002, 4.655278e+001
7.165955e+002, 4.663549e+001
7.170776e+002, 4.677130e+001
7.175597e+002, 4.686449e+001
7.180418e+002, 4.659071e+001
7.185239e+002, 4.600177e+001
7.190060e+002, 4.565011e+001
7.194882e+002, 4.591225e+001
7.199703e+002, 4.634247e+001
7.204524e+002, 4.632884e+001
7.209345e+002, 4.601504e+001
7.214166e+002, 4.582727e+001
7.218987e+002, 4.610593e+001
7.223809e+002, 4.642269e+001
7.228630e+002, 4.654164e+001
7.233451e+002, 4.648848e+001
7.238272e+002, 4.655346e+001
7.243093e+002, 4.692083e+001
7.247914e+002, 4.714513e+001
7.252736e+002, 4.699824e+001
7.257557e+002, 4.652475e+001
7.262378e+002, 4.627753e+001
7.267199e+002, 4.626758e+001
7.272020e+002, 4.637804e+001
7.276841e+002, 4.666933e+001
7.281663e+002, 4.699292e+001
7.286484e+002, 4.692562e+001
7.291305e+002, 4.647188e+001
7.296126e+002, 4.607860e+001
7.300947e+002, 4.613002e+001
7.305768e+002, 4.631258e+001
7.310590e+002, 4.637598e+001
7.315411e+002, 4.626935e+001
7.320232e+002, 4.614293e+001
7.325053e+002, 4.595217e+001
7.329874e+002, 4.580721e+001
7.334695e+002, 4.579840e+001
7.339517e+002, 4.600299e+001
7.344338e+002, 4.605536e+001
7.349159e+002, 4.592527e+001
7.353980e+002, 4.572898e+001
7.358801e+002, 4.551138e+001
7.363622e+002, 4.531951e+001
7.368444e+002, 4.541486e+001
7.373265e+002, 4.589801e+001
7.378086e+002, 4.636226e+001
7.382907e+002, 4.635266e+001
7.387728e+002, 4.611898e+001
7.392549e+002, 4.599659e+001
7.397371e+002, 4.620708e+001
7.402192e+002, 4.630932e+001
7.407013e+002, 4.604470e+001
7.411834e+002, 4.566194e+001
7.416655e+002, 4.549771e+001
7.421476e+002, 4.566232e+001
7.426298e+002, 4.578172e+001
7.431119e+002, 4.579574e+001
7.435940e+002, 4.576504e+001
7.440761e+002, 4.582829e+001
7.445582e+002, 4.596836e+001
7.450403e+002, 4.601067e+001
7.455225e+002, 4.585979e+001
7.460046e+002, 4.566101e+001
7.464867e+002, 4.556882e+001
7.469688e+002, 4.556628e+001
7.474509e+002, 4.561916e+001
7.479330e+002, 4.582985e+001
7.484152e+002, 4.597020e+001
7.488973e+002, 4.588135e+001
7.493794e+002, 4.564653e+001
7.498615e+002, 4.555797e+001
7.503436e+002, 4.578674e+001
7.508257e+002, 4.585332e+001
7.513079e+002, 4.557142e+001
7.517900e+002, 4.506916e+001
7.522721e+002, 4.480112e+001
7.527542e+002, 4.476557e+001
7.532363e+002, 4.486814e+001
7.537184e+002, 4.518103e+001
7.542006e+002, 4.552787e+001
7.546827e+002, 4.561082e+001
7.551648e+002, 4.547314e+001
7.556469e+002, 4.529097e+001
7.561290e+002, 4.503167e+001
7.566111e+002, 4.486317e+001
7.570933e+002, 4.494809e+001
7.575754e+002, 4.526754e+001
7.580575e+002, 4.541886e+001
7.585396e+002, 4.524802e+001
7.590217e+002, 4.510828e+001
7.595038e+002, 4.515635e+001
7.599860e+002, 4.536943e+001
7.604681e+002, 4.549343e+001
7.609502e+002, 4.552411e+001
7.614323e+002, 4.550263e+001
7.619144e+002, 4.540935e+001
7.623965e+002, 4.529917e+001
7.628787e+002, 4.530939e+001
7.633608e+002, 4.542887e+001
7.638429e+002, 4.548895e+001
7.643250e+002, 4.523965e+001
7.648071e+002, 4.500982e+001
7.652892e+002, 4.507744e+001
7.657714e+002, 4.551983e+001
7.662535e+002, 4.580149e+001
7.667356e+002, 4.583793e+001
7.672177e+002, 4.578289e+001
7.676998e+002, 4.569003e+001
7.681819e+002, 4.555034e+001
7.686641e+002, 4.557316e+001
7.691462e+002, 4.578968e+001
7.696283e+002, 4.593066e+001
7.701104e+002, 4.559405e+001
7.705925e+002, 4.507075e+001
7.710746e+002, 4.501722e+001
7.715568e+002, 4.551445e+001
7.720389e+002, 4.590465e+001
7.725210e+002, 4.558436e+001
7.730031e+002, 4.512135e+001
7.734852e+002, 4.498067e+001
7.739673e+002, 4.535530e+001
7.744495e+002, 4.562220e+001
7.749316e+002, 4.568717e+001
7.754137e+002, 4.572424e+001
7.758958e+002, 4.592400e+001
7.763779e+002, 4.632262e+001
7.768600e+002, 4.633042e+001
7.773422e+002, 4.586963e+001
7.778243e+002, 4.538149e+001
7.783064e+002, 4.529518e+001
7.787885e+002, 4.550234e+001
7.792706e+002, 4.588939e+001
7.797527e+002, 4.649911e+001
7.802349e+002, 4.687340e+001
7.807170e+002, 4.647960e+001
7.811991e+002, 4.587807e+001
7.816812e+002, 4.557200e+001
7.821633e+002, 4.585014e+001
7.826454e+002, 4.601244e+001
7.831276e+002, 4.599785e+001
7.836097e+002, 4.594100e+001
7.840918e+002, 4.598525e+001
7.845739e+002, 4.613260e+001
7.850560e+002, 4.622370e+001
7.855381e+002, 4.622749e+001
7.860203e+002, 4.625373e+001
7.865024e+002, 4.651301e+001
7.869845e+002, 4.685425e+001
7.874666e+002, 4.701450e+001
7.879487e+002, 4.690951e+001
7.884308e+002, 4.670377e+001
7.889130e+002, 4.630856e+001
7.893951e+002, 4.594012e+001
7.898772e+002, 4.583202e+001
7.903593e+002, 4.623072e+001
7.908414e+002, 4.646363e+001
7.913235e+002, 4.648220e+001
7.918057e+002, 4.639046e+001
7.922878e+002, 4.625788e+001
7.927699e+002, 4.609410e+001
7.932520e+002, 4.612542e+001
7.937341e+002, 4.642350e+001
7.942162e+002, 4.673699e+001
7.946984e+002, 4.685581e+001
7.951805e+002, 4.679046e+001
7.956626e+002, 4.650871e+001
7.961447e+002, 4.579509e+001
7.966268e+002, 4.534654e+001
7.971089e+002, 4.559169e+001
7.975911e+002, 4.613866e+001
7.980732e+002, 4.655492e+001
7.985553e+002, 4.685013e+001
7.990374e+002, 4.696798e+001
7.995195e+002, 4.685465e+001
8.000016e+002, 4.666009e+001
8.004838e+002, 4.653929e+001
8.009659e+002, 4.649839e+001
8.014480e+002, 4.658967e+001
8.019301e+002, 4.684977e+001
8.024122e+002, 4.712702e+001
8.028943e+002, 4.729458e+001
8.033765e+002, 4.737936e+001
8.038586e+002, 4.741587e+001
8.043407e+002, 4.739111e+001
8.048228e+002, 4.735745e+001
8.053049e+002, 4.728294e+001
8.057870e+002, 4.722969e+001
8.062692e+002, 4.726914e+001
8.067513e+002, 4.742884e+001
8.072334e+002, 4.757436e+001
8.077155e+002, 4.769680e+001
8.081976e+002, 4.778911e+001
8.086797e+002, 4.786400e+001
8.091619e+002, 4.790034e+001
8.096440e+002, 4.780094e+001
8.101261e+002, 4.749183e+001
8.106082e+002, 4.725272e+001
8.110903e+002, 4.742775e+001
8.115724e+002, 4.772132e+001
8.120546e+002, 4.779704e+001
8.125367e+002, 4.727480e+001
8.130188e+002, 4.707644e+001
8.135009e+002, 4.746272e+001
8.139830e+002, 4.796388e+001
8.144651e+002, 4.801413e+001
8.149473e+002, 4.757751e+001
8.154294e+002, 4.732782e+001
8.159115e+002, 4.735138e+001
8.163936e+002, 4.748164e+001
8.168757e+002, 4.749808e+001
8.173578e+002, 4.749500e+001
8.178400e+002, 4.768897e+001
8.183221e+002, 4.822882e+001
8.188042e+002, 4.860263e+001
8.192863e+002, 4.837480e+001
8.197684e+002, 4.797286e+001
8.202505e+002, 4.781977e+001
8.207327e+002, 4.811283e+001
8.212148e+002, 4.823916e+001
8.216969e+002, 4.814812e+001
8.221790e+002, 4.797850e+001
8.226611e+002, 4.784515e+001
8.231432e+002, 4.775424e+001
8.236254e+002, 4.778276e+001
8.241075e+002, 4.794972e+001
8.245896e+002, 4.813257e+001
8.250717e+002, 4.823542e+001
8.255538e+002, 4.828264e+001
8.260359e+002, 4.829088e+001
8.265181e+002, 4.824691e+001
8.270002e+002, 4.822690e+001
8.274823e+002, 4.829901e+001
8.279644e+002, 4.836201e+001
8.284465e+002, 4.831521e+001
8.289286e+002, 4.808826e+001
8.294108e+002, 4.816990e+001
8.298929e+002, 4.863990e+001
8.303750e+002, 4.907307e+001
8.308571e+002, 4.897132e+001
8.313392e+002, 4.856488e+001
8.318214e+002, 4.834686e+001
8.323035e+002, 4.837310e+001
8.327856e+002, 4.845922e+001
8.332677e+002, 4.857273e+001
8.337498e+002, 4.864139e+001
8.342319e+002, 4.858189e+001
8.347141e+002, 4.832422e+001
8.351962e+002, 4.819975e+001
8.356783e+002, 4.823446e+001
8.361604e+002, 4.835582e+001
8.366425e+002, 4.856337e+001
8.371246e+002, 4.884290e+001
8.376068e+002, 4.896829e+001
8.380889e+002, 4.893756e+001
8.385710e+002, 4.885550e+001
8.390531e+002, 4.871756e+001
8.395352e+002, 4.862404e+001
8.400173e+002, 4.880289e+001
8.404995e+002, 4.925529e+001
8.409816e+002, 4.938941e+001
8.414637e+002, 4.857409e+001
8.419458e+002, 4.782248e+001
8.424279e+002, 4.762392e+001
8.429100e+002, 4.796614e+001
8.433922e+002, 4.812558e+001
8.438743e+002, 4.805312e+001
8.443564e+002, 4.806480e+001
8.448385e+002, 4.846814e+001
8.453206e+002, 4.905857e+001
8.458027e+002, 4.936248e+001
8.462849e+002, 4.940657e+001
8.467670e+002, 4.932970e+001
8.472491e+002, 4.913777e+001
8.477312e+002, 4.891394e+001
8.482133e+002, 4.867317e+001
8.486954e+002, 4.843012e+001
8.491776e+002, 4.828523e+001
8.496597e+002, 4.826963e+001
8.501418e+002, 4.828688e+001
8.506239e+002, 4.828099e+001
8.511060e+002, 4.829769e+001
8.515881e+002, 4.859497e+001
8.520703e+002, 4.912233e+001
8.525524e+002, 4.944829e+001
8.530345e+002, 4.917695e+001
8.535166e+002, 4.877415e+001
8.539987e+002, 4.863457e+001
8.544808e+002, 4.869933e+001
8.549630e+002, 4.881988e+001
8.554451e+002, 4.907836e+001
8.559272e+002, 4.922657e+001
8.564093e+002, 4.917527e+001
8.568914e+002, 4.900473e+001
8.573735e+002, 4.889983e+001
8.578557e+002, 4.886690e+001
8.583378e+002, 4.880617e+001
8.588199e+002, 4.866994e+001
8.593020e+002, 4.853628e+001
8.597841e+002, 4.857173e+001
8.602662e+002, 4.869191e+001
8.607484e+002, 4.871785e+001
8.612305e+002, 4.851281e+001
8.617126e+002, 4.831787e+001
8.621947e+002, 4.820000e+001
8.626768e+002, 4.815734e+001
8.631589e+002, 4.819025e+001
8.636411e+002, 4.834313e+001
8.641232e+002, 4.844072e+001
8.646053e+002, 4.845302e+001
8.650874e+002, 4.844057e+001
8.655695e+002, 4.847633e+001
8.660516e+002, 4.855339e+001
8.665338e+002, 4.866795e+001
8.670159e+002, 4.883790e+001
8.674980e+002, 4.895237e+001
8.679801e+002, 4.883639e+001
8.684622e+002, 4.868323e+001
8.689443e+002, 4.868925e+001
8.694265e+002, 4.897267e+001
8.699086e+002, 4.921398e+001
8.703907e+002, 4.943403e+001
8.708728e+002, 4.957663e+001
8.713549e+002, 4.955940e+001
8.718370e+002, 4.939905e+001
8.723192e+002, 4.929318e+001
8.728013e+002, 4.924815e+001
8.732834e+002, 4.923874e+001
8.737655e+002, 4.926113e+001
8.742476e+002, 4.929688e+001
8.747297e+002, 4.935108e+001
8.752119e+002, 4.942594e+001
8.756940e+002, 4.940988e+001
8.761761e+002, 4.918821e+001
8.766582e+002, 4.896303e+001
8.771403e+002, 4.884365e+001
8.776224e+002, 4.881099e+001
8.781046e+002, 4.852243e+001
8.785867e+002, 4.795949e+001
8.790688e+002, 4.756133e+001
8.795509e+002, 4.773271e+001
8.800330e+002, 4.815076e+001
8.805151e+002, 4.842444e+001
8.809973e+002, 4.855388e+001
8.814794e+002, 4.854602e+001
8.819615e+002, 4.830459e+001
8.824436e+002, 4.803326e+001
8.829257e+002, 4.780923e+001
8.834078e+002, 4.761431e+001
8.838900e+002, 4.735821e+001
8.843721e+002, 4.700924e+001
8.848542e+002, 4.676881e+001
8.853363e+002, 4.670692e+001
8.858184e+002, 4.676301e+001
8.863005e+002, 4.694436e+001
8.867827e+002, 4.715591e+001
8.872648e+002, 4.713955e+001
8.877469e+002, 4.660512e+001
8.882290e+002, 4.612292e+001
8.887111e+002, 4.600722e+001
8.891932e+002, 4.606940e+001
8.896754e+002, 4.603379e+001
8.901575e+002, 4.587032e+001
8.906396e+002, 4.566419e+001
8.911217e+002, 4.540313e+001
8.916038e+002, 4.514968e+001
8.920859e+002, 4.498690e+001
8.925681e+002, 4.489415e+001
8.930502e+002, 4.479669e+001
8.935323e+002, 4.467535e+001
8.940144e+002, 4.461169e+001
8.944965e+002, 4.470570e+001
8.949786e+002, 4.485432e+001
8.954608e+002, 4.501098e+001
8.959429e+002, 4.524544e+001
8.964250e+002, 4.511510e+001
8.969071e+002, 4.440008e+001
8.973892e+002, 4.376294e+001
8.978713e+002, 4.379633e+001
8.983535e+002, 4.434492e+001
8.988356e+002, 4.441307e+001
8.993177e+002, 4.403032e+001
8.997998e+002, 4.372870e+001
9.002819e+002, 4.415139e+001
9.007640e+002, 4.455719e+001
9.012462e+002, 4.419261e+001
9.017283e+002, 4.314901e+001
9.022104e+002, 4.260231e+001
9.026925e+002, 4.294577e+001
9.031746e+002, 4.334718e+001
9.036567e+002, 4.364143e+001
9.041389e+002, 4.378135e+001
9.046210e+002, 4.350275e+001
9.051031e+002, 4.286292e+001
9.055852e+002, 4.237340e+001
9.060673e+002, 4.233245e+001
9.065494e+002, 4.240337e+001
9.070316e+002, 4.226334e+001
9.075137e+002, 4.202285e+001
9.079958e+002, 4.187518e+001
9.084779e+002, 4.192295e+001
9.089600e+002, 4.200744e+001
9.094421e+002, 4.216993e+001
9.099243e+002, 4.230187e+001
9.104064e+002, 4.222266e+001
9.108885e+002, 4.194607e+001
9.113706e+002, 4.171853e+001
9.118527e+002, 4.157808e+001
9.123348e+002, 4.148081e+001
9.128170e+002, 4.141166e+001
9.132991e+002, 4.134793e+001
9.137812e+002, 4.125151e+001
9.142633e+002, 4.109311e+001
9.147454e+002, 4.100351e+001
9.152275e+002, 4.099573e+001
9.157097e+002, 4.106871e+001
9.161918e+002, 4.128158e+001
9.166739e+002, 4.162867e+001
9.171560e+002, 4.165075e+001
9.176381e+002, 4.134438e+001
9.181202e+002, 4.111348e+001
9.186024e+002, 4.145980e+001
9.190845e+002, 4.187351e+001
9.195666e+002, 4.162373e+001
9.200487e+002, 4.085741e+001
9.205308e+002, 4.048355e+001
9.210129e+002, 4.124883e+001
9.214951e+002, 4.185898e+001
9.219772e+002, 4.194342e+001
9.224593e+002, 4.166722e+001
9.229414e+002, 4.149064e+001
9.234235e+002, 4.141450e+001
9.239056e+002, 4.144339e+001
9.243878e+002, 4.162896e+001
9.248699e+002, 4.182029e+001
9.253520e+002, 4.177736e+001
9.258341e+002, 4.164425e+001
9.263162e+002, 4.165450e+001
9.267983e+002, 4.207572e+001
9.272805e+002, 4.232893e+001
9.277626e+002, 4.224058e+001
9.282447e+002, 4.208118e+001
9.287268e+002, 4.215299e+001
9.292089e+002, 4.245819e+001
9.296910e+002, 4.267281e+001
9.301732e+002, 4.277188e+001
9.306553e+002, 4.279960e+001
9.311374e+002, 4.278040e+001
9.316195e+002, 4.272065e+001
9.321016e+002, 4.259433e+001
9.325837e+002, 4.239525e+001
9.330659e+002, 4.229339e+001
9.335480e+002, 4.242902e+001
9.340301e+002, 4.254982e+001
9.345122e+002, 4.255290e+001
9.349943e+002, 4.245443e+001
9.354764e+002, 4.233809e+001
9.359586e+002, 4.220512e+001
9.364407e+002, 4.216677e+001
9.369228e+002, 4.235350e+001
9.374049e+002, 4.258889e+001
9.378870e+002, 4.272255e+001
9.383691e+002, 4.276110e+001
9.388513e+002, 4.271674e+001
9.393334e+002, 4.258198e+001
9.398155e+002, 4.235639e+001
9.402976e+002, 4.194324e+001
9.407797e+002, 4.154587e+001
9.412618e+002, 4.156306e+001
9.417440e+002, 4.195818e+001
9.422261e+002, 4.221568e+001
9.427082e+002, 4.223759e+001
9.431903e+002, 4.218947e+001
9.436724e+002, 4.212237e+001
9.441545e+002, 4.213110e+001
9.446367e+002, 4.235851e+001
9.451188e+002, 4.291708e+001
9.456009e+002, 4.331026e+001
9.460830e+002, 4.346148e+001
9.465651e+002, 4.350212e+001
9.470472e+002, 4.342416e+001
9.475294e+002, 4.327425e+001
9.480115e+002, 4.356609e+001
9.484936e+002, 4.425352e+001
9.489757e+002, 4.479669e+001
9.494578e+002, 4.464631e+001
9.499399e+002, 4.440365e+001
9.504221e+002, 4.458655e+001
9.509042e+002, 4.508689e+001
9.513863e+002, 4.543542e+001
9.518684e+002, 4.551815e+001
9.523505e+002, 4.557153e+001
9.528326e+002, 4.559335e+001
9.533148e+002, 4.567004e+001
9.537969e+002, 4.598958e+001
9.542790e+002, 4.651375e+001
9.547611e+002, 4.711051e+001
9.552432e+002, 4.779274e+001
9.557253e+002, 4.835509e+001
9.562075e+002, 4.847142e+001
9.566896e+002, 4.849575e+001
9.571717e+002, 4.881126e+001
9.576538e+002, 4.957534e+001
9.581359e+002, 5.021136e+001
9.586180e+002, 5.068225e+001
9.591002e+002, 5.111910e+001
9.595823e+002, 5.159782e+001
9.600644e+002, 5.212140e+001
9.605465e+002, 5.269491e+001
9.610286e+002, 5.332056e+001
9.615107e+002, 5.399317e+001
9.619929e+002, 5.478248e+001
9.624750e+002, 5.555434e+001
9.629571e+002, 5.612084e+001
9.634392e+002, 5.660957e+001
9.639213e+002, 5.753177e+001
9.644034e+002, 5.899672e+001
9.648856e+002, 6.042352e+001
9.653677e+002, 6.166331e+001
9.658498e+002, 6.282641e+001
9.663319e+002, 6.402048e+001
9.668140e+002, 6.529560e+001
9.672961e+002, 6.677630e+001
9.677783e+002, 6.867138e+001
9.682604e+002, 7.033139e+001
9.687425e+002, 7.119930e+001
9.692246e+002, 7.198781e+001
9.697067e+002, 7.331759e+001
9.701888e+002, 7.527029e+001
9.706710e+002, 7.703577e+001
9.711531e+002, 7.859863e+001
9.716352e+002, 7.998421e+001
9.721173e+002, 8.112027e+001
9.725994e+002, 8.211958e+001
9.730815e+002, 8.319048e+001
9.735637e+002, 8.429178e+001
9.740458e+002, 8.518877e+001
9.745279e+002, 8.556987e+001
9.750100e+002, 8.602412e+001
9.754921e+002, 8.678405e+001
9.759742e+002, 8.766412e+001
9.764564e+002, 8.812670e+001
9.769385e+002, 8.820737e+001
9.774206e+002, 8.850544e+001
9.779027e+002, 8.921545e+001
9.783848e+002, 9.005976e+001
9.788669e+002, 9.066507e+001
9.793491e+002, 9.131307e+001
9.798312e+002, 9.236221e+001
9.803133e+002, 9.402434e+001
9.807954e+002, 9.571021e+001
9.812775e+002, 9.728372e+001
9.817596e+002, 9.910669e+001
9.822418e+002, 1.013733e+002
9.827239e+002, 1.041139e+002
9.832060e+002, 1.074877e+002
9.836881e+002, 1.114921e+002
9.841702e+002, 1.161040e+002
9.846523e+002, 1.214967e+002
9.851345e+002, 1.273077e+002
9.856166e+002, 1.333354e+002
9.860987e+002, 1.396594e+002
9.865808e+002, 1.465532e+002
9.870629e+002, 1.542268e+002
9.875450e+002, 1.617658e+002
9.880272e+002, 1.689559e+002
9.885093e+002, 1.760595e+002
9.889914e+002, 1.837152e+002
9.894735e+002, 1.914512e+002
9.899556e+002, 1.982825e+002
9.904377e+002, 2.040192e+002
9.909199e+002, 2.087512e+002
9.914020e+002, 2.124236e+002
9.918841e+002, 2.151211e+002
9.923662e+002, 2.169361e+002
9.928483e+002, 2.178383e+002
9.933304e+002, 2.180470e+002
9.938126e+002, 2.175523e+002
9.942947e+002, 2.165348e+002
9.947768e+002, 2.146089e+002
9.952589e+002, 2.125808e+002
9.957410e+002, 2.116500e+002
9.962231e+002, 2.114186e+002
9.967053e+002, 2.106987e+002
9.971874e+002, 2.088608e+002
9.976695e+002, 2.069093e+002
9.981516e+002, 2.051316e+002
9.986337e+002, 2.031266e+002
9.991158e+002, 2.002622e+002
9.995980e+002, 1.965482e+002
1.000080e+003, 1.924285e+002
1.000562e+003, 1.879725e+002
1.001044e+003, 1.825793e+002
1.001526e+003, 1.753862e+002
1.002009e+003, 1.672642e+002
1.002491e+003, 1.588243e+002
1.002973e+003, 1.499898e+002
1.003455e+003, 1.416071e+002
1.003937e+003, 1.336937e+002
1.004419e+003, 1.262089e+002
1.004901e+003, 1.190626e+002
1.005383e+003, 1.123208e+002
1.005865e+003, 1.057974e+002
1.006348e+003, 9.968760e+001
1.006830e+003, 9.435841e+001
1.007312e+003, 9.033487e+001
1.007794e+003, 8.675696e+001
1.008276e+003, 8.333422e+001
1.008758e+003, 8.018780e+001
1.009240e+003, 7.745173e+001
1.009722e+003, 7.516792e+001
1.010205e+003, 7.297613e+001
1.010687e+003, 7.081501e+001
1.011169e+003, 6.887861e+001
1.011651e+003, 6.749371e+001
1.012133e+003, 6.628571e+001
1.012615e+003, 6.480714e+001
1.013097e+003, 6.305080e+001
1.013579e+003, 6.140428e+001
1.014061e+003, 5.997911e+001
1.014544e+003, 5.857856e+001
1.015026e+003, 5.711315e+001
1.015508e+003, 5.568658e+001
1.015990e+003, 5.454557e+001
1.016472e+003, 5.364563e+001
1.016954e+003, 5.280796e+001
1.017436e+003, 5.196367e+001
1.017918e+003, 5.118188e+001
1.018401e+003, 5.054310e+001
1.018883e+003, 4.996431e+001
1.019365e+003, 4.933173e+001
1.019847e+003, 4.859021e+001
1.020329e+003, 4.807969e+001
1.020811e+003, 4.783816e+001
1.021293e+003, 4.762140e+001
1.021775e+003, 4.722863e+001
1.022257e+003, 4.676474e+001
1.022740e+003, 4.639421e+001
1.023222e+003, 4.609623e+001
1.023704e+003, 4.578128e+001
1.024186e+003, 4.529462e+001
1.024668e+003, 4.496011e+001
1.025150e+003, 4.491237e+001
1.025632e+003, 4.497707e+001
1.026114e+003, 4.488023e+001
1.026596e+003, 4.463041e+001
1.027079e+003, 4.422686e+001
1.027561e+003, 4.363234e+001
1.028043e+003, 4.319765e+001
1.028525e+003, 4.344505e+001
1.029007e+003, 4.380476e+001
1.029489e+003, 4.368903e+001
1.029971e+003, 4.301464e+001
1.030453e+003, 4.280304e+001
1.030936e+003, 4.321543e+001
1.031418e+003, 4.354950e+001
1.031900e+003, 4.346666e+001
1.032382e+003, 4.316991e+001
1.032864e+003, 4.299058e+001
1.033346e+003, 4.292556e+001
1.033828e+003, 4.297978e+001
1.034310e+003, 4.331902e+001
1.034792e+003, 4.351979e+001
1.035275e+003, 4.335102e+001
1.035757e+003, 4.311786e+001
1.036239e+003, 4.311214e+001
1.036721e+003, 4.333405e+001
1.037203e+003, 4.342197e+001
1.037685e+003, 4.336452e+001
1.038167e+003, 4.327727e+001
1.038649e+003, 4.323698e+001
1.039132e+003, 4.320855e+001
1.039614e+003, 4.309575e+001
1.040096e+003, 4.295489e+001
1.040578e+003, 4.309801e+001
1.041060e+003, 4.379121e+001
1.041542e+003, 4.404902e+001
1.042024e+003, 4.356043e+001
1.042506e+003, 4.284943e+001
1.042989e+003, 4.272343e+001
1.043471e+003, 4.296136e+001
1.043953e+003, 4.312129e+001
1.044435e+003, 4.312574e+001
1.044917e+003, 4.301057e+001
1.045399e+003, 4.261285e+001
1.045881e+003, 4.227940e+001
1.046363e+003, 4.219775e+001
1.046845e+003, 4.233971e+001
1.047328e+003, 4.253443e+001
1.047810e+003, 4.277314e+001
1.048292e+003, 4.285900e+001
1.048774e+003, 4.257301e+001
1.049256e+003, 4.228147e+001
1.049738e+003, 4.228859e+001
1.050220e+003, 4.248095e+001
1.050702e+003, 4.269211e+001
1.051184e+003, 4.299725e+001
1.051667e+003, 4.307382e+001
1.052149e+003, 4.286236e+001
1.052631e+003, 4.259500e+001
1.053113e+003, 4.244212e+001
1.053595e+003, 4.238701e+001
1.054077e+003, 4.244096e+001
1.054559e+003, 4.257939e+001
1.055041e+003, 4.265338e+001
1.055523e+003, 4.246383e+001
1.056006e+003, 4.237644e+001
1.056488e+003, 4.250368e+001
1.056970e+003, 4.277329e+001
1.057452e+003, 4.313762e+001
1.057934e+003, 4.355698e+001
1.058416e+003, 4.357827e+001
1.058898e+003, 4.304551e+001
1.059380e+003, 4.256428e+001
1.059863e+003, 4.267678e+001
1.060345e+003, 4.301830e+001
1.060827e+003, 4.332880e+001
1.061309e+003, 4.359096e+001
1.061791e+003, 4.372850e+001
1.062273e+003, 4.370752e+001
1.062755e+003, 4.372689e+001
1.063237e+003, 4.391250e+001
1.063719e+003, 4.413237e+001
1.064202e+003, 4.410828e+001
1.064684e+003, 4.398270e+001
1.065166e+003, 4.404070e+001
1.065648e+003, 4.460241e+001
1.066130e+003, 4.491695e+001
1.066612e+003, 4.478829e+001
1.067094e+003, 4.458829e+001
1.067576e+003, 4.463523e+001
1.068059e+003, 4.488281e+001
1.068541e+003, 4.505532e+001
1.069023e+003, 4.516060e+001
1.069505e+003, 4.529405e+001
1.069987e+003, 4.552862e+001
1.070469e+003, 4.578769e+001
1.070951e+003, 4.609186e+001
1.071433e+003, 4.636710e+001
1.071916e+003, 4.644801e+001
1.072398e+003, 4.630828e+001
1.072880e+003, 4.621383e+001
1.073362e+003, 4.621119e+001
1.073844e+003, 4.618971e+001
1.074326e+003, 4.587877e+001
1.074808e+003, 4.559667e+001
1.075290e+003, 4.578672e+001
1.075772e+003, 4.648498e+001
1.076255e+003, 4.687790e+001
1.076737e+003, 4.677209e+001
1.077219e+003, 4.667463e+001
1.077701e+003, 4.668993e+001
1.078183e+003, 4.689331e+001
1.078665e+003, 4.770879e+001
1.079147e+003, 4.878949e+001
1.079629e+003, 4.925203e+001
1.080111e+003, 4.860139e+001
1.080594e+003, 4.812067e+001
1.081076e+003, 4.844896e+001
1.081558e+003, 4.889819e+001
1.082040e+003, 4.910268e+001
1.082522e+003, 4.907818e+001
1.083004e+003, 4.884796e+001
1.083486e+003, 4.845882e+001
1.083968e+003, 4.837906e+001
1.084450e+003, 4.917278e+001
1.084933e+003, 5.001900e+001
1.085415e+003, 5.035379e+001
1.085897e+003, 5.041851e+001
1.086379e+003, 5.063071e+001
1.086861e+003, 5.105659e+001
1.087343e+003, 5.139641e+001
1.087825e+003, 5.163533e+001
1.088307e+003, 5.180309e+001
1.088790e+003, 5.183300e+001
1.089272e+003, 5.186967e+001
1.089754e+003, 5.215382e+001
1.090236e+003, 5.263362e+001
1.090718e+003, 5.297559e+001
1.091200e+003, 5.304796e+001
1.091682e+003, 5.311165e+001
1.092164e+003, 5.321208e+001
1.092646e+003, 5.331825e+001
1.093129e+003, 5.336088e+001
1.093611e+003, 5.337494e+001
1.094093e+003, 5.346523e+001
1.094575e+003, 5.365404e+001
1.095057e+003, 5.380781e+001
1.095539e+003, 5.382516e+001
1.096021e+003, 5.383342e+001
1.096503e+003, 5.386914e+001
1.096986e+003, 5.394362e+001
1.097468e+003, 5.414405e+001
1.097950e+003, 5.444892e+001
1.098432e+003, 5.463018e+001
1.098914e+003, 5.450757e+001
1.099396e+003, 5.454039e+001
1.099878e+003, 5.524023e+001
1.100360e+003, 5.614286e+001
1.100843e+003, 5.677649e+001
1.101325e+003, 5.710277e+001
1.101807e+003, 5.749828e+001
1.102289e+003, 5.797167e+001
1.102771e+003, 5.843897e+001
1.103253e+003, 5.878948e+001
1.103735e+003, 5.916652e+001
1.104217e+003, 5.979680e+001
1.104699e+003, 6.055719e+001
1.105182e+003, 6.121901e+001
1.105664e+003, 6.161201e+001
1.106146e+003, 6.213683e+001
1.106628e+003, 6.283363e+001
1.107110e+003, 6.358454e+001
1.107592e+003, 6.425701e+001
1.108074e+003, 6.492366e+001
1.108556e+003, 6.577299e+001
1.109038e+003, 6.679129e+001
1.109521e+003, 6.787856e+001
1.110003e+003, 6.912540e+001
1.110485e+003, 7.027341e+001
1.110967e+003, 7.125569e+001
1.111449e+003, 7.215137e+001
1.111931e+003, 7.304947e+001
1.112413e+003, 7.396663e+001
1.112895e+003, 7.497506e+001
1.113377e+003, 7.609188e+001
1.113860e+003, 7.728975e+001
1.114342e+003, 7.858141e+001
1.114824e+003, 7.992761e+001
1.115306e+003, 8.123460e+001
1.115788e+003, 8.257093e+001
1.116270e+003, 8.422877e+001
1.116752e+003, 8.621268e+001
1.117234e+003, 8.799258e+001
1.117717e+003, 8.936337e+001
1.118199e+003, 9.080170e+001
1.118681e+003, 9.273795e+001
1.119163e+003, 9.493771e+001
1.119645e+003, 9.718936e+001
1.120127e+003, 9.947315e+001
1.120609e+003, 1.019324e+002
1.121091e+003, 1.045964e+002
1.121573e+003, 1.072268e+002
1.122056e+003, 1.096476e+002
1.122538e+003, 1.120997e+002
1.123020e+003, 1.149873e+002
1.123502e+003, 1.181539e+002
1.123984e+003, 1.213817e+002
1.124466e+003, 1.246615e+002
1.124948e+003, 1.279071e+002
1.125430e+003, 1.310885e+002
1.125913e+003, 1.343088e+002
1.126395e+003, 1.376427e+002
1.126877e+003, 1.410709e+002
1.127359e+003, 1.445381e+002
1.127841e+003, 1.480854e+002
1.128323e+003, 1.517889e+002
1.128805e+003, 1.558577e+002
1.129287e+003, 1.598174e+002
1.129770e+003, 1.635172e+002
1.130252e+003, 1.672283e+002
1.130734e+003, 1.713082e+002
1.131216e+003, 1.756484e+002
1.131698e+003, 1.798688e+002
1.132180e+003, 1.840078e+002
1.132662e+003, 1.884741e+002
1.133144e+003, 1.938297e+002
1.133626e+003, 1.991468e+002
1.134109e+003, 2.042254e+002
1.134591e+003, 2.090769e+002
1.135073e+003, 2.138438e+002
1.135555e+003, 2.184428e+002
1.136037e+003, 2.223280e+002
1.136519e+003, 2.254450e+002
1.137001e+003, 2.279702e+002
1.137483e+003, 2.300641e+002
1.137965e+003, 2.315915e+002
1.138448e+003, 2.325965e+002
1.138930e+003, 2.329655e+002
1.139412e+003, 2.321618e+002
1.139894e+003, 2.301617e+002
1.140376e+003, 2.273530e+002
1.140858e+003, 2.237578e+002
1.141340e+003, 2.197234e+002
1.141822e+003, 2.154665e+002
1.142304e+003, 2.109648e+002
1.142787e+003, 2.060395e+002
1.143269e+003, 2.007236e+002
1.143751e+003, 1.954733e+002
1.144233e+003, 1.902851e+002
1.144715e+003, 1.854029e+002
1.145197e+003, 1.811113e+002
1.145679e+003, 1.769247e+002
1.146161e+003, 1.722778e+002
1.146644e+003, 1.674391e+002
1.147126e+003, 1.626284e+002
1.147608e+003, 1.578001e+002
1.148090e+003, 1.536243e+002
1.148572e+003, 1.502445e+002
1.149054e+003, 1.470979e+002
1.149536e+003, 1.439621e+002
1.150018e+003, 1.408486e+002
1.150500e+003, 1.376628e+002
1.150983e+003, 1.345032e+002
1.151465e+003, 1.315753e+002
1.151947e+003, 1.293016e+002
1.152429e+003, 1.264148e+002
1.152911e+003, 1.225573e+002
1.153393e+003, 1.186961e+002
1.153875e+003, 1.155630e+002
1.154357e+003, 1.129035e+002
1.154840e+003, 1.101326e+002
1.155322e+003, 1.072160e+002
1.155804e+003, 1.041812e+002
1.156286e+003, 1.007125e+002
1.156768e+003, 9.756357e+001
1.157250e+003, 9.489149e+001
1.157732e+003, 9.244427e+001
1.158214e+003, 9.001643e+001
1.158697e+003, 8.760412e+001
1.159179e+003, 8.521885e+001
1.159661e+003, 8.286881e+001
1.160143e+003, 8.065478e+001
1.160625e+003, 7.879922e+001
1.161107e+003, 7.685670e+001
1.161589e+003, 7.451478e+001
1.162071e+003, 7.219167e+001
1.162553e+003, 7.050528e+001
1.163036e+003, 6.936193e+001
1.163518e+003, 6.803319e+001
1.164000e+003, 6.647307e+001
1.164482e+003, 6.493737e+001
1.164964e+003, 6.350008e+001
1.165446e+003, 6.221874e+001
1.165928e+003, 6.125545e+001
1.166410e+003, 6.039423e+001
1.166892e+003, 5.915992e+001
1.167375e+003, 5.759259e+001
1.167857e+003, 5.647715e+001
1.168339e+003, 5.592498e+001
1.168821e+003, 5.546069e+001
1.169303e+003, 5.470355e+001
1.169785e+003, 5.395875e+001
1.170267e+003, 5.354817e+001
1.170749e+003, 5.327913e+001
1.171231e+003, 5.248074e+001
1.171714e+003, 5.115551e+001
1.172196e+003, 5.019152e+001
1.172678e+003, 4.982888e+001
1.173160e+003, 4.952065e+001
1.173642e+003, 4.871318e+001
1.174124e+003, 4.785286e+001
1.174606e+003, 4.733517e+001
1.175088e+003, 4.710663e+001
1.175571e+003, 4.687516e+001
1.176053e+003, 4.663886e+001
1.176535e+003, 4.641412e+001
1.177017e+003, 4.621471e+001
1.177499e+003, 4.598763e+001
1.177981e+003, 4.565171e+001
1.178463e+003, 4.528444e+001
1.178945e+003, 4.494956e+001
1.179427e+003, 4.465183e+001
1.179910e+003, 4.442513e+001
1.180392e+003, 4.428186e+001
1.180874e+003, 4.405668e+001
1.181356e+003, 4.366280e+001
1.181838e+003, 4.321970e+001
1.182320e+003, 4.278153e+001
1.182802e+003, 4.240974e+001
1.183284e+003, 4.219549e+001
1.183767e+003, 4.216553e+001
1.184249e+003, 4.216428e+001
1.184731e+003, 4.222532e+001
1.185213e+003, 4.206857e+001
1.185695e+003, 4.144814e+001
1.186177e+003, 4.072783e+001
1.186659e+003, 4.026740e+001
1.187141e+003, 4.001008e+001
1.187624e+003, 3.992421e+001
1.188106e+003, 4.009910e+001
1.188588e+003, 4.001415e+001
1.189070e+003, 3.961071e+001
1.189552e+003, 3.929247e+001
1.190034e+003, 3.934281e+001
1.190516e+003, 3.954874e+001
1.190998e+003, 3.977576e+001
1.191480e+003, 3.992565e+001
1.191963e+003, 3.980167e+001
1.192445e+003, 3.920945e+001
1.192927e+003, 3.877077e+001
1.193409e+003, 3.848595e+001
1.193891e+003, 3.834864e+001
1.194373e+003, 3.842626e+001
1.194855e+003, 3.858988e+001
1.195337e+003, 3.875569e+001
1.195819e+003, 3.885973e+001
1.196302e+003, 3.874555e+001
1.196784e+003, 3.826987e+001
1.197266e+003, 3.783159e+001
1.197748e+003, 3.740535e+001
1.198230e+003, 3.715487e+001
1.198712e+003, 3.740190e+001
1.199194e+003, 3.777008e+001
1.199676e+003, 3.766700e+001
1.200158e+003, 3.726659e+001
1.200641e+003, 3.707938e+001
1.201123e+003, 3.738859e+001
1.201605e+003, 3.738745e+001
1.202087e+003, 3.695213e+001
1.202569e+003, 3.653851e+001
1.203051e+003, 3.675200e+001
1.203533e+003, 3.710348e+001
1.204015e+003, 3.680139e+001
1.204498e+003, 3.605324e+001
1.204980e+003, 3.566936e+001
1.205462e+003, 3.591992e+001
1.205944e+003, 3.615955e+001
1.206426e+003, 3.635546e+001
1.206908e+003, 3.645620e+001
1.207390e+003, 3.636063e+001
1.207872e+003, 3.617559e+001
1.208354e+003, 3.604650e+001
1.208837e+003, 3.595660e+001
1.209319e+003, 3.579057e+001
1.209801e+003, 3.546466e+001
1.210283e+003, 3.524709e+001
1.210765e+003, 3.517365e+001
1.211247e+003, 3.519001e+001
1.211729e+003, 3.531285e+001
1.212211e+003, 3.543998e+001
1.212694e+003, 3.543153e+001
1.213176e+003, 3.529797e+001
1.213658e+003, 3.513089e+001
1.214140e+003, 3.487487e+001
1.214622e+003, 3.481594e+001
1.215104e+003, 3.504338e+001
1.215586e+003, 3.527163e+001
1.216068e+003, 3.513375e+001
1.216551e+003, 3.486073e+001
1.217033e+003, 3.474890e+001
1.217515e+003, 3.478630e+001
1.217997e+003, 3.472118e+001
1.218479e+003, 3.448109e+001
1.218961e+003, 3.434917e+001
1.219443e+003, 3.439161e+001
1.219925e+003, 3.446986e+001
1.220407e+003, 3.439444e+001
1.220890e+003, 3.429108e+001
1.221372e+003, 3.430050e+001
1.221854e+003, 3.442887e+001
1.222336e+003, 3.462638e+001
1.222818e+003, 3.496592e+001
1.223300e+003, 3.502694e+001
1.223782e+003, 3.468170e+001
1.224264e+003, 3.425081e+001
1.224746e+003, 3.399621e+001
1.225229e+003, 3.390871e+001
1.225711e+003, 3.404025e+001
1.226193e+003, 3.436657e+001
1.226675e+003, 3.460634e+001
1.227157e+003, 3.478193e+001
1.227639e+003, 3.469011e+001
1.228121e+003, 3.422830e+001
1.228603e+003, 3.377964e+001
1.229085e+003, 3.378125e+001
1.229568e+003, 3.397277e+001
1.230050e+003, 3.413613e+001
1.230532e+003, 3.425452e+001
1.231014e+003, 3.438264e+001
1.231496e+003, 3.454483e+001
1.231978e+003, 3.445057e+001
1.232460e+003, 3.396473e+001
1.232942e+003, 3.355533e+001
1.233425e+003, 3.386841e+001
1.233907e+003, 3.429992e+001
1.234389e+003, 3.420412e+001
1.234871e+003, 3.369241e+001
1.235353e+003, 3.366362e+001
1.235835e+003, 3.415055e+001
1.236317e+003, 3.431197e+001
1.236799e+003, 3.387722e+001
1.237281e+003, 3.346215e+001
1.237764e+003, 3.373808e+001
1.238246e+003, 3.411672e+001
1.238728e+003, 3.406090e+001
1.239210e+003, 3.369136e+001
1.239692e+003, 3.354105e+001
1.240174e+003, 3.360364e+001
1.240656e+003, 3.366317e+001
1.241138e+003, 3.367156e+001
1.241621e+003, 3.364955e+001
1.242103e+003, 3.354963e+001
1.242585e+003, 3.348798e+001
1.243067e+003, 3.357389e+001
1.243549e+003, 3.375029e+001
1.244031e+003, 3.379858e+001
1.244513e+003, 3.373542e+001
1.244995e+003, 3.370006e+001
1.245478e+003, 3.373369e+001
1.245960e+003, 3.373920e+001
1.246442e+003, 3.373878e+001
1.246924e+003, 3.358312e+001
1.247406e+003, 3.312033e+001
1.247888e+003, 3.251181e+001
1.248370e+003, 3.225336e+001
1.248852e+003, 3.230798e+001
1.249334e+003, 3.259082e+001
1.249817e+003, 3.314178e+001
1.250299e+003, 3.349944e+001
1.250781e+003, 3.314680e+001
1.251263e+003, 3.292005e+001
1.251745e+003, 3.324797e+001
1.252227e+003, 3.382727e+001
1.252709e+003, 3.385514e+001
1.253191e+003, 3.351504e+001
1.253673e+003, 3.336032e+001
1.254156e+003, 3.353350e+001
1.254638e+003, 3.363881e+001
1.255120e+003, 3.349471e+001
1.255602e+003, 3.334451e+001
1.256084e+003, 3.325746e+001
1.256566e+003, 3.322409e+001
1.257048e+003, 3.326838e+001
1.257530e+003, 3.333879e+001
1.258012e+003, 3.331703e+001
1.258495e+003, 3.317192e+001
1.258977e+003, 3.304046e+001
1.259459e+003, 3.286699e+001
1.259941e+003, 3.290923e+001
1.260423e+003, 3.334889e+001
1.260905e+003, 3.383019e+001
1.261387e+003, 3.366361e+001
1.261869e+003, 3.322833e+001
1.262352e+003, 3.311897e+001
1.262834e+003, 3.344573e+001
1.263316e+003, 3.362809e+001
1.263798e+003, 3.361055e+001
1.264280e+003, 3.353872e+001
1.264762e+003, 3.344500e+001
1.265244e+003, 3.334648e+001
1.265726e+003, 3.324781e+001
1.266208e+003, 3.316559e+001
1.266691e+003, 3.314839e+001
1.267173e+003, 3.319172e+001
1.267655e+003, 3.308532e+001
1.268137e+003, 3.280054e+001
1.268619e+003, 3.257657e+001
1.269101e+003, 3.245198e+001
1.269583e+003, 3.251891e+001
1.270065e+003, 3.316692e+001
1.270548e+003, 3.380250e+001
1.271030e+003, 3.370679e+001
1.271512e+003, 3.310323e+001
1.271994e+003, 3.306483e+001
1.272476e+003, 3.357513e+001
1.272958e+003, 3.381568e+001
1.273440e+003, 3.357401e+001
1.273922e+003, 3.328505e+001
1.274405e+003, 3.332734e+001
1.274887e+003, 3.334278e+001
1.275369e+003, 3.303096e+001
1.275851e+003, 3.257967e+001
1.276333e+003, 3.256957e+001
1.276815e+003, 3.291453e+001
1.277297e+003, 3.321492e+001
1.277779e+003, 3.340350e+001
1.278261e+003, 3.340327e+001
1.278744e+003, 3.297076e+001
1.279226e+003, 3.257782e+001
1.279708e+003, 3.235815e+001
1.280190e+003, 3.231631e+001
1.280672e+003, 3.257858e+001
1.281154e+003, 3.299492e+001
1.281636e+003, 3.315830e+001
1.282118e+003, 3.301383e+001
1.282600e+003, 3.285799e+001
1.283083e+003, 3.273628e+001
1.283565e+003, 3.268885e+001
1.284047e+003, 3.273881e+001
1.284529e+003, 3.283620e+001
1.285011e+003, 3.294998e+001
1.285493e+003, 3.304319e+001
1.285975e+003, 3.303209e+001
1.286457e+003, 3.292037e+001
1.286939e+003, 3.287050e+001
1.287422e+003, 3.291632e+001
1.287904e+003, 3.296463e+001
1.288386e+003, 3.301127e+001
1.288868e+003, 3.299464e+001
1.289350e+003, 3.269697e+001
1.289832e+003, 3.242161e+001
1.290314e+003, 3.256838e+001
1.290796e+003, 3.304031e+001
1.291279e+003, 3.325800e+001
1.291761e+003, 3.319613e+001
1.292243e+003, 3.313091e+001
1.292725e+003, 3.309999e+001
1.293207e+003, 3.307073e+001
1.293689e+003, 3.296058e+001
1.294171e+003, 3.289927e+001
1.294653e+003, 3.306072e+001
1.295135e+003, 3.328809e+001
1.295618e+003, 3.329105e+001
1.296100e+003, 3.309531e+001
1.296582e+003, 3.293867e+001
1.297064e+003, 3.284746e+001
1.297546e+003, 3.280915e+001
1.298028e+003, 3.287048e+001
1.298510e+003, 3.289890e+001
1.298992e+003, 3.285076e+001
1.299475e+003, 3.276632e+001
1.299957e+003, 3.265489e+001
1.300439e+003, 3.255943e+001
1.300921e+003, 3.258858e+001
1.301403e+003, 3.275159e+001
1.301885e+003, 3.304486e+001
##END=



