##NAMES=Bertrandite
##RRUFFID=R060800
##IDEAL CHEMISTRY=Be_4_Si_2_O_7_(OH)_2_
##LOCALITY=Golconda mine, Governador Valadares, Minas Gerais, Brazil
##OWNER=RRUFF
##SOURCE=Bob Jenkins
##DESCRIPTION=Colorless pseudohexagonal prisms
##STATUS=The identification of this mineral is confirmed by single-crystal X-ray diffraction and chemical analysis.
##URL=rruff.info/R060800
##MEASURED CHEMISTRY=Be_4.00_Si_2.00_O_7_(OH)_2_
163.4671, 109501.6
163.9493, 109838.7
164.4314, 110107.4
164.9135, 110268.3
165.3956, 110378.3
165.8777, 110484.2
166.3598, 110600.9
166.8420, 110720.6
167.3241, 110868.1
167.8062, 111035.4
168.2883, 111149.6
168.7704, 111117.6
169.2525, 111031.6
169.7346, 110997.2
170.2168, 111058.9
170.6989, 111185.3
171.1810, 111359.9
171.6631, 111584.3
172.1452, 111842.9
172.6273, 112137.0
173.1095, 112456.9
173.5916, 112792.0
174.0737, 113077.6
174.5558, 113404.1
175.0379, 113898.4
175.5201, 114574.5
176.0022, 115291.4
176.4843, 115904.9
176.9664, 116447.0
177.4485, 117009.8
177.9306, 117666.6
178.4128, 118360.3
178.8949, 119002.4
179.3770, 119580.5
179.8591, 120147.6
180.3412, 120696.6
180.8233, 121265.1
181.3055, 121990.5
181.7876, 122942.7
182.2697, 124109.4
182.7518, 125571.6
183.2339, 127425.8
183.7160, 129322.3
184.1981, 131007.5
184.6803, 132418.7
185.1624, 132960.2
185.6445, 131860.1
186.1266, 129488.0
186.6087, 127112.7
187.0908, 124831.3
187.5730, 122791.2
188.0551, 121368.5
188.5372, 120551.9
189.0193, 120088.8
189.5014, 119884.5
189.9835, 119905.8
190.4657, 119918.6
190.9478, 119858.1
191.4299, 119779.2
191.9120, 119834.6
192.3941, 120032.0
192.8762, 120301.6
193.3584, 120579.3
193.8405, 120866.6
194.3226, 121218.1
194.8047, 121625.8
195.2868, 122110.2
195.7689, 122737.6
196.2511, 123508.0
196.7332, 124458.6
197.2153, 125649.4
197.6974, 127094.0
198.1795, 128634.3
198.6616, 130283.8
199.1437, 132025.9
199.6259, 133554.9
200.1080, 134830.3
200.5901, 136006.9
201.0722, 137198.5
201.5543, 138387.8
202.0364, 139745.1
202.5186, 141279.8
203.0007, 142993.0
203.4828, 145057.5
203.9649, 147457.6
204.4470, 150238.3
204.9291, 153393.5
205.4113, 156906.1
205.8934, 160918.3
206.3755, 165670.7
206.8576, 171260.7
207.3397, 176888.8
207.8218, 183753.3
208.3040, 189170.9
208.7861, 188103.3
209.2682, 179043.9
209.7503, 168291.7
210.2324, 157568.5
210.7145, 146514.4
211.1967, 138193.3
211.6788, 133091.8
212.1609, 130315.0
212.6430, 128220.1
213.1251, 126949.5
213.6072, 126063.3
214.0894, 125410.5
214.5715, 125038.3
215.0536, 124726.2
215.5357, 124459.2
216.0178, 124256.6
216.4999, 124184.5
216.9820, 124283.4
217.4642, 124419.8
217.9463, 124520.9
218.4284, 124545.3
218.9105, 124641.9
219.3926, 124832.5
219.8747, 125087.7
220.3569, 125338.1
220.8390, 125599.5
221.3211, 125832.3
221.8032, 126014.1
222.2853, 126114.6
222.7674, 126251.1
223.2496, 126438.1
223.7317, 126669.8
224.2138, 126907.6
224.6959, 127142.7
225.1780, 127408.8
225.6601, 127725.6
226.1423, 128078.3
226.6244, 128512.0
227.1065, 129021.0
227.5886, 129611.4
228.0707, 130304.6
228.5528, 131177.6
229.0350, 132058.1
229.5171, 132895.6
229.9992, 133963.3
230.4813, 134394.9
230.9634, 133944.4
231.4455, 132749.8
231.9276, 131644.4
232.4098, 130600.3
232.8919, 129678.3
233.3740, 128931.8
233.8561, 128340.6
234.3382, 127967.6
234.8203, 127886.4
235.3025, 128056.9
235.7846, 128150.4
236.2667, 128094.6
236.7488, 128051.3
237.2309, 128146.5
237.7130, 128471.0
238.1952, 128750.7
238.6773, 128929.3
239.1594, 129025.0
239.6415, 129201.8
240.1236, 129466.6
240.6057, 129810.5
241.0879, 130269.7
241.5700, 131041.1
242.0521, 131526.7
242.5342, 131604.4
243.0163, 131299.6
243.4984, 130909.8
243.9806, 130330.0
244.4627, 129776.4
244.9448, 129420.4
245.4269, 129352.4
245.9090, 129293.6
246.3911, 129205.0
246.8732, 129085.8
247.3554, 128962.1
247.8375, 128797.3
248.3196, 128662.8
248.8017, 128625.7
249.2838, 128749.3
249.7659, 128842.4
250.2481, 128886.3
250.7302, 128884.1
251.2123, 128839.1
251.6944, 128725.6
252.1765, 128613.7
252.6586, 128564.4
253.1408, 128621.3
253.6229, 128665.4
254.1050, 128688.0
254.5871, 128691.9
255.0692, 128671.0
255.5513, 128612.7
256.0334, 128550.9
256.5156, 128507.2
256.9977, 128474.0
257.4798, 128471.5
257.9619, 128485.0
258.4440, 128519.4
258.9261, 128664.5
259.4083, 128972.0
259.8904, 129307.9
260.3725, 129551.2
260.8546, 129657.1
261.3367, 129786.0
261.8188, 129983.9
262.3010, 130233.1
262.7831, 130358.0
263.2652, 130294.2
263.7473, 130207.4
264.2294, 130243.6
264.7115, 130456.0
265.1937, 130624.5
265.6758, 130716.9
266.1579, 130737.2
266.6400, 130700.0
267.1221, 130573.8
267.6042, 130456.9
268.0864, 130442.3
268.5685, 130566.0
269.0506, 130666.1
269.5327, 130724.0
270.0148, 130743.6
270.4969, 130724.5
270.9791, 130647.2
271.4612, 130586.6
271.9433, 130623.3
272.4254, 130788.6
272.9075, 130885.3
273.3896, 130849.4
273.8718, 130731.6
274.3539, 130758.6
274.8360, 130971.9
275.3181, 131204.0
275.8002, 131317.6
276.2823, 131292.9
276.7645, 131301.5
277.2466, 131375.1
277.7287, 131491.4
278.2108, 131563.9
278.6929, 131577.8
279.1750, 131605.1
279.6572, 131715.3
280.1393, 131912.4
280.6214, 132056.7
281.1035, 132116.5
281.5856, 132121.8
282.0677, 132149.2
282.5499, 132198.3
283.0320, 132268.1
283.5141, 132386.9
283.9962, 132551.3
284.4783, 132633.5
284.9604, 132606.0
285.4425, 132508.9
285.9247, 132413.5
286.4068, 132320.0
286.8889, 132261.4
287.3710, 132261.9
287.8531, 132319.3
288.3352, 132420.4
288.8174, 132581.3
289.2995, 132754.4
289.7816, 132851.7
290.2637, 132872.9
290.7458, 132862.8
291.2279, 132828.7
291.7101, 132778.8
292.1922, 132749.6
292.6743, 132744.7
293.1564, 132759.0
293.6385, 132800.6
294.1206, 132864.6
294.6028, 132911.5
295.0849, 132901.1
295.5670, 132861.0
296.0491, 132870.3
296.5312, 132946.6
297.0133, 133041.4
297.4955, 133065.1
297.9776, 133047.1
298.4597, 133100.9
298.9418, 133324.4
299.4239, 133651.1
299.9060, 133961.5
300.3882, 134243.2
300.8703, 134521.8
301.3524, 134866.0
301.8345, 135226.4
302.3166, 135474.1
302.7987, 135493.9
303.2809, 135383.0
303.7630, 135248.3
304.2451, 135088.3
304.7272, 134931.2
305.2093, 134773.3
305.6914, 134633.5
306.1736, 134556.9
306.6557, 134602.9
307.1378, 134694.0
307.6199, 134765.6
308.1020, 134819.3
308.5841, 134858.7
309.0663, 134900.9
309.5484, 134933.2
310.0305, 134935.7
310.5126, 134880.0
310.9947, 134814.0
311.4768, 134777.6
311.9590, 134768.0
312.4411, 134745.8
312.9232, 134660.0
313.4053, 134561.7
313.8874, 134505.5
314.3695, 134555.3
314.8516, 134602.0
315.3337, 134587.1
315.8159, 134519.8
316.2980, 134449.6
316.7801, 134377.9
317.2622, 134322.9
317.7443, 134300.2
318.2264, 134340.5
318.7086, 134383.4
319.1907, 134399.6
319.6728, 134402.5
320.1549, 134434.8
320.6370, 134496.8
321.1191, 134601.1
321.6013, 134760.4
322.0834, 135020.3
322.5655, 135253.9
323.0476, 135409.8
323.5297, 135517.9
324.0118, 135652.3
324.4940, 135822.5
324.9761, 136019.0
325.4582, 136247.5
325.9403, 136553.2
326.4224, 136791.6
326.9045, 136891.6
327.3867, 136928.2
327.8688, 137028.3
328.3509, 137277.5
328.8330, 137508.4
329.3151, 137668.7
329.7972, 137726.3
330.2794, 137838.5
330.7615, 138104.9
331.2436, 138377.8
331.7257, 138469.5
332.2078, 138308.9
332.6899, 138077.6
333.1721, 137795.7
333.6542, 137459.2
334.1363, 137150.5
334.6184, 136847.9
335.1005, 136598.2
335.5826, 136451.0
336.0648, 136439.6
336.5469, 136450.6
337.0290, 136470.8
337.5111, 136496.6
337.9932, 136496.2
338.4753, 136449.4
338.9575, 136410.9
339.4396, 136439.6
339.9217, 136554.3
340.4038, 136603.6
340.8859, 136547.0
341.3680, 136420.4
341.8502, 136342.3
342.3323, 136322.5
342.8144, 136310.4
343.2965, 136270.5
343.7786, 136206.5
344.2607, 136163.4
344.7429, 136148.3
345.2250, 136162.3
345.7071, 136198.0
346.1892, 136259.3
346.6713, 136370.9
347.1534, 136591.5
347.6355, 136881.4
348.1176, 137076.6
348.5998, 137150.7
349.0819, 137198.0
349.5640, 137350.3
350.0461, 137581.6
350.5282, 137784.1
351.0103, 137873.9
351.4925, 137908.8
351.9746, 137989.5
352.4567, 138116.9
352.9388, 138257.1
353.4209, 138399.3
353.9030, 138532.3
354.3852, 138634.8
354.8673, 138700.0
355.3494, 138737.0
355.8315, 138728.5
356.3136, 138687.4
356.7957, 138695.9
357.2779, 138845.4
357.7600, 139065.7
358.2421, 139274.2
358.7242, 139441.9
359.2063, 139606.9
359.6884, 139823.7
360.1706, 140064.0
360.6527, 140228.8
361.1348, 140248.2
361.6169, 140190.4
362.0990, 140089.5
362.5811, 139914.4
363.0633, 139769.1
363.5454, 139677.4
364.0275, 139635.1
364.5096, 139635.7
364.9917, 139845.5
365.4738, 139953.8
365.9560, 139804.0
366.4381, 139298.7
366.9202, 138846.6
367.4023, 138460.2
367.8844, 138162.9
368.3665, 137981.9
368.8487, 138020.1
369.3308, 138072.7
369.8129, 138106.1
370.2950, 138119.3
370.7771, 138143.2
371.2592, 138178.1
371.7414, 138223.0
372.2235, 138275.5
372.7056, 138325.3
373.1877, 138398.0
373.6698, 138500.4
374.1519, 138623.3
374.6341, 138735.7
375.1162, 138838.0
375.5983, 138916.8
376.0804, 138949.8
376.5625, 138919.2
377.0446, 138939.2
377.5267, 139036.8
378.0089, 139167.2
378.4910, 139234.2
378.9731, 139235.9
379.4552, 139212.1
379.9373, 139173.0
380.4194, 139123.9
380.9016, 139101.9
381.3837, 139112.1
381.8658, 139149.2
382.3479, 139208.7
382.8300, 139291.7
383.3121, 139396.0
383.7943, 139533.3
384.2764, 139685.1
384.7585, 139797.2
385.2406, 139867.6
385.7227, 139962.7
386.2048, 140152.7
386.6870, 140398.9
387.1691, 140638.0
387.6512, 140866.8
388.1333, 141046.5
388.6154, 141128.0
389.0975, 141119.3
389.5797, 141067.2
390.0618, 140986.6
390.5439, 140882.0
391.0260, 140752.3
391.5081, 140585.7
391.9902, 140440.3
392.4724, 140374.4
392.9545, 140354.6
393.4366, 140317.1
393.9187, 140241.2
394.4008, 140148.2
394.8829, 140030.3
395.3651, 139880.4
395.8472, 139790.2
396.3293, 139846.4
396.8114, 139945.5
397.2935, 139988.8
397.7756, 139873.0
398.2578, 139789.8
398.7399, 139768.9
399.2220, 139807.4
399.7041, 139878.8
400.1862, 140023.1
400.6683, 140161.4
401.1505, 140250.9
401.6326, 140273.2
402.1147, 140281.0
402.5968, 140279.0
403.0789, 140264.8
403.5610, 140222.9
404.0432, 140131.2
404.5253, 140064.5
405.0074, 140053.6
405.4895, 140102.9
405.9716, 140185.2
406.4537, 140307.4
406.9359, 140447.8
407.4180, 140588.6
407.9001, 140731.9
408.3822, 140839.4
408.8643, 140891.6
409.3464, 140901.4
409.8285, 140902.3
410.3106, 140892.0
410.7928, 140911.7
411.2749, 141054.7
411.7570, 141267.6
412.2391, 141330.1
412.7212, 141133.3
413.2033, 140907.1
413.6855, 141012.2
414.1676, 141378.7
414.6497, 141736.2
415.1318, 141911.6
415.6139, 141992.1
416.0960, 142071.9
416.5782, 142159.9
417.0603, 142239.4
417.5424, 142294.8
418.0245, 142331.6
418.5066, 142358.6
418.9887, 142372.0
419.4709, 142381.6
419.9530, 142404.8
420.4351, 142438.8
420.9172, 142439.5
421.3993, 142339.0
421.8814, 142236.1
422.3636, 142202.1
422.8457, 142321.0
423.3278, 142425.8
423.8099, 142498.2
424.2920, 142543.8
424.7741, 142571.7
425.2563, 142525.3
425.7384, 142522.2
426.2205, 142632.6
426.7026, 142934.8
427.1847, 143048.0
427.6668, 142860.7
428.1490, 142572.9
428.6311, 142425.7
429.1132, 142451.8
429.5953, 142523.1
430.0774, 142625.3
430.5595, 142748.2
431.0417, 142835.2
431.5238, 142881.6
432.0059, 142902.6
432.4880, 142908.3
432.9701, 142899.0
433.4522, 142873.0
433.9344, 142828.5
434.4165, 142772.3
434.8986, 142704.9
435.3807, 142630.8
435.8628, 142577.5
436.3449, 142577.6
436.8271, 142606.7
437.3092, 142601.3
437.7913, 142556.1
438.2734, 142539.9
438.7555, 142639.3
439.2376, 142803.0
439.7197, 142946.6
440.2018, 143038.1
440.6840, 143099.0
441.1661, 143126.4
441.6482, 143127.5
442.1303, 143141.7
442.6124, 143203.4
443.0945, 143272.4
443.5767, 143324.1
444.0588, 143362.4
444.5409, 143365.0
445.0230, 143280.3
445.5051, 143166.8
445.9872, 143116.7
446.4694, 143219.4
446.9515, 143315.6
447.4336, 143364.6
447.9157, 143364.7
448.3978, 143368.8
448.8799, 143386.8
449.3621, 143401.6
449.8442, 143399.9
450.3263, 143377.8
450.8084, 143344.4
451.2905, 143283.8
451.7726, 143217.7
452.2548, 143226.4
452.7369, 143337.1
453.2190, 143407.9
453.7011, 143328.3
454.1832, 143106.4
454.6653, 143015.5
455.1475, 143077.7
455.6296, 143178.0
456.1117, 143164.3
456.5938, 143062.4
457.0759, 143006.8
457.5580, 143073.4
458.0402, 143182.9
458.5223, 143211.4
459.0044, 143167.3
459.4865, 143098.1
459.9686, 143008.8
460.4507, 142925.0
460.9329, 142871.9
461.4150, 142851.9
461.8971, 142875.6
462.3792, 142995.7
462.8613, 143156.4
463.3434, 143269.2
463.8256, 143236.4
464.3077, 143205.6
464.7898, 143261.5
465.2719, 143408.2
465.7540, 143501.8
466.2361, 143459.8
466.7183, 143387.7
467.2004, 143355.5
467.6825, 143378.9
468.1646, 143425.4
468.6467, 143491.7
469.1288, 143579.6
469.6109, 143703.4
470.0930, 143911.3
470.5752, 144057.4
471.0573, 144064.0
471.5394, 143914.3
472.0215, 143852.5
472.5036, 143895.8
472.9857, 143981.0
473.4679, 144074.7
473.9500, 144175.6
474.4321, 144167.1
474.9142, 143990.7
475.3963, 143739.5
475.8784, 143600.9
476.3606, 143570.7
476.8427, 143578.9
477.3248, 143600.1
477.8069, 143632.5
478.2890, 143685.6
478.7711, 143769.5
479.2533, 143821.1
479.7354, 143724.0
480.2175, 143575.1
480.6996, 143519.7
481.1817, 143674.1
481.6638, 143877.5
482.1460, 144026.5
482.6281, 144137.3
483.1102, 144308.7
483.5923, 144645.4
484.0744, 144987.7
484.5565, 145243.5
485.0387, 145363.4
485.5208, 145458.5
486.0029, 145517.5
486.4850, 145559.3
486.9671, 145610.3
487.4492, 145680.1
487.9314, 145748.3
488.4135, 145831.0
488.8956, 145923.0
489.3777, 145945.4
489.8598, 145907.7
490.3419, 145797.3
490.8241, 145564.6
491.3062, 145202.7
491.7883, 144966.2
492.2704, 144892.8
492.7525, 144904.0
493.2346, 144890.6
493.7168, 144854.8
494.1989, 144811.2
494.6810, 144746.6
495.1631, 144683.2
495.6452, 144652.8
496.1273, 144654.0
496.6095, 144691.3
497.0916, 144791.9
497.5737, 144917.5
498.0558, 145034.0
498.5379, 145149.0
499.0201, 145217.8
499.5022, 145197.7
499.9843, 145119.8
500.4664, 145035.1
500.9485, 144942.0
501.4306, 144867.4
501.9127, 144819.1
502.3948, 144798.3
502.8770, 144812.2
503.3591, 144897.8
503.8412, 144989.3
504.3233, 145045.7
504.8054, 145029.9
505.2875, 145042.6
505.7697, 145088.5
506.2518, 145155.7
506.7339, 145231.2
507.2160, 145323.0
507.6981, 145376.9
508.1802, 145350.3
508.6624, 145267.0
509.1445, 145281.4
509.6266, 145403.2
510.1087, 145539.2
510.5908, 145622.0
511.0729, 145658.7
511.5551, 145661.3
512.0372, 145624.4
512.5193, 145584.7
513.0014, 145570.1
513.4835, 145584.7
513.9656, 145635.8
514.4478, 145750.6
514.9299, 145883.5
515.4120, 146018.2
515.8941, 146149.0
516.3762, 146232.0
516.8583, 146201.7
517.3405, 146141.9
517.8226, 146104.6
518.3047, 146061.7
518.7868, 146095.4
519.2689, 146272.6
519.7510, 146516.6
520.2332, 146706.9
520.7153, 146832.2
521.1974, 146914.0
521.6795, 146941.8
522.1616, 146922.6
522.6437, 146950.3
523.1259, 147044.2
523.6080, 147134.6
524.0901, 147161.6
524.5722, 147128.5
525.0543, 147118.8
525.5364, 147142.1
526.0186, 147180.6
526.5007, 147213.5
526.9828, 147240.0
527.4649, 147260.1
527.9470, 147282.0
528.4291, 147289.9
528.9113, 147246.6
529.3934, 147162.6
529.8755, 147103.8
530.3576, 147147.5
530.8397, 147209.4
531.3218, 147212.6
531.8040, 147119.1
532.2861, 147049.4
532.7682, 147081.2
533.2503, 147149.8
533.7324, 147176.2
534.2145, 147111.2
534.6967, 147052.8
535.1788, 147010.1
535.6609, 146987.0
536.1430, 147000.5
536.6251, 147064.8
537.1072, 147144.1
537.5894, 147221.5
538.0715, 147296.5
538.5536, 147376.2
539.0357, 147458.6
539.5178, 147548.5
539.9999, 147657.9
540.4821, 147781.2
540.9642, 147894.4
541.4463, 147989.4
541.9284, 148069.1
542.4105, 148159.3
542.8926, 148243.6
543.3748, 148264.3
543.8569, 148081.4
544.3390, 147879.7
544.8211, 147859.5
545.3032, 148042.2
545.7853, 148209.6
546.2675, 148265.8
546.7495, 148252.0
547.2316, 148204.2
547.7137, 148071.0
548.1959, 147982.1
548.6780, 147994.7
549.1601, 148062.9
549.6422, 148078.0
550.1243, 147997.8
550.6064, 147931.2
551.0886, 147913.2
551.5707, 147942.7
552.0528, 147955.7
552.5349, 147942.0
553.0170, 147942.3
553.4991, 148015.0
553.9813, 148149.6
554.4634, 148194.1
554.9455, 148119.5
555.4276, 147996.7
555.9097, 147893.3
556.3918, 147818.6
556.8740, 147799.8
557.3561, 147886.5
557.8382, 148005.5
558.3203, 148097.8
558.8024, 148165.3
559.2845, 148210.1
559.7667, 148235.1
560.2488, 148238.3
560.7309, 148196.8
561.2130, 148072.0
561.6951, 148039.6
562.1772, 148202.8
562.6594, 148436.6
563.1415, 148618.6
563.6236, 148718.5
564.1057, 148802.7
564.5878, 148867.7
565.0699, 148920.1
565.5521, 148981.9
566.0342, 149051.3
566.5163, 149133.3
566.9984, 149235.0
567.4805, 149352.7
567.9626, 149465.8
568.4448, 149575.5
568.9269, 149685.5
569.4090, 149818.9
569.8911, 149954.0
570.3732, 150036.2
570.8553, 150038.5
571.3375, 150043.4
571.8196, 150124.3
572.3017, 150256.7
572.7838, 150396.6
573.2659, 150524.6
573.7480, 150659.5
574.2302, 150811.7
574.7123, 150979.2
575.1944, 151151.2
575.6765, 151332.1
576.1586, 151514.3
576.6407, 151695.2
577.1229, 151878.3
577.6050, 152066.2
578.0871, 152269.2
578.5692, 152468.5
579.0513, 152666.5
579.5334, 152877.5
580.0156, 152952.2
580.4977, 152837.2
580.9798, 152623.8
581.4619, 152529.9
581.9440, 152520.0
582.4261, 152366.5
582.9083, 151774.4
583.3904, 151063.1
583.8725, 150665.5
584.3546, 150561.2
584.8367, 150531.9
585.3188, 150489.1
585.8010, 150434.6
586.2831, 150362.3
586.7652, 150251.1
587.2473, 150175.8
587.7294, 150193.5
588.2115, 150241.6
588.6937, 150241.9
589.1758, 150125.1
589.6579, 150067.5
590.1400, 150130.5
590.6221, 150262.1
591.1042, 150271.3
591.5864, 150123.9
592.0685, 149985.9
592.5506, 149931.0
593.0327, 149951.5
593.5148, 150016.3
593.9969, 150132.0
594.4791, 150207.6
594.9612, 150124.6
595.4433, 149954.4
595.9254, 149832.3
596.4075, 149784.0
596.8896, 149781.4
597.3718, 149819.8
597.8539, 149885.8
598.3360, 149958.7
598.8181, 150069.5
599.3002, 150147.7
599.7823, 150111.9
600.2645, 150003.1
600.7466, 150028.0
601.2287, 150346.7
601.7108, 150630.0
602.1929, 150753.7
602.6750, 150699.4
603.1572, 150664.8
603.6393, 150648.7
604.1214, 150653.9
604.6035, 150686.1
605.0856, 150744.2
605.5677, 150810.5
606.0499, 150885.2
606.5320, 150959.5
607.0141, 151019.9
607.4962, 151069.8
607.9783, 151121.3
608.4604, 151203.1
608.9425, 151262.4
609.4246, 151211.7
609.9067, 151089.9
610.3889, 151037.5
610.8710, 151192.1
611.3531, 151361.3
611.8352, 151448.4
612.3173, 151434.4
612.7994, 151425.1
613.2816, 151433.5
613.7637, 151445.4
614.2458, 151448.4
614.7279, 151434.2
615.2100, 151456.9
615.6921, 151534.6
616.1743, 151628.6
616.6564, 151679.0
617.1385, 151688.6
617.6206, 151679.1
618.1027, 151638.9
618.5848, 151604.4
619.0670, 151638.7
619.5491, 151729.9
620.0312, 151833.8
620.5133, 151899.5
620.9954, 151983.6
621.4775, 152165.2
621.9597, 152446.1
622.4418, 152645.7
622.9239, 152643.8
623.4060, 152578.9
623.8881, 152534.4
624.3702, 152504.1
624.8524, 152526.0
625.3345, 152661.1
625.8166, 152796.3
626.2987, 152766.0
626.7808, 152527.1
627.2629, 152356.7
627.7451, 152327.3
628.2272, 152371.2
628.7093, 152341.4
629.1914, 152245.8
629.6735, 152143.0
630.1556, 152055.6
630.6378, 151986.8
631.1199, 151952.6
631.6020, 151949.3
632.0841, 151940.3
632.5662, 151880.8
633.0483, 151826.0
633.5305, 151818.7
634.0126, 151874.5
634.4947, 151944.4
634.9768, 152065.7
635.4589, 152168.7
635.9410, 152186.4
636.4232, 152056.9
636.9053, 151974.9
637.3874, 151968.7
637.8695, 151998.0
638.3516, 151981.5
638.8337, 151914.6
639.3159, 151861.8
639.7980, 151846.0
640.2801, 151855.3
640.7622, 151868.0
641.2443, 151885.8
641.7264, 151912.9
642.2086, 151967.3
642.6907, 152027.4
643.1728, 152064.7
643.6549, 152080.0
644.1370, 152125.5
644.6191, 152293.5
645.1013, 152457.1
645.5834, 152513.2
646.0655, 152314.0
646.5476, 152279.0
647.0297, 152490.3
647.5118, 152793.4
647.9940, 152984.8
648.4761, 153023.7
648.9582, 153133.0
649.4403, 153378.1
649.9224, 153666.3
650.4045, 153791.8
650.8867, 153775.7
651.3688, 153779.2
651.8509, 153934.5
652.3330, 154115.8
652.8151, 154139.0
653.2972, 154033.5
653.7794, 153945.1
654.2615, 153958.9
654.7436, 154016.8
655.2257, 154107.7
655.7078, 154253.3
656.1899, 154311.4
656.6721, 154193.4
657.1542, 154037.4
657.6363, 153930.4
658.1184, 153883.0
658.6005, 153843.6
659.0826, 153802.5
659.5648, 153776.9
660.0469, 153808.8
660.5290, 153891.0
661.0111, 153932.3
661.4932, 153891.6
661.9753, 153833.8
662.4575, 153872.3
662.9396, 153974.7
663.4217, 154043.7
663.9038, 153986.7
664.3859, 153928.6
664.8680, 153954.7
665.3502, 154058.9
665.8323, 154171.3
666.3144, 154296.5
666.7965, 154403.1
667.2786, 154465.6
667.7607, 154467.5
668.2429, 154503.1
668.7250, 154564.8
669.2071, 154652.3
669.6892, 154774.5
670.1713, 154924.0
670.6534, 155043.9
671.1355, 155128.2
671.6176, 155169.3
672.0997, 155135.3
672.5818, 155056.8
673.0640, 154999.9
673.5461, 155002.4
674.0282, 155016.3
674.5103, 155033.2
674.9924, 155046.0
675.4745, 155035.0
675.9567, 154951.9
676.4388, 154906.6
676.9209, 154953.5
677.4030, 155074.3
677.8851, 155172.2
678.3672, 155225.0
678.8494, 155302.7
679.3315, 155437.5
679.8136, 155618.8
680.2957, 155780.0
680.7778, 155909.5
681.2599, 156066.9
681.7421, 156324.1
682.2242, 156626.9
682.7063, 156869.8
683.1884, 157037.1
683.6705, 157184.1
684.1526, 157336.2
684.6348, 157492.6
685.1169, 157657.5
685.5990, 157857.5
686.0811, 158027.2
686.5632, 158122.0
687.0453, 158205.0
687.5275, 158355.7
688.0096, 158593.6
688.4917, 158865.8
688.9738, 159176.0
689.4559, 159515.4
689.9380, 159858.2
690.4202, 160203.9
690.9023, 160580.6
691.3844, 161009.0
691.8665, 161459.7
692.3486, 161924.2
692.8307, 162388.2
693.3129, 162776.1
693.7950, 162986.3
694.2771, 163151.1
694.7592, 163393.8
695.2413, 163738.2
695.7234, 163895.8
696.2056, 163767.5
696.6877, 163489.2
697.1698, 163102.0
697.6519, 162572.2
698.1340, 162102.5
698.6161, 161703.5
699.0983, 161351.6
699.5804, 161017.0
700.0625, 160710.9
700.5446, 160479.5
701.0267, 160351.1
701.5089, 160222.5
701.9910, 159938.6
702.4731, 159591.1
702.9552, 159330.2
703.4373, 159253.0
703.9194, 159211.0
704.4016, 159176.7
704.8837, 159131.7
705.3658, 159032.6
705.8479, 158809.5
706.3300, 158627.8
706.8121, 158538.2
707.2943, 158509.1
707.7764, 158396.0
708.2585, 158184.4
708.7406, 158010.3
709.2227, 157964.2
709.7048, 158001.1
710.1870, 158020.9
710.6691, 158023.9
711.1512, 157997.9
711.6333, 157876.4
712.1154, 157762.2
712.5975, 157775.9
713.0797, 157943.1
713.5618, 158047.5
714.0439, 157930.4
714.5260, 157796.6
715.0081, 157780.6
715.4902, 157920.7
715.9724, 158062.1
716.4545, 158203.0
716.9366, 158340.2
717.4187, 158469.9
717.9008, 158592.0
718.3829, 158696.0
718.8651, 158775.9
719.3472, 158858.2
719.8293, 158978.0
720.3114, 159125.7
720.7935, 159285.9
721.2756, 159459.4
721.7578, 159636.4
722.2399, 159802.4
722.7220, 159970.3
723.2041, 160160.8
723.6862, 160413.8
724.1683, 160642.9
724.6505, 160836.8
725.1326, 160992.2
725.6147, 161127.6
726.0968, 161260.0
726.5789, 161238.5
727.0610, 160899.4
727.5432, 160403.2
728.0253, 160199.2
728.5074, 160248.5
728.9895, 160274.0
729.4716, 160076.2
729.9537, 159795.5
730.4359, 159534.1
730.9180, 159299.9
731.4000, 159114.0
731.8821, 158990.2
732.3643, 158911.7
732.8464, 158869.9
733.3285, 158870.3
733.8106, 158879.3
734.2927, 158902.0
734.7748, 158915.3
735.2570, 158889.9
735.7391, 158831.3
736.2212, 158785.6
736.7033, 158756.3
737.1854, 158742.1
737.6675, 158755.7
738.1497, 158780.8
738.6318, 158795.0
739.1139, 158796.4
739.5960, 158788.3
740.0781, 158738.0
740.5602, 158698.0
741.0424, 158742.2
741.5245, 158907.9
742.0066, 159102.6
742.4887, 159326.1
742.9708, 159563.1
743.4529, 159782.1
743.9351, 159979.0
744.4172, 160188.6
744.8993, 160441.4
745.3814, 160669.7
745.8635, 160680.1
746.3456, 160566.4
746.8278, 160605.9
747.3099, 161078.1
747.7920, 161594.4
748.2741, 161986.5
748.7562, 162255.1
749.2383, 162417.3
749.7205, 162480.3
750.2026, 162445.5
750.6847, 162269.7
751.1668, 161989.2
751.6489, 161903.0
752.1310, 162037.5
752.6132, 162209.3
753.0953, 162325.1
753.5774, 162395.0
754.0595, 162422.3
754.5416, 162408.9
755.0237, 162398.3
755.5059, 162506.0
755.9880, 162556.2
756.4701, 162349.1
756.9522, 161808.3
757.4343, 161413.7
757.9164, 161344.1
758.3986, 161348.0
758.8807, 161303.2
759.3628, 161214.0
759.8449, 161048.9
760.3270, 160788.7
760.8091, 160546.0
761.2913, 160443.7
761.7734, 160456.6
762.2555, 160498.9
762.7376, 160571.8
763.2197, 160635.4
763.7018, 160661.6
764.1840, 160662.3
764.6661, 160644.7
765.1482, 160575.5
765.6303, 160548.1
766.1124, 160605.9
766.5945, 160687.0
767.0767, 160711.3
767.5588, 160634.5
768.0409, 160640.8
768.5230, 160760.7
769.0051, 160935.3
769.4872, 161083.7
769.9694, 161208.9
770.4515, 161331.3
770.9336, 161466.7
771.4157, 161581.2
771.8978, 161664.6
772.3799, 161705.3
772.8621, 161681.3
773.3442, 161540.1
773.8263, 161395.4
774.3084, 161266.9
774.7905, 161160.0
775.2726, 161091.2
775.7548, 161080.7
776.2369, 161053.8
776.7190, 160989.7
777.2011, 160905.0
777.6832, 160809.1
778.1653, 160716.9
778.6475, 160701.3
779.1296, 160861.8
779.6117, 161060.3
780.0938, 161194.8
780.5759, 161265.9
781.0580, 161293.9
781.5402, 161226.7
782.0223, 161171.5
782.5044, 161166.0
782.9865, 161199.7
783.4686, 161197.3
783.9507, 161131.1
784.4329, 161132.7
784.9150, 161317.5
785.3971, 161604.6
785.8792, 161722.9
786.3613, 161691.3
786.8434, 161631.5
787.3256, 161594.7
787.8077, 161588.8
788.2898, 161643.1
788.7719, 161754.6
789.2540, 161823.0
789.7361, 161722.6
790.2183, 161672.5
790.7004, 161768.5
791.1825, 162014.3
791.6646, 162266.4
792.1467, 162531.9
792.6288, 162749.0
793.1110, 162852.3
793.5930, 162873.7
794.0751, 162901.0
794.5573, 162935.7
795.0394, 162970.4
795.5215, 163005.2
796.0036, 163034.8
796.4857, 163053.3
796.9678, 163059.0
797.4500, 163080.7
797.9321, 163158.6
798.4142, 163221.5
798.8963, 163206.2
799.3784, 163090.4
799.8605, 163129.5
800.3427, 163349.4
800.8248, 163567.6
801.3069, 163544.7
801.7890, 163423.7
802.2711, 163522.2
802.7532, 163891.5
803.2354, 164259.2
803.7175, 164458.4
804.1996, 164595.9
804.6817, 164760.5
805.1638, 164985.8
805.6459, 165178.0
806.1281, 165324.4
806.6102, 165453.9
807.0923, 165598.4
807.5744, 165758.4
808.0565, 165873.6
808.5386, 165941.5
809.0208, 165959.1
809.5029, 165928.0
809.9850, 165842.0
810.4671, 165678.8
810.9492, 165416.3
811.4313, 165157.4
811.9135, 164898.5
812.3956, 164689.2
812.8777, 164579.2
813.3598, 164621.5
813.8419, 164638.1
814.3240, 164633.5
814.8062, 164592.6
815.2883, 164465.3
815.7704, 164275.9
816.2525, 164164.5
816.7346, 164158.6
817.2167, 164181.5
817.6989, 164157.4
818.1810, 164124.9
818.6631, 164138.9
819.1452, 164255.1
819.6273, 164325.4
820.1094, 164285.6
820.5916, 164213.2
821.0737, 164169.4
821.5558, 164157.1
822.0379, 164164.0
822.5200, 164184.6
823.0021, 164239.8
823.4843, 164404.4
823.9664, 164618.8
824.4485, 164720.5
824.9306, 164647.2
825.4127, 164562.2
825.8948, 164535.8
826.3770, 164569.8
826.8591, 164668.2
827.3412, 164877.7
827.8233, 165077.7
828.3054, 165296.3
828.7875, 165464.5
829.2697, 165469.9
829.7518, 165313.2
830.2339, 165233.3
830.7160, 165270.6
831.1981, 165336.8
831.6802, 165356.4
832.1624, 165336.6
832.6445, 165275.8
833.1266, 165143.0
833.6087, 165058.9
834.0908, 165119.3
834.5729, 165221.3
835.0551, 165253.4
835.5372, 165160.8
836.0193, 165161.3
836.5014, 165285.1
836.9835, 165446.3
837.4656, 165538.1
837.9478, 165577.0
838.4299, 165627.1
838.9120, 165699.6
839.3941, 165779.1
839.8762, 165864.8
840.3583, 165945.5
840.8405, 166008.8
841.3226, 166041.6
841.8047, 166076.2
842.2868, 166099.7
842.7689, 166139.8
843.2510, 166234.5
843.7332, 166387.1
844.2153, 166487.8
844.6974, 166517.5
845.1795, 166545.4
845.6616, 166691.8
846.1437, 166866.8
846.6259, 166907.5
847.1080, 166744.9
847.5901, 166617.7
848.0722, 166650.2
848.5543, 166745.4
849.0364, 166824.1
849.5186, 166884.4
850.0007, 166944.5
850.4828, 167022.3
850.9649, 167061.8
851.4470, 166992.1
851.9291, 166841.7
852.4113, 166692.6
852.8934, 166551.9
853.3755, 166457.0
853.8576, 166453.6
854.3397, 166501.1
854.8218, 166574.3
855.3039, 166689.1
855.7860, 166754.2
856.2681, 166732.4
856.7502, 166699.6
857.2324, 166676.6
857.7145, 166660.3
858.1966, 166819.6
858.6787, 167167.6
859.1608, 167513.9
859.6429, 167699.5
860.1251, 167786.4
860.6072, 167848.4
861.0893, 167890.4
861.5714, 167921.0
862.0535, 167889.2
862.5356, 167895.8
863.0178, 168014.9
863.4999, 168259.7
863.9820, 168405.4
864.4641, 168436.6
864.9462, 168431.7
865.4283, 168427.8
865.9105, 168431.8
866.3926, 168485.4
866.8747, 168580.1
867.3568, 168618.1
867.8389, 168493.5
868.3210, 168339.9
868.8032, 168222.8
869.2853, 168152.8
869.7674, 168147.2
870.2495, 168237.4
870.7316, 168336.3
871.2137, 168408.5
871.6959, 168461.5
872.1780, 168521.8
872.6601, 168588.8
873.1422, 168654.1
873.6243, 168727.9
874.1064, 168782.0
874.5886, 168748.0
875.0707, 168655.3
875.5528, 168654.2
876.0349, 168830.6
876.5170, 169035.3
876.9991, 169259.8
877.4813, 169476.7
877.9634, 169565.9
878.4455, 169525.9
878.9276, 169523.0
879.4097, 169666.7
879.8918, 169836.5
880.3740, 169860.1
880.8561, 169788.3
881.3382, 169740.9
881.8203, 169760.8
882.3024, 169818.8
882.7845, 169934.1
883.2667, 170073.3
883.7488, 170162.1
884.2309, 170178.6
884.7130, 170276.7
885.1951, 170524.8
885.6772, 170787.6
886.1594, 170828.1
886.6415, 170728.2
887.1236, 170671.4
887.6057, 170721.1
888.0878, 170819.3
888.5699, 171005.3
889.0521, 171197.2
889.5342, 171277.3
890.0163, 171168.5
890.4984, 171152.3
890.9805, 171257.9
891.4626, 171430.6
891.9448, 171615.8
892.4269, 171808.0
892.9090, 171993.2
893.3911, 172161.8
893.8732, 172342.6
894.3553, 172603.3
894.8375, 172848.7
895.3196, 172980.3
895.8017, 172933.0
896.2838, 172907.1
896.7659, 172915.8
897.2480, 172920.9
897.7302, 172893.9
898.2123, 172840.9
898.6944, 172788.5
899.1765, 172741.9
899.6586, 172678.8
900.1407, 172601.8
900.6229, 172498.0
901.1050, 172313.4
901.5871, 172035.3
902.0692, 171948.3
902.5513, 172219.4
903.0334, 172471.2
903.5156, 172527.5
903.9977, 172419.2
904.4798, 172360.9
904.9619, 172349.1
905.4440, 172365.8
905.9261, 172416.9
906.4083, 172474.1
906.8904, 172493.7
907.3725, 172490.6
907.8546, 172528.5
908.3367, 172722.5
908.8188, 172835.0
909.3010, 172775.0
909.7831, 172615.5
910.2652, 172568.9
910.7473, 172635.4
911.2294, 172701.6
911.7115, 172723.9
912.1937, 172741.6
912.6758, 172818.3
913.1579, 172920.7
913.6400, 172989.4
914.1221, 172943.0
914.6042, 172940.1
915.0864, 173060.5
915.5685, 173195.7
916.0506, 173192.4
916.5327, 173037.4
917.0148, 172934.6
917.4969, 172914.8
917.9790, 172940.8
918.4611, 172959.4
918.9432, 173005.5
919.4254, 173138.8
919.9075, 173393.0
920.3896, 173655.0
920.8717, 173924.1
921.3538, 174154.4
921.8359, 174282.1
922.3181, 174273.7
922.8002, 174447.5
923.2823, 174820.1
923.7644, 175200.6
924.2465, 175406.7
924.7286, 175524.4
925.2108, 175682.8
925.6929, 175880.7
926.1750, 176039.0
926.6571, 176078.2
927.1392, 176122.6
927.6213, 176260.5
928.1035, 176459.8
928.5856, 176503.6
929.0677, 176378.9
929.5498, 176236.6
930.0319, 176140.4
930.5140, 176072.7
930.9962, 175999.6
931.4783, 175931.0
931.9604, 175891.0
932.4425, 175925.4
932.9246, 175947.3
933.4067, 175910.3
933.8889, 175853.3
934.3710, 175834.5
934.8531, 175852.6
935.3352, 175911.4
935.8173, 176014.7
936.2994, 176140.6
936.7816, 176282.3
937.2637, 176418.1
937.7458, 176501.7
938.2279, 176498.7
938.7100, 176511.1
939.1921, 176572.8
939.6743, 176663.0
940.1564, 176790.8
940.6385, 176985.6
941.1206, 177014.0
941.6027, 176859.9
942.0848, 176666.4
942.5670, 176491.9
943.0491, 176384.4
943.5312, 176449.4
944.0133, 176679.9
944.4954, 176876.5
944.9775, 176925.5
945.4597, 176967.6
945.9418, 177069.1
946.4239, 177216.2
946.9060, 177314.5
947.3881, 177365.3
947.8702, 177376.5
948.3524, 177320.8
948.8345, 177265.5
949.3166, 177324.8
949.7987, 177454.6
950.2808, 177552.9
950.7629, 177552.7
951.2451, 177552.3
951.7272, 177561.1
952.2093, 177582.2
952.6914, 177630.6
953.1735, 177706.0
953.6556, 177733.1
954.1378, 177685.6
954.6199, 177648.6
955.1020, 177719.8
955.5841, 177851.2
956.0662, 177997.6
956.5483, 178173.5
957.0305, 178273.4
957.5126, 178239.0
957.9947, 178177.4
958.4768, 178147.4
958.9589, 178149.5
959.4410, 178153.9
959.9232, 178161.6
960.4053, 178207.5
960.8874, 178366.1
961.3695, 178533.1
961.8516, 178563.0
962.3337, 178490.2
962.8159, 178535.3
963.2980, 178847.8
963.7801, 179114.3
964.2622, 179271.3
964.7443, 179335.2
965.2264, 179327.8
965.7086, 179258.5
966.1907, 179177.9
966.6728, 179086.4
967.1549, 179024.1
967.6370, 179015.9
968.1191, 179063.6
968.6013, 179172.2
969.0834, 179395.0
969.5655, 179598.4
970.0476, 179802.2
970.5297, 179954.9
971.0118, 179955.4
971.4940, 179861.1
971.9761, 179894.5
972.4582, 180073.5
972.9403, 180313.4
973.4224, 180655.8
973.9045, 180965.4
974.3867, 181089.8
974.8688, 181039.1
975.3509, 181220.0
975.8330, 181709.4
976.3151, 182154.4
976.7972, 182367.1
977.2794, 182465.3
977.7615, 182715.6
978.2435, 183070.4
978.7256, 183390.1
979.2078, 183512.3
979.6899, 183698.5
980.1720, 184067.1
980.6541, 184542.9
981.1362, 185042.6
981.6183, 185579.4
982.1005, 186056.7
982.5826, 186455.3
983.0647, 186840.3
983.5468, 187345.6
984.0289, 187857.9
984.5110, 188161.0
984.9932, 188195.5
985.4753, 188307.4
985.9574, 188762.0
986.4395, 189159.5
986.9216, 189322.1
987.4037, 189260.4
987.8859, 189079.8
988.3680, 188783.2
988.8501, 188434.0
989.3322, 188055.3
989.8143, 187650.3
990.2964, 187185.5
990.7786, 186699.1
991.2607, 186283.6
991.7428, 186029.5
992.2249, 185741.0
992.7070, 185376.5
993.1891, 184993.2
993.6713, 184675.7
994.1534, 184421.4
994.6355, 184231.1
995.1176, 184111.0
995.5997, 184018.1
996.0818, 183906.6
996.5640, 183817.8
997.0461, 183783.4
997.5282, 183798.7
998.0103, 183881.2
998.4924, 184005.2
998.9745, 184284.3
999.4567, 185055.9
999.9388, 185935.0
1000.421, 185838.7
1000.903, 184994.0
1001.385, 184305.2
1001.867, 184355.9
1002.349, 184463.6
1002.831, 184338.1
1003.314, 184122.9
1003.796, 184117.0
1004.278, 184342.8
1004.760, 184477.0
1005.242, 184443.0
1005.724, 184375.3
1006.206, 184468.4
1006.688, 184601.6
1007.171, 184602.1
1007.653, 184393.3
1008.135, 184247.1
1008.617, 184196.5
1009.099, 184214.0
1009.581, 184311.8
1010.063, 184472.2
1010.545, 184527.3
1011.027, 184493.8
1011.510, 184510.8
1011.992, 184741.8
1012.474, 184970.5
1012.956, 185023.4
1013.438, 184960.3
1013.920, 184973.0
1014.402, 185102.1
1014.884, 185205.2
1015.367, 185270.7
1015.849, 185277.8
1016.331, 185127.0
1016.813, 184914.1
1017.295, 184846.6
1017.777, 184986.0
1018.259, 185171.2
1018.741, 185355.4
1019.223, 185553.0
1019.706, 185722.6
1020.188, 185868.0
1020.670, 186556.1
1021.152, 187808.3
1021.634, 188601.3
1022.116, 187834.9
1022.598, 186690.8
1023.080, 186357.3
1023.563, 186618.4
1024.045, 186876.2
1024.527, 186976.8
1025.009, 187115.2
1025.491, 187340.2
1025.973, 187551.3
1026.455, 187567.7
1026.937, 187442.9
1027.419, 187381.0
1027.901, 187420.1
1028.384, 187468.0
1028.866, 187471.1
1029.348, 187463.4
1029.830, 187458.4
1030.312, 187460.8
1030.794, 187566.6
1031.276, 187808.3
1031.758, 187961.1
1032.241, 187855.9
1032.723, 187660.7
1033.205, 187589.0
1033.687, 187622.4
1034.169, 187714.7
1034.651, 187899.6
1035.133, 188072.6
1035.615, 188224.1
1036.098, 188345.8
1036.580, 188390.9
1037.062, 188378.2
1037.544, 188494.7
1038.026, 188758.5
1038.508, 189001.9
1038.990, 189091.5
1039.472, 189119.4
1039.954, 189152.7
1040.437, 189193.2
1040.919, 189194.1
1041.401, 189146.5
1041.883, 189126.3
1042.365, 189203.9
1042.847, 189274.3
1043.329, 189097.1
1043.811, 188791.7
1044.293, 188596.3
1044.776, 188629.4
1045.258, 188716.7
1045.740, 188880.0
1046.222, 189027.5
1046.704, 189060.5
1047.186, 188985.9
1047.668, 188966.1
1048.150, 189003.2
1048.633, 189091.4
1049.115, 189259.1
1049.597, 189444.9
1050.079, 189609.8
1050.561, 189753.3
1051.043, 189897.6
1051.525, 190056.2
1052.007, 190152.8
1052.490, 190136.4
1052.972, 190127.6
1053.454, 190306.2
1053.936, 190619.1
1054.418, 191008.0
1054.900, 191519.5
1055.382, 191843.4
1055.864, 191743.8
1056.346, 191588.7
1056.828, 191585.5
1057.311, 191710.9
1057.793, 191747.5
1058.275, 191702.6
1058.757, 191660.3
1059.239, 191628.5
1059.721, 191662.3
1060.203, 191920.0
1060.685, 192251.5
1061.168, 192306.8
1061.650, 191973.5
1062.132, 191751.1
1062.614, 191704.4
1063.096, 191741.7
1063.578, 191801.6
1064.060, 191860.2
1064.542, 191858.2
1065.025, 191786.9
1065.507, 191787.0
1065.989, 192021.3
1066.471, 192171.8
1066.953, 192077.2
1067.435, 191849.1
1067.917, 191899.4
1068.399, 192181.1
1068.881, 192432.5
1069.364, 192523.8
1069.846, 192633.0
1070.328, 192901.5
1070.810, 193224.8
1071.292, 193487.0
1071.774, 193679.8
1072.256, 193818.3
1072.738, 193893.7
1073.220, 193934.7
1073.703, 193946.3
1074.185, 193942.0
1074.667, 193937.2
1075.149, 193931.8
1075.631, 193924.2
1076.113, 193925.4
1076.595, 193912.0
1077.077, 193873.9
1077.559, 193843.9
1078.042, 193885.1
1078.524, 193980.7
1079.006, 194061.8
1079.488, 194113.6
1079.970, 194211.0
1080.452, 194498.5
1080.934, 194743.4
1081.416, 194769.9
1081.899, 194619.0
1082.381, 194707.0
1082.863, 195029.4
1083.345, 195308.4
1083.827, 195353.2
1084.309, 195394.9
1084.791, 195670.1
1085.273, 196068.7
1085.755, 196428.0
1086.238, 196750.9
1086.720, 196959.6
1087.202, 197026.6
1087.684, 197066.1
1088.166, 197204.5
1088.648, 197374.9
1089.130, 197442.3
1089.612, 197420.0
1090.094, 197405.7
1090.577, 197452.2
1091.059, 197500.4
1091.541, 197534.0
1092.023, 197570.6
1092.505, 197636.5
1092.987, 197732.0
1093.469, 197874.9
1093.951, 198078.0
1094.434, 198240.6
1094.916, 198272.1
1095.398, 198249.7
1095.880, 198223.0
1096.362, 198191.1
1096.844, 198153.3
1097.326, 198109.8
1097.808, 198024.8
1098.291, 197844.9
1098.773, 197673.1
1099.255, 197621.8
1099.737, 197662.7
1100.219, 197759.8
1100.701, 197988.7
1101.183, 198112.1
1101.665, 198104.2
1102.147, 198072.5
1102.630, 198142.9
1103.112, 198239.2
1103.594, 198150.1
1104.076, 197916.9
1104.558, 197781.2
1105.040, 197936.9
1105.522, 198070.3
1106.004, 198089.3
1106.486, 198065.8
1106.969, 198147.7
1107.451, 198302.6
1107.933, 198365.8
1108.415, 198311.1
1108.897, 198190.6
1109.379, 197947.6
1109.861, 197742.1
1110.343, 197714.2
1110.826, 197829.4
1111.308, 197861.2
1111.790, 197810.4
1112.272, 197724.9
1112.754, 197593.8
1113.236, 197495.0
1113.718, 197521.2
1114.200, 197617.4
1114.682, 197709.6
1115.165, 197764.9
1115.647, 197895.1
1116.129, 198128.9
1116.611, 198314.2
1117.093, 198318.6
1117.575, 198217.1
1118.057, 198099.9
1118.539, 197986.8
1119.021, 197937.5
1119.504, 198040.0
1119.986, 198117.2
1120.468, 198144.8
1120.950, 198158.5
1121.432, 198200.4
1121.914, 198268.9
1122.396, 198362.6
1122.878, 198482.4
1123.361, 198587.6
1123.843, 198671.8
1124.325, 198720.3
1124.807, 198693.4
1125.289, 198647.1
1125.771, 198726.7
1126.253, 198925.1
1126.735, 199206.1
1127.218, 199584.1
1127.700, 199913.1
1128.182, 200020.5
1128.664, 200065.0
1129.146, 200178.4
1129.628, 200355.9
1130.110, 200564.1
1130.592, 200803.7
1131.074, 200988.5
1131.557, 201057.9
1132.039, 201080.0
1132.521, 201131.7
1133.003, 201190.6
1133.485, 201221.1
1133.967, 201213.1
1134.449, 201210.7
1134.931, 201223.2
1135.413, 201243.5
1135.896, 201271.9
1136.378, 201310.6
1136.860, 201388.4
1137.342, 201483.4
1137.824, 201509.6
1138.306, 201300.6
1138.788, 201234.6
1139.270, 201410.1
1139.752, 201631.2
1140.235, 201583.2
1140.717, 201385.2
1141.199, 201388.5
1141.681, 201616.2
1142.163, 201810.2
1142.645, 201873.2
1143.127, 201836.3
1143.609, 201666.3
1144.092, 201449.8
1144.574, 201450.9
1145.056, 201625.6
1145.538, 201713.9
1146.020, 201648.1
1146.502, 201564.6
1146.984, 201562.9
1147.466, 201573.4
1147.948, 201529.7
1148.431, 201448.5
1148.913, 201494.2
1149.395, 201664.1
1149.877, 201905.9
1150.359, 202242.5
1150.841, 202550.2
1151.323, 202740.9
1151.805, 202835.3
1152.287, 202834.4
1152.770, 202672.8
1153.252, 202753.5
1153.734, 203099.3
1154.216, 203412.3
1154.698, 203445.3
1155.180, 203379.0
1155.662, 203363.3
1156.144, 203399.3
1156.627, 203490.6
1157.109, 203672.7
1157.591, 203820.5
1158.073, 203929.5
1158.555, 204005.2
1159.037, 204030.8
1159.519, 204041.4
1160.001, 204079.6
1160.484, 204145.2
1160.966, 204229.2
1161.448, 204374.8
1161.930, 204429.2
1162.412, 204335.1
1162.894, 204198.6
1163.376, 204210.9
1163.858, 204284.5
1164.340, 204222.3
1164.823, 203985.6
1165.305, 203851.8
1165.787, 204057.7
1166.269, 204119.7
1166.751, 203796.7
1167.233, 203331.6
1167.715, 203326.3
1168.197, 203649.6
1168.679, 203935.8
1169.162, 204081.2
1169.644, 204202.0
1170.126, 204285.5
1170.608, 204402.2
1171.090, 204607.4
1171.572, 204864.8
1172.054, 204991.2
1172.536, 205022.1
1173.019, 205141.0
1173.501, 205491.6
1173.983, 205831.4
1174.465, 206088.4
1174.947, 206270.7
1175.429, 206369.5
1175.911, 206389.0
1176.393, 206429.8
1176.875, 206491.4
1177.358, 206540.4
1177.840, 206505.0
1178.322, 206516.0
1178.804, 206733.3
1179.286, 206988.5
1179.768, 206997.3
1180.250, 206756.3
1180.732, 206756.2
1181.214, 207032.1
1181.697, 207336.9
1182.179, 207491.0
1182.661, 207613.1
1183.143, 207821.8
1183.625, 208045.3
1184.107, 208072.5
1184.589, 207885.1
1185.071, 207788.3
1185.554, 207836.0
1186.036, 207911.8
1186.518, 207912.7
1187.000, 207900.1
1187.482, 207933.8
1187.964, 208007.3
1188.446, 208070.0
1188.928, 208132.0
1189.411, 208108.3
1189.893, 207962.4
1190.375, 207790.7
1190.857, 207656.5
1191.339, 207577.2
1191.821, 207589.7
1192.303, 207698.7
1192.785, 207777.1
1193.267, 207816.4
1193.750, 207878.9
1194.232, 207995.5
1194.714, 208128.6
1195.196, 208290.2
1195.678, 208414.6
1196.160, 208380.8
1196.642, 208104.3
1197.124, 208029.8
1197.606, 208183.1
1198.089, 208375.8
1198.571, 208542.6
1199.053, 208649.1
1199.535, 208606.3
1200.017, 208488.4
1200.499, 208423.8
1200.981, 208419.0
1201.463, 208519.5
1201.945, 208747.4
1202.428, 208966.7
1202.910, 209066.8
1203.392, 209106.5
1203.874, 209148.3
1204.356, 209192.3
1204.838, 209229.0
1205.320, 209205.4
1205.802, 209318.9
1206.285, 209611.2
1206.767, 209902.1
1207.249, 209998.8
1207.731, 210008.1
1208.213, 210038.9
1208.695, 210103.2
1209.177, 210241.2
1209.659, 210526.9
1210.141, 210676.0
1210.624, 210618.1
1211.106, 210531.9
1211.588, 210604.2
1212.070, 210772.4
1212.552, 211011.7
1213.034, 211293.5
1213.516, 211388.2
1213.998, 211175.0
1214.480, 211086.1
1214.963, 211243.2
1215.445, 211455.1
1215.927, 211457.9
1216.409, 211369.2
1216.891, 211365.6
1217.373, 211471.4
1217.855, 211495.9
1218.337, 211414.4
1218.820, 211299.0
1219.302, 211149.8
1219.784, 211032.5
1220.266, 211053.9
1220.748, 211163.3
1221.230, 211300.8
1221.712, 211463.0
1222.194, 211603.3
1222.677, 211727.5
1223.159, 211788.9
1223.641, 211731.5
1224.123, 211662.0
1224.605, 211740.4
1225.087, 211908.7
1225.569, 212093.0
1226.051, 212293.9
1226.533, 212431.3
1227.016, 212481.1
1227.498, 212553.9
1227.980, 212718.9
1228.462, 212915.1
1228.944, 213047.6
1229.426, 213153.9
1229.908, 213307.4
1230.390, 213585.9
1230.872, 213694.1
1231.355, 213584.5
1231.837, 213532.7
1232.319, 213806.7
1232.801, 214140.1
1233.283, 214137.9
1233.765, 213952.1
1234.247, 213864.5
1234.729, 213923.3
1235.212, 214068.7
1235.694, 214317.2
1236.176, 214538.7
1236.658, 214564.3
1237.140, 214565.8
1237.622, 214800.6
1238.104, 215142.0
1238.586, 215301.0
1239.068, 215204.3
1239.551, 215143.5
1240.033, 215137.8
1240.515, 215133.3
1240.997, 215066.7
1241.479, 215009.3
1241.961, 215066.4
1242.443, 215188.6
1242.925, 215217.7
1243.407, 215099.1
1243.890, 215173.9
1244.372, 215479.9
1244.854, 215811.6
1245.336, 215988.5
1245.818, 216105.4
1246.300, 216199.5
1246.782, 216289.3
1247.264, 216430.6
1247.747, 216625.2
1248.229, 216811.8
1248.711, 216988.9
1249.193, 217052.8
1249.675, 216819.3
1250.157, 216545.1
1250.639, 216425.8
1251.121, 216426.7
1251.604, 216456.6
1252.086, 216524.2
1252.568, 216540.7
1253.050, 216497.3
1253.532, 216428.1
1254.014, 216152.0
1254.496, 216072.6
1254.978, 216653.7
1255.460, 217543.9
1255.943, 217846.2
1256.425, 217604.7
1256.907, 217390.5
1257.389, 217286.8
1257.871, 217279.8
1258.353, 217485.5
1258.835, 217636.1
1259.317, 217585.0
1259.799, 217387.0
1260.281, 217136.1
1260.764, 216869.0
1261.246, 216807.6
1261.728, 217032.0
1262.210, 217179.3
1262.692, 217047.6
1263.174, 216826.5
1263.656, 216552.4
1264.138, 216306.9
1264.621, 216340.4
1265.103, 216572.6
1265.585, 216756.0
1266.067, 216838.0
1266.549, 216869.8
1267.031, 216698.8
1267.513, 216732.8
1267.995, 217195.9
1268.478, 217847.3
1268.960, 218137.4
1269.442, 218217.3
1269.924, 218437.2
1270.406, 218906.3
1270.888, 219270.0
1271.370, 219429.5
1271.852, 219569.1
1272.334, 219760.9
1272.817, 219961.4
1273.299, 220113.9
1273.781, 220219.1
1274.263, 220276.2
1274.745, 220274.2
1275.227, 220304.5
1275.709, 220401.0
1276.191, 220456.2
1276.673, 220438.3
1277.156, 220354.6
1277.638, 220149.5
1278.120, 219923.4
1278.602, 219811.3
1279.084, 219844.5
1279.566, 219929.7
1280.048, 220080.1
1280.530, 220181.5
1281.013, 220145.0
1281.495, 220114.3
1281.977, 220247.9
1282.459, 220446.8
1282.941, 220599.1
1283.423, 220697.0
1283.905, 220767.5
1284.387, 220809.6
1284.870, 220879.3
1285.352, 221020.1
1285.834, 221149.6
1286.316, 221202.7
1286.798, 221225.7
1287.280, 221262.8
1287.762, 221313.8
1288.244, 221372.5
1288.726, 221434.3
1289.208, 221473.1
1289.691, 221468.8
1290.173, 221465.9
1290.655, 221477.0
1291.137, 221515.0
1291.619, 221589.4
1292.101, 221679.4
##END=



