##NAMES=Beryl
##RRUFFID=R040002
##IDEAL CHEMISTRY=Be_3_Al_2_Si_6_O_18_
##LOCALITY=Usakos, Namibia
##OWNER=RRUFF
##SOURCE=University of Arizona Mineral Museum
##DESCRIPTION=Light blue hexagonal prism, variety aquamarine
##STATUS=The identification of this mineral has been confirmed by X-ray diffraction and chemical analysis
##URL=rruff.info/R040002
##MEASURED CHEMISTRY=(Be_0.97_Li_0.03_)_3_(Al_0.97_Fe^3+^_0.03_)_2_Si_6_O_18_Î‡Na_0.01_
136.4737, 311.6749
136.9558, 291.7917
137.4379, 279.0009
137.9200, 287.0963
138.4021, 302.5733
138.8842, 312.4902
139.3664, 310.9298
139.8485, 303.4544
140.3306, 303.3686
140.8127, 316.2266
141.2948, 326.8205
141.7769, 327.0477
142.2591, 325.1379
142.7412, 330.2275
143.2233, 346.9840
143.7054, 372.9968
144.1875, 400.2773
144.6696, 431.9303
145.1518, 460.3140
145.6339, 487.1720
146.1160, 509.3580
146.5981, 521.9562
147.0802, 521.4708
147.5623, 510.7168
148.0445, 504.2163
148.5266, 508.9282
149.0087, 510.4605
149.4908, 505.2577
149.9729, 495.6228
150.4550, 484.7036
150.9371, 474.0214
151.4193, 463.9626
151.9014, 457.4298
152.3835, 458.6468
152.8656, 459.1214
153.3477, 456.6024
153.8298, 452.1708
154.3120, 448.5256
154.7941, 447.9015
155.2762, 449.7637
155.7583, 444.6878
156.2404, 426.7065
156.7225, 408.5104
157.2047, 391.2807
157.6868, 376.4355
158.1689, 366.1937
158.6510, 362.2836
159.1331, 364.5985
159.6152, 369.1622
160.0974, 374.6310
160.5795, 383.1369
161.0616, 400.5292
161.5437, 422.4095
162.0258, 437.0129
162.5079, 434.4732
162.9901, 415.1039
163.4722, 405.2897
163.9543, 406.9546
164.4364, 414.0022
164.9185, 427.8616
165.4007, 445.9126
165.8828, 461.0206
166.3649, 468.3346
166.8470, 467.5713
167.3291, 461.7826
167.8112, 444.6520
168.2934, 429.0678
168.7755, 421.4524
169.2576, 421.2720
169.7397, 425.1656
170.2218, 431.7601
170.7039, 440.7436
171.1861, 446.1583
171.6682, 448.2350
172.1503, 447.0596
172.6324, 440.7952
173.1145, 430.4487
173.5966, 420.4181
174.0788, 412.9567
174.5609, 408.7887
175.0430, 410.4305
175.5251, 423.6061
176.0072, 437.4458
176.4893, 447.7089
176.9714, 453.6115
177.4536, 451.0223
177.9357, 431.7644
178.4178, 400.1342
178.8999, 390.1296
179.3820, 421.1890
179.8641, 457.5657
180.3463, 475.8809
180.8284, 476.8140
181.3105, 473.1797
181.7926, 472.3658
182.2747, 474.0528
182.7568, 475.1856
183.2390, 473.6394
183.7211, 473.2014
184.2032, 478.3097
184.6853, 488.3134
185.1674, 496.5338
185.6495, 499.8325
186.1317, 497.2029
186.6138, 488.7781
187.0959, 465.8150
187.5780, 443.9069
188.0601, 437.0120
188.5422, 443.7325
189.0244, 448.9493
189.5065, 444.7994
189.9886, 431.4558
190.4707, 413.0140
190.9528, 375.4705
191.4349, 345.7621
191.9171, 349.5006
192.3992, 383.8276
192.8813, 419.5714
193.3634, 444.1974
193.8455, 457.0244
194.3276, 460.6692
194.8098, 449.3036
195.2919, 435.3598
195.7740, 427.0476
196.2561, 424.0568
196.7382, 423.7168
197.2203, 426.2210
197.7025, 429.8747
198.1846, 430.6758
198.6667, 426.3147
199.1488, 422.3084
199.6309, 424.5074
200.1130, 431.8219
200.5951, 434.6721
201.0773, 425.5871
201.5594, 411.5375
202.0415, 406.9928
202.5236, 416.8124
203.0057, 427.0227
203.4878, 428.3576
203.9700, 421.8043
204.4521, 412.7768
204.9342, 400.3131
205.4163, 389.3841
205.8984, 388.8350
206.3805, 402.9867
206.8627, 416.1617
207.3448, 417.5320
207.8269, 409.2948
208.3090, 401.3197
208.7911, 396.5929
209.2732, 394.2278
209.7554, 393.0564
210.2375, 393.7004
210.7196, 393.0232
211.2017, 387.0636
211.6838, 377.8905
212.1659, 373.0334
212.6481, 375.4510
213.1302, 382.1173
213.6123, 389.7053
214.0944, 398.7976
214.5765, 405.1090
215.0586, 404.0116
215.5408, 398.4747
216.0229, 397.5210
216.5050, 405.5284
216.9871, 414.4783
217.4692, 412.7183
217.9513, 400.2950
218.4335, 390.3214
218.9156, 388.0070
219.3977, 391.7695
219.8798, 400.3926
220.3619, 416.3112
220.8440, 430.0447
221.3262, 428.5338
221.8083, 413.6200
222.2904, 398.1683
222.7725, 385.1524
223.2546, 374.3336
223.7367, 363.4569
224.2189, 350.5210
224.7010, 344.5338
225.1831, 363.7176
225.6652, 402.7202
226.1473, 426.1821
226.6294, 413.1979
227.1115, 386.2985
227.5937, 374.2086
228.0758, 380.4056
228.5579, 391.6059
229.0400, 399.1318
229.5221, 402.8206
230.0042, 401.7209
230.4864, 388.3165
230.9685, 374.6399
231.4506, 375.3976
231.9327, 390.9358
232.4148, 404.0674
232.8969, 399.6138
233.3791, 381.9886
233.8612, 374.8748
234.3433, 390.4728
234.8254, 407.9431
235.3075, 408.7632
235.7896, 395.2191
236.2718, 387.3005
236.7539, 399.7717
237.2360, 425.7372
237.7181, 438.4520
238.2002, 426.7485
238.6823, 414.2129
239.1645, 416.5308
239.6466, 429.0208
240.1287, 434.5797
240.6108, 422.8434
241.0929, 401.4043
241.5750, 391.8383
242.0572, 399.1425
242.5393, 407.9800
243.0214, 412.1176
243.5035, 413.8880
243.9856, 418.8008
244.4677, 429.6102
244.9499, 442.7148
245.4320, 450.6186
245.9141, 453.6546
246.3962, 452.3965
246.8783, 442.8399
247.3604, 430.3049
247.8426, 422.3004
248.3247, 420.9705
248.8068, 423.4254
249.2889, 425.2452
249.7710, 424.9672
250.2531, 428.7601
250.7352, 441.3522
251.2174, 455.8886
251.6995, 464.6696
252.1816, 466.6441
252.6637, 467.8943
253.1458, 475.4915
253.6279, 491.7635
254.1101, 504.7096
254.5922, 515.6274
255.0743, 522.4256
255.5564, 525.8276
256.0385, 524.6896
256.5207, 513.2174
257.0028, 483.7573
257.4849, 434.1968
257.9670, 403.6258
258.4491, 403.8693
258.9312, 407.5145
259.4134, 402.1855
259.8955, 390.5282
260.3776, 381.6649
260.8597, 381.8235
261.3418, 389.8378
261.8239, 395.9465
262.3060, 398.6591
262.7881, 401.2013
263.2703, 405.5427
263.7524, 409.8131
264.2345, 411.8096
264.7166, 410.5265
265.1987, 405.4242
265.6808, 394.4072
266.1630, 360.6285
266.6451, 343.6833
267.1272, 358.6230
267.6093, 384.4510
268.0914, 400.6398
268.5735, 400.6117
269.0557, 392.3338
269.5378, 389.3069
270.0199, 395.0023
270.5020, 399.0995
270.9841, 398.8244
271.4662, 399.0664
271.9484, 405.3674
272.4305, 417.1494
272.9126, 426.9704
273.3947, 424.4528
273.8768, 405.3347
274.3589, 395.2480
274.8411, 406.3978
275.3232, 415.9116
275.8053, 411.8231
276.2874, 397.5177
276.7695, 385.0248
277.2516, 384.1533
277.7338, 394.0670
278.2159, 402.6917
278.6980, 408.2131
279.1801, 414.7781
279.6622, 429.5297
280.1443, 445.2919
280.6265, 448.8412
281.1086, 429.4848
281.5907, 398.2735
282.0728, 385.4037
282.5549, 398.1193
283.0370, 411.9643
283.5192, 419.3654
284.0013, 423.4469
284.4834, 426.4454
284.9655, 428.4554
285.4476, 431.8937
285.9297, 443.1317
286.4119, 464.0242
286.8940, 474.5690
287.3761, 458.6665
287.8582, 437.8819
288.3403, 431.1258
288.8224, 440.4838
289.3046, 453.9471
289.7867, 464.8987
290.2688, 473.0727
290.7509, 476.5333
291.2330, 473.3125
291.7151, 467.7451
292.1973, 461.4769
292.6794, 455.1374
293.1615, 454.9714
293.6436, 467.7425
294.1257, 486.9865
294.6078, 501.4048
295.0900, 509.3359
295.5721, 517.0399
296.0542, 531.2717
296.5363, 549.7336
297.0184, 562.2371
297.5005, 566.4913
297.9827, 565.1271
298.4648, 558.9644
298.9469, 548.4714
299.4290, 535.4447
299.9111, 518.2496
300.3932, 500.7682
300.8754, 496.2582
301.3575, 515.0197
301.8396, 531.5668
302.3217, 536.6217
302.8038, 532.9881
303.2859, 523.8038
303.7681, 509.2452
304.2502, 494.8874
304.7323, 491.8685
305.2144, 507.0365
305.6965, 519.6757
306.1786, 523.9150
306.6608, 527.6868
307.1429, 539.3281
307.6250, 559.7802
308.1071, 583.3250
308.5892, 604.0507
309.0714, 622.4866
309.5535, 634.9365
310.0356, 631.2967
310.5177, 632.1282
310.9998, 649.4084
311.4819, 679.8867
311.9640, 712.1218
312.4461, 737.5670
312.9283, 757.9826
313.4104, 790.6559
313.8925, 843.0148
314.3746, 900.2714
314.8567, 963.1638
315.3388, 1028.710
315.8210, 1093.680
316.3031, 1156.700
316.7852, 1218.888
317.2673, 1280.121
317.7494, 1333.493
318.2315, 1404.585
318.7137, 1505.832
319.1958, 1617.823
319.6779, 1732.051
320.1600, 1845.678
320.6421, 1953.929
321.1242, 2063.971
321.6064, 2176.748
322.0885, 2233.369
322.5706, 2228.092
323.0527, 2161.296
323.5348, 2021.567
324.0169, 1824.860
324.4991, 1617.605
324.9812, 1413.410
325.4633, 1218.617
325.9454, 1042.059
326.4275, 880.7332
326.9096, 751.9537
327.3918, 685.3185
327.8739, 653.4460
328.3560, 614.3071
328.8381, 553.1550
329.3202, 496.0465
329.8023, 469.0312
330.2845, 467.3724
330.7666, 463.0033
331.2487, 444.1191
331.7308, 420.1404
332.2129, 407.2816
332.6950, 406.9634
333.1772, 408.0790
333.6593, 410.2665
334.1414, 410.7715
334.6235, 403.1394
335.1056, 386.0688
335.5877, 370.6398
336.0699, 369.9427
336.5520, 387.3399
337.0341, 393.8722
337.5162, 376.7568
337.9983, 360.5357
338.4804, 363.3019
338.9626, 379.8787
339.4447, 392.1570
339.9268, 388.2530
340.4089, 371.0981
340.8910, 356.9422
341.3731, 341.0421
341.8553, 334.2939
342.3374, 348.2691
342.8195, 367.6612
343.3016, 373.2990
343.7837, 359.5905
344.2658, 339.1450
344.7480, 332.8678
345.2301, 347.2648
345.7122, 358.7110
346.1943, 366.8510
346.6764, 372.0192
347.1585, 373.0194
347.6407, 370.7073
348.1228, 367.7555
348.6049, 365.5606
349.0870, 364.3864
349.5691, 367.7320
350.0512, 383.5920
350.5334, 390.0801
351.0155, 367.5988
351.4976, 334.2902
351.9797, 317.4646
352.4618, 331.9847
352.9439, 355.8023
353.4261, 356.6892
353.9082, 333.8351
354.3903, 319.9701
354.8724, 329.7696
355.3545, 350.1792
355.8366, 364.5493
356.3188, 372.3110
356.8009, 377.7193
357.2830, 383.6276
357.7651, 388.3595
358.2472, 387.6222
358.7293, 380.1079
359.2115, 371.8210
359.6936, 367.3139
360.1757, 366.9573
360.6578, 371.3813
361.1399, 392.0149
361.6220, 407.3474
362.1041, 396.4144
362.5862, 367.7699
363.0684, 348.8526
363.5505, 355.6983
364.0326, 380.4003
364.5147, 396.4479
364.9968, 403.1774
365.4789, 401.6609
365.9611, 383.5378
366.4432, 361.6837
366.9253, 348.0074
367.4074, 345.2820
367.8895, 348.9434
368.3716, 353.5692
368.8538, 358.6669
369.3359, 367.3015
369.8180, 387.0440
370.3001, 402.9583
370.7822, 407.0334
371.2643, 403.0905
371.7465, 399.9357
372.2286, 403.1893
372.7107, 410.3046
373.1928, 413.6452
373.6749, 411.3350
374.1570, 410.3052
374.6392, 413.1796
375.1213, 418.1180
375.6034, 423.2346
376.0855, 427.9791
376.5676, 435.1735
377.0497, 448.9225
377.5319, 467.6903
378.0140, 483.1916
378.4961, 492.1218
378.9782, 501.5289
379.4603, 519.3525
379.9424, 543.9315
380.4246, 568.8589
380.9067, 598.1057
381.3888, 623.2418
381.8709, 632.6468
382.3530, 628.6165
382.8351, 627.3991
383.3173, 637.9964
383.7994, 658.0762
384.2815, 679.0792
384.7636, 699.4286
385.2457, 722.6815
385.7278, 743.4235
386.2100, 770.2156
386.6921, 816.4296
387.1742, 883.8227
387.6563, 957.1089
388.1384, 1015.267
388.6205, 1049.725
389.1027, 1109.578
389.5848, 1204.640
390.0669, 1313.291
390.5490, 1434.644
391.0311, 1563.216
391.5132, 1690.705
391.9954, 1812.587
392.4775, 1930.315
392.9596, 2049.704
393.4417, 2175.719
393.9238, 2291.023
394.4059, 2405.883
394.8881, 2499.628
395.3702, 2559.913
395.8523, 2584.344
396.3344, 2562.102
396.8165, 2474.278
397.2986, 2331.026
397.7808, 2168.143
398.2629, 1983.792
398.7450, 1795.020
399.2271, 1607.085
399.7092, 1423.904
400.1913, 1263.921
400.6735, 1137.444
401.1556, 1029.555
401.6377, 930.7233
402.1198, 842.3876
402.6019, 767.8020
403.0840, 709.6999
403.5662, 664.6786
404.0483, 627.1642
404.5304, 600.3897
405.0125, 574.5927
405.4946, 546.3805
405.9767, 521.1581
406.4589, 505.9975
406.9410, 499.4620
407.4231, 491.9413
407.9052, 474.0594
408.3873, 446.8705
408.8694, 430.5497
409.3516, 431.3068
409.8336, 436.0634
410.3158, 450.1077
410.7979, 463.1721
411.2800, 460.0814
411.7621, 435.4335
412.2442, 407.6848
412.7263, 403.3381
413.2085, 424.0445
413.6906, 438.3024
414.1727, 439.4534
414.6548, 435.9500
415.1369, 432.7239
415.6190, 430.1337
416.1012, 429.7163
416.5833, 432.8324
417.0654, 438.0258
417.5475, 442.6725
418.0296, 446.9702
418.5117, 454.8236
418.9939, 468.8266
419.4760, 487.0970
419.9581, 505.6418
420.4402, 529.4201
420.9223, 543.6589
421.4044, 541.3318
421.8866, 529.5640
422.3687, 513.1351
422.8508, 494.1937
423.3329, 478.5879
423.8150, 473.1562
424.2971, 478.6902
424.7793, 477.7031
425.2614, 463.5671
425.7435, 450.3281
426.2256, 443.4024
426.7077, 438.6745
427.1898, 428.7724
427.6720, 410.7517
428.1541, 392.1133
428.6362, 386.1753
429.1183, 395.4283
429.6004, 401.0865
430.0826, 397.2770
430.5647, 393.0297
431.0468, 395.9883
431.5289, 403.9950
432.0110, 408.0370
432.4931, 401.4082
432.9753, 389.6039
433.4574, 377.6084
433.9395, 365.4733
434.4216, 363.2477
434.9037, 379.5605
435.3858, 405.4404
435.8680, 419.8360
436.3501, 418.6549
436.8322, 418.3175
437.3143, 422.7142
437.7964, 430.1279
438.2785, 439.4627
438.7607, 450.1980
439.2428, 460.9225
439.7249, 470.0154
440.2070, 477.5339
440.6891, 488.7856
441.1712, 505.2780
441.6534, 524.1550
442.1355, 548.8884
442.6176, 574.0281
443.0997, 591.2250
443.5818, 598.2692
444.0639, 604.7601
444.5461, 629.5018
445.0282, 675.0715
445.5103, 693.9619
445.9924, 661.0146
446.4745, 628.9650
446.9566, 632.7308
447.4388, 662.0439
447.9209, 690.8651
448.4030, 712.5602
448.8851, 727.8019
449.3672, 739.4471
449.8493, 746.2087
450.3315, 736.8752
450.8136, 702.6371
451.2957, 660.3430
451.7778, 641.5986
452.2599, 657.7191
452.7420, 653.8566
453.2242, 607.2064
453.7063, 552.6536
454.1884, 511.1318
454.6705, 484.9678
455.1526, 472.9523
455.6347, 476.0110
456.1169, 488.9187
456.5990, 489.5228
457.0811, 469.5017
457.5632, 450.5470
458.0453, 433.0022
458.5274, 418.9899
459.0095, 411.3887
459.4916, 409.8626
459.9738, 409.8865
460.4559, 408.0283
460.9380, 404.6239
461.4201, 401.6948
461.9022, 400.1682
462.3843, 395.8812
462.8665, 382.3116
463.3486, 365.8765
463.8307, 358.6963
464.3128, 365.6637
464.7949, 373.3212
465.2770, 374.0421
465.7592, 371.1219
466.2413, 371.2525
466.7234, 375.7063
467.2055, 378.2719
467.6876, 371.8119
468.1697, 355.3652
468.6519, 345.7721
469.1340, 344.7263
469.6161, 347.5372
470.0982, 356.6035
470.5803, 367.3876
471.0624, 373.7777
471.5446, 373.7152
472.0267, 370.8049
472.5088, 370.3834
472.9909, 372.9907
473.4730, 373.0782
473.9551, 368.5127
474.4373, 363.6639
474.9194, 360.6300
475.4015, 359.1073
475.8836, 358.5588
476.3657, 359.6499
476.8478, 360.4960
477.3300, 359.1259
477.8121, 355.8464
478.2942, 352.1342
478.7763, 348.5349
479.2584, 344.2083
479.7405, 336.6850
480.2227, 323.5807
480.7048, 319.9979
481.1869, 335.8593
481.6690, 352.3361
482.1511, 358.1956
482.6332, 356.3372
483.1154, 354.6107
483.5975, 356.9793
484.0796, 361.4603
484.5617, 364.0593
485.0438, 365.1282
485.5259, 363.3138
486.0081, 350.7013
486.4902, 341.9189
486.9723, 347.6187
487.4544, 364.2056
487.9365, 379.0402
488.4186, 384.8810
488.9008, 385.8753
489.3829, 390.7938
489.8650, 399.1443
490.3471, 395.5193
490.8292, 367.7647
491.3113, 334.1198
491.7935, 327.4736
492.2756, 352.2857
492.7577, 371.1904
493.2398, 377.2964
493.7219, 376.8588
494.2040, 372.7897
494.6862, 366.2685
495.1683, 357.5955
495.6504, 346.1113
496.1325, 336.2853
496.6146, 344.1843
497.0967, 390.0522
497.5789, 410.3394
498.0610, 375.0855
498.5431, 335.0569
499.0252, 319.4933
499.5073, 327.5351
499.9894, 343.7856
500.4716, 365.7113
500.9537, 385.6447
501.4358, 384.8824
501.9179, 362.6329
502.4000, 346.4676
502.8821, 348.4313
503.3643, 360.1509
503.8464, 369.1134
504.3285, 375.5047
504.8106, 379.3318
505.2927, 375.7988
505.7748, 373.4040
506.2570, 382.8750
506.7391, 400.4967
507.2212, 411.9357
507.7033, 408.3951
508.1854, 395.1584
508.6675, 387.2979
509.1496, 387.3890
509.6317, 387.5517
510.1139, 387.0116
510.5960, 386.4995
511.0781, 383.7641
511.5602, 380.8860
512.0424, 385.3279
512.5245, 408.1332
513.0066, 435.4010
513.4887, 438.3953
513.9708, 417.5235
514.4529, 407.2004
514.9351, 423.5323
515.4172, 450.8903
515.8993, 464.1123
516.3814, 460.6556
516.8635, 462.4804
517.3456, 476.9838
517.8278, 493.7741
518.3099, 505.6845
518.7920, 513.8019
519.2741, 522.5544
519.7562, 534.3583
520.2383, 547.3945
520.7205, 555.8916
521.2026, 553.8527
521.6847, 564.8245
522.1668, 606.5519
522.6489, 647.5485
523.1310, 668.8364
523.6132, 676.6550
524.0953, 690.6304
524.5774, 722.7393
525.0595, 760.5575
525.5416, 790.3784
526.0237, 812.7746
526.5059, 831.7584
526.9880, 850.0744
527.4701, 860.6104
527.9522, 852.9794
528.4343, 823.2971
528.9164, 797.2338
529.3986, 775.9951
529.8807, 757.0486
530.3628, 742.9144
530.8449, 729.3414
531.3270, 708.5406
531.8091, 677.8137
532.2913, 643.9453
532.7734, 618.1559
533.2554, 602.0308
533.7375, 578.7228
534.2197, 540.1058
534.7018, 505.4076
535.1839, 484.4760
535.6660, 474.1570
536.1481, 470.4522
536.6302, 476.6635
537.1124, 480.2253
537.5945, 469.2236
538.0766, 449.8353
538.5587, 435.0009
539.0408, 427.1962
539.5229, 421.7374
540.0051, 414.1550
540.4872, 404.6385
540.9693, 399.7107
541.4514, 405.8600
541.9335, 408.4864
542.4156, 401.7577
542.8978, 392.6280
543.3799, 389.3125
543.8620, 392.3520
544.3441, 393.6844
544.8262, 380.5103
545.3083, 359.2887
545.7905, 362.4407
546.2726, 397.3169
546.7547, 420.1435
547.2368, 405.4662
547.7189, 370.9654
548.2010, 348.5314
548.6832, 340.8758
549.1653, 334.0387
549.6474, 318.2032
550.1295, 306.0339
550.6116, 313.3557
551.0938, 335.9368
551.5759, 355.8482
552.0580, 362.3965
552.5401, 360.3838
553.0222, 363.3126
553.5043, 377.0787
553.9865, 380.4899
554.4686, 357.1031
554.9507, 335.7140
555.4328, 334.7098
555.9149, 348.0256
556.3970, 356.3835
556.8792, 350.3637
557.3613, 337.9422
557.8434, 323.3844
558.3255, 309.0250
558.8076, 305.9217
559.2897, 318.4157
559.7719, 334.0688
560.2540, 338.8366
560.7361, 331.3951
561.2182, 327.5176
561.7003, 326.0017
562.1824, 328.9064
562.6646, 343.7920
563.1467, 360.0972
563.6288, 364.5577
564.1109, 354.2367
564.5930, 337.9551
565.0751, 322.3955
565.5573, 308.0394
566.0394, 298.5917
566.5215, 294.6660
567.0036, 293.4137
567.4857, 293.0974
567.9678, 295.0273
568.4500, 302.9523
568.9321, 321.1685
569.4142, 330.7012
569.8963, 314.5701
570.3784, 295.9481
570.8605, 297.6164
571.3427, 317.2278
571.8248, 340.1806
572.3069, 358.4404
572.7890, 372.3974
573.2711, 383.0706
573.7532, 390.6985
574.2354, 394.1079
574.7175, 390.9737
575.1996, 385.6152
575.6817, 378.7239
576.1638, 371.5267
576.6459, 367.2141
577.1281, 369.1345
577.6102, 370.7857
578.0923, 361.5161
578.5744, 348.1618
579.0565, 349.9210
579.5386, 371.2007
580.0208, 397.8044
580.5029, 417.8179
580.9850, 431.0885
581.4671, 433.2895
581.9492, 410.7899
582.4313, 393.5910
582.9135, 387.9123
583.3956, 387.5029
583.8777, 385.4196
584.3598, 381.5204
584.8419, 382.6183
585.3240, 402.3226
585.8062, 427.3481
586.2883, 422.6140
586.7704, 388.1538
587.2525, 364.6571
587.7346, 371.5950
588.2167, 389.7724
588.6989, 386.8841
589.1810, 352.7315
589.6631, 340.1107
590.1452, 379.2350
590.6273, 410.4179
591.1094, 391.1353
591.5916, 347.0870
592.0737, 324.9804
592.5558, 341.4958
593.0379, 369.9389
593.5200, 375.5719
594.0021, 360.0410
594.4843, 352.9838
594.9664, 358.6498
595.4485, 364.1307
595.9306, 362.6692
596.4127, 356.0547
596.8948, 347.9949
597.3770, 336.6296
597.8591, 328.9190
598.3412, 330.9055
598.8233, 334.5020
599.3054, 328.7951
599.7875, 317.0891
600.2697, 313.7344
600.7518, 327.6513
601.2339, 350.8700
601.7160, 366.0512
602.1981, 372.6400
602.6802, 373.3070
603.1624, 362.8096
603.6445, 353.1980
604.1266, 353.4682
604.6087, 360.1447
605.0908, 365.0981
605.5729, 367.2033
606.0551, 366.2102
606.5372, 359.6646
607.0193, 350.8440
607.5014, 343.9350
607.9835, 339.9346
608.4656, 339.4361
608.9478, 343.2298
609.4299, 350.6253
609.9120, 358.1318
610.3941, 365.4192
610.8762, 373.4788
611.3583, 388.3022
611.8405, 399.0103
612.3226, 395.9451
612.8047, 381.7184
613.2868, 368.4189
613.7689, 358.8636
614.2510, 354.4832
614.7332, 355.6984
615.2153, 363.1905
615.6974, 383.4304
616.1795, 418.0723
616.6616, 447.5519
617.1437, 450.5647
617.6259, 427.9040
618.1080, 410.9490
618.5901, 394.0051
619.0722, 391.8624
619.5543, 418.4158
620.0364, 451.6644
620.5186, 471.2172
621.0007, 477.0000
621.4828, 486.2914
621.9649, 513.6703
622.4470, 546.8499
622.9291, 572.8082
623.4113, 591.1428
623.8934, 599.2751
624.3755, 595.5817
624.8576, 587.2171
625.3397, 584.5999
625.8218, 590.0916
626.3040, 578.2673
626.7861, 532.1918
627.2682, 488.6994
627.7503, 454.1190
628.2324, 426.3824
628.7145, 401.1539
629.1967, 378.5334
629.6788, 365.1456
630.1609, 372.5248
630.6430, 388.8252
631.1251, 395.1737
631.6072, 391.8819
632.0893, 381.3517
632.5714, 362.3029
633.0535, 345.6871
633.5356, 349.0502
634.0178, 378.3000
634.4999, 397.7649
634.9820, 404.3961
635.4641, 405.3244
635.9462, 399.7771
636.4283, 390.9614
636.9105, 382.4280
637.3926, 374.9183
637.8747, 366.9430
638.3568, 353.5304
638.8389, 340.3198
639.3210, 341.5657
639.8032, 356.0138
640.2853, 363.6623
640.7674, 354.0652
641.2495, 341.0007
641.7316, 348.7563
642.2137, 387.0132
642.6959, 405.9378
643.1780, 389.8203
643.6601, 373.8289
644.1422, 368.8043
644.6243, 370.3258
645.1064, 373.3574
645.5886, 376.5225
646.0707, 377.9390
646.5528, 373.8911
647.0349, 367.9783
647.5170, 366.5577
647.9991, 369.8095
648.4813, 378.9464
648.9634, 396.7625
649.4455, 412.6181
649.9276, 407.3309
650.4097, 372.6674
650.8918, 351.1926
651.3740, 345.3629
651.8561, 349.2717
652.3382, 370.6078
652.8203, 396.1594
653.3024, 408.8457
653.7845, 405.3058
654.2667, 398.9240
654.7488, 397.6878
655.2309, 400.5270
655.7130, 410.2046
656.1951, 424.2863
656.6772, 424.0293
657.1594, 399.1484
657.6415, 370.1421
658.1236, 370.3994
658.6057, 407.5453
659.0878, 432.7994
659.5699, 444.0417
660.0521, 445.0930
660.5342, 419.3544
661.0163, 393.5845
661.4984, 405.6427
661.9805, 460.4373
662.4626, 505.2424
662.9448, 495.4805
663.4269, 467.0499
663.9090, 463.2316
664.3911, 481.5415
664.8732, 509.1457
665.3553, 541.9525
665.8375, 568.3979
666.3196, 569.1343
666.8017, 540.2136
667.2838, 535.7133
667.7659, 572.7559
668.2480, 608.4335
668.7302, 621.2515
669.2123, 633.3787
669.6944, 671.3534
670.1765, 736.1967
670.6586, 793.3182
671.1407, 820.1605
671.6229, 839.5158
672.1050, 862.8314
672.5871, 896.1707
673.0692, 954.3793
673.5513, 1041.165
674.0334, 1141.284
674.5156, 1236.662
674.9977, 1328.867
675.4798, 1442.946
675.9619, 1581.243
676.4440, 1734.489
676.9261, 1894.600
677.4083, 2072.954
677.8904, 2278.507
678.3725, 2510.537
678.8546, 2764.402
679.3367, 3041.068
679.8188, 3336.578
680.3010, 3649.419
680.7831, 3977.470
681.2652, 4325.572
681.7473, 4690.562
682.2294, 5058.228
682.7115, 5435.269
683.1937, 5789.140
683.6758, 6022.214
684.1579, 6135.199
684.6400, 6118.108
685.1221, 5956.738
685.6042, 5683.301
686.0864, 5297.841
686.5685, 4808.986
687.0506, 4327.536
687.5327, 3821.729
688.0148, 3367.606
688.4969, 2993.561
688.9791, 2673.085
689.4612, 2387.492
689.9433, 2133.574
690.4254, 1915.901
690.9075, 1740.885
691.3896, 1593.943
691.8718, 1446.253
692.3539, 1303.350
692.8360, 1202.922
693.3181, 1155.621
693.8002, 1118.154
694.2823, 1057.670
694.7645, 982.1902
695.2466, 923.2291
695.7287, 889.6719
696.2108, 860.2843
696.6929, 842.0977
697.1750, 820.6482
697.6572, 780.6465
698.1393, 732.6981
698.6214, 699.3573
699.1035, 690.4540
699.5856, 687.2206
700.0677, 676.5883
700.5499, 660.4376
701.0320, 641.1111
701.5141, 619.1845
701.9962, 597.3129
702.4783, 577.1262
702.9604, 555.8062
703.4426, 524.3668
703.9247, 474.5552
704.4068, 454.2128
704.8889, 489.6587
705.3710, 515.4357
705.8531, 493.9344
706.3353, 454.6637
706.8174, 432.9601
707.2995, 433.4927
707.7816, 437.0807
708.2637, 438.6086
708.7458, 439.3611
709.2280, 438.9205
709.7101, 438.7807
710.1922, 444.3395
710.6743, 456.0497
711.1564, 462.6703
711.6385, 448.2348
712.1207, 419.2199
712.6028, 412.3339
713.0849, 431.9995
713.5670, 435.9373
714.0491, 403.7907
714.5313, 364.7750
715.0134, 351.1941
715.4955, 363.8883
715.9776, 373.8842
716.4597, 377.6988
716.9418, 383.4338
717.4240, 399.6923
717.9061, 413.6874
718.3882, 410.2688
718.8703, 392.6598
719.3524, 378.0229
719.8345, 375.2273
720.3167, 380.0043
720.7988, 396.1029
721.2809, 415.1361
721.7630, 405.6954
722.2451, 364.3998
722.7272, 330.8242
723.2094, 333.9101
723.6915, 361.2832
724.1736, 375.8940
724.6557, 375.3068
725.1378, 367.8466
725.6199, 342.6932
726.1021, 324.3167
726.5842, 329.1121
727.0663, 346.1416
727.5484, 357.3206
728.0305, 359.5677
728.5126, 358.3615
728.9948, 352.7142
729.4769, 347.0930
729.9590, 345.1873
730.4411, 346.4476
730.9232, 350.0797
731.4053, 355.5533
731.8874, 359.6462
732.3695, 356.5443
732.8516, 348.5536
733.3337, 347.9529
733.8159, 355.2367
734.2980, 365.9432
734.7801, 382.7284
735.2622, 392.6895
735.7443, 376.0130
736.2264, 329.5957
736.7086, 305.1577
737.1907, 320.5585
737.6728, 333.0583
738.1549, 331.9251
738.6370, 327.4381
739.1191, 328.3650
739.6013, 334.3809
740.0834, 339.8416
740.5655, 341.0973
741.0476, 342.8976
741.5297, 351.6166
742.0118, 362.9764
742.4940, 370.4104
742.9761, 372.5177
743.4582, 366.9582
743.9403, 351.1591
744.4224, 331.8009
744.9045, 324.1920
745.3867, 329.6699
745.8688, 336.2405
746.3509, 345.1580
746.8330, 350.6454
747.3151, 348.3732
747.7972, 341.3416
748.2794, 334.5866
748.7615, 326.7690
749.2436, 324.3481
749.7257, 325.4402
750.2078, 334.8976
750.6899, 367.7602
751.1721, 404.3612
751.6542, 416.3886
752.1363, 399.2968
752.6184, 373.9322
753.1005, 349.4484
753.5826, 330.0232
754.0648, 324.5468
754.5469, 330.0479
755.0290, 336.2731
755.5111, 340.6462
755.9932, 343.7771
756.4753, 345.8399
756.9575, 347.5495
757.4396, 352.8954
757.9217, 363.6224
758.4038, 373.1793
758.8859, 387.0134
759.3680, 391.5643
759.8502, 367.3543
760.3323, 328.3721
760.8144, 306.0999
761.2965, 303.2513
761.7786, 315.9566
762.2607, 363.5696
762.7429, 407.4550
763.2250, 415.3686
763.7071, 400.3157
764.1892, 389.5688
764.6713, 392.1831
765.1534, 399.3046
765.6356, 405.4883
766.1177, 409.3806
766.5998, 407.2748
767.0819, 399.8621
767.5640, 388.4517
768.0461, 372.6390
768.5283, 367.8300
769.0104, 395.9508
769.4925, 451.8624
769.9746, 471.7401
770.4567, 436.2606
770.9388, 413.6340
771.4210, 423.8970
771.9031, 442.8807
772.3852, 458.9148
772.8673, 469.1560
773.3494, 462.0893
773.8315, 420.1707
774.3137, 389.4998
774.7958, 391.5710
775.2779, 401.6506
775.7600, 399.9885
776.2421, 390.7036
776.7242, 387.7792
777.2064, 396.5533
777.6885, 406.4512
778.1706, 406.1927
778.6527, 400.4508
779.1348, 400.3696
779.6169, 404.6539
780.0991, 401.2230
780.5812, 385.4198
781.0633, 370.6956
781.5454, 375.1414
782.0275, 396.4098
782.5096, 402.8036
782.9918, 390.3138
783.4739, 374.1915
783.9560, 353.0458
784.4381, 334.9667
784.9202, 328.7593
785.4023, 331.8253
785.8845, 332.8225
786.3666, 327.1506
786.8487, 325.8521
787.3308, 330.4053
787.8129, 340.4657
788.2950, 363.4126
788.7772, 389.8236
789.2593, 401.2061
789.7414, 391.0044
790.2235, 372.7092
790.7056, 349.4905
791.1877, 329.3718
791.6699, 327.8023
792.1520, 340.3440
792.6341, 352.5879
793.1162, 359.5337
793.5983, 358.3221
794.0804, 343.1410
794.5626, 318.6589
795.0447, 310.9302
795.5268, 322.8544
796.0089, 331.8814
796.4910, 334.4080
796.9731, 330.4870
797.4553, 317.8198
797.9374, 298.8271
798.4195, 284.7654
798.9016, 268.1530
799.3837, 268.7988
799.8658, 309.1058
800.3480, 343.1810
800.8301, 342.0847
801.3122, 322.2072
801.7943, 310.0852
802.2764, 311.3750
802.7585, 315.5589
803.2407, 322.7913
803.7228, 325.7811
804.2049, 314.0617
804.6870, 295.0210
805.1691, 279.7748
805.6512, 271.8830
806.1334, 272.4904
806.6155, 283.4116
807.0976, 301.9060
807.5797, 328.5939
808.0618, 360.1969
808.5439, 367.1646
809.0261, 343.4660
809.5082, 319.5753
809.9903, 316.2564
810.4724, 323.8848
810.9545, 316.6505
811.4366, 284.6375
811.9188, 275.0302
812.4009, 302.5572
812.8830, 328.7199
813.3651, 338.3944
813.8472, 338.9464
814.3293, 338.9617
814.8115, 338.6483
815.2936, 334.5412
815.7757, 316.1492
816.2578, 306.3221
816.7399, 323.8430
817.2220, 346.1158
817.7042, 349.1310
818.1863, 335.6404
818.6684, 324.4991
819.1505, 324.7144
819.6326, 328.2289
820.1147, 329.5153
820.5969, 328.5753
821.0790, 324.3317
821.5611, 317.7048
822.0432, 311.1145
822.5253, 305.6425
823.0074, 304.0662
823.4896, 312.6524
823.9717, 328.4992
824.4538, 331.7305
824.9359, 321.0753
825.4180, 319.1127
825.9001, 334.3391
826.3823, 351.5491
826.8644, 356.7039
827.3465, 351.3990
827.8286, 345.5148
828.3107, 336.2115
828.7928, 332.1177
829.2749, 337.9239
829.7570, 344.4667
830.2391, 349.8566
830.7213, 352.0901
831.2034, 344.5213
831.6855, 322.3617
832.1676, 314.3612
832.6497, 341.0422
833.1318, 368.8547
833.6140, 385.1076
834.0961, 388.8328
834.5782, 374.5588
835.0603, 345.7591
835.5424, 321.1271
836.0245, 310.7465
836.5067, 309.9159
836.9888, 321.2027
837.4709, 335.7194
837.9530, 333.7881
838.4351, 316.8413
838.9172, 303.2800
839.3994, 302.6818
839.8815, 306.5899
840.3636, 299.9114
840.8457, 285.2538
841.3278, 283.7406
841.8099, 296.2044
842.2921, 309.4618
842.7742, 319.5840
843.2563, 327.6737
843.7384, 335.2145
844.2205, 341.8681
844.7026, 344.0681
845.1848, 338.1601
845.6669, 336.4103
846.1490, 343.4693
846.6311, 350.8766
847.1132, 355.8349
847.5953, 356.9609
848.0775, 349.9987
848.5596, 331.1133
849.0417, 317.3224
849.5238, 310.4550
850.0059, 309.6754
850.4880, 320.9199
850.9702, 334.1374
851.4523, 335.9504
851.9344, 326.6721
852.4165, 320.4266
852.8986, 328.9012
853.3807, 334.9979
853.8629, 321.0312
854.3450, 300.2424
854.8271, 287.0107
855.3092, 283.8385
855.7913, 293.1485
856.2734, 316.3371
856.7556, 340.4575
857.2377, 351.6803
857.7198, 351.8054
858.2019, 343.2762
858.6840, 327.3721
859.1661, 310.4859
859.6483, 294.4978
860.1304, 280.7969
860.6125, 270.4956
861.0946, 263.9001
861.5767, 262.8239
862.0588, 267.8991
862.5410, 272.9342
863.0231, 275.2940
863.5052, 284.8600
863.9873, 312.1416
864.4694, 344.4753
864.9515, 357.1243
865.4337, 345.2450
865.9158, 337.1147
866.3979, 336.2023
866.8800, 334.1258
867.3621, 326.0692
867.8442, 318.5459
868.3264, 319.2773
868.8085, 325.8224
869.2906, 325.9203
869.7727, 308.8900
870.2548, 300.5706
870.7369, 320.0408
871.2191, 338.4403
871.7012, 327.5566
872.1833, 304.5275
872.6654, 305.0065
873.1475, 336.2693
873.6296, 359.7717
874.1118, 342.4320
874.5939, 316.8544
875.0760, 309.8956
875.5581, 315.4616
876.0402, 325.9333
876.5223, 338.2789
877.0045, 349.2570
877.4866, 357.6176
877.9687, 360.1479
878.4508, 344.6840
878.9329, 321.9322
879.4150, 327.7566
879.8972, 357.8519
880.3793, 370.2184
880.8614, 349.9108
881.3435, 324.4922
881.8256, 325.0419
882.3077, 344.6163
882.7899, 353.6119
883.2720, 351.6355
883.7541, 345.9022
884.2362, 337.0023
884.7183, 326.4506
885.2004, 314.0485
885.6826, 302.3415
886.1647, 297.1418
886.6468, 299.4734
887.1289, 303.4735
887.6110, 311.9818
888.0931, 316.3482
888.5753, 310.2386
889.0574, 302.8180
889.5395, 304.0750
890.0216, 312.7161
890.5037, 317.6819
890.9858, 313.1730
891.4680, 313.6226
891.9501, 326.3536
892.4322, 337.6349
892.9143, 339.8274
893.3964, 336.2884
893.8785, 332.4073
894.3607, 328.9620
894.8428, 323.9179
895.3249, 312.5972
895.8070, 304.2534
896.2891, 307.4805
896.7712, 313.1596
897.2534, 312.3481
897.7355, 304.9070
898.2176, 292.1449
898.6997, 272.0594
899.1818, 260.8726
899.6639, 274.2963
900.1461, 300.1808
900.6282, 335.6326
901.1103, 369.2658
901.5924, 373.8254
902.0745, 347.1077
902.5566, 319.5988
903.0388, 313.3924
903.5209, 321.3418
904.0030, 338.4187
904.4851, 359.7331
904.9672, 371.5222
905.4493, 373.2652
905.9315, 371.1244
906.4136, 367.8386
906.8957, 365.7069
907.3778, 368.3168
907.8599, 374.5095
908.3420, 378.5319
908.8242, 380.4325
909.3063, 381.6177
909.7884, 382.0539
910.2705, 386.5123
910.7526, 400.3057
911.2347, 416.0022
911.7169, 411.3784
912.1990, 380.5970
912.6811, 374.1526
913.1632, 402.5271
913.6453, 418.5788
914.1274, 400.1883
914.6096, 375.5081
915.0917, 377.8744
915.5738, 402.4955
916.0559, 403.6653
916.5380, 357.1109
917.0201, 340.2181
917.5023, 384.1124
917.9844, 423.2040
918.4665, 419.5853
918.9486, 395.0797
919.4307, 383.3785
919.9128, 385.9533
920.3950, 388.0152
920.8771, 392.7062
921.3592, 391.7021
921.8413, 378.4425
922.3234, 363.3730
922.8055, 351.2410
923.2877, 343.7387
923.7698, 345.1771
924.2519, 359.3488
924.7340, 369.6680
925.2161, 368.2954
925.6982, 365.6330
926.1804, 368.0101
926.6625, 371.4727
927.1446, 370.1316
927.6267, 364.8012
928.1088, 362.3290
928.5909, 367.0216
929.0730, 371.0746
929.5551, 369.6329
930.0372, 365.8651
930.5193, 358.7534
931.0015, 353.0341
931.4836, 359.4097
931.9657, 378.5420
932.4478, 394.5466
932.9299, 396.1606
933.4120, 391.5446
933.8942, 389.3131
934.3763, 385.7010
934.8584, 372.6369
935.3405, 352.6218
935.8226, 335.0382
936.3047, 323.5528
936.7869, 316.9732
937.2690, 315.1741
937.7511, 316.7467
938.2332, 320.7180
938.7153, 325.8244
939.1974, 326.9116
939.6796, 324.4715
940.1617, 328.7922
940.6438, 346.9310
941.1259, 364.3549
941.6080, 353.6459
942.0901, 325.5294
942.5723, 318.8263
943.0544, 331.3051
943.5365, 341.8660
944.0186, 344.7531
944.5007, 343.5417
944.9828, 340.6707
945.4650, 337.1520
945.9471, 336.6792
946.4292, 338.6033
946.9113, 332.4542
947.3934, 317.4118
947.8755, 307.9425
948.3577, 309.6484
948.8398, 318.4057
949.3219, 331.5097
949.8040, 346.2103
950.2861, 348.2588
950.7682, 336.2854
951.2504, 323.9811
951.7325, 310.8916
952.2146, 309.4898
952.6967, 330.1259
953.1788, 354.0544
953.6609, 350.5617
954.1431, 320.8652
954.6252, 313.2058
955.1073, 335.1499
955.5894, 349.8006
956.0715, 348.7492
956.5536, 345.5972
957.0358, 349.9457
957.5179, 356.1538
958.0000, 350.9014
958.4821, 330.4146
958.9642, 326.1773
959.4464, 349.2607
959.9285, 363.5763
960.4106, 356.6450
960.8927, 345.1693
961.3748, 342.0840
961.8569, 344.1432
962.3391, 340.9507
962.8212, 327.9401
963.3033, 323.0562
963.7854, 328.4214
964.2675, 338.9551
964.7496, 360.6873
965.2318, 380.2022
965.7139, 382.7081
966.1960, 371.7644
966.6781, 365.7415
967.1602, 363.0128
967.6423, 368.1939
968.1245, 394.4855
968.6066, 412.7869
969.0887, 404.9100
969.5708, 389.4016
970.0529, 389.4111
970.5350, 402.6300
971.0172, 401.4663
971.4993, 365.1098
971.9814, 342.4651
972.4635, 346.2964
972.9456, 356.2801
973.4277, 367.9858
973.9099, 376.8604
974.3920, 373.8557
974.8741, 359.3380
975.3562, 355.3912
975.8383, 379.9475
976.3204, 394.8623
976.8026, 384.2373
977.2847, 369.6382
977.7668, 364.1266
978.2489, 363.9109
978.7310, 360.3844
979.2131, 352.4006
979.6953, 351.3016
980.1774, 367.0358
980.6595, 380.3358
981.1416, 381.9616
981.6237, 381.7260
982.1058, 387.5174
982.5880, 396.8200
983.0701, 404.4774
983.5522, 409.6876
984.0343, 411.4989
984.5164, 403.7314
984.9985, 400.0019
985.4807, 410.9786
985.9628, 424.2645
986.4449, 430.5360
986.9270, 429.8445
987.4091, 426.1596
987.8912, 421.4151
988.3734, 404.4701
988.8555, 350.4347
989.3376, 308.1997
989.8197, 307.3645
990.3018, 326.7558
990.7839, 354.8137
991.2661, 382.8318
991.7482, 392.5331
992.2303, 375.2072
992.7124, 363.3916
993.1945, 373.9540
993.6766, 390.0678
994.1588, 402.2605
994.6409, 414.6769
995.1230, 435.6696
995.6051, 461.2826
996.0872, 477.1826
996.5693, 477.0761
997.0515, 476.2580
997.5336, 483.6681
998.0157, 490.2486
998.4978, 485.3783
998.9799, 479.8645
999.4620, 489.9540
999.9442, 511.8796
1000.426, 525.0433
1000.908, 518.3768
1001.391, 519.4423
1001.873, 553.0444
1002.355, 585.8109
1002.837, 588.0035
1003.319, 581.2450
1003.801, 594.0631
1004.283, 625.4075
1004.765, 654.9845
1005.247, 674.4291
1005.730, 697.4335
1006.212, 740.8980
1006.694, 778.9985
1007.176, 781.2902
1007.658, 776.3137
1008.140, 805.9446
1008.622, 866.0483
1009.104, 916.4843
1009.586, 941.6800
1010.069, 961.3418
1010.551, 983.7352
1011.033, 1004.146
1011.515, 1023.367
1011.997, 1036.122
1012.479, 1035.994
1012.961, 1023.020
1013.443, 1001.104
1013.926, 968.5453
1014.408, 935.0089
1014.890, 902.0905
1015.372, 872.1105
1015.854, 848.4998
1016.336, 827.5923
1016.818, 807.3248
1017.300, 785.7076
1017.782, 756.1810
1018.265, 710.4080
1018.747, 672.4393
1019.229, 661.9764
1019.711, 650.2733
1020.193, 617.5245
1020.675, 575.3244
1021.157, 531.8228
1021.639, 492.3706
1022.122, 473.4079
1022.604, 489.7933
1023.086, 502.3340
1023.568, 495.2580
1024.050, 485.3465
1024.532, 481.1838
1025.014, 479.4392
1025.496, 476.7942
1025.978, 472.5336
1026.461, 465.6243
1026.943, 456.0892
1027.425, 443.2940
1027.907, 406.6703
1028.389, 390.8981
1028.871, 438.9570
1029.353, 502.6272
1029.835, 529.0804
1030.318, 522.6356
1030.800, 520.6645
1031.282, 538.6443
1031.764, 538.0420
1032.246, 479.6395
1032.728, 442.5776
1033.210, 478.2054
1033.692, 533.9284
1034.174, 558.3517
1034.656, 556.5298
1035.139, 559.9650
1035.621, 579.8333
1036.103, 584.0555
1036.585, 544.9000
1037.067, 522.4865
1037.549, 554.7234
1038.031, 595.1792
1038.513, 600.4478
1038.996, 579.6078
1039.478, 567.9780
1039.960, 565.9335
1040.442, 572.3953
1040.924, 595.1117
1041.406, 614.6070
1041.888, 622.5276
1042.370, 629.5163
1042.853, 643.5366
1043.335, 663.3000
1043.817, 686.4861
1044.299, 718.2512
1044.781, 730.7600
1045.263, 705.0200
1045.745, 701.5421
1046.227, 745.5742
1046.709, 796.1885
1047.192, 824.3760
1047.674, 838.1493
1048.156, 856.5573
1048.638, 881.2549
1049.120, 896.1054
1049.602, 897.1754
1050.084, 900.6237
1050.566, 906.7006
1051.048, 925.6967
1051.531, 967.4805
1052.013, 1020.019
1052.495, 1059.698
1052.977, 1086.731
1053.459, 1124.123
1053.941, 1172.429
1054.423, 1224.745
1054.905, 1278.595
1055.388, 1344.562
1055.870, 1429.783
1056.352, 1521.880
1056.834, 1597.064
1057.316, 1662.747
1057.798, 1778.559
1058.280, 1941.862
1058.762, 2052.450
1059.245, 2097.664
1059.727, 2177.977
1060.209, 2342.359
1060.691, 2540.390
1061.173, 2714.422
1061.655, 2872.762
1062.137, 3036.469
1062.619, 3208.735
1063.101, 3412.934
1063.583, 3646.702
1064.066, 3879.119
1064.548, 4099.591
1065.030, 4296.733
1065.512, 4457.586
1065.994, 4597.964
1066.476, 4763.923
1066.958, 4925.351
1067.440, 5005.220
1067.923, 5013.189
1068.405, 5002.160
1068.887, 4984.808
1069.369, 4932.451
1069.851, 4825.342
1070.333, 4674.000
1070.815, 4466.902
1071.297, 4239.977
1071.780, 4049.967
1072.262, 3878.750
1072.744, 3681.198
1073.226, 3454.836
1073.708, 3227.816
1074.190, 3012.129
1074.672, 2809.356
1075.154, 2607.337
1075.636, 2431.122
1076.119, 2315.022
1076.601, 2227.415
1077.083, 2125.522
1077.565, 2009.771
1078.047, 1902.826
1078.529, 1809.714
1079.011, 1733.287
1079.493, 1691.387
1079.975, 1645.578
1080.458, 1568.960
1080.940, 1486.571
1081.422, 1419.852
1081.904, 1366.639
1082.386, 1317.877
1082.868, 1272.527
1083.350, 1232.177
1083.832, 1203.750
1084.314, 1171.094
1084.797, 1120.634
1085.279, 1075.531
1085.761, 1058.297
1086.243, 1050.339
1086.725, 1018.625
1087.207, 962.5328
1087.689, 922.4653
1088.171, 902.8755
1088.654, 890.7032
1089.136, 893.3777
1089.618, 886.3187
1090.100, 855.7726
1090.582, 815.4858
1091.064, 778.4767
1091.546, 746.5463
1092.028, 732.8864
1092.510, 743.0297
1092.993, 733.5567
1093.475, 699.0132
1093.957, 669.1060
1094.439, 653.4443
1094.921, 643.8800
1095.403, 634.6380
1095.885, 624.4073
1096.367, 609.1218
1096.849, 589.8643
1097.332, 575.8170
1097.814, 566.2961
1098.296, 552.0366
1098.778, 531.7668
1099.260, 513.8522
1099.742, 502.9383
1100.224, 497.8440
1100.706, 498.7430
1101.189, 503.2890
1101.671, 507.5029
1102.153, 511.2391
1102.635, 515.1036
1103.117, 518.2435
1103.599, 517.2960
1104.081, 511.2442
1104.563, 503.8961
1105.046, 497.8664
1105.528, 492.2773
1106.010, 484.8785
1106.492, 478.6194
1106.974, 481.8090
1107.456, 486.7075
1107.938, 474.1324
1108.420, 444.6760
1108.902, 427.4079
1109.385, 443.9306
1109.867, 452.7025
1110.349, 421.5383
1110.831, 395.0822
1111.313, 407.8731
1111.795, 432.7687
1112.277, 439.7272
1112.759, 430.6330
1113.241, 421.5221
1113.724, 414.0763
1114.206, 406.3653
1114.688, 390.2215
1115.170, 385.9343
1115.652, 407.9381
1116.134, 429.0633
1116.616, 430.7059
1117.098, 421.4351
1117.581, 417.1559
1118.063, 417.9975
1118.545, 412.2298
1119.027, 398.8056
1119.509, 380.6385
1119.991, 353.9364
1120.473, 346.8139
1120.955, 375.9423
1121.438, 408.5187
1121.920, 407.1567
1122.402, 384.1624
1122.884, 376.6490
1123.366, 382.4162
1123.848, 387.4012
1124.330, 390.3436
1124.812, 387.2791
1125.294, 377.9977
1125.776, 370.7985
1126.259, 370.9771
1126.741, 377.0265
1127.223, 393.9167
1127.705, 410.4358
1128.187, 404.7131
1128.669, 386.7551
1129.151, 374.9674
1129.633, 370.6061
1130.116, 367.0515
1130.598, 361.9853
1131.080, 360.0219
1131.562, 363.1559
1132.044, 371.3051
1132.526, 394.3628
1133.008, 412.7731
1133.490, 405.0191
1133.973, 383.3682
1134.455, 365.0825
1134.937, 353.2887
1135.419, 353.3818
1135.901, 382.0068
1136.383, 394.2169
1136.865, 364.4713
1137.347, 344.4519
1137.829, 358.0781
1138.312, 380.4464
1138.794, 394.0824
1139.276, 399.4097
1139.758, 396.2968
1140.240, 383.2167
1140.722, 374.7872
1141.204, 371.3223
1141.686, 371.4352
1142.168, 375.2831
1142.651, 380.9055
1143.133, 387.7211
1143.615, 393.4119
1144.097, 395.2060
1144.579, 393.5194
1145.061, 389.5492
1145.543, 383.3086
1146.025, 371.0060
1146.508, 355.8726
1146.990, 359.5551
1147.472, 383.8173
1147.954, 393.2897
1148.436, 360.9422
1148.918, 324.0620
1149.400, 323.9949
1149.882, 338.5678
1150.365, 345.7047
1150.847, 348.1331
1151.329, 349.6326
1151.811, 352.0587
1152.293, 361.4630
1152.775, 380.4236
1153.257, 384.1401
1153.739, 340.8344
1154.221, 312.1328
1154.703, 335.8355
1155.186, 362.5443
1155.668, 355.0663
1156.150, 335.8069
1156.632, 339.0393
1157.114, 360.9125
1157.596, 372.6140
1158.078, 369.9874
1158.560, 367.8380
1159.043, 365.8282
1159.525, 365.9937
1160.007, 370.4939
1160.489, 370.9086
1160.971, 360.1137
1161.453, 345.9464
1161.935, 342.0339
1162.417, 346.9420
1162.900, 355.8988
1163.382, 367.0666
1163.864, 367.3427
1164.346, 356.6911
1164.828, 344.8018
1165.310, 335.1066
1165.792, 322.4181
1166.274, 297.7923
1166.756, 282.3326
1167.239, 313.6070
1167.721, 356.8107
1168.203, 369.2781
1168.685, 362.9197
1169.167, 354.9305
1169.649, 350.5308
1170.131, 356.0420
1170.613, 375.2666
1171.095, 388.7524
1171.578, 390.6085
1172.060, 384.7459
1172.542, 364.3359
1173.024, 345.4778
1173.506, 336.9510
1173.988, 337.2792
1174.470, 347.6953
1174.952, 365.8738
1175.434, 372.8495
1175.917, 364.5554
1176.399, 360.3389
1176.881, 360.2797
1177.363, 368.9410
1177.845, 389.9525
1178.327, 400.3757
1178.809, 383.0607
1179.291, 355.4516
1179.774, 344.6117
1180.256, 345.6103
1180.738, 342.9172
1181.220, 339.0730
1181.702, 340.6395
1182.184, 348.6496
1182.666, 368.3526
1183.148, 398.1320
1183.630, 414.4851
1184.113, 398.1941
1184.595, 378.0898
1185.077, 375.0465
1185.559, 377.0609
1186.041, 379.9580
1186.523, 378.4732
1187.005, 357.5898
1187.487, 329.5607
1187.969, 333.6379
1188.452, 382.6501
1188.934, 404.3859
1189.416, 372.5066
1189.898, 350.2672
1190.380, 343.4960
1190.862, 348.8454
1191.344, 371.1584
1191.826, 391.0718
1192.309, 387.4226
1192.791, 369.2340
1193.273, 362.1457
1193.755, 365.6693
1194.237, 377.3105
1194.719, 394.6335
1195.201, 394.7568
1195.683, 376.3115
1196.166, 360.9804
1196.648, 358.5132
1197.130, 359.1484
1197.612, 353.4586
1198.094, 347.4797
1198.576, 343.6342
1199.058, 346.7073
1199.540, 371.9508
1200.022, 402.4629
1200.505, 410.4248
1200.987, 396.3209
1201.469, 378.1994
1201.951, 356.9367
1202.433, 344.1717
1202.915, 345.6168
1203.397, 350.8354
1203.879, 362.9609
1204.361, 370.6102
1204.844, 368.4277
1205.326, 357.3548
1205.808, 335.4386
1206.290, 307.5888
1206.772, 296.8556
1207.254, 303.2267
1207.736, 325.8817
1208.218, 362.1333
1208.701, 364.5450
1209.183, 327.0519
1209.665, 305.1000
1210.147, 329.0863
1210.629, 362.8150
1211.111, 370.4329
1211.593, 365.2165
1212.075, 355.1346
1212.557, 347.7748
1213.040, 360.4543
1213.522, 379.0379
1214.004, 373.4249
1214.486, 345.2819
1214.968, 328.1656
1215.450, 333.7611
1215.932, 340.0467
1216.414, 341.7049
1216.896, 346.4389
1217.379, 361.6272
1217.861, 370.3399
1218.343, 357.6092
1218.825, 343.4473
1219.307, 358.1411
1219.789, 391.7815
1220.271, 394.8499
1220.753, 369.8905
1221.236, 357.9525
1221.718, 359.7011
1222.200, 366.1411
1222.682, 374.2091
1223.164, 379.2369
1223.646, 378.7865
1224.128, 375.9453
1224.610, 374.1646
1225.093, 370.6375
1225.575, 358.3708
1226.057, 347.1313
1226.539, 347.5782
1227.021, 355.5132
1227.503, 364.5088
1227.985, 373.5186
1228.467, 382.5125
1228.949, 392.9599
1229.432, 398.6011
1229.914, 396.3800
1230.396, 395.8201
1230.878, 399.8807
1231.360, 403.0996
1231.842, 404.4741
1232.324, 396.5179
1232.806, 367.5608
1233.288, 329.1254
1233.771, 311.5652
1234.253, 311.2728
1234.735, 317.7897
1235.217, 328.1942
1235.699, 336.5200
1236.181, 341.0596
1236.663, 338.6360
1237.145, 328.2985
1237.628, 322.7061
1238.110, 331.8397
1238.592, 345.1039
1239.074, 360.1174
1239.556, 373.8649
1240.038, 385.9089
1240.520, 394.4307
1241.002, 390.7111
1241.484, 383.7651
1241.967, 400.5692
1242.449, 444.6143
1242.931, 469.4684
1243.413, 473.6111
1243.895, 466.2784
1244.377, 447.8530
1244.859, 433.5659
1245.341, 429.0286
1245.823, 432.0743
1246.306, 442.6422
1246.788, 450.9038
1247.270, 436.9145
1247.752, 418.0731
1248.234, 424.4439
1248.716, 438.3108
1249.198, 431.7627
1249.680, 410.8749
1250.163, 393.7688
1250.645, 384.0548
1251.127, 380.0082
1251.609, 386.5738
1252.091, 388.0246
1252.573, 381.2468
1253.055, 372.3575
1253.537, 363.6511
1254.020, 349.2812
##END=



