##NAMES=Berzelianite
##RRUFFID=R110159
##IDEAL CHEMISTRY=Cu_2-x_Se (x &#8776; 0.12)
##LOCALITY=Facebaja, Romania
##OWNER=RRUFF
##SOURCE=Mark N Feinglos
##DESCRIPTION=Black metallic euhedral grains, associated with pale-yellow sulfur crystals.
##STATUS=The identification of this mineral has been confirmed only by single crystal X-ray diffraction.
##URL=rruff.info/R110159
9.112140e+001, 0.000000e+000
9.160352e+001, 3.294608e+002
9.208563e+001, 3.301333e+002
9.256775e+001, 3.302914e+002
9.304987e+001, 3.299110e+002
9.353198e+001, 3.289289e+002
9.401410e+001, 3.228212e+002
9.449622e+001, 3.129875e+002
9.497833e+001, 3.023284e+002
9.546045e+001, 2.927769e+002
9.594257e+001, 2.841700e+002
9.642468e+001, 2.776283e+002
9.690680e+001, 2.747896e+002
9.738892e+001, 2.722468e+002
9.787103e+001, 2.691705e+002
9.835315e+001, 2.650988e+002
9.883527e+001, 2.599918e+002
9.931738e+001, 2.545056e+002
9.979950e+001, 2.486059e+002
1.002816e+002, 2.426100e+002
1.007637e+002, 2.351486e+002
1.012458e+002, 2.281527e+002
1.017280e+002, 2.236795e+002
1.022101e+002, 2.222776e+002
1.026922e+002, 2.223868e+002
1.031743e+002, 2.215474e+002
1.036564e+002, 2.196531e+002
1.041385e+002, 2.181789e+002
1.046207e+002, 2.180799e+002
1.051028e+002, 2.188995e+002
1.055849e+002, 2.192545e+002
1.060670e+002, 2.194218e+002
1.065491e+002, 2.179574e+002
1.070313e+002, 2.132857e+002
1.075134e+002, 2.049316e+002
1.079955e+002, 1.956016e+002
1.084776e+002, 1.878293e+002
1.089597e+002, 1.816938e+002
1.094418e+002, 1.767389e+002
1.099240e+002, 1.733650e+002
1.104061e+002, 1.707625e+002
1.108882e+002, 1.685155e+002
1.113703e+002, 1.664817e+002
1.118524e+002, 1.645686e+002
1.123345e+002, 1.625175e+002
1.128167e+002, 1.600936e+002
1.132988e+002, 1.578484e+002
1.137809e+002, 1.556995e+002
1.142630e+002, 1.537972e+002
1.147451e+002, 1.523479e+002
1.152272e+002, 1.515177e+002
1.157094e+002, 1.512622e+002
1.161915e+002, 1.508933e+002
1.166736e+002, 1.504496e+002
1.171557e+002, 1.498737e+002
1.176378e+002, 1.490129e+002
1.181199e+002, 1.479562e+002
1.186021e+002, 1.469575e+002
1.190842e+002, 1.461617e+002
1.195663e+002, 1.456223e+002
1.200484e+002, 1.456935e+002
1.205305e+002, 1.466988e+002
1.210126e+002, 1.480959e+002
1.214948e+002, 1.495062e+002
1.219769e+002, 1.509020e+002
1.224590e+002, 1.521680e+002
1.229411e+002, 1.534797e+002
1.234232e+002, 1.547024e+002
1.239053e+002, 1.549185e+002
1.243875e+002, 1.532804e+002
1.248696e+002, 1.503574e+002
1.253517e+002, 1.476881e+002
1.258338e+002, 1.453535e+002
1.263159e+002, 1.434789e+002
1.267980e+002, 1.421421e+002
1.272802e+002, 1.412774e+002
1.277623e+002, 1.405963e+002
1.282444e+002, 1.400231e+002
1.287265e+002, 1.396166e+002
1.292086e+002, 1.387229e+002
1.296907e+002, 1.365495e+002
1.301729e+002, 1.343973e+002
1.306550e+002, 1.329873e+002
1.311371e+002, 1.323495e+002
1.316192e+002, 1.319189e+002
1.321013e+002, 1.308293e+002
1.325834e+002, 1.283470e+002
1.330656e+002, 1.266724e+002
1.335477e+002, 1.261118e+002
1.340298e+002, 1.260492e+002
1.345119e+002, 1.261715e+002
1.349940e+002, 1.263386e+002
1.354761e+002, 1.264053e+002
1.359583e+002, 1.260280e+002
1.364404e+002, 1.247276e+002
1.369225e+002, 1.235565e+002
1.374046e+002, 1.224561e+002
1.378867e+002, 1.215333e+002
1.383688e+002, 1.210986e+002
1.388510e+002, 1.214059e+002
1.393331e+002, 1.220406e+002
1.398152e+002, 1.216044e+002
1.402973e+002, 1.195169e+002
1.407794e+002, 1.174587e+002
1.412615e+002, 1.160708e+002
1.417437e+002, 1.152908e+002
1.422258e+002, 1.148428e+002
1.427079e+002, 1.147347e+002
1.431900e+002, 1.148183e+002
1.436721e+002, 1.147421e+002
1.441542e+002, 1.143590e+002
1.446364e+002, 1.139742e+002
1.451185e+002, 1.140088e+002
1.456006e+002, 1.145700e+002
1.460827e+002, 1.148963e+002
1.465648e+002, 1.142937e+002
1.470469e+002, 1.133367e+002
1.475291e+002, 1.126377e+002
1.480112e+002, 1.125468e+002
1.484933e+002, 1.126969e+002
1.489754e+002, 1.121554e+002
1.494575e+002, 1.102763e+002
1.499396e+002, 1.088303e+002
1.504218e+002, 1.084989e+002
1.509039e+002, 1.088298e+002
1.513860e+002, 1.092381e+002
1.518681e+002, 1.093779e+002
1.523502e+002, 1.092938e+002
1.528323e+002, 1.093703e+002
1.533145e+002, 1.102017e+002
1.537966e+002, 1.105945e+002
1.542787e+002, 1.099818e+002
1.547608e+002, 1.087295e+002
1.552429e+002, 1.075904e+002
1.557250e+002, 1.071952e+002
1.562072e+002, 1.076311e+002
1.566893e+002, 1.074954e+002
1.571714e+002, 1.063201e+002
1.576535e+002, 1.051231e+002
1.581356e+002, 1.043507e+002
1.586177e+002, 1.039777e+002
1.590999e+002, 1.036724e+002
1.595820e+002, 1.030868e+002
1.600641e+002, 1.021381e+002
1.605462e+002, 1.016856e+002
1.610283e+002, 1.022357e+002
1.615104e+002, 1.029140e+002
1.619926e+002, 1.029994e+002
1.624747e+002, 1.024023e+002
1.629568e+002, 1.016268e+002
1.634389e+002, 1.011693e+002
1.639210e+002, 1.010172e+002
1.644031e+002, 1.009945e+002
1.648853e+002, 1.014431e+002
1.653674e+002, 1.018987e+002
1.658495e+002, 1.014705e+002
1.663316e+002, 9.971672e+001
1.668137e+002, 9.795856e+001
1.672958e+002, 9.760546e+001
1.677780e+002, 9.834323e+001
1.682601e+002, 9.913548e+001
1.687422e+002, 9.949311e+001
1.692243e+002, 9.950772e+001
1.697064e+002, 9.955531e+001
1.701885e+002, 9.977981e+001
1.706707e+002, 9.989153e+001
1.711528e+002, 9.973512e+001
1.716349e+002, 9.932815e+001
1.721170e+002, 9.875786e+001
1.725991e+002, 9.799318e+001
1.730812e+002, 9.701479e+001
1.735634e+002, 9.625637e+001
1.740455e+002, 9.582829e+001
1.745276e+002, 9.557649e+001
1.750097e+002, 9.556716e+001
1.754918e+002, 9.573203e+001
1.759739e+002, 9.584941e+001
1.764561e+002, 9.562121e+001
1.769382e+002, 9.486356e+001
1.774203e+002, 9.438486e+001
1.779024e+002, 9.433533e+001
1.783845e+002, 9.441103e+001
1.788666e+002, 9.454279e+001
1.793488e+002, 9.467554e+001
1.798309e+002, 9.470752e+001
1.803130e+002, 9.447409e+001
1.807951e+002, 9.376326e+001
1.812772e+002, 9.326842e+001
1.817593e+002, 9.304123e+001
1.822415e+002, 9.296378e+001
1.827236e+002, 9.304479e+001
1.832057e+002, 9.325660e+001
1.836878e+002, 9.341418e+001
1.841699e+002, 9.320995e+001
1.846520e+002, 9.229214e+001
1.851342e+002, 9.172028e+001
1.856163e+002, 9.182152e+001
1.860984e+002, 9.214819e+001
1.865805e+002, 9.221709e+001
1.870626e+002, 9.188004e+001
1.875447e+002, 9.133247e+001
1.880269e+002, 9.087391e+001
1.885090e+002, 9.050149e+001
1.889911e+002, 9.019295e+001
1.894732e+002, 9.006371e+001
1.899553e+002, 8.997790e+001
1.904374e+002, 8.964883e+001
1.909196e+002, 8.890811e+001
1.914017e+002, 8.808166e+001
1.918838e+002, 8.766789e+001
1.923659e+002, 8.767954e+001
1.928480e+002, 8.770750e+001
1.933301e+002, 8.765059e+001
1.938123e+002, 8.747888e+001
1.942944e+002, 8.702538e+001
1.947765e+002, 8.601062e+001
1.952586e+002, 8.499839e+001
1.957407e+002, 8.461543e+001
1.962228e+002, 8.487245e+001
1.967050e+002, 8.518713e+001
1.971871e+002, 8.510992e+001
1.976692e+002, 8.466054e+001
1.981513e+002, 8.427996e+001
1.986334e+002, 8.407087e+001
1.991155e+002, 8.395107e+001
1.995977e+002, 8.391833e+001
2.000798e+002, 8.395842e+001
2.005619e+002, 8.394021e+001
2.010440e+002, 8.372102e+001
2.015261e+002, 8.327380e+001
2.020082e+002, 8.279720e+001
2.024904e+002, 8.209872e+001
2.029725e+002, 8.153489e+001
2.034546e+002, 8.140986e+001
2.039367e+002, 8.170603e+001
2.044188e+002, 8.205429e+001
2.049009e+002, 8.198602e+001
2.053831e+002, 8.137557e+001
2.058652e+002, 8.071941e+001
2.063473e+002, 7.976609e+001
2.068294e+002, 7.897098e+001
2.073115e+002, 7.876280e+001
2.077936e+002, 7.912961e+001
2.082758e+002, 7.960051e+001
2.087579e+002, 7.949192e+001
2.092400e+002, 7.846923e+001
2.097221e+002, 7.756939e+001
2.102042e+002, 7.672420e+001
2.106863e+002, 7.602372e+001
2.111685e+002, 7.555460e+001
2.116506e+002, 7.532082e+001
2.121327e+002, 7.523610e+001
2.126148e+002, 7.520007e+001
2.130969e+002, 7.537923e+001
2.135790e+002, 7.520780e+001
2.140612e+002, 7.431009e+001
2.145433e+002, 7.332077e+001
2.150254e+002, 7.275081e+001
2.155075e+002, 7.271792e+001
2.159896e+002, 7.296936e+001
2.164717e+002, 7.318742e+001
2.169539e+002, 7.347372e+001
2.174360e+002, 7.340786e+001
2.179181e+002, 7.271338e+001
2.184002e+002, 7.179794e+001
2.188823e+002, 7.096876e+001
2.193644e+002, 7.030050e+001
2.198466e+002, 6.989909e+001
2.203287e+002, 7.005277e+001
2.208108e+002, 7.093349e+001
2.212929e+002, 7.137341e+001
2.217750e+002, 7.081905e+001
2.222571e+002, 6.989305e+001
2.227393e+002, 6.943409e+001
2.232214e+002, 6.966738e+001
2.237035e+002, 7.006167e+001
2.241856e+002, 6.991520e+001
2.246677e+002, 6.927791e+001
2.251498e+002, 6.865604e+001
2.256320e+002, 6.820572e+001
2.261141e+002, 6.784351e+001
2.265962e+002, 6.742465e+001
2.270783e+002, 6.690888e+001
2.275604e+002, 6.638577e+001
2.280425e+002, 6.591020e+001
2.285247e+002, 6.548582e+001
2.290068e+002, 6.516234e+001
2.294889e+002, 6.506203e+001
2.299710e+002, 6.507041e+001
2.304531e+002, 6.489164e+001
2.309352e+002, 6.439517e+001
2.314174e+002, 6.393048e+001
2.318995e+002, 6.381591e+001
2.323816e+002, 6.394865e+001
2.328637e+002, 6.405959e+001
2.333458e+002, 6.404574e+001
2.338279e+002, 6.391294e+001
2.343101e+002, 6.363996e+001
2.347922e+002, 6.308806e+001
2.352743e+002, 6.264214e+001
2.357564e+002, 6.264191e+001
2.362385e+002, 6.289281e+001
2.367206e+002, 6.298747e+001
2.372028e+002, 6.256090e+001
2.376849e+002, 6.178584e+001
2.381670e+002, 6.144222e+001
2.386491e+002, 6.188282e+001
2.391312e+002, 6.223846e+001
2.396133e+002, 6.214137e+001
2.400955e+002, 6.173292e+001
2.405776e+002, 6.123802e+001
2.410597e+002, 6.075061e+001
2.415418e+002, 6.029224e+001
2.420239e+002, 5.999090e+001
2.425060e+002, 5.998449e+001
2.429882e+002, 5.995171e+001
2.434703e+002, 5.966870e+001
2.439524e+002, 5.932539e+001
2.444345e+002, 5.926039e+001
2.449166e+002, 5.974301e+001
2.453987e+002, 6.056692e+001
2.458809e+002, 6.071738e+001
2.463630e+002, 5.952259e+001
2.468451e+002, 5.848326e+001
2.473272e+002, 5.806329e+001
2.478093e+002, 5.792713e+001
2.482914e+002, 5.758786e+001
2.487736e+002, 5.675816e+001
2.492557e+002, 5.562465e+001
2.497378e+002, 5.496161e+001
2.502199e+002, 5.519956e+001
2.507020e+002, 5.541115e+001
2.511841e+002, 5.551006e+001
2.516663e+002, 5.550627e+001
2.521484e+002, 5.543454e+001
2.526305e+002, 5.531278e+001
2.531126e+002, 5.511125e+001
2.535947e+002, 5.472114e+001
2.540768e+002, 5.371203e+001
2.545590e+002, 5.304972e+001
2.550411e+002, 5.306081e+001
2.555232e+002, 5.333920e+001
2.560053e+002, 5.341738e+001
2.564874e+002, 5.309884e+001
2.569695e+002, 5.255656e+001
2.574517e+002, 5.220839e+001
2.579338e+002, 5.220869e+001
2.584159e+002, 5.224082e+001
2.588980e+002, 5.232738e+001
2.593801e+002, 5.243364e+001
2.598622e+002, 5.254109e+001
2.603444e+002, 5.264133e+001
2.608265e+002, 5.270643e+001
2.613086e+002, 5.268870e+001
2.617907e+002, 5.265727e+001
2.622728e+002, 5.239567e+001
2.627549e+002, 5.153577e+001
2.632371e+002, 5.062015e+001
2.637192e+002, 5.031328e+001
2.642013e+002, 5.077177e+001
2.646834e+002, 5.144310e+001
2.651655e+002, 5.147723e+001
2.656476e+002, 5.045782e+001
2.661298e+002, 4.979214e+001
2.666119e+002, 4.977736e+001
2.670940e+002, 4.997572e+001
2.675761e+002, 4.991825e+001
2.680582e+002, 4.952509e+001
2.685403e+002, 4.917565e+001
2.690225e+002, 4.938389e+001
2.695046e+002, 5.036045e+001
2.699867e+002, 5.088993e+001
2.704688e+002, 5.076860e+001
2.709509e+002, 5.029884e+001
2.714330e+002, 4.957196e+001
2.719152e+002, 4.863722e+001
2.723973e+002, 4.786683e+001
2.728794e+002, 4.767800e+001
2.733615e+002, 4.812791e+001
2.738436e+002, 4.841274e+001
2.743257e+002, 4.841651e+001
2.748079e+002, 4.832507e+001
2.752900e+002, 4.828680e+001
2.757721e+002, 4.830592e+001
2.762542e+002, 4.829279e+001
2.767363e+002, 4.816906e+001
2.772184e+002, 4.794387e+001
2.777006e+002, 4.774593e+001
2.781827e+002, 4.759858e+001
2.786648e+002, 4.746130e+001
2.791469e+002, 4.732385e+001
2.796290e+002, 4.718122e+001
2.801111e+002, 4.697454e+001
2.805933e+002, 4.657626e+001
2.810754e+002, 4.612960e+001
2.815575e+002, 4.606607e+001
2.820396e+002, 4.668987e+001
2.825217e+002, 4.732256e+001
2.830038e+002, 4.755803e+001
2.834860e+002, 4.744072e+001
2.839681e+002, 4.720646e+001
2.844502e+002, 4.695815e+001
2.849323e+002, 4.664661e+001
2.854144e+002, 4.612222e+001
2.858965e+002, 4.517194e+001
2.863787e+002, 4.451710e+001
2.868608e+002, 4.475972e+001
2.873429e+002, 4.567310e+001
2.878250e+002, 4.645484e+001
2.883071e+002, 4.687016e+001
2.887892e+002, 4.699421e+001
2.892714e+002, 4.694035e+001
2.897535e+002, 4.670362e+001
2.902356e+002, 4.639260e+001
2.907177e+002, 4.594243e+001
2.911998e+002, 4.545144e+001
2.916819e+002, 4.520066e+001
2.921641e+002, 4.531038e+001
2.926462e+002, 4.556390e+001
2.931283e+002, 4.580830e+001
2.936104e+002, 4.603621e+001
2.940925e+002, 4.604980e+001
2.945746e+002, 4.554713e+001
2.950568e+002, 4.481364e+001
2.955389e+002, 4.446327e+001
2.960210e+002, 4.465696e+001
2.965031e+002, 4.496493e+001
2.969852e+002, 4.505265e+001
2.974673e+002, 4.496801e+001
2.979495e+002, 4.480085e+001
2.984316e+002, 4.451070e+001
2.989137e+002, 4.418166e+001
2.993958e+002, 4.394607e+001
2.998779e+002, 4.381975e+001
3.003600e+002, 4.372472e+001
3.008422e+002, 4.365469e+001
3.013243e+002, 4.357451e+001
3.018064e+002, 4.340105e+001
3.022885e+002, 4.297168e+001
3.027706e+002, 4.257948e+001
3.032527e+002, 4.268025e+001
3.037349e+002, 4.332123e+001
3.042170e+002, 4.377557e+001
3.046991e+002, 4.353699e+001
3.051812e+002, 4.298402e+001
3.056633e+002, 4.261232e+001
3.061454e+002, 4.248422e+001
3.066276e+002, 4.253719e+001
3.071097e+002, 4.280132e+001
3.075918e+002, 4.326007e+001
3.080739e+002, 4.363861e+001
3.085560e+002, 4.387844e+001
3.090381e+002, 4.395151e+001
3.095203e+002, 4.378160e+001
3.100024e+002, 4.333449e+001
3.104845e+002, 4.297747e+001
3.109666e+002, 4.305015e+001
3.114487e+002, 4.345806e+001
3.119308e+002, 4.373180e+001
3.124130e+002, 4.374593e+001
3.128951e+002, 4.364573e+001
3.133772e+002, 4.358776e+001
3.138593e+002, 4.355772e+001
3.143414e+002, 4.345111e+001
3.148235e+002, 4.315123e+001
3.153057e+002, 4.273877e+001
3.157878e+002, 4.242394e+001
3.162699e+002, 4.224768e+001
3.167520e+002, 4.211590e+001
3.172341e+002, 4.198384e+001
3.177162e+002, 4.184477e+001
3.181984e+002, 4.167461e+001
3.186805e+002, 4.135334e+001
3.191626e+002, 4.104812e+001
3.196447e+002, 4.108266e+001
3.201268e+002, 4.152717e+001
3.206089e+002, 4.195931e+001
3.210911e+002, 4.211468e+001
3.215732e+002, 4.211622e+001
3.220553e+002, 4.213792e+001
3.225374e+002, 4.227417e+001
3.230195e+002, 4.234197e+001
3.235016e+002, 4.202172e+001
3.239838e+002, 4.130608e+001
3.244659e+002, 4.086971e+001
3.249480e+002, 4.112168e+001
3.254301e+002, 4.169396e+001
3.259122e+002, 4.217179e+001
3.263943e+002, 4.255696e+001
3.268765e+002, 4.274290e+001
3.273586e+002, 4.254206e+001
3.278407e+002, 4.202978e+001
3.283228e+002, 4.162749e+001
3.288049e+002, 4.143950e+001
3.292870e+002, 4.138615e+001
3.297692e+002, 4.140414e+001
3.302513e+002, 4.148646e+001
3.307334e+002, 4.155590e+001
3.312155e+002, 4.157023e+001
3.316976e+002, 4.154534e+001
3.321797e+002, 4.150916e+001
3.326619e+002, 4.145265e+001
3.331440e+002, 4.141844e+001
3.336261e+002, 4.149519e+001
3.341082e+002, 4.162713e+001
3.345903e+002, 4.167000e+001
3.350724e+002, 4.148588e+001
3.355546e+002, 4.123662e+001
3.360367e+002, 4.116920e+001
3.365188e+002, 4.130658e+001
3.370009e+002, 4.138934e+001
3.374830e+002, 4.121894e+001
3.379651e+002, 4.090817e+001
3.384473e+002, 4.066224e+001
3.389294e+002, 4.047933e+001
3.394115e+002, 4.040245e+001
3.398936e+002, 4.055111e+001
3.403757e+002, 4.088561e+001
3.408578e+002, 4.108698e+001
3.413400e+002, 4.097238e+001
3.418221e+002, 4.073235e+001
3.423042e+002, 4.065698e+001
3.427863e+002, 4.076003e+001
3.432684e+002, 4.092480e+001
3.437505e+002, 4.112066e+001
3.442327e+002, 4.133515e+001
3.447148e+002, 4.155725e+001
3.451969e+002, 4.180883e+001
3.456790e+002, 4.200195e+001
3.461611e+002, 4.205835e+001
3.466432e+002, 4.199183e+001
3.471254e+002, 4.171798e+001
3.476075e+002, 4.096145e+001
3.480896e+002, 4.010862e+001
3.485717e+002, 3.964891e+001
3.490538e+002, 3.962728e+001
3.495359e+002, 3.983050e+001
3.500181e+002, 4.021732e+001
3.505002e+002, 4.071260e+001
3.509823e+002, 4.099390e+001
3.514644e+002, 4.084410e+001
3.519465e+002, 4.064521e+001
3.524286e+002, 4.070072e+001
3.529108e+002, 4.095194e+001
3.533929e+002, 4.110461e+001
3.538750e+002, 4.098334e+001
3.543571e+002, 4.070758e+001
3.548392e+002, 4.057946e+001
3.553214e+002, 4.064220e+001
3.558035e+002, 4.072662e+001
3.562856e+002, 4.078854e+001
3.567677e+002, 4.082888e+001
3.572498e+002, 4.085817e+001
3.577319e+002, 4.088416e+001
3.582141e+002, 4.087064e+001
3.586962e+002, 4.073137e+001
3.591783e+002, 4.042528e+001
3.596604e+002, 4.025637e+001
3.601425e+002, 4.032862e+001
3.606246e+002, 4.050949e+001
3.611068e+002, 4.072289e+001
3.615889e+002, 4.094830e+001
3.620710e+002, 4.108841e+001
3.625531e+002, 4.102492e+001
3.630352e+002, 4.076686e+001
3.635173e+002, 4.071083e+001
3.639995e+002, 4.103866e+001
3.644816e+002, 4.136773e+001
3.649637e+002, 4.156802e+001
3.654458e+002, 4.162701e+001
3.659279e+002, 4.151284e+001
3.664100e+002, 4.119018e+001
3.668922e+002, 4.072735e+001
3.673743e+002, 4.035068e+001
3.678564e+002, 4.011325e+001
3.683385e+002, 3.987884e+001
3.688206e+002, 3.952057e+001
3.693027e+002, 3.920263e+001
3.697849e+002, 3.916547e+001
3.702670e+002, 3.946506e+001
3.707491e+002, 3.989076e+001
3.712312e+002, 4.015467e+001
3.717133e+002, 4.019807e+001
3.721954e+002, 4.023425e+001
3.726776e+002, 4.025853e+001
3.731597e+002, 4.028001e+001
3.736418e+002, 4.034217e+001
3.741239e+002, 4.041792e+001
3.746060e+002, 4.039721e+001
3.750881e+002, 4.016554e+001
3.755703e+002, 3.973633e+001
3.760524e+002, 3.954549e+001
3.765345e+002, 3.981633e+001
3.770166e+002, 4.006261e+001
3.774987e+002, 4.011538e+001
3.779808e+002, 4.009241e+001
3.784630e+002, 4.020808e+001
3.789451e+002, 4.056276e+001
3.794272e+002, 4.101076e+001
3.799093e+002, 4.119806e+001
3.803914e+002, 4.094572e+001
3.808735e+002, 4.071609e+001
3.813557e+002, 4.048122e+001
3.818378e+002, 4.030352e+001
3.823199e+002, 4.025675e+001
3.828020e+002, 4.033371e+001
3.832841e+002, 4.044170e+001
3.837662e+002, 4.048475e+001
3.842484e+002, 4.046161e+001
3.847305e+002, 4.038120e+001
3.852126e+002, 4.012209e+001
3.856947e+002, 3.992176e+001
3.861768e+002, 3.988958e+001
3.866589e+002, 3.997293e+001
3.871411e+002, 4.007620e+001
3.876232e+002, 4.016154e+001
3.881053e+002, 4.019483e+001
3.885874e+002, 4.000928e+001
3.890695e+002, 3.935430e+001
3.895516e+002, 3.896593e+001
3.900338e+002, 3.909963e+001
3.905159e+002, 3.948431e+001
3.909980e+002, 3.999646e+001
3.914801e+002, 4.059253e+001
3.919622e+002, 4.097900e+001
3.924443e+002, 4.063923e+001
3.929265e+002, 3.946346e+001
3.934086e+002, 3.863673e+001
3.938907e+002, 3.851093e+001
3.943728e+002, 3.859809e+001
3.948549e+002, 3.865057e+001
3.953370e+002, 3.866999e+001
3.958192e+002, 3.872235e+001
3.963013e+002, 3.882177e+001
3.967834e+002, 3.898747e+001
3.972655e+002, 3.933479e+001
3.977476e+002, 3.998299e+001
3.982297e+002, 4.049963e+001
3.987119e+002, 4.060608e+001
3.991940e+002, 4.046236e+001
3.996761e+002, 4.020120e+001
4.001582e+002, 3.975718e+001
4.006403e+002, 3.942472e+001
4.011224e+002, 3.966325e+001
4.016046e+002, 4.042660e+001
4.020867e+002, 4.087942e+001
4.025688e+002, 4.066390e+001
4.030509e+002, 4.014062e+001
4.035330e+002, 3.968548e+001
4.040151e+002, 3.929108e+001
4.044973e+002, 3.909872e+001
4.049794e+002, 3.934309e+001
4.054615e+002, 3.978114e+001
4.059436e+002, 3.997330e+001
4.064257e+002, 3.985015e+001
4.069078e+002, 3.963057e+001
4.073900e+002, 3.946080e+001
4.078721e+002, 3.934053e+001
4.083542e+002, 3.925104e+001
4.088363e+002, 3.912825e+001
4.093184e+002, 3.909330e+001
4.098005e+002, 3.935689e+001
4.102827e+002, 3.980393e+001
4.107648e+002, 3.999598e+001
4.112469e+002, 3.968690e+001
4.117290e+002, 3.912116e+001
4.122111e+002, 3.887003e+001
4.126932e+002, 3.905813e+001
4.131754e+002, 3.919302e+001
4.136575e+002, 3.914772e+001
4.141396e+002, 3.903203e+001
4.146217e+002, 3.895328e+001
4.151038e+002, 3.893164e+001
4.155859e+002, 3.893911e+001
4.160681e+002, 3.895173e+001
4.165502e+002, 3.897091e+001
4.170323e+002, 3.897630e+001
4.175144e+002, 3.894252e+001
4.179965e+002, 3.892324e+001
4.184786e+002, 3.893674e+001
4.189608e+002, 3.898101e+001
4.194429e+002, 3.905361e+001
4.199250e+002, 3.915441e+001
4.204071e+002, 3.927307e+001
4.208892e+002, 3.938373e+001
4.213713e+002, 3.952039e+001
4.218535e+002, 3.959109e+001
4.223356e+002, 3.968465e+001
4.228177e+002, 3.965640e+001
4.232998e+002, 3.924652e+001
4.237819e+002, 3.851297e+001
4.242640e+002, 3.790408e+001
4.247462e+002, 3.796648e+001
4.252283e+002, 3.877406e+001
4.257104e+002, 3.914685e+001
4.261925e+002, 3.853429e+001
4.266746e+002, 3.806809e+001
4.271567e+002, 3.818493e+001
4.276389e+002, 3.863196e+001
4.281210e+002, 3.901783e+001
4.286031e+002, 3.916375e+001
4.290852e+002, 3.912427e+001
4.295673e+002, 3.895468e+001
4.300494e+002, 3.857217e+001
4.305316e+002, 3.835671e+001
4.310137e+002, 3.856031e+001
4.314958e+002, 3.885561e+001
4.319779e+002, 3.915240e+001
4.324600e+002, 3.940242e+001
4.329421e+002, 3.936961e+001
4.334243e+002, 3.853199e+001
4.339064e+002, 3.718896e+001
4.343885e+002, 3.673369e+001
4.348706e+002, 3.752999e+001
4.353527e+002, 3.851482e+001
4.358348e+002, 3.913102e+001
4.363170e+002, 3.945606e+001
4.367991e+002, 3.955592e+001
4.372812e+002, 3.930075e+001
4.377633e+002, 3.902820e+001
4.382454e+002, 3.911286e+001
4.387275e+002, 3.949915e+001
4.392097e+002, 3.980024e+001
4.396918e+002, 3.987902e+001
4.401739e+002, 3.982008e+001
4.406560e+002, 3.975096e+001
4.411381e+002, 3.968235e+001
4.416202e+002, 3.953100e+001
4.421024e+002, 3.919234e+001
4.425845e+002, 3.880373e+001
4.430666e+002, 3.851787e+001
4.435487e+002, 3.834827e+001
4.440308e+002, 3.823485e+001
4.445129e+002, 3.811591e+001
4.449951e+002, 3.801226e+001
4.454772e+002, 3.809858e+001
4.459593e+002, 3.869316e+001
4.464414e+002, 3.908083e+001
4.469235e+002, 3.890671e+001
4.474056e+002, 3.842944e+001
4.478878e+002, 3.799861e+001
4.483699e+002, 3.773767e+001
4.488520e+002, 3.763833e+001
4.493341e+002, 3.769954e+001
4.498162e+002, 3.798246e+001
4.502983e+002, 3.826219e+001
4.507805e+002, 3.858423e+001
4.512626e+002, 3.886193e+001
4.517447e+002, 3.907672e+001
4.522268e+002, 3.921038e+001
4.527089e+002, 3.919588e+001
4.531910e+002, 3.895338e+001
4.536732e+002, 3.859763e+001
4.541553e+002, 3.867014e+001
4.546374e+002, 3.968443e+001
4.551195e+002, 4.023584e+001
4.556016e+002, 3.986717e+001
4.560837e+002, 3.916264e+001
4.565659e+002, 3.850519e+001
4.570480e+002, 3.800268e+001
4.575301e+002, 3.773565e+001
4.580122e+002, 3.792834e+001
4.584943e+002, 3.856668e+001
4.589764e+002, 3.883825e+001
4.594586e+002, 3.846591e+001
4.599407e+002, 3.809959e+001
4.604228e+002, 3.815953e+001
4.609049e+002, 3.844402e+001
4.613870e+002, 3.858223e+001
4.618691e+002, 3.838931e+001
4.623513e+002, 3.809080e+001
4.628334e+002, 3.800066e+001
4.633155e+002, 3.810683e+001
4.637976e+002, 3.807914e+001
4.642797e+002, 3.775423e+001
4.647618e+002, 3.732350e+001
4.652440e+002, 3.699143e+001
4.657261e+002, 3.674996e+001
4.662082e+002, 3.666245e+001
4.666903e+002, 3.689048e+001
4.671724e+002, 3.720806e+001
4.676545e+002, 3.737471e+001
4.681367e+002, 3.736665e+001
4.686188e+002, 3.715468e+001
4.691009e+002, 3.662421e+001
4.695830e+002, 3.590026e+001
4.700651e+002, 3.560479e+001
4.705472e+002, 3.613728e+001
4.710294e+002, 3.653203e+001
4.715115e+002, 3.649531e+001
4.719936e+002, 3.620757e+001
4.724757e+002, 3.579264e+001
4.729578e+002, 3.531336e+001
4.734399e+002, 3.500858e+001
4.739221e+002, 3.524098e+001
4.744042e+002, 3.621004e+001
4.748863e+002, 3.653756e+001
4.753684e+002, 3.554328e+001
4.758505e+002, 3.470898e+001
4.763326e+002, 3.474030e+001
4.768148e+002, 3.527547e+001
4.772969e+002, 3.565591e+001
4.777790e+002, 3.555868e+001
4.782611e+002, 3.518697e+001
4.787432e+002, 3.496715e+001
4.792253e+002, 3.495567e+001
4.797075e+002, 3.493941e+001
4.801896e+002, 3.506315e+001
4.806717e+002, 3.503675e+001
4.811538e+002, 3.453131e+001
4.816359e+002, 3.367256e+001
4.821180e+002, 3.298908e+001
4.826002e+002, 3.294124e+001
4.830823e+002, 3.329503e+001
4.835644e+002, 3.335358e+001
4.840465e+002, 3.302290e+001
4.845286e+002, 3.274363e+001
4.850107e+002, 3.280927e+001
4.854929e+002, 3.297882e+001
4.859750e+002, 3.293695e+001
4.864571e+002, 3.260695e+001
4.869392e+002, 3.230450e+001
4.874213e+002, 3.234760e+001
4.879034e+002, 3.253775e+001
4.883856e+002, 3.235614e+001
4.888677e+002, 3.167261e+001
4.893498e+002, 3.100475e+001
4.898319e+002, 3.087748e+001
4.903140e+002, 3.122904e+001
4.907961e+002, 3.120301e+001
4.912783e+002, 3.025782e+001
4.917604e+002, 2.951071e+001
4.922425e+002, 2.967400e+001
4.927246e+002, 3.035380e+001
4.932067e+002, 3.081381e+001
4.936888e+002, 3.079472e+001
4.941710e+002, 3.051979e+001
4.946531e+002, 3.032434e+001
4.951352e+002, 3.024375e+001
4.956173e+002, 3.013325e+001
4.960994e+002, 2.998008e+001
4.965815e+002, 2.981422e+001
4.970637e+002, 2.964411e+001
4.975458e+002, 2.947364e+001
4.980279e+002, 2.930855e+001
4.985100e+002, 2.915252e+001
4.989921e+002, 2.900016e+001
4.994742e+002, 2.882168e+001
4.999564e+002, 2.857116e+001
5.004385e+002, 2.841420e+001
5.009206e+002, 2.860669e+001
5.014027e+002, 2.871392e+001
5.018848e+002, 2.832095e+001
5.023669e+002, 2.752061e+001
5.028491e+002, 2.688160e+001
5.033312e+002, 2.691512e+001
5.038133e+002, 2.736403e+001
5.042954e+002, 2.753301e+001
5.047775e+002, 2.738383e+001
5.052596e+002, 2.712018e+001
5.057418e+002, 2.666293e+001
5.062239e+002, 2.624589e+001
5.067060e+002, 2.625753e+001
5.071881e+002, 2.684029e+001
5.076702e+002, 2.733130e+001
5.081523e+002, 2.735988e+001
5.086345e+002, 2.709501e+001
5.091166e+002, 2.674961e+001
5.095987e+002, 2.635385e+001
5.100808e+002, 2.607196e+001
5.105629e+002, 2.605463e+001
5.110450e+002, 2.628403e+001
5.115272e+002, 2.651290e+001
5.120093e+002, 2.680707e+001
5.124914e+002, 2.702472e+001
5.129735e+002, 2.718702e+001
5.134556e+002, 2.722512e+001
5.139377e+002, 2.696630e+001
5.144199e+002, 2.639780e+001
5.149020e+002, 2.580555e+001
5.153841e+002, 2.557170e+001
5.158662e+002, 2.576103e+001
5.163483e+002, 2.586406e+001
5.168304e+002, 2.575643e+001
5.173126e+002, 2.569330e+001
5.177947e+002, 2.589115e+001
5.182768e+002, 2.613385e+001
5.187589e+002, 2.603553e+001
5.192410e+002, 2.542480e+001
5.197231e+002, 2.471695e+001
5.202053e+002, 2.456332e+001
5.206874e+002, 2.500952e+001
5.211695e+002, 2.536021e+001
5.216516e+002, 2.556858e+001
5.221337e+002, 2.559682e+001
5.226158e+002, 2.534301e+001
5.230980e+002, 2.490235e+001
5.235801e+002, 2.454549e+001
5.240622e+002, 2.435767e+001
5.245443e+002, 2.430515e+001
5.250264e+002, 2.440223e+001
5.255085e+002, 2.462507e+001
5.259907e+002, 2.485204e+001
5.264728e+002, 2.507889e+001
5.269549e+002, 2.520780e+001
5.274370e+002, 2.502441e+001
5.279191e+002, 2.444598e+001
5.284012e+002, 2.409433e+001
5.288834e+002, 2.416247e+001
5.293655e+002, 2.436312e+001
5.298476e+002, 2.455141e+001
5.303297e+002, 2.470458e+001
5.308118e+002, 2.482533e+001
5.312939e+002, 2.492078e+001
5.317761e+002, 2.494933e+001
5.322582e+002, 2.478440e+001
5.327403e+002, 2.420601e+001
5.332224e+002, 2.384328e+001
5.337045e+002, 2.381662e+001
5.341866e+002, 2.388208e+001
5.346688e+002, 2.392393e+001
5.351509e+002, 2.392908e+001
5.356330e+002, 2.391433e+001
5.361151e+002, 2.388285e+001
5.365972e+002, 2.384918e+001
5.370793e+002, 2.384424e+001
5.375615e+002, 2.385941e+001
5.380436e+002, 2.394346e+001
5.385257e+002, 2.421568e+001
5.390078e+002, 2.447934e+001
5.394899e+002, 2.455573e+001
5.399720e+002, 2.444590e+001
5.404542e+002, 2.428478e+001
5.409363e+002, 2.404979e+001
5.414184e+002, 2.384606e+001
5.419005e+002, 2.386411e+001
5.423826e+002, 2.409855e+001
5.428647e+002, 2.433323e+001
5.433469e+002, 2.445742e+001
5.438290e+002, 2.450969e+001
5.443111e+002, 2.461077e+001
5.447932e+002, 2.488712e+001
5.452753e+002, 2.491746e+001
5.457574e+002, 2.429238e+001
5.462396e+002, 2.364693e+001
5.467217e+002, 2.357772e+001
5.472038e+002, 2.404721e+001
5.476859e+002, 2.466116e+001
5.481680e+002, 2.517302e+001
5.486501e+002, 2.555200e+001
5.491323e+002, 2.562776e+001
5.496144e+002, 2.506845e+001
5.500965e+002, 2.478640e+001
5.505786e+002, 2.509327e+001
5.510607e+002, 2.551118e+001
5.515428e+002, 2.570839e+001
5.520250e+002, 2.566578e+001
5.525071e+002, 2.554712e+001
5.529892e+002, 2.547406e+001
5.534713e+002, 2.541230e+001
5.539534e+002, 2.521520e+001
5.544355e+002, 2.482980e+001
5.549177e+002, 2.458279e+001
5.553998e+002, 2.464667e+001
5.558819e+002, 2.489285e+001
5.563640e+002, 2.517411e+001
5.568461e+002, 2.550745e+001
5.573282e+002, 2.571832e+001
5.578104e+002, 2.573946e+001
5.582925e+002, 2.560356e+001
5.587746e+002, 2.531607e+001
5.592567e+002, 2.489181e+001
5.597388e+002, 2.439100e+001
5.602209e+002, 2.380368e+001
5.607031e+002, 2.323174e+001
5.611852e+002, 2.299925e+001
5.616673e+002, 2.345997e+001
5.621494e+002, 2.376998e+001
5.626315e+002, 2.397165e+001
5.631136e+002, 2.397806e+001
5.635958e+002, 2.355807e+001
5.640779e+002, 2.285094e+001
5.645600e+002, 2.233953e+001
5.650421e+002, 2.240850e+001
5.655242e+002, 2.284403e+001
5.660063e+002, 2.285832e+001
5.664885e+002, 2.219577e+001
5.669706e+002, 2.185990e+001
5.674527e+002, 2.250911e+001
5.679348e+002, 2.325177e+001
5.684169e+002, 2.343085e+001
5.688990e+002, 2.307799e+001
5.693812e+002, 2.270808e+001
5.698633e+002, 2.261625e+001
5.703454e+002, 2.265055e+001
5.708275e+002, 2.256761e+001
5.713096e+002, 2.237912e+001
5.717917e+002, 2.228608e+001
5.722739e+002, 2.239825e+001
5.727560e+002, 2.261052e+001
5.732381e+002, 2.275572e+001
5.737202e+002, 2.285958e+001
5.742023e+002, 2.280896e+001
5.746844e+002, 2.236972e+001
5.751666e+002, 2.196654e+001
5.756487e+002, 2.200403e+001
5.761308e+002, 2.232355e+001
5.766129e+002, 2.245472e+001
5.770950e+002, 2.214438e+001
5.775771e+002, 2.160312e+001
5.780593e+002, 2.129577e+001
5.785414e+002, 2.129453e+001
5.790235e+002, 2.133085e+001
5.795056e+002, 2.135047e+001
5.799877e+002, 2.144755e+001
5.804698e+002, 2.176501e+001
5.809520e+002, 2.218916e+001
5.814341e+002, 2.246597e+001
5.819162e+002, 2.246393e+001
5.823983e+002, 2.230304e+001
5.828804e+002, 2.207153e+001
5.833625e+002, 2.178781e+001
5.838447e+002, 2.169277e+001
5.843268e+002, 2.191568e+001
5.848089e+002, 2.217283e+001
5.852910e+002, 2.213073e+001
5.857731e+002, 2.182474e+001
5.862552e+002, 2.162528e+001
5.867374e+002, 2.163248e+001
5.872195e+002, 2.168218e+001
5.877016e+002, 2.171281e+001
5.881837e+002, 2.172242e+001
5.886658e+002, 2.168769e+001
5.891479e+002, 2.160770e+001
5.896301e+002, 2.156853e+001
5.901122e+002, 2.170428e+001
5.905943e+002, 2.205401e+001
5.910764e+002, 2.219817e+001
5.915585e+002, 2.197225e+001
5.920406e+002, 2.172320e+001
5.925228e+002, 2.143420e+001
5.930049e+002, 2.121222e+001
5.934870e+002, 2.122833e+001
5.939691e+002, 2.151783e+001
5.944512e+002, 2.182471e+001
5.949333e+002, 2.186374e+001
5.954155e+002, 2.170774e+001
5.958976e+002, 2.169933e+001
5.963797e+002, 2.189557e+001
5.968618e+002, 2.206481e+001
5.973439e+002, 2.204936e+001
5.978260e+002, 2.192166e+001
5.983082e+002, 2.186984e+001
5.987903e+002, 2.192931e+001
5.992724e+002, 2.197509e+001
5.997545e+002, 2.186444e+001
6.002366e+002, 2.178356e+001
6.007188e+002, 2.207941e+001
6.012009e+002, 2.267048e+001
6.016830e+002, 2.298568e+001
6.021651e+002, 2.259770e+001
6.026472e+002, 2.174572e+001
6.031293e+002, 2.132936e+001
6.036115e+002, 2.163027e+001
6.040936e+002, 2.185732e+001
6.045757e+002, 2.194208e+001
6.050578e+002, 2.195836e+001
6.055399e+002, 2.193405e+001
6.060220e+002, 2.187949e+001
6.065042e+002, 2.180139e+001
6.069863e+002, 2.168301e+001
6.074684e+002, 2.157471e+001
6.079505e+002, 2.155310e+001
6.084326e+002, 2.161789e+001
6.089147e+002, 2.175487e+001
6.093969e+002, 2.197327e+001
6.098790e+002, 2.224136e+001
6.103611e+002, 2.260667e+001
6.108432e+002, 2.304784e+001
6.113253e+002, 2.320830e+001
6.118074e+002, 2.285081e+001
6.122896e+002, 2.241266e+001
6.127717e+002, 2.203884e+001
6.132538e+002, 2.176410e+001
6.137359e+002, 2.167768e+001
6.142180e+002, 2.179176e+001
6.147001e+002, 2.193787e+001
6.151823e+002, 2.189845e+001
6.156644e+002, 2.165722e+001
6.161465e+002, 2.157724e+001
6.166286e+002, 2.184657e+001
6.171107e+002, 2.201761e+001
6.175928e+002, 2.181991e+001
6.180750e+002, 2.156329e+001
6.185571e+002, 2.168109e+001
6.190392e+002, 2.222792e+001
6.195213e+002, 2.259673e+001
6.200034e+002, 2.206626e+001
6.204855e+002, 2.109418e+001
6.209677e+002, 2.079414e+001
6.214498e+002, 2.123375e+001
6.219319e+002, 2.165452e+001
6.224140e+002, 2.169216e+001
6.228961e+002, 2.147573e+001
6.233782e+002, 2.122104e+001
6.238604e+002, 2.081087e+001
6.243425e+002, 2.072808e+001
6.248246e+002, 2.142397e+001
6.253067e+002, 2.211261e+001
6.257888e+002, 2.218093e+001
6.262709e+002, 2.180544e+001
6.267531e+002, 2.154419e+001
6.272352e+002, 2.167729e+001
6.277173e+002, 2.190556e+001
6.281994e+002, 2.155230e+001
6.286815e+002, 2.039576e+001
6.291636e+002, 1.991747e+001
6.296458e+002, 2.073104e+001
6.301279e+002, 2.154917e+001
6.306100e+002, 2.168878e+001
6.310921e+002, 2.140866e+001
6.315742e+002, 2.114062e+001
6.320563e+002, 2.096402e+001
6.325385e+002, 2.089847e+001
6.330206e+002, 2.099629e+001
6.335027e+002, 2.120525e+001
6.339848e+002, 2.146905e+001
6.344669e+002, 2.177358e+001
6.349490e+002, 2.196122e+001
6.354312e+002, 2.189103e+001
6.359133e+002, 2.162872e+001
6.363954e+002, 2.148489e+001
6.368775e+002, 2.143435e+001
6.373596e+002, 2.155079e+001
6.378417e+002, 2.212120e+001
6.383239e+002, 2.262735e+001
6.388060e+002, 2.261674e+001
6.392881e+002, 2.219288e+001
6.397702e+002, 2.178300e+001
6.402523e+002, 2.164006e+001
6.407344e+002, 2.166014e+001
6.412166e+002, 2.163507e+001
6.416987e+002, 2.155833e+001
6.421808e+002, 2.161247e+001
6.426629e+002, 2.194553e+001
6.431450e+002, 2.223522e+001
6.436271e+002, 2.204083e+001
6.441093e+002, 2.152834e+001
6.445914e+002, 2.133023e+001
6.450735e+002, 2.181550e+001
6.455556e+002, 2.230792e+001
6.460377e+002, 2.257385e+001
6.465198e+002, 2.262121e+001
6.470020e+002, 2.231121e+001
6.474841e+002, 2.169586e+001
6.479662e+002, 2.127021e+001
6.484483e+002, 2.154356e+001
6.489304e+002, 2.236332e+001
6.494125e+002, 2.260504e+001
6.498947e+002, 2.182744e+001
6.503768e+002, 2.129799e+001
6.508589e+002, 2.129498e+001
6.513410e+002, 2.155358e+001
6.518231e+002, 2.206122e+001
6.523052e+002, 2.271072e+001
6.527874e+002, 2.311124e+001
6.532695e+002, 2.292234e+001
6.537516e+002, 2.252672e+001
6.542337e+002, 2.238895e+001
6.547158e+002, 2.246094e+001
6.551979e+002, 2.253616e+001
6.556801e+002, 2.256455e+001
6.561622e+002, 2.252513e+001
6.566443e+002, 2.236717e+001
6.571264e+002, 2.207764e+001
6.576085e+002, 2.193531e+001
6.580906e+002, 2.205901e+001
6.585728e+002, 2.215949e+001
6.590549e+002, 2.212721e+001
6.595370e+002, 2.206310e+001
6.600191e+002, 2.211884e+001
6.605012e+002, 2.228555e+001
6.609833e+002, 2.237097e+001
6.614655e+002, 2.219672e+001
6.619476e+002, 2.183379e+001
6.624297e+002, 2.141989e+001
6.629118e+002, 2.090244e+001
6.633939e+002, 2.079016e+001
6.638760e+002, 2.146066e+001
6.643582e+002, 2.233762e+001
6.648403e+002, 2.271043e+001
6.653224e+002, 2.262277e+001
6.658045e+002, 2.254800e+001
6.662866e+002, 2.261708e+001
6.667687e+002, 2.265835e+001
6.672509e+002, 2.253108e+001
6.677330e+002, 2.232697e+001
6.682151e+002, 2.218930e+001
6.686972e+002, 2.215844e+001
6.691793e+002, 2.220964e+001
6.696614e+002, 2.234766e+001
6.701436e+002, 2.255416e+001
6.706257e+002, 2.254826e+001
6.711078e+002, 2.219377e+001
6.715899e+002, 2.190869e+001
6.720720e+002, 2.182798e+001
6.725541e+002, 2.184757e+001
6.730363e+002, 2.191610e+001
6.735184e+002, 2.202164e+001
6.740005e+002, 2.210981e+001
6.744826e+002, 2.213389e+001
6.749647e+002, 2.214965e+001
6.754468e+002, 2.224705e+001
6.759290e+002, 2.238409e+001
6.764111e+002, 2.242621e+001
6.768932e+002, 2.233086e+001
6.773753e+002, 2.215871e+001
6.778574e+002, 2.194781e+001
6.783395e+002, 2.168606e+001
6.788217e+002, 2.170385e+001
6.793038e+002, 2.234760e+001
6.797859e+002, 2.283213e+001
6.802680e+002, 2.303023e+001
6.807501e+002, 2.301036e+001
6.812322e+002, 2.272921e+001
6.817144e+002, 2.225029e+001
6.821965e+002, 2.187614e+001
6.826786e+002, 2.183392e+001
6.831607e+002, 2.199892e+001
6.836428e+002, 2.229009e+001
6.841249e+002, 2.266303e+001
6.846071e+002, 2.263991e+001
6.850892e+002, 2.197366e+001
6.855713e+002, 2.124932e+001
6.860534e+002, 2.115797e+001
6.865355e+002, 2.174459e+001
6.870176e+002, 2.220928e+001
6.874998e+002, 2.261233e+001
6.879819e+002, 2.283039e+001
6.884640e+002, 2.275389e+001
6.889461e+002, 2.252716e+001
6.894282e+002, 2.222812e+001
6.899103e+002, 2.191174e+001
6.903925e+002, 2.170473e+001
6.908746e+002, 2.174682e+001
6.913567e+002, 2.192339e+001
6.918388e+002, 2.190613e+001
6.923209e+002, 2.168014e+001
6.928030e+002, 2.170672e+001
6.932852e+002, 2.228821e+001
6.937673e+002, 2.281550e+001
6.942494e+002, 2.251320e+001
6.947315e+002, 2.145441e+001
6.952136e+002, 2.084450e+001
6.956957e+002, 2.097540e+001
6.961779e+002, 2.125761e+001
6.966600e+002, 2.158158e+001
6.971421e+002, 2.189679e+001
6.976242e+002, 2.222493e+001
6.981063e+002, 2.251494e+001
6.985884e+002, 2.254746e+001
6.990706e+002, 2.208907e+001
6.995527e+002, 2.136960e+001
7.000348e+002, 2.105083e+001
7.005169e+002, 2.117587e+001
7.009990e+002, 2.145919e+001
7.014811e+002, 2.197579e+001
7.019633e+002, 2.245443e+001
7.024454e+002, 2.266637e+001
7.029275e+002, 2.265348e+001
7.034096e+002, 2.252552e+001
7.038917e+002, 2.213786e+001
7.043738e+002, 2.185598e+001
7.048560e+002, 2.185822e+001
7.053381e+002, 2.203188e+001
7.058202e+002, 2.232784e+001
7.063023e+002, 2.267926e+001
7.067844e+002, 2.287381e+001
7.072665e+002, 2.274203e+001
7.077487e+002, 2.243964e+001
7.082308e+002, 2.244135e+001
7.087129e+002, 2.285792e+001
7.091950e+002, 2.304621e+001
7.096771e+002, 2.277958e+001
7.101592e+002, 2.247056e+001
7.106414e+002, 2.241375e+001
7.111235e+002, 2.250244e+001
7.116056e+002, 2.248601e+001
7.120877e+002, 2.221197e+001
7.125698e+002, 2.209415e+001
7.130519e+002, 2.249548e+001
7.135341e+002, 2.306383e+001
7.140162e+002, 2.344324e+001
7.144983e+002, 2.358342e+001
7.149804e+002, 2.346398e+001
7.154625e+002, 2.304981e+001
7.159446e+002, 2.253475e+001
7.164268e+002, 2.237588e+001
7.169089e+002, 2.270170e+001
7.173910e+002, 2.278882e+001
7.178731e+002, 2.239975e+001
7.183552e+002, 2.206954e+001
7.188373e+002, 2.203655e+001
7.193195e+002, 2.221487e+001
7.198016e+002, 2.256710e+001
7.202837e+002, 2.316246e+001
7.207658e+002, 2.349085e+001
7.212479e+002, 2.299132e+001
7.217300e+002, 2.232804e+001
7.222122e+002, 2.231280e+001
7.226943e+002, 2.280534e+001
7.231764e+002, 2.315910e+001
7.236585e+002, 2.309177e+001
7.241406e+002, 2.281705e+001
7.246227e+002, 2.265172e+001
7.251049e+002, 2.260523e+001
7.255870e+002, 2.256871e+001
7.260691e+002, 2.253574e+001
7.265512e+002, 2.252390e+001
7.270333e+002, 2.249615e+001
7.275154e+002, 2.251772e+001
7.279976e+002, 2.272133e+001
7.284797e+002, 2.310708e+001
7.289618e+002, 2.334762e+001
7.294439e+002, 2.318975e+001
7.299260e+002, 2.292636e+001
7.304081e+002, 2.279719e+001
7.308903e+002, 2.277659e+001
7.313724e+002, 2.278470e+001
7.318545e+002, 2.279862e+001
7.323366e+002, 2.284611e+001
7.328187e+002, 2.295432e+001
7.333008e+002, 2.312359e+001
7.337830e+002, 2.340200e+001
7.342651e+002, 2.400915e+001
7.347472e+002, 2.424737e+001
7.352293e+002, 2.349222e+001
7.357114e+002, 2.270113e+001
7.361935e+002, 2.263461e+001
7.366757e+002, 2.315966e+001
7.371578e+002, 2.357518e+001
7.376399e+002, 2.360528e+001
7.381220e+002, 2.354782e+001
7.386041e+002, 2.373329e+001
7.390862e+002, 2.390702e+001
7.395684e+002, 2.348645e+001
7.400505e+002, 2.250461e+001
7.405326e+002, 2.172327e+001
7.410147e+002, 2.171466e+001
7.414968e+002, 2.224879e+001
7.419789e+002, 2.264001e+001
7.424611e+002, 2.285887e+001
7.429432e+002, 2.304614e+001
7.434253e+002, 2.327114e+001
7.439074e+002, 2.338971e+001
7.443895e+002, 2.321423e+001
7.448716e+002, 2.290969e+001
7.453538e+002, 2.278666e+001
7.458359e+002, 2.292446e+001
7.463180e+002, 2.314110e+001
7.468001e+002, 2.347313e+001
7.472822e+002, 2.375734e+001
7.477643e+002, 2.379903e+001
7.482465e+002, 2.363617e+001
7.487286e+002, 2.339999e+001
7.492107e+002, 2.315045e+001
7.496928e+002, 2.295462e+001
7.501749e+002, 2.294968e+001
7.506570e+002, 2.315112e+001
7.511392e+002, 2.319087e+001
7.516213e+002, 2.296001e+001
7.521034e+002, 2.282052e+001
7.525855e+002, 2.298107e+001
7.530676e+002, 2.326225e+001
7.535497e+002, 2.347528e+001
7.540319e+002, 2.361827e+001
7.545140e+002, 2.363939e+001
7.549961e+002, 2.336666e+001
7.554782e+002, 2.313483e+001
7.559603e+002, 2.328431e+001
7.564424e+002, 2.355095e+001
7.569246e+002, 2.339313e+001
7.574067e+002, 2.278376e+001
7.578888e+002, 2.237273e+001
7.583709e+002, 2.280390e+001
7.588530e+002, 2.376409e+001
7.593351e+002, 2.414524e+001
7.598173e+002, 2.387269e+001
7.602994e+002, 2.366098e+001
7.607815e+002, 2.369026e+001
7.612636e+002, 2.376046e+001
7.617457e+002, 2.371977e+001
7.622278e+002, 2.357746e+001
7.627100e+002, 2.338454e+001
7.631921e+002, 2.297766e+001
7.636742e+002, 2.277675e+001
7.641563e+002, 2.311524e+001
7.646384e+002, 2.350440e+001
7.651205e+002, 2.345663e+001
7.656027e+002, 2.311197e+001
7.660848e+002, 2.293878e+001
7.665669e+002, 2.315783e+001
7.670490e+002, 2.355371e+001
7.675311e+002, 2.391800e+001
7.680132e+002, 2.422672e+001
7.684954e+002, 2.432117e+001
7.689775e+002, 2.417403e+001
7.694596e+002, 2.395013e+001
7.699417e+002, 2.368567e+001
7.704238e+002, 2.345123e+001
7.709059e+002, 2.339524e+001
7.713881e+002, 2.360031e+001
7.718702e+002, 2.364707e+001
7.723523e+002, 2.334896e+001
7.728344e+002, 2.311986e+001
7.733165e+002, 2.314413e+001
7.737986e+002, 2.328741e+001
7.742808e+002, 2.339033e+001
7.747629e+002, 2.343509e+001
7.752450e+002, 2.352219e+001
7.757271e+002, 2.377761e+001
7.762092e+002, 2.405552e+001
7.766913e+002, 2.406573e+001
7.771735e+002, 2.389438e+001
7.776556e+002, 2.393941e+001
7.781377e+002, 2.430032e+001
7.786198e+002, 2.468064e+001
7.791019e+002, 2.484067e+001
7.795840e+002, 2.479733e+001
7.800662e+002, 2.461360e+001
7.805483e+002, 2.409157e+001
7.810304e+002, 2.380754e+001
7.815125e+002, 2.397899e+001
7.819946e+002, 2.420695e+001
7.824767e+002, 2.432872e+001
7.829589e+002, 2.436123e+001
7.834410e+002, 2.434400e+001
7.839231e+002, 2.427621e+001
7.844052e+002, 2.421406e+001
7.848873e+002, 2.417746e+001
7.853694e+002, 2.417416e+001
7.858516e+002, 2.424126e+001
7.863337e+002, 2.435295e+001
7.868158e+002, 2.442501e+001
7.872979e+002, 2.442387e+001
7.877800e+002, 2.438029e+001
7.882621e+002, 2.434126e+001
7.887443e+002, 2.430429e+001
7.892264e+002, 2.413640e+001
7.897085e+002, 2.369143e+001
7.901906e+002, 2.354187e+001
7.906727e+002, 2.410796e+001
7.911548e+002, 2.479226e+001
7.916370e+002, 2.496862e+001
7.921191e+002, 2.470524e+001
7.926012e+002, 2.446216e+001
7.930833e+002, 2.425328e+001
7.935654e+002, 2.414054e+001
7.940475e+002, 2.422402e+001
7.945297e+002, 2.436254e+001
7.950118e+002, 2.439245e+001
7.954939e+002, 2.433298e+001
7.959760e+002, 2.432430e+001
7.964581e+002, 2.444950e+001
7.969402e+002, 2.462181e+001
7.974224e+002, 2.473930e+001
7.979045e+002, 2.479524e+001
7.983866e+002, 2.467273e+001
7.988687e+002, 2.432208e+001
7.993508e+002, 2.418329e+001
7.998329e+002, 2.454340e+001
8.003151e+002, 2.515304e+001
8.007972e+002, 2.557417e+001
8.012793e+002, 2.582301e+001
8.017614e+002, 2.581227e+001
8.022435e+002, 2.521910e+001
8.027256e+002, 2.478737e+001
8.032078e+002, 2.481760e+001
8.036899e+002, 2.506013e+001
8.041720e+002, 2.533490e+001
8.046541e+002, 2.557437e+001
8.051362e+002, 2.563119e+001
8.056183e+002, 2.531215e+001
8.061005e+002, 2.490921e+001
8.065826e+002, 2.472331e+001
8.070647e+002, 2.468727e+001
8.075468e+002, 2.466919e+001
8.080289e+002, 2.463939e+001
8.085110e+002, 2.455225e+001
8.089932e+002, 2.434585e+001
8.094753e+002, 2.415830e+001
8.099574e+002, 2.445889e+001
8.104395e+002, 2.547723e+001
8.109216e+002, 2.590610e+001
8.114037e+002, 2.529022e+001
8.118859e+002, 2.473318e+001
8.123680e+002, 2.500986e+001
8.128501e+002, 2.557130e+001
8.133322e+002, 2.551636e+001
8.138143e+002, 2.467065e+001
8.142964e+002, 2.423373e+001
8.147786e+002, 2.489383e+001
8.152607e+002, 2.559490e+001
8.157428e+002, 2.577200e+001
8.162249e+002, 2.557998e+001
8.167070e+002, 2.512756e+001
8.171891e+002, 2.453651e+001
8.176713e+002, 2.418580e+001
8.181534e+002, 2.444448e+001
8.186355e+002, 2.500174e+001
8.191176e+002, 2.529140e+001
8.195997e+002, 2.532993e+001
8.200818e+002, 2.516897e+001
8.205640e+002, 2.477546e+001
8.210461e+002, 2.458294e+001
8.215282e+002, 2.496129e+001
8.220103e+002, 2.569355e+001
8.224924e+002, 2.612103e+001
8.229745e+002, 2.616803e+001
8.234567e+002, 2.608159e+001
8.239388e+002, 2.567166e+001
8.244209e+002, 2.534651e+001
8.249030e+002, 2.529518e+001
8.253851e+002, 2.538711e+001
8.258672e+002, 2.548555e+001
8.263494e+002, 2.556629e+001
8.268315e+002, 2.556348e+001
8.273136e+002, 2.533107e+001
8.277957e+002, 2.511245e+001
8.282778e+002, 2.523644e+001
8.287599e+002, 2.548235e+001
8.292421e+002, 2.534842e+001
8.297242e+002, 2.480827e+001
8.302063e+002, 2.437304e+001
8.306884e+002, 2.444533e+001
8.311705e+002, 2.484760e+001
8.316526e+002, 2.518421e+001
8.321348e+002, 2.545612e+001
8.326169e+002, 2.556036e+001
8.330990e+002, 2.543317e+001
8.335811e+002, 2.529941e+001
8.340632e+002, 2.527706e+001
8.345453e+002, 2.534561e+001
8.350275e+002, 2.548175e+001
8.355096e+002, 2.575747e+001
8.359917e+002, 2.587460e+001
8.364738e+002, 2.561502e+001
8.369559e+002, 2.545211e+001
8.374380e+002, 2.575339e+001
8.379202e+002, 2.612350e+001
8.384023e+002, 2.604021e+001
8.388844e+002, 2.550605e+001
8.393665e+002, 2.504850e+001
8.398486e+002, 2.497482e+001
8.403307e+002, 2.506990e+001
8.408129e+002, 2.519822e+001
8.412950e+002, 2.530958e+001
8.417771e+002, 2.526710e+001
8.422592e+002, 2.507656e+001
8.427413e+002, 2.489475e+001
8.432234e+002, 2.481767e+001
8.437056e+002, 2.483195e+001
8.441877e+002, 2.492722e+001
8.446698e+002, 2.511052e+001
8.451519e+002, 2.529845e+001
8.456340e+002, 2.553646e+001
8.461161e+002, 2.562349e+001
8.465983e+002, 2.533984e+001
8.470804e+002, 2.498952e+001
8.475625e+002, 2.507815e+001
8.480446e+002, 2.564729e+001
8.485267e+002, 2.592926e+001
8.490089e+002, 2.561749e+001
8.494910e+002, 2.537062e+001
8.499731e+002, 2.543754e+001
8.504552e+002, 2.559637e+001
8.509373e+002, 2.567379e+001
8.514194e+002, 2.565450e+001
8.519016e+002, 2.557690e+001
8.523837e+002, 2.545436e+001
8.528658e+002, 2.528853e+001
8.533479e+002, 2.495325e+001
8.538300e+002, 2.463277e+001
8.543121e+002, 2.475394e+001
8.547943e+002, 2.523953e+001
8.552764e+002, 2.563455e+001
8.557585e+002, 2.574231e+001
8.562406e+002, 2.559655e+001
8.567227e+002, 2.517238e+001
8.572048e+002, 2.451138e+001
8.576870e+002, 2.413464e+001
8.581691e+002, 2.406677e+001
8.586512e+002, 2.423098e+001
8.591333e+002, 2.477446e+001
8.596154e+002, 2.528033e+001
8.600975e+002, 2.534101e+001
8.605797e+002, 2.503424e+001
8.610618e+002, 2.481812e+001
8.615439e+002, 2.467349e+001
8.620260e+002, 2.464831e+001
8.625081e+002, 2.481941e+001
8.629902e+002, 2.503885e+001
8.634724e+002, 2.533763e+001
8.639545e+002, 2.557850e+001
8.644366e+002, 2.550481e+001
8.649187e+002, 2.506359e+001
8.654008e+002, 2.463045e+001
8.658829e+002, 2.452283e+001
8.663651e+002, 2.449671e+001
8.668472e+002, 2.419493e+001
8.673293e+002, 2.376055e+001
8.678114e+002, 2.353393e+001
8.682935e+002, 2.358750e+001
8.687756e+002, 2.382947e+001
8.692578e+002, 2.421550e+001
8.697399e+002, 2.465586e+001
8.702220e+002, 2.492897e+001
8.707041e+002, 2.503004e+001
8.711862e+002, 2.503239e+001
8.716683e+002, 2.492032e+001
8.721505e+002, 2.479722e+001
8.726326e+002, 2.475518e+001
8.731147e+002, 2.468429e+001
8.735968e+002, 2.435051e+001
8.740789e+002, 2.364999e+001
8.745610e+002, 2.325467e+001
8.750432e+002, 2.342478e+001
8.755253e+002, 2.354542e+001
8.760074e+002, 2.334448e+001
8.764895e+002, 2.314662e+001
8.769716e+002, 2.339894e+001
8.774537e+002, 2.392228e+001
8.779359e+002, 2.395643e+001
8.784180e+002, 2.295742e+001
8.789001e+002, 2.214519e+001
8.793822e+002, 2.245067e+001
8.798643e+002, 2.320548e+001
8.803464e+002, 2.384056e+001
8.808286e+002, 2.423004e+001
8.813107e+002, 2.416401e+001
8.817928e+002, 2.360133e+001
8.822749e+002, 2.301142e+001
8.827570e+002, 2.297487e+001
8.832391e+002, 2.327446e+001
8.837213e+002, 2.316672e+001
8.842034e+002, 2.268245e+001
8.846855e+002, 2.235236e+001
8.851676e+002, 2.230973e+001
8.856497e+002, 2.236198e+001
8.861318e+002, 2.236088e+001
8.866140e+002, 2.233520e+001
8.870961e+002, 2.238891e+001
8.875782e+002, 2.256854e+001
8.880603e+002, 2.270963e+001
8.885424e+002, 2.282264e+001
8.890245e+002, 2.288055e+001
8.895067e+002, 2.292687e+001
8.899888e+002, 2.288066e+001
8.904709e+002, 2.255701e+001
8.909530e+002, 2.195570e+001
8.914351e+002, 2.159170e+001
8.919172e+002, 2.178817e+001
8.923994e+002, 2.196811e+001
8.928815e+002, 2.189168e+001
8.933636e+002, 2.169332e+001
8.938457e+002, 2.145306e+001
8.943278e+002, 2.121918e+001
8.948099e+002, 2.107629e+001
8.952921e+002, 2.106931e+001
8.957742e+002, 2.108419e+001
8.962563e+002, 2.102792e+001
8.967384e+002, 2.091452e+001
8.972205e+002, 2.070034e+001
8.977026e+002, 2.044370e+001
8.981848e+002, 2.037887e+001
8.986669e+002, 2.057401e+001
8.991490e+002, 2.089715e+001
8.996311e+002, 2.126751e+001
9.001132e+002, 2.160194e+001
9.005953e+002, 2.147625e+001
9.010775e+002, 2.081934e+001
9.015596e+002, 2.056037e+001
9.020417e+002, 2.093222e+001
9.025238e+002, 2.138166e+001
9.030059e+002, 2.165631e+001
9.034880e+002, 2.171924e+001
9.039702e+002, 2.143900e+001
9.044523e+002, 2.064776e+001
9.049344e+002, 2.019362e+001
9.054165e+002, 2.039980e+001
9.058986e+002, 2.052363e+001
9.063807e+002, 2.025241e+001
9.068629e+002, 1.995018e+001
9.073450e+002, 2.000515e+001
9.078271e+002, 2.032843e+001
9.083092e+002, 2.047954e+001
9.087913e+002, 2.025204e+001
9.092734e+002, 2.003559e+001
9.097556e+002, 1.995671e+001
9.102377e+002, 2.000441e+001
9.107198e+002, 2.026699e+001
9.112019e+002, 2.061951e+001
9.116840e+002, 2.087297e+001
9.121661e+002, 2.095527e+001
9.126483e+002, 2.080006e+001
9.131304e+002, 2.017054e+001
9.136125e+002, 1.943090e+001
9.140946e+002, 1.917394e+001
9.145767e+002, 1.931491e+001
9.150588e+002, 1.970353e+001
9.155410e+002, 2.026440e+001
9.160231e+002, 2.058688e+001
9.165052e+002, 2.039815e+001
9.169873e+002, 1.990094e+001
9.174694e+002, 1.940868e+001
9.179515e+002, 1.890947e+001
9.184337e+002, 1.881507e+001
9.189158e+002, 1.924792e+001
9.193979e+002, 1.949164e+001
9.198800e+002, 1.917766e+001
9.203621e+002, 1.883924e+001
9.208442e+002, 1.909383e+001
9.213264e+002, 1.986986e+001
9.218085e+002, 2.040450e+001
9.222906e+002, 2.076052e+001
9.227727e+002, 2.076806e+001
9.232548e+002, 2.006053e+001
9.237369e+002, 1.941040e+001
9.242191e+002, 1.918169e+001
9.247012e+002, 1.923901e+001
9.251833e+002, 1.945024e+001
9.256654e+002, 1.981411e+001
9.261475e+002, 1.993972e+001
9.266296e+002, 1.942758e+001
9.271118e+002, 1.898228e+001
9.275939e+002, 1.910012e+001
9.280760e+002, 1.937150e+001
9.285581e+002, 1.925656e+001
9.290402e+002, 1.885460e+001
9.295223e+002, 1.870504e+001
9.300045e+002, 1.907898e+001
9.304866e+002, 1.952066e+001
9.309687e+002, 1.953795e+001
9.314508e+002, 1.940603e+001
9.319329e+002, 1.967130e+001
9.324150e+002, 2.016875e+001
9.328972e+002, 2.029162e+001
9.333793e+002, 1.989456e+001
9.338614e+002, 1.931274e+001
9.343435e+002, 1.876721e+001
9.348256e+002, 1.840056e+001
9.353077e+002, 1.869929e+001
9.357899e+002, 1.960420e+001
9.362720e+002, 2.030635e+001
9.367541e+002, 2.072876e+001
9.372362e+002, 2.073475e+001
9.377183e+002, 2.015663e+001
9.382004e+002, 1.945225e+001
9.386826e+002, 1.938309e+001
9.391647e+002, 1.997513e+001
9.396468e+002, 1.988165e+001
9.401289e+002, 1.858652e+001
9.406110e+002, 1.788543e+001
9.410931e+002, 1.847351e+001
9.415753e+002, 1.927558e+001
9.420574e+002, 1.961468e+001
9.425395e+002, 1.958532e+001
9.430216e+002, 1.943426e+001
9.435037e+002, 1.908109e+001
9.439858e+002, 1.885383e+001
9.444680e+002, 1.888366e+001
9.449501e+002, 1.891558e+001
9.454322e+002, 1.882885e+001
9.459143e+002, 1.871602e+001
9.463964e+002, 1.869783e+001
9.468785e+002, 1.875397e+001
9.473607e+002, 1.873547e+001
9.478428e+002, 1.851266e+001
9.483249e+002, 1.838091e+001
9.488070e+002, 1.861194e+001
9.492891e+002, 1.891002e+001
9.497712e+002, 1.896386e+001
9.502534e+002, 1.887424e+001
9.507355e+002, 1.887602e+001
9.512176e+002, 1.902859e+001
9.516997e+002, 1.923545e+001
9.521818e+002, 1.949097e+001
9.526639e+002, 1.967346e+001
9.531461e+002, 1.956782e+001
9.536282e+002, 1.927127e+001
9.541103e+002, 1.893408e+001
9.545924e+002, 1.862243e+001
9.550745e+002, 1.859114e+001
9.555566e+002, 1.897352e+001
9.560388e+002, 1.937247e+001
9.565209e+002, 1.918933e+001
9.570030e+002, 1.855719e+001
9.574851e+002, 1.813790e+001
9.579672e+002, 1.792914e+001
9.584493e+002, 1.785204e+001
9.589315e+002, 1.790341e+001
9.594136e+002, 1.796148e+001
9.598957e+002, 1.793302e+001
9.603778e+002, 1.785518e+001
9.608599e+002, 1.781392e+001
9.613420e+002, 1.779763e+001
9.618242e+002, 1.788687e+001
9.623063e+002, 1.812397e+001
9.627884e+002, 1.837007e+001
9.632705e+002, 1.863877e+001
9.637526e+002, 1.881754e+001
9.642347e+002, 1.872747e+001
9.647169e+002, 1.842438e+001
9.651990e+002, 1.831956e+001
9.656811e+002, 1.864506e+001
9.661632e+002, 1.881342e+001
9.666453e+002, 1.866726e+001
9.671274e+002, 1.854365e+001
9.676096e+002, 1.861280e+001
9.680917e+002, 1.876703e+001
9.685738e+002, 1.890173e+001
9.690559e+002, 1.900049e+001
9.695380e+002, 1.898009e+001
9.700201e+002, 1.869704e+001
9.705023e+002, 1.845654e+001
9.709844e+002, 1.841160e+001
9.714665e+002, 1.841000e+001
9.719486e+002, 1.832229e+001
9.724307e+002, 1.818178e+001
9.729128e+002, 1.806051e+001
9.733950e+002, 1.797927e+001
9.738771e+002, 1.796984e+001
9.743592e+002, 1.806208e+001
9.748413e+002, 1.822326e+001
9.753234e+002, 1.858368e+001
9.758055e+002, 1.890698e+001
9.762877e+002, 1.871057e+001
9.767698e+002, 1.811460e+001
9.772519e+002, 1.773259e+001
9.777340e+002, 1.785599e+001
9.782161e+002, 1.811933e+001
9.786982e+002, 1.819729e+001
9.791804e+002, 1.810852e+001
9.796625e+002, 1.773161e+001
9.801446e+002, 1.721930e+001
9.806267e+002, 1.714725e+001
9.811088e+002, 1.759247e+001
9.815909e+002, 1.806281e+001
9.820731e+002, 1.822018e+001
9.825552e+002, 1.821523e+001
9.830373e+002, 1.835327e+001
9.835194e+002, 1.859308e+001
9.840015e+002, 1.861502e+001
9.844836e+002, 1.841030e+001
9.849658e+002, 1.812216e+001
9.854479e+002, 1.776643e+001
9.859300e+002, 1.764939e+001
9.864121e+002, 1.814139e+001
9.868942e+002, 1.896017e+001
9.873763e+002, 1.897080e+001
9.878585e+002, 1.797642e+001
9.883406e+002, 1.750735e+001
9.888227e+002, 1.777709e+001
9.893048e+002, 1.810708e+001
9.897869e+002, 1.824194e+001
9.902690e+002, 1.828077e+001
9.907512e+002, 1.835563e+001
9.912333e+002, 1.845109e+001
9.917154e+002, 1.835557e+001
9.921975e+002, 1.790391e+001
9.926796e+002, 1.760946e+001
9.931617e+002, 1.752047e+001
9.936439e+002, 1.757696e+001
9.941260e+002, 1.795369e+001
9.946081e+002, 1.834206e+001
9.950902e+002, 1.820350e+001
9.955723e+002, 1.751041e+001
9.960544e+002, 1.713083e+001
9.965366e+002, 1.726705e+001
9.970187e+002, 1.747292e+001
9.975008e+002, 1.777801e+001
9.979829e+002, 1.803051e+001
9.984650e+002, 1.814006e+001
9.989471e+002, 1.813576e+001
9.994293e+002, 1.801046e+001
9.999114e+002, 1.774894e+001
1.000393e+003, 1.770415e+001
1.000876e+003, 1.819557e+001
1.001358e+003, 1.863920e+001
1.001840e+003, 1.884311e+001
1.002322e+003, 1.884788e+001
1.002804e+003, 1.860752e+001
1.003286e+003, 1.822356e+001
1.003768e+003, 1.785233e+001
1.004250e+003, 1.752759e+001
1.004733e+003, 1.741593e+001
1.005215e+003, 1.778646e+001
1.005697e+003, 1.821175e+001
1.006179e+003, 1.843134e+001
1.006661e+003, 1.847573e+001
1.007143e+003, 1.828560e+001
1.007625e+003, 1.797238e+001
1.008107e+003, 1.786497e+001
1.008589e+003, 1.811666e+001
1.009072e+003, 1.837884e+001
1.009554e+003, 1.833776e+001
1.010036e+003, 1.816442e+001
1.010518e+003, 1.808071e+001
1.011000e+003, 1.801585e+001
1.011482e+003, 1.770836e+001
1.011964e+003, 1.722155e+001
1.012446e+003, 1.706512e+001
1.012929e+003, 1.755394e+001
1.013411e+003, 1.810977e+001
1.013893e+003, 1.791322e+001
1.014375e+003, 1.734631e+001
1.014857e+003, 1.719239e+001
1.015339e+003, 1.737023e+001
1.015821e+003, 1.746068e+001
1.016303e+003, 1.740445e+001
1.016785e+003, 1.763678e+001
1.017268e+003, 1.852004e+001
1.017750e+003, 1.943364e+001
1.018232e+003, 1.914696e+001
1.018714e+003, 1.801760e+001
1.019196e+003, 1.756985e+001
1.019678e+003, 1.778178e+001
1.020160e+003, 1.802005e+001
1.020642e+003, 1.810847e+001
1.021125e+003, 1.806876e+001
1.021607e+003, 1.789927e+001
1.022089e+003, 1.768448e+001
1.022571e+003, 1.764765e+001
1.023053e+003, 1.777414e+001
1.023535e+003, 1.776580e+001
1.024017e+003, 1.760585e+001
1.024499e+003, 1.745386e+001
1.024981e+003, 1.734653e+001
1.025464e+003, 1.736862e+001
1.025946e+003, 1.762409e+001
1.026428e+003, 1.801923e+001
1.026910e+003, 1.827094e+001
1.027392e+003, 1.837713e+001
1.027874e+003, 1.835687e+001
1.028356e+003, 1.820671e+001
1.028838e+003, 1.791706e+001
1.029321e+003, 1.741555e+001
1.029803e+003, 1.697968e+001
1.030285e+003, 1.690409e+001
1.030767e+003, 1.710297e+001
1.031249e+003, 1.717549e+001
1.031731e+003, 1.704936e+001
1.032213e+003, 1.709955e+001
1.032695e+003, 1.744906e+001
1.033177e+003, 1.765977e+001
1.033660e+003, 1.743998e+001
1.034142e+003, 1.724466e+001
1.034624e+003, 1.762785e+001
1.035106e+003, 1.845610e+001
1.035588e+003, 1.889313e+001
1.036070e+003, 1.891874e+001
1.036552e+003, 1.856442e+001
1.037034e+003, 1.744735e+001
1.037516e+003, 1.661662e+001
1.037999e+003, 1.657774e+001
1.038481e+003, 1.688874e+001
1.038963e+003, 1.715171e+001
1.039445e+003, 1.735941e+001
1.039927e+003, 1.745088e+001
1.040409e+003, 1.726651e+001
1.040891e+003, 1.725091e+001
1.041373e+003, 1.763657e+001
1.041855e+003, 1.789598e+001
1.042338e+003, 1.768317e+001
1.042820e+003, 1.736231e+001
1.043302e+003, 1.731426e+001
1.043784e+003, 1.750728e+001
1.044266e+003, 1.768573e+001
1.044748e+003, 1.791600e+001
1.045230e+003, 1.800663e+001
1.045712e+003, 1.783844e+001
1.046195e+003, 1.766009e+001
1.046677e+003, 1.756644e+001
1.047159e+003, 1.751381e+001
1.047641e+003, 1.744467e+001
1.048123e+003, 1.736634e+001
1.048605e+003, 1.734342e+001
1.049087e+003, 1.745670e+001
1.049569e+003, 1.749035e+001
1.050052e+003, 1.728741e+001
1.050534e+003, 1.714723e+001
1.051016e+003, 1.731534e+001
1.051498e+003, 1.754104e+001
1.051980e+003, 1.747294e+001
1.052462e+003, 1.716964e+001
1.052944e+003, 1.708668e+001
1.053426e+003, 1.743254e+001
1.053908e+003, 1.774034e+001
1.054391e+003, 1.807661e+001
1.054873e+003, 1.815223e+001
1.055355e+003, 1.751828e+001
1.055837e+003, 1.675596e+001
1.056319e+003, 1.652835e+001
1.056801e+003, 1.681367e+001
1.057283e+003, 1.719888e+001
1.057765e+003, 1.770583e+001
1.058248e+003, 1.802246e+001
1.058730e+003, 1.798991e+001
1.059212e+003, 1.782210e+001
1.059694e+003, 1.744622e+001
1.060176e+003, 1.713407e+001
1.060658e+003, 1.735801e+001
1.061140e+003, 1.795532e+001
1.061622e+003, 1.808598e+001
1.062104e+003, 1.727491e+001
1.062587e+003, 1.670094e+001
1.063069e+003, 1.692545e+001
1.063551e+003, 1.735086e+001
1.064033e+003, 1.786210e+001
1.064515e+003, 1.822113e+001
1.064997e+003, 1.807853e+001
1.065479e+003, 1.754704e+001
1.065961e+003, 1.710095e+001
1.066443e+003, 1.685955e+001
1.066926e+003, 1.677524e+001
1.067408e+003, 1.701031e+001
1.067890e+003, 1.718939e+001
1.068372e+003, 1.696021e+001
1.068854e+003, 1.664580e+001
1.069336e+003, 1.664852e+001
1.069818e+003, 1.691388e+001
1.070300e+003, 1.713345e+001
1.070782e+003, 1.722378e+001
1.071265e+003, 1.724304e+001
1.071747e+003, 1.710260e+001
1.072229e+003, 1.703194e+001
1.072711e+003, 1.728093e+001
1.073193e+003, 1.758803e+001
1.073675e+003, 1.762814e+001
1.074157e+003, 1.747092e+001
1.074639e+003, 1.742569e+001
1.075122e+003, 1.760901e+001
1.075604e+003, 1.766214e+001
1.076086e+003, 1.728727e+001
1.076568e+003, 1.689403e+001
1.077050e+003, 1.674155e+001
1.077532e+003, 1.667627e+001
1.078014e+003, 1.648504e+001
1.078496e+003, 1.624865e+001
1.078979e+003, 1.623686e+001
1.079461e+003, 1.653146e+001
1.079943e+003, 1.678613e+001
1.080425e+003, 1.682585e+001
1.080907e+003, 1.680266e+001
1.081389e+003, 1.674564e+001
1.081871e+003, 1.671120e+001
1.082353e+003, 1.677615e+001
1.082835e+003, 1.689752e+001
1.083318e+003, 1.692287e+001
1.083800e+003, 1.682302e+001
1.084282e+003, 1.695232e+001
1.084764e+003, 1.785724e+001
1.085246e+003, 1.852427e+001
1.085728e+003, 1.824176e+001
1.086210e+003, 1.769534e+001
1.086692e+003, 1.747622e+001
1.087175e+003, 1.743989e+001
1.087657e+003, 1.720469e+001
1.088139e+003, 1.672106e+001
1.088621e+003, 1.634912e+001
1.089103e+003, 1.619350e+001
1.089585e+003, 1.623160e+001
1.090067e+003, 1.669648e+001
1.090549e+003, 1.711078e+001
1.091031e+003, 1.698768e+001
1.091514e+003, 1.663079e+001
1.091996e+003, 1.656136e+001
1.092478e+003, 1.680619e+001
1.092960e+003, 1.693637e+001
1.093442e+003, 1.678230e+001
1.093924e+003, 1.654424e+001
1.094406e+003, 1.605418e+001
1.094888e+003, 1.576501e+001
1.095370e+003, 1.615510e+001
1.095853e+003, 1.680196e+001
1.096335e+003, 1.723849e+001
1.096817e+003, 1.740240e+001
1.097299e+003, 1.732287e+001
1.097781e+003, 1.694437e+001
1.098263e+003, 1.648759e+001
1.098745e+003, 1.573992e+001
1.099227e+003, 1.526465e+001
1.099709e+003, 1.559758e+001
1.100192e+003, 1.617037e+001
1.100674e+003, 1.637319e+001
1.101156e+003, 1.626797e+001
1.101638e+003, 1.625247e+001
1.102120e+003, 1.644790e+001
1.102602e+003, 1.655618e+001
1.103084e+003, 1.636476e+001
1.103566e+003, 1.625285e+001
1.104049e+003, 1.646650e+001
1.104531e+003, 1.673509e+001
1.105013e+003, 1.683820e+001
1.105495e+003, 1.680833e+001
1.105977e+003, 1.671875e+001
1.106459e+003, 1.654087e+001
1.106941e+003, 1.656229e+001
1.107423e+003, 1.711256e+001
1.107906e+003, 1.747491e+001
1.108388e+003, 1.741987e+001
1.108870e+003, 1.715917e+001
1.109352e+003, 1.659865e+001
1.109834e+003, 1.602951e+001
1.110316e+003, 1.601873e+001
1.110798e+003, 1.662792e+001
1.111280e+003, 1.703612e+001
1.111762e+003, 1.720987e+001
1.112245e+003, 1.713508e+001
1.112727e+003, 1.644063e+001
1.113209e+003, 1.592134e+001
1.113691e+003, 1.618662e+001
1.114173e+003, 1.669969e+001
1.114655e+003, 1.671553e+001
1.115137e+003, 1.628383e+001
1.115619e+003, 1.611930e+001
1.116102e+003, 1.647540e+001
1.116584e+003, 1.664446e+001
1.117066e+003, 1.639510e+001
1.117548e+003, 1.629651e+001
1.118030e+003, 1.673382e+001
1.118512e+003, 1.719627e+001
1.118994e+003, 1.715496e+001
1.119476e+003, 1.674003e+001
1.119958e+003, 1.647799e+001
1.120441e+003, 1.642070e+001
1.120923e+003, 1.635390e+001
1.121405e+003, 1.628772e+001
1.121887e+003, 1.617241e+001
1.122369e+003, 1.588944e+001
1.122851e+003, 1.576619e+001
1.123333e+003, 1.614230e+001
1.123815e+003, 1.674821e+001
1.124297e+003, 1.699302e+001
1.124780e+003, 1.686066e+001
1.125262e+003, 1.653131e+001
1.125744e+003, 1.587698e+001
1.126226e+003, 1.550432e+001
1.126708e+003, 1.551739e+001
1.127190e+003, 1.587158e+001
1.127672e+003, 1.666626e+001
1.128154e+003, 1.747485e+001
1.128636e+003, 1.764392e+001
1.129119e+003, 1.725304e+001
1.129601e+003, 1.693391e+001
1.130083e+003, 1.667263e+001
1.130565e+003, 1.664747e+001
1.131047e+003, 1.689971e+001
1.131529e+003, 1.720878e+001
1.132011e+003, 1.751438e+001
1.132493e+003, 1.762915e+001
1.132976e+003, 1.733260e+001
1.133458e+003, 1.676224e+001
1.133940e+003, 1.621516e+001
1.134422e+003, 1.572125e+001
1.134904e+003, 1.578416e+001
1.135386e+003, 1.639373e+001
1.135868e+003, 1.693550e+001
1.136350e+003, 1.723772e+001
1.136833e+003, 1.720680e+001
1.137315e+003, 1.673429e+001
1.137797e+003, 1.617128e+001
1.138279e+003, 1.619708e+001
1.138761e+003, 1.660505e+001
1.139243e+003, 1.667903e+001
1.139725e+003, 1.647742e+001
1.140207e+003, 1.620996e+001
1.140689e+003, 1.594705e+001
1.141172e+003, 1.588885e+001
1.141654e+003, 1.612557e+001
1.142136e+003, 1.631240e+001
1.142618e+003, 1.590305e+001
1.143100e+003, 1.541049e+001
1.143582e+003, 1.598384e+001
1.144064e+003, 1.701282e+001
1.144546e+003, 1.712755e+001
1.145029e+003, 1.648822e+001
1.145511e+003, 1.597125e+001
1.145993e+003, 1.585285e+001
1.146475e+003, 1.600060e+001
1.146957e+003, 1.644728e+001
1.147439e+003, 1.680517e+001
1.147921e+003, 1.645420e+001
1.148403e+003, 1.599703e+001
1.148885e+003, 1.633888e+001
1.149368e+003, 1.703439e+001
1.149850e+003, 1.717766e+001
1.150332e+003, 1.677224e+001
1.150814e+003, 1.652563e+001
1.151296e+003, 1.676244e+001
1.151778e+003, 1.697305e+001
1.152260e+003, 1.674936e+001
1.152742e+003, 1.651469e+001
1.153224e+003, 1.653577e+001
1.153707e+003, 1.671238e+001
1.154189e+003, 1.700782e+001
1.154671e+003, 1.733677e+001
1.155153e+003, 1.753746e+001
1.155635e+003, 1.757702e+001
1.156117e+003, 1.760882e+001
1.156599e+003, 1.779330e+001
1.157081e+003, 1.781741e+001
1.157563e+003, 1.740162e+001
1.158046e+003, 1.699573e+001
1.158528e+003, 1.684072e+001
1.159010e+003, 1.688684e+001
1.159492e+003, 1.716373e+001
1.159974e+003, 1.760747e+001
1.160456e+003, 1.775376e+001
1.160938e+003, 1.741117e+001
1.161420e+003, 1.706624e+001
1.161903e+003, 1.652593e+001
1.162385e+003, 1.629361e+001
1.162867e+003, 1.673803e+001
1.163349e+003, 1.727406e+001
1.163831e+003, 1.749411e+001
1.164313e+003, 1.744530e+001
1.164795e+003, 1.719607e+001
1.165277e+003, 1.668987e+001
1.165760e+003, 1.648240e+001
1.166242e+003, 1.671070e+001
1.166724e+003, 1.678395e+001
1.167206e+003, 1.655839e+001
1.167688e+003, 1.633522e+001
1.168170e+003, 1.625148e+001
1.168652e+003, 1.630264e+001
1.169134e+003, 1.651320e+001
1.169616e+003, 1.682667e+001
1.170099e+003, 1.695302e+001
1.170581e+003, 1.688952e+001
1.171063e+003, 1.691028e+001
1.171545e+003, 1.703334e+001
1.172027e+003, 1.701836e+001
1.172509e+003, 1.678934e+001
1.172991e+003, 1.658470e+001
1.173473e+003, 1.658761e+001
1.173956e+003, 1.670844e+001
1.174438e+003, 1.681575e+001
1.174920e+003, 1.690838e+001
1.175402e+003, 1.698476e+001
1.175884e+003, 1.704177e+001
1.176366e+003, 1.707790e+001
1.176848e+003, 1.708549e+001
1.177330e+003, 1.702098e+001
1.177813e+003, 1.686864e+001
1.178295e+003, 1.670094e+001
1.178777e+003, 1.654669e+001
1.179259e+003, 1.646133e+001
1.179741e+003, 1.654573e+001
1.180223e+003, 1.672016e+001
1.180705e+003, 1.688101e+001
1.181187e+003, 1.703340e+001
1.181669e+003, 1.723112e+001
1.182151e+003, 1.746180e+001
1.182634e+003, 1.763831e+001
1.183116e+003, 1.775715e+001
1.183598e+003, 1.767555e+001
1.184080e+003, 1.715659e+001
1.184562e+003, 1.658604e+001
1.185044e+003, 1.600653e+001
1.185526e+003, 1.568615e+001
1.186008e+003, 1.612379e+001
1.186490e+003, 1.697186e+001
1.186973e+003, 1.737504e+001
1.187455e+003, 1.716921e+001
1.187937e+003, 1.697452e+001
1.188419e+003, 1.699104e+001
1.188901e+003, 1.691001e+001
1.189383e+003, 1.649957e+001
1.189865e+003, 1.617884e+001
1.190347e+003, 1.614636e+001
1.190830e+003, 1.632477e+001
1.191312e+003, 1.670917e+001
1.191794e+003, 1.723883e+001
1.192276e+003, 1.763990e+001
1.192758e+003, 1.801022e+001
1.193240e+003, 1.784913e+001
1.193722e+003, 1.683695e+001
1.194204e+003, 1.629108e+001
1.194687e+003, 1.663825e+001
1.195169e+003, 1.711721e+001
1.195651e+003, 1.727273e+001
1.196133e+003, 1.720874e+001
1.196615e+003, 1.704971e+001
1.197097e+003, 1.683885e+001
1.197579e+003, 1.687973e+001
1.198061e+003, 1.715543e+001
1.198543e+003, 1.732883e+001
1.199026e+003, 1.737266e+001
1.199508e+003, 1.738337e+001
1.199990e+003, 1.739392e+001
1.200472e+003, 1.738145e+001
1.200954e+003, 1.732348e+001
1.201436e+003, 1.725414e+001
1.201918e+003, 1.721530e+001
1.202400e+003, 1.720778e+001
1.202883e+003, 1.724346e+001
1.203365e+003, 1.730823e+001
1.203847e+003, 1.739516e+001
1.204329e+003, 1.747879e+001
1.204811e+003, 1.746905e+001
1.205293e+003, 1.733811e+001
1.205775e+003, 1.724238e+001
1.206257e+003, 1.733081e+001
1.206740e+003, 1.743402e+001
1.207222e+003, 1.741108e+001
1.207704e+003, 1.736532e+001
1.208186e+003, 1.741209e+001
1.208668e+003, 1.748632e+001
1.209150e+003, 1.749059e+001
1.209632e+003, 1.741851e+001
1.210114e+003, 1.728534e+001
1.210596e+003, 1.701707e+001
1.211078e+003, 1.694709e+001
1.211561e+003, 1.723159e+001
1.212043e+003, 1.759740e+001
1.212525e+003, 1.837131e+001
1.213007e+003, 1.874203e+001
1.213489e+003, 1.772226e+001
1.213971e+003, 1.634850e+001
1.214453e+003, 1.638874e+001
1.214935e+003, 1.772854e+001
1.215417e+003, 1.822070e+001
1.215900e+003, 1.760403e+001
1.216382e+003, 1.710629e+001
1.216864e+003, 1.677947e+001
1.217346e+003, 1.663680e+001
1.217828e+003, 1.669286e+001
1.218310e+003, 1.690440e+001
1.218792e+003, 1.727043e+001
1.219274e+003, 1.765389e+001
1.219757e+003, 1.782097e+001
1.220239e+003, 1.778248e+001
1.220721e+003, 1.751049e+001
1.221203e+003, 1.707361e+001
1.221685e+003, 1.677571e+001
1.222167e+003, 1.667004e+001
1.222649e+003, 1.687663e+001
1.223131e+003, 1.739145e+001
1.223614e+003, 1.773674e+001
1.224096e+003, 1.751394e+001
1.224578e+003, 1.708290e+001
1.225060e+003, 1.672050e+001
1.225542e+003, 1.647860e+001
1.226024e+003, 1.653255e+001
1.226506e+003, 1.668361e+001
1.226988e+003, 1.655652e+001
1.227470e+003, 1.624652e+001
1.227953e+003, 1.617547e+001
1.228435e+003, 1.646844e+001
1.228917e+003, 1.674401e+001
1.229399e+003, 1.683228e+001
1.229881e+003, 1.691261e+001
1.230363e+003, 1.707162e+001
1.230845e+003, 1.720890e+001
1.231327e+003, 1.727292e+001
1.231810e+003, 1.727779e+001
1.232292e+003, 1.720478e+001
1.232774e+003, 1.708893e+001
1.233256e+003, 1.707197e+001
1.233738e+003, 1.718325e+001
1.234220e+003, 1.727678e+001
1.234702e+003, 1.738103e+001
1.235184e+003, 1.736578e+001
1.235667e+003, 1.718700e+001
1.236149e+003, 1.693822e+001
1.236631e+003, 1.663220e+001
1.237113e+003, 1.645611e+001
1.237595e+003, 1.667781e+001
1.238077e+003, 1.712681e+001
1.238559e+003, 1.725868e+001
1.239041e+003, 1.715273e+001
1.239523e+003, 1.725792e+001
1.240005e+003, 1.753002e+001
1.240488e+003, 1.760535e+001
1.240970e+003, 1.745382e+001
1.241452e+003, 1.742467e+001
1.241934e+003, 1.769272e+001
1.242416e+003, 1.790017e+001
1.242898e+003, 1.754250e+001
1.243380e+003, 1.716675e+001
1.243862e+003, 1.748485e+001
1.244344e+003, 1.794396e+001
1.244827e+003, 1.788941e+001
1.245309e+003, 1.752783e+001
1.245791e+003, 1.718222e+001
1.246273e+003, 1.695979e+001
1.246755e+003, 1.707787e+001
1.247237e+003, 1.778047e+001
1.247719e+003, 1.816491e+001
1.248201e+003, 1.774843e+001
1.248684e+003, 1.738312e+001
1.249166e+003, 1.729041e+001
1.249648e+003, 1.735816e+001
1.250130e+003, 1.764609e+001
1.250612e+003, 1.792936e+001
1.251094e+003, 1.785715e+001
1.251576e+003, 1.751177e+001
1.252058e+003, 1.748413e+001
1.252541e+003, 1.787304e+001
1.253023e+003, 1.778676e+001
1.253505e+003, 1.714641e+001
1.253987e+003, 1.668646e+001
1.254469e+003, 1.657634e+001
1.254951e+003, 1.669660e+001
1.255433e+003, 1.698680e+001
1.255915e+003, 1.733637e+001
1.256397e+003, 1.764553e+001
1.256880e+003, 1.787532e+001
1.257362e+003, 1.789123e+001
1.257844e+003, 1.780165e+001
1.258326e+003, 1.780499e+001
1.258808e+003, 1.789498e+001
1.259290e+003, 1.804599e+001
1.259772e+003, 1.822284e+001
1.260254e+003, 1.834139e+001
1.260737e+003, 1.837400e+001
1.261219e+003, 1.828960e+001
1.261701e+003, 1.800280e+001
1.262183e+003, 1.768812e+001
1.262665e+003, 1.727318e+001
1.263147e+003, 1.702573e+001
1.263629e+003, 1.733199e+001
1.264111e+003, 1.780075e+001
1.264594e+003, 1.779459e+001
1.265076e+003, 1.741601e+001
1.265558e+003, 1.736284e+001
1.266040e+003, 1.774166e+001
1.266522e+003, 1.808691e+001
1.267004e+003, 1.846713e+001
1.267486e+003, 1.852047e+001
1.267968e+003, 1.808651e+001
1.268450e+003, 1.778080e+001
1.268932e+003, 1.793228e+001
1.269415e+003, 1.824683e+001
1.269897e+003, 1.841001e+001
1.270379e+003, 1.846084e+001
1.270861e+003, 1.848941e+001
1.271343e+003, 1.848774e+001
1.271825e+003, 1.832963e+001
1.272307e+003, 1.814050e+001
1.272789e+003, 1.846596e+001
1.273271e+003, 1.917712e+001
1.273754e+003, 1.937727e+001
1.274236e+003, 1.874536e+001
1.274718e+003, 1.804685e+001
1.275200e+003, 1.768167e+001
1.275682e+003, 1.754495e+001
1.276164e+003, 1.765354e+001
1.276646e+003, 1.788190e+001
1.277128e+003, 1.830505e+001
1.277611e+003, 1.866860e+001
1.278093e+003, 1.854439e+001
1.278575e+003, 1.813248e+001
1.279057e+003, 1.821786e+001
1.279539e+003, 1.895535e+001
1.280021e+003, 1.904336e+001
1.280503e+003, 1.809724e+001
1.280985e+003, 1.760712e+001
1.281468e+003, 1.781698e+001
1.281950e+003, 1.818058e+001
1.282432e+003, 1.853676e+001
1.282914e+003, 1.874719e+001
1.283396e+003, 1.866934e+001
1.283878e+003, 1.849953e+001
1.284360e+003, 1.870425e+001
1.284842e+003, 1.906285e+001
1.285324e+003, 1.895850e+001
##END=



