##NAMES=Berzelianite
##RRUFFID=R110159
##IDEAL CHEMISTRY=Cu_2-x_Se (x &#8776; 0.12)
##LOCALITY=Facebaja, Romania
##OWNER=RRUFF
##SOURCE=Mark N Feinglos
##DESCRIPTION=Black metallic euhedral grains, associated with pale-yellow sulfur crystals.
##STATUS=The identification of this mineral has been confirmed only by single crystal X-ray diffraction.
##URL=rruff.info/R110159
9.001007e+001, 0.000000e+000
9.049219e+001, 1.072472e+002
9.097430e+001, 1.073640e+002
9.145642e+001, 1.075790e+002
9.193854e+001, 1.078250e+002
9.242065e+001, 1.075458e+002
9.290277e+001, 1.059169e+002
9.338489e+001, 1.034057e+002
9.386700e+001, 1.011043e+002
9.434912e+001, 9.946559e+001
9.483124e+001, 9.827135e+001
9.531335e+001, 9.705443e+001
9.579547e+001, 9.578335e+001
9.627759e+001, 9.469238e+001
9.675970e+001, 9.422182e+001
9.724182e+001, 9.431828e+001
9.772394e+001, 9.421641e+001
9.820605e+001, 9.358529e+001
9.868817e+001, 9.244263e+001
9.917029e+001, 9.093757e+001
9.965240e+001, 8.886016e+001
1.001345e+002, 8.674673e+001
1.006166e+002, 8.595595e+001
1.010988e+002, 8.685729e+001
1.015809e+002, 8.743050e+001
1.020630e+002, 8.624635e+001
1.025451e+002, 8.272508e+001
1.030272e+002, 8.034707e+001
1.035093e+002, 7.959933e+001
1.039915e+002, 8.012122e+001
1.044736e+002, 8.047092e+001
1.049557e+002, 8.086021e+001
1.054378e+002, 8.076091e+001
1.059199e+002, 7.966557e+001
1.064020e+002, 7.662500e+001
1.068842e+002, 7.435800e+001
1.073663e+002, 7.354282e+001
1.078484e+002, 7.421615e+001
1.083305e+002, 7.398058e+001
1.088126e+002, 7.179505e+001
1.092947e+002, 6.929211e+001
1.097769e+002, 6.797372e+001
1.102590e+002, 6.912590e+001
1.107411e+002, 7.016261e+001
1.112232e+002, 7.070434e+001
1.117053e+002, 7.073509e+001
1.121874e+002, 7.032439e+001
1.126696e+002, 6.913081e+001
1.131517e+002, 6.758063e+001
1.136338e+002, 6.622648e+001
1.141159e+002, 6.511353e+001
1.145980e+002, 6.424424e+001
1.150801e+002, 6.372160e+001
1.155623e+002, 6.386667e+001
1.160444e+002, 6.360928e+001
1.165265e+002, 6.228965e+001
1.170086e+002, 6.035119e+001
1.174907e+002, 5.876504e+001
1.179728e+002, 5.785312e+001
1.184550e+002, 5.739750e+001
1.189371e+002, 5.735674e+001
1.194192e+002, 5.820679e+001
1.199013e+002, 5.872027e+001
1.203834e+002, 5.778133e+001
1.208655e+002, 5.579507e+001
1.213477e+002, 5.434137e+001
1.218298e+002, 5.480439e+001
1.223119e+002, 5.608280e+001
1.227940e+002, 5.703208e+001
1.232761e+002, 5.736865e+001
1.237582e+002, 5.719252e+001
1.242404e+002, 5.636712e+001
1.247225e+002, 5.494224e+001
1.252046e+002, 5.352800e+001
1.256867e+002, 5.242796e+001
1.261688e+002, 5.168125e+001
1.266509e+002, 5.137373e+001
1.271331e+002, 5.212464e+001
1.276152e+002, 5.313263e+001
1.280973e+002, 5.309811e+001
1.285794e+002, 5.196521e+001
1.290615e+002, 5.046588e+001
1.295436e+002, 4.921467e+001
1.300258e+002, 4.819860e+001
1.305079e+002, 4.738726e+001
1.309900e+002, 4.684280e+001
1.314721e+002, 4.649549e+001
1.319542e+002, 4.611104e+001
1.324363e+002, 4.567277e+001
1.329185e+002, 4.522546e+001
1.334006e+002, 4.474566e+001
1.338827e+002, 4.423261e+001
1.343648e+002, 4.397577e+001
1.348469e+002, 4.444827e+001
1.353290e+002, 4.555281e+001
1.358112e+002, 4.573643e+001
1.362933e+002, 4.461602e+001
1.367754e+002, 4.285033e+001
1.372575e+002, 4.206520e+001
1.377396e+002, 4.246317e+001
1.382217e+002, 4.291377e+001
1.387039e+002, 4.268986e+001
1.391860e+002, 4.170730e+001
1.396681e+002, 4.055902e+001
1.401502e+002, 3.910230e+001
1.406323e+002, 3.755674e+001
1.411144e+002, 3.696297e+001
1.415966e+002, 3.771642e+001
1.420787e+002, 3.866748e+001
1.425608e+002, 3.885064e+001
1.430429e+002, 3.787552e+001
1.435250e+002, 3.726360e+001
1.440071e+002, 3.744033e+001
1.444893e+002, 3.835121e+001
1.449714e+002, 3.856934e+001
1.454535e+002, 3.767884e+001
1.459356e+002, 3.649593e+001
1.464177e+002, 3.583375e+001
1.468998e+002, 3.612518e+001
1.473820e+002, 3.623063e+001
1.478641e+002, 3.581523e+001
1.483462e+002, 3.474092e+001
1.488283e+002, 3.414028e+001
1.493104e+002, 3.433083e+001
1.497925e+002, 3.484256e+001
1.502747e+002, 3.513783e+001
1.507568e+002, 3.516584e+001
1.512389e+002, 3.502430e+001
1.517210e+002, 3.467524e+001
1.522031e+002, 3.400714e+001
1.526852e+002, 3.349334e+001
1.531674e+002, 3.317811e+001
1.536495e+002, 3.300945e+001
1.541316e+002, 3.290868e+001
1.546137e+002, 3.338739e+001
1.550958e+002, 3.348912e+001
1.555779e+002, 3.272544e+001
1.560601e+002, 3.036139e+001
1.565422e+002, 2.878468e+001
1.570243e+002, 2.895296e+001
1.575064e+002, 3.011661e+001
1.579885e+002, 3.082392e+001
1.584706e+002, 3.001966e+001
1.589528e+002, 2.923302e+001
1.594349e+002, 2.931800e+001
1.599170e+002, 3.133525e+001
1.603991e+002, 3.257407e+001
1.608812e+002, 3.157170e+001
1.613633e+002, 2.913337e+001
1.618455e+002, 2.737305e+001
1.623276e+002, 2.716162e+001
1.628097e+002, 2.778351e+001
1.632918e+002, 2.888439e+001
1.637739e+002, 3.111273e+001
1.642560e+002, 3.280205e+001
1.647382e+002, 3.272860e+001
1.652203e+002, 3.134668e+001
1.657024e+002, 3.039490e+001
1.661845e+002, 3.110928e+001
1.666666e+002, 3.244648e+001
1.671487e+002, 3.346212e+001
1.676309e+002, 3.364421e+001
1.681130e+002, 3.371156e+001
1.685951e+002, 3.399107e+001
1.690772e+002, 3.449231e+001
1.695593e+002, 3.527776e+001
1.700414e+002, 3.692866e+001
1.705236e+002, 3.873129e+001
1.710057e+002, 3.979485e+001
1.714878e+002, 3.916177e+001
1.719699e+002, 3.820748e+001
1.724520e+002, 3.802563e+001
1.729341e+002, 3.858251e+001
1.734163e+002, 3.950096e+001
1.738984e+002, 4.084083e+001
1.743805e+002, 4.233309e+001
1.748626e+002, 4.349299e+001
1.753447e+002, 4.386499e+001
1.758268e+002, 4.398530e+001
1.763090e+002, 4.441286e+001
1.767911e+002, 4.514506e+001
1.772732e+002, 4.609171e+001
1.777553e+002, 4.717491e+001
1.782374e+002, 4.820594e+001
1.787195e+002, 4.897600e+001
1.792017e+002, 4.925590e+001
1.796838e+002, 4.930214e+001
1.801659e+002, 4.959829e+001
1.806480e+002, 5.018439e+001
1.811301e+002, 5.058154e+001
1.816122e+002, 5.006573e+001
1.820944e+002, 4.891231e+001
1.825765e+002, 4.803904e+001
1.830586e+002, 4.797734e+001
1.835407e+002, 4.843914e+001
1.840228e+002, 4.876093e+001
1.845049e+002, 4.888032e+001
1.849871e+002, 4.912042e+001
1.854692e+002, 5.001184e+001
1.859513e+002, 5.144055e+001
1.864334e+002, 5.274831e+001
1.869155e+002, 5.344426e+001
1.873976e+002, 5.376231e+001
1.878798e+002, 5.462132e+001
1.883619e+002, 5.617105e+001
1.888440e+002, 5.779173e+001
1.893261e+002, 5.851912e+001
1.898082e+002, 5.841763e+001
1.902903e+002, 5.820669e+001
1.907725e+002, 5.822478e+001
1.912546e+002, 5.844165e+001
1.917367e+002, 5.874836e+001
1.922188e+002, 5.921196e+001
1.927009e+002, 5.958849e+001
1.931830e+002, 5.917197e+001
1.936652e+002, 5.795387e+001
1.941473e+002, 5.721931e+001
1.946294e+002, 5.815549e+001
1.951115e+002, 6.056693e+001
1.955936e+002, 6.180530e+001
1.960757e+002, 6.148645e+001
1.965579e+002, 6.035788e+001
1.970400e+002, 5.970589e+001
1.975221e+002, 5.952899e+001
1.980042e+002, 5.978550e+001
1.984863e+002, 6.072440e+001
1.989684e+002, 6.235668e+001
1.994506e+002, 6.336959e+001
1.999327e+002, 6.357701e+001
2.004148e+002, 6.324510e+001
2.008969e+002, 6.278191e+001
2.013790e+002, 6.209420e+001
2.018611e+002, 6.174249e+001
2.023433e+002, 6.232414e+001
2.028254e+002, 6.397942e+001
2.033075e+002, 6.484837e+001
2.037896e+002, 6.463364e+001
2.042717e+002, 6.369686e+001
2.047538e+002, 6.280737e+001
2.052360e+002, 6.186324e+001
2.057181e+002, 6.132574e+001
2.062002e+002, 6.174430e+001
2.066823e+002, 6.338771e+001
2.071644e+002, 6.415745e+001
2.076465e+002, 6.362737e+001
2.081287e+002, 6.226341e+001
2.086108e+002, 6.141472e+001
2.090929e+002, 6.114722e+001
2.095750e+002, 6.120320e+001
2.100571e+002, 6.152456e+001
2.105392e+002, 6.222309e+001
2.110214e+002, 6.265568e+001
2.115035e+002, 6.270453e+001
2.119856e+002, 6.247311e+001
2.124677e+002, 6.227089e+001
2.129498e+002, 6.202227e+001
2.134319e+002, 6.197279e+001
2.139140e+002, 6.235976e+001
2.143962e+002, 6.338004e+001
2.148783e+002, 6.414529e+001
2.153604e+002, 6.458163e+001
2.158425e+002, 6.470858e+001
2.163246e+002, 6.456431e+001
2.168067e+002, 6.409315e+001
2.172889e+002, 6.345790e+001
2.177710e+002, 6.260828e+001
2.182531e+002, 6.119615e+001
2.187352e+002, 6.068330e+001
2.192173e+002, 6.163181e+001
2.196994e+002, 6.357996e+001
2.201816e+002, 6.419391e+001
2.206637e+002, 6.283071e+001
2.211458e+002, 6.126554e+001
2.216279e+002, 6.070382e+001
2.221100e+002, 6.165873e+001
2.225921e+002, 6.223914e+001
2.230743e+002, 6.223733e+001
2.235564e+002, 6.174701e+001
2.240385e+002, 6.113262e+001
2.245206e+002, 6.021263e+001
2.250027e+002, 5.947488e+001
2.254848e+002, 5.930758e+001
2.259670e+002, 6.009931e+001
2.264491e+002, 6.050298e+001
2.269312e+002, 6.023979e+001
2.274133e+002, 5.949565e+001
2.278954e+002, 5.918818e+001
2.283775e+002, 5.955867e+001
2.288597e+002, 6.002148e+001
2.293418e+002, 6.020513e+001
2.298239e+002, 5.995443e+001
2.303060e+002, 5.978711e+001
2.307881e+002, 5.977302e+001
2.312702e+002, 5.987390e+001
2.317524e+002, 5.990812e+001
2.322345e+002, 5.983636e+001
2.327166e+002, 5.975027e+001
2.331987e+002, 5.969033e+001
2.336808e+002, 5.961298e+001
2.341629e+002, 5.968292e+001
2.346451e+002, 6.010579e+001
2.351272e+002, 6.069838e+001
2.356093e+002, 6.057420e+001
2.360914e+002, 5.914461e+001
2.365735e+002, 5.780591e+001
2.370556e+002, 5.742647e+001
2.375378e+002, 5.867532e+001
2.380199e+002, 5.941200e+001
2.385020e+002, 5.937418e+001
2.389841e+002, 5.874176e+001
2.394662e+002, 5.820955e+001
2.399483e+002, 5.770340e+001
2.404305e+002, 5.740026e+001
2.409126e+002, 5.746748e+001
2.413947e+002, 5.829903e+001
2.418768e+002, 5.859973e+001
2.423589e+002, 5.801851e+001
2.428410e+002, 5.688644e+001
2.433232e+002, 5.644147e+001
2.438053e+002, 5.723066e+001
2.442874e+002, 5.795629e+001
2.447695e+002, 5.785045e+001
2.452516e+002, 5.619141e+001
2.457337e+002, 5.536897e+001
2.462159e+002, 5.591620e+001
2.466980e+002, 5.728665e+001
2.471801e+002, 5.763499e+001
2.476622e+002, 5.628448e+001
2.481443e+002, 5.493806e+001
2.486264e+002, 5.447261e+001
2.491086e+002, 5.538643e+001
2.495907e+002, 5.597674e+001
2.500728e+002, 5.616856e+001
2.505549e+002, 5.603621e+001
2.510370e+002, 5.573898e+001
2.515191e+002, 5.512869e+001
2.520013e+002, 5.458982e+001
2.524834e+002, 5.429550e+001
2.529655e+002, 5.432763e+001
2.534476e+002, 5.440919e+001
2.539297e+002, 5.458684e+001
2.544118e+002, 5.479394e+001
2.548940e+002, 5.485982e+001
2.553761e+002, 5.466677e+001
2.558582e+002, 5.454099e+001
2.563403e+002, 5.464848e+001
2.568224e+002, 5.509774e+001
2.573046e+002, 5.542444e+001
2.577867e+002, 5.564040e+001
2.582688e+002, 5.572261e+001
2.587509e+002, 5.557079e+001
2.592330e+002, 5.501186e+001
2.597151e+002, 5.457832e+001
2.601973e+002, 5.459019e+001
2.606794e+002, 5.528063e+001
2.611615e+002, 5.527770e+001
2.616436e+002, 5.416577e+001
2.621257e+002, 5.272119e+001
2.626078e+002, 5.239390e+001
2.630900e+002, 5.372363e+001
2.635721e+002, 5.488384e+001
2.640542e+002, 5.513239e+001
2.645363e+002, 5.427314e+001
2.650184e+002, 5.389550e+001
2.655005e+002, 5.422784e+001
2.659827e+002, 5.476788e+001
2.664648e+002, 5.472933e+001
2.669469e+002, 5.388274e+001
2.674290e+002, 5.312266e+001
2.679111e+002, 5.271589e+001
2.683932e+002, 5.267986e+001
2.688754e+002, 5.279657e+001
2.693575e+002, 5.317690e+001
2.698396e+002, 5.353744e+001
2.703217e+002, 5.341905e+001
2.708038e+002, 5.264274e+001
2.712859e+002, 5.208546e+001
2.717681e+002, 5.205228e+001
2.722502e+002, 5.252120e+001
2.727323e+002, 5.292156e+001
2.732144e+002, 5.330621e+001
2.736965e+002, 5.349889e+001
2.741786e+002, 5.320721e+001
2.746608e+002, 5.231051e+001
2.751429e+002, 5.156542e+001
2.756250e+002, 5.114763e+001
2.761071e+002, 5.103706e+001
2.765892e+002, 5.113159e+001
2.770714e+002, 5.149254e+001
2.775535e+002, 5.187954e+001
2.780356e+002, 5.207716e+001
2.785177e+002, 5.207711e+001
2.789998e+002, 5.194362e+001
2.794819e+002, 5.158889e+001
2.799641e+002, 5.112870e+001
2.804462e+002, 5.118687e+001
2.809283e+002, 5.188367e+001
2.814104e+002, 5.258204e+001
2.818925e+002, 5.281582e+001
2.823746e+002, 5.258456e+001
2.828568e+002, 5.196032e+001
2.833389e+002, 5.079176e+001
2.838210e+002, 4.936897e+001
2.843031e+002, 4.847109e+001
2.847852e+002, 4.811308e+001
2.852673e+002, 4.814242e+001
2.857495e+002, 4.859650e+001
2.862316e+002, 4.943651e+001
2.867137e+002, 5.016881e+001
2.871958e+002, 5.077253e+001
2.876779e+002, 5.118070e+001
2.881600e+002, 5.121188e+001
2.886422e+002, 5.086282e+001
2.891243e+002, 5.034479e+001
2.896064e+002, 4.961195e+001
2.900885e+002, 4.876023e+001
2.905706e+002, 4.838318e+001
2.910527e+002, 4.860563e+001
2.915349e+002, 4.913868e+001
2.920170e+002, 4.966438e+001
2.924991e+002, 5.015759e+001
2.929812e+002, 5.039472e+001
2.934633e+002, 5.002140e+001
2.939454e+002, 4.927254e+001
2.944276e+002, 4.895937e+001
2.949097e+002, 4.919127e+001
2.953918e+002, 4.957634e+001
2.958739e+002, 4.962127e+001
2.963560e+002, 4.938255e+001
2.968381e+002, 4.912789e+001
2.973203e+002, 4.901693e+001
2.978024e+002, 4.897338e+001
2.982845e+002, 4.884359e+001
2.987666e+002, 4.862236e+001
2.992487e+002, 4.833186e+001
2.997308e+002, 4.794262e+001
3.002130e+002, 4.749056e+001
3.006951e+002, 4.708117e+001
3.011772e+002, 4.661971e+001
3.016593e+002, 4.629125e+001
3.021414e+002, 4.648285e+001
3.026235e+002, 4.718108e+001
3.031057e+002, 4.789046e+001
3.035878e+002, 4.837492e+001
3.040699e+002, 4.855996e+001
3.045520e+002, 4.824619e+001
3.050341e+002, 4.683651e+001
3.055162e+002, 4.539737e+001
3.059984e+002, 4.521142e+001
3.064805e+002, 4.613088e+001
3.069626e+002, 4.713352e+001
3.074447e+002, 4.760484e+001
3.079268e+002, 4.771491e+001
3.084089e+002, 4.763204e+001
3.088911e+002, 4.722819e+001
3.093732e+002, 4.691006e+001
3.098553e+002, 4.718380e+001
3.103374e+002, 4.786455e+001
3.108195e+002, 4.833163e+001
3.113016e+002, 4.792399e+001
3.117838e+002, 4.729945e+001
3.122659e+002, 4.712566e+001
3.127480e+002, 4.778678e+001
3.132301e+002, 4.829276e+001
3.137122e+002, 4.785985e+001
3.141943e+002, 4.684279e+001
3.146765e+002, 4.599690e+001
3.151586e+002, 4.582804e+001
3.156407e+002, 4.582096e+001
3.161228e+002, 4.565880e+001
3.166049e+002, 4.528246e+001
3.170870e+002, 4.483590e+001
3.175692e+002, 4.409452e+001
3.180513e+002, 4.338774e+001
3.185334e+002, 4.318359e+001
3.190155e+002, 4.425714e+001
3.194976e+002, 4.532886e+001
3.199797e+002, 4.579695e+001
3.204619e+002, 4.557713e+001
3.209440e+002, 4.530943e+001
3.214261e+002, 4.519019e+001
3.219082e+002, 4.510950e+001
3.223903e+002, 4.496376e+001
3.228724e+002, 4.452862e+001
3.233546e+002, 4.422894e+001
3.238367e+002, 4.416630e+001
3.243188e+002, 4.434089e+001
3.248009e+002, 4.468678e+001
3.252830e+002, 4.565015e+001
3.257651e+002, 4.649853e+001
3.262473e+002, 4.675503e+001
3.267294e+002, 4.566073e+001
3.272115e+002, 4.480156e+001
3.276936e+002, 4.444552e+001
3.281757e+002, 4.449029e+001
3.286578e+002, 4.439782e+001
3.291400e+002, 4.374951e+001
3.296221e+002, 4.330807e+001
3.301042e+002, 4.343568e+001
3.305863e+002, 4.481236e+001
3.310684e+002, 4.563168e+001
3.315505e+002, 4.568200e+001
3.320327e+002, 4.521056e+001
3.325148e+002, 4.473256e+001
3.329969e+002, 4.408850e+001
3.334790e+002, 4.365329e+001
3.339611e+002, 4.361818e+001
3.344432e+002, 4.415514e+001
3.349254e+002, 4.437804e+001
3.354075e+002, 4.413963e+001
3.358896e+002, 4.370705e+001
3.363717e+002, 4.345325e+001
3.368538e+002, 4.345111e+001
3.373359e+002, 4.345798e+001
3.378180e+002, 4.342100e+001
3.383001e+002, 4.334082e+001
3.387823e+002, 4.321693e+001
3.392644e+002, 4.306220e+001
3.397465e+002, 4.284418e+001
3.402286e+002, 4.243525e+001
3.407107e+002, 4.174900e+001
3.411928e+002, 4.143578e+001
3.416750e+002, 4.172194e+001
3.421571e+002, 4.244544e+001
3.426392e+002, 4.297970e+001
3.431213e+002, 4.331627e+001
3.436034e+002, 4.353729e+001
3.440855e+002, 4.369521e+001
3.445677e+002, 4.378928e+001
3.450498e+002, 4.386571e+001
3.455319e+002, 4.399972e+001
3.460140e+002, 4.400159e+001
3.464961e+002, 4.332294e+001
3.469782e+002, 4.199845e+001
3.474604e+002, 4.083012e+001
3.479425e+002, 4.031200e+001
3.484246e+002, 4.032829e+001
3.489067e+002, 4.056596e+001
3.493888e+002, 4.106018e+001
3.498709e+002, 4.151865e+001
3.503531e+002, 4.140749e+001
3.508352e+002, 4.090645e+001
3.513173e+002, 4.068328e+001
3.517994e+002, 4.144151e+001
3.522815e+002, 4.251685e+001
3.527636e+002, 4.265570e+001
3.532458e+002, 4.185830e+001
3.537279e+002, 4.099948e+001
3.542100e+002, 4.084706e+001
3.546921e+002, 4.113287e+001
3.551742e+002, 4.140336e+001
3.556563e+002, 4.157707e+001
3.561385e+002, 4.161764e+001
3.566206e+002, 4.140118e+001
3.571027e+002, 4.098090e+001
3.575848e+002, 4.062842e+001
3.580669e+002, 4.047832e+001
3.585490e+002, 4.048296e+001
3.590312e+002, 4.063877e+001
3.595133e+002, 4.105690e+001
3.599954e+002, 4.137172e+001
3.604775e+002, 4.130302e+001
3.609596e+002, 4.097813e+001
3.614417e+002, 4.066919e+001
3.619239e+002, 4.035901e+001
3.624060e+002, 4.019030e+001
3.628881e+002, 4.030661e+001
3.633702e+002, 4.079155e+001
3.638523e+002, 4.118620e+001
3.643344e+002, 4.150474e+001
3.648166e+002, 4.159837e+001
3.652987e+002, 4.129423e+001
3.657808e+002, 4.007688e+001
3.662629e+002, 3.894089e+001
3.667450e+002, 3.811167e+001
3.672271e+002, 3.759685e+001
3.677093e+002, 3.732526e+001
3.681914e+002, 3.744962e+001
3.686735e+002, 3.771287e+001
3.691556e+002, 3.795019e+001
3.696377e+002, 3.807740e+001
3.701198e+002, 3.827003e+001
3.706020e+002, 3.859541e+001
3.710841e+002, 3.899902e+001
3.715662e+002, 3.928824e+001
3.720483e+002, 3.946294e+001
3.725304e+002, 3.951980e+001
3.730125e+002, 3.946484e+001
3.734947e+002, 3.932629e+001
3.739768e+002, 3.894321e+001
3.744589e+002, 3.806075e+001
3.749410e+002, 3.713330e+001
3.754231e+002, 3.697682e+001
3.759052e+002, 3.787677e+001
3.763874e+002, 3.874408e+001
3.768695e+002, 3.923578e+001
3.773516e+002, 3.936737e+001
3.778337e+002, 3.958197e+001
3.783158e+002, 3.994988e+001
3.787979e+002, 4.022042e+001
3.792801e+002, 4.006124e+001
3.797622e+002, 3.944620e+001
3.802443e+002, 3.898082e+001
3.807264e+002, 3.885780e+001
3.812085e+002, 3.889063e+001
3.816906e+002, 3.843520e+001
3.821728e+002, 3.747863e+001
3.826549e+002, 3.673074e+001
3.831370e+002, 3.691148e+001
3.836191e+002, 3.775610e+001
3.841012e+002, 3.819283e+001
3.845833e+002, 3.806801e+001
3.850655e+002, 3.768357e+001
3.855476e+002, 3.730464e+001
3.860297e+002, 3.696981e+001
3.865118e+002, 3.684344e+001
3.869939e+002, 3.731503e+001
3.874760e+002, 3.791523e+001
3.879582e+002, 3.777465e+001
3.884403e+002, 3.686851e+001
3.889224e+002, 3.613312e+001
3.894045e+002, 3.661137e+001
3.898866e+002, 3.766634e+001
3.903687e+002, 3.840608e+001
3.908509e+002, 3.847581e+001
3.913330e+002, 3.819770e+001
3.918151e+002, 3.755113e+001
3.922972e+002, 3.667013e+001
3.927793e+002, 3.608598e+001
3.932614e+002, 3.629491e+001
3.937436e+002, 3.675164e+001
3.942257e+002, 3.711386e+001
3.947078e+002, 3.739004e+001
3.951899e+002, 3.738890e+001
3.956720e+002, 3.660509e+001
3.961541e+002, 3.557578e+001
3.966363e+002, 3.516481e+001
3.971184e+002, 3.628583e+001
3.976005e+002, 3.740206e+001
3.980826e+002, 3.799878e+001
3.985647e+002, 3.800334e+001
3.990468e+002, 3.787746e+001
3.995290e+002, 3.750899e+001
4.000111e+002, 3.711367e+001
4.004932e+002, 3.686074e+001
4.009753e+002, 3.673446e+001
4.014574e+002, 3.678801e+001
4.019395e+002, 3.722917e+001
4.024217e+002, 3.789809e+001
4.029038e+002, 3.795800e+001
4.033859e+002, 3.691854e+001
4.038680e+002, 3.599012e+001
4.043501e+002, 3.584901e+001
4.048322e+002, 3.683989e+001
4.053144e+002, 3.741175e+001
4.057965e+002, 3.749509e+001
4.062786e+002, 3.723620e+001
4.067607e+002, 3.674605e+001
4.072428e+002, 3.592986e+001
4.077249e+002, 3.541020e+001
4.082071e+002, 3.549021e+001
4.086892e+002, 3.606456e+001
4.091713e+002, 3.651054e+001
4.096534e+002, 3.683743e+001
4.101355e+002, 3.698359e+001
4.106176e+002, 3.676370e+001
4.110998e+002, 3.625903e+001
4.115819e+002, 3.596847e+001
4.120640e+002, 3.603677e+001
4.125461e+002, 3.627998e+001
4.130282e+002, 3.648526e+001
4.135103e+002, 3.663203e+001
4.139925e+002, 3.660980e+001
4.144746e+002, 3.620140e+001
4.149567e+002, 3.563200e+001
4.154388e+002, 3.527584e+001
4.159209e+002, 3.517568e+001
4.164030e+002, 3.513407e+001
4.168852e+002, 3.485930e+001
4.173673e+002, 3.455160e+001
4.178494e+002, 3.453352e+001
4.183315e+002, 3.520185e+001
4.188136e+002, 3.597387e+001
4.192957e+002, 3.656847e+001
4.197779e+002, 3.697190e+001
4.202600e+002, 3.714560e+001
4.207421e+002, 3.702368e+001
4.212242e+002, 3.669064e+001
4.217063e+002, 3.617667e+001
4.221884e+002, 3.529485e+001
4.226706e+002, 3.458667e+001
4.231527e+002, 3.408207e+001
4.236348e+002, 3.384603e+001
4.241169e+002, 3.399176e+001
4.245990e+002, 3.512162e+001
4.250811e+002, 3.607536e+001
4.255633e+002, 3.644808e+001
4.260454e+002, 3.615191e+001
4.265275e+002, 3.588209e+001
4.270096e+002, 3.555186e+001
4.274917e+002, 3.531305e+001
4.279738e+002, 3.531617e+001
4.284560e+002, 3.573560e+001
4.289381e+002, 3.602972e+001
4.294202e+002, 3.612349e+001
4.299023e+002, 3.605158e+001
4.303844e+002, 3.591747e+001
4.308665e+002, 3.569896e+001
4.313487e+002, 3.548348e+001
4.318308e+002, 3.533846e+001
4.323129e+002, 3.527287e+001
4.327950e+002, 3.506939e+001
4.332771e+002, 3.466493e+001
4.337592e+002, 3.429026e+001
4.342414e+002, 3.421161e+001
4.347235e+002, 3.442390e+001
4.352056e+002, 3.491480e+001
4.356877e+002, 3.594504e+001
4.361698e+002, 3.706686e+001
4.366519e+002, 3.703811e+001
4.371341e+002, 3.593269e+001
4.376162e+002, 3.507857e+001
4.380983e+002, 3.595305e+001
4.385804e+002, 3.762016e+001
4.390625e+002, 3.842012e+001
4.395446e+002, 3.796074e+001
4.400268e+002, 3.701429e+001
4.405089e+002, 3.585233e+001
4.409910e+002, 3.471951e+001
4.414731e+002, 3.412952e+001
4.419552e+002, 3.491919e+001
4.424373e+002, 3.583818e+001
4.429195e+002, 3.596526e+001
4.434016e+002, 3.529565e+001
4.438837e+002, 3.479931e+001
4.443658e+002, 3.496035e+001
4.448479e+002, 3.540867e+001
4.453300e+002, 3.586171e+001
4.458122e+002, 3.645476e+001
4.462943e+002, 3.680235e+001
4.467764e+002, 3.676783e+001
4.472585e+002, 3.644136e+001
4.477406e+002, 3.605251e+001
4.482227e+002, 3.536692e+001
4.487049e+002, 3.487048e+001
4.491870e+002, 3.471680e+001
4.496691e+002, 3.494767e+001
4.501512e+002, 3.531896e+001
4.506333e+002, 3.605989e+001
4.511154e+002, 3.668939e+001
4.515976e+002, 3.665997e+001
4.520797e+002, 3.571295e+001
4.525618e+002, 3.495868e+001
4.530439e+002, 3.451968e+001
4.535260e+002, 3.440977e+001
4.540081e+002, 3.483466e+001
4.544903e+002, 3.592052e+001
4.549724e+002, 3.672530e+001
4.554545e+002, 3.649585e+001
4.559366e+002, 3.541742e+001
4.564187e+002, 3.483096e+001
4.569008e+002, 3.482597e+001
4.573830e+002, 3.506960e+001
4.578651e+002, 3.526619e+001
4.583472e+002, 3.540772e+001
4.588293e+002, 3.544036e+001
4.593114e+002, 3.521961e+001
4.597935e+002, 3.501281e+001
4.602757e+002, 3.526835e+001
4.607578e+002, 3.589080e+001
4.612399e+002, 3.640285e+001
4.617220e+002, 3.645537e+001
4.622041e+002, 3.628824e+001
4.626862e+002, 3.610386e+001
4.631684e+002, 3.592125e+001
4.636505e+002, 3.577404e+001
4.641326e+002, 3.581070e+001
4.646147e+002, 3.585691e+001
4.650968e+002, 3.568497e+001
4.655789e+002, 3.471415e+001
4.660611e+002, 3.404260e+001
4.665432e+002, 3.420610e+001
4.670253e+002, 3.511594e+001
4.675074e+002, 3.570902e+001
4.679895e+002, 3.573580e+001
4.684716e+002, 3.552044e+001
4.689538e+002, 3.517959e+001
4.694359e+002, 3.454985e+001
4.699180e+002, 3.416811e+001
4.704001e+002, 3.412280e+001
4.708822e+002, 3.426052e+001
4.713643e+002, 3.439359e+001
4.718465e+002, 3.459701e+001
4.723286e+002, 3.453843e+001
4.728107e+002, 3.393328e+001
4.732928e+002, 3.297963e+001
4.737749e+002, 3.303950e+001
4.742570e+002, 3.433839e+001
4.747392e+002, 3.546185e+001
4.752213e+002, 3.505223e+001
4.757034e+002, 3.338063e+001
4.761855e+002, 3.234214e+001
4.766676e+002, 3.220715e+001
4.771497e+002, 3.248291e+001
4.776319e+002, 3.255512e+001
4.781140e+002, 3.249319e+001
4.785961e+002, 3.252242e+001
4.790782e+002, 3.280895e+001
4.795603e+002, 3.319587e+001
4.800424e+002, 3.361250e+001
4.805246e+002, 3.402633e+001
4.810067e+002, 3.416540e+001
4.814888e+002, 3.348152e+001
4.819709e+002, 3.265746e+001
4.824530e+002, 3.238152e+001
4.829352e+002, 3.308419e+001
4.834173e+002, 3.358928e+001
4.838994e+002, 3.301681e+001
4.843815e+002, 3.204494e+001
4.848636e+002, 3.171191e+001
4.853457e+002, 3.314989e+001
4.858279e+002, 3.432704e+001
4.863100e+002, 3.454468e+001
4.867921e+002, 3.378957e+001
4.872742e+002, 3.336919e+001
4.877563e+002, 3.360849e+001
4.882384e+002, 3.384949e+001
4.887206e+002, 3.369192e+001
4.892027e+002, 3.290779e+001
4.896848e+002, 3.237212e+001
4.901669e+002, 3.221764e+001
4.906490e+002, 3.218248e+001
4.911311e+002, 3.172809e+001
4.916133e+002, 3.074576e+001
4.920954e+002, 3.014166e+001
4.925775e+002, 3.032465e+001
4.930596e+002, 3.106550e+001
4.935417e+002, 3.151484e+001
4.940238e+002, 3.166784e+001
4.945060e+002, 3.174106e+001
4.949881e+002, 3.194454e+001
4.954702e+002, 3.218641e+001
4.959523e+002, 3.220378e+001
4.964344e+002, 3.192196e+001
4.969165e+002, 3.159852e+001
4.973987e+002, 3.148411e+001
4.978808e+002, 3.151206e+001
4.983629e+002, 3.155934e+001
4.988450e+002, 3.163233e+001
4.993271e+002, 3.165975e+001
4.998092e+002, 3.159019e+001
5.002914e+002, 3.143067e+001
5.007735e+002, 3.122685e+001
5.012556e+002, 3.092972e+001
5.017377e+002, 3.064024e+001
5.022198e+002, 3.041475e+001
5.027019e+002, 3.025949e+001
5.031841e+002, 3.016417e+001
5.036662e+002, 3.014125e+001
5.041483e+002, 3.017297e+001
5.046304e+002, 3.025372e+001
5.051125e+002, 3.054364e+001
5.055946e+002, 3.059979e+001
5.060768e+002, 3.016934e+001
5.065589e+002, 2.943324e+001
5.070410e+002, 2.938627e+001
5.075231e+002, 3.027490e+001
5.080052e+002, 3.115683e+001
5.084873e+002, 3.155277e+001
5.089695e+002, 3.145389e+001
5.094516e+002, 3.114686e+001
5.099337e+002, 3.057609e+001
5.104158e+002, 3.003651e+001
5.108979e+002, 2.988661e+001
5.113800e+002, 3.006860e+001
5.118622e+002, 3.034518e+001
5.123443e+002, 3.069846e+001
5.128264e+002, 3.105043e+001
5.133085e+002, 3.139572e+001
5.137906e+002, 3.167982e+001
5.142728e+002, 3.170654e+001
5.147549e+002, 3.108811e+001
5.152370e+002, 3.034567e+001
5.157191e+002, 2.993819e+001
5.162012e+002, 2.991206e+001
5.166833e+002, 2.997074e+001
5.171655e+002, 3.003345e+001
5.176476e+002, 3.008888e+001
5.181297e+002, 3.012740e+001
5.186118e+002, 3.014852e+001
5.190939e+002, 3.015120e+001
5.195760e+002, 3.013759e+001
5.200582e+002, 3.010486e+001
5.205403e+002, 3.003355e+001
5.210224e+002, 2.974091e+001
5.215045e+002, 2.967801e+001
5.219866e+002, 3.010076e+001
5.224688e+002, 3.100858e+001
5.229509e+002, 3.140283e+001
5.234330e+002, 3.118431e+001
5.239151e+002, 3.069147e+001
5.243972e+002, 2.998967e+001
5.248793e+002, 2.906681e+001
5.253615e+002, 2.885323e+001
5.258436e+002, 2.956639e+001
5.263257e+002, 3.062840e+001
5.268078e+002, 3.131296e+001
5.272899e+002, 3.162745e+001
5.277720e+002, 3.156781e+001
5.282542e+002, 3.093101e+001
5.287363e+002, 3.007780e+001
5.292184e+002, 2.937985e+001
5.297005e+002, 2.885983e+001
5.301826e+002, 2.860561e+001
5.306647e+002, 2.879662e+001
5.311469e+002, 2.920336e+001
5.316290e+002, 2.972593e+001
5.321111e+002, 3.043442e+001
5.325932e+002, 3.082033e+001
5.330753e+002, 3.041541e+001
5.335574e+002, 2.970479e+001
5.340396e+002, 2.919842e+001
5.345217e+002, 2.909857e+001
5.350038e+002, 2.907027e+001
5.354859e+002, 2.908371e+001
5.359680e+002, 2.913461e+001
5.364501e+002, 2.921860e+001
5.369323e+002, 2.937653e+001
5.374144e+002, 2.949819e+001
5.378965e+002, 2.953843e+001
5.383786e+002, 2.949578e+001
5.388607e+002, 2.938916e+001
5.393428e+002, 2.915420e+001
5.398250e+002, 2.905545e+001
5.403071e+002, 2.952703e+001
5.407892e+002, 3.047014e+001
5.412713e+002, 3.094938e+001
5.417534e+002, 3.074785e+001
5.422355e+002, 3.024137e+001
5.427177e+002, 2.978223e+001
5.431998e+002, 2.942342e+001
5.436819e+002, 2.934885e+001
5.441640e+002, 2.997864e+001
5.446461e+002, 3.069444e+001
5.451282e+002, 3.097713e+001
5.456104e+002, 3.084102e+001
5.460925e+002, 3.040377e+001
5.465746e+002, 2.918359e+001
5.470567e+002, 2.806699e+001
5.475388e+002, 2.769755e+001
5.480209e+002, 2.836241e+001
5.485031e+002, 2.911952e+001
5.489852e+002, 3.022428e+001
5.494673e+002, 3.111679e+001
5.499494e+002, 3.116443e+001
5.504315e+002, 2.939324e+001
5.509136e+002, 2.831758e+001
5.513958e+002, 2.847397e+001
5.518779e+002, 2.942231e+001
5.523600e+002, 2.983095e+001
5.528421e+002, 2.957578e+001
5.533242e+002, 2.922220e+001
5.538063e+002, 2.896606e+001
5.542885e+002, 2.880651e+001
5.547706e+002, 2.872148e+001
5.552527e+002, 2.870518e+001
5.557348e+002, 2.882394e+001
5.562169e+002, 2.920056e+001
5.566990e+002, 2.975401e+001
5.571812e+002, 3.031321e+001
5.576633e+002, 3.087875e+001
5.581454e+002, 3.133811e+001
5.586275e+002, 3.162893e+001
5.591096e+002, 3.173016e+001
5.595917e+002, 3.160990e+001
5.600739e+002, 3.101776e+001
5.605560e+002, 3.042677e+001
5.610381e+002, 3.007774e+001
5.615202e+002, 2.993552e+001
5.620023e+002, 2.982130e+001
5.624844e+002, 2.953481e+001
5.629666e+002, 2.939988e+001
5.634487e+002, 2.967306e+001
5.639308e+002, 3.052220e+001
5.644129e+002, 3.091038e+001
5.648950e+002, 3.055966e+001
5.653771e+002, 3.005118e+001
5.658593e+002, 2.991685e+001
5.663414e+002, 3.031020e+001
5.668235e+002, 3.035863e+001
5.673056e+002, 2.983216e+001
5.677877e+002, 2.914828e+001
5.682698e+002, 2.917385e+001
5.687520e+002, 2.986291e+001
5.692341e+002, 3.042599e+001
5.697162e+002, 3.046855e+001
5.701983e+002, 3.026752e+001
5.706804e+002, 3.038867e+001
5.711625e+002, 3.077825e+001
5.716447e+002, 3.106354e+001
5.721268e+002, 3.092534e+001
5.726089e+002, 3.061004e+001
5.730910e+002, 3.036246e+001
5.735731e+002, 3.022161e+001
5.740552e+002, 3.004347e+001
5.745374e+002, 2.968615e+001
5.750195e+002, 2.929582e+001
5.755016e+002, 2.900757e+001
5.759837e+002, 2.884735e+001
5.764658e+002, 2.879184e+001
5.769479e+002, 2.892497e+001
5.774301e+002, 2.913934e+001
5.779122e+002, 2.923659e+001
5.783943e+002, 2.923636e+001
5.788764e+002, 2.905570e+001
5.793585e+002, 2.854095e+001
5.798406e+002, 2.779771e+001
5.803228e+002, 2.763827e+001
5.808049e+002, 2.813030e+001
5.812870e+002, 2.876620e+001
5.817691e+002, 2.929470e+001
5.822512e+002, 2.969909e+001
5.827333e+002, 2.992888e+001
5.832155e+002, 2.998312e+001
5.836975e+002, 2.984994e+001
5.841796e+002, 2.929256e+001
5.846617e+002, 2.859246e+001
5.851439e+002, 2.824434e+001
5.856260e+002, 2.856586e+001
5.861081e+002, 2.893733e+001
5.865902e+002, 2.885823e+001
5.870723e+002, 2.857390e+001
5.875544e+002, 2.855688e+001
5.880366e+002, 2.939413e+001
5.885187e+002, 3.006124e+001
5.890008e+002, 3.012535e+001
5.894829e+002, 2.961423e+001
5.899650e+002, 2.927723e+001
5.904471e+002, 2.910213e+001
5.909293e+002, 2.911836e+001
5.914114e+002, 2.938873e+001
5.918935e+002, 2.996714e+001
5.923756e+002, 3.047538e+001
5.928577e+002, 3.099261e+001
5.933398e+002, 3.122475e+001
5.938220e+002, 3.053483e+001
5.943041e+002, 2.910965e+001
5.947862e+002, 2.852986e+001
5.952683e+002, 2.929410e+001
5.957504e+002, 3.042999e+001
5.962325e+002, 3.065718e+001
5.967147e+002, 3.024528e+001
5.971968e+002, 2.989379e+001
5.976789e+002, 3.011339e+001
5.981610e+002, 3.033646e+001
5.986431e+002, 3.002931e+001
5.991252e+002, 2.932306e+001
5.996074e+002, 2.883000e+001
6.000895e+002, 2.891325e+001
6.005716e+002, 2.913326e+001
6.010537e+002, 2.927047e+001
6.015358e+002, 2.926681e+001
6.020179e+002, 2.940357e+001
6.025001e+002, 2.992767e+001
6.029822e+002, 3.035021e+001
6.034643e+002, 3.019910e+001
6.039464e+002, 2.918602e+001
6.044285e+002, 2.880217e+001
6.049106e+002, 2.931498e+001
6.053928e+002, 3.014949e+001
6.058749e+002, 3.046440e+001
6.063570e+002, 3.028379e+001
6.068391e+002, 2.987393e+001
6.073212e+002, 2.911172e+001
6.078033e+002, 2.842476e+001
6.082855e+002, 2.865110e+001
6.087676e+002, 2.956821e+001
6.092497e+002, 3.036557e+001
6.097318e+002, 3.045619e+001
6.102139e+002, 3.034465e+001
6.106960e+002, 3.043001e+001
6.111782e+002, 3.072428e+001
6.116603e+002, 3.095651e+001
6.121424e+002, 3.117352e+001
6.126245e+002, 3.119790e+001
6.131066e+002, 3.086020e+001
6.135887e+002, 2.980392e+001
6.140709e+002, 2.920027e+001
6.145530e+002, 2.926075e+001
6.150351e+002, 2.957941e+001
6.155172e+002, 2.972135e+001
6.159993e+002, 2.962831e+001
6.164814e+002, 2.963233e+001
6.169636e+002, 2.979141e+001
6.174457e+002, 3.005277e+001
6.179278e+002, 3.044138e+001
6.184099e+002, 3.091634e+001
6.188920e+002, 3.106359e+001
6.193741e+002, 3.045179e+001
6.198563e+002, 2.960551e+001
6.203384e+002, 2.936568e+001
6.208205e+002, 2.962766e+001
6.213026e+002, 2.986904e+001
6.217847e+002, 2.974313e+001
6.222668e+002, 2.951361e+001
6.227490e+002, 2.935669e+001
6.232311e+002, 2.928856e+001
6.237132e+002, 2.929303e+001
6.241953e+002, 2.943079e+001
6.246774e+002, 2.959658e+001
6.251595e+002, 2.971318e+001
6.256417e+002, 2.971686e+001
6.261238e+002, 2.981113e+001
6.266059e+002, 3.007813e+001
6.270880e+002, 3.034617e+001
6.275701e+002, 3.035500e+001
6.280522e+002, 3.007558e+001
6.285344e+002, 2.985058e+001
6.290165e+002, 2.982653e+001
6.294986e+002, 2.978348e+001
6.299807e+002, 2.899619e+001
6.304628e+002, 2.766893e+001
6.309449e+002, 2.691728e+001
6.314271e+002, 2.787342e+001
6.319092e+002, 2.930039e+001
6.323913e+002, 2.981424e+001
6.328734e+002, 2.952963e+001
6.333555e+002, 2.921622e+001
6.338376e+002, 2.919681e+001
6.343198e+002, 2.931455e+001
6.348019e+002, 2.949927e+001
6.352840e+002, 2.976313e+001
6.357661e+002, 2.999410e+001
6.362482e+002, 3.025997e+001
6.367303e+002, 3.042760e+001
6.372125e+002, 3.036946e+001
6.376946e+002, 2.993957e+001
6.381767e+002, 2.968414e+001
6.386588e+002, 2.957949e+001
6.391409e+002, 2.972869e+001
6.396230e+002, 3.057403e+001
6.401052e+002, 3.203400e+001
6.405873e+002, 3.269347e+001
6.410694e+002, 3.191522e+001
6.415515e+002, 3.064395e+001
6.420336e+002, 3.031787e+001
6.425157e+002, 3.068968e+001
6.429979e+002, 3.103442e+001
6.434800e+002, 3.085519e+001
6.439621e+002, 3.063715e+001
6.444442e+002, 3.080415e+001
6.449263e+002, 3.127822e+001
6.454084e+002, 3.157250e+001
6.458906e+002, 3.125035e+001
6.463727e+002, 3.095621e+001
6.468548e+002, 3.109324e+001
6.473369e+002, 3.177295e+001
6.478190e+002, 3.201900e+001
6.483011e+002, 3.167521e+001
6.487833e+002, 3.112844e+001
6.492654e+002, 3.055873e+001
6.497475e+002, 2.992321e+001
6.502296e+002, 2.983337e+001
6.507117e+002, 3.041972e+001
6.511938e+002, 3.116907e+001
6.516760e+002, 3.150974e+001
6.521581e+002, 3.149336e+001
6.526402e+002, 3.118549e+001
6.531223e+002, 3.036551e+001
6.536044e+002, 2.976541e+001
6.540865e+002, 3.037310e+001
6.545687e+002, 3.162966e+001
6.550508e+002, 3.246092e+001
6.555329e+002, 3.203658e+001
6.560150e+002, 3.156742e+001
6.564971e+002, 3.147125e+001
6.569792e+002, 3.170865e+001
6.574614e+002, 3.204417e+001
6.579435e+002, 3.280126e+001
6.584256e+002, 3.317013e+001
6.589077e+002, 3.270452e+001
6.593898e+002, 3.146087e+001
6.598719e+002, 3.092433e+001
6.603541e+002, 3.121872e+001
6.608362e+002, 3.163884e+001
6.613183e+002, 3.165359e+001
6.618004e+002, 3.137769e+001
6.622825e+002, 3.128235e+001
6.627646e+002, 3.140046e+001
6.632468e+002, 3.157088e+001
6.637289e+002, 3.173965e+001
6.642110e+002, 3.184097e+001
6.646931e+002, 3.173626e+001
6.651752e+002, 3.124629e+001
6.656573e+002, 3.094851e+001
6.661395e+002, 3.125140e+001
6.666216e+002, 3.182554e+001
6.671037e+002, 3.226553e+001
6.675858e+002, 3.260790e+001
6.680679e+002, 3.266088e+001
6.685500e+002, 3.220274e+001
6.690322e+002, 3.153756e+001
6.695143e+002, 3.142576e+001
6.699964e+002, 3.202306e+001
6.704785e+002, 3.238073e+001
6.709606e+002, 3.208418e+001
6.714427e+002, 3.143924e+001
6.719249e+002, 3.136346e+001
6.724070e+002, 3.178943e+001
6.728891e+002, 3.218227e+001
6.733712e+002, 3.223675e+001
6.738533e+002, 3.207930e+001
6.743354e+002, 3.171515e+001
6.748176e+002, 3.119027e+001
6.752997e+002, 3.093027e+001
6.757818e+002, 3.152729e+001
6.762639e+002, 3.217115e+001
6.767460e+002, 3.229630e+001
6.772281e+002, 3.164324e+001
6.777103e+002, 3.125796e+001
6.781924e+002, 3.129652e+001
6.786745e+002, 3.149180e+001
6.791566e+002, 3.167216e+001
6.796387e+002, 3.185019e+001
6.801208e+002, 3.188709e+001
6.806030e+002, 3.167161e+001
6.810851e+002, 3.159233e+001
6.815672e+002, 3.246370e+001
6.820493e+002, 3.397573e+001
6.825314e+002, 3.477549e+001
6.830135e+002, 3.436683e+001
6.834957e+002, 3.352657e+001
6.839778e+002, 3.285228e+001
6.844599e+002, 3.235835e+001
6.849420e+002, 3.209400e+001
6.854241e+002, 3.218460e+001
6.859063e+002, 3.238214e+001
6.863884e+002, 3.284330e+001
6.868705e+002, 3.337277e+001
6.873526e+002, 3.326394e+001
6.878347e+002, 3.168712e+001
6.883168e+002, 3.065425e+001
6.887990e+002, 3.089293e+001
6.892811e+002, 3.216934e+001
6.897632e+002, 3.291808e+001
6.902453e+002, 3.309064e+001
6.907274e+002, 3.306588e+001
6.912095e+002, 3.307222e+001
6.916917e+002, 3.304794e+001
6.921738e+002, 3.268365e+001
6.926559e+002, 3.200235e+001
6.931380e+002, 3.149227e+001
6.936201e+002, 3.167975e+001
6.941022e+002, 3.211220e+001
6.945844e+002, 3.232339e+001
6.950665e+002, 3.220501e+001
6.955486e+002, 3.218723e+001
6.960307e+002, 3.272350e+001
6.965128e+002, 3.321843e+001
6.969949e+002, 3.316770e+001
6.974771e+002, 3.212736e+001
6.979592e+002, 3.146121e+001
6.984413e+002, 3.120884e+001
6.989234e+002, 3.128926e+001
6.994055e+002, 3.170153e+001
6.998876e+002, 3.245406e+001
7.003698e+002, 3.315044e+001
7.008519e+002, 3.380091e+001
7.013340e+002, 3.414650e+001
7.018161e+002, 3.349754e+001
7.022982e+002, 3.224688e+001
7.027803e+002, 3.138100e+001
7.032625e+002, 3.137751e+001
7.037446e+002, 3.174223e+001
7.042267e+002, 3.242840e+001
7.047088e+002, 3.322504e+001
7.051909e+002, 3.366104e+001
7.056730e+002, 3.339313e+001
7.061552e+002, 3.297458e+001
7.066373e+002, 3.238280e+001
7.071194e+002, 3.172684e+001
7.076015e+002, 3.156841e+001
7.080836e+002, 3.206650e+001
7.085657e+002, 3.258514e+001
7.090479e+002, 3.287841e+001
7.095300e+002, 3.298323e+001
7.100121e+002, 3.299525e+001
7.104942e+002, 3.292244e+001
7.109763e+002, 3.295575e+001
7.114584e+002, 3.342572e+001
7.119406e+002, 3.396779e+001
7.124227e+002, 3.405905e+001
7.129048e+002, 3.368773e+001
7.133869e+002, 3.334654e+001
7.138690e+002, 3.336697e+001
7.143511e+002, 3.343278e+001
7.148333e+002, 3.328575e+001
7.153154e+002, 3.273576e+001
7.157975e+002, 3.254697e+001
7.162796e+002, 3.289559e+001
7.167617e+002, 3.339257e+001
7.172438e+002, 3.378568e+001
7.177260e+002, 3.408305e+001
7.182081e+002, 3.413865e+001
7.186902e+002, 3.391631e+001
7.191723e+002, 3.356517e+001
7.196544e+002, 3.312448e+001
7.201365e+002, 3.270026e+001
7.206187e+002, 3.261823e+001
7.211008e+002, 3.306886e+001
7.215829e+002, 3.350472e+001
7.220650e+002, 3.333402e+001
7.225471e+002, 3.296009e+001
7.230292e+002, 3.292183e+001
7.235114e+002, 3.396690e+001
7.239935e+002, 3.462300e+001
7.244756e+002, 3.437463e+001
7.249577e+002, 3.371355e+001
7.254398e+002, 3.347903e+001
7.259219e+002, 3.382814e+001
7.264041e+002, 3.412775e+001
7.268862e+002, 3.423037e+001
7.273683e+002, 3.421417e+001
7.278504e+002, 3.422550e+001
7.283325e+002, 3.427108e+001
7.288146e+002, 3.441125e+001
7.292968e+002, 3.485448e+001
7.297789e+002, 3.524862e+001
7.302610e+002, 3.507460e+001
7.307431e+002, 3.449121e+001
7.312252e+002, 3.402501e+001
7.317073e+002, 3.396162e+001
7.321895e+002, 3.400620e+001
7.326716e+002, 3.407584e+001
7.331537e+002, 3.415873e+001
7.336358e+002, 3.416377e+001
7.341179e+002, 3.401374e+001
7.346000e+002, 3.391326e+001
7.350822e+002, 3.390537e+001
7.355643e+002, 3.400587e+001
7.360464e+002, 3.449712e+001
7.365285e+002, 3.540520e+001
7.370106e+002, 3.618917e+001
7.374927e+002, 3.650542e+001
7.379749e+002, 3.642725e+001
7.384570e+002, 3.584701e+001
7.389391e+002, 3.479747e+001
7.394212e+002, 3.414050e+001
7.399033e+002, 3.491460e+001
7.403854e+002, 3.589495e+001
7.408676e+002, 3.609814e+001
7.413497e+002, 3.510238e+001
7.418318e+002, 3.461921e+001
7.423139e+002, 3.525509e+001
7.427960e+002, 3.585976e+001
7.432781e+002, 3.547361e+001
7.437603e+002, 3.383497e+001
7.442424e+002, 3.316870e+001
7.447245e+002, 3.367410e+001
7.452066e+002, 3.455884e+001
7.456887e+002, 3.512366e+001
7.461708e+002, 3.541339e+001
7.466530e+002, 3.548024e+001
7.471351e+002, 3.528225e+001
7.476172e+002, 3.513708e+001
7.480993e+002, 3.540521e+001
7.485814e+002, 3.579899e+001
7.490635e+002, 3.597467e+001
7.495457e+002, 3.548926e+001
7.500278e+002, 3.538707e+001
7.505099e+002, 3.621639e+001
7.509920e+002, 3.721430e+001
7.514741e+002, 3.740030e+001
7.519562e+002, 3.649656e+001
7.524384e+002, 3.599535e+001
7.529205e+002, 3.621195e+001
7.534026e+002, 3.666202e+001
7.538847e+002, 3.650982e+001
7.543668e+002, 3.590435e+001
7.548489e+002, 3.543253e+001
7.553311e+002, 3.526416e+001
7.558132e+002, 3.530600e+001
7.562953e+002, 3.561049e+001
7.567774e+002, 3.604661e+001
7.572595e+002, 3.637789e+001
7.577416e+002, 3.652485e+001
7.582238e+002, 3.656983e+001
7.587059e+002, 3.647545e+001
7.591880e+002, 3.630868e+001
7.596701e+002, 3.623396e+001
7.601522e+002, 3.633371e+001
7.606343e+002, 3.622130e+001
7.611165e+002, 3.566233e+001
7.615986e+002, 3.496900e+001
7.620807e+002, 3.501896e+001
7.625628e+002, 3.569046e+001
7.630449e+002, 3.626918e+001
7.635270e+002, 3.625698e+001
7.640092e+002, 3.615119e+001
7.644913e+002, 3.655879e+001
7.649734e+002, 3.727941e+001
7.654555e+002, 3.769678e+001
7.659376e+002, 3.729097e+001
7.664197e+002, 3.685249e+001
7.669019e+002, 3.664730e+001
7.673840e+002, 3.663621e+001
7.678661e+002, 3.667082e+001
7.683482e+002, 3.681856e+001
7.688303e+002, 3.679808e+001
7.693124e+002, 3.637703e+001
7.697946e+002, 3.574391e+001
7.702767e+002, 3.557071e+001
7.707588e+002, 3.582713e+001
7.712409e+002, 3.623055e+001
7.717230e+002, 3.677285e+001
7.722051e+002, 3.726501e+001
7.726873e+002, 3.748653e+001
7.731694e+002, 3.746291e+001
7.736515e+002, 3.741198e+001
7.741336e+002, 3.747014e+001
7.746157e+002, 3.745855e+001
7.750978e+002, 3.725401e+001
7.755800e+002, 3.686848e+001
7.760621e+002, 3.662458e+001
7.765442e+002, 3.654883e+001
7.770263e+002, 3.654007e+001
7.775084e+002, 3.655635e+001
7.779905e+002, 3.659502e+001
7.784727e+002, 3.663919e+001
7.789548e+002, 3.668984e+001
7.794369e+002, 3.676770e+001
7.799190e+002, 3.696069e+001
7.804011e+002, 3.713934e+001
7.808832e+002, 3.710400e+001
7.813654e+002, 3.684926e+001
7.818475e+002, 3.677436e+001
7.823296e+002, 3.717714e+001
7.828117e+002, 3.764113e+001
7.832938e+002, 3.797646e+001
7.837759e+002, 3.817908e+001
7.842581e+002, 3.828992e+001
7.847402e+002, 3.829378e+001
7.852223e+002, 3.825292e+001
7.857044e+002, 3.815500e+001
7.861865e+002, 3.804408e+001
7.866686e+002, 3.817853e+001
7.871508e+002, 3.856032e+001
7.876329e+002, 3.879567e+001
7.881150e+002, 3.838200e+001
7.885971e+002, 3.781340e+001
7.890792e+002, 3.758691e+001
7.895613e+002, 3.778583e+001
7.900435e+002, 3.800376e+001
7.905256e+002, 3.813373e+001
7.910077e+002, 3.826915e+001
7.914898e+002, 3.852309e+001
7.919719e+002, 3.896948e+001
7.924540e+002, 3.890460e+001
7.929362e+002, 3.821285e+001
7.934183e+002, 3.748938e+001
7.939004e+002, 3.721027e+001
7.943825e+002, 3.729665e+001
7.948646e+002, 3.767179e+001
7.953467e+002, 3.833881e+001
7.958289e+002, 3.876980e+001
7.963110e+002, 3.826060e+001
7.967931e+002, 3.756133e+001
7.972752e+002, 3.736181e+001
7.977573e+002, 3.790620e+001
7.982394e+002, 3.821849e+001
7.987216e+002, 3.794073e+001
7.992037e+002, 3.767612e+001
7.996858e+002, 3.787851e+001
8.001679e+002, 3.865899e+001
8.006500e+002, 3.900071e+001
8.011321e+002, 3.885713e+001
8.016143e+002, 3.860180e+001
8.020964e+002, 3.866787e+001
8.025785e+002, 3.883849e+001
8.030606e+002, 3.855777e+001
8.035427e+002, 3.772143e+001
8.040248e+002, 3.717022e+001
8.045070e+002, 3.759465e+001
8.049891e+002, 3.836225e+001
8.054712e+002, 3.904814e+001
8.059533e+002, 3.968314e+001
8.064354e+002, 3.994284e+001
8.069175e+002, 3.969946e+001
8.073997e+002, 3.926569e+001
8.078818e+002, 3.869287e+001
8.083639e+002, 3.800221e+001
8.088460e+002, 3.820648e+001
8.093281e+002, 3.941672e+001
8.098102e+002, 4.056514e+001
8.102924e+002, 4.057890e+001
8.107745e+002, 3.999109e+001
8.112566e+002, 3.949565e+001
8.117387e+002, 3.919659e+001
8.122208e+002, 3.891021e+001
8.127029e+002, 3.844368e+001
8.131851e+002, 3.805497e+001
8.136672e+002, 3.792279e+001
8.141493e+002, 3.806949e+001
8.146314e+002, 3.842675e+001
8.151135e+002, 3.912914e+001
8.155956e+002, 3.969851e+001
8.160778e+002, 3.954516e+001
8.165599e+002, 3.888557e+001
8.170420e+002, 3.889697e+001
8.175241e+002, 3.965823e+001
8.180062e+002, 4.018949e+001
8.184883e+002, 3.923357e+001
8.189705e+002, 3.797933e+001
8.194526e+002, 3.769112e+001
8.199347e+002, 3.866674e+001
8.204168e+002, 3.948457e+001
8.208989e+002, 4.013139e+001
8.213810e+002, 4.026152e+001
8.218632e+002, 3.943501e+001
8.223453e+002, 3.743975e+001
8.228274e+002, 3.674184e+001
8.233095e+002, 3.751161e+001
8.237916e+002, 3.860293e+001
8.242737e+002, 3.924323e+001
8.247559e+002, 3.951151e+001
8.252380e+002, 3.937661e+001
8.257201e+002, 3.886492e+001
8.262022e+002, 3.864982e+001
8.266843e+002, 3.959335e+001
8.271664e+002, 4.062066e+001
8.276486e+002, 4.090932e+001
8.281307e+002, 4.023870e+001
8.286128e+002, 3.997559e+001
8.290949e+002, 4.037778e+001
8.295770e+002, 4.074462e+001
8.300591e+002, 4.061076e+001
8.305413e+002, 4.004248e+001
8.310234e+002, 3.984378e+001
8.315055e+002, 4.000933e+001
8.319876e+002, 4.015837e+001
8.324697e+002, 3.991973e+001
8.329518e+002, 3.958428e+001
8.334340e+002, 3.955302e+001
8.339161e+002, 3.981281e+001
8.343982e+002, 3.985543e+001
8.348803e+002, 3.918315e+001
8.353624e+002, 3.857195e+001
8.358445e+002, 3.835137e+001
8.363267e+002, 3.850931e+001
8.368088e+002, 3.882166e+001
8.372909e+002, 3.934161e+001
8.377730e+002, 3.976386e+001
8.382551e+002, 3.988163e+001
8.387372e+002, 3.979089e+001
8.392194e+002, 3.966774e+001
8.397015e+002, 3.953432e+001
8.401836e+002, 3.951817e+001
8.406657e+002, 3.994150e+001
8.411478e+002, 4.028249e+001
8.416299e+002, 4.006291e+001
8.421121e+002, 3.936699e+001
8.425942e+002, 3.907158e+001
8.430763e+002, 3.949052e+001
8.435584e+002, 3.983390e+001
8.440405e+002, 3.984875e+001
8.445226e+002, 3.960115e+001
8.450048e+002, 3.925602e+001
8.454869e+002, 3.883208e+001
8.459690e+002, 3.862555e+001
8.464511e+002, 3.899963e+001
8.469332e+002, 3.948658e+001
8.474153e+002, 3.962592e+001
8.478975e+002, 3.946444e+001
8.483796e+002, 3.913411e+001
8.488617e+002, 3.825075e+001
8.493438e+002, 3.771073e+001
8.498259e+002, 3.791401e+001
8.503080e+002, 3.858829e+001
8.507902e+002, 3.908120e+001
8.512723e+002, 3.938855e+001
8.517544e+002, 3.949836e+001
8.522365e+002, 3.934440e+001
8.527186e+002, 3.908849e+001
8.532007e+002, 3.897237e+001
8.536829e+002, 3.898997e+001
8.541650e+002, 3.912904e+001
8.546471e+002, 3.955286e+001
8.551292e+002, 3.988031e+001
8.556113e+002, 3.989364e+001
8.560934e+002, 3.969400e+001
8.565756e+002, 3.946308e+001
8.570577e+002, 3.918008e+001
8.575398e+002, 3.892010e+001
8.580219e+002, 3.865552e+001
8.585040e+002, 3.846500e+001
8.589861e+002, 3.857275e+001
8.594683e+002, 3.890285e+001
8.599504e+002, 3.900898e+001
8.604325e+002, 3.872233e+001
8.609146e+002, 3.839844e+001
8.613967e+002, 3.853294e+001
8.618788e+002, 3.874910e+001
8.623610e+002, 3.854810e+001
8.628431e+002, 3.734031e+001
8.633252e+002, 3.657063e+001
8.638073e+002, 3.644214e+001
8.642894e+002, 3.668782e+001
8.647715e+002, 3.716100e+001
8.652537e+002, 3.788818e+001
8.657358e+002, 3.829455e+001
8.662179e+002, 3.832395e+001
8.667000e+002, 3.815429e+001
8.671821e+002, 3.784670e+001
8.676642e+002, 3.750711e+001
8.681464e+002, 3.726723e+001
8.686285e+002, 3.713128e+001
8.691106e+002, 3.719709e+001
8.695927e+002, 3.790577e+001
8.700748e+002, 3.848936e+001
8.705569e+002, 3.836824e+001
8.710391e+002, 3.738387e+001
8.715212e+002, 3.683358e+001
8.720033e+002, 3.680821e+001
8.724854e+002, 3.686303e+001
8.729675e+002, 3.667077e+001
8.734496e+002, 3.630611e+001
8.739318e+002, 3.583490e+001
8.744139e+002, 3.529492e+001
8.748960e+002, 3.505894e+001
8.753781e+002, 3.570073e+001
8.758602e+002, 3.640879e+001
8.763423e+002, 3.662899e+001
8.768245e+002, 3.633388e+001
8.773066e+002, 3.622765e+001
8.777887e+002, 3.640829e+001
8.782708e+002, 3.656203e+001
8.787529e+002, 3.657573e+001
8.792350e+002, 3.646468e+001
8.797172e+002, 3.625521e+001
8.801993e+002, 3.595756e+001
8.806814e+002, 3.561765e+001
8.811635e+002, 3.515642e+001
8.816456e+002, 3.475639e+001
8.821277e+002, 3.457679e+001
8.826099e+002, 3.456955e+001
8.830920e+002, 3.459426e+001
8.835741e+002, 3.483146e+001
8.840562e+002, 3.475376e+001
8.845383e+002, 3.403136e+001
8.850204e+002, 3.314797e+001
8.855026e+002, 3.336272e+001
8.859847e+002, 3.458559e+001
8.864668e+002, 3.548821e+001
8.869489e+002, 3.568087e+001
8.874310e+002, 3.542812e+001
8.879131e+002, 3.470433e+001
8.883953e+002, 3.382972e+001
8.888774e+002, 3.328859e+001
8.893595e+002, 3.349119e+001
8.898416e+002, 3.362386e+001
8.903237e+002, 3.355688e+001
8.908058e+002, 3.338838e+001
8.912880e+002, 3.319107e+001
8.917701e+002, 3.295776e+001
8.922522e+002, 3.283432e+001
8.927343e+002, 3.285426e+001
8.932164e+002, 3.284717e+001
8.936985e+002, 3.243403e+001
8.941807e+002, 3.196563e+001
8.946628e+002, 3.207703e+001
8.951449e+002, 3.298041e+001
8.956270e+002, 3.358782e+001
8.961091e+002, 3.331473e+001
8.965912e+002, 3.278571e+001
8.970734e+002, 3.234456e+001
8.975555e+002, 3.199295e+001
8.980376e+002, 3.179171e+001
8.985197e+002, 3.177551e+001
8.990018e+002, 3.171222e+001
8.994839e+002, 3.132238e+001
8.999661e+002, 3.082417e+001
9.004482e+002, 3.065487e+001
9.009303e+002, 3.078103e+001
9.014124e+002, 3.094054e+001
9.018945e+002, 3.106543e+001
9.023766e+002, 3.113451e+001
9.028588e+002, 3.117480e+001
9.033409e+002, 3.115797e+001
9.038230e+002, 3.087236e+001
9.043051e+002, 3.017802e+001
9.047872e+002, 2.977225e+001
9.052693e+002, 2.996210e+001
9.057515e+002, 3.047514e+001
9.062336e+002, 3.091505e+001
9.067157e+002, 3.122101e+001
9.071978e+002, 3.120408e+001
9.076799e+002, 3.036731e+001
9.081620e+002, 2.972271e+001
9.086442e+002, 2.994934e+001
9.091263e+002, 3.058633e+001
9.096084e+002, 3.087511e+001
9.100905e+002, 3.076007e+001
9.105726e+002, 3.033069e+001
9.110547e+002, 2.943197e+001
9.115369e+002, 2.860157e+001
9.120190e+002, 2.870008e+001
9.125011e+002, 2.943270e+001
9.129832e+002, 2.996908e+001
9.134653e+002, 3.015275e+001
9.139474e+002, 3.022878e+001
9.144296e+002, 3.044644e+001
9.149117e+002, 3.056062e+001
9.153938e+002, 3.028862e+001
9.158759e+002, 2.946223e+001
9.163580e+002, 2.893182e+001
9.168401e+002, 2.871507e+001
9.173223e+002, 2.874976e+001
9.178044e+002, 2.909250e+001
9.182865e+002, 2.965098e+001
9.187686e+002, 3.022956e+001
9.192507e+002, 3.078105e+001
9.197328e+002, 3.091739e+001
9.202150e+002, 2.989349e+001
9.206971e+002, 2.883278e+001
9.211792e+002, 2.848511e+001
9.216613e+002, 2.879291e+001
9.221434e+002, 2.903065e+001
9.226255e+002, 2.918834e+001
9.231077e+002, 2.926636e+001
9.235898e+002, 2.930082e+001
9.240719e+002, 2.921649e+001
9.245540e+002, 2.860292e+001
9.250361e+002, 2.765943e+001
9.255182e+002, 2.725704e+001
9.260004e+002, 2.813177e+001
9.264825e+002, 2.894619e+001
9.269646e+002, 2.852222e+001
9.274467e+002, 2.762514e+001
9.279288e+002, 2.745734e+001
9.284109e+002, 2.859851e+001
9.288931e+002, 2.943288e+001
9.293752e+002, 2.990100e+001
9.298573e+002, 3.000618e+001
9.303394e+002, 2.953011e+001
9.308215e+002, 2.868371e+001
9.313036e+002, 2.826380e+001
9.317858e+002, 2.838617e+001
9.322679e+002, 2.856897e+001
9.327500e+002, 2.854471e+001
9.332321e+002, 2.839520e+001
9.337142e+002, 2.810105e+001
9.341964e+002, 2.761280e+001
9.346785e+002, 2.754991e+001
9.351606e+002, 2.814670e+001
9.356427e+002, 2.858634e+001
9.361248e+002, 2.829152e+001
9.366069e+002, 2.755184e+001
9.370891e+002, 2.734727e+001
9.375712e+002, 2.761410e+001
9.380533e+002, 2.805421e+001
9.385354e+002, 2.881523e+001
9.390175e+002, 2.939009e+001
9.394996e+002, 2.935325e+001
9.399818e+002, 2.889940e+001
9.404639e+002, 2.862206e+001
9.409460e+002, 2.867086e+001
9.414281e+002, 2.852563e+001
9.419102e+002, 2.800689e+001
9.423923e+002, 2.742834e+001
9.428745e+002, 2.730264e+001
9.433566e+002, 2.753622e+001
9.438387e+002, 2.792299e+001
9.443208e+002, 2.850280e+001
9.448029e+002, 2.888091e+001
9.452850e+002, 2.869135e+001
9.457672e+002, 2.828593e+001
9.462493e+002, 2.801324e+001
9.467314e+002, 2.797412e+001
9.472135e+002, 2.763561e+001
9.476956e+002, 2.684988e+001
9.481777e+002, 2.627060e+001
9.486599e+002, 2.656119e+001
9.491420e+002, 2.740443e+001
9.496241e+002, 2.818134e+001
9.501062e+002, 2.883713e+001
9.505883e+002, 2.913209e+001
9.510704e+002, 2.866609e+001
9.515526e+002, 2.807041e+001
9.520347e+002, 2.756473e+001
9.525168e+002, 2.718887e+001
9.529989e+002, 2.716200e+001
9.534810e+002, 2.759360e+001
9.539631e+002, 2.784108e+001
9.544453e+002, 2.767135e+001
9.549274e+002, 2.731465e+001
9.554095e+002, 2.704165e+001
9.558916e+002, 2.689080e+001
9.563737e+002, 2.696702e+001
9.568558e+002, 2.750747e+001
9.573380e+002, 2.789235e+001
9.578201e+002, 2.767842e+001
9.583022e+002, 2.737264e+001
9.587843e+002, 2.751433e+001
9.592664e+002, 2.825875e+001
9.597485e+002, 2.852206e+001
9.602307e+002, 2.822532e+001
9.607128e+002, 2.780124e+001
9.611949e+002, 2.763784e+001
9.616770e+002, 2.758248e+001
9.621591e+002, 2.735093e+001
9.626412e+002, 2.694634e+001
9.631234e+002, 2.677042e+001
9.636055e+002, 2.724650e+001
9.640876e+002, 2.766166e+001
9.645697e+002, 2.776381e+001
9.650518e+002, 2.760591e+001
9.655339e+002, 2.732527e+001
9.660161e+002, 2.692191e+001
9.664982e+002, 2.684934e+001
9.669803e+002, 2.745861e+001
9.674624e+002, 2.818133e+001
9.679445e+002, 2.850409e+001
9.684266e+002, 2.845974e+001
9.689088e+002, 2.809698e+001
9.693909e+002, 2.679399e+001
9.698730e+002, 2.610328e+001
9.703551e+002, 2.627707e+001
9.708372e+002, 2.686142e+001
9.713193e+002, 2.759651e+001
9.718015e+002, 2.840597e+001
9.722836e+002, 2.840837e+001
9.727657e+002, 2.750871e+001
9.732478e+002, 2.678098e+001
9.737299e+002, 2.731804e+001
9.742120e+002, 2.818874e+001
9.746942e+002, 2.864105e+001
9.751763e+002, 2.860519e+001
9.756584e+002, 2.849294e+001
9.761405e+002, 2.828900e+001
9.766226e+002, 2.808704e+001
9.771047e+002, 2.789777e+001
9.775869e+002, 2.775168e+001
9.780690e+002, 2.781907e+001
9.785511e+002, 2.802296e+001
9.790332e+002, 2.806630e+001
9.795153e+002, 2.767041e+001
9.799974e+002, 2.731700e+001
9.804796e+002, 2.738748e+001
9.809617e+002, 2.759965e+001
9.814438e+002, 2.751589e+001
9.819259e+002, 2.690119e+001
9.824080e+002, 2.675181e+001
9.828901e+002, 2.721347e+001
9.833723e+002, 2.775990e+001
9.838544e+002, 2.796986e+001
9.843365e+002, 2.785166e+001
9.848186e+002, 2.719653e+001
9.853007e+002, 2.602021e+001
9.857828e+002, 2.531474e+001
9.862650e+002, 2.608195e+001
9.867471e+002, 2.681366e+001
9.872292e+002, 2.679287e+001
9.877113e+002, 2.617414e+001
9.881934e+002, 2.569348e+001
9.886755e+002, 2.534288e+001
9.891577e+002, 2.535616e+001
9.896398e+002, 2.599684e+001
9.901219e+002, 2.675083e+001
9.906040e+002, 2.701674e+001
9.910861e+002, 2.695545e+001
9.915682e+002, 2.683774e+001
9.920504e+002, 2.670967e+001
9.925325e+002, 2.657215e+001
9.930146e+002, 2.643588e+001
9.934967e+002, 2.627773e+001
9.939788e+002, 2.596230e+001
9.944609e+002, 2.555056e+001
9.949431e+002, 2.569905e+001
9.954252e+002, 2.643957e+001
9.959073e+002, 2.711689e+001
9.963894e+002, 2.727613e+001
9.968715e+002, 2.717377e+001
9.973536e+002, 2.692028e+001
9.978358e+002, 2.654852e+001
9.983179e+002, 2.626679e+001
9.988000e+002, 2.602700e+001
9.992821e+002, 2.605474e+001
9.997642e+002, 2.655757e+001
1.000246e+003, 2.715882e+001
1.000728e+003, 2.690577e+001
1.001211e+003, 2.613612e+001
1.001693e+003, 2.575550e+001
1.002175e+003, 2.625248e+001
1.002657e+003, 2.670403e+001
1.003139e+003, 2.674644e+001
1.003621e+003, 2.652925e+001
1.004103e+003, 2.612023e+001
1.004585e+003, 2.540533e+001
1.005068e+003, 2.524584e+001
1.005550e+003, 2.569240e+001
1.006032e+003, 2.618690e+001
1.006514e+003, 2.627406e+001
1.006996e+003, 2.618799e+001
1.007478e+003, 2.622227e+001
1.007960e+003, 2.636123e+001
1.008442e+003, 2.645145e+001
1.008924e+003, 2.629092e+001
1.009407e+003, 2.630424e+001
1.009889e+003, 2.666641e+001
1.010371e+003, 2.716590e+001
1.010853e+003, 2.736343e+001
1.011335e+003, 2.729223e+001
1.011817e+003, 2.716674e+001
1.012299e+003, 2.705212e+001
1.012781e+003, 2.682879e+001
1.013263e+003, 2.611329e+001
1.013746e+003, 2.543016e+001
1.014228e+003, 2.540319e+001
1.014710e+003, 2.627062e+001
1.015192e+003, 2.661468e+001
1.015674e+003, 2.629113e+001
1.016156e+003, 2.590806e+001
1.016638e+003, 2.578262e+001
1.017120e+003, 2.587711e+001
1.017603e+003, 2.627832e+001
1.018085e+003, 2.685697e+001
1.018567e+003, 2.714427e+001
1.019049e+003, 2.664002e+001
1.019531e+003, 2.616494e+001
1.020013e+003, 2.602827e+001
1.020495e+003, 2.600982e+001
1.020977e+003, 2.566771e+001
1.021459e+003, 2.498142e+001
1.021942e+003, 2.505157e+001
1.022424e+003, 2.613351e+001
1.022906e+003, 2.705300e+001
1.023388e+003, 2.635576e+001
1.023870e+003, 2.519683e+001
1.024352e+003, 2.480125e+001
1.024834e+003, 2.536530e+001
1.025316e+003, 2.564844e+001
1.025799e+003, 2.527030e+001
1.026281e+003, 2.525852e+001
1.026763e+003, 2.629519e+001
1.027245e+003, 2.774280e+001
1.027727e+003, 2.776540e+001
1.028209e+003, 2.676192e+001
1.028691e+003, 2.607108e+001
1.029173e+003, 2.640351e+001
1.029656e+003, 2.685223e+001
1.030138e+003, 2.702626e+001
1.030620e+003, 2.708945e+001
1.031102e+003, 2.728047e+001
1.031584e+003, 2.770847e+001
1.032066e+003, 2.752783e+001
1.032548e+003, 2.665724e+001
1.033030e+003, 2.578646e+001
1.033512e+003, 2.550058e+001
1.033995e+003, 2.553132e+001
1.034477e+003, 2.558813e+001
1.034959e+003, 2.566890e+001
1.035441e+003, 2.587786e+001
1.035923e+003, 2.655186e+001
1.036405e+003, 2.685003e+001
1.036887e+003, 2.645557e+001
1.037369e+003, 2.578020e+001
1.037851e+003, 2.569757e+001
1.038334e+003, 2.604457e+001
1.038816e+003, 2.619337e+001
1.039298e+003, 2.599175e+001
1.039780e+003, 2.563092e+001
1.040262e+003, 2.497206e+001
1.040744e+003, 2.439923e+001
1.041226e+003, 2.421418e+001
1.041708e+003, 2.442200e+001
1.042191e+003, 2.494176e+001
1.042673e+003, 2.584682e+001
1.043155e+003, 2.648274e+001
1.043637e+003, 2.628138e+001
1.044119e+003, 2.580330e+001
1.044601e+003, 2.584160e+001
1.045083e+003, 2.621347e+001
1.045565e+003, 2.649834e+001
1.046047e+003, 2.677842e+001
1.046530e+003, 2.659930e+001
1.047012e+003, 2.566399e+001
1.047494e+003, 2.466043e+001
1.047976e+003, 2.447303e+001
1.048458e+003, 2.491234e+001
1.048940e+003, 2.503750e+001
1.049422e+003, 2.478629e+001
1.049904e+003, 2.458691e+001
1.050386e+003, 2.465451e+001
1.050869e+003, 2.490573e+001
1.051351e+003, 2.552369e+001
1.051833e+003, 2.630712e+001
1.052315e+003, 2.630963e+001
1.052797e+003, 2.538391e+001
1.053279e+003, 2.483448e+001
1.053761e+003, 2.511164e+001
1.054243e+003, 2.561498e+001
1.054726e+003, 2.563336e+001
1.055208e+003, 2.537129e+001
1.055690e+003, 2.508890e+001
1.056172e+003, 2.478947e+001
1.056654e+003, 2.464298e+001
1.057136e+003, 2.468311e+001
1.057618e+003, 2.482528e+001
1.058100e+003, 2.510926e+001
1.058583e+003, 2.543929e+001
1.059065e+003, 2.534732e+001
1.059547e+003, 2.492480e+001
1.060029e+003, 2.459264e+001
1.060511e+003, 2.456051e+001
1.060993e+003, 2.467920e+001
1.061475e+003, 2.506188e+001
1.061957e+003, 2.547147e+001
1.062439e+003, 2.552559e+001
1.062922e+003, 2.515556e+001
1.063404e+003, 2.510604e+001
1.063886e+003, 2.546997e+001
1.064368e+003, 2.581733e+001
1.064850e+003, 2.584933e+001
1.065332e+003, 2.561599e+001
1.065814e+003, 2.493056e+001
1.066296e+003, 2.387567e+001
1.066778e+003, 2.352686e+001
1.067261e+003, 2.424191e+001
1.067743e+003, 2.503412e+001
1.068225e+003, 2.573720e+001
1.068707e+003, 2.624138e+001
1.069189e+003, 2.623335e+001
1.069671e+003, 2.587214e+001
1.070153e+003, 2.548927e+001
1.070635e+003, 2.511532e+001
1.071118e+003, 2.492670e+001
1.071600e+003, 2.537625e+001
1.072082e+003, 2.565811e+001
1.072564e+003, 2.516197e+001
1.073046e+003, 2.399846e+001
1.073528e+003, 2.352109e+001
1.074010e+003, 2.370609e+001
1.074492e+003, 2.417688e+001
1.074974e+003, 2.519109e+001
1.075457e+003, 2.589799e+001
1.075939e+003, 2.522235e+001
1.076421e+003, 2.396286e+001
1.076903e+003, 2.354432e+001
1.077385e+003, 2.445320e+001
1.077867e+003, 2.486404e+001
1.078349e+003, 2.462019e+001
1.078831e+003, 2.420200e+001
1.079313e+003, 2.398711e+001
1.079796e+003, 2.391669e+001
1.080278e+003, 2.391664e+001
1.080760e+003, 2.397992e+001
1.081242e+003, 2.409623e+001
1.081724e+003, 2.438653e+001
1.082206e+003, 2.454277e+001
1.082688e+003, 2.440928e+001
1.083170e+003, 2.422409e+001
1.083652e+003, 2.460552e+001
1.084135e+003, 2.533420e+001
1.084617e+003, 2.545031e+001
1.085099e+003, 2.467697e+001
1.085581e+003, 2.404699e+001
1.086063e+003, 2.444486e+001
1.086545e+003, 2.492303e+001
1.087027e+003, 2.484855e+001
1.087509e+003, 2.428318e+001
1.087992e+003, 2.386038e+001
1.088474e+003, 2.358035e+001
1.088956e+003, 2.342578e+001
1.089438e+003, 2.339384e+001
1.089920e+003, 2.347746e+001
1.090402e+003, 2.383840e+001
1.090884e+003, 2.423667e+001
1.091366e+003, 2.431552e+001
1.091849e+003, 2.386661e+001
1.092331e+003, 2.352297e+001
1.092813e+003, 2.326234e+001
1.093295e+003, 2.318277e+001
1.093777e+003, 2.355593e+001
1.094259e+003, 2.406180e+001
1.094741e+003, 2.390533e+001
1.095223e+003, 2.332437e+001
1.095705e+003, 2.316799e+001
1.096188e+003, 2.430337e+001
1.096670e+003, 2.513612e+001
1.097152e+003, 2.538194e+001
1.097634e+003, 2.526829e+001
1.098116e+003, 2.501326e+001
1.098598e+003, 2.464767e+001
1.099080e+003, 2.428405e+001
1.099562e+003, 2.393389e+001
1.100044e+003, 2.373465e+001
1.100527e+003, 2.395407e+001
1.101009e+003, 2.416556e+001
1.101491e+003, 2.417826e+001
1.101973e+003, 2.399530e+001
1.102455e+003, 2.349146e+001
1.102937e+003, 2.265775e+001
1.103419e+003, 2.223573e+001
1.103901e+003, 2.249304e+001
1.104384e+003, 2.287924e+001
1.104866e+003, 2.293973e+001
1.105348e+003, 2.280970e+001
1.105830e+003, 2.252346e+001
1.106312e+003, 2.202867e+001
1.106794e+003, 2.206595e+001
1.107276e+003, 2.275169e+001
1.107758e+003, 2.354208e+001
1.108240e+003, 2.437287e+001
1.108723e+003, 2.494603e+001
1.109205e+003, 2.458877e+001
1.109687e+003, 2.368427e+001
1.110169e+003, 2.296163e+001
1.110651e+003, 2.255209e+001
1.111133e+003, 2.251930e+001
1.111615e+003, 2.306589e+001
1.112097e+003, 2.359402e+001
1.112579e+003, 2.356989e+001
1.113062e+003, 2.316016e+001
1.113544e+003, 2.288972e+001
1.114026e+003, 2.276478e+001
1.114508e+003, 2.279976e+001
1.114990e+003, 2.313254e+001
1.115472e+003, 2.346668e+001
1.115954e+003, 2.371298e+001
1.116436e+003, 2.390433e+001
1.116919e+003, 2.408890e+001
1.117401e+003, 2.426325e+001
1.117883e+003, 2.434116e+001
1.118365e+003, 2.431537e+001
1.118847e+003, 2.426818e+001
1.119329e+003, 2.426899e+001
1.119811e+003, 2.425865e+001
1.120293e+003, 2.428049e+001
1.120776e+003, 2.425410e+001
1.121258e+003, 2.379261e+001
1.121740e+003, 2.280587e+001
1.122222e+003, 2.231747e+001
1.122704e+003, 2.261211e+001
1.123186e+003, 2.314286e+001
1.123668e+003, 2.366700e+001
1.124150e+003, 2.392571e+001
1.124632e+003, 2.342984e+001
1.125115e+003, 2.201777e+001
1.125597e+003, 2.151317e+001
1.126079e+003, 2.222591e+001
1.126561e+003, 2.286676e+001
1.127043e+003, 2.291824e+001
1.127525e+003, 2.269014e+001
1.128007e+003, 2.267577e+001
1.128489e+003, 2.275636e+001
1.128971e+003, 2.269574e+001
1.129454e+003, 2.227646e+001
1.129936e+003, 2.219806e+001
1.130418e+003, 2.271342e+001
1.130900e+003, 2.319473e+001
1.131382e+003, 2.321757e+001
1.131864e+003, 2.293808e+001
1.132346e+003, 2.282362e+001
1.132828e+003, 2.282571e+001
1.133311e+003, 2.278457e+001
1.133793e+003, 2.266354e+001
1.134275e+003, 2.242996e+001
1.134757e+003, 2.186797e+001
1.135239e+003, 2.141565e+001
1.135721e+003, 2.157274e+001
1.136203e+003, 2.225769e+001
1.136685e+003, 2.291810e+001
1.137167e+003, 2.350241e+001
1.137650e+003, 2.365287e+001
1.138132e+003, 2.261606e+001
1.138614e+003, 2.168522e+001
1.139096e+003, 2.147100e+001
1.139578e+003, 2.178409e+001
1.140060e+003, 2.252835e+001
1.140542e+003, 2.372936e+001
1.141024e+003, 2.433805e+001
1.141506e+003, 2.423132e+001
1.141989e+003, 2.381577e+001
1.142471e+003, 2.299094e+001
1.142953e+003, 2.235468e+001
1.143435e+003, 2.256712e+001
1.143917e+003, 2.341550e+001
1.144399e+003, 2.379576e+001
1.144881e+003, 2.365647e+001
1.145363e+003, 2.336127e+001
1.145846e+003, 2.297555e+001
1.146328e+003, 2.253209e+001
1.146810e+003, 2.175463e+001
1.147292e+003, 2.114934e+001
1.147774e+003, 2.139918e+001
1.148256e+003, 2.266760e+001
1.148738e+003, 2.361380e+001
1.149220e+003, 2.430232e+001
1.149703e+003, 2.426700e+001
1.150185e+003, 2.303469e+001
1.150667e+003, 2.161710e+001
1.151149e+003, 2.166776e+001
1.151631e+003, 2.249541e+001
1.152113e+003, 2.301191e+001
1.152595e+003, 2.292070e+001
1.153077e+003, 2.271665e+001
1.153559e+003, 2.236261e+001
1.154042e+003, 2.209311e+001
1.154524e+003, 2.207768e+001
1.155006e+003, 2.218991e+001
1.155488e+003, 2.205551e+001
1.155970e+003, 2.182746e+001
1.156452e+003, 2.190872e+001
1.156934e+003, 2.290650e+001
1.157416e+003, 2.328745e+001
1.157898e+003, 2.255648e+001
1.158381e+003, 2.174255e+001
1.158863e+003, 2.172723e+001
1.159345e+003, 2.226630e+001
1.159827e+003, 2.240700e+001
1.160309e+003, 2.220868e+001
1.160791e+003, 2.190717e+001
1.161273e+003, 2.118062e+001
1.161755e+003, 2.097041e+001
1.162238e+003, 2.184623e+001
1.162720e+003, 2.293273e+001
1.163202e+003, 2.321600e+001
1.163684e+003, 2.284393e+001
1.164166e+003, 2.286846e+001
1.164648e+003, 2.327944e+001
1.165130e+003, 2.351389e+001
1.165612e+003, 2.304537e+001
1.166094e+003, 2.256498e+001
1.166577e+003, 2.235147e+001
1.167059e+003, 2.231398e+001
1.167541e+003, 2.232194e+001
1.168023e+003, 2.238059e+001
1.168505e+003, 2.258607e+001
1.168987e+003, 2.295003e+001
1.169469e+003, 2.329031e+001
1.169951e+003, 2.362784e+001
1.170433e+003, 2.375576e+001
1.170916e+003, 2.341099e+001
1.171398e+003, 2.279701e+001
1.171880e+003, 2.227532e+001
1.172362e+003, 2.184802e+001
1.172844e+003, 2.216204e+001
1.173326e+003, 2.346324e+001
1.173808e+003, 2.452777e+001
1.174290e+003, 2.404383e+001
1.174773e+003, 2.315051e+001
1.175255e+003, 2.269145e+001
1.175737e+003, 2.262489e+001
1.176219e+003, 2.268326e+001
1.176701e+003, 2.287461e+001
1.177183e+003, 2.304720e+001
1.177665e+003, 2.318539e+001
1.178147e+003, 2.320592e+001
1.178630e+003, 2.292032e+001
1.179112e+003, 2.255629e+001
1.179594e+003, 2.238042e+001
1.180076e+003, 2.240409e+001
1.180558e+003, 2.209289e+001
1.181040e+003, 2.136555e+001
1.181522e+003, 2.112850e+001
1.182004e+003, 2.193375e+001
1.182486e+003, 2.292241e+001
1.182969e+003, 2.314328e+001
1.183451e+003, 2.302356e+001
1.183933e+003, 2.312192e+001
1.184415e+003, 2.357744e+001
1.184897e+003, 2.367325e+001
1.185379e+003, 2.337943e+001
1.185861e+003, 2.289409e+001
1.186343e+003, 2.216133e+001
1.186825e+003, 2.150619e+001
1.187308e+003, 2.137548e+001
1.187790e+003, 2.156345e+001
1.188272e+003, 2.176290e+001
1.188754e+003, 2.192721e+001
1.189236e+003, 2.212376e+001
1.189718e+003, 2.237269e+001
1.190200e+003, 2.254267e+001
1.190682e+003, 2.250772e+001
1.191165e+003, 2.237980e+001
1.191647e+003, 2.228299e+001
1.192129e+003, 2.220816e+001
1.192611e+003, 2.212896e+001
1.193093e+003, 2.195577e+001
1.193575e+003, 2.200442e+001
1.194057e+003, 2.233387e+001
1.194539e+003, 2.266327e+001
1.195021e+003, 2.271520e+001
1.195504e+003, 2.267804e+001
1.195986e+003, 2.290832e+001
1.196468e+003, 2.326539e+001
1.196950e+003, 2.331223e+001
1.197432e+003, 2.283386e+001
1.197914e+003, 2.234211e+001
1.198396e+003, 2.182378e+001
1.198878e+003, 2.145163e+001
1.199360e+003, 2.144082e+001
1.199843e+003, 2.164968e+001
1.200325e+003, 2.199467e+001
1.200807e+003, 2.239461e+001
1.201289e+003, 2.253236e+001
1.201771e+003, 2.220156e+001
1.202253e+003, 2.197558e+001
1.202735e+003, 2.194479e+001
1.203217e+003, 2.194239e+001
1.203700e+003, 2.164395e+001
1.204182e+003, 2.134079e+001
1.204664e+003, 2.152615e+001
1.205146e+003, 2.215352e+001
1.205628e+003, 2.272963e+001
1.206110e+003, 2.328234e+001
1.206592e+003, 2.352718e+001
1.207074e+003, 2.336680e+001
1.207557e+003, 2.304134e+001
1.208039e+003, 2.273717e+001
1.208521e+003, 2.252488e+001
1.209003e+003, 2.257355e+001
1.209485e+003, 2.287265e+001
1.209967e+003, 2.304210e+001
1.210449e+003, 2.306193e+001
1.210931e+003, 2.286229e+001
1.211413e+003, 2.233873e+001
1.211896e+003, 2.182822e+001
1.212378e+003, 2.178034e+001
1.212860e+003, 2.203056e+001
1.213342e+003, 2.244415e+001
1.213824e+003, 2.300329e+001
1.214306e+003, 2.322095e+001
1.214788e+003, 2.292490e+001
1.215270e+003, 2.267577e+001
1.215752e+003, 2.263294e+001
1.216235e+003, 2.267025e+001
1.216717e+003, 2.255064e+001
1.217199e+003, 2.242153e+001
1.217681e+003, 2.258673e+001
1.218163e+003, 2.312527e+001
1.218645e+003, 2.323689e+001
1.219127e+003, 2.268171e+001
1.219609e+003, 2.231138e+001
1.220092e+003, 2.246203e+001
1.220574e+003, 2.276543e+001
1.221056e+003, 2.257624e+001
1.221538e+003, 2.223090e+001
1.222020e+003, 2.227353e+001
1.222502e+003, 2.286638e+001
1.222984e+003, 2.318260e+001
1.223466e+003, 2.312776e+001
1.223948e+003, 2.299435e+001
1.224431e+003, 2.286025e+001
1.224913e+003, 2.275717e+001
1.225395e+003, 2.283657e+001
1.225877e+003, 2.292506e+001
1.226359e+003, 2.268118e+001
1.226841e+003, 2.188297e+001
1.227323e+003, 2.186537e+001
1.227805e+003, 2.291510e+001
1.228287e+003, 2.355367e+001
1.228770e+003, 2.295906e+001
1.229252e+003, 2.202913e+001
1.229734e+003, 2.199434e+001
1.230216e+003, 2.240153e+001
1.230698e+003, 2.266496e+001
1.231180e+003, 2.268912e+001
1.231662e+003, 2.254077e+001
1.232144e+003, 2.215929e+001
1.232627e+003, 2.195284e+001
1.233109e+003, 2.214363e+001
1.233591e+003, 2.253829e+001
1.234073e+003, 2.314604e+001
1.234555e+003, 2.369466e+001
1.235037e+003, 2.374585e+001
1.235519e+003, 2.315899e+001
1.236001e+003, 2.278909e+001
1.236484e+003, 2.265321e+001
1.236966e+003, 2.260656e+001
1.237448e+003, 2.256594e+001
1.237930e+003, 2.260278e+001
1.238412e+003, 2.296010e+001
1.238894e+003, 2.335189e+001
1.239376e+003, 2.334526e+001
1.239858e+003, 2.287852e+001
1.240340e+003, 2.237381e+001
1.240823e+003, 2.182103e+001
1.241305e+003, 2.164451e+001
1.241787e+003, 2.243024e+001
1.242269e+003, 2.317390e+001
1.242751e+003, 2.288008e+001
1.243233e+003, 2.211399e+001
1.243715e+003, 2.151211e+001
1.244197e+003, 2.105228e+001
1.244679e+003, 2.139617e+001
1.245162e+003, 2.252190e+001
1.245644e+003, 2.322842e+001
1.246126e+003, 2.242413e+001
1.246608e+003, 2.158737e+001
1.247090e+003, 2.191683e+001
1.247572e+003, 2.261772e+001
1.248054e+003, 2.271958e+001
1.248536e+003, 2.219250e+001
1.249019e+003, 2.198696e+001
1.249501e+003, 2.208950e+001
1.249983e+003, 2.236050e+001
1.250465e+003, 2.305110e+001
1.250947e+003, 2.347723e+001
1.251429e+003, 2.309138e+001
1.251911e+003, 2.241227e+001
1.252393e+003, 2.178936e+001
1.252875e+003, 2.124880e+001
1.253358e+003, 2.151173e+001
1.253840e+003, 2.243964e+001
1.254322e+003, 2.311401e+001
1.254804e+003, 2.268636e+001
1.255286e+003, 2.240726e+001
1.255768e+003, 2.291534e+001
1.256250e+003, 2.352504e+001
1.256732e+003, 2.360679e+001
1.257214e+003, 2.327011e+001
1.257697e+003, 2.318967e+001
1.258179e+003, 2.332149e+001
1.258661e+003, 2.344807e+001
1.259143e+003, 2.357234e+001
1.259625e+003, 2.352103e+001
1.260107e+003, 2.319304e+001
1.260589e+003, 2.281607e+001
1.261071e+003, 2.261102e+001
1.261554e+003, 2.250455e+001
1.262036e+003, 2.218068e+001
1.262518e+003, 2.174002e+001
1.263000e+003, 2.151927e+001
1.263482e+003, 2.173187e+001
1.263964e+003, 2.207103e+001
1.264446e+003, 2.254883e+001
1.264928e+003, 2.303951e+001
1.265411e+003, 2.350508e+001
1.265893e+003, 2.386985e+001
1.266375e+003, 2.401972e+001
1.266857e+003, 2.394768e+001
1.267339e+003, 2.362630e+001
1.267821e+003, 2.262266e+001
1.268303e+003, 2.224179e+001
1.268785e+003, 2.267865e+001
1.269267e+003, 2.309866e+001
1.269750e+003, 2.270932e+001
1.270232e+003, 2.202302e+001
1.270714e+003, 2.153336e+001
1.271196e+003, 2.129878e+001
1.271678e+003, 2.150919e+001
1.272160e+003, 2.238987e+001
1.272642e+003, 2.292850e+001
1.273124e+003, 2.307028e+001
1.273606e+003, 2.311446e+001
1.274089e+003, 2.325376e+001
1.274571e+003, 2.341275e+001
1.275053e+003, 2.355383e+001
1.275535e+003, 2.365179e+001
1.276017e+003, 2.364765e+001
1.276499e+003, 2.350078e+001
1.276981e+003, 2.358249e+001
1.277463e+003, 2.389521e+001
1.277946e+003, 2.412067e+001
1.278428e+003, 2.412258e+001
1.278910e+003, 2.389089e+001
1.279392e+003, 2.310381e+001
1.279874e+003, 2.229444e+001
1.280356e+003, 2.215490e+001
1.280838e+003, 2.266632e+001
1.281320e+003, 2.276782e+001
1.281802e+003, 2.252148e+001
1.282285e+003, 2.258737e+001
1.282767e+003, 2.374150e+001
1.283249e+003, 2.474163e+001
1.283731e+003, 2.520452e+001
1.284213e+003, 2.526450e+001
1.284695e+003, 2.476892e+001
1.285177e+003, 2.394112e+001
1.285659e+003, 2.401532e+001
1.286141e+003, 2.478361e+001
1.286624e+003, 2.536009e+001
1.287106e+003, 2.528562e+001
1.287588e+003, 2.508071e+001
1.288070e+003, 2.479415e+001
1.288552e+003, 2.447651e+001
1.289034e+003, 2.399012e+001
1.289516e+003, 2.358921e+001
1.289998e+003, 2.420882e+001
1.290481e+003, 2.536465e+001
1.290963e+003, 2.580432e+001
1.291445e+003, 2.450630e+001
1.291927e+003, 2.362985e+001
1.292409e+003, 2.322099e+001
1.292891e+003, 2.308509e+001
1.293373e+003, 2.318613e+001
1.293855e+003, 2.339662e+001
1.294338e+003, 2.359585e+001
1.294820e+003, 2.377326e+001
1.295302e+003, 2.389131e+001
1.295784e+003, 2.390600e+001
1.296266e+003, 2.411092e+001
1.296748e+003, 2.452832e+001
1.297230e+003, 2.473180e+001
1.297712e+003, 2.427304e+001
1.298194e+003, 2.371831e+001
1.298677e+003, 2.341892e+001
1.299159e+003, 2.335479e+001
1.299641e+003, 2.349350e+001
1.300123e+003, 2.383938e+001
1.300605e+003, 2.420645e+001
1.301087e+003, 2.457824e+001
1.301569e+003, 2.480965e+001
1.302051e+003, 2.482129e+001
1.302533e+003, 2.467592e+001
1.303016e+003, 2.437664e+001
##END=



