##NAMES=Bismuthinite
##RRUFFID=R061077
##IDEAL CHEMISTRY=Bi^3+^_2_S^2-^_3_
##LOCALITY=Jersey mine, Salmo, British Columbia, Canada
##OWNER=RRUFF
##SOURCE=Lloyd Twaites
##DESCRIPTION=Metallic grey prismatic single crystals
##STATUS=The identification of this mineral has been confirmed by single-crystal X-ray diffraction.
##URL=rruff.info/R061077
114.2904, 398.3241
114.7725, 423.9627
115.2546, 447.6665
115.7367, 468.8454
116.2188, 485.8398
116.7010, 495.6479
117.1831, 509.3428
117.6652, 534.8782
118.1473, 567.6888
118.6294, 597.2653
119.1115, 614.4755
119.5937, 628.6807
120.0758, 647.6207
120.5579, 675.0271
121.0400, 705.5502
121.5221, 735.4080
122.0042, 764.9370
122.4864, 795.5828
122.9685, 831.6172
123.4506, 868.9011
123.9327, 901.2144
124.4148, 924.1963
124.8969, 941.8534
125.3791, 956.8632
125.8612, 968.6001
126.3433, 983.0322
126.8254, 1009.833
127.3075, 1041.932
127.7896, 1055.991
128.2718, 1047.037
128.7539, 1031.891
129.2360, 1021.416
129.7181, 1016.527
130.2002, 1015.592
130.6823, 1021.609
131.1645, 1033.728
131.6466, 1036.521
132.1287, 1010.768
132.6108, 961.5104
133.0929, 927.1830
133.5750, 917.6306
134.0572, 924.8908
134.5393, 923.5159
135.0214, 911.8713
135.5035, 899.8300
135.9856, 896.2139
136.4677, 900.9802
136.9499, 911.7985
137.4320, 930.3909
137.9141, 956.7059
138.3962, 976.9059
138.8783, 991.8354
139.3604, 1000.573
139.8425, 1000.938
140.3247, 991.8483
140.8068, 978.8204
141.2889, 963.3220
141.7710, 944.1970
142.2531, 925.8415
142.7352, 904.4274
143.2174, 884.6618
143.6995, 881.6234
144.1816, 904.5999
144.6637, 930.4237
145.1458, 946.0500
145.6279, 945.7638
146.1101, 946.7113
146.5922, 951.6021
147.0743, 959.9640
147.5564, 963.8112
148.0385, 960.3041
148.5206, 954.3294
149.0028, 949.7068
149.4849, 943.5054
149.9670, 941.7609
150.4491, 947.0184
150.9312, 961.2930
151.4133, 971.9384
151.8955, 974.6763
152.3776, 974.8909
152.8597, 979.0748
153.3418, 989.6833
153.8239, 1002.260
154.3060, 1017.080
154.7882, 1038.390
155.2703, 1051.484
155.7524, 1046.381
156.2345, 1031.841
156.7166, 1026.247
157.1987, 1043.273
157.6809, 1063.164
158.1630, 1076.010
158.6451, 1073.043
159.1272, 1072.221
159.6093, 1077.912
160.0914, 1089.452
160.5735, 1104.036
161.0557, 1126.148
161.5378, 1148.239
162.0199, 1164.652
162.5020, 1166.496
162.9841, 1168.684
163.4662, 1179.678
163.9484, 1198.994
164.4305, 1214.210
164.9126, 1212.182
165.3947, 1204.866
165.8768, 1206.244
166.3589, 1230.631
166.8411, 1258.991
167.3232, 1280.000
167.8053, 1292.636
168.2874, 1300.913
168.7695, 1303.040
169.2516, 1302.714
169.7338, 1306.791
170.2159, 1327.235
170.6980, 1349.480
171.1801, 1356.964
171.6622, 1342.883
172.1443, 1328.702
172.6265, 1333.921
173.1086, 1354.374
173.5907, 1376.354
174.0728, 1393.947
174.5549, 1407.741
175.0370, 1417.416
175.5192, 1419.992
176.0013, 1422.889
176.4834, 1436.740
176.9655, 1460.033
177.4476, 1481.702
177.9297, 1493.305
178.4119, 1497.652
178.8940, 1500.148
179.3761, 1500.211
179.8582, 1500.883
180.3403, 1509.221
180.8224, 1525.263
181.3046, 1539.626
181.7867, 1542.475
182.2688, 1536.387
182.7509, 1530.079
183.2330, 1525.120
183.7151, 1522.417
184.1973, 1516.870
184.6794, 1524.871
185.1615, 1527.447
185.6436, 1524.889
186.1257, 1501.823
186.6078, 1505.240
187.0900, 1498.042
187.5721, 1490.411
188.0542, 1497.554
188.5363, 1477.471
189.0184, 1484.381
189.5005, 1480.515
189.9827, 1481.580
190.4648, 1471.968
190.9469, 1465.654
191.4290, 1464.922
191.9111, 1462.809
192.3932, 1458.936
192.8754, 1453.403
193.3575, 1446.381
193.8396, 1437.822
194.3217, 1427.759
194.8038, 1414.061
195.2859, 1396.917
195.7681, 1386.004
196.2502, 1384.649
196.7323, 1388.999
197.2144, 1388.013
197.6965, 1381.452
198.1786, 1370.643
198.6608, 1354.251
199.1429, 1331.390
199.6250, 1313.842
200.1071, 1304.286
200.5892, 1301.695
201.0713, 1301.569
201.5534, 1304.667
202.0356, 1308.027
202.5177, 1309.086
202.9998, 1307.931
203.4819, 1303.974
203.9640, 1296.292
204.4461, 1285.163
204.9283, 1275.019
205.4104, 1264.999
205.8925, 1257.614
206.3746, 1256.190
206.8567, 1261.391
207.3388, 1270.267
207.8210, 1283.596
208.3031, 1302.106
208.7852, 1313.721
209.2673, 1316.375
209.7494, 1314.736
210.2315, 1316.107
210.7137, 1321.510
211.1958, 1327.021
211.6779, 1330.937
212.1600, 1332.911
212.6421, 1334.778
213.1242, 1334.702
213.6064, 1335.899
214.0885, 1346.414
214.5706, 1370.878
215.0527, 1394.243
215.5348, 1408.574
216.0169, 1409.121
216.4991, 1416.079
216.9812, 1432.032
217.4633, 1453.658
217.9454, 1472.599
218.4275, 1488.415
218.9096, 1502.388
219.3918, 1515.658
219.8739, 1529.164
220.3560, 1538.316
220.8381, 1538.661
221.3202, 1534.800
221.8023, 1546.107
222.2844, 1580.213
222.7666, 1618.115
223.2487, 1649.232
223.7308, 1672.174
224.2129, 1690.936
224.6950, 1704.748
225.1771, 1714.411
225.6593, 1724.068
226.1414, 1732.434
226.6235, 1742.499
227.1056, 1756.832
227.5877, 1777.221
228.0698, 1798.064
228.5520, 1819.976
229.0341, 1842.439
229.5162, 1860.702
229.9983, 1872.628
230.4804, 1882.452
230.9625, 1893.863
231.4447, 1908.060
231.9268, 1921.240
232.4089, 1931.998
232.8910, 1940.243
233.3731, 1953.542
233.8552, 1977.948
234.3374, 2001.459
234.8195, 2011.081
235.3016, 1998.400
235.7837, 1987.620
236.2658, 1985.210
236.7479, 1992.282
237.2301, 1990.403
237.7122, 1972.715
238.1943, 1952.233
238.6764, 1944.312
239.1585, 1959.298
239.6406, 1969.052
240.1228, 1965.758
240.6049, 1947.417
241.0870, 1932.520
241.5691, 1922.888
242.0512, 1915.273
242.5333, 1905.401
243.0154, 1891.546
243.4976, 1878.300
243.9797, 1866.557
244.4618, 1856.304
244.9439, 1848.430
245.4260, 1845.216
245.9081, 1842.694
246.3903, 1834.315
246.8724, 1814.338
247.3545, 1798.337
247.8366, 1792.814
248.3187, 1802.126
248.8008, 1802.106
249.2830, 1788.671
249.7651, 1768.476
250.2472, 1752.153
250.7293, 1740.254
251.2114, 1731.092
251.6935, 1724.008
252.1757, 1718.742
252.6578, 1717.365
253.1399, 1721.734
253.6220, 1728.901
254.1041, 1734.368
254.5862, 1740.353
255.0684, 1740.625
255.5505, 1730.818
256.0326, 1705.116
256.5147, 1690.423
256.9968, 1692.514
257.4789, 1701.675
257.9611, 1698.087
258.4432, 1675.580
258.9253, 1652.214
259.4074, 1636.405
259.8895, 1632.451
260.3716, 1619.955
260.8538, 1596.233
261.3359, 1565.717
261.8180, 1537.480
262.3001, 1511.205
262.7822, 1487.411
263.2643, 1467.375
263.7465, 1454.005
264.2286, 1433.285
264.7107, 1402.064
265.1928, 1366.052
265.6749, 1339.232
266.1570, 1325.081
266.6392, 1311.044
267.1213, 1290.820
267.6034, 1262.420
268.0855, 1236.213
268.5676, 1211.685
269.0497, 1189.899
269.5319, 1173.743
270.0140, 1165.173
270.4961, 1156.869
270.9782, 1145.546
271.4603, 1130.965
271.9424, 1114.514
272.4246, 1095.046
272.9066, 1074.928
273.3888, 1058.977
273.8709, 1047.580
274.3530, 1039.034
274.8351, 1033.647
275.3172, 1032.011
275.7993, 1028.466
276.2815, 1022.973
276.7636, 1015.423
277.2457, 1006.289
277.7278, 996.1489
278.2099, 981.4717
278.6920, 956.6902
279.1742, 920.9797
279.6563, 896.9030
280.1384, 887.3917
280.6205, 886.2388
281.1026, 882.0410
281.5847, 874.5128
282.0669, 866.2584
282.5490, 858.8182
283.0311, 852.1201
283.5132, 843.7073
283.9953, 832.8659
284.4774, 821.4227
284.9596, 812.9744
285.4417, 807.5614
285.9238, 802.6444
286.4059, 797.4263
286.8880, 791.8203
287.3701, 784.2600
287.8523, 773.9661
288.3344, 763.7595
288.8165, 758.4749
289.2986, 757.9249
289.7807, 758.9640
290.2628, 763.6765
290.7450, 769.6506
291.2271, 763.4451
291.7092, 741.8699
292.1913, 716.6945
292.6734, 705.5535
293.1555, 707.0112
293.6377, 708.9232
294.1198, 703.1284
294.6019, 693.0899
295.0840, 690.4550
295.5661, 697.0740
296.0482, 704.5775
296.5304, 700.5013
297.0125, 687.5153
297.4946, 676.7507
297.9767, 677.2678
298.4588, 683.0471
298.9409, 681.8296
299.4231, 672.5098
299.9052, 660.6529
300.3873, 649.7125
300.8694, 640.6778
301.3515, 636.6393
301.8336, 644.2321
302.3158, 655.8148
302.7979, 659.4384
303.2800, 654.1188
303.7621, 647.5360
304.2442, 648.1575
304.7263, 652.5961
305.2085, 653.8103
305.6906, 645.5115
306.1727, 634.1788
306.6548, 626.1572
307.1369, 621.7718
307.6190, 618.8546
308.1012, 616.0163
308.5833, 613.6016
309.0654, 612.0627
309.5475, 613.1165
310.0296, 614.0873
310.5117, 612.5211
310.9939, 608.3978
311.4760, 604.3751
311.9581, 603.5024
312.4402, 603.1876
312.9223, 600.2590
313.4044, 588.3668
313.8865, 577.8823
314.3687, 576.9365
314.8508, 584.8472
315.3329, 590.0429
315.8150, 583.5181
316.2971, 573.2262
316.7792, 566.7906
317.2614, 571.1856
317.7435, 575.2478
318.2256, 573.3091
318.7077, 566.2979
319.1898, 562.0775
319.6719, 567.9564
320.1541, 574.9837
320.6362, 576.5548
321.1183, 566.5082
321.6004, 555.9539
322.0825, 545.4814
322.5646, 535.8017
323.0468, 530.6703
323.5289, 536.7825
324.0110, 543.6971
324.4931, 545.4545
324.9752, 533.4672
325.4573, 525.6691
325.9395, 526.1291
326.4216, 532.7163
326.9037, 537.1647
327.3858, 537.2247
327.8679, 536.4388
328.3500, 536.2879
328.8322, 537.3197
329.3143, 538.2134
329.7964, 539.9653
330.2785, 541.5292
330.7606, 539.8776
331.2427, 529.3507
331.7249, 522.2042
332.2070, 524.9425
332.6891, 547.2484
333.1712, 554.1454
333.6533, 536.3601
334.1354, 508.0442
334.6176, 495.6390
335.0997, 507.1633
335.5818, 519.6730
336.0639, 525.4026
336.5460, 522.9995
337.0281, 521.2659
337.5103, 520.4170
337.9924, 519.9166
338.4745, 518.8083
338.9566, 516.7015
339.4387, 515.4213
339.9208, 516.1739
340.4030, 518.8322
340.8851, 518.2094
341.3672, 512.9981
341.8493, 507.7813
342.3314, 509.1283
342.8135, 517.5192
343.2957, 523.3063
343.7778, 522.8669
344.2599, 517.7606
344.7420, 513.9185
345.2241, 511.3521
345.7062, 510.4990
346.1884, 513.4574
346.6705, 519.4002
347.1526, 522.1894
347.6347, 519.2501
348.1168, 513.3849
348.5989, 510.5082
349.0811, 510.5356
349.5632, 511.0674
350.0453, 509.9445
350.5274, 507.9399
351.0095, 507.2504
351.4916, 509.1698
351.9738, 510.9979
352.4559, 508.4703
352.9380, 502.4413
353.4201, 496.7997
353.9022, 494.3576
354.3843, 493.5910
354.8664, 492.6378
355.3485, 491.3109
355.8307, 489.4953
356.3128, 484.9741
356.7949, 479.8019
357.2770, 478.5705
357.7591, 487.3941
358.2412, 498.6380
358.7234, 506.7706
359.2055, 511.1662
359.6876, 512.8633
360.1697, 510.9803
360.6518, 507.0731
361.1339, 503.2680
361.6161, 499.9421
362.0982, 497.2273
362.5803, 494.9798
363.0624, 493.1231
363.5445, 492.6512
364.0266, 496.3891
364.5088, 500.5066
364.9909, 501.4149
365.4730, 492.5985
365.9551, 486.5715
366.4372, 488.2232
366.9193, 497.0962
367.4015, 502.1040
367.8836, 499.6298
368.3657, 494.5289
368.8478, 489.7649
369.3299, 484.0779
369.8120, 480.4169
370.2942, 479.3777
370.7763, 480.5686
371.2584, 482.7467
371.7405, 488.7725
372.2226, 492.3607
372.7047, 489.8289
373.1869, 476.6577
373.6690, 468.4909
374.1511, 466.6458
374.6332, 469.0509
375.1153, 472.1194
375.5974, 476.5705
376.0796, 479.6046
376.5617, 479.8822
377.0438, 477.2404
377.5259, 473.6283
378.0080, 468.3768
378.4901, 463.5966
378.9723, 462.4306
379.4544, 464.9993
379.9365, 468.4498
380.4186, 457.3572
380.9007, 475.0739
381.3828, 485.2271
381.8650, 488.2232
382.3471, 462.6260
382.8292, 473.9511
383.3113, 470.4795
383.7934, 466.4010
384.2755, 482.9228
384.7577, 461.4845
385.2398, 477.6795
385.7219, 478.8520
386.2040, 486.8999
386.6861, 480.0596
387.1682, 477.8179
387.6504, 480.4626
388.1325, 485.4773
388.6146, 489.3893
389.0967, 488.0157
389.5788, 483.0949
390.0609, 479.1788
390.5431, 480.3357
391.0252, 482.3911
391.5073, 481.7192
391.9894, 477.4457
392.4715, 473.0809
392.9536, 469.6197
393.4358, 467.4170
393.9179, 466.9416
394.4000, 470.9201
394.8821, 474.3531
395.3642, 474.6972
395.8463, 471.7981
396.3284, 469.6372
396.8105, 468.8713
397.2927, 469.3749
397.7748, 471.0647
398.2569, 477.6394
398.7390, 481.2032
399.2211, 480.1546
399.7032, 475.0157
400.1854, 468.6394
400.6675, 456.6485
401.1496, 447.6815
401.6317, 446.3090
402.1138, 458.0801
402.5959, 465.9053
403.0781, 468.0763
403.5602, 467.1598
404.0423, 468.7274
404.5244, 474.0431
405.0065, 478.8006
405.4886, 482.5159
405.9708, 485.4515
406.4529, 480.0688
406.9350, 463.1302
407.4171, 445.5255
407.8992, 442.0511
408.3813, 453.1506
408.8635, 464.4304
409.3456, 472.1626
409.8277, 477.0710
410.3098, 481.4026
410.7919, 485.2065
411.2740, 487.1546
411.7562, 484.7028
412.2383, 479.3578
412.7204, 476.2653
413.2025, 477.3147
413.6846, 478.9967
414.1667, 475.9028
414.6489, 469.2823
415.1310, 463.7972
415.6131, 463.3042
416.0952, 464.9341
416.5773, 465.1407
417.0594, 463.1521
417.5416, 462.2132
418.0237, 466.1794
418.5058, 472.2736
418.9879, 476.1850
419.4700, 477.0544
419.9521, 474.7187
420.4343, 465.5080
420.9164, 449.6756
421.3985, 441.6133
421.8806, 454.4757
422.3627, 471.7226
422.8448, 481.1218
423.3270, 472.7776
423.8091, 465.2257
424.2912, 459.5821
424.7733, 456.3524
425.2554, 457.2635
425.7375, 467.7440
426.2197, 476.8396
426.7018, 479.9803
427.1839, 474.4971
427.6660, 470.1402
428.1481, 467.3083
428.6302, 465.3036
429.1124, 462.2452
429.5945, 456.4651
430.0766, 454.9758
430.5587, 461.7852
431.0408, 475.9690
431.5229, 484.4835
432.0051, 486.9164
432.4872, 485.2152
432.9693, 479.3459
433.4514, 469.6983
433.9335, 462.7450
434.4156, 460.2334
434.8978, 460.4132
435.3799, 459.3937
435.8620, 457.4732
436.3441, 457.6205
436.8262, 463.5809
437.3083, 472.4504
437.7904, 479.1753
438.2726, 483.1996
438.7547, 485.2456
439.2368, 485.5486
439.7189, 484.3785
440.2010, 482.2404
440.6831, 477.0172
441.1653, 472.7278
441.6474, 473.9230
442.1295, 480.2747
442.6116, 483.6450
443.0937, 474.2716
443.5758, 463.5552
444.0580, 461.0322
444.5401, 478.3659
445.0222, 492.3022
445.5043, 497.2087
445.9864, 494.9503
446.4685, 491.0432
446.9507, 483.5637
447.4328, 476.7781
447.9149, 471.7663
448.3970, 467.9672
448.8791, 468.1926
449.3612, 475.8003
449.8434, 484.8793
450.3255, 487.9639
450.8076, 483.1906
451.2897, 476.6664
451.7718, 467.8290
452.2539, 457.9418
452.7361, 456.9247
453.2182, 466.6574
453.7003, 478.1737
454.1824, 485.3195
454.6645, 488.1964
455.1466, 489.3188
455.6288, 488.8801
456.1109, 487.0299
456.5930, 483.2762
457.0751, 477.9985
457.5572, 473.2787
458.0393, 470.1739
458.5215, 468.3579
459.0036, 467.0621
459.4857, 466.2183
459.9678, 467.1088
460.4499, 473.4648
460.9320, 481.4564
461.4142, 485.5052
461.8963, 481.1237
462.3784, 475.4810
462.8605, 472.8821
463.3426, 472.5412
463.8247, 471.7406
464.3069, 470.4732
464.7890, 467.6581
465.2711, 461.3979
465.7532, 447.5929
466.2353, 440.7458
466.7174, 448.0850
467.1996, 462.1783
467.6817, 472.8617
468.1638, 480.1197
468.6459, 483.7553
469.1280, 482.3429
469.6101, 476.2404
470.0923, 473.4948
470.5744, 476.7571
471.0565, 479.2108
471.5386, 473.8932
472.0207, 457.6897
472.5028, 452.4990
472.9850, 463.7835
473.4671, 481.3977
473.9492, 483.8426
474.4313, 470.8813
474.9134, 459.5977
475.3955, 459.7169
475.8777, 467.7986
476.3598, 471.5240
476.8419, 470.6593
477.3240, 470.6994
477.8061, 480.5596
478.2882, 494.5657
478.7703, 501.2506
479.2524, 495.0907
479.7346, 483.8447
480.2167, 470.8073
480.6988, 457.6425
481.1809, 449.5335
481.6630, 453.7618
482.1451, 460.4872
482.6273, 462.7548
483.1094, 458.4219
483.5915, 455.9950
484.0736, 459.1814
484.5557, 465.0216
485.0378, 470.4229
485.5200, 476.5791
486.0021, 480.4117
486.4842, 481.6856
486.9663, 480.3921
487.4484, 475.9430
487.9305, 464.5992
488.4127, 455.2843
488.8948, 453.6640
489.3769, 463.0385
489.8590, 466.4459
490.3411, 461.8197
490.8232, 454.3097
491.3054, 451.4825
491.7875, 453.5352
492.2696, 456.8147
492.7517, 461.4451
493.2338, 465.9758
493.7159, 465.0898
494.1981, 458.9545
494.6802, 453.3809
495.1623, 455.0424
495.6444, 460.0183
496.1265, 460.5651
496.6086, 454.4863
497.0908, 446.9465
497.5729, 439.7478
498.0550, 434.4551
498.5371, 433.9072
499.0192, 445.8996
499.5013, 457.5841
499.9835, 460.5227
500.4656, 454.7722
500.9477, 449.2669
501.4298, 444.9494
501.9119, 442.9438
502.3940, 444.0932
502.8762, 454.5236
503.3583, 459.7362
503.8404, 455.8318
504.3225, 447.4700
504.8046, 443.9536
505.2867, 447.9876
505.7689, 451.8083
506.2510, 452.9295
506.7331, 451.3904
507.2152, 449.8606
507.6973, 447.9649
508.1794, 447.2213
508.6616, 450.3759
509.1437, 456.9815
509.6258, 459.7462
510.1079, 456.5305
510.5900, 451.2642
511.0721, 450.9436
511.5543, 454.4084
512.0364, 456.3993
512.5185, 452.8771
513.0006, 447.0536
513.4827, 442.0453
513.9648, 437.9974
514.4470, 436.4026
514.9291, 440.1466
515.4112, 445.9380
515.8933, 450.6366
516.3754, 453.8802
516.8575, 455.3296
517.3397, 453.3059
517.8218, 449.4392
518.3039, 447.4148
518.7860, 451.8952
519.2681, 454.2346
519.7502, 449.9620
520.2324, 437.5696
520.7145, 433.6975
521.1966, 444.2576
521.6787, 456.2421
522.1608, 458.2837
522.6429, 447.1394
523.1251, 440.1938
523.6072, 440.0947
524.0893, 444.2254
524.5714, 447.4041
525.0535, 449.6314
525.5356, 452.6181
526.0178, 460.6074
526.4999, 469.5747
526.9820, 466.4456
527.4641, 451.2736
527.9462, 435.1848
528.4283, 425.6748
528.9105, 421.5953
529.3926, 421.8237
529.8747, 428.2655
530.3568, 434.3584
530.8389, 435.1914
531.3210, 432.7081
531.8032, 430.7738
532.2853, 433.1726
532.7674, 434.1212
533.2495, 429.7759
533.7316, 419.5663
534.2137, 413.5319
534.6959, 415.7771
535.1780, 419.8449
535.6601, 422.2477
536.1422, 422.7150
536.6243, 421.6449
537.1064, 417.1649
537.5886, 412.8066
538.0707, 416.6597
538.5528, 430.6223
539.0349, 441.0738
539.5170, 442.5752
539.9991, 437.2032
540.4812, 431.3169
540.9633, 424.8273
541.4454, 420.8539
541.9276, 424.6094
542.4097, 432.1150
542.8918, 435.0074
543.3739, 431.2504
543.8560, 426.1461
544.3381, 423.5777
544.8203, 422.7760
545.3024, 408.2220
545.7845, 424.7124
546.2666, 433.6393
546.7487, 435.4091
547.2308, 408.5857
547.7130, 418.6842
548.1951, 413.9863
548.6772, 408.6816
549.1593, 423.9771
549.6414, 401.3124
550.1235, 416.2812
550.6057, 416.2272
551.0878, 423.0489
551.5699, 414.9824
552.0520, 411.5143
552.5341, 422.9392
553.0162, 416.2518
553.4984, 424.2191
553.9805, 425.7445
554.4626, 420.7977
554.9447, 415.0329
555.4268, 411.2027
555.9089, 409.1022
556.3911, 409.4415
556.8732, 412.4365
557.3553, 413.7263
557.8374, 406.1492
558.3195, 395.8059
558.8016, 391.1595
559.2838, 396.3645
559.7659, 404.6939
560.2480, 417.1188
560.7301, 430.0999
561.2122, 435.8951
561.6943, 424.3846
562.1765, 413.2220
562.6586, 408.7704
563.1407, 411.3109
563.6228, 413.8298
564.1049, 418.0431
564.5870, 420.1030
565.0692, 415.9574
565.5513, 402.8938
566.0334, 396.2867
566.5155, 397.8742
566.9976, 404.6269
567.4797, 415.5083
567.9619, 429.6521
568.4440, 434.7759
568.9261, 421.1638
569.4082, 400.2439
569.8903, 393.6441
570.3724, 399.6462
570.8546, 406.4340
571.3367, 405.3350
571.8188, 401.8151
572.3009, 402.0110
572.7830, 407.4687
573.2651, 411.1113
573.7473, 408.7450
574.2294, 403.3066
574.7115, 397.8438
575.1936, 389.4492
575.6757, 385.1773
576.1578, 388.3651
576.6400, 396.1244
577.1221, 400.7982
577.6042, 400.6184
578.0863, 400.7213
578.5684, 403.3397
579.0505, 408.2523
579.5327, 411.0092
580.0148, 411.5905
580.4969, 409.9965
580.9790, 404.6651
581.4611, 396.6894
581.9432, 391.7591
582.4254, 391.0901
582.9075, 392.0072
583.3896, 391.6619
583.8717, 390.6549
584.3538, 390.2572
584.8359, 391.1068
585.3181, 392.6468
585.8002, 394.9073
586.2823, 397.6730
586.7644, 400.0754
587.2465, 402.7729
587.7286, 404.2601
588.2108, 403.1386
588.6929, 397.8427
589.1750, 395.6955
589.6571, 398.1157
590.1392, 402.3310
590.6213, 406.3763
591.1035, 410.6504
591.5856, 412.9810
592.0677, 412.6327
592.5498, 410.8767
593.0319, 410.2820
593.5140, 410.7834
593.9962, 410.9966
594.4783, 409.9104
594.9604, 408.3782
595.4425, 408.5023
595.9246, 410.0063
596.4067, 410.6051
596.8889, 408.6341
597.3710, 405.0955
597.8531, 399.5076
598.3352, 390.2352
598.8173, 386.6505
599.2994, 400.4733
599.7816, 418.2018
600.2637, 425.6180
600.7458, 408.3956
601.2279, 396.1277
601.7100, 391.2303
602.1921, 392.7521
602.6743, 400.5255
603.1564, 419.0551
603.6385, 430.6793
604.1206, 426.4208
604.6027, 409.2166
605.0848, 398.5459
605.5670, 394.6898
606.0491, 394.5815
606.5312, 398.2723
607.0133, 403.6065
607.4954, 405.0915
607.9775, 401.4995
608.4597, 397.6090
608.9418, 399.3226
609.4239, 402.7570
609.9060, 402.4744
610.3881, 389.3091
610.8702, 380.2232
611.3524, 383.8596
611.8345, 396.2872
612.3166, 406.2297
612.7987, 412.7966
613.2808, 416.1913
613.7629, 415.8633
614.2451, 411.8248
614.7272, 407.1726
615.2093, 401.1022
615.6914, 396.4208
616.1735, 396.8707
616.6556, 401.9969
617.1378, 400.9399
617.6199, 391.6867
618.1020, 382.2681
618.5841, 384.0503
619.0662, 392.9552
619.5483, 399.2903
620.0305, 399.6736
620.5126, 396.8300
620.9947, 389.9352
621.4768, 381.4610
621.9589, 377.3718
622.4410, 384.2807
622.9231, 391.8642
623.4052, 396.5808
623.8873, 398.1979
624.3694, 396.5030
624.8516, 386.2841
625.3337, 378.7897
625.8158, 381.1124
626.2979, 396.5928
626.7800, 406.7480
627.2621, 411.3271
627.7443, 411.2291
628.2264, 405.4571
628.7085, 394.8904
629.1906, 386.6284
629.6727, 382.1971
630.1548, 380.5399
630.6370, 381.2375
631.1191, 383.6991
631.6012, 386.2939
632.0833, 387.9542
632.5654, 389.8019
633.0475, 394.4442
633.5297, 400.9188
634.0118, 402.2953
634.4939, 388.8637
634.9760, 376.4122
635.4581, 373.6244
635.9402, 384.0333
636.4224, 388.6044
636.9045, 384.3849
637.3866, 378.2719
637.8687, 376.8593
638.3508, 380.6024
638.8329, 382.6813
639.3151, 381.3845
639.7972, 380.3821
640.2793, 388.5313
640.7614, 402.5706
641.2435, 409.7289
641.7256, 399.2345
642.2078, 385.8188
642.6899, 386.5197
643.1720, 397.2856
643.6541, 404.3362
644.1362, 399.3051
644.6183, 390.9852
645.1005, 382.1015
645.5826, 372.5139
646.0647, 368.0311
646.5468, 371.9664
647.0289, 377.8503
647.5110, 382.0391
647.9932, 384.0721
648.4753, 386.4471
648.9574, 389.5143
649.4395, 392.1552
649.9216, 393.0341
650.4037, 392.2067
650.8859, 389.5915
651.3680, 384.0350
651.8501, 379.0589
652.3322, 380.0070
652.8143, 385.2321
653.2964, 390.8517
653.7786, 397.8509
654.2607, 402.1623
654.7428, 399.2301
655.2249, 390.4522
655.7070, 384.8834
656.1891, 387.1144
656.6713, 390.7803
657.1534, 393.7509
657.6355, 396.1090
658.1176, 397.0452
658.5997, 396.0533
659.0818, 394.6129
659.5640, 394.6044
660.0461, 395.8854
660.5282, 393.7705
661.0103, 387.3298
661.4924, 379.8614
661.9745, 373.6101
662.4567, 369.5358
662.9388, 370.4423
663.4209, 381.2989
663.9030, 391.2155
664.3851, 391.1272
664.8672, 384.6360
665.3494, 379.4423
665.8315, 376.2913
666.3136, 376.4346
666.7957, 383.6468
667.2778, 396.1093
667.7599, 399.5474
668.2421, 387.7486
668.7242, 379.0698
669.2063, 385.4395
669.6884, 406.1974
670.1705, 411.9974
670.6526, 401.4142
671.1348, 386.6927
671.6169, 376.1408
672.0990, 369.9067
672.5811, 368.8576
673.0632, 373.7817
673.5453, 380.2618
674.0275, 386.4515
674.5096, 391.6397
674.9917, 395.0552
675.4738, 395.8107
675.9559, 395.5194
676.4380, 394.2796
676.9202, 392.2346
677.4023, 389.4692
677.8844, 384.6693
678.3665, 381.7478
678.8486, 381.6318
679.3307, 384.0702
679.8129, 389.0684
680.2950, 396.8037
680.7771, 403.0200
681.2592, 404.7088
681.7413, 403.3541
682.2234, 401.3026
682.7056, 398.6911
683.1877, 397.3790
683.6698, 401.2796
684.1519, 405.2845
684.6340, 403.8814
685.1161, 394.3870
685.5983, 388.3618
686.0804, 390.8237
686.5625, 396.7185
687.0446, 402.1080
687.5267, 409.0575
688.0089, 410.3763
688.4910, 403.8143
688.9731, 394.1429
689.4552, 387.2450
689.9373, 383.1722
690.4194, 384.7957
690.9016, 395.5566
691.3837, 407.9996
691.8658, 410.8933
692.3479, 406.1970
692.8300, 399.9676
693.3121, 392.6902
693.7943, 387.0024
694.2764, 384.7549
694.7585, 385.7024
695.2406, 387.8984
695.7227, 391.4847
696.2048, 395.6834
696.6870, 400.4620
697.1691, 405.8940
697.6512, 410.5617
698.1333, 415.0889
698.6154, 417.3854
699.0975, 416.0008
699.5797, 411.0586
700.0618, 401.6269
700.5439, 386.8814
701.0260, 374.9078
701.5081, 375.6422
701.9902, 383.8244
702.4724, 391.8141
702.9545, 399.4175
703.4366, 402.6982
703.9187, 395.6814
704.4008, 384.7035
704.8829, 377.8743
705.3650, 378.0710
705.8471, 380.8971
706.3292, 387.5546
706.8113, 380.6105
707.2935, 398.1255
707.7756, 408.0769
708.2577, 410.8713
708.7398, 385.0724
709.2219, 396.1957
709.7040, 392.5223
710.1862, 388.2422
710.6683, 404.5622
711.1504, 382.9221
711.6325, 398.9154
712.1146, 399.8862
712.5967, 407.7324
713.0789, 400.6905
713.5610, 402.6165
714.0431, 406.2880
714.5252, 408.2128
715.0073, 408.1249
715.4894, 408.2463
715.9716, 409.4100
716.4537, 409.4108
716.9358, 405.4124
717.4179, 397.3561
717.9000, 393.4923
718.3821, 394.7780
718.8643, 397.4774
719.3464, 397.9985
719.8285, 396.9592
720.3106, 395.3333
720.7927, 392.8387
721.2748, 391.1938
721.7570, 392.8025
722.2391, 395.5020
722.7212, 396.4330
723.2033, 391.5543
723.6854, 389.3410
724.1675, 392.6938
724.6497, 398.4350
725.1318, 399.3387
725.6139, 393.8391
726.0960, 390.6760
726.5781, 392.9270
727.0602, 398.4511
727.5424, 403.6475
728.0245, 407.9792
728.5066, 408.4196
728.9887, 397.4537
729.4708, 386.0155
729.9529, 386.9857
730.4351, 398.0949
730.9172, 404.9378
731.3993, 396.7175
731.8814, 387.6428
732.3635, 384.5293
732.8456, 387.6479
733.3278, 392.5303
733.8099, 401.3189
734.2920, 407.6155
734.7741, 405.1086
735.2562, 394.4819
735.7383, 392.2193
736.2205, 399.3686
736.7026, 406.9587
737.1847, 405.2885
737.6668, 399.0471
738.1489, 395.7072
738.6310, 397.1871
739.1132, 398.4299
739.5953, 394.3824
740.0774, 390.0406
740.5595, 390.2938
741.0416, 402.5258
741.5237, 409.4333
742.0059, 408.3147
742.4880, 404.3385
742.9701, 406.0700
743.4522, 414.5681
743.9343, 415.4801
744.4164, 403.0926
744.8986, 388.5095
745.3807, 392.9292
745.8628, 409.9092
746.3449, 421.2468
746.8270, 416.4092
747.3091, 407.4446
747.7913, 399.3834
748.2734, 393.0939
748.7555, 390.9631
749.2376, 401.4904
749.7197, 406.6428
750.2018, 399.1918
750.6840, 383.3441
751.1661, 377.8849
751.6482, 385.2979
752.1303, 391.4377
752.6124, 388.2015
753.0945, 380.0522
753.5767, 379.8731
754.0588, 386.8818
754.5409, 394.7439
755.0230, 400.9143
755.5051, 405.2151
755.9872, 407.0789
756.4694, 406.5171
756.9515, 405.7833
757.4336, 406.0167
757.9157, 405.6882
758.3978, 403.5303
758.8799, 398.9985
759.3621, 397.8152
759.8442, 401.0376
760.3263, 404.6067
760.8084, 405.5029
761.2905, 404.1227
761.7726, 401.9615
762.2548, 399.0176
762.7369, 396.6939
763.2190, 394.9673
763.7011, 395.1106
764.1832, 399.5481
764.6653, 410.8085
765.1475, 419.1721
765.6296, 422.1710
766.1117, 420.8472
766.5938, 415.7711
767.0759, 404.0211
767.5580, 396.5153
768.0402, 394.5404
768.5223, 395.2221
769.0044, 395.7311
769.4865, 395.8739
769.9686, 393.8438
770.4507, 388.1504
770.9329, 383.6848
771.4150, 387.9758
771.8971, 396.1426
772.3792, 400.7675
772.8613, 397.2749
773.3434, 392.7028
773.8256, 386.3161
774.3077, 380.7338
774.7898, 381.0690
775.2719, 391.2568
775.7540, 396.5940
776.2361, 392.6943
776.7183, 384.9770
777.2004, 386.5763
777.6825, 395.7943
778.1646, 400.7580
778.6467, 393.8859
779.1288, 384.4556
779.6110, 380.3982
780.0931, 381.2120
780.5752, 385.6820
781.0573, 401.4626
781.5394, 412.1781
782.0215, 408.0122
782.5037, 394.2490
782.9858, 389.0146
783.4679, 395.1878
783.9500, 401.8892
784.4321, 406.2747
784.9142, 408.2104
785.3964, 405.1812
785.8785, 398.1130
786.3606, 394.6930
786.8427, 405.6724
787.3248, 417.5350
787.8069, 414.6637
788.2890, 399.7480
788.7711, 388.5200
789.2532, 389.6010
789.7354, 391.9306
790.2175, 390.9440
790.6996, 386.9218
791.1817, 384.3084
791.6638, 383.2890
792.1459, 382.9419
792.6281, 381.8293
793.1102, 381.0158
793.5923, 385.8905
794.0744, 396.0211
794.5565, 405.1693
795.0386, 408.3894
795.5208, 409.5512
796.0029, 413.3683
796.4850, 420.1789
796.9671, 421.5246
797.4492, 407.3912
797.9313, 394.9477
798.4135, 393.2060
798.8956, 403.0968
799.3777, 406.9503
799.8598, 403.6399
800.3419, 399.6758
800.8240, 401.7483
801.3062, 406.5979
801.7883, 403.4576
802.2704, 392.1393
802.7525, 383.4774
803.2346, 388.8915
803.7167, 397.2616
804.1989, 399.1225
804.6810, 377.5552
805.1631, 395.0984
805.6452, 405.0783
806.1273, 407.9010
806.6094, 382.1304
807.0916, 393.2822
807.5737, 389.6372
808.0558, 385.3853
808.5379, 401.7337
809.0200, 380.1220
809.5021, 396.1437
809.9843, 397.1429
810.4664, 405.0174
810.9485, 398.0038
811.4306, 395.5887
811.9127, 408.0666
812.3948, 412.2981
812.8770, 396.4541
813.3591, 397.3936
813.8412, 399.2033
814.3233, 400.6747
814.8054, 399.9190
815.2875, 397.2885
815.7697, 399.2863
816.2518, 406.9946
816.7339, 412.4767
817.2160, 403.3206
817.6981, 390.0578
818.1802, 387.1593
818.6624, 399.5562
819.1445, 410.0895
819.6266, 412.0409
820.1087, 410.5203
820.5908, 409.3402
821.0729, 407.9492
821.5551, 409.1333
822.0372, 413.8963
822.5193, 418.3278
823.0014, 418.3580
823.4835, 414.7784
823.9656, 409.5521
824.4478, 402.6139
824.9299, 397.1698
825.4120, 395.7296
825.8941, 396.9369
826.3762, 399.6814
826.8583, 404.3817
827.3405, 409.0880
827.8226, 415.5157
828.3047, 419.9179
828.7868, 417.8797
829.2689, 408.3673
829.7510, 404.2740
830.2332, 406.7124
830.7153, 411.2052
831.1974, 414.3962
831.6795, 416.0878
832.1616, 415.5907
832.6437, 412.5661
833.1259, 408.9127
833.6080, 401.8584
834.0901, 396.9920
834.5722, 400.1227
835.0543, 415.6286
835.5364, 425.9631
836.0186, 430.2315
836.5007, 431.2109
836.9828, 431.9157
837.4649, 431.7923
837.9470, 426.1689
838.4291, 414.1598
838.9113, 403.3745
839.3934, 401.4785
839.8755, 403.5801
840.3576, 404.6177
840.8397, 403.4593
841.3218, 402.7396
841.8040, 401.2906
842.2861, 402.0026
842.7682, 408.0910
843.2503, 421.4547
843.7324, 427.6233
844.2145, 425.8773
844.6967, 420.7300
845.1788, 413.0281
845.6609, 405.7198
846.1430, 406.2557
846.6251, 415.8423
847.1072, 422.9205
847.5894, 417.5093
848.0715, 409.8146
848.5536, 407.2336
849.0357, 411.0774
849.5178, 416.2397
849.9999, 424.3248
850.4821, 430.1758
850.9642, 427.6887
851.4463, 418.8718
851.9284, 418.2419
852.4105, 426.0468
852.8926, 432.9374
853.3748, 429.0953
853.8569, 423.0041
854.3390, 424.7804
854.8211, 436.1198
855.3032, 438.8663
855.7853, 419.1366
856.2675, 401.5686
856.7496, 398.2435
857.2317, 408.8553
857.7138, 415.1258
858.1959, 416.7338
858.6780, 417.6394
859.1602, 422.0458
859.6423, 426.7079
860.1244, 425.7674
860.6065, 419.6711
861.0886, 413.7748
861.5707, 409.2178
862.0529, 406.8041
862.5350, 407.9721
863.0171, 412.2336
863.4992, 415.5179
863.9813, 418.0087
864.4634, 418.6246
864.9456, 415.4676
865.4277, 410.6406
865.9098, 411.8210
866.3919, 417.7260
866.8740, 420.9575
867.3561, 412.1307
867.8383, 403.9671
868.3204, 405.7194
868.8025, 415.8152
869.2845, 424.7227
869.7667, 432.6654
870.2488, 437.7655
870.7309, 439.3133
871.2130, 437.7971
871.6951, 433.1143
872.1772, 425.7424
872.6594, 421.5750
873.1415, 426.7369
873.6236, 432.1582
874.1057, 426.0285
874.5878, 412.8866
875.0699, 402.9967
875.5521, 401.7629
876.0342, 401.1905
876.5163, 398.6135
876.9984, 396.1583
877.4805, 398.8591
877.9626, 407.2621
878.4448, 415.3003
878.9269, 422.2072
879.4090, 426.7089
879.8911, 424.8494
880.3732, 419.6479
880.8553, 417.1613
881.3375, 422.1987
881.8196, 425.6813
882.3017, 422.1440
882.7838, 416.5368
883.2659, 415.2310
883.7480, 419.6428
884.2302, 424.2192
884.7123, 429.5173
885.1944, 432.0293
885.6765, 423.1317
886.1586, 408.2944
886.6407, 402.4197
887.1229, 410.0049
887.6050, 418.4977
888.0871, 419.3636
888.5692, 418.1990
889.0513, 420.9998
889.5334, 432.0085
890.0156, 434.9478
890.4977, 427.1555
890.9798, 416.8695
891.4619, 409.3992
891.9440, 405.1641
892.4261, 409.3456
892.9083, 422.1006
893.3904, 430.6247
893.8725, 418.6958
894.3546, 403.4944
894.8367, 399.6986
895.3188, 409.9370
895.8010, 418.5052
896.2831, 424.3402
896.7652, 428.2300
897.2473, 430.2969
897.7294, 430.6964
898.2115, 430.1548
898.6937, 428.7370
899.1758, 427.5997
899.6579, 426.1587
900.1400, 426.3501
900.6221, 432.3672
901.1042, 442.4101
901.5864, 447.8912
902.0685, 443.5396
902.5506, 437.6257
903.0327, 430.5031
903.5148, 423.7138
903.9969, 423.6485
904.4791, 430.2401
904.9612, 436.3272
905.4433, 440.0357
905.9254, 440.9242
906.4075, 435.8657
906.8896, 427.9987
907.3718, 423.4573
907.8539, 428.0953
908.3360, 431.2995
908.8181, 429.4524
909.3002, 426.4268
909.7823, 428.4478
910.2645, 436.1196
910.7466, 440.4237
911.2287, 439.5072
911.7108, 436.7446
912.1929, 436.5744
912.6750, 437.0038
913.1572, 434.1305
913.6393, 424.9527
914.1214, 419.7103
914.6035, 426.9258
915.0856, 435.1700
915.5677, 435.0479
916.0499, 423.7460
916.5320, 421.3185
917.0141, 428.8927
917.4962, 438.1693
917.9783, 444.0710
918.4604, 446.1173
918.9426, 441.0291
919.4247, 429.2679
919.9068, 421.1077
920.3889, 424.2626
920.8710, 429.0002
921.3531, 430.8761
921.8353, 430.0649
922.3174, 428.1828
922.7995, 424.7443
923.2816, 423.5486
923.7637, 428.0369
924.2458, 434.5602
924.7280, 435.7747
925.2101, 433.3435
925.6922, 419.8360
926.1743, 438.0246
926.6564, 448.6497
927.1385, 452.1179
927.6207, 426.9930
928.1028, 438.7900
928.5849, 435.7905
929.0670, 432.1842
929.5491, 440.0054
930.0313, 426.9536
930.5134, 418.6539
930.9955, 414.5685
931.4776, 413.3570
931.9597, 414.8423
932.4418, 418.8321
932.9240, 431.2539
933.4061, 441.9966
933.8882, 440.4968
934.3703, 420.5741
934.8524, 414.4825
935.3345, 424.4771
935.8167, 438.2193
936.2988, 445.2601
936.7809, 448.0291
937.2630, 451.1033
937.7451, 454.7184
938.2272, 456.1208
938.7094, 452.3906
939.1915, 447.6882
939.6736, 444.1781
940.1557, 441.7029
940.6378, 437.5098
941.1199, 430.9620
941.6021, 426.8820
942.0842, 428.9477
942.5663, 433.5294
943.0484, 434.8966
943.5305, 433.6374
944.0126, 431.3590
944.4948, 424.3654
944.9769, 421.5590
945.4590, 429.2188
945.9411, 441.2535
946.4232, 448.5487
946.9053, 450.6808
947.3875, 451.2019
947.8696, 450.6200
948.3517, 448.8167
948.8338, 444.4084
949.3159, 439.0844
949.7980, 435.7265
950.2802, 435.2812
950.7623, 435.4324
951.2444, 435.2429
951.7264, 435.6851
952.2086, 438.1894
952.6907, 443.3000
953.1728, 442.9964
953.6549, 436.9130
954.1370, 430.3925
954.6191, 425.8792
955.1013, 424.1443
955.5834, 429.6328
956.0655, 440.4771
956.5476, 443.8238
957.0297, 419.7932
957.5118, 407.0628
957.9940, 422.5797
958.4761, 454.6795
958.9582, 463.1033
959.4403, 448.6541
959.9224, 421.5945
960.4045, 439.0633
960.8867, 448.9687
961.3688, 451.7169
961.8509, 425.8718
962.3330, 436.9491
962.8151, 433.2296
963.2972, 428.9032
963.7794, 445.1772
964.2615, 423.4909
964.7436, 439.4381
965.2257, 440.3628
965.7078, 448.1628
966.1899, 441.0747
966.6721, 438.5852
967.1542, 450.9582
967.6363, 461.3087
968.1184, 454.1092
968.6005, 426.9121
969.0826, 417.3337
969.5648, 437.4555
970.0469, 454.6593
970.5290, 454.5055
971.0111, 441.8875
971.4932, 430.0694
971.9753, 419.8595
972.4575, 415.1328
972.9396, 421.7885
973.4217, 430.1827
973.9038, 434.5935
974.3859, 437.0466
974.8680, 441.6828
975.3502, 450.5487
975.8323, 456.5340
976.3144, 458.9246
976.7965, 458.2540
977.2786, 453.6414
977.7607, 446.7367
978.2429, 440.4456
978.7250, 434.7969
979.2071, 433.9474
979.6892, 448.7970
980.1713, 461.7000
980.6534, 459.3055
981.1356, 441.1008
981.6177, 430.2923
982.0998, 427.5038
982.5819, 427.1489
983.0640, 424.8817
983.5461, 423.8174
984.0283, 432.2398
984.5104, 446.3253
984.9925, 454.3052
985.4746, 441.3292
985.9567, 435.1852
986.4388, 446.6854
986.9210, 464.8505
987.4031, 468.9333
987.8852, 459.2171
988.3673, 455.2046
988.8494, 461.3597
989.3315, 468.5276
989.8137, 467.7985
990.2958, 462.9203
990.7779, 457.5497
991.2600, 451.5961
991.7421, 448.5583
992.2242, 451.4449
992.7064, 452.2695
993.1885, 443.9302
993.6706, 429.5451
994.1527, 426.0445
994.6348, 432.4560
995.1169, 441.4458
995.5991, 453.4309
996.0812, 462.1985
996.5633, 461.9488
997.0454, 455.4809
997.5275, 450.4591
998.0096, 445.9879
998.4918, 447.5112
998.9739, 458.3919
999.4560, 469.1245
999.9381, 461.8580
1000.420, 445.4784
1000.902, 440.9182
1001.384, 455.3066
1001.867, 464.9895
1002.349, 454.3000
1002.831, 440.8925
1003.313, 436.1043
1003.795, 440.0656
1004.277, 442.9120
1004.759, 444.6051
1005.241, 446.4199
1005.724, 450.1457
1006.206, 453.6791
1006.688, 453.7401
1007.170, 451.5455
1007.652, 450.6759
1008.134, 453.5022
1008.616, 455.9540
1009.098, 457.9775
1009.580, 458.8091
1010.063, 455.9684
1010.545, 450.4989
1011.027, 448.1928
1011.509, 450.3798
1011.991, 453.5642
1012.473, 457.0305
1012.955, 459.1047
1013.437, 458.0412
1013.919, 453.6097
1014.402, 447.1726
1014.884, 436.6150
1015.366, 431.8910
1015.848, 443.0636
1016.330, 460.4044
1016.812, 461.5187
1017.294, 451.3581
1017.776, 444.0603
1018.259, 448.8235
1018.741, 453.3792
1019.223, 454.0915
1019.705, 452.9473
1020.187, 452.5336
1020.669, 452.8723
1021.151, 451.9855
1021.633, 449.3330
1022.115, 448.2593
1022.598, 454.5385
1023.080, 462.1796
1023.562, 464.2925
1024.044, 459.7070
1024.526, 458.4088
1025.008, 463.2704
1025.490, 466.8109
1025.972, 465.5985
1026.454, 461.5308
1026.937, 459.5074
1027.419, 459.1330
1027.901, 458.9930
1028.383, 458.3706
1028.865, 458.0589
1029.347, 459.1998
1029.829, 460.3714
1030.311, 460.0845
1030.794, 458.4455
1031.276, 453.1934
1031.758, 443.1662
1032.240, 436.8763
1032.722, 448.6478
1033.204, 464.3579
1033.686, 464.5381
1034.168, 449.4647
1034.651, 437.5509
1035.133, 429.1160
1035.615, 431.4980
1036.097, 452.2589
1036.579, 480.0214
1037.061, 483.6886
1037.543, 468.7870
1038.025, 461.5733
1038.507, 473.2952
1038.990, 484.9338
1039.472, 483.0388
1039.954, 476.0257
1040.436, 472.0931
1040.918, 471.9213
1041.400, 473.0575
1041.882, 476.0495
1042.364, 477.1657
1042.846, 470.1311
1043.329, 461.7936
1043.811, 464.1669
1044.293, 474.5808
1044.775, 482.8123
1045.257, 485.7599
1045.739, 485.1490
1046.221, 479.0928
1046.703, 472.2161
1047.186, 473.3355
1047.668, 480.7984
1048.150, 485.5397
1048.632, 486.2698
1049.114, 482.3983
1049.596, 467.6619
1050.078, 452.5764
1050.560, 447.1853
1051.042, 451.4603
1051.525, 452.2858
1052.007, 448.5818
1052.489, 447.7583
1052.971, 454.8583
1053.453, 464.6429
1053.935, 470.4135
1054.417, 472.5832
1054.899, 471.9649
1055.381, 462.7422
1055.864, 460.2778
1056.346, 470.5338
1056.828, 481.2596
1057.310, 477.7800
1057.792, 463.2459
1058.274, 456.9893
1058.756, 459.7672
1059.238, 466.0479
1059.721, 479.3266
1060.203, 488.3018
1060.685, 480.6478
1061.167, 462.7594
1061.649, 459.0259
1062.131, 472.1284
1062.613, 482.1341
1063.095, 484.5222
1063.578, 482.3266
1064.060, 477.2660
1064.542, 470.8696
1065.024, 465.4453
1065.506, 461.5934
1065.988, 457.2678
1066.470, 449.5225
1066.952, 446.4117
1067.434, 455.5015
1067.917, 471.8220
1068.399, 474.5571
1068.881, 466.7712
1069.363, 461.3190
1069.845, 465.9866
1070.327, 472.2643
1070.809, 478.7918
1071.291, 483.7610
1071.773, 483.7268
1072.256, 477.7303
1072.738, 477.2422
1073.220, 483.4608
1073.702, 488.9795
1074.184, 485.9286
1074.666, 480.2863
1075.148, 477.1992
1075.630, 476.9881
1076.112, 478.6569
1076.595, 483.6177
1077.077, 486.5865
1077.559, 486.3500
1078.041, 483.2131
1078.523, 474.3324
1079.005, 463.5974
1079.487, 460.3744
1079.969, 469.0836
1080.452, 476.0513
1080.934, 474.9550
1081.416, 460.6147
1081.898, 477.6411
1082.380, 487.1039
1082.862, 489.4097
1083.344, 463.1222
1083.826, 473.7570
1084.308, 469.5950
1084.791, 464.8257
1085.273, 480.6572
1085.755, 458.5285
1086.237, 474.0333
1086.719, 474.5155
1087.201, 481.8731
1087.683, 474.3426
1088.165, 471.4105
1088.647, 483.3714
1089.130, 487.0854
1089.612, 477.8410
1090.094, 485.6357
1090.576, 462.9869
1091.058, 467.0527
1091.540, 474.2166
1092.022, 481.6981
1092.504, 488.5095
1092.987, 493.5424
1093.469, 495.8241
1093.951, 491.2534
1094.433, 477.3960
1094.915, 465.9495
1095.397, 462.6061
1095.879, 462.6871
1096.361, 463.5984
1096.844, 465.5202
1097.326, 471.2375
1097.808, 480.2646
1098.290, 486.3072
1098.772, 484.2998
1099.254, 482.1090
1099.736, 487.9787
1100.218, 496.0900
1100.700, 498.0861
1101.182, 490.5195
1101.665, 488.0530
1102.147, 491.5127
1102.629, 495.1174
1103.111, 494.6984
1103.593, 491.5595
1104.075, 486.5951
1104.557, 480.2952
1105.039, 474.2718
1105.522, 467.8349
1106.004, 463.3019
1106.486, 460.3448
1106.968, 460.5883
1107.450, 468.7401
1107.932, 481.4045
1108.414, 490.5929
1108.896, 495.4149
1109.379, 495.9614
1109.861, 490.9035
1110.343, 482.6766
1110.825, 469.4836
1111.307, 455.2882
1111.789, 455.9073
1112.271, 468.8172
1112.753, 474.7360
1113.235, 465.0547
1113.718, 456.7246
1114.200, 464.7079
1114.682, 476.8414
1115.164, 481.7921
1115.646, 478.7958
1116.128, 479.2810
1116.610, 483.5301
1117.092, 486.3980
1117.574, 482.5454
1118.057, 478.6907
1118.539, 483.5521
1119.021, 492.9297
1119.503, 499.5357
1119.985, 505.4092
1120.467, 500.0173
1120.949, 480.0204
1121.431, 459.6776
1121.914, 449.9919
1122.396, 449.1224
1122.878, 458.0520
1123.360, 474.1186
1123.842, 484.9847
1124.324, 484.0569
1124.806, 480.0422
1125.288, 472.3244
1125.771, 464.9668
1126.253, 463.9396
1126.735, 468.2899
1127.217, 477.9438
1127.699, 493.1207
1128.181, 500.4815
1128.663, 485.1788
1129.145, 469.4852
1129.627, 462.3192
1130.109, 462.4283
1130.592, 466.8327
1131.074, 475.1330
1131.556, 484.5129
1132.038, 495.3946
1132.520, 503.1848
1133.002, 503.9026
1133.484, 500.5085
1133.966, 495.7781
1134.449, 489.8701
1134.931, 476.3127
1135.413, 454.6707
1135.895, 442.9631
1136.377, 456.9338
1136.859, 475.4855
1137.341, 477.7431
1137.823, 471.7090
1138.306, 470.2180
1138.788, 476.9932
1139.270, 481.2103
1139.752, 482.9333
1140.234, 482.0140
1140.716, 477.8073
1141.198, 471.2795
1141.680, 459.3496
1142.162, 445.9226
1142.645, 443.8956
1143.127, 467.8343
1143.609, 481.0348
1144.091, 478.1154
1144.573, 468.5355
1145.055, 459.0117
1145.537, 452.2133
1146.019, 456.1844
1146.501, 470.1939
1146.984, 480.6812
1147.466, 480.4688
1147.948, 479.2516
1148.430, 478.7510
1148.912, 478.9739
1149.394, 480.7232
1149.876, 483.1715
1150.358, 483.4415
1150.841, 480.7893
1151.323, 478.6398
1151.805, 480.1183
1152.287, 480.6894
1152.769, 477.3231
1153.251, 471.8387
1153.733, 471.5293
1154.215, 460.6041
1154.698, 477.4904
1155.180, 486.8141
1155.662, 488.9807
1156.144, 462.5540
1156.626, 473.0497
1157.108, 468.7484
1157.590, 463.8406
1158.072, 479.5328
1158.554, 457.2650
1159.036, 472.6305
1159.519, 472.9727
1160.001, 480.1912
1160.483, 472.5215
1160.965, 469.4503
1161.447, 481.2719
1161.929, 484.8474
1162.411, 475.4637
1162.893, 483.1193
1163.375, 460.3313
1163.858, 464.2571
1164.340, 479.7099
1164.822, 471.0748
1165.304, 479.0026
1165.786, 480.6222
1166.268, 453.5748
1166.750, 476.3824
1167.232, 468.3588
1167.715, 473.6279
1168.197, 481.9648
1168.679, 489.0883
1169.161, 488.0585
1169.643, 480.7088
1170.125, 477.5885
1170.607, 481.2554
1171.089, 484.0282
1171.572, 484.3928
1172.054, 484.6782
1172.536, 491.0372
1173.018, 497.2454
1173.500, 490.4645
1173.982, 470.3371
1174.464, 463.1301
1174.946, 478.2207
1175.428, 491.9814
1175.911, 499.2684
1176.393, 501.4204
1176.875, 498.3905
1177.357, 492.6637
1177.839, 488.5628
1178.321, 487.0509
1178.803, 485.2874
1179.285, 480.7699
1179.767, 480.2314
1180.250, 488.8167
1180.732, 499.5693
1181.214, 494.7781
1181.696, 480.8887
1182.178, 472.2481
1182.660, 473.0825
1183.142, 478.3872
1183.624, 492.8257
1184.107, 501.9491
1184.589, 495.0408
1185.071, 479.1479
1185.553, 476.7799
1186.035, 484.4858
1186.517, 492.1288
1186.999, 497.6108
1187.481, 499.7887
1187.964, 497.7542
1188.446, 493.2828
1188.928, 485.8851
1189.410, 477.0598
1189.892, 475.1697
1190.374, 478.5764
1190.856, 468.4615
1191.338, 486.0052
1191.820, 495.9853
1192.302, 498.8085
1192.785, 473.0389
1193.267, 484.1910
1193.749, 480.5464
1194.231, 476.2950
1194.713, 492.6438
1195.195, 471.0325
1195.677, 487.0546
1196.159, 488.0542
1196.642, 495.9297
1197.124, 488.9166
1197.606, 486.5019
1198.088, 498.9802
1198.570, 503.2121
1199.052, 489.7038
1199.534, 493.7500
1200.016, 492.1180
1200.499, 488.9850
1200.981, 484.6113
1201.463, 481.0053
1201.945, 481.2520
1202.427, 485.1729
1202.909, 494.3709
1203.391, 508.8998
1203.873, 515.8719
1204.355, 497.3669
1204.838, 481.5756
1205.320, 483.1398
1205.802, 493.8170
1206.284, 496.0797
1206.766, 491.3679
1207.248, 489.3134
1207.730, 491.6347
1208.212, 494.0677
1208.694, 494.6592
1209.177, 493.8202
1209.659, 490.6657
1210.141, 486.9604
1210.623, 489.1039
1211.105, 495.8745
1211.587, 499.3146
1212.069, 497.3122
1212.551, 494.5129
1213.034, 490.0584
1213.516, 489.7299
1213.998, 498.0946
1214.480, 512.0304
1214.962, 521.5987
1215.444, 525.9684
1215.926, 517.9661
1216.408, 491.3789
1216.891, 469.7058
1217.373, 467.6018
1217.855, 473.3494
1218.337, 481.3220
1218.819, 490.6664
1219.301, 497.4214
1219.783, 501.7148
1220.265, 503.1430
1220.747, 499.8914
1221.229, 498.5787
1221.712, 506.0668
1222.194, 512.9800
1222.676, 513.1240
1223.158, 507.7683
1223.640, 503.9596
1224.122, 501.4146
1224.604, 498.6227
1225.086, 493.7406
1225.569, 491.1146
1226.051, 496.3806
1226.533, 500.7368
1227.015, 496.9110
1227.497, 487.2944
1227.979, 486.6884
1228.461, 493.4841
1228.943, 500.6452
1229.426, 505.0720
1229.908, 509.7368
1230.390, 518.6371
1230.872, 524.5820
1231.354, 520.4459
1231.836, 508.6813
1232.318, 501.1364
1232.800, 497.8470
1233.282, 499.0225
1233.765, 512.7484
1234.247, 519.0022
1234.729, 497.5857
1235.211, 513.0327
1235.693, 520.9167
1236.175, 521.6431
1236.657, 493.7767
1237.139, 502.8322
1237.621, 497.0913
1238.104, 490.7395
1238.586, 504.9916
1239.068, 481.2841
1239.550, 495.2095
1240.032, 494.1128
1240.514, 493.0124
1240.996, 496.8098
1241.478, 499.6842
1241.960, 504.2506
1242.443, 516.2919
1242.925, 522.5685
1243.407, 520.6716
1243.889, 515.2874
1244.371, 509.8163
1244.853, 504.7005
1245.335, 499.9968
1245.817, 496.2036
1246.300, 495.1010
1246.782, 502.4380
1247.264, 502.6174
1247.746, 491.1221
1248.228, 481.4853
1248.710, 492.3241
1249.192, 510.9991
1249.674, 517.1613
1250.156, 512.4371
1250.639, 507.1703
1251.121, 502.5773
1251.603, 498.7970
1252.085, 495.7087
1252.567, 494.1457
1253.049, 494.7987
1253.531, 497.5514
1254.013, 505.1316
1254.495, 515.0013
1254.978, 515.8591
1255.460, 502.9335
1255.942, 497.2923
1256.424, 501.8164
##END=



