##NAMES=Bismutite
##RRUFFID=R060665
##IDEAL CHEMISTRY=Bi_2_O_2_(CO_3_)
##LOCALITY=Ecuador, Rio Grande do Norte, Brazil
##OWNER=RRUFF
##SOURCE=Michael Scott
##DESCRIPTION=Green massive, platy
##STATUS=The identification of this mineral has been confirmed by X-ray diffraction and chemical analysis
##URL=rruff.info/R060665
##MEASURED CHEMISTRY=(Bi_1.99_Sb_0.01_)O_2_(CO_3_) ; is the lighter phase. The darker phase is: (Bi_1.98_Sb_0.02_)O_2_(CO_3_) ; C not measured but estimated by difference and stoichiometry
9.059570e+001, 5.300484e+003
9.107782e+001, 5.140388e+003
9.155994e+001, 5.083717e+003
9.204205e+001, 5.205731e+003
9.252417e+001, 5.380167e+003
9.300629e+001, 5.564915e+003
9.348840e+001, 5.716250e+003
9.397052e+001, 5.797691e+003
9.445264e+001, 5.796617e+003
9.493475e+001, 5.790617e+003
9.541687e+001, 5.776272e+003
9.589898e+001, 5.757219e+003
9.638110e+001, 5.736468e+003
9.686321e+001, 5.716362e+003
9.734533e+001, 5.693996e+003
9.782745e+001, 5.658694e+003
9.830956e+001, 5.627422e+003
9.879168e+001, 5.600823e+003
9.927380e+001, 5.578617e+003
9.975591e+001, 5.560655e+003
1.002380e+002, 5.545561e+003
1.007201e+002, 5.531155e+003
1.012023e+002, 5.515374e+003
1.016844e+002, 5.499305e+003
1.021665e+002, 5.486530e+003
1.026486e+002, 5.477257e+003
1.031307e+002, 5.470130e+003
1.036128e+002, 5.463722e+003
1.040950e+002, 5.457491e+003
1.045771e+002, 5.452914e+003
1.050592e+002, 5.448638e+003
1.055413e+002, 5.445097e+003
1.060234e+002, 5.443939e+003
1.065055e+002, 5.446679e+003
1.069877e+002, 5.452203e+003
1.074698e+002, 5.456333e+003
1.079519e+002, 5.456955e+003
1.084340e+002, 5.458132e+003
1.089161e+002, 5.462001e+003
1.093982e+002, 5.467671e+003
1.098804e+002, 5.472981e+003
1.103625e+002, 5.475696e+003
1.108446e+002, 5.474987e+003
1.113267e+002, 5.475544e+003
1.118088e+002, 5.477530e+003
1.122909e+002, 5.480412e+003
1.127731e+002, 5.483852e+003
1.132552e+002, 5.487820e+003
1.137373e+002, 5.492612e+003
1.142194e+002, 5.498582e+003
1.147015e+002, 5.505752e+003
1.151836e+002, 5.514525e+003
1.156658e+002, 5.527343e+003
1.161479e+002, 5.540617e+003
1.166300e+002, 5.550227e+003
1.171121e+002, 5.554563e+003
1.175942e+002, 5.556276e+003
1.180763e+002, 5.561819e+003
1.185584e+002, 5.572724e+003
1.190406e+002, 5.583209e+003
1.195227e+002, 5.589932e+003
1.200048e+002, 5.594633e+003
1.204869e+002, 5.602157e+003
1.209690e+002, 5.614555e+003
1.214511e+002, 5.631586e+003
1.219333e+002, 5.651416e+003
1.224154e+002, 5.675255e+003
1.228975e+002, 5.699675e+003
1.233796e+002, 5.720716e+003
1.238617e+002, 5.737835e+003
1.243438e+002, 5.756324e+003
1.248260e+002, 5.780592e+003
1.253081e+002, 5.806734e+003
1.257902e+002, 5.831037e+003
1.262723e+002, 5.850992e+003
1.267544e+002, 5.869601e+003
1.272365e+002, 5.893615e+003
1.277187e+002, 5.925786e+003
1.282008e+002, 5.959442e+003
1.286829e+002, 5.991637e+003
1.291650e+002, 6.024084e+003
1.296471e+002, 6.059009e+003
1.301292e+002, 6.098037e+003
1.306114e+002, 6.140952e+003
1.310935e+002, 6.184280e+003
1.315756e+002, 6.226378e+003
1.320577e+002, 6.270966e+003
1.325398e+002, 6.318843e+003
1.330219e+002, 6.370083e+003
1.335041e+002, 6.424072e+003
1.339862e+002, 6.480436e+003
1.344683e+002, 6.539436e+003
1.349504e+002, 6.601729e+003
1.354325e+002, 6.665972e+003
1.359146e+002, 6.733811e+003
1.363968e+002, 6.806985e+003
1.368789e+002, 6.885213e+003
1.373610e+002, 6.965677e+003
1.378431e+002, 7.043727e+003
1.383252e+002, 7.118640e+003
1.388073e+002, 7.198050e+003
1.392895e+002, 7.283422e+003
1.397716e+002, 7.373297e+003
1.402537e+002, 7.466467e+003
1.407358e+002, 7.562418e+003
1.412179e+002, 7.661059e+003
1.417000e+002, 7.761530e+003
1.421821e+002, 7.863249e+003
1.426643e+002, 7.968261e+003
1.431464e+002, 8.077673e+003
1.436285e+002, 8.191034e+003
1.441106e+002, 8.307521e+003
1.445927e+002, 8.427239e+003
1.450748e+002, 8.550034e+003
1.455570e+002, 8.675521e+003
1.460391e+002, 8.803455e+003
1.465212e+002, 8.933944e+003
1.470033e+002, 9.067501e+003
1.474854e+002, 9.204597e+003
1.479675e+002, 9.342165e+003
1.484497e+002, 9.480831e+003
1.489318e+002, 9.620474e+003
1.494139e+002, 9.761785e+003
1.498960e+002, 9.904246e+003
1.503781e+002, 1.004783e+004
1.508602e+002, 1.019127e+004
1.513424e+002, 1.033725e+004
1.518245e+002, 1.047964e+004
1.523066e+002, 1.061781e+004
1.527887e+002, 1.075351e+004
1.532708e+002, 1.089119e+004
1.537529e+002, 1.103142e+004
1.542351e+002, 1.116980e+004
1.547172e+002, 1.129469e+004
1.551993e+002, 1.139310e+004
1.556814e+002, 1.149133e+004
1.561635e+002, 1.159508e+004
1.566456e+002, 1.169822e+004
1.571278e+002, 1.179372e+004
1.576099e+002, 1.187839e+004
1.580920e+002, 1.195193e+004
1.585741e+002, 1.201151e+004
1.590562e+002, 1.205663e+004
1.595383e+002, 1.209109e+004
1.600205e+002, 1.211249e+004
1.605026e+002, 1.212334e+004
1.609847e+002, 1.212990e+004
1.614668e+002, 1.213676e+004
1.619489e+002, 1.214065e+004
1.624310e+002, 1.213053e+004
1.629131e+002, 1.210688e+004
1.633953e+002, 1.207084e+004
1.638774e+002, 1.202183e+004
1.643595e+002, 1.196018e+004
1.648416e+002, 1.188983e+004
1.653237e+002, 1.181316e+004
1.658058e+002, 1.172821e+004
1.662880e+002, 1.163230e+004
1.667701e+002, 1.152161e+004
1.672522e+002, 1.140205e+004
1.677343e+002, 1.128138e+004
1.682164e+002, 1.116102e+004
1.686985e+002, 1.103374e+004
1.691807e+002, 1.089520e+004
1.696628e+002, 1.074808e+004
1.701449e+002, 1.059259e+004
1.706270e+002, 1.042715e+004
1.711091e+002, 1.025504e+004
1.715912e+002, 1.008372e+004
1.720734e+002, 9.913481e+003
1.725555e+002, 9.743621e+003
1.730376e+002, 9.571189e+003
1.735197e+002, 9.398226e+003
1.740018e+002, 9.226489e+003
1.744839e+002, 9.057459e+003
1.749661e+002, 8.891075e+003
1.754482e+002, 8.728895e+003
1.759303e+002, 8.570778e+003
1.764124e+002, 8.417756e+003
1.768945e+002, 8.271128e+003
1.773766e+002, 8.129686e+003
1.778588e+002, 7.992641e+003
1.783409e+002, 7.858358e+003
1.788230e+002, 7.726540e+003
1.793051e+002, 7.603532e+003
1.797872e+002, 7.494529e+003
1.802693e+002, 7.388875e+003
1.807515e+002, 7.283781e+003
1.812336e+002, 7.179462e+003
1.817157e+002, 7.078553e+003
1.821978e+002, 6.983163e+003
1.826799e+002, 6.893628e+003
1.831620e+002, 6.807353e+003
1.836441e+002, 6.723614e+003
1.841263e+002, 6.642800e+003
1.846084e+002, 6.566250e+003
1.850905e+002, 6.493509e+003
1.855726e+002, 6.422284e+003
1.860547e+002, 6.350640e+003
1.865368e+002, 6.278368e+003
1.870190e+002, 6.209732e+003
1.875011e+002, 6.147620e+003
1.879832e+002, 6.087526e+003
1.884653e+002, 6.026131e+003
1.889474e+002, 5.963363e+003
1.894296e+002, 5.900643e+003
1.899117e+002, 5.838513e+003
1.903938e+002, 5.777437e+003
1.908759e+002, 5.720756e+003
1.913580e+002, 5.671722e+003
1.918401e+002, 5.626267e+003
1.923223e+002, 5.579748e+003
1.928044e+002, 5.531433e+003
1.932865e+002, 5.482724e+003
1.937686e+002, 5.433875e+003
1.942507e+002, 5.385261e+003
1.947328e+002, 5.339246e+003
1.952150e+002, 5.298581e+003
1.956971e+002, 5.260513e+003
1.961792e+002, 5.218699e+003
1.966613e+002, 5.170630e+003
1.971434e+002, 5.123254e+003
1.976255e+002, 5.082178e+003
1.981077e+002, 5.045539e+003
1.985898e+002, 5.009822e+003
1.990719e+002, 4.973236e+003
1.995540e+002, 4.935891e+003
2.000361e+002, 4.898846e+003
2.005182e+002, 4.862742e+003
2.010004e+002, 4.825789e+003
2.014825e+002, 4.786447e+003
2.019646e+002, 4.745672e+003
2.024467e+002, 4.706291e+003
2.029288e+002, 4.671196e+003
2.034109e+002, 4.639970e+003
2.038930e+002, 4.606232e+003
2.043752e+002, 4.566998e+003
2.048573e+002, 4.528454e+003
2.053394e+002, 4.493929e+003
2.058215e+002, 4.462318e+003
2.063036e+002, 4.430406e+003
2.067857e+002, 4.395549e+003
2.072679e+002, 4.357558e+003
2.077500e+002, 4.320426e+003
2.082321e+002, 4.283602e+003
2.087142e+002, 4.248173e+003
2.091963e+002, 4.214857e+003
2.096784e+002, 4.183428e+003
2.101606e+002, 4.153361e+003
2.106427e+002, 4.124435e+003
2.111248e+002, 4.097158e+003
2.116069e+002, 4.067851e+003
2.120890e+002, 4.034187e+003
2.125711e+002, 4.000916e+003
2.130533e+002, 3.969577e+003
2.135354e+002, 3.940291e+003
2.140175e+002, 3.912207e+003
2.144996e+002, 3.884594e+003
2.149817e+002, 3.857314e+003
2.154638e+002, 3.831506e+003
2.159460e+002, 3.808148e+003
2.164281e+002, 3.784994e+003
2.169102e+002, 3.760775e+003
2.173923e+002, 3.735625e+003
2.178744e+002, 3.710117e+003
2.183565e+002, 3.684781e+003
2.188387e+002, 3.659591e+003
2.193208e+002, 3.635568e+003
2.198029e+002, 3.613556e+003
2.202850e+002, 3.591766e+003
2.207671e+002, 3.569095e+003
2.212492e+002, 3.545512e+003
2.217314e+002, 3.521520e+003
2.222135e+002, 3.497206e+003
2.226956e+002, 3.472636e+003
2.231777e+002, 3.450053e+003
2.236598e+002, 3.431207e+003
2.241419e+002, 3.413003e+003
2.246240e+002, 3.392929e+003
2.251062e+002, 3.370902e+003
2.255883e+002, 3.349205e+003
2.260704e+002, 3.330249e+003
2.265525e+002, 3.313558e+003
2.270346e+002, 3.294717e+003
2.275167e+002, 3.270776e+003
2.279989e+002, 3.246295e+003
2.284810e+002, 3.226199e+003
2.289631e+002, 3.210856e+003
2.294452e+002, 3.196267e+003
2.299273e+002, 3.179902e+003
2.304094e+002, 3.162140e+003
2.308916e+002, 3.143948e+003
2.313737e+002, 3.125120e+003
2.318558e+002, 3.106178e+003
2.323379e+002, 3.087625e+003
2.328200e+002, 3.069447e+003
2.333021e+002, 3.051771e+003
2.337843e+002, 3.034869e+003
2.342664e+002, 3.018428e+003
2.347485e+002, 3.001848e+003
2.352306e+002, 2.983992e+003
2.357127e+002, 2.966773e+003
2.361948e+002, 2.953773e+003
2.366770e+002, 2.946313e+003
2.371591e+002, 2.937236e+003
2.376412e+002, 2.920699e+003
2.381233e+002, 2.901084e+003
2.386054e+002, 2.882985e+003
2.390875e+002, 2.868191e+003
2.395697e+002, 2.854950e+003
2.400518e+002, 2.840426e+003
2.405339e+002, 2.823971e+003
2.410160e+002, 2.808128e+003
2.414981e+002, 2.794022e+003
2.419802e+002, 2.780898e+003
2.424624e+002, 2.768119e+003
2.429445e+002, 2.755481e+003
2.434266e+002, 2.743183e+003
2.439087e+002, 2.731595e+003
2.443908e+002, 2.720862e+003
2.448729e+002, 2.710498e+003
2.453550e+002, 2.700288e+003
2.458372e+002, 2.690402e+003
2.463193e+002, 2.681203e+003
2.468014e+002, 2.672839e+003
2.472835e+002, 2.664674e+003
2.477656e+002, 2.655364e+003
2.482477e+002, 2.644351e+003
2.487299e+002, 2.633527e+003
2.492120e+002, 2.623645e+003
2.496941e+002, 2.613858e+003
2.501762e+002, 2.603430e+003
2.506583e+002, 2.592137e+003
2.511404e+002, 2.580537e+003
2.516226e+002, 2.569445e+003
2.521047e+002, 2.559092e+003
2.525868e+002, 2.548911e+003
2.530689e+002, 2.538444e+003
2.535510e+002, 2.528365e+003
2.540331e+002, 2.519411e+003
2.545153e+002, 2.511679e+003
2.549974e+002, 2.504232e+003
2.554795e+002, 2.495346e+003
2.559616e+002, 2.483576e+003
2.564437e+002, 2.473662e+003
2.569258e+002, 2.466483e+003
2.574080e+002, 2.460247e+003
2.578901e+002, 2.453941e+003
2.583722e+002, 2.447313e+003
2.588543e+002, 2.440507e+003
2.593364e+002, 2.433734e+003
2.598185e+002, 2.427115e+003
2.603007e+002, 2.420188e+003
2.607828e+002, 2.412038e+003
2.612649e+002, 2.404261e+003
2.617470e+002, 2.398127e+003
2.622291e+002, 2.393579e+003
2.627112e+002, 2.389552e+003
2.631934e+002, 2.384849e+003
2.636755e+002, 2.379411e+003
2.641576e+002, 2.373345e+003
2.646397e+002, 2.366115e+003
2.651218e+002, 2.358842e+003
2.656039e+002, 2.351968e+003
2.660861e+002, 2.345635e+003
2.665682e+002, 2.339951e+003
2.670503e+002, 2.335124e+003
2.675324e+002, 2.331378e+003
2.680145e+002, 2.327121e+003
2.684966e+002, 2.321740e+003
2.689788e+002, 2.316508e+003
2.694609e+002, 2.312445e+003
2.699430e+002, 2.309238e+003
2.704251e+002, 2.305644e+003
2.709072e+002, 2.300556e+003
2.713893e+002, 2.293936e+003
2.718715e+002, 2.287839e+003
2.723536e+002, 2.281787e+003
2.728357e+002, 2.276591e+003
2.733178e+002, 2.273515e+003
2.737999e+002, 2.271729e+003
2.742820e+002, 2.268964e+003
2.747642e+002, 2.263502e+003
2.752463e+002, 2.255641e+003
2.757284e+002, 2.249224e+003
2.762105e+002, 2.244251e+003
2.766926e+002, 2.240272e+003
2.771747e+002, 2.237950e+003
2.776568e+002, 2.236504e+003
2.781389e+002, 2.234192e+003
2.786211e+002, 2.229950e+003
2.791032e+002, 2.224308e+003
2.795853e+002, 2.219521e+003
2.800674e+002, 2.216149e+003
2.805495e+002, 2.212773e+003
2.810316e+002, 2.209046e+003
2.815138e+002, 2.205083e+003
2.819959e+002, 2.201082e+003
2.824780e+002, 2.197141e+003
2.829601e+002, 2.193206e+003
2.834422e+002, 2.189261e+003
2.839243e+002, 2.185607e+003
2.844065e+002, 2.181414e+003
2.848886e+002, 2.175438e+003
2.853707e+002, 2.169104e+003
2.858528e+002, 2.165069e+003
2.863349e+002, 2.164461e+003
2.868170e+002, 2.164748e+003
2.872992e+002, 2.161151e+003
2.877813e+002, 2.152173e+003
2.882634e+002, 2.144818e+003
2.887455e+002, 2.141107e+003
2.892276e+002, 2.139242e+003
2.897097e+002, 2.137261e+003
2.901919e+002, 2.134731e+003
2.906740e+002, 2.131878e+003
2.911561e+002, 2.128853e+003
2.916382e+002, 2.125618e+003
2.921203e+002, 2.122602e+003
2.926024e+002, 2.119844e+003
2.930846e+002, 2.117321e+003
2.935667e+002, 2.115060e+003
2.940488e+002, 2.113049e+003
2.945309e+002, 2.111166e+003
2.950130e+002, 2.109332e+003
2.954951e+002, 2.107540e+003
2.959773e+002, 2.105683e+003
2.964594e+002, 2.104306e+003
2.969415e+002, 2.102450e+003
2.974236e+002, 2.098764e+003
2.979057e+002, 2.093433e+003
2.983878e+002, 2.088647e+003
2.988700e+002, 2.085982e+003
2.993521e+002, 2.085294e+003
2.998342e+002, 2.084698e+003
3.003163e+002, 2.085130e+003
3.007984e+002, 2.084808e+003
3.012805e+002, 2.081797e+003
3.017627e+002, 2.076772e+003
3.022448e+002, 2.072950e+003
3.027269e+002, 2.072424e+003
3.032090e+002, 2.073952e+003
3.036911e+002, 2.073716e+003
3.041732e+002, 2.071202e+003
3.046554e+002, 2.068036e+003
3.051375e+002, 2.064311e+003
3.056196e+002, 2.060452e+003
3.061017e+002, 2.057727e+003
3.065838e+002, 2.056885e+003
3.070659e+002, 2.056928e+003
3.075481e+002, 2.055745e+003
3.080302e+002, 2.052894e+003
3.085123e+002, 2.050781e+003
3.089944e+002, 2.051198e+003
3.094765e+002, 2.052655e+003
3.099586e+002, 2.052302e+003
3.104408e+002, 2.049166e+003
3.109229e+002, 2.045203e+003
3.114050e+002, 2.042941e+003
3.118871e+002, 2.042313e+003
3.123692e+002, 2.042379e+003
3.128513e+002, 2.043445e+003
3.133335e+002, 2.044877e+003
3.138156e+002, 2.045894e+003
3.142977e+002, 2.046365e+003
3.147798e+002, 2.046729e+003
3.152619e+002, 2.047474e+003
3.157440e+002, 2.048542e+003
3.162262e+002, 2.049168e+003
3.167083e+002, 2.048647e+003
3.171904e+002, 2.048112e+003
3.176725e+002, 2.048771e+003
3.181546e+002, 2.050556e+003
3.186367e+002, 2.052078e+003
3.191188e+002, 2.052275e+003
3.196010e+002, 2.051445e+003
3.200831e+002, 2.051205e+003
3.205652e+002, 2.051418e+003
3.210473e+002, 2.052326e+003
3.215294e+002, 2.054973e+003
3.220115e+002, 2.058662e+003
3.224937e+002, 2.060626e+003
3.229758e+002, 2.058943e+003
3.234579e+002, 2.055504e+003
3.239400e+002, 2.055245e+003
3.244221e+002, 2.059178e+003
3.249042e+002, 2.063404e+003
3.253864e+002, 2.067159e+003
3.258685e+002, 2.070205e+003
3.263506e+002, 2.071600e+003
3.268327e+002, 2.070644e+003
3.273148e+002, 2.069504e+003
3.277969e+002, 2.072396e+003
3.282791e+002, 2.080336e+003
3.287612e+002, 2.085765e+003
3.292433e+002, 2.084975e+003
3.297254e+002, 2.082017e+003
3.302075e+002, 2.081634e+003
3.306896e+002, 2.084642e+003
3.311718e+002, 2.088963e+003
3.316539e+002, 2.092699e+003
3.321360e+002, 2.095788e+003
3.326181e+002, 2.099050e+003
3.331002e+002, 2.103100e+003
3.335823e+002, 2.106861e+003
3.340645e+002, 2.109136e+003
3.345466e+002, 2.110112e+003
3.350287e+002, 2.111418e+003
3.355108e+002, 2.114174e+003
3.359929e+002, 2.118263e+003
3.364750e+002, 2.122427e+003
3.369572e+002, 2.127350e+003
3.374393e+002, 2.131662e+003
3.379214e+002, 2.134303e+003
3.384035e+002, 2.135878e+003
3.388856e+002, 2.137782e+003
3.393677e+002, 2.140661e+003
3.398499e+002, 2.144245e+003
3.403320e+002, 2.147896e+003
3.408141e+002, 2.152011e+003
3.412962e+002, 2.155472e+003
3.417783e+002, 2.157851e+003
3.422604e+002, 2.159539e+003
3.427426e+002, 2.160823e+003
3.432247e+002, 2.161776e+003
3.437068e+002, 2.162875e+003
3.441889e+002, 2.164819e+003
3.446710e+002, 2.167988e+003
3.451531e+002, 2.171031e+003
3.456353e+002, 2.174194e+003
3.461174e+002, 2.177047e+003
3.465995e+002, 2.179032e+003
3.470816e+002, 2.180221e+003
3.475637e+002, 2.181407e+003
3.480458e+002, 2.183286e+003
3.485280e+002, 2.185908e+003
3.490101e+002, 2.188487e+003
3.494922e+002, 2.192382e+003
3.499743e+002, 2.194921e+003
3.504564e+002, 2.193815e+003
3.509385e+002, 2.190407e+003
3.514207e+002, 2.187931e+003
3.519028e+002, 2.188395e+003
3.523849e+002, 2.190969e+003
3.528670e+002, 2.192071e+003
3.533491e+002, 2.190138e+003
3.538312e+002, 2.188691e+003
3.543134e+002, 2.188217e+003
3.547955e+002, 2.188426e+003
3.552776e+002, 2.189261e+003
3.557597e+002, 2.190657e+003
3.562418e+002, 2.191936e+003
3.567239e+002, 2.191917e+003
3.572061e+002, 2.189886e+003
3.576882e+002, 2.187893e+003
3.581703e+002, 2.185760e+003
3.586524e+002, 2.183774e+003
3.591345e+002, 2.182128e+003
3.596166e+002, 2.180828e+003
3.600987e+002, 2.179861e+003
3.605808e+002, 2.179349e+003
3.610630e+002, 2.179473e+003
3.615451e+002, 2.178181e+003
3.620272e+002, 2.174498e+003
3.625093e+002, 2.170514e+003
3.629914e+002, 2.166482e+003
3.634735e+002, 2.162683e+003
3.639557e+002, 2.159832e+003
3.644378e+002, 2.158513e+003
3.649199e+002, 2.157996e+003
3.654020e+002, 2.155051e+003
3.658841e+002, 2.147130e+003
3.663662e+002, 2.140211e+003
3.668484e+002, 2.134835e+003
3.673305e+002, 2.130834e+003
3.678126e+002, 2.128776e+003
3.682947e+002, 2.128636e+003
3.687768e+002, 2.128438e+003
3.692589e+002, 2.124654e+003
3.697411e+002, 2.115333e+003
3.702232e+002, 2.107751e+003
3.707053e+002, 2.103882e+003
3.711874e+002, 2.100223e+003
3.716695e+002, 2.094580e+003
3.721516e+002, 2.087200e+003
3.726338e+002, 2.079880e+003
3.731159e+002, 2.074413e+003
3.735980e+002, 2.070726e+003
3.740801e+002, 2.066070e+003
3.745622e+002, 2.058909e+003
3.750443e+002, 2.052680e+003
3.755265e+002, 2.049510e+003
3.760086e+002, 2.047723e+003
3.764907e+002, 2.044707e+003
3.769728e+002, 2.039042e+003
3.774549e+002, 2.031751e+003
3.779370e+002, 2.024770e+003
3.784192e+002, 2.017648e+003
3.789013e+002, 2.012179e+003
3.793834e+002, 2.011342e+003
3.798655e+002, 2.010830e+003
3.803476e+002, 2.006587e+003
3.808297e+002, 1.997870e+003
3.813119e+002, 1.988744e+003
3.817940e+002, 1.984066e+003
3.822761e+002, 1.983706e+003
3.827582e+002, 1.981279e+003
3.832403e+002, 1.974547e+003
3.837224e+002, 1.967220e+003
3.842046e+002, 1.962311e+003
3.846867e+002, 1.959123e+003
3.851688e+002, 1.954922e+003
3.856509e+002, 1.946771e+003
3.861330e+002, 1.936889e+003
3.866151e+002, 1.930638e+003
3.870973e+002, 1.928854e+003
3.875794e+002, 1.927755e+003
3.880615e+002, 1.925725e+003
3.885436e+002, 1.922863e+003
3.890257e+002, 1.919096e+003
3.895078e+002, 1.914021e+003
3.899900e+002, 1.908721e+003
3.904721e+002, 1.903923e+003
3.909542e+002, 1.899632e+003
3.914363e+002, 1.896267e+003
3.919184e+002, 1.894620e+003
3.924005e+002, 1.893126e+003
3.928827e+002, 1.889294e+003
3.933648e+002, 1.882940e+003
3.938469e+002, 1.877165e+003
3.943290e+002, 1.873521e+003
3.948111e+002, 1.871121e+003
3.952932e+002, 1.868959e+003
3.957754e+002, 1.866977e+003
3.962575e+002, 1.864168e+003
3.967396e+002, 1.859122e+003
3.972217e+002, 1.852106e+003
3.977038e+002, 1.846375e+003
3.981859e+002, 1.842435e+003
3.986681e+002, 1.839447e+003
3.991501e+002, 1.837657e+003
3.996323e+002, 1.836525e+003
4.001144e+002, 1.834025e+003
4.005965e+002, 1.828850e+003
4.010786e+002, 1.822123e+003
4.015607e+002, 1.817282e+003
4.020428e+002, 1.815720e+003
4.025250e+002, 1.813262e+003
4.030071e+002, 1.808457e+003
4.034892e+002, 1.802698e+003
4.039713e+002, 1.797604e+003
4.044534e+002, 1.793554e+003
4.049355e+002, 1.789852e+003
4.054177e+002, 1.785651e+003
4.058998e+002, 1.780772e+003
4.063819e+002, 1.776469e+003
4.068640e+002, 1.773880e+003
4.073461e+002, 1.770745e+003
4.078282e+002, 1.765073e+003
4.083104e+002, 1.757880e+003
4.087925e+002, 1.751885e+003
4.092746e+002, 1.748849e+003
4.097567e+002, 1.748041e+003
4.102388e+002, 1.745984e+003
4.107209e+002, 1.740707e+003
4.112031e+002, 1.736750e+003
4.116852e+002, 1.736432e+003
4.121673e+002, 1.736515e+003
4.126494e+002, 1.733590e+003
4.131315e+002, 1.726926e+003
4.136136e+002, 1.718725e+003
4.140958e+002, 1.712009e+003
4.145779e+002, 1.707351e+003
4.150600e+002, 1.701740e+003
4.155421e+002, 1.693480e+003
4.160242e+002, 1.685870e+003
4.165063e+002, 1.680835e+003
4.169885e+002, 1.677521e+003
4.174706e+002, 1.673746e+003
4.179527e+002, 1.667824e+003
4.184348e+002, 1.660656e+003
4.189169e+002, 1.655494e+003
4.193990e+002, 1.653558e+003
4.198812e+002, 1.650979e+003
4.203633e+002, 1.646057e+003
4.208454e+002, 1.640290e+003
4.213275e+002, 1.635042e+003
4.218096e+002, 1.630651e+003
4.222917e+002, 1.626488e+003
4.227739e+002, 1.621704e+003
4.232560e+002, 1.616368e+003
4.237381e+002, 1.611899e+003
4.242202e+002, 1.609048e+003
4.247023e+002, 1.606359e+003
4.251844e+002, 1.602762e+003
4.256666e+002, 1.598389e+003
4.261487e+002, 1.593668e+003
4.266308e+002, 1.588675e+003
4.271129e+002, 1.583472e+003
4.275950e+002, 1.578139e+003
4.280771e+002, 1.572636e+003
4.285593e+002, 1.567117e+003
4.290414e+002, 1.561306e+003
4.295235e+002, 1.555797e+003
4.300056e+002, 1.551854e+003
4.304877e+002, 1.550268e+003
4.309698e+002, 1.548470e+003
4.314520e+002, 1.545128e+003
4.319341e+002, 1.540712e+003
4.324162e+002, 1.536068e+003
4.328983e+002, 1.531413e+003
4.333804e+002, 1.526656e+003
4.338625e+002, 1.521567e+003
4.343447e+002, 1.516055e+003
4.348268e+002, 1.511202e+003
4.353089e+002, 1.507409e+003
4.357910e+002, 1.503961e+003
4.362731e+002, 1.500641e+003
4.367552e+002, 1.497308e+003
4.372374e+002, 1.493523e+003
4.377195e+002, 1.488922e+003
4.382016e+002, 1.483896e+003
4.386837e+002, 1.480029e+003
4.391658e+002, 1.479443e+003
4.396479e+002, 1.477278e+003
4.401301e+002, 1.471636e+003
4.406122e+002, 1.465184e+003
4.410943e+002, 1.460728e+003
4.415764e+002, 1.458694e+003
4.420585e+002, 1.457228e+003
4.425406e+002, 1.454305e+003
4.430227e+002, 1.449819e+003
4.435049e+002, 1.444636e+003
4.439870e+002, 1.436801e+003
4.444691e+002, 1.430333e+003
4.449512e+002, 1.427458e+003
4.454333e+002, 1.426645e+003
4.459154e+002, 1.425405e+003
4.463976e+002, 1.422521e+003
4.468797e+002, 1.418347e+003
4.473618e+002, 1.413382e+003
4.478439e+002, 1.407024e+003
4.483260e+002, 1.401674e+003
4.488081e+002, 1.399268e+003
4.492903e+002, 1.396877e+003
4.497724e+002, 1.392377e+003
4.502545e+002, 1.385795e+003
4.507366e+002, 1.378971e+003
4.512187e+002, 1.372997e+003
4.517008e+002, 1.367878e+003
4.521830e+002, 1.364003e+003
4.526651e+002, 1.361813e+003
4.531472e+002, 1.359809e+003
4.536293e+002, 1.357414e+003
4.541114e+002, 1.354564e+003
4.545935e+002, 1.350984e+003
4.550757e+002, 1.346294e+003
4.555578e+002, 1.341511e+003
4.560399e+002, 1.337535e+003
4.565220e+002, 1.334208e+003
4.570041e+002, 1.330832e+003
4.574862e+002, 1.327309e+003
4.579684e+002, 1.323451e+003
4.584505e+002, 1.318607e+003
4.589326e+002, 1.312754e+003
4.594147e+002, 1.307906e+003
4.598968e+002, 1.305117e+003
4.603789e+002, 1.303008e+003
4.608611e+002, 1.300494e+003
4.613432e+002, 1.297546e+003
4.618253e+002, 1.294473e+003
4.623074e+002, 1.291406e+003
4.627895e+002, 1.288401e+003
4.632716e+002, 1.285600e+003
4.637538e+002, 1.283603e+003
4.642359e+002, 1.281024e+003
4.647180e+002, 1.277461e+003
4.652001e+002, 1.273347e+003
4.656822e+002, 1.268658e+003
4.661643e+002, 1.263605e+003
4.666465e+002, 1.259351e+003
4.671286e+002, 1.257302e+003
4.676107e+002, 1.257704e+003
4.680928e+002, 1.257744e+003
4.685749e+002, 1.258046e+003
4.690570e+002, 1.257265e+003
4.695392e+002, 1.254343e+003
4.700213e+002, 1.250273e+003
4.705034e+002, 1.246353e+003
4.709855e+002, 1.243126e+003
4.714676e+002, 1.240662e+003
4.719497e+002, 1.239443e+003
4.724319e+002, 1.240002e+003
4.729140e+002, 1.239475e+003
4.733961e+002, 1.236891e+003
4.738782e+002, 1.233545e+003
4.743603e+002, 1.229507e+003
4.748424e+002, 1.225206e+003
4.753246e+002, 1.221954e+003
4.758067e+002, 1.221394e+003
4.762888e+002, 1.222134e+003
4.767709e+002, 1.220757e+003
4.772530e+002, 1.216854e+003
4.777351e+002, 1.213501e+003
4.782173e+002, 1.212522e+003
4.786994e+002, 1.212760e+003
4.791815e+002, 1.212442e+003
4.796636e+002, 1.211501e+003
4.801457e+002, 1.209993e+003
4.806278e+002, 1.207136e+003
4.811100e+002, 1.203929e+003
4.815920e+002, 1.202491e+003
4.820742e+002, 1.203257e+003
4.825563e+002, 1.204305e+003
4.830384e+002, 1.203876e+003
4.835205e+002, 1.201976e+003
4.840026e+002, 1.200554e+003
4.844847e+002, 1.200185e+003
4.849669e+002, 1.199637e+003
4.854490e+002, 1.197927e+003
4.859311e+002, 1.195788e+003
4.864132e+002, 1.194693e+003
4.868953e+002, 1.195172e+003
4.873774e+002, 1.196237e+003
4.878596e+002, 1.196250e+003
4.883417e+002, 1.194808e+003
4.888238e+002, 1.193375e+003
4.893059e+002, 1.191670e+003
4.897880e+002, 1.190245e+003
4.902701e+002, 1.189565e+003
4.907523e+002, 1.189386e+003
4.912344e+002, 1.189193e+003
4.917165e+002, 1.188708e+003
4.921986e+002, 1.187918e+003
4.926807e+002, 1.186586e+003
4.931628e+002, 1.184177e+003
4.936450e+002, 1.182725e+003
4.941271e+002, 1.183931e+003
4.946092e+002, 1.185328e+003
4.950913e+002, 1.185130e+003
4.955734e+002, 1.183332e+003
4.960555e+002, 1.181351e+003
4.965377e+002, 1.180073e+003
4.970198e+002, 1.179368e+003
4.975019e+002, 1.179022e+003
4.979840e+002, 1.179151e+003
4.984661e+002, 1.179012e+003
4.989482e+002, 1.177510e+003
4.994304e+002, 1.175768e+003
4.999125e+002, 1.176247e+003
5.003946e+002, 1.180510e+003
5.008767e+002, 1.183464e+003
5.013588e+002, 1.181443e+003
5.018409e+002, 1.176729e+003
5.023231e+002, 1.173338e+003
5.028052e+002, 1.172104e+003
5.032873e+002, 1.171652e+003
5.037694e+002, 1.170714e+003
5.042515e+002, 1.169262e+003
5.047336e+002, 1.168218e+003
5.052158e+002, 1.168059e+003
5.056979e+002, 1.167729e+003
5.061800e+002, 1.166455e+003
5.066621e+002, 1.164885e+003
5.071442e+002, 1.164117e+003
5.076263e+002, 1.164520e+003
5.081085e+002, 1.165411e+003
5.085906e+002, 1.165742e+003
5.090727e+002, 1.165347e+003
5.095548e+002, 1.164967e+003
5.100369e+002, 1.165084e+003
5.105190e+002, 1.164720e+003
5.110012e+002, 1.163170e+003
5.114833e+002, 1.160897e+003
5.119654e+002, 1.158791e+003
5.124475e+002, 1.157303e+003
5.129296e+002, 1.156151e+003
5.134117e+002, 1.154991e+003
5.138939e+002, 1.153904e+003
5.143760e+002, 1.152085e+003
5.148581e+002, 1.148682e+003
5.153402e+002, 1.145158e+003
5.158223e+002, 1.142782e+003
5.163044e+002, 1.141431e+003
5.167866e+002, 1.140203e+003
5.172687e+002, 1.138895e+003
5.177508e+002, 1.137400e+003
5.182329e+002, 1.135529e+003
5.187150e+002, 1.133301e+003
5.191971e+002, 1.130927e+003
5.196793e+002, 1.128453e+003
5.201614e+002, 1.125950e+003
5.206435e+002, 1.123520e+003
5.211256e+002, 1.120797e+003
5.216077e+002, 1.119078e+003
5.220898e+002, 1.119432e+003
5.225720e+002, 1.120286e+003
5.230541e+002, 1.120453e+003
5.235362e+002, 1.119785e+003
5.240183e+002, 1.118454e+003
5.245004e+002, 1.116537e+003
5.249825e+002, 1.114139e+003
5.254647e+002, 1.111723e+003
5.259468e+002, 1.108979e+003
5.264289e+002, 1.106727e+003
5.269110e+002, 1.105348e+003
5.273931e+002, 1.104238e+003
5.278752e+002, 1.102980e+003
5.283574e+002, 1.101492e+003
5.288395e+002, 1.099861e+003
5.293216e+002, 1.098177e+003
5.298037e+002, 1.096424e+003
5.302858e+002, 1.094466e+003
5.307679e+002, 1.092284e+003
5.312501e+002, 1.089951e+003
5.317322e+002, 1.087076e+003
5.322143e+002, 1.084274e+003
5.326964e+002, 1.082341e+003
5.331785e+002, 1.081534e+003
5.336606e+002, 1.080622e+003
5.341428e+002, 1.078664e+003
5.346249e+002, 1.076050e+003
5.351070e+002, 1.073647e+003
5.355891e+002, 1.071587e+003
5.360712e+002, 1.069365e+003
5.365533e+002, 1.066410e+003
5.370355e+002, 1.062961e+003
5.375176e+002, 1.060497e+003
5.379997e+002, 1.059904e+003
5.384818e+002, 1.059112e+003
5.389639e+002, 1.057537e+003
5.394460e+002, 1.055437e+003
5.399282e+002, 1.053038e+003
5.404103e+002, 1.050435e+003
5.408924e+002, 1.047715e+003
5.413745e+002, 1.044870e+003
5.418566e+002, 1.041867e+003
5.423387e+002, 1.039958e+003
5.428209e+002, 1.040772e+003
5.433029e+002, 1.040758e+003
5.437850e+002, 1.038631e+003
5.442672e+002, 1.035596e+003
5.447493e+002, 1.033015e+003
5.452314e+002, 1.031251e+003
5.457135e+002, 1.029761e+003
5.461956e+002, 1.028192e+003
5.466777e+002, 1.026491e+003
5.471599e+002, 1.024022e+003
5.476420e+002, 1.020528e+003
5.481241e+002, 1.016759e+003
5.486062e+002, 1.012334e+003
5.490883e+002, 1.008132e+003
5.495704e+002, 1.005825e+003
5.500526e+002, 1.006362e+003
5.505347e+002, 1.007413e+003
5.510168e+002, 1.008073e+003
5.514989e+002, 1.008096e+003
5.519810e+002, 1.006604e+003
5.524631e+002, 1.003375e+003
5.529453e+002, 1.000063e+003
5.534274e+002, 9.983211e+002
5.539095e+002, 9.981505e+002
5.543916e+002, 9.972034e+002
5.548737e+002, 9.948521e+002
5.553558e+002, 9.925938e+002
5.558380e+002, 9.909357e+002
5.563201e+002, 9.895391e+002
5.568022e+002, 9.880427e+002
5.572843e+002, 9.863244e+002
5.577664e+002, 9.844131e+002
5.582485e+002, 9.822333e+002
5.587307e+002, 9.797703e+002
5.592128e+002, 9.777582e+002
5.596949e+002, 9.761871e+002
5.601770e+002, 9.751569e+002
5.606591e+002, 9.748467e+002
5.611412e+002, 9.749534e+002
5.616234e+002, 9.754117e+002
5.621055e+002, 9.763132e+002
5.625876e+002, 9.763582e+002
5.630697e+002, 9.735858e+002
5.635518e+002, 9.689894e+002
5.640339e+002, 9.660997e+002
5.645161e+002, 9.655705e+002
5.649982e+002, 9.654295e+002
5.654803e+002, 9.643199e+002
5.659624e+002, 9.624280e+002
5.664445e+002, 9.607229e+002
5.669266e+002, 9.593243e+002
5.674088e+002, 9.579391e+002
5.678909e+002, 9.563772e+002
5.683730e+002, 9.548179e+002
5.688551e+002, 9.534407e+002
5.693372e+002, 9.522993e+002
5.698193e+002, 9.514537e+002
5.703015e+002, 9.510898e+002
5.707836e+002, 9.511322e+002
5.712657e+002, 9.501386e+002
5.717478e+002, 9.465676e+002
5.722299e+002, 9.440323e+002
5.727120e+002, 9.439612e+002
5.731942e+002, 9.445687e+002
5.736763e+002, 9.441344e+002
5.741584e+002, 9.424302e+002
5.746405e+002, 9.405143e+002
5.751226e+002, 9.393090e+002
5.756047e+002, 9.386545e+002
5.760869e+002, 9.379424e+002
5.765690e+002, 9.372097e+002
5.770511e+002, 9.362416e+002
5.775332e+002, 9.347482e+002
5.780153e+002, 9.330723e+002
5.784974e+002, 9.318531e+002
5.789796e+002, 9.312634e+002
5.794617e+002, 9.303962e+002
5.799438e+002, 9.284901e+002
5.804259e+002, 9.263816e+002
5.809080e+002, 9.250665e+002
5.813901e+002, 9.245557e+002
5.818723e+002, 9.243113e+002
5.823544e+002, 9.240636e+002
5.828365e+002, 9.237039e+002
5.833186e+002, 9.228267e+002
5.838007e+002, 9.205067e+002
5.842828e+002, 9.191119e+002
5.847650e+002, 9.198606e+002
5.852471e+002, 9.205033e+002
5.857292e+002, 9.195068e+002
5.862113e+002, 9.170422e+002
5.866934e+002, 9.139788e+002
5.871755e+002, 9.105757e+002
5.876577e+002, 9.074526e+002
5.881398e+002, 9.063307e+002
5.886219e+002, 9.075193e+002
5.891040e+002, 9.086417e+002
5.895861e+002, 9.095198e+002
5.900682e+002, 9.096840e+002
5.905504e+002, 9.083456e+002
5.910325e+002, 9.057773e+002
5.915146e+002, 9.037863e+002
5.919967e+002, 9.033694e+002
5.924788e+002, 9.033674e+002
5.929609e+002, 9.029561e+002
5.934431e+002, 9.021610e+002
5.939252e+002, 9.010363e+002
5.944073e+002, 8.995822e+002
5.948894e+002, 8.980086e+002
5.953715e+002, 8.965071e+002
5.958536e+002, 8.948599e+002
5.963358e+002, 8.943397e+002
5.968179e+002, 8.964939e+002
5.973000e+002, 8.978934e+002
5.977821e+002, 8.964791e+002
5.982642e+002, 8.938653e+002
5.987463e+002, 8.924836e+002
5.992285e+002, 8.931409e+002
5.997106e+002, 8.945436e+002
6.001927e+002, 8.952779e+002
6.006748e+002, 8.953523e+002
6.011569e+002, 8.949545e+002
6.016390e+002, 8.939746e+002
6.021212e+002, 8.927639e+002
6.026033e+002, 8.912839e+002
6.030854e+002, 8.897689e+002
6.035675e+002, 8.886067e+002
6.040496e+002, 8.878450e+002
6.045317e+002, 8.874102e+002
6.050139e+002, 8.873490e+002
6.054960e+002, 8.875517e+002
6.059781e+002, 8.881086e+002
6.064602e+002, 8.889249e+002
6.069423e+002, 8.892283e+002
6.074244e+002, 8.884415e+002
6.079066e+002, 8.867263e+002
6.083887e+002, 8.847516e+002
6.088708e+002, 8.814968e+002
6.093529e+002, 8.795232e+002
6.098350e+002, 8.796295e+002
6.103171e+002, 8.804338e+002
6.107993e+002, 8.812461e+002
6.112814e+002, 8.818793e+002
6.117635e+002, 8.822913e+002
6.122456e+002, 8.826027e+002
6.127277e+002, 8.824286e+002
6.132098e+002, 8.805667e+002
6.136920e+002, 8.767951e+002
6.141741e+002, 8.738499e+002
6.146562e+002, 8.726622e+002
6.151383e+002, 8.721463e+002
6.156204e+002, 8.712629e+002
6.161025e+002, 8.700750e+002
6.165847e+002, 8.689697e+002
6.170668e+002, 8.684789e+002
6.175489e+002, 8.676461e+002
6.180310e+002, 8.653026e+002
6.185131e+002, 8.622731e+002
6.189952e+002, 8.604831e+002
6.194774e+002, 8.604554e+002
6.199595e+002, 8.605985e+002
6.204416e+002, 8.588717e+002
6.209237e+002, 8.550565e+002
6.214058e+002, 8.526459e+002
6.218879e+002, 8.532639e+002
6.223701e+002, 8.533263e+002
6.228522e+002, 8.516270e+002
6.233343e+002, 8.492977e+002
6.238164e+002, 8.474739e+002
6.242985e+002, 8.463904e+002
6.247806e+002, 8.456125e+002
6.252628e+002, 8.449138e+002
6.257448e+002, 8.442418e+002
6.262269e+002, 8.434934e+002
6.267090e+002, 8.426752e+002
6.271912e+002, 8.416302e+002
6.276733e+002, 8.401891e+002
6.281554e+002, 8.385676e+002
6.286375e+002, 8.371554e+002
6.291196e+002, 8.359693e+002
6.296017e+002, 8.348557e+002
6.300839e+002, 8.336393e+002
6.305660e+002, 8.326151e+002
6.310481e+002, 8.322087e+002
6.315302e+002, 8.321383e+002
6.320123e+002, 8.316552e+002
6.324944e+002, 8.304164e+002
6.329766e+002, 8.289504e+002
6.334587e+002, 8.283299e+002
6.339408e+002, 8.288956e+002
6.344229e+002, 8.284916e+002
6.349050e+002, 8.263765e+002
6.353871e+002, 8.242086e+002
6.358693e+002, 8.222377e+002
6.363514e+002, 8.208358e+002
6.368335e+002, 8.209052e+002
6.373156e+002, 8.230800e+002
6.377977e+002, 8.248010e+002
6.382798e+002, 8.237346e+002
6.387620e+002, 8.211174e+002
6.392441e+002, 8.191459e+002
6.397262e+002, 8.180901e+002
6.402083e+002, 8.175849e+002
6.406904e+002, 8.175193e+002
6.411725e+002, 8.176870e+002
6.416547e+002, 8.173866e+002
6.421368e+002, 8.160266e+002
6.426189e+002, 8.150621e+002
6.431010e+002, 8.148489e+002
6.435831e+002, 8.147099e+002
6.440652e+002, 8.140463e+002
6.445474e+002, 8.130956e+002
6.450295e+002, 8.125800e+002
6.455116e+002, 8.129371e+002
6.459937e+002, 8.136245e+002
6.464758e+002, 8.137734e+002
6.469579e+002, 8.133880e+002
6.474401e+002, 8.128491e+002
6.479222e+002, 8.120215e+002
6.484043e+002, 8.114604e+002
6.488864e+002, 8.116228e+002
6.493685e+002, 8.124089e+002
6.498506e+002, 8.135081e+002
6.503328e+002, 8.149789e+002
6.508149e+002, 8.166454e+002
6.512970e+002, 8.185092e+002
6.517791e+002, 8.204957e+002
6.522612e+002, 8.223837e+002
6.527433e+002, 8.242339e+002
6.532255e+002, 8.265098e+002
6.537076e+002, 8.296193e+002
6.541897e+002, 8.332692e+002
6.546718e+002, 8.363156e+002
6.551539e+002, 8.382839e+002
6.556360e+002, 8.407704e+002
6.561182e+002, 8.445709e+002
6.566003e+002, 8.484453e+002
6.570824e+002, 8.514501e+002
6.575645e+002, 8.539396e+002
6.580466e+002, 8.570322e+002
6.585287e+002, 8.611937e+002
6.590109e+002, 8.660461e+002
6.594930e+002, 8.714424e+002
6.599751e+002, 8.772264e+002
6.604572e+002, 8.829028e+002
6.609393e+002, 8.883321e+002
6.614214e+002, 8.941836e+002
6.619036e+002, 9.009865e+002
6.623857e+002, 9.087728e+002
6.628678e+002, 9.176931e+002
6.633499e+002, 9.284626e+002
6.638320e+002, 9.394621e+002
6.643141e+002, 9.508069e+002
6.647963e+002, 9.622055e+002
6.652784e+002, 9.738765e+002
6.657605e+002, 9.854793e+002
6.662426e+002, 9.960408e+002
6.667247e+002, 1.005106e+003
6.672068e+002, 1.012663e+003
6.676890e+002, 1.019436e+003
6.681711e+002, 1.025342e+003
6.686532e+002, 1.027371e+003
6.691353e+002, 1.024838e+003
6.696174e+002, 1.018289e+003
6.700995e+002, 1.007687e+003
6.705817e+002, 9.930710e+002
6.710638e+002, 9.770446e+002
6.715459e+002, 9.585214e+002
6.720280e+002, 9.399822e+002
6.725101e+002, 9.215069e+002
6.729922e+002, 9.039980e+002
6.734744e+002, 8.883090e+002
6.739565e+002, 8.745710e+002
6.744386e+002, 8.624454e+002
6.749207e+002, 8.517115e+002
6.754028e+002, 8.422003e+002
6.758849e+002, 8.330487e+002
6.763671e+002, 8.238400e+002
6.768492e+002, 8.169873e+002
6.773313e+002, 8.144229e+002
6.778134e+002, 8.127040e+002
6.782955e+002, 8.084471e+002
6.787776e+002, 8.026164e+002
6.792598e+002, 7.987907e+002
6.797419e+002, 7.992386e+002
6.802240e+002, 8.000165e+002
6.807061e+002, 7.983365e+002
6.811882e+002, 7.956713e+002
6.816703e+002, 7.944072e+002
6.821525e+002, 7.948922e+002
6.826346e+002, 7.959579e+002
6.831167e+002, 7.967363e+002
6.835988e+002, 7.972006e+002
6.840809e+002, 7.971086e+002
6.845630e+002, 7.958207e+002
6.850452e+002, 7.953815e+002
6.855273e+002, 7.966314e+002
6.860094e+002, 7.983098e+002
6.864915e+002, 7.999890e+002
6.869736e+002, 8.015052e+002
6.874557e+002, 8.024916e+002
6.879379e+002, 8.024804e+002
6.884200e+002, 8.024647e+002
6.889021e+002, 8.037059e+002
6.893842e+002, 8.055490e+002
6.898663e+002, 8.060898e+002
6.903484e+002, 8.050372e+002
6.908306e+002, 8.045585e+002
6.913127e+002, 8.065952e+002
6.917948e+002, 8.104393e+002
6.922769e+002, 8.125461e+002
6.927590e+002, 8.121985e+002
6.932411e+002, 8.111796e+002
6.937233e+002, 8.093761e+002
6.942054e+002, 8.071854e+002
6.946875e+002, 8.045638e+002
6.951696e+002, 8.017689e+002
6.956517e+002, 7.994041e+002
6.961339e+002, 7.978527e+002
6.966160e+002, 7.964550e+002
6.970981e+002, 7.946356e+002
6.975802e+002, 7.923657e+002
6.980623e+002, 7.891248e+002
6.985444e+002, 7.847370e+002
6.990266e+002, 7.811570e+002
6.995087e+002, 7.800543e+002
6.999908e+002, 7.806319e+002
7.004729e+002, 7.798816e+002
7.009550e+002, 7.769271e+002
7.014371e+002, 7.739276e+002
7.019193e+002, 7.703655e+002
7.024014e+002, 7.672606e+002
7.028835e+002, 7.652278e+002
7.033656e+002, 7.641506e+002
7.038477e+002, 7.638654e+002
7.043298e+002, 7.644072e+002
7.048120e+002, 7.648130e+002
7.052941e+002, 7.636513e+002
7.057762e+002, 7.612659e+002
7.062583e+002, 7.592852e+002
7.067404e+002, 7.578799e+002
7.072225e+002, 7.568055e+002
7.077046e+002, 7.559922e+002
7.081867e+002, 7.553549e+002
7.086688e+002, 7.546152e+002
7.091509e+002, 7.534402e+002
7.096331e+002, 7.530023e+002
7.101152e+002, 7.545919e+002
7.105973e+002, 7.557451e+002
7.110794e+002, 7.543932e+002
7.115615e+002, 7.517208e+002
7.120436e+002, 7.500325e+002
7.125258e+002, 7.501410e+002
7.130079e+002, 7.507925e+002
7.134900e+002, 7.504899e+002
7.139721e+002, 7.494330e+002
7.144542e+002, 7.487363e+002
7.149363e+002, 7.484676e+002
7.154185e+002, 7.483743e+002
7.159006e+002, 7.484650e+002
7.163827e+002, 7.485536e+002
7.168648e+002, 7.483600e+002
7.173469e+002, 7.479234e+002
7.178290e+002, 7.470598e+002
7.183112e+002, 7.452488e+002
7.187933e+002, 7.435506e+002
7.192754e+002, 7.425034e+002
7.197575e+002, 7.418987e+002
7.202396e+002, 7.414167e+002
7.207217e+002, 7.409668e+002
7.212039e+002, 7.406360e+002
7.216860e+002, 7.406804e+002
7.221681e+002, 7.408746e+002
7.226502e+002, 7.402047e+002
7.231323e+002, 7.385491e+002
7.236144e+002, 7.369739e+002
7.240966e+002, 7.356897e+002
7.245787e+002, 7.348248e+002
7.250608e+002, 7.348175e+002
7.255429e+002, 7.356400e+002
7.260250e+002, 7.357130e+002
7.265071e+002, 7.339348e+002
7.269893e+002, 7.326254e+002
7.274714e+002, 7.332719e+002
7.279535e+002, 7.344465e+002
7.284356e+002, 7.343795e+002
7.289177e+002, 7.330104e+002
7.293998e+002, 7.315959e+002
7.298820e+002, 7.310255e+002
7.303641e+002, 7.310580e+002
7.308462e+002, 7.312936e+002
7.313283e+002, 7.317493e+002
7.318104e+002, 7.317303e+002
7.322925e+002, 7.309008e+002
7.327747e+002, 7.300157e+002
7.332568e+002, 7.295672e+002
7.337389e+002, 7.295824e+002
7.342210e+002, 7.301151e+002
7.347031e+002, 7.321498e+002
7.351852e+002, 7.331628e+002
7.356674e+002, 7.321321e+002
7.361495e+002, 7.302897e+002
7.366316e+002, 7.279269e+002
7.371137e+002, 7.256808e+002
7.375958e+002, 7.250816e+002
7.380779e+002, 7.270280e+002
7.385601e+002, 7.295106e+002
7.390422e+002, 7.291277e+002
7.395243e+002, 7.262684e+002
7.400064e+002, 7.248874e+002
7.404885e+002, 7.256458e+002
7.409706e+002, 7.262665e+002
7.414528e+002, 7.253292e+002
7.419349e+002, 7.235694e+002
7.424170e+002, 7.226412e+002
7.428991e+002, 7.227786e+002
7.433812e+002, 7.228593e+002
7.438633e+002, 7.220866e+002
7.443455e+002, 7.219797e+002
7.448276e+002, 7.247810e+002
7.453097e+002, 7.282288e+002
7.457918e+002, 7.283680e+002
7.462739e+002, 7.243359e+002
7.467560e+002, 7.196520e+002
7.472382e+002, 7.176334e+002
7.477203e+002, 7.176348e+002
7.482024e+002, 7.178146e+002
7.486845e+002, 7.181752e+002
7.491666e+002, 7.187952e+002
7.496487e+002, 7.198854e+002
7.501309e+002, 7.207974e+002
7.506130e+002, 7.207786e+002
7.510951e+002, 7.197859e+002
7.515772e+002, 7.183709e+002
7.520593e+002, 7.155497e+002
7.525414e+002, 7.136014e+002
7.530236e+002, 7.133157e+002
7.535057e+002, 7.138828e+002
7.539878e+002, 7.149893e+002
7.544699e+002, 7.162714e+002
7.549520e+002, 7.168378e+002
7.554341e+002, 7.158912e+002
7.559163e+002, 7.146044e+002
7.563984e+002, 7.150208e+002
7.568805e+002, 7.166078e+002
7.573626e+002, 7.169911e+002
7.578447e+002, 7.157592e+002
7.583268e+002, 7.136865e+002
7.588090e+002, 7.110010e+002
7.592911e+002, 7.082012e+002
7.597732e+002, 7.069795e+002
7.602553e+002, 7.085861e+002
7.607374e+002, 7.095378e+002
7.612195e+002, 7.093653e+002
7.617017e+002, 7.091049e+002
7.621838e+002, 7.095344e+002
7.626659e+002, 7.101097e+002
7.631480e+002, 7.097122e+002
7.636301e+002, 7.079876e+002
7.641122e+002, 7.065564e+002
7.645944e+002, 7.068552e+002
7.650765e+002, 7.080799e+002
7.655586e+002, 7.092809e+002
7.660407e+002, 7.102886e+002
7.665228e+002, 7.104405e+002
7.670049e+002, 7.094451e+002
7.674871e+002, 7.079015e+002
7.679692e+002, 7.064675e+002
7.684513e+002, 7.050897e+002
7.689334e+002, 7.048917e+002
7.694155e+002, 7.070963e+002
7.698976e+002, 7.084563e+002
7.703798e+002, 7.075350e+002
7.708619e+002, 7.061078e+002
7.713440e+002, 7.054661e+002
7.718261e+002, 7.055865e+002
7.723082e+002, 7.058762e+002
7.727903e+002, 7.061442e+002
7.732725e+002, 7.065026e+002
7.737546e+002, 7.072801e+002
7.742367e+002, 7.080912e+002
7.747188e+002, 7.082871e+002
7.752009e+002, 7.078369e+002
7.756830e+002, 7.070428e+002
7.761652e+002, 7.060195e+002
7.766473e+002, 7.051837e+002
7.771294e+002, 7.058329e+002
7.776115e+002, 7.083827e+002
7.780936e+002, 7.096110e+002
7.785757e+002, 7.088994e+002
7.790579e+002, 7.076037e+002
7.795400e+002, 7.058051e+002
7.800221e+002, 7.041625e+002
7.805042e+002, 7.040395e+002
7.809863e+002, 7.059285e+002
7.814684e+002, 7.070416e+002
7.819506e+002, 7.061497e+002
7.824327e+002, 7.048339e+002
7.829148e+002, 7.037923e+002
7.833969e+002, 7.031400e+002
7.838790e+002, 7.030648e+002
7.843611e+002, 7.035496e+002
7.848433e+002, 7.041590e+002
7.853254e+002, 7.045101e+002
7.858075e+002, 7.046679e+002
7.862896e+002, 7.048061e+002
7.867717e+002, 7.049231e+002
7.872538e+002, 7.050208e+002
7.877360e+002, 7.050490e+002
7.882181e+002, 7.052157e+002
7.887002e+002, 7.057518e+002
7.891823e+002, 7.066112e+002
7.896644e+002, 7.073809e+002
7.901465e+002, 7.084119e+002
7.906286e+002, 7.088609e+002
7.911107e+002, 7.080707e+002
7.915928e+002, 7.072332e+002
7.920750e+002, 7.071293e+002
7.925571e+002, 7.075829e+002
7.930392e+002, 7.081597e+002
7.935213e+002, 7.087385e+002
7.940034e+002, 7.091084e+002
7.944855e+002, 7.088360e+002
7.949677e+002, 7.083301e+002
7.954498e+002, 7.085861e+002
7.959319e+002, 7.094784e+002
7.964140e+002, 7.096731e+002
7.968961e+002, 7.085490e+002
7.973782e+002, 7.072509e+002
7.978604e+002, 7.074891e+002
7.983425e+002, 7.093649e+002
7.988246e+002, 7.101671e+002
7.993067e+002, 7.088938e+002
7.997888e+002, 7.083542e+002
8.002709e+002, 7.104730e+002
8.007531e+002, 7.125945e+002
8.012352e+002, 7.122743e+002
8.017173e+002, 7.100279e+002
8.021994e+002, 7.086485e+002
8.026815e+002, 7.094318e+002
8.031636e+002, 7.104009e+002
8.036458e+002, 7.104229e+002
8.041279e+002, 7.101450e+002
8.046100e+002, 7.103531e+002
8.050921e+002, 7.110267e+002
8.055742e+002, 7.116729e+002
8.060563e+002, 7.120096e+002
8.065385e+002, 7.124040e+002
8.070206e+002, 7.139063e+002
8.075027e+002, 7.163266e+002
8.079848e+002, 7.165114e+002
8.084669e+002, 7.138025e+002
8.089490e+002, 7.116622e+002
8.094312e+002, 7.118804e+002
8.099133e+002, 7.130940e+002
8.103954e+002, 7.131313e+002
8.108775e+002, 7.116369e+002
8.113596e+002, 7.113925e+002
8.118417e+002, 7.142798e+002
8.123239e+002, 7.160107e+002
8.128060e+002, 7.139952e+002
8.132881e+002, 7.113278e+002
8.137702e+002, 7.111105e+002
8.142523e+002, 7.131953e+002
8.147344e+002, 7.153777e+002
8.152166e+002, 7.166293e+002
8.156987e+002, 7.174101e+002
8.161808e+002, 7.181097e+002
8.166629e+002, 7.187034e+002
8.171450e+002, 7.190293e+002
8.176271e+002, 7.191215e+002
8.181093e+002, 7.195065e+002
8.185914e+002, 7.205502e+002
8.190735e+002, 7.216440e+002
8.195556e+002, 7.215356e+002
8.200377e+002, 7.200143e+002
8.205198e+002, 7.184219e+002
8.210020e+002, 7.159418e+002
8.214841e+002, 7.149313e+002
8.219662e+002, 7.176602e+002
8.224483e+002, 7.213231e+002
8.229304e+002, 7.227789e+002
8.234125e+002, 7.220613e+002
8.238947e+002, 7.211857e+002
8.243768e+002, 7.199926e+002
8.248589e+002, 7.193947e+002
8.253410e+002, 7.201378e+002
8.258231e+002, 7.214655e+002
8.263052e+002, 7.227908e+002
8.267874e+002, 7.238834e+002
8.272695e+002, 7.244015e+002
8.277516e+002, 7.240790e+002
8.282337e+002, 7.234787e+002
8.287158e+002, 7.234721e+002
8.291979e+002, 7.238837e+002
8.296801e+002, 7.239205e+002
8.301622e+002, 7.235099e+002
8.306443e+002, 7.232088e+002
8.311264e+002, 7.233892e+002
8.316085e+002, 7.234982e+002
8.320906e+002, 7.224426e+002
8.325728e+002, 7.198641e+002
8.330549e+002, 7.187422e+002
8.335370e+002, 7.200482e+002
8.340191e+002, 7.214359e+002
8.345012e+002, 7.227736e+002
8.349833e+002, 7.236642e+002
8.354655e+002, 7.233659e+002
8.359476e+002, 7.222166e+002
8.364297e+002, 7.218940e+002
8.369118e+002, 7.235711e+002
8.373939e+002, 7.251146e+002
8.378760e+002, 7.249799e+002
8.383582e+002, 7.243522e+002
8.388403e+002, 7.246633e+002
8.393224e+002, 7.258113e+002
8.398045e+002, 7.270113e+002
8.402866e+002, 7.278964e+002
8.407687e+002, 7.284187e+002
8.412509e+002, 7.281825e+002
8.417330e+002, 7.274393e+002
8.422151e+002, 7.278319e+002
8.426972e+002, 7.294609e+002
8.431793e+002, 7.309068e+002
8.436614e+002, 7.316157e+002
8.441436e+002, 7.320241e+002
8.446257e+002, 7.325225e+002
8.451078e+002, 7.331180e+002
8.455899e+002, 7.343229e+002
8.460720e+002, 7.367797e+002
8.465541e+002, 7.388821e+002
8.470363e+002, 7.402542e+002
8.475184e+002, 7.414604e+002
8.480005e+002, 7.431138e+002
8.484826e+002, 7.448338e+002
8.489647e+002, 7.457184e+002
8.494468e+002, 7.454402e+002
8.499290e+002, 7.447693e+002
8.504111e+002, 7.441942e+002
8.508932e+002, 7.433731e+002
8.513753e+002, 7.421633e+002
8.518574e+002, 7.403842e+002
8.523395e+002, 7.372517e+002
8.528217e+002, 7.327557e+002
8.533038e+002, 7.286805e+002
8.537859e+002, 7.270703e+002
8.542680e+002, 7.270352e+002
8.547501e+002, 7.256091e+002
8.552322e+002, 7.227937e+002
8.557144e+002, 7.209031e+002
8.561965e+002, 7.206769e+002
8.566786e+002, 7.201749e+002
8.571607e+002, 7.177362e+002
8.576428e+002, 7.140860e+002
8.581249e+002, 7.115323e+002
8.586071e+002, 7.103301e+002
8.590892e+002, 7.096974e+002
8.595713e+002, 7.102191e+002
8.600534e+002, 7.106018e+002
8.605355e+002, 7.105211e+002
8.610176e+002, 7.099736e+002
8.614998e+002, 7.086956e+002
8.619819e+002, 7.067431e+002
8.624640e+002, 7.053602e+002
8.629461e+002, 7.058495e+002
8.634282e+002, 7.061915e+002
8.639103e+002, 7.045322e+002
8.643925e+002, 7.021213e+002
8.648746e+002, 7.007592e+002
8.653567e+002, 7.005245e+002
8.658388e+002, 7.004505e+002
8.663209e+002, 6.999609e+002
8.668030e+002, 6.994645e+002
8.672852e+002, 6.999730e+002
8.677673e+002, 7.011202e+002
8.682494e+002, 7.006619e+002
8.687315e+002, 6.984178e+002
8.692136e+002, 6.964532e+002
8.696957e+002, 6.956996e+002
8.701779e+002, 6.952742e+002
8.706600e+002, 6.938807e+002
8.711421e+002, 6.914981e+002
8.716242e+002, 6.903824e+002
8.721063e+002, 6.917117e+002
8.725884e+002, 6.922299e+002
8.730705e+002, 6.905897e+002
8.735526e+002, 6.887430e+002
8.740347e+002, 6.877473e+002
8.745168e+002, 6.874579e+002
8.749990e+002, 6.875287e+002
8.754811e+002, 6.881659e+002
8.759632e+002, 6.883573e+002
8.764453e+002, 6.871731e+002
8.769274e+002, 6.859732e+002
8.774095e+002, 6.860695e+002
8.778917e+002, 6.867490e+002
8.783738e+002, 6.868411e+002
8.788559e+002, 6.860263e+002
8.793380e+002, 6.844432e+002
8.798201e+002, 6.816891e+002
8.803022e+002, 6.788326e+002
8.807844e+002, 6.777067e+002
8.812665e+002, 6.779958e+002
8.817486e+002, 6.788234e+002
8.822307e+002, 6.799792e+002
8.827128e+002, 6.806842e+002
8.831949e+002, 6.804587e+002
8.836771e+002, 6.794014e+002
8.841592e+002, 6.774843e+002
8.846413e+002, 6.744336e+002
8.851234e+002, 6.725533e+002
8.856055e+002, 6.720528e+002
8.860876e+002, 6.722668e+002
8.865698e+002, 6.736036e+002
8.870519e+002, 6.748877e+002
8.875340e+002, 6.745726e+002
8.880161e+002, 6.727805e+002
8.884982e+002, 6.714689e+002
8.889803e+002, 6.710218e+002
8.894625e+002, 6.705919e+002
8.899446e+002, 6.701531e+002
8.904267e+002, 6.695746e+002
8.909088e+002, 6.687567e+002
8.913909e+002, 6.677399e+002
8.918730e+002, 6.664352e+002
8.923552e+002, 6.647746e+002
8.928373e+002, 6.637505e+002
8.933194e+002, 6.650251e+002
8.938015e+002, 6.663930e+002
8.942836e+002, 6.649377e+002
8.947657e+002, 6.618989e+002
8.952479e+002, 6.598718e+002
8.957300e+002, 6.594258e+002
8.962121e+002, 6.599131e+002
8.966942e+002, 6.610215e+002
8.971763e+002, 6.621829e+002
8.976584e+002, 6.621305e+002
8.981406e+002, 6.609760e+002
8.986227e+002, 6.596955e+002
8.991048e+002, 6.583139e+002
8.995869e+002, 6.576853e+002
9.000690e+002, 6.584043e+002
9.005511e+002, 6.595340e+002
9.010333e+002, 6.597007e+002
9.015154e+002, 6.588710e+002
9.019975e+002, 6.577468e+002
9.024796e+002, 6.558552e+002
9.029617e+002, 6.545458e+002
9.034438e+002, 6.543375e+002
9.039260e+002, 6.545375e+002
9.044081e+002, 6.547137e+002
9.048902e+002, 6.549279e+002
9.053723e+002, 6.554172e+002
9.058544e+002, 6.564713e+002
9.063365e+002, 6.570428e+002
9.068187e+002, 6.566384e+002
9.073008e+002, 6.559307e+002
9.077829e+002, 6.550738e+002
9.082650e+002, 6.542908e+002
9.087471e+002, 6.540135e+002
9.092292e+002, 6.541771e+002
9.097114e+002, 6.539743e+002
9.101935e+002, 6.526806e+002
9.106756e+002, 6.512156e+002
9.111577e+002, 6.504989e+002
9.116398e+002, 6.502813e+002
9.121219e+002, 6.501397e+002
9.126041e+002, 6.500346e+002
9.130862e+002, 6.501873e+002
9.135683e+002, 6.507059e+002
9.140504e+002, 6.510410e+002
9.145325e+002, 6.501964e+002
9.150146e+002, 6.485020e+002
9.154968e+002, 6.481113e+002
9.159789e+002, 6.491007e+002
9.164610e+002, 6.490252e+002
9.169431e+002, 6.469683e+002
9.174252e+002, 6.452034e+002
9.179073e+002, 6.458431e+002
9.183895e+002, 6.480482e+002
9.188716e+002, 6.486156e+002
9.193537e+002, 6.463272e+002
9.198358e+002, 6.455632e+002
9.203179e+002, 6.475573e+002
9.208000e+002, 6.493039e+002
9.212822e+002, 6.493412e+002
9.217643e+002, 6.487090e+002
9.222464e+002, 6.484250e+002
9.227285e+002, 6.485018e+002
9.232106e+002, 6.487641e+002
9.236927e+002, 6.496139e+002
9.241749e+002, 6.500624e+002
9.246570e+002, 6.497245e+002
9.251391e+002, 6.489785e+002
9.256212e+002, 6.474279e+002
9.261033e+002, 6.458953e+002
9.265854e+002, 6.463791e+002
9.270676e+002, 6.495402e+002
9.275497e+002, 6.520052e+002
9.280318e+002, 6.508956e+002
9.285139e+002, 6.486091e+002
9.289960e+002, 6.469760e+002
9.294781e+002, 6.462090e+002
9.299603e+002, 6.470909e+002
9.304424e+002, 6.493132e+002
9.309245e+002, 6.507523e+002
9.314066e+002, 6.499326e+002
9.318887e+002, 6.483694e+002
9.323708e+002, 6.487637e+002
9.328530e+002, 6.504919e+002
9.333351e+002, 6.505642e+002
9.338172e+002, 6.489689e+002
9.342993e+002, 6.485029e+002
9.347814e+002, 6.502689e+002
9.352635e+002, 6.528099e+002
9.357457e+002, 6.546362e+002
9.362278e+002, 6.557828e+002
9.367099e+002, 6.563820e+002
9.371920e+002, 6.562608e+002
9.376741e+002, 6.563194e+002
9.381563e+002, 6.566326e+002
9.386384e+002, 6.572278e+002
9.391205e+002, 6.584207e+002
9.396026e+002, 6.596655e+002
9.400847e+002, 6.598705e+002
9.405668e+002, 6.587592e+002
9.410490e+002, 6.582515e+002
9.415311e+002, 6.587928e+002
9.420132e+002, 6.593103e+002
9.424953e+002, 6.597128e+002
9.429774e+002, 6.599343e+002
9.434595e+002, 6.595999e+002
9.439417e+002, 6.590936e+002
9.444238e+002, 6.594806e+002
9.449059e+002, 6.612776e+002
9.453880e+002, 6.627809e+002
9.458701e+002, 6.631578e+002
9.463522e+002, 6.632999e+002
9.468344e+002, 6.638401e+002
9.473165e+002, 6.644808e+002
9.477986e+002, 6.645569e+002
9.482807e+002, 6.641887e+002
9.487628e+002, 6.643966e+002
9.492449e+002, 6.658754e+002
9.497271e+002, 6.677292e+002
9.502092e+002, 6.695832e+002
9.506913e+002, 6.709886e+002
9.511734e+002, 6.707780e+002
9.516555e+002, 6.694759e+002
9.521376e+002, 6.689667e+002
9.526198e+002, 6.698493e+002
9.531019e+002, 6.711047e+002
9.535840e+002, 6.718448e+002
9.540661e+002, 6.721575e+002
9.545482e+002, 6.719357e+002
9.550303e+002, 6.713781e+002
9.555124e+002, 6.720798e+002
9.559945e+002, 6.742609e+002
9.564766e+002, 6.760023e+002
9.569587e+002, 6.761735e+002
9.574409e+002, 6.759482e+002
9.579230e+002, 6.773035e+002
9.584051e+002, 6.802097e+002
9.588872e+002, 6.825952e+002
9.593693e+002, 6.846168e+002
9.598514e+002, 6.852637e+002
9.603336e+002, 6.836113e+002
9.608157e+002, 6.822061e+002
9.612978e+002, 6.832831e+002
9.617799e+002, 6.858173e+002
9.622620e+002, 6.868301e+002
9.627441e+002, 6.855067e+002
9.632263e+002, 6.851923e+002
9.637084e+002, 6.867910e+002
9.641905e+002, 6.881821e+002
9.646726e+002, 6.884608e+002
9.651547e+002, 6.885888e+002
9.656368e+002, 6.894300e+002
9.661190e+002, 6.908649e+002
9.666011e+002, 6.922432e+002
9.670832e+002, 6.934490e+002
9.675653e+002, 6.946765e+002
9.680474e+002, 6.961902e+002
9.685295e+002, 6.974954e+002
9.690117e+002, 6.981852e+002
9.694938e+002, 6.985602e+002
9.699759e+002, 6.987830e+002
9.704580e+002, 6.990197e+002
9.709401e+002, 7.000220e+002
9.714222e+002, 7.028248e+002
9.719044e+002, 7.053270e+002
9.723865e+002, 7.057763e+002
9.728686e+002, 7.055934e+002
9.733507e+002, 7.061934e+002
9.738328e+002, 7.074636e+002
9.743149e+002, 7.089647e+002
9.747971e+002, 7.104957e+002
9.752792e+002, 7.116362e+002
9.757613e+002, 7.116709e+002
9.762434e+002, 7.115466e+002
9.767255e+002, 7.126415e+002
9.772076e+002, 7.145065e+002
9.776898e+002, 7.163658e+002
9.781719e+002, 7.180361e+002
9.786540e+002, 7.192654e+002
9.791361e+002, 7.199423e+002
9.796182e+002, 7.202977e+002
9.801003e+002, 7.203557e+002
9.805825e+002, 7.204188e+002
9.810646e+002, 7.217391e+002
9.815467e+002, 7.241381e+002
9.820288e+002, 7.262620e+002
9.825109e+002, 7.278357e+002
9.829930e+002, 7.288705e+002
9.834752e+002, 7.293160e+002
9.839573e+002, 7.294796e+002
9.844394e+002, 7.301475e+002
9.849215e+002, 7.313344e+002
9.854036e+002, 7.306321e+002
9.858857e+002, 7.274154e+002
9.863679e+002, 7.262897e+002
9.868500e+002, 7.290056e+002
9.873321e+002, 7.323239e+002
9.878142e+002, 7.335733e+002
9.882963e+002, 7.334524e+002
9.887784e+002, 7.342551e+002
9.892606e+002, 7.365341e+002
9.897427e+002, 7.377293e+002
9.902248e+002, 7.374793e+002
9.907069e+002, 7.367726e+002
9.911890e+002, 7.351934e+002
9.916711e+002, 7.340728e+002
9.921533e+002, 7.348881e+002
9.926354e+002, 7.373428e+002
9.931175e+002, 7.397253e+002
9.935996e+002, 7.430841e+002
9.940817e+002, 7.444818e+002
9.945638e+002, 7.420293e+002
9.950460e+002, 7.398322e+002
9.955281e+002, 7.394364e+002
9.960102e+002, 7.401061e+002
9.964923e+002, 7.414834e+002
9.969744e+002, 7.433115e+002
9.974565e+002, 7.442088e+002
9.979387e+002, 7.441523e+002
9.984208e+002, 7.427475e+002
9.989029e+002, 7.385272e+002
9.993850e+002, 7.343593e+002
9.998671e+002, 7.327650e+002
1.000349e+003, 7.320095e+002
1.000831e+003, 7.293026e+002
1.001313e+003, 7.244718e+002
1.001796e+003, 7.199315e+002
1.002278e+003, 7.166505e+002
1.002760e+003, 7.139447e+002
1.003242e+003, 7.121163e+002
1.003724e+003, 7.101186e+002
1.004206e+003, 7.068536e+002
1.004688e+003, 7.026647e+002
1.005170e+003, 6.981168e+002
1.005653e+003, 6.934518e+002
1.006135e+003, 6.892322e+002
1.006617e+003, 6.859369e+002
1.007099e+003, 6.830264e+002
1.007581e+003, 6.800533e+002
1.008063e+003, 6.771207e+002
1.008545e+003, 6.743916e+002
1.009027e+003, 6.718451e+002
1.009509e+003, 6.693122e+002
1.009992e+003, 6.667662e+002
1.010474e+003, 6.644944e+002
1.010956e+003, 6.628576e+002
1.011438e+003, 6.615472e+002
1.011920e+003, 6.602810e+002
1.012402e+003, 6.589286e+002
1.012884e+003, 6.569011e+002
1.013366e+003, 6.543951e+002
1.013849e+003, 6.527764e+002
1.014331e+003, 6.526014e+002
1.014813e+003, 6.522715e+002
1.015295e+003, 6.495364e+002
1.015777e+003, 6.456759e+002
1.016259e+003, 6.443223e+002
1.016741e+003, 6.448279e+002
1.017223e+003, 6.439164e+002
1.017705e+003, 6.412629e+002
1.018188e+003, 6.391313e+002
1.018670e+003, 6.387087e+002
1.019152e+003, 6.389351e+002
1.019634e+003, 6.384141e+002
1.020116e+003, 6.372626e+002
1.020598e+003, 6.359078e+002
1.021080e+003, 6.343746e+002
1.021562e+003, 6.331805e+002
1.022044e+003, 6.324078e+002
1.022527e+003, 6.322244e+002
1.023009e+003, 6.328331e+002
1.023491e+003, 6.335677e+002
1.023973e+003, 6.333580e+002
1.024455e+003, 6.322397e+002
1.024937e+003, 6.306691e+002
1.025419e+003, 6.285315e+002
1.025901e+003, 6.269578e+002
1.026384e+003, 6.261420e+002
1.026866e+003, 6.260656e+002
1.027348e+003, 6.269513e+002
1.027830e+003, 6.280505e+002
1.028312e+003, 6.278611e+002
1.028794e+003, 6.263024e+002
1.029276e+003, 6.255350e+002
1.029758e+003, 6.257961e+002
1.030240e+003, 6.260005e+002
1.030723e+003, 6.258758e+002
1.031205e+003, 6.258168e+002
1.031687e+003, 6.260441e+002
1.032169e+003, 6.265546e+002
1.032651e+003, 6.274270e+002
1.033133e+003, 6.287693e+002
1.033615e+003, 6.294796e+002
1.034097e+003, 6.290888e+002
1.034579e+003, 6.290968e+002
1.035062e+003, 6.300139e+002
1.035544e+003, 6.310305e+002
1.036026e+003, 6.315841e+002
1.036508e+003, 6.318739e+002
1.036990e+003, 6.322195e+002
1.037472e+003, 6.324714e+002
1.037954e+003, 6.336318e+002
1.038436e+003, 6.369009e+002
1.038919e+003, 6.391181e+002
1.039401e+003, 6.388748e+002
1.039883e+003, 6.383730e+002
1.040365e+003, 6.391530e+002
1.040847e+003, 6.406304e+002
1.041329e+003, 6.413835e+002
1.041811e+003, 6.410466e+002
1.042293e+003, 6.419668e+002
1.042776e+003, 6.459036e+002
1.043258e+003, 6.487067e+002
1.043740e+003, 6.484482e+002
1.044222e+003, 6.480023e+002
1.044704e+003, 6.491488e+002
1.045186e+003, 6.514448e+002
1.045668e+003, 6.538875e+002
1.046150e+003, 6.563048e+002
1.046632e+003, 6.596008e+002
1.047115e+003, 6.651609e+002
1.047597e+003, 6.698210e+002
1.048079e+003, 6.717415e+002
1.048561e+003, 6.735340e+002
1.049043e+003, 6.765848e+002
1.049525e+003, 6.809496e+002
1.050007e+003, 6.868322e+002
1.050489e+003, 6.943447e+002
1.050971e+003, 7.018881e+002
1.051454e+003, 7.085140e+002
1.051936e+003, 7.159521e+002
1.052418e+003, 7.249854e+002
1.052900e+003, 7.347557e+002
1.053382e+003, 7.443279e+002
1.053864e+003, 7.543143e+002
1.054346e+003, 7.656947e+002
1.054828e+003, 7.786414e+002
1.055311e+003, 7.934022e+002
1.055793e+003, 8.106869e+002
1.056275e+003, 8.289322e+002
1.056757e+003, 8.471544e+002
1.057239e+003, 8.665825e+002
1.057721e+003, 8.880615e+002
1.058203e+003, 9.113280e+002
1.058685e+003, 9.358402e+002
1.059167e+003, 9.615341e+002
1.059650e+003, 9.893273e+002
1.060132e+003, 1.020103e+003
1.060614e+003, 1.052267e+003
1.061096e+003, 1.085010e+003
1.061578e+003, 1.119268e+003
1.062060e+003, 1.155163e+003
1.062542e+003, 1.193582e+003
1.063024e+003, 1.235576e+003
1.063506e+003, 1.281320e+003
1.063989e+003, 1.330385e+003
1.064471e+003, 1.384417e+003
1.064953e+003, 1.439531e+003
1.065435e+003, 1.494172e+003
1.065917e+003, 1.549282e+003
1.066399e+003, 1.607748e+003
1.066881e+003, 1.666117e+003
1.067363e+003, 1.720178e+003
1.067846e+003, 1.768518e+003
1.068328e+003, 1.809188e+003
1.068810e+003, 1.844004e+003
1.069292e+003, 1.866522e+003
1.069774e+003, 1.877002e+003
1.070256e+003, 1.870932e+003
1.070738e+003, 1.844706e+003
1.071220e+003, 1.800066e+003
1.071703e+003, 1.736303e+003
1.072185e+003, 1.655697e+003
1.072667e+003, 1.567332e+003
1.073149e+003, 1.470945e+003
1.073631e+003, 1.375892e+003
1.074113e+003, 1.284080e+003
1.074595e+003, 1.197673e+003
1.075077e+003, 1.117066e+003
1.075559e+003, 1.043519e+003
1.076042e+003, 9.781119e+002
1.076524e+003, 9.209044e+002
1.077006e+003, 8.714250e+002
1.077488e+003, 8.297614e+002
1.077970e+003, 7.943793e+002
1.078452e+003, 7.656310e+002
1.078934e+003, 7.415188e+002
1.079416e+003, 7.215668e+002
1.079898e+003, 7.046517e+002
1.080380e+003, 6.896848e+002
1.080863e+003, 6.764779e+002
1.081345e+003, 6.651055e+002
1.081827e+003, 6.557266e+002
1.082309e+003, 6.476788e+002
1.082791e+003, 6.406436e+002
1.083273e+003, 6.348119e+002
1.083755e+003, 6.308409e+002
1.084237e+003, 6.277416e+002
1.084720e+003, 6.243703e+002
1.085202e+003, 6.209594e+002
1.085684e+003, 6.185421e+002
1.086166e+003, 6.175000e+002
1.086648e+003, 6.163499e+002
1.087130e+003, 6.141719e+002
1.087612e+003, 6.120907e+002
1.088094e+003, 6.111672e+002
1.088577e+003, 6.101712e+002
1.089059e+003, 6.076494e+002
1.089541e+003, 6.042280e+002
1.090023e+003, 6.011769e+002
1.090505e+003, 5.987383e+002
1.090987e+003, 5.975031e+002
1.091469e+003, 5.974174e+002
1.091951e+003, 5.989407e+002
1.092433e+003, 6.057161e+002
1.092916e+003, 6.108538e+002
1.093398e+003, 6.069592e+002
1.093880e+003, 5.984677e+002
1.094362e+003, 5.930328e+002
1.094844e+003, 5.916895e+002
1.095326e+003, 5.909462e+002
1.095808e+003, 5.899900e+002
1.096290e+003, 5.890777e+002
1.096772e+003, 5.880909e+002
1.097255e+003, 5.873920e+002
1.097737e+003, 5.874785e+002
1.098219e+003, 5.878177e+002
1.098701e+003, 5.876169e+002
1.099183e+003, 5.869068e+002
1.099665e+003, 5.864623e+002
1.100147e+003, 5.867099e+002
1.100629e+003, 5.866974e+002
1.101112e+003, 5.857278e+002
1.101594e+003, 5.849746e+002
1.102076e+003, 5.853733e+002
1.102558e+003, 5.860005e+002
1.103040e+003, 5.856925e+002
1.103522e+003, 5.847103e+002
1.104004e+003, 5.843315e+002
1.104486e+003, 5.850245e+002
1.104969e+003, 5.854023e+002
1.105451e+003, 5.847605e+002
1.105933e+003, 5.843655e+002
1.106415e+003, 5.849365e+002
1.106897e+003, 5.856699e+002
1.107379e+003, 5.861940e+002
1.107861e+003, 5.863069e+002
1.108343e+003, 5.854112e+002
1.108825e+003, 5.831533e+002
1.109307e+003, 5.816933e+002
1.109790e+003, 5.821042e+002
1.110272e+003, 5.820621e+002
1.110754e+003, 5.800262e+002
1.111236e+003, 5.785527e+002
1.111718e+003, 5.798624e+002
1.112200e+003, 5.823990e+002
1.112682e+003, 5.835563e+002
1.113164e+003, 5.832340e+002
1.113647e+003, 5.830752e+002
1.114129e+003, 5.834261e+002
1.114611e+003, 5.833624e+002
1.115093e+003, 5.823547e+002
1.115575e+003, 5.815842e+002
1.116057e+003, 5.819354e+002
1.116539e+003, 5.824042e+002
1.117021e+003, 5.815297e+002
1.117504e+003, 5.796300e+002
1.117986e+003, 5.791633e+002
1.118468e+003, 5.812928e+002
1.118950e+003, 5.819435e+002
1.119432e+003, 5.797111e+002
1.119914e+003, 5.788967e+002
1.120396e+003, 5.819274e+002
1.120878e+003, 5.850186e+002
1.121360e+003, 5.847389e+002
1.121843e+003, 5.821718e+002
1.122325e+003, 5.804550e+002
1.122807e+003, 5.796619e+002
1.123289e+003, 5.793829e+002
1.123771e+003, 5.798976e+002
1.124253e+003, 5.799247e+002
1.124735e+003, 5.790355e+002
1.125217e+003, 5.781035e+002
1.125699e+003, 5.777087e+002
1.126182e+003, 5.775294e+002
1.126664e+003, 5.769233e+002
1.127146e+003, 5.759576e+002
1.127628e+003, 5.760817e+002
1.128110e+003, 5.775121e+002
1.128592e+003, 5.779926e+002
1.129074e+003, 5.771406e+002
1.129556e+003, 5.758434e+002
1.130039e+003, 5.743624e+002
1.130521e+003, 5.735019e+002
1.131003e+003, 5.743976e+002
1.131485e+003, 5.763248e+002
1.131967e+003, 5.763987e+002
1.132449e+003, 5.747877e+002
1.132931e+003, 5.748259e+002
1.133413e+003, 5.766428e+002
1.133896e+003, 5.775617e+002
1.134378e+003, 5.767669e+002
1.134860e+003, 5.758007e+002
1.135342e+003, 5.759138e+002
1.135824e+003, 5.762834e+002
1.136306e+003, 5.750544e+002
1.136788e+003, 5.728466e+002
1.137270e+003, 5.722134e+002
1.137752e+003, 5.728826e+002
1.138234e+003, 5.734727e+002
1.138717e+003, 5.736931e+002
1.139199e+003, 5.736921e+002
1.139681e+003, 5.735476e+002
1.140163e+003, 5.729037e+002
1.140645e+003, 5.710717e+002
1.141127e+003, 5.687363e+002
1.141609e+003, 5.666973e+002
1.142091e+003, 5.653036e+002
1.142574e+003, 5.660628e+002
1.143056e+003, 5.682172e+002
1.143538e+003, 5.688571e+002
1.144020e+003, 5.671982e+002
1.144502e+003, 5.650151e+002
1.144984e+003, 5.631907e+002
1.145466e+003, 5.622418e+002
1.145948e+003, 5.634670e+002
1.146431e+003, 5.652601e+002
1.146913e+003, 5.656553e+002
1.147395e+003, 5.650305e+002
1.147877e+003, 5.642503e+002
1.148359e+003, 5.634552e+002
1.148841e+003, 5.622462e+002
1.149323e+003, 5.602659e+002
1.149805e+003, 5.590096e+002
1.150287e+003, 5.600983e+002
1.150770e+003, 5.614753e+002
1.151252e+003, 5.619290e+002
1.151734e+003, 5.616631e+002
1.152216e+003, 5.605602e+002
1.152698e+003, 5.590801e+002
1.153180e+003, 5.581271e+002
1.153662e+003, 5.578914e+002
1.154144e+003, 5.578415e+002
1.154626e+003, 5.577856e+002
1.155109e+003, 5.579116e+002
1.155591e+003, 5.589505e+002
1.156073e+003, 5.594603e+002
1.156555e+003, 5.581201e+002
1.157037e+003, 5.560004e+002
1.157519e+003, 5.542909e+002
1.158001e+003, 5.531084e+002
1.158483e+003, 5.525886e+002
1.158966e+003, 5.531926e+002
1.159448e+003, 5.534783e+002
1.159930e+003, 5.534764e+002
1.160412e+003, 5.529653e+002
1.160894e+003, 5.513553e+002
1.161376e+003, 5.498097e+002
1.161858e+003, 5.492108e+002
1.162340e+003, 5.492698e+002
1.162822e+003, 5.494060e+002
1.163305e+003, 5.496391e+002
1.163787e+003, 5.497100e+002
1.164269e+003, 5.494955e+002
1.164751e+003, 5.495626e+002
1.165233e+003, 5.502664e+002
1.165715e+003, 5.503001e+002
1.166197e+003, 5.486847e+002
1.166679e+003, 5.471308e+002
1.167161e+003, 5.478820e+002
1.167644e+003, 5.501548e+002
1.168126e+003, 5.505056e+002
1.168608e+003, 5.488414e+002
1.169090e+003, 5.482040e+002
1.169572e+003, 5.487512e+002
1.170054e+003, 5.492843e+002
1.170536e+003, 5.494834e+002
1.171018e+003, 5.493026e+002
1.171500e+003, 5.486845e+002
1.171983e+003, 5.478395e+002
1.172465e+003, 5.469055e+002
1.172947e+003, 5.460936e+002
1.173429e+003, 5.464623e+002
1.173911e+003, 5.475684e+002
1.174393e+003, 5.473823e+002
1.174875e+003, 5.460482e+002
1.175357e+003, 5.459416e+002
1.175840e+003, 5.478172e+002
1.176322e+003, 5.491921e+002
1.176804e+003, 5.476552e+002
1.177286e+003, 5.454467e+002
1.177768e+003, 5.455756e+002
1.178250e+003, 5.466422e+002
1.178732e+003, 5.466796e+002
1.179214e+003, 5.460042e+002
1.179697e+003, 5.454147e+002
1.180179e+003, 5.450734e+002
1.180661e+003, 5.449210e+002
1.181143e+003, 5.449648e+002
1.181625e+003, 5.449110e+002
1.182107e+003, 5.445457e+002
1.182589e+003, 5.440637e+002
1.183071e+003, 5.433155e+002
1.183553e+003, 5.427584e+002
1.184036e+003, 5.431031e+002
1.184518e+003, 5.438438e+002
1.185000e+003, 5.438514e+002
1.185482e+003, 5.430344e+002
1.185964e+003, 5.427781e+002
1.186446e+003, 5.440792e+002
1.186928e+003, 5.448601e+002
1.187410e+003, 5.445403e+002
1.187892e+003, 5.439364e+002
1.188375e+003, 5.431634e+002
1.188857e+003, 5.424633e+002
1.189339e+003, 5.420110e+002
1.189821e+003, 5.418127e+002
1.190303e+003, 5.419130e+002
1.190785e+003, 5.423597e+002
1.191267e+003, 5.428541e+002
1.191749e+003, 5.434982e+002
1.192232e+003, 5.438763e+002
1.192714e+003, 5.438494e+002
1.193196e+003, 5.437463e+002
1.193678e+003, 5.437117e+002
1.194160e+003, 5.437268e+002
1.194642e+003, 5.437778e+002
1.195124e+003, 5.438463e+002
1.195606e+003, 5.439610e+002
1.196089e+003, 5.440995e+002
1.196571e+003, 5.433993e+002
1.197053e+003, 5.419096e+002
1.197535e+003, 5.416674e+002
1.198017e+003, 5.430892e+002
1.198499e+003, 5.439586e+002
1.198981e+003, 5.428551e+002
1.199463e+003, 5.412144e+002
1.199945e+003, 5.409242e+002
1.200427e+003, 5.414542e+002
1.200910e+003, 5.420718e+002
1.201392e+003, 5.425355e+002
1.201874e+003, 5.420628e+002
1.202356e+003, 5.409644e+002
1.202838e+003, 5.403608e+002
1.203320e+003, 5.405010e+002
1.203802e+003, 5.406993e+002
1.204284e+003, 5.405525e+002
1.204767e+003, 5.403562e+002
1.205249e+003, 5.403133e+002
1.205731e+003, 5.403361e+002
1.206213e+003, 5.402244e+002
1.206695e+003, 5.402341e+002
1.207177e+003, 5.410919e+002
1.207659e+003, 5.422503e+002
1.208141e+003, 5.419744e+002
1.208624e+003, 5.397911e+002
1.209106e+003, 5.386388e+002
1.209588e+003, 5.401412e+002
1.210070e+003, 5.413617e+002
1.210552e+003, 5.412711e+002
1.211034e+003, 5.412643e+002
1.211516e+003, 5.425782e+002
1.211998e+003, 5.438345e+002
1.212480e+003, 5.435356e+002
1.212963e+003, 5.420363e+002
1.213445e+003, 5.406414e+002
1.213927e+003, 5.392634e+002
1.214409e+003, 5.383773e+002
1.214891e+003, 5.379417e+002
1.215373e+003, 5.382964e+002
1.215855e+003, 5.397401e+002
1.216337e+003, 5.408447e+002
1.216819e+003, 5.408480e+002
1.217302e+003, 5.401832e+002
1.217784e+003, 5.392857e+002
1.218266e+003, 5.382999e+002
1.218748e+003, 5.376129e+002
1.219230e+003, 5.372423e+002
1.219712e+003, 5.373793e+002
1.220194e+003, 5.379235e+002
1.220676e+003, 5.383976e+002
1.221159e+003, 5.386533e+002
1.221641e+003, 5.385990e+002
1.222123e+003, 5.381893e+002
1.222605e+003, 5.373398e+002
1.223087e+003, 5.352215e+002
1.223569e+003, 5.333610e+002
1.224051e+003, 5.335886e+002
1.224533e+003, 5.350681e+002
1.225016e+003, 5.374397e+002
1.225498e+003, 5.398489e+002
1.225980e+003, 5.407876e+002
1.226462e+003, 5.401940e+002
1.226944e+003, 5.394001e+002
1.227426e+003, 5.385809e+002
1.227908e+003, 5.384218e+002
1.228390e+003, 5.401158e+002
1.228872e+003, 5.412511e+002
1.229354e+003, 5.404518e+002
1.229837e+003, 5.390555e+002
1.230319e+003, 5.374777e+002
1.230801e+003, 5.363768e+002
1.231283e+003, 5.372659e+002
1.231765e+003, 5.400411e+002
1.232247e+003, 5.407877e+002
1.232729e+003, 5.386283e+002
1.233211e+003, 5.370729e+002
1.233694e+003, 5.361591e+002
1.234176e+003, 5.364918e+002
1.234658e+003, 5.386575e+002
1.235140e+003, 5.402278e+002
1.235622e+003, 5.393268e+002
1.236104e+003, 5.373022e+002
1.236586e+003, 5.363566e+002
1.237068e+003, 5.363188e+002
1.237551e+003, 5.366370e+002
1.238033e+003, 5.371959e+002
1.238515e+003, 5.375668e+002
1.238997e+003, 5.376681e+002
1.239479e+003, 5.373250e+002
1.239961e+003, 5.365466e+002
1.240443e+003, 5.356453e+002
1.240925e+003, 5.346990e+002
1.241407e+003, 5.343377e+002
1.241890e+003, 5.356494e+002
1.242372e+003, 5.373322e+002
1.242854e+003, 5.381409e+002
1.243336e+003, 5.385483e+002
1.243818e+003, 5.392616e+002
1.244300e+003, 5.400671e+002
1.244782e+003, 5.403675e+002
1.245264e+003, 5.400855e+002
1.245746e+003, 5.395910e+002
1.246229e+003, 5.385444e+002
1.246711e+003, 5.381015e+002
1.247193e+003, 5.389501e+002
1.247675e+003, 5.397640e+002
1.248157e+003, 5.402297e+002
1.248639e+003, 5.403297e+002
1.249121e+003, 5.398250e+002
1.249603e+003, 5.391572e+002
1.250085e+003, 5.391193e+002
1.250568e+003, 5.396887e+002
1.251050e+003, 5.405813e+002
1.251532e+003, 5.418607e+002
1.252014e+003, 5.428099e+002
1.252496e+003, 5.433872e+002
1.252978e+003, 5.430203e+002
1.253460e+003, 5.415458e+002
1.253942e+003, 5.406474e+002
1.254425e+003, 5.415295e+002
1.254907e+003, 5.430853e+002
1.255389e+003, 5.438803e+002
1.255871e+003, 5.442067e+002
1.256353e+003, 5.444042e+002
1.256835e+003, 5.446512e+002
1.257317e+003, 5.455691e+002
1.257799e+003, 5.467437e+002
1.258281e+003, 5.470080e+002
1.258764e+003, 5.462750e+002
1.259246e+003, 5.456198e+002
1.259728e+003, 5.455215e+002
1.260210e+003, 5.454720e+002
1.260692e+003, 5.453672e+002
1.261174e+003, 5.450851e+002
1.261656e+003, 5.439395e+002
1.262138e+003, 5.432311e+002
1.262620e+003, 5.444752e+002
1.263103e+003, 5.465067e+002
1.263585e+003, 5.473964e+002
1.264067e+003, 5.472734e+002
1.264549e+003, 5.472507e+002
1.265031e+003, 5.471949e+002
1.265513e+003, 5.477091e+002
1.265995e+003, 5.488915e+002
1.266477e+003, 5.502709e+002
1.266960e+003, 5.518232e+002
1.267442e+003, 5.530106e+002
1.267924e+003, 5.535452e+002
1.268406e+003, 5.534384e+002
1.268888e+003, 5.525041e+002
1.269370e+003, 5.513254e+002
1.269852e+003, 5.514769e+002
1.270334e+003, 5.523586e+002
1.270817e+003, 5.522174e+002
1.271299e+003, 5.515247e+002
1.271781e+003, 5.519822e+002
1.272263e+003, 5.535124e+002
1.272745e+003, 5.544323e+002
1.273227e+003, 5.540984e+002
1.273709e+003, 5.542978e+002
1.274191e+003, 5.572400e+002
1.274673e+003, 5.594014e+002
1.275156e+003, 5.582766e+002
1.275638e+003, 5.566365e+002
1.276120e+003, 5.560270e+002
1.276602e+003, 5.561388e+002
1.277084e+003, 5.565939e+002
1.277566e+003, 5.573703e+002
1.278048e+003, 5.584556e+002
1.278530e+003, 5.598716e+002
1.279012e+003, 5.615227e+002
1.279495e+003, 5.637686e+002
1.279977e+003, 5.646801e+002
1.280459e+003, 5.637975e+002
1.280941e+003, 5.629521e+002
1.281423e+003, 5.627198e+002
1.281905e+003, 5.636416e+002
1.282387e+003, 5.663715e+002
1.282869e+003, 5.692696e+002
1.283352e+003, 5.691961e+002
1.283834e+003, 5.673280e+002
1.284316e+003, 5.661389e+002
1.284798e+003, 5.656559e+002
##END=



