##NAMES=Bismuthinite
##RRUFFID=R070617
##IDEAL CHEMISTRY=Bi^3+^_2_S^2-^_3_
##LOCALITY=Hachita, Grants County, New Mexico, USA
##OWNER=RRUFF
##SOURCE=James Shigley
##DESCRIPTION=Steel-gray metallic massive lamellar, associated with quartz.
##STATUS=The identification of this mineral has been confirmed only by single crystal X-ray diffraction.
##URL=rruff.info/R070617
164.3333, 5234.001
164.8154, 5210.662
165.2975, 5230.717
165.7796, 5256.023
166.2617, 5245.443
166.7439, 5119.835
167.2260, 4998.270
167.7081, 4975.021
168.1902, 5058.741
168.6723, 5148.147
169.1544, 5184.575
169.6366, 5181.297
170.1187, 5161.483
170.6008, 5108.909
171.0829, 5057.715
171.5650, 5053.188
172.0471, 5114.964
172.5293, 5171.731
173.0114, 5149.307
173.4935, 5067.046
173.9756, 4988.458
174.4577, 4953.810
174.9398, 4944.949
175.4220, 4934.332
175.9041, 4911.939
176.3862, 4892.406
176.8683, 4900.705
177.3504, 4933.139
177.8326, 4959.012
178.3147, 4944.813
178.7968, 4905.825
179.2789, 4877.700
179.7610, 4882.222
180.2431, 4898.282
180.7253, 4884.896
181.2074, 4840.755
181.6895, 4795.147
182.1716, 4776.750
182.6537, 4781.973
183.1358, 4795.556
183.6180, 4818.863
184.1001, 4846.313
184.5822, 4861.796
185.0643, 4865.606
185.5464, 4857.428
186.0285, 4826.875
186.5107, 4776.982
186.9928, 4738.592
187.4749, 4735.205
187.9570, 4759.620
188.4391, 4778.709
188.9212, 4790.915
189.4034, 4793.412
189.8855, 4773.788
190.3676, 4731.182
190.8497, 4692.096
191.3318, 4674.964
191.8139, 4678.801
192.2961, 4694.086
192.7782, 4722.027
193.2603, 4758.604
193.7424, 4797.584
194.2245, 4842.279
194.7066, 4872.966
195.1888, 4865.005
195.6709, 4817.681
196.1530, 4771.150
196.6351, 4731.664
197.1172, 4700.679
197.5993, 4689.579
198.0815, 4701.176
198.5636, 4724.929
199.0457, 4752.291
199.5278, 4785.138
200.0099, 4809.600
200.4920, 4818.269
200.9742, 4810.804
201.4563, 4804.714
201.9384, 4797.046
202.4205, 4795.054
202.9026, 4816.716
203.3847, 4869.263
203.8668, 4914.578
204.3490, 4931.565
204.8311, 4915.143
205.3132, 4903.819
205.7953, 4895.184
206.2774, 4894.665
206.7595, 4917.194
207.2417, 4965.749
207.7238, 5028.756
208.2059, 5111.469
208.6880, 5230.847
209.1701, 5295.182
209.6522, 5280.825
210.1344, 5208.177
210.6165, 5165.728
211.0986, 5156.921
211.5807, 5171.668
212.0628, 5207.722
212.5449, 5275.280
213.0271, 5332.657
213.5092, 5374.334
213.9913, 5400.949
214.4734, 5416.641
214.9555, 5419.081
215.4376, 5414.694
215.9198, 5406.388
216.4019, 5386.016
216.8840, 5382.576
217.3661, 5404.300
217.8482, 5451.942
218.3303, 5509.085
218.8125, 5582.537
219.2946, 5657.573
219.7767, 5713.784
220.2588, 5743.655
220.7409, 5768.604
221.2230, 5793.349
221.7052, 5817.617
222.1873, 5844.976
222.6694, 5881.899
223.1515, 5917.518
223.6336, 5929.217
224.1157, 5903.551
224.5979, 5877.397
225.0800, 5863.451
225.5621, 5861.344
226.0442, 5874.079
226.5263, 5909.734
227.0084, 5957.828
227.4906, 5991.247
227.9727, 6003.381
228.4548, 6010.370
228.9369, 6017.300
229.4190, 6015.423
229.9011, 6035.782
230.3833, 6098.321
230.8654, 6184.753
231.3475, 6215.109
231.8296, 6150.972
232.3117, 6079.819
232.7938, 6054.771
233.2760, 6098.040
233.7581, 6143.893
234.2402, 6193.272
234.7223, 6243.678
235.2044, 6267.690
235.6865, 6259.592
236.1687, 6231.883
236.6508, 6189.510
237.1329, 6112.435
237.6150, 6059.909
238.0971, 6045.361
238.5792, 6068.217
239.0614, 6091.283
239.5435, 6117.758
240.0256, 6141.249
240.5077, 6157.349
240.9898, 6173.090
241.4719, 6168.076
241.9541, 6131.042
242.4362, 6057.953
242.9183, 6005.927
243.4004, 5992.355
243.8825, 5985.322
244.3646, 5943.181
244.8468, 5832.848
245.3289, 5744.736
245.8110, 5702.609
246.2931, 5712.948
246.7752, 5734.429
247.2573, 5778.758
247.7395, 5825.681
248.2216, 5845.046
248.7037, 5828.076
249.1858, 5798.280
249.6679, 5758.243
250.1500, 5700.994
250.6322, 5663.563
251.1143, 5662.165
251.5964, 5671.242
252.0785, 5640.914
252.5606, 5545.197
253.0427, 5454.029
253.5248, 5398.863
254.0070, 5402.311
254.4891, 5368.135
254.9712, 5284.867
255.4533, 5169.957
255.9354, 5055.384
256.4175, 4921.104
256.8997, 4821.784
257.3818, 4794.841
257.8639, 4888.321
258.3460, 4913.911
258.8281, 4842.051
259.3102, 4711.466
259.7924, 4629.083
260.2745, 4617.088
260.7566, 4612.595
261.2387, 4587.211
261.7208, 4544.489
262.2029, 4466.721
262.6851, 4334.252
263.1672, 4170.562
263.6493, 4062.750
264.1314, 4025.242
264.6135, 4012.726
265.0956, 3998.241
265.5778, 3978.104
266.0599, 3973.219
266.5420, 3997.712
267.0241, 4036.346
267.5062, 4025.378
267.9883, 3948.776
268.4705, 3858.323
268.9526, 3793.197
269.4347, 3763.490
269.9168, 3712.760
270.3989, 3621.398
270.8810, 3506.429
271.3632, 3447.328
271.8453, 3463.270
272.3274, 3487.565
272.8095, 3464.913
273.2916, 3384.500
273.7737, 3317.102
274.2559, 3273.053
274.7380, 3249.814
275.2201, 3240.736
275.7022, 3252.330
276.1843, 3258.707
276.6664, 3231.302
277.1486, 3165.147
277.6307, 3114.176
278.1128, 3094.966
278.5949, 3097.975
279.0770, 3075.575
279.5591, 3021.590
280.0413, 2966.143
280.5234, 2947.201
281.0055, 2967.432
281.4876, 2954.873
281.9697, 2878.844
282.4518, 2761.009
282.9340, 2691.103
283.4161, 2674.031
283.8982, 2679.255
284.3803, 2686.252
284.8624, 2694.545
285.3445, 2686.580
285.8267, 2648.327
286.3088, 2592.890
286.7909, 2570.390
287.2730, 2584.184
287.7551, 2606.218
288.2372, 2611.513
288.7194, 2600.896
289.2015, 2582.728
289.6836, 2560.896
290.1657, 2532.798
290.6478, 2482.438
291.1299, 2406.793
291.6121, 2340.662
292.0942, 2319.647
292.5763, 2338.083
293.0584, 2370.088
293.5405, 2425.336
294.0226, 2481.026
294.5048, 2478.951
294.9869, 2417.101
295.4690, 2341.052
295.9511, 2288.844
296.4332, 2256.174
296.9153, 2230.076
297.3975, 2213.179
297.8796, 2196.655
298.3617, 2158.680
298.8438, 2098.845
299.3259, 2045.368
299.8080, 2027.945
300.2902, 2035.581
300.7723, 2042.355
301.2544, 2036.129
301.7365, 2025.742
302.2186, 2027.695
302.7007, 2041.478
303.1829, 2045.911
303.6650, 2004.629
304.1471, 1943.469
304.6292, 1909.601
305.1113, 1949.698
305.5934, 2006.222
306.0756, 2020.170
306.5577, 1993.299
307.0398, 1957.885
307.5219, 1934.510
308.0040, 1917.271
308.4861, 1898.460
308.9683, 1871.304
309.4504, 1844.219
309.9325, 1817.652
310.4146, 1792.304
310.8967, 1783.723
311.3788, 1825.862
311.8610, 1881.349
312.3431, 1908.882
312.8252, 1866.573
313.3073, 1814.570
313.7894, 1784.730
314.2715, 1775.699
314.7537, 1773.300
315.2358, 1786.275
315.7179, 1796.123
316.2000, 1785.363
316.6821, 1719.991
317.1642, 1659.589
317.6464, 1634.402
318.1285, 1641.072
318.6106, 1641.715
319.0927, 1613.073
319.5748, 1578.837
320.0569, 1557.784
320.5391, 1561.915
321.0212, 1571.838
321.5033, 1590.761
321.9854, 1616.294
322.4675, 1624.056
322.9496, 1589.098
323.4318, 1546.769
323.9139, 1520.911
324.3960, 1529.540
324.8781, 1538.394
325.3602, 1542.492
325.8423, 1542.263
326.3245, 1543.389
326.8066, 1555.396
327.2887, 1562.607
327.7708, 1556.002
328.2529, 1520.977
328.7350, 1490.195
329.2171, 1464.547
329.6992, 1444.284
330.1814, 1429.878
330.6635, 1416.656
331.1456, 1413.701
331.6277, 1427.213
332.1098, 1467.787
332.5919, 1507.658
333.0741, 1558.378
333.5562, 1608.114
334.0383, 1603.717
334.5204, 1517.375
335.0025, 1421.702
335.4846, 1355.363
335.9668, 1321.172
336.4489, 1307.599
336.9310, 1321.061
337.4131, 1351.711
337.8952, 1370.993
338.3773, 1376.830
338.8595, 1377.469
339.3416, 1374.513
339.8237, 1366.455
340.3058, 1371.577
340.7879, 1399.754
341.2701, 1430.848
341.7522, 1413.891
342.2343, 1343.454
342.7164, 1277.254
343.1985, 1245.179
343.6806, 1245.569
344.1628, 1266.969
344.6449, 1317.087
345.1270, 1368.591
345.6091, 1368.056
346.0912, 1318.989
346.5733, 1280.553
347.0555, 1299.737
347.5376, 1354.579
348.0197, 1366.698
348.5018, 1325.975
348.9839, 1274.150
349.4660, 1267.256
349.9482, 1294.479
350.4303, 1314.050
350.9124, 1288.649
351.3945, 1248.784
351.8766, 1249.340
352.3587, 1295.853
352.8409, 1345.962
353.3230, 1357.645
353.8051, 1344.748
354.2872, 1333.996
354.7693, 1346.853
355.2514, 1360.961
355.7336, 1349.234
356.2157, 1311.099
356.6978, 1279.758
357.1799, 1294.730
357.6620, 1324.334
358.1441, 1327.464
358.6263, 1252.201
359.1084, 1177.280
359.5905, 1148.582
360.0726, 1164.137
360.5547, 1187.990
361.0368, 1216.596
361.5190, 1240.558
362.0011, 1252.087
362.4832, 1237.763
362.9653, 1222.188
363.4474, 1212.548
363.9295, 1208.081
364.4117, 1203.109
364.8938, 1184.161
365.3759, 1172.075
365.8580, 1179.556
366.3401, 1238.142
366.8222, 1281.296
367.3044, 1305.359
367.7865, 1310.245
368.2686, 1294.780
368.7507, 1237.022
369.2328, 1178.398
369.7149, 1136.221
370.1971, 1106.984
370.6792, 1100.629
371.1613, 1128.423
371.6434, 1176.560
372.1255, 1212.694
372.6076, 1239.455
373.0898, 1249.145
373.5719, 1232.160
374.0540, 1176.106
374.5361, 1146.972
375.0182, 1154.011
375.5003, 1178.344
375.9825, 1186.854
376.4646, 1174.242
376.9467, 1167.974
377.4288, 1190.597
377.9109, 1239.639
378.3930, 1230.874
378.8752, 1150.916
379.3573, 1053.408
379.8394, 1006.459
380.3215, 1008.308
380.8036, 1020.434
381.2857, 1034.906
381.7679, 1049.160
382.2500, 1052.943
382.7321, 1045.393
383.2142, 1040.215
383.6963, 1049.589
384.1784, 1071.843
384.6606, 1103.937
385.1427, 1157.833
385.6248, 1208.467
386.1069, 1213.534
386.5890, 1177.708
387.0711, 1136.035
387.5533, 1107.422
388.0354, 1090.315
388.5175, 1083.590
388.9996, 1091.983
389.4817, 1102.784
389.9638, 1111.882
390.4460, 1116.867
390.9281, 1109.759
391.4102, 1058.676
391.8923, 1011.401
392.3744, 1009.047
392.8565, 1080.889
393.3387, 1142.688
393.8208, 1160.342
394.3029, 1146.304
394.7850, 1123.353
395.2671, 1082.387
395.7492, 1046.691
396.2314, 1024.258
396.7135, 1014.654
397.1956, 1022.409
397.6777, 1076.093
398.1598, 1137.915
398.6419, 1161.438
399.1241, 1100.785
399.6062, 1052.080
400.0883, 1037.585
400.5704, 1060.236
401.0525, 1072.798
401.5346, 1069.360
402.0168, 1061.610
402.4989, 1059.802
402.9810, 1066.887
403.4631, 1073.043
403.9452, 1077.817
404.4273, 1080.602
404.9095, 1076.416
405.3916, 1062.830
405.8737, 1049.442
406.3558, 1041.156
406.8379, 1037.735
407.3200, 1044.846
407.8022, 1065.172
408.2843, 1093.396
408.7664, 1129.099
409.2485, 1172.051
409.7306, 1187.349
410.2127, 1129.635
410.6949, 1025.332
411.1770, 968.4767
411.6591, 969.4555
412.1412, 996.4160
412.6233, 1020.126
413.1054, 1040.146
413.5876, 1055.524
414.0697, 1071.791
414.5518, 1080.007
415.0339, 1059.833
415.5160, 1010.397
415.9981, 972.0203
416.4803, 979.4936
416.9624, 1014.245
417.4445, 1051.526
417.9266, 1104.959
418.4087, 1139.611
418.8908, 1122.039
419.3730, 1061.524
419.8551, 1018.888
420.3372, 1027.127
420.8193, 1056.167
421.3014, 1086.684
421.7835, 1138.271
422.2657, 1160.376
422.7478, 1116.451
423.2299, 1033.926
423.7120, 991.0883
424.1941, 1034.527
424.6762, 1082.607
425.1584, 1106.713
425.6404, 1098.036
426.1226, 1089.892
426.6047, 1082.433
427.0868, 1075.372
427.5689, 1069.391
428.0510, 1067.802
428.5331, 1058.823
429.0153, 1031.399
429.4974, 986.8659
429.9795, 980.7076
430.4616, 1024.030
430.9437, 1077.071
431.4258, 1102.538
431.9080, 1100.084
432.3901, 1077.485
432.8722, 1023.304
433.3543, 960.6341
433.8364, 958.2156
434.3185, 1014.520
434.8007, 1065.159
435.2828, 1048.454
435.7649, 990.5049
436.2470, 960.3072
436.7291, 973.5177
437.2112, 1000.404
437.6934, 1007.633
438.1755, 1001.807
438.6576, 1001.420
439.1397, 1028.550
439.6218, 1058.042
440.1039, 1068.492
440.5861, 1057.993
441.0682, 1030.668
441.5503, 967.4388
442.0324, 895.8140
442.5145, 847.6639
442.9966, 843.4280
443.4788, 854.1957
443.9609, 878.7162
444.4430, 914.9255
444.9251, 937.6572
445.4072, 927.3501
445.8893, 911.9359
446.3715, 907.8333
446.8536, 927.2620
447.3357, 944.0909
447.8178, 964.0539
448.2999, 980.9440
448.7820, 975.3895
449.2642, 932.3965
449.7463, 892.1638
450.2284, 875.7692
450.7105, 892.3831
451.1926, 873.6696
451.6747, 801.3339
452.1569, 722.6136
452.6390, 712.7187
453.1211, 779.5078
453.6032, 822.9037
454.0853, 795.6912
454.5674, 726.6537
455.0496, 733.2551
455.5317, 820.2309
456.0138, 901.1210
456.4959, 885.2836
456.9780, 805.0500
457.4601, 749.6802
457.9423, 742.4210
458.4244, 759.0751
458.9065, 781.7280
459.3886, 806.8419
459.8707, 822.9984
460.3528, 816.7474
460.8350, 802.4355
461.3171, 796.3810
461.7992, 804.2631
462.2813, 799.0596
462.7634, 738.3082
463.2455, 664.3909
463.7277, 633.0605
464.2098, 711.3551
464.6919, 785.3118
465.1740, 817.6653
465.6561, 807.4297
466.1382, 788.2099
466.6204, 747.3151
467.1025, 709.7109
467.5846, 692.2531
468.0667, 726.4130
468.5488, 727.1948
469.0309, 669.8331
469.5131, 582.6537
469.9952, 543.0358
470.4773, 565.3494
470.9594, 600.6273
471.4415, 631.0106
471.9236, 656.7134
472.4058, 679.2102
472.8879, 699.7426
473.3700, 713.0424
473.8521, 707.4844
474.3342, 684.9389
474.8163, 668.6104
475.2985, 670.5988
475.7806, 679.7133
476.2627, 668.0400
476.7448, 637.6423
477.2269, 612.9797
477.7090, 613.8574
478.1912, 631.3295
478.6733, 654.7460
479.1554, 686.9129
479.6375, 712.4277
480.1196, 721.8637
480.6017, 715.9446
481.0839, 696.5657
481.5660, 635.3775
482.0481, 584.6796
482.5302, 579.4774
483.0123, 628.3322
483.4944, 667.2132
483.9766, 679.0083
484.4587, 674.3979
484.9408, 662.7529
485.4229, 630.6061
485.9050, 608.2277
486.3871, 595.8332
486.8693, 594.5341
487.3514, 614.0702
487.8335, 676.0004
488.3156, 723.1135
488.7977, 719.7507
489.2798, 651.7028
489.7620, 612.4028
490.2441, 610.4623
490.7262, 622.9092
491.2083, 614.6599
491.6904, 585.9131
492.1725, 558.6074
492.6547, 543.4630
493.1368, 534.2307
493.6189, 504.2867
494.1010, 454.7372
494.5831, 426.4761
495.0652, 483.1347
495.5474, 578.0766
496.0295, 624.0712
496.5116, 586.5485
496.9937, 534.8340
497.4758, 520.1997
497.9579, 532.9410
498.4401, 550.0638
498.9222, 567.2272
499.4043, 581.5756
499.8864, 591.3699
500.3685, 595.9216
500.8506, 598.7010
501.3328, 598.3976
501.8149, 597.7269
502.2970, 599.2571
502.7791, 619.4052
503.2612, 620.5501
503.7433, 587.4704
504.2255, 531.6031
504.7076, 502.2043
505.1897, 509.9135
505.6718, 523.7949
506.1539, 527.2776
506.6360, 517.3061
507.1182, 521.9424
507.6003, 545.3698
508.0824, 573.8909
508.5645, 593.4181
509.0466, 603.5712
509.5287, 598.5574
510.0109, 567.0205
510.4930, 525.3869
510.9751, 508.7872
511.4572, 515.2352
511.9393, 523.1654
512.4214, 514.3821
512.9036, 499.2158
513.3857, 490.1248
513.8678, 489.0138
514.3499, 495.0515
514.8320, 512.7883
515.3141, 536.6522
515.7963, 556.9066
516.2784, 599.5848
516.7605, 610.9420
517.2426, 542.9836
517.7247, 389.6726
518.2068, 302.3051
518.6890, 352.8524
519.1711, 435.3913
519.6532, 487.3110
520.1353, 492.8718
520.6174, 499.4098
521.0995, 517.7108
521.5817, 533.0984
522.0638, 499.4366
522.5459, 396.9917
523.0280, 328.8661
523.5101, 357.9708
523.9922, 465.9294
524.4744, 510.6894
524.9565, 486.2169
525.4386, 446.4737
525.9207, 449.1265
526.4028, 479.3073
526.8849, 492.9840
527.3671, 473.7502
527.8492, 444.3367
528.3313, 428.0223
528.8134, 421.3708
529.2955, 413.6935
529.7776, 392.5560
530.2598, 373.4812
530.7419, 370.3845
531.2240, 386.6575
531.7061, 398.9558
532.1882, 395.6252
532.6703, 386.7096
533.1525, 381.4014
533.6346, 376.1651
534.1167, 381.0868
534.5988, 414.0895
535.0809, 458.8202
535.5630, 453.4568
536.0452, 368.3947
536.5273, 289.4399
537.0094, 260.9032
537.4915, 289.6580
537.9736, 272.1464
538.4557, 193.1016
538.9379, 111.9629
539.4200, 98.77698
539.9021, 147.3665
540.3842, 221.8478
540.8663, 334.8644
541.3484, 441.0493
541.8306, 448.7396
542.3127, 376.3409
542.7948, 309.5165
543.2769, 303.9732
543.7590, 326.1493
544.2411, 347.8011
544.7233, 367.0020
545.2054, 377.4799
545.6875, 368.2416
546.1696, 352.0161
546.6517, 342.6093
547.1339, 355.5416
547.6160, 361.9217
548.0981, 344.2578
548.5802, 312.5315
549.0623, 312.2396
549.5444, 376.5287
550.0266, 426.8766
550.5087, 424.5361
550.9908, 356.0348
551.4729, 317.1053
551.9550, 315.1115
552.4371, 325.9489
552.9193, 318.8895
553.4014, 295.1082
553.8835, 282.2268
554.3656, 287.1695
554.8477, 306.0001
555.3298, 340.9424
555.8120, 387.5666
556.2941, 420.7731
556.7762, 416.5757
557.2583, 395.2795
557.7404, 380.4300
558.2225, 375.3545
558.7047, 365.3595
559.1868, 330.2523
559.6689, 291.2127
560.1510, 269.9078
560.6331, 294.4489
561.1152, 312.1134
561.5974, 313.1004
562.0795, 298.8626
562.5616, 274.4742
563.0437, 216.1736
563.5258, 180.2222
564.0079, 197.2381
564.4901, 276.8665
564.9722, 309.7455
565.4543, 281.3998
565.9364, 239.2461
566.4185, 236.5847
566.9006, 271.0328
567.3828, 287.0766
567.8649, 270.3040
568.3470, 237.6897
568.8291, 210.4707
569.3112, 189.7498
569.7933, 181.3685
570.2755, 194.3069
570.7576, 217.3348
571.2397, 243.7689
571.7218, 272.8615
572.2039, 292.8850
572.6860, 299.0222
573.1682, 292.4220
573.6503, 273.3673
574.1323, 230.3263
574.6144, 191.0160
575.0966, 148.0764
575.5787, 113.1569
576.0608, 112.8262
576.5429, 175.0422
577.0250, 225.6766
577.5071, 241.3857
577.9893, 224.5502
578.4714, 212.0496
578.9535, 202.7883
579.4356, 201.9136
579.9177, 218.2914
580.3998, 248.9865
580.8820, 274.1184
581.3641, 293.1483
581.8462, 300.1996
582.3283, 275.9886
582.8104, 233.5492
583.2925, 205.1232
583.7747, 226.5803
584.2568, 249.5517
584.7389, 222.3712
585.2210, 157.4622
585.7031, 122.3725
586.1852, 179.6733
586.6674, 249.4023
587.1495, 286.2809
587.6316, 274.1230
588.1137, 258.2628
588.5958, 234.1167
589.0779, 211.8362
589.5601, 203.1484
590.0422, 212.6427
590.5243, 224.8790
591.0064, 242.6138
591.4885, 258.3069
591.9706, 241.4809
592.4528, 189.5215
592.9349, 146.9993
593.4170, 141.6127
593.8991, 163.3156
594.3812, 189.8703
594.8633, 221.1679
595.3455, 244.9722
595.8276, 242.5333
596.3097, 229.4036
596.7918, 227.9227
597.2739, 256.7881
597.7560, 275.1430
598.2382, 246.0991
598.7203, 195.3880
599.2024, 172.4730
599.6845, 222.0471
600.1666, 265.1083
600.6487, 282.2620
601.1309, 273.8492
601.6130, 249.6761
602.0951, 195.3743
602.5772, 150.1499
603.0593, 148.9501
603.5414, 197.5837
604.0236, 206.4716
604.5057, 160.2992
604.9878, 107.8536
605.4699, 128.3760
605.9520, 203.4779
606.4341, 255.5177
606.9163, 252.4175
607.3984, 223.0629
607.8805, 191.8614
608.3626, 161.0559
608.8447, 137.9935
609.3268, 136.6676
609.8090, 137.0327
610.2911, 118.9935
610.7732, 74.21022
611.2553, 60.45940
611.7374, 131.6679
612.2195, 210.7158
612.7017, 237.5323
613.1838, 179.3579
613.6659, 132.3654
614.1480, 99.68617
614.6301, 81.40805
615.1122, 84.10567
615.5944, 110.6075
616.0765, 128.7647
616.5586, 120.6165
617.0407, 98.56190
617.5228, 98.86969
618.0049, 120.0058
618.4871, 143.5101
618.9692, 160.8571
619.4513, 170.9805
619.9334, 171.5341
620.4155, 161.3487
620.8976, 147.0305
621.3798, 123.0486
621.8619, 100.8085
622.3440, 92.65817
622.8261, 117.0397
623.3082, 136.9573
623.7903, 150.8109
624.2725, 156.5149
624.7546, 145.6652
625.2367, 108.1045
625.7188, 76.53224
626.2009, 62.29441
626.6830, 64.25628
627.1652, 74.48997
627.6473, 94.25230
628.1294, 111.9112
628.6115, 120.1745
629.0936, 118.8608
629.5757, 102.9168
630.0579, 67.29028
630.5400, 38.25093
631.0221, 39.27146
631.5042, 62.07975
631.9863, 94.30179
632.4684, 159.5917
632.9506, 203.7899
633.4327, 202.0069
633.9148, 162.5021
634.3969, 115.9573
634.8790, 43.35680
635.3611, -9.863087
635.8433, -27.82055
636.3254, -8.932576
636.8075, 25.59819
637.2896, 86.77350
637.7717, 134.8435
638.2538, 123.9860
638.7360, 62.14515
639.2181, 26.55834
639.7002, 30.34463
640.1823, 44.86576
640.6644, 28.07433
641.1465, -3.333677
641.6287, -12.44951
642.1108, 40.33684
642.5929, 93.95484
643.0750, 101.1411
643.5571, 75.43518
644.0392, 63.10856
644.5214, 100.8371
645.0035, 134.4493
645.4856, 140.6916
645.9677, 117.5333
646.4498, 87.83127
646.9319, 40.57460
647.4141, 2.393322
647.8962, 0.7823914
648.3783, 40.30035
648.8604, 52.33528
649.3425, 25.08356
649.8246, -9.769168
650.3068, 0.7581121
650.7889, 42.33816
651.2710, 62.98796
651.7531, 33.58604
652.2352, -10.11273
652.7173, -46.50272
653.1995, -70.92001
653.6816, -69.20076
654.1637, 9.854541
654.6458, 76.76158
655.1279, 77.20285
655.6100, 0.2162555
656.0922, -50.84997
656.5743, -69.24026
657.0564, -63.79745
657.5385, -31.88253
658.0206, 39.47389
658.5027, 76.88016
658.9849, 73.62272
659.4670, 48.46978
659.9491, 16.60449
660.4312, -18.52633
660.9133, -34.66982
661.3954, -19.54263
661.8776, 6.626545
662.3597, 24.18588
662.8418, 33.39136
663.3239, 34.91319
663.8060, 16.56610
664.2881, 1.652727
664.7703, 11.49654
665.2524, 44.88097
665.7345, 54.96508
666.2166, 9.730588
666.6987, -39.14012
667.1808, -70.09667
667.6630, -80.76022
668.1451, -81.92767
668.6272, -72.02622
669.1093, -56.23195
669.5914, -37.96461
670.0735, -17.75182
670.5557, -1.694916
671.0378, 7.486754
671.5199, 15.89883
672.0020, 40.62482
672.4841, 70.87418
672.9662, 80.67867
673.4484, 26.51694
673.9305, -21.50489
674.4126, -9.602334
674.8947, 49.13335
675.3768, 83.05194
675.8589, 48.31276
676.3411, 13.22405
676.8232, 5.072041
677.3053, 27.88897
677.7874, 38.25784
678.2695, 33.49691
678.7516, 22.25133
679.2338, 10.51140
679.7159, -1.671699
680.1980, -18.26356
680.6801, -43.21704
681.1622, -56.87028
681.6443, -22.63102
682.1265, 37.73722
682.6086, 81.07008
683.0907, 85.68513
683.5728, 78.17066
684.0549, 70.86499
684.5370, 62.75613
685.0192, 51.29968
685.5013, 31.01688
685.9834, 12.52320
686.4655, -3.954046
686.9476, -17.34480
687.4297, -15.96141
687.9119, 6.565464
688.3940, 27.42272
688.8761, 35.84773
689.3582, 31.93239
689.8403, 11.78069
690.3224, -26.56034
690.8046, -58.68784
691.2867, -50.68316
691.7688, -24.79892
692.2509, -21.73597
692.7330, -61.35542
693.2151, -88.03918
693.6973, -46.75662
694.1794, 18.71064
694.6615, 49.80791
695.1436, -0.3703780
695.6257, -42.35036
696.1078, -66.36410
696.5900, -74.58067
697.0721, -68.42905
697.5542, -40.79677
698.0363, -25.10594
698.5184, -41.39692
699.0005, -76.22877
699.4827, -73.19122
699.9648, -34.96091
700.4469, -8.197834
700.9290, -44.81096
701.4111, -100.6609
701.8932, -119.2089
702.3754, -94.43328
702.8575, -62.42013
703.3396, -21.58514
703.8217, 7.582047
704.3038, 6.929184
704.7859, -60.37836
705.2681, -96.03742
705.7502, -84.29844
706.2323, -53.93812
706.7144, -40.25967
707.1965, -46.04677
707.6786, -49.60712
708.1608, -46.51052
708.6429, -40.38322
709.1250, -39.57649
709.6071, -42.07831
710.0892, -39.69318
710.5714, -12.04694
711.0535, 9.262500
711.5356, -21.59450
712.0177, -88.60059
712.4998, -122.8872
712.9819, -57.91692
713.4641, 9.153066
713.9462, 31.29558
714.4283, 5.592408
714.9104, -18.06099
715.3925, -35.59933
715.8746, -57.84201
716.3568, -99.18275
716.8389, -159.0126
717.3210, -193.1537
717.8031, -198.1310
718.2852, -184.8675
718.7673, -158.0519
719.2495, -122.2490
719.7316, -84.78337
720.2137, -41.61379
720.6958, -10.09052
721.1779, -5.624828
721.6600, -18.20798
722.1422, -33.62572
722.6243, -65.58759
723.1064, -79.03441
723.5885, -62.16080
724.0706, -25.49667
724.5527, 5.039185
725.0349, 32.63454
725.5170, 39.52860
725.9991, 9.528343
726.4812, -41.48190
726.9633, -64.48029
727.4454, -61.71409
727.9276, -53.00368
728.4097, -49.18337
728.8918, -47.16965
729.3739, -40.59839
729.8560, -29.15753
730.3381, -28.67244
730.8203, -59.90996
731.3024, -93.30038
731.7845, -109.1744
732.2666, -103.0018
732.7487, -90.79596
733.2308, -65.43225
733.7130, -45.12778
734.1951, -52.38245
734.6772, -86.50721
735.1593, -119.2942
735.6414, -151.3713
736.1235, -165.9979
736.6057, -119.8691
737.0878, -42.87368
737.5699, 2.927670
738.0520, -21.76546
738.5341, -60.07822
739.0162, -100.5816
739.4984, -132.4489
739.9805, -130.3381
740.4626, -40.00008
740.9447, 23.40794
741.4268, 35.17440
741.9089, 3.236724
742.3911, -46.62659
742.8732, -119.8851
743.3553, -177.4175
743.8374, -199.3815
744.3195, -190.9832
744.8016, -155.0455
745.2838, -95.08598
745.7659, -48.34843
746.2480, -55.49770
746.7301, -76.91142
747.2122, -79.05430
747.6943, -56.04641
748.1765, -31.97701
748.6586, 4.163955
749.1407, 26.35431
749.6228, 15.40064
750.1049, -44.04491
750.5870, -90.08533
751.0692, -123.3094
751.5513, -142.6791
752.0334, -139.2151
752.5155, -118.3009
752.9976, -108.6725
753.4797, -118.2221
753.9619, -131.3734
754.4440, -135.1862
754.9261, -131.6595
755.4082, -123.9835
755.8903, -106.3786
756.3724, -92.73686
756.8546, -95.12551
757.3367, -103.0519
757.8188, -91.90878
758.3009, -50.81488
758.7830, -13.30316
759.2651, 15.87173
759.7473, 34.41026
760.2294, 30.50834
760.7115, 5.516708
761.1936, -20.55842
761.6757, -40.29396
762.1578, -52.99606
762.6400, -54.27416
763.1221, -46.02337
763.6042, -40.54655
764.0863, -41.68401
764.5684, -48.74612
765.0505, -64.92973
765.5327, -92.38828
766.0148, -107.7457
766.4969, -107.2035
766.9790, -100.7006
767.4611, -92.24299
767.9432, -81.86959
768.4254, -77.26907
768.9075, -78.80608
769.3896, -83.83223
769.8717, -90.88997
770.3538, -99.49995
770.8359, -110.0572
771.3180, -124.2821
771.8001, -133.3818
772.2822, -131.2743
772.7643, -122.6706
773.2465, -112.2231
773.7286, -100.6840
774.2107, -85.57807
774.6928, -59.00268
775.1749, -37.17173
775.6570, -51.56171
776.1392, -102.5577
776.6213, -124.5952
777.1034, -93.43125
777.5855, -51.41421
778.0676, -73.71033
778.5497, -130.4388
779.0319, -154.0225
779.5140, -65.04961
779.9961, 10.26537
780.4782, -0.1452348
780.9603, -68.53358
781.4424, -111.9965
781.9246, -114.8647
782.4067, -109.6923
782.8888, -102.5151
783.3709, -93.05092
783.8530, -77.91759
784.3351, -56.77933
784.8173, -39.81462
785.2994, -31.42171
785.7815, -30.57785
786.2636, -36.45224
786.7457, -48.64321
787.2278, -65.27928
787.7100, -93.17049
788.1921, -118.4203
788.6742, -133.5594
789.1563, -137.7607
789.6384, -132.1690
790.1205, -101.5912
790.6027, -85.93519
791.0848, -120.0779
791.5669, -202.4977
792.0490, -222.2285
792.5311, -175.8252
793.0132, -118.5130
793.4954, -93.41815
793.9775, -88.57909
794.4596, -85.82834
794.9417, -82.34723
795.4238, -88.62163
795.9059, -125.9361
796.3881, -164.6480
796.8702, -178.8800
797.3523, -154.8051
797.8344, -138.8628
798.3165, -135.0346
798.7986, -133.0647
799.2808, -115.2564
799.7629, -84.39966
800.2450, -85.91188
800.7271, -131.7902
801.2092, -180.5260
801.6913, -193.0528
802.1735, -177.9447
802.6556, -145.5460
803.1377, -83.72887
803.6198, -32.85577
804.1019, -0.9626997
804.5840, 9.914146
805.0662, -4.484464
805.5483, -63.66554
806.0304, -96.72472
806.5125, -87.52243
806.9946, -60.70060
807.4767, -64.14490
807.9589, -91.47798
808.4410, -101.6496
808.9231, -66.51151
809.4052, -34.82349
809.8873, -72.08168
810.3694, -144.9315
810.8516, -188.3724
811.3337, -152.9423
811.8158, -118.1691
812.2979, -103.2702
812.7800, -102.5004
813.2621, -101.9111
813.7443, -100.1755
814.2264, -105.5113
814.7085, -126.4058
815.1906, -149.8790
815.6727, -136.7351
816.1548, -96.05518
816.6370, -70.84429
817.1191, -107.2340
817.6012, -144.4449
818.0833, -130.6611
818.5654, -78.14082
819.0475, -45.38792
819.5297, -58.64801
820.0118, -76.66287
820.4939, -89.64397
820.9760, -98.70066
821.4581, -112.5507
821.9402, -132.3135
822.4224, -142.4075
822.9045, -120.9450
823.3866, -89.76003
823.8687, -93.61219
824.3508, -127.2656
824.8329, -159.2603
825.3151, -176.2251
825.7972, -183.4422
826.2793, -178.5846
826.7614, -161.3074
827.2435, -158.9068
827.7256, -183.7016
828.2078, -201.4352
828.6899, -198.6334
829.1720, -175.4959
829.6541, -114.3752
830.1362, -16.79181
830.6183, 45.71145
831.1005, -12.46079
831.5826, -113.9268
832.0647, -180.9221
832.5468, -207.7411
833.0289, -204.5927
833.5110, -129.0541
833.9932, -66.32906
834.4753, -67.75836
834.9574, -143.3163
835.4395, -177.2373
835.9216, -160.1634
836.4037, -136.0201
836.8859, -144.1911
837.3680, -170.0123
837.8501, -167.2722
838.3322, -133.9271
838.8143, -95.04455
839.2964, -56.08509
839.7786, -26.86005
840.2607, -17.16829
840.7428, -32.18727
841.2249, -48.02865
841.7070, -57.44802
842.1891, -74.34721
842.6713, -115.2240
843.1534, -181.7063
843.6355, -215.6775
844.1176, -214.9512
844.5997, -200.6381
845.0818, -184.2910
845.5640, -169.0495
846.0461, -161.6213
846.5282, -164.3287
847.0103, -161.3380
847.4924, -136.0249
847.9745, -110.5325
848.4567, -101.3917
848.9388, -113.9063
849.4209, -121.6091
849.9030, -123.1956
850.3851, -123.6108
850.8672, -128.4432
851.3494, -135.7923
851.8315, -140.7976
852.3136, -143.3373
852.7957, -138.3941
853.2778, -110.0544
853.7599, -79.99419
854.2421, -69.75658
854.7242, -91.85038
855.2063, -105.3122
855.6884, -100.4811
856.1705, -95.54590
856.6526, -108.1259
857.1348, -138.8301
857.6169, -154.2701
858.0990, -152.0686
858.5811, -141.4743
859.0632, -126.2728
859.5453, -110.2892
860.0275, -99.20070
860.5096, -94.73429
860.9917, -90.96315
861.4738, -84.49461
861.9559, -78.93974
862.4380, -77.79158
862.9202, -83.88799
863.4023, -81.95766
863.8844, -69.36396
864.3665, -57.46459
864.8486, -58.63213
865.3307, -68.64275
865.8129, -75.36193
866.2950, -77.15376
866.7771, -80.28970
867.2592, -92.36471
867.7413, -105.3831
868.2234, -111.9113
868.7056, -107.3211
869.1877, -107.8347
869.6698, -116.8001
870.1519, -125.5042
870.6340, -124.4999
871.1161, -115.2956
871.5983, -118.8583
872.0804, -137.4999
872.5625, -148.0271
873.0446, -114.2668
873.5267, -71.08542
874.0089, -57.60476
874.4910, -84.92168
874.9731, -110.6227
875.4552, -128.5856
875.9373, -138.5003
876.4194, -138.7090
876.9016, -128.1740
877.3837, -117.0706
877.8658, -105.3514
878.3479, -93.37804
878.8300, -79.26127
879.3121, -65.93670
879.7943, -59.33712
880.2764, -60.12068
880.7585, -61.22335
881.2406, -63.98539
881.7227, -61.97787
882.2048, -46.69928
882.6870, -14.36501
883.1691, -4.893501
883.6512, -24.09804
884.1333, -48.39421
884.6154, -63.08630
885.0975, -69.94760
885.5797, -69.22167
886.0618, -62.13653
886.5439, -68.12602
887.0260, -121.9120
887.5081, -175.8423
887.9902, -193.4665
888.4724, -168.1660
888.9545, -150.9429
889.4366, -145.5160
889.9187, -144.1167
890.4008, -146.0252
890.8829, -149.2834
891.3651, -136.4393
891.8472, -108.8162
892.3293, -89.37566
892.8114, -101.6306
893.2935, -122.3347
893.7756, -134.2234
894.2578, -136.2865
894.7399, -129.6417
895.2220, -104.5102
895.7041, -82.18578
896.1862, -65.26960
896.6683, -56.59391
897.1505, -86.49277
897.6326, -154.8073
898.1147, -196.0278
898.5968, -147.4787
899.0789, -69.40033
899.5610, -32.65944
900.0432, -30.60384
900.5253, -38.05868
901.0074, -55.64339
901.4895, -70.44746
901.9716, -76.67052
902.4537, -77.47855
902.9359, -84.50269
903.4180, -98.39854
903.9001, -113.7957
904.3822, -134.2273
904.8643, -148.2674
905.3464, -130.3562
905.8286, -91.13059
906.3107, -58.55461
906.7928, -51.85051
907.2749, -44.89830
907.7570, -20.82322
908.2391, 7.709435
908.7213, 13.38000
909.2034, -10.28397
909.6855, -30.85958
910.1676, -41.74179
910.6497, -46.31161
911.1318, -45.37071
911.6140, -42.76654
912.0961, -49.27877
912.5782, -80.10605
913.0603, -101.1591
913.5424, -86.76921
914.0245, -56.76310
914.5067, -41.04594
914.9888, -52.65721
915.4709, -41.06402
915.9530, 7.433701
916.4351, 57.40246
916.9172, 53.11590
917.3994, 12.04005
917.8815, -14.48181
918.3636, -14.61051
918.8457, -5.475566
919.3278, 20.64399
919.8099, 40.05593
920.2921, 25.62424
920.7742, -46.95710
921.2563, -89.93214
921.7384, -91.79192
922.2205, -88.85713
922.7026, -134.9134
923.1848, -205.8448
923.6669, -192.6232
924.1490, -84.81120
924.6311, 10.37621
925.1132, -6.089655
925.5953, -51.15580
926.0775, -57.80193
926.5596, -10.46355
927.0417, 18.45282
927.5238, 25.16276
928.0059, 20.15942
928.4880, 7.756167
928.9702, -11.44039
929.4523, -40.58140
929.9344, -77.22770
930.4165, -100.3360
930.8986, -83.96415
931.3807, -58.97765
931.8629, -55.56590
932.3450, -69.82461
932.8271, -48.65257
933.3092, 46.29327
933.7913, 108.6578
934.2734, 94.11781
934.7556, 31.28426
935.2377, 5.652277
935.7198, 13.85815
936.2019, 34.44581
936.6840, 71.77122
937.1661, 102.8286
937.6483, 103.1080
938.1304, 85.24708
938.6125, 79.57352
939.0946, 100.3890
939.5767, 115.2298
940.0588, 118.4628
940.5410, 115.3469
941.0231, 120.3282
941.5052, 129.3488
941.9873, 114.2219
942.4694, 52.00519
942.9515, 6.969728
943.4337, 56.45459
943.9158, 141.0036
944.3979, 186.8424
944.8800, 146.6587
945.3621, 124.7686
945.8442, 123.8462
946.3264, 136.5522
946.8085, 162.9532
947.2906, 198.1859
947.7727, 216.1250
948.2548, 213.9007
948.7369, 199.4881
949.2191, 172.6146
949.7012, 140.6176
950.1833, 103.5288
950.6654, 55.12069
951.1475, 45.82062
951.6296, 91.44249
952.1118, 145.7474
952.5939, 188.6692
953.0760, 218.2203
953.5581, 214.2566
954.0402, 180.9801
954.5223, 155.8385
955.0045, 171.8860
955.4866, 195.3701
955.9687, 205.0285
956.4508, 201.2319
956.9329, 193.0784
957.4150, 170.7399
957.8972, 170.5067
958.3793, 214.4839
958.8614, 275.2029
959.3435, 275.9518
959.8256, 233.1616
960.3077, 206.3499
960.7899, 224.4871
961.2720, 258.4670
961.7541, 310.1691
962.2362, 362.0372
962.7183, 383.0847
963.2004, 366.8539
963.6826, 330.8257
964.1647, 266.1515
964.6468, 208.2526
965.1289, 220.7346
965.6110, 275.8498
966.0931, 298.9832
966.5753, 269.3181
967.0574, 244.0142
967.5395, 269.8933
968.0216, 301.3226
968.5037, 297.0528
968.9858, 245.2846
969.4679, 223.5877
969.9500, 238.8043
970.4321, 254.4782
970.9142, 236.8227
971.3964, 202.8868
971.8785, 186.6289
972.3606, 187.4176
972.8427, 187.1198
973.3248, 169.3399
973.8069, 157.0743
974.2891, 169.4786
974.7712, 196.9451
975.2533, 186.1688
975.7354, 131.4185
976.2175, 93.71816
976.6996, 100.4706
977.1818, 131.8342
977.6639, 179.4126
978.1460, 227.5580
978.6281, 239.9229
979.1102, 152.8601
979.5923, 95.39189
980.0745, 100.4851
980.5566, 138.3629
981.0387, 180.1122
981.5208, 226.6410
982.0029, 224.2821
982.4850, 156.8812
982.9672, 89.27883
983.4493, 91.45455
983.9314, 127.5012
984.4135, 158.8902
984.8956, 179.7264
985.3777, 192.1821
985.8599, 197.2878
986.3420, 194.1239
986.8241, 179.7832
987.3062, 155.4863
987.7883, 131.8452
988.2704, 109.3525
988.7526, 92.98607
989.2347, 87.05064
989.7168, 87.72311
990.1989, 91.70971
990.6810, 99.55471
991.1631, 117.1227
991.6453, 158.7360
992.1274, 177.6828
992.6095, 155.6832
993.0916, 111.5200
993.5737, 78.61957
994.0558, 58.04689
994.5380, 55.08068
995.0201, 78.95212
995.5022, 107.3616
995.9843, 144.8026
996.4664, 171.5429
996.9485, 160.7098
997.4307, 95.29649
997.9128, 50.43711
998.3949, 30.15872
998.8770, 25.88123
999.3591, 37.79985
999.8412, 56.41853
1000.323, 63.15290
1000.805, 55.62459
1001.288, 51.66813
1001.770, 70.33960
1002.252, 81.30460
1002.734, 63.37545
1003.216, 22.30177
1003.698, 23.26915
1004.180, 67.52972
1004.662, 97.41523
1005.145, 62.53377
1005.627, 19.34729
1006.109, 46.00755
1006.591, 111.7242
1007.073, 141.6414
1007.555, 74.34053
1008.037, 25.42798
1008.519, 9.123347
1009.001, 14.14331
1009.484, 32.54052
1009.966, 59.49879
1010.448, 64.38294
1010.930, 37.72908
1011.412, 10.55426
1011.894, 11.20205
1012.376, 19.46937
1012.858, 13.27045
1013.341, -16.83831
1013.823, -15.13381
1014.305, 30.10483
1014.787, 69.34728
1015.269, 58.32418
1015.751, 21.28591
1016.233, 18.28376
1016.715, 43.12478
1017.197, 61.57302
1017.680, 41.70961
1018.162, 30.43316
1018.644, 55.71548
1019.126, 98.60175
1019.608, 115.5541
1020.090, 106.5941
1020.572, 67.52749
1021.054, -17.42649
1021.536, -89.98683
1022.019, -58.32342
1022.501, 17.43992
1022.983, 50.79222
1023.465, -7.362525
1023.947, -35.49627
1024.429, -11.02639
1024.911, 21.84350
1025.393, 24.78924
1025.876, 4.492522
1026.358, 11.03455
1026.840, 42.69338
1027.322, 59.81670
1027.804, 8.542180
1028.286, -39.66523
1028.768, -27.41042
1029.250, 32.99583
1029.733, 62.23991
1030.215, 52.21534
1030.697, 41.30261
1031.179, 39.74989
1031.661, 43.43995
1032.143, 51.47738
1032.625, 58.67935
1033.107, 53.43091
1033.589, 19.67350
1034.072, -2.842084
1034.554, -1.791020
1035.036, 10.71108
1035.518, 30.25988
1036.000, 57.00043
1036.482, 68.44221
1036.964, 64.08660
1037.446, 38.91915
1037.928, -42.26120
1038.411, -120.8435
1038.893, -138.9847
1039.375, -98.67429
1039.857, -79.14087
1040.339, -99.67193
1040.821, -102.6410
1041.303, -61.56891
1041.785, -4.664756
1042.268, 13.13993
1042.750, 0.3086922
1043.232, -21.17084
1043.714, -54.49774
1044.196, -76.43877
1044.678, -66.72449
1045.160, -49.21509
1045.642, -46.75307
1046.125, -61.18420
1046.607, -70.07121
1047.089, -72.03879
1047.571, -77.38557
1048.053, -108.0564
1048.535, -137.1043
1049.017, -130.6533
1049.499, -89.93854
1049.981, -57.10243
1050.464, -41.32616
1050.946, -24.56208
1051.428, 0.7332426
1051.910, 27.62238
1052.392, 44.16624
1052.874, 48.86075
1053.356, 34.64776
1053.838, -15.63343
1054.320, -54.96306
1054.803, -51.89517
1055.285, -33.10545
1055.767, -25.53481
1056.249, -32.00434
1056.731, -33.29211
1057.213, -29.19264
1057.695, -19.58290
1058.177, 8.302250
1058.660, 33.03356
1059.142, 23.63875
1059.624, -16.39648
1060.106, -42.38182
1060.588, -41.04081
1061.070, -37.51392
1061.552, -36.75702
1062.034, -38.52860
1062.516, -48.57300
1062.999, -61.09124
1063.481, -55.41243
1063.963, -18.58217
1064.445, 18.59461
1064.927, 56.17390
1065.409, 74.50711
1065.891, 49.92127
1066.373, -29.76226
1066.855, -55.43493
1067.338, -23.14551
1067.820, 5.720559
1068.302, -31.30234
1068.784, -81.09516
1069.266, -81.82059
1069.748, -43.30980
1070.230, -17.47417
1070.712, -20.44975
1071.194, -20.45593
1071.677, -9.082135
1072.159, 3.242199
1072.641, -5.493327
1073.123, -27.65987
1073.605, -43.15889
1074.087, -48.15902
1074.569, -44.20322
1075.051, -11.91763
1075.534, 10.31560
1076.016, -10.30506
1076.498, -73.63346
1076.980, -92.26878
1077.462, -66.26737
1077.944, -28.83644
1078.426, 18.79075
1078.908, 51.60633
1079.391, 34.99786
1079.873, -13.47126
1080.355, -47.55674
1080.837, -62.76543
1081.319, -62.35371
1081.801, -40.98978
1082.283, -19.08434
1082.765, -26.57782
1083.247, -50.96087
1083.729, -70.09027
1084.212, -81.19910
1084.694, -81.70167
1085.176, -62.24662
1085.658, -39.73443
1086.140, -17.28978
1086.622, 1.850424
1087.104, -4.226194
1087.586, -32.37437
1088.069, -57.11759
1088.551, -66.44619
1089.033, -70.13390
1089.515, -77.43338
1089.997, -81.59622
1090.479, -70.12871
1090.961, -31.64129
1091.443, -25.37652
1091.926, -60.06618
1092.408, -90.00552
1092.890, -53.68680
1093.372, 0.1137415
1093.854, 1.749013
1094.336, -47.16078
1094.818, -87.22622
1095.300, -118.4432
1095.782, -114.1257
1096.265, -50.23291
1096.747, 32.76714
1097.229, 38.61036
1097.711, -11.23172
1098.193, -49.13747
1098.675, -55.04490
1099.157, -54.50792
1099.639, -64.87762
1100.121, -68.03156
1100.604, -45.96025
1101.086, 2.529277
1101.568, 23.49649
1102.050, 17.34808
1102.532, 2.012209
1103.014, -13.07835
1103.496, -30.76299
1103.978, -67.51395
1104.461, -106.8310
1104.943, -101.4436
1105.425, -26.67823
1105.907, 20.45965
1106.389, 25.77231
1106.871, 9.856028
1107.353, -14.90815
1107.835, -39.30458
1108.318, -44.67886
1108.800, -27.74036
1109.282, -21.16536
1109.764, -37.78522
1110.246, -59.23413
1110.728, -84.32391
1111.210, -106.1965
1111.692, -96.26029
1112.174, -63.33397
1112.656, -38.34371
1113.139, -34.69862
1113.621, -37.48130
1114.103, -41.75481
1114.585, -48.52679
1115.067, -61.63641
1115.549, -82.73855
1116.031, -83.62910
1116.513, -63.89810
1116.996, -43.69593
1117.478, -39.88674
1117.960, -39.10201
1118.442, -28.49588
1118.924, -11.82586
1119.406, -3.832891
1119.888, -5.769449
1120.370, -14.06537
1120.853, -30.17897
1121.335, -45.32555
1121.817, -46.12308
1122.299, -39.69815
1122.781, -37.49540
1123.263, -42.57687
1123.745, -39.01179
1124.227, -18.81511
1124.709, -1.465569
1125.192, 5.968160
1125.674, 3.795186
1126.156, -8.198421
1126.638, -29.03348
1127.120, -57.35483
1127.602, -117.4600
1128.084, -144.6029
1128.566, -89.10442
1129.048, -20.10819
1129.531, 1.028841
1130.013, -23.05139
1130.495, -45.28070
1130.977, -63.44756
1131.459, -64.17622
1131.941, -10.04185
1132.423, 36.24787
1132.905, 26.68659
1133.388, -19.89478
1133.870, -53.56525
1134.352, -74.57899
1134.834, -80.86806
1135.316, -70.46888
1135.798, -53.78572
1136.280, -34.32762
1136.762, -19.02482
1137.245, -18.72950
1137.727, -37.43927
1138.209, -41.60634
1138.691, -25.10892
1139.173, -15.21373
1139.655, -27.09314
1140.137, -47.59844
1140.619, -56.99112
1141.101, -57.57820
1141.583, -52.92790
1142.066, -29.02423
1142.548, -30.30718
1143.030, -71.87280
1143.512, -115.4462
1143.994, -128.5679
1144.476, -119.1539
1144.958, -112.3030
1145.440, -107.6979
1145.923, -99.97260
1146.405, -79.14413
1146.887, -63.94431
1147.369, -57.02842
1147.851, -60.31493
1148.333, -85.00764
1148.815, -125.5574
1149.297, -147.0057
1149.780, -143.8894
1150.262, -125.1696
1150.744, -71.79102
1151.226, -28.56285
1151.708, -37.01202
1152.190, -82.02400
1152.672, -76.05748
1153.154, -19.86038
1153.636, 20.20070
1154.119, 21.44976
1154.601, 1.028063
1155.083, -50.02303
1155.565, -100.4840
1156.047, -106.7388
1156.529, -55.70153
1157.011, -37.74504
1157.493, -56.65733
1157.975, -80.27054
1158.458, -96.76138
1158.940, -100.0444
1159.422, -67.53713
1159.904, -18.09263
1160.386, -0.3960791
1160.868, -42.92695
1161.350, -67.02065
1161.832, -66.15876
1162.315, -50.06720
1162.797, -10.26504
1163.279, 28.03664
1163.761, 13.72228
1164.243, -50.14061
1164.725, -95.08105
1165.207, -100.5193
1165.689, -89.77757
1166.172, -59.20795
1166.654, -28.62919
1167.136, -41.76601
1167.618, -79.61675
1168.100, -95.46745
1168.582, -74.78184
1169.064, -65.22050
1169.546, -101.0934
1170.028, -128.4460
1170.510, -120.1923
1170.993, -87.48357
1171.475, -66.70322
1171.957, -56.31504
1172.439, -49.36314
1172.921, -39.95473
1173.403, -39.40805
1173.885, -61.83504
1174.367, -87.06585
1174.850, -101.2461
1175.332, -104.4229
1175.814, -96.40330
1176.296, -78.48421
1176.778, -63.58542
1177.260, -62.46605
1177.742, -63.52330
1178.224, -56.33968
1178.707, -50.14239
1179.189, -67.00771
1179.671, -108.0968
1180.153, -103.6183
1180.635, -43.63116
1181.117, 5.868684
1181.599, -23.21396
1182.081, -66.39645
1182.563, -74.67397
1183.046, -56.04896
1183.528, -49.71335
1184.010, -57.20119
1184.492, -54.10215
1184.974, -30.14616
1185.456, -12.56302
1185.938, -40.03283
1186.420, -78.76563
1186.902, -91.72478
1187.385, -74.94092
1187.867, -67.61626
1188.349, -69.30964
1188.831, -87.52142
1189.313, -143.3034
1189.795, -187.8335
1190.277, -139.1409
1190.759, -51.46083
1191.242, -4.771617
1191.724, -13.82103
1192.206, -64.21352
1192.688, -171.5934
1193.170, -245.0631
1193.652, -186.9707
1194.134, -83.96296
1194.616, -50.21769
1195.099, -66.16711
1195.581, -81.08818
1196.063, -88.92366
1196.545, -88.70742
1197.027, -78.02511
1197.509, -67.34983
1197.991, -68.69802
1198.473, -75.84401
1198.955, -81.08340
1199.438, -83.66493
1199.920, -82.31099
1200.402, -75.03783
1200.884, -66.87236
1201.366, -56.65692
1201.848, -50.66713
1202.330, -63.04137
1202.812, -83.56355
1203.294, -94.62108
1203.777, -93.16082
1204.259, -94.09474
1204.741, -104.7148
1205.223, -107.1899
1205.705, -90.41109
1206.187, -69.77532
1206.669, -84.06548
1207.151, -115.9072
1207.634, -127.8518
1208.116, -101.8718
1208.598, -91.67153
1209.080, -119.4606
1209.562, -134.2373
1210.044, -94.24506
1210.526, -32.68827
1211.008, -41.47705
1211.490, -97.17381
1211.973, -138.0513
1212.455, -132.5932
1212.937, -128.9574
1213.419, -137.7081
1213.901, -141.9604
1214.383, -123.1615
1214.865, -90.46989
1215.347, -63.15284
1215.829, -45.82808
1216.312, -55.34236
1216.794, -138.2477
1217.276, -192.9819
1217.758, -201.9260
1218.240, -181.4618
1218.722, -130.1478
1219.204, -67.94604
1219.686, -61.17752
1220.169, -107.5550
1220.651, -143.8643
1221.133, -148.0191
1221.615, -129.6511
1222.097, -80.49310
1222.579, -26.31902
1223.061, -8.744874
1223.543, -20.21682
1224.026, -47.79958
1224.508, -90.52554
1224.990, -116.7394
1225.472, -93.43546
1225.954, -77.96737
1226.436, -89.26263
1226.918, -116.0785
1227.400, -144.4709
1227.882, -166.6305
1228.365, -153.5211
1228.847, -86.38682
1229.329, -45.90894
1229.811, -78.86523
1230.293, -111.7790
1230.775, -111.1111
1231.257, -88.59201
1231.739, -72.99155
1232.221, -63.49103
1232.704, -57.52689
1233.186, -54.80990
1233.668, -54.81132
1234.150, -57.94585
1234.632, -62.65893
1235.114, -68.12034
1235.596, -74.30577
1236.078, -81.23763
1236.561, -88.94407
1237.043, -97.36066
1237.525, -109.1227
1238.007, -117.3863
1238.489, -119.5526
1238.971, -121.4261
1239.453, -129.2375
1239.935, -140.4005
1240.417, -147.6527
1240.900, -151.4874
1241.382, -155.1437
1241.864, -178.0571
1242.346, -169.7240
1242.828, -112.3874
1243.310, -45.69432
1243.792, -11.63879
1244.274, -3.751019
1244.756, -15.71735
1245.239, -43.73344
1245.721, -65.40630
1246.203, -64.30609
1246.685, -71.09753
1247.167, -94.02818
1247.649, -119.5085
1248.131, -132.1317
1248.613, -132.7395
1249.096, -116.2732
1249.578, -82.91804
1250.060, -69.09438
1250.542, -90.08937
1251.024, -112.3834
1251.506, -130.8839
1251.988, -140.5934
1252.470, -131.0300
1252.953, -108.6412
1253.435, -77.82401
1253.917, -36.02571
1254.399, -26.69942
1254.881, -65.32407
1255.363, -98.58565
1255.845, -107.5728
1256.327, -102.1367
1256.809, -91.06805
1257.292, -78.48605
1257.774, -69.88289
1258.256, -66.29506
1258.738, -70.32336
1259.220, -85.53105
1259.702, -92.84784
1260.184, -77.03397
1260.666, -58.69061
1261.148, -68.88993
1261.631, -92.99220
1262.113, -108.9823
1262.595, -112.0988
1263.077, -117.5855
1263.559, -127.7997
1264.041, -123.7678
1264.523, -78.88152
1265.005, -32.06647
1265.487, -25.50802
1265.970, -43.93707
1266.452, -65.51642
1266.934, -95.55784
1267.416, -93.93038
1267.898, -58.38276
1268.380, -23.24196
1268.862, -7.108566
1269.344, -5.255841
1269.827, -20.31985
1270.309, -45.30381
1270.791, -70.26344
1271.273, -97.56304
1271.755, -97.28370
1272.237, -68.61958
1272.719, -46.65712
1273.201, -68.19521
1273.683, -91.64114
1274.166, -90.43993
1274.648, -74.37448
1275.130, -51.85425
1275.612, -24.16708
1276.094, -32.54383
1276.576, -79.15321
1277.058, -124.8617
1277.540, -152.5914
1278.022, -164.4793
1278.505, -160.8055
1278.987, -143.8812
1279.469, -107.2792
1279.951, -57.91602
1280.433, -37.00680
1280.915, -48.56433
1281.397, -63.54012
1281.879, -67.18519
1282.362, -71.15816
1282.844, -78.61597
1283.326, -89.36305
1283.808, -110.3223
1284.290, -133.2695
1284.772, -132.0100
1285.254, -102.3738
1285.736, -70.66409
1286.219, -25.86716
1286.701, -16.32825
1287.183, -71.18344
1287.665, -140.5137
1288.147, -124.9169
1288.629, -66.14355
1289.111, -39.73542
1289.593, -60.40875
1290.075, -86.03316
1290.557, -121.4551
1291.040, -132.3325
1291.522, -98.72317
1292.004, -55.54498
1292.486, -68.14555
1292.968, -95.75136
1293.450, -72.28769
1293.932, 23.04195
1294.414, 60.24078
1294.897, 31.63391
1295.379, -10.68441
1295.861, -57.14180
1296.343, -87.15472
1296.825, -54.83484
1297.307, -8.021417
1297.789, -10.55622
1298.271, -63.42430
1298.754, -76.97832
1299.236, -51.51369
1299.718, -41.84802
1300.200, -86.77266
1300.682, -117.3172
##END=



