##NAMES=Bismutotantalite
##RRUFFID=R130778
##IDEAL CHEMISTRY=Bi^3+^Ta^5+^O_4_
##LOCALITY=Mbale Estate, Singo, West of Kanipala, Uganda
##OWNER=RRUFF
##SOURCE=Rock Currier
##DESCRIPTION=Metallic black massive or irregular crystals
##STATUS=The identification of this mineral has been confirmed only by single crystal X-ray diffraction.
##URL=rruff.info/R130778
8.813672e+001, 1.546247e+003
8.861884e+001, 1.565994e+003
8.910095e+001, 1.585519e+003
8.958307e+001, 1.610882e+003
9.006519e+001, 1.640883e+003
9.054730e+001, 1.670077e+003
9.102942e+001, 1.700935e+003
9.151154e+001, 1.728359e+003
9.199365e+001, 1.745485e+003
9.247577e+001, 1.754115e+003
9.295789e+001, 1.760978e+003
9.344000e+001, 1.770507e+003
9.392212e+001, 1.780470e+003
9.440424e+001, 1.788928e+003
9.488635e+001, 1.797928e+003
9.536847e+001, 1.807829e+003
9.585059e+001, 1.818254e+003
9.633270e+001, 1.829038e+003
9.681482e+001, 1.840505e+003
9.729694e+001, 1.852020e+003
9.777905e+001, 1.863629e+003
9.826117e+001, 1.878505e+003
9.874329e+001, 1.898418e+003
9.922540e+001, 1.922358e+003
9.970752e+001, 1.943786e+003
1.001896e+002, 1.961638e+003
1.006718e+002, 1.978403e+003
1.011539e+002, 1.997012e+003
1.016360e+002, 2.017851e+003
1.021181e+002, 2.039566e+003
1.026002e+002, 2.061458e+003
1.030823e+002, 2.083313e+003
1.035645e+002, 2.106505e+003
1.040466e+002, 2.130673e+003
1.045287e+002, 2.156603e+003
1.050108e+002, 2.186806e+003
1.054929e+002, 2.223872e+003
1.059750e+002, 2.261418e+003
1.064572e+002, 2.297110e+003
1.069393e+002, 2.331860e+003
1.074214e+002, 2.363711e+003
1.079035e+002, 2.391416e+003
1.083856e+002, 2.416480e+003
1.088677e+002, 2.442762e+003
1.093499e+002, 2.471273e+003
1.098320e+002, 2.500795e+003
1.103141e+002, 2.530777e+003
1.107962e+002, 2.560131e+003
1.112783e+002, 2.591835e+003
1.117604e+002, 2.627010e+003
1.122426e+002, 2.665582e+003
1.127247e+002, 2.704511e+003
1.132068e+002, 2.743159e+003
1.136889e+002, 2.782263e+003
1.141710e+002, 2.821932e+003
1.146531e+002, 2.864210e+003
1.151353e+002, 2.905011e+003
1.156174e+002, 2.942408e+003
1.160995e+002, 2.976252e+003
1.165816e+002, 3.012545e+003
1.170637e+002, 3.055992e+003
1.175458e+002, 3.102042e+003
1.180280e+002, 3.146326e+003
1.185101e+002, 3.183534e+003
1.189922e+002, 3.220700e+003
1.194743e+002, 3.261594e+003
1.199564e+002, 3.306843e+003
1.204385e+002, 3.353833e+003
1.209207e+002, 3.399523e+003
1.214028e+002, 3.445871e+003
1.218849e+002, 3.496133e+003
1.223670e+002, 3.558554e+003
1.228491e+002, 3.623439e+003
1.233312e+002, 3.679285e+003
1.238134e+002, 3.723575e+003
1.242955e+002, 3.764706e+003
1.247776e+002, 3.807991e+003
1.252597e+002, 3.853997e+003
1.257418e+002, 3.904484e+003
1.262239e+002, 3.963332e+003
1.267061e+002, 4.027692e+003
1.271882e+002, 4.089818e+003
1.276703e+002, 4.148426e+003
1.281524e+002, 4.206550e+003
1.286345e+002, 4.267865e+003
1.291166e+002, 4.332374e+003
1.295988e+002, 4.399834e+003
1.300809e+002, 4.471025e+003
1.305630e+002, 4.545307e+003
1.310451e+002, 4.620175e+003
1.315272e+002, 4.694156e+003
1.320093e+002, 4.768077e+003
1.324915e+002, 4.844784e+003
1.329736e+002, 4.924212e+003
1.334557e+002, 5.006485e+003
1.339378e+002, 5.091625e+003
1.344199e+002, 5.179780e+003
1.349020e+002, 5.267034e+003
1.353842e+002, 5.353128e+003
1.358663e+002, 5.436460e+003
1.363484e+002, 5.518305e+003
1.368305e+002, 5.598838e+003
1.373126e+002, 5.676604e+003
1.377947e+002, 5.750732e+003
1.382769e+002, 5.822756e+003
1.387590e+002, 5.884201e+003
1.392411e+002, 5.932791e+003
1.397232e+002, 5.968897e+003
1.402053e+002, 5.989376e+003
1.406874e+002, 5.992519e+003
1.411696e+002, 5.982931e+003
1.416517e+002, 5.966385e+003
1.421338e+002, 5.942310e+003
1.426159e+002, 5.912848e+003
1.430980e+002, 5.877135e+003
1.435801e+002, 5.833678e+003
1.440623e+002, 5.793479e+003
1.445444e+002, 5.756744e+003
1.450265e+002, 5.723552e+003
1.455086e+002, 5.694728e+003
1.459907e+002, 5.670607e+003
1.464728e+002, 5.650489e+003
1.469550e+002, 5.634097e+003
1.474371e+002, 5.621990e+003
1.479192e+002, 5.612788e+003
1.484013e+002, 5.606016e+003
1.488834e+002, 5.602197e+003
1.493655e+002, 5.602540e+003
1.498477e+002, 5.611271e+003
1.503298e+002, 5.620487e+003
1.508119e+002, 5.627366e+003
1.512940e+002, 5.631679e+003
1.517761e+002, 5.633928e+003
1.522583e+002, 5.632561e+003
1.527404e+002, 5.628844e+003
1.532225e+002, 5.626387e+003
1.537046e+002, 5.628063e+003
1.541867e+002, 5.629200e+003
1.546688e+002, 5.627626e+003
1.551510e+002, 5.620737e+003
1.556331e+002, 5.614028e+003
1.561152e+002, 5.609909e+003
1.565973e+002, 5.607182e+003
1.570794e+002, 5.601108e+003
1.575615e+002, 5.588702e+003
1.580437e+002, 5.573832e+003
1.585258e+002, 5.558864e+003
1.590079e+002, 5.544167e+003
1.594900e+002, 5.529599e+003
1.599721e+002, 5.515804e+003
1.604542e+002, 5.502451e+003
1.609364e+002, 5.487573e+003
1.614185e+002, 5.471367e+003
1.619006e+002, 5.452917e+003
1.623827e+002, 5.431478e+003
1.628648e+002, 5.406745e+003
1.633469e+002, 5.379040e+003
1.638291e+002, 5.347758e+003
1.643112e+002, 5.313339e+003
1.647933e+002, 5.277487e+003
1.652754e+002, 5.241789e+003
1.657575e+002, 5.204870e+003
1.662396e+002, 5.165289e+003
1.667218e+002, 5.122002e+003
1.672039e+002, 5.076292e+003
1.676860e+002, 5.028048e+003
1.681681e+002, 4.977769e+003
1.686502e+002, 4.927038e+003
1.691323e+002, 4.877542e+003
1.696145e+002, 4.828608e+003
1.700966e+002, 4.779601e+003
1.705787e+002, 4.730695e+003
1.710608e+002, 4.681371e+003
1.715429e+002, 4.630560e+003
1.720250e+002, 4.577731e+003
1.725072e+002, 4.526248e+003
1.729893e+002, 4.476702e+003
1.734714e+002, 4.429435e+003
1.739535e+002, 4.385066e+003
1.744356e+002, 4.345687e+003
1.749177e+002, 4.308646e+003
1.753999e+002, 4.269526e+003
1.758820e+002, 4.227506e+003
1.763641e+002, 4.187077e+003
1.768462e+002, 4.151373e+003
1.773283e+002, 4.119603e+003
1.778104e+002, 4.089653e+003
1.782926e+002, 4.060977e+003
1.787747e+002, 4.033531e+003
1.792568e+002, 4.007543e+003
1.797389e+002, 3.983308e+003
1.802210e+002, 3.959789e+003
1.807031e+002, 3.936986e+003
1.811853e+002, 3.914527e+003
1.816674e+002, 3.891734e+003
1.821495e+002, 3.867366e+003
1.826316e+002, 3.842531e+003
1.831137e+002, 3.821087e+003
1.835958e+002, 3.803608e+003
1.840780e+002, 3.787437e+003
1.845601e+002, 3.768190e+003
1.850422e+002, 3.746753e+003
1.855243e+002, 3.726237e+003
1.860064e+002, 3.709201e+003
1.864885e+002, 3.694724e+003
1.869707e+002, 3.680111e+003
1.874528e+002, 3.665095e+003
1.879349e+002, 3.649900e+003
1.884170e+002, 3.634238e+003
1.888991e+002, 3.618196e+003
1.893812e+002, 3.603401e+003
1.898634e+002, 3.591175e+003
1.903455e+002, 3.581104e+003
1.908276e+002, 3.570388e+003
1.913097e+002, 3.558615e+003
1.917918e+002, 3.546249e+003
1.922739e+002, 3.533641e+003
1.927561e+002, 3.520542e+003
1.932382e+002, 3.508454e+003
1.937203e+002, 3.498374e+003
1.942024e+002, 3.490180e+003
1.946845e+002, 3.482039e+003
1.951666e+002, 3.474024e+003
1.956488e+002, 3.465779e+003
1.961309e+002, 3.456554e+003
1.966130e+002, 3.446160e+003
1.970951e+002, 3.435455e+003
1.975772e+002, 3.424609e+003
1.980593e+002, 3.413630e+003
1.985415e+002, 3.403316e+003
1.990236e+002, 3.394003e+003
1.995057e+002, 3.385085e+003
1.999878e+002, 3.375199e+003
2.004699e+002, 3.364111e+003
2.009520e+002, 3.353224e+003
2.014342e+002, 3.343691e+003
2.019163e+002, 3.335614e+003
2.023984e+002, 3.327008e+003
2.028805e+002, 3.317590e+003
2.033626e+002, 3.307694e+003
2.038447e+002, 3.298217e+003
2.043269e+002, 3.289288e+003
2.048090e+002, 3.280237e+003
2.052911e+002, 3.270858e+003
2.057732e+002, 3.261134e+003
2.062553e+002, 3.250774e+003
2.067374e+002, 3.239441e+003
2.072196e+002, 3.227678e+003
2.077017e+002, 3.217079e+003
2.081838e+002, 3.207974e+003
2.086659e+002, 3.199114e+003
2.091480e+002, 3.189793e+003
2.096301e+002, 3.179684e+003
2.101123e+002, 3.170312e+003
2.105944e+002, 3.161793e+003
2.110765e+002, 3.153992e+003
2.115586e+002, 3.146625e+003
2.120407e+002, 3.139917e+003
2.125228e+002, 3.133112e+003
2.130050e+002, 3.125567e+003
2.134871e+002, 3.116745e+003
2.139692e+002, 3.109452e+003
2.144513e+002, 3.104602e+003
2.149334e+002, 3.101079e+003
2.154155e+002, 3.095140e+003
2.158977e+002, 3.085600e+003
2.163798e+002, 3.075838e+003
2.168619e+002, 3.067579e+003
2.173440e+002, 3.060895e+003
2.178261e+002, 3.055583e+003
2.183082e+002, 3.052404e+003
2.187904e+002, 3.050358e+003
2.192725e+002, 3.046281e+003
2.197546e+002, 3.039231e+003
2.202367e+002, 3.031884e+003
2.207188e+002, 3.025855e+003
2.212009e+002, 3.021958e+003
2.216831e+002, 3.017050e+003
2.221652e+002, 3.010657e+003
2.226473e+002, 3.003359e+003
2.231294e+002, 2.996736e+003
2.236115e+002, 2.989975e+003
2.240936e+002, 2.985269e+003
2.245758e+002, 2.984464e+003
2.250579e+002, 2.990993e+003
2.255400e+002, 2.992762e+003
2.260221e+002, 2.987582e+003
2.265042e+002, 2.978086e+003
2.269863e+002, 2.971711e+003
2.274685e+002, 2.969700e+003
2.279506e+002, 2.968769e+003
2.284327e+002, 2.967409e+003
2.289148e+002, 2.965103e+003
2.293969e+002, 2.963492e+003
2.298790e+002, 2.962778e+003
2.303612e+002, 2.962652e+003
2.308433e+002, 2.962388e+003
2.313254e+002, 2.961958e+003
2.318075e+002, 2.961327e+003
2.322896e+002, 2.960301e+003
2.327717e+002, 2.958183e+003
2.332539e+002, 2.957403e+003
2.337360e+002, 2.958915e+003
2.342181e+002, 2.961386e+003
2.347002e+002, 2.961615e+003
2.351823e+002, 2.958163e+003
2.356644e+002, 2.954551e+003
2.361466e+002, 2.952208e+003
2.366287e+002, 2.951690e+003
2.371108e+002, 2.950909e+003
2.375929e+002, 2.950095e+003
2.380750e+002, 2.948928e+003
2.385571e+002, 2.946687e+003
2.390393e+002, 2.942932e+003
2.395214e+002, 2.938844e+003
2.400035e+002, 2.934824e+003
2.404856e+002, 2.930790e+003
2.409677e+002, 2.927167e+003
2.414498e+002, 2.924426e+003
2.419320e+002, 2.921956e+003
2.424141e+002, 2.918554e+003
2.428962e+002, 2.913920e+003
2.433783e+002, 2.908992e+003
2.438604e+002, 2.904101e+003
2.443425e+002, 2.899333e+003
2.448247e+002, 2.894417e+003
2.453068e+002, 2.889085e+003
2.457889e+002, 2.883815e+003
2.462710e+002, 2.879277e+003
2.467531e+002, 2.875675e+003
2.472352e+002, 2.872409e+003
2.477174e+002, 2.869283e+003
2.481995e+002, 2.866293e+003
2.486816e+002, 2.863452e+003
2.491637e+002, 2.860754e+003
2.496458e+002, 2.858131e+003
2.501279e+002, 2.855492e+003
2.506101e+002, 2.852605e+003
2.510922e+002, 2.850066e+003
2.515743e+002, 2.848438e+003
2.520564e+002, 2.848078e+003
2.525385e+002, 2.845533e+003
2.530206e+002, 2.839518e+003
2.535028e+002, 2.832453e+003
2.539849e+002, 2.827538e+003
2.544670e+002, 2.825690e+003
2.549491e+002, 2.823918e+003
2.554312e+002, 2.821460e+003
2.559133e+002, 2.818286e+003
2.563955e+002, 2.815531e+003
2.568776e+002, 2.813331e+003
2.573597e+002, 2.811381e+003
2.578418e+002, 2.809468e+003
2.583239e+002, 2.807889e+003
2.588061e+002, 2.805484e+003
2.592882e+002, 2.801577e+003
2.597703e+002, 2.796187e+003
2.602524e+002, 2.792362e+003
2.607345e+002, 2.790816e+003
2.612166e+002, 2.789785e+003
2.616988e+002, 2.787357e+003
2.621809e+002, 2.782600e+003
2.626630e+002, 2.779403e+003
2.631451e+002, 2.779203e+003
2.636272e+002, 2.781489e+003
2.641093e+002, 2.781202e+003
2.645915e+002, 2.777155e+003
2.650736e+002, 2.772689e+003
2.655557e+002, 2.770997e+003
2.660378e+002, 2.773648e+003
2.665199e+002, 2.773449e+003
2.670020e+002, 2.768283e+003
2.674842e+002, 2.759486e+003
2.679663e+002, 2.754121e+003
2.684484e+002, 2.752804e+003
2.689305e+002, 2.753457e+003
2.694126e+002, 2.755351e+003
2.698947e+002, 2.759285e+003
2.703769e+002, 2.760750e+003
2.708590e+002, 2.758717e+003
2.713411e+002, 2.754208e+003
2.718232e+002, 2.750383e+003
2.723053e+002, 2.747175e+003
2.727874e+002, 2.744813e+003
2.732696e+002, 2.743732e+003
2.737517e+002, 2.744228e+003
2.742338e+002, 2.743935e+003
2.747159e+002, 2.742464e+003
2.751980e+002, 2.740380e+003
2.756801e+002, 2.738827e+003
2.761623e+002, 2.737711e+003
2.766444e+002, 2.737639e+003
2.771265e+002, 2.739826e+003
2.776086e+002, 2.744683e+003
2.780907e+002, 2.746296e+003
2.785728e+002, 2.743695e+003
2.790550e+002, 2.739206e+003
2.795371e+002, 2.736940e+003
2.800192e+002, 2.737120e+003
2.805013e+002, 2.737682e+003
2.809834e+002, 2.737919e+003
2.814655e+002, 2.737813e+003
2.819477e+002, 2.736935e+003
2.824298e+002, 2.735083e+003
2.829119e+002, 2.732913e+003
2.833940e+002, 2.731043e+003
2.838761e+002, 2.729424e+003
2.843582e+002, 2.728820e+003
2.848404e+002, 2.730048e+003
2.853225e+002, 2.732645e+003
2.858046e+002, 2.733702e+003
2.862867e+002, 2.732929e+003
2.867688e+002, 2.731856e+003
2.872509e+002, 2.732651e+003
2.877331e+002, 2.735132e+003
2.882152e+002, 2.736648e+003
2.886973e+002, 2.736127e+003
2.891794e+002, 2.734148e+003
2.896615e+002, 2.732387e+003
2.901436e+002, 2.730847e+003
2.906258e+002, 2.729762e+003
2.911079e+002, 2.729445e+003
2.915900e+002, 2.729847e+003
2.920721e+002, 2.730645e+003
2.925542e+002, 2.732109e+003
2.930363e+002, 2.733669e+003
2.935185e+002, 2.733569e+003
2.940006e+002, 2.731863e+003
2.944827e+002, 2.730798e+003
2.949648e+002, 2.732575e+003
2.954469e+002, 2.736422e+003
2.959290e+002, 2.739959e+003
2.964112e+002, 2.742838e+003
2.968933e+002, 2.745060e+003
2.973754e+002, 2.745980e+003
2.978575e+002, 2.745852e+003
2.983396e+002, 2.746429e+003
2.988217e+002, 2.749231e+003
2.993039e+002, 2.753462e+003
2.997860e+002, 2.757631e+003
3.002681e+002, 2.761668e+003
3.007502e+002, 2.765246e+003
3.012323e+002, 2.767688e+003
3.017144e+002, 2.769256e+003
3.021966e+002, 2.770754e+003
3.026787e+002, 2.772704e+003
3.031608e+002, 2.774828e+003
3.036429e+002, 2.776661e+003
3.041250e+002, 2.778083e+003
3.046071e+002, 2.779751e+003
3.050893e+002, 2.782416e+003
3.055714e+002, 2.785779e+003
3.060535e+002, 2.789103e+003
3.065356e+002, 2.792898e+003
3.070177e+002, 2.796056e+003
3.074998e+002, 2.796889e+003
3.079820e+002, 2.795368e+003
3.084641e+002, 2.794059e+003
3.089462e+002, 2.795023e+003
3.094283e+002, 2.797293e+003
3.099104e+002, 2.799544e+003
3.103925e+002, 2.801640e+003
3.108747e+002, 2.803307e+003
3.113568e+002, 2.803608e+003
3.118389e+002, 2.802879e+003
3.123210e+002, 2.803479e+003
3.128031e+002, 2.808162e+003
3.132852e+002, 2.814168e+003
3.137674e+002, 2.818809e+003
3.142495e+002, 2.820229e+003
3.147316e+002, 2.821542e+003
3.152137e+002, 2.824760e+003
3.156958e+002, 2.829204e+003
3.161779e+002, 2.832607e+003
3.166601e+002, 2.833705e+003
3.171422e+002, 2.833604e+003
3.176243e+002, 2.832824e+003
3.181064e+002, 2.830958e+003
3.185885e+002, 2.829425e+003
3.190706e+002, 2.828440e+003
3.195528e+002, 2.828099e+003
3.200349e+002, 2.828603e+003
3.205170e+002, 2.831121e+003
3.209991e+002, 2.833559e+003
3.214812e+002, 2.834939e+003
3.219633e+002, 2.834911e+003
3.224455e+002, 2.834798e+003
3.229276e+002, 2.834918e+003
3.234097e+002, 2.835090e+003
3.238918e+002, 2.835102e+003
3.243739e+002, 2.835241e+003
3.248560e+002, 2.834944e+003
3.253382e+002, 2.833743e+003
3.258203e+002, 2.831460e+003
3.263024e+002, 2.830161e+003
3.267845e+002, 2.830630e+003
3.272666e+002, 2.831820e+003
3.277487e+002, 2.832898e+003
3.282309e+002, 2.832991e+003
3.287130e+002, 2.834024e+003
3.291951e+002, 2.837376e+003
3.296772e+002, 2.842556e+003
3.301593e+002, 2.844585e+003
3.306414e+002, 2.842054e+003
3.311236e+002, 2.837667e+003
3.316057e+002, 2.832572e+003
3.320878e+002, 2.824850e+003
3.325699e+002, 2.819869e+003
3.330520e+002, 2.818966e+003
3.335341e+002, 2.820667e+003
3.340163e+002, 2.820903e+003
3.344984e+002, 2.818929e+003
3.349805e+002, 2.816690e+003
3.354626e+002, 2.814866e+003
3.359447e+002, 2.813385e+003
3.364268e+002, 2.812784e+003
3.369090e+002, 2.813650e+003
3.373911e+002, 2.814834e+003
3.378732e+002, 2.814103e+003
3.383553e+002, 2.810624e+003
3.388374e+002, 2.808347e+003
3.393195e+002, 2.809333e+003
3.398017e+002, 2.813390e+003
3.402838e+002, 2.813719e+003
3.407659e+002, 2.808981e+003
3.412480e+002, 2.804015e+003
3.417301e+002, 2.804790e+003
3.422122e+002, 2.811807e+003
3.426944e+002, 2.817092e+003
3.431765e+002, 2.818608e+003
3.436586e+002, 2.817234e+003
3.441407e+002, 2.815380e+003
3.446228e+002, 2.812943e+003
3.451049e+002, 2.811087e+003
3.455871e+002, 2.810745e+003
3.460692e+002, 2.811804e+003
3.465513e+002, 2.813616e+003
3.470334e+002, 2.816163e+003
3.475155e+002, 2.819249e+003
3.479977e+002, 2.822979e+003
3.484798e+002, 2.827222e+003
3.489619e+002, 2.830625e+003
3.494440e+002, 2.831665e+003
3.499261e+002, 2.831395e+003
3.504082e+002, 2.832341e+003
3.508904e+002, 2.834781e+003
3.513725e+002, 2.837628e+003
3.518546e+002, 2.839464e+003
3.523367e+002, 2.840789e+003
3.528188e+002, 2.842927e+003
3.533009e+002, 2.847467e+003
3.537831e+002, 2.852587e+003
3.542652e+002, 2.855394e+003
3.547473e+002, 2.856039e+003
3.552294e+002, 2.857865e+003
3.557115e+002, 2.865316e+003
3.561936e+002, 2.874802e+003
3.566758e+002, 2.881432e+003
3.571579e+002, 2.882028e+003
3.576400e+002, 2.881722e+003
3.581221e+002, 2.884133e+003
3.586042e+002, 2.888729e+003
3.590863e+002, 2.893646e+003
3.595685e+002, 2.898164e+003
3.600506e+002, 2.902539e+003
3.605327e+002, 2.906961e+003
3.610148e+002, 2.911485e+003
3.614969e+002, 2.916046e+003
3.619790e+002, 2.920368e+003
3.624612e+002, 2.924735e+003
3.629433e+002, 2.929696e+003
3.634254e+002, 2.936262e+003
3.639075e+002, 2.942680e+003
3.643896e+002, 2.947839e+003
3.648717e+002, 2.951353e+003
3.653539e+002, 2.955970e+003
3.658360e+002, 2.963764e+003
3.663181e+002, 2.972104e+003
3.668002e+002, 2.978758e+003
3.672823e+002, 2.981480e+003
3.677644e+002, 2.984651e+003
3.682466e+002, 2.989283e+003
3.687287e+002, 2.995212e+003
3.692108e+002, 3.000290e+003
3.696929e+002, 3.004460e+003
3.701750e+002, 3.007894e+003
3.706571e+002, 3.010677e+003
3.711393e+002, 3.013063e+003
3.716214e+002, 3.014398e+003
3.721035e+002, 3.014239e+003
3.725856e+002, 3.013217e+003
3.730677e+002, 3.012901e+003
3.735498e+002, 3.014106e+003
3.740320e+002, 3.014474e+003
3.745141e+002, 3.012721e+003
3.749962e+002, 3.008435e+003
3.754783e+002, 3.006161e+003
3.759604e+002, 3.006922e+003
3.764425e+002, 3.008072e+003
3.769247e+002, 3.006160e+003
3.774068e+002, 3.000727e+003
3.778889e+002, 2.995149e+003
3.783710e+002, 2.990220e+003
3.788531e+002, 2.985833e+003
3.793352e+002, 2.981745e+003
3.798174e+002, 2.978147e+003
3.802995e+002, 2.973757e+003
3.807816e+002, 2.967174e+003
3.812637e+002, 2.958636e+003
3.817458e+002, 2.950595e+003
3.822279e+002, 2.943285e+003
3.827101e+002, 2.936610e+003
3.831922e+002, 2.930336e+003
3.836743e+002, 2.924398e+003
3.841564e+002, 2.918733e+003
3.846385e+002, 2.913526e+003
3.851206e+002, 2.908478e+003
3.856028e+002, 2.902660e+003
3.860849e+002, 2.895940e+003
3.865670e+002, 2.889623e+003
3.870491e+002, 2.885388e+003
3.875312e+002, 2.882358e+003
3.880133e+002, 2.878722e+003
3.884955e+002, 2.873124e+003
3.889776e+002, 2.867199e+003
3.894597e+002, 2.862648e+003
3.899418e+002, 2.859269e+003
3.904239e+002, 2.855896e+003
3.909060e+002, 2.851405e+003
3.913882e+002, 2.846817e+003
3.918703e+002, 2.843175e+003
3.923524e+002, 2.841082e+003
3.928345e+002, 2.839037e+003
3.933166e+002, 2.836094e+003
3.937987e+002, 2.832679e+003
3.942809e+002, 2.829701e+003
3.947630e+002, 2.827649e+003
3.952451e+002, 2.825894e+003
3.957272e+002, 2.824454e+003
3.962093e+002, 2.823540e+003
3.966914e+002, 2.821471e+003
3.971736e+002, 2.816283e+003
3.976557e+002, 2.810536e+003
3.981378e+002, 2.806563e+003
3.986199e+002, 2.807561e+003
3.991020e+002, 2.806992e+003
3.995841e+002, 2.803256e+003
4.000663e+002, 2.796892e+003
4.005484e+002, 2.791551e+003
4.010305e+002, 2.787541e+003
4.015126e+002, 2.784233e+003
4.019947e+002, 2.781572e+003
4.024768e+002, 2.780714e+003
4.029590e+002, 2.777789e+003
4.034411e+002, 2.771970e+003
4.039232e+002, 2.764779e+003
4.044053e+002, 2.759003e+003
4.048874e+002, 2.755207e+003
4.053695e+002, 2.751170e+003
4.058517e+002, 2.745692e+003
4.063338e+002, 2.739059e+003
4.068159e+002, 2.734880e+003
4.072980e+002, 2.733613e+003
4.077801e+002, 2.733257e+003
4.082622e+002, 2.732024e+003
4.087444e+002, 2.729931e+003
4.092265e+002, 2.727489e+003
4.097086e+002, 2.724299e+003
4.101907e+002, 2.721379e+003
4.106728e+002, 2.721573e+003
4.111549e+002, 2.724546e+003
4.116371e+002, 2.726865e+003
4.121192e+002, 2.725809e+003
4.126013e+002, 2.722625e+003
4.130834e+002, 2.719924e+003
4.135655e+002, 2.717897e+003
4.140476e+002, 2.716307e+003
4.145298e+002, 2.715347e+003
4.150119e+002, 2.714615e+003
4.154940e+002, 2.713288e+003
4.159761e+002, 2.711160e+003
4.164582e+002, 2.708223e+003
4.169403e+002, 2.703923e+003
4.174225e+002, 2.698546e+003
4.179046e+002, 2.693849e+003
4.183867e+002, 2.691522e+003
4.188688e+002, 2.690052e+003
4.193509e+002, 2.688258e+003
4.198330e+002, 2.685816e+003
4.203152e+002, 2.683256e+003
4.207973e+002, 2.680897e+003
4.212794e+002, 2.678560e+003
4.217615e+002, 2.675892e+003
4.222436e+002, 2.671902e+003
4.227257e+002, 2.668469e+003
4.232079e+002, 2.666379e+003
4.236900e+002, 2.665854e+003
4.241721e+002, 2.665340e+003
4.246542e+002, 2.665212e+003
4.251363e+002, 2.664738e+003
4.256184e+002, 2.663285e+003
4.261006e+002, 2.659568e+003
4.265827e+002, 2.656883e+003
4.270648e+002, 2.656088e+003
4.275469e+002, 2.656413e+003
4.280290e+002, 2.655232e+003
4.285111e+002, 2.652023e+003
4.289933e+002, 2.648204e+003
4.294754e+002, 2.644033e+003
4.299575e+002, 2.639190e+003
4.304396e+002, 2.636168e+003
4.309217e+002, 2.635294e+003
4.314038e+002, 2.635417e+003
4.318860e+002, 2.635382e+003
4.323681e+002, 2.635212e+003
4.328502e+002, 2.634372e+003
4.333323e+002, 2.632567e+003
4.338144e+002, 2.630169e+003
4.342965e+002, 2.628079e+003
4.347787e+002, 2.626335e+003
4.352608e+002, 2.624878e+003
4.357429e+002, 2.624053e+003
4.362250e+002, 2.623523e+003
4.367071e+002, 2.622212e+003
4.371892e+002, 2.619831e+003
4.376714e+002, 2.617522e+003
4.381535e+002, 2.616508e+003
4.386356e+002, 2.616516e+003
4.391177e+002, 2.616948e+003
4.395998e+002, 2.618785e+003
4.400819e+002, 2.620021e+003
4.405641e+002, 2.618185e+003
4.410462e+002, 2.613562e+003
4.415283e+002, 2.609513e+003
4.420104e+002, 2.607749e+003
4.424925e+002, 2.607389e+003
4.429746e+002, 2.607851e+003
4.434568e+002, 2.609603e+003
4.439389e+002, 2.610989e+003
4.444210e+002, 2.611535e+003
4.449031e+002, 2.611347e+003
4.453852e+002, 2.610629e+003
4.458673e+002, 2.608989e+003
4.463495e+002, 2.607273e+003
4.468316e+002, 2.605544e+003
4.473137e+002, 2.603709e+003
4.477958e+002, 2.602878e+003
4.482779e+002, 2.604189e+003
4.487600e+002, 2.605628e+003
4.492422e+002, 2.605574e+003
4.497243e+002, 2.602834e+003
4.502064e+002, 2.601191e+003
4.506885e+002, 2.601182e+003
4.511706e+002, 2.602320e+003
4.516527e+002, 2.603386e+003
4.521349e+002, 2.604470e+003
4.526170e+002, 2.605108e+003
4.530991e+002, 2.604690e+003
4.535812e+002, 2.603280e+003
4.540633e+002, 2.603522e+003
4.545454e+002, 2.605733e+003
4.550276e+002, 2.607935e+003
4.555097e+002, 2.607695e+003
4.559918e+002, 2.605387e+003
4.564739e+002, 2.603268e+003
4.569560e+002, 2.601838e+003
4.574381e+002, 2.600843e+003
4.579203e+002, 2.600026e+003
4.584024e+002, 2.599344e+003
4.588845e+002, 2.598563e+003
4.593666e+002, 2.597280e+003
4.598488e+002, 2.595962e+003
4.603309e+002, 2.595217e+003
4.608130e+002, 2.595123e+003
4.612951e+002, 2.595349e+003
4.617772e+002, 2.596690e+003
4.622593e+002, 2.597885e+003
4.627415e+002, 2.597408e+003
4.632236e+002, 2.592575e+003
4.637057e+002, 2.588239e+003
4.641878e+002, 2.586328e+003
4.646699e+002, 2.586492e+003
4.651520e+002, 2.587464e+003
4.656342e+002, 2.590909e+003
4.661163e+002, 2.593456e+003
4.665984e+002, 2.593191e+003
4.670805e+002, 2.588300e+003
4.675626e+002, 2.585540e+003
4.680447e+002, 2.586859e+003
4.685269e+002, 2.589260e+003
4.690090e+002, 2.589576e+003
4.694911e+002, 2.586112e+003
4.699732e+002, 2.583747e+003
4.704553e+002, 2.583294e+003
4.709374e+002, 2.584438e+003
4.714196e+002, 2.586226e+003
4.719017e+002, 2.589103e+003
4.723838e+002, 2.591105e+003
4.728659e+002, 2.590558e+003
4.733480e+002, 2.587433e+003
4.738301e+002, 2.585889e+003
4.743123e+002, 2.586220e+003
4.747944e+002, 2.587106e+003
4.752765e+002, 2.586787e+003
4.757586e+002, 2.585527e+003
4.762407e+002, 2.584798e+003
4.767228e+002, 2.585286e+003
4.772050e+002, 2.586279e+003
4.776871e+002, 2.586951e+003
4.781692e+002, 2.587272e+003
4.786513e+002, 2.586986e+003
4.791334e+002, 2.585406e+003
4.796155e+002, 2.583467e+003
4.800977e+002, 2.582147e+003
4.805798e+002, 2.581607e+003
4.810619e+002, 2.581532e+003
4.815440e+002, 2.582149e+003
4.820261e+002, 2.583011e+003
4.825082e+002, 2.583594e+003
4.829904e+002, 2.583286e+003
4.834725e+002, 2.583170e+003
4.839546e+002, 2.583700e+003
4.844367e+002, 2.584730e+003
4.849188e+002, 2.585605e+003
4.854009e+002, 2.585728e+003
4.858831e+002, 2.586073e+003
4.863652e+002, 2.587036e+003
4.868473e+002, 2.588745e+003
4.873294e+002, 2.590407e+003
4.878115e+002, 2.592025e+003
4.882936e+002, 2.593507e+003
4.887758e+002, 2.594925e+003
4.892579e+002, 2.596569e+003
4.897400e+002, 2.596926e+003
4.902221e+002, 2.595209e+003
4.907042e+002, 2.592351e+003
4.911863e+002, 2.591108e+003
4.916685e+002, 2.591506e+003
4.921506e+002, 2.593196e+003
4.926327e+002, 2.597460e+003
4.931148e+002, 2.603255e+003
4.935969e+002, 2.604764e+003
4.940790e+002, 2.601664e+003
4.945612e+002, 2.597552e+003
4.950433e+002, 2.596007e+003
4.955254e+002, 2.596142e+003
4.960075e+002, 2.595887e+003
4.964896e+002, 2.594366e+003
4.969717e+002, 2.592804e+003
4.974539e+002, 2.591944e+003
4.979360e+002, 2.591937e+003
4.984181e+002, 2.593209e+003
4.989002e+002, 2.597436e+003
4.993823e+002, 2.601840e+003
4.998644e+002, 2.604508e+003
5.003466e+002, 2.605174e+003
5.008287e+002, 2.605823e+003
5.013108e+002, 2.606465e+003
5.017929e+002, 2.607589e+003
5.022750e+002, 2.609553e+003
5.027571e+002, 2.614424e+003
5.032393e+002, 2.617461e+003
5.037214e+002, 2.617254e+003
5.042035e+002, 2.615348e+003
5.046856e+002, 2.615122e+003
5.051677e+002, 2.617666e+003
5.056498e+002, 2.619929e+003
5.061320e+002, 2.621131e+003
5.066141e+002, 2.621306e+003
5.070962e+002, 2.620480e+003
5.075783e+002, 2.618399e+003
5.080604e+002, 2.616313e+003
5.085425e+002, 2.615610e+003
5.090247e+002, 2.616151e+003
5.095068e+002, 2.615530e+003
5.099889e+002, 2.613164e+003
5.104710e+002, 2.610615e+003
5.109531e+002, 2.610171e+003
5.114352e+002, 2.611453e+003
5.119174e+002, 2.613052e+003
5.123995e+002, 2.614847e+003
5.128816e+002, 2.616304e+003
5.133637e+002, 2.616714e+003
5.138458e+002, 2.616154e+003
5.143279e+002, 2.615187e+003
5.148101e+002, 2.612905e+003
5.152922e+002, 2.611048e+003
5.157743e+002, 2.611248e+003
5.162564e+002, 2.614266e+003
5.167385e+002, 2.617352e+003
5.172206e+002, 2.620470e+003
5.177028e+002, 2.622750e+003
5.181849e+002, 2.623191e+003
5.186670e+002, 2.618454e+003
5.191491e+002, 2.615588e+003
5.196312e+002, 2.616493e+003
5.201133e+002, 2.620256e+003
5.205955e+002, 2.623125e+003
5.210776e+002, 2.625433e+003
5.215597e+002, 2.626356e+003
5.220418e+002, 2.625042e+003
5.225239e+002, 2.621156e+003
5.230060e+002, 2.619380e+003
5.234882e+002, 2.620266e+003
5.239703e+002, 2.621833e+003
5.244524e+002, 2.621756e+003
5.249345e+002, 2.620199e+003
5.254166e+002, 2.619479e+003
5.258987e+002, 2.620207e+003
5.263809e+002, 2.621545e+003
5.268630e+002, 2.621858e+003
5.273451e+002, 2.621496e+003
5.278272e+002, 2.621960e+003
5.283093e+002, 2.624311e+003
5.287914e+002, 2.627634e+003
5.292736e+002, 2.631612e+003
5.297557e+002, 2.636066e+003
5.302378e+002, 2.638934e+003
5.307199e+002, 2.637251e+003
5.312020e+002, 2.634523e+003
5.316841e+002, 2.633639e+003
5.321663e+002, 2.635503e+003
5.326484e+002, 2.638362e+003
5.331305e+002, 2.644690e+003
5.336126e+002, 2.650935e+003
5.340947e+002, 2.652012e+003
5.345768e+002, 2.641288e+003
5.350590e+002, 2.633148e+003
5.355411e+002, 2.630882e+003
5.360232e+002, 2.633392e+003
5.365053e+002, 2.634034e+003
5.369874e+002, 2.632343e+003
5.374695e+002, 2.629950e+003
5.379517e+002, 2.627091e+003
5.384338e+002, 2.623606e+003
5.389159e+002, 2.623413e+003
5.393980e+002, 2.627198e+003
5.398801e+002, 2.631533e+003
5.403622e+002, 2.631843e+003
5.408444e+002, 2.629070e+003
5.413265e+002, 2.627915e+003
5.418086e+002, 2.629946e+003
5.422907e+002, 2.632847e+003
5.427728e+002, 2.633427e+003
5.432549e+002, 2.632363e+003
5.437371e+002, 2.631617e+003
5.442192e+002, 2.631098e+003
5.447013e+002, 2.632083e+003
5.451834e+002, 2.636954e+003
5.456655e+002, 2.645385e+003
5.461476e+002, 2.651521e+003
5.466298e+002, 2.651307e+003
5.471119e+002, 2.649121e+003
5.475940e+002, 2.647950e+003
5.480761e+002, 2.649398e+003
5.485582e+002, 2.649412e+003
5.490403e+002, 2.645959e+003
5.495225e+002, 2.641792e+003
5.500046e+002, 2.640362e+003
5.504867e+002, 2.643162e+003
5.509688e+002, 2.645653e+003
5.514509e+002, 2.646935e+003
5.519330e+002, 2.647376e+003
5.524152e+002, 2.648253e+003
5.528973e+002, 2.649546e+003
5.533794e+002, 2.651206e+003
5.538615e+002, 2.653232e+003
5.543436e+002, 2.655576e+003
5.548257e+002, 2.658221e+003
5.553079e+002, 2.661155e+003
5.557900e+002, 2.663944e+003
5.562721e+002, 2.666722e+003
5.567542e+002, 2.668954e+003
5.572363e+002, 2.669269e+003
5.577184e+002, 2.666680e+003
5.582006e+002, 2.664240e+003
5.586827e+002, 2.664299e+003
5.591648e+002, 2.666173e+003
5.596469e+002, 2.668694e+003
5.601290e+002, 2.673079e+003
5.606111e+002, 2.676419e+003
5.610933e+002, 2.676390e+003
5.615754e+002, 2.673724e+003
5.620575e+002, 2.673263e+003
5.625396e+002, 2.678485e+003
5.630217e+002, 2.683423e+003
5.635038e+002, 2.685376e+003
5.639860e+002, 2.683181e+003
5.644681e+002, 2.683544e+003
5.649502e+002, 2.687135e+003
5.654323e+002, 2.692210e+003
5.659144e+002, 2.697459e+003
5.663965e+002, 2.703031e+003
5.668787e+002, 2.707198e+003
5.673608e+002, 2.709373e+003
5.678429e+002, 2.710695e+003
5.683250e+002, 2.712997e+003
5.688071e+002, 2.716165e+003
5.692892e+002, 2.719475e+003
5.697714e+002, 2.722520e+003
5.702535e+002, 2.725572e+003
5.707356e+002, 2.728864e+003
5.712177e+002, 2.732446e+003
5.716998e+002, 2.736329e+003
5.721819e+002, 2.740770e+003
5.726641e+002, 2.745416e+003
5.731462e+002, 2.750085e+003
5.736283e+002, 2.754860e+003
5.741104e+002, 2.759139e+003
5.745925e+002, 2.762175e+003
5.750746e+002, 2.764918e+003
5.755568e+002, 2.768285e+003
5.760389e+002, 2.771857e+003
5.765210e+002, 2.776699e+003
5.770031e+002, 2.783657e+003
5.774852e+002, 2.791619e+003
5.779673e+002, 2.798406e+003
5.784495e+002, 2.804044e+003
5.789316e+002, 2.808640e+003
5.794137e+002, 2.811813e+003
5.798958e+002, 2.814067e+003
5.803779e+002, 2.818132e+003
5.808600e+002, 2.824103e+003
5.813422e+002, 2.829654e+003
5.818243e+002, 2.831622e+003
5.823064e+002, 2.832265e+003
5.827885e+002, 2.837445e+003
5.832706e+002, 2.847859e+003
5.837527e+002, 2.858665e+003
5.842349e+002, 2.867034e+003
5.847170e+002, 2.873121e+003
5.851991e+002, 2.876810e+003
5.856812e+002, 2.876321e+003
5.861633e+002, 2.876466e+003
5.866454e+002, 2.879824e+003
5.871276e+002, 2.885084e+003
5.876097e+002, 2.889836e+003
5.880918e+002, 2.894334e+003
5.885739e+002, 2.897411e+003
5.890560e+002, 2.897064e+003
5.895381e+002, 2.894365e+003
5.900203e+002, 2.898236e+003
5.905024e+002, 2.913425e+003
5.909845e+002, 2.925780e+003
5.914666e+002, 2.926585e+003
5.919487e+002, 2.915703e+003
5.924308e+002, 2.910647e+003
5.929130e+002, 2.912187e+003
5.933951e+002, 2.915785e+003
5.938772e+002, 2.917299e+003
5.943593e+002, 2.917255e+003
5.948414e+002, 2.917082e+003
5.953235e+002, 2.916810e+003
5.958057e+002, 2.917279e+003
5.962878e+002, 2.920509e+003
5.967699e+002, 2.924951e+003
5.972520e+002, 2.927671e+003
5.977341e+002, 2.925776e+003
5.982162e+002, 2.923532e+003
5.986984e+002, 2.922785e+003
5.991805e+002, 2.923345e+003
5.996626e+002, 2.924435e+003
6.001447e+002, 2.928518e+003
6.006268e+002, 2.930456e+003
6.011089e+002, 2.927175e+003
6.015911e+002, 2.917929e+003
6.020732e+002, 2.912877e+003
6.025553e+002, 2.913895e+003
6.030374e+002, 2.916196e+003
6.035195e+002, 2.916652e+003
6.040016e+002, 2.915221e+003
6.044838e+002, 2.912698e+003
6.049659e+002, 2.909125e+003
6.054480e+002, 2.904614e+003
6.059301e+002, 2.898325e+003
6.064122e+002, 2.891000e+003
6.068943e+002, 2.885702e+003
6.073765e+002, 2.884038e+003
6.078586e+002, 2.883401e+003
6.083407e+002, 2.881116e+003
6.088228e+002, 2.877604e+003
6.093049e+002, 2.873964e+003
6.097870e+002, 2.871531e+003
6.102692e+002, 2.868291e+003
6.107513e+002, 2.862370e+003
6.112334e+002, 2.854062e+003
6.117155e+002, 2.847102e+003
6.121976e+002, 2.843460e+003
6.126797e+002, 2.840187e+003
6.131619e+002, 2.836009e+003
6.136440e+002, 2.830742e+003
6.141261e+002, 2.825264e+003
6.146082e+002, 2.819311e+003
6.150903e+002, 2.813498e+003
6.155724e+002, 2.808398e+003
6.160546e+002, 2.804067e+003
6.165367e+002, 2.799576e+003
6.170188e+002, 2.794796e+003
6.175009e+002, 2.789956e+003
6.179830e+002, 2.785438e+003
6.184651e+002, 2.781143e+003
6.189473e+002, 2.776728e+003
6.194294e+002, 2.771975e+003
6.199115e+002, 2.767149e+003
6.203936e+002, 2.762193e+003
6.208757e+002, 2.757297e+003
6.213578e+002, 2.752987e+003
6.218400e+002, 2.750127e+003
6.223221e+002, 2.747341e+003
6.228042e+002, 2.744046e+003
6.232863e+002, 2.740201e+003
6.237684e+002, 2.735986e+003
6.242505e+002, 2.730517e+003
6.247327e+002, 2.725582e+003
6.252148e+002, 2.722241e+003
6.256969e+002, 2.720986e+003
6.261790e+002, 2.719414e+003
6.266611e+002, 2.717549e+003
6.271432e+002, 2.715384e+003
6.276254e+002, 2.712763e+003
6.281075e+002, 2.709727e+003
6.285896e+002, 2.706958e+003
6.290717e+002, 2.704636e+003
6.295538e+002, 2.702462e+003
6.300359e+002, 2.699916e+003
6.305181e+002, 2.697199e+003
6.310002e+002, 2.694795e+003
6.314823e+002, 2.693394e+003
6.319644e+002, 2.691854e+003
6.324465e+002, 2.689073e+003
6.329286e+002, 2.685418e+003
6.334108e+002, 2.682125e+003
6.338929e+002, 2.679835e+003
6.343750e+002, 2.677725e+003
6.348571e+002, 2.675629e+003
6.353392e+002, 2.673551e+003
6.358214e+002, 2.670660e+003
6.363035e+002, 2.665611e+003
6.367856e+002, 2.661682e+003
6.372677e+002, 2.661576e+003
6.377498e+002, 2.666263e+003
6.382319e+002, 2.667204e+003
6.387141e+002, 2.663812e+003
6.391962e+002, 2.659102e+003
6.396783e+002, 2.655988e+003
6.401604e+002, 2.654169e+003
6.406425e+002, 2.652459e+003
6.411246e+002, 2.650537e+003
6.416068e+002, 2.648978e+003
6.420889e+002, 2.648495e+003
6.425710e+002, 2.648745e+003
6.430531e+002, 2.649143e+003
6.435352e+002, 2.650274e+003
6.440173e+002, 2.650640e+003
6.444995e+002, 2.648802e+003
6.449816e+002, 2.645637e+003
6.454637e+002, 2.643645e+003
6.459458e+002, 2.644020e+003
6.464279e+002, 2.644753e+003
6.469100e+002, 2.645560e+003
6.473922e+002, 2.646390e+003
6.478743e+002, 2.646456e+003
6.483564e+002, 2.645309e+003
6.488385e+002, 2.644693e+003
6.493206e+002, 2.646064e+003
6.498027e+002, 2.649118e+003
6.502849e+002, 2.650742e+003
6.507670e+002, 2.650829e+003
6.512491e+002, 2.650996e+003
6.517312e+002, 2.652856e+003
6.522133e+002, 2.655704e+003
6.526954e+002, 2.658782e+003
6.531776e+002, 2.662320e+003
6.536597e+002, 2.664448e+003
6.541418e+002, 2.662647e+003
6.546239e+002, 2.659410e+003
6.551060e+002, 2.657634e+003
6.555881e+002, 2.658156e+003
6.560703e+002, 2.660024e+003
6.565524e+002, 2.663684e+003
6.570345e+002, 2.668479e+003
6.575166e+002, 2.673509e+003
6.579987e+002, 2.679630e+003
6.584808e+002, 2.683766e+003
6.589630e+002, 2.684611e+003
6.594451e+002, 2.683268e+003
6.599272e+002, 2.683174e+003
6.604093e+002, 2.684331e+003
6.608914e+002, 2.687079e+003
6.613735e+002, 2.693627e+003
6.618557e+002, 2.701162e+003
6.623378e+002, 2.703487e+003
6.628199e+002, 2.701229e+003
6.633020e+002, 2.699997e+003
6.637841e+002, 2.704675e+003
6.642662e+002, 2.710997e+003
6.647484e+002, 2.715790e+003
6.652305e+002, 2.718573e+003
6.657126e+002, 2.720284e+003
6.661947e+002, 2.721316e+003
6.666768e+002, 2.721185e+003
6.671589e+002, 2.719705e+003
6.676411e+002, 2.717316e+003
6.681232e+002, 2.712258e+003
6.686053e+002, 2.703387e+003
6.690874e+002, 2.693284e+003
6.695695e+002, 2.685086e+003
6.700516e+002, 2.678720e+003
6.705338e+002, 2.673289e+003
6.710159e+002, 2.668928e+003
6.714980e+002, 2.664634e+003
6.719801e+002, 2.658552e+003
6.724622e+002, 2.651304e+003
6.729443e+002, 2.644788e+003
6.734265e+002, 2.640209e+003
6.739086e+002, 2.636199e+003
6.743907e+002, 2.631314e+003
6.748728e+002, 2.626147e+003
6.753549e+002, 2.622558e+003
6.758370e+002, 2.622764e+003
6.763192e+002, 2.622960e+003
6.768013e+002, 2.621779e+003
6.772834e+002, 2.619342e+003
6.777655e+002, 2.616811e+003
6.782476e+002, 2.613630e+003
6.787297e+002, 2.611584e+003
6.792119e+002, 2.612164e+003
6.796940e+002, 2.615167e+003
6.801761e+002, 2.616330e+003
6.806582e+002, 2.615466e+003
6.811403e+002, 2.614540e+003
6.816224e+002, 2.615651e+003
6.821046e+002, 2.617738e+003
6.825867e+002, 2.618554e+003
6.830688e+002, 2.617651e+003
6.835509e+002, 2.616919e+003
6.840330e+002, 2.617502e+003
6.845151e+002, 2.618979e+003
6.849973e+002, 2.620948e+003
6.854794e+002, 2.623572e+003
6.859615e+002, 2.626278e+003
6.864436e+002, 2.628799e+003
6.869257e+002, 2.631484e+003
6.874078e+002, 2.635290e+003
6.878900e+002, 2.642295e+003
6.883721e+002, 2.644487e+003
6.888542e+002, 2.639192e+003
6.893363e+002, 2.630435e+003
6.898184e+002, 2.627054e+003
6.903005e+002, 2.628613e+003
6.907827e+002, 2.629438e+003
6.912648e+002, 2.626950e+003
6.917469e+002, 2.622993e+003
6.922290e+002, 2.619489e+003
6.927111e+002, 2.616627e+003
6.931932e+002, 2.615223e+003
6.936754e+002, 2.617352e+003
6.941575e+002, 2.619528e+003
6.946396e+002, 2.619201e+003
6.951217e+002, 2.616581e+003
6.956038e+002, 2.615380e+003
6.960859e+002, 2.618244e+003
6.965681e+002, 2.620386e+003
6.970502e+002, 2.619744e+003
6.975323e+002, 2.616176e+003
6.980144e+002, 2.613546e+003
6.984965e+002, 2.612104e+003
6.989786e+002, 2.610764e+003
6.994608e+002, 2.608176e+003
6.999429e+002, 2.604908e+003
7.004250e+002, 2.603986e+003
7.009071e+002, 2.605713e+003
7.013892e+002, 2.607498e+003
7.018713e+002, 2.606917e+003
7.023535e+002, 2.605154e+003
7.028356e+002, 2.603595e+003
7.033177e+002, 2.602459e+003
7.037998e+002, 2.601736e+003
7.042819e+002, 2.601660e+003
7.047640e+002, 2.601860e+003
7.052462e+002, 2.601950e+003
7.057283e+002, 2.601994e+003
7.062104e+002, 2.601642e+003
7.066925e+002, 2.600367e+003
7.071746e+002, 2.599148e+003
7.076567e+002, 2.600088e+003
7.081389e+002, 2.603396e+003
7.086210e+002, 2.605089e+003
7.091031e+002, 2.603805e+003
7.095852e+002, 2.601297e+003
7.100673e+002, 2.600616e+003
7.105494e+002, 2.601182e+003
7.110316e+002, 2.601208e+003
7.115137e+002, 2.598930e+003
7.119958e+002, 2.596723e+003
7.124779e+002, 2.596362e+003
7.129600e+002, 2.597369e+003
7.134421e+002, 2.598273e+003
7.139243e+002, 2.599106e+003
7.144064e+002, 2.599298e+003
7.148885e+002, 2.598167e+003
7.153706e+002, 2.596031e+003
7.158527e+002, 2.595864e+003
7.163348e+002, 2.598600e+003
7.168170e+002, 2.600431e+003
7.172991e+002, 2.598907e+003
7.177812e+002, 2.594848e+003
7.182633e+002, 2.592646e+003
7.187454e+002, 2.592234e+003
7.192275e+002, 2.592251e+003
7.197097e+002, 2.591434e+003
7.201918e+002, 2.590636e+003
7.206739e+002, 2.591279e+003
7.211560e+002, 2.593477e+003
7.216381e+002, 2.595011e+003
7.221202e+002, 2.594500e+003
7.226024e+002, 2.593200e+003
7.230845e+002, 2.591734e+003
7.235666e+002, 2.589658e+003
7.240487e+002, 2.589255e+003
7.245308e+002, 2.591582e+003
7.250129e+002, 2.594206e+003
7.254951e+002, 2.594964e+003
7.259772e+002, 2.593750e+003
7.264593e+002, 2.592726e+003
7.269414e+002, 2.592023e+003
7.274235e+002, 2.591581e+003
7.279056e+002, 2.591317e+003
7.283878e+002, 2.591244e+003
7.288699e+002, 2.591433e+003
7.293520e+002, 2.591948e+003
7.298341e+002, 2.592534e+003
7.303162e+002, 2.593285e+003
7.307983e+002, 2.593904e+003
7.312805e+002, 2.594036e+003
7.317626e+002, 2.593002e+003
7.322447e+002, 2.592269e+003
7.327268e+002, 2.592268e+003
7.332089e+002, 2.592508e+003
7.336910e+002, 2.592023e+003
7.341732e+002, 2.590512e+003
7.346553e+002, 2.589755e+003
7.351374e+002, 2.590235e+003
7.356195e+002, 2.591521e+003
7.361016e+002, 2.593073e+003
7.365837e+002, 2.594761e+003
7.370659e+002, 2.596047e+003
7.375480e+002, 2.597017e+003
7.380301e+002, 2.597124e+003
7.385122e+002, 2.594979e+003
7.389943e+002, 2.591523e+003
7.394764e+002, 2.589226e+003
7.399586e+002, 2.589469e+003
7.404407e+002, 2.590406e+003
7.409228e+002, 2.591919e+003
7.414049e+002, 2.593719e+003
7.418870e+002, 2.594558e+003
7.423691e+002, 2.594239e+003
7.428513e+002, 2.593446e+003
7.433334e+002, 2.592236e+003
7.438155e+002, 2.590818e+003
7.442976e+002, 2.590063e+003
7.447797e+002, 2.589968e+003
7.452618e+002, 2.590142e+003
7.457440e+002, 2.590767e+003
7.462261e+002, 2.591286e+003
7.467082e+002, 2.590795e+003
7.471903e+002, 2.589410e+003
7.476724e+002, 2.588321e+003
7.481545e+002, 2.588036e+003
7.486367e+002, 2.588195e+003
7.491188e+002, 2.588927e+003
7.496009e+002, 2.590382e+003
7.500830e+002, 2.590382e+003
7.505651e+002, 2.588135e+003
7.510472e+002, 2.585827e+003
7.515294e+002, 2.584825e+003
7.520115e+002, 2.585067e+003
7.524936e+002, 2.585198e+003
7.529757e+002, 2.585206e+003
7.534578e+002, 2.585240e+003
7.539399e+002, 2.585882e+003
7.544221e+002, 2.586470e+003
7.549042e+002, 2.585735e+003
7.553863e+002, 2.583444e+003
7.558684e+002, 2.581460e+003
7.563505e+002, 2.581081e+003
7.568326e+002, 2.581184e+003
7.573148e+002, 2.580674e+003
7.577969e+002, 2.578382e+003
7.582790e+002, 2.578651e+003
7.587611e+002, 2.582970e+003
7.592432e+002, 2.587862e+003
7.597253e+002, 2.590107e+003
7.602075e+002, 2.589641e+003
7.606896e+002, 2.589614e+003
7.611717e+002, 2.590359e+003
7.616538e+002, 2.590884e+003
7.621359e+002, 2.590095e+003
7.626180e+002, 2.588317e+003
7.631002e+002, 2.585792e+003
7.635823e+002, 2.581966e+003
7.640644e+002, 2.579556e+003
7.645465e+002, 2.580585e+003
7.650286e+002, 2.583550e+003
7.655107e+002, 2.586831e+003
7.659929e+002, 2.590462e+003
7.664750e+002, 2.594309e+003
7.669571e+002, 2.599660e+003
7.674392e+002, 2.603973e+003
7.679213e+002, 2.602988e+003
7.684034e+002, 2.596436e+003
7.688856e+002, 2.592257e+003
7.693677e+002, 2.592142e+003
7.698498e+002, 2.593440e+003
7.703319e+002, 2.592172e+003
7.708140e+002, 2.589805e+003
7.712961e+002, 2.589652e+003
7.717783e+002, 2.594125e+003
7.722604e+002, 2.598335e+003
7.727425e+002, 2.599612e+003
7.732246e+002, 2.599008e+003
7.737067e+002, 2.598136e+003
7.741888e+002, 2.596870e+003
7.746710e+002, 2.595852e+003
7.751531e+002, 2.595102e+003
7.756352e+002, 2.594693e+003
7.761173e+002, 2.595111e+003
7.765994e+002, 2.596413e+003
7.770815e+002, 2.596414e+003
7.775637e+002, 2.594003e+003
7.780458e+002, 2.591306e+003
7.785279e+002, 2.591705e+003
7.790100e+002, 2.594162e+003
7.794921e+002, 2.596337e+003
7.799742e+002, 2.596997e+003
7.804564e+002, 2.597452e+003
7.809385e+002, 2.598556e+003
7.814206e+002, 2.599813e+003
7.819027e+002, 2.600056e+003
7.823848e+002, 2.597961e+003
7.828669e+002, 2.597112e+003
7.833491e+002, 2.598690e+003
7.838312e+002, 2.601432e+003
7.843133e+002, 2.602304e+003
7.847954e+002, 2.601353e+003
7.852775e+002, 2.599461e+003
7.857596e+002, 2.596153e+003
7.862418e+002, 2.593260e+003
7.867239e+002, 2.594087e+003
7.872060e+002, 2.597376e+003
7.876881e+002, 2.600070e+003
7.881702e+002, 2.600738e+003
7.886523e+002, 2.600595e+003
7.891345e+002, 2.599450e+003
7.896166e+002, 2.597835e+003
7.900987e+002, 2.597270e+003
7.905808e+002, 2.598173e+003
7.910629e+002, 2.599312e+003
7.915450e+002, 2.600496e+003
7.920272e+002, 2.601641e+003
7.925093e+002, 2.602603e+003
7.929914e+002, 2.603355e+003
7.934735e+002, 2.603470e+003
7.939556e+002, 2.602113e+003
7.944377e+002, 2.600735e+003
7.949199e+002, 2.601374e+003
7.954020e+002, 2.603418e+003
7.958841e+002, 2.605215e+003
7.963662e+002, 2.606101e+003
7.968483e+002, 2.606674e+003
7.973304e+002, 2.607329e+003
7.978126e+002, 2.607827e+003
7.982947e+002, 2.607290e+003
7.987768e+002, 2.605369e+003
7.992589e+002, 2.603354e+003
7.997410e+002, 2.601366e+003
8.002231e+002, 2.599766e+003
8.007053e+002, 2.599815e+003
8.011874e+002, 2.601257e+003
8.016695e+002, 2.602622e+003
8.021516e+002, 2.602922e+003
8.026337e+002, 2.603081e+003
8.031158e+002, 2.604546e+003
8.035980e+002, 2.606557e+003
8.040801e+002, 2.607079e+003
8.045622e+002, 2.602446e+003
8.050443e+002, 2.599788e+003
8.055264e+002, 2.601792e+003
8.060085e+002, 2.606881e+003
8.064907e+002, 2.610096e+003
8.069728e+002, 2.611254e+003
8.074549e+002, 2.611272e+003
8.079370e+002, 2.609966e+003
8.084191e+002, 2.608233e+003
8.089012e+002, 2.608439e+003
8.093834e+002, 2.609956e+003
8.098655e+002, 2.610541e+003
8.103476e+002, 2.606780e+003
8.108297e+002, 2.603954e+003
8.113118e+002, 2.607093e+003
8.117939e+002, 2.613904e+003
8.122761e+002, 2.617442e+003
8.127582e+002, 2.614073e+003
8.132403e+002, 2.611011e+003
8.137224e+002, 2.609410e+003
8.142045e+002, 2.609169e+003
8.146866e+002, 2.610366e+003
8.151688e+002, 2.613000e+003
8.156509e+002, 2.615399e+003
8.161330e+002, 2.616693e+003
8.166151e+002, 2.617730e+003
8.170972e+002, 2.620276e+003
8.175793e+002, 2.623560e+003
8.180615e+002, 2.625685e+003
8.185436e+002, 2.624468e+003
8.190257e+002, 2.623323e+003
8.195078e+002, 2.624210e+003
8.199899e+002, 2.626097e+003
8.204720e+002, 2.626022e+003
8.209542e+002, 2.622882e+003
8.214363e+002, 2.620387e+003
8.219184e+002, 2.619336e+003
8.224005e+002, 2.619389e+003
8.228826e+002, 2.620247e+003
8.233647e+002, 2.621694e+003
8.238469e+002, 2.622400e+003
8.243290e+002, 2.621698e+003
8.248111e+002, 2.620364e+003
8.252932e+002, 2.618634e+003
8.257753e+002, 2.616863e+003
8.262574e+002, 2.615778e+003
8.267396e+002, 2.615409e+003
8.272217e+002, 2.616051e+003
8.277038e+002, 2.618522e+003
8.281859e+002, 2.621599e+003
8.286681e+002, 2.623020e+003
8.291502e+002, 2.622638e+003
8.296323e+002, 2.621272e+003
8.301144e+002, 2.618524e+003
8.305966e+002, 2.616088e+003
8.310787e+002, 2.616973e+003
8.315608e+002, 2.620142e+003
8.320429e+002, 2.623272e+003
8.325250e+002, 2.626192e+003
8.330071e+002, 2.627809e+003
8.334893e+002, 2.626828e+003
8.339714e+002, 2.624435e+003
8.344535e+002, 2.622438e+003
8.349356e+002, 2.620627e+003
8.354177e+002, 2.619808e+003
8.358998e+002, 2.620070e+003
8.363820e+002, 2.621313e+003
8.368641e+002, 2.623404e+003
8.373462e+002, 2.626344e+003
8.378283e+002, 2.630863e+003
8.383104e+002, 2.637966e+003
8.387925e+002, 2.643340e+003
8.392747e+002, 2.641210e+003
8.397568e+002, 2.635249e+003
8.402389e+002, 2.630448e+003
8.407210e+002, 2.628324e+003
8.412031e+002, 2.626992e+003
8.416852e+002, 2.626296e+003
8.421674e+002, 2.626119e+003
8.426495e+002, 2.626323e+003
8.431316e+002, 2.626838e+003
8.436137e+002, 2.628906e+003
8.440958e+002, 2.633323e+003
8.445779e+002, 2.636743e+003
8.450601e+002, 2.633644e+003
8.455422e+002, 2.627033e+003
8.460243e+002, 2.623437e+003
8.465064e+002, 2.624426e+003
8.469885e+002, 2.625755e+003
8.474706e+002, 2.624446e+003
8.479528e+002, 2.622773e+003
8.484349e+002, 2.622891e+003
8.489170e+002, 2.625887e+003
8.493991e+002, 2.627571e+003
8.498812e+002, 2.627384e+003
8.503633e+002, 2.626895e+003
8.508455e+002, 2.627822e+003
8.513276e+002, 2.629768e+003
8.518097e+002, 2.629983e+003
8.522918e+002, 2.628314e+003
8.527739e+002, 2.625936e+003
8.532560e+002, 2.622785e+003
8.537382e+002, 2.620073e+003
8.542203e+002, 2.619392e+003
8.547024e+002, 2.621185e+003
8.551845e+002, 2.621947e+003
8.556666e+002, 2.619680e+003
8.561487e+002, 2.617693e+003
8.566309e+002, 2.617778e+003
8.571130e+002, 2.619903e+003
8.575951e+002, 2.620965e+003
8.580772e+002, 2.620910e+003
8.585593e+002, 2.620419e+003
8.590414e+002, 2.619267e+003
8.595236e+002, 2.618276e+003
8.600057e+002, 2.619032e+003
8.604878e+002, 2.621328e+003
8.609699e+002, 2.623599e+003
8.614520e+002, 2.625518e+003
8.619341e+002, 2.626876e+003
8.624163e+002, 2.627199e+003
8.628984e+002, 2.626733e+003
8.633805e+002, 2.627283e+003
8.638626e+002, 2.629432e+003
8.643447e+002, 2.630614e+003
8.648268e+002, 2.629440e+003
8.653090e+002, 2.626930e+003
8.657911e+002, 2.625339e+003
8.662732e+002, 2.624607e+003
8.667553e+002, 2.624595e+003
8.672374e+002, 2.626091e+003
8.677195e+002, 2.627382e+003
8.682017e+002, 2.627291e+003
8.686838e+002, 2.626140e+003
8.691659e+002, 2.624859e+003
8.696480e+002, 2.623242e+003
8.701301e+002, 2.622017e+003
8.706122e+002, 2.621438e+003
8.710944e+002, 2.621222e+003
8.715765e+002, 2.621008e+003
8.720586e+002, 2.620738e+003
8.725407e+002, 2.619743e+003
8.730228e+002, 2.617644e+003
8.735049e+002, 2.615313e+003
8.739871e+002, 2.613373e+003
8.744692e+002, 2.611866e+003
8.749513e+002, 2.610811e+003
8.754334e+002, 2.610484e+003
8.759155e+002, 2.610354e+003
8.763976e+002, 2.610325e+003
8.768798e+002, 2.610511e+003
8.773619e+002, 2.611175e+003
8.778440e+002, 2.612349e+003
8.783261e+002, 2.613064e+003
8.788082e+002, 2.613172e+003
8.792903e+002, 2.612803e+003
8.797725e+002, 2.611437e+003
8.802546e+002, 2.609896e+003
8.807367e+002, 2.609462e+003
8.812188e+002, 2.610498e+003
8.817009e+002, 2.611776e+003
8.821830e+002, 2.613480e+003
8.826652e+002, 2.614710e+003
8.831473e+002, 2.614582e+003
8.836294e+002, 2.612638e+003
8.841115e+002, 2.612901e+003
8.845936e+002, 2.616025e+003
8.850757e+002, 2.618255e+003
8.855579e+002, 2.615411e+003
8.860400e+002, 2.610083e+003
8.865221e+002, 2.607815e+003
8.870042e+002, 2.608648e+003
8.874863e+002, 2.609290e+003
8.879684e+002, 2.607305e+003
8.884506e+002, 2.605296e+003
8.889327e+002, 2.604776e+003
8.894148e+002, 2.605711e+003
8.898969e+002, 2.607168e+003
8.903790e+002, 2.609904e+003
8.908611e+002, 2.610557e+003
8.913433e+002, 2.606078e+003
8.918254e+002, 2.599594e+003
8.923075e+002, 2.600552e+003
8.927896e+002, 2.607270e+003
8.932717e+002, 2.612487e+003
8.937538e+002, 2.610544e+003
8.942360e+002, 2.607950e+003
8.947181e+002, 2.608892e+003
8.952002e+002, 2.612043e+003
8.956823e+002, 2.613855e+003
8.961644e+002, 2.613473e+003
8.966465e+002, 2.613039e+003
8.971287e+002, 2.612799e+003
8.976108e+002, 2.612822e+003
8.980929e+002, 2.613450e+003
8.985750e+002, 2.614531e+003
8.990571e+002, 2.615385e+003
8.995392e+002, 2.616082e+003
9.000214e+002, 2.615889e+003
9.005035e+002, 2.613153e+003
9.009856e+002, 2.609730e+003
9.014677e+002, 2.607780e+003
9.019498e+002, 2.608995e+003
9.024319e+002, 2.609553e+003
9.029141e+002, 2.609209e+003
9.033962e+002, 2.608528e+003
9.038783e+002, 2.608084e+003
9.043604e+002, 2.607814e+003
9.048425e+002, 2.606830e+003
9.053246e+002, 2.605006e+003
9.058068e+002, 2.603679e+003
9.062889e+002, 2.604314e+003
9.067710e+002, 2.605667e+003
9.072531e+002, 2.606752e+003
9.077352e+002, 2.607462e+003
9.082173e+002, 2.607588e+003
9.086995e+002, 2.606421e+003
9.091816e+002, 2.605645e+003
9.096637e+002, 2.606200e+003
9.101458e+002, 2.607820e+003
9.106279e+002, 2.609056e+003
9.111100e+002, 2.609867e+003
9.115922e+002, 2.609203e+003
9.120743e+002, 2.604537e+003
9.125564e+002, 2.599621e+003
9.130385e+002, 2.598505e+003
9.135206e+002, 2.600367e+003
9.140027e+002, 2.602559e+003
9.144849e+002, 2.605740e+003
9.149670e+002, 2.607326e+003
9.154491e+002, 2.606197e+003
9.159312e+002, 2.603710e+003
9.164133e+002, 2.602740e+003
9.168954e+002, 2.603250e+003
9.173776e+002, 2.603874e+003
9.178597e+002, 2.604337e+003
9.183418e+002, 2.604615e+003
9.188239e+002, 2.604171e+003
9.193060e+002, 2.603704e+003
9.197881e+002, 2.604352e+003
9.202703e+002, 2.607560e+003
9.207524e+002, 2.609367e+003
9.212345e+002, 2.608248e+003
9.217166e+002, 2.606559e+003
9.221987e+002, 2.606373e+003
9.226808e+002, 2.607765e+003
9.231630e+002, 2.608063e+003
9.236451e+002, 2.607041e+003
9.241272e+002, 2.606682e+003
9.246093e+002, 2.610228e+003
9.250914e+002, 2.614417e+003
9.255735e+002, 2.614841e+003
9.260557e+002, 2.611264e+003
9.265378e+002, 2.608852e+003
9.270199e+002, 2.610112e+003
9.275020e+002, 2.611620e+003
9.279841e+002, 2.612078e+003
9.284662e+002, 2.611767e+003
9.289484e+002, 2.612792e+003
9.294305e+002, 2.615136e+003
9.299126e+002, 2.616449e+003
9.303947e+002, 2.615053e+003
9.308768e+002, 2.612695e+003
9.313589e+002, 2.611387e+003
9.318411e+002, 2.610723e+003
9.323232e+002, 2.609832e+003
9.328053e+002, 2.608164e+003
9.332874e+002, 2.606642e+003
9.337695e+002, 2.605168e+003
9.342516e+002, 2.604159e+003
9.347338e+002, 2.604077e+003
9.352159e+002, 2.604930e+003
9.356980e+002, 2.607810e+003
9.361801e+002, 2.613313e+003
9.366622e+002, 2.618537e+003
9.371443e+002, 2.621004e+003
9.376265e+002, 2.621219e+003
9.381086e+002, 2.619189e+003
9.385907e+002, 2.613970e+003
9.390728e+002, 2.610400e+003
9.395549e+002, 2.609590e+003
9.400370e+002, 2.610133e+003
9.405192e+002, 2.611473e+003
9.410013e+002, 2.613560e+003
9.414834e+002, 2.615551e+003
9.419655e+002, 2.617463e+003
9.424476e+002, 2.619880e+003
9.429297e+002, 2.624671e+003
9.434119e+002, 2.629019e+003
9.438940e+002, 2.629660e+003
9.443761e+002, 2.627267e+003
9.448582e+002, 2.625156e+003
9.453403e+002, 2.624546e+003
9.458224e+002, 2.623653e+003
9.463046e+002, 2.622039e+003
9.467867e+002, 2.620047e+003
9.472688e+002, 2.618314e+003
9.477509e+002, 2.616891e+003
9.482330e+002, 2.616271e+003
9.487151e+002, 2.616863e+003
9.491973e+002, 2.617626e+003
9.496794e+002, 2.617404e+003
9.501615e+002, 2.616935e+003
9.506436e+002, 2.617143e+003
9.511257e+002, 2.618702e+003
9.516078e+002, 2.620113e+003
9.520900e+002, 2.621607e+003
9.525721e+002, 2.622564e+003
9.530542e+002, 2.622004e+003
9.535363e+002, 2.620299e+003
9.540184e+002, 2.619906e+003
9.545005e+002, 2.620871e+003
9.549827e+002, 2.622009e+003
9.554648e+002, 2.622722e+003
9.559469e+002, 2.623057e+003
9.564290e+002, 2.622384e+003
9.569111e+002, 2.620917e+003
9.573932e+002, 2.621790e+003
9.578754e+002, 2.626649e+003
9.583575e+002, 2.629999e+003
9.588396e+002, 2.629519e+003
9.593217e+002, 2.627025e+003
9.598038e+002, 2.627110e+003
9.602859e+002, 2.629012e+003
9.607681e+002, 2.629996e+003
9.612502e+002, 2.628147e+003
9.617323e+002, 2.626651e+003
9.622144e+002, 2.628792e+003
9.626965e+002, 2.631653e+003
9.631786e+002, 2.631167e+003
9.636608e+002, 2.625300e+003
9.641429e+002, 2.621917e+003
9.646250e+002, 2.621762e+003
9.651071e+002, 2.622756e+003
9.655892e+002, 2.623318e+003
9.660714e+002, 2.623403e+003
9.665535e+002, 2.622708e+003
9.670356e+002, 2.621262e+003
9.675177e+002, 2.619924e+003
9.679998e+002, 2.619172e+003
9.684819e+002, 2.618629e+003
9.689641e+002, 2.617542e+003
9.694462e+002, 2.616258e+003
9.699283e+002, 2.618095e+003
9.704104e+002, 2.623579e+003
9.708925e+002, 2.627905e+003
9.713746e+002, 2.628557e+003
9.718568e+002, 2.627875e+003
9.723389e+002, 2.630225e+003
9.728210e+002, 2.633882e+003
9.733031e+002, 2.635231e+003
9.737852e+002, 2.629025e+003
9.742673e+002, 2.625741e+003
9.747495e+002, 2.628418e+003
9.752316e+002, 2.633863e+003
9.757137e+002, 2.639891e+003
9.761958e+002, 2.646734e+003
9.766779e+002, 2.648533e+003
9.771600e+002, 2.644527e+003
9.776422e+002, 2.639340e+003
9.781243e+002, 2.636088e+003
9.786064e+002, 2.634379e+003
9.790885e+002, 2.634411e+003
9.795706e+002, 2.636210e+003
9.800527e+002, 2.636633e+003
9.805349e+002, 2.632993e+003
9.810170e+002, 2.631412e+003
9.814991e+002, 2.635210e+003
9.819812e+002, 2.642044e+003
9.824633e+002, 2.643128e+003
9.829454e+002, 2.639343e+003
9.834276e+002, 2.636196e+003
9.839097e+002, 2.636593e+003
9.843918e+002, 2.637423e+003
9.848739e+002, 2.636343e+003
9.853560e+002, 2.634284e+003
9.858381e+002, 2.632625e+003
9.863203e+002, 2.630983e+003
9.868024e+002, 2.631133e+003
9.872845e+002, 2.633809e+003
9.877666e+002, 2.636678e+003
9.882487e+002, 2.636701e+003
9.887308e+002, 2.635152e+003
9.892130e+002, 2.635873e+003
9.896951e+002, 2.639072e+003
9.901772e+002, 2.641160e+003
9.906593e+002, 2.638339e+003
9.911414e+002, 2.635616e+003
9.916235e+002, 2.636078e+003
9.921057e+002, 2.639091e+003
9.925878e+002, 2.641316e+003
9.930699e+002, 2.642729e+003
9.935520e+002, 2.643248e+003
9.940341e+002, 2.642662e+003
9.945162e+002, 2.641427e+003
9.949984e+002, 2.639405e+003
9.954805e+002, 2.637392e+003
9.959626e+002, 2.636960e+003
9.964447e+002, 2.640190e+003
9.969268e+002, 2.642448e+003
9.974089e+002, 2.643028e+003
9.978911e+002, 2.642544e+003
9.983732e+002, 2.641035e+003
9.988553e+002, 2.638627e+003
9.993374e+002, 2.637977e+003
9.998195e+002, 2.639230e+003
1.000302e+003, 2.640902e+003
1.000784e+003, 2.642466e+003
1.001266e+003, 2.643484e+003
1.001748e+003, 2.643173e+003
1.002230e+003, 2.641696e+003
1.002712e+003, 2.641021e+003
1.003194e+003, 2.641215e+003
1.003676e+003, 2.642175e+003
1.004159e+003, 2.644047e+003
1.004641e+003, 2.646337e+003
1.005123e+003, 2.648608e+003
1.005605e+003, 2.650505e+003
1.006087e+003, 2.650661e+003
1.006569e+003, 2.647518e+003
1.007051e+003, 2.645760e+003
1.007533e+003, 2.650238e+003
1.008016e+003, 2.655380e+003
1.008498e+003, 2.655781e+003
1.008980e+003, 2.650098e+003
1.009462e+003, 2.647623e+003
1.009944e+003, 2.648645e+003
1.010426e+003, 2.650788e+003
1.010908e+003, 2.652621e+003
1.011390e+003, 2.654279e+003
1.011872e+003, 2.656117e+003
1.012355e+003, 2.657964e+003
1.012837e+003, 2.659165e+003
1.013319e+003, 2.658686e+003
1.013801e+003, 2.658515e+003
1.014283e+003, 2.659174e+003
1.014765e+003, 2.660157e+003
1.015247e+003, 2.660720e+003
1.015729e+003, 2.660822e+003
1.016211e+003, 2.659828e+003
1.016694e+003, 2.657230e+003
1.017176e+003, 2.655640e+003
1.017658e+003, 2.658989e+003
1.018140e+003, 2.663161e+003
1.018622e+003, 2.664113e+003
1.019104e+003, 2.660931e+003
1.019586e+003, 2.658729e+003
1.020068e+003, 2.657481e+003
1.020551e+003, 2.657526e+003
1.021033e+003, 2.660146e+003
1.021515e+003, 2.663501e+003
1.021997e+003, 2.662745e+003
1.022479e+003, 2.659155e+003
1.022961e+003, 2.656503e+003
1.023443e+003, 2.656051e+003
1.023925e+003, 2.657190e+003
1.024407e+003, 2.660712e+003
1.024890e+003, 2.665027e+003
1.025372e+003, 2.668415e+003
1.025854e+003, 2.670839e+003
1.026336e+003, 2.671958e+003
1.026818e+003, 2.671646e+003
1.027300e+003, 2.670849e+003
1.027782e+003, 2.669831e+003
1.028264e+003, 2.669133e+003
1.028746e+003, 2.669489e+003
1.029229e+003, 2.670945e+003
1.029711e+003, 2.672105e+003
1.030193e+003, 2.673239e+003
1.030675e+003, 2.673112e+003
1.031157e+003, 2.670439e+003
1.031639e+003, 2.667246e+003
1.032121e+003, 2.669029e+003
1.032603e+003, 2.674250e+003
1.033086e+003, 2.677999e+003
1.033568e+003, 2.678324e+003
1.034050e+003, 2.677950e+003
1.034532e+003, 2.677750e+003
1.035014e+003, 2.677677e+003
1.035496e+003, 2.677833e+003
1.035978e+003, 2.678402e+003
1.036460e+003, 2.677716e+003
1.036943e+003, 2.675695e+003
1.037425e+003, 2.673988e+003
1.037907e+003, 2.673851e+003
1.038389e+003, 2.674623e+003
1.038871e+003, 2.675715e+003
1.039353e+003, 2.677094e+003
1.039835e+003, 2.678731e+003
1.040317e+003, 2.680764e+003
1.040799e+003, 2.682798e+003
1.041281e+003, 2.685003e+003
1.041764e+003, 2.686775e+003
1.042246e+003, 2.686202e+003
1.042728e+003, 2.684396e+003
1.043210e+003, 2.685749e+003
1.043692e+003, 2.691575e+003
1.044174e+003, 2.695910e+003
1.044656e+003, 2.693156e+003
1.045138e+003, 2.689822e+003
1.045621e+003, 2.690329e+003
1.046103e+003, 2.694384e+003
1.046585e+003, 2.697891e+003
1.047067e+003, 2.700849e+003
1.047549e+003, 2.703004e+003
1.048031e+003, 2.703742e+003
1.048513e+003, 2.704281e+003
1.048995e+003, 2.705895e+003
1.049478e+003, 2.708350e+003
1.049960e+003, 2.711250e+003
1.050442e+003, 2.714770e+003
1.050924e+003, 2.718359e+003
1.051406e+003, 2.722098e+003
1.051888e+003, 2.725839e+003
1.052370e+003, 2.728869e+003
1.052852e+003, 2.731886e+003
1.053334e+003, 2.737764e+003
1.053817e+003, 2.746348e+003
1.054299e+003, 2.754902e+003
1.054781e+003, 2.761441e+003
1.055263e+003, 2.768106e+003
1.055745e+003, 2.774818e+003
1.056227e+003, 2.782731e+003
1.056709e+003, 2.795895e+003
1.057191e+003, 2.814711e+003
1.057673e+003, 2.830343e+003
1.058156e+003, 2.840337e+003
1.058638e+003, 2.849501e+003
1.059120e+003, 2.861486e+003
1.059602e+003, 2.876283e+003
1.060084e+003, 2.894645e+003
1.060566e+003, 2.917617e+003
1.061048e+003, 2.938446e+003
1.061530e+003, 2.956134e+003
1.062013e+003, 2.973713e+003
1.062495e+003, 2.992509e+003
1.062977e+003, 3.012255e+003
1.063459e+003, 3.033571e+003
1.063941e+003, 3.055593e+003
1.064423e+003, 3.076452e+003
1.064905e+003, 3.097122e+003
1.065387e+003, 3.114087e+003
1.065870e+003, 3.124802e+003
1.066352e+003, 3.132191e+003
1.066834e+003, 3.139766e+003
1.067316e+003, 3.147540e+003
1.067798e+003, 3.147505e+003
1.068280e+003, 3.139359e+003
1.068762e+003, 3.124635e+003
1.069244e+003, 3.102757e+003
1.069726e+003, 3.075941e+003
1.070208e+003, 3.045142e+003
1.070691e+003, 3.010847e+003
1.071173e+003, 2.976297e+003
1.071655e+003, 2.940175e+003
1.072137e+003, 2.907656e+003
1.072619e+003, 2.879682e+003
1.073101e+003, 2.854590e+003
1.073583e+003, 2.829221e+003
1.074065e+003, 2.805469e+003
1.074548e+003, 2.786522e+003
1.075030e+003, 2.773449e+003
1.075512e+003, 2.761776e+003
1.075994e+003, 2.750282e+003
1.076476e+003, 2.740281e+003
1.076958e+003, 2.732615e+003
1.077440e+003, 2.726860e+003
1.077922e+003, 2.721658e+003
1.078405e+003, 2.716973e+003
1.078887e+003, 2.712521e+003
1.079369e+003, 2.707639e+003
1.079851e+003, 2.703907e+003
1.080333e+003, 2.703014e+003
1.080815e+003, 2.703278e+003
1.081297e+003, 2.702680e+003
1.081779e+003, 2.700800e+003
1.082261e+003, 2.700989e+003
1.082744e+003, 2.703488e+003
1.083226e+003, 2.704941e+003
1.083708e+003, 2.701531e+003
1.084190e+003, 2.696899e+003
1.084672e+003, 2.694655e+003
1.085154e+003, 2.694439e+003
1.085636e+003, 2.694898e+003
1.086118e+003, 2.696726e+003
1.086601e+003, 2.697067e+003
1.087083e+003, 2.695001e+003
1.087565e+003, 2.692760e+003
1.088047e+003, 2.693794e+003
1.088529e+003, 2.696583e+003
1.089011e+003, 2.697749e+003
1.089493e+003, 2.696920e+003
1.089975e+003, 2.696367e+003
1.090458e+003, 2.697120e+003
1.090940e+003, 2.698236e+003
1.091422e+003, 2.699485e+003
1.091904e+003, 2.700743e+003
1.092386e+003, 2.702111e+003
1.092868e+003, 2.703304e+003
1.093350e+003, 2.702125e+003
1.093832e+003, 2.697087e+003
1.094314e+003, 2.692321e+003
1.094797e+003, 2.691082e+003
1.095279e+003, 2.691192e+003
1.095761e+003, 2.690681e+003
1.096243e+003, 2.689476e+003
1.096725e+003, 2.688313e+003
1.097207e+003, 2.687156e+003
1.097689e+003, 2.686781e+003
1.098171e+003, 2.688094e+003
1.098653e+003, 2.689958e+003
1.099136e+003, 2.691486e+003
1.099618e+003, 2.692510e+003
1.100100e+003, 2.692689e+003
1.100582e+003, 2.691513e+003
1.101064e+003, 2.690050e+003
1.101546e+003, 2.687889e+003
1.102028e+003, 2.686472e+003
1.102510e+003, 2.687755e+003
1.102993e+003, 2.690499e+003
1.103475e+003, 2.692353e+003
1.103957e+003, 2.693198e+003
1.104439e+003, 2.693016e+003
1.104921e+003, 2.690289e+003
1.105403e+003, 2.688544e+003
1.105885e+003, 2.689012e+003
1.106367e+003, 2.690548e+003
1.106849e+003, 2.691212e+003
1.107332e+003, 2.691158e+003
1.107814e+003, 2.690943e+003
1.108296e+003, 2.690612e+003
1.108778e+003, 2.690897e+003
1.109260e+003, 2.693251e+003
1.109742e+003, 2.695465e+003
1.110224e+003, 2.695943e+003
1.110706e+003, 2.695017e+003
1.111188e+003, 2.694237e+003
1.111671e+003, 2.693556e+003
1.112153e+003, 2.693981e+003
1.112635e+003, 2.696300e+003
1.113117e+003, 2.698548e+003
1.113599e+003, 2.698471e+003
1.114081e+003, 2.697379e+003
1.114563e+003, 2.696677e+003
1.115045e+003, 2.696431e+003
1.115528e+003, 2.697245e+003
1.116010e+003, 2.699491e+003
1.116492e+003, 2.701249e+003
1.116974e+003, 2.700984e+003
1.117456e+003, 2.700024e+003
1.117938e+003, 2.700651e+003
1.118420e+003, 2.702250e+003
1.118902e+003, 2.703473e+003
1.119385e+003, 2.704616e+003
1.119867e+003, 2.704182e+003
1.120349e+003, 2.701645e+003
1.120831e+003, 2.698566e+003
1.121313e+003, 2.695948e+003
1.121795e+003, 2.694019e+003
1.122277e+003, 2.693707e+003
1.122759e+003, 2.694783e+003
1.123241e+003, 2.695832e+003
1.123724e+003, 2.695606e+003
1.124206e+003, 2.695995e+003
1.124688e+003, 2.697750e+003
1.125170e+003, 2.700085e+003
1.125652e+003, 2.702021e+003
1.126134e+003, 2.703480e+003
1.126616e+003, 2.703594e+003
1.127098e+003, 2.702214e+003
1.127580e+003, 2.701243e+003
1.128063e+003, 2.702911e+003
1.128545e+003, 2.704524e+003
1.129027e+003, 2.703985e+003
1.129509e+003, 2.702079e+003
1.129991e+003, 2.701602e+003
1.130473e+003, 2.702620e+003
1.130955e+003, 2.703133e+003
1.131437e+003, 2.702419e+003
1.131920e+003, 2.702017e+003
1.132402e+003, 2.704374e+003
1.132884e+003, 2.707098e+003
1.133366e+003, 2.707355e+003
1.133848e+003, 2.704721e+003
1.134330e+003, 2.704176e+003
1.134812e+003, 2.706129e+003
1.135294e+003, 2.707737e+003
1.135776e+003, 2.707141e+003
1.136259e+003, 2.706511e+003
1.136741e+003, 2.709836e+003
1.137223e+003, 2.714686e+003
1.137705e+003, 2.717160e+003
1.138187e+003, 2.714374e+003
1.138669e+003, 2.713960e+003
1.139151e+003, 2.716950e+003
1.139633e+003, 2.719721e+003
1.140115e+003, 2.719335e+003
1.140598e+003, 2.717294e+003
1.141080e+003, 2.716749e+003
1.141562e+003, 2.717239e+003
1.142044e+003, 2.717454e+003
1.142526e+003, 2.716013e+003
1.143008e+003, 2.715829e+003
1.143490e+003, 2.718072e+003
1.143972e+003, 2.720298e+003
1.144455e+003, 2.719760e+003
1.144937e+003, 2.717258e+003
1.145419e+003, 2.714940e+003
1.145901e+003, 2.713060e+003
1.146383e+003, 2.712348e+003
1.146865e+003, 2.714380e+003
1.147347e+003, 2.716184e+003
1.147829e+003, 2.716907e+003
1.148312e+003, 2.716925e+003
1.148794e+003, 2.716410e+003
1.149276e+003, 2.715587e+003
1.149758e+003, 2.716144e+003
1.150240e+003, 2.718280e+003
1.150722e+003, 2.720800e+003
1.151204e+003, 2.723398e+003
1.151686e+003, 2.725667e+003
1.152168e+003, 2.727441e+003
1.152651e+003, 2.728698e+003
1.153133e+003, 2.729407e+003
1.153615e+003, 2.729547e+003
1.154097e+003, 2.728442e+003
1.154579e+003, 2.725560e+003
1.155061e+003, 2.723477e+003
1.155543e+003, 2.725409e+003
1.156025e+003, 2.728152e+003
1.156507e+003, 2.728356e+003
1.156990e+003, 2.726426e+003
1.157472e+003, 2.727907e+003
1.157954e+003, 2.733165e+003
1.158436e+003, 2.736129e+003
1.158918e+003, 2.733864e+003
1.159400e+003, 2.730693e+003
1.159882e+003, 2.731157e+003
1.160364e+003, 2.733077e+003
1.160847e+003, 2.733447e+003
1.161329e+003, 2.731287e+003
1.161811e+003, 2.733482e+003
1.162293e+003, 2.741007e+003
1.162775e+003, 2.746549e+003
1.163257e+003, 2.745208e+003
1.163739e+003, 2.741278e+003
1.164221e+003, 2.739169e+003
1.164703e+003, 2.738575e+003
1.165186e+003, 2.739088e+003
1.165668e+003, 2.741127e+003
1.166150e+003, 2.743316e+003
1.166632e+003, 2.746028e+003
1.167114e+003, 2.747382e+003
1.167596e+003, 2.744239e+003
1.168078e+003, 2.739949e+003
1.168560e+003, 2.740937e+003
1.169042e+003, 2.745311e+003
1.169525e+003, 2.747972e+003
1.170007e+003, 2.746372e+003
1.170489e+003, 2.744808e+003
1.170971e+003, 2.743124e+003
1.171453e+003, 2.742473e+003
1.171935e+003, 2.745550e+003
1.172417e+003, 2.749765e+003
1.172899e+003, 2.748767e+003
1.173382e+003, 2.743698e+003
1.173864e+003, 2.741206e+003
1.174346e+003, 2.747442e+003
1.174828e+003, 2.750418e+003
1.175310e+003, 2.747267e+003
1.175792e+003, 2.742622e+003
1.176274e+003, 2.742890e+003
1.176756e+003, 2.746119e+003
1.177239e+003, 2.747286e+003
1.177721e+003, 2.746162e+003
1.178203e+003, 2.746376e+003
1.178685e+003, 2.751260e+003
1.179167e+003, 2.755081e+003
1.179649e+003, 2.756243e+003
1.180131e+003, 2.755953e+003
1.180613e+003, 2.756063e+003
1.181095e+003, 2.756553e+003
1.181578e+003, 2.757415e+003
1.182060e+003, 2.758666e+003
1.182542e+003, 2.760109e+003
1.183024e+003, 2.763154e+003
1.183506e+003, 2.764392e+003
1.183988e+003, 2.761718e+003
1.184470e+003, 2.757324e+003
1.184952e+003, 2.757320e+003
1.185434e+003, 2.760461e+003
1.185917e+003, 2.762309e+003
1.186399e+003, 2.761681e+003
1.186881e+003, 2.760517e+003
1.187363e+003, 2.757608e+003
1.187845e+003, 2.756886e+003
1.188327e+003, 2.760862e+003
1.188809e+003, 2.768097e+003
1.189291e+003, 2.774167e+003
1.189774e+003, 2.778806e+003
1.190256e+003, 2.780652e+003
1.190738e+003, 2.778176e+003
1.191220e+003, 2.775946e+003
1.191702e+003, 2.777019e+003
1.192184e+003, 2.778211e+003
1.192666e+003, 2.777242e+003
1.193148e+003, 2.774599e+003
1.193630e+003, 2.773510e+003
1.194113e+003, 2.773823e+003
1.194595e+003, 2.774703e+003
1.195077e+003, 2.776205e+003
1.195559e+003, 2.777479e+003
1.196041e+003, 2.778181e+003
1.196523e+003, 2.778402e+003
1.197005e+003, 2.778097e+003
1.197487e+003, 2.777325e+003
1.197969e+003, 2.776869e+003
1.198452e+003, 2.776715e+003
1.198934e+003, 2.776643e+003
1.199416e+003, 2.776525e+003
1.199898e+003, 2.776502e+003
1.200380e+003, 2.776495e+003
1.200862e+003, 2.776752e+003
1.201344e+003, 2.777791e+003
1.201826e+003, 2.779615e+003
1.202309e+003, 2.779656e+003
1.202791e+003, 2.778083e+003
1.203273e+003, 2.776955e+003
1.203755e+003, 2.777733e+003
1.204237e+003, 2.778951e+003
1.204719e+003, 2.779712e+003
1.205201e+003, 2.780599e+003
1.205683e+003, 2.782716e+003
1.206166e+003, 2.785973e+003
1.206648e+003, 2.787100e+003
1.207130e+003, 2.786091e+003
1.207612e+003, 2.785394e+003
1.208094e+003, 2.787607e+003
1.208576e+003, 2.789423e+003
1.209058e+003, 2.788378e+003
1.209540e+003, 2.786203e+003
1.210022e+003, 2.784976e+003
1.210505e+003, 2.784716e+003
1.210987e+003, 2.786897e+003
1.211469e+003, 2.791537e+003
1.211951e+003, 2.794398e+003
1.212433e+003, 2.789587e+003
1.212915e+003, 2.785548e+003
1.213397e+003, 2.788388e+003
1.213879e+003, 2.794416e+003
1.214361e+003, 2.798110e+003
1.214844e+003, 2.799486e+003
1.215326e+003, 2.797790e+003
1.215808e+003, 2.792902e+003
1.216290e+003, 2.788757e+003
1.216772e+003, 2.787819e+003
1.217254e+003, 2.788653e+003
1.217736e+003, 2.791541e+003
1.218218e+003, 2.795035e+003
1.218701e+003, 2.795857e+003
1.219183e+003, 2.794263e+003
1.219665e+003, 2.793463e+003
1.220147e+003, 2.793941e+003
1.220629e+003, 2.794881e+003
1.221111e+003, 2.795679e+003
1.221593e+003, 2.796902e+003
1.222075e+003, 2.799304e+003
1.222557e+003, 2.802090e+003
1.223040e+003, 2.803259e+003
1.223522e+003, 2.802927e+003
1.224004e+003, 2.801521e+003
1.224486e+003, 2.798932e+003
1.224968e+003, 2.797555e+003
1.225450e+003, 2.801103e+003
1.225932e+003, 2.803771e+003
1.226414e+003, 2.801769e+003
1.226896e+003, 2.797262e+003
1.227379e+003, 2.797602e+003
1.227861e+003, 2.801674e+003
1.228343e+003, 2.802828e+003
1.228825e+003, 2.798990e+003
1.229307e+003, 2.796327e+003
1.229789e+003, 2.799897e+003
1.230271e+003, 2.803754e+003
1.230753e+003, 2.804958e+003
1.231236e+003, 2.804122e+003
1.231718e+003, 2.802848e+003
1.232200e+003, 2.801324e+003
1.232682e+003, 2.800348e+003
1.233164e+003, 2.800046e+003
1.233646e+003, 2.800644e+003
1.234128e+003, 2.803147e+003
1.234610e+003, 2.805663e+003
1.235093e+003, 2.807574e+003
1.235575e+003, 2.808711e+003
1.236057e+003, 2.807748e+003
1.236539e+003, 2.805469e+003
1.237021e+003, 2.804606e+003
1.237503e+003, 2.806416e+003
1.237985e+003, 2.807858e+003
1.238467e+003, 2.807250e+003
1.238949e+003, 2.806735e+003
1.239432e+003, 2.807472e+003
1.239914e+003, 2.808789e+003
1.240396e+003, 2.808189e+003
1.240878e+003, 2.806486e+003
1.241360e+003, 2.806156e+003
1.241842e+003, 2.808538e+003
1.242324e+003, 2.810133e+003
1.242806e+003, 2.809348e+003
1.243288e+003, 2.809049e+003
1.243771e+003, 2.811156e+003
1.244253e+003, 2.814318e+003
1.244735e+003, 2.814311e+003
1.245217e+003, 2.812734e+003
1.245699e+003, 2.813808e+003
1.246181e+003, 2.820847e+003
1.246663e+003, 2.824108e+003
1.247145e+003, 2.821241e+003
1.247628e+003, 2.817696e+003
1.248110e+003, 2.816016e+003
1.248592e+003, 2.815954e+003
1.249074e+003, 2.818188e+003
1.249556e+003, 2.821353e+003
1.250038e+003, 2.822632e+003
1.250520e+003, 2.819750e+003
1.251002e+003, 2.819171e+003
1.251484e+003, 2.821785e+003
1.251967e+003, 2.824653e+003
1.252449e+003, 2.826091e+003
1.252931e+003, 2.826724e+003
1.253413e+003, 2.827609e+003
1.253895e+003, 2.828419e+003
1.254377e+003, 2.828310e+003
1.254859e+003, 2.825688e+003
1.255341e+003, 2.826677e+003
1.255823e+003, 2.831942e+003
1.256306e+003, 2.837662e+003
1.256788e+003, 2.842037e+003
1.257270e+003, 2.845102e+003
1.257752e+003, 2.847188e+003
1.258234e+003, 2.847871e+003
1.258716e+003, 2.846103e+003
1.259198e+003, 2.841176e+003
1.259680e+003, 2.837030e+003
1.260163e+003, 2.833675e+003
1.260645e+003, 2.831190e+003
1.261127e+003, 2.829325e+003
1.261609e+003, 2.828653e+003
1.262091e+003, 2.831023e+003
1.262573e+003, 2.834207e+003
1.263055e+003, 2.834881e+003
1.263537e+003, 2.832465e+003
1.264020e+003, 2.831423e+003
1.264502e+003, 2.831720e+003
1.264984e+003, 2.833033e+003
1.265466e+003, 2.835668e+003
1.265948e+003, 2.838546e+003
1.266430e+003, 2.841589e+003
1.266912e+003, 2.843945e+003
1.267394e+003, 2.844649e+003
1.267876e+003, 2.843657e+003
1.268359e+003, 2.842285e+003
1.268841e+003, 2.840647e+003
1.269323e+003, 2.839802e+003
1.269805e+003, 2.841073e+003
1.270287e+003, 2.842296e+003
1.270769e+003, 2.842081e+003
1.271251e+003, 2.841843e+003
1.271733e+003, 2.842933e+003
1.272215e+003, 2.845138e+003
1.272698e+003, 2.846346e+003
1.273180e+003, 2.846811e+003
1.273662e+003, 2.847563e+003
1.274144e+003, 2.850835e+003
1.274626e+003, 2.851751e+003
1.275108e+003, 2.847859e+003
1.275590e+003, 2.843718e+003
1.276072e+003, 2.842991e+003
1.276555e+003, 2.844864e+003
1.277037e+003, 2.847460e+003
1.277519e+003, 2.850289e+003
1.278001e+003, 2.851952e+003
1.278483e+003, 2.849741e+003
1.278965e+003, 2.849987e+003
1.279447e+003, 2.854019e+003
1.279929e+003, 2.857977e+003
1.280411e+003, 2.858698e+003
1.280894e+003, 2.857441e+003
1.281376e+003, 2.855615e+003
1.281858e+003, 2.853844e+003
1.282340e+003, 2.853555e+003
1.282822e+003, 2.855889e+003
1.283304e+003, 2.858216e+003
1.283786e+003, 2.860706e+003
1.284268e+003, 2.862441e+003
1.284750e+003, 2.860620e+003
1.285233e+003, 2.859676e+003
1.285715e+003, 2.867373e+003
1.286197e+003, 2.878596e+003
1.286679e+003, 2.883956e+003
1.287161e+003, 2.881101e+003
1.287643e+003, 2.881490e+003
1.288125e+003, 2.885308e+003
1.288607e+003, 2.886934e+003
1.289090e+003, 2.880590e+003
1.289572e+003, 2.873323e+003
1.290054e+003, 2.868649e+003
1.290536e+003, 2.866924e+003
1.291018e+003, 2.868880e+003
1.291500e+003, 2.874740e+003
1.291982e+003, 2.876821e+003
1.292464e+003, 2.875544e+003
1.292947e+003, 2.874911e+003
1.293429e+003, 2.878319e+003
1.293911e+003, 2.881073e+003
1.294393e+003, 2.880428e+003
1.294875e+003, 2.879106e+003
1.295357e+003, 2.879433e+003
1.295839e+003, 2.880781e+003
1.296321e+003, 2.879131e+003
1.296803e+003, 2.875564e+003
1.297286e+003, 2.873796e+003
1.297768e+003, 2.877021e+003
1.298250e+003, 2.879294e+003
1.298732e+003, 2.879266e+003
1.299214e+003, 2.879250e+003
1.299696e+003, 2.880519e+003
1.300178e+003, 2.882845e+003
1.300660e+003, 2.886930e+003
##END=



