##NAMES=Bjarebyite
##RRUFFID=R130107
##IDEAL CHEMISTRY=BaMn^2+^_2_Al_2_(PO_4_)_3_(OH)_3_
##LOCALITY=Buranga mine, Gatumba District, Western Province, Rwanda
##OWNER=RRUFF
##SOURCE=Rock Currier
##DESCRIPTION=Prismatic or granular light-yellow green crystals.
##STATUS=The identification of this mineral has been confirmed only by single crystal X-ray diffraction.
##URL=rruff.info/R130107
8.936163e+001, 0.000000e+000
8.984375e+001, 1.176372e+002
9.032587e+001, 1.189091e+002
9.080798e+001, 1.191438e+002
9.129010e+001, 1.179017e+002
9.177222e+001, 1.161337e+002
9.225433e+001, 1.150748e+002
9.273645e+001, 1.146575e+002
9.321857e+001, 1.142001e+002
9.370068e+001, 1.131149e+002
9.418280e+001, 1.115246e+002
9.466492e+001, 1.098205e+002
9.514703e+001, 1.079906e+002
9.562915e+001, 1.061643e+002
9.611127e+001, 1.046642e+002
9.659338e+001, 1.035195e+002
9.707550e+001, 1.026063e+002
9.755762e+001, 1.018003e+002
9.803973e+001, 1.010991e+002
9.852185e+001, 1.004673e+002
9.900397e+001, 9.992005e+001
9.948608e+001, 9.945827e+001
9.996820e+001, 9.894339e+001
1.004503e+002, 9.839760e+001
1.009324e+002, 9.776424e+001
1.014146e+002, 9.686605e+001
1.018967e+002, 9.558595e+001
1.023788e+002, 9.435313e+001
1.028609e+002, 9.343720e+001
1.033430e+002, 9.301574e+001
1.038251e+002, 9.234685e+001
1.043073e+002, 9.127720e+001
1.047894e+002, 8.990809e+001
1.052715e+002, 8.878310e+001
1.057536e+002, 8.802480e+001
1.062357e+002, 8.736464e+001
1.067178e+002, 8.658219e+001
1.072000e+002, 8.538116e+001
1.076821e+002, 8.450668e+001
1.081642e+002, 8.424764e+001
1.086463e+002, 8.468140e+001
1.091284e+002, 8.465440e+001
1.096105e+002, 8.388027e+001
1.100927e+002, 8.276676e+001
1.105748e+002, 8.170205e+001
1.110569e+002, 8.046894e+001
1.115390e+002, 7.949475e+001
1.120211e+002, 7.899230e+001
1.125032e+002, 7.915768e+001
1.129854e+002, 7.908432e+001
1.134675e+002, 7.862666e+001
1.139496e+002, 7.786671e+001
1.144317e+002, 7.691357e+001
1.149138e+002, 7.546101e+001
1.153959e+002, 7.407178e+001
1.158781e+002, 7.301987e+001
1.163602e+002, 7.243503e+001
1.168423e+002, 7.197423e+001
1.173244e+002, 7.161148e+001
1.178065e+002, 7.128994e+001
1.182886e+002, 7.086488e+001
1.187708e+002, 7.013878e+001
1.192529e+002, 6.935270e+001
1.197350e+002, 6.871763e+001
1.202171e+002, 6.844280e+001
1.206992e+002, 6.814132e+001
1.211813e+002, 6.748827e+001
1.216635e+002, 6.654747e+001
1.221456e+002, 6.568633e+001
1.226277e+002, 6.514693e+001
1.231098e+002, 6.482084e+001
1.235919e+002, 6.456828e+001
1.240740e+002, 6.445336e+001
1.245562e+002, 6.432011e+001
1.250383e+002, 6.396262e+001
1.255204e+002, 6.338104e+001
1.260025e+002, 6.278522e+001
1.264846e+002, 6.247788e+001
1.269667e+002, 6.231311e+001
1.274489e+002, 6.192618e+001
1.279310e+002, 6.085394e+001
1.284131e+002, 5.950228e+001
1.288952e+002, 5.871754e+001
1.293773e+002, 5.858204e+001
1.298594e+002, 5.871666e+001
1.303416e+002, 5.873944e+001
1.308237e+002, 5.864903e+001
1.313058e+002, 5.843689e+001
1.317879e+002, 5.798129e+001
1.322700e+002, 5.735944e+001
1.327521e+002, 5.701183e+001
1.332343e+002, 5.707501e+001
1.337164e+002, 5.723899e+001
1.341985e+002, 5.684453e+001
1.346806e+002, 5.585132e+001
1.351627e+002, 5.482866e+001
1.356448e+002, 5.415942e+001
1.361270e+002, 5.384423e+001
1.366091e+002, 5.359368e+001
1.370912e+002, 5.342607e+001
1.375733e+002, 5.327589e+001
1.380554e+002, 5.284412e+001
1.385375e+002, 5.202531e+001
1.390197e+002, 5.122871e+001
1.395018e+002, 5.080170e+001
1.399839e+002, 5.084026e+001
1.404660e+002, 5.084251e+001
1.409481e+002, 5.070276e+001
1.414302e+002, 5.043792e+001
1.419124e+002, 5.029469e+001
1.423945e+002, 5.038330e+001
1.428766e+002, 5.044321e+001
1.433587e+002, 5.019139e+001
1.438408e+002, 4.948198e+001
1.443229e+002, 4.876117e+001
1.448051e+002, 4.811961e+001
1.452872e+002, 4.755444e+001
1.457693e+002, 4.703572e+001
1.462514e+002, 4.656520e+001
1.467335e+002, 4.613314e+001
1.472156e+002, 4.569356e+001
1.476978e+002, 4.494922e+001
1.481799e+002, 4.457705e+001
1.486620e+002, 4.492573e+001
1.491441e+002, 4.659442e+001
1.496262e+002, 4.733694e+001
1.501083e+002, 4.644851e+001
1.505905e+002, 4.474052e+001
1.510726e+002, 4.362787e+001
1.515547e+002, 4.373985e+001
1.520368e+002, 4.391200e+001
1.525189e+002, 4.376249e+001
1.530010e+002, 4.292793e+001
1.534832e+002, 4.239338e+001
1.539653e+002, 4.248009e+001
1.544474e+002, 4.292417e+001
1.549295e+002, 4.309213e+001
1.554116e+002, 4.267017e+001
1.558937e+002, 4.212568e+001
1.563759e+002, 4.167744e+001
1.568580e+002, 4.151191e+001
1.573401e+002, 4.123307e+001
1.578222e+002, 4.055236e+001
1.583043e+002, 3.963703e+001
1.587864e+002, 3.910378e+001
1.592686e+002, 3.941298e+001
1.597507e+002, 3.998571e+001
1.602328e+002, 4.045724e+001
1.607149e+002, 4.102256e+001
1.611970e+002, 4.119252e+001
1.616791e+002, 4.044756e+001
1.621613e+002, 3.897566e+001
1.626434e+002, 3.795109e+001
1.631255e+002, 3.836629e+001
1.636076e+002, 3.923027e+001
1.640897e+002, 3.966021e+001
1.645718e+002, 3.894987e+001
1.650540e+002, 3.808832e+001
1.655361e+002, 3.750844e+001
1.660182e+002, 3.721085e+001
1.665003e+002, 3.710926e+001
1.669824e+002, 3.731535e+001
1.674645e+002, 3.764698e+001
1.679467e+002, 3.787653e+001
1.684288e+002, 3.789062e+001
1.689109e+002, 3.779321e+001
1.693930e+002, 3.762024e+001
1.698751e+002, 3.736834e+001
1.703572e+002, 3.714476e+001
1.708394e+002, 3.695625e+001
1.713215e+002, 3.684910e+001
1.718036e+002, 3.690221e+001
1.722857e+002, 3.743693e+001
1.727678e+002, 3.799962e+001
1.732499e+002, 3.805406e+001
1.737321e+002, 3.750739e+001
1.742142e+002, 3.690329e+001
1.746963e+002, 3.669981e+001
1.751784e+002, 3.678661e+001
1.756605e+002, 3.690284e+001
1.761426e+002, 3.688514e+001
1.766248e+002, 3.682799e+001
1.771069e+002, 3.689362e+001
1.775890e+002, 3.712942e+001
1.780711e+002, 3.734654e+001
1.785532e+002, 3.720536e+001
1.790353e+002, 3.682842e+001
1.795175e+002, 3.665955e+001
1.799996e+002, 3.722179e+001
1.804817e+002, 3.812357e+001
1.809638e+002, 3.854219e+001
1.814459e+002, 3.826354e+001
1.819280e+002, 3.780581e+001
1.824102e+002, 3.788156e+001
1.828923e+002, 3.842516e+001
1.833744e+002, 3.903068e+001
1.838565e+002, 3.944310e+001
1.843386e+002, 3.971674e+001
1.848207e+002, 3.999604e+001
1.853029e+002, 4.031034e+001
1.857850e+002, 4.062510e+001
1.862671e+002, 4.087365e+001
1.867492e+002, 4.105846e+001
1.872313e+002, 4.125481e+001
1.877134e+002, 4.153996e+001
1.881956e+002, 4.189203e+001
1.886777e+002, 4.219173e+001
1.891598e+002, 4.241801e+001
1.896419e+002, 4.258926e+001
1.901240e+002, 4.267208e+001
1.906061e+002, 4.265719e+001
1.910883e+002, 4.279573e+001
1.915704e+002, 4.341072e+001
1.920525e+002, 4.444532e+001
1.925346e+002, 4.524551e+001
1.930167e+002, 4.559042e+001
1.934988e+002, 4.567086e+001
1.939810e+002, 4.599696e+001
1.944631e+002, 4.656406e+001
1.949452e+002, 4.722113e+001
1.954273e+002, 4.760783e+001
1.959094e+002, 4.773365e+001
1.963915e+002, 4.806281e+001
1.968737e+002, 4.878809e+001
1.973558e+002, 4.973421e+001
1.978379e+002, 5.019477e+001
1.983200e+002, 5.006689e+001
1.988021e+002, 4.993610e+001
1.992842e+002, 5.041323e+001
1.997664e+002, 5.153575e+001
2.002485e+002, 5.248289e+001
2.007306e+002, 5.307934e+001
2.012127e+002, 5.337677e+001
2.016948e+002, 5.362620e+001
2.021769e+002, 5.380211e+001
2.026591e+002, 5.401329e+001
2.031412e+002, 5.440680e+001
2.036233e+002, 5.502399e+001
2.041054e+002, 5.552983e+001
2.045875e+002, 5.584888e+001
2.050696e+002, 5.599340e+001
2.055518e+002, 5.599455e+001
2.060339e+002, 5.575212e+001
2.065160e+002, 5.558593e+001
2.069981e+002, 5.595915e+001
2.074802e+002, 5.705465e+001
2.079623e+002, 5.780511e+001
2.084445e+002, 5.788302e+001
2.089266e+002, 5.731969e+001
2.094087e+002, 5.688356e+001
2.098908e+002, 5.665533e+001
2.103729e+002, 5.640213e+001
2.108550e+002, 5.582231e+001
2.113372e+002, 5.481343e+001
2.118193e+002, 5.386915e+001
2.123014e+002, 5.315068e+001
2.127835e+002, 5.266455e+001
2.132656e+002, 5.198627e+001
2.137477e+002, 5.105633e+001
2.142299e+002, 5.001623e+001
2.147120e+002, 4.901278e+001
2.151941e+002, 4.798815e+001
2.156762e+002, 4.713479e+001
2.161583e+002, 4.652776e+001
2.166404e+002, 4.618560e+001
2.171226e+002, 4.580418e+001
2.176047e+002, 4.536185e+001
2.180868e+002, 4.490520e+001
2.185689e+002, 4.447820e+001
2.190510e+002, 4.406786e+001
2.195331e+002, 4.371205e+001
2.200153e+002, 4.340934e+001
2.204974e+002, 4.315603e+001
2.209795e+002, 4.298623e+001
2.214616e+002, 4.289855e+001
2.219437e+002, 4.289335e+001
2.224258e+002, 4.295706e+001
2.229080e+002, 4.304175e+001
2.233901e+002, 4.330817e+001
2.238722e+002, 4.388936e+001
2.243543e+002, 4.487384e+001
2.248364e+002, 4.543274e+001
2.253185e+002, 4.538320e+001
2.258007e+002, 4.507431e+001
2.262828e+002, 4.494333e+001
2.267649e+002, 4.506997e+001
2.272470e+002, 4.521287e+001
2.277291e+002, 4.528046e+001
2.282112e+002, 4.524201e+001
2.286934e+002, 4.537718e+001
2.291755e+002, 4.576602e+001
2.296576e+002, 4.625657e+001
2.301397e+002, 4.666826e+001
2.306218e+002, 4.707131e+001
2.311039e+002, 4.727285e+001
2.315861e+002, 4.718173e+001
2.320682e+002, 4.674750e+001
2.325503e+002, 4.639432e+001
2.330324e+002, 4.623537e+001
2.335145e+002, 4.606718e+001
2.339966e+002, 4.559615e+001
2.344788e+002, 4.461346e+001
2.349609e+002, 4.370890e+001
2.354430e+002, 4.305024e+001
2.359251e+002, 4.267466e+001
2.364072e+002, 4.228429e+001
2.368893e+002, 4.188567e+001
2.373715e+002, 4.146618e+001
2.378536e+002, 4.101157e+001
2.383357e+002, 4.051078e+001
2.388178e+002, 3.997829e+001
2.392999e+002, 3.936579e+001
2.397820e+002, 3.863446e+001
2.402642e+002, 3.816174e+001
2.407463e+002, 3.804269e+001
2.412284e+002, 3.809991e+001
2.417105e+002, 3.812951e+001
2.421926e+002, 3.814318e+001
2.426747e+002, 3.810688e+001
2.431569e+002, 3.801150e+001
2.436390e+002, 3.785455e+001
2.441211e+002, 3.764569e+001
2.446032e+002, 3.734932e+001
2.450853e+002, 3.703120e+001
2.455674e+002, 3.677318e+001
2.460496e+002, 3.661812e+001
2.465317e+002, 3.643840e+001
2.470138e+002, 3.615359e+001
2.474959e+002, 3.573186e+001
2.479780e+002, 3.559646e+001
2.484601e+002, 3.591163e+001
2.489423e+002, 3.634989e+001
2.494244e+002, 3.654963e+001
2.499065e+002, 3.642551e+001
2.503886e+002, 3.622794e+001
2.508707e+002, 3.595481e+001
2.513528e+002, 3.559534e+001
2.518350e+002, 3.547496e+001
2.523171e+002, 3.571867e+001
2.527992e+002, 3.606575e+001
2.532813e+002, 3.624076e+001
2.537634e+002, 3.615079e+001
2.542455e+002, 3.608577e+001
2.547277e+002, 3.610802e+001
2.552098e+002, 3.621885e+001
2.556919e+002, 3.632800e+001
2.561740e+002, 3.645109e+001
2.566561e+002, 3.655178e+001
2.571382e+002, 3.656744e+001
2.576204e+002, 3.640583e+001
2.581025e+002, 3.639266e+001
2.585846e+002, 3.665981e+001
2.590667e+002, 3.718613e+001
2.595488e+002, 3.746120e+001
2.600309e+002, 3.735933e+001
2.605131e+002, 3.718317e+001
2.609952e+002, 3.721618e+001
2.614773e+002, 3.755310e+001
2.619594e+002, 3.783371e+001
2.624415e+002, 3.798466e+001
2.629236e+002, 3.802075e+001
2.634058e+002, 3.807269e+001
2.638879e+002, 3.813890e+001
2.643700e+002, 3.822540e+001
2.648521e+002, 3.835051e+001
2.653342e+002, 3.853678e+001
2.658163e+002, 3.867141e+001
2.662985e+002, 3.868693e+001
2.667806e+002, 3.863006e+001
2.672627e+002, 3.880935e+001
2.677448e+002, 3.931956e+001
2.682269e+002, 3.986431e+001
2.687090e+002, 4.021746e+001
2.691912e+002, 4.033899e+001
2.696733e+002, 4.044319e+001
2.701554e+002, 4.052672e+001
2.706375e+002, 4.061811e+001
2.711196e+002, 4.082216e+001
2.716017e+002, 4.113371e+001
2.720839e+002, 4.156884e+001
2.725660e+002, 4.221495e+001
2.730481e+002, 4.315002e+001
2.735302e+002, 4.377080e+001
2.740123e+002, 4.391559e+001
2.744944e+002, 4.378276e+001
2.749766e+002, 4.403045e+001
2.754587e+002, 4.478223e+001
2.759408e+002, 4.543369e+001
2.764229e+002, 4.556590e+001
2.769050e+002, 4.514233e+001
2.773871e+002, 4.471233e+001
2.778693e+002, 4.436034e+001
2.783514e+002, 4.397122e+001
2.788335e+002, 4.321624e+001
2.793156e+002, 4.202060e+001
2.797977e+002, 4.086095e+001
2.802798e+002, 3.999702e+001
2.807620e+002, 3.943665e+001
2.812441e+002, 3.897021e+001
2.817262e+002, 3.861993e+001
2.822083e+002, 3.830128e+001
2.826904e+002, 3.782502e+001
2.831725e+002, 3.717529e+001
2.836547e+002, 3.659010e+001
2.841368e+002, 3.621600e+001
2.846189e+002, 3.603712e+001
2.851010e+002, 3.582173e+001
2.855831e+002, 3.555523e+001
2.860652e+002, 3.527870e+001
2.865474e+002, 3.503642e+001
2.870295e+002, 3.482884e+001
2.875116e+002, 3.468252e+001
2.879937e+002, 3.464899e+001
2.884758e+002, 3.470076e+001
2.889579e+002, 3.466814e+001
2.894401e+002, 3.453930e+001
2.899222e+002, 3.438819e+001
2.904043e+002, 3.428162e+001
2.908864e+002, 3.422249e+001
2.913685e+002, 3.423563e+001
2.918506e+002, 3.434831e+001
2.923328e+002, 3.453856e+001
2.928149e+002, 3.477037e+001
2.932970e+002, 3.505260e+001
2.937791e+002, 3.528475e+001
2.942612e+002, 3.530210e+001
2.947433e+002, 3.516166e+001
2.952255e+002, 3.508678e+001
2.957076e+002, 3.513874e+001
2.961897e+002, 3.530929e+001
2.966718e+002, 3.566122e+001
2.971539e+002, 3.618666e+001
2.976360e+002, 3.663477e+001
2.981182e+002, 3.671164e+001
2.986003e+002, 3.654063e+001
2.990824e+002, 3.642775e+001
2.995645e+002, 3.644613e+001
3.000466e+002, 3.657220e+001
3.005287e+002, 3.679013e+001
3.010109e+002, 3.709326e+001
3.014930e+002, 3.744586e+001
3.019751e+002, 3.781701e+001
3.024572e+002, 3.821967e+001
3.029393e+002, 3.867894e+001
3.034214e+002, 3.923727e+001
3.039036e+002, 3.979657e+001
3.043857e+002, 4.024687e+001
3.048678e+002, 4.060604e+001
3.053499e+002, 4.094853e+001
3.058320e+002, 4.125642e+001
3.063141e+002, 4.159484e+001
3.067963e+002, 4.203904e+001
3.072784e+002, 4.261525e+001
3.077605e+002, 4.327168e+001
3.082426e+002, 4.412401e+001
3.087247e+002, 4.503852e+001
3.092068e+002, 4.569468e+001
3.096890e+002, 4.562443e+001
3.101711e+002, 4.539888e+001
3.106532e+002, 4.552821e+001
3.111353e+002, 4.611171e+001
3.116174e+002, 4.681334e+001
3.120995e+002, 4.767782e+001
3.125817e+002, 4.847505e+001
3.130638e+002, 4.884967e+001
3.135459e+002, 4.837889e+001
3.140280e+002, 4.765092e+001
3.145101e+002, 4.699102e+001
3.149922e+002, 4.642663e+001
3.154744e+002, 4.589384e+001
3.159565e+002, 4.540386e+001
3.164386e+002, 4.492010e+001
3.169207e+002, 4.440753e+001
3.174028e+002, 4.399549e+001
3.178849e+002, 4.342097e+001
3.183671e+002, 4.249134e+001
3.188492e+002, 4.121840e+001
3.193313e+002, 4.001554e+001
3.198134e+002, 3.888318e+001
3.202955e+002, 3.794216e+001
3.207776e+002, 3.729964e+001
3.212598e+002, 3.736016e+001
3.217419e+002, 3.730476e+001
3.222240e+002, 3.684643e+001
3.227061e+002, 3.606982e+001
3.231882e+002, 3.542412e+001
3.236703e+002, 3.514700e+001
3.241525e+002, 3.491697e+001
3.246346e+002, 3.455283e+001
3.251167e+002, 3.376950e+001
3.255988e+002, 3.321107e+001
3.260809e+002, 3.298523e+001
3.265630e+002, 3.302909e+001
3.270452e+002, 3.317055e+001
3.275273e+002, 3.352695e+001
3.280094e+002, 3.386954e+001
3.284915e+002, 3.412613e+001
3.289736e+002, 3.429638e+001
3.294557e+002, 3.437273e+001
3.299379e+002, 3.425160e+001
3.304200e+002, 3.406928e+001
3.309021e+002, 3.405339e+001
3.313842e+002, 3.436776e+001
3.318663e+002, 3.462833e+001
3.323484e+002, 3.469828e+001
3.328306e+002, 3.452562e+001
3.333127e+002, 3.449430e+001
3.337948e+002, 3.464470e+001
3.342769e+002, 3.490078e+001
3.347590e+002, 3.520038e+001
3.352411e+002, 3.562097e+001
3.357233e+002, 3.590559e+001
3.362054e+002, 3.592290e+001
3.366875e+002, 3.570433e+001
3.371696e+002, 3.578388e+001
3.376517e+002, 3.626036e+001
3.381339e+002, 3.684451e+001
3.386160e+002, 3.732027e+001
3.390981e+002, 3.769579e+001
3.395802e+002, 3.793557e+001
3.400623e+002, 3.801598e+001
3.405444e+002, 3.796343e+001
3.410266e+002, 3.781062e+001
3.415087e+002, 3.750984e+001
3.419908e+002, 3.732296e+001
3.424729e+002, 3.754018e+001
3.429550e+002, 3.815540e+001
3.434371e+002, 3.841177e+001
3.439193e+002, 3.818533e+001
3.444014e+002, 3.769178e+001
3.448835e+002, 3.727490e+001
3.453656e+002, 3.693473e+001
3.458477e+002, 3.666891e+001
3.463298e+002, 3.647076e+001
3.468120e+002, 3.634406e+001
3.472941e+002, 3.633417e+001
3.477762e+002, 3.645660e+001
3.482583e+002, 3.661911e+001
3.487404e+002, 3.672044e+001
3.492225e+002, 3.676967e+001
3.497047e+002, 3.680468e+001
3.501868e+002, 3.685575e+001
3.506689e+002, 3.689478e+001
3.511510e+002, 3.682771e+001
3.516331e+002, 3.665808e+001
3.521152e+002, 3.654926e+001
3.525974e+002, 3.676245e+001
3.530795e+002, 3.711742e+001
3.535616e+002, 3.727618e+001
3.540437e+002, 3.710620e+001
3.545258e+002, 3.675561e+001
3.550079e+002, 3.628479e+001
3.554901e+002, 3.573043e+001
3.559722e+002, 3.524709e+001
3.564543e+002, 3.496463e+001
3.569364e+002, 3.478629e+001
3.574185e+002, 3.462457e+001
3.579006e+002, 3.448783e+001
3.583828e+002, 3.430163e+001
3.588649e+002, 3.398468e+001
3.593470e+002, 3.358405e+001
3.598291e+002, 3.319264e+001
3.603112e+002, 3.276489e+001
3.607933e+002, 3.242331e+001
3.612755e+002, 3.226775e+001
3.617576e+002, 3.233170e+001
3.622397e+002, 3.239764e+001
3.627218e+002, 3.237127e+001
3.632039e+002, 3.230709e+001
3.636860e+002, 3.226600e+001
3.641682e+002, 3.235485e+001
3.646503e+002, 3.237989e+001
3.651324e+002, 3.224719e+001
3.656145e+002, 3.196265e+001
3.660966e+002, 3.170957e+001
3.665787e+002, 3.150286e+001
3.670609e+002, 3.134662e+001
3.675430e+002, 3.124349e+001
3.680251e+002, 3.125409e+001
3.685072e+002, 3.124635e+001
3.689893e+002, 3.120455e+001
3.694714e+002, 3.113742e+001
3.699536e+002, 3.106959e+001
3.704357e+002, 3.092866e+001
3.709178e+002, 3.086491e+001
3.713999e+002, 3.097192e+001
3.718820e+002, 3.140861e+001
3.723641e+002, 3.159258e+001
3.728463e+002, 3.138925e+001
3.733284e+002, 3.102015e+001
3.738105e+002, 3.083540e+001
3.742926e+002, 3.091548e+001
3.747747e+002, 3.099774e+001
3.752568e+002, 3.099796e+001
3.757390e+002, 3.091457e+001
3.762211e+002, 3.089041e+001
3.767032e+002, 3.094348e+001
3.771853e+002, 3.101695e+001
3.776674e+002, 3.106501e+001
3.781495e+002, 3.108884e+001
3.786317e+002, 3.106404e+001
3.791138e+002, 3.095059e+001
3.795959e+002, 3.080679e+001
3.800780e+002, 3.086161e+001
3.805601e+002, 3.113727e+001
3.810422e+002, 3.136397e+001
3.815244e+002, 3.130590e+001
3.820065e+002, 3.101798e+001
3.824886e+002, 3.079270e+001
3.829707e+002, 3.064853e+001
3.834528e+002, 3.060161e+001
3.839349e+002, 3.072729e+001
3.844171e+002, 3.099498e+001
3.848992e+002, 3.123413e+001
3.853813e+002, 3.130752e+001
3.858634e+002, 3.131796e+001
3.863455e+002, 3.148785e+001
3.868276e+002, 3.183098e+001
3.873098e+002, 3.212806e+001
3.877919e+002, 3.215955e+001
3.882740e+002, 3.201860e+001
3.887561e+002, 3.186993e+001
3.892382e+002, 3.173415e+001
3.897203e+002, 3.164351e+001
3.902025e+002, 3.165745e+001
3.906846e+002, 3.175421e+001
3.911667e+002, 3.183260e+001
3.916488e+002, 3.181680e+001
3.921309e+002, 3.176777e+001
3.926130e+002, 3.173683e+001
3.930952e+002, 3.174088e+001
3.935773e+002, 3.174964e+001
3.940594e+002, 3.175309e+001
3.945415e+002, 3.175267e+001
3.950236e+002, 3.175090e+001
3.955057e+002, 3.177439e+001
3.959879e+002, 3.177479e+001
3.964700e+002, 3.168129e+001
3.969521e+002, 3.144662e+001
3.974342e+002, 3.140437e+001
3.979163e+002, 3.186505e+001
3.983984e+002, 3.241702e+001
3.988806e+002, 3.268467e+001
3.993627e+002, 3.233962e+001
3.998448e+002, 3.205595e+001
4.003269e+002, 3.192255e+001
4.008090e+002, 3.192121e+001
4.012911e+002, 3.191690e+001
4.017733e+002, 3.189105e+001
4.022554e+002, 3.188376e+001
4.027375e+002, 3.192300e+001
4.032196e+002, 3.204402e+001
4.037017e+002, 3.210527e+001
4.041838e+002, 3.202676e+001
4.046660e+002, 3.194863e+001
4.051481e+002, 3.221864e+001
4.056302e+002, 3.298778e+001
4.061123e+002, 3.354898e+001
4.065944e+002, 3.356490e+001
4.070765e+002, 3.306850e+001
4.075587e+002, 3.277845e+001
4.080408e+002, 3.270416e+001
4.085229e+002, 3.278928e+001
4.090050e+002, 3.302846e+001
4.094871e+002, 3.340899e+001
4.099692e+002, 3.376451e+001
4.104514e+002, 3.406667e+001
4.109335e+002, 3.431697e+001
4.114156e+002, 3.450267e+001
4.118977e+002, 3.462655e+001
4.123798e+002, 3.474266e+001
4.128619e+002, 3.491528e+001
4.133441e+002, 3.509849e+001
4.138262e+002, 3.517928e+001
4.143083e+002, 3.512286e+001
4.147904e+002, 3.507755e+001
4.152725e+002, 3.519914e+001
4.157546e+002, 3.543876e+001
4.162368e+002, 3.569820e+001
4.167189e+002, 3.599721e+001
4.172010e+002, 3.625043e+001
4.176831e+002, 3.635945e+001
4.181652e+002, 3.633163e+001
4.186473e+002, 3.631794e+001
4.191295e+002, 3.648581e+001
4.196116e+002, 3.666138e+001
4.200937e+002, 3.667721e+001
4.205758e+002, 3.634892e+001
4.210579e+002, 3.606657e+001
4.215400e+002, 3.593968e+001
4.220222e+002, 3.594922e+001
4.225043e+002, 3.604446e+001
4.229864e+002, 3.629903e+001
4.234685e+002, 3.656339e+001
4.239506e+002, 3.677159e+001
4.244327e+002, 3.688374e+001
4.249149e+002, 3.706097e+001
4.253970e+002, 3.736523e+001
4.258791e+002, 3.770496e+001
4.263612e+002, 3.799642e+001
4.268433e+002, 3.824420e+001
4.273254e+002, 3.842430e+001
4.278076e+002, 3.847169e+001
4.282897e+002, 3.842755e+001
4.287718e+002, 3.860805e+001
4.292539e+002, 3.910175e+001
4.297360e+002, 3.963268e+001
4.302181e+002, 4.000770e+001
4.307003e+002, 4.018744e+001
4.311824e+002, 4.048972e+001
4.316645e+002, 4.096910e+001
4.321466e+002, 4.150317e+001
4.326287e+002, 4.183630e+001
4.331108e+002, 4.196069e+001
4.335930e+002, 4.216925e+001
4.340751e+002, 4.264265e+001
4.345572e+002, 4.327722e+001
4.350393e+002, 4.369588e+001
4.355214e+002, 4.389266e+001
4.360035e+002, 4.407240e+001
4.364857e+002, 4.450455e+001
4.369678e+002, 4.505349e+001
4.374499e+002, 4.538009e+001
4.379320e+002, 4.534848e+001
4.384141e+002, 4.519302e+001
4.388962e+002, 4.511892e+001
4.393784e+002, 4.512318e+001
4.398605e+002, 4.519758e+001
4.403426e+002, 4.540952e+001
4.408247e+002, 4.564319e+001
4.413068e+002, 4.575068e+001
4.417889e+002, 4.569764e+001
4.422711e+002, 4.578698e+001
4.427532e+002, 4.637357e+001
4.432353e+002, 4.709827e+001
4.437174e+002, 4.758813e+001
4.441995e+002, 4.744448e+001
4.446816e+002, 4.736190e+001
4.451638e+002, 4.753558e+001
4.456459e+002, 4.793310e+001
4.461280e+002, 4.840239e+001
4.466101e+002, 4.880159e+001
4.470922e+002, 4.936715e+001
4.475743e+002, 5.028593e+001
4.480565e+002, 5.189050e+001
4.485386e+002, 5.297083e+001
4.490207e+002, 5.321355e+001
4.495028e+002, 5.312295e+001
4.499849e+002, 5.334844e+001
4.504670e+002, 5.402517e+001
4.509492e+002, 5.471111e+001
4.514313e+002, 5.526197e+001
4.519134e+002, 5.572621e+001
4.523955e+002, 5.653313e+001
4.528776e+002, 5.779659e+001
4.533597e+002, 5.895977e+001
4.538419e+002, 5.960784e+001
4.543240e+002, 5.974610e+001
4.548061e+002, 5.976928e+001
4.552882e+002, 5.969958e+001
4.557703e+002, 5.954958e+001
4.562524e+002, 5.939494e+001
4.567346e+002, 5.920457e+001
4.572167e+002, 5.879369e+001
4.576988e+002, 5.790294e+001
4.581809e+002, 5.681681e+001
4.586630e+002, 5.608595e+001
4.591451e+002, 5.568961e+001
4.596273e+002, 5.520006e+001
4.601094e+002, 5.427236e+001
4.605915e+002, 5.307041e+001
4.610736e+002, 5.178166e+001
4.615557e+002, 5.036410e+001
4.620378e+002, 4.902188e+001
4.625200e+002, 4.786562e+001
4.630021e+002, 4.687324e+001
4.634842e+002, 4.602618e+001
4.639663e+002, 4.537856e+001
4.644484e+002, 4.481678e+001
4.649305e+002, 4.431440e+001
4.654127e+002, 4.387015e+001
4.658948e+002, 4.344524e+001
4.663769e+002, 4.302856e+001
4.668590e+002, 4.263464e+001
4.673411e+002, 4.227550e+001
4.678232e+002, 4.190294e+001
4.683054e+002, 4.162869e+001
4.687875e+002, 4.155580e+001
4.692696e+002, 4.156798e+001
4.697517e+002, 4.134547e+001
4.702338e+002, 4.071341e+001
4.707159e+002, 4.017655e+001
4.711981e+002, 3.995810e+001
4.716802e+002, 4.007590e+001
4.721623e+002, 4.004013e+001
4.726444e+002, 3.983341e+001
4.731265e+002, 3.952359e+001
4.736086e+002, 3.911961e+001
4.740908e+002, 3.862518e+001
4.745729e+002, 3.828809e+001
4.750550e+002, 3.818770e+001
4.755371e+002, 3.821132e+001
4.760192e+002, 3.819132e+001
4.765013e+002, 3.812106e+001
4.769835e+002, 3.795665e+001
4.774656e+002, 3.760639e+001
4.779477e+002, 3.716857e+001
4.784298e+002, 3.678443e+001
4.789119e+002, 3.645955e+001
4.793940e+002, 3.621145e+001
4.798762e+002, 3.599787e+001
4.803583e+002, 3.588774e+001
4.808404e+002, 3.599062e+001
4.813225e+002, 3.655854e+001
4.818046e+002, 3.704572e+001
4.822867e+002, 3.715755e+001
4.827689e+002, 3.697203e+001
4.832510e+002, 3.668860e+001
4.837331e+002, 3.618223e+001
4.842152e+002, 3.575520e+001
4.846973e+002, 3.557130e+001
4.851794e+002, 3.569237e+001
4.856616e+002, 3.578438e+001
4.861437e+002, 3.578234e+001
4.866258e+002, 3.576279e+001
4.871079e+002, 3.578559e+001
4.875900e+002, 3.588139e+001
4.880721e+002, 3.597175e+001
4.885543e+002, 3.608527e+001
4.890364e+002, 3.617731e+001
4.895185e+002, 3.608304e+001
4.900006e+002, 3.573118e+001
4.904827e+002, 3.542421e+001
4.909648e+002, 3.539306e+001
4.914470e+002, 3.560716e+001
4.919291e+002, 3.531115e+001
4.924112e+002, 3.440129e+001
4.928933e+002, 3.348962e+001
4.933754e+002, 3.331670e+001
4.938575e+002, 3.371538e+001
4.943397e+002, 3.394730e+001
4.948218e+002, 3.381597e+001
4.953039e+002, 3.351579e+001
4.957860e+002, 3.326736e+001
4.962681e+002, 3.306683e+001
4.967502e+002, 3.290095e+001
4.972324e+002, 3.276403e+001
4.977145e+002, 3.265572e+001
4.981966e+002, 3.257249e+001
4.986787e+002, 3.251326e+001
4.991608e+002, 3.248969e+001
4.996429e+002, 3.249081e+001
5.001251e+002, 3.253807e+001
5.006072e+002, 3.265766e+001
5.010893e+002, 3.297869e+001
5.015714e+002, 3.319795e+001
5.020535e+002, 3.321795e+001
5.025356e+002, 3.309228e+001
5.030178e+002, 3.294373e+001
5.034999e+002, 3.261144e+001
5.039820e+002, 3.244596e+001
5.044641e+002, 3.261364e+001
5.049462e+002, 3.313615e+001
5.054283e+002, 3.341052e+001
5.059105e+002, 3.332246e+001
5.063926e+002, 3.316123e+001
5.068747e+002, 3.315304e+001
5.073568e+002, 3.332480e+001
5.078389e+002, 3.347117e+001
5.083210e+002, 3.357705e+001
5.088032e+002, 3.364097e+001
5.092853e+002, 3.357759e+001
5.097674e+002, 3.340525e+001
5.102495e+002, 3.344335e+001
5.107316e+002, 3.399991e+001
5.112137e+002, 3.477851e+001
5.116959e+002, 3.509800e+001
5.121780e+002, 3.498402e+001
5.126601e+002, 3.481318e+001
5.131422e+002, 3.482954e+001
5.136243e+002, 3.496294e+001
5.141064e+002, 3.516091e+001
5.145886e+002, 3.546199e+001
5.150707e+002, 3.565107e+001
5.155528e+002, 3.547131e+001
5.160349e+002, 3.512704e+001
5.165170e+002, 3.491085e+001
5.169991e+002, 3.504974e+001
5.174813e+002, 3.519621e+001
5.179634e+002, 3.521130e+001
5.184455e+002, 3.511556e+001
5.189276e+002, 3.509308e+001
5.194097e+002, 3.523660e+001
5.198918e+002, 3.539616e+001
5.203740e+002, 3.551628e+001
5.208561e+002, 3.559852e+001
5.213382e+002, 3.562745e+001
5.218203e+002, 3.555347e+001
5.223024e+002, 3.548247e+001
5.227845e+002, 3.557288e+001
5.232667e+002, 3.587317e+001
5.237488e+002, 3.605526e+001
5.242309e+002, 3.603689e+001
5.247130e+002, 3.587551e+001
5.251951e+002, 3.570354e+001
5.256772e+002, 3.551995e+001
5.261594e+002, 3.531493e+001
5.266415e+002, 3.499131e+001
5.271236e+002, 3.465687e+001
5.276057e+002, 3.460383e+001
5.280878e+002, 3.484434e+001
5.285699e+002, 3.512379e+001
5.290521e+002, 3.524232e+001
5.295342e+002, 3.526809e+001
5.300163e+002, 3.528417e+001
5.304984e+002, 3.529547e+001
5.309805e+002, 3.533216e+001
5.314626e+002, 3.543102e+001
5.319448e+002, 3.556503e+001
5.324269e+002, 3.568138e+001
5.329090e+002, 3.575336e+001
5.333911e+002, 3.581671e+001
5.338732e+002, 3.587474e+001
5.343553e+002, 3.592616e+001
5.348375e+002, 3.600249e+001
5.353196e+002, 3.603225e+001
5.358017e+002, 3.615626e+001
5.362838e+002, 3.649013e+001
5.367659e+002, 3.720296e+001
5.372480e+002, 3.763671e+001
5.377302e+002, 3.770293e+001
5.382123e+002, 3.760270e+001
5.386944e+002, 3.763332e+001
5.391765e+002, 3.780632e+001
5.396586e+002, 3.795108e+001
5.401407e+002, 3.801305e+001
5.406229e+002, 3.802480e+001
5.411050e+002, 3.811411e+001
5.415871e+002, 3.826132e+001
5.420692e+002, 3.826245e+001
5.425513e+002, 3.780167e+001
5.430334e+002, 3.718464e+001
5.435156e+002, 3.692123e+001
5.439977e+002, 3.705611e+001
5.444798e+002, 3.723309e+001
5.449619e+002, 3.717900e+001
5.454440e+002, 3.704193e+001
5.459261e+002, 3.698055e+001
5.464083e+002, 3.702650e+001
5.468904e+002, 3.716706e+001
5.473725e+002, 3.743370e+001
5.478546e+002, 3.778810e+001
5.483367e+002, 3.815430e+001
5.488188e+002, 3.846294e+001
5.493010e+002, 3.884731e+001
5.497831e+002, 3.941602e+001
5.502652e+002, 4.016261e+001
5.507473e+002, 4.059380e+001
5.512294e+002, 4.051520e+001
5.517115e+002, 4.045080e+001
5.521937e+002, 4.077267e+001
5.526758e+002, 4.153391e+001
5.531579e+002, 4.216530e+001
5.536400e+002, 4.261507e+001
5.541221e+002, 4.301408e+001
5.546042e+002, 4.357103e+001
5.550864e+002, 4.425278e+001
5.555685e+002, 4.482970e+001
5.560506e+002, 4.512725e+001
5.565327e+002, 4.541417e+001
5.570148e+002, 4.611959e+001
5.574969e+002, 4.715925e+001
5.579791e+002, 4.822147e+001
5.584612e+002, 4.895506e+001
5.589433e+002, 4.974804e+001
5.594254e+002, 5.098059e+001
5.599075e+002, 5.268919e+001
5.603896e+002, 5.435730e+001
5.608718e+002, 5.595685e+001
5.613539e+002, 5.730600e+001
5.618360e+002, 5.827069e+001
5.623181e+002, 5.890430e+001
5.628002e+002, 5.903404e+001
5.632823e+002, 5.873594e+001
5.637645e+002, 5.792348e+001
5.642466e+002, 5.637878e+001
5.647287e+002, 5.379314e+001
5.652108e+002, 5.120380e+001
5.656929e+002, 4.881639e+001
5.661750e+002, 4.661988e+001
5.666572e+002, 4.440735e+001
5.671393e+002, 4.215244e+001
5.676214e+002, 4.015699e+001
5.681035e+002, 3.861615e+001
5.685856e+002, 3.748035e+001
5.690677e+002, 3.652365e+001
5.695499e+002, 3.574899e+001
5.700320e+002, 3.511212e+001
5.705141e+002, 3.460556e+001
5.709962e+002, 3.421050e+001
5.714783e+002, 3.391514e+001
5.719604e+002, 3.377116e+001
5.724426e+002, 3.360493e+001
5.729247e+002, 3.319091e+001
5.734068e+002, 3.269274e+001
5.738889e+002, 3.239421e+001
5.743710e+002, 3.252098e+001
5.748531e+002, 3.273366e+001
5.753353e+002, 3.296071e+001
5.758174e+002, 3.319223e+001
5.762995e+002, 3.335480e+001
5.767816e+002, 3.338639e+001
5.772637e+002, 3.341824e+001
5.777458e+002, 3.349624e+001
5.782280e+002, 3.361100e+001
5.787101e+002, 3.383299e+001
5.791922e+002, 3.418727e+001
5.796743e+002, 3.459358e+001
5.801564e+002, 3.499905e+001
5.806385e+002, 3.539758e+001
5.811207e+002, 3.569485e+001
5.816028e+002, 3.585628e+001
5.820849e+002, 3.594444e+001
5.825670e+002, 3.605775e+001
5.830491e+002, 3.617743e+001
5.835313e+002, 3.624789e+001
5.840134e+002, 3.644876e+001
5.844955e+002, 3.643847e+001
5.849776e+002, 3.573828e+001
5.854597e+002, 3.446766e+001
5.859418e+002, 3.330169e+001
5.864240e+002, 3.253238e+001
5.869061e+002, 3.198512e+001
5.873882e+002, 3.155532e+001
5.878703e+002, 3.124190e+001
5.883524e+002, 3.102187e+001
5.888345e+002, 3.102077e+001
5.893167e+002, 3.102777e+001
5.897988e+002, 3.086166e+001
5.902809e+002, 3.039075e+001
5.907630e+002, 3.004981e+001
5.912451e+002, 2.988830e+001
5.917272e+002, 2.984964e+001
5.922094e+002, 2.982982e+001
5.926915e+002, 2.982705e+001
5.931736e+002, 2.987918e+001
5.936557e+002, 3.002686e+001
5.941378e+002, 3.021935e+001
5.946199e+002, 3.033509e+001
5.951021e+002, 3.037888e+001
5.955842e+002, 3.039750e+001
5.960663e+002, 3.040424e+001
5.965484e+002, 3.041111e+001
5.970305e+002, 3.044845e+001
5.975126e+002, 3.052096e+001
5.979948e+002, 3.054967e+001
5.984769e+002, 3.040343e+001
5.989590e+002, 3.024276e+001
5.994411e+002, 3.021056e+001
5.999232e+002, 3.042771e+001
6.004053e+002, 3.062039e+001
6.008875e+002, 3.068536e+001
6.013696e+002, 3.072539e+001
6.018517e+002, 3.090406e+001
6.023338e+002, 3.137032e+001
6.028159e+002, 3.166731e+001
6.032980e+002, 3.165158e+001
6.037802e+002, 3.142658e+001
6.042623e+002, 3.133792e+001
6.047444e+002, 3.138225e+001
6.052265e+002, 3.159504e+001
6.057086e+002, 3.212634e+001
6.061907e+002, 3.284267e+001
6.066729e+002, 3.322906e+001
6.071550e+002, 3.329069e+001
6.076371e+002, 3.336381e+001
6.081192e+002, 3.379757e+001
6.086013e+002, 3.436900e+001
6.090834e+002, 3.476460e+001
6.095656e+002, 3.490035e+001
6.100477e+002, 3.501538e+001
6.105298e+002, 3.527031e+001
6.110119e+002, 3.556392e+001
6.114940e+002, 3.578559e+001
6.119761e+002, 3.573635e+001
6.124583e+002, 3.581895e+001
6.129404e+002, 3.609743e+001
6.134225e+002, 3.654498e+001
6.139046e+002, 3.717242e+001
6.143867e+002, 3.818606e+001
6.148688e+002, 3.891139e+001
6.153510e+002, 3.906250e+001
6.158331e+002, 3.875148e+001
6.163152e+002, 3.872766e+001
6.167973e+002, 3.901915e+001
6.172794e+002, 3.931041e+001
6.177615e+002, 3.932153e+001
6.182437e+002, 3.916874e+001
6.187258e+002, 3.924861e+001
6.192079e+002, 3.959388e+001
6.196900e+002, 3.983754e+001
6.201721e+002, 3.955918e+001
6.206542e+002, 3.903982e+001
6.211364e+002, 3.866633e+001
6.216185e+002, 3.866580e+001
6.221006e+002, 3.849383e+001
6.225827e+002, 3.764936e+001
6.230648e+002, 3.656818e+001
6.235469e+002, 3.585899e+001
6.240291e+002, 3.613062e+001
6.245112e+002, 3.616932e+001
6.249933e+002, 3.568631e+001
6.254754e+002, 3.485704e+001
6.259575e+002, 3.429324e+001
6.264396e+002, 3.406371e+001
6.269218e+002, 3.389317e+001
6.274039e+002, 3.371050e+001
6.278860e+002, 3.350249e+001
6.283681e+002, 3.313799e+001
6.288502e+002, 3.260880e+001
6.293323e+002, 3.213571e+001
6.298145e+002, 3.201832e+001
6.302966e+002, 3.204004e+001
6.307787e+002, 3.168140e+001
6.312608e+002, 3.085583e+001
6.317429e+002, 3.016359e+001
6.322250e+002, 3.019726e+001
6.327072e+002, 3.053483e+001
6.331893e+002, 3.071449e+001
6.336714e+002, 3.050623e+001
6.341535e+002, 3.032893e+001
6.346356e+002, 3.035122e+001
6.351177e+002, 3.045337e+001
6.355999e+002, 3.044003e+001
6.360820e+002, 3.021394e+001
6.365641e+002, 3.002389e+001
6.370462e+002, 2.990995e+001
6.375283e+002, 2.985969e+001
6.380104e+002, 2.984043e+001
6.384926e+002, 2.985889e+001
6.389747e+002, 2.986413e+001
6.394568e+002, 2.980913e+001
6.399389e+002, 2.972748e+001
6.404210e+002, 2.976229e+001
6.409031e+002, 2.990603e+001
6.413853e+002, 3.001840e+001
6.418674e+002, 2.996363e+001
6.423495e+002, 2.983752e+001
6.428316e+002, 2.973621e+001
6.433137e+002, 2.966506e+001
6.437958e+002, 2.966926e+001
6.442780e+002, 2.986979e+001
6.447601e+002, 3.010081e+001
6.452422e+002, 3.021250e+001
6.457243e+002, 3.007075e+001
6.462064e+002, 2.997804e+001
6.466885e+002, 2.999497e+001
6.471707e+002, 3.004098e+001
6.476528e+002, 3.000403e+001
6.481349e+002, 2.985622e+001
6.486170e+002, 2.970816e+001
6.490991e+002, 2.956434e+001
6.495812e+002, 2.944566e+001
6.500634e+002, 2.940948e+001
6.505455e+002, 2.945094e+001
6.510276e+002, 2.950321e+001
6.515097e+002, 2.953192e+001
6.519918e+002, 2.955565e+001
6.524739e+002, 2.962195e+001
6.529561e+002, 2.971748e+001
6.534382e+002, 2.977631e+001
6.539203e+002, 2.971406e+001
6.544024e+002, 2.963517e+001
6.548845e+002, 2.961693e+001
6.553666e+002, 2.967252e+001
6.558488e+002, 2.971845e+001
6.563309e+002, 2.979125e+001
6.568130e+002, 2.980442e+001
6.572951e+002, 2.968234e+001
6.577772e+002, 2.929499e+001
6.582593e+002, 2.914065e+001
6.587415e+002, 2.929279e+001
6.592236e+002, 2.955951e+001
6.597057e+002, 2.972800e+001
6.601878e+002, 2.979964e+001
6.606699e+002, 2.986505e+001
6.611520e+002, 2.994730e+001
6.616342e+002, 3.000785e+001
6.621163e+002, 2.997202e+001
6.625984e+002, 2.986896e+001
6.630805e+002, 2.977582e+001
6.635626e+002, 2.973777e+001
6.640447e+002, 2.970574e+001
6.645269e+002, 2.964419e+001
6.650090e+002, 2.956091e+001
6.654911e+002, 2.947731e+001
6.659732e+002, 2.937298e+001
6.664553e+002, 2.929627e+001
6.669374e+002, 2.923645e+001
6.674196e+002, 2.919950e+001
6.679017e+002, 2.934535e+001
6.683838e+002, 2.985016e+001
6.688659e+002, 3.020839e+001
6.693480e+002, 3.006427e+001
6.698301e+002, 2.942908e+001
6.703123e+002, 2.921150e+001
6.707944e+002, 2.946532e+001
6.712765e+002, 2.972272e+001
6.717586e+002, 2.944320e+001
6.722407e+002, 2.887812e+001
6.727228e+002, 2.863294e+001
6.732050e+002, 2.882958e+001
6.736871e+002, 2.906858e+001
6.741692e+002, 2.904788e+001
6.746513e+002, 2.890236e+001
6.751334e+002, 2.878823e+001
6.756155e+002, 2.875237e+001
6.760977e+002, 2.873707e+001
6.765798e+002, 2.874384e+001
6.770619e+002, 2.875951e+001
6.775440e+002, 2.876351e+001
6.780261e+002, 2.874584e+001
6.785082e+002, 2.873202e+001
6.789904e+002, 2.870219e+001
6.794725e+002, 2.869670e+001
6.799546e+002, 2.889542e+001
6.804367e+002, 2.929907e+001
6.809188e+002, 2.953568e+001
6.814009e+002, 2.936237e+001
6.818831e+002, 2.897721e+001
6.823652e+002, 2.872188e+001
6.828473e+002, 2.858064e+001
6.833294e+002, 2.848651e+001
6.838115e+002, 2.842428e+001
6.842936e+002, 2.837410e+001
6.847758e+002, 2.831244e+001
6.852579e+002, 2.823884e+001
6.857400e+002, 2.819547e+001
6.862221e+002, 2.815436e+001
6.867042e+002, 2.818257e+001
6.871863e+002, 2.833251e+001
6.876685e+002, 2.865218e+001
6.881506e+002, 2.889083e+001
6.886327e+002, 2.906300e+001
6.891148e+002, 2.913186e+001
6.895969e+002, 2.899284e+001
6.900790e+002, 2.866771e+001
6.905612e+002, 2.853320e+001
6.910433e+002, 2.864721e+001
6.915254e+002, 2.884921e+001
6.920075e+002, 2.898994e+001
6.924896e+002, 2.907719e+001
6.929717e+002, 2.911876e+001
6.934539e+002, 2.909569e+001
6.939360e+002, 2.906973e+001
6.944181e+002, 2.907889e+001
6.949002e+002, 2.910758e+001
6.953823e+002, 2.913178e+001
6.958644e+002, 2.921468e+001
6.963466e+002, 2.920091e+001
6.968287e+002, 2.897814e+001
6.973108e+002, 2.866962e+001
6.977929e+002, 2.864890e+001
6.982750e+002, 2.902762e+001
6.987571e+002, 2.927644e+001
6.992393e+002, 2.920590e+001
6.997214e+002, 2.889734e+001
7.002035e+002, 2.850721e+001
7.006856e+002, 2.805998e+001
7.011677e+002, 2.778946e+001
7.016498e+002, 2.799041e+001
7.021320e+002, 2.834354e+001
7.026141e+002, 2.847290e+001
7.030962e+002, 2.839271e+001
7.035783e+002, 2.831992e+001
7.040604e+002, 2.834369e+001
7.045425e+002, 2.841199e+001
7.050247e+002, 2.849158e+001
7.055068e+002, 2.857397e+001
7.059889e+002, 2.871631e+001
7.064710e+002, 2.898714e+001
7.069531e+002, 2.922830e+001
7.074352e+002, 2.932284e+001
7.079174e+002, 2.925647e+001
7.083995e+002, 2.919371e+001
7.088816e+002, 2.912948e+001
7.093637e+002, 2.910782e+001
7.098458e+002, 2.924231e+001
7.103279e+002, 2.945039e+001
7.108101e+002, 2.952308e+001
7.112922e+002, 2.941160e+001
7.117743e+002, 2.921449e+001
7.122564e+002, 2.884592e+001
7.127385e+002, 2.849926e+001
7.132206e+002, 2.841534e+001
7.137028e+002, 2.895776e+001
7.141849e+002, 2.935206e+001
7.146670e+002, 2.942869e+001
7.151491e+002, 2.928773e+001
7.156312e+002, 2.899920e+001
7.161133e+002, 2.840958e+001
7.165955e+002, 2.813173e+001
7.170776e+002, 2.835134e+001
7.175597e+002, 2.884351e+001
7.180418e+002, 2.913797e+001
7.185239e+002, 2.925233e+001
7.190060e+002, 2.934256e+001
7.194882e+002, 2.950881e+001
7.199703e+002, 2.963837e+001
7.204524e+002, 2.949951e+001
7.209345e+002, 2.919654e+001
7.214166e+002, 2.903469e+001
7.218987e+002, 2.939902e+001
7.223809e+002, 2.970814e+001
7.228630e+002, 2.962026e+001
7.233451e+002, 2.918068e+001
7.238272e+002, 2.884022e+001
7.243093e+002, 2.858693e+001
7.247914e+002, 2.848922e+001
7.252736e+002, 2.863496e+001
7.257557e+002, 2.899292e+001
7.262378e+002, 2.912563e+001
7.267199e+002, 2.900384e+001
7.272020e+002, 2.892383e+001
7.276841e+002, 2.917856e+001
7.281663e+002, 2.959536e+001
7.286484e+002, 2.979671e+001
7.291305e+002, 2.977191e+001
7.296126e+002, 2.961417e+001
7.300947e+002, 2.916267e+001
7.305768e+002, 2.875545e+001
7.310590e+002, 2.874004e+001
7.315411e+002, 2.926839e+001
7.320232e+002, 2.960213e+001
7.325053e+002, 2.944790e+001
7.329874e+002, 2.918821e+001
7.334695e+002, 2.904497e+001
7.339517e+002, 2.905077e+001
7.344338e+002, 2.905361e+001
7.349159e+002, 2.903863e+001
7.353980e+002, 2.906125e+001
7.358801e+002, 2.926094e+001
7.363622e+002, 2.956529e+001
7.368444e+002, 2.961916e+001
7.373265e+002, 2.931693e+001
7.378086e+002, 2.902399e+001
7.382907e+002, 2.915909e+001
7.387728e+002, 2.948443e+001
7.392549e+002, 2.968674e+001
7.397371e+002, 2.961612e+001
7.402192e+002, 2.953120e+001
7.407013e+002, 2.947888e+001
7.411834e+002, 2.946277e+001
7.416655e+002, 2.949032e+001
7.421476e+002, 2.959461e+001
7.426298e+002, 2.966500e+001
7.431119e+002, 2.969335e+001
7.435940e+002, 2.967433e+001
7.440761e+002, 2.953978e+001
7.445582e+002, 2.931305e+001
7.450403e+002, 2.925301e+001
7.455225e+002, 2.953206e+001
7.460046e+002, 2.984518e+001
7.464867e+002, 2.975584e+001
7.469688e+002, 2.941742e+001
7.474509e+002, 2.916076e+001
7.479330e+002, 2.917969e+001
7.484152e+002, 2.924618e+001
7.488973e+002, 2.925965e+001
7.493794e+002, 2.925082e+001
7.498615e+002, 2.932858e+001
7.503436e+002, 2.959044e+001
7.508257e+002, 2.976375e+001
7.513079e+002, 2.974990e+001
7.517900e+002, 2.961117e+001
7.522721e+002, 2.957894e+001
7.527542e+002, 2.965313e+001
7.532363e+002, 2.972264e+001
7.537184e+002, 2.976182e+001
7.542006e+002, 2.974523e+001
7.546827e+002, 2.952919e+001
7.551648e+002, 2.918911e+001
7.556469e+002, 2.904780e+001
7.561290e+002, 2.957065e+001
7.566111e+002, 3.006260e+001
7.570933e+002, 3.008063e+001
7.575754e+002, 2.963850e+001
7.580575e+002, 2.934913e+001
7.585396e+002, 2.932155e+001
7.590217e+002, 2.933593e+001
7.595038e+002, 2.930814e+001
7.599860e+002, 2.924470e+001
7.604681e+002, 2.917879e+001
7.609502e+002, 2.909714e+001
7.614323e+002, 2.918237e+001
7.619144e+002, 2.979980e+001
7.623965e+002, 3.057745e+001
7.628787e+002, 3.076467e+001
7.633608e+002, 3.038119e+001
7.638429e+002, 2.993010e+001
7.643250e+002, 2.950815e+001
7.648071e+002, 2.928154e+001
7.652892e+002, 2.950563e+001
7.657714e+002, 3.030702e+001
7.662535e+002, 3.061877e+001
7.667356e+002, 3.001310e+001
7.672177e+002, 2.940177e+001
7.676998e+002, 2.934595e+001
7.681819e+002, 2.989210e+001
7.686641e+002, 3.018677e+001
7.691462e+002, 3.021547e+001
7.696283e+002, 3.008713e+001
7.701104e+002, 2.973619e+001
7.705925e+002, 2.933613e+001
7.710746e+002, 2.926881e+001
7.715568e+002, 2.958034e+001
7.720389e+002, 2.992247e+001
7.725210e+002, 3.013402e+001
7.730031e+002, 3.025051e+001
7.734852e+002, 3.029090e+001
7.739673e+002, 3.022990e+001
7.744495e+002, 3.017773e+001
7.749316e+002, 3.014918e+001
7.754137e+002, 3.011724e+001
7.758958e+002, 3.006079e+001
7.763779e+002, 2.997796e+001
7.768600e+002, 2.990087e+001
7.773422e+002, 2.983744e+001
7.778243e+002, 2.973723e+001
7.783064e+002, 2.948016e+001
7.787885e+002, 2.916803e+001
7.792706e+002, 2.899778e+001
7.797527e+002, 2.901264e+001
7.802349e+002, 2.910477e+001
7.807170e+002, 2.925671e+001
7.811991e+002, 2.943020e+001
7.816812e+002, 2.960066e+001
7.821633e+002, 2.983654e+001
7.826454e+002, 2.990612e+001
7.831276e+002, 2.971852e+001
7.836097e+002, 2.947330e+001
7.840918e+002, 2.937318e+001
7.845739e+002, 2.942054e+001
7.850560e+002, 2.946598e+001
7.855381e+002, 2.949178e+001
7.860203e+002, 2.953072e+001
7.865024e+002, 2.962984e+001
7.869845e+002, 2.976400e+001
7.874666e+002, 2.991352e+001
7.879487e+002, 3.011612e+001
7.884308e+002, 3.019448e+001
7.889130e+002, 2.991867e+001
7.893951e+002, 2.955219e+001
7.898772e+002, 2.936628e+001
7.903593e+002, 2.945620e+001
7.908414e+002, 2.961219e+001
7.913235e+002, 2.991520e+001
7.918057e+002, 3.016607e+001
7.922878e+002, 2.999361e+001
7.927699e+002, 2.944241e+001
7.932520e+002, 2.932734e+001
7.937341e+002, 2.983957e+001
7.942162e+002, 3.045456e+001
7.946984e+002, 3.064929e+001
7.951805e+002, 3.055646e+001
7.956626e+002, 3.036646e+001
7.961447e+002, 3.005932e+001
7.966268e+002, 2.981459e+001
7.971089e+002, 2.974604e+001
7.975911e+002, 2.974627e+001
7.980732e+002, 2.967953e+001
7.985553e+002, 2.943643e+001
7.990374e+002, 2.940620e+001
7.995195e+002, 2.968769e+001
8.000016e+002, 3.004010e+001
8.004838e+002, 3.011726e+001
8.009659e+002, 2.997443e+001
8.014480e+002, 2.996336e+001
8.019301e+002, 3.019086e+001
8.024122e+002, 3.038343e+001
8.028943e+002, 3.014861e+001
8.033765e+002, 2.976648e+001
8.038586e+002, 2.961861e+001
8.043407e+002, 2.998836e+001
8.048228e+002, 3.025308e+001
8.053049e+002, 3.017986e+001
8.057870e+002, 3.000337e+001
8.062692e+002, 2.995374e+001
8.067513e+002, 3.006290e+001
8.072334e+002, 3.018116e+001
8.077155e+002, 3.030691e+001
8.081976e+002, 3.040309e+001
8.086797e+002, 3.042335e+001
8.091619e+002, 3.037397e+001
8.096440e+002, 3.026083e+001
8.101261e+002, 3.006738e+001
8.106082e+002, 2.987924e+001
8.110903e+002, 2.970024e+001
8.115724e+002, 2.959087e+001
8.120546e+002, 2.962766e+001
8.125367e+002, 3.000709e+001
8.130188e+002, 3.022463e+001
8.135009e+002, 3.014878e+001
8.139830e+002, 3.001594e+001
8.144651e+002, 3.013964e+001
8.149473e+002, 3.055034e+001
8.154294e+002, 3.067437e+001
8.159115e+002, 3.040444e+001
8.163936e+002, 3.008044e+001
8.168757e+002, 3.012882e+001
8.173578e+002, 3.038750e+001
8.178400e+002, 3.057677e+001
8.183221e+002, 3.062818e+001
8.188042e+002, 3.063739e+001
8.192863e+002, 3.062928e+001
8.197684e+002, 3.061209e+001
8.202505e+002, 3.058961e+001
8.207327e+002, 3.053184e+001
8.212148e+002, 3.053485e+001
8.216969e+002, 3.060681e+001
8.221790e+002, 3.072416e+001
8.226611e+002, 3.091844e+001
8.231432e+002, 3.115662e+001
8.236254e+002, 3.117104e+001
8.241075e+002, 3.091042e+001
8.245896e+002, 3.063393e+001
8.250717e+002, 3.056251e+001
8.255538e+002, 3.061727e+001
8.260359e+002, 3.074081e+001
8.265181e+002, 3.097623e+001
8.270002e+002, 3.108683e+001
8.274823e+002, 3.093154e+001
8.279644e+002, 3.070374e+001
8.284465e+002, 3.049023e+001
8.289286e+002, 3.024838e+001
8.294108e+002, 3.029850e+001
8.298929e+002, 3.070784e+001
8.303750e+002, 3.111695e+001
8.308571e+002, 3.112182e+001
8.313392e+002, 3.089564e+001
8.318214e+002, 3.084513e+001
8.323035e+002, 3.101958e+001
8.327856e+002, 3.112113e+001
8.332677e+002, 3.084403e+001
8.337498e+002, 3.050453e+001
8.342319e+002, 3.032281e+001
8.347141e+002, 3.033307e+001
8.351962e+002, 3.052297e+001
8.356783e+002, 3.104176e+001
8.361604e+002, 3.148550e+001
8.366425e+002, 3.149945e+001
8.371246e+002, 3.112606e+001
8.376068e+002, 3.108149e+001
8.380889e+002, 3.137170e+001
8.385710e+002, 3.161438e+001
8.390531e+002, 3.137094e+001
8.395352e+002, 3.101459e+001
8.400173e+002, 3.098832e+001
8.404995e+002, 3.131637e+001
8.409816e+002, 3.160852e+001
8.414637e+002, 3.183465e+001
8.419458e+002, 3.188863e+001
8.424279e+002, 3.166339e+001
8.429100e+002, 3.116751e+001
8.433922e+002, 3.090924e+001
8.438743e+002, 3.091915e+001
8.443564e+002, 3.099776e+001
8.448385e+002, 3.108623e+001
8.453206e+002, 3.114063e+001
8.458027e+002, 3.098556e+001
8.462849e+002, 3.066876e+001
8.467670e+002, 3.046291e+001
8.472491e+002, 3.068101e+001
8.477312e+002, 3.090676e+001
8.482133e+002, 3.083218e+001
8.486954e+002, 3.050022e+001
8.491776e+002, 3.040503e+001
8.496597e+002, 3.067282e+001
8.501418e+002, 3.095062e+001
8.506239e+002, 3.113965e+001
8.511060e+002, 3.124380e+001
8.515881e+002, 3.122969e+001
8.520703e+002, 3.111489e+001
8.525524e+002, 3.104625e+001
8.530345e+002, 3.113859e+001
8.535166e+002, 3.127085e+001
8.539987e+002, 3.132833e+001
8.544808e+002, 3.133792e+001
8.549630e+002, 3.136850e+001
8.554451e+002, 3.158459e+001
8.559272e+002, 3.162953e+001
8.564093e+002, 3.130502e+001
8.568914e+002, 3.083080e+001
8.573735e+002, 3.075028e+001
8.578557e+002, 3.110306e+001
8.583378e+002, 3.135821e+001
8.588199e+002, 3.134470e+001
8.593020e+002, 3.123529e+001
8.597841e+002, 3.128609e+001
8.602662e+002, 3.143504e+001
8.607484e+002, 3.155596e+001
8.612305e+002, 3.162696e+001
8.617126e+002, 3.163125e+001
8.621947e+002, 3.142562e+001
8.626768e+002, 3.121022e+001
8.631589e+002, 3.130234e+001
8.636411e+002, 3.193361e+001
8.641232e+002, 3.217390e+001
8.646053e+002, 3.184665e+001
8.650874e+002, 3.133490e+001
8.655695e+002, 3.109825e+001
8.660516e+002, 3.109210e+001
8.665338e+002, 3.119885e+001
8.670159e+002, 3.142276e+001
8.674980e+002, 3.162479e+001
8.679801e+002, 3.171466e+001
8.684622e+002, 3.173140e+001
8.689443e+002, 3.170471e+001
8.694265e+002, 3.158801e+001
8.699086e+002, 3.156302e+001
8.703907e+002, 3.168845e+001
8.708728e+002, 3.181427e+001
8.713549e+002, 3.180040e+001
8.718370e+002, 3.166052e+001
8.723192e+002, 3.154444e+001
8.728013e+002, 3.145546e+001
8.732834e+002, 3.142878e+001
8.737655e+002, 3.158441e+001
8.742476e+002, 3.175671e+001
8.747297e+002, 3.172989e+001
8.752119e+002, 3.147758e+001
8.756940e+002, 3.135102e+001
8.761761e+002, 3.152865e+001
8.766582e+002, 3.175785e+001
8.771403e+002, 3.197019e+001
8.776224e+002, 3.215905e+001
8.781046e+002, 3.222470e+001
8.785867e+002, 3.216458e+001
8.790688e+002, 3.204430e+001
8.795509e+002, 3.184965e+001
8.800330e+002, 3.165197e+001
8.805151e+002, 3.152600e+001
8.809973e+002, 3.148195e+001
8.814794e+002, 3.155614e+001
8.819615e+002, 3.198293e+001
8.824436e+002, 3.229401e+001
8.829257e+002, 3.221452e+001
8.834078e+002, 3.189981e+001
8.838900e+002, 3.178758e+001
8.843721e+002, 3.190985e+001
8.848542e+002, 3.207292e+001
8.853363e+002, 3.224019e+001
8.858184e+002, 3.238741e+001
8.863005e+002, 3.244166e+001
8.867827e+002, 3.244191e+001
8.872648e+002, 3.248958e+001
8.877469e+002, 3.265672e+001
8.882290e+002, 3.282410e+001
8.887111e+002, 3.300654e+001
8.891932e+002, 3.312838e+001
8.896754e+002, 3.307008e+001
8.901575e+002, 3.273558e+001
8.906396e+002, 3.246551e+001
8.911217e+002, 3.226997e+001
8.916038e+002, 3.218817e+001
8.920859e+002, 3.228468e+001
8.925681e+002, 3.253443e+001
8.930502e+002, 3.292369e+001
8.935323e+002, 3.348582e+001
8.940144e+002, 3.389199e+001
8.944965e+002, 3.372684e+001
8.949786e+002, 3.342443e+001
8.954608e+002, 3.337947e+001
8.959429e+002, 3.374295e+001
8.964250e+002, 3.394289e+001
8.969071e+002, 3.390773e+001
8.973892e+002, 3.384879e+001
8.978713e+002, 3.391452e+001
8.983535e+002, 3.408440e+001
8.988356e+002, 3.421648e+001
8.993177e+002, 3.431657e+001
8.997998e+002, 3.448279e+001
9.002819e+002, 3.492884e+001
9.007640e+002, 3.534657e+001
9.012462e+002, 3.551688e+001
9.017283e+002, 3.543748e+001
9.022104e+002, 3.519569e+001
9.026925e+002, 3.458852e+001
9.031746e+002, 3.420942e+001
9.036567e+002, 3.432024e+001
9.041389e+002, 3.473195e+001
9.046210e+002, 3.480306e+001
9.051031e+002, 3.457351e+001
9.055852e+002, 3.441140e+001
9.060673e+002, 3.453344e+001
9.065494e+002, 3.469234e+001
9.070316e+002, 3.457470e+001
9.075137e+002, 3.435421e+001
9.079958e+002, 3.433704e+001
9.084779e+002, 3.489547e+001
9.089600e+002, 3.526284e+001
9.094421e+002, 3.538045e+001
9.099243e+002, 3.527424e+001
9.104064e+002, 3.483194e+001
9.108885e+002, 3.409393e+001
9.113706e+002, 3.382376e+001
9.118527e+002, 3.419349e+001
9.123348e+002, 3.465589e+001
9.128170e+002, 3.466097e+001
9.132991e+002, 3.447813e+001
9.137812e+002, 3.442451e+001
9.142633e+002, 3.460010e+001
9.147454e+002, 3.469958e+001
9.152275e+002, 3.462226e+001
9.157097e+002, 3.452482e+001
9.161918e+002, 3.451082e+001
9.166739e+002, 3.457789e+001
9.171560e+002, 3.450658e+001
9.176381e+002, 3.429519e+001
9.181202e+002, 3.421681e+001
9.186024e+002, 3.464075e+001
9.190845e+002, 3.517161e+001
9.195666e+002, 3.537322e+001
9.200487e+002, 3.527641e+001
9.205308e+002, 3.515244e+001
9.210129e+002, 3.498549e+001
9.214951e+002, 3.492152e+001
9.219772e+002, 3.505854e+001
9.224593e+002, 3.529546e+001
9.229414e+002, 3.528273e+001
9.234235e+002, 3.502639e+001
9.239056e+002, 3.486497e+001
9.243878e+002, 3.494855e+001
9.248699e+002, 3.509317e+001
9.253520e+002, 3.509596e+001
9.258341e+002, 3.501475e+001
9.263162e+002, 3.494299e+001
9.267983e+002, 3.496228e+001
9.272805e+002, 3.489973e+001
9.277626e+002, 3.464229e+001
9.282447e+002, 3.439403e+001
9.287268e+002, 3.438412e+001
9.292089e+002, 3.461403e+001
9.296910e+002, 3.488054e+001
9.301732e+002, 3.518199e+001
9.306553e+002, 3.536282e+001
9.311374e+002, 3.510898e+001
9.316195e+002, 3.475816e+001
9.321016e+002, 3.475080e+001
9.325837e+002, 3.515387e+001
9.330659e+002, 3.540277e+001
9.335480e+002, 3.514807e+001
9.340301e+002, 3.498006e+001
9.345122e+002, 3.518378e+001
9.349943e+002, 3.568126e+001
9.354764e+002, 3.591111e+001
9.359586e+002, 3.588106e+001
9.364407e+002, 3.582100e+001
9.369228e+002, 3.577726e+001
9.374049e+002, 3.582586e+001
9.378870e+002, 3.618401e+001
9.383691e+002, 3.668714e+001
9.388513e+002, 3.694641e+001
9.393334e+002, 3.652470e+001
9.398155e+002, 3.630049e+001
9.402976e+002, 3.642056e+001
9.407797e+002, 3.675637e+001
9.412618e+002, 3.722442e+001
9.417440e+002, 3.779248e+001
9.422261e+002, 3.790099e+001
9.427082e+002, 3.735646e+001
9.431903e+002, 3.691372e+001
9.436724e+002, 3.742423e+001
9.441545e+002, 3.834193e+001
9.446367e+002, 3.913230e+001
9.451188e+002, 3.969836e+001
9.456009e+002, 4.013884e+001
9.460830e+002, 4.039772e+001
9.465651e+002, 4.064183e+001
9.470472e+002, 4.093547e+001
9.475294e+002, 4.129311e+001
9.480115e+002, 4.181397e+001
9.484936e+002, 4.249298e+001
9.489757e+002, 4.326130e+001
9.494578e+002, 4.422400e+001
9.499399e+002, 4.512878e+001
9.504221e+002, 4.568048e+001
9.509042e+002, 4.599353e+001
9.513863e+002, 4.652829e+001
9.518684e+002, 4.756392e+001
9.523505e+002, 4.835065e+001
9.528326e+002, 4.860441e+001
9.533148e+002, 4.874951e+001
9.537969e+002, 4.969193e+001
9.542790e+002, 5.125690e+001
9.547611e+002, 5.268029e+001
9.552432e+002, 5.372159e+001
9.557253e+002, 5.473213e+001
9.562075e+002, 5.596633e+001
9.566896e+002, 5.728693e+001
9.571717e+002, 5.856944e+001
9.576538e+002, 5.978236e+001
9.581359e+002, 6.104945e+001
9.586180e+002, 6.245091e+001
9.591002e+002, 6.371015e+001
9.595823e+002, 6.453746e+001
9.600644e+002, 6.507444e+001
9.605465e+002, 6.573988e+001
9.610286e+002, 6.652840e+001
9.615107e+002, 6.731203e+001
9.619929e+002, 6.830681e+001
9.624750e+002, 6.900205e+001
9.629571e+002, 6.898252e+001
9.634392e+002, 6.842686e+001
9.639213e+002, 6.805390e+001
9.644034e+002, 6.800103e+001
9.648856e+002, 6.760258e+001
9.653677e+002, 6.669480e+001
9.658498e+002, 6.536263e+001
9.663319e+002, 6.348687e+001
9.668140e+002, 6.132878e+001
9.672961e+002, 5.952180e+001
9.677783e+002, 5.839404e+001
9.682604e+002, 5.714460e+001
9.687425e+002, 5.523213e+001
9.692246e+002, 5.324609e+001
9.697067e+002, 5.163474e+001
9.701888e+002, 5.048181e+001
9.706710e+002, 4.923810e+001
9.711531e+002, 4.788533e+001
9.716352e+002, 4.670716e+001
9.721173e+002, 4.608490e+001
9.725994e+002, 4.568463e+001
9.730815e+002, 4.506215e+001
9.735637e+002, 4.423930e+001
9.740458e+002, 4.342866e+001
9.745279e+002, 4.252459e+001
9.750100e+002, 4.187902e+001
9.754921e+002, 4.164803e+001
9.759742e+002, 4.167486e+001
9.764564e+002, 4.161870e+001
9.769385e+002, 4.147587e+001
9.774206e+002, 4.114354e+001
9.779027e+002, 4.053872e+001
9.783848e+002, 3.993048e+001
9.788669e+002, 3.949148e+001
9.793491e+002, 3.923682e+001
9.798312e+002, 3.922697e+001
9.803133e+002, 3.968996e+001
9.807954e+002, 3.979357e+001
9.812775e+002, 3.933320e+001
9.817596e+002, 3.882813e+001
9.822418e+002, 3.863581e+001
9.827239e+002, 3.871345e+001
9.832060e+002, 3.891162e+001
9.836881e+002, 3.920328e+001
9.841702e+002, 3.937124e+001
9.846523e+002, 3.905303e+001
9.851345e+002, 3.879165e+001
9.856166e+002, 3.901715e+001
9.860987e+002, 3.957875e+001
9.865808e+002, 3.986592e+001
9.870629e+002, 3.975423e+001
9.875450e+002, 3.976622e+001
9.880272e+002, 4.002738e+001
9.885093e+002, 4.039569e+001
9.889914e+002, 4.066062e+001
9.894735e+002, 4.086745e+001
9.899556e+002, 4.111101e+001
9.904377e+002, 4.142385e+001
9.909199e+002, 4.172408e+001
9.914020e+002, 4.186817e+001
9.918841e+002, 4.208878e+001
9.923662e+002, 4.256993e+001
9.928483e+002, 4.331416e+001
9.933304e+002, 4.395366e+001
9.938126e+002, 4.448380e+001
9.942947e+002, 4.498999e+001
9.947768e+002, 4.553567e+001
9.952589e+002, 4.607844e+001
9.957410e+002, 4.653609e+001
9.962231e+002, 4.695077e+001
9.967053e+002, 4.745853e+001
9.971874e+002, 4.808580e+001
9.976695e+002, 4.882865e+001
9.981516e+002, 4.970847e+001
9.986337e+002, 5.067390e+001
9.991158e+002, 5.164567e+001
9.995980e+002, 5.264587e+001
1.000080e+003, 5.375969e+001
1.000562e+003, 5.501825e+001
1.001044e+003, 5.636173e+001
1.001526e+003, 5.760862e+001
1.002009e+003, 5.904251e+001
1.002491e+003, 6.095562e+001
1.002973e+003, 6.344209e+001
1.003455e+003, 6.575079e+001
1.003937e+003, 6.768629e+001
1.004419e+003, 7.007047e+001
1.004901e+003, 7.345488e+001
1.005383e+003, 7.740194e+001
1.005865e+003, 8.083098e+001
1.006348e+003, 8.405220e+001
1.006830e+003, 8.805766e+001
1.007312e+003, 9.393204e+001
1.007794e+003, 9.978172e+001
1.008276e+003, 1.050435e+002
1.008758e+003, 1.100592e+002
1.009240e+003, 1.152708e+002
1.009722e+003, 1.206857e+002
1.010205e+003, 1.259722e+002
1.010687e+003, 1.311746e+002
1.011169e+003, 1.362175e+002
1.011651e+003, 1.411434e+002
1.012133e+003, 1.458817e+002
1.012615e+003, 1.503841e+002
1.013097e+003, 1.546360e+002
1.013579e+003, 1.588085e+002
1.014061e+003, 1.630632e+002
1.014544e+003, 1.670574e+002
1.015026e+003, 1.707747e+002
1.015508e+003, 1.740436e+002
1.015990e+003, 1.767458e+002
1.016472e+003, 1.787413e+002
1.016954e+003, 1.795517e+002
1.017436e+003, 1.793163e+002
1.017918e+003, 1.771474e+002
1.018401e+003, 1.718643e+002
1.018883e+003, 1.647309e+002
1.019365e+003, 1.568393e+002
1.019847e+003, 1.480982e+002
1.020329e+003, 1.393996e+002
1.020811e+003, 1.307065e+002
1.021293e+003, 1.222602e+002
1.021775e+003, 1.140432e+002
1.022257e+003, 1.063039e+002
1.022740e+003, 9.926207e+001
1.023222e+003, 9.291817e+001
1.023704e+003, 8.725333e+001
1.024186e+003, 8.233230e+001
1.024668e+003, 7.806888e+001
1.025150e+003, 7.455868e+001
1.025632e+003, 7.152798e+001
1.026114e+003, 6.844704e+001
1.026596e+003, 6.541254e+001
1.027079e+003, 6.288664e+001
1.027561e+003, 6.097147e+001
1.028043e+003, 5.935910e+001
1.028525e+003, 5.785082e+001
1.029007e+003, 5.649392e+001
1.029489e+003, 5.538283e+001
1.029971e+003, 5.454110e+001
1.030453e+003, 5.366074e+001
1.030936e+003, 5.269654e+001
1.031418e+003, 5.185002e+001
1.031900e+003, 5.126421e+001
1.032382e+003, 5.076992e+001
1.032864e+003, 4.998310e+001
1.033346e+003, 4.902708e+001
1.033828e+003, 4.821301e+001
1.034310e+003, 4.772312e+001
1.034792e+003, 4.728167e+001
1.035275e+003, 4.684501e+001
1.035757e+003, 4.641064e+001
1.036239e+003, 4.595268e+001
1.036721e+003, 4.547490e+001
1.037203e+003, 4.510750e+001
1.037685e+003, 4.485988e+001
1.038167e+003, 4.460671e+001
1.038649e+003, 4.423674e+001
1.039132e+003, 4.384327e+001
1.039614e+003, 4.349358e+001
1.040096e+003, 4.318547e+001
1.040578e+003, 4.287228e+001
1.041060e+003, 4.250581e+001
1.041542e+003, 4.224825e+001
1.042024e+003, 4.214256e+001
1.042506e+003, 4.211792e+001
1.042989e+003, 4.207966e+001
1.043471e+003, 4.203654e+001
1.043953e+003, 4.201188e+001
1.044435e+003, 4.201442e+001
1.044917e+003, 4.200289e+001
1.045399e+003, 4.190461e+001
1.045881e+003, 4.185059e+001
1.046363e+003, 4.194954e+001
1.046845e+003, 4.216230e+001
1.047328e+003, 4.208173e+001
1.047810e+003, 4.173610e+001
1.048292e+003, 4.162251e+001
1.048774e+003, 4.215978e+001
1.049256e+003, 4.275285e+001
1.049738e+003, 4.280274e+001
1.050220e+003, 4.263666e+001
1.050702e+003, 4.280114e+001
1.051184e+003, 4.349865e+001
1.051667e+003, 4.416302e+001
1.052149e+003, 4.482736e+001
1.052631e+003, 4.531380e+001
1.053113e+003, 4.537818e+001
1.053595e+003, 4.520009e+001
1.054077e+003, 4.514347e+001
1.054559e+003, 4.519766e+001
1.055041e+003, 4.517656e+001
1.055523e+003, 4.504867e+001
1.056006e+003, 4.476639e+001
1.056488e+003, 4.428933e+001
1.056970e+003, 4.368911e+001
1.057452e+003, 4.309478e+001
1.057934e+003, 4.250706e+001
1.058416e+003, 4.192479e+001
1.058898e+003, 4.134408e+001
1.059380e+003, 4.079068e+001
1.059863e+003, 4.035888e+001
1.060345e+003, 3.992336e+001
1.060827e+003, 3.932595e+001
1.061309e+003, 3.855116e+001
1.061791e+003, 3.803083e+001
1.062273e+003, 3.780325e+001
1.062755e+003, 3.764616e+001
1.063237e+003, 3.745795e+001
1.063719e+003, 3.729522e+001
1.064202e+003, 3.733165e+001
1.064684e+003, 3.743901e+001
1.065166e+003, 3.736066e+001
1.065648e+003, 3.680141e+001
1.066130e+003, 3.645537e+001
1.066612e+003, 3.649738e+001
1.067094e+003, 3.660148e+001
1.067576e+003, 3.643981e+001
1.068059e+003, 3.609056e+001
1.068541e+003, 3.604543e+001
1.069023e+003, 3.628030e+001
1.069505e+003, 3.654634e+001
1.069987e+003, 3.680082e+001
1.070469e+003, 3.693634e+001
1.070951e+003, 3.684888e+001
1.071433e+003, 3.661315e+001
1.071916e+003, 3.633030e+001
1.072398e+003, 3.598381e+001
1.072880e+003, 3.575564e+001
1.073362e+003, 3.567347e+001
1.073844e+003, 3.570317e+001
1.074326e+003, 3.590108e+001
1.074808e+003, 3.613453e+001
1.075290e+003, 3.627436e+001
1.075772e+003, 3.630595e+001
1.076255e+003, 3.624492e+001
1.076737e+003, 3.603963e+001
1.077219e+003, 3.587780e+001
1.077701e+003, 3.581760e+001
1.078183e+003, 3.584087e+001
1.078665e+003, 3.591941e+001
1.079147e+003, 3.605202e+001
1.079629e+003, 3.627207e+001
1.080111e+003, 3.669277e+001
1.080594e+003, 3.688809e+001
1.081076e+003, 3.642242e+001
1.081558e+003, 3.595829e+001
1.082040e+003, 3.586699e+001
1.082522e+003, 3.612402e+001
1.083004e+003, 3.662897e+001
1.083486e+003, 3.733528e+001
1.083968e+003, 3.776075e+001
1.084450e+003, 3.741193e+001
1.084933e+003, 3.695149e+001
1.085415e+003, 3.676653e+001
1.085897e+003, 3.675686e+001
1.086379e+003, 3.676405e+001
1.086861e+003, 3.682016e+001
1.087343e+003, 3.671147e+001
1.087825e+003, 3.639782e+001
1.088307e+003, 3.612675e+001
1.088790e+003, 3.620047e+001
1.089272e+003, 3.638230e+001
1.089754e+003, 3.634556e+001
1.090236e+003, 3.613156e+001
1.090718e+003, 3.604804e+001
1.091200e+003, 3.625229e+001
1.091682e+003, 3.640205e+001
1.092164e+003, 3.642799e+001
1.092646e+003, 3.639697e+001
1.093129e+003, 3.638736e+001
1.093611e+003, 3.640588e+001
1.094093e+003, 3.647968e+001
1.094575e+003, 3.661629e+001
1.095057e+003, 3.674823e+001
1.095539e+003, 3.679507e+001
1.096021e+003, 3.688990e+001
1.096503e+003, 3.712795e+001
1.096986e+003, 3.744347e+001
1.097468e+003, 3.759454e+001
1.097950e+003, 3.759087e+001
1.098432e+003, 3.749888e+001
1.098914e+003, 3.730030e+001
1.099396e+003, 3.712749e+001
1.099878e+003, 3.705565e+001
1.100360e+003, 3.707282e+001
1.100843e+003, 3.717438e+001
1.101325e+003, 3.736303e+001
1.101807e+003, 3.757387e+001
1.102289e+003, 3.780904e+001
1.102771e+003, 3.805527e+001
1.103253e+003, 3.834088e+001
1.103735e+003, 3.859571e+001
1.104217e+003, 3.872500e+001
1.104699e+003, 3.876144e+001
1.105182e+003, 3.876306e+001
1.105664e+003, 3.865303e+001
1.106146e+003, 3.868734e+001
1.106628e+003, 3.891058e+001
1.107110e+003, 3.917724e+001
1.107592e+003, 3.939088e+001
1.108074e+003, 3.954250e+001
1.108556e+003, 3.959589e+001
1.109038e+003, 3.956809e+001
1.109521e+003, 3.955322e+001
1.110003e+003, 3.963676e+001
1.110485e+003, 3.967081e+001
1.110967e+003, 3.963165e+001
1.111449e+003, 3.952361e+001
1.111931e+003, 3.930169e+001
1.112413e+003, 3.900897e+001
1.112895e+003, 3.888863e+001
1.113377e+003, 3.897199e+001
1.113860e+003, 3.896832e+001
1.114342e+003, 3.861340e+001
1.114824e+003, 3.820777e+001
1.115306e+003, 3.789793e+001
1.115788e+003, 3.767602e+001
1.116270e+003, 3.754017e+001
1.116752e+003, 3.748769e+001
1.117234e+003, 3.741703e+001
1.117717e+003, 3.729670e+001
1.118199e+003, 3.717565e+001
1.118681e+003, 3.708739e+001
1.119163e+003, 3.702570e+001
1.119645e+003, 3.699258e+001
1.120127e+003, 3.698801e+001
1.120609e+003, 3.698693e+001
1.121091e+003, 3.700500e+001
1.121573e+003, 3.690228e+001
1.122056e+003, 3.650453e+001
1.122538e+003, 3.614270e+001
1.123020e+003, 3.638373e+001
1.123502e+003, 3.689356e+001
1.123984e+003, 3.713741e+001
1.124466e+003, 3.681742e+001
1.124948e+003, 3.666744e+001
1.125430e+003, 3.675252e+001
1.125913e+003, 3.686501e+001
1.126395e+003, 3.684739e+001
1.126877e+003, 3.676957e+001
1.127359e+003, 3.683497e+001
1.127841e+003, 3.697528e+001
1.128323e+003, 3.699839e+001
1.128805e+003, 3.651386e+001
1.129287e+003, 3.639906e+001
1.129770e+003, 3.694239e+001
1.130252e+003, 3.759528e+001
1.130734e+003, 3.779036e+001
1.131216e+003, 3.763895e+001
1.131698e+003, 3.763268e+001
1.132180e+003, 3.775689e+001
1.132662e+003, 3.775779e+001
1.133144e+003, 3.720333e+001
1.133626e+003, 3.686555e+001
1.134109e+003, 3.713770e+001
1.134591e+003, 3.767747e+001
1.135073e+003, 3.797013e+001
1.135555e+003, 3.803448e+001
1.136037e+003, 3.812157e+001
1.136519e+003, 3.825995e+001
1.137001e+003, 3.842490e+001
1.137483e+003, 3.867904e+001
1.137965e+003, 3.887844e+001
1.138448e+003, 3.884594e+001
1.138930e+003, 3.869281e+001
1.139412e+003, 3.878474e+001
1.139894e+003, 3.913771e+001
1.140376e+003, 3.943990e+001
1.140858e+003, 3.962282e+001
1.141340e+003, 3.976368e+001
1.141822e+003, 3.983118e+001
1.142304e+003, 3.996812e+001
1.142787e+003, 4.038872e+001
1.143269e+003, 4.109159e+001
1.143751e+003, 4.154508e+001
1.144233e+003, 4.172817e+001
1.144715e+003, 4.173103e+001
1.145197e+003, 4.151991e+001
1.145679e+003, 4.128741e+001
1.146161e+003, 4.127665e+001
1.146644e+003, 4.140114e+001
1.147126e+003, 4.157792e+001
1.147608e+003, 4.184246e+001
1.148090e+003, 4.192134e+001
1.148572e+003, 4.179093e+001
1.149054e+003, 4.153740e+001
1.149536e+003, 4.118378e+001
1.150018e+003, 4.075667e+001
1.150500e+003, 4.026155e+001
1.150983e+003, 3.973289e+001
1.151465e+003, 3.922715e+001
1.151947e+003, 3.869637e+001
1.152429e+003, 3.835644e+001
1.152911e+003, 3.830697e+001
1.153393e+003, 3.825602e+001
1.153875e+003, 3.797546e+001
1.154357e+003, 3.755215e+001
1.154840e+003, 3.718967e+001
1.155322e+003, 3.688536e+001
1.155804e+003, 3.664738e+001
1.156286e+003, 3.650980e+001
1.156768e+003, 3.639708e+001
1.157250e+003, 3.632749e+001
1.157732e+003, 3.623198e+001
1.158214e+003, 3.600407e+001
1.158697e+003, 3.569299e+001
1.159179e+003, 3.551297e+001
1.159661e+003, 3.545907e+001
1.160143e+003, 3.547271e+001
1.160625e+003, 3.568111e+001
1.161107e+003, 3.573832e+001
1.161589e+003, 3.536877e+001
1.162071e+003, 3.497204e+001
1.162553e+003, 3.521611e+001
1.163036e+003, 3.595692e+001
1.163518e+003, 3.607553e+001
1.164000e+003, 3.553022e+001
1.164482e+003, 3.501984e+001
1.164964e+003, 3.494268e+001
1.165446e+003, 3.504034e+001
1.165928e+003, 3.536068e+001
1.166410e+003, 3.567587e+001
1.166892e+003, 3.543592e+001
1.167375e+003, 3.469751e+001
1.167857e+003, 3.436459e+001
1.168339e+003, 3.456761e+001
1.168821e+003, 3.483561e+001
1.169303e+003, 3.491192e+001
1.169785e+003, 3.486096e+001
1.170267e+003, 3.461180e+001
1.170749e+003, 3.428783e+001
1.171231e+003, 3.427049e+001
1.171714e+003, 3.455639e+001
1.172196e+003, 3.478476e+001
1.172678e+003, 3.487402e+001
1.173160e+003, 3.493209e+001
1.173642e+003, 3.506552e+001
1.174124e+003, 3.519078e+001
1.174606e+003, 3.523434e+001
1.175088e+003, 3.520617e+001
1.175571e+003, 3.514541e+001
1.176053e+003, 3.504897e+001
1.176535e+003, 3.498055e+001
1.177017e+003, 3.496418e+001
1.177499e+003, 3.495835e+001
1.177981e+003, 3.494480e+001
1.178463e+003, 3.490690e+001
1.178945e+003, 3.479738e+001
1.179427e+003, 3.461700e+001
1.179910e+003, 3.456333e+001
1.180392e+003, 3.464368e+001
1.180874e+003, 3.479415e+001
1.181356e+003, 3.505838e+001
1.181838e+003, 3.522587e+001
1.182320e+003, 3.489198e+001
1.182802e+003, 3.443834e+001
1.183284e+003, 3.436003e+001
1.183767e+003, 3.476170e+001
1.184249e+003, 3.501575e+001
1.184731e+003, 3.511446e+001
1.185213e+003, 3.513334e+001
1.185695e+003, 3.511231e+001
1.186177e+003, 3.502332e+001
1.186659e+003, 3.472196e+001
1.187141e+003, 3.438033e+001
1.187624e+003, 3.427555e+001
1.188106e+003, 3.452165e+001
1.188588e+003, 3.466084e+001
1.189070e+003, 3.465936e+001
1.189552e+003, 3.474755e+001
1.190034e+003, 3.519019e+001
1.190516e+003, 3.565130e+001
1.190998e+003, 3.571942e+001
1.191480e+003, 3.550394e+001
1.191963e+003, 3.516219e+001
1.192445e+003, 3.458473e+001
1.192927e+003, 3.426348e+001
1.193409e+003, 3.422858e+001
1.193891e+003, 3.430888e+001
1.194373e+003, 3.438214e+001
1.194855e+003, 3.450374e+001
1.195337e+003, 3.485481e+001
1.195819e+003, 3.529211e+001
1.196302e+003, 3.548345e+001
1.196784e+003, 3.526670e+001
1.197266e+003, 3.504718e+001
1.197748e+003, 3.480550e+001
1.198230e+003, 3.467407e+001
1.198712e+003, 3.484643e+001
1.199194e+003, 3.513132e+001
1.199676e+003, 3.531978e+001
1.200158e+003, 3.540226e+001
1.200641e+003, 3.534733e+001
1.201123e+003, 3.506499e+001
1.201605e+003, 3.486232e+001
1.202087e+003, 3.476465e+001
1.202569e+003, 3.471090e+001
1.203051e+003, 3.461260e+001
1.203533e+003, 3.454929e+001
1.204015e+003, 3.470626e+001
1.204498e+003, 3.499684e+001
1.204980e+003, 3.509830e+001
1.205462e+003, 3.486490e+001
1.205944e+003, 3.468876e+001
1.206426e+003, 3.459886e+001
1.206908e+003, 3.457969e+001
1.207390e+003, 3.465419e+001
1.207872e+003, 3.476294e+001
1.208354e+003, 3.482587e+001
1.208837e+003, 3.485125e+001
1.209319e+003, 3.489952e+001
1.209801e+003, 3.502175e+001
1.210283e+003, 3.502990e+001
1.210765e+003, 3.486347e+001
1.211247e+003, 3.472778e+001
1.211729e+003, 3.492652e+001
1.212211e+003, 3.522062e+001
1.212694e+003, 3.523927e+001
1.213176e+003, 3.503759e+001
1.213658e+003, 3.508767e+001
1.214140e+003, 3.561214e+001
1.214622e+003, 3.578435e+001
1.215104e+003, 3.541319e+001
1.215586e+003, 3.497998e+001
1.216068e+003, 3.510085e+001
1.216551e+003, 3.539168e+001
1.217033e+003, 3.534074e+001
1.217515e+003, 3.497685e+001
1.217997e+003, 3.478304e+001
1.218479e+003, 3.481707e+001
1.218961e+003, 3.492382e+001
1.219443e+003, 3.509178e+001
1.219925e+003, 3.526521e+001
1.220407e+003, 3.539318e+001
1.220890e+003, 3.548402e+001
1.221372e+003, 3.548568e+001
1.221854e+003, 3.543102e+001
1.222336e+003, 3.565209e+001
1.222818e+003, 3.631024e+001
1.223300e+003, 3.657049e+001
1.223782e+003, 3.620568e+001
1.224264e+003, 3.570579e+001
1.224746e+003, 3.561846e+001
1.225229e+003, 3.567487e+001
1.225711e+003, 3.556133e+001
1.226193e+003, 3.528568e+001
1.226675e+003, 3.520945e+001
1.227157e+003, 3.538788e+001
1.227639e+003, 3.546907e+001
1.228121e+003, 3.536271e+001
1.228603e+003, 3.521664e+001
1.229085e+003, 3.518992e+001
1.229568e+003, 3.519872e+001
1.230050e+003, 3.514737e+001
1.230532e+003, 3.504435e+001
1.231014e+003, 3.502676e+001
1.231496e+003, 3.510663e+001
1.231978e+003, 3.515424e+001
1.232460e+003, 3.512937e+001
1.232942e+003, 3.511967e+001
1.233425e+003, 3.525547e+001
1.233907e+003, 3.540796e+001
1.234389e+003, 3.546491e+001
1.234871e+003, 3.543169e+001
1.235353e+003, 3.533362e+001
1.235835e+003, 3.516305e+001
1.236317e+003, 3.515975e+001
1.236799e+003, 3.542110e+001
1.237281e+003, 3.564144e+001
1.237764e+003, 3.547498e+001
1.238246e+003, 3.523759e+001
1.238728e+003, 3.521289e+001
1.239210e+003, 3.534125e+001
1.239692e+003, 3.537463e+001
1.240174e+003, 3.531284e+001
1.240656e+003, 3.510299e+001
1.241138e+003, 3.468113e+001
1.241621e+003, 3.443166e+001
1.242103e+003, 3.480872e+001
1.242585e+003, 3.530478e+001
1.243067e+003, 3.561052e+001
1.243549e+003, 3.574596e+001
1.244031e+003, 3.576478e+001
1.244513e+003, 3.567890e+001
1.244995e+003, 3.557270e+001
1.245478e+003, 3.545527e+001
1.245960e+003, 3.538093e+001
1.246442e+003, 3.542662e+001
1.246924e+003, 3.547569e+001
1.247406e+003, 3.544923e+001
1.247888e+003, 3.538728e+001
1.248370e+003, 3.545882e+001
1.248852e+003, 3.561263e+001
1.249334e+003, 3.558119e+001
1.249817e+003, 3.525688e+001
1.250299e+003, 3.508195e+001
1.250781e+003, 3.548330e+001
1.251263e+003, 3.582570e+001
1.251745e+003, 3.583801e+001
1.252227e+003, 3.564231e+001
1.252709e+003, 3.549101e+001
1.253191e+003, 3.538704e+001
1.253673e+003, 3.533875e+001
1.254156e+003, 3.534999e+001
1.254638e+003, 3.540422e+001
1.255120e+003, 3.561152e+001
1.255602e+003, 3.566414e+001
1.256084e+003, 3.536963e+001
1.256566e+003, 3.498916e+001
1.257048e+003, 3.513343e+001
1.257530e+003, 3.556322e+001
1.258012e+003, 3.576228e+001
1.258495e+003, 3.561342e+001
1.258977e+003, 3.555722e+001
1.259459e+003, 3.568386e+001
1.259941e+003, 3.585479e+001
1.260423e+003, 3.604883e+001
1.260905e+003, 3.621655e+001
1.261387e+003, 3.627120e+001
1.261869e+003, 3.625187e+001
1.262352e+003, 3.620902e+001
1.262834e+003, 3.614834e+001
1.263316e+003, 3.609838e+001
1.263798e+003, 3.607726e+001
1.264280e+003, 3.598249e+001
1.264762e+003, 3.573354e+001
1.265244e+003, 3.556024e+001
1.265726e+003, 3.590557e+001
1.266208e+003, 3.637175e+001
1.266691e+003, 3.648726e+001
1.267173e+003, 3.621027e+001
1.267655e+003, 3.597076e+001
1.268137e+003, 3.576492e+001
1.268619e+003, 3.562235e+001
1.269101e+003, 3.555962e+001
1.269583e+003, 3.552668e+001
1.270065e+003, 3.542689e+001
1.270548e+003, 3.537413e+001
1.271030e+003, 3.555912e+001
1.271512e+003, 3.589101e+001
1.271994e+003, 3.594342e+001
1.272476e+003, 3.572187e+001
1.272958e+003, 3.549438e+001
1.273440e+003, 3.531694e+001
1.273922e+003, 3.517243e+001
1.274405e+003, 3.507693e+001
1.274887e+003, 3.497661e+001
1.275369e+003, 3.474527e+001
1.275851e+003, 3.453017e+001
1.276333e+003, 3.490102e+001
1.276815e+003, 3.570146e+001
1.277297e+003, 3.608563e+001
1.277779e+003, 3.586876e+001
1.278261e+003, 3.564160e+001
1.278744e+003, 3.577365e+001
1.279226e+003, 3.586175e+001
1.279708e+003, 3.571414e+001
1.280190e+003, 3.549492e+001
1.280672e+003, 3.558079e+001
1.281154e+003, 3.583622e+001
1.281636e+003, 3.588316e+001
1.282118e+003, 3.566984e+001
1.282600e+003, 3.551728e+001
1.283083e+003, 3.551251e+001
1.283565e+003, 3.560200e+001
1.284047e+003, 3.580243e+001
1.284529e+003, 3.602852e+001
1.285011e+003, 3.617791e+001
1.285493e+003, 3.626289e+001
1.285975e+003, 3.627597e+001
1.286457e+003, 3.622538e+001
1.286939e+003, 3.623790e+001
1.287422e+003, 3.639077e+001
1.287904e+003, 3.634969e+001
1.288386e+003, 3.601027e+001
1.288868e+003, 3.565928e+001
1.289350e+003, 3.564332e+001
1.289832e+003, 3.574337e+001
1.290314e+003, 3.572923e+001
1.290796e+003, 3.562468e+001
1.291279e+003, 3.561382e+001
1.291761e+003, 3.570313e+001
1.292243e+003, 3.582059e+001
1.292725e+003, 3.595854e+001
1.293207e+003, 3.608049e+001
1.293689e+003, 3.620808e+001
1.294171e+003, 3.625692e+001
1.294653e+003, 3.607514e+001
1.295135e+003, 3.582077e+001
1.295618e+003, 3.576926e+001
1.296100e+003, 3.590257e+001
1.296582e+003, 3.606712e+001
1.297064e+003, 3.624861e+001
1.297546e+003, 3.640468e+001
1.298028e+003, 3.657061e+001
1.298510e+003, 3.659151e+001
1.298992e+003, 3.635876e+001
1.299475e+003, 3.607937e+001
1.299957e+003, 3.606363e+001
1.300439e+003, 3.621333e+001
1.300921e+003, 3.621124e+001
1.301403e+003, 3.607613e+001
1.301885e+003, 3.601978e+001
##END=



