##NAMES=Bjarebyite
##RRUFFID=R130106
##IDEAL CHEMISTRY=BaMn^2+^_2_Al_2_(PO_4_)_3_(OH)_3_
##LOCALITY=Palermo #1 mine, North Groton, New Hampshire
##OWNER=RRUFF
##SOURCE=Donald Doell (small piece), Rock Currier (large Piece)
##DESCRIPTION=Dark green, heavily striated crystals
##STATUS=The identification of this mineral has been confirmed by single-crystal X-ray diffraction.
##URL=rruff.info/R130106
8.936163e+001, 0.000000e+000
8.984375e+001, 1.395168e+002
9.032587e+001, 1.400041e+002
9.080798e+001, 1.401587e+002
9.129010e+001, 1.400429e+002
9.177222e+001, 1.395152e+002
9.225433e+001, 1.382417e+002
9.273645e+001, 1.362692e+002
9.321857e+001, 1.341380e+002
9.370068e+001, 1.324013e+002
9.418280e+001, 1.309068e+002
9.466492e+001, 1.291588e+002
9.514703e+001, 1.267068e+002
9.562915e+001, 1.239466e+002
9.611127e+001, 1.220873e+002
9.659338e+001, 1.212763e+002
9.707550e+001, 1.206859e+002
9.755762e+001, 1.190771e+002
9.803973e+001, 1.164166e+002
9.852185e+001, 1.141927e+002
9.900397e+001, 1.131930e+002
9.948608e+001, 1.134472e+002
9.996820e+001, 1.135137e+002
1.004503e+002, 1.134768e+002
1.009324e+002, 1.131457e+002
1.014146e+002, 1.119570e+002
1.018967e+002, 1.095739e+002
1.023788e+002, 1.072653e+002
1.028609e+002, 1.057666e+002
1.033430e+002, 1.054249e+002
1.038251e+002, 1.047993e+002
1.043073e+002, 1.036707e+002
1.047894e+002, 1.021672e+002
1.052715e+002, 1.009912e+002
1.057536e+002, 1.003807e+002
1.062357e+002, 9.982420e+001
1.067178e+002, 9.893588e+001
1.072000e+002, 9.738355e+001
1.076821e+002, 9.599493e+001
1.081642e+002, 9.495252e+001
1.086463e+002, 9.429096e+001
1.091284e+002, 9.349263e+001
1.096105e+002, 9.224910e+001
1.100927e+002, 9.100111e+001
1.105748e+002, 9.017117e+001
1.110569e+002, 9.035136e+001
1.115390e+002, 9.039883e+001
1.120211e+002, 9.011131e+001
1.125032e+002, 8.950209e+001
1.129854e+002, 8.846282e+001
1.134675e+002, 8.637449e+001
1.139496e+002, 8.396297e+001
1.144317e+002, 8.225204e+001
1.149138e+002, 8.210471e+001
1.153959e+002, 8.226523e+001
1.158781e+002, 8.223212e+001
1.163602e+002, 8.203688e+001
1.168423e+002, 8.141394e+001
1.173244e+002, 7.977520e+001
1.178065e+002, 7.756977e+001
1.182886e+002, 7.594047e+001
1.187708e+002, 7.596471e+001
1.192529e+002, 7.645360e+001
1.197350e+002, 7.646996e+001
1.202171e+002, 7.552248e+001
1.206992e+002, 7.434444e+001
1.211813e+002, 7.330012e+001
1.216635e+002, 7.239009e+001
1.221456e+002, 7.164906e+001
1.226277e+002, 7.116695e+001
1.231098e+002, 7.085122e+001
1.235919e+002, 7.058377e+001
1.240740e+002, 7.046481e+001
1.245562e+002, 7.028796e+001
1.250383e+002, 6.981577e+001
1.255204e+002, 6.904827e+001
1.260025e+002, 6.815083e+001
1.264846e+002, 6.713136e+001
1.269667e+002, 6.607575e+001
1.274489e+002, 6.519860e+001
1.279310e+002, 6.472425e+001
1.284131e+002, 6.446980e+001
1.288952e+002, 6.403538e+001
1.293773e+002, 6.336898e+001
1.298594e+002, 6.271730e+001
1.303416e+002, 6.250269e+001
1.308237e+002, 6.265451e+001
1.313058e+002, 6.264353e+001
1.317879e+002, 6.206403e+001
1.322700e+002, 6.103973e+001
1.327521e+002, 6.015613e+001
1.332343e+002, 5.943886e+001
1.337164e+002, 5.890744e+001
1.341985e+002, 5.865156e+001
1.346806e+002, 5.869375e+001
1.351627e+002, 5.871328e+001
1.356448e+002, 5.853923e+001
1.361270e+002, 5.817194e+001
1.366091e+002, 5.755318e+001
1.370912e+002, 5.651240e+001
1.375733e+002, 5.529592e+001
1.380554e+002, 5.481207e+001
1.385375e+002, 5.530435e+001
1.390197e+002, 5.581694e+001
1.395018e+002, 5.548828e+001
1.399839e+002, 5.406693e+001
1.404660e+002, 5.290667e+001
1.409481e+002, 5.219873e+001
1.414302e+002, 5.194329e+001
1.419124e+002, 5.222438e+001
1.423945e+002, 5.349865e+001
1.428766e+002, 5.468087e+001
1.433587e+002, 5.453563e+001
1.438408e+002, 5.223163e+001
1.443229e+002, 5.030708e+001
1.448051e+002, 4.939254e+001
1.452872e+002, 4.962798e+001
1.457693e+002, 4.977248e+001
1.462514e+002, 4.987673e+001
1.467335e+002, 4.986210e+001
1.472156e+002, 4.961556e+001
1.476978e+002, 4.897226e+001
1.481799e+002, 4.830385e+001
1.486620e+002, 4.769881e+001
1.491441e+002, 4.719647e+001
1.496262e+002, 4.666048e+001
1.501083e+002, 4.600185e+001
1.505905e+002, 4.533105e+001
1.510726e+002, 4.484127e+001
1.515547e+002, 4.467073e+001
1.520368e+002, 4.456559e+001
1.525189e+002, 4.445534e+001
1.530010e+002, 4.435720e+001
1.534832e+002, 4.422124e+001
1.539653e+002, 4.414585e+001
1.544474e+002, 4.403659e+001
1.549295e+002, 4.366675e+001
1.554116e+002, 4.256129e+001
1.558937e+002, 4.151170e+001
1.563759e+002, 4.090110e+001
1.568580e+002, 4.115744e+001
1.573401e+002, 4.134823e+001
1.578222e+002, 4.128322e+001
1.583043e+002, 4.100926e+001
1.587864e+002, 4.069911e+001
1.592686e+002, 4.039740e+001
1.597507e+002, 4.007536e+001
1.602328e+002, 3.971180e+001
1.607149e+002, 3.904933e+001
1.611970e+002, 3.859888e+001
1.616791e+002, 3.875877e+001
1.621613e+002, 3.940445e+001
1.626434e+002, 3.972480e+001
1.631255e+002, 3.906755e+001
1.636076e+002, 3.807357e+001
1.640897e+002, 3.731380e+001
1.645718e+002, 3.717456e+001
1.650540e+002, 3.714475e+001
1.655361e+002, 3.690761e+001
1.660182e+002, 3.647529e+001
1.665003e+002, 3.621241e+001
1.669824e+002, 3.648638e+001
1.674645e+002, 3.699580e+001
1.679467e+002, 3.736460e+001
1.684288e+002, 3.735934e+001
1.689109e+002, 3.722865e+001
1.693930e+002, 3.720435e+001
1.698751e+002, 3.730431e+001
1.703572e+002, 3.722963e+001
1.708394e+002, 3.643462e+001
1.713215e+002, 3.535233e+001
1.718036e+002, 3.472327e+001
1.722857e+002, 3.533449e+001
1.727678e+002, 3.630579e+001
1.732499e+002, 3.669696e+001
1.737321e+002, 3.638551e+001
1.742142e+002, 3.600106e+001
1.746963e+002, 3.612038e+001
1.751784e+002, 3.657998e+001
1.756605e+002, 3.699410e+001
1.761426e+002, 3.701458e+001
1.766248e+002, 3.692116e+001
1.771069e+002, 3.718652e+001
1.775890e+002, 3.794480e+001
1.780711e+002, 3.866857e+001
1.785532e+002, 3.859650e+001
1.790353e+002, 3.794584e+001
1.795175e+002, 3.749771e+001
1.799996e+002, 3.772119e+001
1.804817e+002, 3.844019e+001
1.809638e+002, 3.943231e+001
1.814459e+002, 4.080865e+001
1.819280e+002, 4.208854e+001
1.824102e+002, 4.248838e+001
1.828923e+002, 4.212281e+001
1.833744e+002, 4.176561e+001
1.838565e+002, 4.187004e+001
1.843386e+002, 4.236058e+001
1.848207e+002, 4.307532e+001
1.853029e+002, 4.409523e+001
1.857850e+002, 4.515082e+001
1.862671e+002, 4.583364e+001
1.867492e+002, 4.614593e+001
1.872313e+002, 4.623045e+001
1.877134e+002, 4.593886e+001
1.881956e+002, 4.541622e+001
1.886777e+002, 4.542169e+001
1.891598e+002, 4.621852e+001
1.896419e+002, 4.743859e+001
1.901240e+002, 4.826295e+001
1.906061e+002, 4.868338e+001
1.910883e+002, 4.910142e+001
1.915704e+002, 4.984463e+001
1.920525e+002, 5.089187e+001
1.925346e+002, 5.197323e+001
1.930167e+002, 5.305284e+001
1.934988e+002, 5.409003e+001
1.939810e+002, 5.483071e+001
1.944631e+002, 5.520095e+001
1.949452e+002, 5.563314e+001
1.954273e+002, 5.623171e+001
1.959094e+002, 5.699175e+001
1.963915e+002, 5.794962e+001
1.968737e+002, 5.919004e+001
1.973558e+002, 6.059353e+001
1.978379e+002, 6.178119e+001
1.983200e+002, 6.274910e+001
1.988021e+002, 6.352987e+001
1.992842e+002, 6.406333e+001
1.997664e+002, 6.433576e+001
2.002485e+002, 6.471965e+001
2.007306e+002, 6.527039e+001
2.012127e+002, 6.599178e+001
2.016948e+002, 6.692610e+001
2.021769e+002, 6.807149e+001
2.026591e+002, 6.942622e+001
2.031412e+002, 7.105701e+001
2.036233e+002, 7.302840e+001
2.041054e+002, 7.484122e+001
2.045875e+002, 7.631330e+001
2.050696e+002, 7.750320e+001
2.055518e+002, 7.895599e+001
2.060339e+002, 8.072370e+001
2.065160e+002, 8.262708e+001
2.069981e+002, 8.454115e+001
2.074802e+002, 8.649189e+001
2.079623e+002, 8.828109e+001
2.084445e+002, 8.997359e+001
2.089266e+002, 9.155354e+001
2.094087e+002, 9.231686e+001
2.098908e+002, 9.208931e+001
2.103729e+002, 9.139732e+001
2.108550e+002, 9.086971e+001
2.113372e+002, 9.068590e+001
2.118193e+002, 9.004749e+001
2.123014e+002, 8.862724e+001
2.127835e+002, 8.643776e+001
2.132656e+002, 8.450740e+001
2.137477e+002, 8.290330e+001
2.142299e+002, 8.144998e+001
2.147120e+002, 7.995039e+001
2.151941e+002, 7.833372e+001
2.156762e+002, 7.682832e+001
2.161583e+002, 7.548888e+001
2.166404e+002, 7.433259e+001
2.171226e+002, 7.319926e+001
2.176047e+002, 7.207322e+001
2.180868e+002, 7.098589e+001
2.185689e+002, 6.993525e+001
2.190510e+002, 6.884602e+001
2.195331e+002, 6.796452e+001
2.200153e+002, 6.739144e+001
2.204974e+002, 6.716233e+001
2.209795e+002, 6.680487e+001
2.214616e+002, 6.620208e+001
2.219437e+002, 6.559164e+001
2.224258e+002, 6.528567e+001
2.229080e+002, 6.542535e+001
2.233901e+002, 6.557658e+001
2.238722e+002, 6.566225e+001
2.243543e+002, 6.570296e+001
2.248364e+002, 6.549300e+001
2.253185e+002, 6.487222e+001
2.258007e+002, 6.415135e+001
2.262828e+002, 6.371291e+001
2.267649e+002, 6.362142e+001
2.272470e+002, 6.369260e+001
2.277291e+002, 6.394184e+001
2.282112e+002, 6.442595e+001
2.286934e+002, 6.466062e+001
2.291755e+002, 6.457018e+001
2.296576e+002, 6.429822e+001
2.301397e+002, 6.400448e+001
2.306218e+002, 6.358995e+001
2.311039e+002, 6.334035e+001
2.315861e+002, 6.343017e+001
2.320682e+002, 6.397365e+001
2.325503e+002, 6.404814e+001
2.330324e+002, 6.343301e+001
2.335145e+002, 6.254345e+001
2.339966e+002, 6.190109e+001
2.344788e+002, 6.166067e+001
2.349609e+002, 6.139677e+001
2.354430e+002, 6.095366e+001
2.359251e+002, 6.026982e+001
2.364072e+002, 5.985675e+001
2.368893e+002, 5.985286e+001
2.373715e+002, 6.000365e+001
2.378536e+002, 6.000698e+001
2.383357e+002, 5.986510e+001
2.388178e+002, 5.956002e+001
2.392999e+002, 5.899277e+001
2.397820e+002, 5.808487e+001
2.402642e+002, 5.758023e+001
2.407463e+002, 5.776492e+001
2.412284e+002, 5.810976e+001
2.417105e+002, 5.792806e+001
2.421926e+002, 5.687508e+001
2.426747e+002, 5.592683e+001
2.431569e+002, 5.537222e+001
2.436390e+002, 5.527653e+001
2.441211e+002, 5.499698e+001
2.446032e+002, 5.438074e+001
2.450853e+002, 5.371420e+001
2.455674e+002, 5.336118e+001
2.460496e+002, 5.354895e+001
2.465317e+002, 5.362679e+001
2.470138e+002, 5.340272e+001
2.474959e+002, 5.283681e+001
2.479780e+002, 5.243043e+001
2.484601e+002, 5.223067e+001
2.489423e+002, 5.214063e+001
2.494244e+002, 5.205080e+001
2.499065e+002, 5.192557e+001
2.503886e+002, 5.187415e+001
2.508707e+002, 5.193119e+001
2.513528e+002, 5.210011e+001
2.518350e+002, 5.228952e+001
2.523171e+002, 5.249228e+001
2.527992e+002, 5.272028e+001
2.532813e+002, 5.298448e+001
2.537634e+002, 5.327880e+001
2.542455e+002, 5.361950e+001
2.547277e+002, 5.404755e+001
2.552098e+002, 5.456766e+001
2.556919e+002, 5.492491e+001
2.561740e+002, 5.507732e+001
2.566561e+002, 5.511811e+001
2.571382e+002, 5.508056e+001
2.576204e+002, 5.481096e+001
2.581025e+002, 5.484801e+001
2.585846e+002, 5.539704e+001
2.590667e+002, 5.642607e+001
2.595488e+002, 5.718964e+001
2.600309e+002, 5.756896e+001
2.605131e+002, 5.783617e+001
2.609952e+002, 5.819375e+001
2.614773e+002, 5.861504e+001
2.619594e+002, 5.923357e+001
2.624415e+002, 6.019605e+001
2.629236e+002, 6.143919e+001
2.634058e+002, 6.214624e+001
2.638879e+002, 6.206910e+001
2.643700e+002, 6.189082e+001
2.648521e+002, 6.214829e+001
2.653342e+002, 6.291434e+001
2.658163e+002, 6.387141e+001
2.662985e+002, 6.500999e+001
2.667806e+002, 6.629792e+001
2.672627e+002, 6.764223e+001
2.677448e+002, 6.913688e+001
2.682269e+002, 7.047097e+001
2.687090e+002, 7.128403e+001
2.691912e+002, 7.136182e+001
2.696733e+002, 7.191257e+001
2.701554e+002, 7.325298e+001
2.706375e+002, 7.513529e+001
2.711196e+002, 7.651805e+001
2.716017e+002, 7.732211e+001
2.720839e+002, 7.784306e+001
2.725660e+002, 7.826322e+001
2.730481e+002, 7.860339e+001
2.735302e+002, 7.873543e+001
2.740123e+002, 7.866411e+001
2.744944e+002, 7.836854e+001
2.749766e+002, 7.777470e+001
2.754587e+002, 7.686808e+001
2.759408e+002, 7.573410e+001
2.764229e+002, 7.442165e+001
2.769050e+002, 7.291975e+001
2.773871e+002, 7.131645e+001
2.778693e+002, 6.960766e+001
2.783514e+002, 6.781376e+001
2.788335e+002, 6.594834e+001
2.793156e+002, 6.397033e+001
2.797977e+002, 6.206154e+001
2.802798e+002, 6.032528e+001
2.807620e+002, 5.877641e+001
2.812441e+002, 5.723167e+001
2.817262e+002, 5.564314e+001
2.822083e+002, 5.412483e+001
2.826904e+002, 5.289724e+001
2.831725e+002, 5.197087e+001
2.836547e+002, 5.117518e+001
2.841368e+002, 5.045044e+001
2.846189e+002, 4.979879e+001
2.851010e+002, 4.916373e+001
2.855831e+002, 4.853366e+001
2.860652e+002, 4.794899e+001
2.865474e+002, 4.752295e+001
2.870295e+002, 4.725083e+001
2.875116e+002, 4.689794e+001
2.879937e+002, 4.619188e+001
2.884758e+002, 4.525212e+001
2.889579e+002, 4.490990e+001
2.894401e+002, 4.524717e+001
2.899222e+002, 4.572931e+001
2.904043e+002, 4.563044e+001
2.908864e+002, 4.502736e+001
2.913685e+002, 4.453868e+001
2.918506e+002, 4.446473e+001
2.923328e+002, 4.467297e+001
2.928149e+002, 4.478670e+001
2.932970e+002, 4.480241e+001
2.937791e+002, 4.477660e+001
2.942612e+002, 4.469475e+001
2.947433e+002, 4.459840e+001
2.952255e+002, 4.467006e+001
2.957076e+002, 4.507488e+001
2.961897e+002, 4.562585e+001
2.966718e+002, 4.592105e+001
2.971539e+002, 4.596547e+001
2.976360e+002, 4.597789e+001
2.981182e+002, 4.613743e+001
2.986003e+002, 4.640704e+001
2.990824e+002, 4.670607e+001
2.995645e+002, 4.704592e+001
3.000466e+002, 4.736941e+001
3.005287e+002, 4.750527e+001
3.010109e+002, 4.749416e+001
3.014930e+002, 4.763607e+001
3.019751e+002, 4.826402e+001
3.024572e+002, 4.917012e+001
3.029393e+002, 4.998723e+001
3.034214e+002, 5.062537e+001
3.039036e+002, 5.119196e+001
3.043857e+002, 5.180058e+001
3.048678e+002, 5.243612e+001
3.053499e+002, 5.305664e+001
3.058320e+002, 5.357578e+001
3.063141e+002, 5.408446e+001
3.067963e+002, 5.469595e+001
3.072784e+002, 5.546329e+001
3.077605e+002, 5.625329e+001
3.082426e+002, 5.692524e+001
3.087247e+002, 5.753262e+001
3.092068e+002, 5.820389e+001
3.096890e+002, 5.907273e+001
3.101711e+002, 5.999458e+001
3.106532e+002, 6.085183e+001
3.111353e+002, 6.163369e+001
3.116174e+002, 6.231894e+001
3.120995e+002, 6.288251e+001
3.125817e+002, 6.333107e+001
3.130638e+002, 6.368521e+001
3.135459e+002, 6.406168e+001
3.140280e+002, 6.426839e+001
3.145101e+002, 6.418174e+001
3.149922e+002, 6.379055e+001
3.154744e+002, 6.319955e+001
3.159565e+002, 6.234939e+001
3.164386e+002, 6.136355e+001
3.169207e+002, 6.039429e+001
3.174028e+002, 5.966081e+001
3.178849e+002, 5.878920e+001
3.183671e+002, 5.755502e+001
3.188492e+002, 5.596567e+001
3.193313e+002, 5.442537e+001
3.198134e+002, 5.300009e+001
3.202955e+002, 5.170616e+001
3.207776e+002, 5.057189e+001
3.212598e+002, 4.957412e+001
3.217419e+002, 4.875058e+001
3.222240e+002, 4.824928e+001
3.227061e+002, 4.798661e+001
3.231882e+002, 4.753086e+001
3.236703e+002, 4.645599e+001
3.241525e+002, 4.539828e+001
3.246346e+002, 4.472244e+001
3.251167e+002, 4.475340e+001
3.255988e+002, 4.476430e+001
3.260809e+002, 4.466602e+001
3.265630e+002, 4.450069e+001
3.270452e+002, 4.438308e+001
3.275273e+002, 4.428753e+001
3.280094e+002, 4.427119e+001
3.284915e+002, 4.438173e+001
3.289736e+002, 4.475598e+001
3.294557e+002, 4.494715e+001
3.299379e+002, 4.480906e+001
3.304200e+002, 4.453384e+001
3.309021e+002, 4.442353e+001
3.313842e+002, 4.447373e+001
3.318663e+002, 4.469689e+001
3.323484e+002, 4.518948e+001
3.328306e+002, 4.603562e+001
3.333127e+002, 4.653142e+001
3.337948e+002, 4.655268e+001
3.342769e+002, 4.633362e+001
3.347590e+002, 4.610035e+001
3.352411e+002, 4.577431e+001
3.357233e+002, 4.561992e+001
3.362054e+002, 4.577911e+001
3.366875e+002, 4.621918e+001
3.371696e+002, 4.629528e+001
3.376517e+002, 4.577396e+001
3.381339e+002, 4.533796e+001
3.386160e+002, 4.573391e+001
3.390981e+002, 4.725130e+001
3.395802e+002, 4.812603e+001
3.400623e+002, 4.793805e+001
3.405444e+002, 4.700690e+001
3.410266e+002, 4.642924e+001
3.415087e+002, 4.625507e+001
3.419908e+002, 4.614877e+001
3.424729e+002, 4.586879e+001
3.429550e+002, 4.541835e+001
3.434371e+002, 4.506920e+001
3.439193e+002, 4.483583e+001
3.444014e+002, 4.472985e+001
3.448835e+002, 4.483655e+001
3.453656e+002, 4.515416e+001
3.458477e+002, 4.544523e+001
3.463298e+002, 4.553001e+001
3.468120e+002, 4.547672e+001
3.472941e+002, 4.561094e+001
3.477762e+002, 4.597022e+001
3.482583e+002, 4.636407e+001
3.487404e+002, 4.658529e+001
3.492225e+002, 4.665168e+001
3.497047e+002, 4.663126e+001
3.501868e+002, 4.644445e+001
3.506689e+002, 4.623464e+001
3.511510e+002, 4.629679e+001
3.516331e+002, 4.662635e+001
3.521152e+002, 4.699823e+001
3.525974e+002, 4.719062e+001
3.530795e+002, 4.729649e+001
3.535616e+002, 4.750984e+001
3.540437e+002, 4.800496e+001
3.545258e+002, 4.847145e+001
3.550079e+002, 4.858609e+001
3.554901e+002, 4.839028e+001
3.559722e+002, 4.807638e+001
3.564543e+002, 4.770807e+001
3.569364e+002, 4.730861e+001
3.574185e+002, 4.691612e+001
3.579006e+002, 4.657722e+001
3.583828e+002, 4.614046e+001
3.588649e+002, 4.533110e+001
3.593470e+002, 4.435639e+001
3.598291e+002, 4.362818e+001
3.603112e+002, 4.359802e+001
3.607933e+002, 4.366473e+001
3.612755e+002, 4.335712e+001
3.617576e+002, 4.253710e+001
3.622397e+002, 4.205302e+001
3.627218e+002, 4.276616e+001
3.632039e+002, 4.379327e+001
3.636860e+002, 4.414863e+001
3.641682e+002, 4.283032e+001
3.646503e+002, 4.152298e+001
3.651324e+002, 4.075798e+001
3.656145e+002, 4.052405e+001
3.660966e+002, 4.043630e+001
3.665787e+002, 4.063935e+001
3.670609e+002, 4.083905e+001
3.675430e+002, 4.084698e+001
3.680251e+002, 4.040270e+001
3.685072e+002, 4.005433e+001
3.689893e+002, 3.984840e+001
3.694714e+002, 3.976721e+001
3.699536e+002, 3.977178e+001
3.704357e+002, 3.999206e+001
3.709178e+002, 4.016083e+001
3.713999e+002, 4.014937e+001
3.718820e+002, 3.983323e+001
3.723641e+002, 3.966417e+001
3.728463e+002, 3.970766e+001
3.733284e+002, 3.985640e+001
3.738105e+002, 3.992445e+001
3.742926e+002, 3.981976e+001
3.747747e+002, 3.985050e+001
3.752568e+002, 4.017415e+001
3.757390e+002, 4.079699e+001
3.762211e+002, 4.115058e+001
3.767032e+002, 4.117645e+001
3.771853e+002, 4.106073e+001
3.776674e+002, 4.095089e+001
3.781495e+002, 4.083832e+001
3.786317e+002, 4.081130e+001
3.791138e+002, 4.090337e+001
3.795959e+002, 4.108134e+001
3.800780e+002, 4.125280e+001
3.805601e+002, 4.141692e+001
3.810422e+002, 4.157745e+001
3.815244e+002, 4.173454e+001
3.820065e+002, 4.189087e+001
3.824886e+002, 4.207508e+001
3.829707e+002, 4.232076e+001
3.834528e+002, 4.251208e+001
3.839349e+002, 4.241557e+001
3.844171e+002, 4.208491e+001
3.848992e+002, 4.181382e+001
3.853813e+002, 4.186443e+001
3.858634e+002, 4.202812e+001
3.863455e+002, 4.184278e+001
3.868276e+002, 4.127692e+001
3.873098e+002, 4.082823e+001
3.877919e+002, 4.110793e+001
3.882740e+002, 4.177755e+001
3.887561e+002, 4.222117e+001
3.892382e+002, 4.203252e+001
3.897203e+002, 4.174015e+001
3.902025e+002, 4.178141e+001
3.906846e+002, 4.210719e+001
3.911667e+002, 4.249172e+001
3.916488e+002, 4.294336e+001
3.921309e+002, 4.332194e+001
3.926130e+002, 4.345582e+001
3.930952e+002, 4.312141e+001
3.935773e+002, 4.296333e+001
3.940594e+002, 4.343607e+001
3.945415e+002, 4.425724e+001
3.950236e+002, 4.490254e+001
3.955057e+002, 4.509518e+001
3.959879e+002, 4.518632e+001
3.964700e+002, 4.533644e+001
3.969521e+002, 4.558728e+001
3.974342e+002, 4.570102e+001
3.979163e+002, 4.548005e+001
3.983984e+002, 4.518343e+001
3.988806e+002, 4.504744e+001
3.993627e+002, 4.519597e+001
3.998448e+002, 4.538457e+001
4.003269e+002, 4.563656e+001
4.008090e+002, 4.593031e+001
4.012911e+002, 4.609305e+001
4.017733e+002, 4.606549e+001
4.022554e+002, 4.597905e+001
4.027375e+002, 4.589079e+001
4.032196e+002, 4.577382e+001
4.037017e+002, 4.572084e+001
4.041838e+002, 4.572974e+001
4.046660e+002, 4.580654e+001
4.051481e+002, 4.596261e+001
4.056302e+002, 4.620144e+001
4.061123e+002, 4.651444e+001
4.065944e+002, 4.695599e+001
4.070765e+002, 4.751246e+001
4.075587e+002, 4.779060e+001
4.080408e+002, 4.771797e+001
4.085229e+002, 4.764769e+001
4.090050e+002, 4.803907e+001
4.094871e+002, 4.884967e+001
4.099692e+002, 4.947422e+001
4.104514e+002, 4.972727e+001
4.109335e+002, 4.978408e+001
4.114156e+002, 4.999330e+001
4.118977e+002, 5.034416e+001
4.123798e+002, 5.073714e+001
4.128619e+002, 5.114876e+001
4.133441e+002, 5.154359e+001
4.138262e+002, 5.183792e+001
4.143083e+002, 5.200633e+001
4.147904e+002, 5.215999e+001
4.152725e+002, 5.237261e+001
4.157546e+002, 5.265322e+001
4.162368e+002, 5.302621e+001
4.167189e+002, 5.361615e+001
4.172010e+002, 5.421724e+001
4.176831e+002, 5.467296e+001
4.181652e+002, 5.498101e+001
4.186473e+002, 5.522665e+001
4.191295e+002, 5.539232e+001
4.196116e+002, 5.554516e+001
4.200937e+002, 5.573981e+001
4.205758e+002, 5.598124e+001
4.210579e+002, 5.628076e+001
4.215400e+002, 5.660631e+001
4.220222e+002, 5.699216e+001
4.225043e+002, 5.753224e+001
4.229864e+002, 5.850907e+001
4.234685e+002, 5.941076e+001
4.239506e+002, 5.999637e+001
4.244327e+002, 6.009630e+001
4.249149e+002, 6.040127e+001
4.253970e+002, 6.109882e+001
4.258791e+002, 6.191945e+001
4.263612e+002, 6.258590e+001
4.268433e+002, 6.282206e+001
4.273254e+002, 6.335707e+001
4.278076e+002, 6.446784e+001
4.282897e+002, 6.603048e+001
4.287718e+002, 6.705674e+001
4.292539e+002, 6.733898e+001
4.297360e+002, 6.748148e+001
4.302181e+002, 6.784827e+001
4.307003e+002, 6.848353e+001
4.311824e+002, 6.905434e+001
4.316645e+002, 6.955561e+001
4.321466e+002, 6.997200e+001
4.326287e+002, 7.022173e+001
4.331108e+002, 7.029914e+001
4.335930e+002, 7.042817e+001
4.340751e+002, 7.069276e+001
4.345572e+002, 7.107557e+001
4.350393e+002, 7.154128e+001
4.355214e+002, 7.209034e+001
4.360035e+002, 7.265668e+001
4.364857e+002, 7.318539e+001
4.369678e+002, 7.367935e+001
4.374499e+002, 7.413654e+001
4.379320e+002, 7.450529e+001
4.384141e+002, 7.493953e+001
4.388962e+002, 7.571732e+001
4.393784e+002, 7.671870e+001
4.398605e+002, 7.759239e+001
4.403426e+002, 7.796259e+001
4.408247e+002, 7.824091e+001
4.413068e+002, 7.877912e+001
4.417889e+002, 7.961264e+001
4.422711e+002, 8.056501e+001
4.427532e+002, 8.151991e+001
4.432353e+002, 8.255740e+001
4.437174e+002, 8.376066e+001
4.441995e+002, 8.519883e+001
4.446816e+002, 8.675732e+001
4.451638e+002, 8.844295e+001
4.456459e+002, 9.023082e+001
4.461280e+002, 9.207940e+001
4.466101e+002, 9.398368e+001
4.470922e+002, 9.594437e+001
4.475743e+002, 9.798899e+001
4.480565e+002, 1.001621e+002
4.485386e+002, 1.022625e+002
4.490207e+002, 1.043048e+002
4.495028e+002, 1.062537e+002
4.499849e+002, 1.080084e+002
4.504670e+002, 1.094914e+002
4.509492e+002, 1.109914e+002
4.514313e+002, 1.125824e+002
4.519134e+002, 1.142446e+002
4.523955e+002, 1.158680e+002
4.528776e+002, 1.175192e+002
4.533597e+002, 1.188090e+002
4.538419e+002, 1.193883e+002
4.543240e+002, 1.192667e+002
4.548061e+002, 1.190139e+002
4.552882e+002, 1.187280e+002
4.557703e+002, 1.181945e+002
4.562524e+002, 1.169861e+002
4.567346e+002, 1.151650e+002
4.572167e+002, 1.132806e+002
4.576988e+002, 1.115866e+002
4.581809e+002, 1.099384e+002
4.586630e+002, 1.080242e+002
4.591451e+002, 1.058695e+002
4.596273e+002, 1.036255e+002
4.601094e+002, 1.013899e+002
4.605915e+002, 9.916307e+001
4.610736e+002, 9.693533e+001
4.615557e+002, 9.462698e+001
4.620378e+002, 9.243613e+001
4.625200e+002, 9.061474e+001
4.630021e+002, 8.898368e+001
4.634842e+002, 8.723074e+001
4.639663e+002, 8.491361e+001
4.644484e+002, 8.271476e+001
4.649305e+002, 8.108279e+001
4.654127e+002, 8.006977e+001
4.658948e+002, 7.897534e+001
4.663769e+002, 7.752104e+001
4.668590e+002, 7.602805e+001
4.673411e+002, 7.473425e+001
4.678232e+002, 7.374111e+001
4.683054e+002, 7.281251e+001
4.687875e+002, 7.203638e+001
4.692696e+002, 7.131149e+001
4.697517e+002, 7.034543e+001
4.702338e+002, 6.895567e+001
4.707159e+002, 6.767054e+001
4.711981e+002, 6.665790e+001
4.716802e+002, 6.591958e+001
4.721623e+002, 6.545231e+001
4.726444e+002, 6.534295e+001
4.731265e+002, 6.528227e+001
4.736086e+002, 6.492204e+001
4.740908e+002, 6.426852e+001
4.745729e+002, 6.374642e+001
4.750550e+002, 6.349793e+001
4.755371e+002, 6.331386e+001
4.760192e+002, 6.269167e+001
4.765013e+002, 6.169549e+001
4.769835e+002, 6.085315e+001
4.774656e+002, 6.058528e+001
4.779477e+002, 6.060476e+001
4.784298e+002, 6.046291e+001
4.789119e+002, 6.013819e+001
4.793940e+002, 5.972139e+001
4.798762e+002, 5.923794e+001
4.803583e+002, 5.871929e+001
4.808404e+002, 5.819677e+001
4.813225e+002, 5.758379e+001
4.818046e+002, 5.709431e+001
4.822867e+002, 5.695527e+001
4.827689e+002, 5.703468e+001
4.832510e+002, 5.699171e+001
4.837331e+002, 5.665788e+001
4.842152e+002, 5.622741e+001
4.846973e+002, 5.577672e+001
4.851794e+002, 5.530817e+001
4.856616e+002, 5.482928e+001
4.861437e+002, 5.429090e+001
4.866258e+002, 5.377360e+001
4.871079e+002, 5.334238e+001
4.875900e+002, 5.308475e+001
4.880721e+002, 5.274829e+001
4.885543e+002, 5.226726e+001
4.890364e+002, 5.170597e+001
4.895185e+002, 5.128083e+001
4.900006e+002, 5.105747e+001
4.904827e+002, 5.076721e+001
4.909648e+002, 5.024468e+001
4.914470e+002, 4.950588e+001
4.919291e+002, 4.893727e+001
4.924112e+002, 4.855457e+001
4.928933e+002, 4.828333e+001
4.933754e+002, 4.811414e+001
4.938575e+002, 4.801030e+001
4.943397e+002, 4.778293e+001
4.948218e+002, 4.732969e+001
4.953039e+002, 4.685868e+001
4.957860e+002, 4.668152e+001
4.962681e+002, 4.674047e+001
4.967502e+002, 4.683710e+001
4.972324e+002, 4.694798e+001
4.977145e+002, 4.699593e+001
4.981966e+002, 4.682473e+001
4.986787e+002, 4.642534e+001
4.991608e+002, 4.618354e+001
4.996429e+002, 4.637809e+001
5.001251e+002, 4.677911e+001
5.006072e+002, 4.719788e+001
5.010893e+002, 4.772018e+001
5.015714e+002, 4.806939e+001
5.020535e+002, 4.810651e+001
5.025356e+002, 4.793275e+001
5.030178e+002, 4.777949e+001
5.034999e+002, 4.743879e+001
5.039820e+002, 4.737237e+001
5.044641e+002, 4.780424e+001
5.049462e+002, 4.876394e+001
5.054283e+002, 4.942632e+001
5.059105e+002, 4.966309e+001
5.063926e+002, 4.979549e+001
5.068747e+002, 5.007900e+001
5.073568e+002, 5.054647e+001
5.078389e+002, 5.093488e+001
5.083210e+002, 5.120418e+001
5.088032e+002, 5.140239e+001
5.092853e+002, 5.156379e+001
5.097674e+002, 5.169631e+001
5.102495e+002, 5.194290e+001
5.107316e+002, 5.248325e+001
5.112137e+002, 5.312617e+001
5.116959e+002, 5.343632e+001
5.121780e+002, 5.342859e+001
5.126601e+002, 5.334101e+001
5.131422e+002, 5.322486e+001
5.136243e+002, 5.317898e+001
5.141064e+002, 5.337361e+001
5.145886e+002, 5.390712e+001
5.150707e+002, 5.442837e+001
5.155528e+002, 5.481017e+001
5.160349e+002, 5.501952e+001
5.165170e+002, 5.501570e+001
5.169991e+002, 5.436884e+001
5.174813e+002, 5.393034e+001
5.179634e+002, 5.415789e+001
5.184455e+002, 5.495070e+001
5.189276e+002, 5.544854e+001
5.194097e+002, 5.517255e+001
5.198918e+002, 5.491304e+001
5.203740e+002, 5.501392e+001
5.208561e+002, 5.563518e+001
5.213382e+002, 5.610793e+001
5.218203e+002, 5.647166e+001
5.223024e+002, 5.663872e+001
5.227845e+002, 5.643382e+001
5.232667e+002, 5.576576e+001
5.237488e+002, 5.522386e+001
5.242309e+002, 5.491361e+001
5.247130e+002, 5.481335e+001
5.251951e+002, 5.497297e+001
5.256772e+002, 5.538489e+001
5.261594e+002, 5.567016e+001
5.266415e+002, 5.547192e+001
5.271236e+002, 5.502227e+001
5.276057e+002, 5.488924e+001
5.280878e+002, 5.509545e+001
5.285699e+002, 5.530875e+001
5.290521e+002, 5.522646e+001
5.295342e+002, 5.499547e+001
5.300163e+002, 5.480776e+001
5.304984e+002, 5.473014e+001
5.309805e+002, 5.467768e+001
5.314626e+002, 5.462286e+001
5.319448e+002, 5.455911e+001
5.324269e+002, 5.447403e+001
5.329090e+002, 5.410112e+001
5.333911e+002, 5.395962e+001
5.338732e+002, 5.437378e+001
5.343553e+002, 5.537350e+001
5.348375e+002, 5.603614e+001
5.353196e+002, 5.606447e+001
5.358017e+002, 5.601983e+001
5.362838e+002, 5.623119e+001
5.367659e+002, 5.685914e+001
5.372480e+002, 5.726793e+001
5.377302e+002, 5.735104e+001
5.382123e+002, 5.735164e+001
5.386944e+002, 5.762986e+001
5.391765e+002, 5.820238e+001
5.396586e+002, 5.886176e+001
5.401407e+002, 5.956713e+001
5.406229e+002, 6.030426e+001
5.411050e+002, 6.101168e+001
5.415871e+002, 6.169363e+001
5.420692e+002, 6.238190e+001
5.425513e+002, 6.317736e+001
5.430334e+002, 6.397272e+001
5.435156e+002, 6.450248e+001
5.439977e+002, 6.473371e+001
5.444798e+002, 6.514447e+001
5.449619e+002, 6.632387e+001
5.454440e+002, 6.775285e+001
5.459261e+002, 6.884325e+001
5.464083e+002, 6.910204e+001
5.468904e+002, 6.948348e+001
5.473725e+002, 7.033263e+001
5.478546e+002, 7.151859e+001
5.483367e+002, 7.277914e+001
5.488188e+002, 7.400322e+001
5.493010e+002, 7.538094e+001
5.497831e+002, 7.706928e+001
5.502652e+002, 7.905857e+001
5.507473e+002, 8.063074e+001
5.512294e+002, 8.153329e+001
5.517115e+002, 8.244927e+001
5.521937e+002, 8.391030e+001
5.526758e+002, 8.601025e+001
5.531579e+002, 8.775900e+001
5.536400e+002, 8.908496e+001
5.541221e+002, 9.014792e+001
5.546042e+002, 9.098848e+001
5.550864e+002, 9.168254e+001
5.555685e+002, 9.270483e+001
5.560506e+002, 9.419506e+001
5.565327e+002, 9.606577e+001
5.570148e+002, 9.842558e+001
5.574969e+002, 1.011207e+002
5.579791e+002, 1.035841e+002
5.584612e+002, 1.053182e+002
5.589433e+002, 1.067832e+002
5.594254e+002, 1.083971e+002
5.599075e+002, 1.102029e+002
5.603896e+002, 1.116872e+002
5.608718e+002, 1.130078e+002
5.613539e+002, 1.136869e+002
5.618360e+002, 1.133488e+002
5.623181e+002, 1.115309e+002
5.628002e+002, 1.092916e+002
5.632823e+002, 1.068586e+002
5.637645e+002, 1.040010e+002
5.642466e+002, 1.003005e+002
5.647287e+002, 9.549998e+001
5.652108e+002, 9.049963e+001
5.656929e+002, 8.536311e+001
5.661750e+002, 8.022147e+001
5.666572e+002, 7.545528e+001
5.671393e+002, 7.110612e+001
5.676214e+002, 6.700957e+001
5.681035e+002, 6.278416e+001
5.685856e+002, 5.868995e+001
5.690677e+002, 5.571756e+001
5.695499e+002, 5.396760e+001
5.700320e+002, 5.265278e+001
5.705141e+002, 5.109814e+001
5.709962e+002, 4.949666e+001
5.714783e+002, 4.816856e+001
5.719604e+002, 4.720391e+001
5.724426e+002, 4.647736e+001
5.729247e+002, 4.600231e+001
5.734068e+002, 4.568906e+001
5.738889e+002, 4.536615e+001
5.743710e+002, 4.471723e+001
5.748531e+002, 4.431748e+001
5.753353e+002, 4.449867e+001
5.758174e+002, 4.521367e+001
5.762995e+002, 4.571964e+001
5.767816e+002, 4.583675e+001
5.772637e+002, 4.592812e+001
5.777458e+002, 4.614483e+001
5.782280e+002, 4.649651e+001
5.787101e+002, 4.691314e+001
5.791922e+002, 4.738036e+001
5.796743e+002, 4.794381e+001
5.801564e+002, 4.873828e+001
5.806385e+002, 4.973875e+001
5.811207e+002, 5.056991e+001
5.816028e+002, 5.119704e+001
5.820849e+002, 5.154066e+001
5.825670e+002, 5.138999e+001
5.830491e+002, 5.083876e+001
5.835313e+002, 5.017886e+001
5.840134e+002, 4.966347e+001
5.844955e+002, 4.902285e+001
5.849776e+002, 4.789141e+001
5.854597e+002, 4.635661e+001
5.859418e+002, 4.491337e+001
5.864240e+002, 4.392906e+001
5.869061e+002, 4.300766e+001
5.873882e+002, 4.183905e+001
5.878703e+002, 4.026838e+001
5.883524e+002, 3.896355e+001
5.888345e+002, 3.809416e+001
5.893167e+002, 3.746267e+001
5.897988e+002, 3.694033e+001
5.902809e+002, 3.659155e+001
5.907630e+002, 3.619236e+001
5.912451e+002, 3.568506e+001
5.917272e+002, 3.515824e+001
5.922094e+002, 3.477602e+001
5.926915e+002, 3.454526e+001
5.931736e+002, 3.440381e+001
5.936557e+002, 3.435619e+001
5.941378e+002, 3.436792e+001
5.946199e+002, 3.437073e+001
5.951021e+002, 3.436281e+001
5.955842e+002, 3.432875e+001
5.960663e+002, 3.417263e+001
5.965484e+002, 3.403016e+001
5.970305e+002, 3.411037e+001
5.975126e+002, 3.443866e+001
5.979948e+002, 3.470789e+001
5.984769e+002, 3.463860e+001
5.989590e+002, 3.449273e+001
5.994411e+002, 3.450010e+001
5.999232e+002, 3.481010e+001
6.004053e+002, 3.510133e+001
6.008875e+002, 3.524198e+001
6.013696e+002, 3.536683e+001
6.018517e+002, 3.568143e+001
6.023338e+002, 3.632372e+001
6.028159e+002, 3.687797e+001
6.032980e+002, 3.726134e+001
6.037802e+002, 3.750652e+001
6.042623e+002, 3.771447e+001
6.047444e+002, 3.787093e+001
6.052265e+002, 3.809455e+001
6.057086e+002, 3.848544e+001
6.061907e+002, 3.899226e+001
6.066729e+002, 3.944896e+001
6.071550e+002, 3.985392e+001
6.076371e+002, 4.023013e+001
6.081192e+002, 4.046025e+001
6.086013e+002, 4.072347e+001
6.090834e+002, 4.129935e+001
6.095656e+002, 4.231607e+001
6.100477e+002, 4.331489e+001
6.105298e+002, 4.404876e+001
6.110119e+002, 4.462623e+001
6.114940e+002, 4.517786e+001
6.119761e+002, 4.553843e+001
6.124583e+002, 4.610101e+001
6.129404e+002, 4.711213e+001
6.134225e+002, 4.833796e+001
6.139046e+002, 4.927501e+001
6.143867e+002, 4.976934e+001
6.148688e+002, 5.026513e+001
6.153510e+002, 5.090029e+001
6.158331e+002, 5.164717e+001
6.163152e+002, 5.238626e+001
6.167973e+002, 5.312804e+001
6.172794e+002, 5.373003e+001
6.177615e+002, 5.400823e+001
6.182437e+002, 5.406757e+001
6.187258e+002, 5.426561e+001
6.192079e+002, 5.463128e+001
6.196900e+002, 5.486379e+001
6.201721e+002, 5.463422e+001
6.206542e+002, 5.415133e+001
6.211364e+002, 5.368062e+001
6.216185e+002, 5.330402e+001
6.221006e+002, 5.288602e+001
6.225827e+002, 5.247569e+001
6.230648e+002, 5.195344e+001
6.235469e+002, 5.115194e+001
6.240291e+002, 4.970013e+001
6.245112e+002, 4.838079e+001
6.249933e+002, 4.732697e+001
6.254754e+002, 4.647934e+001
6.259575e+002, 4.564919e+001
6.264396e+002, 4.480320e+001
6.269218e+002, 4.406826e+001
6.274039e+002, 4.357352e+001
6.278860e+002, 4.324371e+001
6.283681e+002, 4.255996e+001
6.288502e+002, 4.150944e+001
6.293323e+002, 4.044100e+001
6.298145e+002, 3.955220e+001
6.302966e+002, 3.884705e+001
6.307787e+002, 3.839511e+001
6.312608e+002, 3.822706e+001
6.317429e+002, 3.797985e+001
6.322250e+002, 3.724776e+001
6.327072e+002, 3.635566e+001
6.331893e+002, 3.564208e+001
6.336714e+002, 3.524182e+001
6.341535e+002, 3.495097e+001
6.346356e+002, 3.482122e+001
6.351177e+002, 3.474194e+001
6.355999e+002, 3.452199e+001
6.360820e+002, 3.396127e+001
6.365641e+002, 3.359367e+001
6.370462e+002, 3.360384e+001
6.375283e+002, 3.383935e+001
6.380104e+002, 3.375299e+001
6.384926e+002, 3.329055e+001
6.389747e+002, 3.284906e+001
6.394568e+002, 3.262546e+001
6.399389e+002, 3.255374e+001
6.404210e+002, 3.241694e+001
6.409031e+002, 3.221766e+001
6.413853e+002, 3.201490e+001
6.418674e+002, 3.180113e+001
6.423495e+002, 3.163249e+001
6.428316e+002, 3.160819e+001
6.433137e+002, 3.175319e+001
6.437958e+002, 3.188285e+001
6.442780e+002, 3.188207e+001
6.447601e+002, 3.183739e+001
6.452422e+002, 3.182810e+001
6.457243e+002, 3.196214e+001
6.462064e+002, 3.197756e+001
6.466885e+002, 3.176632e+001
6.471707e+002, 3.148982e+001
6.476528e+002, 3.138781e+001
6.481349e+002, 3.154262e+001
6.486170e+002, 3.158932e+001
6.490991e+002, 3.141665e+001
6.495812e+002, 3.114247e+001
6.500634e+002, 3.110723e+001
6.505455e+002, 3.128543e+001
6.510276e+002, 3.130819e+001
6.515097e+002, 3.082873e+001
6.519918e+002, 3.019734e+001
6.524739e+002, 2.999834e+001
6.529561e+002, 3.016770e+001
6.534382e+002, 3.035637e+001
6.539203e+002, 3.029728e+001
6.544024e+002, 3.023425e+001
6.548845e+002, 3.040183e+001
6.553666e+002, 3.085566e+001
6.558488e+002, 3.110798e+001
6.563309e+002, 3.097304e+001
6.568130e+002, 3.065643e+001
6.572951e+002, 3.025406e+001
6.577772e+002, 2.964398e+001
6.582593e+002, 2.928954e+001
6.587415e+002, 2.924762e+001
6.592236e+002, 2.936967e+001
6.597057e+002, 2.950839e+001
6.601878e+002, 2.966283e+001
6.606699e+002, 2.984941e+001
6.611520e+002, 3.011869e+001
6.616342e+002, 3.028984e+001
6.621163e+002, 2.993551e+001
6.625984e+002, 2.926595e+001
6.630805e+002, 2.884165e+001
6.635626e+002, 2.909180e+001
6.640447e+002, 2.945635e+001
6.645269e+002, 2.961966e+001
6.650090e+002, 2.958807e+001
6.654911e+002, 2.938654e+001
6.659732e+002, 2.873848e+001
6.664553e+002, 2.820141e+001
6.669374e+002, 2.807586e+001
6.674196e+002, 2.832187e+001
6.679017e+002, 2.833272e+001
6.683838e+002, 2.797452e+001
6.688659e+002, 2.763443e+001
6.693480e+002, 2.755286e+001
6.698301e+002, 2.772404e+001
6.703123e+002, 2.766443e+001
6.707944e+002, 2.734566e+001
6.712765e+002, 2.700966e+001
6.717586e+002, 2.687072e+001
6.722407e+002, 2.687051e+001
6.727228e+002, 2.690898e+001
6.732050e+002, 2.698921e+001
6.736871e+002, 2.699546e+001
6.741692e+002, 2.678409e+001
6.746513e+002, 2.647294e+001
6.751334e+002, 2.619904e+001
6.756155e+002, 2.597694e+001
6.760977e+002, 2.581914e+001
6.765798e+002, 2.573010e+001
6.770619e+002, 2.571089e+001
6.775440e+002, 2.578308e+001
6.780261e+002, 2.605807e+001
6.785082e+002, 2.616567e+001
6.789904e+002, 2.594813e+001
6.794725e+002, 2.559250e+001
6.799546e+002, 2.569266e+001
6.804367e+002, 2.625361e+001
6.809188e+002, 2.658789e+001
6.814009e+002, 2.620936e+001
6.818831e+002, 2.554803e+001
6.823652e+002, 2.546578e+001
6.828473e+002, 2.585945e+001
6.833294e+002, 2.621839e+001
6.838115e+002, 2.624027e+001
6.842936e+002, 2.611979e+001
6.847758e+002, 2.595346e+001
6.852579e+002, 2.575203e+001
6.857400e+002, 2.563196e+001
6.862221e+002, 2.576785e+001
6.867042e+002, 2.586981e+001
6.871863e+002, 2.573727e+001
6.876685e+002, 2.523838e+001
6.881506e+002, 2.512106e+001
6.886327e+002, 2.551554e+001
6.891148e+002, 2.602234e+001
6.895969e+002, 2.628371e+001
6.900790e+002, 2.631565e+001
6.905612e+002, 2.634099e+001
6.910433e+002, 2.638708e+001
6.915254e+002, 2.640072e+001
6.920075e+002, 2.631737e+001
6.924896e+002, 2.615788e+001
6.929717e+002, 2.593564e+001
6.934539e+002, 2.555304e+001
6.939360e+002, 2.531314e+001
6.944181e+002, 2.554914e+001
6.949002e+002, 2.600344e+001
6.953823e+002, 2.627717e+001
6.958644e+002, 2.611704e+001
6.963466e+002, 2.597024e+001
6.968287e+002, 2.591534e+001
6.973108e+002, 2.591292e+001
6.977929e+002, 2.584692e+001
6.982750e+002, 2.568467e+001
6.987571e+002, 2.558998e+001
6.992393e+002, 2.564679e+001
6.997214e+002, 2.579090e+001
7.002035e+002, 2.579904e+001
7.006856e+002, 2.568962e+001
7.011677e+002, 2.562261e+001
7.016498e+002, 2.578005e+001
7.021320e+002, 2.597509e+001
7.026141e+002, 2.595391e+001
7.030962e+002, 2.573825e+001
7.035783e+002, 2.557212e+001
7.040604e+002, 2.561651e+001
7.045425e+002, 2.570137e+001
7.050247e+002, 2.572140e+001
7.055068e+002, 2.564744e+001
7.059889e+002, 2.563370e+001
7.064710e+002, 2.572095e+001
7.069531e+002, 2.581585e+001
7.074352e+002, 2.586218e+001
7.079174e+002, 2.585866e+001
7.083995e+002, 2.581184e+001
7.088816e+002, 2.571313e+001
7.093637e+002, 2.561427e+001
7.098458e+002, 2.558725e+001
7.103279e+002, 2.560128e+001
7.108101e+002, 2.557598e+001
7.112922e+002, 2.549299e+001
7.117743e+002, 2.539105e+001
7.122564e+002, 2.525092e+001
7.127385e+002, 2.512821e+001
7.132206e+002, 2.509034e+001
7.137028e+002, 2.519712e+001
7.141849e+002, 2.533292e+001
7.146670e+002, 2.554332e+001
7.151491e+002, 2.574358e+001
7.156312e+002, 2.580381e+001
7.161133e+002, 2.565974e+001
7.165955e+002, 2.555417e+001
7.170776e+002, 2.553501e+001
7.175597e+002, 2.556837e+001
7.180418e+002, 2.560464e+001
7.185239e+002, 2.563851e+001
7.190060e+002, 2.561081e+001
7.194882e+002, 2.544255e+001
7.199703e+002, 2.526168e+001
7.204524e+002, 2.522131e+001
7.209345e+002, 2.529922e+001
7.214166e+002, 2.542893e+001
7.218987e+002, 2.566831e+001
7.223809e+002, 2.586765e+001
7.228630e+002, 2.592292e+001
7.233451e+002, 2.585216e+001
7.238272e+002, 2.583234e+001
7.243093e+002, 2.594659e+001
7.247914e+002, 2.599742e+001
7.252736e+002, 2.587603e+001
7.257557e+002, 2.560608e+001
7.262378e+002, 2.549788e+001
7.267199e+002, 2.556605e+001
7.272020e+002, 2.566590e+001
7.276841e+002, 2.569260e+001
7.281663e+002, 2.568417e+001
7.286484e+002, 2.573761e+001
7.291305e+002, 2.585315e+001
7.296126e+002, 2.594986e+001
7.300947e+002, 2.594878e+001
7.305768e+002, 2.592218e+001
7.310590e+002, 2.595617e+001
7.315411e+002, 2.609805e+001
7.320232e+002, 2.610124e+001
7.325053e+002, 2.577183e+001
7.329874e+002, 2.541124e+001
7.334695e+002, 2.519686e+001
7.339517e+002, 2.516189e+001
7.344338e+002, 2.516825e+001
7.349159e+002, 2.522444e+001
7.353980e+002, 2.529649e+001
7.358801e+002, 2.532632e+001
7.363622e+002, 2.533643e+001
7.368444e+002, 2.544349e+001
7.373265e+002, 2.568697e+001
7.378086e+002, 2.591947e+001
7.382907e+002, 2.604092e+001
7.387728e+002, 2.605243e+001
7.392549e+002, 2.593626e+001
7.397371e+002, 2.554354e+001
7.402192e+002, 2.527346e+001
7.407013e+002, 2.535269e+001
7.411834e+002, 2.556913e+001
7.416655e+002, 2.562690e+001
7.421476e+002, 2.541644e+001
7.426298e+002, 2.530383e+001
7.431119e+002, 2.532940e+001
7.435940e+002, 2.547478e+001
7.440761e+002, 2.579404e+001
7.445582e+002, 2.625282e+001
7.450403e+002, 2.652889e+001
7.455225e+002, 2.651334e+001
7.460046e+002, 2.629108e+001
7.464867e+002, 2.575305e+001
7.469688e+002, 2.510210e+001
7.474509e+002, 2.478184e+001
7.479330e+002, 2.535674e+001
7.484152e+002, 2.589521e+001
7.488973e+002, 2.603155e+001
7.493794e+002, 2.584302e+001
7.498615e+002, 2.559813e+001
7.503436e+002, 2.519597e+001
7.508257e+002, 2.494371e+001
7.513079e+002, 2.496129e+001
7.517900e+002, 2.516842e+001
7.522721e+002, 2.528042e+001
7.527542e+002, 2.529839e+001
7.532363e+002, 2.529537e+001
7.537184e+002, 2.524209e+001
7.542006e+002, 2.523175e+001
7.546827e+002, 2.551913e+001
7.551648e+002, 2.601509e+001
7.556469e+002, 2.633572e+001
7.561290e+002, 2.620050e+001
7.566111e+002, 2.591669e+001
7.570933e+002, 2.555139e+001
7.575754e+002, 2.513582e+001
7.580575e+002, 2.496768e+001
7.585396e+002, 2.524731e+001
7.590217e+002, 2.549116e+001
7.595038e+002, 2.549850e+001
7.599860e+002, 2.529245e+001
7.604681e+002, 2.511706e+001
7.609502e+002, 2.496843e+001
7.614323e+002, 2.491008e+001
7.619144e+002, 2.508669e+001
7.623965e+002, 2.534482e+001
7.628787e+002, 2.534945e+001
7.633608e+002, 2.511658e+001
7.638429e+002, 2.494452e+001
7.643250e+002, 2.508893e+001
7.648071e+002, 2.529845e+001
7.652892e+002, 2.539070e+001
7.657714e+002, 2.533136e+001
7.662535e+002, 2.532341e+001
7.667356e+002, 2.540961e+001
7.672177e+002, 2.550842e+001
7.676998e+002, 2.557625e+001
7.681819e+002, 2.561222e+001
7.686641e+002, 2.565321e+001
7.691462e+002, 2.570473e+001
7.696283e+002, 2.571749e+001
7.701104e+002, 2.562320e+001
7.705925e+002, 2.546812e+001
7.710746e+002, 2.531075e+001
7.715568e+002, 2.515333e+001
7.720389e+002, 2.510247e+001
7.725210e+002, 2.525883e+001
7.730031e+002, 2.552540e+001
7.734852e+002, 2.588213e+001
7.739673e+002, 2.646060e+001
7.744495e+002, 2.665243e+001
7.749316e+002, 2.619433e+001
7.754137e+002, 2.564828e+001
7.758958e+002, 2.545175e+001
7.763779e+002, 2.563527e+001
7.768600e+002, 2.583365e+001
7.773422e+002, 2.607474e+001
7.778243e+002, 2.608777e+001
7.783064e+002, 2.523496e+001
7.787885e+002, 2.405232e+001
7.792706e+002, 2.365015e+001
7.797527e+002, 2.431764e+001
7.802349e+002, 2.506199e+001
7.807170e+002, 2.530872e+001
7.811991e+002, 2.535522e+001
7.816812e+002, 2.546214e+001
7.821633e+002, 2.572522e+001
7.826454e+002, 2.594090e+001
7.831276e+002, 2.615410e+001
7.836097e+002, 2.626606e+001
7.840918e+002, 2.610977e+001
7.845739e+002, 2.567823e+001
7.850560e+002, 2.545058e+001
7.855381e+002, 2.550089e+001
7.860203e+002, 2.561616e+001
7.865024e+002, 2.554022e+001
7.869845e+002, 2.537209e+001
7.874666e+002, 2.529714e+001
7.879487e+002, 2.539502e+001
7.884308e+002, 2.545924e+001
7.889130e+002, 2.530883e+001
7.893951e+002, 2.511558e+001
7.898772e+002, 2.505778e+001
7.903593e+002, 2.520276e+001
7.908414e+002, 2.540120e+001
7.913235e+002, 2.572059e+001
7.918057e+002, 2.599454e+001
7.922878e+002, 2.595743e+001
7.927699e+002, 2.563443e+001
7.932520e+002, 2.543925e+001
7.937341e+002, 2.544187e+001
7.942162e+002, 2.552569e+001
7.946984e+002, 2.560314e+001
7.951805e+002, 2.566501e+001
7.956626e+002, 2.569552e+001
7.961447e+002, 2.568534e+001
7.966268e+002, 2.565887e+001
7.971089e+002, 2.560558e+001
7.975911e+002, 2.555080e+001
7.980732e+002, 2.551835e+001
7.985553e+002, 2.549181e+001
7.990374e+002, 2.553820e+001
7.995195e+002, 2.569271e+001
8.000016e+002, 2.586268e+001
8.004838e+002, 2.592711e+001
8.009659e+002, 2.589989e+001
8.014480e+002, 2.585686e+001
8.019301e+002, 2.580748e+001
8.024122e+002, 2.576613e+001
8.028943e+002, 2.568975e+001
8.033765e+002, 2.565306e+001
8.038586e+002, 2.577083e+001
8.043407e+002, 2.623005e+001
8.048228e+002, 2.655451e+001
8.053049e+002, 2.660990e+001
8.057870e+002, 2.650403e+001
8.062692e+002, 2.629490e+001
8.067513e+002, 2.590285e+001
8.072334e+002, 2.575267e+001
8.077155e+002, 2.593478e+001
8.081976e+002, 2.621615e+001
8.086797e+002, 2.628008e+001
8.091619e+002, 2.619685e+001
8.096440e+002, 2.619628e+001
8.101261e+002, 2.636717e+001
8.106082e+002, 2.646912e+001
8.110903e+002, 2.618988e+001
8.115724e+002, 2.580941e+001
8.120546e+002, 2.563963e+001
8.125367e+002, 2.590256e+001
8.130188e+002, 2.611874e+001
8.135009e+002, 2.624807e+001
8.139830e+002, 2.634060e+001
8.144651e+002, 2.647903e+001
8.149473e+002, 2.667709e+001
8.154294e+002, 2.666851e+001
8.159115e+002, 2.638538e+001
8.163936e+002, 2.608984e+001
8.168757e+002, 2.612979e+001
8.173578e+002, 2.635610e+001
8.178400e+002, 2.652257e+001
8.183221e+002, 2.658851e+001
8.188042e+002, 2.654743e+001
8.192863e+002, 2.628153e+001
8.197684e+002, 2.597261e+001
8.202505e+002, 2.579802e+001
8.207327e+002, 2.580311e+001
8.212148e+002, 2.585892e+001
8.216969e+002, 2.598818e+001
8.221790e+002, 2.612608e+001
8.226611e+002, 2.618789e+001
8.231432e+002, 2.618907e+001
8.236254e+002, 2.623279e+001
8.241075e+002, 2.633531e+001
8.245896e+002, 2.643369e+001
8.250717e+002, 2.647915e+001
8.255538e+002, 2.648342e+001
8.260359e+002, 2.645453e+001
8.265181e+002, 2.638626e+001
8.270002e+002, 2.631524e+001
8.274823e+002, 2.623553e+001
8.279644e+002, 2.616829e+001
8.284465e+002, 2.614443e+001
8.289286e+002, 2.619721e+001
8.294108e+002, 2.611087e+001
8.298929e+002, 2.585612e+001
8.303750e+002, 2.559444e+001
8.308571e+002, 2.542135e+001
8.313392e+002, 2.536492e+001
8.318214e+002, 2.557733e+001
8.323035e+002, 2.608530e+001
8.327856e+002, 2.644168e+001
8.332677e+002, 2.622812e+001
8.337498e+002, 2.584690e+001
8.342319e+002, 2.556542e+001
8.347141e+002, 2.539972e+001
8.351962e+002, 2.544714e+001
8.356783e+002, 2.582916e+001
8.361604e+002, 2.621716e+001
8.366425e+002, 2.638407e+001
8.371246e+002, 2.634352e+001
8.376068e+002, 2.629388e+001
8.380889e+002, 2.623603e+001
8.385710e+002, 2.618831e+001
8.390531e+002, 2.613113e+001
8.395352e+002, 2.611264e+001
8.400173e+002, 2.622475e+001
8.404995e+002, 2.646932e+001
8.409816e+002, 2.663959e+001
8.414637e+002, 2.659901e+001
8.419458e+002, 2.653432e+001
8.424279e+002, 2.653872e+001
8.429100e+002, 2.660983e+001
8.433922e+002, 2.660875e+001
8.438743e+002, 2.652283e+001
8.443564e+002, 2.643265e+001
8.448385e+002, 2.642595e+001
8.453206e+002, 2.643778e+001
8.458027e+002, 2.626157e+001
8.462849e+002, 2.593837e+001
8.467670e+002, 2.570339e+001
8.472491e+002, 2.565888e+001
8.477312e+002, 2.576758e+001
8.482133e+002, 2.614128e+001
8.486954e+002, 2.671875e+001
8.491776e+002, 2.695861e+001
8.496597e+002, 2.671119e+001
8.501418e+002, 2.640332e+001
8.506239e+002, 2.613495e+001
8.511060e+002, 2.593228e+001
8.515881e+002, 2.591737e+001
8.520703e+002, 2.607400e+001
8.525524e+002, 2.626747e+001
8.530345e+002, 2.650462e+001
8.535166e+002, 2.667776e+001
8.539987e+002, 2.665049e+001
8.544808e+002, 2.648187e+001
8.549630e+002, 2.632170e+001
8.554451e+002, 2.610797e+001
8.559272e+002, 2.604675e+001
8.564093e+002, 2.622838e+001
8.568914e+002, 2.655651e+001
8.573735e+002, 2.687012e+001
8.578557e+002, 2.718573e+001
8.583378e+002, 2.725418e+001
8.588199e+002, 2.693340e+001
8.593020e+002, 2.649479e+001
8.597841e+002, 2.633978e+001
8.602662e+002, 2.637353e+001
8.607484e+002, 2.640127e+001
8.612305e+002, 2.629818e+001
8.617126e+002, 2.626480e+001
8.621947e+002, 2.644726e+001
8.626768e+002, 2.671404e+001
8.631589e+002, 2.687811e+001
8.636411e+002, 2.691759e+001
8.641232e+002, 2.691957e+001
8.646053e+002, 2.689195e+001
8.650874e+002, 2.682885e+001
8.655695e+002, 2.667393e+001
8.660516e+002, 2.647505e+001
8.665338e+002, 2.638377e+001
8.670159e+002, 2.643400e+001
8.674980e+002, 2.655889e+001
8.679801e+002, 2.679520e+001
8.684622e+002, 2.703502e+001
8.689443e+002, 2.717061e+001
8.694265e+002, 2.713482e+001
8.699086e+002, 2.711581e+001
8.703907e+002, 2.711753e+001
8.708728e+002, 2.713184e+001
8.713549e+002, 2.713009e+001
8.718370e+002, 2.712211e+001
8.723192e+002, 2.727930e+001
8.728013e+002, 2.761537e+001
8.732834e+002, 2.784851e+001
8.737655e+002, 2.764415e+001
8.742476e+002, 2.728946e+001
8.747297e+002, 2.706643e+001
8.752119e+002, 2.700261e+001
8.756940e+002, 2.696124e+001
8.761761e+002, 2.685945e+001
8.766582e+002, 2.683194e+001
8.771403e+002, 2.696221e+001
8.776224e+002, 2.723345e+001
8.781046e+002, 2.742381e+001
8.785867e+002, 2.753256e+001
8.790688e+002, 2.757245e+001
8.795509e+002, 2.749582e+001
8.800330e+002, 2.738613e+001
8.805151e+002, 2.731377e+001
8.809973e+002, 2.730301e+001
8.814794e+002, 2.744354e+001
8.819615e+002, 2.801741e+001
8.824436e+002, 2.848673e+001
8.829257e+002, 2.864038e+001
8.834078e+002, 2.854129e+001
8.838900e+002, 2.830944e+001
8.843721e+002, 2.789621e+001
8.848542e+002, 2.761827e+001
8.853363e+002, 2.760598e+001
8.858184e+002, 2.771116e+001
8.863005e+002, 2.761803e+001
8.867827e+002, 2.743296e+001
8.872648e+002, 2.744171e+001
8.877469e+002, 2.792874e+001
8.882290e+002, 2.835428e+001
8.887111e+002, 2.841768e+001
8.891932e+002, 2.830105e+001
8.896754e+002, 2.828547e+001
8.901575e+002, 2.847086e+001
8.906396e+002, 2.847622e+001
8.911217e+002, 2.819821e+001
8.916038e+002, 2.791089e+001
8.920859e+002, 2.805560e+001
8.925681e+002, 2.847080e+001
8.930502e+002, 2.860919e+001
8.935323e+002, 2.833874e+001
8.940144e+002, 2.811755e+001
8.944965e+002, 2.835527e+001
8.949786e+002, 2.872045e+001
8.954608e+002, 2.893493e+001
8.959429e+002, 2.893268e+001
8.964250e+002, 2.887560e+001
8.969071e+002, 2.869346e+001
8.973892e+002, 2.859809e+001
8.978713e+002, 2.882500e+001
8.983535e+002, 2.929122e+001
8.988356e+002, 2.946393e+001
8.993177e+002, 2.935659e+001
8.997998e+002, 2.922039e+001
9.002819e+002, 2.921118e+001
9.007640e+002, 2.924905e+001
9.012462e+002, 2.927062e+001
9.017283e+002, 2.927783e+001
9.022104e+002, 2.933061e+001
9.026925e+002, 2.951847e+001
9.031746e+002, 2.960631e+001
9.036567e+002, 2.949478e+001
9.041389e+002, 2.925208e+001
9.046210e+002, 2.905713e+001
9.051031e+002, 2.891764e+001
9.055852e+002, 2.889795e+001
9.060673e+002, 2.908057e+001
9.065494e+002, 2.931536e+001
9.070316e+002, 2.954542e+001
9.075137e+002, 2.971341e+001
9.079958e+002, 2.972002e+001
9.084779e+002, 2.922711e+001
9.089600e+002, 2.901091e+001
9.094421e+002, 2.922296e+001
9.099243e+002, 2.964219e+001
9.104064e+002, 3.004530e+001
9.108885e+002, 3.041991e+001
9.113706e+002, 3.053694e+001
9.118527e+002, 3.032838e+001
9.123348e+002, 3.008291e+001
9.128170e+002, 3.009148e+001
9.132991e+002, 3.021106e+001
9.137812e+002, 3.025560e+001
9.142633e+002, 3.013962e+001
9.147454e+002, 3.019909e+001
9.152275e+002, 3.069421e+001
9.157097e+002, 3.112220e+001
9.161918e+002, 3.112043e+001
9.166739e+002, 3.069961e+001
9.171560e+002, 3.061259e+001
9.176381e+002, 3.086257e+001
9.181202e+002, 3.112728e+001
9.186024e+002, 3.116844e+001
9.190845e+002, 3.111736e+001
9.195666e+002, 3.106660e+001
9.200487e+002, 3.103794e+001
9.205308e+002, 3.111734e+001
9.210129e+002, 3.157366e+001
9.214951e+002, 3.183478e+001
9.219772e+002, 3.167435e+001
9.224593e+002, 3.125707e+001
9.229414e+002, 3.108402e+001
9.234235e+002, 3.115233e+001
9.239056e+002, 3.125561e+001
9.243878e+002, 3.133462e+001
9.248699e+002, 3.140495e+001
9.253520e+002, 3.147730e+001
9.258341e+002, 3.155614e+001
9.263162e+002, 3.165132e+001
9.267983e+002, 3.181458e+001
9.272805e+002, 3.191959e+001
9.277626e+002, 3.196036e+001
9.282447e+002, 3.193708e+001
9.287268e+002, 3.179858e+001
9.292089e+002, 3.154358e+001
9.296910e+002, 3.150914e+001
9.301732e+002, 3.173456e+001
9.306553e+002, 3.200589e+001
9.311374e+002, 3.209089e+001
9.316195e+002, 3.213749e+001
9.321016e+002, 3.234141e+001
9.325837e+002, 3.272866e+001
9.330659e+002, 3.306147e+001
9.335480e+002, 3.325555e+001
9.340301e+002, 3.341528e+001
9.345122e+002, 3.357311e+001
9.349943e+002, 3.372813e+001
9.354764e+002, 3.385830e+001
9.359586e+002, 3.396580e+001
9.364407e+002, 3.409518e+001
9.369228e+002, 3.431569e+001
9.374049e+002, 3.452779e+001
9.378870e+002, 3.454902e+001
9.383691e+002, 3.448774e+001
9.388513e+002, 3.459353e+001
9.393334e+002, 3.514145e+001
9.398155e+002, 3.559002e+001
9.402976e+002, 3.584573e+001
9.407797e+002, 3.599129e+001
9.412618e+002, 3.607946e+001
9.417440e+002, 3.612994e+001
9.422261e+002, 3.646241e+001
9.427082e+002, 3.718839e+001
9.431903e+002, 3.789748e+001
9.436724e+002, 3.812785e+001
9.441545e+002, 3.816769e+001
9.446367e+002, 3.827125e+001
9.451188e+002, 3.842322e+001
9.456009e+002, 3.892234e+001
9.460830e+002, 4.005397e+001
9.465651e+002, 4.109644e+001
9.470472e+002, 4.156315e+001
9.475294e+002, 4.153890e+001
9.480115e+002, 4.161731e+001
9.484936e+002, 4.180928e+001
9.489757e+002, 4.225620e+001
9.494578e+002, 4.336792e+001
9.499399e+002, 4.448730e+001
9.504221e+002, 4.491875e+001
9.509042e+002, 4.489366e+001
9.513863e+002, 4.535845e+001
9.518684e+002, 4.668536e+001
9.523505e+002, 4.797514e+001
9.528326e+002, 4.908645e+001
9.533148e+002, 5.006069e+001
9.537969e+002, 5.093183e+001
9.542790e+002, 5.172602e+001
9.547611e+002, 5.253395e+001
9.552432e+002, 5.333871e+001
9.557253e+002, 5.427763e+001
9.562075e+002, 5.560224e+001
9.566896e+002, 5.701622e+001
9.571717e+002, 5.819111e+001
9.576538e+002, 5.891237e+001
9.581359e+002, 6.004490e+001
9.586180e+002, 6.172791e+001
9.591002e+002, 6.348340e+001
9.595823e+002, 6.495512e+001
9.600644e+002, 6.622308e+001
9.605465e+002, 6.749130e+001
9.610286e+002, 6.876969e+001
9.615107e+002, 7.005579e+001
9.619929e+002, 7.155105e+001
9.624750e+002, 7.286988e+001
9.629571e+002, 7.384636e+001
9.634392e+002, 7.447599e+001
9.639213e+002, 7.478452e+001
9.644034e+002, 7.471228e+001
9.648856e+002, 7.454533e+001
9.653677e+002, 7.434628e+001
9.658498e+002, 7.409581e+001
9.663319e+002, 7.385143e+001
9.668140e+002, 7.351482e+001
9.672961e+002, 7.286292e+001
9.677783e+002, 7.173838e+001
9.682604e+002, 7.054860e+001
9.687425e+002, 6.937407e+001
9.692246e+002, 6.824267e+001
9.697067e+002, 6.715689e+001
9.701888e+002, 6.613676e+001
9.706710e+002, 6.518906e+001
9.711531e+002, 6.434296e+001
9.716352e+002, 6.335780e+001
9.721173e+002, 6.191064e+001
9.725994e+002, 6.031733e+001
9.730815e+002, 5.888235e+001
9.735637e+002, 5.764866e+001
9.740458e+002, 5.672601e+001
9.745279e+002, 5.652783e+001
9.750100e+002, 5.618047e+001
9.754921e+002, 5.536696e+001
9.759742e+002, 5.432475e+001
9.764564e+002, 5.368989e+001
9.769385e+002, 5.343172e+001
9.774206e+002, 5.303856e+001
9.779027e+002, 5.234023e+001
9.783848e+002, 5.160352e+001
9.788669e+002, 5.097618e+001
9.793491e+002, 5.050699e+001
9.798312e+002, 5.027204e+001
9.803133e+002, 5.040086e+001
9.807954e+002, 5.047457e+001
9.812775e+002, 5.046373e+001
9.817596e+002, 5.042267e+001
9.822418e+002, 5.037289e+001
9.827239e+002, 5.032236e+001
9.832060e+002, 5.031872e+001
9.836881e+002, 5.035897e+001
9.841702e+002, 5.042092e+001
9.846523e+002, 5.030616e+001
9.851345e+002, 5.038702e+001
9.856166e+002, 5.106716e+001
9.860987e+002, 5.214331e+001
9.865808e+002, 5.283456e+001
9.870629e+002, 5.298878e+001
9.875450e+002, 5.322874e+001
9.880272e+002, 5.367473e+001
9.885093e+002, 5.425767e+001
9.889914e+002, 5.490179e+001
9.894735e+002, 5.559210e+001
9.899556e+002, 5.627628e+001
9.904377e+002, 5.691730e+001
9.909199e+002, 5.766736e+001
9.914020e+002, 5.858072e+001
9.918841e+002, 5.964256e+001
9.923662e+002, 6.085218e+001
9.928483e+002, 6.219250e+001
9.933304e+002, 6.363593e+001
9.938126e+002, 6.519083e+001
9.942947e+002, 6.670517e+001
9.947768e+002, 6.799628e+001
9.952589e+002, 6.925573e+001
9.957410e+002, 7.079325e+001
9.962231e+002, 7.250291e+001
9.967053e+002, 7.412260e+001
9.971874e+002, 7.534516e+001
9.976695e+002, 7.674365e+001
9.981516e+002, 7.832372e+001
9.986337e+002, 8.018772e+001
9.991158e+002, 8.260050e+001
9.995980e+002, 8.552172e+001
1.000080e+003, 8.847472e+001
1.000562e+003, 9.142264e+001
1.001044e+003, 9.446224e+001
1.001526e+003, 9.750815e+001
1.002009e+003, 1.008483e+002
1.002491e+003, 1.047418e+002
1.002973e+003, 1.092958e+002
1.003455e+003, 1.138940e+002
1.003937e+003, 1.184118e+002
1.004419e+003, 1.233448e+002
1.004901e+003, 1.289376e+002
1.005383e+003, 1.351250e+002
1.005865e+003, 1.420171e+002
1.006348e+003, 1.494648e+002
1.006830e+003, 1.572505e+002
1.007312e+003, 1.654787e+002
1.007794e+003, 1.736650e+002
1.008276e+003, 1.815325e+002
1.008758e+003, 1.894941e+002
1.009240e+003, 1.982714e+002
1.009722e+003, 2.079587e+002
1.010205e+003, 2.170656e+002
1.010687e+003, 2.255988e+002
1.011169e+003, 2.335935e+002
1.011651e+003, 2.409941e+002
1.012133e+003, 2.480702e+002
1.012615e+003, 2.553141e+002
1.013097e+003, 2.626862e+002
1.013579e+003, 2.694299e+002
1.014061e+003, 2.751488e+002
1.014544e+003, 2.807360e+002
1.015026e+003, 2.865142e+002
1.015508e+003, 2.921873e+002
1.015990e+003, 2.973242e+002
1.016472e+003, 3.018571e+002
1.016954e+003, 3.055993e+002
1.017436e+003, 3.088463e+002
1.017918e+003, 3.104841e+002
1.018401e+003, 3.101373e+002
1.018883e+003, 3.075793e+002
1.019365e+003, 3.025320e+002
1.019847e+003, 2.948651e+002
1.020329e+003, 2.857978e+002
1.020811e+003, 2.752856e+002
1.021293e+003, 2.636254e+002
1.021775e+003, 2.506574e+002
1.022257e+003, 2.369043e+002
1.022740e+003, 2.225009e+002
1.023222e+003, 2.077679e+002
1.023704e+003, 1.938536e+002
1.024186e+003, 1.812316e+002
1.024668e+003, 1.694531e+002
1.025150e+003, 1.583894e+002
1.025632e+003, 1.480700e+002
1.026114e+003, 1.384491e+002
1.026596e+003, 1.296837e+002
1.027079e+003, 1.217846e+002
1.027561e+003, 1.147673e+002
1.028043e+003, 1.086079e+002
1.028525e+003, 1.035692e+002
1.029007e+003, 9.915845e+001
1.029489e+003, 9.505064e+001
1.029971e+003, 9.123630e+001
1.030453e+003, 8.761513e+001
1.030936e+003, 8.410060e+001
1.031418e+003, 8.105846e+001
1.031900e+003, 7.870536e+001
1.032382e+003, 7.679626e+001
1.032864e+003, 7.496229e+001
1.033346e+003, 7.319070e+001
1.033828e+003, 7.148928e+001
1.034310e+003, 6.978610e+001
1.034792e+003, 6.827711e+001
1.035275e+003, 6.705206e+001
1.035757e+003, 6.600356e+001
1.036239e+003, 6.503865e+001
1.036721e+003, 6.416499e+001
1.037203e+003, 6.340492e+001
1.037685e+003, 6.277079e+001
1.038167e+003, 6.211691e+001
1.038649e+003, 6.115627e+001
1.039132e+003, 6.029251e+001
1.039614e+003, 5.993203e+001
1.040096e+003, 5.998410e+001
1.040578e+003, 5.989985e+001
1.041060e+003, 5.961293e+001
1.041542e+003, 5.926791e+001
1.042024e+003, 5.884953e+001
1.042506e+003, 5.846888e+001
1.042989e+003, 5.836049e+001
1.043471e+003, 5.839363e+001
1.043953e+003, 5.830297e+001
1.044435e+003, 5.803307e+001
1.044917e+003, 5.765103e+001
1.045399e+003, 5.696118e+001
1.045881e+003, 5.639436e+001
1.046363e+003, 5.622297e+001
1.046845e+003, 5.638332e+001
1.047328e+003, 5.635889e+001
1.047810e+003, 5.615866e+001
1.048292e+003, 5.594056e+001
1.048774e+003, 5.579955e+001
1.049256e+003, 5.563892e+001
1.049738e+003, 5.532754e+001
1.050220e+003, 5.496198e+001
1.050702e+003, 5.470355e+001
1.051184e+003, 5.462633e+001
1.051667e+003, 5.451254e+001
1.052149e+003, 5.436763e+001
1.052631e+003, 5.415150e+001
1.053113e+003, 5.383123e+001
1.053595e+003, 5.340820e+001
1.054077e+003, 5.290965e+001
1.054559e+003, 5.232156e+001
1.055041e+003, 5.155241e+001
1.055523e+003, 5.033148e+001
1.056006e+003, 4.921782e+001
1.056488e+003, 4.842473e+001
1.056970e+003, 4.776759e+001
1.057452e+003, 4.683443e+001
1.057934e+003, 4.566224e+001
1.058416e+003, 4.460044e+001
1.058898e+003, 4.372961e+001
1.059380e+003, 4.288021e+001
1.059863e+003, 4.186310e+001
1.060345e+003, 4.087121e+001
1.060827e+003, 4.006385e+001
1.061309e+003, 3.944768e+001
1.061791e+003, 3.900846e+001
1.062273e+003, 3.875533e+001
1.062755e+003, 3.865683e+001
1.063237e+003, 3.882605e+001
1.063719e+003, 3.897390e+001
1.064202e+003, 3.851641e+001
1.064684e+003, 3.773166e+001
1.065166e+003, 3.715353e+001
1.065648e+003, 3.709097e+001
1.066130e+003, 3.699449e+001
1.066612e+003, 3.678560e+001
1.067094e+003, 3.655674e+001
1.067576e+003, 3.633447e+001
1.068059e+003, 3.614695e+001
1.068541e+003, 3.626025e+001
1.069023e+003, 3.662866e+001
1.069505e+003, 3.686243e+001
1.069987e+003, 3.665049e+001
1.070469e+003, 3.632593e+001
1.070951e+003, 3.591291e+001
1.071433e+003, 3.556084e+001
1.071916e+003, 3.561498e+001
1.072398e+003, 3.614037e+001
1.072880e+003, 3.649265e+001
1.073362e+003, 3.658015e+001
1.073844e+003, 3.650612e+001
1.074326e+003, 3.621898e+001
1.074808e+003, 3.592694e+001
1.075290e+003, 3.587055e+001
1.075772e+003, 3.607368e+001
1.076255e+003, 3.630251e+001
1.076737e+003, 3.659241e+001
1.077219e+003, 3.676741e+001
1.077701e+003, 3.673509e+001
1.078183e+003, 3.660571e+001
1.078665e+003, 3.656954e+001
1.079147e+003, 3.661126e+001
1.079629e+003, 3.671769e+001
1.080111e+003, 3.694709e+001
1.080594e+003, 3.705397e+001
1.081076e+003, 3.676964e+001
1.081558e+003, 3.651603e+001
1.082040e+003, 3.659806e+001
1.082522e+003, 3.696069e+001
1.083004e+003, 3.694315e+001
1.083486e+003, 3.659608e+001
1.083968e+003, 3.640797e+001
1.084450e+003, 3.691429e+001
1.084933e+003, 3.737043e+001
1.085415e+003, 3.724943e+001
1.085897e+003, 3.679016e+001
1.086379e+003, 3.637600e+001
1.086861e+003, 3.601258e+001
1.087343e+003, 3.570669e+001
1.087825e+003, 3.545218e+001
1.088307e+003, 3.530026e+001
1.088790e+003, 3.544076e+001
1.089272e+003, 3.561189e+001
1.089754e+003, 3.539016e+001
1.090236e+003, 3.486329e+001
1.090718e+003, 3.459855e+001
1.091200e+003, 3.481016e+001
1.091682e+003, 3.510500e+001
1.092164e+003, 3.547962e+001
1.092646e+003, 3.579473e+001
1.093129e+003, 3.575708e+001
1.093611e+003, 3.550438e+001
1.094093e+003, 3.536088e+001
1.094575e+003, 3.537616e+001
1.095057e+003, 3.549820e+001
1.095539e+003, 3.576770e+001
1.096021e+003, 3.607714e+001
1.096503e+003, 3.642255e+001
1.096986e+003, 3.675550e+001
1.097468e+003, 3.687366e+001
1.097950e+003, 3.679826e+001
1.098432e+003, 3.667548e+001
1.098914e+003, 3.646410e+001
1.099396e+003, 3.645558e+001
1.099878e+003, 3.705418e+001
1.100360e+003, 3.783432e+001
1.100843e+003, 3.838598e+001
1.101325e+003, 3.869313e+001
1.101807e+003, 3.887194e+001
1.102289e+003, 3.891368e+001
1.102771e+003, 3.893306e+001
1.103253e+003, 3.901550e+001
1.103735e+003, 3.908884e+001
1.104217e+003, 3.894478e+001
1.104699e+003, 3.875679e+001
1.105182e+003, 3.887037e+001
1.105664e+003, 3.969576e+001
1.106146e+003, 4.014959e+001
1.106628e+003, 4.010870e+001
1.107110e+003, 3.995774e+001
1.107592e+003, 4.010573e+001
1.108074e+003, 4.036709e+001
1.108556e+003, 4.029742e+001
1.109038e+003, 3.995155e+001
1.109521e+003, 3.970224e+001
1.110003e+003, 3.979787e+001
1.110485e+003, 3.986723e+001
1.110967e+003, 3.983799e+001
1.111449e+003, 3.973808e+001
1.111931e+003, 3.956905e+001
1.112413e+003, 3.936064e+001
1.112895e+003, 3.932198e+001
1.113377e+003, 3.948253e+001
1.113860e+003, 3.943738e+001
1.114342e+003, 3.867496e+001
1.114824e+003, 3.790588e+001
1.115306e+003, 3.753175e+001
1.115788e+003, 3.746030e+001
1.116270e+003, 3.744813e+001
1.116752e+003, 3.749264e+001
1.117234e+003, 3.743052e+001
1.117717e+003, 3.718805e+001
1.118199e+003, 3.696393e+001
1.118681e+003, 3.716164e+001
1.119163e+003, 3.730348e+001
1.119645e+003, 3.678987e+001
1.120127e+003, 3.556413e+001
1.120609e+003, 3.482423e+001
1.121091e+003, 3.461374e+001
1.121573e+003, 3.463008e+001
1.122056e+003, 3.482070e+001
1.122538e+003, 3.505207e+001
1.123020e+003, 3.520021e+001
1.123502e+003, 3.525800e+001
1.123984e+003, 3.519710e+001
1.124466e+003, 3.487694e+001
1.124948e+003, 3.478034e+001
1.125430e+003, 3.497110e+001
1.125913e+003, 3.523528e+001
1.126395e+003, 3.546799e+001
1.126877e+003, 3.565638e+001
1.127359e+003, 3.576754e+001
1.127841e+003, 3.581218e+001
1.128323e+003, 3.581714e+001
1.128805e+003, 3.575050e+001
1.129287e+003, 3.568770e+001
1.129770e+003, 3.553166e+001
1.130252e+003, 3.553483e+001
1.130734e+003, 3.614308e+001
1.131216e+003, 3.712397e+001
1.131698e+003, 3.742339e+001
1.132180e+003, 3.710171e+001
1.132662e+003, 3.692009e+001
1.133144e+003, 3.743557e+001
1.133626e+003, 3.798560e+001
1.134109e+003, 3.834127e+001
1.134591e+003, 3.858904e+001
1.135073e+003, 3.885264e+001
1.135555e+003, 3.912822e+001
1.136037e+003, 3.939944e+001
1.136519e+003, 3.966564e+001
1.137001e+003, 3.991952e+001
1.137483e+003, 4.014321e+001
1.137965e+003, 4.036597e+001
1.138448e+003, 4.063438e+001
1.138930e+003, 4.091827e+001
1.139412e+003, 4.109443e+001
1.139894e+003, 4.115668e+001
1.140376e+003, 4.130816e+001
1.140858e+003, 4.162220e+001
1.141340e+003, 4.187047e+001
1.141822e+003, 4.178346e+001
1.142304e+003, 4.157458e+001
1.142787e+003, 4.141958e+001
1.143269e+003, 4.133553e+001
1.143751e+003, 4.133126e+001
1.144233e+003, 4.144350e+001
1.144715e+003, 4.139403e+001
1.145197e+003, 4.099499e+001
1.145679e+003, 4.061434e+001
1.146161e+003, 4.092237e+001
1.146644e+003, 4.144751e+001
1.147126e+003, 4.153475e+001
1.147608e+003, 4.090848e+001
1.148090e+003, 4.047438e+001
1.148572e+003, 4.030766e+001
1.149054e+003, 4.014978e+001
1.149536e+003, 3.990400e+001
1.150018e+003, 3.955946e+001
1.150500e+003, 3.906217e+001
1.150983e+003, 3.845519e+001
1.151465e+003, 3.781344e+001
1.151947e+003, 3.709926e+001
1.152429e+003, 3.648264e+001
1.152911e+003, 3.598991e+001
1.153393e+003, 3.555662e+001
1.153875e+003, 3.511731e+001
1.154357e+003, 3.471188e+001
1.154840e+003, 3.450195e+001
1.155322e+003, 3.442312e+001
1.155804e+003, 3.428062e+001
1.156286e+003, 3.395211e+001
1.156768e+003, 3.360572e+001
1.157250e+003, 3.322096e+001
1.157732e+003, 3.289365e+001
1.158214e+003, 3.276658e+001
1.158697e+003, 3.277427e+001
1.159179e+003, 3.263044e+001
1.159661e+003, 3.234661e+001
1.160143e+003, 3.203899e+001
1.160625e+003, 3.176673e+001
1.161107e+003, 3.147195e+001
1.161589e+003, 3.107386e+001
1.162071e+003, 3.070576e+001
1.162553e+003, 3.060559e+001
1.163036e+003, 3.071646e+001
1.163518e+003, 3.058375e+001
1.164000e+003, 3.019139e+001
1.164482e+003, 2.985021e+001
1.164964e+003, 2.978321e+001
1.165446e+003, 2.977808e+001
1.165928e+003, 2.978543e+001
1.166410e+003, 2.975917e+001
1.166892e+003, 2.956041e+001
1.167375e+003, 2.920972e+001
1.167857e+003, 2.905311e+001
1.168339e+003, 2.914132e+001
1.168821e+003, 2.926572e+001
1.169303e+003, 2.930948e+001
1.169785e+003, 2.930737e+001
1.170267e+003, 2.925763e+001
1.170749e+003, 2.918409e+001
1.171231e+003, 2.916086e+001
1.171714e+003, 2.918691e+001
1.172196e+003, 2.915971e+001
1.172678e+003, 2.904632e+001
1.173160e+003, 2.895510e+001
1.173642e+003, 2.905957e+001
1.174124e+003, 2.915811e+001
1.174606e+003, 2.900562e+001
1.175088e+003, 2.867256e+001
1.175571e+003, 2.865535e+001
1.176053e+003, 2.897734e+001
1.176535e+003, 2.913463e+001
1.177017e+003, 2.895475e+001
1.177499e+003, 2.867630e+001
1.177981e+003, 2.847197e+001
1.178463e+003, 2.832300e+001
1.178945e+003, 2.822864e+001
1.179427e+003, 2.818630e+001
1.179910e+003, 2.808899e+001
1.180392e+003, 2.792640e+001
1.180874e+003, 2.780474e+001
1.181356e+003, 2.777194e+001
1.181838e+003, 2.777553e+001
1.182320e+003, 2.780720e+001
1.182802e+003, 2.781628e+001
1.183284e+003, 2.771112e+001
1.183767e+003, 2.745472e+001
1.184249e+003, 2.736684e+001
1.184731e+003, 2.747199e+001
1.185213e+003, 2.757902e+001
1.185695e+003, 2.761609e+001
1.186177e+003, 2.758271e+001
1.186659e+003, 2.745505e+001
1.187141e+003, 2.726652e+001
1.187624e+003, 2.704860e+001
1.188106e+003, 2.675998e+001
1.188588e+003, 2.663092e+001
1.189070e+003, 2.667501e+001
1.189552e+003, 2.681362e+001
1.190034e+003, 2.710636e+001
1.190516e+003, 2.735731e+001
1.190998e+003, 2.723123e+001
1.191480e+003, 2.691815e+001
1.191963e+003, 2.674714e+001
1.192445e+003, 2.683230e+001
1.192927e+003, 2.692782e+001
1.193409e+003, 2.706167e+001
1.193891e+003, 2.707410e+001
1.194373e+003, 2.672823e+001
1.194855e+003, 2.629324e+001
1.195337e+003, 2.605697e+001
1.195819e+003, 2.601864e+001
1.196302e+003, 2.620078e+001
1.196784e+003, 2.677386e+001
1.197266e+003, 2.716467e+001
1.197748e+003, 2.734983e+001
1.198230e+003, 2.740752e+001
1.198712e+003, 2.738841e+001
1.199194e+003, 2.728605e+001
1.199676e+003, 2.698281e+001
1.200158e+003, 2.659621e+001
1.200641e+003, 2.646243e+001
1.201123e+003, 2.675608e+001
1.201605e+003, 2.702589e+001
1.202087e+003, 2.727099e+001
1.202569e+003, 2.740162e+001
1.203051e+003, 2.724775e+001
1.203533e+003, 2.699103e+001
1.204015e+003, 2.683814e+001
1.204498e+003, 2.679256e+001
1.204980e+003, 2.684882e+001
1.205462e+003, 2.711057e+001
1.205944e+003, 2.719904e+001
1.206426e+003, 2.705519e+001
1.206908e+003, 2.684297e+001
1.207390e+003, 2.662471e+001
1.207872e+003, 2.650194e+001
1.208354e+003, 2.671590e+001
1.208837e+003, 2.717106e+001
1.209319e+003, 2.738475e+001
1.209801e+003, 2.719657e+001
1.210283e+003, 2.706917e+001
1.210765e+003, 2.706578e+001
1.211247e+003, 2.709491e+001
1.211729e+003, 2.704620e+001
1.212211e+003, 2.698220e+001
1.212694e+003, 2.702883e+001
1.213176e+003, 2.715250e+001
1.213658e+003, 2.709919e+001
1.214140e+003, 2.673365e+001
1.214622e+003, 2.656869e+001
1.215104e+003, 2.671120e+001
1.215586e+003, 2.692771e+001
1.216068e+003, 2.698738e+001
1.216551e+003, 2.696351e+001
1.217033e+003, 2.694785e+001
1.217515e+003, 2.693760e+001
1.217997e+003, 2.685490e+001
1.218479e+003, 2.664957e+001
1.218961e+003, 2.653019e+001
1.219443e+003, 2.652855e+001
1.219925e+003, 2.663294e+001
1.220407e+003, 2.701766e+001
1.220890e+003, 2.737017e+001
1.221372e+003, 2.717809e+001
1.221854e+003, 2.651284e+001
1.222336e+003, 2.637573e+001
1.222818e+003, 2.698811e+001
1.223300e+003, 2.732548e+001
1.223782e+003, 2.714539e+001
1.224264e+003, 2.684761e+001
1.224746e+003, 2.690456e+001
1.225229e+003, 2.705250e+001
1.225711e+003, 2.697305e+001
1.226193e+003, 2.667689e+001
1.226675e+003, 2.655998e+001
1.227157e+003, 2.665059e+001
1.227639e+003, 2.679635e+001
1.228121e+003, 2.697996e+001
1.228603e+003, 2.713725e+001
1.229085e+003, 2.723572e+001
1.229568e+003, 2.724620e+001
1.230050e+003, 2.705187e+001
1.230532e+003, 2.670062e+001
1.231014e+003, 2.666590e+001
1.231496e+003, 2.699723e+001
1.231978e+003, 2.718978e+001
1.232460e+003, 2.710720e+001
1.232942e+003, 2.696605e+001
1.233425e+003, 2.695469e+001
1.233907e+003, 2.699497e+001
1.234389e+003, 2.705753e+001
1.234871e+003, 2.711658e+001
1.235353e+003, 2.698494e+001
1.235835e+003, 2.664748e+001
1.236317e+003, 2.653366e+001
1.236799e+003, 2.679299e+001
1.237281e+003, 2.704164e+001
1.237764e+003, 2.686636e+001
1.238246e+003, 2.662476e+001
1.238728e+003, 2.665923e+001
1.239210e+003, 2.688178e+001
1.239692e+003, 2.686593e+001
1.240174e+003, 2.662452e+001
1.240656e+003, 2.649838e+001
1.241138e+003, 2.658337e+001
1.241621e+003, 2.670895e+001
1.242103e+003, 2.671085e+001
1.242585e+003, 2.674880e+001
1.243067e+003, 2.693941e+001
1.243549e+003, 2.724548e+001
1.244031e+003, 2.761771e+001
1.244513e+003, 2.801900e+001
1.244995e+003, 2.809849e+001
1.245478e+003, 2.773767e+001
1.245960e+003, 2.729058e+001
1.246442e+003, 2.678366e+001
1.246924e+003, 2.646858e+001
1.247406e+003, 2.653593e+001
1.247888e+003, 2.683191e+001
1.248370e+003, 2.683463e+001
1.248852e+003, 2.663357e+001
1.249334e+003, 2.664868e+001
1.249817e+003, 2.701696e+001
1.250299e+003, 2.730768e+001
1.250781e+003, 2.718419e+001
1.251263e+003, 2.710433e+001
1.251745e+003, 2.731664e+001
1.252227e+003, 2.762962e+001
1.252709e+003, 2.746346e+001
1.253191e+003, 2.701245e+001
1.253673e+003, 2.686990e+001
1.254156e+003, 2.719684e+001
1.254638e+003, 2.750188e+001
1.255120e+003, 2.772245e+001
1.255602e+003, 2.773331e+001
1.256084e+003, 2.739510e+001
1.256566e+003, 2.695539e+001
1.257048e+003, 2.698235e+001
1.257530e+003, 2.726276e+001
1.258012e+003, 2.733611e+001
1.258495e+003, 2.709635e+001
1.258977e+003, 2.695529e+001
1.259459e+003, 2.703584e+001
1.259941e+003, 2.706275e+001
1.260423e+003, 2.691292e+001
1.260905e+003, 2.674312e+001
1.261387e+003, 2.678449e+001
1.261869e+003, 2.697926e+001
1.262352e+003, 2.730397e+001
1.262834e+003, 2.776819e+001
1.263316e+003, 2.799450e+001
1.263798e+003, 2.793663e+001
1.264280e+003, 2.773595e+001
1.264762e+003, 2.737577e+001
1.265244e+003, 2.707326e+001
1.265726e+003, 2.723148e+001
1.266208e+003, 2.749876e+001
1.266691e+003, 2.743384e+001
1.267173e+003, 2.700573e+001
1.267655e+003, 2.674383e+001
1.268137e+003, 2.665544e+001
1.268619e+003, 2.665564e+001
1.269101e+003, 2.671809e+001
1.269583e+003, 2.688276e+001
1.270065e+003, 2.745946e+001
1.270548e+003, 2.793802e+001
1.271030e+003, 2.764247e+001
1.271512e+003, 2.681776e+001
1.271994e+003, 2.656573e+001
1.272476e+003, 2.687652e+001
1.272958e+003, 2.724815e+001
1.273440e+003, 2.759702e+001
1.273922e+003, 2.778362e+001
1.274405e+003, 2.751501e+001
1.274887e+003, 2.725207e+001
1.275369e+003, 2.730111e+001
1.275851e+003, 2.754059e+001
1.276333e+003, 2.763222e+001
1.276815e+003, 2.760058e+001
1.277297e+003, 2.756609e+001
1.277779e+003, 2.755022e+001
1.278261e+003, 2.754419e+001
1.278744e+003, 2.752076e+001
1.279226e+003, 2.753944e+001
1.279708e+003, 2.763533e+001
1.280190e+003, 2.776431e+001
1.280672e+003, 2.786778e+001
1.281154e+003, 2.793291e+001
1.281636e+003, 2.789180e+001
1.282118e+003, 2.773526e+001
1.282600e+003, 2.768614e+001
1.283083e+003, 2.790402e+001
1.283565e+003, 2.807354e+001
1.284047e+003, 2.812330e+001
1.284529e+003, 2.809930e+001
1.285011e+003, 2.803968e+001
1.285493e+003, 2.796470e+001
1.285975e+003, 2.792019e+001
1.286457e+003, 2.790422e+001
1.286939e+003, 2.780766e+001
1.287422e+003, 2.755191e+001
1.287904e+003, 2.749748e+001
1.288386e+003, 2.775545e+001
1.288868e+003, 2.803149e+001
1.289350e+003, 2.793402e+001
1.289832e+003, 2.775178e+001
1.290314e+003, 2.781658e+001
1.290796e+003, 2.807455e+001
1.291279e+003, 2.815932e+001
1.291761e+003, 2.804964e+001
1.292243e+003, 2.799315e+001
1.292725e+003, 2.802861e+001
1.293207e+003, 2.804314e+001
1.293689e+003, 2.793532e+001
1.294171e+003, 2.778500e+001
1.294653e+003, 2.756096e+001
1.295135e+003, 2.737529e+001
1.295618e+003, 2.749826e+001
1.296100e+003, 2.788310e+001
1.296582e+003, 2.806060e+001
1.297064e+003, 2.799770e+001
1.297546e+003, 2.788938e+001
1.298028e+003, 2.774550e+001
1.298510e+003, 2.771063e+001
1.298992e+003, 2.788227e+001
1.299475e+003, 2.809495e+001
1.299957e+003, 2.807915e+001
1.300439e+003, 2.794097e+001
1.300921e+003, 2.807375e+001
1.301403e+003, 2.842143e+001
1.301885e+003, 2.854038e+001
##END=



