##NAMES=Bjarebyite
##RRUFFID=R130106
##IDEAL CHEMISTRY=BaMn^2+^_2_Al_2_(PO_4_)_3_(OH)_3_
##LOCALITY=Palermo #1 mine, North Groton, New Hampshire
##OWNER=RRUFF
##SOURCE=Donald Doell (small piece), Rock Currier (large Piece)
##DESCRIPTION=Dark green, heavily striated crystals
##STATUS=The identification of this mineral has been confirmed by single-crystal X-ray diffraction.
##URL=rruff.info/R130106
8.975323e+001, 0.000000e+000
9.023535e+001, 2.501774e+002
9.071747e+001, 2.536677e+002
9.119958e+001, 2.539583e+002
9.168170e+001, 2.530768e+002
9.216382e+001, 2.496920e+002
9.264594e+001, 2.447106e+002
9.312805e+001, 2.393776e+002
9.361017e+001, 2.341451e+002
9.409229e+001, 2.282151e+002
9.457440e+001, 2.204149e+002
9.505651e+001, 2.139257e+002
9.553863e+001, 2.093731e+002
9.602074e+001, 2.057808e+002
9.650286e+001, 2.023978e+002
9.698498e+001, 1.987807e+002
9.746709e+001, 1.945498e+002
9.794921e+001, 1.900527e+002
9.843133e+001, 1.845765e+002
9.891344e+001, 1.797009e+002
9.939556e+001, 1.759230e+002
9.987768e+001, 1.729939e+002
1.003598e+002, 1.703393e+002
1.008419e+002, 1.675767e+002
1.013240e+002, 1.648443e+002
1.018061e+002, 1.625762e+002
1.022883e+002, 1.609110e+002
1.027704e+002, 1.595674e+002
1.032525e+002, 1.583363e+002
1.037346e+002, 1.572134e+002
1.042167e+002, 1.561449e+002
1.046988e+002, 1.551118e+002
1.051810e+002, 1.540652e+002
1.056631e+002, 1.529263e+002
1.061452e+002, 1.515553e+002
1.066273e+002, 1.500385e+002
1.071094e+002, 1.487361e+002
1.075915e+002, 1.477108e+002
1.080737e+002, 1.468426e+002
1.085558e+002, 1.460815e+002
1.090379e+002, 1.454156e+002
1.095200e+002, 1.448279e+002
1.100021e+002, 1.442276e+002
1.104842e+002, 1.435071e+002
1.109664e+002, 1.433791e+002
1.114485e+002, 1.440616e+002
1.119306e+002, 1.450908e+002
1.124127e+002, 1.463983e+002
1.128948e+002, 1.479014e+002
1.133769e+002, 1.494439e+002
1.138591e+002, 1.507719e+002
1.143412e+002, 1.516373e+002
1.148233e+002, 1.527644e+002
1.153054e+002, 1.548115e+002
1.157875e+002, 1.568241e+002
1.162696e+002, 1.579570e+002
1.167517e+002, 1.579218e+002
1.172339e+002, 1.568094e+002
1.177160e+002, 1.545627e+002
1.181981e+002, 1.507454e+002
1.186802e+002, 1.469939e+002
1.191623e+002, 1.438538e+002
1.196444e+002, 1.411567e+002
1.201266e+002, 1.383899e+002
1.206087e+002, 1.352514e+002
1.210908e+002, 1.319967e+002
1.215729e+002, 1.290788e+002
1.220550e+002, 1.265065e+002
1.225371e+002, 1.242500e+002
1.230193e+002, 1.222999e+002
1.235014e+002, 1.206451e+002
1.239835e+002, 1.193448e+002
1.244656e+002, 1.186710e+002
1.249477e+002, 1.183001e+002
1.254298e+002, 1.180038e+002
1.259120e+002, 1.177533e+002
1.263941e+002, 1.174811e+002
1.268762e+002, 1.169706e+002
1.273583e+002, 1.158616e+002
1.278404e+002, 1.151528e+002
1.283225e+002, 1.153738e+002
1.288047e+002, 1.160564e+002
1.292868e+002, 1.165395e+002
1.297689e+002, 1.163391e+002
1.302510e+002, 1.155363e+002
1.307331e+002, 1.153289e+002
1.312152e+002, 1.168222e+002
1.316974e+002, 1.178749e+002
1.321795e+002, 1.177631e+002
1.326616e+002, 1.167248e+002
1.331437e+002, 1.154611e+002
1.336258e+002, 1.146093e+002
1.341079e+002, 1.143064e+002
1.345901e+002, 1.134103e+002
1.350722e+002, 1.116819e+002
1.355543e+002, 1.096836e+002
1.360364e+002, 1.076051e+002
1.365185e+002, 1.055169e+002
1.370006e+002, 1.035526e+002
1.374828e+002, 1.018474e+002
1.379649e+002, 1.003881e+002
1.384470e+002, 9.946920e+001
1.389291e+002, 9.966504e+001
1.394112e+002, 1.001916e+002
1.398933e+002, 1.000425e+002
1.403755e+002, 9.890090e+001
1.408576e+002, 9.746441e+001
1.413397e+002, 9.665506e+001
1.418218e+002, 9.640784e+001
1.423039e+002, 9.621659e+001
1.427860e+002, 9.574871e+001
1.432681e+002, 9.514124e+001
1.437503e+002, 9.493515e+001
1.442324e+002, 9.551089e+001
1.447145e+002, 9.623632e+001
1.451966e+002, 9.654050e+001
1.456787e+002, 9.641594e+001
1.461608e+002, 9.615898e+001
1.466430e+002, 9.603024e+001
1.471251e+002, 9.605154e+001
1.476072e+002, 9.598204e+001
1.480893e+002, 9.577058e+001
1.485714e+002, 9.544868e+001
1.490535e+002, 9.501933e+001
1.495357e+002, 9.448549e+001
1.500178e+002, 9.384770e+001
1.504999e+002, 9.311670e+001
1.509820e+002, 9.229694e+001
1.514641e+002, 9.133964e+001
1.519462e+002, 9.007243e+001
1.524284e+002, 8.878529e+001
1.529105e+002, 8.771734e+001
1.533926e+002, 8.696052e+001
1.538747e+002, 8.639989e+001
1.543568e+002, 8.575557e+001
1.548389e+002, 8.503793e+001
1.553211e+002, 8.420467e+001
1.558032e+002, 8.299989e+001
1.562853e+002, 8.175185e+001
1.567674e+002, 8.092382e+001
1.572495e+002, 8.076882e+001
1.577316e+002, 8.108338e+001
1.582138e+002, 8.099515e+001
1.586959e+002, 8.019289e+001
1.591780e+002, 7.940235e+001
1.596601e+002, 7.873415e+001
1.601422e+002, 7.820211e+001
1.606243e+002, 7.785024e+001
1.611065e+002, 7.774449e+001
1.615886e+002, 7.782292e+001
1.620707e+002, 7.778889e+001
1.625528e+002, 7.752174e+001
1.630349e+002, 7.726650e+001
1.635170e+002, 7.725989e+001
1.639991e+002, 7.746478e+001
1.644813e+002, 7.750277e+001
1.649634e+002, 7.706181e+001
1.654455e+002, 7.629184e+001
1.659276e+002, 7.557297e+001
1.664097e+002, 7.498054e+001
1.668918e+002, 7.442178e+001
1.673740e+002, 7.377142e+001
1.678561e+002, 7.300114e+001
1.683382e+002, 7.227915e+001
1.688203e+002, 7.173174e+001
1.693024e+002, 7.128756e+001
1.697845e+002, 7.088174e+001
1.702667e+002, 7.054804e+001
1.707488e+002, 7.020644e+001
1.712309e+002, 6.959898e+001
1.717130e+002, 6.842101e+001
1.721951e+002, 6.756240e+001
1.726772e+002, 6.748973e+001
1.731594e+002, 6.786644e+001
1.736415e+002, 6.823985e+001
1.741236e+002, 6.837880e+001
1.746057e+002, 6.829394e+001
1.750878e+002, 6.802536e+001
1.755699e+002, 6.727773e+001
1.760521e+002, 6.667893e+001
1.765342e+002, 6.647468e+001
1.770163e+002, 6.653092e+001
1.774984e+002, 6.661383e+001
1.779805e+002, 6.656039e+001
1.784626e+002, 6.636962e+001
1.789448e+002, 6.611715e+001
1.794269e+002, 6.565042e+001
1.799090e+002, 6.527049e+001
1.803911e+002, 6.501556e+001
1.808732e+002, 6.491833e+001
1.813553e+002, 6.507526e+001
1.818375e+002, 6.563458e+001
1.823196e+002, 6.670021e+001
1.828017e+002, 6.706297e+001
1.832838e+002, 6.615668e+001
1.837659e+002, 6.521648e+001
1.842480e+002, 6.488248e+001
1.847301e+002, 6.513242e+001
1.852123e+002, 6.552395e+001
1.856944e+002, 6.563552e+001
1.861765e+002, 6.540971e+001
1.866586e+002, 6.544084e+001
1.871407e+002, 6.601825e+001
1.876228e+002, 6.663753e+001
1.881050e+002, 6.689334e+001
1.885871e+002, 6.674940e+001
1.890692e+002, 6.649283e+001
1.895513e+002, 6.635098e+001
1.900334e+002, 6.633263e+001
1.905155e+002, 6.647340e+001
1.909977e+002, 6.679471e+001
1.914798e+002, 6.727006e+001
1.919619e+002, 6.792415e+001
1.924440e+002, 6.879311e+001
1.929261e+002, 6.967249e+001
1.934082e+002, 7.030601e+001
1.938904e+002, 7.077335e+001
1.943725e+002, 7.131667e+001
1.948546e+002, 7.208743e+001
1.953367e+002, 7.297338e+001
1.958188e+002, 7.368761e+001
1.963009e+002, 7.404872e+001
1.967831e+002, 7.460311e+001
1.972652e+002, 7.587602e+001
1.977473e+002, 7.765932e+001
1.982294e+002, 7.942246e+001
1.987115e+002, 8.083743e+001
1.991936e+002, 8.200156e+001
1.996758e+002, 8.331693e+001
2.001579e+002, 8.484248e+001
2.006400e+002, 8.647539e+001
2.011221e+002, 8.812389e+001
2.016042e+002, 8.980965e+001
2.020863e+002, 9.157012e+001
2.025685e+002, 9.344157e+001
2.030506e+002, 9.542242e+001
2.035327e+002, 9.743491e+001
2.040148e+002, 9.950320e+001
2.044969e+002, 1.015705e+002
2.049790e+002, 1.037085e+002
2.054612e+002, 1.058293e+002
2.059433e+002, 1.077717e+002
2.064254e+002, 1.094269e+002
2.069075e+002, 1.108016e+002
2.073896e+002, 1.117465e+002
2.078717e+002, 1.119731e+002
2.083539e+002, 1.120030e+002
2.088360e+002, 1.122090e+002
2.093181e+002, 1.123897e+002
2.098002e+002, 1.119955e+002
2.102823e+002, 1.104553e+002
2.107644e+002, 1.076291e+002
2.112466e+002, 1.049834e+002
2.117287e+002, 1.026143e+002
2.122108e+002, 1.003228e+002
2.126929e+002, 9.799599e+001
2.131750e+002, 9.566562e+001
2.136571e+002, 9.342809e+001
2.141393e+002, 9.138676e+001
2.146214e+002, 8.957307e+001
2.151035e+002, 8.772780e+001
2.155856e+002, 8.568320e+001
2.160677e+002, 8.375379e+001
2.165498e+002, 8.208823e+001
2.170320e+002, 8.068722e+001
2.175141e+002, 7.944199e+001
2.179962e+002, 7.825656e+001
2.184783e+002, 7.712773e+001
2.189604e+002, 7.622362e+001
2.194425e+002, 7.558608e+001
2.199247e+002, 7.510213e+001
2.204068e+002, 7.477211e+001
2.208889e+002, 7.456554e+001
2.213710e+002, 7.432701e+001
2.218531e+002, 7.386781e+001
2.223352e+002, 7.318275e+001
2.228174e+002, 7.286205e+001
2.232995e+002, 7.330398e+001
2.237816e+002, 7.381451e+001
2.242637e+002, 7.387206e+001
2.247458e+002, 7.345480e+001
2.252279e+002, 7.283984e+001
2.257100e+002, 7.215308e+001
2.261922e+002, 7.143785e+001
2.266743e+002, 7.093996e+001
2.271564e+002, 7.080566e+001
2.276385e+002, 7.081524e+001
2.281206e+002, 7.077766e+001
2.286027e+002, 7.068233e+001
2.290849e+002, 7.060638e+001
2.295670e+002, 7.065166e+001
2.300491e+002, 7.075927e+001
2.305312e+002, 7.076454e+001
2.310133e+002, 7.062654e+001
2.314954e+002, 7.038177e+001
2.319776e+002, 7.007032e+001
2.324597e+002, 6.969408e+001
2.329418e+002, 6.923804e+001
2.334239e+002, 6.860912e+001
2.339060e+002, 6.790469e+001
2.343881e+002, 6.726981e+001
2.348703e+002, 6.673117e+001
2.353524e+002, 6.628594e+001
2.358345e+002, 6.596045e+001
2.363166e+002, 6.578825e+001
2.367987e+002, 6.558762e+001
2.372808e+002, 6.525071e+001
2.377630e+002, 6.483569e+001
2.382451e+002, 6.441796e+001
2.387272e+002, 6.407856e+001
2.392093e+002, 6.366083e+001
2.396914e+002, 6.275701e+001
2.401735e+002, 6.106411e+001
2.406557e+002, 5.986346e+001
2.411378e+002, 6.014469e+001
2.416199e+002, 6.092900e+001
2.421020e+002, 6.130083e+001
2.425841e+002, 6.091259e+001
2.430662e+002, 6.010567e+001
2.435484e+002, 5.942644e+001
2.440305e+002, 5.888034e+001
2.445126e+002, 5.845984e+001
2.449947e+002, 5.826118e+001
2.454768e+002, 5.812642e+001
2.459589e+002, 5.794822e+001
2.464410e+002, 5.769410e+001
2.469232e+002, 5.733525e+001
2.474053e+002, 5.678101e+001
2.478874e+002, 5.591217e+001
2.483695e+002, 5.513614e+001
2.488516e+002, 5.445378e+001
2.493337e+002, 5.391834e+001
2.498159e+002, 5.360091e+001
2.502980e+002, 5.351897e+001
2.507801e+002, 5.359234e+001
2.512622e+002, 5.373338e+001
2.517443e+002, 5.409228e+001
2.522264e+002, 5.415501e+001
2.527086e+002, 5.352650e+001
2.531907e+002, 5.286016e+001
2.536728e+002, 5.265899e+001
2.541549e+002, 5.303309e+001
2.546370e+002, 5.368172e+001
2.551191e+002, 5.416679e+001
2.556013e+002, 5.445370e+001
2.560834e+002, 5.462876e+001
2.565655e+002, 5.460967e+001
2.570476e+002, 5.456391e+001
2.575297e+002, 5.456707e+001
2.580118e+002, 5.464926e+001
2.584940e+002, 5.483631e+001
2.589761e+002, 5.518761e+001
2.594582e+002, 5.583158e+001
2.599403e+002, 5.630982e+001
2.604224e+002, 5.633603e+001
2.609045e+002, 5.645225e+001
2.613867e+002, 5.705749e+001
2.618688e+002, 5.815362e+001
2.623509e+002, 5.940763e+001
2.628330e+002, 6.044285e+001
2.633151e+002, 6.118085e+001
2.637972e+002, 6.197758e+001
2.642794e+002, 6.274411e+001
2.647615e+002, 6.362456e+001
2.652436e+002, 6.472153e+001
2.657257e+002, 6.601756e+001
2.662078e+002, 6.741608e+001
2.666899e+002, 6.882960e+001
2.671721e+002, 7.025484e+001
2.676542e+002, 7.169577e+001
2.681363e+002, 7.337248e+001
2.686184e+002, 7.486845e+001
2.691005e+002, 7.581615e+001
2.695826e+002, 7.634303e+001
2.700648e+002, 7.696326e+001
2.705469e+002, 7.816869e+001
2.710290e+002, 7.999499e+001
2.715111e+002, 8.104555e+001
2.719932e+002, 8.110668e+001
2.724753e+002, 8.079007e+001
2.729575e+002, 8.028453e+001
2.734396e+002, 7.960802e+001
2.739217e+002, 7.875346e+001
2.744038e+002, 7.772623e+001
2.748859e+002, 7.651499e+001
2.753680e+002, 7.496929e+001
2.758501e+002, 7.286077e+001
2.763322e+002, 7.074829e+001
2.768144e+002, 6.879067e+001
2.772965e+002, 6.696120e+001
2.777786e+002, 6.520495e+001
2.782607e+002, 6.349958e+001
2.787428e+002, 6.183297e+001
2.792249e+002, 6.013495e+001
2.797071e+002, 5.834557e+001
2.801892e+002, 5.659480e+001
2.806713e+002, 5.488071e+001
2.811534e+002, 5.323009e+001
2.816355e+002, 5.168283e+001
2.821176e+002, 5.025439e+001
2.825998e+002, 4.894690e+001
2.830819e+002, 4.781126e+001
2.835640e+002, 4.684121e+001
2.840461e+002, 4.600359e+001
2.845282e+002, 4.532704e+001
2.850103e+002, 4.477064e+001
2.854925e+002, 4.428278e+001
2.859746e+002, 4.384874e+001
2.864567e+002, 4.346260e+001
2.869388e+002, 4.311929e+001
2.874209e+002, 4.283138e+001
2.879030e+002, 4.254345e+001
2.883852e+002, 4.225790e+001
2.888673e+002, 4.196520e+001
2.893494e+002, 4.162323e+001
2.898315e+002, 4.121747e+001
2.903136e+002, 4.086115e+001
2.907957e+002, 4.071268e+001
2.912779e+002, 4.080151e+001
2.917600e+002, 4.088214e+001
2.922421e+002, 4.092924e+001
2.927242e+002, 4.095864e+001
2.932063e+002, 4.095930e+001
2.936884e+002, 4.093229e+001
2.941706e+002, 4.095710e+001
2.946527e+002, 4.111979e+001
2.951348e+002, 4.142669e+001
2.956169e+002, 4.172865e+001
2.960990e+002, 4.206372e+001
2.965811e+002, 4.236119e+001
2.970633e+002, 4.250233e+001
2.975454e+002, 4.250595e+001
2.980275e+002, 4.259581e+001
2.985096e+002, 4.293646e+001
2.989917e+002, 4.351355e+001
2.994738e+002, 4.411361e+001
2.999560e+002, 4.487103e+001
3.004381e+002, 4.552589e+001
3.009202e+002, 4.579675e+001
3.014023e+002, 4.578349e+001
3.018844e+002, 4.596032e+001
3.023665e+002, 4.661546e+001
3.028487e+002, 4.761119e+001
3.033308e+002, 4.849825e+001
3.038129e+002, 4.917873e+001
3.042950e+002, 4.992323e+001
3.047771e+002, 5.096003e+001
3.052592e+002, 5.216114e+001
3.057414e+002, 5.317327e+001
3.062235e+002, 5.382584e+001
3.067056e+002, 5.429557e+001
3.071877e+002, 5.489685e+001
3.076698e+002, 5.561165e+001
3.081519e+002, 5.645320e+001
3.086341e+002, 5.748798e+001
3.091162e+002, 5.863860e+001
3.095983e+002, 5.982244e+001
3.100804e+002, 6.105365e+001
3.105625e+002, 6.214477e+001
3.110446e+002, 6.278143e+001
3.115268e+002, 6.297340e+001
3.120089e+002, 6.304757e+001
3.124910e+002, 6.313171e+001
3.129731e+002, 6.309985e+001
3.134552e+002, 6.278406e+001
3.139373e+002, 6.215661e+001
3.144195e+002, 6.134219e+001
3.149016e+002, 6.040174e+001
3.153837e+002, 5.933961e+001
3.158658e+002, 5.830134e+001
3.163479e+002, 5.749176e+001
3.168300e+002, 5.657288e+001
3.173121e+002, 5.514340e+001
3.177943e+002, 5.323068e+001
3.182764e+002, 5.137950e+001
3.187585e+002, 4.995253e+001
3.192406e+002, 4.889920e+001
3.197227e+002, 4.782271e+001
3.202048e+002, 4.666472e+001
3.206870e+002, 4.553681e+001
3.211691e+002, 4.445936e+001
3.216512e+002, 4.345439e+001
3.221333e+002, 4.259306e+001
3.226154e+002, 4.193656e+001
3.230975e+002, 4.142205e+001
3.235797e+002, 4.088438e+001
3.240618e+002, 4.022770e+001
3.245439e+002, 3.973951e+001
3.250260e+002, 3.965471e+001
3.255081e+002, 3.978804e+001
3.259902e+002, 3.977863e+001
3.264724e+002, 3.950039e+001
3.269545e+002, 3.909547e+001
3.274366e+002, 3.874543e+001
3.279187e+002, 3.842061e+001
3.284008e+002, 3.827057e+001
3.288829e+002, 3.851759e+001
3.293651e+002, 3.886525e+001
3.298472e+002, 3.891656e+001
3.303293e+002, 3.860280e+001
3.308114e+002, 3.824413e+001
3.312935e+002, 3.815686e+001
3.317756e+002, 3.836891e+001
3.322578e+002, 3.859901e+001
3.327399e+002, 3.890353e+001
3.332220e+002, 3.917271e+001
3.337041e+002, 3.935248e+001
3.341862e+002, 3.943087e+001
3.346683e+002, 3.935835e+001
3.351505e+002, 3.904383e+001
3.356326e+002, 3.854759e+001
3.361147e+002, 3.830698e+001
3.365968e+002, 3.855140e+001
3.370789e+002, 3.877620e+001
3.375610e+002, 3.865743e+001
3.380432e+002, 3.835302e+001
3.385253e+002, 3.830637e+001
3.390074e+002, 3.878279e+001
3.394895e+002, 3.950004e+001
3.399716e+002, 3.965184e+001
3.404537e+002, 3.894822e+001
3.409359e+002, 3.830583e+001
3.414180e+002, 3.785615e+001
3.419001e+002, 3.757592e+001
3.423822e+002, 3.745920e+001
3.428643e+002, 3.750459e+001
3.433464e+002, 3.766242e+001
3.438286e+002, 3.788037e+001
3.443107e+002, 3.820604e+001
3.447928e+002, 3.844191e+001
3.452749e+002, 3.849244e+001
3.457570e+002, 3.851640e+001
3.462391e+002, 3.862246e+001
3.467213e+002, 3.882329e+001
3.472034e+002, 3.909607e+001
3.476855e+002, 3.942782e+001
3.481676e+002, 3.982396e+001
3.486497e+002, 4.019138e+001
3.491318e+002, 4.060653e+001
3.496140e+002, 4.092425e+001
3.500961e+002, 4.104306e+001
3.505782e+002, 4.101196e+001
3.510603e+002, 4.093152e+001
3.515424e+002, 4.085046e+001
3.520245e+002, 4.078605e+001
3.525067e+002, 4.081654e+001
3.529888e+002, 4.109625e+001
3.534709e+002, 4.127931e+001
3.539530e+002, 4.131793e+001
3.544351e+002, 4.124049e+001
3.549172e+002, 4.106536e+001
3.553994e+002, 4.080091e+001
3.558815e+002, 4.047882e+001
3.563636e+002, 4.015451e+001
3.568457e+002, 3.987404e+001
3.573278e+002, 3.948421e+001
3.578099e+002, 3.901223e+001
3.582920e+002, 3.842243e+001
3.587741e+002, 3.755339e+001
3.592563e+002, 3.647760e+001
3.597384e+002, 3.555895e+001
3.602205e+002, 3.518953e+001
3.607026e+002, 3.545159e+001
3.611847e+002, 3.546645e+001
3.616668e+002, 3.491606e+001
3.621490e+002, 3.446491e+001
3.626311e+002, 3.446717e+001
3.631132e+002, 3.472215e+001
3.635953e+002, 3.482210e+001
3.640774e+002, 3.450947e+001
3.645595e+002, 3.388415e+001
3.650417e+002, 3.336326e+001
3.655238e+002, 3.290398e+001
3.660059e+002, 3.263285e+001
3.664880e+002, 3.270905e+001
3.669701e+002, 3.289618e+001
3.674522e+002, 3.293944e+001
3.679344e+002, 3.276543e+001
3.684165e+002, 3.253287e+001
3.688986e+002, 3.250640e+001
3.693807e+002, 3.279073e+001
3.698628e+002, 3.299737e+001
3.703449e+002, 3.317225e+001
3.708271e+002, 3.322511e+001
3.713092e+002, 3.303835e+001
3.717913e+002, 3.265845e+001
3.722734e+002, 3.226434e+001
3.727555e+002, 3.199252e+001
3.732376e+002, 3.184339e+001
3.737198e+002, 3.184048e+001
3.742019e+002, 3.217884e+001
3.746840e+002, 3.242267e+001
3.751661e+002, 3.232181e+001
3.756482e+002, 3.206239e+001
3.761303e+002, 3.194687e+001
3.766125e+002, 3.214520e+001
3.770946e+002, 3.251305e+001
3.775767e+002, 3.274223e+001
3.780588e+002, 3.282043e+001
3.785409e+002, 3.278968e+001
3.790230e+002, 3.254588e+001
3.795052e+002, 3.226874e+001
3.799873e+002, 3.208739e+001
3.804694e+002, 3.202801e+001
3.809515e+002, 3.205610e+001
3.814336e+002, 3.217586e+001
3.819157e+002, 3.238450e+001
3.823979e+002, 3.252251e+001
3.828800e+002, 3.251580e+001
3.833621e+002, 3.249604e+001
3.838442e+002, 3.258452e+001
3.843263e+002, 3.274439e+001
3.848084e+002, 3.284290e+001
3.852906e+002, 3.278545e+001
3.857727e+002, 3.262053e+001
3.862548e+002, 3.240837e+001
3.867369e+002, 3.209267e+001
3.872190e+002, 3.193902e+001
3.877011e+002, 3.231808e+001
3.881833e+002, 3.289810e+001
3.886654e+002, 3.316230e+001
3.891475e+002, 3.282727e+001
3.896296e+002, 3.250004e+001
3.901117e+002, 3.284338e+001
3.905938e+002, 3.375983e+001
3.910760e+002, 3.447200e+001
3.915581e+002, 3.470390e+001
3.920402e+002, 3.464231e+001
3.925223e+002, 3.449953e+001
3.930044e+002, 3.425785e+001
3.934865e+002, 3.413623e+001
3.939687e+002, 3.426979e+001
3.944508e+002, 3.456098e+001
3.949329e+002, 3.491387e+001
3.954150e+002, 3.533534e+001
3.958971e+002, 3.562568e+001
3.963792e+002, 3.554561e+001
3.968614e+002, 3.512769e+001
3.973435e+002, 3.484473e+001
3.978256e+002, 3.480235e+001
3.983077e+002, 3.482256e+001
3.987898e+002, 3.483270e+001
3.992719e+002, 3.481509e+001
3.997540e+002, 3.471395e+001
4.002361e+002, 3.449022e+001
4.007183e+002, 3.418267e+001
4.012004e+002, 3.389619e+001
4.016825e+002, 3.355505e+001
4.021646e+002, 3.335759e+001
4.026467e+002, 3.340180e+001
4.031288e+002, 3.357861e+001
4.036110e+002, 3.377969e+001
4.040931e+002, 3.397570e+001
4.045752e+002, 3.417324e+001
4.050573e+002, 3.438421e+001
4.055394e+002, 3.461811e+001
4.060215e+002, 3.480613e+001
4.065037e+002, 3.490524e+001
4.069858e+002, 3.500510e+001
4.074679e+002, 3.509019e+001
4.079500e+002, 3.521083e+001
4.084321e+002, 3.551061e+001
4.089142e+002, 3.611031e+001
4.093964e+002, 3.689395e+001
4.098785e+002, 3.733488e+001
4.103606e+002, 3.715482e+001
4.108427e+002, 3.696462e+001
4.113248e+002, 3.672974e+001
4.118069e+002, 3.655303e+001
4.122891e+002, 3.654838e+001
4.127712e+002, 3.673613e+001
4.132533e+002, 3.702104e+001
4.137354e+002, 3.728258e+001
4.142175e+002, 3.751545e+001
4.146996e+002, 3.775064e+001
4.151818e+002, 3.803263e+001
4.156639e+002, 3.827365e+001
4.161460e+002, 3.832288e+001
4.166281e+002, 3.829934e+001
4.171102e+002, 3.849331e+001
4.175923e+002, 3.915282e+001
4.180745e+002, 4.010801e+001
4.185566e+002, 4.079425e+001
4.190387e+002, 4.117085e+001
4.195208e+002, 4.134973e+001
4.200029e+002, 4.113880e+001
4.204850e+002, 4.087877e+001
4.209672e+002, 4.089127e+001
4.214493e+002, 4.125478e+001
4.219314e+002, 4.179984e+001
4.224135e+002, 4.240676e+001
4.228956e+002, 4.306938e+001
4.233777e+002, 4.368824e+001
4.238599e+002, 4.426780e+001
4.243420e+002, 4.476713e+001
4.248241e+002, 4.509432e+001
4.253062e+002, 4.530870e+001
4.257883e+002, 4.563284e+001
4.262704e+002, 4.615442e+001
4.267526e+002, 4.684292e+001
4.272347e+002, 4.779760e+001
4.277168e+002, 4.905874e+001
4.281989e+002, 4.995366e+001
4.286810e+002, 4.993833e+001
4.291631e+002, 4.940038e+001
4.296453e+002, 4.923629e+001
4.301274e+002, 4.953402e+001
4.306095e+002, 5.001160e+001
4.310916e+002, 5.065553e+001
4.315737e+002, 5.136063e+001
4.320558e+002, 5.190025e+001
4.325380e+002, 5.220378e+001
4.330201e+002, 5.241717e+001
4.335022e+002, 5.269184e+001
4.339843e+002, 5.303267e+001
4.344664e+002, 5.342632e+001
4.349485e+002, 5.391700e+001
4.354307e+002, 5.442211e+001
4.359128e+002, 5.489147e+001
4.363949e+002, 5.532613e+001
4.368770e+002, 5.571077e+001
4.373591e+002, 5.600845e+001
4.378412e+002, 5.630410e+001
4.383234e+002, 5.692189e+001
4.388055e+002, 5.827693e+001
4.392876e+002, 5.942821e+001
4.397697e+002, 6.009662e+001
4.402518e+002, 6.065449e+001
4.407339e+002, 6.140136e+001
4.412160e+002, 6.241608e+001
4.416982e+002, 6.367983e+001
4.421803e+002, 6.520338e+001
4.426624e+002, 6.704853e+001
4.431445e+002, 6.872885e+001
4.436266e+002, 6.991647e+001
4.441087e+002, 7.127543e+001
4.445909e+002, 7.316334e+001
4.450730e+002, 7.532116e+001
4.455551e+002, 7.728195e+001
4.460372e+002, 7.875756e+001
4.465193e+002, 8.007997e+001
4.470014e+002, 8.207142e+001
4.474836e+002, 8.503874e+001
4.479657e+002, 8.775451e+001
4.484478e+002, 8.985186e+001
4.489299e+002, 9.174284e+001
4.494120e+002, 9.365865e+001
4.498941e+002, 9.561951e+001
4.503763e+002, 9.754131e+001
4.508584e+002, 9.945023e+001
4.513405e+002, 1.012851e+002
4.518226e+002, 1.027437e+002
4.523047e+002, 1.038161e+002
4.527868e+002, 1.045040e+002
4.532690e+002, 1.046715e+002
4.537511e+002, 1.044818e+002
4.542332e+002, 1.041429e+002
4.547153e+002, 1.037746e+002
4.551974e+002, 1.031161e+002
4.556795e+002, 1.018635e+002
4.561617e+002, 1.001111e+002
4.566438e+002, 9.823350e+001
4.571259e+002, 9.631299e+001
4.576080e+002, 9.434557e+001
4.580901e+002, 9.230827e+001
4.585722e+002, 9.020660e+001
4.590544e+002, 8.808682e+001
4.595365e+002, 8.592298e+001
4.600186e+002, 8.377794e+001
4.605007e+002, 8.170397e+001
4.609828e+002, 7.970131e+001
4.614649e+002, 7.775648e+001
4.619471e+002, 7.585502e+001
4.624292e+002, 7.399656e+001
4.629113e+002, 7.213209e+001
4.633934e+002, 6.997576e+001
4.638755e+002, 6.818325e+001
4.643576e+002, 6.708816e+001
4.648398e+002, 6.623515e+001
4.653219e+002, 6.514529e+001
4.658040e+002, 6.373201e+001
4.662861e+002, 6.225483e+001
4.667682e+002, 6.099401e+001
4.672503e+002, 5.995467e+001
4.677325e+002, 5.898937e+001
4.682146e+002, 5.804923e+001
4.686967e+002, 5.723854e+001
4.691788e+002, 5.678272e+001
4.696609e+002, 5.642376e+001
4.701430e+002, 5.569216e+001
4.706252e+002, 5.435877e+001
4.711073e+002, 5.291439e+001
4.715894e+002, 5.232995e+001
4.720715e+002, 5.285450e+001
4.725536e+002, 5.314730e+001
4.730357e+002, 5.291599e+001
4.735179e+002, 5.247752e+001
4.740000e+002, 5.200033e+001
4.744821e+002, 5.147817e+001
4.749642e+002, 5.081681e+001
4.754463e+002, 4.979760e+001
4.759284e+002, 4.866312e+001
4.764106e+002, 4.798872e+001
4.768927e+002, 4.784457e+001
4.773748e+002, 4.773384e+001
4.778569e+002, 4.740248e+001
4.783390e+002, 4.698347e+001
4.788211e+002, 4.671667e+001
4.793033e+002, 4.667601e+001
4.797854e+002, 4.655110e+001
4.802675e+002, 4.611985e+001
4.807496e+002, 4.551582e+001
4.812317e+002, 4.498496e+001
4.817138e+002, 4.457244e+001
4.821959e+002, 4.416561e+001
4.826780e+002, 4.361561e+001
4.831602e+002, 4.293953e+001
4.836423e+002, 4.255724e+001
4.841244e+002, 4.300507e+001
4.846065e+002, 4.315023e+001
4.850886e+002, 4.223008e+001
4.855707e+002, 4.075594e+001
4.860529e+002, 3.962197e+001
4.865350e+002, 3.915834e+001
4.870171e+002, 3.910178e+001
4.874992e+002, 3.905280e+001
4.879813e+002, 3.909116e+001
4.884634e+002, 3.890368e+001
4.889456e+002, 3.833657e+001
4.894277e+002, 3.773138e+001
4.899098e+002, 3.723329e+001
4.903919e+002, 3.683408e+001
4.908740e+002, 3.648236e+001
4.913561e+002, 3.615382e+001
4.918383e+002, 3.583842e+001
4.923204e+002, 3.549028e+001
4.928025e+002, 3.505709e+001
4.932846e+002, 3.473876e+001
4.937667e+002, 3.463641e+001
4.942488e+002, 3.462406e+001
4.947310e+002, 3.466443e+001
4.952131e+002, 3.473662e+001
4.956952e+002, 3.475847e+001
4.961773e+002, 3.466552e+001
4.966594e+002, 3.447971e+001
4.971415e+002, 3.423117e+001
4.976237e+002, 3.389256e+001
4.981058e+002, 3.361657e+001
4.985879e+002, 3.341767e+001
4.990700e+002, 3.337185e+001
4.995521e+002, 3.365305e+001
5.000342e+002, 3.445847e+001
5.005164e+002, 3.512944e+001
5.009985e+002, 3.526415e+001
5.014806e+002, 3.506781e+001
5.019627e+002, 3.484851e+001
5.024448e+002, 3.466659e+001
5.029269e+002, 3.462107e+001
5.034091e+002, 3.483390e+001
5.038912e+002, 3.531866e+001
5.043733e+002, 3.572539e+001
5.048554e+002, 3.604100e+001
5.053375e+002, 3.630340e+001
5.058196e+002, 3.648328e+001
5.063018e+002, 3.663186e+001
5.067839e+002, 3.685577e+001
5.072660e+002, 3.718624e+001
5.077481e+002, 3.749260e+001
5.082302e+002, 3.753379e+001
5.087123e+002, 3.716648e+001
5.091945e+002, 3.705369e+001
5.096766e+002, 3.742822e+001
5.101587e+002, 3.782550e+001
5.106408e+002, 3.813218e+001
5.111229e+002, 3.832441e+001
5.116050e+002, 3.834835e+001
5.120872e+002, 3.813334e+001
5.125693e+002, 3.788288e+001
5.130514e+002, 3.803542e+001
5.135335e+002, 3.866632e+001
5.140156e+002, 3.912708e+001
5.144977e+002, 3.926784e+001
5.149799e+002, 3.919074e+001
5.154620e+002, 3.886043e+001
5.159441e+002, 3.834465e+001
5.164262e+002, 3.806884e+001
5.169083e+002, 3.843675e+001
5.173904e+002, 3.901140e+001
5.178726e+002, 3.918863e+001
5.183547e+002, 3.899071e+001
5.188368e+002, 3.884836e+001
5.193189e+002, 3.898880e+001
5.198010e+002, 3.927750e+001
5.202831e+002, 3.940989e+001
5.207653e+002, 3.936903e+001
5.212474e+002, 3.926676e+001
5.217295e+002, 3.909242e+001
5.222116e+002, 3.888460e+001
5.226937e+002, 3.860939e+001
5.231758e+002, 3.831316e+001
5.236580e+002, 3.818809e+001
5.241401e+002, 3.840453e+001
5.246222e+002, 3.886444e+001
5.251043e+002, 3.905806e+001
5.255864e+002, 3.877827e+001
5.260685e+002, 3.851146e+001
5.265507e+002, 3.823545e+001
5.270328e+002, 3.803198e+001
5.275149e+002, 3.797911e+001
5.279970e+002, 3.807673e+001
5.284791e+002, 3.826291e+001
5.289612e+002, 3.854374e+001
5.294434e+002, 3.887564e+001
5.299255e+002, 3.894786e+001
5.304076e+002, 3.860858e+001
5.308897e+002, 3.836271e+001
5.313718e+002, 3.846741e+001
5.318539e+002, 3.875912e+001
5.323361e+002, 3.910229e+001
5.328182e+002, 3.948360e+001
5.333003e+002, 3.987142e+001
5.337824e+002, 4.021936e+001
5.342645e+002, 4.056505e+001
5.347466e+002, 4.104503e+001
5.352288e+002, 4.169341e+001
5.357109e+002, 4.223748e+001
5.361930e+002, 4.240623e+001
5.366751e+002, 4.228615e+001
5.371572e+002, 4.242069e+001
5.376393e+002, 4.295368e+001
5.381215e+002, 4.354009e+001
5.386036e+002, 4.411503e+001
5.390857e+002, 4.467712e+001
5.395678e+002, 4.524205e+001
5.400499e+002, 4.580477e+001
5.405320e+002, 4.630645e+001
5.410142e+002, 4.664698e+001
5.414963e+002, 4.681316e+001
5.419784e+002, 4.727493e+001
5.424604e+002, 4.837156e+001
5.429426e+002, 4.936527e+001
5.434247e+002, 5.017393e+001
5.439068e+002, 5.077037e+001
5.443889e+002, 5.101478e+001
5.448710e+002, 5.089885e+001
5.453531e+002, 5.083150e+001
5.458353e+002, 5.133193e+001
5.463174e+002, 5.234822e+001
5.467995e+002, 5.320798e+001
5.472816e+002, 5.375531e+001
5.477637e+002, 5.439748e+001
5.482458e+002, 5.543018e+001
5.487280e+002, 5.671691e+001
5.492101e+002, 5.809314e+001
5.496922e+002, 5.958317e+001
5.501743e+002, 6.103867e+001
5.506564e+002, 6.228361e+001
5.511385e+002, 6.344689e+001
5.516207e+002, 6.481957e+001
5.521028e+002, 6.646500e+001
5.525849e+002, 6.821129e+001
5.530670e+002, 6.987083e+001
5.535491e+002, 7.144994e+001
5.540313e+002, 7.331785e+001
5.545134e+002, 7.559908e+001
5.549955e+002, 7.797219e+001
5.554776e+002, 8.040544e+001
5.559597e+002, 8.287179e+001
5.564418e+002, 8.531849e+001
5.569240e+002, 8.774287e+001
5.574061e+002, 9.015231e+001
5.578882e+002, 9.264218e+001
5.583703e+002, 9.521912e+001
5.588524e+002, 9.734314e+001
5.593345e+002, 9.909959e+001
5.598167e+002, 1.001949e+002
5.602988e+002, 1.006568e+002
5.607809e+002, 1.004463e+002
5.612630e+002, 9.956682e+001
5.617451e+002, 9.803434e+001
5.622272e+002, 9.564394e+001
5.627094e+002, 9.197084e+001
5.631915e+002, 8.727957e+001
5.636736e+002, 8.240345e+001
5.641557e+002, 7.738668e+001
5.646378e+002, 7.233119e+001
5.651199e+002, 6.719515e+001
5.656021e+002, 6.209008e+001
5.660842e+002, 5.739561e+001
5.665663e+002, 5.304027e+001
5.670484e+002, 4.919165e+001
5.675305e+002, 4.594592e+001
5.680126e+002, 4.322377e+001
5.684948e+002, 4.098305e+001
5.689769e+002, 3.918837e+001
5.694590e+002, 3.762991e+001
5.699411e+002, 3.613657e+001
5.704232e+002, 3.470993e+001
5.709053e+002, 3.348421e+001
5.713875e+002, 3.238260e+001
5.718696e+002, 3.160888e+001
5.723517e+002, 3.126375e+001
5.728338e+002, 3.119549e+001
5.733159e+002, 3.136897e+001
5.737980e+002, 3.172651e+001
5.742802e+002, 3.201122e+001
5.747623e+002, 3.188645e+001
5.752444e+002, 3.148864e+001
5.757265e+002, 3.138638e+001
5.762086e+002, 3.160501e+001
5.766907e+002, 3.202766e+001
5.771729e+002, 3.277317e+001
5.776550e+002, 3.358909e+001
5.781371e+002, 3.399035e+001
5.786192e+002, 3.381511e+001
5.791013e+002, 3.392471e+001
5.795834e+002, 3.504205e+001
5.800656e+002, 3.637815e+001
5.805477e+002, 3.701989e+001
5.810298e+002, 3.694363e+001
5.815119e+002, 3.662923e+001
5.819940e+002, 3.638233e+001
5.824761e+002, 3.611100e+001
5.829583e+002, 3.549469e+001
5.834404e+002, 3.421565e+001
5.839225e+002, 3.305829e+001
5.844046e+002, 3.213839e+001
5.848867e+002, 3.124607e+001
5.853688e+002, 3.018370e+001
5.858510e+002, 2.901475e+001
5.863331e+002, 2.796852e+001
5.868152e+002, 2.720037e+001
5.872973e+002, 2.662297e+001
5.877794e+002, 2.608045e+001
5.882615e+002, 2.559003e+001
5.887437e+002, 2.499623e+001
5.892258e+002, 2.415390e+001
5.897079e+002, 2.331218e+001
5.901900e+002, 2.266841e+001
5.906721e+002, 2.221644e+001
5.911542e+002, 2.194297e+001
5.916364e+002, 2.194815e+001
5.921185e+002, 2.204379e+001
5.926006e+002, 2.212343e+001
5.930827e+002, 2.216543e+001
5.935648e+002, 2.208125e+001
5.940469e+002, 2.182791e+001
5.945291e+002, 2.155965e+001
5.950112e+002, 2.151605e+001
5.954933e+002, 2.179600e+001
5.959754e+002, 2.184518e+001
5.964575e+002, 2.136557e+001
5.969396e+002, 2.102144e+001
5.974218e+002, 2.109002e+001
5.979039e+002, 2.142365e+001
5.983860e+002, 2.183365e+001
5.988681e+002, 2.224977e+001
5.993502e+002, 2.262264e+001
5.998323e+002, 2.288190e+001
6.003145e+002, 2.303203e+001
6.007966e+002, 2.317107e+001
6.012787e+002, 2.329843e+001
6.017608e+002, 2.342285e+001
6.022429e+002, 2.354033e+001
6.027250e+002, 2.366037e+001
6.032072e+002, 2.377119e+001
6.036893e+002, 2.381528e+001
6.041714e+002, 2.401839e+001
6.046535e+002, 2.469802e+001
6.051356e+002, 2.551876e+001
6.056177e+002, 2.589205e+001
6.060999e+002, 2.579842e+001
6.065820e+002, 2.577528e+001
6.070641e+002, 2.621833e+001
6.075462e+002, 2.702856e+001
6.080283e+002, 2.776755e+001
6.085104e+002, 2.843986e+001
6.089926e+002, 2.902171e+001
6.094747e+002, 2.941158e+001
6.099568e+002, 2.979567e+001
6.104389e+002, 3.030315e+001
6.109210e+002, 3.092792e+001
6.114031e+002, 3.160498e+001
6.118853e+002, 3.231866e+001
6.123674e+002, 3.301849e+001
6.128495e+002, 3.358970e+001
6.133316e+002, 3.402519e+001
6.138137e+002, 3.445556e+001
6.142958e+002, 3.493441e+001
6.147780e+002, 3.539200e+001
6.152601e+002, 3.571995e+001
6.157422e+002, 3.594829e+001
6.162243e+002, 3.626612e+001
6.167064e+002, 3.699026e+001
6.171885e+002, 3.753989e+001
6.176707e+002, 3.735234e+001
6.181528e+002, 3.675373e+001
6.186349e+002, 3.643230e+001
6.191170e+002, 3.658764e+001
6.195991e+002, 3.690479e+001
6.200812e+002, 3.705149e+001
6.205634e+002, 3.703953e+001
6.210455e+002, 3.667458e+001
6.215276e+002, 3.562639e+001
6.220097e+002, 3.461622e+001
6.224918e+002, 3.387102e+001
6.229739e+002, 3.319442e+001
6.234561e+002, 3.232301e+001
6.239382e+002, 3.123435e+001
6.244203e+002, 3.024650e+001
6.249023e+002, 2.977529e+001
6.253845e+002, 2.958416e+001
6.258666e+002, 2.895054e+001
6.263487e+002, 2.781047e+001
6.268308e+002, 2.682824e+001
6.273129e+002, 2.634922e+001
6.277950e+002, 2.615729e+001
6.282772e+002, 2.588739e+001
6.287593e+002, 2.558231e+001
6.292414e+002, 2.505622e+001
6.297235e+002, 2.393041e+001
6.302056e+002, 2.288619e+001
6.306877e+002, 2.246484e+001
6.311699e+002, 2.250404e+001
6.316520e+002, 2.258783e+001
6.321341e+002, 2.252606e+001
6.326162e+002, 2.232677e+001
6.330983e+002, 2.195501e+001
6.335804e+002, 2.133999e+001
6.340626e+002, 2.090943e+001
6.345447e+002, 2.071780e+001
6.350268e+002, 2.066067e+001
6.355089e+002, 2.077252e+001
6.359910e+002, 2.094833e+001
6.364731e+002, 2.105121e+001
6.369553e+002, 2.106827e+001
6.374374e+002, 2.091961e+001
6.379195e+002, 2.037025e+001
6.384016e+002, 1.967136e+001
6.388837e+002, 1.933431e+001
6.393658e+002, 1.940897e+001
6.398480e+002, 1.955684e+001
6.403301e+002, 1.957256e+001
6.408122e+002, 1.948271e+001
6.412943e+002, 1.937428e+001
6.417764e+002, 1.918051e+001
6.422585e+002, 1.907079e+001
6.427407e+002, 1.908562e+001
6.432228e+002, 1.914780e+001
6.437049e+002, 1.924356e+001
6.441870e+002, 1.934365e+001
6.446691e+002, 1.939831e+001
6.451512e+002, 1.938135e+001
6.456334e+002, 1.930722e+001
6.461155e+002, 1.917379e+001
6.465976e+002, 1.898205e+001
6.470797e+002, 1.885865e+001
6.475618e+002, 1.885539e+001
6.480439e+002, 1.885312e+001
6.485261e+002, 1.872743e+001
6.490082e+002, 1.852983e+001
6.494903e+002, 1.842900e+001
6.499724e+002, 1.850960e+001
6.504545e+002, 1.857676e+001
6.509366e+002, 1.851928e+001
6.514188e+002, 1.842630e+001
6.519009e+002, 1.841033e+001
6.523830e+002, 1.847763e+001
6.528651e+002, 1.857675e+001
6.533472e+002, 1.868577e+001
6.538293e+002, 1.876203e+001
6.543115e+002, 1.861801e+001
6.547936e+002, 1.812121e+001
6.552757e+002, 1.772656e+001
6.557578e+002, 1.749558e+001
6.562399e+002, 1.738788e+001
6.567220e+002, 1.742270e+001
6.572042e+002, 1.756932e+001
6.576863e+002, 1.776182e+001
6.581684e+002, 1.807695e+001
6.586505e+002, 1.826716e+001
6.591326e+002, 1.791386e+001
6.596147e+002, 1.725384e+001
6.600969e+002, 1.700230e+001
6.605790e+002, 1.732231e+001
6.610611e+002, 1.777604e+001
6.615432e+002, 1.802114e+001
6.620253e+002, 1.805620e+001
6.625074e+002, 1.786506e+001
6.629896e+002, 1.704565e+001
6.634717e+002, 1.653530e+001
6.639538e+002, 1.668141e+001
6.644359e+002, 1.695932e+001
6.649180e+002, 1.692138e+001
6.654001e+002, 1.660476e+001
6.658823e+002, 1.635784e+001
6.663644e+002, 1.643638e+001
6.668465e+002, 1.663616e+001
6.673286e+002, 1.655453e+001
6.678107e+002, 1.620095e+001
6.682928e+002, 1.590467e+001
6.687750e+002, 1.574018e+001
6.692571e+002, 1.564925e+001
6.697392e+002, 1.559688e+001
6.702213e+002, 1.557931e+001
6.707034e+002, 1.555370e+001
6.711855e+002, 1.554765e+001
6.716677e+002, 1.549857e+001
6.721498e+002, 1.532850e+001
6.726319e+002, 1.514011e+001
6.731140e+002, 1.504806e+001
6.735961e+002, 1.506070e+001
6.740782e+002, 1.511487e+001
6.745604e+002, 1.516850e+001
6.750425e+002, 1.521807e+001
6.755246e+002, 1.523532e+001
6.760067e+002, 1.519267e+001
6.764888e+002, 1.525671e+001
6.769709e+002, 1.563173e+001
6.774531e+002, 1.592543e+001
6.779352e+002, 1.569395e+001
6.784173e+002, 1.510898e+001
6.788994e+002, 1.479858e+001
6.793815e+002, 1.514066e+001
6.798636e+002, 1.548853e+001
6.803458e+002, 1.537434e+001
6.808279e+002, 1.505401e+001
6.813100e+002, 1.497302e+001
6.817921e+002, 1.518139e+001
6.822742e+002, 1.536835e+001
6.827563e+002, 1.527710e+001
6.832385e+002, 1.495588e+001
6.837206e+002, 1.460997e+001
6.842027e+002, 1.408929e+001
6.846848e+002, 1.387414e+001
6.851669e+002, 1.428926e+001
6.856490e+002, 1.480089e+001
6.861312e+002, 1.514504e+001
6.866133e+002, 1.533139e+001
6.870954e+002, 1.544814e+001
6.875775e+002, 1.552993e+001
6.880596e+002, 1.554724e+001
6.885417e+002, 1.545722e+001
6.890239e+002, 1.528555e+001
6.895060e+002, 1.504626e+001
6.899881e+002, 1.474673e+001
6.904702e+002, 1.456559e+001
6.909523e+002, 1.467115e+001
6.914344e+002, 1.498848e+001
6.919166e+002, 1.513927e+001
6.923987e+002, 1.501548e+001
6.928808e+002, 1.489183e+001
6.933629e+002, 1.478733e+001
6.938450e+002, 1.468221e+001
6.943271e+002, 1.449341e+001
6.948093e+002, 1.429708e+001
6.952914e+002, 1.430655e+001
6.957735e+002, 1.467694e+001
6.962556e+002, 1.508940e+001
6.967377e+002, 1.516106e+001
6.972198e+002, 1.497640e+001
6.977020e+002, 1.483525e+001
6.981841e+002, 1.478535e+001
6.986662e+002, 1.473541e+001
6.991483e+002, 1.460995e+001
6.996304e+002, 1.444226e+001
7.001125e+002, 1.436081e+001
7.005947e+002, 1.439719e+001
7.010768e+002, 1.447644e+001
7.015589e+002, 1.468413e+001
7.020410e+002, 1.485459e+001
7.025231e+002, 1.486047e+001
7.030052e+002, 1.475327e+001
7.034874e+002, 1.463940e+001
7.039695e+002, 1.455833e+001
7.044516e+002, 1.454406e+001
7.049337e+002, 1.471739e+001
7.054158e+002, 1.501280e+001
7.058979e+002, 1.507144e+001
7.063801e+002, 1.482657e+001
7.068622e+002, 1.457806e+001
7.073442e+002, 1.449801e+001
7.078264e+002, 1.453160e+001
7.083085e+002, 1.453872e+001
7.087906e+002, 1.449200e+001
7.092727e+002, 1.448949e+001
7.097548e+002, 1.453959e+001
7.102369e+002, 1.463369e+001
7.107191e+002, 1.489197e+001
7.112012e+002, 1.515614e+001
7.116833e+002, 1.507084e+001
7.121654e+002, 1.451926e+001
7.126475e+002, 1.396947e+001
7.131296e+002, 1.406193e+001
7.136118e+002, 1.465872e+001
7.140939e+002, 1.498928e+001
7.145760e+002, 1.500572e+001
7.150581e+002, 1.490296e+001
7.155402e+002, 1.470189e+001
7.160223e+002, 1.449810e+001
7.165045e+002, 1.448600e+001
7.169866e+002, 1.471141e+001
7.174687e+002, 1.483226e+001
7.179508e+002, 1.471980e+001
7.184329e+002, 1.460353e+001
7.189150e+002, 1.460390e+001
7.193972e+002, 1.466985e+001
7.198793e+002, 1.472795e+001
7.203614e+002, 1.475559e+001
7.208435e+002, 1.476210e+001
7.213256e+002, 1.475954e+001
7.218077e+002, 1.474245e+001
7.222899e+002, 1.466597e+001
7.227720e+002, 1.451254e+001
7.232541e+002, 1.445450e+001
7.237362e+002, 1.460154e+001
7.242183e+002, 1.478314e+001
7.247004e+002, 1.477738e+001
7.251826e+002, 1.458890e+001
7.256647e+002, 1.446959e+001
7.261468e+002, 1.440608e+001
7.266289e+002, 1.444536e+001
7.271110e+002, 1.477352e+001
7.275931e+002, 1.511383e+001
7.280753e+002, 1.512311e+001
7.285574e+002, 1.479199e+001
7.290395e+002, 1.434697e+001
7.295216e+002, 1.389835e+001
7.300037e+002, 1.354499e+001
7.304858e+002, 1.359898e+001
7.309680e+002, 1.407968e+001
7.314501e+002, 1.439268e+001
7.319322e+002, 1.438544e+001
7.324143e+002, 1.427452e+001
7.328964e+002, 1.418279e+001
7.333785e+002, 1.413176e+001
7.338607e+002, 1.421692e+001
7.343428e+002, 1.465030e+001
7.348249e+002, 1.489079e+001
7.353070e+002, 1.463875e+001
7.357891e+002, 1.430542e+001
7.362712e+002, 1.429344e+001
7.367534e+002, 1.450267e+001
7.372355e+002, 1.454214e+001
7.377176e+002, 1.420378e+001
7.381997e+002, 1.375410e+001
7.386818e+002, 1.354496e+001
7.391639e+002, 1.357161e+001
7.396461e+002, 1.386482e+001
7.401282e+002, 1.451592e+001
7.406103e+002, 1.502350e+001
7.410924e+002, 1.509674e+001
7.415745e+002, 1.485522e+001
7.420566e+002, 1.449538e+001
7.425388e+002, 1.388035e+001
7.430209e+002, 1.361650e+001
7.435030e+002, 1.408731e+001
7.439851e+002, 1.457289e+001
7.444672e+002, 1.472336e+001
7.449493e+002, 1.462669e+001
7.454315e+002, 1.439667e+001
7.459136e+002, 1.408965e+001
7.463957e+002, 1.384519e+001
7.468778e+002, 1.382817e+001
7.473599e+002, 1.397469e+001
7.478420e+002, 1.413206e+001
7.483242e+002, 1.430389e+001
7.488063e+002, 1.428851e+001
7.492884e+002, 1.393398e+001
7.497705e+002, 1.357702e+001
7.502526e+002, 1.364353e+001
7.507347e+002, 1.416354e+001
7.512169e+002, 1.455924e+001
7.516990e+002, 1.490683e+001
7.521811e+002, 1.504290e+001
7.526632e+002, 1.469149e+001
7.531453e+002, 1.428776e+001
7.536274e+002, 1.430635e+001
7.541096e+002, 1.467807e+001
7.545917e+002, 1.493372e+001
7.550738e+002, 1.478489e+001
7.555559e+002, 1.444566e+001
7.560380e+002, 1.414987e+001
7.565201e+002, 1.391400e+001
7.570023e+002, 1.385141e+001
7.574844e+002, 1.399098e+001
7.579665e+002, 1.412118e+001
7.584486e+002, 1.406815e+001
7.589307e+002, 1.391713e+001
7.594128e+002, 1.396567e+001
7.598950e+002, 1.447526e+001
7.603771e+002, 1.470490e+001
7.608592e+002, 1.438676e+001
7.613413e+002, 1.408973e+001
7.618234e+002, 1.413784e+001
7.623055e+002, 1.436535e+001
7.627877e+002, 1.448721e+001
7.632698e+002, 1.442237e+001
7.637519e+002, 1.432045e+001
7.642340e+002, 1.429005e+001
7.647161e+002, 1.429364e+001
7.651982e+002, 1.426876e+001
7.656804e+002, 1.421948e+001
7.661625e+002, 1.418017e+001
7.666446e+002, 1.416299e+001
7.671267e+002, 1.416994e+001
7.676088e+002, 1.419847e+001
7.680909e+002, 1.424691e+001
7.685731e+002, 1.438436e+001
7.690552e+002, 1.479130e+001
7.695373e+002, 1.498895e+001
7.700194e+002, 1.470600e+001
7.705015e+002, 1.431659e+001
7.709836e+002, 1.406688e+001
7.714658e+002, 1.397094e+001
7.719479e+002, 1.401017e+001
7.724300e+002, 1.448397e+001
7.729121e+002, 1.467989e+001
7.733942e+002, 1.363898e+001
7.738763e+002, 1.220127e+001
7.743585e+002, 1.179515e+001
7.748406e+002, 1.248325e+001
7.753227e+002, 1.330222e+001
7.758048e+002, 1.362348e+001
7.762869e+002, 1.365569e+001
7.767690e+002, 1.394901e+001
7.772512e+002, 1.459775e+001
7.777333e+002, 1.484652e+001
7.782154e+002, 1.443694e+001
7.786975e+002, 1.401253e+001
7.791796e+002, 1.393242e+001
7.796617e+002, 1.405183e+001
7.801439e+002, 1.415728e+001
7.806260e+002, 1.426597e+001
7.811081e+002, 1.424705e+001
7.815902e+002, 1.390357e+001
7.820723e+002, 1.358811e+001
7.825544e+002, 1.359565e+001
7.830366e+002, 1.376287e+001
7.835187e+002, 1.377478e+001
7.840008e+002, 1.356807e+001
7.844829e+002, 1.337198e+001
7.849650e+002, 1.339158e+001
7.854471e+002, 1.358653e+001
7.859293e+002, 1.392121e+001
7.864114e+002, 1.440025e+001
7.868935e+002, 1.457822e+001
7.873756e+002, 1.427675e+001
7.878577e+002, 1.384325e+001
7.883398e+002, 1.355237e+001
7.888220e+002, 1.340541e+001
7.893040e+002, 1.342452e+001
7.897861e+002, 1.380178e+001
7.902682e+002, 1.406119e+001
7.907504e+002, 1.417222e+001
7.912325e+002, 1.415121e+001
7.917146e+002, 1.392419e+001
7.921967e+002, 1.359147e+001
7.926788e+002, 1.331981e+001
7.931609e+002, 1.315922e+001
7.936431e+002, 1.316296e+001
7.941252e+002, 1.353018e+001
7.946073e+002, 1.403099e+001
7.950894e+002, 1.419166e+001
7.955715e+002, 1.403413e+001
7.960536e+002, 1.387470e+001
7.965358e+002, 1.384017e+001
7.970179e+002, 1.389744e+001
7.975000e+002, 1.401128e+001
7.979821e+002, 1.418574e+001
7.984642e+002, 1.433905e+001
7.989464e+002, 1.452528e+001
7.994285e+002, 1.459335e+001
7.999106e+002, 1.441434e+001
8.003927e+002, 1.417424e+001
8.008748e+002, 1.397246e+001
8.013569e+002, 1.382361e+001
8.018391e+002, 1.377156e+001
8.023212e+002, 1.386130e+001
8.028033e+002, 1.400053e+001
8.032854e+002, 1.422519e+001
8.037675e+002, 1.442022e+001
8.042496e+002, 1.443234e+001
8.047318e+002, 1.427817e+001
8.052139e+002, 1.403770e+001
8.056960e+002, 1.374498e+001
8.061781e+002, 1.352745e+001
8.066602e+002, 1.366089e+001
8.071423e+002, 1.411029e+001
8.076245e+002, 1.435304e+001
8.081066e+002, 1.431854e+001
8.085887e+002, 1.435906e+001
8.090708e+002, 1.471570e+001
8.095529e+002, 1.510820e+001
8.100350e+002, 1.506564e+001
8.105172e+002, 1.448331e+001
8.109993e+002, 1.415520e+001
8.114814e+002, 1.426688e+001
8.119635e+002, 1.439313e+001
8.124456e+002, 1.450413e+001
8.129277e+002, 1.451751e+001
8.134099e+002, 1.425626e+001
8.138920e+002, 1.380530e+001
8.143741e+002, 1.353256e+001
8.148562e+002, 1.368711e+001
8.153383e+002, 1.394877e+001
8.158204e+002, 1.396186e+001
8.163026e+002, 1.383579e+001
8.167847e+002, 1.383313e+001
8.172668e+002, 1.396933e+001
8.177489e+002, 1.408777e+001
8.182310e+002, 1.410591e+001
8.187131e+002, 1.401176e+001
8.191953e+002, 1.372186e+001
8.196774e+002, 1.314688e+001
8.201595e+002, 1.297591e+001
8.206416e+002, 1.346614e+001
8.211237e+002, 1.387067e+001
8.216058e+002, 1.379575e+001
8.220880e+002, 1.357874e+001
8.225701e+002, 1.364441e+001
8.230522e+002, 1.398124e+001
8.235343e+002, 1.412294e+001
8.240164e+002, 1.379245e+001
8.244985e+002, 1.347075e+001
8.249807e+002, 1.328224e+001
8.254628e+002, 1.326669e+001
8.259449e+002, 1.360010e+001
8.264270e+002, 1.416479e+001
8.269091e+002, 1.454844e+001
8.273912e+002, 1.451556e+001
8.278734e+002, 1.423028e+001
8.283555e+002, 1.377957e+001
8.288376e+002, 1.326293e+001
8.293197e+002, 1.316476e+001
8.298018e+002, 1.352935e+001
8.302839e+002, 1.392537e+001
8.307661e+002, 1.416533e+001
8.312482e+002, 1.424003e+001
8.317303e+002, 1.409704e+001
8.322124e+002, 1.367561e+001
8.326945e+002, 1.348567e+001
8.331766e+002, 1.365886e+001
8.336588e+002, 1.388060e+001
8.341409e+002, 1.421008e+001
8.346230e+002, 1.445415e+001
8.351051e+002, 1.436517e+001
8.355872e+002, 1.402112e+001
8.360693e+002, 1.383284e+001
8.365515e+002, 1.401458e+001
8.370336e+002, 1.423096e+001
8.375157e+002, 1.434228e+001
8.379978e+002, 1.436217e+001
8.384799e+002, 1.429074e+001
8.389620e+002, 1.414304e+001
8.394442e+002, 1.392589e+001
8.399263e+002, 1.364165e+001
8.404084e+002, 1.340304e+001
8.408905e+002, 1.339387e+001
8.413726e+002, 1.357612e+001
8.418547e+002, 1.375130e+001
8.423369e+002, 1.391913e+001
8.428190e+002, 1.402220e+001
8.433011e+002, 1.404165e+001
8.437832e+002, 1.397348e+001
8.442653e+002, 1.377444e+001
8.447474e+002, 1.345150e+001
8.452296e+002, 1.333081e+001
8.457117e+002, 1.351936e+001
8.461938e+002, 1.375971e+001
8.466759e+002, 1.420566e+001
8.471580e+002, 1.452920e+001
8.476401e+002, 1.441559e+001
8.481223e+002, 1.404174e+001
8.486044e+002, 1.380491e+001
8.490865e+002, 1.380439e+001
8.495686e+002, 1.395076e+001
8.500507e+002, 1.434828e+001
8.505328e+002, 1.474764e+001
8.510150e+002, 1.487801e+001
8.514971e+002, 1.480485e+001
8.519792e+002, 1.468135e+001
8.524613e+002, 1.456891e+001
8.529434e+002, 1.452494e+001
8.534255e+002, 1.465473e+001
8.539077e+002, 1.485494e+001
8.543898e+002, 1.473806e+001
8.548719e+002, 1.430423e+001
8.553540e+002, 1.402264e+001
8.558361e+002, 1.399941e+001
8.563182e+002, 1.409597e+001
8.568004e+002, 1.424534e+001
8.572825e+002, 1.440993e+001
8.577646e+002, 1.446200e+001
8.582467e+002, 1.430648e+001
8.587288e+002, 1.424487e+001
8.592109e+002, 1.443519e+001
8.596931e+002, 1.453239e+001
8.601752e+002, 1.424818e+001
8.606573e+002, 1.389960e+001
8.611394e+002, 1.389498e+001
8.616215e+002, 1.426758e+001
8.621036e+002, 1.468083e+001
8.625858e+002, 1.515736e+001
8.630679e+002, 1.546508e+001
8.635500e+002, 1.528717e+001
8.640321e+002, 1.492569e+001
8.645142e+002, 1.481112e+001
8.649963e+002, 1.496282e+001
8.654785e+002, 1.517706e+001
8.659606e+002, 1.534919e+001
8.664427e+002, 1.541834e+001
8.669248e+002, 1.522409e+001
8.674069e+002, 1.482860e+001
8.678890e+002, 1.456132e+001
8.683712e+002, 1.444365e+001
8.688533e+002, 1.438237e+001
8.693354e+002, 1.433234e+001
8.698175e+002, 1.435204e+001
8.702996e+002, 1.455335e+001
8.707817e+002, 1.494008e+001
8.712639e+002, 1.509326e+001
8.717459e+002, 1.488167e+001
8.722280e+002, 1.466739e+001
8.727101e+002, 1.438425e+001
8.731923e+002, 1.423371e+001
8.736744e+002, 1.445591e+001
8.741565e+002, 1.489083e+001
8.746386e+002, 1.514328e+001
8.751207e+002, 1.510139e+001
8.756028e+002, 1.502150e+001
8.760850e+002, 1.494616e+001
8.765671e+002, 1.490916e+001
8.770492e+002, 1.500476e+001
8.775313e+002, 1.513006e+001
8.780134e+002, 1.507003e+001
8.784955e+002, 1.480519e+001
8.789777e+002, 1.458402e+001
8.794598e+002, 1.460984e+001
8.799419e+002, 1.477915e+001
8.804240e+002, 1.496726e+001
8.809061e+002, 1.515369e+001
8.813882e+002, 1.525125e+001
8.818704e+002, 1.524984e+001
8.823525e+002, 1.522978e+001
8.828346e+002, 1.524828e+001
8.833167e+002, 1.524803e+001
8.837988e+002, 1.504142e+001
8.842809e+002, 1.454068e+001
8.847631e+002, 1.456332e+001
8.852452e+002, 1.543239e+001
8.857273e+002, 1.601108e+001
8.862094e+002, 1.572163e+001
8.866915e+002, 1.516406e+001
8.871736e+002, 1.502911e+001
8.876558e+002, 1.528390e+001
8.881379e+002, 1.539701e+001
8.886200e+002, 1.524605e+001
8.891021e+002, 1.510501e+001
8.895842e+002, 1.492897e+001
8.900663e+002, 1.486333e+001
8.905485e+002, 1.509567e+001
8.910306e+002, 1.549002e+001
8.915127e+002, 1.578352e+001
8.919948e+002, 1.590514e+001
8.924769e+002, 1.594855e+001
8.929590e+002, 1.602073e+001
8.934412e+002, 1.600521e+001
8.939233e+002, 1.563223e+001
8.944054e+002, 1.511449e+001
8.948875e+002, 1.492129e+001
8.953696e+002, 1.512687e+001
8.958517e+002, 1.547643e+001
8.963339e+002, 1.580525e+001
8.968160e+002, 1.607431e+001
8.972981e+002, 1.618761e+001
8.977802e+002, 1.615647e+001
8.982623e+002, 1.608721e+001
8.987444e+002, 1.598557e+001
8.992266e+002, 1.590656e+001
8.997087e+002, 1.589948e+001
9.001908e+002, 1.584983e+001
9.006729e+002, 1.553301e+001
9.011550e+002, 1.491870e+001
9.016371e+002, 1.474295e+001
9.021193e+002, 1.526697e+001
9.026014e+002, 1.574668e+001
9.030835e+002, 1.612245e+001
9.035656e+002, 1.633438e+001
9.040477e+002, 1.624510e+001
9.045298e+002, 1.597441e+001
9.050120e+002, 1.583728e+001
9.054941e+002, 1.592310e+001
9.059762e+002, 1.598181e+001
9.064583e+002, 1.587880e+001
9.069404e+002, 1.581066e+001
9.074225e+002, 1.593600e+001
9.079047e+002, 1.614798e+001
9.083868e+002, 1.628634e+001
9.088689e+002, 1.633469e+001
9.093510e+002, 1.639841e+001
9.098331e+002, 1.650819e+001
9.103152e+002, 1.670821e+001
9.107974e+002, 1.719688e+001
9.112795e+002, 1.774600e+001
9.117616e+002, 1.784245e+001
9.122437e+002, 1.753827e+001
9.127258e+002, 1.734296e+001
9.132079e+002, 1.749797e+001
9.136901e+002, 1.774654e+001
9.141722e+002, 1.773910e+001
9.146543e+002, 1.751937e+001
9.151364e+002, 1.731906e+001
9.156185e+002, 1.713571e+001
9.161006e+002, 1.703723e+001
9.165828e+002, 1.703896e+001
9.170649e+002, 1.714071e+001
9.175470e+002, 1.736208e+001
9.180291e+002, 1.766689e+001
9.185112e+002, 1.793643e+001
9.189933e+002, 1.823529e+001
9.194755e+002, 1.833043e+001
9.199576e+002, 1.807175e+001
9.204397e+002, 1.782539e+001
9.209218e+002, 1.776560e+001
9.214039e+002, 1.777020e+001
9.218860e+002, 1.767466e+001
9.223682e+002, 1.748742e+001
9.228503e+002, 1.744552e+001
9.233324e+002, 1.768049e+001
9.238145e+002, 1.793039e+001
9.242966e+002, 1.812333e+001
9.247787e+002, 1.830300e+001
9.252609e+002, 1.858520e+001
9.257430e+002, 1.886008e+001
9.262251e+002, 1.884343e+001
9.267072e+002, 1.844197e+001
9.271893e+002, 1.811651e+001
9.276714e+002, 1.821310e+001
9.281536e+002, 1.849471e+001
9.286357e+002, 1.887243e+001
9.291178e+002, 1.920123e+001
9.295999e+002, 1.910216e+001
9.300820e+002, 1.861820e+001
9.305641e+002, 1.830272e+001
9.310463e+002, 1.852085e+001
9.315284e+002, 1.900900e+001
9.320105e+002, 1.943433e+001
9.324926e+002, 1.977415e+001
9.329747e+002, 1.985703e+001
9.334568e+002, 1.969739e+001
9.339390e+002, 1.971446e+001
9.344211e+002, 2.007925e+001
9.349032e+002, 2.050302e+001
9.353853e+002, 2.067685e+001
9.358674e+002, 2.063049e+001
9.363495e+002, 2.048138e+001
9.368317e+002, 2.012585e+001
9.373138e+002, 2.016650e+001
9.377959e+002, 2.086581e+001
9.382780e+002, 2.153452e+001
9.387601e+002, 2.178079e+001
9.392422e+002, 2.177978e+001
9.397244e+002, 2.181925e+001
9.402065e+002, 2.188425e+001
9.406886e+002, 2.207652e+001
9.411707e+002, 2.247161e+001
9.416528e+002, 2.288576e+001
9.421349e+002, 2.332039e+001
9.426171e+002, 2.373019e+001
9.430992e+002, 2.404088e+001
9.435813e+002, 2.430637e+001
9.440634e+002, 2.466838e+001
9.445455e+002, 2.517972e+001
9.450276e+002, 2.569248e+001
9.455098e+002, 2.617517e+001
9.459919e+002, 2.662388e+001
9.464740e+002, 2.697580e+001
9.469561e+002, 2.732108e+001
9.474382e+002, 2.783393e+001
9.479203e+002, 2.848325e+001
9.484025e+002, 2.898702e+001
9.488846e+002, 2.908710e+001
9.493667e+002, 2.927126e+001
9.498488e+002, 3.014863e+001
9.503309e+002, 3.133053e+001
9.508130e+002, 3.217483e+001
9.512952e+002, 3.276311e+001
9.517773e+002, 3.353239e+001
9.522594e+002, 3.462775e+001
9.527415e+002, 3.588108e+001
9.532236e+002, 3.720628e+001
9.537057e+002, 3.849094e+001
9.541878e+002, 3.936354e+001
9.546699e+002, 3.991056e+001
9.551520e+002, 4.070118e+001
9.556342e+002, 4.182086e+001
9.561163e+002, 4.312204e+001
9.565984e+002, 4.454630e+001
9.570805e+002, 4.603299e+001
9.575626e+002, 4.749774e+001
9.580447e+002, 4.894787e+001
9.585269e+002, 5.017949e+001
9.590090e+002, 5.113385e+001
9.594911e+002, 5.215472e+001
9.599732e+002, 5.335572e+001
9.604553e+002, 5.454851e+001
9.609374e+002, 5.560394e+001
9.614196e+002, 5.652785e+001
9.619017e+002, 5.735872e+001
9.623838e+002, 5.820647e+001
9.628659e+002, 5.861290e+001
9.633480e+002, 5.822157e+001
9.638301e+002, 5.786604e+001
9.643123e+002, 5.797209e+001
9.647944e+002, 5.803780e+001
9.652765e+002, 5.762608e+001
9.657586e+002, 5.678755e+001
9.662407e+002, 5.580602e+001
9.667228e+002, 5.465989e+001
9.672050e+002, 5.348335e+001
9.676871e+002, 5.230914e+001
9.681692e+002, 5.110593e+001
9.686513e+002, 4.982328e+001
9.691334e+002, 4.852374e+001
9.696155e+002, 4.728769e+001
9.700977e+002, 4.612690e+001
9.705798e+002, 4.503886e+001
9.710619e+002, 4.410464e+001
9.715440e+002, 4.311695e+001
9.720261e+002, 4.176489e+001
9.725082e+002, 4.043417e+001
9.729904e+002, 3.958498e+001
9.734725e+002, 3.910217e+001
9.739546e+002, 3.865160e+001
9.744367e+002, 3.813419e+001
9.749188e+002, 3.768373e+001
9.754009e+002, 3.751630e+001
9.758831e+002, 3.735443e+001
9.763652e+002, 3.671351e+001
9.768473e+002, 3.583181e+001
9.773294e+002, 3.523548e+001
9.778115e+002, 3.494011e+001
9.782936e+002, 3.464651e+001
9.787758e+002, 3.421062e+001
9.792579e+002, 3.380138e+001
9.797400e+002, 3.369111e+001
9.802221e+002, 3.375340e+001
9.807042e+002, 3.346708e+001
9.811863e+002, 3.290676e+001
9.816685e+002, 3.273280e+001
9.821506e+002, 3.307504e+001
9.826327e+002, 3.347610e+001
9.831148e+002, 3.364556e+001
9.835969e+002, 3.366130e+001
9.840790e+002, 3.362898e+001
9.845612e+002, 3.354688e+001
9.850433e+002, 3.368554e+001
9.855254e+002, 3.407721e+001
9.860075e+002, 3.450523e+001
9.864896e+002, 3.491945e+001
9.869717e+002, 3.533500e+001
9.874539e+002, 3.574580e+001
9.879360e+002, 3.618386e+001
9.884181e+002, 3.675389e+001
9.889002e+002, 3.747322e+001
9.893823e+002, 3.825720e+001
9.898644e+002, 3.912740e+001
9.903466e+002, 4.002834e+001
9.908287e+002, 4.103040e+001
9.913108e+002, 4.196139e+001
9.917929e+002, 4.252694e+001
9.922750e+002, 4.284371e+001
9.927571e+002, 4.361471e+001
9.932393e+002, 4.520214e+001
9.937214e+002, 4.658548e+001
9.942035e+002, 4.744358e+001
9.946856e+002, 4.847375e+001
9.951677e+002, 5.020547e+001
9.956498e+002, 5.205684e+001
9.961320e+002, 5.318373e+001
9.966141e+002, 5.372970e+001
9.970962e+002, 5.493514e+001
9.975783e+002, 5.736720e+001
9.980604e+002, 5.990701e+001
9.985425e+002, 6.227037e+001
9.990247e+002, 6.465158e+001
9.995068e+002, 6.699796e+001
9.999889e+002, 6.950842e+001
1.000471e+003, 7.241084e+001
1.000953e+003, 7.574091e+001
1.001435e+003, 7.940351e+001
1.001917e+003, 8.318783e+001
1.002399e+003, 8.753912e+001
1.002882e+003, 9.292690e+001
1.003364e+003, 9.877438e+001
1.003846e+003, 1.045562e+002
1.004328e+003, 1.104139e+002
1.004810e+003, 1.168077e+002
1.005292e+003, 1.238331e+002
1.005774e+003, 1.311884e+002
1.006256e+003, 1.386394e+002
1.006739e+003, 1.464767e+002
1.007221e+003, 1.553934e+002
1.007703e+003, 1.645743e+002
1.008185e+003, 1.727984e+002
1.008667e+003, 1.801932e+002
1.009149e+003, 1.874305e+002
1.009631e+003, 1.947438e+002
1.010113e+003, 2.022171e+002
1.010595e+003, 2.100454e+002
1.011078e+003, 2.178642e+002
1.011560e+003, 2.251424e+002
1.012042e+003, 2.319537e+002
1.012524e+003, 2.385385e+002
1.013006e+003, 2.448792e+002
1.013488e+003, 2.507994e+002
1.013970e+003, 2.562385e+002
1.014452e+003, 2.610530e+002
1.014935e+003, 2.652078e+002
1.015417e+003, 2.685379e+002
1.015899e+003, 2.708705e+002
1.016381e+003, 2.720440e+002
1.016863e+003, 2.712160e+002
1.017345e+003, 2.682972e+002
1.017827e+003, 2.637595e+002
1.018309e+003, 2.578505e+002
1.018791e+003, 2.503473e+002
1.019274e+003, 2.407924e+002
1.019756e+003, 2.294324e+002
1.020238e+003, 2.168816e+002
1.020720e+003, 2.032490e+002
1.021202e+003, 1.903365e+002
1.021684e+003, 1.784644e+002
1.022166e+003, 1.667135e+002
1.022648e+003, 1.544456e+002
1.023130e+003, 1.424854e+002
1.023613e+003, 1.321479e+002
1.024095e+003, 1.233519e+002
1.024577e+003, 1.149619e+002
1.025059e+003, 1.069444e+002
1.025541e+003, 9.994759e+001
1.026023e+003, 9.418687e+001
1.026505e+003, 8.891042e+001
1.026987e+003, 8.363475e+001
1.027469e+003, 7.856325e+001
1.027952e+003, 7.410899e+001
1.028434e+003, 7.025063e+001
1.028916e+003, 6.682639e+001
1.029398e+003, 6.388683e+001
1.029880e+003, 6.115233e+001
1.030362e+003, 5.851472e+001
1.030844e+003, 5.618945e+001
1.031326e+003, 5.434277e+001
1.031809e+003, 5.287653e+001
1.032291e+003, 5.163139e+001
1.032773e+003, 5.066144e+001
1.033255e+003, 4.945213e+001
1.033737e+003, 4.777092e+001
1.034219e+003, 4.636230e+001
1.034701e+003, 4.544611e+001
1.035183e+003, 4.471000e+001
1.035666e+003, 4.397094e+001
1.036148e+003, 4.326934e+001
1.036630e+003, 4.269996e+001
1.037112e+003, 4.228306e+001
1.037594e+003, 4.188511e+001
1.038076e+003, 4.148951e+001
1.038558e+003, 4.114471e+001
1.039040e+003, 4.096529e+001
1.039522e+003, 4.072353e+001
1.040005e+003, 4.015278e+001
1.040487e+003, 3.945293e+001
1.040969e+003, 3.908657e+001
1.041451e+003, 3.914384e+001
1.041933e+003, 3.904767e+001
1.042415e+003, 3.855727e+001
1.042897e+003, 3.823486e+001
1.043379e+003, 3.831353e+001
1.043861e+003, 3.846181e+001
1.044344e+003, 3.846552e+001
1.044826e+003, 3.838838e+001
1.045308e+003, 3.838292e+001
1.045790e+003, 3.848546e+001
1.046272e+003, 3.846869e+001
1.046754e+003, 3.821893e+001
1.047236e+003, 3.797229e+001
1.047718e+003, 3.782133e+001
1.048201e+003, 3.765852e+001
1.048683e+003, 3.738808e+001
1.049165e+003, 3.705965e+001
1.049647e+003, 3.677826e+001
1.050129e+003, 3.656562e+001
1.050611e+003, 3.629111e+001
1.051093e+003, 3.579268e+001
1.051575e+003, 3.541703e+001
1.052057e+003, 3.554444e+001
1.052540e+003, 3.556084e+001
1.053022e+003, 3.489274e+001
1.053504e+003, 3.384269e+001
1.053986e+003, 3.304849e+001
1.054468e+003, 3.260836e+001
1.054950e+003, 3.191097e+001
1.055432e+003, 3.046130e+001
1.055914e+003, 2.918164e+001
1.056396e+003, 2.846075e+001
1.056879e+003, 2.795250e+001
1.057361e+003, 2.744295e+001
1.057843e+003, 2.694412e+001
1.058325e+003, 2.656644e+001
1.058807e+003, 2.631758e+001
1.059289e+003, 2.587268e+001
1.059771e+003, 2.486677e+001
1.060253e+003, 2.399716e+001
1.060736e+003, 2.362266e+001
1.061218e+003, 2.338706e+001
1.061700e+003, 2.302603e+001
1.062182e+003, 2.260533e+001
1.062664e+003, 2.225777e+001
1.063146e+003, 2.200643e+001
1.063628e+003, 2.182553e+001
1.064110e+003, 2.164296e+001
1.064593e+003, 2.161686e+001
1.065075e+003, 2.213969e+001
1.065557e+003, 2.251979e+001
1.066039e+003, 2.202182e+001
1.066521e+003, 2.112674e+001
1.067003e+003, 2.054959e+001
1.067485e+003, 2.041343e+001
1.067967e+003, 2.058117e+001
1.068449e+003, 2.132998e+001
1.068932e+003, 2.179939e+001
1.069414e+003, 2.133374e+001
1.069896e+003, 2.071873e+001
1.070378e+003, 2.048944e+001
1.070860e+003, 2.052189e+001
1.071342e+003, 2.059104e+001
1.071824e+003, 2.066980e+001
1.072306e+003, 2.085623e+001
1.072788e+003, 2.127204e+001
1.073271e+003, 2.160130e+001
1.073753e+003, 2.166278e+001
1.074235e+003, 2.161991e+001
1.074717e+003, 2.157949e+001
1.075199e+003, 2.151511e+001
1.075681e+003, 2.127545e+001
1.076163e+003, 2.094715e+001
1.076645e+003, 2.098919e+001
1.077127e+003, 2.176203e+001
1.077610e+003, 2.225708e+001
1.078092e+003, 2.165716e+001
1.078574e+003, 2.100425e+001
1.079056e+003, 2.111953e+001
1.079538e+003, 2.150233e+001
1.080020e+003, 2.152855e+001
1.080502e+003, 2.121269e+001
1.080984e+003, 2.087462e+001
1.081467e+003, 2.059195e+001
1.081949e+003, 2.039907e+001
1.082431e+003, 2.037598e+001
1.082913e+003, 2.037094e+001
1.083395e+003, 2.018375e+001
1.083877e+003, 2.004991e+001
1.084359e+003, 2.042840e+001
1.084841e+003, 2.105039e+001
1.085323e+003, 2.110809e+001
1.085806e+003, 2.033090e+001
1.086288e+003, 1.960140e+001
1.086770e+003, 1.917029e+001
1.087252e+003, 1.903228e+001
1.087734e+003, 1.940965e+001
1.088216e+003, 1.988079e+001
1.088698e+003, 2.002717e+001
1.089180e+003, 1.996306e+001
1.089662e+003, 2.001724e+001
1.090145e+003, 2.025880e+001
1.090627e+003, 2.040394e+001
1.091109e+003, 2.031495e+001
1.091591e+003, 2.015079e+001
1.092073e+003, 1.984948e+001
1.092555e+003, 1.962505e+001
1.093037e+003, 1.973491e+001
1.093519e+003, 2.000131e+001
1.094002e+003, 2.012260e+001
1.094484e+003, 2.005893e+001
1.094966e+003, 1.995421e+001
1.095448e+003, 1.975714e+001
1.095930e+003, 1.966864e+001
1.096412e+003, 1.978010e+001
1.096894e+003, 1.999264e+001
1.097376e+003, 2.039237e+001
1.097859e+003, 2.076428e+001
1.098341e+003, 2.075120e+001
1.098823e+003, 2.040084e+001
1.099305e+003, 2.022638e+001
1.099787e+003, 2.042676e+001
1.100269e+003, 2.063880e+001
1.100751e+003, 2.084408e+001
1.101233e+003, 2.095058e+001
1.101715e+003, 2.079730e+001
1.102198e+003, 2.061147e+001
1.102680e+003, 2.066176e+001
1.103162e+003, 2.089599e+001
1.103644e+003, 2.104119e+001
1.104126e+003, 2.097943e+001
1.104608e+003, 2.108207e+001
1.105090e+003, 2.160787e+001
1.105572e+003, 2.205567e+001
1.106054e+003, 2.241193e+001
1.106537e+003, 2.247836e+001
1.107019e+003, 2.180506e+001
1.107501e+003, 2.078676e+001
1.107983e+003, 2.042763e+001
1.108465e+003, 2.093982e+001
1.108947e+003, 2.129506e+001
1.109429e+003, 2.131169e+001
1.109911e+003, 2.129585e+001
1.110394e+003, 2.131592e+001
1.110876e+003, 2.131141e+001
1.111358e+003, 2.119604e+001
1.111840e+003, 2.105520e+001
1.112322e+003, 2.108346e+001
1.112804e+003, 2.130186e+001
1.113286e+003, 2.126682e+001
1.113768e+003, 2.069624e+001
1.114250e+003, 2.034609e+001
1.114733e+003, 2.049737e+001
1.115215e+003, 2.055935e+001
1.115697e+003, 2.019510e+001
1.116179e+003, 1.969551e+001
1.116661e+003, 1.935165e+001
1.117143e+003, 1.916725e+001
1.117625e+003, 1.919194e+001
1.118107e+003, 1.964384e+001
1.118589e+003, 1.975634e+001
1.119072e+003, 1.923903e+001
1.119554e+003, 1.897873e+001
1.120036e+003, 1.943907e+001
1.120518e+003, 1.993584e+001
1.121000e+003, 1.983957e+001
1.121482e+003, 1.936193e+001
1.121964e+003, 1.913030e+001
1.122446e+003, 1.918869e+001
1.122929e+003, 1.922380e+001
1.123411e+003, 1.921757e+001
1.123893e+003, 1.924159e+001
1.124375e+003, 1.929090e+001
1.124857e+003, 1.944856e+001
1.125339e+003, 1.980546e+001
1.125821e+003, 2.022248e+001
1.126303e+003, 2.046975e+001
1.126786e+003, 2.054839e+001
1.127268e+003, 2.041495e+001
1.127750e+003, 2.001318e+001
1.128232e+003, 1.994409e+001
1.128714e+003, 2.032209e+001
1.129196e+003, 2.078582e+001
1.129678e+003, 2.119745e+001
1.130160e+003, 2.145575e+001
1.130642e+003, 2.139867e+001
1.131125e+003, 2.116479e+001
1.131607e+003, 2.125414e+001
1.132089e+003, 2.165131e+001
1.132571e+003, 2.212578e+001
1.133053e+003, 2.266049e+001
1.133535e+003, 2.306578e+001
1.134017e+003, 2.328433e+001
1.134499e+003, 2.337773e+001
1.134981e+003, 2.337492e+001
1.135464e+003, 2.337401e+001
1.135946e+003, 2.359125e+001
1.136428e+003, 2.395834e+001
1.136910e+003, 2.423389e+001
1.137392e+003, 2.441350e+001
1.137874e+003, 2.442810e+001
1.138356e+003, 2.431190e+001
1.138838e+003, 2.441417e+001
1.139321e+003, 2.491584e+001
1.139803e+003, 2.543678e+001
1.140285e+003, 2.550047e+001
1.140767e+003, 2.535291e+001
1.141249e+003, 2.539966e+001
1.141731e+003, 2.560713e+001
1.142213e+003, 2.599309e+001
1.142695e+003, 2.646560e+001
1.143177e+003, 2.670483e+001
1.143660e+003, 2.664818e+001
1.144142e+003, 2.669794e+001
1.144624e+003, 2.727568e+001
1.145106e+003, 2.774730e+001
1.145588e+003, 2.723514e+001
1.146070e+003, 2.640760e+001
1.146552e+003, 2.617170e+001
1.147034e+003, 2.623916e+001
1.147516e+003, 2.593687e+001
1.147999e+003, 2.525630e+001
1.148481e+003, 2.474455e+001
1.148963e+003, 2.467194e+001
1.149445e+003, 2.453321e+001
1.149927e+003, 2.394985e+001
1.150409e+003, 2.325316e+001
1.150891e+003, 2.262156e+001
1.151373e+003, 2.205288e+001
1.151856e+003, 2.152590e+001
1.152338e+003, 2.105571e+001
1.152820e+003, 2.068404e+001
1.153302e+003, 2.041922e+001
1.153784e+003, 2.019119e+001
1.154266e+003, 1.998366e+001
1.154748e+003, 1.979708e+001
1.155230e+003, 1.969280e+001
1.155713e+003, 1.954263e+001
1.156195e+003, 1.914676e+001
1.156677e+003, 1.873553e+001
1.157159e+003, 1.867042e+001
1.157641e+003, 1.890290e+001
1.158123e+003, 1.896749e+001
1.158605e+003, 1.875527e+001
1.159087e+003, 1.851607e+001
1.159569e+003, 1.823246e+001
1.160052e+003, 1.796639e+001
1.160534e+003, 1.767521e+001
1.161016e+003, 1.747674e+001
1.161498e+003, 1.757184e+001
1.161980e+003, 1.775454e+001
1.162462e+003, 1.752096e+001
1.162944e+003, 1.679866e+001
1.163426e+003, 1.645437e+001
1.163908e+003, 1.662913e+001
1.164391e+003, 1.678412e+001
1.164873e+003, 1.687326e+001
1.165355e+003, 1.686182e+001
1.165837e+003, 1.671604e+001
1.166319e+003, 1.649916e+001
1.166801e+003, 1.626471e+001
1.167283e+003, 1.604318e+001
1.167765e+003, 1.601966e+001
1.168247e+003, 1.621050e+001
1.168730e+003, 1.600035e+001
1.169212e+003, 1.534707e+001
1.169694e+003, 1.497308e+001
1.170176e+003, 1.508114e+001
1.170658e+003, 1.527493e+001
1.171140e+003, 1.528756e+001
1.171622e+003, 1.519307e+001
1.172104e+003, 1.509151e+001
1.172587e+003, 1.498752e+001
1.173069e+003, 1.486706e+001
1.173551e+003, 1.475851e+001
1.174033e+003, 1.479441e+001
1.174515e+003, 1.496260e+001
1.174997e+003, 1.514873e+001
1.175479e+003, 1.529894e+001
1.175961e+003, 1.531912e+001
1.176443e+003, 1.510313e+001
1.176926e+003, 1.478621e+001
1.177408e+003, 1.436807e+001
1.177890e+003, 1.408022e+001
1.178372e+003, 1.457090e+001
1.178854e+003, 1.532691e+001
1.179336e+003, 1.515713e+001
1.179818e+003, 1.412901e+001
1.180300e+003, 1.337703e+001
1.180782e+003, 1.337181e+001
1.181265e+003, 1.365663e+001
1.181747e+003, 1.420130e+001
1.182229e+003, 1.464797e+001
1.182711e+003, 1.475135e+001
1.183193e+003, 1.465339e+001
1.183675e+003, 1.443741e+001
1.184157e+003, 1.415266e+001
1.184639e+003, 1.381054e+001
1.185122e+003, 1.342783e+001
1.185604e+003, 1.321881e+001
1.186086e+003, 1.327344e+001
1.186568e+003, 1.343533e+001
1.187050e+003, 1.386005e+001
1.187532e+003, 1.416130e+001
1.188014e+003, 1.411147e+001
1.188496e+003, 1.391854e+001
1.188979e+003, 1.369392e+001
1.189461e+003, 1.350287e+001
1.189943e+003, 1.357709e+001
1.190425e+003, 1.400690e+001
1.190907e+003, 1.415778e+001
1.191389e+003, 1.393853e+001
1.191871e+003, 1.367168e+001
1.192353e+003, 1.334046e+001
1.192835e+003, 1.319680e+001
1.193318e+003, 1.343878e+001
1.193800e+003, 1.371027e+001
1.194282e+003, 1.354864e+001
1.194764e+003, 1.308587e+001
1.195246e+003, 1.283647e+001
1.195728e+003, 1.279425e+001
1.196210e+003, 1.284500e+001
1.196692e+003, 1.297411e+001
1.197174e+003, 1.299903e+001
1.197657e+003, 1.287805e+001
1.198139e+003, 1.270254e+001
1.198621e+003, 1.252127e+001
1.199103e+003, 1.242679e+001
1.199585e+003, 1.257829e+001
1.200067e+003, 1.287451e+001
1.200549e+003, 1.317207e+001
1.201031e+003, 1.343249e+001
1.201514e+003, 1.362763e+001
1.201996e+003, 1.370050e+001
1.202478e+003, 1.339910e+001
1.202960e+003, 1.274072e+001
1.203442e+003, 1.231723e+001
1.203924e+003, 1.253051e+001
1.204406e+003, 1.290139e+001
1.204888e+003, 1.323038e+001
1.205370e+003, 1.339201e+001
1.205853e+003, 1.308458e+001
1.206335e+003, 1.269478e+001
1.206817e+003, 1.278157e+001
1.207299e+003, 1.317014e+001
1.207781e+003, 1.325461e+001
1.208263e+003, 1.289374e+001
1.208745e+003, 1.264880e+001
1.209227e+003, 1.280000e+001
1.209709e+003, 1.286092e+001
1.210192e+003, 1.262896e+001
1.210674e+003, 1.240346e+001
1.211156e+003, 1.227395e+001
1.211638e+003, 1.227563e+001
1.212120e+003, 1.248447e+001
1.212602e+003, 1.284858e+001
1.213084e+003, 1.318726e+001
1.213566e+003, 1.354196e+001
1.214049e+003, 1.363392e+001
1.214531e+003, 1.338122e+001
1.215013e+003, 1.318268e+001
1.215495e+003, 1.310528e+001
1.215977e+003, 1.313458e+001
1.216459e+003, 1.327548e+001
1.216941e+003, 1.346212e+001
1.217423e+003, 1.363607e+001
1.217906e+003, 1.375433e+001
1.218388e+003, 1.362963e+001
1.218870e+003, 1.332413e+001
1.219352e+003, 1.313282e+001
1.219834e+003, 1.306799e+001
1.220316e+003, 1.315009e+001
1.220798e+003, 1.334140e+001
1.221280e+003, 1.336787e+001
1.221762e+003, 1.307307e+001
1.222245e+003, 1.279249e+001
1.222727e+003, 1.301366e+001
1.223209e+003, 1.327532e+001
1.223691e+003, 1.290363e+001
1.224173e+003, 1.236265e+001
1.224655e+003, 1.228756e+001
1.225137e+003, 1.252459e+001
1.225619e+003, 1.268090e+001
1.226101e+003, 1.269719e+001
1.226584e+003, 1.273273e+001
1.227066e+003, 1.282390e+001
1.227548e+003, 1.299179e+001
1.228030e+003, 1.347612e+001
1.228512e+003, 1.373222e+001
1.228994e+003, 1.336515e+001
1.229476e+003, 1.284468e+001
1.229958e+003, 1.247355e+001
1.230441e+003, 1.223577e+001
1.230923e+003, 1.207897e+001
1.231405e+003, 1.200288e+001
1.231887e+003, 1.200304e+001
1.232369e+003, 1.203178e+001
1.232851e+003, 1.231233e+001
1.233333e+003, 1.294683e+001
1.233815e+003, 1.351874e+001
1.234297e+003, 1.391721e+001
1.234780e+003, 1.416618e+001
1.235262e+003, 1.428694e+001
1.235744e+003, 1.425313e+001
1.236226e+003, 1.395589e+001
1.236708e+003, 1.349786e+001
1.237190e+003, 1.336004e+001
1.237672e+003, 1.345381e+001
1.238154e+003, 1.332614e+001
1.238636e+003, 1.300807e+001
1.239119e+003, 1.292470e+001
1.239601e+003, 1.315878e+001
1.240083e+003, 1.330710e+001
1.240565e+003, 1.308089e+001
1.241047e+003, 1.286437e+001
1.241529e+003, 1.314939e+001
1.242011e+003, 1.349432e+001
1.242493e+003, 1.342519e+001
1.242975e+003, 1.319166e+001
1.243458e+003, 1.308843e+001
1.243940e+003, 1.309506e+001
1.244422e+003, 1.306162e+001
1.244904e+003, 1.297875e+001
1.245386e+003, 1.307516e+001
1.245868e+003, 1.365848e+001
1.246350e+003, 1.396374e+001
1.246832e+003, 1.359274e+001
1.247315e+003, 1.329011e+001
1.247797e+003, 1.332932e+001
1.248279e+003, 1.350219e+001
1.248761e+003, 1.377795e+001
1.249243e+003, 1.397873e+001
1.249725e+003, 1.374433e+001
1.250207e+003, 1.310494e+001
1.250689e+003, 1.254193e+001
1.251172e+003, 1.202868e+001
1.251654e+003, 1.193625e+001
1.252136e+003, 1.230581e+001
1.252618e+003, 1.277275e+001
1.253100e+003, 1.322564e+001
1.253582e+003, 1.339324e+001
1.254064e+003, 1.306292e+001
1.254546e+003, 1.262939e+001
1.255028e+003, 1.265280e+001
1.255510e+003, 1.294367e+001
1.255993e+003, 1.325305e+001
1.256475e+003, 1.350552e+001
1.256957e+003, 1.347683e+001
1.257439e+003, 1.328495e+001
1.257921e+003, 1.325990e+001
1.258403e+003, 1.343993e+001
1.258885e+003, 1.358594e+001
1.259367e+003, 1.360589e+001
1.259850e+003, 1.354486e+001
1.260332e+003, 1.339367e+001
1.260814e+003, 1.320641e+001
1.261296e+003, 1.293960e+001
1.261778e+003, 1.271586e+001
1.262260e+003, 1.262169e+001
1.262742e+003, 1.263580e+001
1.263224e+003, 1.273489e+001
1.263707e+003, 1.290841e+001
1.264189e+003, 1.308550e+001
1.264671e+003, 1.331913e+001
1.265153e+003, 1.335393e+001
1.265635e+003, 1.312956e+001
1.266117e+003, 1.295403e+001
1.266599e+003, 1.288243e+001
1.267081e+003, 1.300210e+001
1.267563e+003, 1.338813e+001
1.268046e+003, 1.374235e+001
1.268528e+003, 1.367907e+001
1.269010e+003, 1.338801e+001
1.269492e+003, 1.328750e+001
1.269974e+003, 1.332057e+001
1.270456e+003, 1.334567e+001
1.270938e+003, 1.337561e+001
1.271420e+003, 1.352112e+001
1.271902e+003, 1.373912e+001
1.272385e+003, 1.379188e+001
1.272867e+003, 1.358784e+001
1.273349e+003, 1.337613e+001
1.273831e+003, 1.332133e+001
1.274313e+003, 1.327344e+001
1.274795e+003, 1.317675e+001
1.275277e+003, 1.303863e+001
1.275759e+003, 1.277165e+001
1.276242e+003, 1.253797e+001
1.276724e+003, 1.253600e+001
1.277206e+003, 1.272038e+001
1.277688e+003, 1.293216e+001
1.278170e+003, 1.318542e+001
1.278652e+003, 1.332319e+001
1.279134e+003, 1.331209e+001
1.279616e+003, 1.330354e+001
1.280099e+003, 1.331120e+001
1.280581e+003, 1.334435e+001
1.281063e+003, 1.341507e+001
1.281545e+003, 1.341273e+001
1.282027e+003, 1.323089e+001
1.282509e+003, 1.303114e+001
1.282991e+003, 1.316452e+001
1.283473e+003, 1.344490e+001
1.283955e+003, 1.347638e+001
##END=



