##NAMES=Bjarebyite
##RRUFFID=R130107
##IDEAL CHEMISTRY=BaMn^2+^_2_Al_2_(PO_4_)_3_(OH)_3_
##LOCALITY=Buranga mine, Gatumba District, Western Province, Rwanda
##OWNER=RRUFF
##SOURCE=Rock Currier
##DESCRIPTION=Prismatic or granular light-yellow green crystals.
##STATUS=The identification of this mineral has been confirmed only by single crystal X-ray diffraction.
##URL=rruff.info/R130107
8.975323e+001, 0.000000e+000
9.023535e+001, 1.895649e+002
9.071747e+001, 1.929405e+002
9.119958e+001, 1.934216e+002
9.168170e+001, 1.921729e+002
9.216382e+001, 1.888130e+002
9.264594e+001, 1.843176e+002
9.312805e+001, 1.796851e+002
9.361017e+001, 1.751386e+002
9.409229e+001, 1.698900e+002
9.457440e+001, 1.629940e+002
9.505651e+001, 1.570210e+002
9.553863e+001, 1.521641e+002
9.602074e+001, 1.480975e+002
9.650286e+001, 1.446397e+002
9.698498e+001, 1.416185e+002
9.746709e+001, 1.386225e+002
9.794921e+001, 1.355048e+002
9.843133e+001, 1.320033e+002
9.891344e+001, 1.287158e+002
9.939556e+001, 1.256798e+002
9.987768e+001, 1.228970e+002
1.003598e+002, 1.204769e+002
1.008419e+002, 1.185221e+002
1.013240e+002, 1.169900e+002
1.018061e+002, 1.155234e+002
1.022883e+002, 1.140708e+002
1.027704e+002, 1.126881e+002
1.032525e+002, 1.114529e+002
1.037346e+002, 1.103711e+002
1.042167e+002, 1.093367e+002
1.046988e+002, 1.083595e+002
1.051810e+002, 1.073488e+002
1.056631e+002, 1.061403e+002
1.061452e+002, 1.045289e+002
1.066273e+002, 1.026341e+002
1.071094e+002, 1.009471e+002
1.075915e+002, 9.953495e+001
1.080737e+002, 9.826942e+001
1.085558e+002, 9.697421e+001
1.090379e+002, 9.573817e+001
1.095200e+002, 9.480394e+001
1.100021e+002, 9.452471e+001
1.104842e+002, 9.513763e+001
1.109664e+002, 9.515189e+001
1.114485e+002, 9.383444e+001
1.119306e+002, 9.255971e+001
1.124127e+002, 9.210550e+001
1.128948e+002, 9.250896e+001
1.133769e+002, 9.317589e+001
1.138591e+002, 9.323777e+001
1.143412e+002, 9.214259e+001
1.148233e+002, 9.139677e+001
1.153054e+002, 9.116885e+001
1.157875e+002, 9.118836e+001
1.162696e+002, 9.125510e+001
1.167517e+002, 9.130847e+001
1.172339e+002, 9.127559e+001
1.177160e+002, 9.096447e+001
1.181981e+002, 9.041843e+001
1.186802e+002, 8.961525e+001
1.191623e+002, 8.833855e+001
1.196444e+002, 8.676339e+001
1.201266e+002, 8.540282e+001
1.206087e+002, 8.463206e+001
1.210908e+002, 8.409989e+001
1.215729e+002, 8.305210e+001
1.220550e+002, 8.120311e+001
1.225371e+002, 7.932718e+001
1.230193e+002, 7.820237e+001
1.235014e+002, 7.791470e+001
1.239835e+002, 7.761734e+001
1.244656e+002, 7.679745e+001
1.249477e+002, 7.580307e+001
1.254298e+002, 7.492304e+001
1.259120e+002, 7.426092e+001
1.263941e+002, 7.377377e+001
1.268762e+002, 7.339426e+001
1.273583e+002, 7.320726e+001
1.278404e+002, 7.298703e+001
1.283225e+002, 7.259586e+001
1.288047e+002, 7.214779e+001
1.292868e+002, 7.182525e+001
1.297689e+002, 7.178476e+001
1.302510e+002, 7.198705e+001
1.307331e+002, 7.184717e+001
1.312152e+002, 7.108591e+001
1.316974e+002, 7.022530e+001
1.321795e+002, 6.930894e+001
1.326616e+002, 6.838496e+001
1.331437e+002, 6.752679e+001
1.336258e+002, 6.680376e+001
1.341079e+002, 6.624234e+001
1.345901e+002, 6.562922e+001
1.350722e+002, 6.490633e+001
1.355543e+002, 6.418727e+001
1.360364e+002, 6.349882e+001
1.365185e+002, 6.285857e+001
1.370006e+002, 6.233612e+001
1.374828e+002, 6.206707e+001
1.379649e+002, 6.213458e+001
1.384470e+002, 6.199208e+001
1.389291e+002, 6.142651e+001
1.394112e+002, 6.070715e+001
1.398933e+002, 6.016122e+001
1.403755e+002, 5.988324e+001
1.408576e+002, 5.969855e+001
1.413397e+002, 5.939357e+001
1.418218e+002, 5.898263e+001
1.423039e+002, 5.854227e+001
1.427860e+002, 5.807622e+001
1.432681e+002, 5.759922e+001
1.437503e+002, 5.716591e+001
1.442324e+002, 5.681179e+001
1.447145e+002, 5.648083e+001
1.451966e+002, 5.608411e+001
1.456787e+002, 5.562378e+001
1.461608e+002, 5.523233e+001
1.466430e+002, 5.507140e+001
1.471251e+002, 5.517181e+001
1.476072e+002, 5.519797e+001
1.480893e+002, 5.499802e+001
1.485714e+002, 5.475753e+001
1.490535e+002, 5.461755e+001
1.495357e+002, 5.459810e+001
1.500178e+002, 5.454632e+001
1.504999e+002, 5.420038e+001
1.509820e+002, 5.335338e+001
1.514641e+002, 5.265376e+001
1.519462e+002, 5.223304e+001
1.524284e+002, 5.191208e+001
1.529105e+002, 5.151750e+001
1.533926e+002, 5.099168e+001
1.538747e+002, 5.043959e+001
1.543568e+002, 5.013156e+001
1.548389e+002, 5.043315e+001
1.553211e+002, 5.055390e+001
1.558032e+002, 5.039508e+001
1.562853e+002, 5.005621e+001
1.567674e+002, 4.962826e+001
1.572495e+002, 4.914824e+001
1.577316e+002, 4.864964e+001
1.582138e+002, 4.828448e+001
1.586959e+002, 4.818560e+001
1.591780e+002, 4.805017e+001
1.596601e+002, 4.776662e+001
1.601422e+002, 4.738926e+001
1.606243e+002, 4.704738e+001
1.611065e+002, 4.682341e+001
1.615886e+002, 4.669040e+001
1.620707e+002, 4.651848e+001
1.625528e+002, 4.625041e+001
1.630349e+002, 4.600101e+001
1.635170e+002, 4.589104e+001
1.639991e+002, 4.590017e+001
1.644813e+002, 4.581757e+001
1.649634e+002, 4.542798e+001
1.654455e+002, 4.487297e+001
1.659276e+002, 4.448932e+001
1.664097e+002, 4.442836e+001
1.668918e+002, 4.445882e+001
1.673740e+002, 4.429486e+001
1.678561e+002, 4.389113e+001
1.683382e+002, 4.350999e+001
1.688203e+002, 4.336688e+001
1.693024e+002, 4.332535e+001
1.697845e+002, 4.322178e+001
1.702667e+002, 4.299054e+001
1.707488e+002, 4.266338e+001
1.712309e+002, 4.228305e+001
1.717130e+002, 4.174777e+001
1.721951e+002, 4.136101e+001
1.726772e+002, 4.127777e+001
1.731594e+002, 4.137885e+001
1.736415e+002, 4.151112e+001
1.741236e+002, 4.161240e+001
1.746057e+002, 4.166862e+001
1.750878e+002, 4.158742e+001
1.755699e+002, 4.129521e+001
1.760521e+002, 4.092826e+001
1.765342e+002, 4.043769e+001
1.770163e+002, 3.990532e+001
1.774984e+002, 3.946311e+001
1.779805e+002, 3.920545e+001
1.784626e+002, 3.913305e+001
1.789448e+002, 3.914705e+001
1.794269e+002, 3.946540e+001
1.799090e+002, 3.965736e+001
1.803911e+002, 3.950785e+001
1.808732e+002, 3.910473e+001
1.813553e+002, 3.868258e+001
1.818375e+002, 3.843677e+001
1.823196e+002, 3.838184e+001
1.828017e+002, 3.838441e+001
1.832838e+002, 3.857116e+001
1.837659e+002, 3.869250e+001
1.842480e+002, 3.857680e+001
1.847301e+002, 3.825118e+001
1.852123e+002, 3.789313e+001
1.856944e+002, 3.765790e+001
1.861765e+002, 3.756383e+001
1.866586e+002, 3.753415e+001
1.871407e+002, 3.767475e+001
1.876228e+002, 3.780360e+001
1.881050e+002, 3.774566e+001
1.885871e+002, 3.749039e+001
1.890692e+002, 3.722802e+001
1.895513e+002, 3.716213e+001
1.900334e+002, 3.728823e+001
1.905155e+002, 3.736171e+001
1.909977e+002, 3.725099e+001
1.914798e+002, 3.712407e+001
1.919619e+002, 3.722807e+001
1.924440e+002, 3.763627e+001
1.929261e+002, 3.803593e+001
1.934082e+002, 3.801744e+001
1.938904e+002, 3.771402e+001
1.943725e+002, 3.753289e+001
1.948546e+002, 3.765118e+001
1.953367e+002, 3.796614e+001
1.958188e+002, 3.827251e+001
1.963009e+002, 3.853375e+001
1.967831e+002, 3.883607e+001
1.972652e+002, 3.935405e+001
1.977473e+002, 3.998279e+001
1.982294e+002, 4.042238e+001
1.987115e+002, 4.035887e+001
1.991936e+002, 3.993969e+001
1.996758e+002, 3.981441e+001
2.001579e+002, 4.014764e+001
2.006400e+002, 4.058809e+001
2.011221e+002, 4.104362e+001
2.016042e+002, 4.145638e+001
2.020863e+002, 4.168120e+001
2.025685e+002, 4.149978e+001
2.030506e+002, 4.095043e+001
2.035327e+002, 4.071183e+001
2.040148e+002, 4.106185e+001
2.044969e+002, 4.146254e+001
2.049790e+002, 4.181513e+001
2.054612e+002, 4.206209e+001
2.059433e+002, 4.209728e+001
2.064254e+002, 4.173509e+001
2.069075e+002, 4.093293e+001
2.073896e+002, 4.056762e+001
2.078717e+002, 4.128931e+001
2.083539e+002, 4.187590e+001
2.088360e+002, 4.191295e+001
2.093181e+002, 4.146804e+001
2.098002e+002, 4.081556e+001
2.102823e+002, 4.016380e+001
2.107644e+002, 3.949595e+001
2.112466e+002, 3.902206e+001
2.117287e+002, 3.898313e+001
2.122108e+002, 3.889683e+001
2.126929e+002, 3.854711e+001
2.131750e+002, 3.796588e+001
2.136571e+002, 3.731171e+001
2.141393e+002, 3.672394e+001
2.146214e+002, 3.620862e+001
2.151035e+002, 3.572205e+001
2.155856e+002, 3.523595e+001
2.160677e+002, 3.479387e+001
2.165498e+002, 3.438927e+001
2.170320e+002, 3.403859e+001
2.175141e+002, 3.379653e+001
2.179962e+002, 3.373921e+001
2.184783e+002, 3.390119e+001
2.189604e+002, 3.391155e+001
2.194425e+002, 3.362185e+001
2.199247e+002, 3.331974e+001
2.204068e+002, 3.322460e+001
2.208889e+002, 3.332116e+001
2.213710e+002, 3.338356e+001
2.218531e+002, 3.318270e+001
2.223352e+002, 3.270189e+001
2.228174e+002, 3.243983e+001
2.232995e+002, 3.251478e+001
2.237816e+002, 3.271665e+001
2.242637e+002, 3.295568e+001
2.247458e+002, 3.321386e+001
2.252279e+002, 3.336628e+001
2.257100e+002, 3.325080e+001
2.261922e+002, 3.290929e+001
2.266743e+002, 3.270800e+001
2.271564e+002, 3.278285e+001
2.276385e+002, 3.293639e+001
2.281206e+002, 3.295103e+001
2.286027e+002, 3.281029e+001
2.290849e+002, 3.274509e+001
2.295670e+002, 3.302489e+001
2.300491e+002, 3.351139e+001
2.305312e+002, 3.381850e+001
2.310133e+002, 3.385946e+001
2.314954e+002, 3.370525e+001
2.319776e+002, 3.336791e+001
2.324597e+002, 3.281472e+001
2.329418e+002, 3.230878e+001
2.334239e+002, 3.205465e+001
2.339060e+002, 3.195111e+001
2.343881e+002, 3.186379e+001
2.348703e+002, 3.180609e+001
2.353524e+002, 3.171067e+001
2.358345e+002, 3.143113e+001
2.363166e+002, 3.089814e+001
2.367987e+002, 3.046420e+001
2.372808e+002, 3.036618e+001
2.377630e+002, 3.045091e+001
2.382451e+002, 3.059983e+001
2.387272e+002, 3.084650e+001
2.392093e+002, 3.104004e+001
2.396914e+002, 3.085751e+001
2.401735e+002, 3.013118e+001
2.406557e+002, 2.956841e+001
2.411378e+002, 2.954374e+001
2.416199e+002, 2.976486e+001
2.421020e+002, 3.000896e+001
2.425841e+002, 3.022598e+001
2.430662e+002, 3.035553e+001
2.435484e+002, 3.024524e+001
2.440305e+002, 2.976780e+001
2.445126e+002, 2.940154e+001
2.449947e+002, 2.939069e+001
2.454768e+002, 2.948090e+001
2.459589e+002, 2.948227e+001
2.464410e+002, 2.933367e+001
2.469232e+002, 2.904011e+001
2.474053e+002, 2.854193e+001
2.478874e+002, 2.764109e+001
2.483695e+002, 2.702884e+001
2.488516e+002, 2.692397e+001
2.493337e+002, 2.705466e+001
2.498159e+002, 2.728800e+001
2.502980e+002, 2.757288e+001
2.507801e+002, 2.781150e+001
2.512622e+002, 2.780991e+001
2.517443e+002, 2.740821e+001
2.522264e+002, 2.712779e+001
2.527086e+002, 2.715487e+001
2.531907e+002, 2.721074e+001
2.536728e+002, 2.705670e+001
2.541549e+002, 2.664907e+001
2.546370e+002, 2.617011e+001
2.551191e+002, 2.589368e+001
2.556013e+002, 2.588129e+001
2.560834e+002, 2.596122e+001
2.565655e+002, 2.626766e+001
2.570476e+002, 2.654884e+001
2.575297e+002, 2.659980e+001
2.580118e+002, 2.640437e+001
2.584940e+002, 2.613775e+001
2.589761e+002, 2.605313e+001
2.594582e+002, 2.629239e+001
2.599403e+002, 2.634869e+001
2.604224e+002, 2.611243e+001
2.609045e+002, 2.581919e+001
2.613867e+002, 2.557259e+001
2.618688e+002, 2.540516e+001
2.623509e+002, 2.533776e+001
2.628330e+002, 2.540958e+001
2.633151e+002, 2.568607e+001
2.637972e+002, 2.586191e+001
2.642794e+002, 2.590532e+001
2.647615e+002, 2.589669e+001
2.652436e+002, 2.581979e+001
2.657257e+002, 2.571155e+001
2.662078e+002, 2.569059e+001
2.666899e+002, 2.589969e+001
2.671721e+002, 2.640736e+001
2.676542e+002, 2.668656e+001
2.681363e+002, 2.659428e+001
2.686184e+002, 2.645457e+001
2.691005e+002, 2.641690e+001
2.695826e+002, 2.647684e+001
2.700648e+002, 2.655790e+001
2.705469e+002, 2.659989e+001
2.710290e+002, 2.660126e+001
2.715111e+002, 2.659576e+001
2.719932e+002, 2.652452e+001
2.724753e+002, 2.650408e+001
2.729575e+002, 2.662523e+001
2.734396e+002, 2.684455e+001
2.739217e+002, 2.704912e+001
2.744038e+002, 2.716921e+001
2.748859e+002, 2.720544e+001
2.753680e+002, 2.715274e+001
2.758501e+002, 2.697563e+001
2.763322e+002, 2.677226e+001
2.768144e+002, 2.656608e+001
2.772965e+002, 2.635756e+001
2.777786e+002, 2.614846e+001
2.782607e+002, 2.594244e+001
2.787428e+002, 2.573276e+001
2.792249e+002, 2.548438e+001
2.797071e+002, 2.525008e+001
2.801892e+002, 2.492670e+001
2.806713e+002, 2.434674e+001
2.811534e+002, 2.367626e+001
2.816355e+002, 2.323272e+001
2.821176e+002, 2.317114e+001
2.825998e+002, 2.335261e+001
2.830819e+002, 2.343198e+001
2.835640e+002, 2.338555e+001
2.840461e+002, 2.330493e+001
2.845282e+002, 2.318710e+001
2.850103e+002, 2.305147e+001
2.854925e+002, 2.292122e+001
2.859746e+002, 2.280188e+001
2.864567e+002, 2.270188e+001
2.869388e+002, 2.263809e+001
2.874209e+002, 2.261504e+001
2.879030e+002, 2.260830e+001
2.883852e+002, 2.264904e+001
2.888673e+002, 2.269048e+001
2.893494e+002, 2.266742e+001
2.898315e+002, 2.256355e+001
2.903136e+002, 2.242569e+001
2.907957e+002, 2.228431e+001
2.912779e+002, 2.212554e+001
2.917600e+002, 2.209777e+001
2.922421e+002, 2.234339e+001
2.927242e+002, 2.265480e+001
2.932063e+002, 2.283394e+001
2.936884e+002, 2.285592e+001
2.941706e+002, 2.279628e+001
2.946527e+002, 2.269882e+001
2.951348e+002, 2.256560e+001
2.956169e+002, 2.249154e+001
2.960990e+002, 2.251361e+001
2.965811e+002, 2.257169e+001
2.970633e+002, 2.264621e+001
2.975454e+002, 2.272822e+001
2.980275e+002, 2.275571e+001
2.985096e+002, 2.265983e+001
2.989917e+002, 2.246745e+001
2.994738e+002, 2.236028e+001
2.999560e+002, 2.237591e+001
3.004381e+002, 2.244051e+001
3.009202e+002, 2.249590e+001
3.014023e+002, 2.255691e+001
3.018844e+002, 2.270891e+001
3.023665e+002, 2.304050e+001
3.028487e+002, 2.346201e+001
3.033308e+002, 2.370164e+001
3.038129e+002, 2.364686e+001
3.042950e+002, 2.361373e+001
3.047771e+002, 2.381777e+001
3.052592e+002, 2.415636e+001
3.057414e+002, 2.432752e+001
3.062235e+002, 2.416187e+001
3.067056e+002, 2.388024e+001
3.071877e+002, 2.395007e+001
3.076698e+002, 2.444861e+001
3.081519e+002, 2.489690e+001
3.086341e+002, 2.514834e+001
3.091162e+002, 2.524828e+001
3.095983e+002, 2.525024e+001
3.100804e+002, 2.515522e+001
3.105625e+002, 2.501779e+001
3.110446e+002, 2.488677e+001
3.115268e+002, 2.475425e+001
3.120089e+002, 2.470752e+001
3.124910e+002, 2.487459e+001
3.129731e+002, 2.508539e+001
3.134552e+002, 2.512933e+001
3.139373e+002, 2.497294e+001
3.144195e+002, 2.473539e+001
3.149016e+002, 2.451881e+001
3.153837e+002, 2.431736e+001
3.158658e+002, 2.406897e+001
3.163479e+002, 2.369131e+001
3.168300e+002, 2.331946e+001
3.173121e+002, 2.307860e+001
3.177943e+002, 2.296479e+001
3.182764e+002, 2.289375e+001
3.187585e+002, 2.287071e+001
3.192406e+002, 2.282938e+001
3.197227e+002, 2.252842e+001
3.202048e+002, 2.159399e+001
3.206870e+002, 2.077625e+001
3.211691e+002, 2.061991e+001
3.216512e+002, 2.095770e+001
3.221333e+002, 2.118978e+001
3.226154e+002, 2.102126e+001
3.230975e+002, 2.059519e+001
3.235797e+002, 2.028252e+001
3.240618e+002, 2.012235e+001
3.245439e+002, 1.996435e+001
3.250260e+002, 1.968120e+001
3.255081e+002, 1.937358e+001
3.259902e+002, 1.924220e+001
3.264724e+002, 1.936311e+001
3.269545e+002, 1.963097e+001
3.274366e+002, 1.992401e+001
3.279187e+002, 2.026977e+001
3.284008e+002, 2.049729e+001
3.288829e+002, 2.048791e+001
3.293651e+002, 2.038276e+001
3.298472e+002, 2.034827e+001
3.303293e+002, 2.041309e+001
3.308114e+002, 2.049726e+001
3.312935e+002, 2.050525e+001
3.317756e+002, 2.043005e+001
3.322578e+002, 2.045802e+001
3.327399e+002, 2.074482e+001
3.332220e+002, 2.102254e+001
3.337041e+002, 2.105311e+001
3.341862e+002, 2.085768e+001
3.346683e+002, 2.066162e+001
3.351505e+002, 2.061332e+001
3.356326e+002, 2.070310e+001
3.361147e+002, 2.082168e+001
3.365968e+002, 2.099184e+001
3.370789e+002, 2.116450e+001
3.375610e+002, 2.134525e+001
3.380432e+002, 2.151439e+001
3.385253e+002, 2.163289e+001
3.390074e+002, 2.168971e+001
3.394895e+002, 2.166987e+001
3.399716e+002, 2.150433e+001
3.404537e+002, 2.104982e+001
3.409359e+002, 2.072956e+001
3.414180e+002, 2.068045e+001
3.419001e+002, 2.078870e+001
3.423822e+002, 2.095464e+001
3.428643e+002, 2.114979e+001
3.433464e+002, 2.128252e+001
3.438286e+002, 2.120407e+001
3.443107e+002, 2.079165e+001
3.447928e+002, 2.052405e+001
3.452749e+002, 2.057626e+001
3.457570e+002, 2.065630e+001
3.462391e+002, 2.045989e+001
3.467213e+002, 2.000885e+001
3.472034e+002, 1.964548e+001
3.476855e+002, 1.971906e+001
3.481676e+002, 2.026318e+001
3.486497e+002, 2.049008e+001
3.491318e+002, 2.018800e+001
3.496140e+002, 1.984068e+001
3.500961e+002, 1.962803e+001
3.505782e+002, 1.953348e+001
3.510603e+002, 1.948410e+001
3.515424e+002, 1.943818e+001
3.520245e+002, 1.940515e+001
3.525067e+002, 1.942782e+001
3.529888e+002, 1.966440e+001
3.534709e+002, 1.976092e+001
3.539530e+002, 1.955935e+001
3.544351e+002, 1.924055e+001
3.549172e+002, 1.899151e+001
3.553994e+002, 1.888119e+001
3.558815e+002, 1.890165e+001
3.563636e+002, 1.906237e+001
3.568457e+002, 1.957512e+001
3.573278e+002, 1.977327e+001
3.578099e+002, 1.943826e+001
3.582920e+002, 1.898343e+001
3.587741e+002, 1.865755e+001
3.592563e+002, 1.849724e+001
3.597384e+002, 1.843680e+001
3.602205e+002, 1.841970e+001
3.607026e+002, 1.845188e+001
3.611847e+002, 1.847042e+001
3.616668e+002, 1.850603e+001
3.621490e+002, 1.849791e+001
3.626311e+002, 1.839548e+001
3.631132e+002, 1.823597e+001
3.635953e+002, 1.809089e+001
3.640774e+002, 1.800430e+001
3.645595e+002, 1.796218e+001
3.650417e+002, 1.790307e+001
3.655238e+002, 1.778588e+001
3.660059e+002, 1.771065e+001
3.664880e+002, 1.772360e+001
3.669701e+002, 1.776424e+001
3.674522e+002, 1.776999e+001
3.679344e+002, 1.772206e+001
3.684165e+002, 1.765322e+001
3.688986e+002, 1.762406e+001
3.693807e+002, 1.767500e+001
3.698628e+002, 1.765249e+001
3.703449e+002, 1.742162e+001
3.708271e+002, 1.722904e+001
3.713092e+002, 1.724710e+001
3.717913e+002, 1.744592e+001
3.722734e+002, 1.764834e+001
3.727555e+002, 1.768681e+001
3.732376e+002, 1.756785e+001
3.737198e+002, 1.751161e+001
3.742019e+002, 1.759862e+001
3.746840e+002, 1.764920e+001
3.751661e+002, 1.761447e+001
3.756482e+002, 1.750559e+001
3.761303e+002, 1.732185e+001
3.766125e+002, 1.703739e+001
3.770946e+002, 1.673640e+001
3.775767e+002, 1.664377e+001
3.780588e+002, 1.687354e+001
3.785409e+002, 1.698630e+001
3.790230e+002, 1.665983e+001
3.795052e+002, 1.629206e+001
3.799873e+002, 1.623340e+001
3.804694e+002, 1.654995e+001
3.809515e+002, 1.694838e+001
3.814336e+002, 1.714983e+001
3.819157e+002, 1.715747e+001
3.823979e+002, 1.708462e+001
3.828800e+002, 1.682509e+001
3.833621e+002, 1.663652e+001
3.838442e+002, 1.674234e+001
3.843263e+002, 1.706919e+001
3.848084e+002, 1.735165e+001
3.852906e+002, 1.742455e+001
3.857727e+002, 1.735656e+001
3.862548e+002, 1.728304e+001
3.867369e+002, 1.718726e+001
3.872190e+002, 1.714898e+001
3.877011e+002, 1.732608e+001
3.881833e+002, 1.755886e+001
3.886654e+002, 1.758844e+001
3.891475e+002, 1.726009e+001
3.896296e+002, 1.691389e+001
3.901117e+002, 1.691529e+001
3.905938e+002, 1.721171e+001
3.910760e+002, 1.737979e+001
3.915581e+002, 1.723669e+001
3.920402e+002, 1.695948e+001
3.925223e+002, 1.678262e+001
3.930044e+002, 1.670514e+001
3.934865e+002, 1.668359e+001
3.939687e+002, 1.673672e+001
3.944508e+002, 1.682427e+001
3.949329e+002, 1.687160e+001
3.954150e+002, 1.686384e+001
3.958971e+002, 1.686827e+001
3.963792e+002, 1.696066e+001
3.968614e+002, 1.713033e+001
3.973435e+002, 1.724493e+001
3.978256e+002, 1.729792e+001
3.983077e+002, 1.729596e+001
3.987898e+002, 1.723253e+001
3.992719e+002, 1.711545e+001
3.997540e+002, 1.695323e+001
4.002361e+002, 1.672855e+001
4.007183e+002, 1.649591e+001
4.012004e+002, 1.642807e+001
4.016825e+002, 1.658237e+001
4.021646e+002, 1.676927e+001
4.026467e+002, 1.705798e+001
4.031288e+002, 1.731636e+001
4.036110e+002, 1.731870e+001
4.040931e+002, 1.703400e+001
4.045752e+002, 1.674451e+001
4.050573e+002, 1.680950e+001
4.055394e+002, 1.734729e+001
4.060215e+002, 1.763999e+001
4.065037e+002, 1.756108e+001
4.069858e+002, 1.739178e+001
4.074679e+002, 1.718723e+001
4.079500e+002, 1.700433e+001
4.084321e+002, 1.694898e+001
4.089142e+002, 1.709773e+001
4.093964e+002, 1.740050e+001
4.098785e+002, 1.762805e+001
4.103606e+002, 1.772777e+001
4.108427e+002, 1.781293e+001
4.113248e+002, 1.789265e+001
4.118069e+002, 1.796255e+001
4.122891e+002, 1.802279e+001
4.127712e+002, 1.807143e+001
4.132533e+002, 1.809756e+001
4.137354e+002, 1.807694e+001
4.142175e+002, 1.798781e+001
4.146996e+002, 1.793923e+001
4.151818e+002, 1.791829e+001
4.156639e+002, 1.795246e+001
4.161460e+002, 1.808666e+001
4.166281e+002, 1.828785e+001
4.171102e+002, 1.849236e+001
4.175923e+002, 1.868777e+001
4.180745e+002, 1.883270e+001
4.185566e+002, 1.875640e+001
4.190387e+002, 1.833871e+001
4.195208e+002, 1.796699e+001
4.200029e+002, 1.774129e+001
4.204850e+002, 1.762303e+001
4.209672e+002, 1.760215e+001
4.214493e+002, 1.767824e+001
4.219314e+002, 1.779217e+001
4.224135e+002, 1.785974e+001
4.228956e+002, 1.788799e+001
4.233777e+002, 1.805145e+001
4.238599e+002, 1.852380e+001
4.243420e+002, 1.892698e+001
4.248241e+002, 1.887244e+001
4.253062e+002, 1.849138e+001
4.257883e+002, 1.826316e+001
4.262704e+002, 1.854095e+001
4.267526e+002, 1.901769e+001
4.272347e+002, 1.919359e+001
4.277168e+002, 1.904730e+001
4.281989e+002, 1.895615e+001
4.286810e+002, 1.913897e+001
4.291631e+002, 1.950103e+001
4.296453e+002, 1.981839e+001
4.301274e+002, 2.010843e+001
4.306095e+002, 2.031321e+001
4.310916e+002, 2.036980e+001
4.315737e+002, 2.032513e+001
4.320558e+002, 2.024944e+001
4.325380e+002, 2.015038e+001
4.330201e+002, 2.009371e+001
4.335022e+002, 2.016778e+001
4.339843e+002, 2.039255e+001
4.344664e+002, 2.061155e+001
4.349485e+002, 2.089984e+001
4.354307e+002, 2.111274e+001
4.359128e+002, 2.109794e+001
4.363949e+002, 2.091127e+001
4.368770e+002, 2.074062e+001
4.373591e+002, 2.069143e+001
4.378412e+002, 2.074734e+001
4.383234e+002, 2.084871e+001
4.388055e+002, 2.115038e+001
4.392876e+002, 2.129716e+001
4.397697e+002, 2.112183e+001
4.402518e+002, 2.086244e+001
4.407339e+002, 2.073578e+001
4.412160e+002, 2.078799e+001
4.416982e+002, 2.094067e+001
4.421803e+002, 2.111905e+001
4.426624e+002, 2.133725e+001
4.431445e+002, 2.148110e+001
4.436266e+002, 2.146887e+001
4.441087e+002, 2.146582e+001
4.445909e+002, 2.151438e+001
4.450730e+002, 2.160750e+001
4.455551e+002, 2.173426e+001
4.460372e+002, 2.189190e+001
4.465193e+002, 2.206213e+001
4.470014e+002, 2.221516e+001
4.474836e+002, 2.237142e+001
4.479657e+002, 2.244817e+001
4.484478e+002, 2.225928e+001
4.489299e+002, 2.211204e+001
4.494120e+002, 2.225573e+001
4.498941e+002, 2.267608e+001
4.503763e+002, 2.310548e+001
4.508584e+002, 2.329195e+001
4.513405e+002, 2.330850e+001
4.518226e+002, 2.349159e+001
4.523047e+002, 2.392911e+001
4.527868e+002, 2.432517e+001
4.532690e+002, 2.445858e+001
4.537511e+002, 2.445059e+001
4.542332e+002, 2.447766e+001
4.547153e+002, 2.463436e+001
4.551974e+002, 2.471950e+001
4.556795e+002, 2.449429e+001
4.561617e+002, 2.403399e+001
4.566438e+002, 2.368353e+001
4.571259e+002, 2.357972e+001
4.576080e+002, 2.353287e+001
4.580901e+002, 2.327036e+001
4.585722e+002, 2.279640e+001
4.590544e+002, 2.235962e+001
4.595365e+002, 2.204288e+001
4.600186e+002, 2.175468e+001
4.605007e+002, 2.140797e+001
4.609828e+002, 2.100937e+001
4.614649e+002, 2.062098e+001
4.619471e+002, 2.027494e+001
4.624292e+002, 1.997146e+001
4.629113e+002, 1.970498e+001
4.633934e+002, 1.945416e+001
4.638755e+002, 1.926462e+001
4.643576e+002, 1.917584e+001
4.648398e+002, 1.913051e+001
4.653219e+002, 1.908821e+001
4.658040e+002, 1.903215e+001
4.662861e+002, 1.893352e+001
4.667682e+002, 1.874278e+001
4.672503e+002, 1.843403e+001
4.677325e+002, 1.827164e+001
4.682146e+002, 1.852462e+001
4.686967e+002, 1.863552e+001
4.691788e+002, 1.832351e+001
4.696609e+002, 1.780922e+001
4.701430e+002, 1.743433e+001
4.706252e+002, 1.735203e+001
4.711073e+002, 1.741528e+001
4.715894e+002, 1.736366e+001
4.720715e+002, 1.716739e+001
4.725536e+002, 1.698782e+001
4.730357e+002, 1.684117e+001
4.735179e+002, 1.672544e+001
4.740000e+002, 1.664329e+001
4.744821e+002, 1.659277e+001
4.749642e+002, 1.656674e+001
4.754463e+002, 1.661540e+001
4.759284e+002, 1.666698e+001
4.764106e+002, 1.651647e+001
4.768927e+002, 1.612049e+001
4.773748e+002, 1.580019e+001
4.778569e+002, 1.572776e+001
4.783390e+002, 1.581457e+001
4.788211e+002, 1.591168e+001
4.793033e+002, 1.600877e+001
4.797854e+002, 1.613242e+001
4.802675e+002, 1.636943e+001
4.807496e+002, 1.662339e+001
4.812317e+002, 1.669964e+001
4.817138e+002, 1.655950e+001
4.821959e+002, 1.634097e+001
4.826780e+002, 1.613844e+001
4.831602e+002, 1.595876e+001
4.836423e+002, 1.588050e+001
4.841244e+002, 1.595474e+001
4.846065e+002, 1.606762e+001
4.850886e+002, 1.623037e+001
4.855707e+002, 1.638854e+001
4.860529e+002, 1.642725e+001
4.865350e+002, 1.630542e+001
4.870171e+002, 1.613356e+001
4.874992e+002, 1.610501e+001
4.879813e+002, 1.631869e+001
4.884634e+002, 1.640161e+001
4.889456e+002, 1.624974e+001
4.894277e+002, 1.608944e+001
4.899098e+002, 1.610061e+001
4.903919e+002, 1.619079e+001
4.908740e+002, 1.610113e+001
4.913561e+002, 1.563690e+001
4.918383e+002, 1.500385e+001
4.923204e+002, 1.482361e+001
4.928025e+002, 1.531971e+001
4.932846e+002, 1.565096e+001
4.937667e+002, 1.547262e+001
4.942488e+002, 1.519097e+001
4.947310e+002, 1.507055e+001
4.952131e+002, 1.512278e+001
4.956952e+002, 1.519471e+001
4.961773e+002, 1.518299e+001
4.966594e+002, 1.511082e+001
4.971415e+002, 1.503786e+001
4.976237e+002, 1.496439e+001
4.981058e+002, 1.489307e+001
4.985879e+002, 1.481362e+001
4.990700e+002, 1.474214e+001
4.995521e+002, 1.470872e+001
5.000342e+002, 1.472374e+001
5.005164e+002, 1.475464e+001
5.009985e+002, 1.483398e+001
5.014806e+002, 1.490576e+001
5.019627e+002, 1.481971e+001
5.024448e+002, 1.454235e+001
5.029269e+002, 1.431141e+001
5.034091e+002, 1.438126e+001
5.038912e+002, 1.476646e+001
5.043733e+002, 1.499328e+001
5.048554e+002, 1.503590e+001
5.053375e+002, 1.496993e+001
5.058196e+002, 1.472414e+001
5.063018e+002, 1.441632e+001
5.067839e+002, 1.421378e+001
5.072660e+002, 1.417706e+001
5.077481e+002, 1.425862e+001
5.082302e+002, 1.438926e+001
5.087123e+002, 1.456972e+001
5.091945e+002, 1.479746e+001
5.096766e+002, 1.529051e+001
5.101587e+002, 1.561106e+001
5.106408e+002, 1.546573e+001
5.111229e+002, 1.504136e+001
5.116050e+002, 1.469279e+001
5.120872e+002, 1.459527e+001
5.125693e+002, 1.466071e+001
5.130514e+002, 1.475378e+001
5.135335e+002, 1.488255e+001
5.140156e+002, 1.497613e+001
5.144977e+002, 1.498240e+001
5.149799e+002, 1.498642e+001
5.154620e+002, 1.508621e+001
5.159441e+002, 1.526144e+001
5.164262e+002, 1.537491e+001
5.169083e+002, 1.534160e+001
5.173904e+002, 1.523141e+001
5.178726e+002, 1.510352e+001
5.183547e+002, 1.496530e+001
5.188368e+002, 1.489449e+001
5.193189e+002, 1.494549e+001
5.198010e+002, 1.506484e+001
5.202831e+002, 1.512840e+001
5.207653e+002, 1.511629e+001
5.212474e+002, 1.512002e+001
5.217295e+002, 1.519725e+001
5.222116e+002, 1.526682e+001
5.226937e+002, 1.522614e+001
5.231758e+002, 1.509443e+001
5.236580e+002, 1.500550e+001
5.241401e+002, 1.507064e+001
5.246222e+002, 1.523850e+001
5.251043e+002, 1.523186e+001
5.255864e+002, 1.477903e+001
5.260685e+002, 1.454558e+001
5.265507e+002, 1.477604e+001
5.270328e+002, 1.510577e+001
5.275149e+002, 1.521776e+001
5.279970e+002, 1.509304e+001
5.284791e+002, 1.494697e+001
5.289612e+002, 1.497651e+001
5.294434e+002, 1.515031e+001
5.299255e+002, 1.528073e+001
5.304076e+002, 1.536288e+001
5.308897e+002, 1.541187e+001
5.313718e+002, 1.540140e+001
5.318539e+002, 1.537644e+001
5.323361e+002, 1.538419e+001
5.328182e+002, 1.543414e+001
5.333003e+002, 1.549947e+001
5.337824e+002, 1.555777e+001
5.342645e+002, 1.561996e+001
5.347466e+002, 1.570367e+001
5.352288e+002, 1.580952e+001
5.357109e+002, 1.597058e+001
5.361930e+002, 1.626521e+001
5.366751e+002, 1.663871e+001
5.371572e+002, 1.676845e+001
5.376393e+002, 1.637083e+001
5.381215e+002, 1.609903e+001
5.386036e+002, 1.627249e+001
5.390857e+002, 1.661079e+001
5.395678e+002, 1.677103e+001
5.400499e+002, 1.668147e+001
5.405320e+002, 1.646965e+001
5.410142e+002, 1.625643e+001
5.414963e+002, 1.604047e+001
5.419784e+002, 1.586775e+001
5.424604e+002, 1.581493e+001
5.429426e+002, 1.571451e+001
5.434247e+002, 1.546079e+001
5.439068e+002, 1.517738e+001
5.443889e+002, 1.498844e+001
5.448710e+002, 1.492973e+001
5.453531e+002, 1.499070e+001
5.458353e+002, 1.524142e+001
5.463174e+002, 1.565287e+001
5.467995e+002, 1.582596e+001
5.472816e+002, 1.560049e+001
5.477637e+002, 1.543169e+001
5.482458e+002, 1.579057e+001
5.487280e+002, 1.635415e+001
5.492101e+002, 1.655098e+001
5.496922e+002, 1.608196e+001
5.501743e+002, 1.567411e+001
5.506564e+002, 1.589532e+001
5.511385e+002, 1.648571e+001
5.516207e+002, 1.690862e+001
5.521028e+002, 1.705119e+001
5.525849e+002, 1.707836e+001
5.530670e+002, 1.713259e+001
5.535491e+002, 1.721429e+001
5.540313e+002, 1.728588e+001
5.545134e+002, 1.725019e+001
5.549955e+002, 1.732098e+001
5.554776e+002, 1.766260e+001
5.559597e+002, 1.809598e+001
5.564418e+002, 1.835326e+001
5.569240e+002, 1.838888e+001
5.574061e+002, 1.843742e+001
5.578882e+002, 1.881393e+001
5.583703e+002, 1.953524e+001
5.588524e+002, 2.004446e+001
5.593345e+002, 2.023564e+001
5.598167e+002, 2.034873e+001
5.602988e+002, 2.045494e+001
5.607809e+002, 2.054408e+001
5.612630e+002, 2.064389e+001
5.617451e+002, 2.077552e+001
5.622272e+002, 2.075263e+001
5.627094e+002, 2.035347e+001
5.631915e+002, 1.966478e+001
5.636736e+002, 1.896291e+001
5.641557e+002, 1.827042e+001
5.646378e+002, 1.759640e+001
5.651199e+002, 1.693890e+001
5.656021e+002, 1.630754e+001
5.660842e+002, 1.572495e+001
5.665663e+002, 1.516353e+001
5.670484e+002, 1.468932e+001
5.675305e+002, 1.432600e+001
5.680126e+002, 1.406225e+001
5.684948e+002, 1.391363e+001
5.689769e+002, 1.386738e+001
5.694590e+002, 1.383492e+001
5.699411e+002, 1.373742e+001
5.704232e+002, 1.357662e+001
5.709053e+002, 1.338970e+001
5.713875e+002, 1.310184e+001
5.718696e+002, 1.289094e+001
5.723517e+002, 1.277427e+001
5.728338e+002, 1.274773e+001
5.733159e+002, 1.284619e+001
5.737980e+002, 1.305517e+001
5.742802e+002, 1.325273e+001
5.747623e+002, 1.330803e+001
5.752444e+002, 1.326067e+001
5.757265e+002, 1.328171e+001
5.762086e+002, 1.338632e+001
5.766907e+002, 1.349431e+001
5.771729e+002, 1.355227e+001
5.776550e+002, 1.360088e+001
5.781371e+002, 1.371545e+001
5.786192e+002, 1.391970e+001
5.791013e+002, 1.408789e+001
5.795834e+002, 1.413673e+001
5.800656e+002, 1.414588e+001
5.805477e+002, 1.420331e+001
5.810298e+002, 1.431385e+001
5.815119e+002, 1.446665e+001
5.819940e+002, 1.467652e+001
5.824761e+002, 1.488112e+001
5.829583e+002, 1.486857e+001
5.834404e+002, 1.452690e+001
5.839225e+002, 1.412158e+001
5.844046e+002, 1.350278e+001
5.848867e+002, 1.295308e+001
5.853688e+002, 1.268150e+001
5.858510e+002, 1.265148e+001
5.863331e+002, 1.271125e+001
5.868152e+002, 1.279784e+001
5.872973e+002, 1.285454e+001
5.877794e+002, 1.271254e+001
5.882615e+002, 1.233188e+001
5.887437e+002, 1.202177e+001
5.892258e+002, 1.184682e+001
5.897079e+002, 1.178063e+001
5.901900e+002, 1.183886e+001
5.906721e+002, 1.199654e+001
5.911542e+002, 1.208853e+001
5.916364e+002, 1.203471e+001
5.921185e+002, 1.192105e+001
5.926006e+002, 1.179636e+001
5.930827e+002, 1.167115e+001
5.935648e+002, 1.156795e+001
5.940469e+002, 1.149452e+001
5.945291e+002, 1.145645e+001
5.950112e+002, 1.147050e+001
5.954933e+002, 1.156272e+001
5.959754e+002, 1.158688e+001
5.964575e+002, 1.143463e+001
5.969396e+002, 1.134485e+001
5.974218e+002, 1.145154e+001
5.979039e+002, 1.165497e+001
5.983860e+002, 1.181495e+001
5.988681e+002, 1.188326e+001
5.993502e+002, 1.190071e+001
5.998323e+002, 1.191922e+001
6.003145e+002, 1.193732e+001
6.007966e+002, 1.190049e+001
6.012787e+002, 1.176453e+001
6.017608e+002, 1.166226e+001
6.022429e+002, 1.164577e+001
6.027250e+002, 1.172054e+001
6.032072e+002, 1.194571e+001
6.036893e+002, 1.242460e+001
6.041714e+002, 1.276828e+001
6.046535e+002, 1.264269e+001
6.051356e+002, 1.232303e+001
6.056177e+002, 1.222463e+001
6.060999e+002, 1.238397e+001
6.065820e+002, 1.258359e+001
6.070641e+002, 1.266384e+001
6.075462e+002, 1.266205e+001
6.080283e+002, 1.275231e+001
6.085104e+002, 1.311121e+001
6.089926e+002, 1.330484e+001
6.094747e+002, 1.314839e+001
6.099568e+002, 1.296431e+001
6.104389e+002, 1.297436e+001
6.109210e+002, 1.316983e+001
6.114031e+002, 1.344380e+001
6.118853e+002, 1.377144e+001
6.123674e+002, 1.406592e+001
6.128495e+002, 1.408786e+001
6.133316e+002, 1.380391e+001
6.138137e+002, 1.366220e+001
6.142958e+002, 1.387236e+001
6.147780e+002, 1.412632e+001
6.152601e+002, 1.407032e+001
6.157422e+002, 1.376092e+001
6.162243e+002, 1.353357e+001
6.167064e+002, 1.345574e+001
6.171885e+002, 1.347995e+001
6.176707e+002, 1.368231e+001
6.181528e+002, 1.394575e+001
6.186349e+002, 1.399088e+001
6.191170e+002, 1.374357e+001
6.195991e+002, 1.346579e+001
6.200812e+002, 1.349268e+001
6.205634e+002, 1.385845e+001
6.210455e+002, 1.400727e+001
6.215276e+002, 1.376034e+001
6.220097e+002, 1.350594e+001
6.224918e+002, 1.329023e+001
6.229739e+002, 1.312548e+001
6.234561e+002, 1.304822e+001
6.239382e+002, 1.305594e+001
6.244203e+002, 1.305184e+001
6.249023e+002, 1.294692e+001
6.253845e+002, 1.277220e+001
6.258666e+002, 1.260327e+001
6.263487e+002, 1.244012e+001
6.268308e+002, 1.230563e+001
6.273129e+002, 1.223375e+001
6.277950e+002, 1.217340e+001
6.282772e+002, 1.200674e+001
6.287593e+002, 1.170461e+001
6.292414e+002, 1.145818e+001
6.297235e+002, 1.129749e+001
6.302056e+002, 1.119822e+001
6.306877e+002, 1.114641e+001
6.311699e+002, 1.114127e+001
6.316520e+002, 1.122106e+001
6.321341e+002, 1.140354e+001
6.326162e+002, 1.156302e+001
6.330983e+002, 1.143410e+001
6.335804e+002, 1.091870e+001
6.340626e+002, 1.061840e+001
6.345447e+002, 1.061830e+001
6.350268e+002, 1.074533e+001
6.355089e+002, 1.101344e+001
6.359910e+002, 1.131674e+001
6.364731e+002, 1.147751e+001
6.369553e+002, 1.142655e+001
6.374374e+002, 1.135389e+001
6.379195e+002, 1.142368e+001
6.384016e+002, 1.155585e+001
6.388837e+002, 1.160356e+001
6.393658e+002, 1.154969e+001
6.398480e+002, 1.142802e+001
6.403301e+002, 1.124401e+001
6.408122e+002, 1.102685e+001
6.412943e+002, 1.087203e+001
6.417764e+002, 1.075100e+001
6.422585e+002, 1.074583e+001
6.427407e+002, 1.102494e+001
6.432228e+002, 1.126982e+001
6.437049e+002, 1.125558e+001
6.441870e+002, 1.103658e+001
6.446691e+002, 1.077436e+001
6.451512e+002, 1.053969e+001
6.456334e+002, 1.037074e+001
6.461155e+002, 1.036034e+001
6.465976e+002, 1.050699e+001
6.470797e+002, 1.061938e+001
6.475618e+002, 1.065525e+001
6.480439e+002, 1.068257e+001
6.485261e+002, 1.075856e+001
6.490082e+002, 1.086754e+001
6.494903e+002, 1.095929e+001
6.499724e+002, 1.103710e+001
6.504545e+002, 1.108639e+001
6.509366e+002, 1.110892e+001
6.514188e+002, 1.109539e+001
6.519009e+002, 1.100391e+001
6.523830e+002, 1.085082e+001
6.528651e+002, 1.074016e+001
6.533472e+002, 1.075882e+001
6.538293e+002, 1.085807e+001
6.543115e+002, 1.083587e+001
6.547936e+002, 1.058765e+001
6.552757e+002, 1.047232e+001
6.557578e+002, 1.067189e+001
6.562399e+002, 1.090483e+001
6.567220e+002, 1.101898e+001
6.572042e+002, 1.103833e+001
6.576863e+002, 1.105957e+001
6.581684e+002, 1.112660e+001
6.586505e+002, 1.119723e+001
6.591326e+002, 1.125091e+001
6.596147e+002, 1.127585e+001
6.600969e+002, 1.121570e+001
6.605790e+002, 1.105544e+001
6.610611e+002, 1.090670e+001
6.615432e+002, 1.086747e+001
6.620253e+002, 1.092968e+001
6.625074e+002, 1.100539e+001
6.629896e+002, 1.115108e+001
6.634717e+002, 1.123434e+001
6.639538e+002, 1.122833e+001
6.644359e+002, 1.116801e+001
6.649180e+002, 1.104301e+001
6.654001e+002, 1.088433e+001
6.658823e+002, 1.077836e+001
6.663644e+002, 1.078368e+001
6.668465e+002, 1.086245e+001
6.673286e+002, 1.098261e+001
6.678107e+002, 1.114015e+001
6.682928e+002, 1.117498e+001
6.687750e+002, 1.100996e+001
6.692571e+002, 1.081292e+001
6.697392e+002, 1.073514e+001
6.702213e+002, 1.077106e+001
6.707034e+002, 1.082771e+001
6.711855e+002, 1.098527e+001
6.716677e+002, 1.106276e+001
6.721498e+002, 1.096503e+001
6.726319e+002, 1.078008e+001
6.731140e+002, 1.054863e+001
6.735961e+002, 1.031444e+001
6.740782e+002, 1.020371e+001
6.745604e+002, 1.034359e+001
6.750425e+002, 1.062529e+001
6.755246e+002, 1.066199e+001
6.760067e+002, 1.037815e+001
6.764888e+002, 1.018648e+001
6.769709e+002, 1.020080e+001
6.774531e+002, 1.029413e+001
6.779352e+002, 1.039415e+001
6.784173e+002, 1.048960e+001
6.788994e+002, 1.053871e+001
6.793815e+002, 1.055431e+001
6.798636e+002, 1.049299e+001
6.803458e+002, 1.023632e+001
6.808279e+002, 9.921945e+000
6.813100e+002, 9.782374e+000
6.817921e+002, 9.846492e+000
6.822742e+002, 9.971486e+000
6.827563e+002, 1.004839e+001
6.832385e+002, 1.008005e+001
6.837206e+002, 1.007749e+001
6.842027e+002, 1.001994e+001
6.846848e+002, 9.973540e+000
6.851669e+002, 9.929567e+000
6.856490e+002, 9.915052e+000
6.861312e+002, 9.978356e+000
6.866133e+002, 1.008630e+001
6.870954e+002, 1.014113e+001
6.875775e+002, 1.008869e+001
6.880596e+002, 1.000257e+001
6.885417e+002, 9.935393e+000
6.890239e+002, 9.886465e+000
6.895060e+002, 9.830235e+000
6.899881e+002, 9.765214e+000
6.904702e+002, 9.806533e+000
6.909523e+002, 1.007684e+001
6.914344e+002, 1.050442e+001
6.919166e+002, 1.072755e+001
6.923987e+002, 1.058820e+001
6.928808e+002, 1.049154e+001
6.933629e+002, 1.048000e+001
6.938450e+002, 1.049286e+001
6.943271e+002, 1.051598e+001
6.948093e+002, 1.053141e+001
6.952914e+002, 1.050370e+001
6.957735e+002, 1.041045e+001
6.962556e+002, 1.029043e+001
6.967377e+002, 1.018670e+001
6.972198e+002, 1.009216e+001
6.977020e+002, 9.956485e+000
6.981841e+002, 9.765710e+000
6.986662e+002, 9.640930e+000
6.991483e+002, 9.670140e+000
6.996304e+002, 9.829314e+000
7.001125e+002, 1.003049e+001
7.005947e+002, 1.043576e+001
7.010768e+002, 1.062705e+001
7.015589e+002, 1.043066e+001
7.020410e+002, 1.017556e+001
7.025231e+002, 1.005459e+001
7.030052e+002, 1.003550e+001
7.034874e+002, 9.990221e+000
7.039695e+002, 9.855332e+000
7.044516e+002, 9.762060e+000
7.049337e+002, 9.953528e+000
7.054158e+002, 1.034713e+001
7.058979e+002, 1.052263e+001
7.063801e+002, 1.042113e+001
7.068622e+002, 1.022958e+001
7.073442e+002, 1.001785e+001
7.078264e+002, 9.815839e+000
7.083085e+002, 9.694376e+000
7.087906e+002, 9.631003e+000
7.092727e+002, 9.698636e+000
7.097548e+002, 1.009671e+001
7.102369e+002, 1.043797e+001
7.107191e+002, 1.047058e+001
7.112012e+002, 1.028802e+001
7.116833e+002, 1.004876e+001
7.121654e+002, 9.813554e+000
7.126475e+002, 9.637693e+000
7.131296e+002, 9.603433e+000
7.136118e+002, 9.688716e+000
7.140939e+002, 9.771929e+000
7.145760e+002, 9.847377e+000
7.150581e+002, 9.940357e+000
7.155402e+002, 1.009313e+001
7.160223e+002, 1.023710e+001
7.165045e+002, 1.022900e+001
7.169866e+002, 1.003246e+001
7.174687e+002, 9.919625e+000
7.179508e+002, 9.974440e+000
7.184329e+002, 1.005266e+001
7.189150e+002, 1.013507e+001
7.193972e+002, 1.017371e+001
7.198793e+002, 1.005107e+001
7.203614e+002, 9.766462e+000
7.208435e+002, 9.545703e+000
7.213256e+002, 9.661030e+000
7.218077e+002, 1.000792e+001
7.222899e+002, 1.014851e+001
7.227720e+002, 1.005368e+001
7.232541e+002, 1.000756e+001
7.237362e+002, 1.013042e+001
7.242183e+002, 1.029238e+001
7.247004e+002, 1.034889e+001
7.251826e+002, 1.030132e+001
7.256647e+002, 1.020689e+001
7.261468e+002, 9.983144e+000
7.266289e+002, 9.815046e+000
7.271110e+002, 9.831515e+000
7.275931e+002, 9.901730e+000
7.280753e+002, 9.856446e+000
7.285574e+002, 9.695426e+000
7.290395e+002, 9.566396e+000
7.295216e+002, 9.594801e+000
7.300037e+002, 9.693731e+000
7.304858e+002, 9.613804e+000
7.309680e+002, 9.343152e+000
7.314501e+002, 9.281253e+000
7.319322e+002, 9.595745e+000
7.324143e+002, 9.919591e+000
7.328964e+002, 9.917303e+000
7.333785e+002, 9.660690e+000
7.338607e+002, 9.550170e+000
7.343428e+002, 9.693766e+000
7.348249e+002, 9.815539e+000
7.353070e+002, 9.851892e+000
7.357891e+002, 9.851911e+000
7.362712e+002, 9.818253e+000
7.367534e+002, 9.785976e+000
7.372355e+002, 9.851577e+000
7.377176e+002, 1.007428e+001
7.381997e+002, 1.030884e+001
7.386818e+002, 1.030546e+001
7.391639e+002, 1.009420e+001
7.396461e+002, 9.980680e+000
7.401282e+002, 1.001382e+001
7.406103e+002, 1.003193e+001
7.410924e+002, 9.946216e+000
7.415745e+002, 9.787792e+000
7.420566e+002, 9.604290e+000
7.425388e+002, 9.348767e+000
7.430209e+002, 9.226748e+000
7.435030e+002, 9.386569e+000
7.439851e+002, 9.546861e+000
7.444672e+002, 9.503162e+000
7.449493e+002, 9.383466e+000
7.454315e+002, 9.425730e+000
7.459136e+002, 9.682110e+000
7.463957e+002, 9.942773e+000
7.468778e+002, 9.977015e+000
7.473599e+002, 9.861722e+000
7.478420e+002, 9.841980e+000
7.483242e+002, 9.920630e+000
7.488063e+002, 9.973256e+000
7.492884e+002, 9.951915e+000
7.497705e+002, 9.906366e+000
7.502526e+002, 9.904925e+000
7.507347e+002, 9.953433e+000
7.512169e+002, 9.920645e+000
7.516990e+002, 9.674535e+000
7.521811e+002, 9.525405e+000
7.526632e+002, 9.655931e+000
7.531453e+002, 9.828654e+000
7.536274e+002, 9.802106e+000
7.541096e+002, 9.598140e+000
7.545917e+002, 9.417391e+000
7.550738e+002, 9.379622e+000
7.555559e+002, 9.403453e+000
7.560380e+002, 9.347673e+000
7.565201e+002, 9.248678e+000
7.570023e+002, 9.300921e+000
7.574844e+002, 9.546964e+000
7.579665e+002, 9.768356e+000
7.584486e+002, 9.807845e+000
7.589307e+002, 9.708893e+000
7.594128e+002, 9.612151e+000
7.598950e+002, 9.442535e+000
7.603771e+002, 9.416286e+000
7.608592e+002, 9.728374e+000
7.613413e+002, 9.968756e+000
7.618234e+002, 9.864919e+000
7.623055e+002, 9.589179e+000
7.627877e+002, 9.419558e+000
7.632698e+002, 9.433853e+000
7.637519e+002, 9.522169e+000
7.642340e+002, 9.682156e+000
7.647161e+002, 9.823655e+000
7.651982e+002, 9.753934e+000
7.656804e+002, 9.511032e+000
7.661625e+002, 9.323046e+000
7.666446e+002, 9.275137e+000
7.671267e+002, 9.341822e+000
7.676088e+002, 9.509595e+000
7.680909e+002, 9.787594e+000
7.685731e+002, 9.956578e+000
7.690552e+002, 9.960726e+000
7.695373e+002, 9.946473e+000
7.700194e+002, 9.949724e+000
7.705015e+002, 9.944375e+000
7.709836e+002, 9.915469e+000
7.714658e+002, 9.860289e+000
7.719479e+002, 9.771952e+000
7.724300e+002, 9.621533e+000
7.729121e+002, 9.473052e+000
7.733942e+002, 9.353285e+000
7.738763e+002, 9.272678e+000
7.743585e+002, 9.282481e+000
7.748406e+002, 9.364445e+000
7.753227e+002, 9.380481e+000
7.758048e+002, 9.226541e+000
7.762869e+002, 9.011840e+000
7.767690e+002, 9.031775e+000
7.772512e+002, 9.343779e+000
7.777333e+002, 9.501788e+000
7.782154e+002, 9.434628e+000
7.786975e+002, 9.288243e+000
7.791796e+002, 9.041332e+000
7.796617e+002, 8.807825e+000
7.801439e+002, 8.804428e+000
7.806260e+002, 9.090354e+000
7.811081e+002, 9.338796e+000
7.815902e+002, 9.494317e+000
7.820723e+002, 9.564838e+000
7.825544e+002, 9.426798e+000
7.830366e+002, 9.253799e+000
7.835187e+002, 9.407587e+000
7.840008e+002, 9.933168e+000
7.844829e+002, 1.040458e+001
7.849650e+002, 1.039345e+001
7.854471e+002, 1.005129e+001
7.859293e+002, 9.829622e+000
7.864114e+002, 9.731364e+000
7.868935e+002, 9.583737e+000
7.873756e+002, 9.303026e+000
7.878577e+002, 9.093137e+000
7.883398e+002, 9.184887e+000
7.888220e+002, 9.530425e+000
7.893040e+002, 9.719189e+000
7.897861e+002, 9.710872e+000
7.902682e+002, 9.612700e+000
7.907504e+002, 9.296630e+000
7.912325e+002, 9.018558e+000
7.917146e+002, 8.968917e+000
7.921967e+002, 9.081550e+000
7.926788e+002, 9.201410e+000
7.931609e+002, 9.276003e+000
7.936431e+002, 9.322512e+000
7.941252e+002, 9.358166e+000
7.946073e+002, 9.375115e+000
7.950894e+002, 9.336020e+000
7.955715e+002, 9.253153e+000
7.960536e+002, 9.223843e+000
7.965358e+002, 9.291957e+000
7.970179e+002, 9.385065e+000
7.975000e+002, 9.383828e+000
7.979821e+002, 9.277108e+000
7.984642e+002, 9.384048e+000
7.989464e+002, 9.956359e+000
7.994285e+002, 1.028686e+001
7.999106e+002, 9.946630e+000
8.003927e+002, 9.500860e+000
8.008748e+002, 9.412210e+000
8.013569e+002, 9.609057e+000
8.018391e+002, 9.674373e+000
8.023212e+002, 9.377071e+000
8.028033e+002, 9.105798e+000
8.032854e+002, 9.140548e+000
8.037675e+002, 9.263302e+000
8.042496e+002, 9.181350e+000
8.047318e+002, 8.927568e+000
8.052139e+002, 8.736745e+000
8.056960e+002, 8.738750e+000
8.061781e+002, 8.836785e+000
8.066602e+002, 8.885228e+000
8.071423e+002, 8.887599e+000
8.076245e+002, 8.870378e+000
8.081066e+002, 8.812425e+000
8.085887e+002, 8.873409e+000
8.090708e+002, 9.214429e+000
8.095529e+002, 9.585140e+000
8.100350e+002, 9.561259e+000
8.105172e+002, 9.045120e+000
8.109993e+002, 8.780198e+000
8.114814e+002, 9.041246e+000
8.119635e+002, 9.201050e+000
8.124456e+002, 8.951435e+000
8.129277e+002, 8.624005e+000
8.134099e+002, 8.541815e+000
8.138920e+002, 8.698395e+000
8.143741e+002, 8.897827e+000
8.148562e+002, 9.075424e+000
8.153383e+002, 9.188313e+000
8.158204e+002, 9.141847e+000
8.163026e+002, 9.007553e+000
8.167847e+002, 8.955781e+000
8.172668e+002, 8.997142e+000
8.177489e+002, 9.015852e+000
8.182310e+002, 8.939570e+000
8.187131e+002, 8.840488e+000
8.191953e+002, 8.872244e+000
8.196774e+002, 9.066044e+000
8.201595e+002, 9.196271e+000
8.206416e+002, 9.263006e+000
8.211237e+002, 9.266519e+000
8.216058e+002, 9.171305e+000
8.220880e+002, 9.036427e+000
8.225701e+002, 8.876040e+000
8.230522e+002, 8.698478e+000
8.235343e+002, 8.711721e+000
8.240164e+002, 9.221666e+000
8.244985e+002, 9.612995e+000
8.249807e+002, 9.471003e+000
8.254628e+002, 9.166825e+000
8.259449e+002, 9.152196e+000
8.264270e+002, 9.402680e+000
8.269091e+002, 9.577651e+000
8.273912e+002, 9.472169e+000
8.278734e+002, 9.279064e+000
8.283555e+002, 9.313657e+000
8.288376e+002, 9.501161e+000
8.293197e+002, 9.494000e+000
8.298018e+002, 9.260896e+000
8.302839e+002, 9.058680e+000
8.307661e+002, 9.013151e+000
8.312482e+002, 9.075430e+000
8.317303e+002, 9.190691e+000
8.322124e+002, 9.392650e+000
8.326945e+002, 9.389316e+000
8.331766e+002, 8.884870e+000
8.336588e+002, 8.605894e+000
8.341409e+002, 8.906347e+000
8.346230e+002, 9.328385e+000
8.351051e+002, 9.511500e+000
8.355872e+002, 9.470427e+000
8.360693e+002, 9.403668e+000
8.365515e+002, 9.391296e+000
8.370336e+002, 9.332396e+000
8.375157e+002, 9.073153e+000
8.379978e+002, 8.803074e+000
8.384799e+002, 8.814783e+000
8.389620e+002, 9.029787e+000
8.394442e+002, 9.101245e+000
8.399263e+002, 8.864465e+000
8.404084e+002, 8.559080e+000
8.408905e+002, 8.548135e+000
8.413726e+002, 8.769748e+000
8.418547e+002, 8.850223e+000
8.423369e+002, 8.773412e+000
8.428190e+002, 8.726926e+000
8.433011e+002, 8.788098e+000
8.437832e+002, 8.877063e+000
8.442653e+002, 8.909404e+000
8.447474e+002, 8.885317e+000
8.452296e+002, 8.804633e+000
8.457117e+002, 8.524397e+000
8.461938e+002, 8.401127e+000
8.466759e+002, 8.599258e+000
8.471580e+002, 8.831741e+000
8.476401e+002, 8.913677e+000
8.481223e+002, 8.892090e+000
8.486044e+002, 8.896039e+000
8.490865e+002, 8.962958e+000
8.495686e+002, 9.035207e+000
8.500507e+002, 9.123135e+000
8.505328e+002, 9.168270e+000
8.510150e+002, 9.056013e+000
8.514971e+002, 8.862137e+000
8.519792e+002, 8.777128e+000
8.524613e+002, 8.851196e+000
8.529434e+002, 8.956772e+000
8.534255e+002, 8.960105e+000
8.539077e+002, 8.906312e+000
8.543898e+002, 8.968077e+000
8.548719e+002, 9.145402e+000
8.553540e+002, 9.180178e+000
8.558361e+002, 8.977855e+000
8.563182e+002, 8.826420e+000
8.568004e+002, 8.982219e+000
8.572825e+002, 9.321845e+000
8.577646e+002, 9.441419e+000
8.582467e+002, 9.202254e+000
8.587288e+002, 9.042239e+000
8.592109e+002, 8.942301e+000
8.596931e+002, 8.940934e+000
8.601752e+002, 9.166857e+000
8.606573e+002, 9.433709e+000
8.611394e+002, 9.493600e+000
8.616215e+002, 9.329659e+000
8.621036e+002, 9.185208e+000
8.625858e+002, 9.182162e+000
8.630679e+002, 9.203508e+000
8.635500e+002, 9.165963e+000
8.640321e+002, 9.104989e+000
8.645142e+002, 9.068754e+000
8.649963e+002, 9.062253e+000
8.654785e+002, 9.071095e+000
8.659606e+002, 9.088002e+000
8.664427e+002, 9.106966e+000
8.669248e+002, 9.116640e+000
8.674069e+002, 9.119557e+000
8.678890e+002, 9.120410e+000
8.683712e+002, 9.118239e+000
8.688533e+002, 9.170828e+000
8.693354e+002, 9.320094e+000
8.698175e+002, 9.469514e+000
8.702996e+002, 9.473254e+000
8.707817e+002, 9.329142e+000
8.712639e+002, 9.309186e+000
8.717459e+002, 9.566876e+000
8.722280e+002, 9.678183e+000
8.727101e+002, 9.431251e+000
8.731923e+002, 9.150066e+000
8.736744e+002, 9.017956e+000
8.741565e+002, 9.002323e+000
8.746386e+002, 9.015788e+000
8.751207e+002, 9.058578e+000
8.756028e+002, 9.087536e+000
8.760850e+002, 9.069007e+000
8.765671e+002, 9.049086e+000
8.770492e+002, 9.039044e+000
8.775313e+002, 9.060685e+000
8.780134e+002, 9.171233e+000
8.784955e+002, 9.367126e+000
8.789777e+002, 9.537760e+000
8.794598e+002, 9.598050e+000
8.799419e+002, 9.581995e+000
8.804240e+002, 9.493371e+000
8.809061e+002, 9.374551e+000
8.813882e+002, 9.442793e+000
8.818704e+002, 9.714646e+000
8.823525e+002, 9.850845e+000
8.828346e+002, 9.616942e+000
8.833167e+002, 9.201139e+000
8.837988e+002, 8.992355e+000
8.842809e+002, 9.010196e+000
8.847631e+002, 9.092001e+000
8.852452e+002, 9.265159e+000
8.857273e+002, 9.439234e+000
8.862094e+002, 9.619955e+000
8.866915e+002, 9.750392e+000
8.871736e+002, 9.745239e+000
8.876558e+002, 9.613560e+000
8.881379e+002, 9.501987e+000
8.886200e+002, 9.388690e+000
8.891021e+002, 9.332158e+000
8.895842e+002, 9.361016e+000
8.900663e+002, 9.431915e+000
8.905485e+002, 9.541333e+000
8.910306e+002, 9.662830e+000
8.915127e+002, 9.759502e+000
8.919948e+002, 9.822985e+000
8.924769e+002, 9.837305e+000
8.929590e+002, 9.731861e+000
8.934412e+002, 9.622986e+000
8.939233e+002, 9.666452e+000
8.944054e+002, 9.794760e+000
8.948875e+002, 9.856924e+000
8.953696e+002, 9.826731e+000
8.958517e+002, 9.782102e+000
8.963339e+002, 9.781076e+000
8.968160e+002, 9.800268e+000
8.972981e+002, 9.769443e+000
8.977802e+002, 9.702168e+000
8.982623e+002, 9.761581e+000
8.987444e+002, 9.975454e+000
8.992266e+002, 1.015538e+001
8.997087e+002, 1.021907e+001
9.001908e+002, 1.018113e+001
9.006729e+002, 1.003450e+001
9.011550e+002, 9.766140e+000
9.016371e+002, 9.701157e+000
9.021193e+002, 1.003778e+001
9.026014e+002, 1.020614e+001
9.030835e+002, 9.911601e+000
9.035656e+002, 9.602695e+000
9.040477e+002, 9.638334e+000
9.045298e+002, 9.887436e+000
9.050120e+002, 9.992783e+000
9.054941e+002, 9.826688e+000
9.059762e+002, 9.775713e+000
9.064583e+002, 1.012122e+001
9.069404e+002, 1.040900e+001
9.074225e+002, 1.028801e+001
9.079047e+002, 9.980762e+000
9.083868e+002, 9.780080e+000
9.088689e+002, 9.744280e+000
9.093510e+002, 9.804540e+000
9.098331e+002, 9.956115e+000
9.103152e+002, 1.013035e+001
9.107974e+002, 1.027315e+001
9.112795e+002, 1.038279e+001
9.117616e+002, 1.046453e+001
9.122437e+002, 1.051117e+001
9.127258e+002, 1.047692e+001
9.132079e+002, 1.033977e+001
9.136901e+002, 1.018867e+001
9.141722e+002, 1.015634e+001
9.146543e+002, 1.021664e+001
9.151364e+002, 1.020211e+001
9.156185e+002, 1.010851e+001
9.161006e+002, 1.006795e+001
9.165828e+002, 1.012133e+001
9.170649e+002, 1.020566e+001
9.175470e+002, 1.029014e+001
9.180291e+002, 1.034652e+001
9.185112e+002, 1.025725e+001
9.189933e+002, 9.913305e+000
9.194755e+002, 9.700292e+000
9.199576e+002, 9.652980e+000
9.204397e+002, 9.688838e+000
9.209218e+002, 9.862494e+000
9.214039e+002, 1.004747e+001
9.218860e+002, 1.010686e+001
9.223682e+002, 1.004111e+001
9.228503e+002, 9.923263e+000
9.233324e+002, 9.615191e+000
9.238145e+002, 9.456537e+000
9.242966e+002, 9.718038e+000
9.247787e+002, 1.000824e+001
9.252609e+002, 9.969641e+000
9.257430e+002, 9.728292e+000
9.262251e+002, 9.580157e+000
9.267072e+002, 9.611749e+000
9.271893e+002, 9.738226e+000
9.276714e+002, 1.002489e+001
9.281536e+002, 1.027158e+001
9.286357e+002, 1.019218e+001
9.291178e+002, 9.950194e+000
9.295999e+002, 9.899298e+000
9.300820e+002, 1.006107e+001
9.305641e+002, 1.015551e+001
9.310463e+002, 9.990036e+000
9.315284e+002, 9.750284e+000
9.320105e+002, 9.742170e+000
9.324926e+002, 9.913778e+000
9.329747e+002, 1.009004e+001
9.334568e+002, 1.025265e+001
9.339390e+002, 1.024289e+001
9.344211e+002, 9.984814e+000
9.349032e+002, 9.714895e+000
9.353853e+002, 9.698089e+000
9.358674e+002, 9.890795e+000
9.363495e+002, 1.004081e+001
9.368317e+002, 1.014229e+001
9.373138e+002, 1.023820e+001
9.377959e+002, 1.037801e+001
9.382780e+002, 1.040282e+001
9.387601e+002, 1.013012e+001
9.392422e+002, 9.764654e+000
9.397244e+002, 9.671551e+000
9.402065e+002, 9.884000e+000
9.406886e+002, 1.017313e+001
9.411707e+002, 1.075207e+001
9.416528e+002, 1.111502e+001
9.421349e+002, 1.095520e+001
9.426171e+002, 1.073829e+001
9.430992e+002, 1.089265e+001
9.435813e+002, 1.125476e+001
9.440634e+002, 1.132384e+001
9.445455e+002, 1.088489e+001
9.450276e+002, 1.060901e+001
9.455098e+002, 1.083790e+001
9.459919e+002, 1.119522e+001
9.464740e+002, 1.147037e+001
9.469561e+002, 1.169747e+001
9.474382e+002, 1.194630e+001
9.479203e+002, 1.221907e+001
9.484025e+002, 1.246877e+001
9.488846e+002, 1.267173e+001
9.493667e+002, 1.283921e+001
9.498488e+002, 1.293711e+001
9.503309e+002, 1.303344e+001
9.508130e+002, 1.327512e+001
9.512952e+002, 1.361489e+001
9.517773e+002, 1.386344e+001
9.522594e+002, 1.396319e+001
9.527415e+002, 1.404300e+001
9.532236e+002, 1.422800e+001
9.537057e+002, 1.448016e+001
9.541878e+002, 1.471296e+001
9.546699e+002, 1.492895e+001
9.551520e+002, 1.513310e+001
9.556342e+002, 1.532770e+001
9.561163e+002, 1.556464e+001
9.565984e+002, 1.587278e+001
9.570805e+002, 1.624119e+001
9.575626e+002, 1.666084e+001
9.580447e+002, 1.713299e+001
9.585269e+002, 1.758291e+001
9.590090e+002, 1.805939e+001
9.594911e+002, 1.828956e+001
9.599732e+002, 1.813732e+001
9.604553e+002, 1.789989e+001
9.609374e+002, 1.777486e+001
9.614196e+002, 1.774446e+001
9.619017e+002, 1.777304e+001
9.623838e+002, 1.792573e+001
9.628659e+002, 1.793488e+001
9.633480e+002, 1.771287e+001
9.638301e+002, 1.746400e+001
9.643123e+002, 1.730212e+001
9.647944e+002, 1.708897e+001
9.652765e+002, 1.665655e+001
9.657586e+002, 1.605652e+001
9.662407e+002, 1.553516e+001
9.667228e+002, 1.514454e+001
9.672050e+002, 1.478619e+001
9.676871e+002, 1.444536e+001
9.681692e+002, 1.412434e+001
9.686513e+002, 1.386624e+001
9.691334e+002, 1.360635e+001
9.696155e+002, 1.320708e+001
9.700977e+002, 1.269096e+001
9.705798e+002, 1.233215e+001
9.710619e+002, 1.238293e+001
9.715440e+002, 1.240860e+001
9.720261e+002, 1.201438e+001
9.725082e+002, 1.155132e+001
9.729904e+002, 1.142344e+001
9.734725e+002, 1.153899e+001
9.739546e+002, 1.163985e+001
9.744367e+002, 1.164064e+001
9.749188e+002, 1.156921e+001
9.754009e+002, 1.142008e+001
9.758831e+002, 1.124070e+001
9.763652e+002, 1.108828e+001
9.768473e+002, 1.095630e+001
9.773294e+002, 1.081526e+001
9.778115e+002, 1.067385e+001
9.782936e+002, 1.057913e+001
9.787758e+002, 1.055305e+001
9.792579e+002, 1.062496e+001
9.797400e+002, 1.091829e+001
9.802221e+002, 1.130853e+001
9.807042e+002, 1.130934e+001
9.811863e+002, 1.097386e+001
9.816685e+002, 1.072062e+001
9.821506e+002, 1.063323e+001
9.826327e+002, 1.063854e+001
9.831148e+002, 1.069092e+001
9.835969e+002, 1.080333e+001
9.840790e+002, 1.103678e+001
9.845612e+002, 1.139303e+001
9.850433e+002, 1.156200e+001
9.855254e+002, 1.152273e+001
9.860075e+002, 1.139728e+001
9.864896e+002, 1.118092e+001
9.869717e+002, 1.100105e+001
9.874539e+002, 1.096497e+001
9.879360e+002, 1.104107e+001
9.884181e+002, 1.113529e+001
9.889002e+002, 1.125778e+001
9.893823e+002, 1.135817e+001
9.898644e+002, 1.141271e+001
9.903466e+002, 1.149275e+001
9.908287e+002, 1.164490e+001
9.913108e+002, 1.180439e+001
9.917929e+002, 1.188915e+001
9.922750e+002, 1.192134e+001
9.927571e+002, 1.203582e+001
9.932393e+002, 1.233346e+001
9.937214e+002, 1.253106e+001
9.942035e+002, 1.253800e+001
9.946856e+002, 1.254953e+001
9.951677e+002, 1.265558e+001
9.956498e+002, 1.279289e+001
9.961320e+002, 1.288097e+001
9.966141e+002, 1.292789e+001
9.970962e+002, 1.301618e+001
9.975783e+002, 1.313178e+001
9.980604e+002, 1.333843e+001
9.985425e+002, 1.372888e+001
9.990247e+002, 1.413403e+001
9.995068e+002, 1.440251e+001
9.999889e+002, 1.463929e+001
1.000471e+003, 1.497778e+001
1.000953e+003, 1.544327e+001
1.001435e+003, 1.603350e+001
1.001917e+003, 1.684036e+001
1.002399e+003, 1.762746e+001
1.002882e+003, 1.817720e+001
1.003364e+003, 1.872339e+001
1.003846e+003, 1.947268e+001
1.004328e+003, 2.040083e+001
1.004810e+003, 2.145898e+001
1.005292e+003, 2.262024e+001
1.005774e+003, 2.378485e+001
1.006256e+003, 2.477969e+001
1.006739e+003, 2.591259e+001
1.007221e+003, 2.763542e+001
1.007703e+003, 2.957001e+001
1.008185e+003, 3.117749e+001
1.008667e+003, 3.249303e+001
1.009149e+003, 3.377917e+001
1.009631e+003, 3.512839e+001
1.010113e+003, 3.651493e+001
1.010595e+003, 3.794192e+001
1.011078e+003, 3.935041e+001
1.011560e+003, 4.075248e+001
1.012042e+003, 4.203252e+001
1.012524e+003, 4.277858e+001
1.013006e+003, 4.308945e+001
1.013488e+003, 4.367231e+001
1.013970e+003, 4.482885e+001
1.014452e+003, 4.599751e+001
1.014935e+003, 4.666240e+001
1.015417e+003, 4.678595e+001
1.015899e+003, 4.614767e+001
1.016381e+003, 4.486279e+001
1.016863e+003, 4.345871e+001
1.017345e+003, 4.202042e+001
1.017827e+003, 4.044557e+001
1.018309e+003, 3.868128e+001
1.018791e+003, 3.678717e+001
1.019274e+003, 3.484190e+001
1.019756e+003, 3.284121e+001
1.020238e+003, 3.061380e+001
1.020720e+003, 2.818998e+001
1.021202e+003, 2.622150e+001
1.021684e+003, 2.483401e+001
1.022166e+003, 2.362477e+001
1.022648e+003, 2.236372e+001
1.023130e+003, 2.113781e+001
1.023613e+003, 2.008349e+001
1.024095e+003, 1.919353e+001
1.024577e+003, 1.836678e+001
1.025059e+003, 1.759776e+001
1.025541e+003, 1.697430e+001
1.026023e+003, 1.652892e+001
1.026505e+003, 1.614917e+001
1.026987e+003, 1.576826e+001
1.027469e+003, 1.540120e+001
1.027952e+003, 1.507982e+001
1.028434e+003, 1.480315e+001
1.028916e+003, 1.454727e+001
1.029398e+003, 1.432461e+001
1.029880e+003, 1.406989e+001
1.030362e+003, 1.374632e+001
1.030844e+003, 1.344097e+001
1.031326e+003, 1.319309e+001
1.031809e+003, 1.302208e+001
1.032291e+003, 1.298995e+001
1.032773e+003, 1.313077e+001
1.033255e+003, 1.311489e+001
1.033737e+003, 1.284606e+001
1.034219e+003, 1.263557e+001
1.034701e+003, 1.259270e+001
1.035183e+003, 1.254574e+001
1.035666e+003, 1.241088e+001
1.036148e+003, 1.217664e+001
1.036630e+003, 1.176233e+001
1.037112e+003, 1.106463e+001
1.037594e+003, 1.077459e+001
1.038076e+003, 1.117103e+001
1.038558e+003, 1.153145e+001
1.039040e+003, 1.171367e+001
1.039522e+003, 1.184511e+001
1.040005e+003, 1.208009e+001
1.040487e+003, 1.229845e+001
1.040969e+003, 1.220354e+001
1.041451e+003, 1.170603e+001
1.041933e+003, 1.136831e+001
1.042415e+003, 1.127863e+001
1.042897e+003, 1.123872e+001
1.043379e+003, 1.122485e+001
1.043861e+003, 1.123725e+001
1.044344e+003, 1.130663e+001
1.044826e+003, 1.139297e+001
1.045308e+003, 1.142190e+001
1.045790e+003, 1.138706e+001
1.046272e+003, 1.130730e+001
1.046754e+003, 1.106876e+001
1.047236e+003, 1.094593e+001
1.047718e+003, 1.104843e+001
1.048201e+003, 1.124725e+001
1.048683e+003, 1.156646e+001
1.049165e+003, 1.187621e+001
1.049647e+003, 1.188600e+001
1.050129e+003, 1.152122e+001
1.050611e+003, 1.137709e+001
1.051093e+003, 1.180219e+001
1.051575e+003, 1.214340e+001
1.052057e+003, 1.213998e+001
1.052540e+003, 1.205047e+001
1.053022e+003, 1.209870e+001
1.053504e+003, 1.218504e+001
1.053986e+003, 1.207257e+001
1.054468e+003, 1.172130e+001
1.054950e+003, 1.146586e+001
1.055432e+003, 1.144467e+001
1.055914e+003, 1.146493e+001
1.056396e+003, 1.152520e+001
1.056879e+003, 1.154081e+001
1.057361e+003, 1.137726e+001
1.057843e+003, 1.115528e+001
1.058325e+003, 1.113925e+001
1.058807e+003, 1.135978e+001
1.059289e+003, 1.140200e+001
1.059771e+003, 1.100162e+001
1.060253e+003, 1.057494e+001
1.060736e+003, 1.019873e+001
1.061218e+003, 9.932853e+000
1.061700e+003, 9.860355e+000
1.062182e+003, 9.909101e+000
1.062664e+003, 9.998239e+000
1.063146e+003, 1.010104e+001
1.063628e+003, 1.010488e+001
1.064110e+003, 9.903878e+000
1.064593e+003, 9.689027e+000
1.065075e+003, 9.500051e+000
1.065557e+003, 9.365092e+000
1.066039e+003, 9.313115e+000
1.066521e+003, 9.325853e+000
1.067003e+003, 9.397092e+000
1.067485e+003, 9.512578e+000
1.067967e+003, 9.592775e+000
1.068449e+003, 9.598565e+000
1.068932e+003, 9.580430e+000
1.069414e+003, 9.564959e+000
1.069896e+003, 9.529874e+000
1.070378e+003, 9.408509e+000
1.070860e+003, 9.284930e+000
1.071342e+003, 9.299757e+000
1.071824e+003, 9.446069e+000
1.072306e+003, 9.563649e+000
1.072788e+003, 9.584564e+000
1.073271e+003, 9.589788e+000
1.073753e+003, 9.623248e+000
1.074235e+003, 9.647837e+000
1.074717e+003, 9.624568e+000
1.075199e+003, 9.583569e+000
1.075681e+003, 9.561401e+000
1.076163e+003, 9.562681e+000
1.076645e+003, 9.580670e+000
1.077127e+003, 9.620554e+000
1.077610e+003, 9.652663e+000
1.078092e+003, 9.642683e+000
1.078574e+003, 9.643012e+000
1.079056e+003, 9.726871e+000
1.079538e+003, 9.815107e+000
1.080020e+003, 9.804396e+000
1.080502e+003, 9.707351e+000
1.080984e+003, 9.597207e+000
1.081467e+003, 9.484696e+000
1.081949e+003, 9.421171e+000
1.082431e+003, 9.465078e+000
1.082913e+003, 9.523408e+000
1.083395e+003, 9.586550e+000
1.083877e+003, 9.597981e+000
1.084359e+003, 9.411798e+000
1.084841e+003, 9.138119e+000
1.085323e+003, 9.106909e+000
1.085806e+003, 9.437225e+000
1.086288e+003, 9.671574e+000
1.086770e+003, 9.586295e+000
1.087252e+003, 9.394302e+000
1.087734e+003, 9.083616e+000
1.088216e+003, 8.822162e+000
1.088698e+003, 8.776827e+000
1.089180e+003, 8.898295e+000
1.089662e+003, 9.080830e+000
1.090145e+003, 9.303695e+000
1.090627e+003, 9.495963e+000
1.091109e+003, 9.684679e+000
1.091591e+003, 9.767809e+000
1.092073e+003, 9.643838e+000
1.092555e+003, 9.453845e+000
1.093037e+003, 9.257071e+000
1.093519e+003, 9.097806e+000
1.094002e+003, 9.035062e+000
1.094484e+003, 9.074136e+000
1.094966e+003, 9.160845e+000
1.095448e+003, 9.291883e+000
1.095930e+003, 9.447894e+000
1.096412e+003, 9.647866e+000
1.096894e+003, 9.843401e+000
1.097376e+003, 1.005307e+001
1.097859e+003, 1.021112e+001
1.098341e+003, 1.021140e+001
1.098823e+003, 1.006737e+001
1.099305e+003, 9.920074e+000
1.099787e+003, 9.753707e+000
1.100269e+003, 9.687213e+000
1.100751e+003, 9.831141e+000
1.101233e+003, 9.987238e+000
1.101715e+003, 1.010344e+001
1.102198e+003, 1.014855e+001
1.102680e+003, 1.002450e+001
1.103162e+003, 9.801808e+000
1.103644e+003, 9.746840e+000
1.104126e+003, 9.954807e+000
1.104608e+003, 1.014774e+001
1.105090e+003, 1.030663e+001
1.105572e+003, 1.040396e+001
1.106054e+003, 1.038402e+001
1.106537e+003, 1.034181e+001
1.107019e+003, 1.035497e+001
1.107501e+003, 1.040518e+001
1.107983e+003, 1.045266e+001
1.108465e+003, 1.050830e+001
1.108947e+003, 1.048096e+001
1.109429e+003, 1.022128e+001
1.109911e+003, 1.007931e+001
1.110394e+003, 1.024359e+001
1.110876e+003, 1.041988e+001
1.111358e+003, 1.040993e+001
1.111840e+003, 1.030854e+001
1.112322e+003, 1.027405e+001
1.112804e+003, 1.031204e+001
1.113286e+003, 1.033863e+001
1.113768e+003, 1.042681e+001
1.114250e+003, 1.037875e+001
1.114733e+003, 1.005191e+001
1.115215e+003, 9.763227e+000
1.115697e+003, 9.655160e+000
1.116179e+003, 9.644183e+000
1.116661e+003, 9.644217e+000
1.117143e+003, 9.656083e+000
1.117625e+003, 9.693008e+000
1.118107e+003, 9.826220e+000
1.118589e+003, 9.811581e+000
1.119072e+003, 9.603303e+000
1.119554e+003, 9.321408e+000
1.120036e+003, 8.915848e+000
1.120518e+003, 8.590330e+000
1.121000e+003, 8.526221e+000
1.121482e+003, 8.670936e+000
1.121964e+003, 8.894134e+000
1.122446e+003, 9.238333e+000
1.122929e+003, 9.387403e+000
1.123411e+003, 9.283797e+000
1.123893e+003, 9.173810e+000
1.124375e+003, 9.091794e+000
1.124857e+003, 9.075543e+000
1.125339e+003, 9.174227e+000
1.125821e+003, 9.296698e+000
1.126303e+003, 9.271516e+000
1.126786e+003, 9.111221e+000
1.127268e+003, 9.044433e+000
1.127750e+003, 9.074292e+000
1.128232e+003, 9.177304e+000
1.128714e+003, 9.355722e+000
1.129196e+003, 9.582042e+000
1.129678e+003, 9.859160e+000
1.130160e+003, 1.008379e+001
1.130642e+003, 1.013317e+001
1.131125e+003, 1.004159e+001
1.131607e+003, 9.884451e+000
1.132089e+003, 9.674228e+000
1.132571e+003, 9.684254e+000
1.133053e+003, 9.920823e+000
1.133535e+003, 1.001303e+001
1.134017e+003, 9.847981e+000
1.134499e+003, 9.665800e+000
1.134981e+003, 9.648496e+000
1.135464e+003, 9.747035e+000
1.135946e+003, 9.937756e+000
1.136428e+003, 1.016078e+001
1.136910e+003, 1.013138e+001
1.137392e+003, 9.908587e+000
1.137874e+003, 9.803857e+000
1.138356e+003, 9.858881e+000
1.138838e+003, 9.901819e+000
1.139321e+003, 9.844348e+000
1.139803e+003, 9.784389e+000
1.140285e+003, 9.826237e+000
1.140767e+003, 9.943937e+000
1.141249e+003, 1.013551e+001
1.141731e+003, 1.034714e+001
1.142213e+003, 1.043777e+001
1.142695e+003, 1.043191e+001
1.143177e+003, 1.048224e+001
1.143660e+003, 1.062165e+001
1.144142e+003, 1.068392e+001
1.144624e+003, 1.050882e+001
1.145106e+003, 1.031190e+001
1.145588e+003, 1.031865e+001
1.146070e+003, 1.043396e+001
1.146552e+003, 1.063409e+001
1.147034e+003, 1.080644e+001
1.147516e+003, 1.070814e+001
1.147999e+003, 1.037607e+001
1.148481e+003, 1.013800e+001
1.148963e+003, 1.015094e+001
1.149445e+003, 1.014971e+001
1.149927e+003, 9.884164e+000
1.150409e+003, 9.638682e+000
1.150891e+003, 9.654888e+000
1.151373e+003, 9.770392e+000
1.151856e+003, 9.856724e+000
1.152338e+003, 9.874747e+000
1.152820e+003, 9.758136e+000
1.153302e+003, 9.494411e+000
1.153784e+003, 9.292530e+000
1.154266e+003, 9.287221e+000
1.154748e+003, 9.261564e+000
1.155230e+003, 9.106375e+000
1.155713e+003, 8.950740e+000
1.156195e+003, 8.841375e+000
1.156677e+003, 8.800559e+000
1.157159e+003, 8.869909e+000
1.157641e+003, 9.035837e+000
1.158123e+003, 9.202894e+000
1.158605e+003, 9.420679e+000
1.159087e+003, 9.516341e+000
1.159569e+003, 9.396372e+000
1.160052e+003, 9.266699e+000
1.160534e+003, 9.173007e+000
1.161016e+003, 9.096182e+000
1.161498e+003, 9.006576e+000
1.161980e+003, 8.934152e+000
1.162462e+003, 8.960753e+000
1.162944e+003, 9.105105e+000
1.163426e+003, 9.136479e+000
1.163908e+003, 8.991196e+000
1.164391e+003, 8.920765e+000
1.164873e+003, 8.970441e+000
1.165355e+003, 9.065334e+000
1.165837e+003, 9.183477e+000
1.166319e+003, 9.300073e+000
1.166801e+003, 9.392079e+000
1.167283e+003, 9.451972e+000
1.167765e+003, 9.438997e+000
1.168247e+003, 9.350142e+000
1.168730e+003, 9.256745e+000
1.169212e+003, 9.158434e+000
1.169694e+003, 9.238875e+000
1.170176e+003, 9.553850e+000
1.170658e+003, 9.787145e+000
1.171140e+003, 9.715638e+000
1.171622e+003, 9.475210e+000
1.172104e+003, 9.207467e+000
1.172587e+003, 8.977713e+000
1.173069e+003, 9.077153e+000
1.173551e+003, 9.406956e+000
1.174033e+003, 9.608060e+000
1.174515e+003, 9.642035e+000
1.174997e+003, 9.580824e+000
1.175479e+003, 9.459667e+000
1.175961e+003, 9.352976e+000
1.176443e+003, 9.344806e+000
1.176926e+003, 9.328322e+000
1.177408e+003, 9.097820e+000
1.177890e+003, 8.828053e+000
1.178372e+003, 8.762982e+000
1.178854e+003, 8.865377e+000
1.179336e+003, 9.079219e+000
1.179818e+003, 9.350402e+000
1.180300e+003, 9.553584e+000
1.180782e+003, 9.639868e+000
1.181265e+003, 9.633671e+000
1.181747e+003, 9.474984e+000
1.182229e+003, 9.318528e+000
1.182711e+003, 9.273586e+000
1.183193e+003, 9.272280e+000
1.183675e+003, 9.231137e+000
1.184157e+003, 9.189553e+000
1.184639e+003, 9.251013e+000
1.185122e+003, 9.421874e+000
1.185604e+003, 9.542937e+000
1.186086e+003, 9.558627e+000
1.186568e+003, 9.554600e+000
1.187050e+003, 9.515789e+000
1.187532e+003, 9.496367e+000
1.188014e+003, 9.551579e+000
1.188496e+003, 9.607672e+000
1.188979e+003, 9.592059e+000
1.189461e+003, 9.524652e+000
1.189943e+003, 9.450155e+000
1.190425e+003, 9.346056e+000
1.190907e+003, 9.386850e+000
1.191389e+003, 9.680280e+000
1.191871e+003, 9.792018e+000
1.192353e+003, 9.570426e+000
1.192835e+003, 9.417078e+000
1.193318e+003, 9.560510e+000
1.193800e+003, 9.787045e+000
1.194282e+003, 9.840423e+000
1.194764e+003, 9.752890e+000
1.195246e+003, 9.621703e+000
1.195728e+003, 9.452129e+000
1.196210e+003, 9.408905e+000
1.196692e+003, 9.493778e+000
1.197174e+003, 9.575323e+000
1.197657e+003, 9.621855e+000
1.198139e+003, 9.715623e+000
1.198621e+003, 9.916294e+000
1.199103e+003, 1.005940e+001
1.199585e+003, 9.845736e+000
1.200067e+003, 9.483527e+000
1.200549e+003, 9.399639e+000
1.201031e+003, 9.489188e+000
1.201514e+003, 9.549498e+000
1.201996e+003, 9.556472e+000
1.202478e+003, 9.504304e+000
1.202960e+003, 9.407808e+000
1.203442e+003, 9.368758e+000
1.203924e+003, 9.468331e+000
1.204406e+003, 9.575223e+000
1.204888e+003, 9.541312e+000
1.205370e+003, 9.525589e+000
1.205853e+003, 9.747895e+000
1.206335e+003, 9.999413e+000
1.206817e+003, 9.969340e+000
1.207299e+003, 9.757941e+000
1.207781e+003, 9.703459e+000
1.208263e+003, 9.883005e+000
1.208745e+003, 1.001691e+001
1.209227e+003, 1.003160e+001
1.209709e+003, 1.000413e+001
1.210192e+003, 9.958228e+000
1.210674e+003, 9.864212e+000
1.211156e+003, 9.643674e+000
1.211638e+003, 9.420427e+000
1.212120e+003, 9.293214e+000
1.212602e+003, 9.272060e+000
1.213084e+003, 9.426496e+000
1.213566e+003, 9.842441e+000
1.214049e+003, 9.969052e+000
1.214531e+003, 9.702878e+000
1.215013e+003, 9.570589e+000
1.215495e+003, 9.695993e+000
1.215977e+003, 9.850543e+000
1.216459e+003, 9.924976e+000
1.216941e+003, 9.901383e+000
1.217423e+003, 9.727068e+000
1.217906e+003, 9.487946e+000
1.218388e+003, 9.476460e+000
1.218870e+003, 9.644979e+000
1.219352e+003, 9.745126e+000
1.219834e+003, 9.785244e+000
1.220316e+003, 9.943195e+000
1.220798e+003, 1.021429e+001
1.221280e+003, 1.026746e+001
1.221762e+003, 9.915218e+000
1.222245e+003, 9.523427e+000
1.222727e+003, 9.494185e+000
1.223209e+003, 9.584979e+000
1.223691e+003, 9.498691e+000
1.224173e+003, 9.378330e+000
1.224655e+003, 9.397940e+000
1.225137e+003, 9.541401e+000
1.225619e+003, 9.801744e+000
1.226101e+003, 1.012981e+001
1.226584e+003, 1.030710e+001
1.227066e+003, 1.020580e+001
1.227548e+003, 1.010040e+001
1.228030e+003, 1.010295e+001
1.228512e+003, 1.009623e+001
1.228994e+003, 1.001370e+001
1.229476e+003, 9.920131e+000
1.229958e+003, 9.805812e+000
1.230441e+003, 9.748754e+000
1.230923e+003, 9.928262e+000
1.231405e+003, 1.033267e+001
1.231887e+003, 1.053061e+001
1.232369e+003, 1.046278e+001
1.232851e+003, 1.035875e+001
1.233333e+003, 1.020444e+001
1.233815e+003, 1.010685e+001
1.234297e+003, 1.011497e+001
1.234780e+003, 1.010550e+001
1.235262e+003, 9.981342e+000
1.235744e+003, 9.817201e+000
1.236226e+003, 9.730860e+000
1.236708e+003, 9.719782e+000
1.237190e+003, 9.795515e+000
1.237672e+003, 9.935922e+000
1.238154e+003, 1.010719e+001
1.238636e+003, 1.025325e+001
1.239119e+003, 1.004992e+001
1.239601e+003, 9.484480e+000
1.240083e+003, 9.190173e+000
1.240565e+003, 9.628773e+000
1.241047e+003, 1.014837e+001
1.241529e+003, 1.005537e+001
1.242011e+003, 9.810906e+000
1.242493e+003, 9.871034e+000
1.242975e+003, 1.004734e+001
1.243458e+003, 1.006720e+001
1.243940e+003, 1.000849e+001
1.244422e+003, 1.012616e+001
1.244904e+003, 1.044069e+001
1.245386e+003, 1.062906e+001
1.245868e+003, 1.056137e+001
1.246350e+003, 1.044763e+001
1.246832e+003, 1.023437e+001
1.247315e+003, 1.010127e+001
1.247797e+003, 1.013845e+001
1.248279e+003, 1.024042e+001
1.248761e+003, 1.035621e+001
1.249243e+003, 1.046866e+001
1.249725e+003, 1.055434e+001
1.250207e+003, 1.061001e+001
1.250689e+003, 1.056757e+001
1.251172e+003, 1.041185e+001
1.251654e+003, 1.032498e+001
1.252136e+003, 1.032197e+001
1.252618e+003, 1.034694e+001
1.253100e+003, 1.038291e+001
1.253582e+003, 1.042334e+001
1.254064e+003, 1.046525e+001
1.254546e+003, 1.049238e+001
1.255028e+003, 1.050742e+001
1.255510e+003, 1.047247e+001
1.255993e+003, 1.023104e+001
1.256475e+003, 9.934197e+000
1.256957e+003, 9.908042e+000
1.257439e+003, 1.006855e+001
1.257921e+003, 1.012632e+001
1.258403e+003, 1.004746e+001
1.258885e+003, 1.006194e+001
1.259367e+003, 1.031110e+001
1.259850e+003, 1.049348e+001
1.260332e+003, 1.038930e+001
1.260814e+003, 1.029061e+001
1.261296e+003, 1.036925e+001
1.261778e+003, 1.047235e+001
1.262260e+003, 1.047778e+001
1.262742e+003, 1.043048e+001
1.263224e+003, 1.041705e+001
1.263707e+003, 1.042860e+001
1.264189e+003, 1.038188e+001
1.264671e+003, 1.025230e+001
1.265153e+003, 1.011989e+001
1.265635e+003, 9.930141e+000
1.266117e+003, 1.004817e+001
1.266599e+003, 1.062000e+001
1.267081e+003, 1.103842e+001
1.267563e+003, 1.095017e+001
1.268046e+003, 1.068992e+001
1.268528e+003, 1.065230e+001
1.269010e+003, 1.073883e+001
1.269492e+003, 1.071690e+001
1.269974e+003, 1.063743e+001
1.270456e+003, 1.065256e+001
1.270938e+003, 1.071814e+001
1.271420e+003, 1.069152e+001
1.271902e+003, 1.056664e+001
1.272385e+003, 1.041184e+001
1.272867e+003, 1.025320e+001
1.273349e+003, 1.016858e+001
1.273831e+003, 1.020181e+001
1.274313e+003, 1.032321e+001
1.274795e+003, 1.065306e+001
1.275277e+003, 1.091352e+001
1.275759e+003, 1.091860e+001
1.276242e+003, 1.075659e+001
1.276724e+003, 1.040684e+001
1.277206e+003, 1.000313e+001
1.277688e+003, 9.975167e+000
1.278170e+003, 1.037970e+001
1.278652e+003, 1.063467e+001
1.279134e+003, 1.070634e+001
1.279616e+003, 1.074297e+001
1.280099e+003, 1.075077e+001
1.280581e+003, 1.078259e+001
1.281063e+003, 1.086600e+001
1.281545e+003, 1.089250e+001
1.282027e+003, 1.076829e+001
1.282509e+003, 1.058174e+001
1.282991e+003, 1.046119e+001
1.283473e+003, 1.040304e+001
1.283955e+003, 1.040250e+001
##END=



