##NAMES=Bobfergusonite
##RRUFFID=R160069
##IDEAL CHEMISTRY=[box]Na_2_Mn^2+^_5_Fe^3+^Al(PO_4_)_6_
##LOCALITY=Nancy Pegmatite, Chacabuco Dept, San Luis, Argentina
##OWNER=RRUFF
##SOURCE=Thomas A. Loomis
##DESCRIPTION=Dark brown massive, associated with dark green dicksonite (R160071)
##STATUS=The identification of this mineral has been confirmed only by single crystal X-ray diffraction.
##URL=rruff.info/R160069
##MEASURED CHEMISTRY=(Na_1.64_Ca_0.16_)_Σ1.82_(Mn_3.27_Fe^2+^_1.03_Mg_0.69_)_Σ4.99_Fe^3+^_1.00_(Al_0.59_Fe^3+^_0.41_)_Σ1.00_(PO_4_)_6_  ; Grey phase. Lighter grey phase is dickinsonite (R160071).
89.01367, 368.9057
89.49579, 369.4880
89.97791, 369.8725
90.46002, 369.8549
90.94214, 370.4422
91.42426, 373.4484
91.90637, 378.5868
92.38849, 382.2984
92.87061, 381.2278
93.35272, 376.6761
93.83484, 371.9520
94.31696, 367.5445
94.79907, 363.5853
95.28119, 361.1338
95.76331, 360.6779
96.24542, 360.1410
96.72754, 356.8390
97.20966, 350.8447
97.69177, 345.5960
98.17389, 342.0537
98.65601, 340.1007
99.13812, 339.0264
99.62024, 339.0407
100.1024, 339.4286
100.5845, 339.1815
101.0666, 338.2342
101.5487, 336.9849
102.0308, 335.4053
102.5129, 333.2311
102.9951, 331.9221
103.4772, 331.4842
103.9593, 331.8658
104.4414, 333.0073
104.9235, 335.1080
105.4056, 337.6585
105.8878, 340.3955
106.3699, 342.5018
106.8520, 346.1517
107.3341, 352.6834
107.8162, 361.2599
108.2983, 367.2147
108.7805, 369.6429
109.2626, 370.3163
109.7447, 370.1831
110.2268, 367.9683
110.7089, 366.4218
111.1910, 365.9299
111.6732, 366.4595
112.1553, 367.3502
112.6374, 368.3826
113.1195, 369.7782
113.6016, 371.7310
114.0837, 374.8094
114.5659, 377.9431
115.0480, 380.8900
115.5301, 383.6971
116.0122, 386.0832
116.4943, 388.0806
116.9764, 389.6099
117.4586, 390.5665
117.9407, 391.0211
118.4228, 390.8275
118.9049, 389.7634
119.3870, 387.6791
119.8691, 385.2930
120.3513, 382.8221
120.8334, 380.3621
121.3155, 378.1409
121.7976, 375.5220
122.2797, 373.5061
122.7618, 373.3879
123.2440, 375.8973
123.7261, 378.9941
124.2082, 381.2928
124.6903, 382.6930
125.1724, 382.7684
125.6545, 380.3264
126.1367, 376.4627
126.6188, 373.1406
127.1009, 370.7129
127.5830, 369.0646
128.0651, 367.9468
128.5472, 367.3755
129.0294, 367.6578
129.5115, 369.9464
129.9936, 373.5684
130.4757, 375.7553
130.9578, 375.3173
131.4399, 373.2306
131.9221, 372.2613
132.4042, 372.5642
132.8863, 372.8876
133.3684, 371.6932
133.8505, 369.0133
134.3326, 366.8080
134.8148, 365.8246
135.2969, 365.8836
135.7790, 365.6055
136.2611, 364.8554
136.7432, 364.0871
137.2253, 363.8668
137.7075, 364.2755
138.1896, 364.8105
138.6717, 365.1060
139.1538, 365.0526
139.6359, 366.4575
140.1180, 370.2243
140.6002, 374.5140
141.0823, 376.1502
141.5644, 374.2095
142.0465, 371.6800
142.5286, 369.4478
143.0107, 367.3461
143.4929, 366.2129
143.9750, 366.5270
144.4571, 367.6654
144.9392, 368.1278
145.4213, 367.2396
145.9034, 366.5512
146.3856, 366.7185
146.8677, 368.4488
147.3498, 369.8609
147.8319, 371.0728
148.3140, 371.9907
148.7961, 372.3016
149.2783, 371.3345
149.7604, 370.2969
150.2425, 369.7082
150.7246, 369.8315
151.2067, 370.0885
151.6888, 370.4040
152.1710, 370.8148
152.6531, 371.5162
153.1352, 372.7404
153.6173, 374.1132
154.0994, 375.4302
154.5815, 376.5386
155.0637, 377.7245
155.5458, 379.4765
156.0279, 381.6074
156.5100, 382.6127
156.9921, 381.1715
157.4742, 379.0215
157.9564, 377.4185
158.4385, 377.0824
158.9206, 376.9217
159.4027, 376.5428
159.8848, 375.9673
160.3669, 375.6915
160.8491, 376.1006
161.3312, 376.8014
161.8133, 377.4402
162.2954, 377.8618
162.7775, 378.2200
163.2596, 378.6672
163.7418, 379.2048
164.2239, 379.4697
164.7060, 379.1152
165.1881, 378.4186
165.6702, 377.7307
166.1523, 377.2628
166.6345, 376.7794
167.1166, 376.0452
167.5987, 375.0251
168.0808, 374.1455
168.5629, 373.8143
169.0450, 373.7922
169.5272, 373.6962
170.0093, 373.2050
170.4914, 372.6542
170.9735, 372.3903
171.4556, 372.4609
171.9377, 372.5838
172.4199, 372.6109
172.9020, 372.5253
173.3841, 372.2934
173.8662, 371.7874
174.3483, 371.1705
174.8304, 370.6360
175.3126, 370.2101
175.7947, 369.8336
176.2768, 369.4452
176.7589, 369.0570
177.2410, 368.7135
177.7231, 368.4582
178.2053, 368.2580
178.6874, 368.0484
179.1695, 367.8076
179.6516, 367.6202
180.1337, 367.6904
180.6158, 367.9495
181.0980, 368.0653
181.5801, 367.6672
182.0622, 366.9960
182.5443, 366.6515
183.0264, 366.7670
183.5085, 367.0246
183.9907, 366.9019
184.4728, 366.4476
184.9549, 366.0889
185.4370, 366.2863
185.9191, 366.8298
186.4012, 366.8212
186.8834, 365.9777
187.3655, 364.9345
187.8476, 365.0115
188.3297, 366.1748
188.8118, 367.1783
189.2939, 367.0369
189.7761, 365.9279
190.2582, 365.1271
190.7403, 364.8705
191.2224, 364.8374
191.7045, 364.3009
192.1866, 363.2396
192.6688, 362.2066
193.1509, 361.5669
193.6330, 361.3078
194.1151, 361.2127
194.5972, 361.2416
195.0793, 361.4354
195.5615, 362.0392
196.0436, 363.1276
196.5257, 364.0470
197.0078, 364.2585
197.4899, 363.7380
197.9720, 363.2802
198.4542, 362.9274
198.9363, 362.7413
199.4184, 362.9955
199.9005, 363.7917
200.3826, 364.5956
200.8647, 364.9498
201.3469, 364.7854
201.8290, 364.9411
202.3111, 365.6243
202.7932, 366.6327
203.2753, 367.2940
203.7574, 367.5409
204.2396, 367.6537
204.7217, 367.7773
205.2038, 367.8878
205.6859, 368.1450
206.1680, 368.5803
206.6501, 369.1700
207.1323, 369.8913
207.6144, 370.8267
208.0965, 371.6912
208.5786, 372.2361
209.0607, 372.3783
209.5428, 372.6042
210.0250, 372.9576
210.5071, 373.4409
210.9892, 374.1483
211.4713, 375.2632
211.9534, 376.2232
212.4355, 376.5352
212.9176, 375.8821
213.3998, 375.7097
213.8819, 376.3817
214.3640, 377.6407
214.8461, 378.2245
215.3282, 377.8630
215.8103, 377.3105
216.2925, 377.0371
216.7746, 377.0912
217.2567, 377.2803
217.7388, 377.6300
218.2209, 378.1055
218.7030, 378.5088
219.1852, 378.8090
219.6673, 379.1084
220.1494, 379.4888
220.6315, 380.0285
221.1136, 380.4597
221.5957, 380.6988
222.0779, 380.8190
222.5600, 381.1876
223.0421, 381.9630
223.5242, 382.7299
224.0063, 383.1817
224.4884, 383.0500
224.9706, 383.2510
225.4527, 383.9468
225.9348, 385.0182
226.4169, 386.0347
226.8990, 387.0310
227.3811, 387.8846
227.8633, 388.4681
228.3454, 388.5761
228.8275, 388.9008
229.3096, 389.5525
229.7917, 390.4544
230.2738, 391.2882
230.7560, 392.0549
231.2381, 392.7520
231.7202, 393.3307
232.2023, 393.6103
232.6844, 394.2354
233.1665, 395.5296
233.6487, 397.1762
234.1308, 398.0172
234.6129, 397.5821
235.0950, 397.0150
235.5771, 396.8834
236.0592, 397.3917
236.5414, 397.8732
237.0235, 398.2984
237.5056, 398.6803
237.9877, 399.0442
238.4698, 399.3432
238.9520, 399.6754
239.4341, 400.1445
239.9162, 401.0383
240.3983, 401.3544
240.8804, 400.7635
241.3625, 399.6819
241.8447, 399.2303
242.3268, 399.9134
242.8089, 400.4848
243.2910, 400.3795
243.7731, 399.2873
244.2552, 398.3212
244.7374, 397.5182
245.2195, 396.8293
245.7016, 396.2088
246.1837, 395.8878
246.6658, 395.2519
247.1479, 393.9473
247.6301, 391.5602
248.1122, 389.8637
248.5943, 389.0673
249.0764, 388.8507
249.5585, 388.7046
250.0406, 388.9135
250.5228, 388.6987
251.0049, 387.6458
251.4870, 385.4444
251.9691, 383.7779
252.4512, 382.7656
252.9333, 382.2027
253.4155, 381.7446
253.8976, 381.3120
254.3797, 381.1419
254.8618, 381.4467
255.3439, 382.3795
255.8260, 382.6293
256.3082, 381.7901
256.7903, 380.6422
257.2724, 380.3032
257.7545, 381.1539
258.2366, 381.9371
258.7188, 382.2586
259.2009, 382.0685
259.6830, 382.1302
260.1651, 382.6364
260.6472, 383.1573
261.1293, 383.1134
261.6115, 382.2162
262.0936, 381.5467
262.5757, 381.4129
263.0578, 381.8172
263.5399, 382.1945
264.0220, 382.5883
264.5042, 382.9149
264.9863, 383.0192
265.4684, 382.7403
265.9505, 382.8205
266.4326, 383.6089
266.9147, 384.9718
267.3969, 385.5104
267.8790, 384.9005
268.3611, 384.1308
268.8432, 384.0756
269.3253, 384.8826
269.8074, 385.7119
270.2896, 386.4219
270.7717, 387.0335
271.2538, 387.7518
271.7359, 388.6707
272.2180, 389.3872
272.7001, 389.4386
273.1823, 388.6525
273.6644, 388.3629
274.1465, 388.8434
274.6286, 389.8509
275.1107, 390.7081
275.5928, 391.4090
276.0750, 391.9449
276.5571, 392.2895
277.0392, 392.4374
277.5213, 392.4905
278.0034, 392.4312
278.4855, 392.3179
278.9677, 392.3164
279.4498, 392.4574
279.9319, 392.5212
280.4140, 392.3094
280.8961, 391.8294
281.3782, 391.5433
281.8604, 391.4612
282.3425, 391.5961
282.8246, 392.1645
283.3067, 393.2059
283.7888, 393.8958
284.2709, 393.5273
284.7531, 392.2788
285.2352, 391.9775
285.7173, 392.8418
286.1994, 393.9568
286.6815, 393.9407
287.1636, 392.8514
287.6458, 391.8980
288.1279, 391.6317
288.6100, 391.8862
289.0921, 392.1294
289.5742, 392.3773
290.0563, 392.4933
290.5385, 392.4034
291.0206, 392.0825
291.5027, 391.3292
291.9848, 389.7681
292.4669, 387.8810
292.9490, 386.9810
293.4312, 387.0908
293.9133, 387.2816
294.3954, 386.6057
294.8775, 385.3169
295.3596, 384.2521
295.8417, 383.7596
296.3239, 383.4697
296.8060, 382.6893
297.2881, 381.4665
297.7702, 380.3479
298.2523, 379.8625
298.7344, 379.7565
299.2166, 379.5035
299.6987, 379.0166
300.1808, 378.3342
300.6629, 377.4096
301.1450, 376.2997
301.6271, 375.1935
302.1093, 374.1285
302.5914, 373.1742
303.0735, 372.5366
303.5556, 372.3438
304.0377, 372.0839
304.5198, 371.0410
305.0020, 369.5346
305.4841, 368.3167
305.9662, 368.0249
306.4483, 368.0865
306.9304, 367.9262
307.4125, 367.4782
307.8947, 366.9619
308.3768, 366.7481
308.8589, 366.5359
309.3410, 365.8517
309.8231, 363.7699
310.3052, 361.6743
310.7874, 360.7621
311.2695, 361.0471
311.7516, 361.1408
312.2337, 359.9031
312.7158, 358.1999
313.1979, 356.9679
313.6801, 357.1337
314.1622, 357.2984
314.6443, 356.7087
315.1264, 355.4809
315.6085, 354.2991
316.0906, 353.6987
316.5728, 353.1379
317.0549, 352.1727
317.5370, 350.1269
318.0191, 348.4973
318.5012, 348.0312
318.9833, 348.3999
319.4655, 348.6799
319.9476, 348.5987
320.4297, 348.3533
320.9118, 348.0183
321.3939, 347.5504
321.8760, 347.1012
322.3582, 346.7633
322.8403, 346.4468
323.3224, 346.0021
323.8045, 345.1322
324.2866, 344.3821
324.7687, 343.9663
325.2509, 343.9961
325.7330, 343.9450
326.2151, 343.7318
326.6972, 343.4472
327.1793, 343.1853
327.6614, 342.9354
328.1436, 342.7355
328.6257, 342.7101
329.1078, 342.8763
329.5899, 342.5966
330.0720, 341.4134
330.5541, 340.1783
331.0363, 339.5175
331.5184, 339.8277
332.0005, 340.0286
332.4826, 339.9561
332.9647, 339.6892
333.4468, 339.6193
333.9290, 339.7935
334.4111, 340.0838
334.8932, 340.4760
335.3753, 341.0913
335.8574, 341.3929
336.3395, 341.2650
336.8216, 340.8900
337.3037, 340.5645
337.7859, 340.2025
338.2680, 340.1919
338.7501, 340.9078
339.2322, 342.4223
339.7143, 343.1549
340.1964, 342.9261
340.6786, 342.2785
341.1607, 341.8109
341.6428, 341.5111
342.1249, 341.5038
342.6070, 341.9332
343.0891, 342.6769
343.5713, 343.1783
344.0534, 343.4090
344.5355, 343.5641
345.0176, 343.9143
345.4997, 344.3947
345.9818, 344.4959
346.4640, 343.9033
346.9461, 343.1534
347.4282, 343.3742
347.9103, 344.5131
348.3924, 345.8829
348.8745, 347.2265
349.3567, 348.4529
349.8388, 349.2619
350.3209, 349.5429
350.8030, 349.7199
351.2851, 350.3418
351.7672, 351.2796
352.2494, 352.1430
352.7315, 352.6204
353.2136, 352.9674
353.6957, 353.4606
354.1778, 354.1143
354.6599, 354.9305
355.1421, 356.0553
355.6242, 357.3186
356.1063, 358.4484
356.5884, 359.1120
357.0705, 359.8144
357.5526, 361.0838
358.0348, 362.8072
358.5169, 364.2370
358.9990, 364.6858
359.4811, 364.8281
359.9632, 365.2436
360.4453, 366.2045
360.9275, 367.2137
361.4096, 368.1537
361.8917, 368.9942
362.3738, 369.6693
362.8559, 369.8300
363.3380, 370.0755
363.8202, 370.8138
364.3023, 372.3451
364.7844, 373.4131
365.2665, 373.4018
365.7486, 372.9432
366.2307, 372.7961
366.7129, 373.4400
367.1950, 374.0048
367.6771, 374.3036
368.1592, 374.3236
368.6413, 374.3084
369.1234, 374.3314
369.6056, 374.2749
370.0877, 374.0666
370.5698, 373.7538
371.0519, 373.2054
371.5340, 372.2305
372.0161, 371.0170
372.4983, 370.2513
372.9804, 370.1154
373.4625, 370.0840
373.9446, 369.9843
374.4267, 369.8961
374.9088, 369.2940
375.3910, 367.9312
375.8731, 366.3648
376.3552, 365.5794
376.8373, 365.6976
377.3194, 365.7989
377.8015, 365.6461
378.2837, 365.2332
378.7658, 364.4311
379.2479, 363.1574
379.7300, 361.8782
380.2121, 361.1402
380.6942, 360.8681
381.1764, 360.3671
381.6585, 359.4203
382.1406, 358.2787
382.6227, 357.4899
383.1048, 357.0099
383.5869, 356.4831
384.0691, 355.6963
384.5512, 354.6961
385.0333, 353.6192
385.5154, 352.4805
385.9975, 351.1945
386.4796, 349.3384
386.9618, 347.2453
387.4439, 345.7135
387.9260, 345.6579
388.4081, 345.9840
388.8902, 345.5421
389.3723, 344.3800
389.8545, 343.5035
390.3366, 344.3232
390.8187, 345.4105
391.3008, 345.1811
391.7829, 342.1070
392.2650, 339.1693
392.7472, 337.8838
393.2293, 337.7966
393.7114, 337.6054
394.1935, 336.7212
394.6756, 335.7273
395.1577, 334.9149
395.6399, 334.3624
396.1220, 333.8444
396.6041, 332.9975
397.0862, 332.2643
397.5683, 332.1902
398.0504, 333.7961
398.5326, 335.0274
399.0147, 335.3362
399.4968, 334.7234
399.9789, 334.3597
400.4610, 334.3562
400.9431, 334.4886
401.4253, 334.5822
401.9074, 334.4238
402.3895, 334.7288
402.8716, 335.7999
403.3537, 337.2358
403.8358, 338.0212
404.3180, 337.9747
404.8001, 337.7955
405.2822, 337.7913
405.7643, 337.9756
406.2464, 337.9630
406.7285, 337.7458
407.2107, 337.3743
407.6928, 336.8471
408.1749, 336.1699
408.6570, 335.5674
409.1391, 335.0945
409.6212, 334.7445
410.1034, 334.5340
410.5855, 334.4621
411.0676, 334.4277
411.5497, 334.5201
412.0318, 334.5828
412.5139, 334.1341
412.9961, 332.9818
413.4782, 331.8130
413.9603, 331.4686
414.4424, 331.6897
414.9245, 331.8693
415.4066, 331.7155
415.8888, 331.3849
416.3709, 330.9118
416.8530, 330.3042
417.3351, 329.8749
417.8172, 329.9648
418.2993, 330.2331
418.7815, 330.3404
419.2636, 329.9562
419.7457, 329.7191
420.2278, 330.1076
420.7099, 330.8499
421.1920, 331.2373
421.6742, 330.7584
422.1563, 330.1846
422.6384, 329.8944
423.1205, 330.0698
423.6026, 329.9754
424.0847, 329.4064
424.5669, 328.6237
425.0490, 327.8596
425.5311, 326.8306
426.0132, 326.2500
426.4953, 326.4510
426.9774, 327.2601
427.4596, 327.5106
427.9417, 326.9918
428.4238, 326.2696
428.9059, 325.5883
429.3880, 324.9175
429.8701, 324.4621
430.3523, 324.2646
430.8344, 324.2181
431.3165, 324.2145
431.7986, 324.2654
432.2807, 324.1621
432.7628, 323.8044
433.2450, 323.2453
433.7271, 322.6336
434.2092, 321.9698
434.6913, 321.3383
435.1734, 320.8088
435.6555, 320.3650
436.1377, 319.9818
436.6198, 319.6902
437.1019, 319.3629
437.5840, 318.7747
438.0661, 318.0197
438.5482, 317.3605
439.0304, 316.8426
439.5125, 316.5313
439.9946, 316.6290
440.4767, 317.1430
440.9588, 317.4727
441.4409, 317.0665
441.9231, 316.4145
442.4052, 315.9925
442.8873, 316.1458
443.3694, 316.2760
443.8515, 316.1189
444.3336, 315.7866
444.8158, 315.6106
445.2979, 315.7096
445.7800, 315.9290
446.2621, 316.2253
446.7442, 316.6162
447.2263, 317.0561
447.7085, 317.6535
448.1906, 318.2416
448.6727, 318.6523
449.1548, 318.7871
449.6369, 318.9627
450.1190, 319.2576
450.6012, 319.6273
451.0833, 319.8540
451.5654, 319.8642
452.0475, 319.9474
452.5296, 320.3397
453.0117, 321.0449
453.4939, 321.4428
453.9760, 321.4423
454.4581, 321.3708
454.9402, 321.6734
455.4223, 322.3012
455.9044, 322.9804
456.3866, 323.6886
456.8687, 324.3233
457.3508, 324.5876
457.8329, 324.5382
458.3150, 324.5582
458.7971, 324.9660
459.2793, 325.5812
459.7614, 326.1449
460.2435, 326.5860
460.7256, 327.1416
461.2077, 328.1458
461.6898, 329.3249
462.1720, 330.2914
462.6541, 330.7849
463.1362, 331.1266
463.6183, 331.2568
464.1004, 331.2467
464.5826, 331.6966
465.0647, 333.2477
465.5468, 334.9391
466.0289, 336.2527
466.5110, 337.0537
466.9931, 337.6253
467.4753, 337.8111
467.9574, 337.8348
468.4395, 337.9884
468.9216, 338.1762
469.4037, 338.6890
469.8858, 339.7105
470.3680, 341.1664
470.8501, 342.3807
471.3322, 343.3896
471.8143, 344.0539
472.2964, 344.1038
472.7785, 343.5307
473.2607, 343.4002
473.7428, 343.8472
474.2249, 344.6211
474.7070, 345.5342
475.1891, 346.5284
475.6712, 347.1983
476.1534, 347.1617
476.6355, 346.8391
477.1176, 347.0243
477.5997, 347.6554
478.0818, 348.1454
478.5639, 347.8693
479.0461, 347.3090
479.5282, 347.0736
480.0103, 347.3590
480.4924, 347.6593
480.9745, 347.5078
481.4566, 347.2167
481.9388, 347.2481
482.4209, 348.4927
482.9030, 349.3607
483.3851, 348.9953
483.8672, 347.4906
484.3493, 346.3252
484.8315, 345.7675
485.3136, 345.5486
485.7957, 345.5524
486.2778, 345.9164
486.7599, 346.2035
487.2420, 346.3785
487.7242, 346.4988
488.2063, 346.6960
488.6884, 347.0941
489.1705, 347.1527
489.6526, 346.5717
490.1347, 345.5735
490.6169, 345.3338
491.0990, 345.9814
491.5811, 346.4909
492.0632, 346.0124
492.5453, 344.7642
493.0274, 343.7080
493.5096, 342.9181
493.9917, 342.3135
494.4738, 341.9741
494.9559, 341.7500
495.4380, 341.2406
495.9201, 340.0944
496.4023, 338.8080
496.8844, 337.8042
497.3665, 337.0667
497.8486, 336.5092
498.3307, 336.2081
498.8128, 335.9951
499.2950, 335.7090
499.7771, 335.2510
500.2592, 335.0621
500.7413, 335.9748
501.2234, 336.8988
501.7055, 336.7320
502.1877, 333.9282
502.6698, 331.7001
503.1519, 330.5411
503.6340, 330.2274
504.1161, 329.9711
504.5982, 329.8063
505.0804, 329.6407
505.5625, 329.4922
506.0446, 329.3843
506.5267, 328.9078
507.0088, 327.9588
507.4909, 326.9042
507.9731, 326.1360
508.4552, 325.6312
508.9373, 325.0244
509.4194, 324.2119
509.9015, 323.3351
510.3836, 322.5957
510.8658, 321.9950
511.3479, 321.5605
511.8300, 321.6006
512.3121, 321.6481
512.7943, 320.9907
513.2764, 319.6514
513.7585, 318.4052
514.2406, 317.9291
514.7227, 317.6803
515.2048, 317.1342
515.6870, 315.9877
516.1691, 314.9198
516.6512, 314.2213
517.1333, 313.7318
517.6154, 313.1868
518.0975, 312.7193
518.5797, 311.9943
519.0618, 310.7220
519.5439, 308.9815
520.0260, 307.8620
520.5081, 307.7077
520.9902, 307.6579
521.4724, 307.1592
521.9545, 306.0435
522.4366, 305.4056
522.9187, 305.3906
523.4008, 305.5721
523.8829, 305.3840
524.3651, 304.8479
524.8472, 304.3076
525.3293, 303.9368
525.8114, 303.5351
526.2935, 302.5883
526.7756, 301.2059
527.2578, 299.9845
527.7399, 299.3919
528.2220, 299.0863
528.7041, 298.6195
529.1862, 297.9459
529.6683, 297.4564
530.1505, 297.6312
530.6326, 297.9770
531.1147, 297.9946
531.5968, 297.2797
532.0789, 296.6264
532.5610, 296.0918
533.0432, 295.7582
533.5253, 295.8271
534.0074, 296.9497
534.4895, 297.7310
534.9716, 297.6862
535.4537, 296.8550
535.9359, 296.5568
536.4180, 296.9552
536.9001, 297.5862
537.3822, 298.2074
537.8643, 298.8231
538.3464, 299.3138
538.8286, 299.6281
539.3107, 299.9448
539.7928, 300.5667
540.2749, 301.4360
540.7570, 302.1912
541.2391, 302.4725
541.7213, 302.8660
542.2034, 304.5946
542.6855, 307.2819
543.1676, 309.4853
543.6497, 310.1446
544.1318, 310.1498
544.6140, 310.0581
545.0961, 309.8950
545.5782, 310.1313
546.0603, 311.2328
546.5424, 312.6678
547.0245, 313.9994
547.5067, 315.4352
547.9888, 316.3841
548.4709, 316.4138
548.9530, 316.0478
549.4351, 316.1941
549.9172, 317.1103
550.3994, 318.0390
550.8815, 318.7484
551.3636, 319.3029
551.8457, 320.1829
552.3278, 321.4796
552.8099, 322.6693
553.2921, 323.2385
553.7742, 323.3450
554.2563, 323.9478
554.7384, 325.1528
555.2205, 326.5148
555.7026, 327.6679
556.1848, 328.6379
556.6669, 329.4358
557.1490, 329.8898
557.6311, 330.4596
558.1132, 331.7591
558.5953, 333.4515
559.0775, 334.7905
559.5596, 335.2840
560.0417, 335.5139
560.5238, 335.5741
561.0059, 335.4685
561.4880, 335.7519
561.9702, 337.1621
562.4523, 338.4247
562.9344, 338.8545
563.4165, 337.9676
563.8986, 337.5285
564.3807, 337.6896
564.8629, 338.1128
565.3450, 338.3458
565.8271, 338.3640
566.3092, 338.5204
566.7913, 338.9460
567.2734, 339.4992
567.7556, 339.8145
568.2377, 339.9329
568.7198, 340.1340
569.2019, 340.5266
569.6840, 341.1180
570.1661, 341.9729
570.6483, 343.0728
571.1304, 344.2306
571.6125, 345.3837
572.0946, 346.4920
572.5767, 347.4074
573.0588, 347.8513
573.5410, 348.8168
574.0231, 350.9093
574.5052, 353.5714
574.9873, 356.0983
575.4694, 358.5553
575.9515, 360.7258
576.4337, 362.3472
576.9158, 363.6914
577.3979, 365.6754
577.8800, 368.4579
578.3621, 371.4220
578.8442, 374.3344
579.3264, 377.2101
579.8085, 380.2508
580.2906, 383.5189
580.7727, 386.5717
581.2548, 388.6994
581.7369, 390.3727
582.2190, 392.8011
582.7011, 396.2836
583.1832, 399.9716
583.6653, 402.9335
584.1475, 405.6613
584.6296, 408.8893
585.1117, 413.3075
585.5938, 417.8196
586.0759, 421.9160
586.5580, 425.7495
587.0402, 429.5853
587.5223, 433.5458
588.0044, 437.4362
588.4865, 441.2326
588.9686, 444.9347
589.4507, 448.3500
589.9329, 451.2287
590.4150, 454.2006
590.8971, 457.7323
591.3792, 461.8872
591.8613, 465.9933
592.3434, 470.1251
592.8256, 473.9473
593.3077, 476.9259
593.7898, 479.2336
594.2719, 481.4569
594.7540, 483.7587
595.2361, 486.0733
595.7183, 488.4111
596.2004, 490.6924
596.6825, 492.7004
597.1646, 494.4480
597.6467, 495.7977
598.1288, 496.7889
598.6110, 497.3849
599.0931, 497.2234
599.5752, 495.6634
600.0573, 493.7857
600.5394, 492.0326
601.0215, 490.3629
601.5037, 489.0322
601.9858, 488.3635
602.4679, 487.5796
602.9500, 485.7062
603.4321, 482.5386
603.9142, 480.4210
604.3964, 479.9154
604.8785, 479.8604
605.3606, 478.2255
605.8427, 475.3262
606.3248, 472.6039
606.8069, 470.3641
607.2891, 468.7681
607.7712, 468.4337
608.2533, 468.9919
608.7354, 469.1114
609.2175, 467.1681
609.6996, 465.3236
610.1818, 465.2046
610.6639, 467.0254
611.1460, 468.1968
611.6281, 467.4708
612.1102, 466.4902
612.5923, 466.2167
613.0745, 466.9118
613.5566, 467.7531
614.0387, 468.9202
614.5208, 470.0074
615.0029, 470.3673
615.4850, 469.9501
615.9672, 469.8360
616.4493, 470.4535
616.9314, 471.0944
617.4135, 470.1497
617.8956, 468.0083
618.3777, 466.2184
618.8599, 466.1477
619.3420, 466.3897
619.8241, 465.5132
620.3062, 463.6624
620.7883, 461.5335
621.2704, 459.4301
621.7526, 457.2174
622.2347, 454.7991
622.7168, 452.1337
623.1989, 449.4436
623.6810, 446.6853
624.1631, 443.9581
624.6453, 441.3777
625.1274, 439.1813
625.6095, 436.4373
626.0916, 432.9683
626.5737, 429.1929
627.0558, 425.6908
627.5380, 422.4492
628.0201, 419.1736
628.5022, 415.7309
628.9843, 412.3064
629.4664, 409.2486
629.9485, 406.4913
630.4307, 403.8661
630.9128, 401.4201
631.3949, 398.9621
631.8770, 396.3150
632.3591, 393.4991
632.8412, 390.8134
633.3234, 388.4893
633.8055, 386.1742
634.2876, 383.6316
634.7697, 380.7058
635.2518, 378.2473
635.7339, 376.3942
636.2161, 374.8299
636.6982, 373.3992
637.1803, 372.1529
637.6624, 370.6588
638.1445, 368.8358
638.6266, 366.9564
639.1088, 365.5171
639.5909, 364.3896
640.0730, 362.8810
640.5551, 360.5602
641.0372, 358.2606
641.5193, 356.9876
642.0015, 356.4247
642.4836, 355.8157
642.9657, 354.8441
643.4478, 353.7516
643.9299, 352.6278
644.4120, 351.4787
644.8942, 350.2918
645.3763, 348.7636
645.8584, 347.5183
646.3405, 346.8663
646.8226, 346.8629
647.3047, 346.4949
647.7869, 345.6664
648.2690, 344.7138
648.7511, 343.8929
649.2332, 343.1890
649.7153, 342.5005
650.1974, 341.8258
650.6796, 341.1512
651.1617, 340.4943
651.6438, 339.8266
652.1259, 339.1591
652.6080, 338.6360
653.0901, 337.7692
653.5723, 335.8024
654.0544, 333.4013
654.5365, 331.6175
655.0186, 331.3319
655.5007, 331.0156
655.9828, 330.3486
656.4650, 329.4136
656.9471, 328.3930
657.4292, 327.1455
657.9113, 326.1586
658.3934, 325.7060
658.8755, 325.6592
659.3577, 325.2285
659.8398, 324.3871
660.3219, 323.4949
660.8040, 322.6377
661.2861, 321.9252
661.7682, 321.7812
662.2504, 322.2158
662.7325, 322.3404
663.2146, 321.0289
663.6967, 319.3870
664.1788, 318.5623
664.6609, 319.1228
665.1431, 319.3853
665.6252, 318.6684
666.1073, 317.6114
666.5894, 316.8341
667.0715, 316.2641
667.5536, 316.2567
668.0358, 317.2324
668.5179, 318.3528
669.0000, 317.8299
669.4821, 315.6213
669.9642, 314.0061
670.4464, 313.9178
670.9285, 314.4507
671.4106, 313.7457
671.8927, 312.2300
672.3748, 311.4147
672.8569, 313.0447
673.3391, 314.9012
673.8212, 315.1954
674.3033, 314.1225
674.7854, 313.2163
675.2675, 313.3469
675.7496, 313.3933
676.2318, 312.7278
676.7139, 311.2403
677.1960, 310.2313
677.6781, 309.7646
678.1602, 309.6466
678.6423, 309.8803
679.1245, 310.4713
679.6066, 310.6213
680.0887, 310.2179
680.5708, 309.9209
681.0529, 310.8882
681.5350, 312.3868
682.0172, 312.7800
682.4993, 311.4630
682.9814, 309.9083
683.4635, 308.9220
683.9456, 308.4344
684.4277, 308.3825
684.9099, 309.4655
685.3920, 310.1259
685.8741, 309.7822
686.3562, 308.9265
686.8383, 308.3898
687.3204, 308.1744
687.8026, 308.3400
688.2847, 309.1276
688.7668, 310.1537
689.2489, 310.0775
689.7310, 308.9393
690.2131, 308.0030
690.6953, 308.1096
691.1774, 308.6977
691.6595, 308.9234
692.1416, 308.8330
692.6237, 308.6864
693.1058, 308.7130
693.5880, 308.6656
694.0701, 308.2764
694.5522, 307.4827
695.0343, 307.0219
695.5164, 307.3421
695.9985, 307.6880
696.4807, 307.6539
696.9628, 307.1301
697.4449, 306.8240
697.9270, 306.8201
698.4091, 306.8008
698.8912, 306.2145
699.3734, 305.2741
699.8555, 305.1775
700.3376, 306.2179
700.8197, 307.3036
701.3018, 307.1843
701.7839, 306.4602
702.2661, 306.0190
702.7482, 306.2591
703.2303, 306.5599
703.7124, 306.7813
704.1945, 306.8878
704.6766, 306.8175
705.1588, 306.4237
705.6409, 306.0836
706.1230, 305.8021
706.6051, 305.6290
707.0872, 305.7408
707.5693, 306.1662
708.0515, 306.5117
708.5336, 306.6214
709.0157, 306.5948
709.4978, 306.6447
709.9799, 306.7433
710.4620, 306.7680
710.9442, 306.3669
711.4263, 306.1009
711.9084, 306.5790
712.3905, 307.6797
712.8726, 308.4560
713.3547, 308.6379
713.8369, 308.4296
714.3190, 307.7146
714.8011, 306.4535
715.2832, 306.0676
715.7653, 306.7917
716.2474, 307.7873
716.7296, 308.7937
717.2117, 309.7051
717.6938, 309.4709
718.1759, 308.0146
718.6580, 306.5906
719.1401, 306.4084
719.6223, 306.8546
720.1044, 307.0689
720.5865, 306.8541
721.0686, 306.8584
721.5507, 307.7541
722.0328, 308.7900
722.5150, 309.3020
722.9971, 308.9107
723.4792, 308.5270
723.9613, 308.0728
724.4434, 307.7010
724.9255, 307.6115
725.4077, 307.8192
725.8898, 308.1163
726.3719, 308.5177
726.8540, 308.8586
727.3361, 308.8771
727.8182, 308.6536
728.3004, 308.3573
728.7825, 307.8027
729.2646, 307.5829
729.7467, 308.5740
730.2288, 310.0938
730.7109, 310.9248
731.1931, 310.2970
731.6752, 309.4914
732.1573, 308.5107
732.6394, 307.5640
733.1215, 307.3339
733.6036, 308.0090
734.0858, 308.6266
734.5679, 308.8364
735.0500, 308.8300
735.5321, 309.1469
736.0142, 309.7330
736.4963, 310.2587
736.9785, 310.6616
737.4606, 310.8326
737.9427, 310.6323
738.4248, 310.0963
738.9069, 309.4069
739.3890, 308.0036
739.8712, 307.0523
740.3533, 307.4136
740.8354, 308.9962
741.3175, 309.6801
741.7996, 309.1243
742.2817, 308.4852
742.7639, 308.3856
743.2460, 308.7575
743.7281, 309.0351
744.2102, 309.2201
744.6923, 309.3736
745.1744, 309.5415
745.6566, 309.7029
746.1387, 309.8399
746.6208, 309.9499
747.1029, 310.0130
747.5850, 310.0704
748.0671, 310.0341
748.5493, 309.7364
749.0314, 308.9258
749.5135, 308.8495
749.9956, 309.9609
750.4777, 311.1025
750.9598, 311.2886
751.4420, 310.5312
751.9241, 309.7416
752.4062, 308.9149
752.8883, 308.4501
753.3704, 309.1904
753.8525, 310.4337
754.3347, 310.9661
754.8168, 310.4029
755.2989, 309.7475
755.7810, 309.4883
756.2631, 309.4288
756.7452, 309.3812
757.2274, 309.3503
757.7095, 309.2743
758.1916, 309.0888
758.6737, 308.9262
759.1558, 308.9366
759.6379, 309.1187
760.1201, 309.4886
760.6022, 310.1041
761.0843, 310.7169
761.5664, 311.0415
762.0485, 311.1115
762.5306, 310.9774
763.0128, 310.5398
763.4949, 310.1116
763.9770, 309.8864
764.4591, 309.7765
764.9412, 309.6403
765.4233, 309.2897
765.9055, 309.1825
766.3876, 309.5230
766.8697, 310.0058
767.3518, 309.9720
767.8339, 309.3731
768.3160, 308.9762
768.7982, 308.9931
769.2803, 309.2587
769.7624, 309.6722
770.2445, 310.1285
770.7266, 310.3600
771.2087, 310.0171
771.6909, 309.6621
772.1730, 309.6159
772.6551, 309.7706
773.1372, 309.8789
773.6193, 309.8611
774.1014, 309.8634
774.5836, 309.9035
775.0657, 309.9849
775.5478, 310.1319
776.0299, 310.3495
776.5120, 310.5691
776.9941, 310.8359
777.4763, 311.0181
777.9584, 310.8017
778.4405, 310.2966
778.9226, 309.8558
779.4047, 309.6346
779.8868, 309.5331
780.3690, 309.4499
780.8511, 309.4282
781.3332, 309.6820
781.8153, 310.4284
782.2974, 311.1189
782.7795, 311.6812
783.2617, 312.0568
783.7438, 311.9380
784.2259, 311.3128
784.7080, 310.6890
785.1901, 310.1878
785.6722, 309.9035
786.1544, 310.2003
786.6365, 310.8978
787.1186, 311.3315
787.6007, 310.9004
788.0828, 310.3724
788.5649, 310.1510
789.0471, 310.1994
789.5292, 310.0927
790.0113, 309.6202
790.4934, 309.3932
790.9755, 309.7578
791.4576, 310.5078
791.9398, 310.6425
792.4219, 310.1883
792.9040, 309.8252
793.3861, 310.1575
793.8682, 310.6673
794.3503, 310.5901
794.8325, 310.0591
795.3146, 309.6980
795.7967, 309.9867
796.2788, 310.3031
796.7609, 310.2782
797.2430, 309.9742
797.7252, 310.0406
798.2073, 310.7045
798.6894, 311.1603
799.1715, 310.9070
799.6536, 310.2226
800.1357, 310.3192
800.6179, 311.1190
801.1000, 311.8407
801.5821, 312.0278
802.0642, 311.9059
802.5463, 311.5184
803.0284, 310.9546
803.5106, 310.6869
803.9927, 311.2191
804.4748, 311.6946
804.9569, 311.6452
805.4390, 311.1862
805.9211, 311.5312
806.4033, 312.9488
806.8854, 313.9839
807.3675, 313.6858
807.8496, 312.6200
808.3317, 312.2810
808.8138, 312.5831
809.2960, 313.0327
809.7781, 313.5552
810.2602, 313.9431
810.7423, 313.9868
811.2244, 313.7332
811.7065, 313.5511
812.1887, 313.5729
812.6708, 313.5869
813.1529, 313.5224
813.6350, 313.3998
814.1171, 313.2900
814.5992, 313.1865
815.0814, 313.2528
815.5635, 313.7872
816.0456, 314.4161
816.5277, 314.3972
817.0098, 313.8785
817.4919, 313.4578
817.9741, 313.3456
818.4562, 313.4827
818.9383, 314.0258
819.4204, 314.8688
819.9025, 315.2609
820.3846, 314.9352
820.8668, 314.7593
821.3489, 315.1137
821.8310, 315.7775
822.3131, 315.8698
822.7952, 315.4936
823.2773, 315.4811
823.7595, 317.1656
824.2416, 318.7145
824.7237, 317.6901
825.2058, 314.9910
825.6879, 313.4572
826.1700, 315.5214
826.6522, 317.1025
827.1343, 316.8965
827.6164, 315.4484
828.0985, 314.5486
828.5806, 314.2384
829.0627, 314.2253
829.5449, 314.5561
830.0270, 314.9463
830.5091, 314.7849
830.9912, 314.2091
831.4733, 313.6530
831.9554, 312.9579
832.4376, 312.6927
832.9197, 313.5402
833.4018, 315.0409
833.8839, 315.9691
834.3660, 316.1501
834.8481, 315.9268
835.3303, 315.1585
835.8124, 314.2011
836.2945, 313.9209
836.7766, 314.2623
837.2587, 314.5674
837.7408, 314.5385
838.2230, 314.5473
838.7051, 315.1541
839.1872, 316.0555
839.6693, 316.7325
840.1514, 316.8450
840.6335, 316.8994
841.1157, 317.0063
841.5978, 317.1083
842.0799, 317.0840
842.5620, 316.8680
843.0441, 316.8804
843.5262, 317.2607
844.0084, 317.6997
844.4905, 317.6690
844.9726, 317.3437
845.4547, 317.1494
845.9368, 317.2299
846.4189, 317.3867
846.9011, 317.6708
847.3832, 317.8956
847.8653, 317.8190
848.3474, 317.1030
848.8295, 316.6834
849.3116, 316.5975
849.7938, 316.7889
850.2759, 317.2874
850.7580, 318.0500
851.2401, 318.7990
851.7222, 319.5444
852.2043, 319.9675
852.6865, 319.4576
853.1686, 318.6346
853.6507, 318.2025
854.1328, 318.3819
854.6149, 318.6266
855.0970, 318.8642
855.5792, 319.0956
856.0613, 319.2381
856.5434, 319.2115
857.0255, 319.8869
857.5076, 321.4041
857.9897, 322.5904
858.4719, 321.9565
858.9540, 320.4722
859.4361, 319.7785
859.9182, 320.0177
860.4003, 320.4355
860.8824, 320.7739
861.3646, 321.0892
861.8467, 321.4469
862.3288, 321.8561
862.8109, 322.1837
863.2930, 322.5187
863.7751, 322.5174
864.2573, 321.7492
864.7394, 320.5253
865.2215, 319.9271
865.7036, 319.9144
866.1857, 320.1826
866.6678, 320.8727
867.1500, 321.4986
867.6321, 321.6201
868.1142, 321.3044
868.5963, 321.1339
869.0784, 321.2130
869.5605, 321.3117
870.0427, 321.2482
870.5248, 321.2029
871.0069, 322.1598
871.4890, 323.9589
871.9711, 324.9741
872.4532, 323.9162
872.9354, 322.3809
873.4175, 321.9564
873.8996, 322.3195
874.3817, 322.7648
874.8638, 323.2877
875.3459, 323.5970
875.8281, 323.5307
876.3102, 323.3197
876.7923, 323.4435
877.2744, 323.9434
877.7565, 324.1602
878.2386, 323.8532
878.7208, 323.5293
879.2029, 324.0768
879.6850, 325.0169
880.1671, 325.4652
880.6492, 324.9057
881.1313, 324.4347
881.6135, 324.5248
882.0956, 324.8314
882.5777, 324.9907
883.0598, 324.9348
883.5419, 325.0027
884.0240, 325.2096
884.5062, 325.5400
884.9883, 326.1322
885.4704, 326.8098
885.9525, 327.0688
886.4346, 326.8213
886.9167, 326.7253
887.3989, 327.1056
887.8810, 327.8112
888.3631, 328.8770
888.8452, 330.4001
889.3273, 331.4074
889.8094, 331.8363
890.2916, 331.9057
890.7737, 331.5189
891.2558, 330.8819
891.7379, 330.8702
892.2200, 331.4135
892.7021, 331.9661
893.1843, 332.1626
893.6664, 332.2863
894.1485, 332.4556
894.6306, 332.7051
895.1127, 333.2166
895.5948, 334.3514
896.0770, 335.0576
896.5591, 334.8908
897.0412, 334.2663
897.5233, 334.2988
898.0054, 334.9134
898.4875, 335.6075
898.9697, 336.2100
899.4518, 336.7907
899.9339, 337.5042
900.4160, 338.2047
900.8981, 338.6326
901.3802, 338.2119
901.8624, 338.2691
902.3445, 339.0638
902.8266, 340.1364
903.3087, 340.8716
903.7908, 341.2922
904.2729, 341.5951
904.7551, 341.7675
905.2372, 342.0898
905.7193, 343.1252
906.2014, 344.3016
906.6835, 344.8785
907.1656, 344.4783
907.6478, 344.5328
908.1299, 345.5645
908.6120, 346.7233
909.0941, 347.5062
909.5762, 347.9243
910.0583, 348.1570
910.5405, 348.1952
911.0226, 348.4576
911.5047, 349.4978
911.9868, 350.7503
912.4689, 351.4942
912.9510, 351.7963
913.4332, 352.3457
913.9153, 353.7572
914.3974, 354.9496
914.8795, 355.4083
915.3616, 355.4491
915.8438, 356.4332
916.3259, 358.3864
916.8080, 360.1904
917.2901, 361.4640
917.7722, 362.3747
918.2543, 362.8533
918.7365, 363.1708
919.2186, 363.8399
919.7007, 365.4532
920.1828, 366.8810
920.6649, 367.8792
921.1470, 368.6400
921.6292, 369.2318
922.1113, 369.6028
922.5934, 370.8170
923.0755, 373.1382
923.5576, 375.4643
924.0397, 376.4574
924.5219, 376.8014
925.0040, 377.3040
925.4861, 378.0719
925.9682, 379.1662
926.4503, 380.6368
926.9324, 382.4319
927.4146, 384.6636
927.8967, 387.3249
928.3788, 389.6354
928.8609, 391.6249
929.3430, 393.0456
929.8251, 393.1414
930.3073, 392.9909
930.7894, 394.0839
931.2715, 396.2016
931.7536, 398.2780
932.2357, 400.0935
932.7178, 401.6713
933.2000, 402.8819
933.6821, 403.9497
934.1642, 405.4785
934.6463, 407.4640
935.1284, 409.6619
935.6105, 412.0799
936.0927, 414.3883
936.5748, 416.0041
937.0569, 417.2700
937.5390, 418.6933
938.0211, 420.3061
938.5032, 422.2678
938.9854, 424.7666
939.4675, 427.4168
939.9496, 429.9964
940.4317, 432.4925
940.9138, 434.8836
941.3959, 437.1600
941.8781, 439.2846
942.3602, 441.0407
942.8423, 442.7101
943.3244, 444.6647
943.8065, 446.9266
944.2886, 449.0599
944.7708, 450.6783
945.2529, 452.5312
945.7350, 454.9914
946.2171, 457.8293
946.6992, 460.1731
947.1813, 462.0106
947.6635, 463.5872
948.1456, 464.9275
948.6277, 466.1507
949.1098, 467.2126
949.5919, 468.2750
950.0740, 469.6308
950.5562, 471.4843
951.0383, 473.4849
951.5204, 475.8075
952.0025, 478.0100
952.4846, 479.3620
952.9667, 480.0162
953.4489, 481.1785
953.9310, 483.0229
954.4131, 484.9869
954.8952, 486.5068
955.3773, 488.0512
955.8594, 490.2285
956.3416, 493.2604
956.8237, 495.2184
957.3058, 495.3266
957.7879, 495.8263
958.2700, 497.9962
958.7521, 501.2786
959.2343, 503.7241
959.7164, 505.4883
960.1985, 507.3888
960.6806, 509.7136
961.1627, 512.4289
961.6448, 515.5996
962.1270, 519.1247
962.6091, 522.7078
963.0912, 526.3707
963.5733, 530.0430
964.0554, 533.7352
964.5375, 537.4519
965.0197, 540.9595
965.5018, 544.4787
965.9839, 548.7974
966.4660, 554.1403
966.9481, 559.2792
967.4302, 562.8027
967.9124, 566.4189
968.3945, 571.4965
968.8766, 578.2440
969.3587, 584.0129
969.8408, 588.6721
970.3229, 593.4823
970.8051, 599.2877
971.2872, 605.7314
971.7693, 612.3409
972.2514, 619.1028
972.7335, 625.7782
973.2156, 631.9182
973.6978, 638.3995
974.1799, 645.6360
974.6620, 653.2856
975.1441, 660.8027
975.6262, 668.1961
976.1083, 674.7248
976.5905, 680.0215
977.0726, 685.4479
977.5547, 692.9882
978.0368, 701.3796
978.5189, 708.9174
979.0010, 715.1851
979.4832, 721.2939
979.9653, 727.3984
980.4474, 733.4647
980.9295, 739.4444
981.4116, 745.3032
981.8937, 750.5374
982.3759, 755.1780
982.8580, 759.6593
983.3401, 764.5193
983.8222, 769.0547
984.3043, 773.0009
984.7864, 776.1588
985.2686, 777.8313
985.7507, 777.4334
986.2328, 776.8937
986.7149, 776.4789
987.1970, 775.9709
987.6791, 775.2672
988.1613, 774.2122
988.6434, 772.2996
989.1255, 769.4285
989.6076, 765.8873
990.0897, 761.4839
990.5718, 756.7636
991.0540, 752.1605
991.5361, 747.6799
992.0182, 742.8207
992.5003, 737.5526
992.9824, 731.8206
993.4645, 725.3348
993.9467, 718.5312
994.4288, 712.2111
994.9109, 706.2301
995.3930, 700.3843
995.8751, 694.7015
996.3572, 688.9241
996.8394, 682.9449
997.3215, 676.8084
997.8036, 670.4686
998.2857, 663.9071
998.7678, 658.1923
999.2499, 653.6248
999.7321, 649.2300
1000.214, 644.2236
1000.696, 638.9804
1001.178, 633.6752
1001.661, 628.3193
1002.143, 623.9320
1002.625, 621.1653
1003.107, 618.2093
1003.589, 614.2768
1004.071, 609.6420
1004.553, 605.0477
1005.035, 600.5381
1005.517, 596.4728
1006.000, 593.2528
1006.482, 590.1119
1006.964, 586.6066
1007.446, 582.9939
1007.928, 579.7450
1008.410, 577.0192
1008.892, 573.8267
1009.374, 569.9957
1009.857, 566.3179
1010.339, 564.1481
1010.821, 562.4422
1011.303, 559.3066
1011.785, 554.7053
1012.267, 550.9010
1012.749, 548.9178
1013.231, 547.7076
1013.713, 547.4591
1014.196, 547.4929
1014.678, 545.0554
1015.160, 540.4125
1015.642, 536.5314
1016.124, 534.6653
1016.606, 533.2180
1017.088, 530.8008
1017.570, 528.0042
1018.052, 525.6172
1018.535, 523.9660
1019.017, 522.0922
1019.499, 519.9175
1019.981, 517.7452
1020.463, 515.7562
1020.945, 513.9571
1021.427, 512.5523
1021.909, 511.4409
1022.392, 510.0672
1022.874, 507.8709
1023.356, 505.6618
1023.838, 503.5594
1024.320, 501.7293
1024.802, 500.7407
1025.284, 500.6719
1025.766, 499.9854
1026.249, 498.2514
1026.731, 496.4357
1027.213, 495.7855
1027.695, 495.5125
1028.177, 494.6966
1028.659, 493.1194
1029.141, 491.3592
1029.623, 489.2944
1030.105, 487.3943
1030.588, 485.9452
1031.070, 484.8491
1031.552, 483.8808
1032.034, 483.0035
1032.516, 482.0031
1032.998, 480.2731
1033.480, 478.9907
1033.962, 479.2906
1034.444, 480.0420
1034.927, 479.5443
1035.409, 477.4991
1035.891, 475.7227
1036.373, 474.2901
1036.855, 473.2617
1037.337, 472.8812
1037.819, 472.7708
1038.301, 472.6082
1038.784, 472.3317
1039.266, 471.5512
1039.748, 469.7574
1040.230, 468.1038
1040.712, 466.9406
1041.194, 466.1183
1041.676, 465.4527
1042.158, 464.8699
1042.641, 464.0345
1043.123, 462.7345
1043.605, 461.5242
1044.087, 460.7455
1044.569, 460.2512
1045.051, 460.0049
1045.533, 460.1240
1046.015, 459.4837
1046.497, 458.0085
1046.979, 456.4785
1047.462, 455.2641
1047.944, 454.4202
1048.426, 454.1798
1048.908, 454.3763
1049.390, 454.5465
1049.872, 454.7740
1050.354, 454.6047
1050.836, 453.8416
1051.319, 452.8799
1051.801, 452.3906
1052.283, 452.1747
1052.765, 451.4023
1053.247, 449.9599
1053.729, 448.4915
1054.211, 447.0829
1054.693, 446.0660
1055.176, 445.7300
1055.658, 445.9835
1056.140, 446.6777
1056.622, 447.9247
1057.104, 448.2559
1057.586, 446.7869
1058.068, 445.0152
1058.550, 444.7642
1059.032, 445.4023
1059.515, 446.0460
1059.997, 446.6175
1060.479, 446.8828
1060.961, 446.6195
1061.443, 446.4889
1061.925, 447.1382
1062.407, 448.2851
1062.889, 448.8820
1063.371, 449.0207
1063.854, 449.1465
1064.336, 449.4084
1064.818, 449.7720
1065.300, 449.9532
1065.782, 450.3702
1066.264, 451.8758
1066.746, 454.5096
1067.228, 456.6765
1067.711, 458.1662
1068.193, 459.2513
1068.675, 459.7829
1069.157, 460.3072
1069.639, 461.4089
1070.121, 463.1202
1070.603, 464.7499
1071.085, 466.2958
1071.568, 467.6812
1072.050, 468.7379
1072.532, 469.8916
1073.014, 471.9931
1073.496, 474.7874
1073.978, 477.8300
1074.460, 481.2444
1074.942, 484.1902
1075.424, 485.9860
1075.906, 487.7919
1076.389, 490.2744
1076.871, 493.4020
1077.353, 497.1408
1077.835, 501.4054
1078.317, 505.4746
1078.799, 508.6401
1079.281, 511.8031
1079.763, 515.4281
1080.245, 519.3884
1080.728, 523.4985
1081.210, 527.7231
1081.692, 532.0225
1082.174, 536.4044
1082.656, 540.6801
1083.138, 544.4799
1083.620, 548.1292
1084.102, 551.9474
1084.585, 555.9864
1085.067, 560.2977
1085.549, 565.0684
1086.031, 569.8826
1086.513, 574.6009
1086.995, 579.3977
1087.477, 584.8998
1087.959, 590.7276
1088.442, 595.6799
1088.924, 599.3542
1089.406, 603.1193
1089.888, 607.6854
1090.370, 612.3741
1090.852, 616.8066
1091.334, 621.0205
1091.816, 625.3964
1092.298, 629.9225
1092.781, 634.2650
1093.263, 638.5739
1093.745, 642.2775
1094.227, 644.4299
1094.709, 645.9678
1095.191, 648.2743
1095.673, 651.8333
1096.155, 654.6302
1096.637, 656.6059
1097.120, 658.2495
1097.602, 659.7881
1098.084, 661.2969
1098.566, 663.1606
1099.048, 665.1224
1099.530, 666.1524
1100.012, 665.4001
1100.494, 664.8004
1100.977, 664.6943
1101.459, 664.6080
1101.941, 663.6491
1102.423, 662.2713
1102.905, 661.7776
1103.387, 662.3239
1103.869, 662.4315
1104.351, 661.1539
1104.833, 659.6269
1105.316, 658.2359
1105.798, 656.9467
1106.280, 655.9168
1106.762, 655.0074
1107.244, 653.1623
1107.726, 649.8149
1108.208, 646.3489
1108.690, 643.3173
1109.172, 640.9097
1109.655, 639.5784
1110.137, 639.3550
1110.619, 638.1318
1111.101, 635.8566
1111.583, 633.3136
1112.065, 630.9680
1112.547, 628.4646
1113.029, 624.9886
1113.512, 621.2755
1113.994, 618.5541
1114.476, 617.8920
1114.958, 616.5046
1115.440, 614.3175
1115.922, 611.6932
1116.404, 608.6025
1116.886, 605.4709
1117.369, 603.0910
1117.851, 601.3810
1118.333, 599.9265
1118.815, 598.9952
1119.297, 597.7186
1119.779, 595.9683
1120.261, 593.8098
1120.743, 591.1323
1121.225, 588.1111
1121.708, 585.3485
1122.190, 582.8723
1122.672, 580.8238
1123.154, 580.1849
1123.636, 578.9240
1124.118, 575.8712
1124.600, 571.7818
1125.082, 568.7408
1125.564, 566.6652
1126.047, 564.7100
1126.529, 562.7366
1127.011, 560.6290
1127.493, 558.1288
1127.975, 555.6125
1128.457, 553.5217
1128.939, 551.8157
1129.421, 549.3517
1129.904, 546.0349
1130.386, 543.1609
1130.868, 541.3773
1131.350, 539.9797
1131.832, 538.3424
1132.314, 536.5483
1132.796, 534.7725
1133.278, 533.0815
1133.760, 531.0444
1134.243, 528.4759
1134.725, 526.2770
1135.207, 525.6074
1135.689, 525.2590
1136.171, 522.8790
1136.653, 519.2887
1137.135, 516.4954
1137.617, 515.7838
1138.099, 514.7948
1138.582, 513.3743
1139.064, 511.7686
1139.546, 510.1350
1140.028, 508.5416
1140.510, 507.2898
1140.992, 506.2878
1141.474, 505.0006
1141.956, 502.8441
1142.439, 500.8338
1142.921, 499.1962
1143.403, 497.7874
1143.885, 496.5324
1144.367, 495.3201
1144.849, 493.4114
1145.331, 490.7195
1145.813, 488.3565
1146.296, 487.1874
1146.778, 486.2121
1147.260, 484.9295
1147.742, 483.4990
1148.224, 482.5109
1148.706, 481.8813
1149.188, 480.8222
1149.670, 479.1081
1150.152, 477.1075
1150.635, 474.6791
1151.117, 472.4075
1151.599, 470.8370
1152.081, 469.8653
1152.563, 468.6298
1153.045, 467.1233
1153.527, 465.3929
1154.009, 463.2982
1154.491, 461.3247
1154.974, 460.3434
1155.456, 459.5324
1155.938, 457.8041
1156.420, 454.9539
1156.902, 452.5783
1157.384, 450.7012
1157.866, 449.1294
1158.348, 447.9776
1158.831, 446.8686
1159.313, 445.2827
1159.795, 443.4868
1160.277, 441.9492
1160.759, 440.7976
1161.241, 439.7890
1161.723, 438.9625
1162.205, 438.1196
1162.688, 437.1787
1163.170, 436.0801
1163.652, 434.4590
1164.134, 432.6034
1164.616, 431.3934
1165.098, 431.4361
1165.580, 431.3745
1166.062, 431.1057
1166.544, 430.7096
1167.026, 430.0941
1167.509, 429.4950
1167.991, 429.6022
1168.473, 430.2595
1168.955, 430.2856
1169.437, 428.8996
1169.919, 427.4130
1170.401, 425.9163
1170.883, 424.6112
1171.366, 423.9159
1171.848, 423.6084
1172.330, 423.1792
1172.812, 422.5747
1173.294, 421.9691
1173.776, 421.2994
1174.258, 420.8404
1174.740, 420.8123
1175.223, 420.8482
1175.705, 420.1892
1176.187, 418.9851
1176.669, 417.5616
1177.151, 415.9081
1177.633, 414.6872
1178.115, 414.5143
1178.597, 414.4560
1179.079, 414.2000
1179.562, 413.7575
1180.044, 413.2139
1180.526, 412.5234
1181.008, 411.4213
1181.490, 409.6572
1181.972, 408.1466
1182.454, 407.3828
1182.936, 406.9308
1183.418, 406.6846
1183.901, 406.5249
1184.383, 405.6204
1184.865, 404.1539
1185.347, 403.0797
1185.829, 403.0453
1186.311, 402.8649
1186.793, 401.9657
1187.275, 400.6619
1187.758, 399.0447
1188.240, 397.1885
1188.722, 396.0781
1189.204, 395.5928
1189.686, 394.8295
1190.168, 392.8315
1190.650, 391.1428
1191.132, 390.9799
1191.615, 391.1595
1192.097, 390.3677
1192.579, 388.5679
1193.061, 387.6720
1193.543, 387.6064
1194.025, 387.4604
1194.507, 386.8781
1194.989, 385.8511
1195.471, 383.8967
1195.953, 381.7849
1196.436, 380.6234
1196.918, 380.4518
1197.400, 379.6601
1197.882, 378.2119
1198.364, 376.8278
1198.846, 375.9547
1199.328, 375.3607
1199.810, 375.2256
1200.293, 375.1424
1200.775, 374.3286
1201.257, 372.7557
1201.739, 371.5913
1202.221, 370.9411
1202.703, 370.5668
1203.185, 370.5447
1203.667, 370.4806
1204.150, 369.8932
1204.632, 369.1340
1205.114, 369.1645
1205.596, 370.0106
1206.078, 370.0456
1206.560, 369.0153
1207.042, 367.8452
1207.524, 367.1019
1208.006, 366.5940
1208.489, 366.2774
1208.971, 366.0838
1209.453, 365.9059
1209.935, 365.7453
1210.417, 365.3385
1210.899, 364.5804
1211.381, 364.1371
1211.863, 365.2474
1212.345, 366.2558
1212.828, 365.5078
1213.310, 363.6378
1213.792, 362.9677
1214.274, 363.4737
1214.756, 364.1543
1215.238, 364.8620
1215.720, 365.2637
1216.202, 364.8553
1216.685, 364.2407
1217.167, 363.8713
1217.649, 363.7015
1218.131, 363.4805
1218.613, 363.2071
1219.095, 362.9448
1219.577, 362.6384
1220.059, 362.6289
1220.542, 363.6694
1221.024, 364.6552
1221.506, 364.6641
1221.988, 363.8595
1222.470, 363.4785
1222.952, 363.4880
1223.434, 363.4001
1223.916, 362.9918
1224.398, 362.6465
1224.880, 362.7272
1225.363, 362.8901
1225.845, 362.8974
1226.327, 362.7521
1226.809, 362.3100
1227.291, 361.6425
1227.773, 361.4198
1228.255, 362.1219
1228.737, 362.7870
1229.220, 362.8733
1229.702, 362.6475
1230.184, 362.2300
1230.666, 361.6744
1231.148, 361.6538
1231.630, 362.0763
1232.112, 362.3095
1232.594, 361.8997
1233.077, 361.6143
1233.559, 361.9924
1234.041, 362.4937
1234.523, 362.7293
1235.005, 362.7338
1235.487, 362.7798
1235.969, 362.8620
1236.451, 362.9506
1236.933, 363.1419
1237.416, 363.1598
1237.898, 362.6191
1238.380, 362.1495
1238.862, 362.2919
1239.344, 362.9129
1239.826, 363.3517
1240.308, 363.5682
1240.790, 363.4054
1241.272, 362.2542
1241.755, 361.5200
1242.237, 361.7548
1242.719, 362.2060
1243.201, 362.2329
1243.683, 361.9881
1244.165, 362.1443
1244.647, 362.6110
1245.129, 363.0427
1245.612, 363.4041
1246.094, 363.5348
1246.576, 363.3276
1247.058, 363.0869
1247.540, 363.0308
1248.022, 363.1569
1248.504, 363.5923
1248.986, 364.2179
1249.469, 364.6318
1249.951, 364.4891
1250.433, 364.4473
1250.915, 364.6284
1251.397, 364.7453
1251.879, 364.4054
1252.361, 363.8927
1252.843, 363.8486
1253.325, 364.1185
1253.807, 364.1709
1254.290, 363.4357
1254.772, 363.3861
1255.254, 364.2874
1255.736, 365.2137
1256.218, 365.3225
1256.700, 364.9864
1257.182, 364.5620
1257.664, 364.1483
1258.147, 364.0268
1258.629, 364.3535
1259.111, 364.6311
1259.593, 364.8663
1260.075, 364.8652
1260.557, 364.1606
1261.039, 363.3935
1261.521, 363.3372
1262.004, 363.7326
1262.486, 363.8302
1262.968, 363.5185
1263.450, 363.2771
1263.932, 363.1324
1264.414, 363.1036
1264.896, 363.2613
1265.378, 363.4850
1265.860, 363.7476
1266.343, 363.9861
1266.825, 364.0224
1267.307, 363.8230
1267.789, 364.0803
1268.271, 364.8340
1268.753, 365.4575
1269.235, 365.5876
1269.717, 365.3948
1270.199, 364.7363
1270.682, 363.9466
1271.164, 363.4167
1271.646, 363.1510
1272.128, 363.2740
1272.610, 363.7590
1273.092, 364.2352
1273.574, 364.6945
1274.056, 364.8075
1274.539, 364.2237
1275.021, 363.5427
1275.503, 363.6456
1275.985, 364.2898
1276.467, 364.5529
1276.949, 364.4213
1277.431, 364.2258
1277.913, 364.0190
1278.396, 363.8901
1278.878, 363.8109
1279.360, 363.8888
1279.842, 364.3697
1280.324, 365.0450
1280.806, 365.4469
1281.288, 365.6132
1281.770, 365.8487
1282.252, 366.5118
1282.734, 366.5995
1283.217, 365.8213
1283.699, 365.1127
1284.181, 365.7553
1284.663, 366.7848
1285.145, 366.8773
1285.627, 366.2081
1286.109, 365.6432
1286.591, 365.2583
1287.074, 364.9503
1287.556, 364.6872
1288.038, 364.7337
1288.520, 365.7044
1289.002, 366.7289
1289.484, 367.0751
1289.966, 366.8571
1290.448, 366.4417
1290.931, 365.8036
1291.413, 365.1674
1291.895, 364.5493
1292.377, 364.4590
1292.859, 365.9380
1293.341, 367.2929
1293.823, 367.3406
1294.305, 366.8275
1294.787, 366.6227
1295.270, 366.6785
1295.752, 366.5479
1296.234, 366.2367
1296.716, 366.0629
1297.198, 366.4254
1297.680, 366.7210
1298.162, 366.9040
1298.644, 366.8405
1299.126, 366.1709
1299.609, 365.1992
1300.091, 364.6205
1300.573, 364.5291
1301.055, 365.0871
1301.537, 366.5489
##END=



