##NAMES=Bobjonesite
##RRUFFID=R060577
##IDEAL CHEMISTRY=V^4+^OS^6+^O_4_&#183;3H_2_O
##LOCALITY=Petrified log in the North Mesa 5 mine, Temple Mountain, Emery County, Utah, USA
##OWNER=RRUFF
##SOURCE=Michael Scott
##DESCRIPTION=Blue tabular crystals
##STATUS=The identification of this mineral has been confirmed by single-crystal X-ray diffraction.
##URL=rruff.info/R060577
9.059570e+001, 2.885618e+002
9.107782e+001, 2.824426e+002
9.155994e+001, 2.802807e+002
9.204205e+001, 2.847330e+002
9.252417e+001, 2.913538e+002
9.300629e+001, 2.988740e+002
9.348840e+001, 3.051651e+002
9.397052e+001, 3.079251e+002
9.445264e+001, 3.058227e+002
9.493475e+001, 3.018375e+002
9.541687e+001, 2.990396e+002
9.589898e+001, 2.984651e+002
9.638110e+001, 2.986669e+002
9.686321e+001, 2.983713e+002
9.734533e+001, 2.968506e+002
9.782745e+001, 2.938641e+002
9.830956e+001, 2.912050e+002
9.879168e+001, 2.896482e+002
9.927380e+001, 2.875989e+002
9.975591e+001, 2.843526e+002
1.002380e+002, 2.801967e+002
1.007201e+002, 2.759382e+002
1.012023e+002, 2.718527e+002
1.016844e+002, 2.680822e+002
1.021665e+002, 2.649153e+002
1.026486e+002, 2.626287e+002
1.031307e+002, 2.606817e+002
1.036128e+002, 2.585008e+002
1.040950e+002, 2.559556e+002
1.045771e+002, 2.537081e+002
1.050592e+002, 2.523072e+002
1.055413e+002, 2.513934e+002
1.060234e+002, 2.505041e+002
1.065055e+002, 2.492593e+002
1.069877e+002, 2.478328e+002
1.074698e+002, 2.470257e+002
1.079519e+002, 2.474383e+002
1.084340e+002, 2.477252e+002
1.089161e+002, 2.473327e+002
1.093982e+002, 2.463612e+002
1.098804e+002, 2.451058e+002
1.103625e+002, 2.437079e+002
1.108446e+002, 2.420405e+002
1.113267e+002, 2.409303e+002
1.118088e+002, 2.407466e+002
1.122909e+002, 2.407567e+002
1.127731e+002, 2.405659e+002
1.132552e+002, 2.401506e+002
1.137373e+002, 2.398018e+002
1.142194e+002, 2.399686e+002
1.147015e+002, 2.412028e+002
1.151836e+002, 2.419627e+002
1.156658e+002, 2.420224e+002
1.161479e+002, 2.417422e+002
1.166300e+002, 2.414536e+002
1.171121e+002, 2.412725e+002
1.175942e+002, 2.411371e+002
1.180763e+002, 2.408854e+002
1.185584e+002, 2.404317e+002
1.190406e+002, 2.400577e+002
1.195227e+002, 2.398414e+002
1.200048e+002, 2.397655e+002
1.204869e+002, 2.397743e+002
1.209690e+002, 2.398150e+002
1.214511e+002, 2.399712e+002
1.219333e+002, 2.403869e+002
1.224154e+002, 2.412349e+002
1.228975e+002, 2.420422e+002
1.233796e+002, 2.424201e+002
1.238617e+002, 2.423534e+002
1.243438e+002, 2.419859e+002
1.248260e+002, 2.410897e+002
1.253081e+002, 2.400221e+002
1.257902e+002, 2.390990e+002
1.262723e+002, 2.384660e+002
1.267544e+002, 2.380013e+002
1.272365e+002, 2.374481e+002
1.277187e+002, 2.367831e+002
1.282008e+002, 2.360514e+002
1.286829e+002, 2.349665e+002
1.291650e+002, 2.338866e+002
1.296471e+002, 2.333716e+002
1.301292e+002, 2.338953e+002
1.306114e+002, 2.353426e+002
1.310935e+002, 2.359992e+002
1.315756e+002, 2.348968e+002
1.320577e+002, 2.338928e+002
1.325398e+002, 2.335592e+002
1.330219e+002, 2.337287e+002
1.335041e+002, 2.338469e+002
1.339862e+002, 2.333564e+002
1.344683e+002, 2.320337e+002
1.349504e+002, 2.317106e+002
1.354325e+002, 2.332921e+002
1.359146e+002, 2.349499e+002
1.363968e+002, 2.356064e+002
1.368789e+002, 2.351768e+002
1.373610e+002, 2.342661e+002
1.378431e+002, 2.334636e+002
1.383252e+002, 2.327420e+002
1.388073e+002, 2.324136e+002
1.392895e+002, 2.328804e+002
1.397716e+002, 2.335987e+002
1.402537e+002, 2.339129e+002
1.407358e+002, 2.336419e+002
1.412179e+002, 2.331065e+002
1.417000e+002, 2.326314e+002
1.421821e+002, 2.322041e+002
1.426643e+002, 2.319328e+002
1.431464e+002, 2.319447e+002
1.436285e+002, 2.321689e+002
1.441106e+002, 2.323692e+002
1.445927e+002, 2.325822e+002
1.450748e+002, 2.326331e+002
1.455570e+002, 2.322443e+002
1.460391e+002, 2.314251e+002
1.465212e+002, 2.307776e+002
1.470033e+002, 2.310246e+002
1.474854e+002, 2.323025e+002
1.479675e+002, 2.331391e+002
1.484497e+002, 2.328844e+002
1.489318e+002, 2.323228e+002
1.494139e+002, 2.317592e+002
1.498960e+002, 2.312804e+002
1.503781e+002, 2.309369e+002
1.508602e+002, 2.308123e+002
1.513424e+002, 2.309478e+002
1.518245e+002, 2.312415e+002
1.523066e+002, 2.319077e+002
1.527887e+002, 2.325727e+002
1.532708e+002, 2.329464e+002
1.537529e+002, 2.329185e+002
1.542351e+002, 2.325863e+002
1.547172e+002, 2.321797e+002
1.551993e+002, 2.314240e+002
1.556814e+002, 2.309452e+002
1.561635e+002, 2.307795e+002
1.566456e+002, 2.308970e+002
1.571278e+002, 2.313725e+002
1.576099e+002, 2.322746e+002
1.580920e+002, 2.334071e+002
1.585741e+002, 2.338986e+002
1.590562e+002, 2.333770e+002
1.595383e+002, 2.327408e+002
1.600205e+002, 2.320859e+002
1.605026e+002, 2.314636e+002
1.609847e+002, 2.309448e+002
1.614668e+002, 2.305211e+002
1.619489e+002, 2.302893e+002
1.624310e+002, 2.305513e+002
1.629131e+002, 2.318193e+002
1.633953e+002, 2.330516e+002
1.638774e+002, 2.335772e+002
1.643595e+002, 2.334558e+002
1.648416e+002, 2.332569e+002
1.653237e+002, 2.333265e+002
1.658058e+002, 2.335625e+002
1.662880e+002, 2.337168e+002
1.667701e+002, 2.337263e+002
1.672522e+002, 2.336742e+002
1.677343e+002, 2.336516e+002
1.682164e+002, 2.336647e+002
1.686985e+002, 2.336780e+002
1.691807e+002, 2.336254e+002
1.696628e+002, 2.335695e+002
1.701449e+002, 2.336098e+002
1.706270e+002, 2.338555e+002
1.711091e+002, 2.341773e+002
1.715912e+002, 2.342384e+002
1.720734e+002, 2.338479e+002
1.725555e+002, 2.335471e+002
1.730376e+002, 2.335076e+002
1.735197e+002, 2.336788e+002
1.740018e+002, 2.340136e+002
1.744839e+002, 2.345303e+002
1.749661e+002, 2.351831e+002
1.754482e+002, 2.356803e+002
1.759303e+002, 2.359198e+002
1.764124e+002, 2.361017e+002
1.768945e+002, 2.363176e+002
1.773766e+002, 2.365162e+002
1.778588e+002, 2.365264e+002
1.783409e+002, 2.361194e+002
1.788230e+002, 2.352849e+002
1.793051e+002, 2.355180e+002
1.797872e+002, 2.385890e+002
1.802693e+002, 2.409898e+002
1.807515e+002, 2.412319e+002
1.812336e+002, 2.398195e+002
1.817157e+002, 2.381941e+002
1.821978e+002, 2.375695e+002
1.826799e+002, 2.380485e+002
1.831620e+002, 2.386082e+002
1.836441e+002, 2.393995e+002
1.841263e+002, 2.401197e+002
1.846084e+002, 2.405782e+002
1.850905e+002, 2.407968e+002
1.855726e+002, 2.409652e+002
1.860547e+002, 2.412823e+002
1.865368e+002, 2.417849e+002
1.870190e+002, 2.419937e+002
1.875011e+002, 2.416763e+002
1.879832e+002, 2.412436e+002
1.884653e+002, 2.408940e+002
1.889474e+002, 2.406673e+002
1.894296e+002, 2.407200e+002
1.899117e+002, 2.413479e+002
1.903938e+002, 2.425296e+002
1.908759e+002, 2.434545e+002
1.913580e+002, 2.439680e+002
1.918401e+002, 2.442117e+002
1.923223e+002, 2.442869e+002
1.928044e+002, 2.441748e+002
1.932865e+002, 2.440529e+002
1.937686e+002, 2.440438e+002
1.942507e+002, 2.441435e+002
1.947328e+002, 2.444247e+002
1.952150e+002, 2.450067e+002
1.956971e+002, 2.457698e+002
1.961792e+002, 2.464872e+002
1.966613e+002, 2.471366e+002
1.971434e+002, 2.477441e+002
1.976255e+002, 2.483228e+002
1.981077e+002, 2.488799e+002
1.985898e+002, 2.494211e+002
1.990719e+002, 2.499266e+002
1.995540e+002, 2.504149e+002
2.000361e+002, 2.509460e+002
2.005182e+002, 2.514559e+002
2.010004e+002, 2.521250e+002
2.014825e+002, 2.531739e+002
2.019646e+002, 2.544510e+002
2.024467e+002, 2.555701e+002
2.029288e+002, 2.561647e+002
2.034109e+002, 2.562792e+002
2.038930e+002, 2.566484e+002
2.043752e+002, 2.574839e+002
2.048573e+002, 2.583799e+002
2.053394e+002, 2.594221e+002
2.058215e+002, 2.604253e+002
2.063036e+002, 2.609931e+002
2.067857e+002, 2.606763e+002
2.072679e+002, 2.594123e+002
2.077500e+002, 2.584944e+002
2.082321e+002, 2.582150e+002
2.087142e+002, 2.580367e+002
2.091963e+002, 2.578505e+002
2.096784e+002, 2.576318e+002
2.101606e+002, 2.573599e+002
2.106427e+002, 2.569691e+002
2.111248e+002, 2.563976e+002
2.116069e+002, 2.562889e+002
2.120890e+002, 2.573131e+002
2.125711e+002, 2.581346e+002
2.130533e+002, 2.579986e+002
2.135354e+002, 2.571087e+002
2.140175e+002, 2.562727e+002
2.144996e+002, 2.562923e+002
2.149817e+002, 2.573870e+002
2.154638e+002, 2.577575e+002
2.159460e+002, 2.570309e+002
2.164281e+002, 2.560923e+002
2.169102e+002, 2.551878e+002
2.173923e+002, 2.544258e+002
2.178744e+002, 2.539849e+002
2.183565e+002, 2.540893e+002
2.188387e+002, 2.548322e+002
2.193208e+002, 2.552913e+002
2.198029e+002, 2.552263e+002
2.202850e+002, 2.551107e+002
2.207671e+002, 2.553243e+002
2.212492e+002, 2.558342e+002
2.217314e+002, 2.562233e+002
2.222135e+002, 2.560786e+002
2.226956e+002, 2.553573e+002
2.231777e+002, 2.549084e+002
2.236598e+002, 2.547550e+002
2.241419e+002, 2.548471e+002
2.246240e+002, 2.552829e+002
2.251062e+002, 2.560384e+002
2.255883e+002, 2.567121e+002
2.260704e+002, 2.568767e+002
2.265525e+002, 2.566238e+002
2.270346e+002, 2.567150e+002
2.275167e+002, 2.575442e+002
2.279989e+002, 2.585200e+002
2.284810e+002, 2.590616e+002
2.289631e+002, 2.591316e+002
2.294452e+002, 2.591170e+002
2.299273e+002, 2.592389e+002
2.304094e+002, 2.594944e+002
2.308916e+002, 2.598754e+002
2.313737e+002, 2.606464e+002
2.318558e+002, 2.613953e+002
2.323379e+002, 2.615392e+002
2.328200e+002, 2.609857e+002
2.333021e+002, 2.604738e+002
2.337843e+002, 2.605570e+002
2.342664e+002, 2.609743e+002
2.347485e+002, 2.613572e+002
2.352306e+002, 2.616387e+002
2.357127e+002, 2.618250e+002
2.361948e+002, 2.617941e+002
2.366770e+002, 2.614046e+002
2.371591e+002, 2.613943e+002
2.376412e+002, 2.627410e+002
2.381233e+002, 2.644991e+002
2.386054e+002, 2.655763e+002
2.390875e+002, 2.654580e+002
2.395697e+002, 2.647765e+002
2.400518e+002, 2.645262e+002
2.405339e+002, 2.648138e+002
2.410160e+002, 2.651962e+002
2.414981e+002, 2.655028e+002
2.419802e+002, 2.658143e+002
2.424624e+002, 2.662363e+002
2.429445e+002, 2.668294e+002
2.434266e+002, 2.674637e+002
2.439087e+002, 2.678561e+002
2.443908e+002, 2.678313e+002
2.448729e+002, 2.680490e+002
2.453550e+002, 2.689977e+002
2.458372e+002, 2.700879e+002
2.463193e+002, 2.708066e+002
2.468014e+002, 2.709737e+002
2.472835e+002, 2.708061e+002
2.477656e+002, 2.706363e+002
2.482477e+002, 2.703985e+002
2.487299e+002, 2.703297e+002
2.492120e+002, 2.706580e+002
2.496941e+002, 2.710396e+002
2.501762e+002, 2.711311e+002
2.506583e+002, 2.708420e+002
2.511404e+002, 2.704856e+002
2.516226e+002, 2.706788e+002
2.521047e+002, 2.718969e+002
2.525868e+002, 2.725658e+002
2.530689e+002, 2.720721e+002
2.535510e+002, 2.713810e+002
2.540331e+002, 2.711568e+002
2.545153e+002, 2.715717e+002
2.549974e+002, 2.723700e+002
2.554795e+002, 2.732426e+002
2.559616e+002, 2.744495e+002
2.564437e+002, 2.751207e+002
2.569258e+002, 2.749149e+002
2.574080e+002, 2.745167e+002
2.578901e+002, 2.743206e+002
2.583722e+002, 2.744222e+002
2.588543e+002, 2.747218e+002
2.593364e+002, 2.751027e+002
2.598185e+002, 2.756197e+002
2.603007e+002, 2.760796e+002
2.607828e+002, 2.765053e+002
2.612649e+002, 2.768741e+002
2.617470e+002, 2.771650e+002
2.622291e+002, 2.773803e+002
2.627112e+002, 2.775197e+002
2.631934e+002, 2.775272e+002
2.636755e+002, 2.771953e+002
2.641576e+002, 2.775552e+002
2.646397e+002, 2.792838e+002
2.651218e+002, 2.809961e+002
2.656039e+002, 2.818105e+002
2.660861e+002, 2.817847e+002
2.665682e+002, 2.816061e+002
2.670503e+002, 2.819453e+002
2.675324e+002, 2.828897e+002
2.680145e+002, 2.838260e+002
2.684966e+002, 2.848846e+002
2.689788e+002, 2.858227e+002
2.694609e+002, 2.864748e+002
2.699430e+002, 2.868799e+002
2.704251e+002, 2.871874e+002
2.709072e+002, 2.874961e+002
2.713893e+002, 2.877986e+002
2.718715e+002, 2.883026e+002
2.723536e+002, 2.891184e+002
2.728357e+002, 2.899781e+002
2.733178e+002, 2.907912e+002
2.737999e+002, 2.915550e+002
2.742820e+002, 2.923115e+002
2.747642e+002, 2.931196e+002
2.752463e+002, 2.939486e+002
2.757284e+002, 2.943740e+002
2.762105e+002, 2.940792e+002
2.766926e+002, 2.938265e+002
2.771747e+002, 2.940000e+002
2.776568e+002, 2.944125e+002
2.781389e+002, 2.946411e+002
2.786211e+002, 2.944555e+002
2.791032e+002, 2.939157e+002
2.795853e+002, 2.932456e+002
2.800674e+002, 2.921184e+002
2.805495e+002, 2.912618e+002
2.810316e+002, 2.910397e+002
2.815138e+002, 2.911899e+002
2.819959e+002, 2.912455e+002
2.824780e+002, 2.910002e+002
2.829601e+002, 2.905709e+002
2.834422e+002, 2.902523e+002
2.839243e+002, 2.900368e+002
2.844065e+002, 2.899188e+002
2.848886e+002, 2.900419e+002
2.853707e+002, 2.902261e+002
2.858528e+002, 2.901574e+002
2.863349e+002, 2.897091e+002
2.868170e+002, 2.891269e+002
2.872992e+002, 2.888140e+002
2.877813e+002, 2.887871e+002
2.882634e+002, 2.889330e+002
2.887455e+002, 2.893648e+002
2.892276e+002, 2.899106e+002
2.897097e+002, 2.903721e+002
2.901919e+002, 2.907050e+002
2.906740e+002, 2.909480e+002
2.911561e+002, 2.911353e+002
2.916382e+002, 2.912597e+002
2.921203e+002, 2.913752e+002
2.926024e+002, 2.914955e+002
2.930846e+002, 2.916037e+002
2.935667e+002, 2.916382e+002
2.940488e+002, 2.915952e+002
2.945309e+002, 2.916297e+002
2.950130e+002, 2.919008e+002
2.954951e+002, 2.924204e+002
2.959773e+002, 2.929494e+002
2.964594e+002, 2.936239e+002
2.969415e+002, 2.941992e+002
2.974236e+002, 2.943560e+002
2.979057e+002, 2.941310e+002
2.983878e+002, 2.940446e+002
2.988700e+002, 2.945810e+002
2.993521e+002, 2.955782e+002
2.998342e+002, 2.960198e+002
3.003163e+002, 2.952892e+002
3.007984e+002, 2.945707e+002
3.012805e+002, 2.946169e+002
3.017627e+002, 2.953035e+002
3.022448e+002, 2.960258e+002
3.027269e+002, 2.964503e+002
3.032090e+002, 2.967182e+002
3.036911e+002, 2.972921e+002
3.041732e+002, 2.985457e+002
3.046554e+002, 2.994922e+002
3.051375e+002, 2.994247e+002
3.056196e+002, 2.986982e+002
3.061017e+002, 2.982304e+002
3.065838e+002, 2.983831e+002
3.070659e+002, 2.989265e+002
3.075481e+002, 2.994720e+002
3.080302e+002, 3.000633e+002
3.085123e+002, 3.005255e+002
3.089944e+002, 3.006914e+002
3.094765e+002, 3.007140e+002
3.099586e+002, 3.009011e+002
3.104408e+002, 3.013688e+002
3.109229e+002, 3.018370e+002
3.114050e+002, 3.017778e+002
3.118871e+002, 3.011475e+002
3.123692e+002, 3.009636e+002
3.128513e+002, 3.016972e+002
3.133335e+002, 3.028541e+002
3.138156e+002, 3.038724e+002
3.142977e+002, 3.046663e+002
3.147798e+002, 3.054235e+002
3.152619e+002, 3.064240e+002
3.157440e+002, 3.076145e+002
3.162262e+002, 3.083174e+002
3.167083e+002, 3.081129e+002
3.171904e+002, 3.076566e+002
3.176725e+002, 3.074355e+002
3.181546e+002, 3.074666e+002
3.186367e+002, 3.076457e+002
3.191188e+002, 3.079580e+002
3.196010e+002, 3.083608e+002
3.200831e+002, 3.086535e+002
3.205652e+002, 3.087539e+002
3.210473e+002, 3.088325e+002
3.215294e+002, 3.089600e+002
3.220115e+002, 3.091382e+002
3.224937e+002, 3.094199e+002
3.229758e+002, 3.099104e+002
3.234579e+002, 3.104189e+002
3.239400e+002, 3.104247e+002
3.244221e+002, 3.097355e+002
3.249042e+002, 3.090689e+002
3.253864e+002, 3.085825e+002
3.258685e+002, 3.083032e+002
3.263506e+002, 3.083408e+002
3.268327e+002, 3.087807e+002
3.273148e+002, 3.093633e+002
3.277969e+002, 3.096886e+002
3.282791e+002, 3.097428e+002
3.287612e+002, 3.097158e+002
3.292433e+002, 3.095380e+002
3.297254e+002, 3.093442e+002
3.302075e+002, 3.092860e+002
3.306896e+002, 3.093894e+002
3.311718e+002, 3.096116e+002
3.316539e+002, 3.099430e+002
3.321360e+002, 3.103936e+002
3.326181e+002, 3.107827e+002
3.331002e+002, 3.109870e+002
3.335823e+002, 3.112145e+002
3.340645e+002, 3.116710e+002
3.345466e+002, 3.123287e+002
3.350287e+002, 3.129560e+002
3.355108e+002, 3.133792e+002
3.359929e+002, 3.136273e+002
3.364750e+002, 3.139346e+002
3.369572e+002, 3.142285e+002
3.374393e+002, 3.146469e+002
3.379214e+002, 3.154310e+002
3.384035e+002, 3.163910e+002
3.388856e+002, 3.170625e+002
3.393677e+002, 3.172168e+002
3.398499e+002, 3.169847e+002
3.403320e+002, 3.166597e+002
3.408141e+002, 3.159714e+002
3.412962e+002, 3.156746e+002
3.417783e+002, 3.161413e+002
3.422604e+002, 3.169960e+002
3.427426e+002, 3.178659e+002
3.432247e+002, 3.186434e+002
3.437068e+002, 3.191488e+002
3.441889e+002, 3.190623e+002
3.446710e+002, 3.180324e+002
3.451531e+002, 3.174416e+002
3.456353e+002, 3.174374e+002
3.461174e+002, 3.177833e+002
3.465995e+002, 3.184976e+002
3.470816e+002, 3.194793e+002
3.475637e+002, 3.202914e+002
3.480458e+002, 3.204802e+002
3.485280e+002, 3.200009e+002
3.490101e+002, 3.199002e+002
3.494922e+002, 3.203373e+002
3.499743e+002, 3.209214e+002
3.504564e+002, 3.216288e+002
3.509385e+002, 3.223539e+002
3.514207e+002, 3.228691e+002
3.519028e+002, 3.230152e+002
3.523849e+002, 3.229019e+002
3.528670e+002, 3.230015e+002
3.533491e+002, 3.237367e+002
3.538312e+002, 3.241616e+002
3.543134e+002, 3.235323e+002
3.547955e+002, 3.227813e+002
3.552776e+002, 3.232399e+002
3.557597e+002, 3.253325e+002
3.562418e+002, 3.280056e+002
3.567239e+002, 3.294422e+002
3.572061e+002, 3.286864e+002
3.576882e+002, 3.286030e+002
3.581703e+002, 3.299493e+002
3.586524e+002, 3.313371e+002
3.591345e+002, 3.316521e+002
3.596166e+002, 3.309217e+002
3.600987e+002, 3.300600e+002
3.605808e+002, 3.300098e+002
3.610630e+002, 3.309088e+002
3.615451e+002, 3.312636e+002
3.620272e+002, 3.305005e+002
3.625093e+002, 3.298246e+002
3.629914e+002, 3.295284e+002
3.634735e+002, 3.296241e+002
3.639557e+002, 3.301383e+002
3.644378e+002, 3.311279e+002
3.649199e+002, 3.324228e+002
3.654020e+002, 3.332919e+002
3.658841e+002, 3.334775e+002
3.663662e+002, 3.335519e+002
3.668484e+002, 3.332968e+002
3.673305e+002, 3.331125e+002
3.678126e+002, 3.334889e+002
3.682947e+002, 3.345498e+002
3.687768e+002, 3.358632e+002
3.692589e+002, 3.367430e+002
3.697411e+002, 3.370005e+002
3.702232e+002, 3.373266e+002
3.707053e+002, 3.380851e+002
3.711874e+002, 3.386326e+002
3.716695e+002, 3.384079e+002
3.721516e+002, 3.375622e+002
3.726338e+002, 3.368067e+002
3.731159e+002, 3.367998e+002
3.735980e+002, 3.375174e+002
3.740801e+002, 3.381823e+002
3.745622e+002, 3.385743e+002
3.750443e+002, 3.392049e+002
3.755265e+002, 3.408177e+002
3.760086e+002, 3.426426e+002
3.764907e+002, 3.433503e+002
3.769728e+002, 3.420910e+002
3.774549e+002, 3.398527e+002
3.779370e+002, 3.388203e+002
3.784192e+002, 3.392518e+002
3.789013e+002, 3.401852e+002
3.793834e+002, 3.421594e+002
3.798655e+002, 3.440435e+002
3.803476e+002, 3.447533e+002
3.808297e+002, 3.440898e+002
3.813119e+002, 3.431545e+002
3.817940e+002, 3.430644e+002
3.822761e+002, 3.438028e+002
3.827582e+002, 3.445602e+002
3.832403e+002, 3.452910e+002
3.837224e+002, 3.459516e+002
3.842046e+002, 3.464735e+002
3.846867e+002, 3.468976e+002
3.851688e+002, 3.473848e+002
3.856509e+002, 3.481673e+002
3.861330e+002, 3.490419e+002
3.866151e+002, 3.494699e+002
3.870973e+002, 3.493118e+002
3.875794e+002, 3.492024e+002
3.880615e+002, 3.497347e+002
3.885436e+002, 3.504757e+002
3.890257e+002, 3.507062e+002
3.895078e+002, 3.499178e+002
3.899900e+002, 3.492714e+002
3.904721e+002, 3.500950e+002
3.909542e+002, 3.521753e+002
3.914363e+002, 3.537995e+002
3.919184e+002, 3.543107e+002
3.924005e+002, 3.542318e+002
3.928827e+002, 3.542606e+002
3.933648e+002, 3.543965e+002
3.938469e+002, 3.545976e+002
3.943290e+002, 3.547996e+002
3.948111e+002, 3.550747e+002
3.952932e+002, 3.556268e+002
3.957754e+002, 3.565250e+002
3.962575e+002, 3.573311e+002
3.967396e+002, 3.575765e+002
3.972217e+002, 3.573201e+002
3.977038e+002, 3.573326e+002
3.981859e+002, 3.579307e+002
3.986681e+002, 3.585605e+002
3.991501e+002, 3.588362e+002
3.996323e+002, 3.588264e+002
4.001144e+002, 3.588005e+002
4.005965e+002, 3.588847e+002
4.010786e+002, 3.590504e+002
4.015607e+002, 3.592024e+002
4.020428e+002, 3.591337e+002
4.025250e+002, 3.593984e+002
4.030071e+002, 3.602579e+002
4.034892e+002, 3.614231e+002
4.039713e+002, 3.627057e+002
4.044534e+002, 3.640195e+002
4.049355e+002, 3.650629e+002
4.054177e+002, 3.654183e+002
4.058998e+002, 3.648768e+002
4.063819e+002, 3.646674e+002
4.068640e+002, 3.650254e+002
4.073461e+002, 3.654469e+002
4.078282e+002, 3.657050e+002
4.083104e+002, 3.658219e+002
4.087925e+002, 3.658876e+002
4.092746e+002, 3.659445e+002
4.097567e+002, 3.660313e+002
4.102388e+002, 3.663242e+002
4.107209e+002, 3.669559e+002
4.112031e+002, 3.676417e+002
4.116852e+002, 3.684827e+002
4.121673e+002, 3.692990e+002
4.126494e+002, 3.699384e+002
4.131315e+002, 3.703564e+002
4.136136e+002, 3.705845e+002
4.140958e+002, 3.706004e+002
4.145779e+002, 3.702820e+002
4.150600e+002, 3.702459e+002
4.155421e+002, 3.707686e+002
4.160242e+002, 3.713254e+002
4.165063e+002, 3.716606e+002
4.169885e+002, 3.718658e+002
4.174706e+002, 3.721822e+002
4.179527e+002, 3.727699e+002
4.184348e+002, 3.735793e+002
4.189169e+002, 3.744811e+002
4.193990e+002, 3.755641e+002
4.198812e+002, 3.765307e+002
4.203633e+002, 3.773723e+002
4.208454e+002, 3.780172e+002
4.213275e+002, 3.782203e+002
4.218096e+002, 3.779001e+002
4.222917e+002, 3.777318e+002
4.227739e+002, 3.786401e+002
4.232560e+002, 3.805510e+002
4.237381e+002, 3.819363e+002
4.242202e+002, 3.823141e+002
4.247023e+002, 3.824507e+002
4.251844e+002, 3.830738e+002
4.256666e+002, 3.840044e+002
4.261487e+002, 3.845847e+002
4.266308e+002, 3.842224e+002
4.271129e+002, 3.834943e+002
4.275950e+002, 3.832098e+002
4.280771e+002, 3.833787e+002
4.285593e+002, 3.838951e+002
4.290414e+002, 3.848846e+002
4.295235e+002, 3.861099e+002
4.300056e+002, 3.870522e+002
4.304877e+002, 3.876934e+002
4.309698e+002, 3.880985e+002
4.314520e+002, 3.880820e+002
4.319341e+002, 3.878843e+002
4.324162e+002, 3.880626e+002
4.328983e+002, 3.887956e+002
4.333804e+002, 3.896144e+002
4.338625e+002, 3.898993e+002
4.343447e+002, 3.895387e+002
4.348268e+002, 3.896171e+002
4.353089e+002, 3.904562e+002
4.357910e+002, 3.914982e+002
4.362731e+002, 3.925893e+002
4.367552e+002, 3.935953e+002
4.372374e+002, 3.941246e+002
4.377195e+002, 3.938798e+002
4.382016e+002, 3.931271e+002
4.386837e+002, 3.928905e+002
4.391658e+002, 3.936835e+002
4.396479e+002, 3.943437e+002
4.401301e+002, 3.945150e+002
4.406122e+002, 3.946789e+002
4.410943e+002, 3.954732e+002
4.415764e+002, 3.969259e+002
4.420585e+002, 3.983298e+002
4.425406e+002, 3.987860e+002
4.430227e+002, 3.980931e+002
4.435049e+002, 3.979479e+002
4.439870e+002, 3.987811e+002
4.444691e+002, 3.997286e+002
4.449512e+002, 4.006900e+002
4.454333e+002, 4.015545e+002
4.459154e+002, 4.021292e+002
4.463976e+002, 4.022701e+002
4.468797e+002, 4.022658e+002
4.473618e+002, 4.028022e+002
4.478439e+002, 4.040735e+002
4.483260e+002, 4.053038e+002
4.488081e+002, 4.066084e+002
4.492903e+002, 4.076392e+002
4.497724e+002, 4.079311e+002
4.502545e+002, 4.075734e+002
4.507366e+002, 4.073734e+002
4.512187e+002, 4.081643e+002
4.517008e+002, 4.096666e+002
4.521830e+002, 4.105746e+002
4.526651e+002, 4.105761e+002
4.531472e+002, 4.106929e+002
4.536293e+002, 4.118764e+002
4.541114e+002, 4.134712e+002
4.545935e+002, 4.145057e+002
4.550757e+002, 4.145875e+002
4.555578e+002, 4.144283e+002
4.560399e+002, 4.144670e+002
4.565220e+002, 4.147272e+002
4.570041e+002, 4.153401e+002
4.574862e+002, 4.163905e+002
4.579684e+002, 4.177127e+002
4.584505e+002, 4.192822e+002
4.589326e+002, 4.211216e+002
4.594147e+002, 4.224414e+002
4.598968e+002, 4.229734e+002
4.603789e+002, 4.230175e+002
4.608611e+002, 4.223742e+002
4.613432e+002, 4.213077e+002
4.618253e+002, 4.211275e+002
4.623074e+002, 4.228467e+002
4.627895e+002, 4.258582e+002
4.632716e+002, 4.276540e+002
4.637538e+002, 4.271903e+002
4.642359e+002, 4.269714e+002
4.647180e+002, 4.274134e+002
4.652001e+002, 4.281594e+002
4.656822e+002, 4.288721e+002
4.661643e+002, 4.294745e+002
4.666465e+002, 4.300685e+002
4.671286e+002, 4.308272e+002
4.676107e+002, 4.318369e+002
4.680928e+002, 4.321973e+002
4.685749e+002, 4.310919e+002
4.690570e+002, 4.301967e+002
4.695392e+002, 4.298829e+002
4.700213e+002, 4.300845e+002
4.705034e+002, 4.307267e+002
4.709855e+002, 4.317903e+002
4.714676e+002, 4.330737e+002
4.719497e+002, 4.342693e+002
4.724319e+002, 4.354058e+002
4.729140e+002, 4.363210e+002
4.733961e+002, 4.366279e+002
4.738782e+002, 4.370202e+002
4.743603e+002, 4.381453e+002
4.748424e+002, 4.397857e+002
4.753246e+002, 4.410317e+002
4.758067e+002, 4.410714e+002
4.762888e+002, 4.404448e+002
4.767709e+002, 4.403439e+002
4.772530e+002, 4.408362e+002
4.777351e+002, 4.414501e+002
4.782173e+002, 4.420883e+002
4.786994e+002, 4.426509e+002
4.791815e+002, 4.429414e+002
4.796636e+002, 4.428495e+002
4.801457e+002, 4.428601e+002
4.806278e+002, 4.433827e+002
4.811100e+002, 4.441279e+002
4.815920e+002, 4.444896e+002
4.820742e+002, 4.443431e+002
4.825563e+002, 4.442160e+002
4.830384e+002, 4.446386e+002
4.835205e+002, 4.455958e+002
4.840026e+002, 4.462104e+002
4.844847e+002, 4.463524e+002
4.849669e+002, 4.463143e+002
4.854490e+002, 4.461226e+002
4.859311e+002, 4.458492e+002
4.864132e+002, 4.454958e+002
4.868953e+002, 4.450672e+002
4.873774e+002, 4.448717e+002
4.878596e+002, 4.454476e+002
4.883417e+002, 4.470938e+002
4.888238e+002, 4.487364e+002
4.893059e+002, 4.505664e+002
4.897880e+002, 4.522135e+002
4.902701e+002, 4.536665e+002
4.907523e+002, 4.547813e+002
4.912344e+002, 4.552660e+002
4.917165e+002, 4.549076e+002
4.921986e+002, 4.539058e+002
4.926807e+002, 4.526019e+002
4.931628e+002, 4.505030e+002
4.936450e+002, 4.494814e+002
4.941271e+002, 4.510829e+002
4.946092e+002, 4.530743e+002
4.950913e+002, 4.538919e+002
4.955734e+002, 4.535146e+002
4.960555e+002, 4.530948e+002
4.965377e+002, 4.535199e+002
4.970198e+002, 4.544973e+002
4.975019e+002, 4.552024e+002
4.979840e+002, 4.555565e+002
4.984661e+002, 4.559473e+002
4.989482e+002, 4.567805e+002
4.994304e+002, 4.577070e+002
4.999125e+002, 4.579980e+002
5.003946e+002, 4.572911e+002
5.008767e+002, 4.567528e+002
5.013588e+002, 4.570773e+002
5.018409e+002, 4.579284e+002
5.023231e+002, 4.587687e+002
5.028052e+002, 4.594899e+002
5.032873e+002, 4.600890e+002
5.037694e+002, 4.605567e+002
5.042515e+002, 4.608913e+002
5.047336e+002, 4.611380e+002
5.052158e+002, 4.610174e+002
5.056979e+002, 4.611294e+002
5.061800e+002, 4.617365e+002
5.066621e+002, 4.626986e+002
5.071442e+002, 4.639229e+002
5.076263e+002, 4.653484e+002
5.081085e+002, 4.666498e+002
5.085906e+002, 4.672302e+002
5.090727e+002, 4.667507e+002
5.095548e+002, 4.667736e+002
5.100369e+002, 4.679721e+002
5.105190e+002, 4.689961e+002
5.110012e+002, 4.691479e+002
5.114833e+002, 4.687721e+002
5.119654e+002, 4.685547e+002
5.124475e+002, 4.688311e+002
5.129296e+002, 4.694486e+002
5.134117e+002, 4.701682e+002
5.138939e+002, 4.710033e+002
5.143760e+002, 4.718645e+002
5.148581e+002, 4.727509e+002
5.153402e+002, 4.736479e+002
5.158223e+002, 4.748154e+002
5.163044e+002, 4.761142e+002
5.167866e+002, 4.766471e+002
5.172687e+002, 4.752751e+002
5.177508e+002, 4.733741e+002
5.182329e+002, 4.727337e+002
5.187150e+002, 4.733158e+002
5.191971e+002, 4.742413e+002
5.196793e+002, 4.751825e+002
5.201614e+002, 4.761203e+002
5.206435e+002, 4.770304e+002
5.211256e+002, 4.780353e+002
5.216077e+002, 4.786946e+002
5.220898e+002, 4.785523e+002
5.225720e+002, 4.782964e+002
5.230541e+002, 4.786113e+002
5.235362e+002, 4.794525e+002
5.240183e+002, 4.802604e+002
5.245004e+002, 4.806006e+002
5.249825e+002, 4.806109e+002
5.254647e+002, 4.810376e+002
5.259468e+002, 4.824284e+002
5.264289e+002, 4.834480e+002
5.269110e+002, 4.836601e+002
5.273931e+002, 4.837034e+002
5.278752e+002, 4.841472e+002
5.283574e+002, 4.850178e+002
5.288395e+002, 4.858958e+002
5.293216e+002, 4.863643e+002
5.298037e+002, 4.865113e+002
5.302858e+002, 4.868976e+002
5.307679e+002, 4.876149e+002
5.312501e+002, 4.883584e+002
5.317322e+002, 4.891321e+002
5.322143e+002, 4.897978e+002
5.326964e+002, 4.901513e+002
5.331785e+002, 4.901181e+002
5.336606e+002, 4.900733e+002
5.341428e+002, 4.901509e+002
5.346249e+002, 4.904119e+002
5.351070e+002, 4.910611e+002
5.355891e+002, 4.921473e+002
5.360712e+002, 4.933112e+002
5.365533e+002, 4.942885e+002
5.370355e+002, 4.951094e+002
5.375176e+002, 4.959613e+002
5.379997e+002, 4.971438e+002
5.384818e+002, 4.979950e+002
5.389639e+002, 4.982407e+002
5.394460e+002, 4.980966e+002
5.399282e+002, 4.977201e+002
5.404103e+002, 4.971957e+002
5.408924e+002, 4.967271e+002
5.413745e+002, 4.965130e+002
5.418566e+002, 4.965526e+002
5.423387e+002, 4.968771e+002
5.428209e+002, 4.977108e+002
5.433029e+002, 4.985748e+002
5.437850e+002, 4.993142e+002
5.442672e+002, 5.000616e+002
5.447493e+002, 5.010645e+002
5.452314e+002, 5.023655e+002
5.457135e+002, 5.035602e+002
5.461956e+002, 5.041488e+002
5.466777e+002, 5.041773e+002
5.471599e+002, 5.040732e+002
5.476420e+002, 5.036178e+002
5.481241e+002, 5.035432e+002
5.486062e+002, 5.047999e+002
5.490883e+002, 5.066384e+002
5.495704e+002, 5.077677e+002
5.500526e+002, 5.075451e+002
5.505347e+002, 5.075047e+002
5.510168e+002, 5.091575e+002
5.514989e+002, 5.115902e+002
5.519810e+002, 5.127516e+002
5.524631e+002, 5.121937e+002
5.529453e+002, 5.111450e+002
5.534274e+002, 5.106586e+002
5.539095e+002, 5.107384e+002
5.543916e+002, 5.112191e+002
5.548737e+002, 5.123889e+002
5.553558e+002, 5.135467e+002
5.558380e+002, 5.145469e+002
5.563201e+002, 5.154126e+002
5.568022e+002, 5.160766e+002
5.572843e+002, 5.165688e+002
5.577664e+002, 5.171680e+002
5.582485e+002, 5.183204e+002
5.587307e+002, 5.200616e+002
5.592128e+002, 5.211605e+002
5.596949e+002, 5.213002e+002
5.601770e+002, 5.212059e+002
5.606591e+002, 5.207487e+002
5.611412e+002, 5.203914e+002
5.616234e+002, 5.208751e+002
5.621055e+002, 5.224666e+002
5.625876e+002, 5.240071e+002
5.630697e+002, 5.243236e+002
5.635518e+002, 5.237645e+002
5.640339e+002, 5.234522e+002
5.645161e+002, 5.235056e+002
5.649982e+002, 5.238638e+002
5.654803e+002, 5.245378e+002
5.659624e+002, 5.254985e+002
5.664445e+002, 5.265468e+002
5.669266e+002, 5.278499e+002
5.674088e+002, 5.290014e+002
5.678909e+002, 5.298129e+002
5.683730e+002, 5.304188e+002
5.688551e+002, 5.309320e+002
5.693372e+002, 5.313987e+002
5.698193e+002, 5.319620e+002
5.703015e+002, 5.328033e+002
5.707836e+002, 5.338865e+002
5.712657e+002, 5.344455e+002
5.717478e+002, 5.337037e+002
5.722299e+002, 5.334872e+002
5.727120e+002, 5.343951e+002
5.731942e+002, 5.357275e+002
5.736763e+002, 5.369444e+002
5.741584e+002, 5.379135e+002
5.746405e+002, 5.386193e+002
5.751226e+002, 5.387809e+002
5.756047e+002, 5.386335e+002
5.760869e+002, 5.394101e+002
5.765690e+002, 5.414736e+002
5.770511e+002, 5.428909e+002
5.775332e+002, 5.422369e+002
5.780153e+002, 5.406659e+002
5.784974e+002, 5.399745e+002
5.789796e+002, 5.402330e+002
5.794617e+002, 5.411890e+002
5.799438e+002, 5.434312e+002
5.804259e+002, 5.459182e+002
5.809080e+002, 5.474358e+002
5.813901e+002, 5.479612e+002
5.818723e+002, 5.481422e+002
5.823544e+002, 5.483561e+002
5.828365e+002, 5.485880e+002
5.833186e+002, 5.487623e+002
5.838007e+002, 5.483001e+002
5.842828e+002, 5.487194e+002
5.847650e+002, 5.510507e+002
5.852471e+002, 5.533779e+002
5.857292e+002, 5.544473e+002
5.862113e+002, 5.543585e+002
5.866934e+002, 5.537950e+002
5.871755e+002, 5.530525e+002
5.876577e+002, 5.523502e+002
5.881398e+002, 5.521898e+002
5.886219e+002, 5.525959e+002
5.891040e+002, 5.534129e+002
5.895861e+002, 5.548917e+002
5.900682e+002, 5.564609e+002
5.905504e+002, 5.574218e+002
5.910325e+002, 5.579061e+002
5.915146e+002, 5.587872e+002
5.919967e+002, 5.610554e+002
5.924788e+002, 5.632074e+002
5.929609e+002, 5.636002e+002
5.934431e+002, 5.627758e+002
5.939252e+002, 5.623339e+002
5.944073e+002, 5.628420e+002
5.948894e+002, 5.640430e+002
5.953715e+002, 5.656840e+002
5.958536e+002, 5.679968e+002
5.963358e+002, 5.696918e+002
5.968179e+002, 5.709247e+002
5.973000e+002, 5.714723e+002
5.977821e+002, 5.705009e+002
5.982642e+002, 5.690703e+002
5.987463e+002, 5.688019e+002
5.992285e+002, 5.702156e+002
5.997106e+002, 5.721064e+002
6.001927e+002, 5.727484e+002
6.006748e+002, 5.722245e+002
6.011569e+002, 5.730778e+002
6.016390e+002, 5.762983e+002
6.021212e+002, 5.789995e+002
6.026033e+002, 5.787914e+002
6.030854e+002, 5.772225e+002
6.035675e+002, 5.766293e+002
6.040496e+002, 5.775273e+002
6.045317e+002, 5.786741e+002
6.050139e+002, 5.794767e+002
6.054960e+002, 5.801310e+002
6.059781e+002, 5.810621e+002
6.064602e+002, 5.822532e+002
6.069423e+002, 5.830493e+002
6.074244e+002, 5.828832e+002
6.079066e+002, 5.820439e+002
6.083887e+002, 5.818274e+002
6.088708e+002, 5.823231e+002
6.093529e+002, 5.833909e+002
6.098350e+002, 5.857833e+002
6.103171e+002, 5.881137e+002
6.107993e+002, 5.892514e+002
6.112814e+002, 5.893901e+002
6.117635e+002, 5.895428e+002
6.122456e+002, 5.904174e+002
6.127277e+002, 5.915815e+002
6.132098e+002, 5.919500e+002
6.136920e+002, 5.914083e+002
6.141741e+002, 5.914957e+002
6.146562e+002, 5.929468e+002
6.151383e+002, 5.946705e+002
6.156204e+002, 5.955018e+002
6.161025e+002, 5.955932e+002
6.165847e+002, 5.958221e+002
6.170668e+002, 5.964733e+002
6.175489e+002, 5.972050e+002
6.180310e+002, 5.978497e+002
6.185131e+002, 5.984060e+002
6.189952e+002, 5.988027e+002
6.194774e+002, 5.990334e+002
6.199595e+002, 5.993768e+002
6.204416e+002, 6.001804e+002
6.209237e+002, 6.014793e+002
6.214058e+002, 6.027836e+002
6.218879e+002, 6.045991e+002
6.223701e+002, 6.057707e+002
6.228522e+002, 6.052916e+002
6.233343e+002, 6.044985e+002
6.238164e+002, 6.050610e+002
6.242985e+002, 6.071736e+002
6.247806e+002, 6.090810e+002
6.252628e+002, 6.088560e+002
6.257448e+002, 6.074061e+002
6.262269e+002, 6.073381e+002
6.267090e+002, 6.088239e+002
6.271912e+002, 6.102520e+002
6.276733e+002, 6.108809e+002
6.281554e+002, 6.110408e+002
6.286375e+002, 6.112819e+002
6.291196e+002, 6.115370e+002
6.296017e+002, 6.121105e+002
6.300839e+002, 6.134417e+002
6.305660e+002, 6.147519e+002
6.310481e+002, 6.153030e+002
6.315302e+002, 6.154074e+002
6.320123e+002, 6.158997e+002
6.324944e+002, 6.171600e+002
6.329766e+002, 6.188063e+002
6.334587e+002, 6.202025e+002
6.339408e+002, 6.213057e+002
6.344229e+002, 6.224365e+002
6.349050e+002, 6.239901e+002
6.353871e+002, 6.250214e+002
6.358693e+002, 6.246314e+002
6.363514e+002, 6.236750e+002
6.368335e+002, 6.235173e+002
6.373156e+002, 6.246046e+002
6.377977e+002, 6.259362e+002
6.382798e+002, 6.268009e+002
6.387620e+002, 6.274150e+002
6.392441e+002, 6.282151e+002
6.397262e+002, 6.292432e+002
6.402083e+002, 6.302877e+002
6.406904e+002, 6.312369e+002
6.411725e+002, 6.320712e+002
6.416547e+002, 6.327305e+002
6.421368e+002, 6.332816e+002
6.426189e+002, 6.335226e+002
6.431010e+002, 6.328992e+002
6.435831e+002, 6.324545e+002
6.440652e+002, 6.330881e+002
6.445474e+002, 6.344517e+002
6.450295e+002, 6.355229e+002
6.455116e+002, 6.357140e+002
6.459937e+002, 6.355983e+002
6.464758e+002, 6.360739e+002
6.469579e+002, 6.371379e+002
6.474401e+002, 6.385018e+002
6.479222e+002, 6.403477e+002
6.484043e+002, 6.420144e+002
6.488864e+002, 6.430718e+002
6.493685e+002, 6.435378e+002
6.498506e+002, 6.433669e+002
6.503328e+002, 6.417428e+002
6.508149e+002, 6.407484e+002
6.512970e+002, 6.418591e+002
6.517791e+002, 6.436872e+002
6.522612e+002, 6.445182e+002
6.527433e+002, 6.442332e+002
6.532255e+002, 6.437457e+002
6.537076e+002, 6.437027e+002
6.541897e+002, 6.440407e+002
6.546718e+002, 6.445245e+002
6.551539e+002, 6.450995e+002
6.556360e+002, 6.459416e+002
6.561182e+002, 6.472845e+002
6.566003e+002, 6.487211e+002
6.570824e+002, 6.500957e+002
6.575645e+002, 6.513806e+002
6.580466e+002, 6.525417e+002
6.585287e+002, 6.536142e+002
6.590109e+002, 6.544810e+002
6.594930e+002, 6.547842e+002
6.599751e+002, 6.547956e+002
6.604572e+002, 6.553368e+002
6.609393e+002, 6.565912e+002
6.614214e+002, 6.581412e+002
6.619036e+002, 6.597494e+002
6.623857e+002, 6.613514e+002
6.628678e+002, 6.622001e+002
6.633499e+002, 6.615905e+002
6.638320e+002, 6.611616e+002
6.643141e+002, 6.610976e+002
6.647963e+002, 6.612386e+002
6.652784e+002, 6.615253e+002
6.657605e+002, 6.619054e+002
6.662426e+002, 6.622357e+002
6.667247e+002, 6.623245e+002
6.672068e+002, 6.624975e+002
6.676890e+002, 6.635045e+002
6.681711e+002, 6.653164e+002
6.686532e+002, 6.668917e+002
6.691353e+002, 6.679725e+002
6.696174e+002, 6.688093e+002
6.700995e+002, 6.695929e+002
6.705817e+002, 6.703162e+002
6.710638e+002, 6.709388e+002
6.715459e+002, 6.714301e+002
6.720280e+002, 6.718498e+002
6.725101e+002, 6.720414e+002
6.729922e+002, 6.722661e+002
6.734744e+002, 6.728100e+002
6.739565e+002, 6.736982e+002
6.744386e+002, 6.748104e+002
6.749207e+002, 6.761050e+002
6.754028e+002, 6.774830e+002
6.758849e+002, 6.786266e+002
6.763671e+002, 6.795079e+002
6.768492e+002, 6.802858e+002
6.773313e+002, 6.810934e+002
6.778134e+002, 6.816833e+002
6.782955e+002, 6.815356e+002
6.787776e+002, 6.809688e+002
6.792598e+002, 6.811669e+002
6.797419e+002, 6.829447e+002
6.802240e+002, 6.848517e+002
6.807061e+002, 6.860681e+002
6.811882e+002, 6.868502e+002
6.816703e+002, 6.875121e+002
6.821525e+002, 6.881530e+002
6.826346e+002, 6.890094e+002
6.831167e+002, 6.903864e+002
6.835988e+002, 6.920054e+002
6.840809e+002, 6.923714e+002
6.845630e+002, 6.905983e+002
6.850452e+002, 6.895135e+002
6.855273e+002, 6.896362e+002
6.860094e+002, 6.904335e+002
6.864915e+002, 6.920515e+002
6.869736e+002, 6.941180e+002
6.874557e+002, 6.956157e+002
6.879379e+002, 6.958585e+002
6.884200e+002, 6.959379e+002
6.889021e+002, 6.969553e+002
6.893842e+002, 6.985200e+002
6.898663e+002, 6.996927e+002
6.903484e+002, 7.003136e+002
6.908306e+002, 7.008477e+002
6.913127e+002, 7.017220e+002
6.917948e+002, 7.027766e+002
6.922769e+002, 7.031768e+002
6.927590e+002, 7.019566e+002
6.932411e+002, 7.016557e+002
6.937233e+002, 7.029294e+002
6.942054e+002, 7.046100e+002
6.946875e+002, 7.062421e+002
6.951696e+002, 7.076910e+002
6.956517e+002, 7.088147e+002
6.961339e+002, 7.095571e+002
6.966160e+002, 7.099539e+002
6.970981e+002, 7.095887e+002
6.975802e+002, 7.088784e+002
6.980623e+002, 7.095050e+002
6.985444e+002, 7.117909e+002
6.990266e+002, 7.143376e+002
6.995087e+002, 7.162930e+002
6.999908e+002, 7.176692e+002
7.004729e+002, 7.184831e+002
7.009550e+002, 7.181605e+002
7.014371e+002, 7.181272e+002
7.019193e+002, 7.184611e+002
7.024014e+002, 7.190261e+002
7.028835e+002, 7.198261e+002
7.033656e+002, 7.207764e+002
7.038477e+002, 7.216971e+002
7.043298e+002, 7.224859e+002
7.048120e+002, 7.234176e+002
7.052941e+002, 7.250751e+002
7.057762e+002, 7.272219e+002
7.062583e+002, 7.286463e+002
7.067404e+002, 7.291738e+002
7.072225e+002, 7.293464e+002
7.077046e+002, 7.292242e+002
7.081867e+002, 7.291492e+002
7.086688e+002, 7.300931e+002
7.091509e+002, 7.326035e+002
7.096331e+002, 7.346681e+002
7.101152e+002, 7.362984e+002
7.105973e+002, 7.373109e+002
7.110794e+002, 7.371320e+002
7.115615e+002, 7.363773e+002
7.120436e+002, 7.359854e+002
7.125258e+002, 7.363082e+002
7.130079e+002, 7.373141e+002
7.134900e+002, 7.394318e+002
7.139721e+002, 7.423184e+002
7.144542e+002, 7.439890e+002
7.149363e+002, 7.442187e+002
7.154185e+002, 7.442487e+002
7.159006e+002, 7.445723e+002
7.163827e+002, 7.450688e+002
7.168648e+002, 7.455159e+002
7.173469e+002, 7.458689e+002
7.178290e+002, 7.464406e+002
7.183112e+002, 7.475773e+002
7.187933e+002, 7.485973e+002
7.192754e+002, 7.490021e+002
7.197575e+002, 7.491418e+002
7.202396e+002, 7.494861e+002
7.207217e+002, 7.501762e+002
7.212039e+002, 7.511461e+002
7.216860e+002, 7.523522e+002
7.221681e+002, 7.537842e+002
7.226502e+002, 7.554985e+002
7.231323e+002, 7.575814e+002
7.236144e+002, 7.593359e+002
7.240966e+002, 7.605787e+002
7.245787e+002, 7.613458e+002
7.250608e+002, 7.615223e+002
7.255429e+002, 7.611266e+002
7.260250e+002, 7.609018e+002
7.265071e+002, 7.608262e+002
7.269893e+002, 7.610098e+002
7.274714e+002, 7.615579e+002
7.279535e+002, 7.623527e+002
7.284356e+002, 7.630994e+002
7.289177e+002, 7.638870e+002
7.293998e+002, 7.653820e+002
7.298820e+002, 7.683617e+002
7.303641e+002, 7.718289e+002
7.308462e+002, 7.732399e+002
7.313283e+002, 7.725046e+002
7.318104e+002, 7.720824e+002
7.322925e+002, 7.723619e+002
7.327747e+002, 7.732394e+002
7.332568e+002, 7.748889e+002
7.337389e+002, 7.771085e+002
7.342210e+002, 7.788354e+002
7.347031e+002, 7.798271e+002
7.351852e+002, 7.806786e+002
7.356674e+002, 7.816905e+002
7.361495e+002, 7.824583e+002
7.366316e+002, 7.821537e+002
7.371137e+002, 7.813227e+002
7.375958e+002, 7.815300e+002
7.380779e+002, 7.836144e+002
7.385601e+002, 7.864804e+002
7.390422e+002, 7.888590e+002
7.395243e+002, 7.906860e+002
7.400064e+002, 7.910673e+002
7.404885e+002, 7.895827e+002
7.409706e+002, 7.881853e+002
7.414528e+002, 7.876260e+002
7.419349e+002, 7.880897e+002
7.424170e+002, 7.904651e+002
7.428991e+002, 7.959355e+002
7.433812e+002, 7.991358e+002
7.438633e+002, 7.976027e+002
7.443455e+002, 7.958253e+002
7.448276e+002, 7.963401e+002
7.453097e+002, 7.981113e+002
7.457918e+002, 7.993387e+002
7.462739e+002, 7.995253e+002
7.467560e+002, 7.994830e+002
7.472382e+002, 7.999241e+002
7.477203e+002, 8.007573e+002
7.482024e+002, 8.017797e+002
7.486845e+002, 8.030023e+002
7.491666e+002, 8.040374e+002
7.496487e+002, 8.046601e+002
7.501309e+002, 8.052877e+002
7.506130e+002, 8.065124e+002
7.510951e+002, 8.083821e+002
7.515772e+002, 8.097346e+002
7.520593e+002, 8.101447e+002
7.525414e+002, 8.106127e+002
7.530236e+002, 8.115787e+002
7.535057e+002, 8.125221e+002
7.539878e+002, 8.126516e+002
7.544699e+002, 8.122200e+002
7.549520e+002, 8.124626e+002
7.554341e+002, 8.143137e+002
7.559163e+002, 8.166594e+002
7.563984e+002, 8.180590e+002
7.568805e+002, 8.186084e+002
7.573626e+002, 8.184641e+002
7.578447e+002, 8.175853e+002
7.583268e+002, 8.171042e+002
7.588090e+002, 8.178507e+002
7.592911e+002, 8.195846e+002
7.597732e+002, 8.215217e+002
7.602553e+002, 8.241348e+002
7.607374e+002, 8.261219e+002
7.612195e+002, 8.273762e+002
7.617017e+002, 8.281902e+002
7.621838e+002, 8.283546e+002
7.626659e+002, 8.283093e+002
7.631480e+002, 8.287463e+002
7.636301e+002, 8.298715e+002
7.641122e+002, 8.311479e+002
7.645944e+002, 8.319587e+002
7.650765e+002, 8.327838e+002
7.655586e+002, 8.347407e+002
7.660407e+002, 8.375673e+002
7.665228e+002, 8.396248e+002
7.670049e+002, 8.402700e+002
7.674871e+002, 8.400873e+002
7.679692e+002, 8.397063e+002
7.684513e+002, 8.390787e+002
7.689334e+002, 8.392607e+002
7.694155e+002, 8.405540e+002
7.698976e+002, 8.421609e+002
7.703798e+002, 8.441376e+002
7.708619e+002, 8.461580e+002
7.713440e+002, 8.482274e+002
7.718261e+002, 8.501642e+002
7.723082e+002, 8.511955e+002
7.727903e+002, 8.504470e+002
7.732725e+002, 8.495304e+002
7.737546e+002, 8.494066e+002
7.742367e+002, 8.499143e+002
7.747188e+002, 8.509397e+002
7.752009e+002, 8.523822e+002
7.756830e+002, 8.539160e+002
7.761652e+002, 8.553326e+002
7.766473e+002, 8.567235e+002
7.771294e+002, 8.582937e+002
7.776115e+002, 8.600613e+002
7.780936e+002, 8.619980e+002
7.785757e+002, 8.644432e+002
7.790579e+002, 8.664341e+002
7.795400e+002, 8.672607e+002
7.800221e+002, 8.673693e+002
7.805042e+002, 8.674385e+002
7.809863e+002, 8.674498e+002
7.814684e+002, 8.676140e+002
7.819506e+002, 8.680568e+002
7.824327e+002, 8.685901e+002
7.829148e+002, 8.691487e+002
7.833969e+002, 8.696935e+002
7.838790e+002, 8.700477e+002
7.843611e+002, 8.702331e+002
7.848433e+002, 8.707167e+002
7.853254e+002, 8.719852e+002
7.858075e+002, 8.738445e+002
7.862896e+002, 8.758131e+002
7.867717e+002, 8.778881e+002
7.872538e+002, 8.796755e+002
7.877360e+002, 8.810172e+002
7.882181e+002, 8.822242e+002
7.887002e+002, 8.835733e+002
7.891823e+002, 8.850394e+002
7.896644e+002, 8.863568e+002
7.901465e+002, 8.872233e+002
7.906286e+002, 8.883938e+002
7.911107e+002, 8.906855e+002
7.915928e+002, 8.925966e+002
7.920750e+002, 8.926634e+002
7.925571e+002, 8.916905e+002
7.930392e+002, 8.914543e+002
7.935213e+002, 8.926171e+002
7.940034e+002, 8.943842e+002
7.944855e+002, 8.965521e+002
7.949677e+002, 8.986495e+002
7.954498e+002, 8.995092e+002
7.959319e+002, 8.992796e+002
7.964140e+002, 8.992682e+002
7.968961e+002, 9.000078e+002
7.973782e+002, 9.012609e+002
7.978604e+002, 9.027530e+002
7.983425e+002, 9.045045e+002
7.988246e+002, 9.060844e+002
7.993067e+002, 9.074018e+002
7.997888e+002, 9.087084e+002
8.002709e+002, 9.104382e+002
8.007531e+002, 9.118689e+002
8.012352e+002, 9.122107e+002
8.017173e+002, 9.116817e+002
8.021994e+002, 9.113594e+002
8.026815e+002, 9.111342e+002
8.031636e+002, 9.117422e+002
8.036458e+002, 9.142547e+002
8.041279e+002, 9.173821e+002
8.046100e+002, 9.196179e+002
8.050921e+002, 9.209537e+002
8.055742e+002, 9.221658e+002
8.060563e+002, 9.236702e+002
8.065385e+002, 9.251425e+002
8.070206e+002, 9.258837e+002
8.075027e+002, 9.259843e+002
8.079848e+002, 9.267142e+002
8.084669e+002, 9.282543e+002
8.089490e+002, 9.298097e+002
8.094312e+002, 9.311013e+002
8.099133e+002, 9.321210e+002
8.103954e+002, 9.327839e+002
8.108775e+002, 9.330032e+002
8.113596e+002, 9.334441e+002
8.118417e+002, 9.343907e+002
8.123239e+002, 9.351953e+002
8.128060e+002, 9.347042e+002
8.132881e+002, 9.346948e+002
8.137702e+002, 9.377570e+002
8.142523e+002, 9.431311e+002
8.147344e+002, 9.469848e+002
8.152166e+002, 9.469775e+002
8.156987e+002, 9.456478e+002
8.161808e+002, 9.453137e+002
8.166629e+002, 9.457197e+002
8.171450e+002, 9.463098e+002
8.176271e+002, 9.470217e+002
8.181093e+002, 9.480352e+002
8.185914e+002, 9.494522e+002
8.190735e+002, 9.512101e+002
8.195556e+002, 9.533069e+002
8.200377e+002, 9.558964e+002
8.205198e+002, 9.577531e+002
8.210020e+002, 9.584568e+002
8.214841e+002, 9.592347e+002
8.219662e+002, 9.609391e+002
8.224483e+002, 9.626465e+002
8.229304e+002, 9.631996e+002
8.234125e+002, 9.626351e+002
8.238947e+002, 9.622272e+002
8.243768e+002, 9.622154e+002
8.248589e+002, 9.624379e+002
8.253410e+002, 9.624651e+002
8.258231e+002, 9.629395e+002
8.263052e+002, 9.649877e+002
8.267874e+002, 9.682648e+002
8.272695e+002, 9.712455e+002
8.277516e+002, 9.731182e+002
8.282337e+002, 9.741984e+002
8.287158e+002, 9.748887e+002
8.291979e+002, 9.751729e+002
8.296801e+002, 9.746089e+002
8.301622e+002, 9.731506e+002
8.306443e+002, 9.727799e+002
8.311264e+002, 9.747277e+002
8.316085e+002, 9.775319e+002
8.320906e+002, 9.787001e+002
8.325728e+002, 9.778725e+002
8.330549e+002, 9.779411e+002
8.335370e+002, 9.793530e+002
8.340191e+002, 9.810220e+002
8.345012e+002, 9.830895e+002
8.349833e+002, 9.849821e+002
8.354655e+002, 9.860491e+002
8.359476e+002, 9.864655e+002
8.364297e+002, 9.871752e+002
8.369118e+002, 9.883395e+002
8.373939e+002, 9.900558e+002
8.378760e+002, 9.930140e+002
8.383582e+002, 9.961477e+002
8.388403e+002, 9.982998e+002
8.393224e+002, 9.994492e+002
8.398045e+002, 9.999228e+002
8.402866e+002, 9.998718e+002
8.407687e+002, 9.996458e+002
8.412509e+002, 9.994541e+002
8.417330e+002, 9.994461e+002
8.422151e+002, 1.000853e+003
8.426972e+002, 1.003813e+003
8.431793e+002, 1.005946e+003
8.436614e+002, 1.006137e+003
8.441436e+002, 1.005865e+003
8.446257e+002, 1.006860e+003
8.451078e+002, 1.009080e+003
8.455899e+002, 1.011041e+003
8.460720e+002, 1.012565e+003
8.465541e+002, 1.014051e+003
8.470363e+002, 1.015862e+003
8.475184e+002, 1.017329e+003
8.480005e+002, 1.017814e+003
8.484826e+002, 1.017670e+003
8.489647e+002, 1.017596e+003
8.494468e+002, 1.017627e+003
8.499290e+002, 1.018378e+003
8.504111e+002, 1.020980e+003
8.508932e+002, 1.023836e+003
8.513753e+002, 1.025184e+003
8.518574e+002, 1.025479e+003
8.523395e+002, 1.026025e+003
8.528217e+002, 1.027194e+003
8.533038e+002, 1.028328e+003
8.537859e+002, 1.028616e+003
8.542680e+002, 1.028510e+003
8.547501e+002, 1.029515e+003
8.552322e+002, 1.031633e+003
8.557144e+002, 1.033871e+003
8.561965e+002, 1.036133e+003
8.566786e+002, 1.038009e+003
8.571607e+002, 1.039121e+003
8.576428e+002, 1.039648e+003
8.581249e+002, 1.040163e+003
8.586071e+002, 1.040604e+003
8.590892e+002, 1.041154e+003
8.595713e+002, 1.041277e+003
8.600534e+002, 1.042109e+003
8.605355e+002, 1.045077e+003
8.610176e+002, 1.048385e+003
8.614998e+002, 1.049609e+003
8.619819e+002, 1.048588e+003
8.624640e+002, 1.047776e+003
8.629461e+002, 1.047973e+003
8.634282e+002, 1.048898e+003
8.639103e+002, 1.050807e+003
8.643925e+002, 1.053090e+003
8.648746e+002, 1.054826e+003
8.653567e+002, 1.056026e+003
8.658388e+002, 1.057393e+003
8.663209e+002, 1.059400e+003
8.668030e+002, 1.061334e+003
8.672852e+002, 1.061753e+003
8.677673e+002, 1.061044e+003
8.682494e+002, 1.061392e+003
8.687315e+002, 1.062954e+003
8.692136e+002, 1.064495e+003
8.696957e+002, 1.065510e+003
8.701779e+002, 1.066291e+003
8.706600e+002, 1.067232e+003
8.711421e+002, 1.068338e+003
8.716242e+002, 1.069168e+003
8.721063e+002, 1.069249e+003
8.725884e+002, 1.069884e+003
8.730705e+002, 1.071564e+003
8.735526e+002, 1.073591e+003
8.740347e+002, 1.076034e+003
8.745168e+002, 1.078434e+003
8.749990e+002, 1.079619e+003
8.754811e+002, 1.078896e+003
8.759632e+002, 1.078471e+003
8.764453e+002, 1.079291e+003
8.769274e+002, 1.080506e+003
8.774095e+002, 1.081435e+003
8.778917e+002, 1.082337e+003
8.783738e+002, 1.083959e+003
8.788559e+002, 1.086319e+003
8.793380e+002, 1.088269e+003
8.798201e+002, 1.088569e+003
8.803022e+002, 1.088352e+003
8.807844e+002, 1.089517e+003
8.812665e+002, 1.091786e+003
8.817486e+002, 1.094275e+003
8.822307e+002, 1.096807e+003
8.827128e+002, 1.099065e+003
8.831949e+002, 1.100847e+003
8.836771e+002, 1.102186e+003
8.841592e+002, 1.103078e+003
8.846413e+002, 1.103455e+003
8.851234e+002, 1.103921e+003
8.856055e+002, 1.104638e+003
8.860876e+002, 1.104993e+003
8.865698e+002, 1.104432e+003
8.870519e+002, 1.103758e+003
8.875340e+002, 1.103896e+003
8.880161e+002, 1.104802e+003
8.884982e+002, 1.105772e+003
8.889803e+002, 1.106577e+003
8.894625e+002, 1.107740e+003
8.899446e+002, 1.110053e+003
8.904267e+002, 1.112103e+003
8.909088e+002, 1.112384e+003
8.913909e+002, 1.111818e+003
8.918730e+002, 1.112255e+003
8.923552e+002, 1.114222e+003
8.928373e+002, 1.116869e+003
8.933194e+002, 1.120738e+003
8.938015e+002, 1.124125e+003
8.942836e+002, 1.124767e+003
8.947657e+002, 1.123626e+003
8.952479e+002, 1.122412e+003
8.957300e+002, 1.121681e+003
8.962121e+002, 1.121838e+003
8.966942e+002, 1.123258e+003
8.971763e+002, 1.125483e+003
8.976584e+002, 1.127716e+003
8.981406e+002, 1.129934e+003
8.986227e+002, 1.132197e+003
8.991048e+002, 1.134566e+003
8.995869e+002, 1.135978e+003
9.000690e+002, 1.135686e+003
9.005511e+002, 1.134879e+003
9.010333e+002, 1.135387e+003
9.015154e+002, 1.137285e+003
9.019975e+002, 1.138693e+003
9.024796e+002, 1.138824e+003
9.029617e+002, 1.139972e+003
9.034438e+002, 1.143841e+003
9.039260e+002, 1.147618e+003
9.044081e+002, 1.148995e+003
9.048902e+002, 1.148862e+003
9.053723e+002, 1.149475e+003
9.058544e+002, 1.151203e+003
9.063365e+002, 1.153308e+003
9.068187e+002, 1.156646e+003
9.073008e+002, 1.159208e+003
9.077829e+002, 1.158942e+003
9.082650e+002, 1.157560e+003
9.087471e+002, 1.157471e+003
9.092292e+002, 1.158976e+003
9.097114e+002, 1.160726e+003
9.101935e+002, 1.161940e+003
9.106756e+002, 1.163021e+003
9.111577e+002, 1.164461e+003
9.116398e+002, 1.166029e+003
9.121219e+002, 1.167331e+003
9.126041e+002, 1.168320e+003
9.130862e+002, 1.169008e+003
9.135683e+002, 1.169405e+003
9.140504e+002, 1.169709e+003
9.145325e+002, 1.169892e+003
9.150146e+002, 1.170209e+003
9.154968e+002, 1.172599e+003
9.159789e+002, 1.177183e+003
9.164610e+002, 1.180605e+003
9.169431e+002, 1.181988e+003
9.174252e+002, 1.182243e+003
9.179073e+002, 1.181861e+003
9.183895e+002, 1.181184e+003
9.188716e+002, 1.181495e+003
9.193537e+002, 1.183267e+003
9.198358e+002, 1.184834e+003
9.203179e+002, 1.186335e+003
9.208000e+002, 1.187392e+003
9.212822e+002, 1.187417e+003
9.217643e+002, 1.187185e+003
9.222464e+002, 1.187585e+003
9.227285e+002, 1.188594e+003
9.232106e+002, 1.189481e+003
9.236927e+002, 1.189819e+003
9.241749e+002, 1.190454e+003
9.246570e+002, 1.191698e+003
9.251391e+002, 1.193258e+003
9.256212e+002, 1.194973e+003
9.261033e+002, 1.196809e+003
9.265854e+002, 1.198794e+003
9.270676e+002, 1.200952e+003
9.275497e+002, 1.203028e+003
9.280318e+002, 1.205104e+003
9.285139e+002, 1.206800e+003
9.289960e+002, 1.207315e+003
9.294781e+002, 1.207331e+003
9.299603e+002, 1.208293e+003
9.304424e+002, 1.210288e+003
9.309245e+002, 1.212236e+003
9.314066e+002, 1.213462e+003
9.318887e+002, 1.214216e+003
9.323708e+002, 1.214769e+003
9.328530e+002, 1.215172e+003
9.333351e+002, 1.215428e+003
9.338172e+002, 1.215590e+003
9.342993e+002, 1.216745e+003
9.347814e+002, 1.219341e+003
9.352635e+002, 1.222477e+003
9.357457e+002, 1.225249e+003
9.362278e+002, 1.227643e+003
9.367099e+002, 1.229592e+003
9.371920e+002, 1.231031e+003
9.376741e+002, 1.232244e+003
9.381563e+002, 1.233124e+003
9.386384e+002, 1.234112e+003
9.391205e+002, 1.235632e+003
9.396026e+002, 1.237271e+003
9.400847e+002, 1.238222e+003
9.405668e+002, 1.238309e+003
9.410490e+002, 1.238763e+003
9.415311e+002, 1.240308e+003
9.420132e+002, 1.241238e+003
9.424953e+002, 1.240799e+003
9.429774e+002, 1.240048e+003
9.434595e+002, 1.239361e+003
9.439417e+002, 1.239044e+003
9.444238e+002, 1.239810e+003
9.449059e+002, 1.242019e+003
9.453880e+002, 1.244474e+003
9.458701e+002, 1.246598e+003
9.463522e+002, 1.249007e+003
9.468344e+002, 1.253217e+003
9.473165e+002, 1.257321e+003
9.477986e+002, 1.257928e+003
9.482807e+002, 1.255416e+003
9.487628e+002, 1.254001e+003
9.492449e+002, 1.256133e+003
9.497271e+002, 1.259614e+003
9.502092e+002, 1.263302e+003
9.506913e+002, 1.266434e+003
9.511734e+002, 1.267333e+003
9.516555e+002, 1.266581e+003
9.521376e+002, 1.266122e+003
9.526198e+002, 1.266678e+003
9.531019e+002, 1.268204e+003
9.535840e+002, 1.270894e+003
9.540661e+002, 1.274238e+003
9.545482e+002, 1.277260e+003
9.550303e+002, 1.279869e+003
9.555124e+002, 1.281265e+003
9.559945e+002, 1.281342e+003
9.564766e+002, 1.281131e+003
9.569587e+002, 1.281082e+003
9.574409e+002, 1.281627e+003
9.579230e+002, 1.283636e+003
9.584051e+002, 1.287081e+003
9.588872e+002, 1.289876e+003
9.593693e+002, 1.292196e+003
9.598514e+002, 1.292860e+003
9.603336e+002, 1.290686e+003
9.608157e+002, 1.288953e+003
9.612978e+002, 1.290354e+003
9.617799e+002, 1.293876e+003
9.622620e+002, 1.296789e+003
9.627441e+002, 1.299401e+003
9.632263e+002, 1.300408e+003
9.637084e+002, 1.297575e+003
9.641905e+002, 1.296184e+003
9.646726e+002, 1.298738e+003
9.651547e+002, 1.302365e+003
9.656368e+002, 1.304727e+003
9.661190e+002, 1.306005e+003
9.666011e+002, 1.307344e+003
9.670832e+002, 1.309189e+003
9.675653e+002, 1.310501e+003
9.680474e+002, 1.310342e+003
9.685295e+002, 1.310368e+003
9.690117e+002, 1.311706e+003
9.694938e+002, 1.313703e+003
9.699759e+002, 1.315534e+003
9.704580e+002, 1.317062e+003
9.709401e+002, 1.318411e+003
9.714222e+002, 1.319705e+003
9.719044e+002, 1.320714e+003
9.723865e+002, 1.320942e+003
9.728686e+002, 1.321087e+003
9.733507e+002, 1.321919e+003
9.738328e+002, 1.323297e+003
9.743149e+002, 1.324890e+003
9.747971e+002, 1.326536e+003
9.752792e+002, 1.327810e+003
9.757613e+002, 1.327946e+003
9.762434e+002, 1.327988e+003
9.767255e+002, 1.329660e+003
9.772076e+002, 1.332188e+003
9.776898e+002, 1.333559e+003
9.781719e+002, 1.333933e+003
9.786540e+002, 1.335550e+003
9.791361e+002, 1.339474e+003
9.796182e+002, 1.343660e+003
9.801003e+002, 1.345266e+003
9.805825e+002, 1.345201e+003
9.810646e+002, 1.346601e+003
9.815467e+002, 1.349258e+003
9.820288e+002, 1.351623e+003
9.825109e+002, 1.353383e+003
9.829930e+002, 1.354235e+003
9.834752e+002, 1.353834e+003
9.839573e+002, 1.353092e+003
9.844394e+002, 1.353944e+003
9.849215e+002, 1.356408e+003
9.854036e+002, 1.357693e+003
9.858857e+002, 1.357457e+003
9.863679e+002, 1.358098e+003
9.868500e+002, 1.360331e+003
9.873321e+002, 1.363353e+003
9.878142e+002, 1.366705e+003
9.882963e+002, 1.370168e+003
9.887784e+002, 1.373079e+003
9.892606e+002, 1.375447e+003
9.897427e+002, 1.377120e+003
9.902248e+002, 1.377693e+003
9.907069e+002, 1.378308e+003
9.911890e+002, 1.379040e+003
9.916711e+002, 1.380266e+003
9.921533e+002, 1.382481e+003
9.926354e+002, 1.385548e+003
9.931175e+002, 1.388632e+003
9.935996e+002, 1.391621e+003
9.940817e+002, 1.394828e+003
9.945638e+002, 1.398895e+003
9.950460e+002, 1.402446e+003
9.955281e+002, 1.404609e+003
9.960102e+002, 1.406223e+003
9.964923e+002, 1.407788e+003
9.969744e+002, 1.409525e+003
9.974565e+002, 1.412532e+003
9.979387e+002, 1.417691e+003
9.984208e+002, 1.422988e+003
9.989029e+002, 1.427406e+003
9.993850e+002, 1.432326e+003
9.998671e+002, 1.438735e+003
1.000349e+003, 1.446083e+003
1.000831e+003, 1.453675e+003
1.001313e+003, 1.461339e+003
1.001796e+003, 1.468837e+003
1.002278e+003, 1.477691e+003
1.002760e+003, 1.483834e+003
1.003242e+003, 1.484639e+003
1.003724e+003, 1.482094e+003
1.004206e+003, 1.477093e+003
1.004688e+003, 1.470526e+003
1.005170e+003, 1.462899e+003
1.005653e+003, 1.454673e+003
1.006135e+003, 1.448168e+003
1.006617e+003, 1.445284e+003
1.007099e+003, 1.444090e+003
1.007581e+003, 1.443167e+003
1.008063e+003, 1.442553e+003
1.008545e+003, 1.442253e+003
1.009027e+003, 1.442321e+003
1.009509e+003, 1.442996e+003
1.009992e+003, 1.444314e+003
1.010474e+003, 1.445716e+003
1.010956e+003, 1.446408e+003
1.011438e+003, 1.447224e+003
1.011920e+003, 1.449629e+003
1.012402e+003, 1.453086e+003
1.012884e+003, 1.456954e+003
1.013366e+003, 1.460708e+003
1.013849e+003, 1.462328e+003
1.014331e+003, 1.460996e+003
1.014813e+003, 1.459393e+003
1.015295e+003, 1.460961e+003
1.015777e+003, 1.464137e+003
1.016259e+003, 1.464547e+003
1.016741e+003, 1.462927e+003
1.017223e+003, 1.462868e+003
1.017705e+003, 1.464788e+003
1.018188e+003, 1.466637e+003
1.018670e+003, 1.467306e+003
1.019152e+003, 1.468432e+003
1.019634e+003, 1.472688e+003
1.020116e+003, 1.479229e+003
1.020598e+003, 1.484166e+003
1.021080e+003, 1.487495e+003
1.021562e+003, 1.488943e+003
1.022044e+003, 1.488285e+003
1.022527e+003, 1.489498e+003
1.023009e+003, 1.495174e+003
1.023491e+003, 1.502499e+003
1.023973e+003, 1.506992e+003
1.024455e+003, 1.508803e+003
1.024937e+003, 1.510398e+003
1.025419e+003, 1.511864e+003
1.025901e+003, 1.512321e+003
1.026384e+003, 1.511530e+003
1.026866e+003, 1.510043e+003
1.027348e+003, 1.508122e+003
1.027830e+003, 1.505879e+003
1.028312e+003, 1.503413e+003
1.028794e+003, 1.500659e+003
1.029276e+003, 1.499000e+003
1.029758e+003, 1.498563e+003
1.030240e+003, 1.498901e+003
1.030723e+003, 1.500357e+003
1.031205e+003, 1.501585e+003
1.031687e+003, 1.501709e+003
1.032169e+003, 1.500986e+003
1.032651e+003, 1.499592e+003
1.033133e+003, 1.497075e+003
1.033615e+003, 1.497772e+003
1.034097e+003, 1.503324e+003
1.034579e+003, 1.508513e+003
1.035062e+003, 1.512375e+003
1.035544e+003, 1.515639e+003
1.036026e+003, 1.518924e+003
1.036508e+003, 1.521778e+003
1.036990e+003, 1.522808e+003
1.037472e+003, 1.521146e+003
1.037954e+003, 1.522582e+003
1.038436e+003, 1.530774e+003
1.038919e+003, 1.536141e+003
1.039401e+003, 1.535406e+003
1.039883e+003, 1.533176e+003
1.040365e+003, 1.531740e+003
1.040847e+003, 1.531091e+003
1.041329e+003, 1.531193e+003
1.041811e+003, 1.532048e+003
1.042293e+003, 1.533707e+003
1.042776e+003, 1.537257e+003
1.043258e+003, 1.540120e+003
1.043740e+003, 1.541725e+003
1.044222e+003, 1.542618e+003
1.044704e+003, 1.542854e+003
1.045186e+003, 1.542726e+003
1.045668e+003, 1.542707e+003
1.046150e+003, 1.542805e+003
1.046632e+003, 1.543176e+003
1.047115e+003, 1.543110e+003
1.047597e+003, 1.544312e+003
1.048079e+003, 1.548645e+003
1.048561e+003, 1.552951e+003
1.049043e+003, 1.555158e+003
1.049525e+003, 1.555752e+003
1.050007e+003, 1.555556e+003
1.050489e+003, 1.554525e+003
1.050971e+003, 1.554312e+003
1.051454e+003, 1.555121e+003
1.051936e+003, 1.556942e+003
1.052418e+003, 1.560660e+003
1.052900e+003, 1.564534e+003
1.053382e+003, 1.567286e+003
1.053864e+003, 1.569305e+003
1.054346e+003, 1.571531e+003
1.054828e+003, 1.574128e+003
1.055311e+003, 1.576027e+003
1.055793e+003, 1.575846e+003
1.056275e+003, 1.576426e+003
1.056757e+003, 1.579941e+003
1.057239e+003, 1.583410e+003
1.057721e+003, 1.583731e+003
1.058203e+003, 1.582771e+003
1.058685e+003, 1.584267e+003
1.059167e+003, 1.588735e+003
1.059650e+003, 1.592581e+003
1.060132e+003, 1.593876e+003
1.060614e+003, 1.595383e+003
1.061096e+003, 1.599534e+003
1.061578e+003, 1.602947e+003
1.062060e+003, 1.601531e+003
1.062542e+003, 1.598271e+003
1.063024e+003, 1.598218e+003
1.063506e+003, 1.602077e+003
1.063989e+003, 1.607104e+003
1.064471e+003, 1.613602e+003
1.064953e+003, 1.619258e+003
1.065435e+003, 1.623031e+003
1.065917e+003, 1.625690e+003
1.066399e+003, 1.627120e+003
1.066881e+003, 1.628189e+003
1.067363e+003, 1.630073e+003
1.067846e+003, 1.632917e+003
1.068328e+003, 1.636204e+003
1.068810e+003, 1.640299e+003
1.069292e+003, 1.643846e+003
1.069774e+003, 1.645947e+003
1.070256e+003, 1.647586e+003
1.070738e+003, 1.650006e+003
1.071220e+003, 1.652179e+003
1.071703e+003, 1.652136e+003
1.072185e+003, 1.650089e+003
1.072667e+003, 1.648861e+003
1.073149e+003, 1.650058e+003
1.073631e+003, 1.650890e+003
1.074113e+003, 1.649412e+003
1.074595e+003, 1.647777e+003
1.075077e+003, 1.647286e+003
1.075559e+003, 1.647744e+003
1.076042e+003, 1.649600e+003
1.076524e+003, 1.652147e+003
1.077006e+003, 1.652382e+003
1.077488e+003, 1.648258e+003
1.077970e+003, 1.645066e+003
1.078452e+003, 1.645497e+003
1.078934e+003, 1.647438e+003
1.079416e+003, 1.650607e+003
1.079898e+003, 1.653672e+003
1.080380e+003, 1.654788e+003
1.080863e+003, 1.654426e+003
1.081345e+003, 1.654838e+003
1.081827e+003, 1.656957e+003
1.082309e+003, 1.658626e+003
1.082791e+003, 1.657527e+003
1.083273e+003, 1.657245e+003
1.083755e+003, 1.661054e+003
1.084237e+003, 1.665960e+003
1.084720e+003, 1.668673e+003
1.085202e+003, 1.669585e+003
1.085684e+003, 1.670638e+003
1.086166e+003, 1.672311e+003
1.086648e+003, 1.674284e+003
1.087130e+003, 1.676786e+003
1.087612e+003, 1.679084e+003
1.088094e+003, 1.680941e+003
1.088577e+003, 1.682317e+003
1.089059e+003, 1.682526e+003
1.089541e+003, 1.682442e+003
1.090023e+003, 1.684197e+003
1.090505e+003, 1.688256e+003
1.090987e+003, 1.691221e+003
1.091469e+003, 1.690235e+003
1.091951e+003, 1.690065e+003
1.092433e+003, 1.694848e+003
1.092916e+003, 1.699238e+003
1.093398e+003, 1.697651e+003
1.093880e+003, 1.693299e+003
1.094362e+003, 1.692100e+003
1.094844e+003, 1.694719e+003
1.095326e+003, 1.697050e+003
1.095808e+003, 1.697448e+003
1.096290e+003, 1.697912e+003
1.096772e+003, 1.698972e+003
1.097255e+003, 1.700428e+003
1.097737e+003, 1.702305e+003
1.098219e+003, 1.704410e+003
1.098701e+003, 1.706835e+003
1.099183e+003, 1.709351e+003
1.099665e+003, 1.710663e+003
1.100147e+003, 1.709139e+003
1.100629e+003, 1.709167e+003
1.101112e+003, 1.712463e+003
1.101594e+003, 1.716843e+003
1.102076e+003, 1.722574e+003
1.102558e+003, 1.727834e+003
1.103040e+003, 1.730854e+003
1.103522e+003, 1.731726e+003
1.104004e+003, 1.731072e+003
1.104486e+003, 1.728077e+003
1.104969e+003, 1.726445e+003
1.105451e+003, 1.726694e+003
1.105933e+003, 1.728587e+003
1.106415e+003, 1.732967e+003
1.106897e+003, 1.738104e+003
1.107379e+003, 1.743557e+003
1.107861e+003, 1.748494e+003
1.108343e+003, 1.750760e+003
1.108825e+003, 1.749576e+003
1.109307e+003, 1.749387e+003
1.109790e+003, 1.751559e+003
1.110272e+003, 1.753360e+003
1.110754e+003, 1.754491e+003
1.111236e+003, 1.754843e+003
1.111718e+003, 1.753634e+003
1.112200e+003, 1.751953e+003
1.112682e+003, 1.751585e+003
1.113164e+003, 1.752603e+003
1.113647e+003, 1.753952e+003
1.114129e+003, 1.755893e+003
1.114611e+003, 1.757748e+003
1.115093e+003, 1.759405e+003
1.115575e+003, 1.761071e+003
1.116057e+003, 1.762769e+003
1.116539e+003, 1.764609e+003
1.117021e+003, 1.767059e+003
1.117504e+003, 1.769859e+003
1.117986e+003, 1.770906e+003
1.118468e+003, 1.768394e+003
1.118950e+003, 1.768516e+003
1.119432e+003, 1.772650e+003
1.119914e+003, 1.776746e+003
1.120396e+003, 1.779564e+003
1.120878e+003, 1.781906e+003
1.121360e+003, 1.784483e+003
1.121843e+003, 1.787120e+003
1.122325e+003, 1.789309e+003
1.122807e+003, 1.791058e+003
1.123289e+003, 1.792330e+003
1.123771e+003, 1.793120e+003
1.124253e+003, 1.793297e+003
1.124735e+003, 1.792341e+003
1.125217e+003, 1.792333e+003
1.125699e+003, 1.794763e+003
1.126182e+003, 1.798588e+003
1.126664e+003, 1.802106e+003
1.127146e+003, 1.805314e+003
1.127628e+003, 1.808093e+003
1.128110e+003, 1.810341e+003
1.128592e+003, 1.813154e+003
1.129074e+003, 1.816878e+003
1.129556e+003, 1.819192e+003
1.130039e+003, 1.818804e+003
1.130521e+003, 1.817871e+003
1.131003e+003, 1.818836e+003
1.131485e+003, 1.821258e+003
1.131967e+003, 1.823629e+003
1.132449e+003, 1.825967e+003
1.132931e+003, 1.829016e+003
1.133413e+003, 1.832776e+003
1.133896e+003, 1.834755e+003
1.134378e+003, 1.834199e+003
1.134860e+003, 1.833973e+003
1.135342e+003, 1.836359e+003
1.135824e+003, 1.840091e+003
1.136306e+003, 1.843005e+003
1.136788e+003, 1.845287e+003
1.137270e+003, 1.847642e+003
1.137752e+003, 1.850039e+003
1.138234e+003, 1.852231e+003
1.138717e+003, 1.854204e+003
1.139199e+003, 1.856312e+003
1.139681e+003, 1.858755e+003
1.140163e+003, 1.860603e+003
1.140645e+003, 1.860190e+003
1.141127e+003, 1.859112e+003
1.141609e+003, 1.860419e+003
1.142091e+003, 1.863297e+003
1.142574e+003, 1.866358e+003
1.143056e+003, 1.869220e+003
1.143538e+003, 1.871059e+003
1.144020e+003, 1.871836e+003
1.144502e+003, 1.873410e+003
1.144984e+003, 1.877357e+003
1.145466e+003, 1.882038e+003
1.145948e+003, 1.886986e+003
1.146431e+003, 1.890669e+003
1.146913e+003, 1.889562e+003
1.147395e+003, 1.886430e+003
1.147877e+003, 1.887029e+003
1.148359e+003, 1.891242e+003
1.148841e+003, 1.893788e+003
1.149323e+003, 1.892078e+003
1.149805e+003, 1.890772e+003
1.150287e+003, 1.893025e+003
1.150770e+003, 1.896481e+003
1.151252e+003, 1.900008e+003
1.151734e+003, 1.903364e+003
1.152216e+003, 1.906335e+003
1.152698e+003, 1.908975e+003
1.153180e+003, 1.911524e+003
1.153662e+003, 1.914034e+003
1.154144e+003, 1.916065e+003
1.154626e+003, 1.917949e+003
1.155109e+003, 1.918684e+003
1.155591e+003, 1.916658e+003
1.156073e+003, 1.914809e+003
1.156555e+003, 1.915102e+003
1.157037e+003, 1.916560e+003
1.157519e+003, 1.917951e+003
1.158001e+003, 1.919207e+003
1.158483e+003, 1.920545e+003
1.158966e+003, 1.922060e+003
1.159448e+003, 1.923509e+003
1.159930e+003, 1.924128e+003
1.160412e+003, 1.925723e+003
1.160894e+003, 1.929409e+003
1.161376e+003, 1.933556e+003
1.161858e+003, 1.937595e+003
1.162340e+003, 1.940862e+003
1.162822e+003, 1.941564e+003
1.163305e+003, 1.939307e+003
1.163787e+003, 1.938743e+003
1.164269e+003, 1.940256e+003
1.164751e+003, 1.942404e+003
1.165233e+003, 1.945140e+003
1.165715e+003, 1.948084e+003
1.166197e+003, 1.951112e+003
1.166679e+003, 1.954162e+003
1.167161e+003, 1.957171e+003
1.167644e+003, 1.960145e+003
1.168126e+003, 1.963218e+003
1.168608e+003, 1.966399e+003
1.169090e+003, 1.969345e+003
1.169572e+003, 1.972040e+003
1.170054e+003, 1.973960e+003
1.170536e+003, 1.974935e+003
1.171018e+003, 1.975665e+003
1.171500e+003, 1.976562e+003
1.171983e+003, 1.978031e+003
1.172465e+003, 1.981326e+003
1.172947e+003, 1.985503e+003
1.173429e+003, 1.987229e+003
1.173911e+003, 1.987039e+003
1.174393e+003, 1.986323e+003
1.174875e+003, 1.985714e+003
1.175357e+003, 1.987330e+003
1.175840e+003, 1.991795e+003
1.176322e+003, 1.996272e+003
1.176804e+003, 1.998365e+003
1.177286e+003, 1.999503e+003
1.177768e+003, 2.001198e+003
1.178250e+003, 2.003269e+003
1.178732e+003, 2.005666e+003
1.179214e+003, 2.008137e+003
1.179697e+003, 2.010167e+003
1.180179e+003, 2.011795e+003
1.180661e+003, 2.013623e+003
1.181143e+003, 2.015991e+003
1.181625e+003, 2.017762e+003
1.182107e+003, 2.017541e+003
1.182589e+003, 2.017324e+003
1.183071e+003, 2.018382e+003
1.183553e+003, 2.020084e+003
1.184036e+003, 2.022250e+003
1.184518e+003, 2.024376e+003
1.185000e+003, 2.025284e+003
1.185482e+003, 2.024963e+003
1.185964e+003, 2.026031e+003
1.186446e+003, 2.030744e+003
1.186928e+003, 2.034223e+003
1.187410e+003, 2.034380e+003
1.187892e+003, 2.034775e+003
1.188375e+003, 2.037232e+003
1.188857e+003, 2.040330e+003
1.189339e+003, 2.042805e+003
1.189821e+003, 2.044854e+003
1.190303e+003, 2.046947e+003
1.190785e+003, 2.049092e+003
1.191267e+003, 2.051330e+003
1.191749e+003, 2.053979e+003
1.192232e+003, 2.055581e+003
1.192714e+003, 2.055188e+003
1.193196e+003, 2.055907e+003
1.193678e+003, 2.059553e+003
1.194160e+003, 2.064278e+003
1.194642e+003, 2.067944e+003
1.195124e+003, 2.070610e+003
1.195606e+003, 2.072231e+003
1.196089e+003, 2.072864e+003
1.196571e+003, 2.074440e+003
1.197053e+003, 2.076982e+003
1.197535e+003, 2.079571e+003
1.198017e+003, 2.081909e+003
1.198499e+003, 2.083014e+003
1.198981e+003, 2.082188e+003
1.199463e+003, 2.081140e+003
1.199945e+003, 2.082124e+003
1.200427e+003, 2.084497e+003
1.200910e+003, 2.087752e+003
1.201392e+003, 2.091083e+003
1.201874e+003, 2.092243e+003
1.202356e+003, 2.091867e+003
1.202838e+003, 2.092431e+003
1.203320e+003, 2.094536e+003
1.203802e+003, 2.096976e+003
1.204284e+003, 2.099276e+003
1.204767e+003, 2.101013e+003
1.205249e+003, 2.101263e+003
1.205731e+003, 2.101458e+003
1.206213e+003, 2.102641e+003
1.206695e+003, 2.104574e+003
1.207177e+003, 2.107390e+003
1.207659e+003, 2.110545e+003
1.208141e+003, 2.112743e+003
1.208624e+003, 2.113667e+003
1.209106e+003, 2.114675e+003
1.209588e+003, 2.116216e+003
1.210070e+003, 2.117674e+003
1.210552e+003, 2.118094e+003
1.211034e+003, 2.119402e+003
1.211516e+003, 2.123736e+003
1.211998e+003, 2.128379e+003
1.212480e+003, 2.130408e+003
1.212963e+003, 2.130500e+003
1.213445e+003, 2.131246e+003
1.213927e+003, 2.132782e+003
1.214409e+003, 2.134157e+003
1.214891e+003, 2.135307e+003
1.215373e+003, 2.136525e+003
1.215855e+003, 2.137935e+003
1.216337e+003, 2.139036e+003
1.216819e+003, 2.139522e+003
1.217302e+003, 2.139840e+003
1.217784e+003, 2.140502e+003
1.218266e+003, 2.141526e+003
1.218748e+003, 2.142987e+003
1.219230e+003, 2.144844e+003
1.219712e+003, 2.146505e+003
1.220194e+003, 2.148239e+003
1.220676e+003, 2.152016e+003
1.221159e+003, 2.157801e+003
1.221641e+003, 2.162092e+003
1.222123e+003, 2.162949e+003
1.222605e+003, 2.163495e+003
1.223087e+003, 2.167501e+003
1.223569e+003, 2.172195e+003
1.224051e+003, 2.174291e+003
1.224533e+003, 2.175187e+003
1.225016e+003, 2.176567e+003
1.225498e+003, 2.178232e+003
1.225980e+003, 2.179211e+003
1.226462e+003, 2.179537e+003
1.226944e+003, 2.180562e+003
1.227426e+003, 2.182886e+003
1.227908e+003, 2.185431e+003
1.228390e+003, 2.188997e+003
1.228872e+003, 2.191118e+003
1.229354e+003, 2.188643e+003
1.229837e+003, 2.186395e+003
1.230319e+003, 2.189026e+003
1.230801e+003, 2.194045e+003
1.231283e+003, 2.196764e+003
1.231765e+003, 2.197293e+003
1.232247e+003, 2.198737e+003
1.232729e+003, 2.201651e+003
1.233211e+003, 2.203786e+003
1.233694e+003, 2.204802e+003
1.234176e+003, 2.206043e+003
1.234658e+003, 2.207990e+003
1.235140e+003, 2.209913e+003
1.235622e+003, 2.211233e+003
1.236104e+003, 2.212494e+003
1.236586e+003, 2.214799e+003
1.237068e+003, 2.217756e+003
1.237551e+003, 2.219815e+003
1.238033e+003, 2.221048e+003
1.238515e+003, 2.221661e+003
1.238997e+003, 2.221797e+003
1.239479e+003, 2.221723e+003
1.239961e+003, 2.221665e+003
1.240443e+003, 2.222467e+003
1.240925e+003, 2.224722e+003
1.241407e+003, 2.227735e+003
1.241890e+003, 2.231721e+003
1.242372e+003, 2.235232e+003
1.242854e+003, 2.235897e+003
1.243336e+003, 2.236048e+003
1.243818e+003, 2.238948e+003
1.244300e+003, 2.243579e+003
1.244782e+003, 2.247469e+003
1.245264e+003, 2.250164e+003
1.245746e+003, 2.251691e+003
1.246229e+003, 2.250775e+003
1.246711e+003, 2.251062e+003
1.247193e+003, 2.253940e+003
1.247675e+003, 2.257073e+003
1.248157e+003, 2.260202e+003
1.248639e+003, 2.262630e+003
1.249121e+003, 2.263386e+003
1.249603e+003, 2.263585e+003
1.250085e+003, 2.265359e+003
1.250568e+003, 2.268581e+003
1.251050e+003, 2.271333e+003
1.251532e+003, 2.273636e+003
1.252014e+003, 2.274704e+003
1.252496e+003, 2.274386e+003
1.252978e+003, 2.275611e+003
1.253460e+003, 2.279249e+003
1.253942e+003, 2.283078e+003
1.254425e+003, 2.285521e+003
1.254907e+003, 2.287731e+003
1.255389e+003, 2.291640e+003
1.255871e+003, 2.296117e+003
1.256353e+003, 2.299128e+003
1.256835e+003, 2.301044e+003
1.257317e+003, 2.301343e+003
1.257799e+003, 2.301475e+003
1.258281e+003, 2.305816e+003
1.258764e+003, 2.314087e+003
1.259246e+003, 2.319369e+003
1.259728e+003, 2.317859e+003
1.260210e+003, 2.316394e+003
1.260692e+003, 2.318170e+003
1.261174e+003, 2.320723e+003
1.261656e+003, 2.323026e+003
1.262138e+003, 2.325517e+003
1.262620e+003, 2.329062e+003
1.263103e+003, 2.332727e+003
1.263585e+003, 2.334619e+003
1.264067e+003, 2.335083e+003
1.264549e+003, 2.337222e+003
1.265031e+003, 2.342228e+003
1.265513e+003, 2.344309e+003
1.265995e+003, 2.342212e+003
1.266477e+003, 2.343031e+003
1.266960e+003, 2.348880e+003
1.267442e+003, 2.353917e+003
1.267924e+003, 2.354833e+003
1.268406e+003, 2.353950e+003
1.268888e+003, 2.353855e+003
1.269370e+003, 2.354343e+003
1.269852e+003, 2.354990e+003
1.270334e+003, 2.355823e+003
1.270817e+003, 2.356467e+003
1.271299e+003, 2.357481e+003
1.271781e+003, 2.360887e+003
1.272263e+003, 2.366229e+003
1.272745e+003, 2.370748e+003
1.273227e+003, 2.373388e+003
1.273709e+003, 2.374670e+003
1.274191e+003, 2.372926e+003
1.274673e+003, 2.372707e+003
1.275156e+003, 2.377411e+003
1.275638e+003, 2.383124e+003
1.276120e+003, 2.387961e+003
1.276602e+003, 2.391827e+003
1.277084e+003, 2.394398e+003
1.277566e+003, 2.396083e+003
1.278048e+003, 2.398129e+003
1.278530e+003, 2.400589e+003
1.279012e+003, 2.403093e+003
1.279495e+003, 2.405683e+003
1.279977e+003, 2.407609e+003
1.280459e+003, 2.408688e+003
1.280941e+003, 2.410144e+003
1.281423e+003, 2.412330e+003
1.281905e+003, 2.415955e+003
1.282387e+003, 2.421904e+003
1.282869e+003, 2.428038e+003
1.283352e+003, 2.430360e+003
1.283834e+003, 2.430064e+003
1.284316e+003, 2.429515e+003
1.284798e+003, 2.428829e+003
##END=



