##NAMES=Bohmite
##RRUFFID=R120123
##IDEAL CHEMISTRY=AlO(OH)
##LOCALITY=Sagasen, Telemark, Norway
##OWNER=RRUFF
##SOURCE=Marcus Origlieri
##DESCRIPTION=Pale green hexagonal tablets, associated with natrolite R120124
##STATUS=The identification of this mineral has been confirmed by single-crystal X-ray diffraction.
##URL=rruff.info/R120123
8.975323e+001, 0.000000e+000
9.023535e+001, 2.195885e+002
9.071747e+001, 2.248557e+002
9.119958e+001, 2.258974e+002
9.168170e+001, 2.225404e+002
9.216382e+001, 2.169581e+002
9.264594e+001, 2.118045e+002
9.312805e+001, 2.082860e+002
9.361017e+001, 2.054388e+002
9.409229e+001, 2.004734e+002
9.457440e+001, 1.916129e+002
9.505651e+001, 1.837296e+002
9.553863e+001, 1.765111e+002
9.602074e+001, 1.703934e+002
9.650286e+001, 1.660271e+002
9.698498e+001, 1.635804e+002
9.746709e+001, 1.621127e+002
9.794921e+001, 1.599825e+002
9.843133e+001, 1.574478e+002
9.891344e+001, 1.542610e+002
9.939556e+001, 1.496988e+002
9.987768e+001, 1.442586e+002
1.003598e+002, 1.393666e+002
1.008419e+002, 1.357311e+002
1.013240e+002, 1.334411e+002
1.018061e+002, 1.319749e+002
1.022883e+002, 1.316024e+002
1.027704e+002, 1.318229e+002
1.032525e+002, 1.321943e+002
1.037346e+002, 1.326836e+002
1.042167e+002, 1.334515e+002
1.046988e+002, 1.352045e+002
1.051810e+002, 1.372298e+002
1.056631e+002, 1.383695e+002
1.061452e+002, 1.383903e+002
1.066273e+002, 1.371842e+002
1.071094e+002, 1.340722e+002
1.075915e+002, 1.271490e+002
1.080737e+002, 1.205617e+002
1.085558e+002, 1.158807e+002
1.090379e+002, 1.128743e+002
1.095200e+002, 1.108595e+002
1.100021e+002, 1.093079e+002
1.104842e+002, 1.082575e+002
1.109664e+002, 1.075302e+002
1.114485e+002, 1.071841e+002
1.119306e+002, 1.070727e+002
1.124127e+002, 1.071546e+002
1.128948e+002, 1.074143e+002
1.133769e+002, 1.078653e+002
1.138591e+002, 1.085785e+002
1.143412e+002, 1.102208e+002
1.148233e+002, 1.108101e+002
1.153054e+002, 1.098396e+002
1.157875e+002, 1.081117e+002
1.162696e+002, 1.063402e+002
1.167517e+002, 1.047675e+002
1.172339e+002, 1.033099e+002
1.177160e+002, 1.017182e+002
1.181981e+002, 9.960477e+001
1.186802e+002, 9.809958e+001
1.191623e+002, 9.784693e+001
1.196444e+002, 9.850751e+001
1.201266e+002, 9.914404e+001
1.206087e+002, 9.930298e+001
1.210908e+002, 9.922250e+001
1.215729e+002, 9.954877e+001
1.220550e+002, 1.007827e+002
1.225371e+002, 1.015726e+002
1.230193e+002, 1.004567e+002
1.235014e+002, 9.722057e+001
1.239835e+002, 9.389607e+001
1.244656e+002, 9.107655e+001
1.249477e+002, 8.881577e+001
1.254298e+002, 8.729789e+001
1.259120e+002, 8.668316e+001
1.263941e+002, 8.675517e+001
1.268762e+002, 8.713221e+001
1.273583e+002, 8.819080e+001
1.278404e+002, 8.890221e+001
1.283225e+002, 8.896026e+001
1.288047e+002, 8.855493e+001
1.292868e+002, 8.794637e+001
1.297689e+002, 8.731224e+001
1.302510e+002, 8.663123e+001
1.307331e+002, 8.557700e+001
1.312152e+002, 8.355611e+001
1.316974e+002, 8.170522e+001
1.321795e+002, 8.022989e+001
1.326616e+002, 7.915406e+001
1.331437e+002, 7.846014e+001
1.336258e+002, 7.815038e+001
1.341079e+002, 7.828168e+001
1.345901e+002, 7.848357e+001
1.350722e+002, 7.881988e+001
1.355543e+002, 7.916208e+001
1.360364e+002, 7.937064e+001
1.365185e+002, 7.945757e+001
1.370006e+002, 7.965390e+001
1.374828e+002, 8.038390e+001
1.379649e+002, 8.190578e+001
1.384470e+002, 8.234943e+001
1.389291e+002, 8.090518e+001
1.394112e+002, 7.860884e+001
1.398933e+002, 7.657729e+001
1.403755e+002, 7.503654e+001
1.408576e+002, 7.386556e+001
1.413397e+002, 7.299522e+001
1.418218e+002, 7.238982e+001
1.423039e+002, 7.192705e+001
1.427860e+002, 7.161336e+001
1.432681e+002, 7.141662e+001
1.437503e+002, 7.121083e+001
1.442324e+002, 7.092790e+001
1.447145e+002, 7.068283e+001
1.451966e+002, 7.061388e+001
1.456787e+002, 7.071919e+001
1.461608e+002, 7.078777e+001
1.466430e+002, 7.068342e+001
1.471251e+002, 7.041221e+001
1.476072e+002, 6.989664e+001
1.480893e+002, 6.856001e+001
1.485714e+002, 6.732205e+001
1.490535e+002, 6.680592e+001
1.495357e+002, 6.711855e+001
1.500178e+002, 6.775388e+001
1.504999e+002, 6.793719e+001
1.509820e+002, 6.738581e+001
1.514641e+002, 6.699035e+001
1.519462e+002, 6.689389e+001
1.524284e+002, 6.692091e+001
1.529105e+002, 6.699615e+001
1.533926e+002, 6.708099e+001
1.538747e+002, 6.709374e+001
1.543568e+002, 6.682728e+001
1.548389e+002, 6.612561e+001
1.553211e+002, 6.528358e+001
1.558032e+002, 6.411706e+001
1.562853e+002, 6.287704e+001
1.567674e+002, 6.183894e+001
1.572495e+002, 6.113390e+001
1.577316e+002, 6.074867e+001
1.582138e+002, 6.066661e+001
1.586959e+002, 6.113316e+001
1.591780e+002, 6.157818e+001
1.596601e+002, 6.193127e+001
1.601422e+002, 6.216679e+001
1.606243e+002, 6.222768e+001
1.611065e+002, 6.206970e+001
1.615886e+002, 6.170454e+001
1.620707e+002, 6.125499e+001
1.625528e+002, 6.068126e+001
1.630349e+002, 6.007284e+001
1.635170e+002, 5.941529e+001
1.639991e+002, 5.872465e+001
1.644813e+002, 5.818766e+001
1.649634e+002, 5.801918e+001
1.654455e+002, 5.807050e+001
1.659276e+002, 5.797655e+001
1.664097e+002, 5.755748e+001
1.668918e+002, 5.708971e+001
1.673740e+002, 5.688356e+001
1.678561e+002, 5.696475e+001
1.683382e+002, 5.718745e+001
1.688203e+002, 5.773219e+001
1.693024e+002, 5.831004e+001
1.697845e+002, 5.851282e+001
1.702667e+002, 5.805166e+001
1.707488e+002, 5.720057e+001
1.712309e+002, 5.659231e+001
1.717130e+002, 5.633319e+001
1.721951e+002, 5.613882e+001
1.726772e+002, 5.596227e+001
1.731594e+002, 5.575481e+001
1.736415e+002, 5.541982e+001
1.741236e+002, 5.484463e+001
1.746057e+002, 5.410326e+001
1.750878e+002, 5.366530e+001
1.755699e+002, 5.383074e+001
1.760521e+002, 5.398811e+001
1.765342e+002, 5.391024e+001
1.770163e+002, 5.370962e+001
1.774984e+002, 5.362539e+001
1.779805e+002, 5.387522e+001
1.784626e+002, 5.446486e+001
1.789448e+002, 5.464473e+001
1.794269e+002, 5.402039e+001
1.799090e+002, 5.337813e+001
1.803911e+002, 5.288153e+001
1.808732e+002, 5.255541e+001
1.813553e+002, 5.240493e+001
1.818375e+002, 5.246080e+001
1.823196e+002, 5.276318e+001
1.828017e+002, 5.285896e+001
1.832838e+002, 5.260590e+001
1.837659e+002, 5.232211e+001
1.842480e+002, 5.219062e+001
1.847301e+002, 5.219571e+001
1.852123e+002, 5.217995e+001
1.856944e+002, 5.199057e+001
1.861765e+002, 5.159598e+001
1.866586e+002, 5.125407e+001
1.871407e+002, 5.093808e+001
1.876228e+002, 5.069179e+001
1.881050e+002, 5.055084e+001
1.885871e+002, 5.051888e+001
1.890692e+002, 5.057757e+001
1.895513e+002, 5.077028e+001
1.900334e+002, 5.108548e+001
1.905155e+002, 5.123156e+001
1.909977e+002, 5.102822e+001
1.914798e+002, 5.070853e+001
1.919619e+002, 5.055778e+001
1.924440e+002, 5.063480e+001
1.929261e+002, 5.073903e+001
1.934082e+002, 5.069850e+001
1.938904e+002, 5.053794e+001
1.943725e+002, 5.027651e+001
1.948546e+002, 4.971439e+001
1.953367e+002, 4.908656e+001
1.958188e+002, 4.895569e+001
1.963009e+002, 4.961438e+001
1.967831e+002, 5.022083e+001
1.972652e+002, 5.004130e+001
1.977473e+002, 4.931432e+001
1.982294e+002, 4.862687e+001
1.987115e+002, 4.823871e+001
1.991936e+002, 4.812510e+001
1.996758e+002, 4.821723e+001
2.001579e+002, 4.869590e+001
2.006400e+002, 4.912721e+001
2.011221e+002, 4.930088e+001
2.016042e+002, 4.925457e+001
2.020863e+002, 4.907836e+001
2.025685e+002, 4.873237e+001
2.030506e+002, 4.824123e+001
2.035327e+002, 4.806913e+001
2.040148e+002, 4.862461e+001
2.044969e+002, 4.908803e+001
2.049790e+002, 4.900739e+001
2.054612e+002, 4.856414e+001
2.059433e+002, 4.823521e+001
2.064254e+002, 4.849908e+001
2.069075e+002, 4.940870e+001
2.073896e+002, 4.987323e+001
2.078717e+002, 4.946343e+001
2.083539e+002, 4.897201e+001
2.088360e+002, 4.858112e+001
2.093181e+002, 4.831268e+001
2.098002e+002, 4.813784e+001
2.102823e+002, 4.804695e+001
2.107644e+002, 4.805907e+001
2.112466e+002, 4.798910e+001
2.117287e+002, 4.769101e+001
2.122108e+002, 4.745381e+001
2.126929e+002, 4.734583e+001
2.131750e+002, 4.739404e+001
2.136571e+002, 4.766158e+001
2.141393e+002, 4.827284e+001
2.146214e+002, 4.936543e+001
2.151035e+002, 4.976327e+001
2.155856e+002, 4.895542e+001
2.160677e+002, 4.807396e+001
2.165498e+002, 4.772840e+001
2.170320e+002, 4.787707e+001
2.175141e+002, 4.804165e+001
2.179962e+002, 4.773318e+001
2.184783e+002, 4.685208e+001
2.189604e+002, 4.656689e+001
2.194425e+002, 4.726304e+001
2.199247e+002, 4.816119e+001
2.204068e+002, 4.897704e+001
2.208889e+002, 4.962340e+001
2.213710e+002, 4.985256e+001
2.218531e+002, 4.931800e+001
2.223352e+002, 4.796652e+001
2.228174e+002, 4.714895e+001
2.232995e+002, 4.717249e+001
2.237816e+002, 4.749253e+001
2.242637e+002, 4.774120e+001
2.247458e+002, 4.789403e+001
2.252279e+002, 4.806536e+001
2.257100e+002, 4.839097e+001
2.261922e+002, 4.883220e+001
2.266743e+002, 4.911092e+001
2.271564e+002, 4.897942e+001
2.276385e+002, 4.882161e+001
2.281206e+002, 4.907650e+001
2.286027e+002, 4.977761e+001
2.290849e+002, 5.043627e+001
2.295670e+002, 5.067723e+001
2.300491e+002, 5.059100e+001
2.305312e+002, 5.043689e+001
2.310133e+002, 5.038704e+001
2.314954e+002, 5.021313e+001
2.319776e+002, 4.948842e+001
2.324597e+002, 4.810484e+001
2.329418e+002, 4.693155e+001
2.334239e+002, 4.671708e+001
2.339060e+002, 4.704464e+001
2.343881e+002, 4.731972e+001
2.348703e+002, 4.738457e+001
2.353524e+002, 4.734199e+001
2.358345e+002, 4.730242e+001
2.363166e+002, 4.724658e+001
2.367987e+002, 4.727499e+001
2.372808e+002, 4.762786e+001
2.377630e+002, 4.803645e+001
2.382451e+002, 4.815527e+001
2.387272e+002, 4.776781e+001
2.392093e+002, 4.720571e+001
2.396914e+002, 4.702424e+001
2.401735e+002, 4.733261e+001
2.406557e+002, 4.767414e+001
2.411378e+002, 4.798658e+001
2.416199e+002, 4.819795e+001
2.421020e+002, 4.821397e+001
2.425841e+002, 4.798934e+001
2.430662e+002, 4.759735e+001
2.435484e+002, 4.707637e+001
2.440305e+002, 4.624775e+001
2.445126e+002, 4.580109e+001
2.449947e+002, 4.625056e+001
2.454768e+002, 4.696310e+001
2.459589e+002, 4.744604e+001
2.464410e+002, 4.753701e+001
2.469232e+002, 4.730981e+001
2.474053e+002, 4.679970e+001
2.478874e+002, 4.574885e+001
2.483695e+002, 4.505402e+001
2.488516e+002, 4.507491e+001
2.493337e+002, 4.534363e+001
2.498159e+002, 4.550292e+001
2.502980e+002, 4.544543e+001
2.507801e+002, 4.532521e+001
2.512622e+002, 4.544125e+001
2.517443e+002, 4.600733e+001
2.522264e+002, 4.631263e+001
2.527086e+002, 4.606353e+001
2.531907e+002, 4.572388e+001
2.536728e+002, 4.564414e+001
2.541549e+002, 4.590292e+001
2.546370e+002, 4.630324e+001
2.551191e+002, 4.650921e+001
2.556013e+002, 4.626983e+001
2.560834e+002, 4.639986e+001
2.565655e+002, 4.747681e+001
2.570476e+002, 4.845991e+001
2.575297e+002, 4.857592e+001
2.580118e+002, 4.773437e+001
2.584940e+002, 4.648082e+001
2.589761e+002, 4.553814e+001
2.594582e+002, 4.503077e+001
2.599403e+002, 4.454070e+001
2.604224e+002, 4.408271e+001
2.609045e+002, 4.362273e+001
2.613867e+002, 4.308802e+001
2.618688e+002, 4.249975e+001
2.623509e+002, 4.199670e+001
2.628330e+002, 4.175466e+001
2.633151e+002, 4.187961e+001
2.637972e+002, 4.188427e+001
2.642794e+002, 4.152844e+001
2.647615e+002, 4.127350e+001
2.652436e+002, 4.147786e+001
2.657257e+002, 4.208152e+001
2.662078e+002, 4.271810e+001
2.666899e+002, 4.303571e+001
2.671721e+002, 4.299645e+001
2.676542e+002, 4.282922e+001
2.681363e+002, 4.248278e+001
2.686184e+002, 4.208463e+001
2.691005e+002, 4.157090e+001
2.695826e+002, 4.102881e+001
2.700648e+002, 4.074082e+001
2.705469e+002, 4.100560e+001
2.710290e+002, 4.185778e+001
2.715111e+002, 4.213926e+001
2.719932e+002, 4.141656e+001
2.724753e+002, 4.067979e+001
2.729575e+002, 4.037157e+001
2.734396e+002, 4.040404e+001
2.739217e+002, 4.045959e+001
2.744038e+002, 4.031708e+001
2.748859e+002, 4.000179e+001
2.753680e+002, 3.983390e+001
2.758501e+002, 3.999303e+001
2.763322e+002, 4.006982e+001
2.768144e+002, 3.986397e+001
2.772965e+002, 3.946979e+001
2.777786e+002, 3.908238e+001
2.782607e+002, 3.878955e+001
2.787428e+002, 3.860836e+001
2.792249e+002, 3.863581e+001
2.797071e+002, 3.910596e+001
2.801892e+002, 3.946725e+001
2.806713e+002, 3.946192e+001
2.811534e+002, 3.926941e+001
2.816355e+002, 3.923969e+001
2.821176e+002, 3.954707e+001
2.825998e+002, 4.002404e+001
2.830819e+002, 4.022726e+001
2.835640e+002, 4.009072e+001
2.840461e+002, 3.986672e+001
2.845282e+002, 3.951880e+001
2.850103e+002, 3.913568e+001
2.854925e+002, 3.884309e+001
2.859746e+002, 3.868158e+001
2.864567e+002, 3.862542e+001
2.869388e+002, 3.865704e+001
2.874209e+002, 3.881872e+001
2.879030e+002, 3.891754e+001
2.883852e+002, 3.887289e+001
2.888673e+002, 3.876939e+001
2.893494e+002, 3.874091e+001
2.898315e+002, 3.882288e+001
2.903136e+002, 3.886530e+001
2.907957e+002, 3.861028e+001
2.912779e+002, 3.798622e+001
2.917600e+002, 3.766489e+001
2.922421e+002, 3.806190e+001
2.927242e+002, 3.859356e+001
2.932063e+002, 3.859454e+001
2.936884e+002, 3.798959e+001
2.941706e+002, 3.735827e+001
2.946527e+002, 3.725704e+001
2.951348e+002, 3.770461e+001
2.956169e+002, 3.805709e+001
2.960990e+002, 3.837375e+001
2.965811e+002, 3.852963e+001
2.970633e+002, 3.832981e+001
2.975454e+002, 3.780430e+001
2.980275e+002, 3.729342e+001
2.985096e+002, 3.702453e+001
2.989917e+002, 3.698740e+001
2.994738e+002, 3.698783e+001
2.999560e+002, 3.706662e+001
3.004381e+002, 3.714507e+001
3.009202e+002, 3.716172e+001
3.014023e+002, 3.713189e+001
3.018844e+002, 3.713652e+001
3.023665e+002, 3.724165e+001
3.028487e+002, 3.739128e+001
3.033308e+002, 3.741737e+001
3.038129e+002, 3.724801e+001
3.042950e+002, 3.708554e+001
3.047771e+002, 3.701519e+001
3.052592e+002, 3.701995e+001
3.057414e+002, 3.707416e+001
3.062235e+002, 3.719343e+001
3.067056e+002, 3.731066e+001
3.071877e+002, 3.725350e+001
3.076698e+002, 3.695104e+001
3.081519e+002, 3.677446e+001
3.086341e+002, 3.700755e+001
3.091162e+002, 3.741127e+001
3.095983e+002, 3.754368e+001
3.100804e+002, 3.726345e+001
3.105625e+002, 3.682145e+001
3.110446e+002, 3.652301e+001
3.115268e+002, 3.636073e+001
3.120089e+002, 3.628149e+001
3.124910e+002, 3.629225e+001
3.129731e+002, 3.637337e+001
3.134552e+002, 3.655956e+001
3.139373e+002, 3.686323e+001
3.144195e+002, 3.707844e+001
3.149016e+002, 3.694570e+001
3.153837e+002, 3.649393e+001
3.158658e+002, 3.621531e+001
3.163479e+002, 3.617638e+001
3.168300e+002, 3.630574e+001
3.173121e+002, 3.664642e+001
3.177943e+002, 3.717108e+001
3.182764e+002, 3.757659e+001
3.187585e+002, 3.761139e+001
3.192406e+002, 3.735918e+001
3.197227e+002, 3.727454e+001
3.202048e+002, 3.742737e+001
3.206870e+002, 3.767059e+001
3.211691e+002, 3.799078e+001
3.216512e+002, 3.835103e+001
3.221333e+002, 3.858811e+001
3.226154e+002, 3.855412e+001
3.230975e+002, 3.843687e+001
3.235797e+002, 3.878139e+001
3.240618e+002, 3.995197e+001
3.245439e+002, 4.073866e+001
3.250260e+002, 4.038744e+001
3.255081e+002, 3.940880e+001
3.259902e+002, 3.873082e+001
3.264724e+002, 3.863269e+001
3.269545e+002, 3.895884e+001
3.274366e+002, 3.960344e+001
3.279187e+002, 4.065923e+001
3.284008e+002, 4.145470e+001
3.288829e+002, 4.168410e+001
3.293651e+002, 4.167037e+001
3.298472e+002, 4.176784e+001
3.303293e+002, 4.203748e+001
3.308114e+002, 4.239034e+001
3.312935e+002, 4.274172e+001
3.317756e+002, 4.309139e+001
3.322578e+002, 4.350684e+001
3.327399e+002, 4.398848e+001
3.332220e+002, 4.453444e+001
3.337041e+002, 4.514355e+001
3.341862e+002, 4.581392e+001
3.346683e+002, 4.654902e+001
3.351505e+002, 4.732501e+001
3.356326e+002, 4.817406e+001
3.361147e+002, 4.924145e+001
3.365968e+002, 5.054222e+001
3.370789e+002, 5.202349e+001
3.375610e+002, 5.378740e+001
3.380432e+002, 5.572395e+001
3.385253e+002, 5.760211e+001
3.390074e+002, 5.934986e+001
3.394895e+002, 6.089462e+001
3.399716e+002, 6.197808e+001
3.404537e+002, 6.245185e+001
3.409359e+002, 6.282140e+001
3.414180e+002, 6.247341e+001
3.419001e+002, 6.232574e+001
3.423822e+002, 6.341870e+001
3.428643e+002, 6.603903e+001
3.433464e+002, 7.026192e+001
3.438286e+002, 7.640241e+001
3.443107e+002, 8.543411e+001
3.447928e+002, 9.369099e+001
3.452749e+002, 1.020172e+002
3.457570e+002, 1.089013e+002
3.462391e+002, 1.128761e+002
3.467213e+002, 1.139816e+002
3.472034e+002, 1.134801e+002
3.476855e+002, 1.122073e+002
3.481676e+002, 1.100840e+002
3.486497e+002, 1.091899e+002
3.491318e+002, 1.094364e+002
3.496140e+002, 1.107481e+002
3.500961e+002, 1.132688e+002
3.505782e+002, 1.168298e+002
3.510603e+002, 1.211163e+002
3.515424e+002, 1.259377e+002
3.520245e+002, 1.313087e+002
3.525067e+002, 1.373971e+002
3.529888e+002, 1.448060e+002
3.534709e+002, 1.521634e+002
3.539530e+002, 1.588252e+002
3.544351e+002, 1.655263e+002
3.549172e+002, 1.730305e+002
3.553994e+002, 1.816197e+002
3.558815e+002, 1.912964e+002
3.563636e+002, 2.020213e+002
3.568457e+002, 2.128665e+002
3.573278e+002, 2.271390e+002
3.578099e+002, 2.446882e+002
3.582920e+002, 2.654071e+002
3.587741e+002, 2.893537e+002
3.592563e+002, 3.164809e+002
3.597384e+002, 3.464995e+002
3.602205e+002, 3.799242e+002
3.607026e+002, 4.175625e+002
3.611847e+002, 4.506595e+002
3.616668e+002, 4.953018e+002
3.621490e+002, 5.193151e+002
3.626311e+002, 5.081545e+002
3.631132e+002, 4.684760e+002
3.635953e+002, 4.106494e+002
3.640774e+002, 3.391904e+002
3.645595e+002, 2.596632e+002
3.650417e+002, 1.957627e+002
3.655238e+002, 1.534429e+002
3.660059e+002, 1.206303e+002
3.664880e+002, 9.858070e+001
3.669701e+002, 8.343739e+001
3.674522e+002, 7.233017e+001
3.679344e+002, 6.418048e+001
3.684165e+002, 5.827439e+001
3.688986e+002, 5.368102e+001
3.693807e+002, 5.075753e+001
3.698628e+002, 4.825553e+001
3.703449e+002, 4.620086e+001
3.708271e+002, 4.445836e+001
3.713092e+002, 4.299383e+001
3.717913e+002, 4.178516e+001
3.722734e+002, 4.076461e+001
3.727555e+002, 3.991446e+001
3.732376e+002, 3.923064e+001
3.737198e+002, 3.852137e+001
3.742019e+002, 3.773279e+001
3.746840e+002, 3.698649e+001
3.751661e+002, 3.630785e+001
3.756482e+002, 3.569600e+001
3.761303e+002, 3.514762e+001
3.766125e+002, 3.465113e+001
3.770946e+002, 3.423136e+001
3.775767e+002, 3.394120e+001
3.780588e+002, 3.378799e+001
3.785409e+002, 3.374813e+001
3.790230e+002, 3.414251e+001
3.795052e+002, 3.444938e+001
3.799873e+002, 3.410234e+001
3.804694e+002, 3.300082e+001
3.809515e+002, 3.186975e+001
3.814336e+002, 3.157519e+001
3.819157e+002, 3.209430e+001
3.823979e+002, 3.227884e+001
3.828800e+002, 3.176207e+001
3.833621e+002, 3.113013e+001
3.838442e+002, 3.076892e+001
3.843263e+002, 3.063519e+001
3.848084e+002, 3.054866e+001
3.852906e+002, 3.044675e+001
3.857727e+002, 3.032139e+001
3.862548e+002, 3.011424e+001
3.867369e+002, 2.977368e+001
3.872190e+002, 2.954190e+001
3.877011e+002, 2.968460e+001
3.881833e+002, 2.999070e+001
3.886654e+002, 3.015615e+001
3.891475e+002, 3.007351e+001
3.896296e+002, 2.993215e+001
3.901117e+002, 2.991827e+001
3.905938e+002, 3.001029e+001
3.910760e+002, 3.003544e+001
3.915581e+002, 2.992261e+001
3.920402e+002, 2.973503e+001
3.925223e+002, 2.954285e+001
3.930044e+002, 2.933947e+001
3.934865e+002, 2.919354e+001
3.939687e+002, 2.917599e+001
3.944508e+002, 2.921890e+001
3.949329e+002, 2.919758e+001
3.954150e+002, 2.908624e+001
3.958971e+002, 2.900112e+001
3.963792e+002, 2.908878e+001
3.968614e+002, 2.932131e+001
3.973435e+002, 2.938978e+001
3.978256e+002, 2.913955e+001
3.983077e+002, 2.884549e+001
3.987898e+002, 2.868666e+001
3.992719e+002, 2.863839e+001
3.997540e+002, 2.860440e+001
4.002361e+002, 2.854710e+001
4.007183e+002, 2.845587e+001
4.012004e+002, 2.828302e+001
4.016825e+002, 2.788981e+001
4.021646e+002, 2.766614e+001
4.026467e+002, 2.779214e+001
4.031288e+002, 2.807129e+001
4.036110e+002, 2.830977e+001
4.040931e+002, 2.845498e+001
4.045752e+002, 2.849828e+001
4.050573e+002, 2.839562e+001
4.055394e+002, 2.806954e+001
4.060215e+002, 2.801938e+001
4.065037e+002, 2.855747e+001
4.069858e+002, 2.903858e+001
4.074679e+002, 2.912352e+001
4.079500e+002, 2.888621e+001
4.084321e+002, 2.855532e+001
4.089142e+002, 2.825933e+001
4.093964e+002, 2.800895e+001
4.098785e+002, 2.784856e+001
4.103606e+002, 2.785494e+001
4.108427e+002, 2.785853e+001
4.113248e+002, 2.777123e+001
4.118069e+002, 2.771433e+001
4.122891e+002, 2.787725e+001
4.127712e+002, 2.827751e+001
4.132533e+002, 2.866609e+001
4.137354e+002, 2.866497e+001
4.142175e+002, 2.812953e+001
4.146996e+002, 2.778492e+001
4.151818e+002, 2.770808e+001
4.156639e+002, 2.775978e+001
4.161460e+002, 2.800132e+001
4.166281e+002, 2.833550e+001
4.171102e+002, 2.855784e+001
4.175923e+002, 2.852884e+001
4.180745e+002, 2.830367e+001
4.185566e+002, 2.803586e+001
4.190387e+002, 2.763005e+001
4.195208e+002, 2.740372e+001
4.200029e+002, 2.762502e+001
4.204850e+002, 2.796715e+001
4.209672e+002, 2.813647e+001
4.214493e+002, 2.806213e+001
4.219314e+002, 2.786316e+001
4.224135e+002, 2.758457e+001
4.228956e+002, 2.723875e+001
4.233777e+002, 2.709257e+001
4.238599e+002, 2.731835e+001
4.243420e+002, 2.757089e+001
4.248241e+002, 2.755715e+001
4.253062e+002, 2.734203e+001
4.257883e+002, 2.715922e+001
4.262704e+002, 2.719017e+001
4.267526e+002, 2.727151e+001
4.272347e+002, 2.704760e+001
4.277168e+002, 2.648345e+001
4.281989e+002, 2.620775e+001
4.286810e+002, 2.673046e+001
4.291631e+002, 2.767830e+001
4.296453e+002, 2.819923e+001
4.301274e+002, 2.817613e+001
4.306095e+002, 2.798716e+001
4.310916e+002, 2.773020e+001
4.315737e+002, 2.745223e+001
4.320558e+002, 2.723848e+001
4.325380e+002, 2.710855e+001
4.330201e+002, 2.706177e+001
4.335022e+002, 2.710272e+001
4.339843e+002, 2.723997e+001
4.344664e+002, 2.744197e+001
4.349485e+002, 2.776718e+001
4.354307e+002, 2.810621e+001
4.359128e+002, 2.843776e+001
4.363949e+002, 2.872793e+001
4.368770e+002, 2.886656e+001
4.373591e+002, 2.876741e+001
4.378412e+002, 2.851331e+001
4.383234e+002, 2.842263e+001
4.388055e+002, 2.864164e+001
4.392876e+002, 2.884044e+001
4.397697e+002, 2.897581e+001
4.402518e+002, 2.909380e+001
4.407339e+002, 2.924662e+001
4.412160e+002, 2.943919e+001
4.416982e+002, 2.962322e+001
4.421803e+002, 2.972482e+001
4.426624e+002, 2.971276e+001
4.431445e+002, 2.985001e+001
4.436266e+002, 3.030361e+001
4.441087e+002, 3.073485e+001
4.445909e+002, 3.104211e+001
4.450730e+002, 3.125445e+001
4.455551e+002, 3.141330e+001
4.460372e+002, 3.152651e+001
4.465193e+002, 3.165610e+001
4.470014e+002, 3.195447e+001
4.474836e+002, 3.247589e+001
4.479657e+002, 3.300422e+001
4.484478e+002, 3.347460e+001
4.489299e+002, 3.396175e+001
4.494120e+002, 3.454550e+001
4.498941e+002, 3.521448e+001
4.503763e+002, 3.585104e+001
4.508584e+002, 3.654402e+001
4.513405e+002, 3.716581e+001
4.518226e+002, 3.704688e+001
4.523047e+002, 3.592079e+001
4.527868e+002, 3.469356e+001
4.532690e+002, 3.384590e+001
4.537511e+002, 3.324731e+001
4.542332e+002, 3.276114e+001
4.547153e+002, 3.242292e+001
4.551974e+002, 3.207092e+001
4.556795e+002, 3.153190e+001
4.561617e+002, 3.085299e+001
4.566438e+002, 3.018975e+001
4.571259e+002, 2.951902e+001
4.576080e+002, 2.902340e+001
4.580901e+002, 2.909021e+001
4.585722e+002, 2.971749e+001
4.590544e+002, 3.010952e+001
4.595365e+002, 3.002483e+001
4.600186e+002, 2.971931e+001
4.605007e+002, 2.931220e+001
4.609828e+002, 2.885808e+001
4.614649e+002, 2.854499e+001
4.619471e+002, 2.850875e+001
4.624292e+002, 2.867937e+001
4.629113e+002, 2.876563e+001
4.633934e+002, 2.871162e+001
4.638755e+002, 2.865307e+001
4.643576e+002, 2.853729e+001
4.648398e+002, 2.846027e+001
4.653219e+002, 2.854696e+001
4.658040e+002, 2.880750e+001
4.662861e+002, 2.912304e+001
4.667682e+002, 2.936373e+001
4.672503e+002, 2.952228e+001
4.677325e+002, 2.969226e+001
4.682146e+002, 2.987011e+001
4.686967e+002, 3.006366e+001
4.691788e+002, 3.030582e+001
4.696609e+002, 3.055640e+001
4.701430e+002, 3.072758e+001
4.706252e+002, 3.077495e+001
4.711073e+002, 3.081939e+001
4.715894e+002, 3.111318e+001
4.720715e+002, 3.173601e+001
4.725536e+002, 3.225200e+001
4.730357e+002, 3.238535e+001
4.735179e+002, 3.258148e+001
4.740000e+002, 3.312635e+001
4.744821e+002, 3.397213e+001
4.749642e+002, 3.487648e+001
4.754463e+002, 3.557042e+001
4.759284e+002, 3.626625e+001
4.764106e+002, 3.749458e+001
4.768927e+002, 3.931635e+001
4.773748e+002, 4.125150e+001
4.778569e+002, 4.303506e+001
4.783390e+002, 4.483899e+001
4.788211e+002, 4.699592e+001
4.793033e+002, 4.968367e+001
4.797854e+002, 5.210354e+001
4.802675e+002, 5.372661e+001
4.807496e+002, 5.484194e+001
4.812317e+002, 5.594703e+001
4.817138e+002, 5.712633e+001
4.821959e+002, 5.831890e+001
4.826780e+002, 5.944992e+001
4.831602e+002, 6.052708e+001
4.836423e+002, 6.178963e+001
4.841244e+002, 6.310270e+001
4.846065e+002, 6.472630e+001
4.850886e+002, 6.683967e+001
4.855707e+002, 6.933011e+001
4.860529e+002, 7.200423e+001
4.865350e+002, 7.479665e+001
4.870171e+002, 7.772256e+001
4.874992e+002, 8.074485e+001
4.879813e+002, 8.369375e+001
4.884634e+002, 8.731340e+001
4.889456e+002, 9.155336e+001
4.894277e+002, 9.637596e+001
4.899098e+002, 1.017580e+002
4.903919e+002, 1.076928e+002
4.908740e+002, 1.142237e+002
4.913561e+002, 1.214056e+002
4.918383e+002, 1.290491e+002
4.923204e+002, 1.368148e+002
4.928025e+002, 1.451115e+002
4.932846e+002, 1.523438e+002
4.937667e+002, 1.587089e+002
4.942488e+002, 1.634305e+002
4.947310e+002, 1.664549e+002
4.952131e+002, 1.675213e+002
4.956952e+002, 1.652543e+002
4.961773e+002, 1.576794e+002
4.966594e+002, 1.461383e+002
4.971415e+002, 1.339451e+002
4.976237e+002, 1.209304e+002
4.981058e+002, 1.082815e+002
4.985879e+002, 9.612173e+001
4.990700e+002, 8.488489e+001
4.995521e+002, 7.529234e+001
5.000342e+002, 6.746200e+001
5.005164e+002, 6.099290e+001
5.009985e+002, 5.585536e+001
5.014806e+002, 5.185034e+001
5.019627e+002, 4.870103e+001
5.024448e+002, 4.636968e+001
5.029269e+002, 4.444248e+001
5.034091e+002, 4.253615e+001
5.038912e+002, 4.063715e+001
5.043733e+002, 3.909414e+001
5.048554e+002, 3.812860e+001
5.053375e+002, 3.722817e+001
5.058196e+002, 3.611486e+001
5.063018e+002, 3.497671e+001
5.067839e+002, 3.414823e+001
5.072660e+002, 3.374094e+001
5.077481e+002, 3.354545e+001
5.082302e+002, 3.326274e+001
5.087123e+002, 3.290155e+001
5.091945e+002, 3.241955e+001
5.096766e+002, 3.161399e+001
5.101587e+002, 3.089176e+001
5.106408e+002, 3.042825e+001
5.111229e+002, 3.015792e+001
5.116050e+002, 2.993947e+001
5.120872e+002, 2.970236e+001
5.125693e+002, 2.948379e+001
5.130514e+002, 2.937279e+001
5.135335e+002, 2.938932e+001
5.140156e+002, 2.934463e+001
5.144977e+002, 2.906945e+001
5.149799e+002, 2.885594e+001
5.154620e+002, 2.906546e+001
5.159441e+002, 2.961158e+001
5.164262e+002, 2.991690e+001
5.169083e+002, 2.964624e+001
5.173904e+002, 2.905740e+001
5.178726e+002, 2.837003e+001
5.183547e+002, 2.761086e+001
5.188368e+002, 2.705105e+001
5.193189e+002, 2.686209e+001
5.198010e+002, 2.689700e+001
5.202831e+002, 2.683430e+001
5.207653e+002, 2.664920e+001
5.212474e+002, 2.646275e+001
5.217295e+002, 2.627313e+001
5.222116e+002, 2.610599e+001
5.226937e+002, 2.600614e+001
5.231758e+002, 2.596049e+001
5.236580e+002, 2.589413e+001
5.241401e+002, 2.574696e+001
5.246222e+002, 2.554422e+001
5.251043e+002, 2.541605e+001
5.255864e+002, 2.544105e+001
5.260685e+002, 2.543175e+001
5.265507e+002, 2.528569e+001
5.270328e+002, 2.515948e+001
5.275149e+002, 2.522028e+001
5.279970e+002, 2.545985e+001
5.284791e+002, 2.569822e+001
5.289612e+002, 2.574674e+001
5.294434e+002, 2.565150e+001
5.299255e+002, 2.572761e+001
5.304076e+002, 2.608898e+001
5.308897e+002, 2.635599e+001
5.313718e+002, 2.636719e+001
5.318539e+002, 2.619761e+001
5.323361e+002, 2.582279e+001
5.328182e+002, 2.518407e+001
5.333003e+002, 2.473209e+001
5.337824e+002, 2.493669e+001
5.342645e+002, 2.550268e+001
5.347466e+002, 2.578859e+001
5.352288e+002, 2.570177e+001
5.357109e+002, 2.549127e+001
5.361930e+002, 2.534143e+001
5.366751e+002, 2.522488e+001
5.371572e+002, 2.498803e+001
5.376393e+002, 2.444033e+001
5.381215e+002, 2.401467e+001
5.386036e+002, 2.379419e+001
5.390857e+002, 2.377905e+001
5.395678e+002, 2.410450e+001
5.400499e+002, 2.473436e+001
5.405320e+002, 2.524946e+001
5.410142e+002, 2.515271e+001
5.414963e+002, 2.441581e+001
5.419784e+002, 2.404025e+001
5.424604e+002, 2.437565e+001
5.429426e+002, 2.467479e+001
5.434247e+002, 2.488591e+001
5.439068e+002, 2.493698e+001
5.443889e+002, 2.468006e+001
5.448710e+002, 2.409533e+001
5.453531e+002, 2.348023e+001
5.458353e+002, 2.301325e+001
5.463174e+002, 2.273059e+001
5.467995e+002, 2.325161e+001
5.472816e+002, 2.511801e+001
5.477637e+002, 2.670327e+001
5.482458e+002, 2.676457e+001
5.487280e+002, 2.591671e+001
5.492101e+002, 2.502003e+001
5.496922e+002, 2.407343e+001
5.501743e+002, 2.340352e+001
5.506564e+002, 2.336418e+001
5.511385e+002, 2.372093e+001
5.516207e+002, 2.402310e+001
5.521028e+002, 2.417932e+001
5.525849e+002, 2.419126e+001
5.530670e+002, 2.401501e+001
5.535491e+002, 2.364945e+001
5.540313e+002, 2.350769e+001
5.545134e+002, 2.373395e+001
5.549955e+002, 2.397515e+001
5.554776e+002, 2.415179e+001
5.559597e+002, 2.428305e+001
5.564418e+002, 2.441354e+001
5.569240e+002, 2.454721e+001
5.574061e+002, 2.461774e+001
5.578882e+002, 2.453514e+001
5.583703e+002, 2.429414e+001
5.588524e+002, 2.404401e+001
5.593345e+002, 2.359902e+001
5.598167e+002, 2.343310e+001
5.602988e+002, 2.398584e+001
5.607809e+002, 2.474420e+001
5.612630e+002, 2.503811e+001
5.617451e+002, 2.466702e+001
5.622272e+002, 2.417375e+001
5.627094e+002, 2.404032e+001
5.631915e+002, 2.416710e+001
5.636736e+002, 2.421862e+001
5.641557e+002, 2.414664e+001
5.646378e+002, 2.404305e+001
5.651199e+002, 2.392719e+001
5.656021e+002, 2.383870e+001
5.660842e+002, 2.392536e+001
5.665663e+002, 2.445272e+001
5.670484e+002, 2.477751e+001
5.675305e+002, 2.443046e+001
5.680126e+002, 2.387906e+001
5.684948e+002, 2.375046e+001
5.689769e+002, 2.412728e+001
5.694590e+002, 2.464066e+001
5.699411e+002, 2.496163e+001
5.704232e+002, 2.509619e+001
5.709053e+002, 2.513633e+001
5.713875e+002, 2.511303e+001
5.718696e+002, 2.494013e+001
5.723517e+002, 2.435328e+001
5.728338e+002, 2.377353e+001
5.733159e+002, 2.365233e+001
5.737980e+002, 2.402330e+001
5.742802e+002, 2.448190e+001
5.747623e+002, 2.469822e+001
5.752444e+002, 2.471240e+001
5.757265e+002, 2.467107e+001
5.762086e+002, 2.455552e+001
5.766907e+002, 2.446507e+001
5.771729e+002, 2.447175e+001
5.776550e+002, 2.451769e+001
5.781371e+002, 2.450205e+001
5.786192e+002, 2.440550e+001
5.791013e+002, 2.432765e+001
5.795834e+002, 2.430409e+001
5.800656e+002, 2.432000e+001
5.805477e+002, 2.436113e+001
5.810298e+002, 2.442522e+001
5.815119e+002, 2.453100e+001
5.819940e+002, 2.471021e+001
5.824761e+002, 2.490079e+001
5.829583e+002, 2.488549e+001
5.834404e+002, 2.440519e+001
5.839225e+002, 2.411216e+001
5.844046e+002, 2.411655e+001
5.848867e+002, 2.421513e+001
5.853688e+002, 2.428403e+001
5.858510e+002, 2.432455e+001
5.863331e+002, 2.440036e+001
5.868152e+002, 2.456329e+001
5.872973e+002, 2.476333e+001
5.877794e+002, 2.490695e+001
5.882615e+002, 2.500590e+001
5.887437e+002, 2.494672e+001
5.892258e+002, 2.454565e+001
5.897079e+002, 2.415053e+001
5.901900e+002, 2.415485e+001
5.906721e+002, 2.448806e+001
5.911542e+002, 2.469106e+001
5.916364e+002, 2.448797e+001
5.921185e+002, 2.421578e+001
5.926006e+002, 2.417413e+001
5.930827e+002, 2.430231e+001
5.935648e+002, 2.440554e+001
5.940469e+002, 2.441188e+001
5.945291e+002, 2.438998e+001
5.950112e+002, 2.444262e+001
5.954933e+002, 2.460245e+001
5.959754e+002, 2.468773e+001
5.964575e+002, 2.469310e+001
5.969396e+002, 2.464273e+001
5.974218e+002, 2.452190e+001
5.979039e+002, 2.435904e+001
5.983860e+002, 2.416848e+001
5.988681e+002, 2.395886e+001
5.993502e+002, 2.379706e+001
5.998323e+002, 2.381726e+001
6.003145e+002, 2.400779e+001
6.007966e+002, 2.399900e+001
6.012787e+002, 2.362221e+001
6.017608e+002, 2.337215e+001
6.022429e+002, 2.367057e+001
6.027250e+002, 2.423661e+001
6.032072e+002, 2.466442e+001
6.036893e+002, 2.491174e+001
6.041714e+002, 2.500904e+001
6.046535e+002, 2.486482e+001
6.051356e+002, 2.462796e+001
6.056177e+002, 2.454609e+001
6.060999e+002, 2.463184e+001
6.065820e+002, 2.467505e+001
6.070641e+002, 2.449922e+001
6.075462e+002, 2.418724e+001
6.080283e+002, 2.412047e+001
6.085104e+002, 2.462465e+001
6.089926e+002, 2.490991e+001
6.094747e+002, 2.482875e+001
6.099568e+002, 2.462342e+001
6.104389e+002, 2.439035e+001
6.109210e+002, 2.418410e+001
6.114031e+002, 2.409731e+001
6.118853e+002, 2.421592e+001
6.123674e+002, 2.444422e+001
6.128495e+002, 2.459606e+001
6.133316e+002, 2.467127e+001
6.138137e+002, 2.466760e+001
6.142958e+002, 2.452715e+001
6.147780e+002, 2.438319e+001
6.152601e+002, 2.434745e+001
6.157422e+002, 2.441485e+001
6.162243e+002, 2.459330e+001
6.167064e+002, 2.508174e+001
6.171885e+002, 2.548633e+001
6.176707e+002, 2.545378e+001
6.181528e+002, 2.517199e+001
6.186349e+002, 2.503126e+001
6.191170e+002, 2.514615e+001
6.195991e+002, 2.535874e+001
6.200812e+002, 2.549370e+001
6.205634e+002, 2.555093e+001
6.210455e+002, 2.553456e+001
6.215276e+002, 2.526465e+001
6.220097e+002, 2.514731e+001
6.224918e+002, 2.545382e+001
6.229739e+002, 2.584501e+001
6.234561e+002, 2.593903e+001
6.239382e+002, 2.567739e+001
6.244203e+002, 2.535314e+001
6.249023e+002, 2.511467e+001
6.253845e+002, 2.500710e+001
6.258666e+002, 2.527728e+001
6.263487e+002, 2.598070e+001
6.268308e+002, 2.640000e+001
6.273129e+002, 2.602777e+001
6.277950e+002, 2.535626e+001
6.282772e+002, 2.540675e+001
6.287593e+002, 2.634211e+001
6.292414e+002, 2.705603e+001
6.297235e+002, 2.738750e+001
6.302056e+002, 2.744952e+001
6.306877e+002, 2.714450e+001
6.311699e+002, 2.664950e+001
6.316520e+002, 2.633428e+001
6.321341e+002, 2.636959e+001
6.326162e+002, 2.661915e+001
6.330983e+002, 2.689717e+001
6.335804e+002, 2.724543e+001
6.340626e+002, 2.739895e+001
6.345447e+002, 2.716647e+001
6.350268e+002, 2.698379e+001
6.355089e+002, 2.703957e+001
6.359910e+002, 2.726076e+001
6.364731e+002, 2.759452e+001
6.369553e+002, 2.809145e+001
6.374374e+002, 2.840433e+001
6.379195e+002, 2.810614e+001
6.384016e+002, 2.750718e+001
6.388837e+002, 2.722971e+001
6.393658e+002, 2.733537e+001
6.398480e+002, 2.744149e+001
6.403301e+002, 2.729344e+001
6.408122e+002, 2.696899e+001
6.412943e+002, 2.672518e+001
6.417764e+002, 2.652364e+001
6.422585e+002, 2.647429e+001
6.427407e+002, 2.661895e+001
6.432228e+002, 2.687674e+001
6.437049e+002, 2.729731e+001
6.441870e+002, 2.778382e+001
6.446691e+002, 2.813765e+001
6.451512e+002, 2.825213e+001
6.456334e+002, 2.819303e+001
6.461155e+002, 2.802087e+001
6.465976e+002, 2.773713e+001
6.470797e+002, 2.750138e+001
6.475618e+002, 2.731705e+001
6.480439e+002, 2.722779e+001
6.485261e+002, 2.726652e+001
6.490082e+002, 2.743117e+001
6.494903e+002, 2.772335e+001
6.499724e+002, 2.825349e+001
6.504545e+002, 2.874047e+001
6.509366e+002, 2.908603e+001
6.514188e+002, 2.932106e+001
6.519009e+002, 2.946516e+001
6.523830e+002, 2.952987e+001
6.528651e+002, 2.950971e+001
6.533472e+002, 2.936868e+001
6.538293e+002, 2.920828e+001
6.543115e+002, 2.945950e+001
6.547936e+002, 3.037312e+001
6.552757e+002, 3.108708e+001
6.557578e+002, 3.130903e+001
6.562399e+002, 3.144851e+001
6.567220e+002, 3.165302e+001
6.572042e+002, 3.195603e+001
6.576863e+002, 3.242979e+001
6.581684e+002, 3.321600e+001
6.586505e+002, 3.400130e+001
6.591326e+002, 3.435661e+001
6.596147e+002, 3.447718e+001
6.600969e+002, 3.496755e+001
6.605790e+002, 3.596436e+001
6.610611e+002, 3.707491e+001
6.615432e+002, 3.798191e+001
6.620253e+002, 3.869537e+001
6.625074e+002, 3.930600e+001
6.629896e+002, 3.956132e+001
6.634717e+002, 4.005174e+001
6.639538e+002, 4.098381e+001
6.644359e+002, 4.205303e+001
6.649180e+002, 4.293504e+001
6.654001e+002, 4.370538e+001
6.658823e+002, 4.476912e+001
6.663644e+002, 4.650038e+001
6.668465e+002, 4.847111e+001
6.673286e+002, 4.990008e+001
6.678107e+002, 5.080106e+001
6.682928e+002, 5.161759e+001
6.687750e+002, 5.237127e+001
6.692571e+002, 5.323855e+001
6.697392e+002, 5.444439e+001
6.702213e+002, 5.595037e+001
6.707034e+002, 5.728033e+001
6.711855e+002, 5.834518e+001
6.716677e+002, 5.933246e+001
6.721498e+002, 6.022199e+001
6.726319e+002, 6.109849e+001
6.731140e+002, 6.221029e+001
6.735961e+002, 6.346841e+001
6.740782e+002, 6.437992e+001
6.745604e+002, 6.454780e+001
6.750425e+002, 6.413381e+001
6.755246e+002, 6.363896e+001
6.760067e+002, 6.305239e+001
6.764888e+002, 6.244762e+001
6.769709e+002, 6.195610e+001
6.774531e+002, 6.130551e+001
6.779352e+002, 6.031279e+001
6.784173e+002, 5.900397e+001
6.788994e+002, 5.744739e+001
6.793815e+002, 5.540753e+001
6.798636e+002, 5.344644e+001
6.803458e+002, 5.196017e+001
6.808279e+002, 5.074279e+001
6.813100e+002, 4.945893e+001
6.817921e+002, 4.805890e+001
6.822742e+002, 4.666990e+001
6.827563e+002, 4.539429e+001
6.832385e+002, 4.421939e+001
6.837206e+002, 4.307922e+001
6.842027e+002, 4.201358e+001
6.846848e+002, 4.089996e+001
6.851669e+002, 3.953000e+001
6.856490e+002, 3.828619e+001
6.861312e+002, 3.745662e+001
6.866133e+002, 3.694548e+001
6.870954e+002, 3.642917e+001
6.875775e+002, 3.573966e+001
6.880596e+002, 3.509632e+001
6.885417e+002, 3.475913e+001
6.890239e+002, 3.460835e+001
6.895060e+002, 3.436656e+001
6.899881e+002, 3.398262e+001
6.904702e+002, 3.355933e+001
6.909523e+002, 3.317107e+001
6.914344e+002, 3.281212e+001
6.919166e+002, 3.244472e+001
6.923987e+002, 3.204752e+001
6.928808e+002, 3.167648e+001
6.933629e+002, 3.124332e+001
6.938450e+002, 3.091908e+001
6.943271e+002, 3.090550e+001
6.948093e+002, 3.108062e+001
6.952914e+002, 3.110645e+001
6.957735e+002, 3.077493e+001
6.962556e+002, 3.043256e+001
6.967377e+002, 3.064994e+001
6.972198e+002, 3.119212e+001
6.977020e+002, 3.108786e+001
6.981841e+002, 3.014299e+001
6.986662e+002, 2.931045e+001
6.991483e+002, 2.933124e+001
6.996304e+002, 2.993477e+001
7.001125e+002, 3.008816e+001
7.005947e+002, 2.932796e+001
7.010768e+002, 2.882219e+001
7.015589e+002, 2.864458e+001
7.020410e+002, 2.866982e+001
7.025231e+002, 2.901378e+001
7.030052e+002, 2.946950e+001
7.034874e+002, 2.959313e+001
7.039695e+002, 2.916358e+001
7.044516e+002, 2.863219e+001
7.049337e+002, 2.863499e+001
7.054158e+002, 2.904221e+001
7.058979e+002, 2.920153e+001
7.063801e+002, 2.902842e+001
7.068622e+002, 2.875264e+001
7.073442e+002, 2.841505e+001
7.078264e+002, 2.813160e+001
7.083085e+002, 2.825103e+001
7.087906e+002, 2.905201e+001
7.092727e+002, 2.952146e+001
7.097548e+002, 2.939973e+001
7.102369e+002, 2.911865e+001
7.107191e+002, 2.887687e+001
7.112012e+002, 2.867487e+001
7.116833e+002, 2.845571e+001
7.121654e+002, 2.819979e+001
7.126475e+002, 2.798940e+001
7.131296e+002, 2.791471e+001
7.136118e+002, 2.796731e+001
7.140939e+002, 2.811444e+001
7.145760e+002, 2.836622e+001
7.150581e+002, 2.864690e+001
7.155402e+002, 2.895760e+001
7.160223e+002, 2.923988e+001
7.165045e+002, 2.939651e+001
7.169866e+002, 2.942779e+001
7.174687e+002, 2.935619e+001
7.179508e+002, 2.904345e+001
7.184329e+002, 2.877719e+001
7.189150e+002, 2.869458e+001
7.193972e+002, 2.875110e+001
7.198793e+002, 2.892764e+001
7.203614e+002, 2.919137e+001
7.208435e+002, 2.938237e+001
7.213256e+002, 2.928432e+001
7.218077e+002, 2.899966e+001
7.222899e+002, 2.896726e+001
7.227720e+002, 2.922304e+001
7.232541e+002, 2.941875e+001
7.237362e+002, 2.939407e+001
7.242183e+002, 2.934191e+001
7.247004e+002, 2.954886e+001
7.251826e+002, 3.000734e+001
7.256647e+002, 3.022988e+001
7.261468e+002, 2.993858e+001
7.266289e+002, 2.971127e+001
7.271110e+002, 2.979292e+001
7.275931e+002, 3.002641e+001
7.280753e+002, 3.026639e+001
7.285574e+002, 3.047105e+001
7.290395e+002, 3.063083e+001
7.295216e+002, 3.074637e+001
7.300037e+002, 3.079852e+001
7.304858e+002, 3.070497e+001
7.309680e+002, 3.045811e+001
7.314501e+002, 3.029924e+001
7.319322e+002, 3.029775e+001
7.324143e+002, 3.033960e+001
7.328964e+002, 3.034076e+001
7.333785e+002, 3.030691e+001
7.338607e+002, 3.027609e+001
7.343428e+002, 3.030789e+001
7.348249e+002, 3.025127e+001
7.353070e+002, 2.997937e+001
7.357891e+002, 2.968416e+001
7.362712e+002, 2.955353e+001
7.367534e+002, 2.953986e+001
7.372355e+002, 2.945319e+001
7.377176e+002, 2.918962e+001
7.381997e+002, 2.889943e+001
7.386818e+002, 2.887490e+001
7.391639e+002, 2.906934e+001
7.396461e+002, 2.897108e+001
7.401282e+002, 2.846160e+001
7.406103e+002, 2.801967e+001
7.410924e+002, 2.791272e+001
7.415745e+002, 2.804319e+001
7.420566e+002, 2.823383e+001
7.425388e+002, 2.855172e+001
7.430209e+002, 2.869964e+001
7.435030e+002, 2.838815e+001
7.439851e+002, 2.817708e+001
7.444672e+002, 2.856916e+001
7.449493e+002, 2.917722e+001
7.454315e+002, 2.933787e+001
7.459136e+002, 2.889300e+001
7.463957e+002, 2.833418e+001
7.468778e+002, 2.806604e+001
7.473599e+002, 2.806613e+001
7.478420e+002, 2.834497e+001
7.483242e+002, 2.891175e+001
7.488063e+002, 2.941515e+001
7.492884e+002, 2.976962e+001
7.497705e+002, 2.993741e+001
7.502526e+002, 2.984087e+001
7.507347e+002, 2.946336e+001
7.512169e+002, 2.911199e+001
7.516990e+002, 2.864950e+001
7.521811e+002, 2.838846e+001
7.526632e+002, 2.846407e+001
7.531453e+002, 2.872075e+001
7.536274e+002, 2.915278e+001
7.541096e+002, 2.964754e+001
7.545917e+002, 2.988357e+001
7.550738e+002, 2.961033e+001
7.555559e+002, 2.914001e+001
7.560380e+002, 2.884628e+001
7.565201e+002, 2.872642e+001
7.570023e+002, 2.884400e+001
7.574844e+002, 2.922945e+001
7.579665e+002, 2.951665e+001
7.584486e+002, 2.940152e+001
7.589307e+002, 2.903713e+001
7.594128e+002, 2.895336e+001
7.598950e+002, 2.953107e+001
7.603771e+002, 2.968916e+001
7.608592e+002, 2.892220e+001
7.613413e+002, 2.829617e+001
7.618234e+002, 2.843905e+001
7.623055e+002, 2.901184e+001
7.627877e+002, 2.945451e+001
7.632698e+002, 2.961065e+001
7.637519e+002, 2.969705e+001
7.642340e+002, 2.982587e+001
7.647161e+002, 3.001150e+001
7.651982e+002, 3.035099e+001
7.656804e+002, 3.079540e+001
7.661625e+002, 3.107885e+001
7.666446e+002, 3.110041e+001
7.671267e+002, 3.091290e+001
7.676088e+002, 3.053375e+001
7.680909e+002, 2.993946e+001
7.685731e+002, 2.972434e+001
7.690552e+002, 3.021584e+001
7.695373e+002, 3.055027e+001
7.700194e+002, 3.036921e+001
7.705015e+002, 3.010226e+001
7.709836e+002, 3.014701e+001
7.714658e+002, 3.043759e+001
7.719479e+002, 3.054014e+001
7.724300e+002, 3.010616e+001
7.729121e+002, 2.970653e+001
7.733942e+002, 2.987173e+001
7.738763e+002, 3.027065e+001
7.743585e+002, 3.030404e+001
7.748406e+002, 2.996792e+001
7.753227e+002, 2.980180e+001
7.758048e+002, 3.018951e+001
7.762869e+002, 3.083652e+001
7.767690e+002, 3.099219e+001
7.772512e+002, 3.055403e+001
7.777333e+002, 3.032203e+001
7.782154e+002, 3.041449e+001
7.786975e+002, 3.059293e+001
7.791796e+002, 3.079550e+001
7.796617e+002, 3.097530e+001
7.801439e+002, 3.102809e+001
7.806260e+002, 3.090969e+001
7.811081e+002, 3.087315e+001
7.815902e+002, 3.110767e+001
7.820723e+002, 3.131411e+001
7.825544e+002, 3.128674e+001
7.830366e+002, 3.110273e+001
7.835187e+002, 3.085783e+001
7.840008e+002, 3.060173e+001
7.844829e+002, 3.044739e+001
7.849650e+002, 3.056325e+001
7.854471e+002, 3.082033e+001
7.859293e+002, 3.075945e+001
7.864114e+002, 3.037341e+001
7.868935e+002, 3.020209e+001
7.873756e+002, 3.042126e+001
7.878577e+002, 3.076811e+001
7.883398e+002, 3.103961e+001
7.888220e+002, 3.123169e+001
7.893040e+002, 3.129855e+001
7.897861e+002, 3.103939e+001
7.902682e+002, 3.095056e+001
7.907504e+002, 3.132117e+001
7.912325e+002, 3.163919e+001
7.917146e+002, 3.146653e+001
7.921967e+002, 3.100260e+001
7.926788e+002, 3.071220e+001
7.931609e+002, 3.077254e+001
7.936431e+002, 3.093952e+001
7.941252e+002, 3.101998e+001
7.946073e+002, 3.105277e+001
7.950894e+002, 3.107945e+001
7.955715e+002, 3.111736e+001
7.960536e+002, 3.128325e+001
7.965358e+002, 3.163995e+001
7.970179e+002, 3.199295e+001
7.975000e+002, 3.205805e+001
7.979821e+002, 3.182053e+001
7.984642e+002, 3.164813e+001
7.989464e+002, 3.153224e+001
7.994285e+002, 3.149576e+001
7.999106e+002, 3.154962e+001
8.003927e+002, 3.168334e+001
8.008748e+002, 3.194644e+001
8.013569e+002, 3.229991e+001
8.018391e+002, 3.256988e+001
8.023212e+002, 3.282338e+001
8.028033e+002, 3.282198e+001
8.032854e+002, 3.209332e+001
8.037675e+002, 3.126009e+001
8.042496e+002, 3.114688e+001
8.047318e+002, 3.167031e+001
8.052139e+002, 3.222713e+001
8.056960e+002, 3.249446e+001
8.061781e+002, 3.257786e+001
8.066602e+002, 3.262287e+001
8.071423e+002, 3.263050e+001
8.076245e+002, 3.262270e+001
8.081066e+002, 3.261306e+001
8.085887e+002, 3.249614e+001
8.090708e+002, 3.212943e+001
8.095529e+002, 3.176467e+001
8.100350e+002, 3.183757e+001
8.105172e+002, 3.245741e+001
8.109993e+002, 3.279121e+001
8.114814e+002, 3.266225e+001
8.119635e+002, 3.247668e+001
8.124456e+002, 3.223552e+001
8.129277e+002, 3.206478e+001
8.134099e+002, 3.214417e+001
8.138920e+002, 3.242049e+001
8.143741e+002, 3.262445e+001
8.148562e+002, 3.258314e+001
8.153383e+002, 3.250111e+001
8.158204e+002, 3.264952e+001
8.163026e+002, 3.290266e+001
8.167847e+002, 3.295902e+001
8.172668e+002, 3.280068e+001
8.177489e+002, 3.262299e+001
8.182310e+002, 3.253886e+001
8.187131e+002, 3.248778e+001
8.191953e+002, 3.231608e+001
8.196774e+002, 3.196131e+001
8.201595e+002, 3.189966e+001
8.206416e+002, 3.228004e+001
8.211237e+002, 3.267305e+001
8.216058e+002, 3.293638e+001
8.220880e+002, 3.312011e+001
8.225701e+002, 3.331247e+001
8.230522e+002, 3.350783e+001
8.235343e+002, 3.351892e+001
8.240164e+002, 3.305754e+001
8.244985e+002, 3.270564e+001
8.249807e+002, 3.284023e+001
8.254628e+002, 3.313568e+001
8.259449e+002, 3.317236e+001
8.264270e+002, 3.299135e+001
8.269091e+002, 3.298360e+001
8.273912e+002, 3.340844e+001
8.278734e+002, 3.390929e+001
8.283555e+002, 3.389816e+001
8.288376e+002, 3.351848e+001
8.293197e+002, 3.343030e+001
8.298018e+002, 3.369373e+001
8.302839e+002, 3.381538e+001
8.307661e+002, 3.351291e+001
8.312482e+002, 3.305188e+001
8.317303e+002, 3.287305e+001
8.322124e+002, 3.302030e+001
8.326945e+002, 3.313609e+001
8.331766e+002, 3.323390e+001
8.336588e+002, 3.327722e+001
8.341409e+002, 3.322379e+001
8.346230e+002, 3.314333e+001
8.351051e+002, 3.308624e+001
8.355872e+002, 3.305355e+001
8.360693e+002, 3.302563e+001
8.365515e+002, 3.295007e+001
8.370336e+002, 3.295218e+001
8.375157e+002, 3.328263e+001
8.379978e+002, 3.360658e+001
8.384799e+002, 3.339746e+001
8.389620e+002, 3.280307e+001
8.394442e+002, 3.241141e+001
8.399263e+002, 3.249996e+001
8.404084e+002, 3.285365e+001
8.408905e+002, 3.335601e+001
8.413726e+002, 3.390545e+001
8.418547e+002, 3.374997e+001
8.423369e+002, 3.282171e+001
8.428190e+002, 3.215529e+001
8.433011e+002, 3.215392e+001
8.437832e+002, 3.247437e+001
8.442653e+002, 3.275383e+001
8.447474e+002, 3.299317e+001
8.452296e+002, 3.321425e+001
8.457117e+002, 3.362210e+001
8.461938e+002, 3.369880e+001
8.466759e+002, 3.306458e+001
8.471580e+002, 3.241335e+001
8.476401e+002, 3.218362e+001
8.481223e+002, 3.227076e+001
8.486044e+002, 3.240235e+001
8.490865e+002, 3.252884e+001
8.495686e+002, 3.260916e+001
8.500507e+002, 3.256016e+001
8.505328e+002, 3.250352e+001
8.510150e+002, 3.262172e+001
8.514971e+002, 3.282481e+001
8.519792e+002, 3.289000e+001
8.524613e+002, 3.275320e+001
8.529434e+002, 3.251532e+001
8.534255e+002, 3.225831e+001
8.539077e+002, 3.199244e+001
8.543898e+002, 3.171955e+001
8.548719e+002, 3.143904e+001
8.553540e+002, 3.135240e+001
8.558361e+002, 3.153862e+001
8.563182e+002, 3.174377e+001
8.568004e+002, 3.173926e+001
8.572825e+002, 3.163877e+001
8.577646e+002, 3.183918e+001
8.582467e+002, 3.269511e+001
8.587288e+002, 3.307486e+001
8.592109e+002, 3.251005e+001
8.596931e+002, 3.203000e+001
8.601752e+002, 3.214867e+001
8.606573e+002, 3.246151e+001
8.611394e+002, 3.240383e+001
8.616215e+002, 3.193910e+001
8.621036e+002, 3.164651e+001
8.625858e+002, 3.197467e+001
8.630679e+002, 3.231649e+001
8.635500e+002, 3.224012e+001
8.640321e+002, 3.192868e+001
8.645142e+002, 3.158546e+001
8.649963e+002, 3.127014e+001
8.654785e+002, 3.103206e+001
8.659606e+002, 3.089858e+001
8.664427e+002, 3.086032e+001
8.669248e+002, 3.098086e+001
8.674069e+002, 3.120113e+001
8.678890e+002, 3.114792e+001
8.683712e+002, 3.078931e+001
8.688533e+002, 3.054489e+001
8.693354e+002, 3.062295e+001
8.698175e+002, 3.076012e+001
8.702996e+002, 3.057306e+001
8.707817e+002, 3.005649e+001
8.712639e+002, 2.980887e+001
8.717459e+002, 3.000069e+001
8.722280e+002, 3.016134e+001
8.727101e+002, 3.033530e+001
8.731923e+002, 3.034166e+001
8.736744e+002, 2.988951e+001
8.741565e+002, 2.920728e+001
8.746386e+002, 2.888276e+001
8.751207e+002, 2.916688e+001
8.756028e+002, 2.933225e+001
8.760850e+002, 2.896402e+001
8.765671e+002, 2.854256e+001
8.770492e+002, 2.842910e+001
8.775313e+002, 2.851278e+001
8.780134e+002, 2.858767e+001
8.784955e+002, 2.859628e+001
8.789777e+002, 2.856867e+001
8.794598e+002, 2.850741e+001
8.799419e+002, 2.844785e+001
8.804240e+002, 2.851136e+001
8.809061e+002, 2.862981e+001
8.813882e+002, 2.846669e+001
8.818704e+002, 2.799410e+001
8.823525e+002, 2.769840e+001
8.828346e+002, 2.791357e+001
8.833167e+002, 2.838257e+001
8.837988e+002, 2.857701e+001
8.842809e+002, 2.847240e+001
8.847631e+002, 2.826648e+001
8.852452e+002, 2.790753e+001
8.857273e+002, 2.756964e+001
8.862094e+002, 2.727631e+001
8.866915e+002, 2.706691e+001
8.871736e+002, 2.702399e+001
8.876558e+002, 2.713373e+001
8.881379e+002, 2.717478e+001
8.886200e+002, 2.709640e+001
8.891021e+002, 2.701206e+001
8.895842e+002, 2.699464e+001
8.900663e+002, 2.692675e+001
8.905485e+002, 2.658414e+001
8.910306e+002, 2.617014e+001
8.915127e+002, 2.615531e+001
8.919948e+002, 2.668842e+001
8.924769e+002, 2.712567e+001
8.929590e+002, 2.692544e+001
8.934412e+002, 2.653486e+001
8.939233e+002, 2.645933e+001
8.944054e+002, 2.655813e+001
8.948875e+002, 2.646846e+001
8.953696e+002, 2.614780e+001
8.958517e+002, 2.588814e+001
8.963339e+002, 2.592140e+001
8.968160e+002, 2.609908e+001
8.972981e+002, 2.617900e+001
8.977802e+002, 2.614892e+001
8.982623e+002, 2.578950e+001
8.987444e+002, 2.503795e+001
8.992266e+002, 2.452777e+001
8.997087e+002, 2.460553e+001
9.001908e+002, 2.493643e+001
9.006729e+002, 2.502236e+001
9.011550e+002, 2.484892e+001
9.016371e+002, 2.475300e+001
9.021193e+002, 2.476486e+001
9.026014e+002, 2.479866e+001
9.030835e+002, 2.490033e+001
9.035656e+002, 2.495788e+001
9.040477e+002, 2.485573e+001
9.045298e+002, 2.465652e+001
9.050120e+002, 2.453629e+001
9.054941e+002, 2.457717e+001
9.059762e+002, 2.451558e+001
9.064583e+002, 2.420358e+001
9.069404e+002, 2.386136e+001
9.074225e+002, 2.358040e+001
9.079047e+002, 2.337485e+001
9.083868e+002, 2.324172e+001
9.088689e+002, 2.318610e+001
9.093510e+002, 2.324035e+001
9.098331e+002, 2.349290e+001
9.103152e+002, 2.375276e+001
9.107974e+002, 2.379363e+001
9.112795e+002, 2.371643e+001
9.117616e+002, 2.375048e+001
9.122437e+002, 2.386987e+001
9.127258e+002, 2.381241e+001
9.132079e+002, 2.345330e+001
9.136901e+002, 2.302558e+001
9.141722e+002, 2.285372e+001
9.146543e+002, 2.289082e+001
9.151364e+002, 2.281922e+001
9.156185e+002, 2.262891e+001
9.161006e+002, 2.266565e+001
9.165828e+002, 2.306858e+001
9.170649e+002, 2.347882e+001
9.175470e+002, 2.360156e+001
9.180291e+002, 2.349823e+001
9.185112e+002, 2.339074e+001
9.189933e+002, 2.327807e+001
9.194755e+002, 2.315919e+001
9.199576e+002, 2.299286e+001
9.204397e+002, 2.288031e+001
9.209218e+002, 2.288215e+001
9.214039e+002, 2.294502e+001
9.218860e+002, 2.310263e+001
9.223682e+002, 2.333462e+001
9.228503e+002, 2.323917e+001
9.233324e+002, 2.227542e+001
9.238145e+002, 2.163540e+001
9.242966e+002, 2.190750e+001
9.247787e+002, 2.240114e+001
9.252609e+002, 2.260134e+001
9.257430e+002, 2.258282e+001
9.262251e+002, 2.262362e+001
9.267072e+002, 2.280874e+001
9.271893e+002, 2.291595e+001
9.276714e+002, 2.280638e+001
9.281536e+002, 2.254186e+001
9.286357e+002, 2.201893e+001
9.291178e+002, 2.144506e+001
9.295999e+002, 2.123005e+001
9.300820e+002, 2.140679e+001
9.305641e+002, 2.172993e+001
9.310463e+002, 2.206237e+001
9.315284e+002, 2.234783e+001
9.320105e+002, 2.252317e+001
9.324926e+002, 2.257431e+001
9.329747e+002, 2.234538e+001
9.334568e+002, 2.185748e+001
9.339390e+002, 2.161507e+001
9.344211e+002, 2.182453e+001
9.349032e+002, 2.214484e+001
9.353853e+002, 2.219466e+001
9.358674e+002, 2.203652e+001
9.363495e+002, 2.204095e+001
9.368317e+002, 2.223557e+001
9.373138e+002, 2.249421e+001
9.377959e+002, 2.288277e+001
9.382780e+002, 2.315667e+001
9.387601e+002, 2.316688e+001
9.392422e+002, 2.299201e+001
9.397244e+002, 2.274046e+001
9.402065e+002, 2.237449e+001
9.406886e+002, 2.215629e+001
9.411707e+002, 2.229634e+001
9.416528e+002, 2.228989e+001
9.421349e+002, 2.184220e+001
9.426171e+002, 2.139604e+001
9.430992e+002, 2.130361e+001
9.435813e+002, 2.147118e+001
9.440634e+002, 2.166097e+001
9.445455e+002, 2.189921e+001
9.450276e+002, 2.188050e+001
9.455098e+002, 2.111115e+001
9.459919e+002, 2.045836e+001
9.464740e+002, 2.066572e+001
9.469561e+002, 2.125398e+001
9.474382e+002, 2.158597e+001
9.479203e+002, 2.157410e+001
9.484025e+002, 2.143490e+001
9.488846e+002, 2.121058e+001
9.493667e+002, 2.108900e+001
9.498488e+002, 2.135547e+001
9.503309e+002, 2.177871e+001
9.508130e+002, 2.209791e+001
9.512952e+002, 2.223794e+001
9.517773e+002, 2.195854e+001
9.522594e+002, 2.122745e+001
9.527415e+002, 2.061029e+001
9.532236e+002, 2.072711e+001
9.537057e+002, 2.124208e+001
9.541878e+002, 2.128181e+001
9.546699e+002, 2.093744e+001
9.551520e+002, 2.085178e+001
9.556342e+002, 2.111408e+001
9.561163e+002, 2.134455e+001
9.565984e+002, 2.133820e+001
9.570805e+002, 2.119926e+001
9.575626e+002, 2.108573e+001
9.580447e+002, 2.099668e+001
9.585269e+002, 2.091879e+001
9.590090e+002, 2.085369e+001
9.594911e+002, 2.078447e+001
9.599732e+002, 2.068208e+001
9.604553e+002, 2.063785e+001
9.609374e+002, 2.075210e+001
9.614196e+002, 2.095648e+001
9.619017e+002, 2.105628e+001
9.623838e+002, 2.101622e+001
9.628659e+002, 2.097838e+001
9.633480e+002, 2.088731e+001
9.638301e+002, 2.087461e+001
9.643123e+002, 2.117844e+001
9.647944e+002, 2.140779e+001
9.652765e+002, 2.109988e+001
9.657586e+002, 2.039429e+001
9.662407e+002, 1.995531e+001
9.667228e+002, 1.993977e+001
9.672050e+002, 2.003739e+001
9.676871e+002, 2.030939e+001
9.681692e+002, 2.054038e+001
9.686513e+002, 2.054514e+001
9.691334e+002, 2.046896e+001
9.696155e+002, 2.052330e+001
9.700977e+002, 2.071825e+001
9.705798e+002, 2.088830e+001
9.710619e+002, 2.098171e+001
9.715440e+002, 2.099796e+001
9.720261e+002, 2.091000e+001
9.725082e+002, 2.076586e+001
9.729904e+002, 2.057409e+001
9.734725e+002, 2.037995e+001
9.739546e+002, 2.028120e+001
9.744367e+002, 2.029902e+001
9.749188e+002, 2.032730e+001
9.754009e+002, 2.025934e+001
9.758831e+002, 2.018134e+001
9.763652e+002, 2.024780e+001
9.768473e+002, 2.037931e+001
9.773294e+002, 2.038873e+001
9.778115e+002, 2.027762e+001
9.782936e+002, 2.018978e+001
9.787758e+002, 2.019290e+001
9.792579e+002, 2.019367e+001
9.797400e+002, 2.002459e+001
9.802221e+002, 1.977761e+001
9.807042e+002, 1.978995e+001
9.811863e+002, 2.003378e+001
9.816685e+002, 2.032406e+001
9.821506e+002, 2.062266e+001
9.826327e+002, 2.077957e+001
9.831148e+002, 2.067508e+001
9.835969e+002, 2.047238e+001
9.840790e+002, 2.052061e+001
9.845612e+002, 2.082297e+001
9.850433e+002, 2.086505e+001
9.855254e+002, 2.059279e+001
9.860075e+002, 2.037337e+001
9.864896e+002, 2.029552e+001
9.869717e+002, 2.032815e+001
9.874539e+002, 2.050141e+001
9.879360e+002, 2.071401e+001
9.884181e+002, 2.061410e+001
9.889002e+002, 2.004318e+001
9.893823e+002, 1.972570e+001
9.898644e+002, 1.973267e+001
9.903466e+002, 1.986758e+001
9.908287e+002, 2.020208e+001
9.913108e+002, 2.049479e+001
9.917929e+002, 2.048359e+001
9.922750e+002, 2.021833e+001
9.927571e+002, 1.999132e+001
9.932393e+002, 1.977505e+001
9.937214e+002, 1.964747e+001
9.942035e+002, 1.968037e+001
9.946856e+002, 1.971694e+001
9.951677e+002, 1.958755e+001
9.956498e+002, 1.950765e+001
9.961320e+002, 1.986283e+001
9.966141e+002, 2.055752e+001
9.970962e+002, 2.081721e+001
9.975783e+002, 2.010657e+001
9.980604e+002, 1.960158e+001
9.985425e+002, 1.977317e+001
9.990247e+002, 2.005508e+001
9.995068e+002, 2.018015e+001
9.999889e+002, 2.014448e+001
1.000471e+003, 1.989044e+001
1.000953e+003, 1.946084e+001
1.001435e+003, 1.921241e+001
1.001917e+003, 1.944413e+001
1.002399e+003, 1.966000e+001
1.002882e+003, 1.952237e+001
1.003364e+003, 1.930523e+001
1.003846e+003, 1.926117e+001
1.004328e+003, 1.934053e+001
1.004810e+003, 1.938284e+001
1.005292e+003, 1.935931e+001
1.005774e+003, 1.941053e+001
1.006256e+003, 1.964405e+001
1.006739e+003, 1.996512e+001
1.007221e+003, 2.052419e+001
1.007703e+003, 2.096520e+001
1.008185e+003, 2.056624e+001
1.008667e+003, 1.959550e+001
1.009149e+003, 1.893637e+001
1.009631e+003, 1.889382e+001
1.010113e+003, 1.908641e+001
1.010595e+003, 1.924156e+001
1.011078e+003, 1.937069e+001
1.011560e+003, 1.950097e+001
1.012042e+003, 1.961506e+001
1.012524e+003, 1.970023e+001
1.013006e+003, 1.973396e+001
1.013488e+003, 1.960113e+001
1.013970e+003, 1.925620e+001
1.014452e+003, 1.890564e+001
1.014935e+003, 1.878952e+001
1.015417e+003, 1.883190e+001
1.015899e+003, 1.888970e+001
1.016381e+003, 1.893956e+001
1.016863e+003, 1.878042e+001
1.017345e+003, 1.842374e+001
1.017827e+003, 1.835750e+001
1.018309e+003, 1.884767e+001
1.018791e+003, 1.947222e+001
1.019274e+003, 1.960927e+001
1.019756e+003, 1.938953e+001
1.020238e+003, 1.949434e+001
1.020720e+003, 1.990795e+001
1.021202e+003, 2.024057e+001
1.021684e+003, 2.043006e+001
1.022166e+003, 2.041290e+001
1.022648e+003, 2.012864e+001
1.023130e+003, 1.973431e+001
1.023613e+003, 1.947934e+001
1.024095e+003, 1.935575e+001
1.024577e+003, 1.921744e+001
1.025059e+003, 1.904675e+001
1.025541e+003, 1.904287e+001
1.026023e+003, 1.928770e+001
1.026505e+003, 1.950851e+001
1.026987e+003, 1.955201e+001
1.027469e+003, 1.942221e+001
1.027952e+003, 1.906273e+001
1.028434e+003, 1.844282e+001
1.028916e+003, 1.838257e+001
1.029398e+003, 1.912307e+001
1.029880e+003, 1.954855e+001
1.030362e+003, 1.933220e+001
1.030844e+003, 1.905920e+001
1.031326e+003, 1.917567e+001
1.031809e+003, 1.940465e+001
1.032291e+003, 1.910533e+001
1.032773e+003, 1.814057e+001
1.033255e+003, 1.785783e+001
1.033737e+003, 1.871414e+001
1.034219e+003, 1.922478e+001
1.034701e+003, 1.880246e+001
1.035183e+003, 1.845920e+001
1.035666e+003, 1.905139e+001
1.036148e+003, 2.005959e+001
1.036630e+003, 2.033300e+001
1.037112e+003, 1.967604e+001
1.037594e+003, 1.938625e+001
1.038076e+003, 1.973553e+001
1.038558e+003, 2.001939e+001
1.039040e+003, 2.011933e+001
1.039522e+003, 2.011748e+001
1.040005e+003, 2.009207e+001
1.040487e+003, 1.999239e+001
1.040969e+003, 1.964893e+001
1.041451e+003, 1.895051e+001
1.041933e+003, 1.859106e+001
1.042415e+003, 1.884075e+001
1.042897e+003, 1.906687e+001
1.043379e+003, 1.909552e+001
1.043861e+003, 1.912379e+001
1.044344e+003, 1.931630e+001
1.044826e+003, 1.958663e+001
1.045308e+003, 1.977898e+001
1.045790e+003, 1.989078e+001
1.046272e+003, 1.986880e+001
1.046754e+003, 1.952112e+001
1.047236e+003, 1.929719e+001
1.047718e+003, 1.947519e+001
1.048201e+003, 1.964799e+001
1.048683e+003, 1.948060e+001
1.049165e+003, 1.912713e+001
1.049647e+003, 1.888247e+001
1.050129e+003, 1.878373e+001
1.050611e+003, 1.875218e+001
1.051093e+003, 1.888046e+001
1.051575e+003, 1.892729e+001
1.052057e+003, 1.876254e+001
1.052540e+003, 1.854749e+001
1.053022e+003, 1.833838e+001
1.053504e+003, 1.818754e+001
1.053986e+003, 1.820309e+001
1.054468e+003, 1.840473e+001
1.054950e+003, 1.855439e+001
1.055432e+003, 1.858071e+001
1.055914e+003, 1.855704e+001
1.056396e+003, 1.843597e+001
1.056879e+003, 1.834431e+001
1.057361e+003, 1.846204e+001
1.057843e+003, 1.864057e+001
1.058325e+003, 1.853405e+001
1.058807e+003, 1.810471e+001
1.059289e+003, 1.795510e+001
1.059771e+003, 1.860234e+001
1.060253e+003, 1.912888e+001
1.060736e+003, 1.906176e+001
1.061218e+003, 1.886785e+001
1.061700e+003, 1.892649e+001
1.062182e+003, 1.909952e+001
1.062664e+003, 1.911514e+001
1.063146e+003, 1.893672e+001
1.063628e+003, 1.872524e+001
1.064110e+003, 1.845516e+001
1.064593e+003, 1.828055e+001
1.065075e+003, 1.839502e+001
1.065557e+003, 1.849985e+001
1.066039e+003, 1.825619e+001
1.066521e+003, 1.790363e+001
1.067003e+003, 1.784078e+001
1.067485e+003, 1.810615e+001
1.067967e+003, 1.844759e+001
1.068449e+003, 1.902089e+001
1.068932e+003, 1.921630e+001
1.069414e+003, 1.820526e+001
1.069896e+003, 1.727741e+001
1.070378e+003, 1.765200e+001
1.070860e+003, 1.858926e+001
1.071342e+003, 1.900794e+001
1.071824e+003, 1.879478e+001
1.072306e+003, 1.840978e+001
1.072788e+003, 1.782383e+001
1.073271e+003, 1.754519e+001
1.073753e+003, 1.814319e+001
1.074235e+003, 1.878691e+001
1.074717e+003, 1.882061e+001
1.075199e+003, 1.856488e+001
1.075681e+003, 1.842604e+001
1.076163e+003, 1.846432e+001
1.076645e+003, 1.864809e+001
1.077127e+003, 1.908252e+001
1.077610e+003, 1.928611e+001
1.078092e+003, 1.881106e+001
1.078574e+003, 1.827558e+001
1.079056e+003, 1.804126e+001
1.079538e+003, 1.802329e+001
1.080020e+003, 1.820959e+001
1.080502e+003, 1.848664e+001
1.080984e+003, 1.852488e+001
1.081467e+003, 1.815880e+001
1.081949e+003, 1.787768e+001
1.082431e+003, 1.798719e+001
1.082913e+003, 1.814709e+001
1.083395e+003, 1.809952e+001
1.083877e+003, 1.803299e+001
1.084359e+003, 1.823554e+001
1.084841e+003, 1.859093e+001
1.085323e+003, 1.874214e+001
1.085806e+003, 1.858389e+001
1.086288e+003, 1.834085e+001
1.086770e+003, 1.790646e+001
1.087252e+003, 1.766138e+001
1.087734e+003, 1.806327e+001
1.088216e+003, 1.851806e+001
1.088698e+003, 1.838232e+001
1.089180e+003, 1.788144e+001
1.089662e+003, 1.759211e+001
1.090145e+003, 1.763235e+001
1.090627e+003, 1.763671e+001
1.091109e+003, 1.743780e+001
1.091591e+003, 1.721488e+001
1.092073e+003, 1.693287e+001
1.092555e+003, 1.676430e+001
1.093037e+003, 1.700921e+001
1.093519e+003, 1.738921e+001
1.094002e+003, 1.738430e+001
1.094484e+003, 1.695282e+001
1.094966e+003, 1.662244e+001
1.095448e+003, 1.645259e+001
1.095930e+003, 1.656718e+001
1.096412e+003, 1.737052e+001
1.096894e+003, 1.807939e+001
1.097376e+003, 1.810949e+001
1.097859e+003, 1.779863e+001
1.098341e+003, 1.753754e+001
1.098823e+003, 1.739907e+001
1.099305e+003, 1.747878e+001
1.099787e+003, 1.796202e+001
1.100269e+003, 1.832132e+001
1.100751e+003, 1.848811e+001
1.101233e+003, 1.841944e+001
1.101715e+003, 1.783267e+001
1.102198e+003, 1.719943e+001
1.102680e+003, 1.713738e+001
1.103162e+003, 1.747797e+001
1.103644e+003, 1.745265e+001
1.104126e+003, 1.679488e+001
1.104608e+003, 1.627006e+001
1.105090e+003, 1.595065e+001
1.105572e+003, 1.586722e+001
1.106054e+003, 1.616606e+001
1.106537e+003, 1.657876e+001
1.107019e+003, 1.698021e+001
1.107501e+003, 1.730892e+001
1.107983e+003, 1.742250e+001
1.108465e+003, 1.727071e+001
1.108947e+003, 1.714021e+001
1.109429e+003, 1.701178e+001
1.109911e+003, 1.696932e+001
1.110394e+003, 1.718410e+001
1.110876e+003, 1.732679e+001
1.111358e+003, 1.701855e+001
1.111840e+003, 1.659590e+001
1.112322e+003, 1.671350e+001
1.112804e+003, 1.742073e+001
1.113286e+003, 1.773692e+001
1.113768e+003, 1.743491e+001
1.114250e+003, 1.711222e+001
1.114733e+003, 1.668223e+001
1.115215e+003, 1.641318e+001
1.115697e+003, 1.653602e+001
1.116179e+003, 1.676888e+001
1.116661e+003, 1.678613e+001
1.117143e+003, 1.661599e+001
1.117625e+003, 1.645757e+001
1.118107e+003, 1.624020e+001
1.118589e+003, 1.621343e+001
1.119072e+003, 1.647015e+001
1.119554e+003, 1.674590e+001
1.120036e+003, 1.701884e+001
1.120518e+003, 1.717720e+001
1.121000e+003, 1.706606e+001
1.121482e+003, 1.681079e+001
1.121964e+003, 1.680608e+001
1.122446e+003, 1.712613e+001
1.122929e+003, 1.722627e+001
1.123411e+003, 1.702637e+001
1.123893e+003, 1.689248e+001
1.124375e+003, 1.694135e+001
1.124857e+003, 1.692718e+001
1.125339e+003, 1.663468e+001
1.125821e+003, 1.632414e+001
1.126303e+003, 1.650763e+001
1.126786e+003, 1.713715e+001
1.127268e+003, 1.726228e+001
1.127750e+003, 1.680328e+001
1.128232e+003, 1.656574e+001
1.128714e+003, 1.667369e+001
1.129196e+003, 1.688455e+001
1.129678e+003, 1.711435e+001
1.130160e+003, 1.724312e+001
1.130642e+003, 1.710720e+001
1.131125e+003, 1.680005e+001
1.131607e+003, 1.662039e+001
1.132089e+003, 1.657106e+001
1.132571e+003, 1.680886e+001
1.133053e+003, 1.732594e+001
1.133535e+003, 1.741558e+001
1.134017e+003, 1.686360e+001
1.134499e+003, 1.642673e+001
1.134981e+003, 1.671884e+001
1.135464e+003, 1.733339e+001
1.135946e+003, 1.760164e+001
1.136428e+003, 1.755324e+001
1.136910e+003, 1.712769e+001
1.137392e+003, 1.646926e+001
1.137874e+003, 1.636506e+001
1.138356e+003, 1.686725e+001
1.138838e+003, 1.720330e+001
1.139321e+003, 1.697711e+001
1.139803e+003, 1.663284e+001
1.140285e+003, 1.672077e+001
1.140767e+003, 1.697146e+001
1.141249e+003, 1.688749e+001
1.141731e+003, 1.658212e+001
1.142213e+003, 1.620522e+001
1.142695e+003, 1.585373e+001
1.143177e+003, 1.575298e+001
1.143660e+003, 1.595717e+001
1.144142e+003, 1.629875e+001
1.144624e+003, 1.674621e+001
1.145106e+003, 1.707500e+001
1.145588e+003, 1.693437e+001
1.146070e+003, 1.663416e+001
1.146552e+003, 1.661187e+001
1.147034e+003, 1.670898e+001
1.147516e+003, 1.652585e+001
1.147999e+003, 1.609166e+001
1.148481e+003, 1.583807e+001
1.148963e+003, 1.596954e+001
1.149445e+003, 1.615327e+001
1.149927e+003, 1.619574e+001
1.150409e+003, 1.619689e+001
1.150891e+003, 1.617323e+001
1.151373e+003, 1.619140e+001
1.151856e+003, 1.648780e+001
1.152338e+003, 1.683509e+001
1.152820e+003, 1.658873e+001
1.153302e+003, 1.562014e+001
1.153784e+003, 1.504994e+001
1.154266e+003, 1.549769e+001
1.154748e+003, 1.605338e+001
1.155230e+003, 1.654523e+001
1.155713e+003, 1.691283e+001
1.156195e+003, 1.707348e+001
1.156677e+003, 1.712098e+001
1.157159e+003, 1.726275e+001
1.157641e+003, 1.744272e+001
1.158123e+003, 1.718889e+001
1.158605e+003, 1.594589e+001
1.159087e+003, 1.536511e+001
1.159569e+003, 1.614443e+001
1.160052e+003, 1.677631e+001
1.160534e+003, 1.675975e+001
1.161016e+003, 1.658076e+001
1.161498e+003, 1.658611e+001
1.161980e+003, 1.668489e+001
1.162462e+003, 1.666833e+001
1.162944e+003, 1.651780e+001
1.163426e+003, 1.644972e+001
1.163908e+003, 1.646695e+001
1.164391e+003, 1.658512e+001
1.164873e+003, 1.688964e+001
1.165355e+003, 1.702141e+001
1.165837e+003, 1.673257e+001
1.166319e+003, 1.641522e+001
1.166801e+003, 1.658391e+001
1.167283e+003, 1.705921e+001
1.167765e+003, 1.702634e+001
1.168247e+003, 1.645823e+001
1.168730e+003, 1.625927e+001
1.169212e+003, 1.647800e+001
1.169694e+003, 1.669694e+001
1.170176e+003, 1.680340e+001
1.170658e+003, 1.684179e+001
1.171140e+003, 1.683886e+001
1.171622e+003, 1.680945e+001
1.172104e+003, 1.675376e+001
1.172587e+003, 1.669976e+001
1.173069e+003, 1.678775e+001
1.173551e+003, 1.695939e+001
1.174033e+003, 1.694852e+001
1.174515e+003, 1.677370e+001
1.174997e+003, 1.671382e+001
1.175479e+003, 1.686802e+001
1.175961e+003, 1.708082e+001
1.176443e+003, 1.725595e+001
1.176926e+003, 1.735424e+001
1.177408e+003, 1.726159e+001
1.177890e+003, 1.710920e+001
1.178372e+003, 1.707623e+001
1.178854e+003, 1.714030e+001
1.179336e+003, 1.731880e+001
1.179818e+003, 1.753023e+001
1.180300e+003, 1.743099e+001
1.180782e+003, 1.682043e+001
1.181265e+003, 1.638005e+001
1.181747e+003, 1.671112e+001
1.182229e+003, 1.712439e+001
1.182711e+003, 1.714785e+001
1.183193e+003, 1.705877e+001
1.183675e+003, 1.711334e+001
1.184157e+003, 1.727289e+001
1.184639e+003, 1.748648e+001
1.185122e+003, 1.772618e+001
1.185604e+003, 1.770910e+001
1.186086e+003, 1.711135e+001
1.186568e+003, 1.667442e+001
1.187050e+003, 1.655540e+001
1.187532e+003, 1.657778e+001
1.188014e+003, 1.682034e+001
1.188496e+003, 1.703671e+001
1.188979e+003, 1.691608e+001
1.189461e+003, 1.661637e+001
1.189943e+003, 1.661617e+001
1.190425e+003, 1.698702e+001
1.190907e+003, 1.724762e+001
1.191389e+003, 1.743764e+001
1.191871e+003, 1.736171e+001
1.192353e+003, 1.685268e+001
1.192835e+003, 1.648832e+001
1.193318e+003, 1.658978e+001
1.193800e+003, 1.688210e+001
1.194282e+003, 1.704491e+001
1.194764e+003, 1.710007e+001
1.195246e+003, 1.712753e+001
1.195728e+003, 1.712750e+001
1.196210e+003, 1.706143e+001
1.196692e+003, 1.693922e+001
1.197174e+003, 1.704710e+001
1.197657e+003, 1.743692e+001
1.198139e+003, 1.767340e+001
1.198621e+003, 1.747283e+001
1.199103e+003, 1.718845e+001
1.199585e+003, 1.734055e+001
1.200067e+003, 1.769833e+001
1.200549e+003, 1.786390e+001
1.201031e+003, 1.784584e+001
1.201514e+003, 1.754557e+001
1.201996e+003, 1.709804e+001
1.202478e+003, 1.692834e+001
1.202960e+003, 1.710870e+001
1.203442e+003, 1.724263e+001
1.203924e+003, 1.706704e+001
1.204406e+003, 1.687723e+001
1.204888e+003, 1.696080e+001
1.205370e+003, 1.705454e+001
1.205853e+003, 1.694512e+001
1.206335e+003, 1.671418e+001
1.206817e+003, 1.629988e+001
1.207299e+003, 1.589799e+001
1.207781e+003, 1.602787e+001
1.208263e+003, 1.682683e+001
1.208745e+003, 1.749881e+001
1.209227e+003, 1.792021e+001
1.209709e+003, 1.809347e+001
1.210192e+003, 1.790200e+001
1.210674e+003, 1.760343e+001
1.211156e+003, 1.716942e+001
1.211638e+003, 1.682602e+001
1.212120e+003, 1.686420e+001
1.212602e+003, 1.716948e+001
1.213084e+003, 1.730416e+001
1.213566e+003, 1.723489e+001
1.214049e+003, 1.716140e+001
1.214531e+003, 1.709021e+001
1.215013e+003, 1.694930e+001
1.215495e+003, 1.666438e+001
1.215977e+003, 1.666778e+001
1.216459e+003, 1.726032e+001
1.216941e+003, 1.784448e+001
1.217423e+003, 1.761493e+001
1.217906e+003, 1.691887e+001
1.218388e+003, 1.691312e+001
1.218870e+003, 1.742745e+001
1.219352e+003, 1.755305e+001
1.219834e+003, 1.733556e+001
1.220316e+003, 1.734400e+001
1.220798e+003, 1.765355e+001
1.221280e+003, 1.780273e+001
1.221762e+003, 1.753752e+001
1.222245e+003, 1.717260e+001
1.222727e+003, 1.696493e+001
1.223209e+003, 1.688479e+001
1.223691e+003, 1.693834e+001
1.224173e+003, 1.706783e+001
1.224655e+003, 1.728927e+001
1.225137e+003, 1.748633e+001
1.225619e+003, 1.735272e+001
1.226101e+003, 1.693563e+001
1.226584e+003, 1.682008e+001
1.227066e+003, 1.738659e+001
1.227548e+003, 1.773743e+001
1.228030e+003, 1.729569e+001
1.228512e+003, 1.693214e+001
1.228994e+003, 1.711485e+001
1.229476e+003, 1.741548e+001
1.229958e+003, 1.756707e+001
1.230441e+003, 1.756289e+001
1.230923e+003, 1.735129e+001
1.231405e+003, 1.694478e+001
1.231887e+003, 1.681685e+001
1.232369e+003, 1.708684e+001
1.232851e+003, 1.727030e+001
1.233333e+003, 1.733340e+001
1.233815e+003, 1.736416e+001
1.234297e+003, 1.739761e+001
1.234780e+003, 1.731625e+001
1.235262e+003, 1.697021e+001
1.235744e+003, 1.673934e+001
1.236226e+003, 1.743854e+001
1.236708e+003, 1.872798e+001
1.237190e+003, 1.916477e+001
1.237672e+003, 1.889343e+001
1.238154e+003, 1.849481e+001
1.238636e+003, 1.805040e+001
1.239119e+003, 1.747214e+001
1.239601e+003, 1.680323e+001
1.240083e+003, 1.654083e+001
1.240565e+003, 1.708203e+001
1.241047e+003, 1.769961e+001
1.241529e+003, 1.763905e+001
1.242011e+003, 1.737583e+001
1.242493e+003, 1.737779e+001
1.242975e+003, 1.745535e+001
1.243458e+003, 1.729422e+001
1.243940e+003, 1.702688e+001
1.244422e+003, 1.701745e+001
1.244904e+003, 1.730147e+001
1.245386e+003, 1.750133e+001
1.245868e+003, 1.757910e+001
1.246350e+003, 1.745551e+001
1.246832e+003, 1.670971e+001
1.247315e+003, 1.632095e+001
1.247797e+003, 1.698043e+001
1.248279e+003, 1.766022e+001
1.248761e+003, 1.758479e+001
1.249243e+003, 1.711365e+001
1.249725e+003, 1.685901e+001
1.250207e+003, 1.682182e+001
1.250689e+003, 1.707455e+001
1.251172e+003, 1.767068e+001
1.251654e+003, 1.794509e+001
1.252136e+003, 1.783913e+001
1.252618e+003, 1.763247e+001
1.253100e+003, 1.741025e+001
1.253582e+003, 1.730439e+001
1.254064e+003, 1.741521e+001
1.254546e+003, 1.758857e+001
1.255028e+003, 1.759652e+001
1.255510e+003, 1.752984e+001
1.255993e+003, 1.760267e+001
1.256475e+003, 1.770324e+001
1.256957e+003, 1.757751e+001
1.257439e+003, 1.730640e+001
1.257921e+003, 1.714489e+001
1.258403e+003, 1.712584e+001
1.258885e+003, 1.703855e+001
1.259367e+003, 1.671168e+001
1.259850e+003, 1.662729e+001
1.260332e+003, 1.729397e+001
1.260814e+003, 1.788026e+001
1.261296e+003, 1.795521e+001
1.261778e+003, 1.783847e+001
1.262260e+003, 1.768092e+001
1.262742e+003, 1.755628e+001
1.263224e+003, 1.757612e+001
1.263707e+003, 1.772345e+001
1.264189e+003, 1.786562e+001
1.264671e+003, 1.803550e+001
1.265153e+003, 1.805776e+001
1.265635e+003, 1.785835e+001
1.266117e+003, 1.788731e+001
1.266599e+003, 1.829600e+001
1.267081e+003, 1.857741e+001
1.267563e+003, 1.844171e+001
1.268046e+003, 1.810172e+001
1.268528e+003, 1.775179e+001
1.269010e+003, 1.749078e+001
1.269492e+003, 1.762256e+001
1.269974e+003, 1.798977e+001
1.270456e+003, 1.826121e+001
1.270938e+003, 1.839755e+001
1.271420e+003, 1.828995e+001
1.271902e+003, 1.801027e+001
1.272385e+003, 1.789940e+001
1.272867e+003, 1.808835e+001
1.273349e+003, 1.817276e+001
1.273831e+003, 1.774037e+001
1.274313e+003, 1.738113e+001
1.274795e+003, 1.736829e+001
1.275277e+003, 1.755021e+001
1.275759e+003, 1.800905e+001
1.276242e+003, 1.846261e+001
1.276724e+003, 1.855367e+001
1.277206e+003, 1.838489e+001
1.277688e+003, 1.835389e+001
1.278170e+003, 1.850296e+001
1.278652e+003, 1.835798e+001
1.279134e+003, 1.772560e+001
1.279616e+003, 1.756325e+001
1.280099e+003, 1.808270e+001
1.280581e+003, 1.847304e+001
1.281063e+003, 1.843523e+001
1.281545e+003, 1.823120e+001
1.282027e+003, 1.804666e+001
1.282509e+003, 1.793909e+001
1.282991e+003, 1.808996e+001
1.283473e+003, 1.834552e+001
1.283955e+003, 1.838000e+001
##END=



