##NAMES=Bohmite
##RRUFFID=R120123
##IDEAL CHEMISTRY=AlO(OH)
##LOCALITY=Sagasen, Telemark, Norway
##OWNER=RRUFF
##SOURCE=Marcus Origlieri
##DESCRIPTION=Pale green hexagonal tablets, associated with natrolite R120124
##STATUS=The identification of this mineral has been confirmed by single-crystal X-ray diffraction.
##URL=rruff.info/R120123
8.936163e+001, 0.000000e+000
8.984375e+001, 2.886374e+001
9.032587e+001, 2.911495e+001
9.080798e+001, 2.915586e+001
9.129010e+001, 2.887822e+001
9.177222e+001, 2.851679e+001
9.225433e+001, 2.839573e+001
9.273645e+001, 2.849363e+001
9.321857e+001, 2.858614e+001
9.370068e+001, 2.854425e+001
9.418280e+001, 2.835824e+001
9.466492e+001, 2.797895e+001
9.514703e+001, 2.724005e+001
9.562915e+001, 2.632417e+001
9.611127e+001, 2.577079e+001
9.659338e+001, 2.562863e+001
9.707550e+001, 2.562423e+001
9.755762e+001, 2.543375e+001
9.803973e+001, 2.505285e+001
9.852185e+001, 2.465112e+001
9.900397e+001, 2.424907e+001
9.948608e+001, 2.384225e+001
9.996820e+001, 2.363586e+001
1.004503e+002, 2.370607e+001
1.009324e+002, 2.388700e+001
1.014146e+002, 2.380916e+001
1.018967e+002, 2.339256e+001
1.023788e+002, 2.294372e+001
1.028609e+002, 2.262818e+001
1.033430e+002, 2.250072e+001
1.038251e+002, 2.233606e+001
1.043073e+002, 2.209970e+001
1.047894e+002, 2.181220e+001
1.052715e+002, 2.159041e+001
1.057536e+002, 2.149700e+001
1.062357e+002, 2.139823e+001
1.067178e+002, 2.119047e+001
1.072000e+002, 2.075276e+001
1.076821e+002, 2.038459e+001
1.081642e+002, 2.014132e+001
1.086463e+002, 2.003185e+001
1.091284e+002, 1.992444e+001
1.096105e+002, 1.981598e+001
1.100927e+002, 1.971076e+001
1.105748e+002, 1.961389e+001
1.110569e+002, 1.957192e+001
1.115390e+002, 1.949461e+001
1.120211e+002, 1.934859e+001
1.125032e+002, 1.910748e+001
1.129854e+002, 1.889200e+001
1.134675e+002, 1.878719e+001
1.139496e+002, 1.870584e+001
1.144317e+002, 1.851947e+001
1.149138e+002, 1.800921e+001
1.153959e+002, 1.752886e+001
1.158781e+002, 1.726141e+001
1.163602e+002, 1.733727e+001
1.168423e+002, 1.740348e+001
1.173244e+002, 1.731315e+001
1.178065e+002, 1.711627e+001
1.182886e+002, 1.694002e+001
1.187708e+002, 1.690332e+001
1.192529e+002, 1.687542e+001
1.197350e+002, 1.674726e+001
1.202171e+002, 1.641234e+001
1.206992e+002, 1.606409e+001
1.211813e+002, 1.581015e+001
1.216635e+002, 1.564510e+001
1.221456e+002, 1.554816e+001
1.226277e+002, 1.560523e+001
1.231098e+002, 1.570019e+001
1.235919e+002, 1.567687e+001
1.240740e+002, 1.534667e+001
1.245562e+002, 1.495337e+001
1.250383e+002, 1.481094e+001
1.255204e+002, 1.491684e+001
1.260025e+002, 1.499286e+001
1.264846e+002, 1.476351e+001
1.269667e+002, 1.431258e+001
1.274489e+002, 1.384956e+001
1.279310e+002, 1.336829e+001
1.284131e+002, 1.295153e+001
1.288952e+002, 1.280634e+001
1.293773e+002, 1.297293e+001
1.298594e+002, 1.324280e+001
1.303416e+002, 1.337545e+001
1.308237e+002, 1.338262e+001
1.313058e+002, 1.335881e+001
1.317879e+002, 1.335404e+001
1.322700e+002, 1.336072e+001
1.327521e+002, 1.333632e+001
1.332343e+002, 1.326802e+001
1.337164e+002, 1.318419e+001
1.341985e+002, 1.314140e+001
1.346806e+002, 1.314294e+001
1.351627e+002, 1.314184e+001
1.356448e+002, 1.312031e+001
1.361270e+002, 1.307897e+001
1.366091e+002, 1.299354e+001
1.370912e+002, 1.288302e+001
1.375733e+002, 1.271636e+001
1.380554e+002, 1.230770e+001
1.385375e+002, 1.155088e+001
1.390197e+002, 1.085892e+001
1.395018e+002, 1.059064e+001
1.399839e+002, 1.084995e+001
1.404660e+002, 1.108942e+001
1.409481e+002, 1.121457e+001
1.414302e+002, 1.123403e+001
1.419124e+002, 1.128164e+001
1.423945e+002, 1.139736e+001
1.428766e+002, 1.148642e+001
1.433587e+002, 1.144194e+001
1.438408e+002, 1.119670e+001
1.443229e+002, 1.095487e+001
1.448051e+002, 1.075510e+001
1.452872e+002, 1.059575e+001
1.457693e+002, 1.047941e+001
1.462514e+002, 1.043839e+001
1.467335e+002, 1.041865e+001
1.472156e+002, 1.034502e+001
1.476978e+002, 1.013959e+001
1.481799e+002, 9.978069e+000
1.486620e+002, 9.921632e+000
1.491441e+002, 1.004036e+001
1.496262e+002, 1.007379e+001
1.501083e+002, 9.948312e+000
1.505905e+002, 9.749175e+000
1.510726e+002, 9.625330e+000
1.515547e+002, 9.735793e+000
1.520368e+002, 9.785823e+000
1.525189e+002, 9.662400e+000
1.530010e+002, 9.161718e+000
1.534832e+002, 8.841763e+000
1.539653e+002, 8.872715e+000
1.544474e+002, 9.116169e+000
1.549295e+002, 9.239866e+000
1.554116e+002, 9.116250e+000
1.558937e+002, 8.926688e+000
1.563759e+002, 8.745144e+000
1.568580e+002, 8.494822e+000
1.573401e+002, 8.370539e+000
1.578222e+002, 8.503504e+000
1.583043e+002, 8.819075e+000
1.587864e+002, 9.042040e+000
1.592686e+002, 9.088263e+000
1.597507e+002, 9.024150e+000
1.602328e+002, 8.890691e+000
1.607149e+002, 8.592536e+000
1.611970e+002, 8.332021e+000
1.616791e+002, 8.175148e+000
1.621613e+002, 8.116158e+000
1.626434e+002, 8.102641e+000
1.631255e+002, 8.132158e+000
1.636076e+002, 8.191118e+000
1.640897e+002, 8.267414e+000
1.645718e+002, 8.420634e+000
1.650540e+002, 8.537853e+000
1.655361e+002, 8.519311e+000
1.660182e+002, 8.372162e+000
1.665003e+002, 8.278014e+000
1.669824e+002, 8.366931e+000
1.674645e+002, 8.556128e+000
1.679467e+002, 8.741635e+000
1.684288e+002, 8.858423e+000
1.689109e+002, 8.976385e+000
1.693930e+002, 9.160010e+000
1.698751e+002, 9.415248e+000
1.703572e+002, 9.658749e+000
1.708394e+002, 9.845223e+000
1.713215e+002, 9.983008e+000
1.718036e+002, 1.008394e+001
1.722857e+002, 1.008959e+001
1.727678e+002, 1.009513e+001
1.732499e+002, 1.019862e+001
1.737321e+002, 1.041316e+001
1.742142e+002, 1.068250e+001
1.746963e+002, 1.104398e+001
1.751784e+002, 1.143593e+001
1.756605e+002, 1.171325e+001
1.761426e+002, 1.167670e+001
1.766248e+002, 1.152159e+001
1.771069e+002, 1.152615e+001
1.775890e+002, 1.173674e+001
1.780711e+002, 1.201580e+001
1.785532e+002, 1.225458e+001
1.790353e+002, 1.244992e+001
1.795175e+002, 1.258156e+001
1.799996e+002, 1.255839e+001
1.804817e+002, 1.247578e+001
1.809638e+002, 1.254576e+001
1.814459e+002, 1.283436e+001
1.819280e+002, 1.316897e+001
1.824102e+002, 1.331708e+001
1.828923e+002, 1.329729e+001
1.833744e+002, 1.324507e+001
1.838565e+002, 1.322094e+001
1.843386e+002, 1.322804e+001
1.848207e+002, 1.327336e+001
1.853029e+002, 1.335457e+001
1.857850e+002, 1.348097e+001
1.862671e+002, 1.371663e+001
1.867492e+002, 1.405313e+001
1.872313e+002, 1.433742e+001
1.877134e+002, 1.439607e+001
1.881956e+002, 1.428784e+001
1.886777e+002, 1.429456e+001
1.891598e+002, 1.447875e+001
1.896419e+002, 1.478096e+001
1.901240e+002, 1.507401e+001
1.906061e+002, 1.535991e+001
1.910883e+002, 1.567940e+001
1.915704e+002, 1.612743e+001
1.920525e+002, 1.668293e+001
1.925346e+002, 1.708392e+001
1.930167e+002, 1.724322e+001
1.934988e+002, 1.723630e+001
1.939810e+002, 1.725978e+001
1.944631e+002, 1.731158e+001
1.949452e+002, 1.735502e+001
1.954273e+002, 1.727984e+001
1.959094e+002, 1.708979e+001
1.963915e+002, 1.689411e+001
1.968737e+002, 1.669559e+001
1.973558e+002, 1.651308e+001
1.978379e+002, 1.643832e+001
1.983200e+002, 1.649434e+001
1.988021e+002, 1.655235e+001
1.992842e+002, 1.648586e+001
1.997664e+002, 1.628960e+001
2.002485e+002, 1.610397e+001
2.007306e+002, 1.595330e+001
2.012127e+002, 1.583531e+001
2.016948e+002, 1.572422e+001
2.021769e+002, 1.560635e+001
2.026591e+002, 1.553430e+001
2.031412e+002, 1.561907e+001
2.036233e+002, 1.590640e+001
2.041054e+002, 1.600154e+001
2.045875e+002, 1.572904e+001
2.050696e+002, 1.515370e+001
2.055518e+002, 1.490491e+001
2.060339e+002, 1.506836e+001
2.065160e+002, 1.535416e+001
2.069981e+002, 1.542647e+001
2.074802e+002, 1.520996e+001
2.079623e+002, 1.513977e+001
2.084445e+002, 1.539177e+001
2.089266e+002, 1.594416e+001
2.094087e+002, 1.621735e+001
2.098908e+002, 1.615517e+001
2.103729e+002, 1.592900e+001
2.108550e+002, 1.568904e+001
2.113372e+002, 1.540289e+001
2.118193e+002, 1.522291e+001
2.123014e+002, 1.520505e+001
2.127835e+002, 1.534876e+001
2.132656e+002, 1.550687e+001
2.137477e+002, 1.571381e+001
2.142299e+002, 1.588819e+001
2.147120e+002, 1.591494e+001
2.151941e+002, 1.573853e+001
2.156762e+002, 1.557218e+001
2.161583e+002, 1.547001e+001
2.166404e+002, 1.543578e+001
2.171226e+002, 1.539640e+001
2.176047e+002, 1.533217e+001
2.180868e+002, 1.528539e+001
2.185689e+002, 1.532061e+001
2.190510e+002, 1.548869e+001
2.195331e+002, 1.561874e+001
2.200153e+002, 1.566052e+001
2.204974e+002, 1.560475e+001
2.209795e+002, 1.556247e+001
2.214616e+002, 1.551780e+001
2.219437e+002, 1.550239e+001
2.224258e+002, 1.558359e+001
2.229080e+002, 1.586396e+001
2.233901e+002, 1.601024e+001
2.238722e+002, 1.583700e+001
2.243543e+002, 1.525449e+001
2.248364e+002, 1.515790e+001
2.253185e+002, 1.582927e+001
2.258007e+002, 1.672185e+001
2.262828e+002, 1.710580e+001
2.267649e+002, 1.665846e+001
2.272470e+002, 1.633648e+001
2.277291e+002, 1.644048e+001
2.282112e+002, 1.704434e+001
2.286934e+002, 1.750507e+001
2.291755e+002, 1.778525e+001
2.296576e+002, 1.795657e+001
2.301397e+002, 1.813700e+001
2.306218e+002, 1.848626e+001
2.311039e+002, 1.854761e+001
2.315861e+002, 1.812553e+001
2.320682e+002, 1.711487e+001
2.325503e+002, 1.632645e+001
2.330324e+002, 1.581906e+001
2.335145e+002, 1.548412e+001
2.339966e+002, 1.518344e+001
2.344788e+002, 1.490516e+001
2.349609e+002, 1.468671e+001
2.354430e+002, 1.454446e+001
2.359251e+002, 1.448637e+001
2.364072e+002, 1.444713e+001
2.368893e+002, 1.442413e+001
2.373715e+002, 1.442167e+001
2.378536e+002, 1.444810e+001
2.383357e+002, 1.452110e+001
2.388178e+002, 1.459240e+001
2.392999e+002, 1.465390e+001
2.397820e+002, 1.470698e+001
2.402642e+002, 1.473857e+001
2.407463e+002, 1.476845e+001
2.412284e+002, 1.475990e+001
2.417105e+002, 1.465269e+001
2.421926e+002, 1.436190e+001
2.426747e+002, 1.412867e+001
2.431569e+002, 1.403459e+001
2.436390e+002, 1.410415e+001
2.441211e+002, 1.409991e+001
2.446032e+002, 1.396565e+001
2.450853e+002, 1.380760e+001
2.455674e+002, 1.375518e+001
2.460496e+002, 1.386582e+001
2.465317e+002, 1.397694e+001
2.470138e+002, 1.405645e+001
2.474959e+002, 1.410371e+001
2.479780e+002, 1.412965e+001
2.484601e+002, 1.412463e+001
2.489423e+002, 1.410879e+001
2.494244e+002, 1.409511e+001
2.499065e+002, 1.404843e+001
2.503886e+002, 1.407677e+001
2.508707e+002, 1.423291e+001
2.513528e+002, 1.452440e+001
2.518350e+002, 1.473257e+001
2.523171e+002, 1.480260e+001
2.527992e+002, 1.484643e+001
2.532813e+002, 1.499942e+001
2.537634e+002, 1.536233e+001
2.542455e+002, 1.560004e+001
2.547277e+002, 1.555087e+001
2.552098e+002, 1.520448e+001
2.556919e+002, 1.527129e+001
2.561740e+002, 1.595001e+001
2.566561e+002, 1.679144e+001
2.571382e+002, 1.739277e+001
2.576204e+002, 1.777837e+001
2.581025e+002, 1.787240e+001
2.585846e+002, 1.762082e+001
2.590667e+002, 1.703544e+001
2.595488e+002, 1.632141e+001
2.600309e+002, 1.537852e+001
2.605131e+002, 1.447391e+001
2.609952e+002, 1.386357e+001
2.614773e+002, 1.360394e+001
2.619594e+002, 1.347670e+001
2.624415e+002, 1.350336e+001
2.629236e+002, 1.365809e+001
2.634058e+002, 1.364914e+001
2.638879e+002, 1.339131e+001
2.643700e+002, 1.311452e+001
2.648521e+002, 1.300456e+001
2.653342e+002, 1.310856e+001
2.658163e+002, 1.322978e+001
2.662985e+002, 1.336606e+001
2.667806e+002, 1.349938e+001
2.672627e+002, 1.351258e+001
2.677448e+002, 1.336615e+001
2.682269e+002, 1.318173e+001
2.687090e+002, 1.302219e+001
2.691912e+002, 1.286043e+001
2.696733e+002, 1.285100e+001
2.701554e+002, 1.307567e+001
2.706375e+002, 1.345180e+001
2.711196e+002, 1.362712e+001
2.716017e+002, 1.355548e+001
2.720839e+002, 1.341097e+001
2.725660e+002, 1.329475e+001
2.730481e+002, 1.320308e+001
2.735302e+002, 1.316588e+001
2.740123e+002, 1.320636e+001
2.744944e+002, 1.329000e+001
2.749766e+002, 1.332648e+001
2.754587e+002, 1.332074e+001
2.759408e+002, 1.325043e+001
2.764229e+002, 1.304694e+001
2.769050e+002, 1.268476e+001
2.773871e+002, 1.251370e+001
2.778693e+002, 1.260339e+001
2.783514e+002, 1.284532e+001
2.788335e+002, 1.301014e+001
2.793156e+002, 1.309414e+001
2.797977e+002, 1.313249e+001
2.802798e+002, 1.312754e+001
2.807620e+002, 1.307892e+001
2.812441e+002, 1.305296e+001
2.817262e+002, 1.304992e+001
2.822083e+002, 1.307543e+001
2.826904e+002, 1.317576e+001
2.831725e+002, 1.336120e+001
2.836547e+002, 1.347293e+001
2.841368e+002, 1.338099e+001
2.846189e+002, 1.310937e+001
2.851010e+002, 1.295161e+001
2.855831e+002, 1.293660e+001
2.860652e+002, 1.297208e+001
2.865474e+002, 1.290267e+001
2.870295e+002, 1.273140e+001
2.875116e+002, 1.260781e+001
2.879937e+002, 1.263946e+001
2.884758e+002, 1.279045e+001
2.889579e+002, 1.285102e+001
2.894401e+002, 1.281787e+001
2.899222e+002, 1.272038e+001
2.904043e+002, 1.253662e+001
2.908864e+002, 1.228720e+001
2.913685e+002, 1.214230e+001
2.918506e+002, 1.223647e+001
2.923328e+002, 1.247576e+001
2.928149e+002, 1.257098e+001
2.932970e+002, 1.251506e+001
2.937791e+002, 1.241248e+001
2.942612e+002, 1.234077e+001
2.947433e+002, 1.230503e+001
2.952255e+002, 1.233748e+001
2.957076e+002, 1.252009e+001
2.961897e+002, 1.273731e+001
2.966718e+002, 1.271297e+001
2.971539e+002, 1.245353e+001
2.976360e+002, 1.218686e+001
2.981182e+002, 1.212937e+001
2.986003e+002, 1.221603e+001
2.990824e+002, 1.228517e+001
2.995645e+002, 1.229836e+001
3.000466e+002, 1.226781e+001
3.005287e+002, 1.217085e+001
3.010109e+002, 1.202285e+001
3.014930e+002, 1.193128e+001
3.019751e+002, 1.204195e+001
3.024572e+002, 1.225008e+001
3.029393e+002, 1.237566e+001
3.034214e+002, 1.237185e+001
3.039036e+002, 1.229262e+001
3.043857e+002, 1.213680e+001
3.048678e+002, 1.193727e+001
3.053499e+002, 1.181217e+001
3.058320e+002, 1.190481e+001
3.063141e+002, 1.208662e+001
3.067963e+002, 1.219165e+001
3.072784e+002, 1.216896e+001
3.077605e+002, 1.214096e+001
3.082426e+002, 1.223488e+001
3.087247e+002, 1.240446e+001
3.092068e+002, 1.253880e+001
3.096890e+002, 1.257807e+001
3.101711e+002, 1.255911e+001
3.106532e+002, 1.249667e+001
3.111353e+002, 1.238126e+001
3.116174e+002, 1.228351e+001
3.120995e+002, 1.223535e+001
3.125817e+002, 1.223745e+001
3.130638e+002, 1.228953e+001
3.135459e+002, 1.252167e+001
3.140280e+002, 1.270692e+001
3.145101e+002, 1.266745e+001
3.149922e+002, 1.237877e+001
3.154744e+002, 1.210032e+001
3.159565e+002, 1.191033e+001
3.164386e+002, 1.181386e+001
3.169207e+002, 1.181801e+001
3.174028e+002, 1.205717e+001
3.178849e+002, 1.227515e+001
3.183671e+002, 1.235786e+001
3.188492e+002, 1.230930e+001
3.193313e+002, 1.224150e+001
3.198134e+002, 1.217384e+001
3.202955e+002, 1.211124e+001
3.207776e+002, 1.205830e+001
3.212598e+002, 1.200060e+001
3.217419e+002, 1.196793e+001
3.222240e+002, 1.194957e+001
3.227061e+002, 1.195456e+001
3.231882e+002, 1.203020e+001
3.236703e+002, 1.231150e+001
3.241525e+002, 1.257955e+001
3.246346e+002, 1.270709e+001
3.251167e+002, 1.251967e+001
3.255988e+002, 1.241407e+001
3.260809e+002, 1.246901e+001
3.265630e+002, 1.263456e+001
3.270452e+002, 1.277428e+001
3.275273e+002, 1.290761e+001
3.280094e+002, 1.298888e+001
3.284915e+002, 1.298962e+001
3.289736e+002, 1.284365e+001
3.294557e+002, 1.276420e+001
3.299379e+002, 1.276274e+001
3.304200e+002, 1.282447e+001
3.309021e+002, 1.292897e+001
3.313842e+002, 1.312370e+001
3.318663e+002, 1.329889e+001
3.323484e+002, 1.342183e+001
3.328306e+002, 1.348184e+001
3.333127e+002, 1.354029e+001
3.337948e+002, 1.357207e+001
3.342769e+002, 1.362503e+001
3.347590e+002, 1.376212e+001
3.352411e+002, 1.403671e+001
3.357233e+002, 1.427222e+001
3.362054e+002, 1.439059e+001
3.366875e+002, 1.440973e+001
3.371696e+002, 1.463017e+001
3.376517e+002, 1.513498e+001
3.381339e+002, 1.568052e+001
3.386160e+002, 1.603948e+001
3.390981e+002, 1.616474e+001
3.395802e+002, 1.635401e+001
3.400623e+002, 1.666195e+001
3.405444e+002, 1.705757e+001
3.410266e+002, 1.739833e+001
3.415087e+002, 1.766536e+001
3.419908e+002, 1.798816e+001
3.424729e+002, 1.840571e+001
3.429550e+002, 1.891477e+001
3.434371e+002, 1.965070e+001
3.439193e+002, 2.056699e+001
3.444014e+002, 2.180918e+001
3.448835e+002, 2.371201e+001
3.453656e+002, 2.627144e+001
3.458477e+002, 2.902477e+001
3.463298e+002, 3.195279e+001
3.468120e+002, 3.494566e+001
3.472941e+002, 3.737094e+001
3.477762e+002, 3.920562e+001
3.482583e+002, 4.064646e+001
3.487404e+002, 4.175951e+001
3.492225e+002, 4.263260e+001
3.497047e+002, 4.364547e+001
3.501868e+002, 4.512047e+001
3.506689e+002, 4.674174e+001
3.511510e+002, 4.785205e+001
3.516331e+002, 4.845800e+001
3.521152e+002, 4.913767e+001
3.525974e+002, 5.035431e+001
3.530795e+002, 5.198634e+001
3.535616e+002, 5.378432e+001
3.540437e+002, 5.553905e+001
3.545258e+002, 5.760202e+001
3.550079e+002, 6.018435e+001
3.554901e+002, 6.334165e+001
3.559722e+002, 6.735136e+001
3.564543e+002, 7.216472e+001
3.569364e+002, 7.801140e+001
3.574185e+002, 8.525086e+001
3.579006e+002, 9.409797e+001
3.583828e+002, 1.038784e+002
3.588649e+002, 1.147214e+002
3.593470e+002, 1.262422e+002
3.598291e+002, 1.377496e+002
3.603112e+002, 1.484415e+002
3.607933e+002, 1.593950e+002
3.612755e+002, 1.720323e+002
3.617576e+002, 1.869514e+002
3.622397e+002, 1.999772e+002
3.627218e+002, 2.147880e+002
3.632039e+002, 2.250030e+002
3.636860e+002, 2.235005e+002
3.641682e+002, 2.009892e+002
3.646503e+002, 1.735561e+002
3.651324e+002, 1.438094e+002
3.656145e+002, 1.119595e+002
3.660966e+002, 8.518636e+001
3.665787e+002, 6.554583e+001
3.670609e+002, 5.079637e+001
3.675430e+002, 3.950039e+001
3.680251e+002, 3.335674e+001
3.685072e+002, 2.847927e+001
3.689893e+002, 2.507580e+001
3.694714e+002, 2.284478e+001
3.699536e+002, 2.095622e+001
3.704357e+002, 1.951776e+001
3.709178e+002, 1.830345e+001
3.713999e+002, 1.723985e+001
3.718820e+002, 1.631201e+001
3.723641e+002, 1.556093e+001
3.728463e+002, 1.505204e+001
3.733284e+002, 1.468443e+001
3.738105e+002, 1.429881e+001
3.742926e+002, 1.387562e+001
3.747747e+002, 1.347308e+001
3.752568e+002, 1.308365e+001
3.757390e+002, 1.270502e+001
3.762211e+002, 1.248719e+001
3.767032e+002, 1.248192e+001
3.771853e+002, 1.252468e+001
3.776674e+002, 1.245565e+001
3.781495e+002, 1.226443e+001
3.786317e+002, 1.204650e+001
3.791138e+002, 1.181197e+001
3.795959e+002, 1.156663e+001
3.800780e+002, 1.128158e+001
3.805601e+002, 1.094546e+001
3.810422e+002, 1.071561e+001
3.815244e+002, 1.082227e+001
3.820065e+002, 1.117585e+001
3.824886e+002, 1.123615e+001
3.829707e+002, 1.089404e+001
3.834528e+002, 1.041010e+001
3.839349e+002, 1.011328e+001
3.844171e+002, 9.989890e+000
3.848992e+002, 9.959665e+000
3.853813e+002, 1.006676e+001
3.858634e+002, 1.021412e+001
3.863455e+002, 1.021130e+001
3.868276e+002, 1.004710e+001
3.873098e+002, 9.867845e+000
3.877919e+002, 9.791657e+000
3.882740e+002, 9.787762e+000
3.887561e+002, 9.803305e+000
3.892382e+002, 9.850306e+000
3.897203e+002, 9.880273e+000
3.902025e+002, 9.819752e+000
3.906846e+002, 9.692532e+000
3.911667e+002, 9.610260e+000
3.916488e+002, 9.732773e+000
3.921309e+002, 9.874494e+000
3.926130e+002, 9.849651e+000
3.930952e+002, 9.508673e+000
3.935773e+002, 9.253527e+000
3.940594e+002, 9.333984e+000
3.945415e+002, 9.611469e+000
3.950236e+002, 9.828779e+000
3.955057e+002, 9.863291e+000
3.959879e+002, 9.862240e+000
3.964700e+002, 9.903458e+000
3.969521e+002, 1.001343e+001
3.974342e+002, 1.002730e+001
3.979163e+002, 9.812926e+000
3.983984e+002, 9.542514e+000
3.988806e+002, 9.373181e+000
3.993627e+002, 9.377995e+000
3.998448e+002, 9.414571e+000
4.003269e+002, 9.509111e+000
4.008090e+002, 9.642298e+000
4.012911e+002, 9.659070e+000
4.017733e+002, 9.458828e+000
4.022554e+002, 9.261386e+000
4.027375e+002, 9.194525e+000
4.032196e+002, 9.346792e+000
4.037017e+002, 9.399196e+000
4.041838e+002, 9.302415e+000
4.046660e+002, 9.139160e+000
4.051481e+002, 9.077096e+000
4.056302e+002, 9.143919e+000
4.061123e+002, 9.207916e+000
4.065944e+002, 9.217084e+000
4.070765e+002, 9.174788e+000
4.075587e+002, 9.161838e+000
4.080408e+002, 9.187378e+000
4.085229e+002, 9.207071e+000
4.090050e+002, 9.151690e+000
4.094871e+002, 9.029688e+000
4.099692e+002, 8.966582e+000
4.104514e+002, 9.010527e+000
4.109335e+002, 9.104673e+000
4.114156e+002, 9.120879e+000
4.118977e+002, 9.066072e+000
4.123798e+002, 9.023264e+000
4.128619e+002, 9.065789e+000
4.133441e+002, 9.156027e+000
4.138262e+002, 9.231611e+000
4.143083e+002, 9.291719e+000
4.147904e+002, 9.307412e+000
4.152725e+002, 9.177700e+000
4.157546e+002, 8.984983e+000
4.162368e+002, 8.897144e+000
4.167189e+002, 9.133773e+000
4.172010e+002, 9.403676e+000
4.176831e+002, 9.456999e+000
4.181652e+002, 9.300320e+000
4.186473e+002, 9.125327e+000
4.191295e+002, 9.017247e+000
4.196116e+002, 8.947831e+000
4.200937e+002, 8.897265e+000
4.205758e+002, 8.892676e+000
4.210579e+002, 8.858717e+000
4.215400e+002, 8.724790e+000
4.220222e+002, 8.541693e+000
4.225043e+002, 8.430960e+000
4.229864e+002, 8.492565e+000
4.234685e+002, 8.569896e+000
4.239506e+002, 8.597739e+000
4.244327e+002, 8.547443e+000
4.249149e+002, 8.531731e+000
4.253970e+002, 8.562730e+000
4.258791e+002, 8.624953e+000
4.263612e+002, 8.711893e+000
4.268433e+002, 8.898124e+000
4.273254e+002, 8.980944e+000
4.278076e+002, 8.865890e+000
4.282897e+002, 8.599745e+000
4.287718e+002, 8.548285e+000
4.292539e+002, 8.810357e+000
4.297360e+002, 9.086506e+000
4.302181e+002, 9.180228e+000
4.307003e+002, 9.058520e+000
4.311824e+002, 8.976079e+000
4.316645e+002, 8.954160e+000
4.321466e+002, 8.956740e+000
4.326287e+002, 8.914552e+000
4.331108e+002, 8.826742e+000
4.335930e+002, 8.759764e+000
4.340751e+002, 8.727666e+000
4.345572e+002, 8.737432e+000
4.350393e+002, 8.825582e+000
4.355214e+002, 8.992971e+000
4.360035e+002, 9.186563e+000
4.364857e+002, 9.423756e+000
4.369678e+002, 9.647867e+000
4.374499e+002, 9.704482e+000
4.379320e+002, 9.499732e+000
4.384141e+002, 9.237237e+000
4.388962e+002, 9.097631e+000
4.393784e+002, 9.076657e+000
4.398605e+002, 9.162012e+000
4.403426e+002, 9.456452e+000
4.408247e+002, 9.784604e+000
4.413068e+002, 1.000320e+001
4.417889e+002, 1.009345e+001
4.422711e+002, 1.013158e+001
4.427532e+002, 1.008761e+001
4.432353e+002, 1.003868e+001
4.437174e+002, 1.006491e+001
4.441995e+002, 1.022241e+001
4.446816e+002, 1.042258e+001
4.451638e+002, 1.067279e+001
4.456459e+002, 1.095472e+001
4.461280e+002, 1.119694e+001
4.466101e+002, 1.129804e+001
4.470922e+002, 1.143229e+001
4.475743e+002, 1.169138e+001
4.480565e+002, 1.215197e+001
4.485386e+002, 1.253220e+001
4.490207e+002, 1.273868e+001
4.495028e+002, 1.292159e+001
4.499849e+002, 1.330271e+001
4.504670e+002, 1.404902e+001
4.509492e+002, 1.463106e+001
4.514313e+002, 1.495164e+001
4.519134e+002, 1.501505e+001
4.523955e+002, 1.479228e+001
4.528776e+002, 1.424226e+001
4.533597e+002, 1.356767e+001
4.538419e+002, 1.284784e+001
4.543240e+002, 1.209282e+001
4.548061e+002, 1.148654e+001
4.552882e+002, 1.106606e+001
4.557703e+002, 1.075529e+001
4.562524e+002, 1.044619e+001
4.567346e+002, 1.014415e+001
4.572167e+002, 9.913421e+000
4.576988e+002, 9.790943e+000
4.581809e+002, 9.747264e+000
4.586630e+002, 9.736271e+000
4.591451e+002, 9.757627e+000
4.596273e+002, 9.805968e+000
4.601094e+002, 9.933059e+000
4.605915e+002, 1.006465e+001
4.610736e+002, 1.008813e+001
4.615557e+002, 9.924230e+000
4.620378e+002, 9.770463e+000
4.625200e+002, 9.774478e+000
4.630021e+002, 9.878797e+000
4.634842e+002, 9.971635e+000
4.639663e+002, 1.001841e+001
4.644484e+002, 1.003692e+001
4.649305e+002, 1.001823e+001
4.654127e+002, 9.958983e+000
4.658948e+002, 9.934230e+000
4.663769e+002, 9.987374e+000
4.668590e+002, 1.006395e+001
4.673411e+002, 1.012395e+001
4.678232e+002, 1.008864e+001
4.683054e+002, 1.014224e+001
4.687875e+002, 1.034758e+001
4.692696e+002, 1.063430e+001
4.697517e+002, 1.082278e+001
4.702338e+002, 1.085412e+001
4.707159e+002, 1.089325e+001
4.711981e+002, 1.099570e+001
4.716802e+002, 1.116288e+001
4.721623e+002, 1.136275e+001
4.726444e+002, 1.160089e+001
4.731265e+002, 1.184955e+001
4.736086e+002, 1.205836e+001
4.740908e+002, 1.222903e+001
4.745729e+002, 1.246358e+001
4.750550e+002, 1.277344e+001
4.755371e+002, 1.316677e+001
4.760192e+002, 1.364340e+001
4.765013e+002, 1.421134e+001
4.769835e+002, 1.490767e+001
4.774656e+002, 1.579350e+001
4.779477e+002, 1.681207e+001
4.784298e+002, 1.785598e+001
4.789119e+002, 1.891825e+001
4.793940e+002, 2.008944e+001
4.798762e+002, 2.147614e+001
4.803583e+002, 2.300553e+001
4.808404e+002, 2.459858e+001
4.813225e+002, 2.639764e+001
4.818046e+002, 2.804827e+001
4.822867e+002, 2.928257e+001
4.827689e+002, 3.022202e+001
4.832510e+002, 3.117862e+001
4.837331e+002, 3.224139e+001
4.842152e+002, 3.335949e+001
4.846973e+002, 3.449711e+001
4.851794e+002, 3.564187e+001
4.856616e+002, 3.688839e+001
4.861437e+002, 3.817279e+001
4.866258e+002, 3.960647e+001
4.871079e+002, 4.126531e+001
4.875900e+002, 4.295529e+001
4.880721e+002, 4.525832e+001
4.885543e+002, 4.838600e+001
4.890364e+002, 5.210184e+001
4.895185e+002, 5.568518e+001
4.900006e+002, 5.900525e+001
4.904827e+002, 6.250917e+001
4.909648e+002, 6.635310e+001
4.914470e+002, 7.054180e+001
4.919291e+002, 7.494669e+001
4.924112e+002, 7.957406e+001
4.928933e+002, 8.427951e+001
4.933754e+002, 8.909058e+001
4.938575e+002, 9.391106e+001
4.943397e+002, 9.838424e+001
4.948218e+002, 1.027199e+002
4.953039e+002, 1.060476e+002
4.957860e+002, 1.072926e+002
4.962681e+002, 1.065009e+002
4.967502e+002, 1.038355e+002
4.972324e+002, 9.887856e+001
4.977145e+002, 9.237476e+001
4.981966e+002, 8.457288e+001
4.986787e+002, 7.542970e+001
4.991608e+002, 6.657373e+001
4.996429e+002, 5.834039e+001
5.001251e+002, 5.099657e+001
5.006072e+002, 4.456443e+001
5.010893e+002, 3.926721e+001
5.015714e+002, 3.470721e+001
5.020535e+002, 3.081853e+001
5.025356e+002, 2.758322e+001
5.030178e+002, 2.493214e+001
5.034999e+002, 2.311232e+001
5.039820e+002, 2.155740e+001
5.044641e+002, 2.015925e+001
5.049462e+002, 1.891511e+001
5.054283e+002, 1.785122e+001
5.059105e+002, 1.701813e+001
5.063926e+002, 1.629977e+001
5.068747e+002, 1.559883e+001
5.073568e+002, 1.490087e+001
5.078389e+002, 1.434176e+001
5.083210e+002, 1.396640e+001
5.088032e+002, 1.369620e+001
5.092853e+002, 1.340594e+001
5.097674e+002, 1.309750e+001
5.102495e+002, 1.280418e+001
5.107316e+002, 1.252126e+001
5.112137e+002, 1.226756e+001
5.116959e+002, 1.210380e+001
5.121780e+002, 1.202427e+001
5.126601e+002, 1.193762e+001
5.131422e+002, 1.172965e+001
5.136243e+002, 1.149431e+001
5.141064e+002, 1.137276e+001
5.145886e+002, 1.142595e+001
5.150707e+002, 1.145978e+001
5.155528e+002, 1.130660e+001
5.160349e+002, 1.107051e+001
5.165170e+002, 1.089962e+001
5.169991e+002, 1.095460e+001
5.174813e+002, 1.096735e+001
5.179634e+002, 1.082858e+001
5.184455e+002, 1.055487e+001
5.189276e+002, 1.029407e+001
5.194097e+002, 1.002516e+001
5.198918e+002, 9.809145e+000
5.203740e+002, 9.687305e+000
5.208561e+002, 9.705442e+000
5.213382e+002, 9.663751e+000
5.218203e+002, 9.546044e+000
5.223024e+002, 9.386691e+000
5.227845e+002, 9.206257e+000
5.232667e+002, 8.989516e+000
5.237488e+002, 8.844001e+000
5.242309e+002, 8.816906e+000
5.247130e+002, 8.851465e+000
5.251951e+002, 8.782598e+000
5.256772e+002, 8.612974e+000
5.261594e+002, 8.479621e+000
5.266415e+002, 8.509145e+000
5.271236e+002, 8.620503e+000
5.276057e+002, 8.594306e+000
5.280878e+002, 8.421456e+000
5.285699e+002, 8.299102e+000
5.290521e+002, 8.496504e+000
5.295342e+002, 8.807708e+000
5.300163e+002, 8.941180e+000
5.304984e+002, 8.708743e+000
5.309805e+002, 8.490335e+000
5.314626e+002, 8.563937e+000
5.319448e+002, 8.794291e+000
5.324269e+002, 8.918880e+000
5.329090e+002, 8.774278e+000
5.333911e+002, 8.598055e+000
5.338732e+002, 8.447920e+000
5.343553e+002, 8.327677e+000
5.348375e+002, 8.272834e+000
5.353196e+002, 8.342031e+000
5.358017e+002, 8.418403e+000
5.362838e+002, 8.434099e+000
5.367659e+002, 8.359468e+000
5.372480e+002, 8.308096e+000
5.377302e+002, 8.287542e+000
5.382123e+002, 8.281163e+000
5.386944e+002, 8.285657e+000
5.391765e+002, 8.307380e+000
5.396586e+002, 8.235345e+000
5.401407e+002, 7.988657e+000
5.406229e+002, 7.674990e+000
5.411050e+002, 7.578507e+000
5.415871e+002, 7.682229e+000
5.420692e+002, 7.815278e+000
5.425513e+002, 7.876297e+000
5.430334e+002, 7.898113e+000
5.435156e+002, 7.932046e+000
5.439977e+002, 7.982575e+000
5.444798e+002, 8.024725e+000
5.449619e+002, 8.083136e+000
5.454440e+002, 8.105386e+000
5.459261e+002, 8.024476e+000
5.464083e+002, 7.700051e+000
5.468904e+002, 7.446623e+000
5.473725e+002, 7.388704e+000
5.478546e+002, 7.476336e+000
5.483367e+002, 7.600740e+000
5.488188e+002, 7.851285e+000
5.493010e+002, 8.024256e+000
5.497831e+002, 8.053305e+000
5.502652e+002, 7.940364e+000
5.507473e+002, 7.822225e+000
5.512294e+002, 7.670357e+000
5.517115e+002, 7.561533e+000
5.521937e+002, 7.565173e+000
5.526758e+002, 7.699445e+000
5.531579e+002, 7.765994e+000
5.536400e+002, 7.742656e+000
5.541221e+002, 7.690157e+000
5.546042e+002, 7.697429e+000
5.550864e+002, 7.753294e+000
5.555685e+002, 7.781018e+000
5.560506e+002, 7.727819e+000
5.565327e+002, 7.673556e+000
5.570148e+002, 7.772173e+000
5.574969e+002, 7.980415e+000
5.579791e+002, 8.136143e+000
5.584612e+002, 8.078648e+000
5.589433e+002, 7.975876e+000
5.594254e+002, 7.996318e+000
5.599075e+002, 8.154212e+000
5.603896e+002, 8.231344e+000
5.608718e+002, 8.056717e+000
5.613539e+002, 7.817073e+000
5.618360e+002, 7.649580e+000
5.623181e+002, 7.600495e+000
5.628002e+002, 7.585188e+000
5.632823e+002, 7.594840e+000
5.637645e+002, 7.635275e+000
5.642466e+002, 7.729878e+000
5.647287e+002, 7.936574e+000
5.652108e+002, 8.062784e+000
5.656929e+002, 8.048012e+000
5.661750e+002, 7.921044e+000
5.666572e+002, 7.791692e+000
5.671393e+002, 7.653454e+000
5.676214e+002, 7.565396e+000
5.681035e+002, 7.598562e+000
5.685856e+002, 7.714697e+000
5.690677e+002, 7.766645e+000
5.695499e+002, 7.747232e+000
5.700320e+002, 7.692226e+000
5.705141e+002, 7.553463e+000
5.709962e+002, 7.421417e+000
5.714783e+002, 7.470631e+000
5.719604e+002, 7.847962e+000
5.724426e+002, 8.197230e+000
5.729247e+002, 8.302894e+000
5.734068e+002, 8.221904e+000
5.738889e+002, 8.058390e+000
5.743710e+002, 7.631668e+000
5.748531e+002, 7.343709e+000
5.753353e+002, 7.434597e+000
5.758174e+002, 7.868358e+000
5.762995e+002, 8.087852e+000
5.767816e+002, 7.921111e+000
5.772637e+002, 7.724931e+000
5.777458e+002, 7.656736e+000
5.782280e+002, 7.744570e+000
5.787101e+002, 7.816696e+000
5.791922e+002, 7.872672e+000
5.796743e+002, 7.913907e+000
5.801564e+002, 7.938519e+000
5.806385e+002, 7.947187e+000
5.811207e+002, 7.951216e+000
5.816028e+002, 7.948306e+000
5.820849e+002, 7.951113e+000
5.825670e+002, 7.999210e+000
5.830491e+002, 8.072773e+000
5.835313e+002, 8.109612e+000
5.840134e+002, 8.030433e+000
5.844955e+002, 7.936424e+000
5.849776e+002, 7.956330e+000
5.854597e+002, 8.062029e+000
5.859418e+002, 8.093726e+000
5.864240e+002, 7.902050e+000
5.869061e+002, 7.671587e+000
5.873882e+002, 7.485067e+000
5.878703e+002, 7.330369e+000
5.883524e+002, 7.312768e+000
5.888345e+002, 7.624525e+000
5.893167e+002, 7.960579e+000
5.897988e+002, 8.075087e+000
5.902809e+002, 7.862198e+000
5.907630e+002, 7.657264e+000
5.912451e+002, 7.449460e+000
5.917272e+002, 7.294787e+000
5.922094e+002, 7.340920e+000
5.926915e+002, 7.602636e+000
5.931736e+002, 7.819487e+000
5.936557e+002, 7.878709e+000
5.941378e+002, 7.852036e+000
5.946199e+002, 7.931165e+000
5.951021e+002, 8.100047e+000
5.955842e+002, 8.232697e+000
5.960663e+002, 8.221140e+000
5.965484e+002, 8.141809e+000
5.970305e+002, 8.081231e+000
5.975126e+002, 8.047046e+000
5.979948e+002, 8.009617e+000
5.984769e+002, 7.932535e+000
5.989590e+002, 7.856630e+000
5.994411e+002, 7.820535e+000
5.999232e+002, 7.881921e+000
6.004053e+002, 7.900406e+000
6.008875e+002, 7.785479e+000
6.013696e+002, 7.640921e+000
6.018517e+002, 7.620086e+000
6.023338e+002, 7.800580e+000
6.028159e+002, 7.953488e+000
6.032980e+002, 8.041015e+000
6.037802e+002, 8.070378e+000
6.042623e+002, 8.056581e+000
6.047444e+002, 7.993317e+000
6.052265e+002, 7.941409e+000
6.057086e+002, 7.940845e+000
6.061907e+002, 7.976737e+000
6.066729e+002, 7.981105e+000
6.071550e+002, 7.955146e+000
6.076371e+002, 7.970940e+000
6.081192e+002, 8.178198e+000
6.086013e+002, 8.424201e+000
6.090834e+002, 8.470950e+000
6.095656e+002, 8.223884e+000
6.100477e+002, 8.019047e+000
6.105298e+002, 8.111131e+000
6.110119e+002, 8.316070e+000
6.114940e+002, 8.428268e+000
6.119761e+002, 8.308726e+000
6.124583e+002, 8.202337e+000
6.129404e+002, 8.142101e+000
6.134225e+002, 8.118879e+000
6.139046e+002, 8.116812e+000
6.143867e+002, 8.152243e+000
6.148688e+002, 8.173014e+000
6.153510e+002, 8.152450e+000
6.158331e+002, 8.103122e+000
6.163152e+002, 8.116919e+000
6.167973e+002, 8.200845e+000
6.172794e+002, 8.276401e+000
6.177615e+002, 8.269871e+000
6.182437e+002, 8.214427e+000
6.187258e+002, 8.216926e+000
6.192079e+002, 8.285375e+000
6.196900e+002, 8.339940e+000
6.201721e+002, 8.277015e+000
6.206542e+002, 8.174615e+000
6.211364e+002, 8.137814e+000
6.216185e+002, 8.223245e+000
6.221006e+002, 8.301757e+000
6.225827e+002, 8.280898e+000
6.230648e+002, 8.230217e+000
6.235469e+002, 8.246875e+000
6.240291e+002, 8.420669e+000
6.245112e+002, 8.578173e+000
6.249933e+002, 8.729490e+000
6.254754e+002, 8.846529e+000
6.259575e+002, 8.805722e+000
6.264396e+002, 8.535526e+000
6.269218e+002, 8.317907e+000
6.274039e+002, 8.278193e+000
6.278860e+002, 8.385580e+000
6.283681e+002, 8.455977e+000
6.288502e+002, 8.488276e+000
6.293323e+002, 8.513075e+000
6.298145e+002, 8.557644e+000
6.302966e+002, 8.609515e+000
6.307787e+002, 8.627498e+000
6.312608e+002, 8.601730e+000
6.317429e+002, 8.623057e+000
6.322250e+002, 8.852070e+000
6.327072e+002, 9.121222e+000
6.331893e+002, 9.244231e+000
6.336714e+002, 9.077825e+000
6.341535e+002, 8.925931e+000
6.346356e+002, 8.855792e+000
6.351177e+002, 8.851758e+000
6.355999e+002, 8.886656e+000
6.360820e+002, 8.967890e+000
6.365641e+002, 9.076984e+000
6.370462e+002, 9.236037e+000
6.375283e+002, 9.414166e+000
6.380104e+002, 9.498507e+000
6.384926e+002, 9.475727e+000
6.389747e+002, 9.449201e+000
6.394568e+002, 9.473936e+000
6.399389e+002, 9.529525e+000
6.404210e+002, 9.545305e+000
6.409031e+002, 9.522996e+000
6.413853e+002, 9.487973e+000
6.418674e+002, 9.440838e+000
6.423495e+002, 9.400351e+000
6.428316e+002, 9.388646e+000
6.433137e+002, 9.408342e+000
6.437958e+002, 9.453414e+000
6.442780e+002, 9.536265e+000
6.447601e+002, 9.634933e+000
6.452422e+002, 9.729725e+000
6.457243e+002, 9.814692e+000
6.462064e+002, 9.900525e+000
6.466885e+002, 1.000539e+001
6.471707e+002, 1.010094e+001
6.476528e+002, 1.013099e+001
6.481349e+002, 1.004901e+001
6.486170e+002, 1.006554e+001
6.490991e+002, 1.026333e+001
6.495812e+002, 1.053718e+001
6.500634e+002, 1.061001e+001
6.505455e+002, 1.049826e+001
6.510276e+002, 1.043032e+001
6.515097e+002, 1.051004e+001
6.519918e+002, 1.069795e+001
6.524739e+002, 1.097685e+001
6.529561e+002, 1.132325e+001
6.534382e+002, 1.163469e+001
6.539203e+002, 1.179691e+001
6.544024e+002, 1.193887e+001
6.548845e+002, 1.217225e+001
6.553666e+002, 1.251898e+001
6.558488e+002, 1.279990e+001
6.563309e+002, 1.286067e+001
6.568130e+002, 1.293165e+001
6.572951e+002, 1.314831e+001
6.577772e+002, 1.353826e+001
6.582593e+002, 1.401931e+001
6.587415e+002, 1.464763e+001
6.592236e+002, 1.527653e+001
6.597057e+002, 1.567852e+001
6.601878e+002, 1.585964e+001
6.606699e+002, 1.622626e+001
6.611520e+002, 1.689550e+001
6.616342e+002, 1.764562e+001
6.621163e+002, 1.810227e+001
6.625984e+002, 1.838147e+001
6.630805e+002, 1.879140e+001
6.635626e+002, 1.953894e+001
6.640447e+002, 2.037527e+001
6.645269e+002, 2.111507e+001
6.650090e+002, 2.179831e+001
6.654911e+002, 2.256261e+001
6.659732e+002, 2.356491e+001
6.664553e+002, 2.454164e+001
6.669374e+002, 2.536066e+001
6.674196e+002, 2.604161e+001
6.679017e+002, 2.681305e+001
6.683838e+002, 2.769561e+001
6.688659e+002, 2.864344e+001
6.693480e+002, 2.966193e+001
6.698301e+002, 3.074992e+001
6.703123e+002, 3.182142e+001
6.707944e+002, 3.289082e+001
6.712765e+002, 3.386062e+001
6.717586e+002, 3.453257e+001
6.722407e+002, 3.507160e+001
6.727228e+002, 3.592169e+001
6.732050e+002, 3.722131e+001
6.736871e+002, 3.836406e+001
6.741692e+002, 3.879934e+001
6.746513e+002, 3.887640e+001
6.751334e+002, 3.900621e+001
6.756155e+002, 3.948574e+001
6.760977e+002, 3.973612e+001
6.765798e+002, 3.958934e+001
6.770619e+002, 3.914176e+001
6.775440e+002, 3.853316e+001
6.780261e+002, 3.775743e+001
6.785082e+002, 3.684566e+001
6.789904e+002, 3.578498e+001
6.794725e+002, 3.460709e+001
6.799546e+002, 3.332685e+001
6.804367e+002, 3.196433e+001
6.809188e+002, 3.060997e+001
6.814009e+002, 2.929517e+001
6.818831e+002, 2.803353e+001
6.823652e+002, 2.688635e+001
6.828473e+002, 2.583664e+001
6.833294e+002, 2.485500e+001
6.838115e+002, 2.392986e+001
6.842936e+002, 2.305025e+001
6.847758e+002, 2.217675e+001
6.852579e+002, 2.131524e+001
6.857400e+002, 2.051140e+001
6.862221e+002, 1.973456e+001
6.867042e+002, 1.907031e+001
6.871863e+002, 1.858544e+001
6.876685e+002, 1.835565e+001
6.881506e+002, 1.795498e+001
6.886327e+002, 1.729189e+001
6.891148e+002, 1.662998e+001
6.895969e+002, 1.626136e+001
6.900790e+002, 1.615639e+001
6.905612e+002, 1.588496e+001
6.910433e+002, 1.538120e+001
6.915254e+002, 1.482655e+001
6.920075e+002, 1.441331e+001
6.924896e+002, 1.411249e+001
6.929717e+002, 1.388058e+001
6.934539e+002, 1.372707e+001
6.939360e+002, 1.359714e+001
6.944181e+002, 1.348158e+001
6.949002e+002, 1.336551e+001
6.953823e+002, 1.322525e+001
6.958644e+002, 1.304595e+001
6.963466e+002, 1.285379e+001
6.968287e+002, 1.262362e+001
6.973108e+002, 1.239040e+001
6.977929e+002, 1.226988e+001
6.982750e+002, 1.230422e+001
6.987571e+002, 1.228870e+001
6.992393e+002, 1.212728e+001
6.997214e+002, 1.188701e+001
7.002035e+002, 1.180975e+001
7.006856e+002, 1.187302e+001
7.011677e+002, 1.188321e+001
7.016498e+002, 1.162538e+001
7.021320e+002, 1.131636e+001
7.026141e+002, 1.124406e+001
7.030962e+002, 1.138504e+001
7.035783e+002, 1.147858e+001
7.040604e+002, 1.134951e+001
7.045425e+002, 1.118236e+001
7.050247e+002, 1.107605e+001
7.055068e+002, 1.104407e+001
7.059889e+002, 1.105272e+001
7.064710e+002, 1.116218e+001
7.069531e+002, 1.123286e+001
7.074352e+002, 1.114145e+001
7.079174e+002, 1.086390e+001
7.083995e+002, 1.071677e+001
7.088816e+002, 1.072185e+001
7.093637e+002, 1.077811e+001
7.098458e+002, 1.080173e+001
7.103279e+002, 1.079315e+001
7.108101e+002, 1.073788e+001
7.112922e+002, 1.061628e+001
7.117743e+002, 1.052737e+001
7.122564e+002, 1.056015e+001
7.127385e+002, 1.066255e+001
7.132206e+002, 1.077525e+001
7.137028e+002, 1.093383e+001
7.141849e+002, 1.102933e+001
7.146670e+002, 1.101954e+001
7.151491e+002, 1.094312e+001
7.156312e+002, 1.083735e+001
7.161133e+002, 1.067380e+001
7.165955e+002, 1.056600e+001
7.170776e+002, 1.054609e+001
7.175597e+002, 1.057783e+001
7.180418e+002, 1.055326e+001
7.185239e+002, 1.048739e+001
7.190060e+002, 1.054086e+001
7.194882e+002, 1.087070e+001
7.199703e+002, 1.124736e+001
7.204524e+002, 1.135939e+001
7.209345e+002, 1.127828e+001
7.214166e+002, 1.121958e+001
7.218987e+002, 1.130882e+001
7.223809e+002, 1.141935e+001
7.228630e+002, 1.149984e+001
7.233451e+002, 1.154901e+001
7.238272e+002, 1.157302e+001
7.243093e+002, 1.153350e+001
7.247914e+002, 1.152846e+001
7.252736e+002, 1.161003e+001
7.257557e+002, 1.176764e+001
7.262378e+002, 1.185555e+001
7.267199e+002, 1.186578e+001
7.272020e+002, 1.188485e+001
7.276841e+002, 1.198937e+001
7.281663e+002, 1.214070e+001
7.286484e+002, 1.223648e+001
7.291305e+002, 1.227669e+001
7.296126e+002, 1.234620e+001
7.300947e+002, 1.260977e+001
7.305768e+002, 1.285414e+001
7.310590e+002, 1.286586e+001
7.315411e+002, 1.255625e+001
7.320232e+002, 1.234733e+001
7.325053e+002, 1.242453e+001
7.329874e+002, 1.253576e+001
7.334695e+002, 1.253144e+001
7.339517e+002, 1.238546e+001
7.344338e+002, 1.220178e+001
7.349159e+002, 1.196614e+001
7.353980e+002, 1.173050e+001
7.358801e+002, 1.154730e+001
7.363622e+002, 1.141154e+001
7.368444e+002, 1.130649e+001
7.373265e+002, 1.123285e+001
7.378086e+002, 1.117271e+001
7.382907e+002, 1.113206e+001
7.387728e+002, 1.108725e+001
7.392549e+002, 1.100195e+001
7.397371e+002, 1.081656e+001
7.402192e+002, 1.067664e+001
7.407013e+002, 1.068048e+001
7.411834e+002, 1.072807e+001
7.416655e+002, 1.067288e+001
7.421476e+002, 1.042343e+001
7.426298e+002, 1.031137e+001
7.431119e+002, 1.044345e+001
7.435940e+002, 1.064014e+001
7.440761e+002, 1.050128e+001
7.445582e+002, 1.007118e+001
7.450403e+002, 9.801110e+000
7.455225e+002, 9.861124e+000
7.460046e+002, 1.007949e+001
7.464867e+002, 1.033330e+001
7.469688e+002, 1.057727e+001
7.474509e+002, 1.071097e+001
7.479330e+002, 1.056570e+001
7.484152e+002, 1.043638e+001
7.488973e+002, 1.046371e+001
7.493794e+002, 1.060047e+001
7.498615e+002, 1.068635e+001
7.503436e+002, 1.071845e+001
7.508257e+002, 1.069333e+001
7.513079e+002, 1.057672e+001
7.517900e+002, 1.041515e+001
7.522721e+002, 1.040148e+001
7.527542e+002, 1.053539e+001
7.532363e+002, 1.066201e+001
7.537184e+002, 1.072492e+001
7.542006e+002, 1.072209e+001
7.546827e+002, 1.061097e+001
7.551648e+002, 1.041891e+001
7.556469e+002, 1.026439e+001
7.561290e+002, 1.020789e+001
7.566111e+002, 1.020383e+001
7.570933e+002, 1.024086e+001
7.575754e+002, 1.031520e+001
7.580575e+002, 1.038979e+001
7.585396e+002, 1.048035e+001
7.590217e+002, 1.054310e+001
7.595038e+002, 1.055593e+001
7.599860e+002, 1.052296e+001
7.604681e+002, 1.047815e+001
7.609502e+002, 1.041704e+001
7.614323e+002, 1.040142e+001
7.619144e+002, 1.056221e+001
7.623965e+002, 1.076355e+001
7.628787e+002, 1.068382e+001
7.633608e+002, 1.034520e+001
7.638429e+002, 1.010065e+001
7.643250e+002, 1.031336e+001
7.648071e+002, 1.057911e+001
7.652892e+002, 1.056905e+001
7.657714e+002, 1.019864e+001
7.662535e+002, 1.005292e+001
7.667356e+002, 1.034172e+001
7.672177e+002, 1.062483e+001
7.676998e+002, 1.061107e+001
7.681819e+002, 1.026987e+001
7.686641e+002, 1.019056e+001
7.691462e+002, 1.039801e+001
7.696283e+002, 1.068162e+001
7.701104e+002, 1.091884e+001
7.705925e+002, 1.109179e+001
7.710746e+002, 1.115088e+001
7.715568e+002, 1.108896e+001
7.720389e+002, 1.098893e+001
7.725210e+002, 1.087112e+001
7.730031e+002, 1.075702e+001
7.734852e+002, 1.065107e+001
7.739673e+002, 1.052753e+001
7.744495e+002, 1.050895e+001
7.749316e+002, 1.065259e+001
7.754137e+002, 1.083403e+001
7.758958e+002, 1.098228e+001
7.763779e+002, 1.110321e+001
7.768600e+002, 1.107936e+001
7.773422e+002, 1.088245e+001
7.778243e+002, 1.069328e+001
7.783064e+002, 1.073095e+001
7.787885e+002, 1.089684e+001
7.792706e+002, 1.101421e+001
7.797527e+002, 1.105543e+001
7.802349e+002, 1.103844e+001
7.807170e+002, 1.089670e+001
7.811991e+002, 1.074673e+001
7.816812e+002, 1.069502e+001
7.821633e+002, 1.081594e+001
7.826454e+002, 1.092914e+001
7.831276e+002, 1.104956e+001
7.836097e+002, 1.114459e+001
7.840918e+002, 1.118087e+001
7.845739e+002, 1.115817e+001
7.850560e+002, 1.107616e+001
7.855381e+002, 1.091822e+001
7.860203e+002, 1.079336e+001
7.865024e+002, 1.086484e+001
7.869845e+002, 1.104224e+001
7.874666e+002, 1.118218e+001
7.879487e+002, 1.126892e+001
7.884308e+002, 1.126351e+001
7.889130e+002, 1.102032e+001
7.893951e+002, 1.074280e+001
7.898772e+002, 1.064878e+001
7.903593e+002, 1.094416e+001
7.908414e+002, 1.106057e+001
7.913235e+002, 1.090402e+001
7.918057e+002, 1.069144e+001
7.922878e+002, 1.070853e+001
7.927699e+002, 1.093847e+001
7.932520e+002, 1.112026e+001
7.937341e+002, 1.121863e+001
7.942162e+002, 1.125755e+001
7.946984e+002, 1.125592e+001
7.951805e+002, 1.121540e+001
7.956626e+002, 1.112790e+001
7.961447e+002, 1.094427e+001
7.966268e+002, 1.082209e+001
7.971089e+002, 1.087159e+001
7.975911e+002, 1.098336e+001
7.980732e+002, 1.102532e+001
7.985553e+002, 1.091972e+001
7.990374e+002, 1.094381e+001
7.995195e+002, 1.116772e+001
8.000016e+002, 1.142047e+001
8.004838e+002, 1.145129e+001
8.009659e+002, 1.130271e+001
8.014480e+002, 1.122851e+001
8.019301e+002, 1.128882e+001
8.024122e+002, 1.137570e+001
8.028943e+002, 1.138864e+001
8.033765e+002, 1.136290e+001
8.038586e+002, 1.134665e+001
8.043407e+002, 1.137085e+001
8.048228e+002, 1.137040e+001
8.053049e+002, 1.125584e+001
8.057870e+002, 1.115621e+001
8.062692e+002, 1.123302e+001
8.067513e+002, 1.157387e+001
8.072334e+002, 1.172754e+001
8.077155e+002, 1.162277e+001
8.081976e+002, 1.141074e+001
8.086797e+002, 1.123966e+001
8.091619e+002, 1.112003e+001
8.096440e+002, 1.109989e+001
8.101261e+002, 1.121447e+001
8.106082e+002, 1.133129e+001
8.110903e+002, 1.132532e+001
8.115724e+002, 1.128080e+001
8.120546e+002, 1.129337e+001
8.125367e+002, 1.147066e+001
8.130188e+002, 1.155377e+001
8.135009e+002, 1.148195e+001
8.139830e+002, 1.136354e+001
8.144651e+002, 1.131364e+001
8.149473e+002, 1.133502e+001
8.154294e+002, 1.138304e+001
8.159115e+002, 1.146078e+001
8.163936e+002, 1.152967e+001
8.168757e+002, 1.152886e+001
8.173578e+002, 1.149254e+001
8.178400e+002, 1.147858e+001
8.183221e+002, 1.149909e+001
8.188042e+002, 1.154363e+001
8.192863e+002, 1.165734e+001
8.197684e+002, 1.176365e+001
8.202505e+002, 1.177958e+001
8.207327e+002, 1.163147e+001
8.212148e+002, 1.155849e+001
8.216969e+002, 1.158291e+001
8.221790e+002, 1.164168e+001
8.226611e+002, 1.167506e+001
8.231432e+002, 1.168456e+001
8.236254e+002, 1.167929e+001
8.241075e+002, 1.166119e+001
8.245896e+002, 1.161964e+001
8.250717e+002, 1.148967e+001
8.255538e+002, 1.135923e+001
8.260359e+002, 1.135582e+001
8.265181e+002, 1.156383e+001
8.270002e+002, 1.167622e+001
8.274823e+002, 1.148844e+001
8.279644e+002, 1.129108e+001
8.284465e+002, 1.130092e+001
8.289286e+002, 1.159588e+001
8.294108e+002, 1.168421e+001
8.298929e+002, 1.151992e+001
8.303750e+002, 1.134722e+001
8.308571e+002, 1.144354e+001
8.313392e+002, 1.168767e+001
8.318214e+002, 1.181164e+001
8.323035e+002, 1.178401e+001
8.327856e+002, 1.174033e+001
8.332677e+002, 1.177757e+001
8.337498e+002, 1.182262e+001
8.342319e+002, 1.181622e+001
8.347141e+002, 1.173516e+001
8.351962e+002, 1.166651e+001
8.356783e+002, 1.159920e+001
8.361604e+002, 1.156252e+001
8.366425e+002, 1.159296e+001
8.371246e+002, 1.168371e+001
8.376068e+002, 1.174224e+001
8.380889e+002, 1.176810e+001
8.385710e+002, 1.174071e+001
8.390531e+002, 1.159574e+001
8.395352e+002, 1.141930e+001
8.400173e+002, 1.129558e+001
8.404995e+002, 1.123041e+001
8.409816e+002, 1.121655e+001
8.414637e+002, 1.132789e+001
8.419458e+002, 1.141330e+001
8.424279e+002, 1.137261e+001
8.429100e+002, 1.121076e+001
8.433922e+002, 1.124868e+001
8.438743e+002, 1.153253e+001
8.443564e+002, 1.176250e+001
8.448385e+002, 1.167920e+001
8.453206e+002, 1.143559e+001
8.458027e+002, 1.142555e+001
8.462849e+002, 1.160600e+001
8.467670e+002, 1.173653e+001
8.472491e+002, 1.166467e+001
8.477312e+002, 1.152083e+001
8.482133e+002, 1.133383e+001
8.486954e+002, 1.112246e+001
8.491776e+002, 1.102147e+001
8.496597e+002, 1.109343e+001
8.501418e+002, 1.114881e+001
8.506239e+002, 1.110091e+001
8.511060e+002, 1.100288e+001
8.515881e+002, 1.108635e+001
8.520703e+002, 1.132161e+001
8.525524e+002, 1.145607e+001
8.530345e+002, 1.126506e+001
8.535166e+002, 1.100854e+001
8.539987e+002, 1.092069e+001
8.544808e+002, 1.095472e+001
8.549630e+002, 1.099200e+001
8.554451e+002, 1.099797e+001
8.559272e+002, 1.100391e+001
8.564093e+002, 1.102551e+001
8.568914e+002, 1.104651e+001
8.573735e+002, 1.102082e+001
8.578557e+002, 1.094265e+001
8.583378e+002, 1.089135e+001
8.588199e+002, 1.090182e+001
8.593020e+002, 1.091932e+001
8.597841e+002, 1.087404e+001
8.602662e+002, 1.077301e+001
8.607484e+002, 1.062276e+001
8.612305e+002, 1.031216e+001
8.617126e+002, 1.012356e+001
8.621947e+002, 1.028474e+001
8.626768e+002, 1.058041e+001
8.631589e+002, 1.069227e+001
8.636411e+002, 1.052526e+001
8.641232e+002, 1.046100e+001
8.646053e+002, 1.056549e+001
8.650874e+002, 1.070397e+001
8.655695e+002, 1.067448e+001
8.660516e+002, 1.053140e+001
8.665338e+002, 1.045649e+001
8.670159e+002, 1.049745e+001
8.674980e+002, 1.053321e+001
8.679801e+002, 1.041231e+001
8.684622e+002, 1.028188e+001
8.689443e+002, 1.030530e+001
8.694265e+002, 1.065263e+001
8.699086e+002, 1.078323e+001
8.703907e+002, 1.060148e+001
8.708728e+002, 1.035088e+001
8.713549e+002, 1.024183e+001
8.718370e+002, 1.025850e+001
8.723192e+002, 1.020616e+001
8.728013e+002, 1.007540e+001
8.732834e+002, 9.947897e+000
8.737655e+002, 9.898259e+000
8.742476e+002, 9.879972e+000
8.747297e+002, 9.839116e+000
8.752119e+002, 9.769069e+000
8.756940e+002, 9.735587e+000
8.761761e+002, 9.815137e+000
8.766582e+002, 9.868755e+000
8.771403e+002, 9.821201e+000
8.776224e+002, 9.685290e+000
8.781046e+002, 9.654309e+000
8.785867e+002, 9.733462e+000
8.790688e+002, 9.804858e+000
8.795509e+002, 9.820830e+000
8.800330e+002, 9.772882e+000
8.805151e+002, 9.573546e+000
8.809973e+002, 9.281887e+000
8.814794e+002, 9.123071e+000
8.819615e+002, 9.355175e+000
8.824436e+002, 9.560801e+000
8.829257e+002, 9.579385e+000
8.834078e+002, 9.455840e+000
8.838900e+002, 9.294420e+000
8.843721e+002, 9.081072e+000
8.848542e+002, 8.899341e+000
8.853363e+002, 8.761811e+000
8.858184e+002, 8.687028e+000
8.863005e+002, 8.743534e+000
8.867827e+002, 8.888865e+000
8.872648e+002, 9.016763e+000
8.877469e+002, 9.114448e+000
8.882290e+002, 9.147243e+000
8.887111e+002, 9.028781e+000
8.891932e+002, 8.863791e+000
8.896754e+002, 8.812734e+000
8.901575e+002, 8.946836e+000
8.906396e+002, 9.009620e+000
8.911217e+002, 8.968665e+000
8.916038e+002, 8.881525e+000
8.920859e+002, 8.803684e+000
8.925681e+002, 8.738249e+000
8.930502e+002, 8.703805e+000
8.935323e+002, 8.709859e+000
8.940144e+002, 8.699811e+000
8.944965e+002, 8.612329e+000
8.949786e+002, 8.506669e+000
8.954608e+002, 8.424192e+000
8.959429e+002, 8.358873e+000
8.964250e+002, 8.383252e+000
8.969071e+002, 8.559284e+000
8.973892e+002, 8.700025e+000
8.978713e+002, 8.628435e+000
8.983535e+002, 8.395379e+000
8.988356e+002, 8.332116e+000
8.993177e+002, 8.428442e+000
8.997998e+002, 8.502244e+000
9.002819e+002, 8.387979e+000
9.007640e+002, 8.239573e+000
9.012462e+002, 8.181501e+000
9.017283e+002, 8.208982e+000
9.022104e+002, 8.207347e+000
9.026925e+002, 8.144746e+000
9.031746e+002, 8.086999e+000
9.036567e+002, 8.056724e+000
9.041389e+002, 8.042840e+000
9.046210e+002, 8.002030e+000
9.051031e+002, 7.938755e+000
9.055852e+002, 7.892875e+000
9.060673e+002, 7.895322e+000
9.065494e+002, 7.901426e+000
9.070316e+002, 7.876555e+000
9.075137e+002, 7.825496e+000
9.079958e+002, 7.756080e+000
9.084779e+002, 7.582065e+000
9.089600e+002, 7.525171e+000
9.094421e+002, 7.680067e+000
9.099243e+002, 7.876009e+000
9.104064e+002, 7.839415e+000
9.108885e+002, 7.588810e+000
9.113706e+002, 7.472142e+000
9.118527e+002, 7.553775e+000
9.123348e+002, 7.689693e+000
9.128170e+002, 7.794382e+000
9.132991e+002, 7.847854e+000
9.137812e+002, 7.815981e+000
9.142633e+002, 7.671851e+000
9.147454e+002, 7.532053e+000
9.152275e+002, 7.384371e+000
9.157097e+002, 7.281493e+000
9.161918e+002, 7.278073e+000
9.166739e+002, 7.371413e+000
9.171560e+002, 7.350866e+000
9.176381e+002, 7.215250e+000
9.181202e+002, 7.130001e+000
9.186024e+002, 7.269551e+000
9.190845e+002, 7.478119e+000
9.195666e+002, 7.620125e+000
9.200487e+002, 7.684960e+000
9.205308e+002, 7.658388e+000
9.210129e+002, 7.385240e+000
9.214951e+002, 7.202816e+000
9.219772e+002, 7.218131e+000
9.224593e+002, 7.371518e+000
9.229414e+002, 7.503818e+000
9.234235e+002, 7.613412e+000
9.239056e+002, 7.674391e+000
9.243878e+002, 7.682626e+000
9.248699e+002, 7.629124e+000
9.253520e+002, 7.449608e+000
9.258341e+002, 7.217631e+000
9.263162e+002, 7.046670e+000
9.267983e+002, 6.971130e+000
9.272805e+002, 6.962418e+000
9.277626e+002, 7.062253e+000
9.282447e+002, 7.175865e+000
9.287268e+002, 7.198949e+000
9.292089e+002, 7.131097e+000
9.296910e+002, 7.076803e+000
9.301732e+002, 7.045158e+000
9.306553e+002, 7.011895e+000
9.311374e+002, 6.908109e+000
9.316195e+002, 6.818799e+000
9.321016e+002, 6.873672e+000
9.325837e+002, 7.094088e+000
9.330659e+002, 7.235685e+000
9.335480e+002, 7.184426e+000
9.340301e+002, 7.108867e+000
9.345122e+002, 7.060893e+000
9.349943e+002, 7.041957e+000
9.354764e+002, 7.103486e+000
9.359586e+002, 7.240991e+000
9.364407e+002, 7.280325e+000
9.369228e+002, 7.041198e+000
9.374049e+002, 6.749705e+000
9.378870e+002, 6.625957e+000
9.383691e+002, 6.632609e+000
9.388513e+002, 6.686506e+000
9.393334e+002, 6.836173e+000
9.398155e+002, 6.937961e+000
9.402976e+002, 6.974323e+000
9.407797e+002, 6.954298e+000
9.412618e+002, 6.863586e+000
9.417440e+002, 6.711135e+000
9.422261e+002, 6.626081e+000
9.427082e+002, 6.638375e+000
9.431903e+002, 6.670350e+000
9.436724e+002, 6.621076e+000
9.441545e+002, 6.567140e+000
9.446367e+002, 6.596936e+000
9.451188e+002, 6.749114e+000
9.456009e+002, 6.889845e+000
9.460830e+002, 7.039855e+000
9.465651e+002, 7.127276e+000
9.470472e+002, 7.088094e+000
9.475294e+002, 6.939910e+000
9.480115e+002, 6.820732e+000
9.484936e+002, 6.732022e+000
9.489757e+002, 6.699712e+000
9.494578e+002, 6.838371e+000
9.499399e+002, 6.953529e+000
9.504221e+002, 6.827878e+000
9.509042e+002, 6.538344e+000
9.513863e+002, 6.402084e+000
9.518684e+002, 6.523736e+000
9.523505e+002, 6.664367e+000
9.528326e+002, 6.818641e+000
9.533148e+002, 6.921519e+000
9.537969e+002, 6.766571e+000
9.542790e+002, 6.433882e+000
9.547611e+002, 6.292863e+000
9.552432e+002, 6.484964e+000
9.557253e+002, 6.703906e+000
9.562075e+002, 6.740287e+000
9.566896e+002, 6.688567e+000
9.571717e+002, 6.634803e+000
9.576538e+002, 6.572095e+000
9.581359e+002, 6.570404e+000
9.586180e+002, 6.662370e+000
9.591002e+002, 6.732623e+000
9.595823e+002, 6.681061e+000
9.600644e+002, 6.542633e+000
9.605465e+002, 6.395910e+000
9.610286e+002, 6.251226e+000
9.615107e+002, 6.174845e+000
9.619929e+002, 6.276350e+000
9.624750e+002, 6.383330e+000
9.629571e+002, 6.371050e+000
9.634392e+002, 6.286947e+000
9.639213e+002, 6.329811e+000
9.644034e+002, 6.553329e+000
9.648856e+002, 6.681310e+000
9.653677e+002, 6.627870e+000
9.658498e+002, 6.487386e+000
9.663319e+002, 6.356464e+000
9.668140e+002, 6.262466e+000
9.672961e+002, 6.285300e+000
9.677783e+002, 6.512969e+000
9.682604e+002, 6.675368e+000
9.687425e+002, 6.611836e+000
9.692246e+002, 6.486182e+000
9.697067e+002, 6.424469e+000
9.701888e+002, 6.435513e+000
9.706710e+002, 6.460371e+000
9.711531e+002, 6.501436e+000
9.716352e+002, 6.531173e+000
9.721173e+002, 6.529918e+000
9.725994e+002, 6.503541e+000
9.730815e+002, 6.443163e+000
9.735637e+002, 6.358514e+000
9.740458e+002, 6.301188e+000
9.745279e+002, 6.301047e+000
9.750100e+002, 6.318358e+000
9.754921e+002, 6.358218e+000
9.759742e+002, 6.399503e+000
9.764564e+002, 6.392719e+000
9.769385e+002, 6.338519e+000
9.774206e+002, 6.228722e+000
9.779027e+002, 6.026007e+000
9.783848e+002, 5.882081e+000
9.788669e+002, 6.034315e+000
9.793491e+002, 6.284333e+000
9.798312e+002, 6.380979e+000
9.803133e+002, 6.181017e+000
9.807954e+002, 6.086121e+000
9.812775e+002, 6.155597e+000
9.817596e+002, 6.249125e+000
9.822418e+002, 6.249145e+000
9.827239e+002, 6.183436e+000
9.832060e+002, 6.220810e+000
9.836881e+002, 6.349155e+000
9.841702e+002, 6.455232e+000
9.846523e+002, 6.470170e+000
9.851345e+002, 6.440790e+000
9.856166e+002, 6.360903e+000
9.860987e+002, 6.258520e+000
9.865808e+002, 6.234012e+000
9.870629e+002, 6.327342e+000
9.875450e+002, 6.370887e+000
9.880272e+002, 6.327916e+000
9.885093e+002, 6.232484e+000
9.889914e+002, 6.107131e+000
9.894735e+002, 5.975348e+000
9.899556e+002, 5.880254e+000
9.904377e+002, 5.824485e+000
9.909199e+002, 5.835495e+000
9.914020e+002, 6.004580e+000
9.918841e+002, 6.175974e+000
9.923662e+002, 6.233221e+000
9.928483e+002, 6.170321e+000
9.933304e+002, 6.190047e+000
9.938126e+002, 6.297914e+000
9.942947e+002, 6.392455e+000
9.947768e+002, 6.406317e+000
9.952589e+002, 6.374578e+000
9.957410e+002, 6.323695e+000
9.962231e+002, 6.262162e+000
9.967053e+002, 6.211792e+000
9.971874e+002, 6.199245e+000
9.976695e+002, 6.168844e+000
9.981516e+002, 6.098375e+000
9.986337e+002, 6.024008e+000
9.991158e+002, 6.003659e+000
9.995980e+002, 6.031276e+000
1.000080e+003, 6.067006e+000
1.000562e+003, 6.106511e+000
1.001044e+003, 6.141984e+000
1.001526e+003, 6.192004e+000
1.002009e+003, 6.218226e+000
1.002491e+003, 6.172125e+000
1.002973e+003, 6.039742e+000
1.003455e+003, 5.960279e+000
1.003937e+003, 5.943252e+000
1.004419e+003, 5.949056e+000
1.004901e+003, 5.957063e+000
1.005383e+003, 5.978281e+000
1.005865e+003, 6.093926e+000
1.006348e+003, 6.245448e+000
1.006830e+003, 6.268192e+000
1.007312e+003, 5.887391e+000
1.007794e+003, 5.617815e+000
1.008276e+003, 5.692211e+000
1.008758e+003, 5.909056e+000
1.009240e+003, 6.090167e+000
1.009722e+003, 6.242613e+000
1.010205e+003, 6.235117e+000
1.010687e+003, 6.040402e+000
1.011169e+003, 5.867218e+000
1.011651e+003, 5.975144e+000
1.012133e+003, 6.151090e+000
1.012615e+003, 6.145223e+000
1.013097e+003, 5.951309e+000
1.013579e+003, 5.811177e+000
1.014061e+003, 5.775812e+000
1.014544e+003, 5.780487e+000
1.015026e+003, 5.824176e+000
1.015508e+003, 5.881040e+000
1.015990e+003, 5.851274e+000
1.016472e+003, 5.771499e+000
1.016954e+003, 5.816612e+000
1.017436e+003, 6.124806e+000
1.017918e+003, 6.353739e+000
1.018401e+003, 6.167038e+000
1.018883e+003, 5.873515e+000
1.019365e+003, 5.802570e+000
1.019847e+003, 6.033972e+000
1.020329e+003, 6.109601e+000
1.020811e+003, 6.001792e+000
1.021293e+003, 5.889731e+000
1.021775e+003, 5.939545e+000
1.022257e+003, 6.045442e+000
1.022740e+003, 6.038429e+000
1.023222e+003, 5.937731e+000
1.023704e+003, 5.827508e+000
1.024186e+003, 5.678317e+000
1.024668e+003, 5.608660e+000
1.025150e+003, 5.691618e+000
1.025632e+003, 5.815824e+000
1.026114e+003, 5.764122e+000
1.026596e+003, 5.562507e+000
1.027079e+003, 5.435328e+000
1.027561e+003, 5.418222e+000
1.028043e+003, 5.478007e+000
1.028525e+003, 5.658567e+000
1.029007e+003, 5.853251e+000
1.029489e+003, 5.952332e+000
1.029971e+003, 5.939946e+000
1.030453e+003, 6.002706e+000
1.030936e+003, 6.178994e+000
1.031418e+003, 6.301985e+000
1.031900e+003, 6.292268e+000
1.032382e+003, 6.196909e+000
1.032864e+003, 6.061758e+000
1.033346e+003, 5.919429e+000
1.033828e+003, 5.855212e+000
1.034310e+003, 6.012301e+000
1.034792e+003, 6.074000e+000
1.035275e+003, 5.866419e+000
1.035757e+003, 5.619793e+000
1.036239e+003, 5.541974e+000
1.036721e+003, 5.633436e+000
1.037203e+003, 5.716026e+000
1.037685e+003, 5.782885e+000
1.038167e+003, 5.811356e+000
1.038649e+003, 5.732188e+000
1.039132e+003, 5.652077e+000
1.039614e+003, 5.692611e+000
1.040096e+003, 5.818789e+000
1.040578e+003, 5.825831e+000
1.041060e+003, 5.617682e+000
1.041542e+003, 5.535920e+000
1.042024e+003, 5.684237e+000
1.042506e+003, 5.894370e+000
1.042989e+003, 5.900749e+000
1.043471e+003, 5.781610e+000
1.043953e+003, 5.706548e+000
1.044435e+003, 5.717715e+000
1.044917e+003, 5.707379e+000
1.045399e+003, 5.571470e+000
1.045881e+003, 5.468468e+000
1.046363e+003, 5.489426e+000
1.046845e+003, 5.617062e+000
1.047328e+003, 5.722701e+000
1.047810e+003, 5.807009e+000
1.048292e+003, 5.859496e+000
1.048774e+003, 5.853552e+000
1.049256e+003, 5.845768e+000
1.049738e+003, 5.909133e+000
1.050220e+003, 5.991653e+000
1.050702e+003, 6.007361e+000
1.051184e+003, 5.937418e+000
1.051667e+003, 5.825454e+000
1.052149e+003, 5.655057e+000
1.052631e+003, 5.498694e+000
1.053113e+003, 5.396569e+000
1.053595e+003, 5.359711e+000
1.054077e+003, 5.424408e+000
1.054559e+003, 5.581544e+000
1.055041e+003, 5.764706e+000
1.055523e+003, 6.055172e+000
1.056006e+003, 6.227719e+000
1.056488e+003, 6.206922e+000
1.056970e+003, 6.056831e+000
1.057452e+003, 5.877025e+000
1.057934e+003, 5.675551e+000
1.058416e+003, 5.523168e+000
1.058898e+003, 5.431834e+000
1.059380e+003, 5.401398e+000
1.059863e+003, 5.502492e+000
1.060345e+003, 5.612866e+000
1.060827e+003, 5.605195e+000
1.061309e+003, 5.469320e+000
1.061791e+003, 5.432774e+000
1.062273e+003, 5.521489e+000
1.062755e+003, 5.585368e+000
1.063237e+003, 5.548628e+000
1.063719e+003, 5.463797e+000
1.064202e+003, 5.390378e+000
1.064684e+003, 5.334091e+000
1.065166e+003, 5.308419e+000
1.065648e+003, 5.361287e+000
1.066130e+003, 5.363118e+000
1.066612e+003, 5.269757e+000
1.067094e+003, 5.171299e+000
1.067576e+003, 5.150532e+000
1.068059e+003, 5.191475e+000
1.068541e+003, 5.199841e+000
1.069023e+003, 5.178673e+000
1.069505e+003, 5.164560e+000
1.069987e+003, 5.127460e+000
1.070469e+003, 5.157958e+000
1.070951e+003, 5.394606e+000
1.071433e+003, 5.700232e+000
1.071916e+003, 5.808946e+000
1.072398e+003, 5.699564e+000
1.072880e+003, 5.562845e+000
1.073362e+003, 5.418399e+000
1.073844e+003, 5.294352e+000
1.074326e+003, 5.212761e+000
1.074808e+003, 5.173019e+000
1.075290e+003, 5.183449e+000
1.075772e+003, 5.244680e+000
1.076255e+003, 5.313657e+000
1.076737e+003, 5.406127e+000
1.077219e+003, 5.458169e+000
1.077701e+003, 5.440637e+000
1.078183e+003, 5.382687e+000
1.078665e+003, 5.312387e+000
1.079147e+003, 5.251140e+000
1.079629e+003, 5.273840e+000
1.080111e+003, 5.474098e+000
1.080594e+003, 5.534985e+000
1.081076e+003, 5.137337e+000
1.081558e+003, 4.769673e+000
1.082040e+003, 4.753495e+000
1.082522e+003, 5.044137e+000
1.083004e+003, 5.195557e+000
1.083486e+003, 5.215308e+000
1.083968e+003, 5.163965e+000
1.084450e+003, 4.990983e+000
1.084933e+003, 4.849318e+000
1.085415e+003, 4.849237e+000
1.085897e+003, 4.940114e+000
1.086379e+003, 5.047139e+000
1.086861e+003, 5.193303e+000
1.087343e+003, 5.232736e+000
1.087825e+003, 5.141862e+000
1.088307e+003, 5.058989e+000
1.088790e+003, 5.171748e+000
1.089272e+003, 5.316116e+000
1.089754e+003, 5.260259e+000
1.090236e+003, 5.036934e+000
1.090718e+003, 4.875730e+000
1.091200e+003, 4.808307e+000
1.091682e+003, 4.834519e+000
1.092164e+003, 4.990767e+000
1.092646e+003, 5.173955e+000
1.093129e+003, 5.226434e+000
1.093611e+003, 5.180438e+000
1.094093e+003, 5.098856e+000
1.094575e+003, 4.986784e+000
1.095057e+003, 4.913885e+000
1.095539e+003, 4.947932e+000
1.096021e+003, 4.989297e+000
1.096503e+003, 4.985085e+000
1.096986e+003, 4.957242e+000
1.097468e+003, 5.017172e+000
1.097950e+003, 5.148180e+000
1.098432e+003, 5.198923e+000
1.098914e+003, 5.095414e+000
1.099396e+003, 4.971245e+000
1.099878e+003, 4.911475e+000
1.100360e+003, 4.886457e+000
1.100843e+003, 4.861137e+000
1.101325e+003, 4.827583e+000
1.101807e+003, 4.870175e+000
1.102289e+003, 4.999530e+000
1.102771e+003, 5.093522e+000
1.103253e+003, 5.065162e+000
1.103735e+003, 4.982057e+000
1.104217e+003, 4.898347e+000
1.104699e+003, 4.824832e+000
1.105182e+003, 4.782784e+000
1.105664e+003, 4.807314e+000
1.106146e+003, 4.800023e+000
1.106628e+003, 4.741526e+000
1.107110e+003, 4.696546e+000
1.107592e+003, 4.741147e+000
1.108074e+003, 4.833437e+000
1.108556e+003, 4.893649e+000
1.109038e+003, 4.920890e+000
1.109521e+003, 4.931052e+000
1.110003e+003, 4.944383e+000
1.110485e+003, 4.913417e+000
1.110967e+003, 4.786706e+000
1.111449e+003, 4.663246e+000
1.111931e+003, 4.728189e+000
1.112413e+003, 4.933585e+000
1.112895e+003, 5.070744e+000
1.113377e+003, 5.116070e+000
1.113860e+003, 5.088556e+000
1.114342e+003, 4.888669e+000
1.114824e+003, 4.736028e+000
1.115306e+003, 4.823713e+000
1.115788e+003, 5.038446e+000
1.116270e+003, 4.969211e+000
1.116752e+003, 4.621506e+000
1.117234e+003, 4.312175e+000
1.117717e+003, 4.100484e+000
1.118199e+003, 4.032241e+000
1.118681e+003, 4.278373e+000
1.119163e+003, 4.596786e+000
1.119645e+003, 4.751218e+000
1.120127e+003, 4.723893e+000
1.120609e+003, 4.679374e+000
1.121091e+003, 4.607768e+000
1.121573e+003, 4.586874e+000
1.122056e+003, 4.679580e+000
1.122538e+003, 4.790604e+000
1.123020e+003, 4.804967e+000
1.123502e+003, 4.752535e+000
1.123984e+003, 4.674815e+000
1.124466e+003, 4.548348e+000
1.124948e+003, 4.480508e+000
1.125430e+003, 4.489032e+000
1.125913e+003, 4.513245e+000
1.126395e+003, 4.516006e+000
1.126877e+003, 4.504410e+000
1.127359e+003, 4.488484e+000
1.127841e+003, 4.471894e+000
1.128323e+003, 4.464998e+000
1.128805e+003, 4.499163e+000
1.129287e+003, 4.501013e+000
1.129770e+003, 4.446541e+000
1.130252e+003, 4.381510e+000
1.130734e+003, 4.350902e+000
1.131216e+003, 4.347576e+000
1.131698e+003, 4.327810e+000
1.132180e+003, 4.298056e+000
1.132662e+003, 4.317963e+000
1.133144e+003, 4.498342e+000
1.133626e+003, 4.637202e+000
1.134109e+003, 4.626541e+000
1.134591e+003, 4.563947e+000
1.135073e+003, 4.639472e+000
1.135555e+003, 4.829552e+000
1.136037e+003, 4.818236e+000
1.136519e+003, 4.564742e+000
1.137001e+003, 4.315421e+000
1.137483e+003, 4.245326e+000
1.137965e+003, 4.238902e+000
1.138448e+003, 4.219388e+000
1.138930e+003, 4.203900e+000
1.139412e+003, 4.284052e+000
1.139894e+003, 4.470066e+000
1.140376e+003, 4.537107e+000
1.140858e+003, 4.415059e+000
1.141340e+003, 4.291412e+000
1.141822e+003, 4.388262e+000
1.142304e+003, 4.530388e+000
1.142787e+003, 4.535462e+000
1.143269e+003, 4.394051e+000
1.143751e+003, 4.347725e+000
1.144233e+003, 4.421677e+000
1.144715e+003, 4.443132e+000
1.145197e+003, 4.325206e+000
1.145679e+003, 4.195861e+000
1.146161e+003, 4.277328e+000
1.146644e+003, 4.421446e+000
1.147126e+003, 4.404360e+000
1.147608e+003, 4.100908e+000
1.148090e+003, 4.022657e+000
1.148572e+003, 4.253335e+000
1.149054e+003, 4.470334e+000
1.149536e+003, 4.519127e+000
1.150018e+003, 4.456325e+000
1.150500e+003, 4.320149e+000
1.150983e+003, 4.161314e+000
1.151465e+003, 4.082082e+000
1.151947e+003, 4.149024e+000
1.152429e+003, 4.226835e+000
1.152911e+003, 4.330094e+000
1.153393e+003, 4.390046e+000
1.153875e+003, 4.331769e+000
1.154357e+003, 4.204822e+000
1.154840e+003, 4.149523e+000
1.155322e+003, 4.143291e+000
1.155804e+003, 4.116860e+000
1.156286e+003, 3.993145e+000
1.156768e+003, 3.915015e+000
1.157250e+003, 3.876229e+000
1.157732e+003, 3.919177e+000
1.158214e+003, 4.176994e+000
1.158697e+003, 4.554223e+000
1.159179e+003, 4.570589e+000
1.159661e+003, 4.277092e+000
1.160143e+003, 4.036624e+000
1.160625e+003, 4.070500e+000
1.161107e+003, 4.136890e+000
1.161589e+003, 4.177103e+000
1.162071e+003, 4.196716e+000
1.162553e+003, 4.193151e+000
1.163036e+003, 4.172159e+000
1.163518e+003, 4.190280e+000
1.164000e+003, 4.247126e+000
1.164482e+003, 4.264857e+000
1.164964e+003, 4.136636e+000
1.165446e+003, 4.025006e+000
1.165928e+003, 4.040960e+000
1.166410e+003, 4.104984e+000
1.166892e+003, 4.036122e+000
1.167375e+003, 3.850988e+000
1.167857e+003, 3.824218e+000
1.168339e+003, 3.997495e+000
1.168821e+003, 4.181150e+000
1.169303e+003, 4.244280e+000
1.169785e+003, 4.266859e+000
1.170267e+003, 4.290687e+000
1.170749e+003, 4.317861e+000
1.171231e+003, 4.369258e+000
1.171714e+003, 4.444399e+000
1.172196e+003, 4.406232e+000
1.172678e+003, 4.204131e+000
1.173160e+003, 4.034811e+000
1.173642e+003, 4.117259e+000
1.174124e+003, 4.260093e+000
1.174606e+003, 4.313349e+000
1.175088e+003, 4.284566e+000
1.175571e+003, 4.226696e+000
1.176053e+003, 4.137771e+000
1.176535e+003, 4.044800e+000
1.177017e+003, 3.944866e+000
1.177499e+003, 3.877276e+000
1.177981e+003, 3.877728e+000
1.178463e+003, 3.929920e+000
1.178945e+003, 4.049578e+000
1.179427e+003, 4.233659e+000
1.179910e+003, 4.287478e+000
1.180392e+003, 4.194553e+000
1.180874e+003, 4.151553e+000
1.181356e+003, 4.270000e+000
1.181838e+003, 4.378713e+000
1.182320e+003, 4.241484e+000
1.182802e+003, 4.022268e+000
1.183284e+003, 3.916694e+000
1.183767e+003, 3.954763e+000
1.184249e+003, 4.014467e+000
1.184731e+003, 4.102348e+000
1.185213e+003, 4.172917e+000
1.185695e+003, 4.216360e+000
1.186177e+003, 4.213634e+000
1.186659e+003, 4.089330e+000
1.187141e+003, 3.927419e+000
1.187624e+003, 3.860646e+000
1.188106e+003, 3.940919e+000
1.188588e+003, 3.959321e+000
1.189070e+003, 3.896199e+000
1.189552e+003, 3.885616e+000
1.190034e+003, 4.053369e+000
1.190516e+003, 4.262697e+000
1.190998e+003, 4.344245e+000
1.191480e+003, 4.344684e+000
1.191963e+003, 4.345347e+000
1.192445e+003, 4.380831e+000
1.192927e+003, 4.353619e+000
1.193409e+003, 4.252425e+000
1.193891e+003, 4.138914e+000
1.194373e+003, 4.035445e+000
1.194855e+003, 3.958064e+000
1.195337e+003, 3.921997e+000
1.195819e+003, 3.929553e+000
1.196302e+003, 3.995359e+000
1.196784e+003, 4.207784e+000
1.197266e+003, 4.254599e+000
1.197748e+003, 4.093123e+000
1.198230e+003, 3.923505e+000
1.198712e+003, 3.907875e+000
1.199194e+003, 3.978484e+000
1.199676e+003, 4.081452e+000
1.200158e+003, 4.192804e+000
1.200641e+003, 4.248838e+000
1.201123e+003, 4.222275e+000
1.201605e+003, 4.179185e+000
1.202087e+003, 4.116894e+000
1.202569e+003, 4.062941e+000
1.203051e+003, 4.061066e+000
1.203533e+003, 4.070055e+000
1.204015e+003, 4.002362e+000
1.204498e+003, 3.894722e+000
1.204980e+003, 3.888925e+000
1.205462e+003, 4.071205e+000
1.205944e+003, 4.187362e+000
1.206426e+003, 4.209732e+000
1.206908e+003, 4.191796e+000
1.207390e+003, 4.155137e+000
1.207872e+003, 4.131200e+000
1.208354e+003, 4.187606e+000
1.208837e+003, 4.300444e+000
1.209319e+003, 4.349520e+000
1.209801e+003, 4.314817e+000
1.210283e+003, 4.231452e+000
1.210765e+003, 4.087242e+000
1.211247e+003, 3.955074e+000
1.211729e+003, 3.896329e+000
1.212211e+003, 3.901642e+000
1.212694e+003, 3.980461e+000
1.213176e+003, 4.119977e+000
1.213658e+003, 4.254939e+000
1.214140e+003, 4.410663e+000
1.214622e+003, 4.453593e+000
1.215104e+003, 4.339236e+000
1.215586e+003, 4.217409e+000
1.216068e+003, 4.315561e+000
1.216551e+003, 4.454328e+000
1.217033e+003, 4.379338e+000
1.217515e+003, 4.112226e+000
1.217997e+003, 3.950994e+000
1.218479e+003, 3.946097e+000
1.218961e+003, 3.918191e+000
1.219443e+003, 3.820426e+000
1.219925e+003, 3.762077e+000
1.220407e+003, 3.940075e+000
1.220890e+003, 4.173467e+000
1.221372e+003, 4.241732e+000
1.221854e+003, 4.145405e+000
1.222336e+003, 4.083242e+000
1.222818e+003, 4.060724e+000
1.223300e+003, 4.086273e+000
1.223782e+003, 4.168119e+000
1.224264e+003, 4.268168e+000
1.224746e+003, 4.401309e+000
1.225229e+003, 4.489171e+000
1.225711e+003, 4.416545e+000
1.226193e+003, 4.193408e+000
1.226675e+003, 4.036612e+000
1.227157e+003, 3.946747e+000
1.227639e+003, 3.947566e+000
1.228121e+003, 4.065996e+000
1.228603e+003, 4.169084e+000
1.229085e+003, 4.067268e+000
1.229568e+003, 3.918300e+000
1.230050e+003, 3.890152e+000
1.230532e+003, 3.975411e+000
1.231014e+003, 3.980874e+000
1.231496e+003, 3.889211e+000
1.231978e+003, 3.881499e+000
1.232460e+003, 4.013974e+000
1.232942e+003, 4.165194e+000
1.233425e+003, 4.231705e+000
1.233907e+003, 4.254786e+000
1.234389e+003, 4.273675e+000
1.234871e+003, 4.284701e+000
1.235353e+003, 4.236405e+000
1.235835e+003, 4.125132e+000
1.236317e+003, 4.046836e+000
1.236799e+003, 4.024639e+000
1.237281e+003, 4.041558e+000
1.237764e+003, 4.155619e+000
1.238246e+003, 4.240361e+000
1.238728e+003, 4.146255e+000
1.239210e+003, 3.932373e+000
1.239692e+003, 3.850054e+000
1.240174e+003, 3.895784e+000
1.240656e+003, 3.955703e+000
1.241138e+003, 4.009111e+000
1.241621e+003, 4.032872e+000
1.242103e+003, 3.944878e+000
1.242585e+003, 3.886044e+000
1.243067e+003, 3.978161e+000
1.243549e+003, 4.166663e+000
1.244031e+003, 4.254823e+000
1.244513e+003, 4.251715e+000
1.244995e+003, 4.211923e+000
1.245478e+003, 4.137208e+000
1.245960e+003, 4.096559e+000
1.246442e+003, 4.199101e+000
1.246924e+003, 4.272068e+000
1.247406e+003, 4.210797e+000
1.247888e+003, 4.062210e+000
1.248370e+003, 3.966258e+000
1.248852e+003, 3.913618e+000
1.249334e+003, 3.851992e+000
1.249817e+003, 3.759831e+000
1.250299e+003, 3.731517e+000
1.250781e+003, 3.908229e+000
1.251263e+003, 4.040229e+000
1.251745e+003, 3.999722e+000
1.252227e+003, 3.877141e+000
1.252709e+003, 3.880963e+000
1.253191e+003, 3.990790e+000
1.253673e+003, 4.196919e+000
1.254156e+003, 4.534684e+000
1.254638e+003, 4.654311e+000
1.255120e+003, 4.282511e+000
1.255602e+003, 3.910388e+000
1.256084e+003, 3.663514e+000
1.256566e+003, 3.560468e+000
1.257048e+003, 3.750036e+000
1.257530e+003, 4.078566e+000
1.258012e+003, 4.202538e+000
1.258495e+003, 4.038653e+000
1.258977e+003, 3.950486e+000
1.259459e+003, 4.018611e+000
1.259941e+003, 4.106229e+000
1.260423e+003, 4.178241e+000
1.260905e+003, 4.230900e+000
1.261387e+003, 4.262945e+000
1.261869e+003, 4.269267e+000
1.262352e+003, 4.246083e+000
1.262834e+003, 4.191791e+000
1.263316e+003, 4.069571e+000
1.263798e+003, 3.827574e+000
1.264280e+003, 3.722174e+000
1.264762e+003, 3.867037e+000
1.265244e+003, 4.058602e+000
1.265726e+003, 4.033427e+000
1.266208e+003, 3.928963e+000
1.266691e+003, 3.902225e+000
1.267173e+003, 3.966580e+000
1.267655e+003, 4.002077e+000
1.268137e+003, 4.006875e+000
1.268619e+003, 3.997458e+000
1.269101e+003, 3.975047e+000
1.269583e+003, 3.953437e+000
1.270065e+003, 3.950038e+000
1.270548e+003, 3.949557e+000
1.271030e+003, 3.926717e+000
1.271512e+003, 3.893433e+000
1.271994e+003, 3.916633e+000
1.272476e+003, 3.994606e+000
1.272958e+003, 4.053168e+000
1.273440e+003, 4.077355e+000
1.273922e+003, 4.069607e+000
1.274405e+003, 4.001573e+000
1.274887e+003, 3.933216e+000
1.275369e+003, 3.906711e+000
1.275851e+003, 3.902475e+000
1.276333e+003, 3.844422e+000
1.276815e+003, 3.753121e+000
1.277297e+003, 3.749287e+000
1.277779e+003, 3.861608e+000
1.278261e+003, 3.959409e+000
1.278744e+003, 3.962696e+000
1.279226e+003, 3.948514e+000
1.279708e+003, 3.931519e+000
1.280190e+003, 3.931514e+000
1.280672e+003, 4.021710e+000
1.281154e+003, 4.152601e+000
1.281636e+003, 4.183187e+000
1.282118e+003, 4.094444e+000
1.282600e+003, 4.022261e+000
1.283083e+003, 4.007119e+000
1.283565e+003, 4.013770e+000
1.284047e+003, 4.039976e+000
1.284529e+003, 4.072486e+000
1.285011e+003, 4.102549e+000
1.285493e+003, 4.121119e+000
1.285975e+003, 4.096102e+000
1.286457e+003, 4.031930e+000
1.286939e+003, 4.031471e+000
1.287422e+003, 4.123877e+000
1.287904e+003, 4.202908e+000
1.288386e+003, 4.252019e+000
1.288868e+003, 4.265537e+000
1.289350e+003, 4.218505e+000
1.289832e+003, 4.147625e+000
1.290314e+003, 4.075448e+000
1.290796e+003, 4.013461e+000
1.291279e+003, 3.997309e+000
1.291761e+003, 4.032453e+000
1.292243e+003, 4.052310e+000
1.292725e+003, 4.046197e+000
1.293207e+003, 4.046470e+000
1.293689e+003, 4.096899e+000
1.294171e+003, 4.144570e+000
1.294653e+003, 4.144834e+000
1.295135e+003, 4.121822e+000
1.295618e+003, 4.127339e+000
1.296100e+003, 4.153197e+000
1.296582e+003, 4.106603e+000
1.297064e+003, 3.983327e+000
1.297546e+003, 3.864612e+000
1.298028e+003, 3.732040e+000
1.298510e+003, 3.711613e+000
1.298992e+003, 3.891385e+000
1.299475e+003, 4.111619e+000
1.299957e+003, 4.141309e+000
1.300439e+003, 4.046974e+000
1.300921e+003, 4.021883e+000
1.301403e+003, 4.065994e+000
1.301885e+003, 4.100298e+000
##END=



