##NAMES=Boleite
##RRUFFID=R130099
##IDEAL CHEMISTRY=KAg^1+^_9_Pb^2+^_26_Cu^2+^_24_Cl_62_(OH)_48_
##LOCALITY=Rowley mine, Maricopa County, Arizona, USA
##OWNER=RRUFF
##SOURCE=Joe Ruiz
##DESCRIPTION=Blue cubes, associated with blue bladed crystals of mammothite R130100, irregular masses of blue diaboleite, colorless cubes of paralaurianite, colorless gypsum in massive cerussite.
##STATUS=The identification of this mineral has been confirmed only by single crystal X-ray diffraction.
##URL=rruff.info/R130099
8.936163e+001, 0.000000e+000
8.984375e+001, 1.285844e+002
9.032587e+001, 1.298138e+002
9.080798e+001, 1.300806e+002
9.129010e+001, 1.291079e+002
9.177222e+001, 1.274899e+002
9.225433e+001, 1.257786e+002
9.273645e+001, 1.239855e+002
9.321857e+001, 1.223153e+002
9.370068e+001, 1.211045e+002
9.418280e+001, 1.202020e+002
9.466492e+001, 1.191265e+002
9.514703e+001, 1.175980e+002
9.562915e+001, 1.158144e+002
9.611127e+001, 1.142605e+002
9.659338e+001, 1.129478e+002
9.707550e+001, 1.118593e+002
9.755762e+001, 1.111030e+002
9.803973e+001, 1.106848e+002
9.852185e+001, 1.100938e+002
9.900397e+001, 1.089881e+002
9.948608e+001, 1.073455e+002
9.996820e+001, 1.060283e+002
1.004503e+002, 1.051066e+002
1.009324e+002, 1.044157e+002
1.014146e+002, 1.036152e+002
1.018967e+002, 1.026721e+002
1.023788e+002, 1.016936e+002
1.028609e+002, 1.007117e+002
1.033430e+002, 9.971996e+001
1.038251e+002, 9.877542e+001
1.043073e+002, 9.790173e+001
1.047894e+002, 9.708519e+001
1.052715e+002, 9.626612e+001
1.057536e+002, 9.547573e+001
1.062357e+002, 9.464090e+001
1.067178e+002, 9.369070e+001
1.072000e+002, 9.253726e+001
1.076821e+002, 9.140796e+001
1.081642e+002, 9.034663e+001
1.086463e+002, 8.935909e+001
1.091284e+002, 8.835831e+001
1.096105e+002, 8.729156e+001
1.100927e+002, 8.623244e+001
1.105748e+002, 8.526086e+001
1.110569e+002, 8.439037e+001
1.115390e+002, 8.359547e+001
1.120211e+002, 8.293863e+001
1.125032e+002, 8.251571e+001
1.129854e+002, 8.187425e+001
1.134675e+002, 8.069578e+001
1.139496e+002, 7.931405e+001
1.144317e+002, 7.819579e+001
1.149138e+002, 7.755148e+001
1.153959e+002, 7.712975e+001
1.158781e+002, 7.687712e+001
1.163602e+002, 7.695840e+001
1.168423e+002, 7.683557e+001
1.173244e+002, 7.614517e+001
1.178065e+002, 7.508425e+001
1.182886e+002, 7.415421e+001
1.187708e+002, 7.371210e+001
1.192529e+002, 7.340983e+001
1.197350e+002, 7.297130e+001
1.202171e+002, 7.219698e+001
1.206992e+002, 7.142148e+001
1.211813e+002, 7.095654e+001
1.216635e+002, 7.073320e+001
1.221456e+002, 7.038061e+001
1.226277e+002, 6.955149e+001
1.231098e+002, 6.848161e+001
1.235919e+002, 6.748177e+001
1.240740e+002, 6.668609e+001
1.245562e+002, 6.599156e+001
1.250383e+002, 6.525152e+001
1.255204e+002, 6.446326e+001
1.260025e+002, 6.382394e+001
1.264846e+002, 6.374575e+001
1.269667e+002, 6.398032e+001
1.274489e+002, 6.390674e+001
1.279310e+002, 6.298133e+001
1.284131e+002, 6.161101e+001
1.288952e+002, 6.060403e+001
1.293773e+002, 6.001458e+001
1.298594e+002, 5.961763e+001
1.303416e+002, 5.916386e+001
1.308237e+002, 5.866206e+001
1.313058e+002, 5.814570e+001
1.317879e+002, 5.762504e+001
1.322700e+002, 5.710286e+001
1.327521e+002, 5.656875e+001
1.332343e+002, 5.598226e+001
1.337164e+002, 5.545167e+001
1.341985e+002, 5.522206e+001
1.346806e+002, 5.531708e+001
1.351627e+002, 5.540035e+001
1.356448e+002, 5.525414e+001
1.361270e+002, 5.487606e+001
1.366091e+002, 5.442459e+001
1.370912e+002, 5.388094e+001
1.375733e+002, 5.329650e+001
1.380554e+002, 5.281492e+001
1.385375e+002, 5.245220e+001
1.390197e+002, 5.214275e+001
1.395018e+002, 5.181379e+001
1.399839e+002, 5.143977e+001
1.404660e+002, 5.118429e+001
1.409481e+002, 5.113855e+001
1.414302e+002, 5.127293e+001
1.419124e+002, 5.117728e+001
1.423945e+002, 5.076756e+001
1.428766e+002, 5.024622e+001
1.433587e+002, 4.983427e+001
1.438408e+002, 4.966388e+001
1.443229e+002, 4.932605e+001
1.448051e+002, 4.861840e+001
1.452872e+002, 4.741569e+001
1.457693e+002, 4.677174e+001
1.462514e+002, 4.702949e+001
1.467335e+002, 4.762124e+001
1.472156e+002, 4.782451e+001
1.476978e+002, 4.743391e+001
1.481799e+002, 4.690390e+001
1.486620e+002, 4.630550e+001
1.491441e+002, 4.556569e+001
1.496262e+002, 4.496606e+001
1.501083e+002, 4.446496e+001
1.505905e+002, 4.411737e+001
1.510726e+002, 4.402488e+001
1.515547e+002, 4.461451e+001
1.520368e+002, 4.509116e+001
1.525189e+002, 4.519402e+001
1.530010e+002, 4.464449e+001
1.534832e+002, 4.419340e+001
1.539653e+002, 4.402757e+001
1.544474e+002, 4.400037e+001
1.549295e+002, 4.375988e+001
1.554116e+002, 4.289988e+001
1.558937e+002, 4.207886e+001
1.563759e+002, 4.161401e+001
1.568580e+002, 4.184642e+001
1.573401e+002, 4.203521e+001
1.578222e+002, 4.201680e+001
1.583043e+002, 4.183724e+001
1.587864e+002, 4.166619e+001
1.592686e+002, 4.160981e+001
1.597507e+002, 4.154123e+001
1.602328e+002, 4.137969e+001
1.607149e+002, 4.109991e+001
1.611970e+002, 4.073100e+001
1.616791e+002, 4.016235e+001
1.621613e+002, 3.945305e+001
1.626434e+002, 3.894063e+001
1.631255e+002, 3.883611e+001
1.636076e+002, 3.896424e+001
1.640897e+002, 3.916888e+001
1.645718e+002, 3.978252e+001
1.650540e+002, 4.014489e+001
1.655361e+002, 3.972753e+001
1.660182e+002, 3.856213e+001
1.665003e+002, 3.752738e+001
1.669824e+002, 3.712602e+001
1.674645e+002, 3.710962e+001
1.679467e+002, 3.717417e+001
1.684288e+002, 3.718034e+001
1.689109e+002, 3.724067e+001
1.693930e+002, 3.747811e+001
1.698751e+002, 3.790537e+001
1.703572e+002, 3.831611e+001
1.708394e+002, 3.850529e+001
1.713215e+002, 3.859167e+001
1.718036e+002, 3.877242e+001
1.722857e+002, 3.915410e+001
1.727678e+002, 3.966212e+001
1.732499e+002, 4.024694e+001
1.737321e+002, 4.091957e+001
1.742142e+002, 4.159743e+001
1.746963e+002, 4.212588e+001
1.751784e+002, 4.260760e+001
1.756605e+002, 4.328907e+001
1.761426e+002, 4.435081e+001
1.766248e+002, 4.566099e+001
1.771069e+002, 4.707027e+001
1.775890e+002, 4.859236e+001
1.780711e+002, 5.012476e+001
1.785532e+002, 5.144941e+001
1.790353e+002, 5.266697e+001
1.795175e+002, 5.408489e+001
1.799996e+002, 5.596540e+001
1.804817e+002, 5.815782e+001
1.809638e+002, 6.046582e+001
1.814459e+002, 6.293827e+001
1.819280e+002, 6.534168e+001
1.824102e+002, 6.738950e+001
1.828923e+002, 6.908241e+001
1.833744e+002, 7.067078e+001
1.838565e+002, 7.225462e+001
1.843386e+002, 7.384166e+001
1.848207e+002, 7.541521e+001
1.853029e+002, 7.701079e+001
1.857850e+002, 7.855108e+001
1.862671e+002, 7.987251e+001
1.867492e+002, 8.098225e+001
1.872313e+002, 8.215053e+001
1.877134e+002, 8.367530e+001
1.881956e+002, 8.546761e+001
1.886777e+002, 8.698013e+001
1.891598e+002, 8.802085e+001
1.896419e+002, 8.888589e+001
1.901240e+002, 9.028976e+001
1.906061e+002, 9.227477e+001
1.910883e+002, 9.430003e+001
1.915704e+002, 9.592327e+001
1.920525e+002, 9.720309e+001
1.925346e+002, 9.854219e+001
1.930167e+002, 9.992223e+001
1.934988e+002, 1.013984e+002
1.939810e+002, 1.030474e+002
1.944631e+002, 1.048130e+002
1.949452e+002, 1.067054e+002
1.954273e+002, 1.083232e+002
1.959094e+002, 1.096746e+002
1.963915e+002, 1.110391e+002
1.968737e+002, 1.124929e+002
1.973558e+002, 1.139857e+002
1.978379e+002, 1.153423e+002
1.983200e+002, 1.165312e+002
1.988021e+002, 1.177197e+002
1.992842e+002, 1.191040e+002
1.997664e+002, 1.207126e+002
2.002485e+002, 1.221323e+002
2.007306e+002, 1.232582e+002
2.012127e+002, 1.241426e+002
2.016948e+002, 1.250871e+002
2.021769e+002, 1.261127e+002
2.026591e+002, 1.271481e+002
2.031412e+002, 1.281187e+002
2.036233e+002, 1.290296e+002
2.041054e+002, 1.298825e+002
2.045875e+002, 1.306065e+002
2.050696e+002, 1.312435e+002
2.055518e+002, 1.322571e+002
2.060339e+002, 1.337711e+002
2.065160e+002, 1.353722e+002
2.069981e+002, 1.366587e+002
2.074802e+002, 1.376011e+002
2.079623e+002, 1.383292e+002
2.084445e+002, 1.388530e+002
2.089266e+002, 1.391782e+002
2.094087e+002, 1.393758e+002
2.098908e+002, 1.394037e+002
2.103729e+002, 1.393819e+002
2.108550e+002, 1.393674e+002
2.113372e+002, 1.392509e+002
2.118193e+002, 1.395317e+002
2.123014e+002, 1.404996e+002
2.127835e+002, 1.421480e+002
2.132656e+002, 1.432533e+002
2.137477e+002, 1.436408e+002
2.142299e+002, 1.437405e+002
2.147120e+002, 1.440411e+002
2.151941e+002, 1.445941e+002
2.156762e+002, 1.452174e+002
2.161583e+002, 1.459849e+002
2.166404e+002, 1.469288e+002
2.171226e+002, 1.472323e+002
2.176047e+002, 1.465893e+002
2.180868e+002, 1.456717e+002
2.185689e+002, 1.453070e+002
2.190510e+002, 1.456961e+002
2.195331e+002, 1.461742e+002
2.200153e+002, 1.466724e+002
2.204974e+002, 1.472363e+002
2.209795e+002, 1.473258e+002
2.214616e+002, 1.467837e+002
2.219437e+002, 1.459450e+002
2.224258e+002, 1.452553e+002
2.229080e+002, 1.449361e+002
2.233901e+002, 1.443001e+002
2.238722e+002, 1.431185e+002
2.243543e+002, 1.413112e+002
2.248364e+002, 1.395598e+002
2.253185e+002, 1.378324e+002
2.258007e+002, 1.362047e+002
2.262828e+002, 1.347918e+002
2.267649e+002, 1.337813e+002
2.272470e+002, 1.326153e+002
2.277291e+002, 1.310923e+002
2.282112e+002, 1.291015e+002
2.286934e+002, 1.274698e+002
2.291755e+002, 1.264496e+002
2.296576e+002, 1.255646e+002
2.301397e+002, 1.241617e+002
2.306218e+002, 1.218183e+002
2.311039e+002, 1.197106e+002
2.315861e+002, 1.182632e+002
2.320682e+002, 1.176033e+002
2.325503e+002, 1.165442e+002
2.330324e+002, 1.148195e+002
2.335145e+002, 1.129324e+002
2.339966e+002, 1.115343e+002
2.344788e+002, 1.109592e+002
2.349609e+002, 1.102913e+002
2.354430e+002, 1.092237e+002
2.359251e+002, 1.076525e+002
2.364072e+002, 1.064405e+002
2.368893e+002, 1.057919e+002
2.373715e+002, 1.053308e+002
2.378536e+002, 1.045732e+002
2.383357e+002, 1.033041e+002
2.388178e+002, 1.020983e+002
2.392999e+002, 1.011330e+002
2.397820e+002, 1.004674e+002
2.402642e+002, 9.963343e+001
2.407463e+002, 9.854469e+001
2.412284e+002, 9.735640e+001
2.417105e+002, 9.626159e+001
2.421926e+002, 9.532225e+001
2.426747e+002, 9.435917e+001
2.431569e+002, 9.329691e+001
2.436390e+002, 9.209518e+001
2.441211e+002, 9.110917e+001
2.446032e+002, 9.044601e+001
2.450853e+002, 8.989430e+001
2.455674e+002, 8.922031e+001
2.460496e+002, 8.842268e+001
2.465317e+002, 8.750294e+001
2.470138e+002, 8.643222e+001
2.474959e+002, 8.519234e+001
2.479780e+002, 8.395919e+001
2.484601e+002, 8.264879e+001
2.489423e+002, 8.141880e+001
2.494244e+002, 8.045466e+001
2.499065e+002, 7.984824e+001
2.503886e+002, 7.933913e+001
2.508707e+002, 7.895258e+001
2.513528e+002, 7.871331e+001
2.518350e+002, 7.810469e+001
2.523171e+002, 7.695280e+001
2.527992e+002, 7.563023e+001
2.532813e+002, 7.447245e+001
2.537634e+002, 7.340337e+001
2.542455e+002, 7.269863e+001
2.547277e+002, 7.254256e+001
2.552098e+002, 7.294751e+001
2.556919e+002, 7.301499e+001
2.561740e+002, 7.261398e+001
2.566561e+002, 7.203811e+001
2.571382e+002, 7.158565e+001
2.576204e+002, 7.135045e+001
2.581025e+002, 7.098776e+001
2.585846e+002, 7.035470e+001
2.590667e+002, 6.947330e+001
2.595488e+002, 6.894966e+001
2.600309e+002, 6.902694e+001
2.605131e+002, 6.912293e+001
2.609952e+002, 6.866290e+001
2.614773e+002, 6.737877e+001
2.619594e+002, 6.629810e+001
2.624415e+002, 6.568067e+001
2.629236e+002, 6.545932e+001
2.634058e+002, 6.499931e+001
2.638879e+002, 6.425575e+001
2.643700e+002, 6.334376e+001
2.648521e+002, 6.224488e+001
2.653342e+002, 6.080751e+001
2.658163e+002, 5.975137e+001
2.662985e+002, 5.931721e+001
2.667806e+002, 5.937044e+001
2.672627e+002, 5.910687e+001
2.677448e+002, 5.842387e+001
2.682269e+002, 5.764075e+001
2.687090e+002, 5.703036e+001
2.691912e+002, 5.667382e+001
2.696733e+002, 5.607355e+001
2.701554e+002, 5.502507e+001
2.706375e+002, 5.371806e+001
2.711196e+002, 5.301591e+001
2.716017e+002, 5.307998e+001
2.720839e+002, 5.330055e+001
2.725660e+002, 5.325387e+001
2.730481e+002, 5.288567e+001
2.735302e+002, 5.263779e+001
2.740123e+002, 5.263635e+001
2.744944e+002, 5.272668e+001
2.749766e+002, 5.239069e+001
2.754587e+002, 5.152676e+001
2.759408e+002, 5.063969e+001
2.764229e+002, 5.005779e+001
2.769050e+002, 4.979865e+001
2.773871e+002, 4.959164e+001
2.778693e+002, 4.944242e+001
2.783514e+002, 4.930799e+001
2.788335e+002, 4.906989e+001
2.793156e+002, 4.870392e+001
2.797977e+002, 4.836507e+001
2.802798e+002, 4.816156e+001
2.807620e+002, 4.809589e+001
2.812441e+002, 4.795789e+001
2.817262e+002, 4.770287e+001
2.822083e+002, 4.743328e+001
2.826904e+002, 4.736808e+001
2.831725e+002, 4.752269e+001
2.836547e+002, 4.765452e+001
2.841368e+002, 4.758723e+001
2.846189e+002, 4.734907e+001
2.851010e+002, 4.729699e+001
2.855831e+002, 4.747071e+001
2.860652e+002, 4.774006e+001
2.865474e+002, 4.792822e+001
2.870295e+002, 4.803635e+001
2.875116e+002, 4.811725e+001
2.879937e+002, 4.822075e+001
2.884758e+002, 4.832674e+001
2.889579e+002, 4.828520e+001
2.894401e+002, 4.807300e+001
2.899222e+002, 4.783426e+001
2.904043e+002, 4.773746e+001
2.908864e+002, 4.777291e+001
2.913685e+002, 4.786324e+001
2.918506e+002, 4.798615e+001
2.923328e+002, 4.814155e+001
2.928149e+002, 4.835010e+001
2.932970e+002, 4.861958e+001
2.937791e+002, 4.886035e+001
2.942612e+002, 4.883725e+001
2.947433e+002, 4.866160e+001
2.952255e+002, 4.880646e+001
2.957076e+002, 4.963745e+001
2.961897e+002, 5.076721e+001
2.966718e+002, 5.133147e+001
2.971539e+002, 5.134309e+001
2.976360e+002, 5.135776e+001
2.981182e+002, 5.203101e+001
2.986003e+002, 5.307756e+001
2.990824e+002, 5.377256e+001
2.995645e+002, 5.376923e+001
3.000466e+002, 5.348825e+001
3.005287e+002, 5.353810e+001
3.010109e+002, 5.387844e+001
3.014930e+002, 5.422786e+001
3.019751e+002, 5.448910e+001
3.024572e+002, 5.460217e+001
3.029393e+002, 5.442202e+001
3.034214e+002, 5.380910e+001
3.039036e+002, 5.309258e+001
3.043857e+002, 5.269091e+001
3.048678e+002, 5.251188e+001
3.053499e+002, 5.220581e+001
3.058320e+002, 5.147247e+001
3.063141e+002, 5.052798e+001
3.067963e+002, 4.964452e+001
3.072784e+002, 4.887219e+001
3.077605e+002, 4.811912e+001
3.082426e+002, 4.731743e+001
3.087247e+002, 4.647405e+001
3.092068e+002, 4.560609e+001
3.096890e+002, 4.467413e+001
3.101711e+002, 4.374611e+001
3.106532e+002, 4.285816e+001
3.111353e+002, 4.199353e+001
3.116174e+002, 4.128962e+001
3.120995e+002, 4.098791e+001
3.125817e+002, 4.089289e+001
3.130638e+002, 4.068468e+001
3.135459e+002, 4.017084e+001
3.140280e+002, 3.954715e+001
3.145101e+002, 3.886482e+001
3.149922e+002, 3.811790e+001
3.154744e+002, 3.753339e+001
3.159565e+002, 3.737093e+001
3.164386e+002, 3.738562e+001
3.169207e+002, 3.730060e+001
3.174028e+002, 3.693242e+001
3.178849e+002, 3.653655e+001
3.183671e+002, 3.622915e+001
3.188492e+002, 3.600474e+001
3.193313e+002, 3.574914e+001
3.198134e+002, 3.531171e+001
3.202955e+002, 3.488412e+001
3.207776e+002, 3.462323e+001
3.212598e+002, 3.473038e+001
3.217419e+002, 3.482459e+001
3.222240e+002, 3.484794e+001
3.227061e+002, 3.479539e+001
3.231882e+002, 3.464608e+001
3.236703e+002, 3.427222e+001
3.241525e+002, 3.388389e+001
3.246346e+002, 3.360343e+001
3.251167e+002, 3.357286e+001
3.255988e+002, 3.347020e+001
3.260809e+002, 3.311773e+001
3.265630e+002, 3.265924e+001
3.270452e+002, 3.248833e+001
3.275273e+002, 3.298397e+001
3.280094e+002, 3.346614e+001
3.284915e+002, 3.369518e+001
3.289736e+002, 3.356633e+001
3.294557e+002, 3.341228e+001
3.299379e+002, 3.321849e+001
3.304200e+002, 3.300317e+001
3.309021e+002, 3.279061e+001
3.313842e+002, 3.249397e+001
3.318663e+002, 3.231370e+001
3.323484e+002, 3.234042e+001
3.328306e+002, 3.261873e+001
3.333127e+002, 3.280512e+001
3.337948e+002, 3.287754e+001
3.342769e+002, 3.287733e+001
3.347590e+002, 3.282740e+001
3.352411e+002, 3.265158e+001
3.357233e+002, 3.260374e+001
3.362054e+002, 3.278603e+001
3.366875e+002, 3.317900e+001
3.371696e+002, 3.342033e+001
3.376517e+002, 3.345836e+001
3.381339e+002, 3.344526e+001
3.386160e+002, 3.350773e+001
3.390981e+002, 3.366413e+001
3.395802e+002, 3.380009e+001
3.400623e+002, 3.387500e+001
3.405444e+002, 3.392951e+001
3.410266e+002, 3.413590e+001
3.415087e+002, 3.454069e+001
3.419908e+002, 3.488513e+001
3.424729e+002, 3.495013e+001
3.429550e+002, 3.473681e+001
3.434371e+002, 3.468446e+001
3.439193e+002, 3.489235e+001
3.444014e+002, 3.515267e+001
3.448835e+002, 3.502000e+001
3.453656e+002, 3.449774e+001
3.458477e+002, 3.402382e+001
3.463298e+002, 3.382516e+001
3.468120e+002, 3.385801e+001
3.472941e+002, 3.395425e+001
3.477762e+002, 3.411625e+001
3.482583e+002, 3.431453e+001
3.487404e+002, 3.451330e+001
3.492225e+002, 3.471813e+001
3.497047e+002, 3.495264e+001
3.501868e+002, 3.524780e+001
3.506689e+002, 3.556736e+001
3.511510e+002, 3.587178e+001
3.516331e+002, 3.615841e+001
3.521152e+002, 3.638060e+001
3.525974e+002, 3.640114e+001
3.530795e+002, 3.634113e+001
3.535616e+002, 3.643530e+001
3.540437e+002, 3.681241e+001
3.545258e+002, 3.728435e+001
3.550079e+002, 3.766841e+001
3.554901e+002, 3.798246e+001
3.559722e+002, 3.831395e+001
3.564543e+002, 3.872895e+001
3.569364e+002, 3.918249e+001
3.574185e+002, 3.963008e+001
3.579006e+002, 4.005338e+001
3.583828e+002, 4.049652e+001
3.588649e+002, 4.101889e+001
3.593470e+002, 4.158348e+001
3.598291e+002, 4.211959e+001
3.603112e+002, 4.257504e+001
3.607933e+002, 4.300819e+001
3.612755e+002, 4.345950e+001
3.617576e+002, 4.393585e+001
3.622397e+002, 4.440376e+001
3.627218e+002, 4.500005e+001
3.632039e+002, 4.552768e+001
3.636860e+002, 4.576685e+001
3.641682e+002, 4.552159e+001
3.646503e+002, 4.511199e+001
3.651324e+002, 4.456770e+001
3.656145e+002, 4.389742e+001
3.660966e+002, 4.332110e+001
3.665787e+002, 4.309742e+001
3.670609e+002, 4.284005e+001
3.675430e+002, 4.230150e+001
3.680251e+002, 4.115968e+001
3.685072e+002, 4.008606e+001
3.689893e+002, 3.920759e+001
3.694714e+002, 3.844810e+001
3.699536e+002, 3.757041e+001
3.704357e+002, 3.634006e+001
3.709178e+002, 3.523701e+001
3.713999e+002, 3.450975e+001
3.718820e+002, 3.441719e+001
3.723641e+002, 3.400028e+001
3.728463e+002, 3.309373e+001
3.733284e+002, 3.197673e+001
3.738105e+002, 3.105872e+001
3.742926e+002, 3.035547e+001
3.747747e+002, 2.981596e+001
3.752568e+002, 2.944507e+001
3.757390e+002, 2.924307e+001
3.762211e+002, 2.909484e+001
3.767032e+002, 2.904449e+001
3.771853e+002, 2.895147e+001
3.776674e+002, 2.862769e+001
3.781495e+002, 2.803431e+001
3.786317e+002, 2.754208e+001
3.791138e+002, 2.721317e+001
3.795959e+002, 2.703349e+001
3.800780e+002, 2.702962e+001
3.805601e+002, 2.722750e+001
3.810422e+002, 2.731163e+001
3.815244e+002, 2.695125e+001
3.820065e+002, 2.624344e+001
3.824886e+002, 2.573304e+001
3.829707e+002, 2.546952e+001
3.834528e+002, 2.541857e+001
3.839349e+002, 2.568090e+001
3.844171e+002, 2.617874e+001
3.848992e+002, 2.649060e+001
3.853813e+002, 2.628906e+001
3.858634e+002, 2.581129e+001
3.863455e+002, 2.544801e+001
3.868276e+002, 2.521445e+001
3.873098e+002, 2.503240e+001
3.877919e+002, 2.481623e+001
3.882740e+002, 2.460450e+001
3.887561e+002, 2.447316e+001
3.892382e+002, 2.454917e+001
3.897203e+002, 2.461270e+001
3.902025e+002, 2.440417e+001
3.906846e+002, 2.398948e+001
3.911667e+002, 2.367591e+001
3.916488e+002, 2.380816e+001
3.921309e+002, 2.402394e+001
3.926130e+002, 2.398221e+001
3.930952e+002, 2.346446e+001
3.935773e+002, 2.302636e+001
3.940594e+002, 2.302720e+001
3.945415e+002, 2.326048e+001
3.950236e+002, 2.334278e+001
3.955057e+002, 2.297381e+001
3.959879e+002, 2.259373e+001
3.964700e+002, 2.240879e+001
3.969521e+002, 2.247553e+001
3.974342e+002, 2.246231e+001
3.979163e+002, 2.219263e+001
3.983984e+002, 2.188073e+001
3.988806e+002, 2.172204e+001
3.993627e+002, 2.188225e+001
3.998448e+002, 2.202387e+001
4.003269e+002, 2.217019e+001
4.008090e+002, 2.229500e+001
4.012911e+002, 2.217888e+001
4.017733e+002, 2.156574e+001
4.022554e+002, 2.101307e+001
4.027375e+002, 2.084206e+001
4.032196e+002, 2.126563e+001
4.037017e+002, 2.153161e+001
4.041838e+002, 2.157802e+001
4.046660e+002, 2.150251e+001
4.051481e+002, 2.150136e+001
4.056302e+002, 2.161004e+001
4.061123e+002, 2.165946e+001
4.065944e+002, 2.154904e+001
4.070765e+002, 2.129170e+001
4.075587e+002, 2.119721e+001
4.080408e+002, 2.129404e+001
4.085229e+002, 2.144135e+001
4.090050e+002, 2.148973e+001
4.094871e+002, 2.144589e+001
4.099692e+002, 2.141512e+001
4.104514e+002, 2.142471e+001
4.109335e+002, 2.145489e+001
4.114156e+002, 2.146206e+001
4.118977e+002, 2.144831e+001
4.123798e+002, 2.144004e+001
4.128619e+002, 2.149222e+001
4.133441e+002, 2.155554e+001
4.138262e+002, 2.150843e+001
4.143083e+002, 2.131401e+001
4.147904e+002, 2.112590e+001
4.152725e+002, 2.110849e+001
4.157546e+002, 2.120717e+001
4.162368e+002, 2.130832e+001
4.167189e+002, 2.137719e+001
4.172010e+002, 2.141620e+001
4.176831e+002, 2.145625e+001
4.181652e+002, 2.149049e+001
4.186473e+002, 2.141928e+001
4.191295e+002, 2.105903e+001
4.196116e+002, 2.063363e+001
4.200937e+002, 2.034817e+001
4.205758e+002, 2.029963e+001
4.210579e+002, 2.032215e+001
4.215400e+002, 2.041728e+001
4.220222e+002, 2.054454e+001
4.225043e+002, 2.060672e+001
4.229864e+002, 2.056745e+001
4.234685e+002, 2.047134e+001
4.239506e+002, 2.029288e+001
4.244327e+002, 1.994896e+001
4.249149e+002, 1.981283e+001
4.253970e+002, 2.008666e+001
4.258791e+002, 2.046737e+001
4.263612e+002, 2.065302e+001
4.268433e+002, 2.050849e+001
4.273254e+002, 2.037748e+001
4.278076e+002, 2.029062e+001
4.282897e+002, 2.025260e+001
4.287718e+002, 2.032047e+001
4.292539e+002, 2.054699e+001
4.297360e+002, 2.076949e+001
4.302181e+002, 2.087114e+001
4.307003e+002, 2.082531e+001
4.311824e+002, 2.084026e+001
4.316645e+002, 2.093970e+001
4.321466e+002, 2.107657e+001
4.326287e+002, 2.119254e+001
4.331108e+002, 2.128801e+001
4.335930e+002, 2.129806e+001
4.340751e+002, 2.108401e+001
4.345572e+002, 2.078051e+001
4.350393e+002, 2.093815e+001
4.355214e+002, 2.156838e+001
4.360035e+002, 2.218703e+001
4.364857e+002, 2.226617e+001
4.369678e+002, 2.200097e+001
4.374499e+002, 2.185553e+001
4.379320e+002, 2.192265e+001
4.384141e+002, 2.216177e+001
4.388962e+002, 2.266461e+001
4.393784e+002, 2.332702e+001
4.398605e+002, 2.384365e+001
4.403426e+002, 2.387158e+001
4.408247e+002, 2.379622e+001
4.413068e+002, 2.397141e+001
4.417889e+002, 2.444511e+001
4.422711e+002, 2.491346e+001
4.427532e+002, 2.518325e+001
4.432353e+002, 2.538456e+001
4.437174e+002, 2.565247e+001
4.441995e+002, 2.608716e+001
4.446816e+002, 2.652751e+001
4.451638e+002, 2.691912e+001
4.456459e+002, 2.727464e+001
4.461280e+002, 2.767029e+001
4.466101e+002, 2.814066e+001
4.470922e+002, 2.863342e+001
4.475743e+002, 2.912977e+001
4.480565e+002, 2.962244e+001
4.485386e+002, 3.011031e+001
4.490207e+002, 3.043430e+001
4.495028e+002, 3.085145e+001
4.499849e+002, 3.175201e+001
4.504670e+002, 3.347039e+001
4.509492e+002, 3.491734e+001
4.514313e+002, 3.572603e+001
4.519134e+002, 3.602488e+001
4.523955e+002, 3.675941e+001
4.528776e+002, 3.799959e+001
4.533597e+002, 3.938198e+001
4.538419e+002, 4.072873e+001
4.543240e+002, 4.202556e+001
4.548061e+002, 4.312294e+001
4.552882e+002, 4.399581e+001
4.557703e+002, 4.467345e+001
4.562524e+002, 4.519427e+001
4.567346e+002, 4.555573e+001
4.572167e+002, 4.569958e+001
4.576988e+002, 4.554179e+001
4.581809e+002, 4.518322e+001
4.586630e+002, 4.483626e+001
4.591451e+002, 4.449102e+001
4.596273e+002, 4.394511e+001
4.601094e+002, 4.292790e+001
4.605915e+002, 4.166373e+001
4.610736e+002, 4.043987e+001
4.615557e+002, 3.930608e+001
4.620378e+002, 3.822390e+001
4.625200e+002, 3.721265e+001
4.630021e+002, 3.622634e+001
4.634842e+002, 3.519564e+001
4.639663e+002, 3.398454e+001
4.644484e+002, 3.281125e+001
4.649305e+002, 3.178718e+001
4.654127e+002, 3.091805e+001
4.658948e+002, 3.017385e+001
4.663769e+002, 2.951289e+001
4.668590e+002, 2.900407e+001
4.673411e+002, 2.870327e+001
4.678232e+002, 2.905939e+001
4.683054e+002, 2.901583e+001
4.687875e+002, 2.828275e+001
4.692696e+002, 2.717688e+001
4.697517e+002, 2.649653e+001
4.702338e+002, 2.645011e+001
4.707159e+002, 2.645167e+001
4.711981e+002, 2.628312e+001
4.716802e+002, 2.593401e+001
4.721623e+002, 2.568885e+001
4.726444e+002, 2.556582e+001
4.731265e+002, 2.550381e+001
4.736086e+002, 2.546093e+001
4.740908e+002, 2.543650e+001
4.745729e+002, 2.539936e+001
4.750550e+002, 2.535449e+001
4.755371e+002, 2.527703e+001
4.760192e+002, 2.505418e+001
4.765013e+002, 2.471470e+001
4.769835e+002, 2.449035e+001
4.774656e+002, 2.460092e+001
4.779477e+002, 2.487403e+001
4.784298e+002, 2.501233e+001
4.789119e+002, 2.499919e+001
4.793940e+002, 2.499754e+001
4.798762e+002, 2.518505e+001
4.803583e+002, 2.544577e+001
4.808404e+002, 2.562580e+001
4.813225e+002, 2.565307e+001
4.818046e+002, 2.563096e+001
4.822867e+002, 2.558877e+001
4.827689e+002, 2.553706e+001
4.832510e+002, 2.550244e+001
4.837331e+002, 2.551757e+001
4.842152e+002, 2.553208e+001
4.846973e+002, 2.551014e+001
4.851794e+002, 2.543067e+001
4.856616e+002, 2.541254e+001
4.861437e+002, 2.546233e+001
4.866258e+002, 2.558029e+001
4.871079e+002, 2.578981e+001
4.875900e+002, 2.629005e+001
4.880721e+002, 2.650557e+001
4.885543e+002, 2.622222e+001
4.890364e+002, 2.567299e+001
4.895185e+002, 2.558946e+001
4.900006e+002, 2.612963e+001
4.904827e+002, 2.663356e+001
4.909648e+002, 2.677312e+001
4.914470e+002, 2.657081e+001
4.919291e+002, 2.647280e+001
4.924112e+002, 2.648929e+001
4.928933e+002, 2.656474e+001
4.933754e+002, 2.670934e+001
4.938575e+002, 2.688402e+001
4.943397e+002, 2.688700e+001
4.948218e+002, 2.661714e+001
4.953039e+002, 2.626740e+001
4.957860e+002, 2.605853e+001
4.962681e+002, 2.598682e+001
4.967502e+002, 2.603905e+001
4.972324e+002, 2.633691e+001
4.977145e+002, 2.667502e+001
4.981966e+002, 2.685938e+001
4.986787e+002, 2.688050e+001
4.991608e+002, 2.684418e+001
4.996429e+002, 2.681328e+001
5.001251e+002, 2.674670e+001
5.006072e+002, 2.660431e+001
5.010893e+002, 2.632356e+001
5.015714e+002, 2.604175e+001
5.020535e+002, 2.574568e+001
5.025356e+002, 2.546895e+001
5.030178e+002, 2.528789e+001
5.034999e+002, 2.544314e+001
5.039820e+002, 2.542969e+001
5.044641e+002, 2.502714e+001
5.049462e+002, 2.420843e+001
5.054283e+002, 2.374670e+001
5.059105e+002, 2.384096e+001
5.063926e+002, 2.399007e+001
5.068747e+002, 2.376595e+001
5.073568e+002, 2.309071e+001
5.078389e+002, 2.259007e+001
5.083210e+002, 2.235131e+001
5.088032e+002, 2.226984e+001
5.092853e+002, 2.220786e+001
5.097674e+002, 2.216103e+001
5.102495e+002, 2.205871e+001
5.107316e+002, 2.185158e+001
5.112137e+002, 2.157663e+001
5.116959e+002, 2.127853e+001
5.121780e+002, 2.096567e+001
5.126601e+002, 2.071731e+001
5.131422e+002, 2.069989e+001
5.136243e+002, 2.073887e+001
5.141064e+002, 2.058899e+001
5.145886e+002, 2.016387e+001
5.150707e+002, 1.971000e+001
5.155528e+002, 1.930106e+001
5.160349e+002, 1.898112e+001
5.165170e+002, 1.880656e+001
5.169991e+002, 1.901635e+001
5.174813e+002, 1.915156e+001
5.179634e+002, 1.901019e+001
5.184455e+002, 1.862734e+001
5.189276e+002, 1.830972e+001
5.194097e+002, 1.812359e+001
5.198918e+002, 1.798593e+001
5.203740e+002, 1.787024e+001
5.208561e+002, 1.777969e+001
5.213382e+002, 1.769880e+001
5.218203e+002, 1.763049e+001
5.223024e+002, 1.756783e+001
5.227845e+002, 1.750912e+001
5.232667e+002, 1.746106e+001
5.237488e+002, 1.736885e+001
5.242309e+002, 1.719664e+001
5.247130e+002, 1.699770e+001
5.251951e+002, 1.693760e+001
5.256772e+002, 1.701237e+001
5.261594e+002, 1.704676e+001
5.266415e+002, 1.689254e+001
5.271236e+002, 1.663574e+001
5.276057e+002, 1.646515e+001
5.280878e+002, 1.638770e+001
5.285699e+002, 1.636673e+001
5.290521e+002, 1.643604e+001
5.295342e+002, 1.652315e+001
5.300163e+002, 1.652542e+001
5.304984e+002, 1.637901e+001
5.309805e+002, 1.621153e+001
5.314626e+002, 1.604720e+001
5.319448e+002, 1.591642e+001
5.324269e+002, 1.587817e+001
5.329090e+002, 1.606286e+001
5.333911e+002, 1.623133e+001
5.338732e+002, 1.629767e+001
5.343553e+002, 1.625439e+001
5.348375e+002, 1.620702e+001
5.353196e+002, 1.617277e+001
5.358017e+002, 1.612066e+001
5.362838e+002, 1.603615e+001
5.367659e+002, 1.592163e+001
5.372480e+002, 1.574499e+001
5.377302e+002, 1.545005e+001
5.382123e+002, 1.516953e+001
5.386944e+002, 1.518146e+001
5.391765e+002, 1.551987e+001
5.396586e+002, 1.564356e+001
5.401407e+002, 1.531556e+001
5.406229e+002, 1.476010e+001
5.411050e+002, 1.451482e+001
5.415871e+002, 1.455991e+001
5.420692e+002, 1.469602e+001
5.425513e+002, 1.485430e+001
5.430334e+002, 1.500513e+001
5.435156e+002, 1.511211e+001
5.439977e+002, 1.517460e+001
5.444798e+002, 1.517031e+001
5.449619e+002, 1.501501e+001
5.454440e+002, 1.481261e+001
5.459261e+002, 1.468068e+001
5.464083e+002, 1.471720e+001
5.468904e+002, 1.473169e+001
5.473725e+002, 1.464194e+001
5.478546e+002, 1.448648e+001
5.483367e+002, 1.434624e+001
5.488188e+002, 1.416423e+001
5.493010e+002, 1.407436e+001
5.497831e+002, 1.415045e+001
5.502652e+002, 1.438885e+001
5.507473e+002, 1.452670e+001
5.512294e+002, 1.454717e+001
5.517115e+002, 1.449541e+001
5.521937e+002, 1.439088e+001
5.526758e+002, 1.423008e+001
5.531579e+002, 1.403896e+001
5.536400e+002, 1.380145e+001
5.541221e+002, 1.358200e+001
5.546042e+002, 1.344479e+001
5.550864e+002, 1.339430e+001
5.555685e+002, 1.347611e+001
5.560506e+002, 1.377464e+001
5.565327e+002, 1.411861e+001
5.570148e+002, 1.425421e+001
5.574969e+002, 1.421923e+001
5.579791e+002, 1.415588e+001
5.584612e+002, 1.410069e+001
5.589433e+002, 1.408114e+001
5.594254e+002, 1.417438e+001
5.599075e+002, 1.438864e+001
5.603896e+002, 1.447022e+001
5.608718e+002, 1.418860e+001
5.613539e+002, 1.381212e+001
5.618360e+002, 1.353616e+001
5.623181e+002, 1.339316e+001
5.628002e+002, 1.334928e+001
5.632823e+002, 1.344415e+001
5.637645e+002, 1.361481e+001
5.642466e+002, 1.377411e+001
5.647287e+002, 1.393820e+001
5.652108e+002, 1.405072e+001
5.656929e+002, 1.409101e+001
5.661750e+002, 1.407062e+001
5.666572e+002, 1.402192e+001
5.671393e+002, 1.393430e+001
5.676214e+002, 1.389723e+001
5.681035e+002, 1.406537e+001
5.685856e+002, 1.433977e+001
5.690677e+002, 1.426956e+001
5.695499e+002, 1.381887e+001
5.700320e+002, 1.336502e+001
5.705141e+002, 1.328324e+001
5.709962e+002, 1.343258e+001
5.714783e+002, 1.359560e+001
5.719604e+002, 1.374716e+001
5.724426e+002, 1.384406e+001
5.729247e+002, 1.385993e+001
5.734068e+002, 1.380303e+001
5.738889e+002, 1.368833e+001
5.743710e+002, 1.334843e+001
5.748531e+002, 1.312539e+001
5.753353e+002, 1.324078e+001
5.758174e+002, 1.365845e+001
5.762995e+002, 1.383098e+001
5.767816e+002, 1.355987e+001
5.772637e+002, 1.326116e+001
5.777458e+002, 1.311473e+001
5.782280e+002, 1.314920e+001
5.787101e+002, 1.319392e+001
5.791922e+002, 1.325244e+001
5.796743e+002, 1.331340e+001
5.801564e+002, 1.340099e+001
5.806385e+002, 1.350717e+001
5.811207e+002, 1.345367e+001
5.816028e+002, 1.315953e+001
5.820849e+002, 1.280669e+001
5.825670e+002, 1.265404e+001
5.830491e+002, 1.267267e+001
5.835313e+002, 1.276347e+001
5.840134e+002, 1.295128e+001
5.844955e+002, 1.313949e+001
5.849776e+002, 1.325094e+001
5.854597e+002, 1.328710e+001
5.859418e+002, 1.325992e+001
5.864240e+002, 1.305341e+001
5.869061e+002, 1.287895e+001
5.873882e+002, 1.289962e+001
5.878703e+002, 1.322007e+001
5.883524e+002, 1.338953e+001
5.888345e+002, 1.320434e+001
5.893167e+002, 1.294564e+001
5.897988e+002, 1.282901e+001
5.902809e+002, 1.290003e+001
5.907630e+002, 1.301845e+001
5.912451e+002, 1.320317e+001
5.917272e+002, 1.340174e+001
5.922094e+002, 1.351106e+001
5.926915e+002, 1.352646e+001
5.931736e+002, 1.351490e+001
5.936557e+002, 1.350246e+001
5.941378e+002, 1.347546e+001
5.946199e+002, 1.338559e+001
5.951021e+002, 1.324101e+001
5.955842e+002, 1.310168e+001
5.960663e+002, 1.295102e+001
5.965484e+002, 1.285668e+001
5.970305e+002, 1.296561e+001
5.975126e+002, 1.329955e+001
5.979948e+002, 1.351088e+001
5.984769e+002, 1.321952e+001
5.989590e+002, 1.282269e+001
5.994411e+002, 1.266953e+001
5.999232e+002, 1.300789e+001
6.004053e+002, 1.329347e+001
6.008875e+002, 1.346148e+001
6.013696e+002, 1.352575e+001
6.018517e+002, 1.348532e+001
6.023338e+002, 1.324964e+001
6.028159e+002, 1.309540e+001
6.032980e+002, 1.310870e+001
6.037802e+002, 1.322817e+001
6.042623e+002, 1.322215e+001
6.047444e+002, 1.307885e+001
6.052265e+002, 1.291122e+001
6.057086e+002, 1.274914e+001
6.061907e+002, 1.260869e+001
6.066729e+002, 1.254994e+001
6.071550e+002, 1.257190e+001
6.076371e+002, 1.263514e+001
6.081192e+002, 1.274779e+001
6.086013e+002, 1.286660e+001
6.090834e+002, 1.292896e+001
6.095656e+002, 1.291645e+001
6.100477e+002, 1.288531e+001
6.105298e+002, 1.285652e+001
6.110119e+002, 1.283032e+001
6.114940e+002, 1.280664e+001
6.119761e+002, 1.273552e+001
6.124583e+002, 1.272799e+001
6.129404e+002, 1.285868e+001
6.134225e+002, 1.305538e+001
6.139046e+002, 1.316238e+001
6.143867e+002, 1.315928e+001
6.148688e+002, 1.309995e+001
6.153510e+002, 1.296374e+001
6.158331e+002, 1.277942e+001
6.163152e+002, 1.274805e+001
6.167973e+002, 1.288300e+001
6.172794e+002, 1.303498e+001
6.177615e+002, 1.311535e+001
6.182437e+002, 1.313289e+001
6.187258e+002, 1.310465e+001
6.192079e+002, 1.302959e+001
6.196900e+002, 1.294322e+001
6.201721e+002, 1.282010e+001
6.206542e+002, 1.272498e+001
6.211364e+002, 1.275256e+001
6.216185e+002, 1.297941e+001
6.221006e+002, 1.320676e+001
6.225827e+002, 1.338832e+001
6.230648e+002, 1.350738e+001
6.235469e+002, 1.354060e+001
6.240291e+002, 1.345007e+001
6.245112e+002, 1.330845e+001
6.249933e+002, 1.306400e+001
6.254754e+002, 1.277914e+001
6.259575e+002, 1.268205e+001
6.264396e+002, 1.282399e+001
6.269218e+002, 1.300568e+001
6.274039e+002, 1.318460e+001
6.278860e+002, 1.334369e+001
6.283681e+002, 1.334464e+001
6.288502e+002, 1.318163e+001
6.293323e+002, 1.301480e+001
6.298145e+002, 1.295552e+001
6.302966e+002, 1.297886e+001
6.307787e+002, 1.305986e+001
6.312608e+002, 1.320268e+001
6.317429e+002, 1.331225e+001
6.322250e+002, 1.326235e+001
6.327072e+002, 1.316670e+001
6.331893e+002, 1.315627e+001
6.336714e+002, 1.335161e+001
6.341535e+002, 1.348321e+001
6.346356e+002, 1.337962e+001
6.351177e+002, 1.319791e+001
6.355999e+002, 1.319995e+001
6.360820e+002, 1.360848e+001
6.365641e+002, 1.383760e+001
6.370462e+002, 1.372486e+001
6.375283e+002, 1.338619e+001
6.380104e+002, 1.320904e+001
6.384926e+002, 1.320984e+001
6.389747e+002, 1.326014e+001
6.394568e+002, 1.332125e+001
6.399389e+002, 1.338482e+001
6.404210e+002, 1.339574e+001
6.409031e+002, 1.335997e+001
6.413853e+002, 1.337694e+001
6.418674e+002, 1.360119e+001
6.423495e+002, 1.387824e+001
6.428316e+002, 1.399014e+001
6.433137e+002, 1.389545e+001
6.437958e+002, 1.383865e+001
6.442780e+002, 1.397884e+001
6.447601e+002, 1.419202e+001
6.452422e+002, 1.437301e+001
6.457243e+002, 1.455577e+001
6.462064e+002, 1.461770e+001
6.466885e+002, 1.447836e+001
6.471707e+002, 1.426476e+001
6.476528e+002, 1.415416e+001
6.481349e+002, 1.418386e+001
6.486170e+002, 1.418181e+001
6.490991e+002, 1.408077e+001
6.495812e+002, 1.396622e+001
6.500634e+002, 1.412219e+001
6.505455e+002, 1.452178e+001
6.510276e+002, 1.475211e+001
6.515097e+002, 1.445250e+001
6.519918e+002, 1.397359e+001
6.524739e+002, 1.390470e+001
6.529561e+002, 1.417870e+001
6.534382e+002, 1.443956e+001
6.539203e+002, 1.444525e+001
6.544024e+002, 1.438938e+001
6.548845e+002, 1.440983e+001
6.553666e+002, 1.452765e+001
6.558488e+002, 1.462302e+001
6.563309e+002, 1.468724e+001
6.568130e+002, 1.470557e+001
6.572951e+002, 1.465162e+001
6.577772e+002, 1.443722e+001
6.582593e+002, 1.440320e+001
6.587415e+002, 1.460843e+001
6.592236e+002, 1.489910e+001
6.597057e+002, 1.511592e+001
6.601878e+002, 1.525876e+001
6.606699e+002, 1.533230e+001
6.611520e+002, 1.531834e+001
6.616342e+002, 1.528001e+001
6.621163e+002, 1.531456e+001
6.625984e+002, 1.539697e+001
6.630805e+002, 1.546118e+001
6.635626e+002, 1.547210e+001
6.640447e+002, 1.546401e+001
6.645269e+002, 1.544636e+001
6.650090e+002, 1.542748e+001
6.654911e+002, 1.543131e+001
6.659732e+002, 1.543263e+001
6.664553e+002, 1.549006e+001
6.669374e+002, 1.566658e+001
6.674196e+002, 1.594956e+001
6.679017e+002, 1.613103e+001
6.683838e+002, 1.615606e+001
6.688659e+002, 1.618635e+001
6.693480e+002, 1.632210e+001
6.698301e+002, 1.656104e+001
6.703123e+002, 1.672637e+001
6.707944e+002, 1.681518e+001
6.712765e+002, 1.685497e+001
6.717586e+002, 1.682981e+001
6.722407e+002, 1.678057e+001
6.727228e+002, 1.681093e+001
6.732050e+002, 1.694609e+001
6.736871e+002, 1.708774e+001
6.741692e+002, 1.711762e+001
6.746513e+002, 1.713236e+001
6.751334e+002, 1.724827e+001
6.756155e+002, 1.758078e+001
6.760977e+002, 1.788815e+001
6.765798e+002, 1.813978e+001
6.770619e+002, 1.832162e+001
6.775440e+002, 1.839485e+001
6.780261e+002, 1.826123e+001
6.785082e+002, 1.823298e+001
6.789904e+002, 1.839757e+001
6.794725e+002, 1.867585e+001
6.799546e+002, 1.884229e+001
6.804367e+002, 1.889266e+001
6.809188e+002, 1.901834e+001
6.814009e+002, 1.934629e+001
6.818831e+002, 1.976891e+001
6.823652e+002, 2.011907e+001
6.828473e+002, 2.039329e+001
6.833294e+002, 2.055666e+001
6.838115e+002, 2.040491e+001
6.842936e+002, 2.027901e+001
6.847758e+002, 2.046143e+001
6.852579e+002, 2.096645e+001
6.857400e+002, 2.148075e+001
6.862221e+002, 2.197649e+001
6.867042e+002, 2.240830e+001
6.871863e+002, 2.273733e+001
6.876685e+002, 2.291488e+001
6.881506e+002, 2.321752e+001
6.886327e+002, 2.371383e+001
6.891148e+002, 2.420530e+001
6.895969e+002, 2.445670e+001
6.900790e+002, 2.449433e+001
6.905612e+002, 2.470756e+001
6.910433e+002, 2.514955e+001
6.915254e+002, 2.569166e+001
6.920075e+002, 2.625811e+001
6.924896e+002, 2.679474e+001
6.929717e+002, 2.717045e+001
6.934539e+002, 2.723078e+001
6.939360e+002, 2.735921e+001
6.944181e+002, 2.789803e+001
6.949002e+002, 2.861494e+001
6.953823e+002, 2.915135e+001
6.958644e+002, 2.915773e+001
6.963466e+002, 2.931013e+001
6.968287e+002, 2.978170e+001
6.973108e+002, 3.044131e+001
6.977929e+002, 3.092475e+001
6.982750e+002, 3.118597e+001
6.987571e+002, 3.145598e+001
6.992393e+002, 3.185248e+001
6.997214e+002, 3.228695e+001
7.002035e+002, 3.249725e+001
7.006856e+002, 3.249131e+001
7.011677e+002, 3.232020e+001
7.016498e+002, 3.178355e+001
7.021320e+002, 3.123888e+001
7.026141e+002, 3.126138e+001
7.030962e+002, 3.177091e+001
7.035783e+002, 3.199019e+001
7.040604e+002, 3.134524e+001
7.045425e+002, 3.048040e+001
7.050247e+002, 2.974865e+001
7.055068e+002, 2.919857e+001
7.059889e+002, 2.864532e+001
7.064710e+002, 2.804735e+001
7.069531e+002, 2.749698e+001
7.074352e+002, 2.709481e+001
7.079174e+002, 2.686775e+001
7.083995e+002, 2.647366e+001
7.088816e+002, 2.587690e+001
7.093637e+002, 2.525943e+001
7.098458e+002, 2.480717e+001
7.103279e+002, 2.448414e+001
7.108101e+002, 2.419569e+001
7.112922e+002, 2.393341e+001
7.117743e+002, 2.367977e+001
7.122564e+002, 2.341087e+001
7.127385e+002, 2.314536e+001
7.132206e+002, 2.290420e+001
7.137028e+002, 2.269147e+001
7.141849e+002, 2.250913e+001
7.146670e+002, 2.243736e+001
7.151491e+002, 2.236599e+001
7.156312e+002, 2.211483e+001
7.161133e+002, 2.157574e+001
7.165955e+002, 2.115957e+001
7.170776e+002, 2.093331e+001
7.175597e+002, 2.087427e+001
7.180418e+002, 2.097342e+001
7.185239e+002, 2.122001e+001
7.190060e+002, 2.150968e+001
7.194882e+002, 2.186807e+001
7.199703e+002, 2.217519e+001
7.204524e+002, 2.220108e+001
7.209345e+002, 2.204263e+001
7.214166e+002, 2.198821e+001
7.218987e+002, 2.232242e+001
7.223809e+002, 2.264930e+001
7.228630e+002, 2.271281e+001
7.233451e+002, 2.255416e+001
7.238272e+002, 2.258401e+001
7.243093e+002, 2.298540e+001
7.247914e+002, 2.332130e+001
7.252736e+002, 2.337941e+001
7.257557e+002, 2.319740e+001
7.262378e+002, 2.326921e+001
7.267199e+002, 2.362038e+001
7.272020e+002, 2.402268e+001
7.276841e+002, 2.433330e+001
7.281663e+002, 2.458807e+001
7.286484e+002, 2.487178e+001
7.291305e+002, 2.518459e+001
7.296126e+002, 2.545289e+001
7.300947e+002, 2.555638e+001
7.305768e+002, 2.564198e+001
7.310590e+002, 2.584217e+001
7.315411e+002, 2.619974e+001
7.320232e+002, 2.653068e+001
7.325053e+002, 2.690073e+001
7.329874e+002, 2.715068e+001
7.334695e+002, 2.713716e+001
7.339517e+002, 2.671692e+001
7.344338e+002, 2.656210e+001
7.349159e+002, 2.672883e+001
7.353980e+002, 2.699745e+001
7.358801e+002, 2.717133e+001
7.363622e+002, 2.725180e+001
7.368444e+002, 2.723685e+001
7.373265e+002, 2.711990e+001
7.378086e+002, 2.694116e+001
7.382907e+002, 2.665842e+001
7.387728e+002, 2.636890e+001
7.392549e+002, 2.620791e+001
7.397371e+002, 2.628490e+001
7.402192e+002, 2.636727e+001
7.407013e+002, 2.652477e+001
7.411834e+002, 2.659155e+001
7.416655e+002, 2.631301e+001
7.421476e+002, 2.540665e+001
7.426298e+002, 2.486844e+001
7.431119e+002, 2.493414e+001
7.435940e+002, 2.526215e+001
7.440761e+002, 2.517220e+001
7.445582e+002, 2.471636e+001
7.450403e+002, 2.445216e+001
7.455225e+002, 2.465071e+001
7.460046e+002, 2.492999e+001
7.464867e+002, 2.471917e+001
7.469688e+002, 2.423475e+001
7.474509e+002, 2.394526e+001
7.479330e+002, 2.425671e+001
7.484152e+002, 2.457580e+001
7.488973e+002, 2.471229e+001
7.493794e+002, 2.467567e+001
7.498615e+002, 2.451467e+001
7.503436e+002, 2.417768e+001
7.508257e+002, 2.380678e+001
7.513079e+002, 2.338187e+001
7.517900e+002, 2.297104e+001
7.522721e+002, 2.292228e+001
7.527542e+002, 2.323507e+001
7.532363e+002, 2.341912e+001
7.537184e+002, 2.306889e+001
7.542006e+002, 2.255448e+001
7.546827e+002, 2.251771e+001
7.551648e+002, 2.285709e+001
7.556469e+002, 2.315105e+001
7.561290e+002, 2.309710e+001
7.566111e+002, 2.301900e+001
7.570933e+002, 2.319854e+001
7.575754e+002, 2.360595e+001
7.580575e+002, 2.361237e+001
7.585396e+002, 2.287653e+001
7.590217e+002, 2.221219e+001
7.595038e+002, 2.195569e+001
7.599860e+002, 2.206907e+001
7.604681e+002, 2.210813e+001
7.609502e+002, 2.207150e+001
7.614323e+002, 2.196809e+001
7.619144e+002, 2.174144e+001
7.623965e+002, 2.147450e+001
7.628787e+002, 2.132130e+001
7.633608e+002, 2.128190e+001
7.638429e+002, 2.129138e+001
7.643250e+002, 2.129067e+001
7.648071e+002, 2.134246e+001
7.652892e+002, 2.153513e+001
7.657714e+002, 2.191312e+001
7.662535e+002, 2.212611e+001
7.667356e+002, 2.215490e+001
7.672177e+002, 2.202219e+001
7.676998e+002, 2.166764e+001
7.681819e+002, 2.105982e+001
7.686641e+002, 2.076188e+001
7.691462e+002, 2.080277e+001
7.696283e+002, 2.095109e+001
7.701104e+002, 2.104009e+001
7.705925e+002, 2.109202e+001
7.710746e+002, 2.117708e+001
7.715568e+002, 2.130601e+001
7.720389e+002, 2.133647e+001
7.725210e+002, 2.104258e+001
7.730031e+002, 2.070645e+001
7.734852e+002, 2.057222e+001
7.739673e+002, 2.077655e+001
7.744495e+002, 2.082805e+001
7.749316e+002, 2.056031e+001
7.754137e+002, 2.031705e+001
7.758958e+002, 2.040240e+001
7.763779e+002, 2.085341e+001
7.768600e+002, 2.114634e+001
7.773422e+002, 2.125331e+001
7.778243e+002, 2.127380e+001
7.783064e+002, 2.134222e+001
7.787885e+002, 2.138730e+001
7.792706e+002, 2.122686e+001
7.797527e+002, 2.079279e+001
7.802349e+002, 2.041772e+001
7.807170e+002, 2.032795e+001
7.811991e+002, 2.037280e+001
7.816812e+002, 2.042029e+001
7.821633e+002, 2.041927e+001
7.826454e+002, 2.050175e+001
7.831276e+002, 2.076358e+001
7.836097e+002, 2.099434e+001
7.840918e+002, 2.091363e+001
7.845739e+002, 2.051275e+001
7.850560e+002, 2.037055e+001
7.855381e+002, 2.058291e+001
7.860203e+002, 2.084555e+001
7.865024e+002, 2.076462e+001
7.869845e+002, 2.051593e+001
7.874666e+002, 2.042591e+001
7.879487e+002, 2.062868e+001
7.884308e+002, 2.078846e+001
7.889130e+002, 2.064057e+001
7.893951e+002, 2.042042e+001
7.898772e+002, 2.037924e+001
7.903593e+002, 2.072582e+001
7.908414e+002, 2.089882e+001
7.913235e+002, 2.084472e+001
7.918057e+002, 2.068189e+001
7.922878e+002, 2.050437e+001
7.927699e+002, 2.031913e+001
7.932520e+002, 2.031631e+001
7.937341e+002, 2.056168e+001
7.942162e+002, 2.081134e+001
7.946984e+002, 2.066323e+001
7.951805e+002, 2.038709e+001
7.956626e+002, 2.046353e+001
7.961447e+002, 2.127441e+001
7.966268e+002, 2.182902e+001
7.971089e+002, 2.158025e+001
7.975911e+002, 2.099328e+001
7.980732e+002, 2.058630e+001
7.985553e+002, 2.038817e+001
7.990374e+002, 2.032502e+001
7.995195e+002, 2.042617e+001
8.000016e+002, 2.060041e+001
8.004838e+002, 2.074550e+001
8.009659e+002, 2.086389e+001
8.014480e+002, 2.098072e+001
8.019301e+002, 2.110996e+001
8.024122e+002, 2.119860e+001
8.028943e+002, 2.113546e+001
8.033765e+002, 2.102239e+001
8.038586e+002, 2.100367e+001
8.043407e+002, 2.122552e+001
8.048228e+002, 2.134171e+001
8.053049e+002, 2.115246e+001
8.057870e+002, 2.089995e+001
8.062692e+002, 2.083062e+001
8.067513e+002, 2.099411e+001
8.072334e+002, 2.113980e+001
8.077155e+002, 2.123496e+001
8.081976e+002, 2.133482e+001
8.086797e+002, 2.152647e+001
8.091619e+002, 2.178069e+001
8.096440e+002, 2.202333e+001
8.101261e+002, 2.225082e+001
8.106082e+002, 2.241623e+001
8.110903e+002, 2.246256e+001
8.115724e+002, 2.243722e+001
8.120546e+002, 2.239080e+001
8.125367e+002, 2.233288e+001
8.130188e+002, 2.224671e+001
8.135009e+002, 2.206257e+001
8.139830e+002, 2.191992e+001
8.144651e+002, 2.203070e+001
8.149473e+002, 2.242263e+001
8.154294e+002, 2.258592e+001
8.159115e+002, 2.243644e+001
8.163936e+002, 2.221286e+001
8.168757e+002, 2.222953e+001
8.173578e+002, 2.235362e+001
8.178400e+002, 2.232877e+001
8.183221e+002, 2.204372e+001
8.188042e+002, 2.180585e+001
8.192863e+002, 2.176150e+001
8.197684e+002, 2.183354e+001
8.202505e+002, 2.196828e+001
8.207327e+002, 2.227314e+001
8.212148e+002, 2.236572e+001
8.216969e+002, 2.216878e+001
8.221790e+002, 2.189732e+001
8.226611e+002, 2.174699e+001
8.231432e+002, 2.171721e+001
8.236254e+002, 2.188644e+001
8.241075e+002, 2.229490e+001
8.245896e+002, 2.261441e+001
8.250717e+002, 2.242216e+001
8.255538e+002, 2.203373e+001
8.260359e+002, 2.183731e+001
8.265181e+002, 2.199306e+001
8.270002e+002, 2.201684e+001
8.274823e+002, 2.160930e+001
8.279644e+002, 2.118601e+001
8.284465e+002, 2.103739e+001
8.289286e+002, 2.124459e+001
8.294108e+002, 2.134406e+001
8.298929e+002, 2.133124e+001
8.303750e+002, 2.122549e+001
8.308571e+002, 2.098781e+001
8.313392e+002, 2.068467e+001
8.318214e+002, 2.043931e+001
8.323035e+002, 2.026532e+001
8.327856e+002, 2.018377e+001
8.332677e+002, 2.035021e+001
8.337498e+002, 2.051456e+001
8.342319e+002, 2.045046e+001
8.347141e+002, 2.003516e+001
8.351962e+002, 1.981674e+001
8.356783e+002, 1.985740e+001
8.361604e+002, 1.998906e+001
8.366425e+002, 2.016443e+001
8.371246e+002, 2.036737e+001
8.376068e+002, 2.029326e+001
8.380889e+002, 1.993864e+001
8.385710e+002, 1.960215e+001
8.390531e+002, 1.954342e+001
8.395352e+002, 1.960571e+001
8.400173e+002, 1.965238e+001
8.404995e+002, 1.967044e+001
8.409816e+002, 1.960411e+001
8.414637e+002, 1.929227e+001
8.419458e+002, 1.903374e+001
8.424279e+002, 1.898745e+001
8.429100e+002, 1.914783e+001
8.433922e+002, 1.919553e+001
8.438743e+002, 1.911445e+001
8.443564e+002, 1.900792e+001
8.448385e+002, 1.894172e+001
8.453206e+002, 1.889264e+001
8.458027e+002, 1.879981e+001
8.462849e+002, 1.867089e+001
8.467670e+002, 1.855114e+001
8.472491e+002, 1.849724e+001
8.477312e+002, 1.843124e+001
8.482133e+002, 1.832514e+001
8.486954e+002, 1.817067e+001
8.491776e+002, 1.792321e+001
8.496597e+002, 1.748202e+001
8.501418e+002, 1.715419e+001
8.506239e+002, 1.708316e+001
8.511060e+002, 1.718092e+001
8.515881e+002, 1.715506e+001
8.520703e+002, 1.701698e+001
8.525524e+002, 1.686012e+001
8.530345e+002, 1.669808e+001
8.535166e+002, 1.657013e+001
8.539987e+002, 1.654364e+001
8.544808e+002, 1.657860e+001
8.549630e+002, 1.657349e+001
8.554451e+002, 1.643263e+001
8.559272e+002, 1.633215e+001
8.564093e+002, 1.634320e+001
8.568914e+002, 1.639849e+001
8.573735e+002, 1.630662e+001
8.578557e+002, 1.604537e+001
8.583378e+002, 1.592716e+001
8.588199e+002, 1.609363e+001
8.593020e+002, 1.631755e+001
8.597841e+002, 1.624721e+001
8.602662e+002, 1.598065e+001
8.607484e+002, 1.571690e+001
8.612305e+002, 1.549553e+001
8.617126e+002, 1.533259e+001
8.621947e+002, 1.526315e+001
8.626768e+002, 1.524757e+001
8.631589e+002, 1.522182e+001
8.636411e+002, 1.515647e+001
8.641232e+002, 1.517692e+001
8.646053e+002, 1.531966e+001
8.650874e+002, 1.548940e+001
8.655695e+002, 1.556920e+001
8.660516e+002, 1.557286e+001
8.665338e+002, 1.555480e+001
8.670159e+002, 1.553502e+001
8.674980e+002, 1.544218e+001
8.679801e+002, 1.509970e+001
8.684622e+002, 1.473102e+001
8.689443e+002, 1.456936e+001
8.694265e+002, 1.479836e+001
8.699086e+002, 1.485886e+001
8.703907e+002, 1.465846e+001
8.708728e+002, 1.443175e+001
8.713549e+002, 1.436920e+001
8.718370e+002, 1.446123e+001
8.723192e+002, 1.463289e+001
8.728013e+002, 1.488663e+001
8.732834e+002, 1.505843e+001
8.737655e+002, 1.494377e+001
8.742476e+002, 1.472631e+001
8.747297e+002, 1.462002e+001
8.752119e+002, 1.464856e+001
8.756940e+002, 1.455180e+001
8.761761e+002, 1.403823e+001
8.766582e+002, 1.363207e+001
8.771403e+002, 1.356653e+001
8.776224e+002, 1.381614e+001
8.781046e+002, 1.406371e+001
8.785867e+002, 1.431201e+001
8.790688e+002, 1.448726e+001
8.795509e+002, 1.455441e+001
8.800330e+002, 1.451293e+001
8.805151e+002, 1.430200e+001
8.809973e+002, 1.396728e+001
8.814794e+002, 1.368241e+001
8.819615e+002, 1.350661e+001
8.824436e+002, 1.340881e+001
8.829257e+002, 1.338703e+001
8.834078e+002, 1.343278e+001
8.838900e+002, 1.357294e+001
8.843721e+002, 1.385816e+001
8.848542e+002, 1.394632e+001
8.853363e+002, 1.366385e+001
8.858184e+002, 1.325662e+001
8.863005e+002, 1.318151e+001
8.867827e+002, 1.332968e+001
8.872648e+002, 1.342007e+001
8.877469e+002, 1.328114e+001
8.882290e+002, 1.316828e+001
8.887111e+002, 1.327608e+001
8.891932e+002, 1.344302e+001
8.896754e+002, 1.343458e+001
8.901575e+002, 1.320308e+001
8.906396e+002, 1.287957e+001
8.911217e+002, 1.240508e+001
8.916038e+002, 1.201133e+001
8.920859e+002, 1.211014e+001
8.925681e+002, 1.252488e+001
8.930502e+002, 1.268908e+001
8.935323e+002, 1.248403e+001
8.940144e+002, 1.222721e+001
8.944965e+002, 1.210512e+001
8.949786e+002, 1.205061e+001
8.954608e+002, 1.201632e+001
8.959429e+002, 1.201369e+001
8.964250e+002, 1.195209e+001
8.969071e+002, 1.177843e+001
8.973892e+002, 1.165328e+001
8.978713e+002, 1.172200e+001
8.983535e+002, 1.194595e+001
8.988356e+002, 1.210891e+001
8.993177e+002, 1.220938e+001
8.997998e+002, 1.224949e+001
9.002819e+002, 1.221045e+001
9.007640e+002, 1.212911e+001
9.012462e+002, 1.200399e+001
9.017283e+002, 1.184771e+001
9.022104e+002, 1.175871e+001
9.026925e+002, 1.175502e+001
9.031746e+002, 1.180768e+001
9.036567e+002, 1.193394e+001
9.041389e+002, 1.209692e+001
9.046210e+002, 1.220667e+001
9.051031e+002, 1.225648e+001
9.055852e+002, 1.217840e+001
9.060673e+002, 1.181238e+001
9.065494e+002, 1.149104e+001
9.070316e+002, 1.157875e+001
9.075137e+002, 1.191043e+001
9.079958e+002, 1.219697e+001
9.084779e+002, 1.244739e+001
9.089600e+002, 1.250897e+001
9.094421e+002, 1.224810e+001
9.099243e+002, 1.192805e+001
9.104064e+002, 1.194969e+001
9.108885e+002, 1.229029e+001
9.113706e+002, 1.254705e+001
9.118527e+002, 1.266592e+001
9.123348e+002, 1.266042e+001
9.128170e+002, 1.239677e+001
9.132991e+002, 1.209456e+001
9.137812e+002, 1.202369e+001
9.142633e+002, 1.228654e+001
9.147454e+002, 1.253706e+001
9.152275e+002, 1.274944e+001
9.157097e+002, 1.290328e+001
9.161918e+002, 1.295229e+001
9.166739e+002, 1.289999e+001
9.171560e+002, 1.300259e+001
9.176381e+002, 1.326052e+001
9.181202e+002, 1.352129e+001
9.186024e+002, 1.366353e+001
9.190845e+002, 1.376360e+001
9.195666e+002, 1.391085e+001
9.200487e+002, 1.409497e+001
9.205308e+002, 1.424924e+001
9.210129e+002, 1.443093e+001
9.214951e+002, 1.447546e+001
9.219772e+002, 1.428967e+001
9.224593e+002, 1.396263e+001
9.229414e+002, 1.376333e+001
9.234235e+002, 1.369120e+001
9.239056e+002, 1.363370e+001
9.243878e+002, 1.353230e+001
9.248699e+002, 1.347447e+001
9.253520e+002, 1.361387e+001
9.258341e+002, 1.384795e+001
9.263162e+002, 1.401933e+001
9.267983e+002, 1.416645e+001
9.272805e+002, 1.410701e+001
9.277626e+002, 1.372610e+001
9.282447e+002, 1.324394e+001
9.287268e+002, 1.288374e+001
9.292089e+002, 1.264752e+001
9.296910e+002, 1.240599e+001
9.301732e+002, 1.214853e+001
9.306553e+002, 1.193150e+001
9.311374e+002, 1.181322e+001
9.316195e+002, 1.176090e+001
9.321016e+002, 1.174775e+001
9.325837e+002, 1.177260e+001
9.330659e+002, 1.179260e+001
9.335480e+002, 1.182019e+001
9.340301e+002, 1.181467e+001
9.345122e+002, 1.176475e+001
9.349943e+002, 1.166764e+001
9.354764e+002, 1.147586e+001
9.359586e+002, 1.119125e+001
9.364407e+002, 1.096988e+001
9.369228e+002, 1.091619e+001
9.374049e+002, 1.093312e+001
9.378870e+002, 1.094323e+001
9.383691e+002, 1.094335e+001
9.388513e+002, 1.092597e+001
9.393334e+002, 1.086427e+001
9.398155e+002, 1.081679e+001
9.402976e+002, 1.078531e+001
9.407797e+002, 1.077791e+001
9.412618e+002, 1.080846e+001
9.417440e+002, 1.087643e+001
9.422261e+002, 1.099875e+001
9.427082e+002, 1.120167e+001
9.431903e+002, 1.133311e+001
9.436724e+002, 1.119220e+001
9.441545e+002, 1.093545e+001
9.446367e+002, 1.070144e+001
9.451188e+002, 1.048860e+001
9.456009e+002, 1.042155e+001
9.460830e+002, 1.058258e+001
9.465651e+002, 1.076459e+001
9.470472e+002, 1.085638e+001
9.475294e+002, 1.086335e+001
9.480115e+002, 1.080108e+001
9.484936e+002, 1.067676e+001
9.489757e+002, 1.057730e+001
9.494578e+002, 1.057434e+001
9.499399e+002, 1.060286e+001
9.504221e+002, 1.064484e+001
9.509042e+002, 1.068083e+001
9.513863e+002, 1.063557e+001
9.518684e+002, 1.046179e+001
9.523505e+002, 1.029048e+001
9.528326e+002, 1.014763e+001
9.533148e+002, 1.001603e+001
9.537969e+002, 9.818918e+000
9.542790e+002, 9.594882e+000
9.547611e+002, 9.525938e+000
9.552432e+002, 9.687601e+000
9.557253e+002, 9.901646e+000
9.562075e+002, 1.004219e+001
9.566896e+002, 1.017051e+001
9.571717e+002, 1.037065e+001
9.576538e+002, 1.072730e+001
9.581359e+002, 1.089357e+001
9.586180e+002, 1.083770e+001
9.591002e+002, 1.066823e+001
9.595823e+002, 1.042615e+001
9.600644e+002, 1.013886e+001
9.605465e+002, 9.822129e+000
9.610286e+002, 9.506330e+000
9.615107e+002, 9.414783e+000
9.619929e+002, 9.965081e+000
9.624750e+002, 1.048243e+001
9.629571e+002, 1.057843e+001
9.634392e+002, 1.034044e+001
9.639213e+002, 1.008728e+001
9.644034e+002, 9.759164e+000
9.648856e+002, 9.701889e+000
9.653677e+002, 1.009322e+001
9.658498e+002, 1.059912e+001
9.663319e+002, 1.069674e+001
9.668140e+002, 1.050518e+001
9.672961e+002, 1.022017e+001
9.677783e+002, 9.751321e+000
9.682604e+002, 9.580897e+000
9.687425e+002, 1.029565e+001
9.692246e+002, 1.107047e+001
9.697067e+002, 1.121294e+001
9.701888e+002, 1.059928e+001
9.706710e+002, 1.022613e+001
9.711531e+002, 1.010555e+001
9.716352e+002, 1.013739e+001
9.721173e+002, 1.035733e+001
9.725994e+002, 1.061705e+001
9.730815e+002, 1.073269e+001
9.735637e+002, 1.070719e+001
9.740458e+002, 1.060745e+001
9.745279e+002, 1.032175e+001
9.750100e+002, 1.013468e+001
9.754921e+002, 1.015573e+001
9.759742e+002, 1.029286e+001
9.764564e+002, 1.027854e+001
9.769385e+002, 1.012765e+001
9.774206e+002, 1.016215e+001
9.779027e+002, 1.054617e+001
9.783848e+002, 1.088466e+001
9.788669e+002, 1.065135e+001
9.793491e+002, 1.022739e+001
9.798312e+002, 1.009532e+001
9.803133e+002, 1.052963e+001
9.807954e+002, 1.076690e+001
9.812775e+002, 1.072101e+001
9.817596e+002, 1.058686e+001
9.822418e+002, 1.047508e+001
9.827239e+002, 1.038998e+001
9.832060e+002, 1.036766e+001
9.836881e+002, 1.040223e+001
9.841702e+002, 1.044213e+001
9.846523e+002, 1.047008e+001
9.851345e+002, 1.047949e+001
9.856166e+002, 1.046850e+001
9.860987e+002, 1.043440e+001
9.865808e+002, 1.035634e+001
9.870629e+002, 1.017745e+001
9.875450e+002, 1.016971e+001
9.880272e+002, 1.045531e+001
9.885093e+002, 1.076689e+001
9.889914e+002, 1.060987e+001
9.894735e+002, 1.019348e+001
9.899556e+002, 9.951913e+000
9.904377e+002, 1.000828e+001
9.909199e+002, 1.011732e+001
9.914020e+002, 1.022659e+001
9.918841e+002, 1.031270e+001
9.923662e+002, 1.037186e+001
9.928483e+002, 1.040516e+001
9.933304e+002, 1.029950e+001
9.938126e+002, 1.004012e+001
9.942947e+002, 9.897766e+000
9.947768e+002, 1.024456e+001
9.952589e+002, 1.065480e+001
9.957410e+002, 1.052647e+001
9.962231e+002, 1.003376e+001
9.967053e+002, 9.683750e+000
9.971874e+002, 9.739504e+000
9.976695e+002, 9.804049e+000
9.981516e+002, 9.836370e+000
9.986337e+002, 9.839600e+000
9.991158e+002, 9.828779e+000
9.995980e+002, 9.797097e+000
1.000080e+003, 9.665856e+000
1.000562e+003, 9.402630e+000
1.001044e+003, 9.221478e+000
1.001526e+003, 9.395599e+000
1.002009e+003, 9.640559e+000
1.002491e+003, 9.697770e+000
1.002973e+003, 9.522674e+000
1.003455e+003, 9.436880e+000
1.003937e+003, 9.456502e+000
1.004419e+003, 9.516044e+000
1.004901e+003, 9.593903e+000
1.005383e+003, 9.685421e+000
1.005865e+003, 9.814289e+000
1.006348e+003, 9.950548e+000
1.006830e+003, 1.001192e+001
1.007312e+003, 9.837475e+000
1.007794e+003, 9.736188e+000
1.008276e+003, 9.851089e+000
1.008758e+003, 1.005670e+001
1.009240e+003, 1.024544e+001
1.009722e+003, 1.042286e+001
1.010205e+003, 1.050456e+001
1.010687e+003, 1.048092e+001
1.011169e+003, 1.040837e+001
1.011651e+003, 1.033363e+001
1.012133e+003, 1.023987e+001
1.012615e+003, 1.009337e+001
1.013097e+003, 9.896938e+000
1.013579e+003, 9.726458e+000
1.014061e+003, 9.581405e+000
1.014544e+003, 9.476063e+000
1.015026e+003, 9.386875e+000
1.015508e+003, 9.368509e+000
1.015990e+003, 9.635022e+000
1.016472e+003, 1.010674e+001
1.016954e+003, 1.045978e+001
1.017436e+003, 1.059630e+001
1.017918e+003, 1.059689e+001
1.018401e+003, 1.041334e+001
1.018883e+003, 1.018096e+001
1.019365e+003, 1.003529e+001
1.019847e+003, 9.995701e+000
1.020329e+003, 9.974072e+000
1.020811e+003, 9.981602e+000
1.021293e+003, 9.946295e+000
1.021775e+003, 9.715742e+000
1.022257e+003, 9.466478e+000
1.022740e+003, 9.529164e+000
1.023222e+003, 9.830347e+000
1.023704e+003, 1.007557e+001
1.024186e+003, 1.015993e+001
1.024668e+003, 1.016735e+001
1.025150e+003, 1.008460e+001
1.025632e+003, 9.970078e+000
1.026114e+003, 9.944732e+000
1.026596e+003, 9.992046e+000
1.027079e+003, 9.929744e+000
1.027561e+003, 9.710612e+000
1.028043e+003, 9.534637e+000
1.028525e+003, 9.606983e+000
1.029007e+003, 9.762813e+000
1.029489e+003, 9.888457e+000
1.029971e+003, 9.974208e+000
1.030453e+003, 9.899515e+000
1.030936e+003, 9.566311e+000
1.031418e+003, 9.414015e+000
1.031900e+003, 9.712659e+000
1.032382e+003, 1.021232e+001
1.032864e+003, 1.048191e+001
1.033346e+003, 1.054870e+001
1.033828e+003, 1.046493e+001
1.034310e+003, 1.014072e+001
1.034792e+003, 9.835749e+000
1.035275e+003, 9.564012e+000
1.035757e+003, 9.379856e+000
1.036239e+003, 9.379656e+000
1.036721e+003, 9.563420e+000
1.037203e+003, 9.583069e+000
1.037685e+003, 9.428611e+000
1.038167e+003, 9.244899e+000
1.038649e+003, 9.092318e+000
1.039132e+003, 8.993389e+000
1.039614e+003, 8.963926e+000
1.040096e+003, 9.005316e+000
1.040578e+003, 9.126635e+000
1.041060e+003, 9.414018e+000
1.041542e+003, 9.544859e+000
1.042024e+003, 9.434237e+000
1.042506e+003, 9.200360e+000
1.042989e+003, 8.952518e+000
1.043471e+003, 8.730395e+000
1.043953e+003, 8.621123e+000
1.044435e+003, 8.649404e+000
1.044917e+003, 8.733902e+000
1.045399e+003, 9.010060e+000
1.045881e+003, 9.152291e+000
1.046363e+003, 8.909153e+000
1.046845e+003, 8.365053e+000
1.047328e+003, 8.249683e+000
1.047810e+003, 8.538381e+000
1.048292e+003, 8.824221e+000
1.048774e+003, 8.925006e+000
1.049256e+003, 8.944524e+000
1.049738e+003, 8.913140e+000
1.050220e+003, 8.874488e+000
1.050702e+003, 8.912703e+000
1.051184e+003, 9.144550e+000
1.051667e+003, 9.146613e+000
1.052149e+003, 8.831362e+000
1.052631e+003, 8.545401e+000
1.053113e+003, 8.656286e+000
1.053595e+003, 8.983079e+000
1.054077e+003, 9.190951e+000
1.054559e+003, 9.274188e+000
1.055041e+003, 9.312850e+000
1.055523e+003, 9.265306e+000
1.056006e+003, 9.281155e+000
1.056488e+003, 9.487937e+000
1.056970e+003, 9.710672e+000
1.057452e+003, 9.469850e+000
1.057934e+003, 8.842968e+000
1.058416e+003, 8.615848e+000
1.058898e+003, 9.003854e+000
1.059380e+003, 9.379293e+000
1.059863e+003, 9.118409e+000
1.060345e+003, 8.710057e+000
1.060827e+003, 8.587628e+000
1.061309e+003, 8.782960e+000
1.061791e+003, 8.885083e+000
1.062273e+003, 8.883956e+000
1.062755e+003, 8.830988e+000
1.063237e+003, 8.720236e+000
1.063719e+003, 8.608344e+000
1.064202e+003, 8.579931e+000
1.064684e+003, 8.615867e+000
1.065166e+003, 8.687666e+000
1.065648e+003, 8.905058e+000
1.066130e+003, 8.920893e+000
1.066612e+003, 8.546167e+000
1.067094e+003, 8.202157e+000
1.067576e+003, 8.330095e+000
1.068059e+003, 8.813918e+000
1.068541e+003, 8.945821e+000
1.069023e+003, 8.753407e+000
1.069505e+003, 8.541356e+000
1.069987e+003, 8.518882e+000
1.070469e+003, 8.493629e+000
1.070951e+003, 8.334374e+000
1.071433e+003, 8.115879e+000
1.071916e+003, 7.979959e+000
1.072398e+003, 7.934560e+000
1.072880e+003, 7.910667e+000
1.073362e+003, 7.899269e+000
1.073844e+003, 7.909244e+000
1.074326e+003, 7.937999e+000
1.074808e+003, 8.000813e+000
1.075290e+003, 8.164732e+000
1.075772e+003, 8.431544e+000
1.076255e+003, 8.486173e+000
1.076737e+003, 8.166069e+000
1.077219e+003, 7.999543e+000
1.077701e+003, 8.234588e+000
1.078183e+003, 8.606033e+000
1.078665e+003, 8.537748e+000
1.079147e+003, 8.201779e+000
1.079629e+003, 8.015633e+000
1.080111e+003, 8.162253e+000
1.080594e+003, 8.242746e+000
1.081076e+003, 7.963500e+000
1.081558e+003, 7.731452e+000
1.082040e+003, 7.834527e+000
1.082522e+003, 8.223787e+000
1.083004e+003, 8.356366e+000
1.083486e+003, 8.259666e+000
1.083968e+003, 8.186140e+000
1.084450e+003, 8.333450e+000
1.084933e+003, 8.482772e+000
1.085415e+003, 8.472691e+000
1.085897e+003, 8.383657e+000
1.086379e+003, 8.356984e+000
1.086861e+003, 8.433355e+000
1.087343e+003, 8.395299e+000
1.087825e+003, 8.211945e+000
1.088307e+003, 8.056767e+000
1.088790e+003, 8.091247e+000
1.089272e+003, 8.233606e+000
1.089754e+003, 8.427732e+000
1.090236e+003, 8.649992e+000
1.090718e+003, 8.798467e+000
1.091200e+003, 8.835216e+000
1.091682e+003, 8.830109e+000
1.092164e+003, 8.779940e+000
1.092646e+003, 8.719926e+000
1.093129e+003, 8.742650e+000
1.093611e+003, 8.791436e+000
1.094093e+003, 8.699816e+000
1.094575e+003, 8.431795e+000
1.095057e+003, 8.198597e+000
1.095539e+003, 8.090816e+000
1.096021e+003, 8.053858e+000
1.096503e+003, 8.094873e+000
1.096986e+003, 8.175337e+000
1.097468e+003, 8.139592e+000
1.097950e+003, 7.998068e+000
1.098432e+003, 7.830805e+000
1.098914e+003, 7.630320e+000
1.099396e+003, 7.497907e+000
1.099878e+003, 7.599534e+000
1.100360e+003, 7.743094e+000
1.100843e+003, 7.712019e+000
1.101325e+003, 7.472026e+000
1.101807e+003, 7.386129e+000
1.102289e+003, 7.464292e+000
1.102771e+003, 7.582241e+000
1.103253e+003, 7.659766e+000
1.103735e+003, 7.749254e+000
1.104217e+003, 7.979265e+000
1.104699e+003, 8.249397e+000
1.105182e+003, 8.365374e+000
1.105664e+003, 8.165431e+000
1.106146e+003, 8.049387e+000
1.106628e+003, 8.058651e+000
1.107110e+003, 8.065666e+000
1.107592e+003, 7.934803e+000
1.108074e+003, 7.727782e+000
1.108556e+003, 7.522490e+000
1.109038e+003, 7.344851e+000
1.109521e+003, 7.297458e+000
1.110003e+003, 7.505596e+000
1.110485e+003, 7.752582e+000
1.110967e+003, 8.067225e+000
1.111449e+003, 8.308979e+000
1.111931e+003, 8.175083e+000
1.112413e+003, 7.768287e+000
1.112895e+003, 7.581247e+000
1.113377e+003, 7.673650e+000
1.113860e+003, 7.778513e+000
1.114342e+003, 7.713846e+000
1.114824e+003, 7.637952e+000
1.115306e+003, 7.673209e+000
1.115788e+003, 7.759435e+000
1.116270e+003, 7.629419e+000
1.116752e+003, 7.289746e+000
1.117234e+003, 7.196563e+000
1.117717e+003, 7.531570e+000
1.118199e+003, 7.863676e+000
1.118681e+003, 7.728928e+000
1.119163e+003, 7.465400e+000
1.119645e+003, 7.415563e+000
1.120127e+003, 7.608071e+000
1.120609e+003, 7.706250e+000
1.121091e+003, 7.709997e+000
1.121573e+003, 7.601651e+000
1.122056e+003, 7.287323e+000
1.122538e+003, 6.997278e+000
1.123020e+003, 7.118336e+000
1.123502e+003, 7.427527e+000
1.123984e+003, 7.567882e+000
1.124466e+003, 7.343529e+000
1.124948e+003, 7.226467e+000
1.125430e+003, 7.234700e+000
1.125913e+003, 7.320586e+000
1.126395e+003, 7.519783e+000
1.126877e+003, 7.742061e+000
1.127359e+003, 7.741862e+000
1.127841e+003, 7.592842e+000
1.128323e+003, 7.499110e+000
1.128805e+003, 7.625144e+000
1.129287e+003, 7.673887e+000
1.129770e+003, 7.533381e+000
1.130252e+003, 7.416006e+000
1.130734e+003, 7.656697e+000
1.131216e+003, 8.099801e+000
1.131698e+003, 8.015301e+000
1.132180e+003, 7.452297e+000
1.132662e+003, 6.988449e+000
1.133144e+003, 6.961934e+000
1.133626e+003, 7.062502e+000
1.134109e+003, 7.241308e+000
1.134591e+003, 7.423316e+000
1.135073e+003, 7.465281e+000
1.135555e+003, 7.384016e+000
1.136037e+003, 7.395292e+000
1.136519e+003, 7.525019e+000
1.137001e+003, 7.690070e+000
1.137483e+003, 8.007127e+000
1.137965e+003, 8.172853e+000
1.138448e+003, 7.792185e+000
1.138930e+003, 7.117883e+000
1.139412e+003, 7.005379e+000
1.139894e+003, 7.493056e+000
1.140376e+003, 7.715924e+000
1.140858e+003, 7.452405e+000
1.141340e+003, 7.111757e+000
1.141822e+003, 7.120125e+000
1.142304e+003, 7.196305e+000
1.142787e+003, 6.986604e+000
1.143269e+003, 6.485720e+000
1.143751e+003, 6.470313e+000
1.144233e+003, 7.056869e+000
1.144715e+003, 7.468987e+000
1.145197e+003, 7.381427e+000
1.145679e+003, 7.136622e+000
1.146161e+003, 7.168576e+000
1.146644e+003, 7.314576e+000
1.147126e+003, 7.338068e+000
1.147608e+003, 7.125487e+000
1.148090e+003, 7.144137e+000
1.148572e+003, 7.526757e+000
1.149054e+003, 7.728446e+000
1.149536e+003, 7.356633e+000
1.150018e+003, 6.790667e+000
1.150500e+003, 6.681159e+000
1.150983e+003, 6.884395e+000
1.151465e+003, 7.125540e+000
1.151947e+003, 7.426618e+000
1.152429e+003, 7.526090e+000
1.152911e+003, 7.308947e+000
1.153393e+003, 7.110666e+000
1.153875e+003, 7.262555e+000
1.154357e+003, 7.570056e+000
1.154840e+003, 7.436270e+000
1.155322e+003, 6.989247e+000
1.155804e+003, 6.643786e+000
1.156286e+003, 6.687678e+000
1.156768e+003, 6.655309e+000
1.157250e+003, 6.380652e+000
1.157732e+003, 6.153658e+000
1.158214e+003, 6.328097e+000
1.158697e+003, 6.784043e+000
1.159179e+003, 6.973145e+000
1.159661e+003, 6.926068e+000
1.160143e+003, 6.903339e+000
1.160625e+003, 7.073919e+000
1.161107e+003, 7.242833e+000
1.161589e+003, 7.400203e+000
1.162071e+003, 7.480502e+000
1.162553e+003, 7.320175e+000
1.163036e+003, 6.976801e+000
1.163518e+003, 6.892449e+000
1.164000e+003, 7.084138e+000
1.164482e+003, 7.288361e+000
1.164964e+003, 7.444815e+000
1.165446e+003, 7.458909e+000
1.165928e+003, 7.172091e+000
1.166410e+003, 6.781122e+000
1.166892e+003, 6.662091e+000
1.167375e+003, 6.797379e+000
1.167857e+003, 6.953657e+000
1.168339e+003, 7.102044e+000
1.168821e+003, 7.237381e+000
1.169303e+003, 7.420273e+000
1.169785e+003, 7.526838e+000
1.170267e+003, 7.445008e+000
1.170749e+003, 7.228750e+000
1.171231e+003, 6.985775e+000
1.171714e+003, 6.715765e+000
1.172196e+003, 6.536423e+000
1.172678e+003, 6.473869e+000
1.173160e+003, 6.502183e+000
1.173642e+003, 6.700602e+000
1.174124e+003, 6.899498e+000
1.174606e+003, 6.934467e+000
1.175088e+003, 6.835530e+000
1.175571e+003, 6.780777e+000
1.176053e+003, 6.772462e+000
1.176535e+003, 6.750099e+000
1.177017e+003, 6.685342e+000
1.177499e+003, 6.639973e+000
1.177981e+003, 6.738787e+000
1.178463e+003, 6.840383e+000
1.178945e+003, 6.744148e+000
1.179427e+003, 6.445841e+000
1.179910e+003, 6.469384e+000
1.180392e+003, 6.863610e+000
1.180874e+003, 7.066197e+000
1.181356e+003, 6.779128e+000
1.181838e+003, 6.423083e+000
1.182320e+003, 6.499450e+000
1.182802e+003, 6.730744e+000
1.183284e+003, 6.766847e+000
1.183767e+003, 6.538393e+000
1.184249e+003, 6.441641e+000
1.184731e+003, 6.490382e+000
1.185213e+003, 6.576468e+000
1.185695e+003, 6.672057e+000
1.186177e+003, 6.743306e+000
1.186659e+003, 6.767362e+000
1.187141e+003, 6.734046e+000
1.187624e+003, 6.609962e+000
1.188106e+003, 6.346275e+000
1.188588e+003, 6.160840e+000
1.189070e+003, 6.046478e+000
1.189552e+003, 6.063706e+000
1.190034e+003, 6.333053e+000
1.190516e+003, 6.661197e+000
1.190998e+003, 6.869096e+000
1.191480e+003, 6.942936e+000
1.191963e+003, 6.830732e+000
1.192445e+003, 6.356477e+000
1.192927e+003, 6.182302e+000
1.193409e+003, 6.372315e+000
1.193891e+003, 6.567176e+000
1.194373e+003, 6.453927e+000
1.194855e+003, 6.252898e+000
1.195337e+003, 6.196692e+000
1.195819e+003, 6.288866e+000
1.196302e+003, 6.565063e+000
1.196784e+003, 7.297399e+000
1.197266e+003, 7.532724e+000
1.197748e+003, 7.154471e+000
1.198230e+003, 6.701281e+000
1.198712e+003, 6.612689e+000
1.199194e+003, 6.700570e+000
1.199676e+003, 6.754430e+000
1.200158e+003, 6.772874e+000
1.200641e+003, 6.764678e+000
1.201123e+003, 6.750367e+000
1.201605e+003, 6.650780e+000
1.202087e+003, 6.434600e+000
1.202569e+003, 6.243200e+000
1.203051e+003, 6.194560e+000
1.203533e+003, 6.255450e+000
1.204015e+003, 6.468083e+000
1.204498e+003, 6.757163e+000
1.204980e+003, 6.854601e+000
1.205462e+003, 6.587397e+000
1.205944e+003, 6.475479e+000
1.206426e+003, 6.584151e+000
1.206908e+003, 6.765135e+000
1.207390e+003, 6.925665e+000
1.207872e+003, 7.034476e+000
1.208354e+003, 7.065920e+000
1.208837e+003, 7.011685e+000
1.209319e+003, 6.817373e+000
1.209801e+003, 6.343836e+000
1.210283e+003, 6.094284e+000
1.210765e+003, 6.142869e+000
1.211247e+003, 6.363117e+000
1.211729e+003, 6.819695e+000
1.212211e+003, 7.237168e+000
1.212694e+003, 7.136096e+000
1.213176e+003, 6.611903e+000
1.213658e+003, 6.374187e+000
1.214140e+003, 6.595183e+000
1.214622e+003, 6.754340e+000
1.215104e+003, 6.775128e+000
1.215586e+003, 6.727089e+000
1.216068e+003, 6.652154e+000
1.216551e+003, 6.573955e+000
1.217033e+003, 6.530297e+000
1.217515e+003, 6.515107e+000
1.217997e+003, 6.458196e+000
1.218479e+003, 6.307083e+000
1.218961e+003, 6.305000e+000
1.219443e+003, 6.529603e+000
1.219925e+003, 6.755957e+000
1.220407e+003, 6.685752e+000
1.220890e+003, 6.509638e+000
1.221372e+003, 6.434088e+000
1.221854e+003, 6.470524e+000
1.222336e+003, 6.533530e+000
1.222818e+003, 6.642441e+000
1.223300e+003, 6.665298e+000
1.223782e+003, 6.555927e+000
1.224264e+003, 6.448976e+000
1.224746e+003, 6.476329e+000
1.225229e+003, 6.596275e+000
1.225711e+003, 6.864927e+000
1.226193e+003, 7.228986e+000
1.226675e+003, 7.178768e+000
1.227157e+003, 6.586793e+000
1.227639e+003, 6.297512e+000
1.228121e+003, 6.543727e+000
1.228603e+003, 6.876917e+000
1.229085e+003, 6.828377e+000
1.229568e+003, 6.629780e+000
1.230050e+003, 6.460916e+000
1.230532e+003, 6.346960e+000
1.231014e+003, 6.355588e+000
1.231496e+003, 6.506412e+000
1.231978e+003, 6.592477e+000
1.232460e+003, 6.549409e+000
1.232942e+003, 6.518499e+000
1.233425e+003, 6.671765e+000
1.233907e+003, 6.869848e+000
1.234389e+003, 7.021309e+000
1.234871e+003, 7.109874e+000
1.235353e+003, 7.047364e+000
1.235835e+003, 6.827136e+000
1.236317e+003, 6.606199e+000
1.236799e+003, 6.407286e+000
1.237281e+003, 6.303388e+000
1.237764e+003, 6.505575e+000
1.238246e+003, 6.697884e+000
1.238728e+003, 6.512037e+000
1.239210e+003, 6.089349e+000
1.239692e+003, 6.105310e+000
1.240174e+003, 6.538178e+000
1.240656e+003, 6.817581e+000
1.241138e+003, 6.789950e+000
1.241621e+003, 6.687849e+000
1.242103e+003, 6.639581e+000
1.242585e+003, 6.616511e+000
1.243067e+003, 6.577747e+000
1.243549e+003, 6.551857e+000
1.244031e+003, 6.708788e+000
1.244513e+003, 7.011309e+000
1.244995e+003, 7.128526e+000
1.245478e+003, 6.955998e+000
1.245960e+003, 6.774123e+000
1.246442e+003, 6.697962e+000
1.246924e+003, 6.733728e+000
1.247406e+003, 6.931136e+000
1.247888e+003, 7.196458e+000
1.248370e+003, 7.205796e+000
1.248852e+003, 7.013984e+000
1.249334e+003, 6.849178e+000
1.249817e+003, 6.765730e+000
1.250299e+003, 6.696082e+000
1.250781e+003, 6.665146e+000
1.251263e+003, 6.557220e+000
1.251745e+003, 6.256106e+000
1.252227e+003, 5.919151e+000
1.252709e+003, 6.042185e+000
1.253191e+003, 6.443474e+000
1.253673e+003, 6.536551e+000
1.254156e+003, 6.141344e+000
1.254638e+003, 5.954797e+000
1.255120e+003, 6.466672e+000
1.255602e+003, 6.796438e+000
1.256084e+003, 6.575521e+000
1.256566e+003, 6.117354e+000
1.257048e+003, 6.042747e+000
1.257530e+003, 6.210057e+000
1.258012e+003, 6.333073e+000
1.258495e+003, 6.355969e+000
1.258977e+003, 6.419170e+000
1.259459e+003, 6.629284e+000
1.259941e+003, 6.661673e+000
1.260423e+003, 6.331823e+000
1.260905e+003, 5.947948e+000
1.261387e+003, 6.117849e+000
1.261869e+003, 6.497438e+000
1.262352e+003, 6.514235e+000
1.262834e+003, 6.056346e+000
1.263316e+003, 5.896735e+000
1.263798e+003, 6.151750e+000
1.264280e+003, 6.411163e+000
1.264762e+003, 6.552470e+000
1.265244e+003, 6.656494e+000
1.265726e+003, 6.921861e+000
1.266208e+003, 7.139804e+000
1.266691e+003, 6.977527e+000
1.267173e+003, 6.426941e+000
1.267655e+003, 6.258241e+000
1.268137e+003, 6.531064e+000
1.268619e+003, 6.656279e+000
1.269101e+003, 6.435468e+000
1.269583e+003, 6.221655e+000
1.270065e+003, 6.461277e+000
1.270548e+003, 6.767273e+000
1.271030e+003, 6.713552e+000
1.271512e+003, 6.407685e+000
1.271994e+003, 6.395586e+000
1.272476e+003, 6.668089e+000
1.272958e+003, 6.759485e+000
1.273440e+003, 6.536939e+000
1.273922e+003, 6.349233e+000
1.274405e+003, 6.555536e+000
1.274887e+003, 6.759409e+000
1.275369e+003, 6.684056e+000
1.275851e+003, 6.453535e+000
1.276333e+003, 6.469987e+000
1.276815e+003, 6.663694e+000
1.277297e+003, 6.636268e+000
1.277779e+003, 6.297424e+000
1.278261e+003, 6.010561e+000
1.278744e+003, 5.959632e+000
1.279226e+003, 6.017578e+000
1.279708e+003, 6.157655e+000
1.280190e+003, 6.344370e+000
1.280672e+003, 6.576886e+000
1.281154e+003, 6.791798e+000
1.281636e+003, 6.789231e+000
1.282118e+003, 6.542287e+000
1.282600e+003, 6.342075e+000
1.283083e+003, 6.276076e+000
1.283565e+003, 6.264058e+000
1.284047e+003, 6.293831e+000
1.284529e+003, 6.359454e+000
1.285011e+003, 6.512815e+000
1.285493e+003, 6.664546e+000
1.285975e+003, 6.623776e+000
1.286457e+003, 6.396391e+000
1.286939e+003, 6.334734e+000
1.287422e+003, 6.533310e+000
1.287904e+003, 6.654425e+000
1.288386e+003, 6.627953e+000
1.288868e+003, 6.538789e+000
1.289350e+003, 6.390429e+000
1.289832e+003, 6.295396e+000
1.290314e+003, 6.452920e+000
1.290796e+003, 6.780846e+000
1.291279e+003, 6.853025e+000
1.291761e+003, 6.641924e+000
1.292243e+003, 6.437564e+000
1.292725e+003, 6.274466e+000
1.293207e+003, 6.207155e+000
1.293689e+003, 6.357710e+000
1.294171e+003, 6.540484e+000
1.294653e+003, 6.621813e+000
1.295135e+003, 6.653115e+000
1.295618e+003, 6.729355e+000
1.296100e+003, 6.842233e+000
1.296582e+003, 6.943669e+000
1.297064e+003, 7.022597e+000
1.297546e+003, 6.955532e+000
1.298028e+003, 6.398001e+000
1.298510e+003, 6.060260e+000
1.298992e+003, 6.265501e+000
1.299475e+003, 6.617842e+000
1.299957e+003, 6.514070e+000
1.300439e+003, 6.157237e+000
1.300921e+003, 6.213166e+000
1.301403e+003, 6.633590e+000
1.301885e+003, 6.907148e+000
##END=



