##NAMES=Bornite
##RRUFFID=R050322
##IDEAL CHEMISTRY=Cu^1+^_5_Fe^3+^S^2-^_4_
##LOCALITY=Bethlehem Copper mine, Highland Valley, Logan Lake, British Columbia, Canada
##OWNER=RRUFF
##SOURCE=Lloyd Twaites
##DESCRIPTION=Irridescent purple metallic massive
##STATUS=The identification of this mineral has been confirmed by X-ray diffraction and chemical analysis
##URL=rruff.info/R050322
##MEASURED CHEMISTRY=Cu_4.97_Fe_1.03_S_4.00_
170.5845, 96.62673
171.0666, 96.30470
171.5487, 94.82284
172.0309, 92.31702
172.5130, 90.68443
172.9951, 92.48090
173.4772, 95.81280
173.9593, 97.72587
174.4414, 95.46081
174.9236, 92.09218
175.4057, 91.18051
175.8878, 92.73489
176.3699, 94.74185
176.8520, 96.09312
177.3341, 96.67852
177.8163, 96.23227
178.2984, 93.37075
178.7805, 89.85744
179.2626, 88.85088
179.7447, 90.61172
180.2268, 92.48213
180.7090, 91.00903
181.1911, 87.26924
181.6732, 84.60880
182.1553, 85.45317
182.6374, 88.30464
183.1195, 90.00169
183.6017, 90.41172
184.0838, 90.14573
184.5659, 89.84331
185.0480, 89.47966
185.5301, 88.90408
186.0123, 87.64529
186.4944, 86.07645
186.9765, 85.57181
187.4586, 86.33064
187.9407, 87.54105
188.4228, 88.08735
188.9050, 88.02149
189.3871, 87.89661
189.8692, 88.17229
190.3513, 88.69115
190.8334, 88.45497
191.3155, 87.18307
191.7977, 85.76378
192.2798, 85.83314
192.7619, 87.38560
193.2440, 88.87498
193.7261, 89.46198
194.2082, 89.21687
194.6904, 89.02515
195.1725, 89.02482
195.6546, 88.92121
196.1367, 87.84602
196.6188, 85.67814
197.1009, 84.04036
197.5831, 84.05344
198.0652, 85.70681
198.5473, 87.16000
199.0294, 88.39798
199.5115, 89.27197
199.9937, 89.27916
200.4758, 88.27982
200.9579, 87.31075
201.4400, 87.06456
201.9221, 87.61513
202.4042, 87.82527
202.8864, 87.59116
203.3685, 87.02454
203.8506, 86.17583
204.3327, 84.84530
204.8148, 84.05688
205.2969, 84.72561
205.7791, 87.18326
206.2612, 88.62663
206.7433, 88.69714
207.2254, 87.82030
207.7075, 86.91351
208.1896, 85.79937
208.6718, 85.16238
209.1539, 85.55158
209.6360, 87.23434
210.1181, 88.59721
210.6002, 89.63414
211.0823, 90.26371
211.5645, 90.15451
212.0466, 89.07796
212.5287, 87.80638
213.0108, 86.62013
213.4929, 85.34028
213.9750, 84.85421
214.4572, 85.42502
214.9393, 86.73071
215.4214, 87.93335
215.9035, 89.19192
216.3856, 90.03030
216.8678, 90.05938
217.3499, 88.94942
217.8320, 88.10955
218.3141, 87.63248
218.7962, 87.45824
219.2783, 87.37293
219.7605, 87.22379
220.2426, 87.43611
220.7247, 88.46581
221.2068, 91.02601
221.6889, 92.28272
222.1710, 91.64458
222.6532, 89.73391
223.1353, 88.49059
223.6174, 88.03555
224.0995, 88.02493
224.5816, 88.38870
225.0637, 89.46709
225.5459, 90.02988
226.0280, 89.80999
226.5101, 89.10379
226.9922, 88.86916
227.4743, 89.44116
227.9564, 89.95399
228.4386, 89.87769
228.9207, 88.64394
229.4028, 88.25725
229.8849, 89.17672
230.3670, 90.85301
230.8492, 91.70747
231.3313, 91.21447
231.8134, 90.68365
232.2955, 90.76389
232.7776, 91.88227
233.2597, 92.61830
233.7419, 92.89761
234.2240, 92.81187
234.7061, 92.57865
235.1882, 92.16847
235.6703, 91.66247
236.1524, 91.01938
236.6346, 89.92376
237.1167, 89.45551
237.5988, 89.83846
238.0809, 90.75997
238.5630, 91.48798
239.0451, 91.82707
239.5273, 92.25990
240.0094, 93.08485
240.4915, 94.75048
240.9736, 95.58327
241.4557, 95.19120
241.9378, 94.14458
242.4200, 93.65903
242.9021, 94.08350
243.3842, 94.51111
243.8663, 94.49245
244.3484, 93.60710
244.8306, 93.61595
245.3127, 95.09200
245.7948, 97.15810
246.2769, 98.10864
246.7590, 97.26577
247.2411, 96.45191
247.7233, 96.40429
248.2054, 97.50847
248.6875, 97.85916
249.1696, 96.90564
249.6517, 95.56638
250.1338, 95.46806
250.6160, 97.47245
251.0981, 99.15866
251.5802, 99.56136
252.0623, 98.26069
252.5444, 97.93909
253.0265, 99.11714
253.5087, 100.8502
253.9908, 101.7823
254.4729, 101.6942
254.9550, 101.2397
255.4371, 100.2953
255.9192, 98.63197
256.4014, 98.60240
256.8835, 101.3022
257.3656, 104.5495
257.8477, 105.5083
258.3298, 102.9171
258.8120, 100.8897
259.2941, 100.6714
259.7762, 102.4161
260.2583, 103.2383
260.7404, 102.6169
261.2225, 101.7260
261.7047, 101.9697
262.1868, 103.9752
262.6689, 105.4328
263.1510, 105.5911
263.6331, 104.5052
264.1152, 104.4473
264.5974, 105.9143
265.0795, 107.6433
265.5616, 108.2879
266.0437, 107.4541
266.5258, 106.8818
267.0079, 106.9279
267.4901, 107.5293
267.9722, 108.1091
268.4543, 108.6471
268.9364, 109.2222
269.4185, 109.9541
269.9006, 110.9269
270.3828, 111.7091
270.8649, 112.2819
271.3470, 112.6146
271.8291, 112.4134
272.3112, 111.3830
272.7933, 110.5816
273.2755, 110.9540
273.7576, 112.7101
274.2397, 114.1326
274.7218, 114.9391
275.2039, 115.3187
275.6860, 115.9840
276.1682, 117.1349
276.6503, 117.8438
277.1324, 117.2060
277.6145, 115.0725
278.0966, 113.7171
278.5787, 113.4076
279.0609, 113.8609
279.5430, 114.6084
280.0251, 115.7156
280.5072, 116.7112
280.9893, 117.1834
281.4715, 117.1345
281.9536, 117.6632
282.4357, 119.0167
282.9178, 120.5704
283.3999, 121.1537
283.8820, 120.7152
284.3642, 120.1941
284.8463, 120.1963
285.3284, 120.6259
285.8105, 120.1957
286.2926, 118.6513
286.7747, 117.0256
287.2569, 116.8740
287.7390, 118.1470
288.2211, 119.5742
288.7032, 120.9686
289.1853, 122.1467
289.6674, 121.9566
290.1496, 120.1852
290.6317, 118.4413
291.1138, 118.8010
291.5959, 120.9885
292.0780, 123.0811
292.5602, 124.6512
293.0423, 125.6430
293.5244, 125.6965
294.0065, 124.7786
294.4886, 123.6893
294.9707, 123.2831
295.4529, 123.3356
295.9350, 122.9677
296.4171, 121.5781
296.8992, 119.9933
297.3813, 120.0168
297.8634, 121.5070
298.3456, 122.8759
298.8277, 122.6266
299.3098, 121.3719
299.7919, 120.3486
300.2740, 119.6296
300.7561, 119.5864
301.2383, 121.4571
301.7204, 124.7726
302.2025, 127.2640
302.6846, 126.6681
303.1667, 124.6011
303.6488, 123.5506
304.1310, 124.0853
304.6131, 125.0952
305.0952, 125.5466
305.5773, 125.5988
306.0594, 125.6820
306.5415, 126.1411
307.0237, 126.6886
307.5058, 127.0167
307.9879, 127.0779
308.4700, 127.0305
308.9521, 126.6303
309.4343, 126.2401
309.9164, 126.4805
310.3985, 128.6453
310.8806, 130.8473
311.3627, 131.4114
311.8448, 130.2527
312.3270, 129.0379
312.8091, 128.2404
313.2912, 128.1128
313.7733, 128.9534
314.2554, 132.5378
314.7375, 135.6761
315.2197, 136.2519
315.7018, 134.5599
316.1839, 133.1046
316.6660, 132.9056
317.1481, 133.4794
317.6302, 134.4695
318.1124, 136.4323
318.5945, 137.9993
319.0766, 138.2917
319.5587, 137.7230
320.0408, 137.7315
320.5229, 139.6909
321.0051, 141.7042
321.4872, 142.5768
321.9693, 141.1026
322.4514, 140.3955
322.9335, 141.7281
323.4156, 144.1974
323.8978, 146.0635
324.3799, 146.6646
324.8620, 146.9309
325.3441, 147.1236
325.8262, 147.1748
326.3083, 147.4192
326.7905, 148.1909
327.2726, 149.0718
327.7547, 149.5383
328.2368, 149.3841
328.7189, 149.0146
329.2010, 148.3589
329.6832, 147.3606
330.1653, 146.7734
330.6474, 146.8730
331.1295, 147.1860
331.6116, 147.3255
332.0938, 147.1388
332.5759, 147.0300
333.0580, 147.1446
333.5401, 147.4183
334.0222, 147.3280
334.5043, 146.6022
334.9865, 145.8849
335.4686, 145.6114
335.9507, 146.0493
336.4328, 146.1851
336.9149, 145.8749
337.3970, 145.2716
337.8792, 144.8149
338.3613, 144.5699
338.8434, 144.2723
339.3255, 143.8302
339.8076, 143.2523
340.2898, 142.4464
340.7719, 141.3926
341.2540, 140.1395
341.7361, 138.5861
342.2182, 136.6933
342.7003, 135.1539
343.1825, 134.4736
343.6646, 134.4333
344.1467, 133.3757
344.6288, 131.0808
345.1109, 128.8319
345.5930, 128.2081
346.0752, 129.0308
346.5573, 129.3870
347.0394, 128.6952
347.5215, 127.3599
348.0036, 126.2836
348.4857, 125.4602
348.9679, 124.5125
349.4500, 122.9687
349.9321, 121.0544
350.4142, 119.5061
350.8963, 118.5569
351.3784, 117.6779
351.8606, 116.1071
352.3427, 114.0083
352.8248, 111.9460
353.3069, 109.7144
353.7890, 107.9374
354.2711, 107.8675
354.7533, 109.8049
355.2354, 111.5698
355.7175, 111.0868
356.1996, 109.1634
356.6817, 107.2067
357.1638, 105.6419
357.6460, 104.3890
358.1281, 103.5247
358.6102, 103.0109
359.0923, 102.3640
359.5744, 101.0379
360.0565, 99.57369
360.5387, 98.52211
361.0208, 98.46347
361.5029, 98.30636
361.9850, 97.38173
362.4671, 95.94138
362.9492, 94.77075
363.4314, 94.43384
363.9135, 94.22871
364.3956, 93.76794
364.8777, 92.91627
365.3598, 91.99806
365.8419, 90.81481
366.3241, 89.66404
366.8062, 89.00221
367.2883, 89.77050
367.7704, 90.18703
368.2526, 89.55299
368.7347, 87.56548
369.2168, 86.20928
369.6989, 85.85991
370.1810, 85.92933
370.6631, 85.95142
371.1453, 86.04051
371.6274, 85.90415
372.1095, 85.42553
372.5916, 84.66138
373.0737, 84.00674
373.5558, 83.48276
374.0380, 83.02778
374.5201, 82.59572
375.0022, 82.16902
375.4843, 81.81747
375.9664, 81.48493
376.4485, 81.28013
376.9307, 81.58723
377.4128, 82.62777
377.8949, 83.22556
378.3770, 82.81313
378.8591, 81.44029
379.3412, 79.82011
379.8234, 77.79610
380.3055, 76.12321
380.7876, 75.86728
381.2697, 76.95483
381.7518, 78.18238
382.2339, 79.47433
382.7161, 80.52024
383.1982, 80.37374
383.6803, 79.07169
384.1624, 77.63110
384.6445, 76.72594
385.1266, 76.26836
385.6088, 76.03742
386.0909, 75.98917
386.5730, 76.19262
387.0551, 76.98048
387.5372, 78.12705
388.0193, 78.99792
388.5015, 79.57324
388.9836, 79.52666
389.4657, 78.00078
389.9478, 74.88995
390.4299, 72.37782
390.9120, 72.31900
391.3942, 73.60539
391.8763, 74.88359
392.3584, 76.00575
392.8405, 76.69952
393.3226, 76.64530
393.8047, 75.97562
394.2869, 75.29581
394.7690, 74.42203
395.2511, 73.89722
395.7332, 74.23933
396.2154, 76.40214
396.6975, 77.59682
397.1796, 76.36575
397.6617, 73.94024
398.1438, 72.44441
398.6259, 73.27901
399.1081, 73.96554
399.5902, 73.66814
400.0723, 72.16808
400.5544, 71.15562
401.0365, 70.67077
401.5186, 70.64316
402.0008, 71.10359
402.4829, 72.64402
402.9650, 73.52442
403.4471, 73.30552
403.9292, 72.28289
404.4113, 71.79814
404.8935, 72.17963
405.3756, 72.33978
405.8577, 71.37148
406.3398, 68.94405
406.8219, 68.09772
407.3040, 69.25854
407.7862, 71.25100
408.2683, 72.53770
408.7504, 73.11526
409.2325, 73.14328
409.7146, 72.44781
410.1967, 71.29890
410.6789, 70.68295
411.1610, 70.62658
411.6431, 70.42896
412.1252, 68.88522
412.6073, 66.67622
413.0894, 65.91996
413.5716, 67.38519
414.0537, 69.66738
414.5358, 71.60906
415.0179, 73.04478
415.5000, 73.49804
415.9821, 71.87647
416.4643, 69.57948
416.9464, 67.95479
417.4285, 67.12069
417.9106, 66.85539
418.3927, 67.49113
418.8748, 68.45406
419.3570, 69.05231
419.8391, 68.53859
420.3212, 68.11861
420.8033, 68.39778
421.2854, 69.24239
421.7675, 70.01744
422.2497, 70.79382
422.7318, 71.25567
423.2139, 71.14666
423.6960, 70.04002
424.1781, 69.24632
424.6602, 69.15245
425.1424, 69.38916
425.6245, 69.42185
426.1066, 69.17638
426.5887, 68.81006
427.0709, 68.26511
427.5530, 67.54139
428.0351, 67.10338
428.5172, 66.91722
428.9993, 67.05701
429.4814, 67.75200
429.9636, 69.34157
430.4457, 70.07779
430.9278, 69.51927
431.4099, 68.32690
431.8920, 68.06335
432.3741, 68.86236
432.8563, 69.53110
433.3384, 69.44248
433.8205, 68.71461
434.3026, 68.14597
434.7847, 67.74180
435.2668, 67.42913
435.7490, 67.16056
436.2311, 66.92532
436.7132, 66.70151
437.1953, 66.50709
437.6774, 66.28695
438.1595, 65.72904
438.6417, 64.99323
439.1238, 64.74191
439.6059, 65.92070
440.0880, 67.50819
440.5701, 68.43006
441.0522, 68.53284
441.5344, 68.24067
442.0165, 67.55555
442.4986, 66.71915
442.9807, 66.03085
443.4628, 65.36569
443.9449, 65.08559
444.4271, 65.62960
444.9092, 66.81342
445.3913, 67.59986
445.8734, 67.44631
446.3555, 67.03593
446.8376, 66.64201
447.3198, 65.99846
447.8019, 65.97366
448.2840, 67.35304
448.7661, 69.03139
449.2482, 69.37836
449.7303, 67.38110
450.2125, 65.76120
450.6946, 65.09023
451.1767, 65.32613
451.6588, 65.94511
452.1409, 67.16319
452.6230, 68.27592
453.1052, 68.73929
453.5873, 68.51685
454.0694, 68.14756
454.5515, 67.62882
455.0337, 67.07309
455.5158, 66.70516
455.9979, 66.50855
456.4800, 66.29073
456.9621, 65.95260
457.4442, 65.53844
457.9264, 65.15287
458.4085, 64.79620
458.8906, 64.42401
459.3727, 63.73656
459.8548, 63.07786
460.3369, 63.10004
460.8191, 64.18408
461.3012, 65.40011
461.7833, 66.18810
462.2654, 66.55305
462.7475, 66.50489
463.2296, 65.50992
463.7118, 64.54488
464.1939, 64.23900
464.6760, 64.63457
465.1581, 64.98043
465.6402, 65.01943
466.1223, 64.93369
466.6045, 64.84875
467.0866, 64.49972
467.5687, 64.50102
468.0508, 65.16833
468.5329, 66.17834
469.0150, 66.81961
469.4972, 66.93434
469.9793, 66.90732
470.4614, 66.83070
470.9435, 66.70247
471.4256, 66.57825
471.9077, 66.47267
472.3899, 66.34421
472.8720, 66.13491
473.3541, 65.83099
473.8362, 65.56949
474.3183, 65.33333
474.8004, 65.20116
475.2826, 65.42182
475.7647, 65.96683
476.2468, 66.43398
476.7289, 66.57230
477.2110, 66.49641
477.6931, 66.45230
478.1753, 66.44185
478.6574, 66.41849
479.1395, 66.48413
479.6216, 66.47334
480.1037, 66.04817
480.5858, 64.74565
481.0680, 63.71808
481.5501, 64.23541
482.0322, 65.59120
482.5143, 66.30651
482.9964, 64.97053
483.4786, 63.58229
483.9607, 63.22167
484.4428, 64.04335
484.9249, 64.62315
485.4070, 64.21738
485.8892, 63.76689
486.3713, 63.96515
486.8534, 65.64982
487.3355, 66.75066
487.8176, 67.07221
488.2997, 66.82958
488.7819, 66.43790
489.2640, 65.79115
489.7461, 65.21368
490.2282, 64.69984
490.7103, 64.27866
491.1924, 64.75809
491.6746, 66.39963
492.1567, 67.87468
492.6388, 67.71161
493.1209, 66.13121
493.6030, 65.16705
494.0851, 65.18945
494.5673, 65.59839
495.0494, 65.55811
495.5315, 65.16933
496.0136, 64.79790
496.4957, 64.58598
496.9778, 64.49636
497.4600, 64.49136
497.9421, 64.56986
498.4242, 64.71766
498.9063, 65.22037
499.3884, 65.62333
499.8705, 65.42706
500.3527, 64.16772
500.8348, 63.22778
501.3169, 63.26514
501.7990, 63.88082
502.2811, 64.51868
502.7632, 65.47362
503.2454, 66.01476
503.7275, 65.81310
504.2096, 64.94997
504.6917, 64.25314
505.1738, 63.62203
505.6559, 63.30178
506.1381, 63.53633
506.6202, 64.56842
507.1023, 65.11581
507.5844, 65.01716
508.0665, 64.72565
508.5486, 64.88528
509.0308, 65.50858
509.5129, 66.14891
509.9950, 66.88915
510.4771, 67.38309
510.9592, 66.47862
511.4413, 64.34422
511.9235, 62.57008
512.4056, 62.45904
512.8877, 63.23145
513.3698, 63.74810
513.8519, 63.91188
514.3340, 64.00244
514.8162, 64.23536
515.2983, 64.50840
515.7804, 64.70210
516.2625, 64.80901
516.7446, 64.79621
517.2267, 64.48643
517.7089, 64.04279
518.1910, 63.86957
518.6731, 64.33559
519.1552, 64.82291
519.6373, 65.12997
520.1194, 65.25171
520.6016, 65.25571
521.0837, 64.96937
521.5658, 64.75619
522.0479, 64.96461
522.5300, 65.82160
523.0121, 66.23388
523.4943, 66.02866
523.9764, 65.48123
524.4585, 64.99529
524.9406, 64.57498
525.4227, 64.38303
525.9048, 64.60677
526.3870, 65.03779
526.8691, 65.05688
527.3513, 64.69888
527.8334, 64.48019
528.3155, 65.15895
528.7976, 66.06795
529.2797, 66.07933
529.7618, 64.90764
530.2440, 63.77411
530.7261, 63.72049
531.2082, 64.16544
531.6903, 64.36619
532.1724, 63.53045
532.6545, 62.99707
533.1367, 63.53710
533.6188, 64.78880
534.1009, 65.47508
534.5830, 64.76028
535.0651, 64.07054
535.5472, 63.94876
536.0294, 64.52203
536.5115, 64.72291
536.9936, 64.40977
537.4757, 63.92332
537.9578, 63.48613
538.4399, 63.05962
538.9221, 62.90022
539.4042, 63.02901
539.8863, 63.44145
540.3684, 64.46187
540.8505, 65.98864
541.3326, 66.75892
541.8148, 65.64285
542.2969, 63.82624
542.7790, 63.70739
543.2611, 65.06892
543.7432, 66.16655
544.2253, 65.38113
544.7075, 63.96537
545.1896, 63.28406
545.6717, 63.65313
546.1538, 64.01144
546.6359, 63.81197
547.1180, 63.34239
547.6002, 62.91008
548.0823, 62.16984
548.5644, 61.95171
549.0465, 62.94939
549.5286, 64.60227
550.0107, 65.20878
550.4929, 63.73895
550.9750, 62.79633
551.4571, 63.50310
551.9392, 65.87525
552.4213, 67.08481
552.9034, 67.00451
553.3856, 66.19607
553.8677, 64.58345
554.3498, 62.32844
554.8319, 61.62506
555.3140, 62.94869
555.7961, 64.89985
556.2783, 65.84821
556.7604, 65.95615
557.2425, 65.61852
557.7246, 64.54951
558.2067, 63.54971
558.6888, 63.74746
559.1710, 64.75739
559.6531, 65.26613
560.1352, 63.86245
560.6173, 62.37356
561.0994, 61.97387
561.5815, 62.88035
562.0637, 63.76490
562.5458, 64.80348
563.0279, 65.43577
563.5100, 65.20809
563.9921, 62.98645
564.4742, 62.00549
564.9564, 63.03415
565.4385, 64.78519
565.9206, 64.78958
566.4027, 62.54658
566.8848, 61.12854
567.3669, 61.72515
567.8491, 63.61155
568.3312, 64.44627
568.8133, 64.25900
569.2954, 63.86704
569.7775, 63.60602
570.2596, 63.55098
570.7418, 63.98218
571.2239, 64.93690
571.7060, 65.79030
572.1881, 66.18764
572.6702, 66.17560
573.1523, 65.75471
573.6345, 64.64206
574.1166, 63.64226
574.5987, 62.86782
575.0808, 62.44380
575.5629, 62.57336
576.0450, 63.98560
576.5272, 65.19022
577.0093, 66.12334
577.4914, 66.69076
577.9735, 66.03441
578.4556, 63.36914
578.9377, 61.11539
579.4199, 60.62718
579.9020, 61.94774
580.3841, 63.03770
580.8662, 63.89805
581.3483, 64.51814
581.8304, 64.78220
582.3126, 64.77480
582.7947, 64.78690
583.2768, 64.87594
583.7589, 64.98636
584.2410, 65.17135
584.7231, 65.32446
585.2053, 65.23530
585.6874, 64.61692
586.1696, 63.91399
586.6517, 63.18287
587.1338, 62.51290
587.6159, 62.28527
588.0980, 62.75806
588.5801, 63.55121
589.0623, 64.72334
589.5444, 66.45807
590.0265, 67.27729
590.5086, 66.86329
590.9907, 65.94173
591.4728, 64.94237
591.9550, 63.79629
592.4371, 63.10077
592.9192, 62.95660
593.4013, 63.15484
593.8834, 63.48641
594.3655, 63.92771
594.8477, 64.35633
595.3298, 64.86995
595.8119, 65.17354
596.2940, 64.39075
596.7761, 62.95222
597.2582, 62.27848
597.7404, 63.98948
598.2225, 66.06456
598.7046, 67.11233
599.1867, 67.04735
599.6688, 66.71947
600.1509, 66.20489
600.6331, 65.63377
601.1152, 65.06274
601.5973, 64.35981
602.0794, 63.95560
602.5615, 63.84271
603.0436, 64.03965
603.5258, 64.79457
604.0079, 66.38014
604.4900, 66.91752
604.9721, 65.75555
605.4542, 63.90882
605.9363, 63.51392
606.4185, 64.43211
606.9006, 65.41758
607.3827, 66.21764
607.8648, 66.55125
608.3469, 65.50236
608.8290, 63.35746
609.3112, 61.78551
609.7933, 62.21269
610.2754, 63.26903
610.7575, 63.91488
611.2396, 63.95777
611.7217, 64.11922
612.2039, 64.97317
612.6860, 65.77811
613.1681, 65.93845
613.6502, 64.79067
614.1323, 64.16486
614.6144, 64.36449
615.0966, 64.84485
615.5787, 64.71110
616.0608, 63.81288
616.5429, 63.28907
617.0250, 63.48047
617.5071, 64.11375
617.9893, 64.77744
618.4714, 65.41586
618.9535, 65.58128
619.4356, 64.57768
619.9177, 63.22877
620.3998, 62.64544
620.8820, 62.76927
621.3641, 62.94431
621.8462, 62.58453
622.3283, 62.28791
622.8104, 62.59893
623.2925, 63.80946
623.7747, 64.70716
624.2568, 65.01333
624.7389, 64.94875
625.2210, 64.62398
625.7031, 63.63972
626.1852, 63.32967
626.6674, 64.00811
627.1495, 65.11069
627.6316, 65.76993
628.1137, 65.98105
628.5958, 65.82441
629.0779, 65.15688
629.5601, 64.32708
630.0422, 64.08646
630.5243, 64.33317
631.0064, 64.57294
631.4885, 64.50587
631.9706, 64.32352
632.4528, 64.21151
632.9349, 64.16743
633.4170, 64.07606
633.8991, 64.03870
634.3812, 63.82449
634.8633, 63.12320
635.3455, 61.46022
635.8276, 60.83503
636.3097, 61.96094
636.7918, 63.51394
637.2739, 64.45294
637.7560, 64.74275
638.2382, 64.34929
638.7203, 62.92126
639.2024, 61.47852
639.6845, 62.08163
640.1666, 64.40191
640.6487, 65.60917
641.1309, 64.22675
641.6130, 62.21973
642.0951, 62.67108
642.5772, 64.79820
643.0594, 66.38063
643.5415, 65.69115
644.0236, 64.70304
644.5057, 64.62558
644.9879, 65.40318
645.4700, 66.11848
645.9521, 66.89179
646.4342, 67.24440
646.9163, 66.88503
647.3984, 65.66206
647.8806, 64.71677
648.3627, 64.01223
648.8448, 63.64083
649.3269, 63.80708
649.8090, 64.51163
650.2911, 64.97245
650.7733, 65.11333
651.2554, 65.11591
651.7375, 65.26740
652.2196, 65.44900
652.7017, 65.31196
653.1838, 64.52804
653.6660, 63.85439
654.1481, 64.04809
654.6302, 64.72897
655.1123, 65.22962
655.5944, 65.11230
656.0765, 65.00540
656.5587, 65.07845
657.0408, 65.31754
657.5229, 65.68179
658.0050, 66.45367
658.4871, 66.84004
658.9692, 66.43645
659.4514, 65.33407
659.9335, 64.49639
660.4156, 63.91795
660.8977, 63.66052
661.3798, 64.01855
661.8619, 64.71519
662.3441, 64.91824
662.8262, 64.56671
663.3083, 64.26324
663.7904, 64.70325
664.2725, 65.34747
664.7546, 65.61634
665.2368, 65.37227
665.7189, 64.80429
666.2010, 63.34812
666.6831, 61.87683
667.1652, 61.44854
667.6473, 62.94370
668.1295, 64.03382
668.6116, 64.38707
669.0937, 64.38717
669.5758, 64.91962
670.0579, 66.09794
670.5400, 66.68068
671.0222, 66.05063
671.5043, 64.87482
671.9864, 64.56866
672.4685, 64.99462
672.9506, 65.47573
673.4327, 65.85626
673.9149, 65.95763
674.3970, 65.37412
674.8791, 64.23045
675.3612, 63.44410
675.8433, 63.77556
676.3254, 64.21527
676.8076, 64.13566
677.2897, 63.34802
677.7718, 63.12422
678.2539, 63.82833
678.7360, 64.59361
679.2181, 64.76924
679.7003, 64.27110
680.1824, 64.14848
680.6645, 64.52626
681.1466, 64.87935
681.6287, 64.41180
682.1108, 63.45677
682.5930, 62.94697
683.0751, 63.08530
683.5572, 63.61896
684.0393, 64.91639
684.5214, 66.30219
685.0035, 66.82095
685.4857, 65.31983
685.9678, 63.89593
686.4499, 62.85798
686.9320, 62.29541
687.4141, 62.39603
687.8962, 63.59386
688.3784, 64.64898
688.8605, 65.32236
689.3426, 65.64951
689.8247, 65.68262
690.3068, 65.41245
690.7889, 65.11879
691.2711, 65.01161
691.7532, 64.93900
692.2353, 64.39543
692.7174, 63.50437
693.1995, 63.01115
693.6816, 63.80049
694.1638, 64.84371
694.6459, 65.36448
695.1280, 65.28423
695.6101, 65.10890
696.0922, 64.82311
696.5743, 64.59573
697.0565, 64.57034
697.5386, 64.88474
698.0207, 64.73380
698.5028, 63.87127
698.9849, 63.06694
699.4670, 63.18689
699.9492, 64.12786
700.4313, 64.78245
700.9135, 64.98837
701.3956, 65.08125
701.8777, 65.70046
702.3598, 66.38805
702.8419, 66.21078
703.3240, 64.21983
703.8062, 62.73858
704.2883, 63.66063
704.7704, 65.64505
705.2525, 66.71870
705.7346, 65.76909
706.2167, 64.88234
706.6989, 64.19814
707.1810, 63.72165
707.6631, 63.51420
708.1452, 63.63023
708.6273, 63.68128
709.1094, 63.40866
709.5916, 63.14093
710.0737, 63.97108
710.5558, 65.63394
711.0379, 66.79328
711.5200, 66.36828
712.0021, 65.38972
712.4843, 64.74583
712.9664, 64.37286
713.4485, 63.85653
713.9306, 62.34701
714.4127, 61.29655
714.8948, 61.72853
715.3770, 63.66826
715.8591, 64.71593
716.3412, 64.44565
716.8233, 64.12180
717.3054, 64.54284
717.7875, 65.67213
718.2697, 66.56870
718.7518, 67.26129
719.2339, 67.43956
719.7160, 66.46059
720.1981, 64.93641
720.6802, 63.74882
721.1624, 63.00501
721.6445, 62.73223
722.1266, 63.47294
722.6087, 64.38912
723.0908, 64.69383
723.5729, 63.66980
724.0551, 63.26930
724.5372, 63.86712
725.0193, 64.84173
725.5014, 65.60329
725.9835, 66.14201
726.4656, 66.54259
726.9478, 66.83995
727.4299, 66.93993
727.9120, 66.53195
728.3941, 65.79768
728.8762, 65.38086
729.3583, 65.63590
729.8405, 65.87574
730.3226, 65.49386
730.8047, 64.71230
731.2868, 63.91123
731.7689, 62.74958
732.2510, 62.10584
732.7332, 62.48433
733.2153, 63.44336
733.6974, 64.22226
734.1795, 64.98418
734.6616, 64.99828
735.1437, 63.73273
735.6259, 61.91903
736.1080, 61.65071
736.5901, 62.76768
737.0722, 63.85436
737.5543, 64.18361
738.0364, 64.16608
738.5186, 64.10452
739.0007, 64.07174
739.4828, 64.32523
739.9649, 66.00279
740.4470, 67.00750
740.9291, 65.76547
741.4113, 62.49878
741.8934, 60.84006
742.3755, 61.45477
742.8576, 62.50560
743.3397, 63.40928
743.8218, 64.13846
744.3040, 64.32593
744.7861, 63.95527
745.2682, 63.65433
745.7503, 64.03881
746.2324, 64.69003
746.7145, 64.98789
747.1967, 64.91116
747.6788, 64.50810
748.1609, 63.30859
748.6430, 62.17292
749.1251, 61.69533
749.6072, 62.05734
750.0894, 62.45172
750.5715, 62.78609
751.0536, 63.22006
751.5357, 63.99254
752.0178, 65.19363
752.4999, 65.64501
752.9821, 65.29736
753.4642, 64.54354
753.9463, 63.32917
754.4284, 62.07877
754.9105, 61.78075
755.3926, 62.63410
755.8748, 63.63281
756.3569, 64.51205
756.8390, 65.01920
757.3211, 64.80674
757.8032, 63.06616
758.2853, 62.36611
758.7675, 63.47548
759.2496, 65.00784
759.7318, 65.67593
760.2139, 65.33958
760.6960, 65.20351
761.1781, 65.41249
761.6602, 65.65714
762.1423, 65.60581
762.6245, 65.29345
763.1066, 64.73627
763.5887, 63.83181
764.0708, 63.06024
764.5529, 62.71315
765.0350, 62.71544
765.5172, 62.97861
765.9993, 64.16725
766.4814, 64.64424
766.9635, 63.83447
767.4456, 62.66341
767.9277, 62.42121
768.4099, 63.27402
768.8920, 63.91322
769.3741, 64.07606
769.8562, 64.09672
770.3383, 64.50027
770.8204, 65.16633
771.3026, 65.78306
771.7847, 66.29884
772.2668, 66.65576
772.7489, 66.92292
773.2310, 66.97862
773.7131, 66.63155
774.1953, 65.29038
774.6774, 64.25625
775.1595, 63.68394
775.6416, 63.47886
776.1237, 63.50271
776.6058, 63.77341
777.0880, 64.22386
777.5701, 65.03637
778.0522, 65.64779
778.5343, 64.47959
779.0164, 62.26459
779.4985, 61.17692
779.9807, 63.14803
780.4628, 65.23108
780.9449, 65.57424
781.4270, 64.73116
781.9091, 63.86717
782.3912, 62.80717
782.8734, 62.30669
783.3555, 62.79210
783.8376, 63.75341
784.3197, 63.77722
784.8018, 62.75975
785.2839, 62.07389
785.7661, 62.23173
786.2482, 62.82158
786.7303, 63.28798
787.2124, 63.62394
787.6945, 63.82248
788.1766, 63.73294
788.6588, 63.65170
789.1409, 64.01266
789.6230, 64.50849
790.1051, 64.20328
790.5872, 61.92688
791.0693, 60.59282
791.5515, 61.07409
792.0336, 62.72128
792.5157, 63.77639
792.9978, 64.23901
793.4799, 64.17199
793.9620, 63.23729
794.4442, 62.21164
794.9263, 62.43728
795.4084, 63.52784
795.8905, 64.40519
796.3726, 64.28776
796.8547, 64.16650
797.3369, 64.63557
797.8190, 65.44797
798.3011, 65.72330
798.7832, 65.14871
799.2653, 64.62790
799.7474, 64.34516
800.2296, 64.28170
800.7117, 64.51833
801.1938, 65.01010
801.6759, 65.25657
802.1580, 64.89492
802.6401, 64.34986
803.1223, 63.94698
803.6044, 63.75021
804.0865, 63.92720
804.5686, 64.78796
805.0507, 65.75481
805.5328, 67.01747
806.0150, 68.22958
806.4971, 68.35217
806.9792, 67.00807
807.4613, 65.74487
807.9434, 64.86183
808.4255, 64.45515
808.9077, 65.00710
809.3898, 66.30441
809.8719, 67.39951
810.3540, 68.02605
810.8361, 68.12496
811.3182, 67.21816
811.8004, 65.76517
812.2825, 64.83510
812.7646, 65.18150
813.2467, 65.48311
813.7288, 65.30613
814.2109, 64.99654
814.6931, 65.70454
815.1752, 67.64092
815.6573, 68.61776
816.1394, 67.69326
816.6215, 66.01414
817.1037, 65.50254
817.5858, 65.80331
818.0679, 65.96182
818.5500, 65.02824
819.0322, 64.45476
819.5143, 65.51516
819.9964, 67.35734
820.4785, 68.14150
820.9606, 67.12900
821.4427, 66.27522
821.9249, 65.88066
822.4070, 65.78233
822.8891, 65.69071
823.3712, 65.60437
823.8533, 65.49719
824.3354, 65.33307
824.8176, 65.20652
825.2997, 65.28532
825.7818, 65.46587
826.2639, 65.56845
826.7460, 65.56952
827.2281, 65.44473
827.7103, 64.78195
828.1924, 64.17862
828.6745, 64.65433
829.1566, 66.72444
829.6387, 67.69836
830.1208, 66.97618
830.6030, 65.50343
831.0851, 64.44411
831.5672, 63.82629
832.0493, 63.80828
832.5314, 64.61072
833.0135, 65.54761
833.4957, 66.45985
833.9778, 67.09685
834.4599, 67.17182
834.9420, 65.58512
835.4241, 65.01597
835.9063, 66.05286
836.3884, 67.40884
836.8705, 67.47115
837.3526, 66.27715
837.8347, 65.07573
838.3168, 63.94256
838.7990, 63.17622
839.2811, 63.16332
839.7632, 63.66120
840.2453, 64.39899
840.7274, 65.43505
841.2095, 66.32984
841.6917, 67.25955
842.1738, 67.73205
842.6559, 67.26480
843.1380, 65.36059
843.6201, 64.42019
844.1022, 64.69260
844.5844, 65.07149
845.0665, 64.27994
845.5486, 62.79686
846.0307, 61.90849
846.5128, 61.72905
846.9949, 62.02925
847.4771, 63.22041
847.9592, 64.42492
848.4413, 64.93968
848.9234, 64.56809
849.4055, 64.02784
849.8876, 62.98862
850.3698, 62.37415
850.8519, 63.00194
851.3340, 64.72163
851.8161, 65.42922
852.2982, 65.13137
852.7803, 64.82998
853.2625, 65.56834
853.7446, 66.47671
854.2267, 66.53321
854.7088, 65.76717
855.1909, 65.08163
855.6730, 64.51530
856.1552, 64.39696
856.6373, 65.14165
857.1194, 66.53799
857.6015, 66.72192
858.0836, 65.53482
858.5657, 64.34003
859.0479, 63.74380
859.5300, 63.57102
860.0121, 63.56530
860.4942, 63.70518
860.9763, 63.91847
861.4584, 64.03896
861.9406, 64.35442
862.4227, 65.40018
862.9048, 66.76617
863.3869, 67.01845
863.8690, 65.63744
864.3511, 64.37424
864.8333, 63.46539
865.3154, 63.10036
865.7975, 64.10954
866.2796, 66.11190
866.7617, 67.44707
867.2438, 67.35658
867.7260, 66.73624
868.2081, 65.72887
868.6902, 64.79693
869.1723, 64.63537
869.6544, 66.24348
870.1365, 67.45560
870.6187, 68.15623
871.1008, 68.42471
871.5829, 68.24771
872.0650, 67.64942
872.5471, 67.15382
873.0292, 66.87856
873.5114, 66.51669
873.9935, 65.40852
874.4756, 64.18210
874.9577, 63.71286
875.4399, 64.42117
875.9220, 65.06480
876.4041, 65.28461
876.8862, 65.37863
877.3683, 65.56233
877.8505, 65.89114
878.3326, 65.85661
878.8147, 65.40810
879.2968, 64.96458
879.7789, 64.94430
880.2610, 65.14925
880.7432, 65.21584
881.2253, 65.13097
881.7074, 65.19576
882.1895, 65.91753
882.6716, 66.49238
883.1537, 66.22588
883.6359, 65.20152
884.1180, 65.29767
884.6001, 66.90926
885.0822, 67.95246
885.5643, 66.94819
886.0464, 64.96009
886.5286, 64.67928
887.0107, 65.76234
887.4928, 66.79977
887.9749, 67.39962
888.4570, 67.38426
888.9391, 65.87572
889.4213, 63.65209
889.9034, 63.30495
890.3855, 66.09329
890.8676, 67.76505
891.3497, 67.06991
891.8318, 65.41035
892.3140, 65.68770
892.7961, 67.37564
893.2782, 68.39896
893.7603, 68.04562
894.2424, 67.06264
894.7245, 65.17354
895.2067, 63.33951
895.6888, 62.75341
896.1709, 64.93197
896.6530, 66.19604
897.1351, 66.21191
897.6172, 65.81979
898.0994, 65.90884
898.5815, 66.39528
899.0636, 66.66817
899.5457, 66.66346
900.0278, 66.53039
900.5099, 66.29468
900.9921, 66.05062
901.4742, 65.92565
901.9563, 65.97068
902.4384, 65.79913
902.9205, 65.04302
903.4026, 64.55379
903.8848, 64.86305
904.3669, 65.83955
904.8490, 66.35031
905.3311, 66.40920
905.8132, 66.46611
906.2953, 66.84039
906.7775, 67.31096
907.2596, 67.92245
907.7417, 68.48414
908.2238, 68.35839
908.7059, 66.27561
909.1880, 64.87375
909.6702, 64.96429
910.1523, 65.88765
910.6344, 66.15367
911.1165, 65.76863
911.5986, 64.83105
912.0807, 62.96203
912.5629, 61.57163
913.0450, 63.05764
913.5271, 65.81141
914.0092, 67.42319
914.4913, 66.55167
914.9734, 65.66093
915.4556, 65.01649
915.9377, 64.60329
916.4198, 64.45095
916.9019, 64.57283
917.3840, 64.71906
917.8661, 64.87640
918.3483, 65.06942
918.8304, 65.25771
919.3125, 65.53162
919.7946, 66.17112
920.2767, 67.20298
920.7589, 67.74850
921.2410, 67.13525
921.7231, 66.37747
922.2052, 65.75221
922.6873, 65.29887
923.1694, 65.47963
923.6516, 66.31008
924.1337, 67.17317
924.6158, 68.03622
925.0979, 68.51831
925.5800, 67.57710
926.0621, 65.85854
926.5443, 64.96598
927.0264, 66.27160
927.5085, 67.45065
927.9906, 68.08488
928.4727, 68.31003
928.9548, 68.25571
929.4370, 67.90874
929.9191, 67.70262
930.4012, 67.73602
930.8833, 67.83270
931.3654, 67.71560
931.8475, 67.57393
932.3297, 67.75050
932.8118, 68.49916
933.2939, 68.84864
933.7761, 68.35166
934.2582, 67.60001
934.7403, 66.80072
935.2224, 65.93266
935.7045, 65.86253
936.1866, 66.62090
936.6688, 67.29471
937.1509, 67.08147
937.6330, 66.54897
938.1151, 66.33343
938.5972, 66.39491
939.0793, 66.43208
939.5615, 66.23040
940.0436, 66.13895
940.5257, 66.15493
941.0078, 66.38238
941.4899, 67.43028
941.9720, 69.23692
942.4542, 70.04316
942.9363, 69.09122
943.4184, 67.60379
943.9005, 66.45573
944.3826, 65.79209
944.8647, 65.86726
945.3469, 67.56649
945.8290, 68.38933
946.3111, 67.81048
946.7932, 66.76848
947.2753, 65.90113
947.7574, 65.21905
948.2396, 65.26846
948.7217, 66.07051
949.2038, 66.85564
949.6859, 67.07690
950.1680, 66.97309
950.6501, 66.71482
951.1323, 66.31966
951.6144, 65.80100
952.0965, 64.85704
952.5786, 64.35768
953.0607, 64.79655
953.5428, 65.70892
954.0250, 65.38664
954.5071, 64.11306
954.9892, 63.62393
955.4713, 65.05548
955.9534, 66.69226
956.4355, 67.35745
956.9177, 67.37691
957.3998, 67.20299
957.8819, 66.61201
958.3640, 66.42416
958.8461, 66.82036
959.3282, 67.29128
959.8104, 67.26698
960.2925, 66.86734
960.7746, 66.36958
961.2567, 65.80094
961.7388, 65.59286
962.2209, 66.23466
962.7031, 67.15090
963.1852, 68.21854
963.6673, 69.34993
964.1494, 69.33530
964.6315, 67.74031
965.1136, 66.51089
965.5958, 66.49397
966.0779, 67.16961
966.5600, 67.71915
967.0421, 68.06672
967.5242, 67.98061
968.0063, 67.06432
968.4885, 66.12545
968.9706, 65.09112
969.4527, 64.41586
969.9348, 64.78721
970.4169, 66.56946
970.8990, 67.52176
971.3812, 67.42217
971.8633, 67.01601
972.3454, 67.13573
972.8275, 67.37537
973.3096, 66.80984
973.7917, 65.39276
974.2739, 64.91702
974.7560, 67.49828
975.2381, 69.49650
975.7202, 69.26857
976.2023, 67.34042
976.6844, 66.36316
977.1666, 66.31982
977.6487, 66.42319
978.1308, 66.42539
978.6129, 66.32404
979.0950, 65.85464
979.5771, 65.35251
980.0593, 65.36264
980.5414, 66.79441
981.0235, 67.56846
981.5056, 67.27279
981.9877, 66.79223
982.4698, 67.28677
982.9520, 68.48805
983.4341, 68.55999
983.9162, 67.39603
984.3983, 66.05853
984.8804, 64.77518
985.3625, 64.04709
985.8447, 64.63297
986.3268, 66.43709
986.8089, 67.26371
987.2910, 66.82151
987.7731, 66.15625
988.2552, 65.46026
988.7374, 64.93210
989.2195, 65.07310
989.7016, 65.71333
990.1837, 66.46642
990.6658, 67.47433
991.1479, 68.03571
991.6301, 67.34559
992.1122, 66.40403
992.5944, 66.26578
993.0765, 67.18154
993.5586, 67.44933
994.0407, 66.97892
994.5228, 66.45160
995.0049, 66.54941
995.4871, 66.84750
995.9692, 66.64457
996.4513, 66.02853
996.9334, 65.78416
997.4155, 66.54560
997.8976, 67.23502
998.3798, 67.58249
998.8619, 67.70651
999.3440, 67.91792
999.8261, 68.19643
1000.308, 68.34940
1000.790, 68.33205
1001.272, 68.16013
1001.755, 67.45168
1002.237, 66.81502
1002.719, 67.04344
1003.201, 68.76480
1003.683, 69.51488
1004.165, 68.94492
1004.647, 68.30067
1005.129, 68.61312
1005.612, 69.43569
1006.094, 69.33358
1006.576, 68.49520
1007.058, 67.80412
1007.540, 68.03704
1008.022, 68.15632
1008.504, 67.37611
1008.986, 66.34032
1009.468, 66.36404
1009.951, 67.68266
1010.433, 67.92297
1010.915, 66.48302
1011.397, 65.04027
1011.879, 65.89356
1012.361, 67.63689
1012.843, 68.48132
1013.325, 68.04206
1013.807, 67.73914
1014.290, 67.84493
1014.772, 68.10448
1015.254, 68.58988
1015.736, 69.09256
1016.218, 68.36817
1016.700, 66.70727
1017.182, 65.82370
1017.664, 67.24911
1018.147, 68.68429
1018.629, 68.32692
1019.111, 67.18425
1019.593, 66.85896
1020.075, 67.82909
1020.557, 68.31386
1021.039, 68.19640
1021.521, 67.76712
1022.003, 66.80561
1022.486, 65.92919
1022.968, 66.70013
1023.450, 68.98806
1023.932, 70.46990
1024.414, 69.59756
1024.896, 68.46082
1025.378, 67.58570
1025.860, 67.01737
1026.343, 66.91484
1026.825, 67.26582
1027.307, 67.99930
1027.789, 69.30214
1028.271, 70.31161
1028.753, 70.01524
1029.235, 69.13374
1029.717, 68.46658
1030.199, 68.20057
1030.682, 67.77682
1031.164, 67.00806
1031.646, 66.59975
1032.128, 67.27735
1032.610, 68.53085
1033.092, 68.83028
1033.574, 68.48757
1034.056, 68.63961
1034.539, 71.02959
1035.021, 72.47884
1035.503, 71.32957
1035.985, 69.14336
1036.467, 67.94506
1036.949, 67.76981
1037.431, 67.45245
1037.913, 66.82889
1038.396, 66.47129
1038.878, 67.40505
1039.360, 68.47566
1039.842, 68.23082
1040.324, 68.92184
1040.806, 69.76143
1041.288, 68.94394
1041.770, 70.53484
1042.252, 69.84609
1042.734, 67.96727
1043.217, 66.84217
1043.699, 66.38371
1044.181, 66.36436
1044.663, 66.78674
1045.145, 67.46916
1045.627, 68.77780
1046.109, 69.95786
1046.591, 70.47066
1047.074, 70.30794
1047.556, 69.44504
1048.038, 67.87210
1048.520, 66.69178
1049.002, 67.01298
1049.484, 67.71976
1049.966, 67.77839
1050.448, 67.44033
1050.931, 67.50019
1051.413, 68.40402
1051.895, 68.83118
1052.377, 68.50556
1052.859, 67.99450
1053.341, 67.94168
1053.823, 68.24044
1054.305, 68.80064
1054.787, 69.61217
1055.270, 70.03166
1055.752, 69.37298
1056.234, 68.68156
1056.716, 68.41668
1057.198, 68.46910
1057.680, 68.39124
1058.162, 68.20090
1058.644, 68.21068
1059.126, 68.61093
1059.609, 69.01197
1060.091, 69.08358
1060.573, 68.95116
1061.055, 68.67902
1061.537, 68.11160
1062.019, 68.11063
1062.501, 68.77415
1062.983, 69.65154
1063.466, 70.75525
1063.948, 71.70384
1064.430, 71.69923
1064.912, 70.93063
1065.394, 69.95993
1065.876, 68.27550
1066.358, 67.46425
1066.840, 68.08142
1067.323, 69.25990
1067.805, 70.11930
1068.287, 70.62984
1068.769, 70.27204
1069.251, 69.01545
1069.733, 68.11470
1070.215, 68.97995
1070.697, 70.01608
1071.179, 70.09187
1071.661, 69.40465
1072.144, 68.77378
1072.626, 68.13917
1073.108, 68.08557
1073.590, 68.91776
1074.072, 69.92008
1074.554, 70.35993
1075.036, 70.33186
1075.518, 69.83651
1076.001, 68.67883
1076.483, 68.04411
1076.965, 68.27447
1077.447, 68.48842
1077.929, 68.15093
1078.411, 67.52107
1078.893, 67.32585
1079.375, 67.48855
1079.858, 67.77171
1080.340, 68.35927
1080.822, 68.65058
1081.304, 68.13346
1081.786, 67.44687
1082.268, 67.13909
1082.750, 67.21568
1083.232, 67.50632
1083.714, 68.00571
1084.197, 68.45741
1084.679, 68.78474
1085.161, 68.89846
1085.643, 68.46183
1086.125, 67.76550
1086.607, 67.78770
1087.089, 68.90071
1087.571, 69.40160
1088.054, 68.92337
1088.536, 68.23302
1089.018, 68.37318
1089.500, 68.80852
1089.982, 68.58326
1090.464, 67.58028
1090.946, 67.23409
1091.428, 68.31911
1091.911, 69.28703
1092.393, 69.68429
1092.875, 69.63936
1093.357, 69.28770
1093.839, 68.75277
1094.321, 68.41184
1094.803, 68.38456
1095.285, 68.51503
1095.767, 68.99780
1096.250, 69.36125
1096.732, 69.16978
1097.214, 68.47959
1097.696, 68.59606
1098.178, 69.46775
1098.660, 70.00728
1099.142, 69.23418
1099.624, 68.42221
1100.106, 68.81692
1100.589, 69.69810
1101.071, 69.85233
1101.553, 68.83289
1102.035, 68.55298
1102.517, 69.19103
1102.999, 69.76237
1103.481, 69.02902
1103.963, 68.00802
1104.446, 68.33233
1104.928, 69.65141
1105.410, 70.34111
1105.892, 69.68105
1106.374, 68.93383
1106.856, 68.17696
1107.338, 67.54421
1107.820, 67.12119
1108.302, 66.97716
1108.785, 67.49480
1109.267, 68.70786
1109.749, 69.41415
1110.231, 68.67651
1110.713, 67.79771
1111.195, 67.16376
1111.677, 66.78752
1112.159, 66.77116
1112.641, 67.06447
1113.124, 67.27317
1113.606, 67.18191
1114.088, 67.51167
1114.570, 69.89559
1115.052, 71.93383
1115.534, 71.20712
1116.016, 67.92128
1116.498, 66.83104
1116.981, 67.99982
1117.463, 69.18079
1117.945, 69.40124
1118.427, 69.19180
1118.909, 68.65833
1119.391, 68.21104
1119.873, 68.54322
1120.355, 70.18055
1120.838, 71.20075
1121.320, 71.60757
1121.802, 71.37556
1122.284, 69.79491
1122.766, 68.00877
1123.248, 67.95956
1123.730, 69.12897
1124.212, 70.08928
1124.694, 70.37265
1125.177, 70.47375
1125.659, 70.40211
1126.141, 70.21064
1126.623, 69.72795
1127.105, 69.22034
1127.587, 69.70236
1128.069, 71.02567
1128.551, 71.73789
1129.033, 70.65437
1129.516, 69.51916
1129.998, 68.73255
1130.480, 68.25587
1130.962, 68.02026
1131.444, 68.02699
1131.926, 68.36683
1132.408, 69.07104
1132.890, 69.65799
1133.373, 69.79672
1133.855, 69.75436
1134.337, 69.68703
1134.819, 69.57369
1135.301, 69.16467
1135.783, 68.49094
1136.265, 68.49779
1136.747, 69.66512
1137.229, 70.60480
1137.712, 69.73386
1138.194, 68.39244
1138.676, 67.75109
1139.158, 67.83573
1139.640, 68.35356
1140.122, 69.38683
1140.604, 70.04864
1141.086, 69.78017
1141.569, 69.35796
1142.051, 69.82076
1142.533, 70.59905
1143.015, 70.88281
1143.497, 70.33727
1143.979, 70.03702
1144.461, 69.99612
1144.943, 70.17094
1145.426, 70.87135
1145.908, 71.48706
1146.390, 70.64525
1146.872, 69.01709
1147.354, 67.99777
1147.836, 68.64134
1148.318, 68.87237
1148.800, 68.42045
1149.282, 68.06567
1149.765, 68.73300
1150.247, 69.87975
1150.729, 70.23237
1151.211, 69.92673
1151.693, 69.65074
1152.175, 69.88093
1152.657, 69.80989
1153.139, 69.06523
1153.621, 68.36485
1154.104, 68.80446
1154.586, 69.97857
1155.068, 70.59710
1155.550, 70.58262
1156.032, 70.09722
1156.514, 68.36943
1156.996, 67.27309
1157.478, 67.51428
1157.961, 68.51831
1158.443, 69.41615
1158.925, 70.18400
1159.407, 70.66172
1159.889, 70.81837
1160.371, 70.84945
1160.853, 70.75183
1161.335, 70.68619
1161.818, 70.74741
1162.300, 70.89430
1162.782, 71.03431
1163.264, 71.16104
1163.746, 71.18803
1164.228, 71.07482
1164.710, 70.99510
1165.192, 71.42526
1165.674, 71.61890
1166.156, 70.82979
1166.639, 69.27491
1167.121, 68.22016
1167.603, 67.67152
1168.085, 67.59347
1168.567, 68.09765
1169.049, 68.69437
1169.531, 69.05196
1170.013, 69.23245
1170.496, 69.30856
1170.978, 69.29513
1171.460, 68.85745
1171.942, 67.93239
1172.424, 67.74033
1172.906, 69.34904
1173.388, 70.99207
1173.870, 70.38543
1174.353, 68.98966
1174.835, 68.87106
1175.317, 70.44091
1175.799, 71.54954
1176.281, 72.22436
1176.763, 72.25924
1177.245, 70.94927
1177.727, 69.58518
1178.209, 69.87935
1178.692, 71.05939
1179.174, 71.82600
1179.656, 71.98824
1180.138, 71.83850
1180.620, 71.37154
1181.102, 70.60668
1181.584, 69.04379
1182.066, 67.58010
1182.548, 67.52334
1183.031, 68.44352
1183.513, 69.34676
1183.995, 70.10559
1184.477, 70.80747
1184.959, 71.53300
1185.441, 71.92261
1185.923, 71.20989
1186.405, 70.27087
1186.888, 70.62269
1187.370, 71.85469
1187.852, 72.37835
1188.334, 71.52195
1188.816, 70.74715
1189.298, 70.16967
1189.780, 69.74620
1190.262, 69.19279
1190.745, 68.90540
1191.227, 69.91946
1191.709, 71.91472
1192.191, 72.95454
1192.673, 72.03862
1193.155, 71.36282
1193.637, 71.26443
1194.119, 71.35936
1194.601, 71.22437
1195.084, 70.95464
1195.566, 70.61277
1196.048, 70.23862
1196.530, 70.16834
1197.012, 70.62474
1197.494, 71.05531
1197.976, 71.36031
1198.458, 71.59415
1198.941, 71.97684
1199.423, 72.27475
1199.905, 71.96362
1200.387, 71.00977
1200.869, 70.24107
1201.351, 69.82078
1201.833, 69.58203
1202.315, 69.47612
1202.797, 69.55782
1203.280, 70.26321
1203.762, 71.07679
1204.244, 70.79443
1204.726, 69.15347
1205.208, 68.63877
1205.690, 70.42966
1206.172, 71.77882
1206.654, 71.82404
1207.136, 71.10706
1207.619, 70.31154
1208.101, 69.54336
1208.583, 68.85127
1209.065, 68.14609
1209.547, 68.48098
1210.029, 70.75318
1210.511, 72.28744
1210.993, 71.83983
1211.476, 70.61778
1211.958, 70.88539
1212.440, 71.97897
1212.922, 72.87733
1213.404, 73.55569
1213.886, 72.82073
1214.368, 69.61781
1214.850, 67.45730
1215.333, 68.17187
1215.815, 70.19388
1216.297, 70.85350
1216.779, 70.66344
1217.261, 70.52507
1217.743, 70.62900
1218.225, 70.85606
1218.707, 71.37108
1219.189, 71.50459
1219.672, 70.75047
1220.154, 69.67905
1220.636, 69.19317
1221.118, 69.20047
1221.600, 69.62795
1222.082, 70.75837
1222.564, 71.24187
1223.046, 70.77193
1223.528, 70.42160
1224.011, 70.90652
1224.493, 71.64873
1224.975, 71.59937
1225.457, 71.11396
1225.939, 70.85564
1226.421, 71.25368
1226.903, 70.93392
1227.385, 69.59801
1227.868, 68.57664
1228.350, 68.68642
1228.832, 69.45324
1229.314, 70.48941
1229.796, 71.54546
1230.278, 72.18565
1230.760, 72.28323
1231.242, 71.91175
1231.724, 70.87524
1232.207, 70.31097
1232.689, 71.36180
1233.171, 72.75394
1233.653, 72.52464
1234.135, 71.60031
1234.617, 71.70749
1235.099, 73.82334
1235.581, 74.07851
1236.063, 72.16256
1236.546, 70.54391
1237.028, 71.18965
1237.510, 72.45269
1237.992, 72.94388
1238.474, 72.72350
1238.956, 71.66122
1239.438, 69.21944
1239.920, 68.65179
1240.403, 70.10936
1240.885, 71.45299
1241.367, 70.97250
1241.849, 70.14244
1242.331, 70.23655
1242.813, 70.81113
1243.295, 71.15861
1243.777, 71.15329
1244.260, 71.75413
1244.742, 72.96876
1245.224, 73.53297
1245.706, 71.69937
1246.188, 69.99597
1246.670, 70.70974
1247.152, 72.25207
1247.634, 72.27591
1248.116, 70.59729
1248.599, 70.25902
1249.081, 71.18813
1249.563, 72.03394
1250.045, 71.70149
1250.527, 71.40020
1251.009, 71.86349
1251.491, 72.62001
1251.973, 73.32840
1252.455, 73.96384
1252.938, 73.72530
1253.420, 72.72655
1253.902, 71.91547
1254.384, 72.54993
1254.866, 72.47691
1255.348, 69.76956
1255.830, 67.18482
1256.313, 67.68961
1256.795, 70.63913
1257.277, 71.91945
1257.759, 71.77501
1258.241, 71.64812
1258.723, 72.71384
1259.205, 73.08919
1259.687, 72.07822
1260.169, 70.85717
1260.651, 70.40674
1261.134, 70.58195
1261.616, 71.21432
1262.098, 72.08219
1262.580, 72.46372
1263.062, 71.41846
1263.544, 70.96609
1264.026, 71.55735
1264.508, 72.10106
1264.991, 71.48357
1265.473, 70.30289
1265.955, 69.46534
1266.437, 69.04671
1266.919, 69.23213
1267.401, 70.79420
1267.883, 71.52458
1268.365, 71.16975
1268.848, 70.86099
1269.330, 71.82674
1269.812, 73.05431
1270.294, 73.11459
1270.776, 72.45969
1271.258, 72.09692
1271.740, 72.19333
1272.222, 72.43855
1272.704, 72.88554
1273.187, 72.92225
1273.669, 71.66593
1274.151, 70.26949
1274.633, 69.67432
1275.115, 69.66515
1275.597, 69.87895
1276.079, 70.34480
1276.561, 70.74297
1277.043, 71.06775
1277.526, 71.21043
1278.008, 70.95969
1278.490, 70.67314
1278.972, 70.32732
1279.454, 70.24560
1279.936, 70.96999
1280.418, 72.43497
1280.900, 72.68701
1281.383, 71.94079
1281.865, 71.59832
1282.347, 73.31750
1282.829, 74.13894
1283.311, 72.15598
1283.793, 70.04002
1284.275, 70.06628
1284.757, 71.59964
1285.240, 72.03882
1285.722, 71.64454
1286.204, 71.24265
1286.686, 71.06749
1287.168, 71.05460
1287.650, 71.18665
1288.132, 71.47470
1288.614, 72.23071
1289.096, 72.92420
1289.578, 72.00993
1290.061, 70.29423
1290.543, 69.47964
1291.025, 70.63536
1291.507, 71.01032
1291.989, 70.34402
1292.471, 70.15388
1292.953, 71.85966
1293.435, 73.78260
1293.918, 73.91843
1294.400, 72.96034
1294.882, 71.72168
1295.364, 70.15980
1295.846, 69.69469
1296.328, 70.35231
1296.810, 70.62926
1297.292, 69.26967
1297.775, 68.27798
1298.257, 69.98650
1298.739, 72.15157
1299.221, 72.49795
1299.703, 71.28190
1300.185, 71.25609
1300.667, 72.20037
1301.149, 72.81304
1301.631, 72.61025
1302.114, 71.96544
1302.596, 71.02593
##END=



