##NAMES=Botallackite
##RRUFFID=R070066
##IDEAL CHEMISTRY=Cu^2+^_2_Cl(OH)_3_
##LOCALITY=Levante mine, St. Just, Cornwall, England
##OWNER=RRUFF
##SOURCE=Bob Jenkins
##DESCRIPTION=Pale greenish blue bladed crystals
##STATUS=The identification of this mineral is confirmed by single-crystal X-ray diffraction and chemical analysis.
##URL=rruff.info/R070066
##MEASURED CHEMISTRY=Cu_2.01_Cl_0.99_(OH)_3_
136.6826, 2439.053
137.1647, 2565.192
137.6469, 2712.043
138.1290, 2866.156
138.6111, 3019.423
139.0932, 3169.284
139.5753, 3324.116
140.0574, 3480.734
140.5396, 3641.236
141.0217, 3812.155
141.5038, 3992.730
141.9859, 4182.771
142.4680, 4378.453
142.9501, 4578.656
143.4323, 4789.811
143.9144, 5013.404
144.3965, 5243.514
144.8786, 5502.771
145.3607, 5793.244
145.8428, 6110.584
146.3250, 6443.073
146.8071, 6794.065
147.2892, 7161.229
147.7713, 7544.648
148.2534, 7945.636
148.7355, 8358.323
149.2177, 8800.604
149.6998, 9256.561
150.1819, 9690.957
150.6640, 10140.64
151.1461, 10545.70
151.6282, 10884.98
152.1104, 11163.65
152.5925, 11369.05
153.0746, 11531.89
153.5567, 11632.33
154.0388, 11581.95
154.5209, 11314.09
155.0031, 10923.14
155.4852, 10469.29
155.9673, 9908.051
156.4494, 9332.606
156.9315, 8742.162
157.4136, 8138.465
157.8958, 7573.675
158.3779, 7049.893
158.8600, 6574.170
159.3421, 6160.101
159.8242, 5824.267
160.3063, 5539.975
160.7885, 5298.115
161.2706, 5099.819
161.7527, 4930.910
162.2348, 4795.289
162.7169, 4684.096
163.1990, 4584.255
163.6811, 4489.552
164.1633, 4404.932
164.6454, 4333.647
165.1275, 4274.645
165.6096, 4231.596
166.0917, 4210.165
166.5738, 4206.633
167.0560, 4212.252
167.5381, 4214.780
168.0202, 4228.098
168.5023, 4267.310
168.9844, 4346.387
169.4665, 4434.934
169.9487, 4511.442
170.4308, 4577.662
170.9129, 4639.593
171.3950, 4690.966
171.8771, 4742.798
172.3592, 4811.331
172.8414, 4910.286
173.3235, 5018.119
173.8056, 5129.784
174.2877, 5242.856
174.7698, 5314.760
175.2519, 5316.204
175.7341, 5253.494
176.2162, 5137.917
176.6983, 4956.178
177.1804, 4733.060
177.6625, 4491.185
178.1446, 4230.348
178.6267, 3981.792
179.1089, 3771.783
179.5910, 3600.229
180.0731, 3458.949
180.5552, 3361.121
181.0373, 3290.703
181.5194, 3216.926
182.0016, 3135.971
182.4837, 3060.471
182.9658, 3008.060
183.4479, 2976.646
183.9300, 2956.098
184.4121, 2943.386
184.8943, 2937.298
185.3764, 2934.272
185.8585, 2934.978
186.3406, 2936.468
186.8227, 2931.755
187.3048, 2921.226
187.7870, 2913.880
188.2691, 2918.294
188.7512, 2932.549
189.2333, 2944.397
189.7154, 2952.950
190.1975, 2957.381
190.6796, 2952.366
191.1618, 2937.093
191.6439, 2924.032
192.1260, 2927.892
192.6081, 2947.292
193.0902, 2957.374
193.5723, 2950.707
194.0545, 2931.792
194.5366, 2914.637
195.0187, 2898.682
195.5008, 2886.413
195.9829, 2881.276
196.4650, 2883.535
196.9472, 2886.572
197.4293, 2887.891
197.9114, 2888.268
198.3935, 2895.885
198.8756, 2914.240
199.3577, 2930.140
199.8399, 2923.971
200.3220, 2892.104
200.8041, 2865.233
201.2862, 2853.443
201.7683, 2856.608
202.2504, 2865.033
202.7325, 2881.431
203.2147, 2898.384
203.6968, 2903.865
204.1789, 2895.411
204.6610, 2885.847
205.1431, 2878.927
205.6252, 2874.441
206.1074, 2875.936
206.5895, 2885.712
207.0716, 2898.849
207.5537, 2905.368
208.0358, 2902.931
208.5179, 2900.990
209.0001, 2904.228
209.4822, 2913.936
209.9643, 2922.846
210.4464, 2931.447
210.9285, 2938.807
211.4106, 2942.654
211.8928, 2942.313
212.3749, 2940.012
212.8570, 2936.766
213.3391, 2932.562
213.8212, 2926.883
214.3033, 2917.228
214.7855, 2906.648
215.2676, 2906.251
215.7497, 2918.770
216.2318, 2936.371
216.7139, 2956.311
217.1960, 2983.375
217.6781, 2998.697
218.1603, 2995.653
218.6424, 2978.973
219.1245, 2974.883
219.6066, 2989.700
220.0887, 3007.538
220.5708, 3016.570
221.0530, 3012.584
221.5351, 3010.082
222.0172, 3010.034
222.4993, 3012.642
222.9814, 3020.362
223.4635, 3035.792
223.9457, 3053.075
224.4278, 3066.762
224.9099, 3071.694
225.3920, 3084.492
225.8741, 3111.251
226.3562, 3151.175
226.8384, 3180.097
227.3205, 3192.817
227.8026, 3199.922
228.2847, 3209.669
228.7668, 3218.129
229.2489, 3237.762
229.7310, 3274.519
230.2132, 3329.958
230.6953, 3374.123
231.1774, 3399.327
231.6595, 3420.638
232.1416, 3454.170
232.6237, 3506.896
233.1059, 3558.619
233.5880, 3603.171
234.0701, 3637.839
234.5522, 3685.106
235.0343, 3744.868
235.5164, 3817.319
235.9986, 3904.385
236.4807, 4019.524
236.9628, 4125.439
237.4449, 4208.254
237.9270, 4260.264
238.4091, 4333.565
238.8913, 4435.461
239.3734, 4552.950
239.8555, 4669.717
240.3376, 4788.199
240.8197, 4901.653
241.3018, 5005.944
241.7840, 5097.455
242.2661, 5197.845
242.7482, 5306.767
243.2303, 5425.439
243.7124, 5558.332
244.1945, 5718.919
244.6767, 5871.034
245.1588, 6003.302
245.6409, 6113.013
246.1230, 6215.107
246.6051, 6311.685
247.0872, 6400.110
247.5694, 6475.636
248.0515, 6535.727
248.5336, 6587.536
249.0157, 6635.552
249.4978, 6686.366
249.9799, 6710.823
250.4621, 6708.416
250.9442, 6679.857
251.4263, 6625.709
251.9084, 6545.812
252.3905, 6441.847
252.8726, 6314.357
253.3548, 6162.431
253.8369, 5983.267
254.3190, 5758.672
254.8011, 5518.054
255.2832, 5324.410
255.7653, 5203.025
256.2474, 5084.566
256.7296, 4938.624
257.2117, 4751.870
257.6938, 4587.364
258.1759, 4450.008
258.6580, 4333.678
259.1401, 4223.109
259.6223, 4114.862
260.1044, 4021.860
260.5865, 3953.396
261.0686, 3920.211
261.5507, 3874.427
262.0328, 3808.949
262.5150, 3735.894
262.9971, 3680.007
263.4792, 3642.810
263.9613, 3618.139
264.4434, 3606.528
264.9255, 3613.826
265.4077, 3611.098
265.8898, 3595.818
266.3719, 3572.363
266.8540, 3547.067
267.3361, 3515.554
267.8182, 3494.476
268.3004, 3493.837
268.7825, 3517.968
269.2646, 3541.755
269.7467, 3564.865
270.2288, 3587.762
270.7109, 3612.491
271.1931, 3641.958
271.6752, 3663.668
272.1573, 3667.663
272.6394, 3649.701
273.1215, 3644.202
273.6036, 3653.108
274.0857, 3673.260
274.5678, 3702.280
275.0500, 3743.933
275.5321, 3777.331
276.0142, 3792.083
276.4963, 3787.122
276.9784, 3775.176
277.4605, 3755.619
277.9427, 3730.471
278.4248, 3704.449
278.9069, 3678.627
279.3890, 3646.027
279.8711, 3599.932
280.3532, 3540.442
280.8354, 3485.618
281.3175, 3436.732
281.7996, 3391.101
282.2817, 3343.246
282.7638, 3293.268
283.2459, 3246.019
283.7281, 3203.020
284.2102, 3164.425
284.6923, 3133.798
285.1744, 3113.283
285.6565, 3095.653
286.1386, 3066.741
286.6208, 3027.327
287.1029, 2992.705
287.5850, 2972.578
288.0671, 2964.461
288.5492, 2955.864
289.0313, 2947.118
289.5135, 2935.493
289.9956, 2911.921
290.4777, 2878.190
290.9598, 2854.202
291.4419, 2855.636
291.9240, 2874.718
292.4062, 2885.033
292.8883, 2885.436
293.3704, 2880.427
293.8525, 2875.023
294.3346, 2868.915
294.8167, 2860.515
295.2989, 2844.649
295.7810, 2826.564
296.2631, 2819.464
296.7452, 2824.755
297.2273, 2832.362
297.7094, 2827.799
298.1916, 2815.745
298.6737, 2811.745
299.1558, 2833.566
299.6379, 2863.678
300.1200, 2870.911
300.6021, 2853.380
301.0842, 2833.729
301.5663, 2833.313
302.0485, 2846.522
302.5306, 2860.631
303.0127, 2874.003
303.4948, 2883.769
303.9769, 2881.507
304.4590, 2867.158
304.9412, 2859.131
305.4233, 2880.852
305.9054, 2917.327
306.3875, 2944.000
306.8696, 2943.284
307.3517, 2934.296
307.8339, 2930.296
308.3160, 2931.410
308.7981, 2939.909
309.2802, 2963.631
309.7623, 2993.734
310.2444, 3019.201
310.7266, 3033.190
311.2087, 3043.646
311.6908, 3051.586
312.1729, 3058.072
312.6550, 3071.758
313.1371, 3101.299
313.6193, 3138.498
314.1014, 3176.162
314.5835, 3219.214
315.0656, 3254.269
315.5477, 3269.481
316.0298, 3268.981
316.5120, 3274.957
316.9941, 3302.950
317.4762, 3336.789
317.9583, 3364.894
318.4404, 3380.137
318.9225, 3395.056
319.4047, 3413.896
319.8868, 3435.595
320.3689, 3456.474
320.8510, 3479.289
321.3331, 3498.432
321.8152, 3510.846
322.2974, 3515.093
322.7795, 3514.087
323.2616, 3507.799
323.7437, 3496.583
324.2258, 3481.324
324.7079, 3459.289
325.1901, 3435.696
325.6721, 3413.420
326.1543, 3399.479
326.6364, 3374.539
327.1185, 3327.284
327.6006, 3269.765
328.0827, 3225.606
328.5648, 3204.653
329.0470, 3187.059
329.5291, 3166.625
330.0112, 3141.323
330.4933, 3119.227
330.9754, 3104.093
331.4576, 3090.522
331.9397, 3069.079
332.4218, 3029.175
332.9039, 2998.268
333.3860, 2986.476
333.8681, 2997.220
334.3503, 3002.789
334.8324, 3001.368
335.3145, 2996.628
335.7966, 2992.502
336.2787, 2988.718
336.7608, 2986.730
337.2430, 2988.741
337.7251, 2994.256
338.2072, 2990.055
338.6893, 2972.067
339.1714, 2953.146
339.6535, 2947.325
340.1357, 2956.410
340.6178, 2964.077
341.0999, 2967.017
341.5820, 2965.933
342.0641, 2963.236
342.5462, 2958.597
343.0284, 2954.198
343.5105, 2951.704
343.9926, 2951.052
344.4747, 2952.010
344.9568, 2955.442
345.4389, 2959.454
345.9211, 2958.532
346.4032, 2952.766
346.8853, 2948.634
347.3674, 2952.254
347.8495, 2961.387
348.3316, 2968.398
348.8138, 2971.654
349.2959, 2974.065
349.7780, 2979.022
350.2601, 2986.506
350.7422, 2996.414
351.2243, 3013.804
351.7064, 3032.128
352.1885, 3038.919
352.6707, 3031.038
353.1528, 3021.489
353.6349, 3021.062
354.1170, 3028.322
354.5991, 3040.030
355.0812, 3062.195
355.5634, 3083.652
356.0455, 3092.467
356.5276, 3087.292
357.0097, 3079.969
357.4918, 3077.098
357.9739, 3076.962
358.4561, 3077.271
358.9382, 3073.378
359.4203, 3072.904
359.9024, 3083.838
360.3845, 3105.346
360.8666, 3120.424
361.3488, 3111.377
361.8309, 3098.313
362.3130, 3097.946
362.7951, 3127.393
363.2772, 3156.525
363.7593, 3180.153
364.2415, 3197.957
364.7236, 3208.500
365.2057, 3201.896
365.6878, 3194.683
366.1699, 3195.646
366.6520, 3208.921
367.1342, 3226.052
367.6163, 3252.647
368.0984, 3283.226
368.5805, 3302.570
369.0626, 3294.425
369.5447, 3291.496
370.0269, 3307.977
370.5090, 3358.530
370.9911, 3388.719
371.4732, 3381.802
371.9553, 3364.531
372.4374, 3381.835
372.9196, 3454.806
373.4017, 3520.356
373.8838, 3556.685
374.3659, 3560.960
374.8480, 3581.804
375.3301, 3623.942
375.8123, 3674.166
376.2944, 3715.031
376.7765, 3742.505
377.2586, 3787.509
377.7407, 3862.137
378.2228, 3959.285
378.7049, 4052.152
379.1870, 4138.973
379.6692, 4222.557
380.1513, 4298.127
380.6334, 4368.587
381.1155, 4453.295
381.5976, 4558.480
382.0797, 4676.398
382.5619, 4790.319
383.0440, 4901.737
383.5261, 5031.850
384.0082, 5201.497
384.4903, 5397.782
384.9724, 5596.915
385.4546, 5793.563
385.9367, 5996.247
386.4188, 6206.241
386.9009, 6424.777
387.3830, 6664.699
387.8651, 6936.494
388.3473, 7227.646
388.8294, 7527.017
389.3115, 7836.786
389.7936, 8151.083
390.2757, 8460.153
390.7578, 8773.862
391.2400, 9104.756
391.7221, 9473.077
392.2042, 9845.618
392.6863, 10208.87
393.1684, 10561.35
393.6505, 10908.09
394.1327, 11251.17
394.6148, 11587.01
395.0969, 11909.64
395.5790, 12230.24
396.0611, 12526.03
396.5432, 12790.47
397.0254, 13026.70
397.5075, 13244.69
397.9896, 13471.03
398.4717, 13657.51
398.9538, 13789.20
399.4359, 13878.35
399.9181, 13886.09
400.4002, 13803.89
400.8823, 13644.30
401.3644, 13425.08
401.8465, 13143.48
402.3286, 12805.66
402.8108, 12399.41
403.2928, 11925.87
403.7750, 11461.16
404.2571, 11009.56
404.7392, 10559.25
405.2213, 10085.55
405.7034, 9582.559
406.1855, 9125.940
406.6677, 8735.207
407.1498, 8399.512
407.6319, 8070.200
408.1140, 7749.018
408.5961, 7446.025
409.0782, 7164.037
409.5604, 6904.356
410.0425, 6685.218
410.5246, 6512.185
411.0067, 6365.470
411.4888, 6221.264
411.9709, 6081.200
412.4531, 5949.416
412.9352, 5828.871
413.4173, 5718.296
413.8994, 5612.856
414.3815, 5512.667
414.8636, 5421.249
415.3458, 5340.292
415.8279, 5269.716
416.3100, 5207.742
416.7921, 5154.784
417.2742, 5110.090
417.7563, 5077.933
418.2385, 5056.134
418.7206, 5032.311
419.2027, 4994.326
419.6848, 4956.078
420.1669, 4927.532
420.6490, 4915.496
421.1312, 4906.275
421.6133, 4895.801
422.0954, 4885.763
422.5775, 4880.312
423.0596, 4881.134
423.5417, 4885.795
424.0239, 4891.946
424.5060, 4895.803
424.9881, 4914.373
425.4702, 4960.114
425.9523, 5012.924
426.4344, 5048.629
426.9166, 5054.623
427.3987, 5066.754
427.8808, 5090.383
428.3629, 5125.543
428.8450, 5174.476
429.3271, 5240.032
429.8092, 5312.284
430.2914, 5379.446
430.7735, 5439.639
431.2556, 5521.940
431.7377, 5633.873
432.2198, 5763.093
432.7019, 5880.077
433.1841, 5985.077
433.6662, 6098.126
434.1483, 6225.804
434.6304, 6370.223
435.1125, 6535.769
435.5946, 6723.671
436.0768, 6928.797
436.5589, 7152.266
437.0410, 7389.062
437.5231, 7627.130
438.0052, 7851.239
438.4873, 8084.644
438.9695, 8351.040
439.4516, 8647.944
439.9337, 8954.152
440.4158, 9267.326
440.8979, 9578.762
441.3800, 9879.629
441.8622, 10162.89
442.3443, 10447.27
442.8264, 10742.44
443.3085, 11043.44
443.7906, 11333.54
444.2727, 11621.90
444.7549, 11889.55
445.2370, 12132.00
445.7191, 12351.57
446.2012, 12536.55
446.6833, 12699.40
447.1654, 12820.06
447.6476, 12881.48
448.1297, 12891.55
448.6118, 12828.74
449.0939, 12685.47
449.5760, 12465.24
450.0581, 12192.49
450.5403, 11860.83
451.0224, 11483.90
451.5045, 11063.01
451.9866, 10592.23
452.4687, 10107.07
452.9508, 9603.726
453.4330, 9104.499
453.9151, 8647.920
454.3972, 8228.768
454.8793, 7860.028
455.3614, 7550.171
455.8435, 7285.490
456.3256, 7038.146
456.8077, 6806.082
457.2899, 6587.629
457.7720, 6368.222
458.2541, 6160.755
458.7362, 5990.663
459.2183, 5874.631
459.7004, 5778.702
460.1826, 5674.396
460.6647, 5566.223
461.1468, 5463.203
461.6289, 5371.347
462.1110, 5286.365
462.5931, 5205.619
463.0753, 5128.804
463.5574, 5056.683
464.0395, 4978.023
464.5216, 4908.247
465.0037, 4863.454
465.4858, 4874.672
465.9680, 4879.944
466.4501, 4863.821
466.9322, 4829.238
467.4143, 4799.938
467.8964, 4777.997
468.3785, 4759.401
468.8607, 4741.963
469.3428, 4724.246
469.8249, 4712.062
470.3070, 4707.480
470.7891, 4706.529
471.2712, 4701.280
471.7534, 4689.896
472.2355, 4684.690
472.7176, 4692.096
473.1997, 4709.113
473.6818, 4719.976
474.1639, 4724.332
474.6461, 4726.951
475.1282, 4731.724
475.6103, 4738.195
476.0924, 4743.119
476.5745, 4742.588
477.0566, 4747.828
477.5388, 4780.344
478.0209, 4831.733
478.5030, 4875.965
478.9851, 4894.509
479.4672, 4903.644
479.9493, 4912.946
480.4315, 4922.707
480.9136, 4945.438
481.3957, 4991.412
481.8778, 5052.332
482.3599, 5118.698
482.8420, 5192.793
483.3241, 5268.156
483.8062, 5339.366
484.2884, 5410.011
484.7705, 5492.013
485.2526, 5596.368
485.7347, 5703.854
486.2168, 5806.845
486.6989, 5897.964
487.1811, 6006.465
487.6632, 6142.188
488.1453, 6285.921
488.6274, 6410.677
489.1095, 6510.210
489.5916, 6618.777
490.0738, 6744.094
490.5559, 6882.696
491.0380, 7025.403
491.5201, 7173.784
492.0022, 7315.387
492.4843, 7437.194
492.9665, 7544.378
493.4486, 7652.827
493.9307, 7766.517
494.4128, 7875.206
494.8949, 7973.189
495.3770, 8059.608
495.8592, 8135.092
496.3413, 8201.528
496.8234, 8255.058
497.3055, 8283.282
497.7876, 8290.737
498.2697, 8304.680
498.7519, 8368.765
499.2340, 8425.580
499.7161, 8430.077
500.1982, 8354.314
500.6803, 8272.154
501.1624, 8202.881
501.6446, 8136.438
502.1267, 8059.301
502.6088, 7953.390
503.0909, 7856.506
503.5730, 7780.347
504.0551, 7724.313
504.5373, 7653.463
505.0194, 7570.390
505.5015, 7466.933
505.9836, 7327.258
506.4657, 7143.369
506.9478, 6990.991
507.4299, 6881.458
507.9120, 6791.030
508.3942, 6676.025
508.8763, 6537.965
509.3584, 6406.346
509.8405, 6296.007
510.3226, 6199.533
510.8047, 6098.620
511.2869, 5994.021
511.7690, 5890.711
512.2511, 5796.496
512.7332, 5705.761
513.2153, 5611.028
513.6974, 5510.105
514.1796, 5405.977
514.6617, 5289.298
515.1438, 5171.205
515.6259, 5071.573
516.1080, 5021.324
516.5901, 4968.345
517.0723, 4887.697
517.5544, 4777.168
518.0365, 4676.265
518.5186, 4586.132
519.0007, 4508.443
519.4828, 4445.672
519.9650, 4408.227
520.4471, 4364.690
520.9292, 4310.964
521.4113, 4253.104
521.8934, 4201.951
522.3755, 4158.445
522.8577, 4119.247
523.3398, 4085.429
523.8219, 4054.855
524.3040, 4011.720
524.7861, 3955.004
525.2682, 3906.875
525.7504, 3897.438
526.2325, 3910.650
526.7146, 3903.145
527.1967, 3864.651
527.6788, 3815.676
528.1609, 3767.166
528.6431, 3723.216
529.1252, 3692.887
529.6073, 3693.668
530.0894, 3697.769
530.5715, 3688.264
531.0536, 3665.729
531.5358, 3642.780
532.0179, 3620.274
532.5000, 3600.814
532.9821, 3585.796
533.4642, 3576.970
533.9464, 3570.456
534.4285, 3572.100
534.9106, 3573.074
535.3927, 3559.212
535.8748, 3522.420
536.3569, 3489.187
536.8391, 3465.972
537.3212, 3451.374
537.8033, 3438.849
538.2854, 3428.175
538.7675, 3420.589
539.2496, 3420.327
539.7318, 3425.007
540.2139, 3421.435
540.6960, 3407.724
541.1781, 3390.038
541.6602, 3372.645
542.1423, 3356.722
542.6245, 3345.557
543.1066, 3341.509
543.5887, 3341.498
544.0708, 3348.418
544.5529, 3358.817
545.0350, 3359.289
545.5172, 3329.202
545.9993, 3298.648
546.4813, 3287.477
546.9634, 3304.341
547.4456, 3313.676
547.9277, 3305.298
548.4098, 3289.509
548.8919, 3275.681
549.3740, 3262.873
549.8561, 3253.971
550.3383, 3250.930
550.8204, 3251.389
551.3025, 3246.285
551.7846, 3232.933
552.2667, 3225.608
552.7488, 3235.894
553.2310, 3260.113
553.7131, 3269.415
554.1952, 3263.164
554.6773, 3250.359
555.1594, 3234.335
555.6415, 3218.372
556.1237, 3211.209
556.6058, 3217.190
557.0879, 3226.505
557.5700, 3233.646
558.0521, 3237.551
558.5342, 3236.003
559.0164, 3214.489
559.4985, 3199.313
559.9806, 3211.628
560.4627, 3250.857
560.9448, 3272.881
561.4269, 3250.121
561.9091, 3220.974
562.3912, 3206.600
562.8733, 3213.751
563.3554, 3222.870
563.8375, 3238.285
564.3196, 3251.908
564.8018, 3251.619
565.2839, 3235.965
565.7660, 3212.047
566.2481, 3173.883
566.7302, 3133.086
567.2123, 3132.284
567.6945, 3170.443
568.1766, 3208.885
568.6587, 3223.789
569.1408, 3221.959
569.6229, 3213.787
570.1050, 3199.416
570.5872, 3186.205
571.0693, 3177.603
571.5514, 3174.217
572.0335, 3177.446
572.5156, 3195.315
572.9977, 3209.501
573.4799, 3211.872
573.9620, 3205.851
574.4441, 3199.751
574.9262, 3197.837
575.4083, 3192.737
575.8904, 3177.023
576.3726, 3150.047
576.8547, 3149.404
577.3368, 3190.494
577.8189, 3230.996
578.3010, 3237.095
578.7831, 3205.887
579.2653, 3183.277
579.7474, 3172.331
580.2295, 3171.082
580.7116, 3183.343
581.1937, 3205.104
581.6758, 3217.305
582.1580, 3209.677
582.6401, 3192.827
583.1222, 3174.761
583.6043, 3157.252
584.0864, 3148.143
584.5685, 3163.865
585.0507, 3180.788
585.5328, 3178.848
586.0149, 3152.498
586.4970, 3135.482
586.9791, 3148.172
587.4612, 3167.193
587.9434, 3172.767
588.4255, 3152.266
588.9076, 3137.665
589.3897, 3130.653
589.8718, 3129.744
590.3539, 3132.867
590.8361, 3140.971
591.3182, 3149.043
591.8003, 3155.564
592.2824, 3160.786
592.7645, 3165.559
593.2466, 3169.903
593.7288, 3173.693
594.2109, 3181.255
594.6930, 3186.986
595.1751, 3176.866
595.6572, 3147.029
596.1393, 3121.193
596.6215, 3120.112
597.1036, 3132.541
597.5857, 3145.093
598.0678, 3158.508
598.5499, 3165.974
599.0320, 3160.977
599.5141, 3148.331
599.9962, 3141.267
600.4783, 3145.671
600.9604, 3149.778
601.4426, 3151.357
601.9247, 3150.367
602.4068, 3144.460
602.8889, 3131.783
603.3710, 3119.083
603.8531, 3109.561
604.3353, 3103.435
604.8174, 3106.218
605.2995, 3119.100
605.7816, 3136.918
606.2637, 3159.483
606.7458, 3182.531
607.2280, 3194.688
607.7101, 3187.631
608.1922, 3174.919
608.6743, 3165.752
609.1564, 3159.399
609.6385, 3153.781
610.1207, 3148.706
610.6028, 3143.585
611.0849, 3137.350
611.5670, 3129.730
612.0491, 3125.097
612.5313, 3122.360
613.0134, 3123.710
613.4955, 3131.990
613.9776, 3151.314
614.4597, 3163.024
614.9418, 3166.958
615.4240, 3163.344
615.9061, 3145.497
616.3882, 3115.943
616.8703, 3103.890
617.3524, 3123.604
617.8345, 3154.445
618.3167, 3162.486
618.7988, 3154.231
619.2809, 3151.929
619.7630, 3180.242
620.2451, 3209.419
620.7272, 3213.373
621.2094, 3192.613
621.6915, 3175.119
622.1736, 3172.972
622.6557, 3175.042
623.1378, 3175.081
623.6199, 3173.717
624.1021, 3166.399
624.5842, 3143.265
625.0663, 3123.517
625.5484, 3134.744
626.0305, 3186.836
626.5126, 3216.563
626.9948, 3207.966
627.4769, 3179.038
627.9590, 3167.062
628.4411, 3169.976
628.9232, 3172.922
629.4053, 3167.676
629.8875, 3158.929
630.3696, 3150.701
630.8517, 3143.721
631.3338, 3142.790
631.8159, 3159.288
632.2980, 3176.704
632.7802, 3182.092
633.2623, 3170.474
633.7444, 3160.668
634.2265, 3153.790
634.7086, 3151.755
635.1907, 3157.173
635.6729, 3176.614
636.1550, 3188.667
636.6371, 3191.220
637.1192, 3186.394
637.6013, 3173.943
638.0834, 3152.990
638.5656, 3143.422
639.0477, 3155.467
639.5298, 3180.356
640.0119, 3206.276
640.4940, 3231.194
640.9761, 3244.516
641.4583, 3225.033
641.9404, 3199.987
642.4225, 3201.506
642.9046, 3233.092
643.3867, 3250.000
643.8688, 3207.211
644.3510, 3160.106
644.8331, 3150.254
645.3152, 3215.982
645.7973, 3260.665
646.2794, 3277.950
646.7615, 3279.499
647.2437, 3278.112
647.7258, 3272.529
648.2079, 3270.020
648.6900, 3271.701
649.1721, 3277.454
649.6542, 3291.669
650.1363, 3312.406
650.6184, 3324.406
651.1005, 3311.430
651.5826, 3290.388
652.0648, 3281.725
652.5469, 3284.554
653.0290, 3292.364
653.5111, 3307.404
653.9932, 3321.891
654.4753, 3327.622
654.9575, 3318.219
655.4396, 3324.343
655.9217, 3374.926
656.4038, 3423.446
656.8859, 3431.180
657.3680, 3370.644
657.8502, 3352.138
658.3323, 3397.227
658.8144, 3462.927
659.2965, 3480.229
659.7786, 3452.403
660.2607, 3425.173
660.7429, 3410.813
661.2250, 3405.758
661.7071, 3405.011
662.1892, 3409.118
662.6713, 3419.701
663.1534, 3445.746
663.6356, 3471.889
664.1177, 3483.820
664.5998, 3482.434
665.0819, 3491.523
665.5640, 3535.534
666.0461, 3575.457
666.5283, 3588.048
667.0104, 3561.893
667.4925, 3561.277
667.9746, 3597.236
668.4567, 3639.318
668.9388, 3653.592
669.4210, 3640.873
669.9031, 3648.318
670.3852, 3688.411
670.8673, 3729.297
671.3494, 3719.080
671.8315, 3677.596
672.3137, 3653.149
672.7958, 3675.356
673.2779, 3705.828
673.7600, 3716.968
674.2421, 3715.674
674.7242, 3719.280
675.2064, 3751.732
675.6885, 3770.389
676.1706, 3753.102
676.6527, 3704.268
677.1348, 3672.406
677.6169, 3664.641
678.0991, 3659.791
678.5812, 3647.188
679.0633, 3627.132
679.5454, 3605.955
680.0275, 3583.645
680.5096, 3559.587
680.9918, 3530.148
681.4739, 3498.854
681.9560, 3472.444
682.4381, 3452.208
682.9202, 3436.272
683.4023, 3427.947
683.8845, 3421.652
684.3666, 3410.677
684.8487, 3387.906
685.3308, 3366.725
685.8129, 3349.978
686.2950, 3336.374
686.7772, 3323.895
687.2593, 3312.748
687.7414, 3302.020
688.2235, 3289.534
688.7056, 3278.134
689.1877, 3281.534
689.6699, 3299.529
690.1520, 3311.863
690.6341, 3304.436
691.1162, 3285.783
691.5983, 3263.653
692.0804, 3239.693
692.5626, 3227.618
693.0447, 3244.080
693.5268, 3269.456
694.0089, 3293.650
694.4910, 3319.005
694.9731, 3326.374
695.4553, 3295.970
695.9374, 3259.877
696.4195, 3240.865
696.9016, 3243.948
697.3837, 3249.349
697.8658, 3259.649
698.3480, 3264.949
698.8301, 3242.016
699.3122, 3197.236
699.7943, 3175.607
700.2764, 3195.779
700.7585, 3228.329
701.2407, 3239.101
701.7228, 3235.431
702.2048, 3233.013
702.6870, 3245.230
703.1691, 3253.208
703.6512, 3245.509
704.1333, 3225.594
704.6154, 3209.743
705.0975, 3194.696
705.5797, 3190.203
706.0618, 3204.327
706.5439, 3234.541
707.0260, 3245.539
707.5081, 3234.347
707.9902, 3220.770
708.4724, 3219.064
708.9545, 3225.317
709.4366, 3225.123
709.9187, 3217.813
710.4008, 3216.605
710.8829, 3247.923
711.3651, 3281.857
711.8472, 3281.556
712.3293, 3224.127
712.8114, 3184.729
713.2935, 3202.353
713.7756, 3238.457
714.2578, 3254.789
714.7399, 3241.892
715.2220, 3228.988
715.7041, 3217.968
716.1862, 3207.730
716.6683, 3192.782
717.1505, 3174.074
717.6326, 3170.348
718.1147, 3193.545
718.5968, 3223.155
719.0789, 3225.861
719.5610, 3210.411
720.0432, 3200.311
720.5253, 3218.910
721.0074, 3234.270
721.4895, 3223.486
721.9716, 3192.466
722.4537, 3172.760
722.9359, 3173.717
723.4180, 3181.424
723.9001, 3194.828
724.3822, 3213.400
724.8643, 3221.660
725.3464, 3218.448
725.8286, 3211.073
726.3107, 3200.503
726.7928, 3189.518
727.2749, 3189.853
727.7570, 3201.876
728.2391, 3212.285
728.7213, 3208.068
729.2034, 3198.809
729.6855, 3194.112
730.1676, 3196.310
730.6497, 3199.514
731.1318, 3203.487
731.6140, 3206.814
732.0961, 3208.173
732.5782, 3206.282
733.0603, 3205.489
733.5424, 3206.006
734.0245, 3207.528
734.5067, 3209.876
734.9888, 3212.986
735.4709, 3216.241
735.9530, 3219.539
736.4351, 3222.778
736.9172, 3227.161
737.3994, 3231.243
737.8815, 3232.140
738.3636, 3223.454
738.8457, 3216.897
739.3278, 3218.096
739.8099, 3225.052
740.2921, 3232.156
740.7742, 3241.159
741.2563, 3246.774
741.7384, 3246.415
742.2205, 3241.894
742.7026, 3240.994
743.1848, 3243.797
743.6669, 3248.582
744.1490, 3256.167
744.6311, 3264.439
745.1132, 3269.779
745.5953, 3272.144
746.0775, 3270.989
746.5596, 3258.591
747.0417, 3248.282
747.5238, 3252.936
748.0059, 3275.154
748.4880, 3286.752
748.9702, 3272.540
749.4523, 3259.596
749.9344, 3265.484
750.4165, 3295.430
750.8986, 3299.267
751.3807, 3270.929
751.8629, 3240.975
752.3450, 3240.052
752.8271, 3259.514
753.3092, 3275.717
753.7913, 3285.902
754.2734, 3293.561
754.7555, 3302.156
755.2376, 3309.382
755.7197, 3313.332
756.2018, 3315.125
756.6840, 3310.282
757.1661, 3283.750
757.6482, 3259.057
758.1303, 3265.596
758.6124, 3316.843
759.0945, 3345.863
759.5767, 3338.602
760.0588, 3318.971
760.5409, 3331.429
761.0230, 3366.052
761.5051, 3380.451
761.9872, 3352.154
762.4694, 3315.440
762.9515, 3298.470
763.4336, 3296.095
763.9157, 3299.448
764.3978, 3310.026
764.8799, 3320.964
765.3621, 3330.817
765.8442, 3339.856
766.3263, 3349.610
766.8084, 3361.777
767.2905, 3368.217
767.7726, 3363.317
768.2548, 3353.552
768.7369, 3362.003
769.2190, 3385.271
769.7011, 3399.521
770.1832, 3376.566
770.6653, 3350.065
771.1475, 3358.337
771.6296, 3394.040
772.1117, 3420.226
772.5938, 3408.491
773.0759, 3399.893
773.5580, 3417.507
774.0402, 3458.773
774.5223, 3473.209
775.0044, 3450.220
775.4865, 3431.373
775.9686, 3443.763
776.4507, 3479.762
776.9329, 3499.571
777.4150, 3503.667
777.8971, 3507.269
778.3792, 3525.517
778.8613, 3546.085
779.3434, 3553.929
779.8256, 3547.095
780.3077, 3546.125
780.7898, 3566.130
781.2719, 3586.783
781.7540, 3594.708
782.2361, 3585.685
782.7183, 3588.444
783.2004, 3606.673
783.6825, 3626.471
784.1646, 3634.088
784.6467, 3632.764
785.1288, 3637.100
785.6110, 3648.510
786.0931, 3661.775
786.5752, 3677.718
787.0573, 3690.549
787.5394, 3693.648
788.0215, 3683.624
788.5037, 3670.651
788.9858, 3653.844
789.4679, 3637.231
789.9500, 3622.845
790.4321, 3608.354
790.9142, 3607.544
791.3964, 3626.011
791.8785, 3644.585
792.3606, 3632.983
792.8427, 3601.331
793.3248, 3587.121
793.8069, 3601.696
794.2891, 3616.944
794.7712, 3604.852
795.2533, 3582.198
795.7354, 3569.493
796.2175, 3579.432
796.6996, 3588.053
797.1818, 3595.548
797.6639, 3598.371
798.1460, 3590.358
798.6281, 3568.946
799.1102, 3550.174
799.5923, 3534.523
800.0745, 3526.915
800.5566, 3546.018
801.0387, 3579.273
801.5208, 3591.836
802.0029, 3563.525
802.4850, 3530.521
802.9672, 3513.086
803.4493, 3507.012
803.9314, 3505.826
804.4135, 3510.127
804.8956, 3517.667
805.3777, 3531.350
805.8599, 3545.778
806.3419, 3551.140
806.8240, 3547.323
807.3062, 3534.946
807.7883, 3509.534
808.2704, 3484.582
808.7525, 3488.651
809.2346, 3508.492
809.7167, 3514.492
810.1989, 3449.302
810.6810, 3490.326
811.1631, 3513.502
811.6452, 3519.787
812.1273, 3458.596
812.6094, 3484.538
813.0916, 3475.560
813.5737, 3465.151
814.0558, 3503.356
814.5379, 3451.979
815.0200, 3489.413
815.5021, 3491.396
815.9843, 3509.604
816.4664, 3490.296
816.9485, 3481.126
817.4306, 3457.731
817.9127, 3438.246
818.3948, 3425.900
818.8770, 3421.880
819.3591, 3431.538
819.8412, 3449.144
820.3233, 3462.193
820.8054, 3470.328
821.2875, 3475.284
821.7697, 3476.749
822.2518, 3476.326
822.7339, 3479.257
823.2160, 3483.935
823.6981, 3483.454
824.1802, 3465.614
824.6624, 3450.574
825.1445, 3454.732
825.6266, 3472.437
826.1087, 3488.989
826.5908, 3500.328
827.0729, 3511.864
827.5551, 3527.660
828.0372, 3543.151
828.5193, 3542.543
829.0014, 3524.771
829.4835, 3511.655
829.9656, 3510.339
830.4478, 3518.488
830.9299, 3537.202
831.4120, 3562.804
831.8941, 3584.550
832.3762, 3594.858
832.8583, 3603.987
833.3405, 3614.491
833.8226, 3627.230
834.3047, 3644.893
834.7868, 3672.970
835.2689, 3692.193
835.7510, 3693.984
836.2332, 3688.027
836.7153, 3700.283
837.1974, 3727.748
837.6795, 3753.476
838.1616, 3768.572
838.6437, 3780.674
839.1259, 3791.705
839.6080, 3805.160
840.0901, 3828.998
840.5722, 3871.652
841.0543, 3917.955
841.5364, 3967.669
842.0186, 4017.547
842.5007, 4056.312
842.9828, 4081.701
843.4649, 4117.949
843.9470, 4174.740
844.4291, 4242.127
844.9113, 4304.481
845.3934, 4364.342
845.8755, 4428.110
846.3576, 4501.207
846.8397, 4575.912
847.3218, 4654.389
847.8040, 4731.758
848.2861, 4797.268
848.7682, 4844.381
849.2503, 4891.811
849.7324, 4939.781
850.2145, 4993.391
850.6967, 5070.670
851.1788, 5165.353
851.6609, 5245.891
852.1430, 5295.227
852.6251, 5337.446
853.1072, 5393.771
853.5894, 5457.587
854.0715, 5517.095
854.5536, 5572.569
855.0357, 5619.190
855.5178, 5664.470
855.9999, 5695.438
856.4821, 5686.101
856.9642, 5633.165
857.4463, 5583.352
857.9283, 5544.220
858.4105, 5514.190
858.8926, 5501.240
859.3747, 5492.625
859.8568, 5464.250
860.3389, 5401.454
860.8210, 5331.477
861.3032, 5252.275
861.7853, 5176.859
862.2674, 5121.345
862.7495, 5093.452
863.2316, 5061.859
863.7137, 5021.856
864.1959, 4983.871
864.6780, 4966.053
865.1601, 4962.144
865.6422, 4950.982
866.1243, 4925.717
866.6064, 4904.271
867.0886, 4899.665
867.5707, 4905.322
868.0528, 4914.748
868.5349, 4926.398
869.0170, 4943.346
869.4991, 4966.926
869.9813, 4993.730
870.4634, 5018.773
870.9455, 5042.898
871.4276, 5081.635
871.9097, 5136.935
872.3918, 5196.540
872.8740, 5243.459
873.3561, 5290.717
873.8382, 5354.787
874.3203, 5440.579
874.8024, 5529.837
875.2845, 5621.192
875.7667, 5713.377
876.2488, 5804.938
876.7309, 5895.189
877.2130, 5993.181
877.6951, 6098.731
878.1772, 6206.841
878.6594, 6314.760
879.1415, 6421.766
879.6236, 6519.800
880.1057, 6609.920
880.5878, 6721.389
881.0699, 6882.686
881.5521, 7054.589
882.0342, 7219.856
882.5163, 7378.094
882.9984, 7520.776
883.4805, 7644.099
883.9626, 7765.567
884.4448, 7888.677
884.9269, 8019.200
885.4090, 8183.885
885.8911, 8373.779
886.3732, 8543.911
886.8553, 8652.056
887.3375, 8748.160
887.8196, 8867.238
888.3017, 9003.089
888.7838, 9109.809
889.2659, 9175.017
889.7480, 9238.287
890.2302, 9312.729
890.7123, 9391.148
891.1944, 9457.615
891.6765, 9511.116
892.1586, 9542.759
892.6407, 9544.521
893.1229, 9529.014
893.6050, 9501.853
894.0871, 9464.896
894.5692, 9422.921
895.0513, 9386.902
895.5334, 9329.729
896.0156, 9244.451
896.4977, 9140.445
896.9798, 9031.995
897.4619, 8918.736
897.9440, 8808.677
898.4261, 8704.847
898.9083, 8598.129
899.3904, 8477.238
899.8725, 8347.438
900.3546, 8211.605
900.8367, 8066.774
901.3188, 7925.149
901.8010, 7790.840
902.2831, 7656.106
902.7652, 7507.290
903.2473, 7343.710
903.7294, 7198.075
904.2115, 7074.865
904.6937, 6954.902
905.1758, 6818.865
905.6579, 6674.652
906.1400, 6534.345
906.6221, 6400.072
907.1042, 6267.040
907.5864, 6126.080
908.0685, 5993.403
908.5506, 5880.327
909.0327, 5788.235
909.5148, 5689.081
909.9969, 5580.724
910.4790, 5477.248
910.9611, 5390.835
911.4432, 5314.396
911.9254, 5233.922
912.4075, 5150.618
912.8896, 5076.420
913.3717, 5027.188
913.8538, 4976.922
914.3359, 4911.722
914.8181, 4835.448
915.3002, 4770.829
915.7823, 4718.154
916.2644, 4673.467
916.7465, 4639.705
917.2286, 4608.080
917.7108, 4561.387
918.1929, 4504.036
918.6750, 4448.999
919.1571, 4391.274
919.6392, 4347.991
920.1213, 4340.214
920.6035, 4345.700
921.0856, 4323.015
921.5677, 4263.302
922.0498, 4218.180
922.5319, 4199.879
923.0140, 4188.160
923.4962, 4149.480
923.9783, 4096.874
924.4604, 4057.157
924.9425, 4040.294
925.4246, 4026.138
925.9067, 4006.868
926.3889, 3985.702
926.8710, 3965.490
927.3531, 3947.152
927.8352, 3926.852
928.3173, 3903.973
928.7994, 3881.326
929.2816, 3861.087
929.7637, 3842.557
930.2458, 3826.135
930.7279, 3811.402
931.2100, 3793.602
931.6921, 3761.033
932.1743, 3732.916
932.6564, 3723.113
933.1385, 3730.022
933.6206, 3730.911
934.1027, 3725.607
934.5848, 3714.833
935.0670, 3696.696
935.5491, 3674.929
936.0312, 3656.661
936.5133, 3641.526
936.9954, 3628.915
937.4775, 3618.366
937.9597, 3610.247
938.4418, 3608.931
938.9239, 3609.004
939.4060, 3597.414
939.8881, 3569.761
940.3702, 3551.009
940.8524, 3547.922
941.3345, 3550.715
941.8166, 3543.381
942.2987, 3531.591
942.7808, 3528.005
943.2629, 3539.713
943.7451, 3549.173
944.2272, 3551.785
944.7093, 3546.981
945.1914, 3533.220
945.6735, 3505.899
946.1556, 3489.280
946.6378, 3484.152
947.1199, 3485.557
947.6020, 3492.893
948.0841, 3502.419
948.5662, 3511.298
949.0483, 3518.438
949.5305, 3511.986
950.0126, 3464.711
950.4947, 3425.297
950.9768, 3421.402
951.4589, 3446.385
951.9410, 3449.186
952.4232, 3426.758
952.9053, 3410.500
953.3874, 3416.661
953.8695, 3432.950
954.3516, 3447.201
954.8337, 3456.646
955.3159, 3455.013
955.7980, 3421.015
956.2801, 3399.855
956.7622, 3412.396
957.2443, 3435.696
957.7264, 3435.070
958.2086, 3408.958
958.6907, 3388.336
959.1728, 3377.470
959.6549, 3373.601
960.1370, 3379.124
960.6191, 3387.315
961.1013, 3390.093
961.5834, 3386.017
962.0654, 3376.094
962.5475, 3352.297
963.0297, 3332.209
963.5118, 3328.293
963.9939, 3339.530
964.4760, 3341.345
964.9581, 3334.026
965.4402, 3325.461
965.9224, 3323.011
966.4045, 3320.175
966.8866, 3306.874
967.3687, 3286.508
967.8508, 3276.948
968.3329, 3292.342
968.8151, 3300.340
969.2972, 3289.083
969.7793, 3272.201
970.2614, 3286.230
970.7435, 3324.797
971.2256, 3350.011
971.7078, 3348.805
972.1899, 3337.527
972.6720, 3318.530
973.1541, 3301.705
973.6362, 3299.821
974.1183, 3326.609
974.6005, 3342.001
975.0826, 3345.990
975.5647, 3338.771
976.0468, 3315.450
976.5289, 3281.276
977.0110, 3251.154
977.4932, 3226.377
977.9753, 3213.888
978.4574, 3228.096
978.9395, 3246.594
979.4216, 3257.438
979.9037, 3260.694
980.3859, 3258.587
980.8680, 3249.176
981.3501, 3242.852
981.8322, 3244.296
982.3143, 3249.718
982.7964, 3254.953
983.2786, 3258.417
983.7607, 3256.165
984.2428, 3241.833
984.7249, 3228.548
985.2070, 3220.824
985.6891, 3215.743
986.1713, 3209.628
986.6534, 3201.770
987.1355, 3202.674
987.6176, 3214.663
988.0997, 3222.772
988.5818, 3202.944
989.0640, 3176.699
989.5461, 3173.395
990.0282, 3196.413
990.5103, 3214.011
990.9924, 3215.077
991.4745, 3214.179
991.9567, 3215.753
992.4388, 3219.553
992.9209, 3227.754
993.4030, 3239.115
993.8851, 3240.666
994.3672, 3219.506
994.8494, 3195.570
995.3315, 3181.159
995.8136, 3175.669
996.2957, 3178.939
996.7778, 3202.199
997.2599, 3209.422
997.7421, 3193.042
998.2242, 3172.057
998.7063, 3175.258
999.1884, 3191.690
999.6705, 3185.010
1000.153, 3149.830
1000.635, 3122.409
1001.117, 3133.868
1001.599, 3151.564
1002.081, 3151.042
1002.563, 3134.119
1003.045, 3140.053
1003.527, 3173.587
1004.010, 3197.937
1004.492, 3189.092
1004.974, 3169.243
1005.456, 3174.533
1005.938, 3195.412
1006.420, 3210.150
1006.902, 3211.551
1007.384, 3204.068
1007.867, 3180.066
1008.349, 3156.339
1008.831, 3158.737
1009.313, 3185.380
1009.795, 3192.409
1010.277, 3174.171
1010.759, 3154.317
1011.241, 3151.264
1011.723, 3157.054
1012.206, 3170.327
1012.688, 3191.570
1013.170, 3188.273
1013.652, 3144.212
1014.134, 3113.113
1014.616, 3123.911
1015.098, 3157.562
1015.580, 3165.770
1016.062, 3153.613
1016.545, 3138.264
1017.027, 3119.788
1017.509, 3108.913
1017.991, 3117.934
1018.473, 3133.160
1018.955, 3136.223
1019.437, 3124.098
1019.919, 3118.546
1020.401, 3122.289
1020.884, 3124.229
1021.366, 3109.786
1021.848, 3089.636
1022.330, 3077.324
1022.812, 3073.939
1023.294, 3071.909
1023.776, 3064.986
1024.258, 3065.849
1024.741, 3081.520
1025.223, 3106.158
1025.705, 3125.496
1026.187, 3138.109
1026.669, 3134.065
1027.151, 3099.154
1027.633, 3065.312
1028.115, 3052.238
1028.598, 3052.981
1029.080, 3060.009
1029.562, 3078.456
1030.044, 3085.075
1030.526, 3077.144
1031.008, 3067.262
1031.490, 3064.054
1031.972, 3067.858
1032.454, 3085.353
1032.937, 3113.924
1033.419, 3131.213
1033.901, 3119.768
1034.383, 3105.195
1034.865, 3095.379
1035.347, 3088.417
1035.829, 3078.460
1036.311, 3065.772
1036.793, 3054.807
1037.276, 3046.159
1037.758, 3041.125
1038.240, 3042.265
1038.722, 3046.774
1039.204, 3052.163
1039.686, 3059.755
1040.168, 3060.765
1040.650, 3051.083
1041.132, 3046.641
1041.615, 3066.581
1042.097, 3097.357
1042.579, 3104.978
1043.061, 3092.983
1043.543, 3078.537
1044.025, 3064.163
1044.507, 3054.687
1044.989, 3053.228
1045.472, 3056.274
1045.954, 3058.918
1046.436, 3061.096
1046.918, 3059.506
1047.400, 3053.671
1047.882, 3043.458
1048.364, 3020.701
1048.846, 2998.765
1049.328, 2991.754
1049.811, 3003.819
1050.293, 3016.887
1050.775, 3033.522
1051.257, 3043.335
1051.739, 3039.088
1052.221, 3026.629
1052.703, 3018.675
1053.185, 3014.017
1053.667, 3009.197
1054.150, 2999.440
1054.632, 2993.613
1055.114, 2997.642
1055.596, 3004.114
1056.078, 3003.862
1056.560, 2996.614
1057.042, 2999.651
1057.524, 3014.340
1058.007, 3029.753
1058.489, 3041.109
1058.971, 3046.254
1059.453, 3038.440
1059.935, 3019.811
1060.417, 3014.279
1060.899, 3027.308
1061.381, 3040.695
1061.864, 3050.559
1062.346, 3056.443
1062.828, 3055.074
1063.310, 3049.515
1063.792, 3046.856
1064.274, 3051.197
1064.756, 3051.574
1065.238, 3039.246
1065.720, 3027.322
1066.203, 3023.915
1066.685, 3028.481
1067.167, 3034.880
1067.649, 3042.474
1068.131, 3042.429
1068.613, 3020.233
1069.095, 2997.815
1069.577, 2988.121
1070.059, 2989.857
1070.542, 2999.775
1071.024, 3022.502
1071.506, 3035.487
1071.988, 3034.952
1072.470, 3029.139
1072.952, 3026.841
1073.434, 3025.415
1073.916, 3019.940
1074.399, 3009.793
1074.881, 3002.685
1075.363, 3000.930
1075.845, 3002.686
1076.327, 3010.598
1076.809, 3019.366
1077.291, 3007.812
1077.773, 2981.720
1078.255, 2966.534
1078.738, 2972.348
1079.220, 2987.102
1079.702, 3018.718
1080.184, 3045.224
1080.666, 3042.789
1081.148, 3004.301
1081.630, 2991.103
1082.112, 3004.858
1082.594, 3019.038
1083.077, 3013.787
1083.559, 3001.072
1084.041, 2989.718
1084.523, 2981.119
1085.005, 2979.542
1085.487, 2991.153
1085.969, 2997.200
1086.451, 2993.910
1086.934, 2988.130
1087.416, 2989.387
1087.898, 2994.797
1088.380, 2998.955
1088.862, 3001.220
1089.344, 3000.165
1089.826, 2989.403
1090.308, 2981.829
1090.791, 2983.716
1091.273, 2992.237
1091.755, 2996.671
1092.237, 2997.671
1092.719, 3001.065
1093.201, 3011.542
1093.683, 3018.483
1094.165, 3009.093
1094.647, 2995.615
1095.130, 2991.696
1095.612, 3000.052
1096.094, 3003.938
1096.576, 3003.021
1097.058, 3000.125
1097.540, 2997.798
1098.022, 2994.033
1098.504, 2981.536
1098.986, 2965.632
1099.469, 2961.297
1099.951, 2985.249
1100.433, 2996.847
1100.915, 2989.412
1101.397, 2975.469
1101.879, 2968.283
1102.361, 2966.877
1102.843, 2969.651
1103.325, 2976.339
1103.808, 2984.472
1104.290, 2993.331
1104.772, 3003.631
1105.254, 3019.926
1105.736, 3035.480
1106.218, 3026.681
1106.700, 2997.608
1107.182, 2977.591
1107.665, 2976.378
1108.147, 2980.467
1108.629, 2982.049
1109.111, 2983.462
1109.593, 2988.643
1110.075, 2998.369
1110.557, 2993.499
1111.039, 2972.420
1111.521, 2957.640
1112.004, 2965.938
1112.486, 2982.085
1112.968, 2992.098
1113.450, 2996.883
1113.932, 2997.773
1114.414, 2990.949
1114.896, 2989.880
1115.378, 2998.001
1115.860, 3002.936
1116.343, 2986.721
1116.825, 2962.020
1117.307, 2953.218
1117.789, 2959.511
1118.271, 2968.604
1118.753, 2973.368
1119.235, 2986.123
1119.717, 3017.074
1120.200, 3047.935
1120.682, 3040.133
1121.164, 3004.813
1121.646, 2986.896
1122.128, 2995.397
1122.610, 3000.292
1123.092, 2972.796
1123.574, 2949.346
1124.057, 2953.154
1124.539, 2977.505
1125.021, 2986.885
1125.503, 2982.306
1125.985, 2981.341
1126.467, 2992.451
1126.949, 3003.470
1127.431, 3006.843
1127.913, 3003.285
1128.396, 2990.250
1128.878, 2963.951
1129.360, 2957.279
1129.842, 2972.283
1130.324, 2990.359
1130.806, 3001.716
1131.288, 3008.476
1131.770, 3012.818
1132.252, 3014.664
1132.735, 3013.708
1133.217, 3007.750
1133.699, 3003.975
1134.181, 3003.933
1134.663, 3002.589
1135.145, 2993.019
1135.627, 2979.736
1136.109, 2971.274
1136.592, 2967.186
1137.074, 2961.531
1137.556, 2943.743
1138.038, 2936.357
1138.520, 2944.708
1139.002, 2963.636
1139.484, 2992.628
1139.966, 3024.684
1140.448, 3035.062
1140.931, 3018.746
1141.413, 3000.653
1141.895, 2995.964
1142.377, 2987.276
1142.859, 2959.268
1143.341, 2924.209
1143.823, 2934.991
1144.305, 2983.433
1144.787, 3015.870
1145.270, 3012.373
1145.752, 3000.088
1146.234, 2991.164
1146.716, 2984.760
1147.198, 2980.201
1147.680, 2977.470
1148.162, 2974.518
1148.644, 2971.421
1149.126, 2974.163
1149.609, 2992.116
1150.091, 3009.372
1150.573, 3013.312
1151.055, 3008.004
1151.537, 2999.396
1152.019, 2986.836
1152.501, 2972.495
1152.983, 2954.800
1153.466, 2947.624
1153.948, 2975.469
1154.430, 3008.203
1154.912, 3010.641
1155.394, 2990.270
1155.876, 2974.425
1156.358, 2964.687
1156.840, 2962.432
1157.323, 2968.063
1157.805, 2980.336
1158.287, 3010.710
1158.769, 3039.915
1159.251, 3032.968
1159.733, 2990.378
1160.215, 2958.370
1160.697, 2946.131
1161.179, 2943.449
1161.661, 2950.527
1162.144, 2961.490
1162.626, 2968.062
1163.108, 2971.000
1163.590, 2971.537
1164.072, 2969.727
1164.554, 2966.568
1165.036, 2957.163
1165.518, 2954.511
1166.001, 2966.474
1166.483, 2985.983
1166.965, 2996.242
1167.447, 2998.384
1167.929, 2994.203
1168.411, 2979.531
1168.893, 2972.133
1169.375, 2991.202
1169.858, 3004.935
1170.340, 2990.156
1170.822, 2954.691
1171.304, 2943.684
1171.786, 2953.811
1172.268, 2969.692
1172.750, 2999.911
1173.232, 3013.014
1173.714, 2973.423
1174.197, 2928.525
1174.679, 2923.601
1175.161, 2957.240
1175.643, 2974.994
1176.125, 2977.306
1176.607, 2974.179
1177.089, 2967.521
1177.571, 2961.565
1178.053, 2959.433
1178.536, 2958.874
1179.018, 2954.927
1179.500, 2947.351
1179.982, 2953.550
1180.464, 2974.788
1180.946, 2991.234
1181.428, 2982.786
1181.910, 2969.509
1182.393, 2963.867
1182.875, 2963.955
1183.357, 2963.933
1183.839, 2963.645
1184.321, 2965.578
1184.803, 2969.948
1185.285, 2978.083
1185.767, 3000.167
1186.250, 3019.038
1186.732, 3016.054
1187.214, 2995.286
1187.696, 2984.833
1188.178, 2985.306
1188.660, 2990.657
1189.142, 3000.455
1189.624, 3010.358
1190.106, 3020.265
1190.589, 3024.994
1191.071, 3014.732
1191.553, 2989.118
1192.035, 2980.244
1192.517, 2990.234
1192.999, 3001.268
1193.481, 3008.601
1193.963, 3009.930
1194.445, 2996.105
1194.928, 2978.233
1195.410, 2971.690
1195.892, 2981.044
1196.374, 2981.001
1196.856, 2969.079
1197.338, 2963.756
1197.820, 2979.415
1198.302, 2999.503
1198.784, 3006.563
1199.267, 3003.648
1199.749, 2994.292
1200.231, 2974.417
1200.713, 2962.389
1201.195, 2958.550
1201.677, 2961.254
1202.159, 2975.426
1202.641, 2990.871
1203.124, 2990.520
1203.606, 2982.307
1204.088, 2984.934
1204.570, 3011.597
1205.052, 3018.651
1205.534, 3001.127
1206.016, 2981.019
1206.498, 2979.498
1206.980, 2983.354
1207.463, 2970.128
1207.945, 2947.620
1208.427, 2945.906
1208.909, 2979.285
1209.391, 3000.875
1209.873, 3005.651
1210.355, 3001.210
1210.837, 2986.991
1211.319, 2973.269
1211.802, 2979.456
1212.284, 3000.652
1212.766, 3004.049
1213.248, 2977.075
1213.730, 2963.434
1214.212, 2971.779
1214.694, 2987.511
1215.176, 3002.668
1215.659, 3010.094
1216.141, 2993.430
1216.623, 2955.261
1217.105, 2936.948
1217.587, 2946.920
1218.069, 2957.247
1218.551, 2961.501
1219.033, 2965.684
1219.516, 2984.579
1219.998, 3003.343
1220.480, 2999.033
1220.962, 2968.953
1221.444, 2951.963
1221.926, 2950.620
1222.408, 2959.730
1222.890, 2981.325
1223.372, 3002.807
1223.854, 3005.316
1224.337, 2999.189
1224.819, 2998.821
1225.301, 3007.530
1225.783, 3002.603
1226.265, 2979.102
1226.747, 2961.335
1227.229, 2956.467
1227.711, 2964.030
1228.194, 2999.040
1228.676, 3037.763
1229.158, 3045.478
1229.640, 3010.381
1230.122, 2995.818
1230.604, 3005.997
1231.086, 3010.993
1231.568, 2994.989
1232.051, 2972.832
1232.533, 2952.716
1233.015, 2941.815
1233.497, 2955.605
1233.979, 3002.857
1234.461, 3020.865
1234.943, 3005.970
1235.425, 2995.933
1235.907, 3017.896
1236.390, 3042.248
1236.872, 3032.350
1237.354, 3008.246
1237.836, 2999.553
1238.318, 3011.214
1238.800, 3016.525
1239.282, 3015.129
1239.764, 3013.923
1240.246, 3021.942
1240.729, 3026.244
1241.211, 3007.297
1241.693, 2981.789
1242.175, 2974.402
1242.657, 2988.974
1243.139, 3005.438
1243.621, 3024.139
1244.103, 3030.404
1244.586, 3000.570
1245.068, 2970.067
1245.550, 2965.798
1246.032, 2975.559
1246.514, 2978.665
1246.996, 2973.377
1247.478, 2988.166
1247.960, 3022.975
1248.442, 3048.647
1248.925, 3041.461
1249.407, 3026.071
1249.889, 3010.664
1250.371, 2999.071
1250.853, 2997.195
1251.335, 3004.885
1251.817, 3014.289
1252.299, 3024.764
1252.781, 3032.101
1253.264, 3034.678
1253.746, 3032.101
1254.228, 3016.766
1254.710, 3002.078
1255.192, 3009.849
1255.674, 3035.488
1256.156, 3041.838
1256.638, 3028.611
1257.120, 3016.705
1257.603, 3015.719
1258.085, 3021.553
1258.567, 3040.857
1259.049, 3056.177
1259.531, 3032.152
1260.013, 2984.713
1260.495, 2979.327
1260.977, 3015.447
1261.460, 3044.302
1261.942, 3036.510
1262.424, 3028.719
1262.906, 3029.084
1263.388, 3033.081
1263.870, 3035.339
1264.352, 3036.486
1264.834, 3039.592
1265.317, 3044.081
1265.799, 3042.221
1266.281, 3023.790
1266.763, 3012.322
1267.245, 3012.672
1267.727, 3018.544
1268.209, 3022.313
1268.691, 3025.895
1269.173, 3033.844
1269.656, 3045.615
1270.138, 3053.114
1270.620, 3057.563
1271.102, 3050.473
1271.584, 3026.421
1272.066, 3005.446
1272.548, 3017.477
1273.030, 3041.708
1273.512, 3057.612
1273.995, 3062.216
1274.477, 3047.661
1274.959, 3005.652
1275.441, 2989.583
1275.923, 3012.411
1276.405, 3041.226
1276.887, 3046.999
1277.369, 3041.576
1277.852, 3031.937
1278.334, 3020.406
1278.816, 3013.265
1279.298, 3010.583
1279.780, 3013.485
1280.262, 3023.155
1280.744, 3029.383
1281.226, 3015.092
1281.708, 3004.056
1282.191, 3017.483
1282.673, 3043.479
1283.155, 3049.956
1283.637, 3039.773
1284.119, 3039.647
1284.601, 3054.828
1285.083, 3065.114
1285.565, 3047.438
1286.047, 3036.565
1286.530, 3051.922
1287.012, 3077.117
1287.494, 3074.930
1287.976, 3053.432
1288.458, 3035.289
1288.940, 3023.802
1289.422, 3023.533
1289.904, 3051.969
1290.387, 3068.921
1290.869, 3061.443
1291.351, 3043.041
1291.833, 3030.994
1292.315, 3026.429
1292.797, 3035.468
1293.279, 3058.786
1293.761, 3071.651
1294.244, 3068.157
1294.726, 3064.509
1295.208, 3064.810
1295.690, 3065.822
1296.172, 3066.112
1296.654, 3062.958
1297.136, 3047.711
1297.618, 3022.250
1298.100, 3019.679
1298.583, 3044.368
1299.065, 3065.127
1299.547, 3076.325
1300.029, 3075.374
1300.511, 3041.284
1300.993, 3009.672
1301.475, 3021.856
1301.957, 3061.169
1302.439, 3070.719
1302.922, 3052.494
1303.404, 3044.427
1303.886, 3054.601
1304.368, 3062.278
1304.850, 3047.141
1305.332, 3033.671
1305.814, 3032.559
1306.296, 3041.170
1306.778, 3057.919
1307.261, 3079.347
1307.743, 3094.773
1308.225, 3102.404
1308.707, 3103.320
1309.189, 3090.082
1309.671, 3081.778
1310.153, 3086.208
1310.635, 3091.309
1311.118, 3064.243
1311.600, 3031.422
1312.082, 3048.347
1312.564, 3117.854
1313.046, 3151.886
1313.528, 3132.982
1314.010, 3109.890
1314.492, 3090.633
1314.974, 3077.834
1315.457, 3081.641
1315.939, 3087.682
##END=



