##NAMES=Bottinoite
##RRUFFID=R060263
##IDEAL CHEMISTRY=Ni^2+^Sb^5+^_2_(OH)_12_&#183;6H_2_O
##LOCALITY=Ramsbeck mine, Dornberg, Sauerland, Germany
##OWNER=RRUFF
##SOURCE=Michael Scott
##DESCRIPTION=Spherical aggregate of pale greenish-blue tabular crystals
##STATUS=The identification of this mineral is confirmed by single-crystal X-ray diffraction and chemical analysis.
##URL=rruff.info/R060263
##MEASURED CHEMISTRY=Ni^2+^_1.00_(Sb^5+^_1.99_As_0.01_)_Σ=2_(OH)_12_·1.2H_2_O ; = gray phase. (dehydrated bottinoite due to the electronic beam)
90.49219, 12.69804
90.97430, 11.88189
91.45642, 11.59207
91.93854, 12.37027
92.42065, 13.51683
92.90277, 13.95496
93.38489, 13.54367
93.86700, 12.78489
94.34912, 12.10759
94.83124, 11.53725
95.31335, 11.24636
95.79547, 11.60592
96.27759, 12.40800
96.75970, 12.75355
97.24182, 12.38934
97.72394, 11.66892
98.20605, 11.30434
98.68817, 11.30643
99.17029, 11.58099
99.65240, 12.22365
100.1345, 13.28382
100.6166, 14.00414
101.0988, 14.24311
101.5809, 14.01655
102.0630, 13.37458
102.5451, 12.09290
103.0272, 10.78439
103.5093, 10.14662
103.9915, 10.38067
104.4736, 10.79278
104.9557, 11.30167
105.4378, 12.00490
105.9199, 12.23393
106.4020, 11.79773
106.8842, 10.98329
107.3663, 10.27021
107.8484, 9.695956
108.3305, 9.185819
108.8126, 8.676336
109.2947, 7.762145
109.7769, 7.526392
110.2590, 8.518301
110.7411, 10.28780
111.2232, 11.40934
111.7053, 11.18906
112.1874, 10.78888
112.6696, 10.73059
113.1517, 12.00507
113.6338, 12.61024
114.1159, 11.70057
114.5980, 9.563843
115.0801, 8.242304
115.5623, 9.157309
116.0444, 10.62605
116.5265, 11.34488
117.0086, 9.795246
117.4907, 8.479547
117.9728, 8.639407
118.4550, 10.35565
118.9371, 11.79837
119.4192, 12.06675
119.9013, 11.61392
120.3834, 11.01115
120.8655, 9.395494
121.3477, 8.407786
121.8298, 9.609216
122.3119, 13.46895
122.7940, 17.54992
123.2761, 21.03366
123.7582, 23.52495
124.2404, 24.14396
124.7225, 20.68886
125.2046, 15.68568
125.6867, 12.29515
126.1688, 11.13094
126.6509, 11.20500
127.1331, 11.88546
127.6152, 13.05710
128.0973, 14.14711
128.5794, 14.67058
129.0615, 14.81859
129.5436, 15.02546
130.0258, 15.34206
130.5079, 15.80804
130.9900, 16.51066
131.4721, 17.44378
131.9542, 18.55828
132.4363, 19.69200
132.9185, 20.90323
133.4006, 22.62890
133.8827, 25.20868
134.3648, 28.33988
134.8469, 31.02586
135.3290, 33.16686
135.8112, 35.31119
136.2933, 37.82459
136.7754, 40.67636
137.2575, 44.49901
137.7396, 49.72564
138.2217, 56.23489
138.7039, 63.05763
139.1860, 70.40077
139.6681, 77.74749
140.1502, 84.38692
140.6323, 90.07169
141.1144, 95.66379
141.5966, 101.7494
142.0787, 108.7259
142.5608, 114.0898
143.0429, 117.1380
143.5250, 118.9631
144.0071, 122.0889
144.4893, 127.0757
144.9714, 132.4116
145.4535, 137.2289
145.9356, 140.6227
146.4177, 145.4868
146.8998, 152.6477
147.3820, 161.4185
147.8641, 169.2440
148.3462, 175.3822
148.8283, 181.1752
149.3104, 187.3993
149.7925, 194.3139
150.2747, 201.2831
150.7568, 208.2099
151.2389, 215.0922
151.7210, 221.9014
152.2031, 229.7326
152.6852, 236.7671
153.1674, 241.9553
153.6495, 242.5980
154.1316, 244.1102
154.6137, 247.8858
155.0958, 253.9957
155.5779, 258.9197
156.0601, 261.3605
156.5422, 262.8528
157.0243, 264.6767
157.5064, 266.9608
157.9885, 269.6912
158.4706, 272.9509
158.9528, 276.7851
159.4349, 280.7573
159.9170, 284.9440
160.3991, 289.1543
160.8812, 293.1678
161.3633, 296.7881
161.8455, 300.3045
162.3276, 303.5127
162.8097, 306.0430
163.2918, 309.8353
163.7739, 316.2466
164.2560, 323.9671
164.7382, 329.4347
165.2203, 334.5311
165.7024, 339.0374
166.1845, 342.2093
166.6666, 343.6523
167.1487, 344.8989
167.6309, 346.7149
168.1130, 348.9650
168.5951, 351.3320
169.0772, 353.7564
169.5593, 356.2037
170.0414, 358.7625
170.5236, 361.7202
171.0057, 364.1805
171.4878, 365.1241
171.9699, 364.9803
172.4520, 365.0296
172.9341, 366.3874
173.4163, 368.1941
173.8984, 369.3848
174.3805, 369.4811
174.8626, 369.3183
175.3447, 369.4849
175.8268, 370.0023
176.3090, 371.0121
176.7911, 373.2667
177.2732, 375.9499
177.7553, 377.6191
178.2374, 377.3576
178.7195, 376.5572
179.2017, 377.1862
179.6838, 379.1073
180.1659, 380.9868
180.6480, 381.5309
181.1301, 381.2564
181.6122, 381.3625
182.0944, 382.0967
182.5765, 383.4535
183.0586, 385.8382
183.5407, 389.1961
184.0228, 392.3639
184.5049, 393.8512
184.9871, 394.1434
185.4692, 394.9485
185.9513, 397.0918
186.4334, 399.9894
186.9155, 402.1721
187.3976, 403.5576
187.8798, 405.0681
188.3619, 407.9194
188.8440, 411.9110
189.3261, 415.5406
189.8082, 417.9557
190.2903, 419.6478
190.7725, 422.6197
191.2546, 427.0953
191.7367, 431.8716
192.2188, 435.5478
192.7009, 438.2111
193.1830, 440.8943
193.6652, 444.2033
194.1473, 447.9612
194.6294, 450.7258
195.1115, 452.3295
195.5936, 453.5084
196.0757, 455.1539
196.5579, 457.2715
197.0400, 459.6655
197.5221, 462.8196
198.0042, 466.5700
198.4863, 468.0485
198.9684, 466.6767
199.4506, 464.3040
199.9327, 463.4627
200.4148, 464.1720
200.8969, 466.0644
201.3790, 469.8290
201.8611, 475.5897
202.3433, 478.7593
202.8254, 478.7813
203.3075, 477.0988
203.7896, 475.9018
204.2717, 475.1266
204.7538, 475.0494
205.2360, 476.0067
205.7181, 478.1418
206.2002, 479.9185
206.6823, 481.2668
207.1644, 482.3380
207.6465, 483.3258
208.1287, 484.1250
208.6108, 485.1837
209.0929, 486.8656
209.5750, 489.4058
210.0571, 491.3360
210.5392, 492.5174
211.0214, 493.2514
211.5035, 494.0664
211.9856, 494.8532
212.4677, 496.0204
212.9498, 497.8017
213.4319, 500.2811
213.9140, 502.9652
214.3962, 505.8772
214.8783, 508.9819
215.3604, 512.2440
215.8425, 515.9272
216.3246, 519.2194
216.8067, 521.6530
217.2889, 522.8415
217.7710, 524.4028
218.2531, 526.4777
218.7352, 528.8566
219.2173, 530.9896
219.6994, 532.4925
220.1816, 534.4871
220.6637, 537.6715
221.1458, 542.6641
221.6279, 547.0660
222.1100, 550.6693
222.5921, 553.7602
223.0743, 557.2552
223.5564, 561.4733
224.0385, 565.5275
224.5206, 568.8115
225.0027, 570.8598
225.4848, 573.5493
225.9670, 576.9890
226.4491, 581.0385
226.9312, 585.4440
227.4133, 590.2870
227.8954, 595.3151
228.3775, 600.3387
228.8597, 605.5458
229.3418, 610.4237
229.8239, 614.7361
230.3060, 618.7647
230.7881, 623.2686
231.2702, 628.8541
231.7524, 634.0431
232.2345, 638.0226
232.7166, 640.2388
233.1987, 642.6359
233.6808, 645.1617
234.1629, 647.8748
234.6451, 651.2674
235.1272, 656.7543
235.6093, 660.8054
236.0914, 661.5574
236.5735, 657.0223
237.0556, 653.9267
237.5378, 653.3620
238.0199, 653.9506
238.5020, 652.1002
238.9841, 646.7348
239.4662, 640.5169
239.9483, 634.5770
240.4305, 629.4686
240.9126, 623.4167
241.3947, 615.9618
241.8768, 607.6917
242.3589, 600.0184
242.8410, 592.9635
243.3232, 586.4488
243.8053, 580.4323
244.2874, 574.6315
244.7695, 569.9560
245.2516, 566.3820
245.7337, 563.9011
246.2159, 562.6456
246.6980, 563.3645
247.1801, 564.1356
247.6622, 564.0586
248.1443, 562.4055
248.6264, 562.0436
249.1086, 563.4896
249.5907, 565.9753
250.0728, 567.9544
250.5549, 569.3554
251.0370, 570.3721
251.5191, 571.0992
252.0013, 571.6006
252.4834, 571.6193
252.9655, 571.4536
253.4476, 570.6187
253.9297, 567.9916
254.4118, 562.6312
254.8940, 557.2879
255.3761, 553.1552
255.8582, 550.8439
256.3403, 547.1563
256.8224, 541.7145
257.3046, 535.1960
257.7867, 528.6849
258.2688, 521.7796
258.7509, 515.6459
259.2330, 510.9336
259.7151, 507.9412
260.1973, 504.4256
260.6794, 500.2051
261.1615, 495.7264
261.6436, 491.6841
262.1257, 487.9959
262.6078, 484.8653
263.0900, 482.4254
263.5721, 480.6912
264.0542, 479.2776
264.5363, 478.2040
265.0184, 477.3969
265.5005, 476.7381
265.9827, 476.2328
266.4648, 475.8275
266.9469, 475.3061
267.4290, 474.6340
267.9111, 475.2465
268.3932, 477.4614
268.8754, 480.4606
269.3575, 483.4572
269.8396, 486.6000
270.3217, 489.2679
270.8038, 491.0940
271.2859, 492.1696
271.7681, 493.8075
272.2502, 495.8344
272.7323, 498.7821
273.2144, 503.5573
273.6965, 510.6678
274.1786, 516.8510
274.6608, 520.9109
275.1429, 523.3478
275.6250, 527.9608
276.1071, 534.9771
276.5892, 543.4852
277.0714, 552.7809
277.5535, 563.0132
278.0356, 573.0185
278.5177, 582.3768
278.9998, 591.4022
279.4819, 601.3219
279.9641, 612.2737
280.4462, 623.9727
280.9283, 636.6215
281.4104, 650.1664
281.8925, 663.0978
282.3746, 675.0107
282.8568, 686.2948
283.3389, 697.7451
283.8210, 709.2531
284.3031, 721.7489
284.7852, 736.1918
285.2673, 752.3696
285.7495, 768.7328
286.2316, 784.8417
286.7137, 801.3594
287.1958, 820.1396
287.6779, 841.2435
288.1600, 862.3346
288.6422, 881.3953
289.1243, 899.0134
289.6064, 918.3459
290.0885, 940.3856
290.5706, 963.0016
291.0527, 982.4573
291.5349, 998.9429
292.0170, 1015.245
292.4991, 1032.681
292.9812, 1051.151
293.4633, 1069.576
293.9454, 1087.969
294.4276, 1106.599
294.9097, 1125.312
295.3918, 1144.293
295.8739, 1164.205
296.3560, 1185.615
296.8381, 1208.104
297.3203, 1230.009
297.8024, 1251.104
298.2845, 1272.456
298.7666, 1295.382
299.2487, 1319.344
299.7308, 1343.414
300.2130, 1368.591
300.6951, 1393.116
301.1772, 1414.933
301.6593, 1433.982
302.1414, 1449.238
302.6235, 1458.942
303.1057, 1464.126
303.5878, 1466.597
304.0699, 1466.859
304.5520, 1464.870
305.0341, 1459.958
305.5162, 1452.379
305.9984, 1443.995
306.4805, 1435.337
306.9626, 1426.948
307.4447, 1419.735
307.9268, 1413.814
308.4089, 1409.132
308.8911, 1405.287
309.3732, 1402.479
309.8553, 1401.577
310.3374, 1404.125
310.8195, 1408.337
311.3016, 1412.388
311.7838, 1415.643
312.2659, 1419.215
312.7480, 1423.860
313.2301, 1429.354
313.7122, 1435.208
314.1943, 1442.164
314.6765, 1448.866
315.1586, 1454.383
315.6407, 1458.483
316.1228, 1461.759
316.6049, 1463.547
317.0870, 1464.794
317.5692, 1467.017
318.0513, 1472.892
318.5334, 1478.126
319.0155, 1479.814
319.4976, 1477.047
319.9797, 1475.703
320.4619, 1478.662
320.9440, 1483.701
321.4261, 1488.289
321.9082, 1491.470
322.3903, 1494.459
322.8724, 1497.832
323.3546, 1501.627
323.8367, 1504.638
324.3188, 1504.726
324.8009, 1505.030
325.2830, 1507.941
325.7651, 1515.633
326.2473, 1523.923
326.7294, 1532.384
327.2115, 1541.037
327.6936, 1550.005
328.1757, 1558.112
328.6578, 1567.341
329.1400, 1578.745
329.6221, 1594.281
330.1042, 1609.152
330.5863, 1623.279
331.0684, 1636.758
331.5505, 1649.588
332.0327, 1661.598
332.5148, 1673.235
332.9969, 1684.908
333.4790, 1697.021
333.9611, 1707.423
334.4432, 1716.289
334.9254, 1723.340
335.4075, 1728.100
335.8896, 1730.814
336.3717, 1730.823
336.8538, 1727.671
337.3359, 1721.151
337.8180, 1713.565
338.3001, 1705.136
338.7823, 1695.373
339.2644, 1684.331
339.7465, 1672.518
340.2286, 1656.769
340.7107, 1635.367
341.1928, 1609.033
341.6750, 1585.540
342.1571, 1565.263
342.6392, 1545.156
343.1213, 1521.702
343.6034, 1495.019
344.0855, 1469.803
344.5677, 1447.422
345.0498, 1426.579
345.5319, 1404.647
346.0140, 1381.588
346.4961, 1358.569
346.9782, 1336.133
347.4604, 1314.212
347.9425, 1293.688
348.4246, 1274.646
348.9067, 1256.402
349.3888, 1237.678
349.8709, 1218.677
350.3531, 1200.470
350.8352, 1184.039
351.3173, 1168.751
351.7994, 1152.881
352.2815, 1136.356
352.7636, 1120.425
353.2458, 1107.026
353.7279, 1095.112
354.2100, 1082.381
354.6921, 1066.228
355.1742, 1050.051
355.6563, 1037.979
356.1385, 1029.696
356.6206, 1021.409
357.1027, 1011.125
357.5848, 999.1783
358.0669, 985.5498
358.5490, 968.6394
359.0312, 952.4925
359.5133, 940.0320
359.9954, 930.4362
360.4775, 920.9753
360.9596, 910.4227
361.4417, 899.5126
361.9239, 888.4666
362.4060, 877.0078
362.8881, 866.3564
363.3702, 857.7094
363.8523, 850.0185
364.3344, 841.6771
364.8166, 831.2206
365.2987, 820.8704
365.7808, 811.8199
366.2629, 804.2004
366.7450, 796.4364
367.2271, 788.3227
367.7093, 779.9564
368.1914, 771.4226
368.6735, 762.2948
369.1556, 753.4330
369.6377, 745.2718
370.1198, 737.6579
370.6020, 729.8047
371.0841, 721.2298
371.5662, 712.8297
372.0483, 705.2775
372.5304, 699.6091
373.0125, 692.6345
373.4947, 683.6591
373.9768, 673.6329
374.4589, 664.6203
374.9410, 656.7057
375.4231, 649.5970
375.9052, 643.1700
376.3874, 637.4266
376.8695, 632.3328
377.3516, 628.1423
377.8337, 624.0912
378.3158, 618.8825
378.7979, 612.2887
379.2801, 606.1358
379.7622, 601.0064
380.2443, 596.6778
380.7264, 591.7256
381.2085, 586.0362
381.6906, 580.6844
382.1728, 576.8288
382.6549, 574.2137
383.1370, 571.4557
383.6191, 568.2499
384.1012, 564.8652
384.5833, 561.8138
385.0655, 559.0155
385.5476, 555.9249
386.0297, 551.7155
386.5118, 547.0817
386.9939, 543.1307
387.4760, 539.9716
387.9582, 537.5426
388.4403, 536.3237
388.9224, 535.7562
389.4045, 534.6921
389.8866, 532.1803
390.3687, 529.2857
390.8509, 526.8690
391.3330, 524.9257
391.8151, 523.2013
392.2972, 521.6486
392.7793, 520.2137
393.2614, 518.8582
393.7436, 517.7496
394.2257, 516.4899
394.7078, 514.6450
395.1899, 512.5059
395.6720, 510.8356
396.1541, 510.3022
396.6363, 509.9603
397.1184, 509.3461
397.6005, 508.2968
398.0826, 507.3519
398.5647, 506.4395
399.0468, 505.7292
399.5290, 505.4258
400.0111, 506.2986
400.4932, 506.7618
400.9753, 506.3884
401.4574, 505.1787
401.9395, 504.2139
402.4217, 503.5680
402.9038, 503.0711
403.3859, 502.5460
403.8680, 501.6942
404.3501, 501.5994
404.8322, 502.7329
405.3144, 504.4756
405.7965, 504.9514
406.2786, 503.6842
406.7607, 502.7414
407.2428, 503.3128
407.7249, 505.4694
408.2071, 506.7209
408.6892, 506.8744
409.1713, 506.7104
409.6534, 507.4481
410.1355, 509.0096
410.6176, 509.8344
411.0998, 509.1428
411.5819, 507.6369
412.0640, 507.2186
412.5461, 507.8407
413.0282, 508.1918
413.5103, 506.7616
413.9925, 504.4004
414.4746, 502.9389
414.9567, 502.8565
415.4388, 503.1894
415.9209, 503.0743
416.4030, 502.5949
416.8852, 501.9550
417.3673, 501.6786
417.8494, 501.0160
418.3315, 498.9901
418.8136, 495.5445
419.2957, 492.3556
419.7779, 490.4229
420.2600, 489.2095
420.7421, 488.2109
421.2242, 487.5190
421.7063, 486.7593
422.1884, 485.8038
422.6706, 484.6830
423.1527, 483.4656
423.6348, 481.8055
424.1169, 480.3662
424.5990, 479.5646
425.0811, 480.0590
425.5633, 479.7573
426.0454, 477.8038
426.5275, 475.3604
427.0096, 473.9137
427.4917, 474.2353
427.9738, 474.4114
428.4560, 474.0866
428.9381, 473.2661
429.4202, 472.0802
429.9023, 470.2485
430.3844, 468.5845
430.8665, 467.7973
431.3487, 468.0461
431.8308, 468.1778
432.3129, 468.0783
432.7950, 467.8238
433.2771, 467.5113
433.7592, 467.1325
434.2414, 466.8871
434.7235, 467.0464
435.2056, 467.4342
435.6877, 467.2124
436.1698, 466.3316
436.6519, 465.4365
437.1341, 465.3016
437.6162, 465.6711
438.0983, 465.8872
438.5804, 465.8011
439.0625, 465.4514
439.5446, 464.4063
440.0268, 462.9997
440.5089, 462.4442
440.9910, 464.7663
441.4731, 467.4853
441.9552, 468.1898
442.4373, 466.2722
442.9195, 464.1864
443.4016, 462.9236
443.8837, 462.2814
444.3658, 462.0133
444.8479, 462.5591
445.3300, 462.9544
445.8122, 462.7207
446.2943, 461.9525
446.7764, 461.5143
447.2585, 461.3849
447.7406, 461.7247
448.2227, 462.7284
448.7049, 465.2351
449.1870, 466.7400
449.6691, 466.7927
450.1512, 466.0588
450.6333, 465.5138
451.1154, 465.0245
451.5976, 465.0326
452.0797, 465.8910
452.5618, 467.4979
453.0439, 468.1646
453.5260, 467.6114
454.0081, 466.9500
454.4903, 467.1401
454.9724, 468.1662
455.4545, 469.0038
455.9366, 469.4212
456.4187, 469.8163
456.9008, 471.0949
457.3830, 473.1294
457.8651, 474.7912
458.3472, 475.4433
458.8293, 475.4283
459.3114, 475.1495
459.7935, 474.6258
460.2757, 474.4625
460.7578, 475.2422
461.2399, 476.6590
461.7220, 478.3423
462.2041, 480.4603
462.6862, 482.3949
463.1684, 483.5846
463.6505, 484.2869
464.1326, 485.0710
464.6147, 486.1255
465.0968, 487.3522
465.5789, 488.7098
466.0611, 490.2057
466.5432, 491.7188
467.0253, 493.1898
467.5074, 494.6678
467.9895, 496.1878
468.4716, 497.9210
468.9538, 499.5103
469.4359, 500.9739
469.9180, 502.2715
470.4001, 503.1548
470.8822, 503.0766
471.3643, 503.5814
471.8465, 505.5535
472.3286, 509.2183
472.8107, 511.9622
473.2928, 513.5314
473.7749, 514.7545
474.2570, 516.6547
474.7392, 519.2276
475.2213, 521.2012
475.7034, 521.9293
476.1855, 522.3541
476.6676, 524.5869
477.1497, 528.4974
477.6319, 532.7238
478.1140, 536.7639
478.5961, 540.5191
479.0782, 543.6404
479.5603, 546.0484
480.0424, 548.5730
480.5246, 551.8152
481.0067, 555.6195
481.4888, 559.7894
481.9709, 564.7363
482.4530, 569.5220
482.9352, 573.3073
483.4173, 576.4739
483.8994, 580.2311
484.3815, 585.3550
484.8636, 590.8758
485.3457, 596.3514
485.8279, 601.7596
486.3100, 607.1754
486.7921, 612.8231
487.2742, 618.3517
487.7563, 623.4440
488.2384, 627.4583
488.7206, 632.1981
489.2027, 637.9883
489.6848, 644.6254
490.1669, 651.3664
490.6490, 658.1573
491.1311, 665.0567
491.6133, 671.8051
492.0954, 678.4485
492.5775, 686.4418
493.0596, 696.0413
493.5417, 705.7550
494.0238, 713.9183
494.5060, 720.7735
494.9881, 727.1705
495.4702, 732.9592
495.9523, 738.8616
496.4344, 746.1290
496.9165, 754.4120
497.3987, 762.3647
497.8808, 769.1780
498.3629, 775.4221
498.8450, 781.6014
499.3271, 787.8054
499.8092, 793.8945
500.2914, 799.9358
500.7735, 805.7839
501.2556, 811.4758
501.7377, 817.3109
502.2198, 822.5224
502.7019, 827.4380
503.1841, 831.6556
503.6662, 834.1265
504.1483, 832.5865
504.6304, 831.6754
505.1125, 833.1790
505.5946, 837.4442
506.0768, 839.5880
506.5589, 838.6516
507.0410, 837.0126
507.5231, 836.8848
508.0052, 838.7051
508.4873, 839.0668
508.9695, 837.2496
509.4516, 834.3682
509.9337, 832.3500
510.4158, 831.1743
510.8979, 830.4782
511.3800, 830.1366
511.8622, 830.1406
512.3443, 830.5677
512.8264, 831.3916
513.3085, 832.2822
513.7906, 832.8403
514.2728, 833.3658
514.7549, 834.5521
515.2370, 837.1019
515.7191, 838.5645
516.2012, 835.7147
516.6833, 831.1540
517.1655, 828.8306
517.6476, 832.3271
518.1297, 835.9882
518.6118, 837.7311
519.0939, 837.6937
519.5760, 837.9853
520.0582, 839.4930
520.5403, 840.8184
521.0224, 841.1978
521.5045, 839.9086
521.9866, 839.9016
522.4688, 841.9138
522.9509, 844.3816
523.4330, 845.2611
523.9151, 844.2322
524.3972, 843.3535
524.8793, 843.0914
525.3615, 843.2303
525.8436, 843.2423
526.3257, 843.1275
526.8078, 842.9626
527.2899, 842.7640
527.7720, 842.5553
528.2542, 842.6508
528.7363, 843.1024
529.2184, 842.8738
529.7005, 840.5023
530.1826, 837.1113
530.6647, 834.2343
531.1469, 832.5411
531.6290, 831.0847
532.1111, 829.2748
532.5932, 827.3427
533.0753, 825.7659
533.5574, 824.4564
534.0396, 823.7161
534.5217, 824.0098
535.0038, 825.4316
535.4859, 825.8807
535.9680, 824.4080
536.4501, 822.8227
536.9323, 822.1568
537.4144, 822.6503
537.8965, 823.4464
538.3786, 824.7180
538.8607, 826.0423
539.3428, 826.3947
539.8250, 825.6277
540.3071, 826.1181
540.7892, 828.9107
541.2713, 833.0998
541.7534, 836.7010
542.2355, 839.7012
542.7177, 841.8979
543.1998, 841.8133
543.6819, 841.3742
544.1640, 843.8438
544.6461, 849.5478
545.1282, 856.0312
545.6104, 862.0479
546.0925, 867.6423
546.5746, 872.8324
547.0567, 877.1859
547.5388, 881.7281
548.0209, 886.3797
548.5031, 891.4288
548.9852, 897.6090
549.4673, 905.2332
549.9494, 913.8338
550.4315, 923.8625
550.9136, 935.3077
551.3958, 944.8451
551.8779, 951.4818
552.3600, 957.9124
552.8421, 965.8059
553.3242, 975.2195
553.8063, 985.6832
554.2885, 997.3440
554.7706, 1009.595
555.2527, 1022.093
555.7348, 1034.654
556.2169, 1045.900
556.6990, 1054.149
557.1812, 1062.340
557.6633, 1075.504
558.1454, 1092.470
558.6275, 1108.899
559.1096, 1120.760
559.5917, 1132.007
560.0739, 1145.906
560.5560, 1162.779
561.0381, 1179.865
561.5202, 1195.665
562.0023, 1211.302
562.4844, 1227.490
562.9666, 1243.436
563.4487, 1261.480
563.9308, 1282.894
564.4129, 1305.881
564.8950, 1327.655
565.3771, 1347.408
565.8593, 1367.196
566.3414, 1387.338
566.8235, 1407.772
567.3056, 1429.222
567.7877, 1451.634
568.2698, 1474.568
568.7520, 1498.027
569.2341, 1521.830
569.7162, 1546.021
570.1983, 1570.355
570.6804, 1595.826
571.1625, 1623.885
571.6447, 1653.282
572.1268, 1681.829
572.6089, 1708.969
573.0910, 1735.839
573.5731, 1763.643
574.0552, 1791.783
574.5374, 1819.836
575.0195, 1847.679
575.5016, 1875.126
575.9837, 1901.797
576.4658, 1927.701
576.9479, 1954.505
577.4301, 1982.516
577.9122, 2010.770
578.3943, 2039.382
578.8764, 2068.530
579.3585, 2095.755
579.8406, 2119.868
580.3228, 2144.712
580.8049, 2175.025
581.2870, 2210.349
581.7691, 2245.150
582.2512, 2278.004
582.7333, 2310.458
583.2155, 2344.482
583.6975, 2379.650
584.1796, 2416.449
584.6617, 2454.142
585.1439, 2493.727
585.6260, 2536.503
586.1081, 2582.117
586.5902, 2628.874
587.0723, 2678.636
587.5544, 2726.981
588.0366, 2771.617
588.5187, 2810.789
589.0008, 2851.691
589.4829, 2895.240
589.9650, 2940.897
590.4471, 2988.717
590.9293, 3040.832
591.4114, 3090.345
591.8935, 3136.335
592.3756, 3180.573
592.8577, 3226.575
593.3398, 3274.097
593.8220, 3321.152
594.3041, 3367.122
594.7862, 3412.103
595.2683, 3456.347
595.7504, 3499.545
596.2325, 3542.294
596.7147, 3585.025
597.1968, 3627.289
597.6789, 3669.036
598.1610, 3710.259
598.6431, 3751.694
599.1252, 3793.843
599.6074, 3835.845
600.0895, 3877.278
600.5716, 3917.653
601.0537, 3958.366
601.5358, 3999.752
602.0179, 4041.256
602.5001, 4082.051
602.9822, 4121.917
603.4643, 4160.655
603.9464, 4197.759
604.4285, 4233.995
604.9106, 4273.565
605.3928, 4316.373
605.8749, 4359.785
606.3570, 4400.670
606.8391, 4441.194
607.3212, 4489.580
607.8033, 4545.413
608.2855, 4605.040
608.7676, 4665.289
609.2497, 4727.287
609.7318, 4791.134
610.2139, 4857.279
610.6960, 4926.378
611.1782, 4997.367
611.6603, 5071.935
612.1424, 5152.821
612.6245, 5247.438
613.1066, 5338.986
613.5887, 5426.267
614.0709, 5509.187
614.5530, 5590.542
615.0351, 5672.577
615.5172, 5745.306
615.9993, 5806.678
616.4814, 5856.870
616.9636, 5899.670
617.4457, 5935.590
617.9278, 5958.068
618.4099, 5962.566
618.8920, 5950.197
619.3741, 5923.630
619.8563, 5882.740
620.3384, 5828.969
620.8205, 5760.159
621.3026, 5680.471
621.7847, 5594.748
622.2668, 5501.877
622.7490, 5405.675
623.2311, 5306.345
623.7132, 5204.197
624.1953, 5099.640
624.6774, 4987.057
625.1595, 4879.180
625.6417, 4779.505
626.1238, 4684.852
626.6059, 4587.599
627.0880, 4485.287
627.5701, 4386.218
628.0522, 4293.171
628.5344, 4205.798
629.0165, 4123.671
629.4986, 4046.906
629.9807, 3970.403
630.4628, 3889.022
630.9449, 3806.018
631.4271, 3726.006
631.9092, 3649.385
632.3913, 3574.140
632.8734, 3499.688
633.3555, 3425.545
633.8376, 3349.778
634.3198, 3271.491
634.8019, 3194.249
635.2840, 3119.974
635.7661, 3047.223
636.2482, 2972.556
636.7303, 2893.480
637.2125, 2816.707
637.6946, 2743.447
638.1767, 2672.859
638.6588, 2601.559
639.1409, 2528.524
639.6230, 2458.124
640.1052, 2392.106
640.5873, 2329.146
641.0694, 2266.482
641.5515, 2203.738
642.0336, 2142.393
642.5157, 2083.535
642.9979, 2026.308
643.4800, 1970.352
643.9621, 1915.070
644.4442, 1862.922
644.9263, 1815.630
645.4084, 1770.859
645.8906, 1727.095
646.3727, 1683.801
646.8548, 1641.974
647.3369, 1601.781
647.8190, 1562.807
648.3011, 1525.214
648.7833, 1488.537
649.2654, 1453.653
649.7475, 1420.297
650.2296, 1388.663
650.7117, 1358.476
651.1938, 1329.448
651.6760, 1301.283
652.1581, 1273.080
652.6402, 1245.885
653.1223, 1221.403
653.6044, 1199.522
654.0865, 1178.193
654.5687, 1156.992
655.0508, 1135.852
655.5329, 1113.994
656.0150, 1091.420
656.4971, 1070.681
656.9792, 1053.688
657.4614, 1037.618
657.9435, 1020.892
658.4256, 1003.071
658.9077, 986.1232
659.3898, 970.2156
659.8719, 954.8643
660.3541, 939.5082
660.8362, 924.2214
661.3183, 909.2606
661.8004, 894.6923
662.2825, 881.1682
662.7646, 870.3311
663.2468, 861.2812
663.7289, 851.8167
664.2110, 840.9968
664.6931, 829.7088
665.1752, 818.0513
665.6573, 806.4608
666.1395, 795.6852
666.6216, 785.9870
667.1037, 777.1260
667.5858, 769.2446
668.0679, 762.1877
668.5500, 755.4453
669.0322, 749.2192
669.5143, 742.7950
669.9964, 735.8340
670.4785, 728.3378
670.9606, 720.1425
671.4427, 711.0974
671.9249, 702.4868
672.4070, 695.1659
672.8891, 688.9415
673.3712, 683.7962
673.8533, 679.7685
674.3354, 675.6614
674.8176, 670.3865
675.2997, 664.6142
675.7818, 659.1477
676.2639, 654.4592
676.7460, 649.4134
677.2281, 643.4442
677.7103, 637.2161
678.1924, 631.5406
678.6745, 626.4579
679.1566, 621.9921
679.6387, 618.2119
680.1208, 614.9977
680.6030, 612.2590
681.0851, 610.0317
681.5672, 607.1315
682.0493, 602.7958
682.5314, 597.8879
683.0135, 594.1017
683.4957, 591.1473
683.9778, 588.0450
684.4599, 583.5806
684.9420, 579.2911
685.4241, 576.5702
685.9063, 575.3095
686.3884, 573.1942
686.8705, 568.4594
687.3526, 563.8494
687.8347, 560.5576
688.3168, 558.7523
688.7990, 557.3937
689.2811, 556.8471
689.7632, 555.9105
690.2453, 553.3873
690.7274, 549.4019
691.2095, 545.7325
691.6917, 542.4713
692.1738, 539.7437
692.6559, 537.9772
693.1380, 536.8229
693.6201, 535.8085
694.1022, 535.0271
694.5844, 533.7864
695.0665, 531.0533
695.5486, 527.8531
696.0307, 525.4936
696.5128, 525.1550
696.9949, 524.5494
697.4771, 523.3001
697.9592, 521.7246
698.4413, 520.6010
698.9234, 520.2007
699.4055, 519.0833
699.8876, 516.5159
700.3698, 513.3201
700.8519, 511.7629
701.3340, 511.6383
701.8161, 511.6155
702.2982, 511.0226
702.7803, 510.1702
703.2625, 509.4461
703.7446, 508.7891
704.2267, 507.8913
704.7088, 506.0993
705.1909, 504.4761
705.6730, 503.7751
706.1552, 504.1339
706.6373, 503.8267
707.1194, 502.1504
707.6015, 500.7802
708.0836, 500.9242
708.5657, 502.7050
709.0479, 503.1879
709.5300, 502.2108
710.0121, 500.8618
710.4942, 500.1834
710.9763, 499.8692
711.4584, 499.0819
711.9406, 497.6354
712.4227, 496.3536
712.9048, 495.9702
713.3869, 495.9935
713.8690, 495.9685
714.3511, 496.1595
714.8333, 495.6483
715.3154, 493.1968
715.7975, 490.5542
716.2796, 489.7881
716.7617, 491.9079
717.2438, 492.9022
717.7260, 491.9958
718.2081, 490.2539
718.6902, 489.5958
719.1723, 489.8824
719.6544, 490.0339
720.1365, 489.6065
720.6187, 489.0555
721.1008, 488.6905
721.5829, 488.6168
722.0650, 489.0784
722.5471, 491.2039
723.0292, 492.8409
723.5114, 492.5922
723.9935, 490.9322
724.4756, 490.0371
724.9577, 490.6706
725.4398, 490.9654
725.9219, 490.1419
726.4041, 488.5132
726.8862, 488.0435
727.3683, 488.8281
727.8504, 489.6678
728.3325, 489.9599
728.8146, 489.8246
729.2968, 489.4057
729.7789, 488.7370
730.2610, 488.0659
730.7431, 487.4391
731.2252, 486.9537
731.7073, 486.9114
732.1895, 487.4199
732.6716, 487.1349
733.1537, 484.8011
733.6358, 482.5246
734.1179, 481.4005
734.6000, 481.6818
735.0822, 481.5679
735.5643, 480.9098
736.0464, 480.3450
736.5285, 480.6996
737.0106, 481.6625
737.4927, 481.9873
737.9749, 481.5093
738.4570, 480.8439
738.9391, 480.7130
739.4212, 480.6275
739.9033, 479.9406
740.3854, 478.1465
740.8676, 476.7067
741.3497, 476.3898
741.8318, 476.4396
742.3139, 476.0406
742.7960, 474.9246
743.2781, 474.0539
743.7603, 473.5343
744.2424, 473.1832
744.7245, 472.9294
745.2066, 472.6925
745.6887, 471.7589
746.1708, 469.7719
746.6530, 467.4740
747.1351, 465.3495
747.6172, 463.5775
748.0993, 462.5069
748.5814, 463.1275
749.0635, 463.4683
749.5457, 462.9737
750.0278, 461.7039
750.5099, 459.7760
750.9920, 456.5182
751.4741, 453.9543
751.9562, 452.7017
752.4384, 452.1976
752.9205, 450.8077
753.4026, 448.5717
753.8847, 447.1992
754.3668, 448.1481
754.8489, 449.4284
755.3311, 447.6794
755.8132, 443.7865
756.2953, 440.3949
756.7774, 438.9717
757.2595, 438.0768
757.7416, 437.2301
758.2238, 436.3704
758.7059, 435.1783
759.1880, 433.3477
759.6701, 431.7082
760.1522, 430.6849
760.6343, 430.0484
761.1165, 428.1975
761.5986, 425.0586
762.0807, 422.4249
762.5628, 421.5503
763.0449, 421.6978
763.5270, 421.8595
764.0092, 421.9689
764.4913, 421.6875
764.9734, 420.6623
765.4555, 419.3261
765.9376, 417.8855
766.4197, 416.3408
766.9019, 414.8006
767.3840, 412.8362
767.8661, 411.5326
768.3482, 411.8006
768.8303, 413.5138
769.3124, 413.0801
769.7946, 410.3482
770.2767, 407.4004
770.7588, 405.7138
771.2409, 404.8035
771.7230, 403.6437
772.2051, 402.2396
772.6873, 401.5381
773.1694, 403.2399
773.6515, 404.9559
774.1336, 404.8776
774.6157, 402.4530
775.0978, 400.5962
775.5800, 399.6577
776.0621, 398.9643
776.5442, 398.1395
777.0263, 397.1696
777.5084, 396.1968
777.9905, 395.1883
778.4727, 394.4287
778.9548, 394.6266
779.4369, 395.0840
779.9190, 394.3893
780.4011, 392.3600
780.8832, 390.4091
781.3654, 389.5463
781.8475, 388.9603
782.3296, 387.8854
782.8117, 385.6873
783.2938, 385.0122
783.7759, 386.7098
784.2581, 388.7611
784.7402, 389.7140
785.2223, 389.5714
785.7044, 388.6384
786.1865, 386.8238
786.6686, 385.2187
787.1508, 385.2029
787.6329, 385.9469
788.1150, 386.1309
788.5971, 385.4759
789.0792, 384.7656
789.5613, 384.3843
790.0435, 384.0845
790.5256, 383.6193
791.0077, 382.7686
791.4898, 382.3546
791.9719, 382.6011
792.4540, 382.9082
792.9362, 382.5624
793.4183, 381.6535
793.9004, 381.4651
794.3825, 382.1901
794.8646, 382.8120
795.3467, 382.2028
795.8289, 380.9648
796.3110, 379.9688
796.7931, 379.4691
797.2752, 378.7241
797.7573, 376.7182
798.2394, 374.8630
798.7216, 374.3815
799.2037, 375.9630
799.6858, 377.0986
800.1679, 377.7450
800.6500, 378.0391
801.1321, 378.1366
801.6143, 378.0094
802.0964, 377.4813
802.5785, 376.5063
803.0606, 375.3807
803.5427, 374.1963
804.0248, 373.1001
804.5070, 372.2383
804.9891, 371.6512
805.4712, 371.2609
805.9533, 371.0150
806.4354, 370.9950
806.9175, 371.3257
807.3997, 372.1406
807.8818, 372.8203
808.3639, 373.4191
808.8460, 373.6299
809.3281, 372.7536
809.8102, 371.2769
810.2924, 370.6241
810.7745, 371.0972
811.2566, 371.3324
811.7387, 369.6918
812.2208, 367.7875
812.7029, 367.2184
813.1851, 369.0542
813.6672, 369.8996
814.1493, 369.0846
814.6314, 367.8679
815.1135, 367.1350
815.5956, 366.8773
816.0778, 367.3815
816.5599, 368.7814
817.0420, 369.9324
817.5241, 369.3109
818.0062, 367.8817
818.4883, 367.2406
818.9705, 367.7102
819.4526, 368.0167
819.9347, 367.3821
820.4168, 366.4879
820.8989, 365.8033
821.3810, 365.3527
821.8632, 365.0509
822.3453, 364.8009
822.8274, 364.9199
823.3095, 366.0999
823.7916, 367.9981
824.2737, 368.4127
824.7559, 367.2338
825.2380, 365.9023
825.7201, 365.5877
826.2022, 365.7072
826.6843, 365.7358
827.1664, 365.6076
827.6486, 365.4201
828.1307, 365.2485
828.6128, 364.9630
829.0949, 364.3676
829.5770, 363.4029
830.0591, 363.2383
830.5413, 363.9882
831.0234, 364.8516
831.5055, 365.1931
831.9876, 365.2398
832.4697, 365.5977
832.9518, 366.2310
833.4340, 366.3974
833.9161, 365.0709
834.3982, 363.6207
834.8803, 362.9192
835.3624, 363.0840
835.8445, 363.3149
836.3267, 363.7801
836.8088, 363.9788
837.2909, 363.5749
837.7730, 362.6895
838.2551, 362.0902
838.7372, 361.7536
839.2194, 361.2536
839.7015, 360.1078
840.1836, 358.8246
840.6657, 357.7050
841.1478, 356.8304
841.6299, 356.6177
842.1121, 357.9330
842.5942, 359.1506
843.0763, 359.7962
843.5584, 359.9019
844.0405, 359.4083
844.5226, 358.1286
845.0048, 357.5999
845.4869, 358.9312
845.9690, 361.0653
846.4511, 361.9919
846.9332, 361.9333
847.4153, 361.6074
847.8975, 361.4282
848.3796, 360.9953
848.8617, 359.7816
849.3438, 358.1362
849.8259, 357.2126
850.3080, 357.1426
850.7902, 357.6105
851.2723, 358.7877
851.7544, 360.1982
852.2365, 360.7631
852.7186, 360.5704
853.2007, 360.0739
853.6829, 359.2410
854.1650, 358.5011
854.6471, 358.4133
855.1292, 358.6299
855.6113, 358.5646
856.0934, 357.7681
856.5756, 357.0484
857.0577, 356.4118
857.5398, 355.9564
858.0219, 355.8789
858.5040, 356.2032
858.9861, 356.3914
859.4683, 356.3094
859.9504, 356.2251
860.4325, 356.7790
860.9146, 357.4720
861.3967, 357.3738
861.8788, 355.9609
862.3610, 354.5566
862.8431, 353.3901
863.3252, 352.6494
863.8073, 352.5654
864.2894, 353.5317
864.7715, 353.8954
865.2537, 353.5203
865.7358, 352.9171
866.2179, 352.5273
866.7000, 352.3205
867.1821, 352.2469
867.6642, 352.3105
868.1464, 352.3339
868.6285, 351.8065
869.1106, 351.4843
869.5927, 352.2598
870.0748, 354.7055
870.5569, 355.4109
871.0391, 353.6106
871.5212, 351.4522
872.0033, 349.9185
872.4854, 349.0571
872.9675, 349.6871
873.4496, 351.7002
873.9318, 353.3875
874.4139, 353.6884
874.8960, 353.0614
875.3781, 351.4253
875.8602, 348.9940
876.3423, 347.3232
876.8245, 347.4714
877.3066, 347.6305
877.7887, 347.1841
878.2708, 346.4122
878.7529, 346.5650
879.2350, 347.6447
879.7172, 348.9026
880.1993, 350.3705
880.6814, 351.4296
881.1635, 350.9701
881.6456, 349.4738
882.1277, 348.0602
882.6099, 346.4553
883.0920, 345.8332
883.5741, 347.5543
884.0562, 349.9770
884.5383, 350.3140
885.0204, 348.1728
885.5026, 346.3778
885.9847, 345.3704
886.4668, 345.0383
886.9489, 345.4301
887.4310, 346.3463
887.9131, 347.4922
888.3953, 349.0655
888.8774, 350.0516
889.3595, 349.7228
889.8416, 348.7473
890.3237, 347.7174
890.8058, 346.4839
891.2880, 345.6910
891.7701, 345.3554
892.2522, 345.4244
892.7343, 346.0170
893.2164, 346.9547
893.6985, 347.8750
894.1807, 348.7364
894.6628, 349.2172
895.1449, 348.7739
895.6270, 348.1416
896.1091, 347.8759
896.5912, 348.0528
897.0734, 347.8122
897.5555, 346.9641
898.0376, 346.1484
898.5197, 345.6695
899.0018, 345.4610
899.4839, 345.2517
899.9661, 345.0846
900.4482, 345.2072
900.9303, 346.1762
901.4124, 347.0907
901.8945, 347.3609
902.3766, 347.0991
902.8588, 346.6665
903.3409, 345.7984
903.8230, 345.4016
904.3051, 345.8460
904.7872, 346.6007
905.2693, 346.4240
905.7515, 345.5103
906.2336, 345.0823
906.7157, 345.5890
907.1978, 346.3403
907.6799, 347.0983
908.1620, 347.5937
908.6442, 347.4940
909.1263, 346.4666
909.6084, 345.2017
910.0905, 343.3771
910.5726, 341.8217
911.0547, 341.3747
911.5369, 341.9572
912.0190, 342.6796
912.5011, 343.5045
912.9832, 344.0858
913.4653, 344.1011
913.9474, 343.7651
914.4296, 343.1163
914.9117, 342.1387
915.3938, 341.6123
915.8759, 341.8046
916.3580, 342.2509
916.8401, 342.9547
917.3223, 343.7583
917.8044, 343.4520
918.2865, 342.1267
918.7686, 341.2938
919.2507, 342.4488
919.7328, 343.8739
920.2150, 343.6616
920.6971, 342.3977
921.1792, 341.5354
921.6613, 341.8087
922.1434, 342.0737
922.6255, 342.1699
923.1077, 342.1812
923.5898, 342.2560
924.0719, 342.3896
924.5540, 342.4097
925.0361, 342.1909
925.5182, 342.2340
926.0004, 343.6823
926.4825, 345.3666
926.9646, 345.7448
927.4467, 343.8771
927.9288, 342.5488
928.4109, 342.1862
928.8931, 342.2564
929.3752, 342.5285
929.8573, 342.9931
930.3394, 343.0320
930.8215, 342.6472
931.3036, 342.4302
931.7858, 343.2916
932.2679, 344.1918
932.7500, 343.9044
933.2321, 342.5770
933.7142, 341.6141
934.1964, 341.8374
934.6785, 341.7533
935.1606, 340.7670
935.6427, 339.3479
936.1248, 339.1638
936.6069, 340.0843
937.0891, 340.4517
937.5712, 339.3190
938.0533, 338.1736
938.5354, 338.9079
939.0175, 340.4130
939.4996, 341.0493
939.9818, 339.2249
940.4639, 338.3139
940.9460, 338.6805
941.4281, 339.6533
941.9102, 340.9542
942.3923, 342.4289
942.8745, 342.2614
943.3566, 340.2657
943.8387, 338.4196
944.3208, 338.6059
944.8029, 339.4697
945.2850, 339.8397
945.7672, 339.5888
946.2493, 339.6905
946.7314, 340.6331
947.2135, 341.1334
947.6956, 340.4245
948.1777, 339.0203
948.6599, 339.0839
949.1420, 340.3304
949.6241, 341.1323
950.1062, 340.3574
950.5883, 339.3257
951.0704, 338.8094
951.5526, 338.7044
952.0347, 338.8610
952.5168, 339.5439
952.9989, 339.8343
953.4810, 339.5151
953.9631, 339.0831
954.4453, 339.3704
954.9274, 340.0762
955.4095, 339.9329
955.8916, 338.6923
956.3737, 337.8001
956.8558, 338.4669
957.3380, 339.6518
957.8201, 340.8193
958.3022, 341.9735
958.7843, 341.8865
959.2664, 339.9525
959.7485, 338.7484
960.2307, 340.2943
960.7128, 342.9383
961.1949, 342.1725
961.6770, 338.9499
962.1591, 336.6476
962.6412, 337.7367
963.1234, 339.0351
963.6055, 339.3404
964.0876, 339.0124
964.5697, 338.6282
965.0518, 338.1468
965.5339, 337.8702
966.0161, 337.8689
966.4982, 337.9737
966.9803, 337.8432
967.4624, 337.7297
967.9445, 338.1866
968.4266, 339.3954
968.9088, 340.3139
969.3909, 340.3583
969.8730, 340.1860
970.3551, 340.1754
970.8372, 340.2974
971.3193, 339.9133
971.8015, 338.9932
972.2836, 338.4146
972.7657, 338.9688
973.2478, 339.8555
973.7299, 340.1905
974.2120, 340.0997
974.6942, 339.9041
975.1763, 339.5927
975.6584, 339.3008
976.1405, 338.8604
976.6226, 338.6426
977.1047, 339.5102
977.5869, 341.3022
978.0690, 341.9931
978.5511, 341.1865
979.0332, 340.3117
979.5153, 340.7611
979.9974, 341.5712
980.4796, 341.8204
980.9617, 341.3167
981.4438, 340.9506
981.9259, 340.6542
982.4080, 340.7408
982.8901, 341.7037
983.3723, 342.9799
983.8544, 342.2668
984.3365, 340.1271
984.8186, 338.8989
985.3007, 341.0205
985.7828, 342.9007
986.2650, 342.1462
986.7471, 340.2892
987.2292, 340.0761
987.7113, 342.2874
988.1934, 343.1841
988.6755, 342.2046
989.1577, 340.8216
989.6398, 340.5926
990.1219, 341.1142
990.6040, 341.9600
991.0861, 343.0898
991.5682, 343.5571
992.0504, 342.0458
992.5325, 340.7969
993.0146, 341.0668
993.4967, 342.4618
993.9788, 342.5748
994.4609, 341.4164
994.9431, 340.6387
995.4252, 341.2202
995.9073, 342.0367
996.3894, 341.6863
996.8715, 340.7831
997.3536, 340.3270
997.8358, 341.0631
998.3179, 341.5446
998.8000, 341.6860
999.2821, 341.6365
999.7642, 341.3715
1000.246, 341.0004
1000.728, 341.3535
1001.211, 342.4274
1001.693, 343.1479
1002.175, 341.8762
1002.657, 340.8468
1003.139, 342.0931
1003.621, 345.1799
1004.103, 346.5245
1004.585, 345.6419
1005.068, 344.8159
1005.550, 344.6370
1006.032, 344.8952
1006.514, 345.4312
1006.996, 346.1100
1007.478, 346.7034
1007.960, 347.2508
1008.442, 347.4383
1008.924, 346.9043
1009.407, 346.2048
1009.889, 345.6786
1010.371, 345.3333
1010.853, 344.9012
1011.335, 344.3740
1011.817, 344.2599
1012.299, 345.4003
1012.781, 346.6823
1013.263, 346.7663
1013.746, 346.0918
1014.228, 346.3142
1014.710, 348.4443
1015.192, 350.0204
1015.674, 350.5901
1016.156, 350.6089
1016.638, 350.7124
1017.120, 350.8506
1017.603, 350.8482
1018.085, 350.6609
1018.567, 350.4551
1019.049, 350.0670
1019.531, 349.9230
1020.013, 350.4196
1020.495, 351.5157
1020.977, 352.3060
1021.459, 352.7517
1021.942, 353.2299
1022.424, 354.0171
1022.906, 354.8174
1023.388, 355.2205
1023.870, 355.3452
1024.352, 355.4218
1024.834, 355.3281
1025.316, 355.4604
1025.799, 355.6967
1026.281, 356.3593
1026.763, 358.1241
1027.245, 360.7148
1027.727, 362.4732
1028.209, 363.3207
1028.691, 363.7226
1029.173, 363.9139
1029.656, 363.8370
1030.138, 363.0669
1030.620, 361.9061
1031.102, 361.9438
1031.584, 363.5485
1032.066, 364.8560
1032.548, 365.3884
1033.030, 365.4719
1033.512, 365.3116
1033.995, 365.1249
1034.477, 365.3242
1034.959, 366.0924
1035.441, 366.8903
1035.923, 367.8999
1036.405, 368.5433
1036.887, 368.4143
1037.369, 367.6060
1037.851, 366.8344
1038.334, 366.1285
1038.816, 365.6163
1039.298, 365.4327
1039.780, 365.4182
1040.262, 365.3382
1040.744, 365.3956
1041.226, 366.0788
1041.708, 367.9259
1042.191, 368.7119
1042.673, 368.0588
1043.155, 367.2228
1043.637, 367.7605
1044.119, 368.8997
1044.601, 369.1844
1045.083, 368.5526
1045.565, 368.1832
1046.047, 369.2188
1046.530, 369.6353
1047.012, 368.3502
1047.494, 366.2950
1047.976, 366.4469
1048.458, 368.4772
1048.940, 369.6276
1049.422, 368.9021
1049.904, 367.9103
1050.386, 367.7058
1050.869, 367.9417
1051.351, 368.3459
1051.833, 368.9566
1052.315, 369.2552
1052.797, 369.1543
1053.279, 369.1429
1053.761, 369.7413
1054.243, 370.4526
1054.726, 370.0043
1055.208, 368.9660
1055.690, 368.8486
1056.172, 371.7779
1056.654, 373.3697
1057.136, 372.4136
1057.618, 370.7838
1058.100, 370.9932
1058.583, 372.6308
1059.065, 372.8606
1059.547, 371.4931
1060.029, 369.8164
1060.511, 368.3571
1060.993, 367.2515
1061.475, 366.7109
1061.957, 366.6290
1062.439, 366.5600
1062.922, 366.4697
1063.404, 366.6975
1063.886, 367.4795
1064.368, 368.1453
1064.850, 367.4547
1065.332, 366.3251
1065.814, 366.1265
1066.296, 367.4297
1066.778, 368.2201
1067.261, 368.2455
1067.743, 367.8539
1068.225, 366.9921
1068.707, 365.9541
1069.189, 365.8888
1069.671, 366.5582
1070.153, 367.1101
1070.635, 367.0125
1071.118, 366.9357
1071.600, 367.3895
1072.082, 367.8275
1072.564, 367.6176
1073.046, 366.6874
1073.528, 365.8237
1074.010, 365.0324
1074.492, 365.0799
1074.974, 368.0061
1075.457, 370.8167
1075.939, 370.1031
1076.421, 366.8237
1076.903, 365.3053
1077.385, 366.5057
1077.867, 367.5672
1078.349, 368.0787
1078.831, 368.1440
1079.313, 367.4500
1079.796, 366.5723
1080.278, 366.8277
1080.760, 368.4816
1081.242, 369.4154
1081.724, 368.1982
1082.206, 366.9642
1082.688, 366.5339
1083.170, 366.5884
1083.652, 365.8827
1084.135, 364.6558
1084.617, 364.3183
1085.099, 365.8803
1085.581, 366.9898
1086.063, 365.5727
1086.545, 363.4940
1087.027, 362.5627
1087.509, 362.9877
1087.992, 362.4666
1088.474, 360.9100
1088.956, 359.8529
1089.438, 360.9452
1089.920, 362.3849
1090.402, 362.1915
1090.884, 360.9238
1091.366, 359.7231
1091.849, 358.3565
1092.331, 358.0675
1092.813, 359.3488
1093.295, 360.5041
1093.777, 359.3305
1094.259, 356.9879
1094.741, 355.9233
1095.223, 356.1039
1095.705, 356.2718
1096.188, 355.6086
1096.670, 355.3295
1097.152, 355.9899
1097.634, 356.9495
1098.116, 357.0087
1098.598, 356.3016
1099.080, 355.4037
1099.562, 354.3574
1100.044, 353.7675
1100.527, 354.8796
1101.009, 355.8095
1101.491, 354.9184
1101.973, 352.6373
1102.455, 351.7876
1102.937, 352.4171
1103.419, 352.7388
1103.901, 351.9692
1104.384, 351.1172
1104.866, 351.0847
1105.348, 351.6509
1105.830, 352.7754
1106.312, 354.8697
1106.794, 355.4880
1107.276, 354.3202
1107.758, 352.7127
1108.240, 350.9220
1108.723, 349.5899
1109.205, 350.3737
1109.687, 352.4135
1110.169, 353.7300
1110.651, 353.0558
1111.133, 352.5868
1111.615, 352.7091
1112.097, 352.7381
1112.579, 351.7600
1113.062, 350.1826
1113.544, 349.7156
1114.026, 350.2171
1114.508, 350.4693
1114.990, 349.3116
1115.472, 348.4472
1115.954, 348.7185
1116.436, 349.4598
1116.919, 349.7423
1117.401, 349.5798
1117.883, 348.8663
1118.365, 347.5389
1118.847, 347.1337
1119.329, 350.3669
1119.811, 353.5095
1120.293, 353.4579
1120.776, 350.9886
1121.258, 349.4125
1121.740, 348.7929
1122.222, 348.6070
1122.704, 348.9225
1123.186, 348.8812
1123.668, 346.7042
1124.150, 344.2233
1124.632, 343.7358
1125.115, 345.8362
1125.597, 346.8001
1126.079, 346.3613
1126.561, 345.4821
1127.043, 344.2803
1127.525, 343.2588
1128.007, 343.6083
1128.489, 344.6046
1128.971, 344.9818
1129.454, 344.2318
1129.936, 343.3567
1130.418, 342.2025
1130.900, 341.4301
1131.382, 341.4001
1131.864, 342.0489
1132.346, 343.8599
1132.828, 346.2381
1133.311, 347.2879
1133.793, 344.6036
1134.275, 342.8104
1134.757, 343.4683
1135.239, 344.7177
1135.721, 344.9774
1136.203, 344.3669
1136.685, 343.7405
1137.167, 343.1480
1137.650, 342.8836
1138.132, 343.4864
1138.614, 344.0393
1139.096, 343.9843
1139.578, 344.3019
1140.060, 343.7743
1140.542, 344.2007
1141.024, 344.2158
1141.506, 343.7471
1141.989, 343.6114
1142.471, 344.9361
1142.953, 346.3378
1143.435, 346.8190
1143.917, 346.5543
1144.399, 346.1192
1144.881, 345.3678
1145.363, 345.7313
1145.846, 347.5798
1146.328, 349.7430
1146.810, 351.4854
1147.292, 352.6164
1147.774, 352.5924
1148.256, 351.4592
1148.738, 351.4562
1149.220, 353.0556
1149.703, 353.9615
1150.185, 353.3608
1150.667, 352.3398
1151.149, 352.1068
1151.631, 352.4600
1152.113, 353.2614
1152.595, 354.5963
1153.077, 355.4222
1153.559, 355.3961
1154.042, 355.6432
1154.524, 356.7956
1155.006, 358.2052
1155.488, 358.4771
1155.970, 358.1660
1156.452, 358.4204
1156.934, 359.8891
1157.416, 360.7516
1157.898, 360.5573
1158.381, 360.2418
1158.863, 360.3419
1159.345, 360.6869
1159.827, 360.9156
1160.309, 360.9744
1160.791, 360.6815
1161.273, 359.6575
1161.755, 358.8524
1162.238, 358.3581
1162.720, 358.2699
1163.202, 358.8857
1163.684, 360.0042
1164.166, 360.4959
1164.648, 360.4825
1165.130, 360.4872
1165.612, 360.9733
1166.094, 361.2370
1166.577, 361.0761
1167.059, 360.5677
1167.541, 359.3830
1168.023, 357.7242
1168.505, 358.0188
1168.987, 360.0727
1169.469, 361.6582
1169.951, 361.3326
1170.433, 360.4012
1170.916, 358.9927
1171.398, 357.5965
1171.880, 356.9998
1172.362, 357.1427
1172.844, 356.5721
1173.326, 355.2155
1173.808, 354.2586
1174.290, 355.1624
1174.773, 356.0737
1175.255, 355.7177
1175.737, 355.7677
1176.219, 355.2946
1176.701, 354.2745
1177.183, 353.5709
1177.665, 351.8617
1178.147, 350.4830
1178.630, 351.2824
1179.112, 352.0565
1179.594, 350.6871
1180.076, 348.0266
1180.558, 347.1576
1181.040, 348.2051
1181.522, 348.2496
1182.004, 346.5995
1182.486, 344.7988
1182.969, 343.9176
1183.451, 343.7100
1183.933, 344.2959
1184.415, 345.4648
1184.897, 346.0300
1185.379, 345.9825
1185.861, 345.2838
1186.343, 343.7148
1186.825, 342.4073
1187.308, 342.9975
1187.790, 344.0177
1188.272, 343.8724
1188.754, 342.5418
1189.236, 342.0562
1189.718, 342.5627
1190.200, 342.5543
1190.682, 341.3431
1191.165, 340.0548
1191.647, 340.2332
1192.129, 340.7599
1192.611, 340.2338
1193.093, 338.4442
1193.575, 337.4264
1194.057, 337.2509
1194.539, 337.3205
1195.021, 337.4827
1195.504, 337.5975
1195.986, 337.4911
1196.468, 337.2445
1196.950, 336.8496
1197.432, 336.1772
1197.914, 336.4800
1198.396, 337.9775
1198.878, 338.9231
1199.360, 338.2264
1199.843, 336.9675
1200.325, 336.3649
1200.807, 336.0432
1201.289, 335.4603
1201.771, 334.5019
1202.253, 333.4788
1202.735, 332.2972
1203.217, 331.7234
1203.700, 332.6513
1204.182, 333.8558
1204.664, 334.0365
1205.146, 333.4920
1205.628, 332.5738
1206.110, 330.9315
1206.592, 330.4165
1207.074, 331.1723
1207.557, 332.0909
1208.039, 332.4943
1208.521, 332.6535
1209.003, 333.1494
1209.485, 333.5341
1209.967, 332.8546
1210.449, 330.4251
1210.931, 328.7881
1211.413, 327.9684
1211.896, 327.7260
1212.378, 328.3282
1212.860, 329.0259
1213.342, 328.8319
1213.824, 328.1800
1214.306, 328.0421
1214.788, 328.8491
1215.270, 328.6714
1215.752, 327.2802
1216.235, 326.4590
1216.717, 328.5420
1217.199, 330.9577
1217.681, 330.9034
1218.163, 329.2489
1218.645, 328.0214
1219.127, 327.4288
1219.609, 326.8745
1220.092, 326.3137
1220.574, 325.9454
1221.056, 326.1932
1221.538, 326.4634
1222.020, 326.1808
1222.502, 325.4930
1222.984, 324.7364
1223.466, 323.8420
1223.948, 323.2275
1224.431, 322.8965
1224.913, 323.1053
1225.395, 324.7819
1225.877, 326.4094
1226.359, 326.6456
1226.841, 325.8606
1227.323, 325.0598
1227.805, 324.1765
1228.287, 323.8985
1228.770, 324.2997
1229.252, 324.7963
1229.734, 325.5074
1230.216, 325.5658
1230.698, 323.2144
1231.180, 320.0579
1231.662, 320.0172
1232.144, 323.4231
1232.627, 325.0885
1233.109, 324.5445
1233.591, 323.7529
1234.073, 324.1726
1234.555, 324.8606
1235.037, 325.4811
1235.519, 325.8180
1236.001, 325.3671
1236.484, 324.1351
1236.966, 323.0970
1237.448, 322.3491
1237.930, 321.9282
1238.412, 322.0688
1238.894, 322.3179
1239.376, 322.6855
1239.858, 322.8425
1240.340, 322.0083
1240.823, 320.3139
1241.305, 319.0870
1241.787, 318.4606
1242.269, 318.2277
1242.751, 318.4479
1243.233, 318.8452
1243.715, 319.4322
1244.197, 320.0007
1244.679, 320.2937
1245.162, 320.2926
1245.644, 319.5988
1246.126, 318.2551
1246.608, 317.5569
1247.090, 318.6093
1247.572, 319.9526
1248.054, 321.3445
1248.536, 322.4300
1249.019, 322.0442
1249.501, 320.9357
1249.983, 322.2316
1250.465, 325.8606
1250.947, 327.8209
1251.429, 324.7560
1251.911, 321.9958
1252.393, 320.5679
1252.875, 320.0356
1253.358, 319.9616
1253.840, 320.2749
1254.322, 321.0622
1254.804, 322.2116
1255.286, 322.7307
1255.768, 321.9994
1256.250, 321.1793
1256.732, 320.3791
1257.214, 319.7229
1257.697, 319.3527
1258.179, 319.2357
1258.661, 319.5111
1259.143, 320.0678
1259.625, 320.0995
1260.107, 319.1735
1260.589, 318.7381
1261.071, 319.1192
1261.554, 319.5214
1262.036, 318.7719
1262.518, 317.8019
1263.000, 317.9961
1263.482, 317.1618
1263.964, 318.8361
1264.446, 316.8495
1264.928, 316.1543
1265.411, 317.2780
1265.893, 318.5899
1266.375, 318.5785
1266.857, 318.1581
1267.339, 317.9420
1267.821, 317.9975
1268.303, 318.4623
1268.785, 319.4066
1269.267, 319.7662
1269.750, 319.4090
1270.232, 319.0439
1270.714, 319.5193
1271.196, 319.8318
1271.678, 319.0364
1272.160, 317.8014
1272.642, 317.1953
1273.124, 317.1797
1273.606, 317.1854
1274.089, 317.1607
1274.571, 317.0421
1275.053, 316.5333
1275.535, 316.2693
1276.017, 316.6141
1276.499, 317.1580
1276.981, 317.3682
1277.463, 317.3111
1277.946, 317.2873
1278.428, 317.2790
1278.910, 317.0226
1279.392, 315.9549
1279.874, 315.3117
1280.356, 315.4607
1280.838, 315.7632
1281.320, 315.4100
1281.802, 314.7352
1282.285, 314.4123
1282.767, 314.4170
1283.249, 314.5399
1283.731, 315.1426
1284.213, 314.8402
1284.695, 313.1978
1285.177, 311.9067
1285.659, 313.3976
1286.141, 315.4776
1286.624, 314.8680
1287.106, 312.5661
1287.588, 311.6539
1288.070, 312.6986
1288.552, 313.6406
1289.034, 314.3905
1289.516, 314.8861
1289.998, 315.1120
1290.481, 315.0310
1290.963, 314.2634
1291.445, 313.3338
1291.927, 313.1528
1292.409, 313.7762
1292.891, 314.1503
1293.373, 314.2505
1293.855, 314.0970
1294.338, 313.3169
1294.820, 312.7466
1295.302, 312.8927
1295.784, 313.3561
1296.266, 313.8578
1296.748, 314.3986
1297.230, 315.0213
1297.712, 315.6947
1298.194, 316.2240
1298.677, 316.5749
1299.159, 316.4516
1299.641, 315.5820
1300.123, 314.7379
1300.605, 314.5860
1301.087, 314.8181
1301.569, 314.6324
1302.051, 314.1706
1302.533, 313.7724
1303.016, 313.2738
##END=



