##NAMES=Boussingaultite
##RRUFFID=R070597
##IDEAL CHEMISTRY=(N^3-^H_4_)_2_Mg(S^6+^O_4_)_2_&#183;6H_2_O
##LOCALITY=The Geysers, near Cloverdale, Sonoma County, California, USA
##OWNER=RRUFF
##SOURCE=James Shigley
##DESCRIPTION=Unconsolidated aggregate of transparent to translucent colorless to white grains
##STATUS=The identification of this mineral has been confirmed by single-crystal X-ray diffraction.
##URL=rruff.info/R070597
166.7258, 39007.62
167.2079, 39131.70
167.6900, 39349.98
168.1721, 39557.11
168.6542, 39692.28
169.1363, 39786.41
169.6185, 39871.39
170.1006, 39954.36
170.5827, 40029.21
171.0648, 40099.24
171.5469, 40161.49
172.0290, 40195.46
172.5112, 40151.51
172.9933, 40076.97
173.4754, 40045.57
173.9575, 40116.82
174.4396, 40223.21
174.9217, 40287.34
175.4039, 40309.28
175.8860, 40315.48
176.3681, 40305.68
176.8502, 40295.75
177.3323, 40325.92
177.8144, 40464.49
178.2966, 40643.80
178.7787, 40731.37
179.2608, 40709.27
179.7429, 40657.05
180.2250, 40673.47
180.7071, 40746.34
181.1893, 40814.05
181.6714, 40842.09
182.1535, 40837.55
182.6356, 40815.54
183.1177, 40770.99
183.5998, 40720.55
184.0820, 40711.68
184.5641, 40740.55
185.0462, 40734.61
185.5283, 40631.34
186.0104, 40445.42
186.4925, 40239.36
186.9747, 40031.59
187.4568, 39810.36
187.9389, 39543.01
188.4210, 39228.48
188.9031, 38900.46
189.3852, 38599.84
189.8673, 38325.05
190.3495, 38049.35
190.8316, 37751.19
191.3137, 37447.57
191.7958, 37220.02
192.2779, 37083.24
192.7600, 36978.25
193.2422, 36836.07
193.7243, 36657.98
194.2064, 36451.57
194.6885, 36200.11
195.1706, 35903.37
195.6527, 35653.11
196.1349, 35452.24
196.6170, 35289.91
197.0991, 35162.20
197.5812, 35077.07
198.0633, 34972.35
198.5454, 34799.46
199.0276, 34551.23
199.5097, 34344.53
199.9918, 34197.25
200.4739, 34087.13
200.9560, 33958.45
201.4381, 33812.96
201.9203, 33649.64
202.4024, 33465.71
202.8845, 33259.80
203.3666, 33049.53
203.8487, 32835.18
204.3308, 32619.98
204.8130, 32419.78
205.2951, 32240.19
205.7772, 32064.75
206.2593, 31868.69
206.7414, 31639.47
207.2235, 31445.49
207.7057, 31301.58
208.1878, 31206.96
208.6699, 31149.98
209.1520, 31150.52
209.6341, 31158.14
210.1162, 31104.08
210.5983, 30958.02
211.0805, 30840.95
211.5626, 30799.66
212.0447, 30847.29
212.5268, 30844.69
213.0089, 30770.38
213.4910, 30665.72
213.9732, 30601.86
214.4553, 30597.40
214.9374, 30588.90
215.4195, 30540.37
215.9016, 30421.81
216.3837, 30372.57
216.8659, 30391.91
217.3480, 30481.22
217.8301, 30680.37
218.3122, 31117.69
218.7943, 31432.88
219.2764, 31439.34
219.7586, 31018.66
220.2407, 30585.94
220.7228, 30106.72
221.2049, 29628.26
221.6870, 29336.97
222.1691, 29339.36
222.6513, 29367.42
223.1334, 29246.26
223.6155, 28872.26
224.0976, 28589.90
224.5797, 28462.06
225.0618, 28465.01
225.5440, 28401.28
226.0261, 28233.63
226.5082, 28047.21
226.9903, 27910.21
227.4724, 27847.09
227.9545, 27780.51
228.4367, 27696.04
228.9188, 27592.81
229.4009, 27503.28
229.8830, 27436.70
230.3651, 27374.53
230.8472, 27297.78
231.3293, 27191.78
231.8115, 27097.96
232.2936, 27027.98
232.7757, 26984.50
233.2578, 26938.70
233.7399, 26884.64
234.2220, 26833.32
234.7042, 26801.11
235.1863, 26812.27
235.6684, 26802.59
236.1505, 26745.49
236.6326, 26621.62
237.1147, 26543.61
237.5969, 26538.86
238.0790, 26564.46
238.5611, 26546.69
239.0432, 26440.46
239.5253, 26360.32
240.0074, 26354.14
240.4896, 26463.57
240.9717, 26521.07
241.4538, 26512.67
241.9359, 26456.14
242.4180, 26386.10
242.9001, 26292.07
243.3823, 26198.21
243.8644, 26111.12
244.3465, 26019.77
244.8286, 25963.00
245.3107, 25969.33
245.7928, 26005.33
246.2750, 25972.06
246.7571, 25837.25
247.2392, 25680.94
247.7213, 25540.56
248.2034, 25424.42
248.6855, 25310.52
249.1677, 25198.51
249.6498, 25088.29
250.1319, 24980.27
250.6140, 24868.54
251.0961, 24766.75
251.5782, 24681.77
252.0603, 24615.49
252.5425, 24562.73
253.0246, 24526.91
253.5067, 24505.33
253.9888, 24480.10
254.4709, 24447.99
254.9530, 24416.83
255.4352, 24394.66
255.9173, 24392.75
256.3994, 24371.13
256.8815, 24315.60
257.3636, 24230.86
257.8458, 24172.62
258.3279, 24152.53
258.8100, 24141.51
259.2921, 24112.99
259.7742, 24052.37
260.2563, 24012.01
260.7385, 24011.05
261.2206, 24045.92
261.7027, 24039.09
262.1848, 23971.02
262.6669, 23890.51
263.1490, 23843.00
263.6311, 23838.47
264.1133, 23840.39
264.5954, 23840.98
265.0775, 23840.76
265.5596, 23858.52
266.0417, 23912.04
266.5238, 23957.39
267.0060, 23933.71
267.4881, 23809.45
267.9702, 23722.04
268.4523, 23718.37
268.9344, 23798.38
269.4165, 23841.67
269.8987, 23840.67
270.3808, 23814.50
270.8629, 23778.19
271.3450, 23724.29
271.8271, 23690.55
272.3092, 23694.81
272.7914, 23736.99
273.2735, 23767.67
273.7556, 23789.47
274.2377, 23795.43
274.7198, 23762.75
275.2019, 23679.32
275.6841, 23628.95
276.1662, 23653.88
276.6483, 23753.52
277.1304, 23816.54
277.6125, 23835.73
278.0946, 23834.43
278.5768, 23844.89
279.0589, 23868.79
279.5410, 23889.90
280.0231, 23891.86
280.5052, 23877.13
280.9873, 23909.54
281.4695, 24002.92
281.9516, 24110.87
282.4337, 24157.11
282.9158, 24138.74
283.3979, 24122.36
283.8800, 24134.00
284.3622, 24172.38
284.8443, 24228.24
285.3264, 24307.44
285.8085, 24387.86
286.2906, 24433.34
286.7727, 24444.46
287.2549, 24453.69
287.7370, 24477.15
288.2191, 24512.29
288.7012, 24543.45
289.1833, 24568.96
289.6654, 24594.79
290.1476, 24627.54
290.6297, 24667.22
291.1118, 24715.18
291.5939, 24779.81
292.0760, 24853.96
292.5581, 24908.73
293.0403, 24938.51
293.5224, 24965.39
294.0045, 25024.27
294.4866, 25110.01
294.9687, 25190.58
295.4508, 25237.42
295.9330, 25268.26
296.4151, 25330.84
296.8972, 25434.62
297.3793, 25539.35
297.8614, 25584.81
298.3435, 25585.41
298.8257, 25595.33
299.3078, 25633.56
299.7899, 25701.50
300.2720, 25815.35
300.7541, 25988.63
301.2362, 26152.44
301.7184, 26204.44
302.2005, 26184.63
302.6826, 26209.54
303.1647, 26423.74
303.6468, 26682.53
304.1289, 26782.49
304.6110, 26682.36
305.0931, 26547.06
305.5753, 26518.91
306.0574, 26564.87
306.5395, 26605.45
307.0216, 26583.56
307.5037, 26548.86
307.9858, 26553.28
308.4680, 26608.58
308.9501, 26669.41
309.4322, 26716.94
309.9143, 26747.54
310.3964, 26752.58
310.8785, 26676.44
311.3607, 26607.21
311.8428, 26625.69
312.3249, 26759.04
312.8070, 26880.21
313.2891, 26912.40
313.7712, 26889.18
314.2534, 26866.71
314.7355, 26880.66
315.2176, 26891.41
315.6997, 26873.76
316.1818, 26819.07
316.6639, 26765.28
317.1461, 26718.19
317.6282, 26682.68
318.1103, 26665.63
318.5924, 26707.98
319.0745, 26737.01
319.5566, 26699.74
320.0388, 26563.46
320.5209, 26502.54
321.0030, 26650.55
321.4851, 26869.90
321.9672, 26988.32
322.4493, 26892.36
322.9315, 26764.50
323.4136, 26648.23
323.8957, 26543.52
324.3778, 26463.88
324.8599, 26419.24
325.3420, 26397.60
325.8242, 26385.21
326.3063, 26385.80
326.7884, 26391.31
327.2705, 26407.20
327.7526, 26440.18
328.2347, 26443.18
328.7169, 26387.24
329.1990, 26316.21
329.6811, 26276.33
330.1632, 26295.17
330.6453, 26306.74
331.1274, 26289.89
331.6096, 26239.03
332.0917, 26226.72
332.5738, 26277.12
333.0559, 26342.53
333.5380, 26375.17
334.0201, 26362.44
334.5023, 26342.90
334.9844, 26324.36
335.4665, 26306.95
335.9486, 26278.09
336.4307, 26230.74
336.9128, 26185.07
337.3950, 26160.34
337.8771, 26160.79
338.3592, 26169.65
338.8413, 26189.71
339.3234, 26216.89
339.8055, 26222.75
340.2877, 26203.21
340.7698, 26176.66
341.2519, 26148.84
341.7340, 26117.81
342.2161, 26126.68
342.6982, 26193.49
343.1804, 26298.86
343.6624, 26388.12
344.1446, 26459.29
344.6267, 26524.95
345.1088, 26598.36
345.5909, 26676.24
346.0730, 26744.75
346.5551, 26803.46
347.0373, 26847.50
347.5194, 26854.62
348.0015, 26828.13
348.4836, 26819.17
348.9657, 26891.65
349.4478, 27009.33
349.9300, 27077.31
350.4121, 27063.65
350.8942, 27026.33
351.3763, 27033.48
351.8584, 27078.96
352.3405, 27135.42
352.8227, 27196.10
353.3048, 27254.81
353.7869, 27305.04
354.2690, 27347.04
354.7511, 27375.43
355.2332, 27366.50
355.7154, 27338.24
356.1975, 27335.40
356.6796, 27405.00
357.1617, 27495.44
357.6438, 27562.16
358.1259, 27593.19
358.6081, 27625.50
359.0902, 27707.29
359.5723, 27800.55
360.0544, 27841.53
360.5365, 27748.52
361.0186, 27642.72
361.5008, 27587.17
361.9829, 27595.91
362.4650, 27611.83
362.9471, 27626.81
363.4292, 27637.18
363.9113, 27638.42
364.3935, 27619.64
364.8756, 27601.58
365.3577, 27589.24
365.8398, 27582.98
366.3219, 27583.88
366.8040, 27595.93
367.2862, 27613.22
367.7683, 27630.61
368.2504, 27688.90
368.7325, 27698.17
369.2146, 27623.67
369.6967, 27463.43
370.1789, 27344.28
370.6610, 27281.63
371.1431, 27246.34
371.6252, 27222.16
372.1073, 27229.46
372.5894, 27200.93
373.0716, 27109.99
373.5537, 26972.08
374.0358, 26891.41
374.5179, 26888.99
375.0000, 26900.59
375.4821, 26881.81
375.9643, 26827.23
376.4464, 26779.93
376.9285, 26745.09
377.4106, 26720.54
377.8927, 26698.39
378.3748, 26677.56
378.8570, 26668.36
379.3391, 26685.03
379.8212, 26723.62
380.3033, 26746.85
380.7854, 26750.29
381.2675, 26739.28
381.7497, 26712.26
382.2318, 26671.46
382.7139, 26644.76
383.1960, 26660.71
383.6781, 26698.70
384.1602, 26704.93
384.6423, 26670.57
385.1245, 26638.38
385.6066, 26669.55
386.0887, 26740.28
386.5708, 26788.32
387.0529, 26763.19
387.5350, 26715.13
388.0172, 26698.15
388.4993, 26714.52
388.9814, 26736.82
389.4635, 26744.91
389.9456, 26748.43
390.4277, 26760.02
390.9099, 26790.10
391.3920, 26824.05
391.8741, 26860.06
392.3562, 26896.29
392.8383, 26916.51
393.3204, 26920.03
393.8026, 26901.50
394.2847, 26856.87
394.7668, 26722.01
395.2489, 26629.97
395.7310, 26632.33
396.2131, 26708.08
396.6953, 26766.68
397.1774, 26787.74
397.6595, 26795.71
398.1416, 26802.61
398.6237, 26821.86
399.1058, 26819.52
399.5880, 26767.97
400.0701, 26699.70
400.5522, 26686.24
401.0343, 26743.22
401.5164, 26832.54
401.9985, 26952.46
402.4807, 27119.16
402.9628, 27237.18
403.4449, 27302.64
403.9270, 27322.36
404.4091, 27295.87
404.8912, 27211.01
405.3734, 27130.84
405.8555, 27072.27
406.3376, 27034.76
406.8197, 27014.55
407.3018, 27011.83
407.7839, 27026.55
408.2661, 27071.00
408.7482, 27141.56
409.2303, 27193.46
409.7124, 27211.13
410.1945, 27206.77
410.6766, 27200.06
411.1588, 27191.92
411.6409, 27191.68
412.1230, 27196.60
412.6051, 27215.81
413.0872, 27275.02
413.5693, 27399.65
414.0515, 27526.33
414.5336, 27584.04
415.0157, 27589.39
415.4978, 27597.51
415.9799, 27642.77
416.4620, 27701.30
416.9442, 27745.39
417.4263, 27760.01
417.9084, 27801.73
418.3905, 27937.36
418.8726, 28112.26
419.3547, 28239.73
419.8369, 28232.60
420.3190, 28224.69
420.8011, 28279.86
421.2832, 28410.53
421.7653, 28525.73
422.2474, 28588.86
422.7296, 28638.59
423.2117, 28710.30
423.6938, 28803.69
424.1759, 28923.99
424.6580, 29087.64
425.1401, 29288.58
425.6223, 29464.16
426.1043, 29592.83
426.5865, 29723.62
427.0686, 29884.94
427.5507, 30075.87
428.0328, 30298.97
428.5149, 30558.15
428.9970, 30845.17
429.4792, 31143.67
429.9613, 31462.04
430.4434, 31770.38
430.9255, 32044.85
431.4076, 32286.41
431.8897, 32568.77
432.3719, 32898.10
432.8540, 33247.78
433.3361, 33580.52
433.8182, 33898.77
434.3003, 34208.32
434.7824, 34490.12
435.2646, 34775.58
435.7467, 35136.54
436.2288, 35573.30
436.7109, 36037.17
437.1930, 36481.25
437.6751, 36928.86
438.1573, 37413.11
438.6394, 37958.54
439.1215, 38531.88
439.6036, 39104.72
440.0857, 39682.38
440.5678, 40284.72
441.0500, 40921.13
441.5321, 41588.93
442.0142, 42278.17
442.4963, 42973.69
442.9784, 43714.29
443.4605, 44529.90
443.9427, 45393.77
444.4248, 46260.14
444.9069, 47122.54
445.3890, 47981.46
445.8711, 48838.10
446.3532, 49676.84
446.8354, 50555.59
447.3175, 51536.73
447.7996, 52513.02
448.2817, 53401.76
448.7638, 54208.07
449.2459, 54923.95
449.7281, 55571.94
450.2102, 56136.62
450.6923, 56524.69
451.1744, 56711.81
451.6565, 56803.07
452.1386, 56870.98
452.6208, 56919.13
453.1029, 56883.97
453.5850, 56757.04
454.0671, 56550.07
454.5492, 56244.58
455.0313, 55847.61
455.5135, 55490.23
455.9956, 55323.87
456.4777, 55229.81
456.9598, 54900.99
457.4419, 54311.37
457.9240, 53671.13
458.4062, 53210.72
458.8883, 52830.07
459.3704, 52358.83
459.8525, 51718.44
460.3346, 50969.45
460.8167, 50129.11
461.2989, 49197.91
461.7810, 48261.41
462.2631, 47321.43
462.7452, 46395.18
463.2273, 45499.57
463.7094, 44656.48
464.1916, 43796.29
464.6737, 42862.87
465.1558, 41901.11
465.6379, 41008.55
466.1200, 40221.81
466.6021, 39482.51
467.0842, 38782.21
467.5663, 38121.57
468.0485, 37458.61
468.5306, 36748.55
469.0127, 36074.97
469.4948, 35533.29
469.9769, 35155.67
470.4590, 34815.94
470.9412, 34499.31
471.4233, 34200.81
471.9054, 33898.16
472.3875, 33591.77
472.8696, 33281.58
473.3517, 32968.31
473.8339, 32654.26
474.3160, 32332.10
474.7981, 32001.77
475.2802, 31664.36
475.7623, 31299.07
476.2444, 30921.12
476.7266, 30590.09
477.2087, 30349.27
477.6908, 30166.03
478.1729, 29997.32
478.6550, 29841.25
479.1371, 29711.64
479.6193, 29657.73
480.1014, 29620.50
480.5835, 29530.74
481.0656, 29276.57
481.5477, 29057.38
482.0298, 28972.77
482.5120, 28992.41
482.9941, 28991.44
483.4762, 28937.34
483.9583, 28856.36
484.4404, 28754.51
484.9225, 28597.68
485.4047, 28492.14
485.8868, 28462.04
486.3689, 28472.11
486.8510, 28474.75
487.3331, 28476.03
487.8152, 28459.14
488.2974, 28416.76
488.7795, 28350.65
489.2616, 28279.19
489.7437, 28193.46
490.2258, 28132.57
490.7079, 28158.71
491.1901, 28265.02
491.6722, 28295.54
492.1543, 28201.62
492.6364, 28067.24
493.1185, 28035.80
493.6006, 28095.51
494.0828, 28173.35
494.5649, 28252.62
495.0470, 28315.74
495.5291, 28329.62
496.0112, 28288.19
496.4933, 28242.13
496.9755, 28222.71
497.4576, 28222.21
497.9397, 28230.13
498.4218, 28266.51
498.9039, 28288.69
499.3860, 28268.87
499.8682, 28216.04
500.3503, 28173.72
500.8324, 28159.44
501.3145, 28154.95
501.7966, 28151.35
502.2787, 28147.38
502.7609, 28147.86
503.2430, 28163.68
503.7251, 28178.62
504.2072, 28163.66
504.6893, 28096.85
505.1714, 28049.75
505.6536, 28047.59
506.1357, 28083.91
506.6178, 28093.98
507.0999, 28070.28
507.5820, 28048.27
508.0641, 28062.33
508.5462, 28107.55
509.0284, 28146.33
509.5105, 28175.26
509.9926, 28189.59
510.4747, 28169.63
510.9568, 28125.09
511.4389, 28093.55
511.9211, 28113.16
512.4032, 28146.33
512.8853, 28146.57
513.3674, 28111.16
513.8495, 28080.82
514.3317, 28089.41
514.8138, 28111.18
515.2959, 28120.25
515.7780, 28069.24
516.2601, 28048.98
516.7422, 28119.01
517.2244, 28246.54
517.7065, 28313.72
518.1886, 28246.01
518.6707, 28172.40
519.1528, 28136.97
519.6349, 28150.51
520.1171, 28160.40
520.5992, 28156.32
521.0813, 28160.56
521.5634, 28213.83
522.0455, 28334.28
522.5276, 28400.15
523.0098, 28365.25
523.4919, 28268.14
523.9740, 28232.53
524.4561, 28258.90
524.9382, 28304.47
525.4203, 28352.29
525.9025, 28396.42
526.3846, 28417.91
526.8667, 28409.95
527.3488, 28404.68
527.8309, 28447.54
528.3130, 28513.04
528.7951, 28554.92
529.2772, 28518.97
529.7593, 28485.17
530.2415, 28514.99
530.7236, 28598.50
531.2057, 28655.26
531.6878, 28632.29
532.1699, 28591.94
532.6520, 28573.22
533.1342, 28608.18
533.6163, 28611.97
534.0984, 28544.29
534.5805, 28461.20
535.0626, 28455.19
535.5447, 28576.79
536.0269, 28667.04
536.5090, 28673.62
536.9911, 28609.23
537.4732, 28574.54
537.9553, 28571.04
538.4374, 28592.79
538.9196, 28650.13
539.4017, 28735.02
539.8838, 28798.16
540.3659, 28833.86
540.8480, 28847.32
541.3301, 28830.61
541.8123, 28795.97
542.2944, 28776.97
542.7765, 28805.89
543.2586, 28845.94
543.7407, 28860.18
544.2228, 28850.08
544.7050, 28850.41
545.1871, 28884.51
545.6692, 28930.93
546.1513, 28974.46
546.6334, 29016.00
547.1155, 29047.98
547.5977, 29052.04
548.0798, 29048.78
548.5619, 29080.77
549.0440, 29192.18
549.5261, 29270.01
550.0082, 29275.38
550.4904, 29210.95
550.9725, 29169.96
551.4546, 29157.39
551.9367, 29154.40
552.4188, 29142.55
552.9009, 29123.67
553.3831, 29123.72
553.8652, 29147.40
554.3473, 29188.14
554.8294, 29262.53
555.3115, 29352.33
555.7936, 29391.47
556.2758, 29284.86
556.7579, 29153.27
557.2400, 29125.13
557.7221, 29196.67
558.2042, 29282.48
558.6863, 29357.35
559.1685, 29416.13
559.6506, 29452.30
560.1327, 29445.18
560.6148, 29448.54
561.0969, 29481.70
561.5790, 29529.06
562.0612, 29562.21
562.5433, 29561.87
563.0254, 29574.11
563.5075, 29616.98
563.9896, 29686.01
564.4717, 29726.32
564.9539, 29729.55
565.4360, 29727.34
565.9181, 29748.81
566.4002, 29791.18
566.8823, 29806.90
567.3644, 29784.68
567.8466, 29756.99
568.3287, 29771.51
568.8108, 29817.61
569.2929, 29862.85
569.7750, 29888.83
570.2571, 29910.41
570.7393, 29949.90
571.2214, 30002.47
571.7035, 30033.49
572.1856, 29995.87
572.6677, 29952.00
573.1498, 29948.55
573.6320, 30017.68
574.1141, 30065.85
574.5962, 30063.56
575.0783, 30038.31
575.5604, 30023.13
576.0425, 30009.08
576.5247, 30022.31
577.0068, 30079.07
577.4889, 30166.83
577.9710, 30221.91
578.4531, 30240.61
578.9352, 30243.20
579.4174, 30227.86
579.8995, 30201.90
580.3816, 30217.01
580.8637, 30279.77
581.3458, 30351.16
581.8279, 30390.48
582.3101, 30407.08
582.7922, 30419.73
583.2743, 30429.51
583.7564, 30443.68
584.2385, 30471.22
584.7206, 30508.18
585.2028, 30542.58
585.6849, 30546.82
586.1670, 30566.81
586.6491, 30625.82
587.1312, 30730.84
587.6133, 30850.10
588.0955, 31000.10
588.5776, 31147.94
589.0597, 31267.29
589.5418, 31349.96
590.0239, 31421.50
590.5060, 31469.89
590.9882, 31522.88
591.4703, 31650.53
591.9524, 31855.02
592.4345, 32057.00
592.9166, 32219.07
593.3987, 32355.30
593.8809, 32485.00
594.3630, 32611.46
594.8451, 32784.54
595.3272, 33069.69
595.8093, 33413.16
596.2914, 33751.13
596.7736, 34077.02
597.2557, 34388.51
597.7378, 34657.41
598.2199, 34919.11
598.7020, 35222.87
599.1841, 35624.34
599.6663, 36018.04
600.1484, 36368.16
600.6305, 36685.14
601.1126, 37031.05
601.5947, 37403.36
602.0768, 37801.57
602.5590, 38229.40
603.0411, 38680.09
603.5232, 39159.62
604.0053, 39679.08
604.4874, 40191.27
604.9695, 40633.88
605.4517, 41023.94
605.9338, 41441.02
606.4159, 41892.98
606.8980, 42395.97
607.3801, 43027.95
607.8622, 43735.52
608.3444, 44351.16
608.8265, 44722.04
609.3086, 45044.98
609.7907, 45471.89
610.2728, 46022.89
610.7549, 46437.96
611.2370, 46583.95
611.7191, 46643.29
612.2012, 46743.79
612.6833, 46994.71
613.1655, 47057.69
613.6476, 46884.41
614.1297, 46565.31
614.6118, 46251.23
615.0939, 45943.43
615.5760, 45579.62
616.0582, 45122.60
616.5403, 44612.17
617.0224, 44114.68
617.5045, 43635.50
617.9866, 43204.65
618.4688, 42859.46
618.9509, 42570.01
619.4330, 42301.66
619.9151, 42052.02
620.3972, 41828.25
620.8793, 41622.39
621.3615, 41449.90
621.8436, 41325.21
622.3257, 41320.88
622.8078, 41282.18
623.2899, 41171.30
623.7720, 41020.13
624.2542, 40899.13
624.7363, 40836.38
625.2184, 40746.50
625.7005, 40625.03
626.1826, 40458.94
626.6647, 40133.30
627.1469, 39635.89
627.6290, 39084.53
628.1111, 38562.53
628.5932, 38054.29
629.0753, 37523.90
629.5574, 36959.16
630.0396, 36394.90
630.5217, 35834.25
631.0038, 35294.16
631.4859, 34798.88
631.9680, 34391.92
632.4501, 33992.00
632.9323, 33548.91
633.4144, 33086.79
633.8965, 32700.07
634.3786, 32452.19
634.8607, 32213.95
635.3428, 31941.10
635.8250, 31631.45
636.3071, 31366.06
636.7892, 31151.78
637.2713, 30970.11
637.7534, 30816.73
638.2355, 30690.77
638.7177, 30554.67
639.1998, 30401.79
639.6819, 30250.60
640.1640, 30130.58
640.6461, 30026.68
641.1282, 29905.26
641.6104, 29723.11
642.0925, 29552.64
642.5746, 29442.90
643.0567, 29382.85
643.5388, 29332.50
644.0209, 29256.93
644.5031, 29209.36
644.9852, 29234.21
645.4673, 29344.13
645.9494, 29375.32
646.4315, 29286.77
646.9136, 29179.65
647.3958, 29134.16
647.8779, 29158.71
648.3600, 29142.50
648.8421, 29065.04
649.3242, 28980.91
649.8063, 28986.87
650.2885, 29054.83
650.7706, 29081.46
651.2527, 29005.95
651.7348, 28905.60
652.2169, 28856.59
652.6990, 28846.04
653.1812, 28833.95
653.6633, 28802.00
654.1454, 28765.25
654.6275, 28725.20
655.1096, 28679.66
655.5917, 28656.62
656.0739, 28672.08
656.5560, 28693.48
657.0381, 28698.40
657.5202, 28679.88
658.0023, 28673.88
658.4844, 28684.05
658.9666, 28700.73
659.4487, 28710.95
659.9308, 28715.53
660.4129, 28722.30
660.8950, 28740.89
661.3771, 28751.81
661.8593, 28720.59
662.3414, 28660.29
662.8235, 28609.88
663.3056, 28589.87
663.7877, 28584.21
664.2698, 28591.18
664.7520, 28610.84
665.2341, 28616.43
665.7162, 28581.01
666.1983, 28550.01
666.6804, 28548.10
667.1625, 28588.53
667.6447, 28617.01
668.1268, 28636.95
668.6089, 28638.96
669.0910, 28599.39
669.5731, 28523.43
670.0552, 28469.75
670.5374, 28453.36
671.0195, 28459.36
671.5016, 28466.94
671.9837, 28480.18
672.4658, 28510.18
672.9479, 28605.96
673.4301, 28681.32
673.9122, 28663.36
674.3943, 28563.40
674.8764, 28492.92
675.3585, 28505.05
675.8406, 28526.55
676.3228, 28522.15
676.8049, 28483.19
677.2870, 28464.68
677.7691, 28470.07
678.2512, 28488.18
678.7333, 28512.99
679.2155, 28543.99
679.6976, 28567.69
680.1797, 28583.72
680.6618, 28589.30
681.1439, 28573.64
681.6260, 28545.83
682.1082, 28525.83
682.5903, 28531.34
683.0724, 28538.72
683.5545, 28535.48
684.0366, 28523.36
684.5187, 28507.33
685.0009, 28478.65
685.4830, 28456.55
685.9651, 28443.48
686.4472, 28438.95
686.9293, 28464.72
687.4114, 28537.64
687.8936, 28601.18
688.3757, 28598.59
688.8578, 28538.09
689.3399, 28536.28
689.8220, 28607.35
690.3041, 28683.12
690.7863, 28674.93
691.2684, 28623.40
691.7505, 28606.24
692.2326, 28665.17
692.7147, 28723.30
693.1968, 28705.59
693.6789, 28662.95
694.1610, 28683.90
694.6431, 28885.83
695.1252, 29041.51
695.6074, 29089.90
696.0895, 29054.40
696.5716, 29046.50
697.0537, 29076.40
697.5358, 29100.88
698.0179, 29102.52
698.5001, 29081.84
698.9822, 29035.12
699.4643, 28961.47
699.9464, 28890.49
700.4285, 28852.29
700.9106, 28827.71
701.3928, 28783.05
701.8749, 28704.42
702.3570, 28654.55
702.8391, 28689.34
703.3212, 28758.05
703.8033, 28809.50
704.2855, 28824.69
704.7676, 28837.26
705.2497, 28846.17
705.7318, 28855.17
706.2139, 28875.08
706.6960, 28911.15
707.1782, 28927.63
707.6603, 28904.95
708.1424, 28863.94
708.6245, 28849.25
709.1066, 28859.32
709.5887, 28886.23
710.0709, 28944.52
710.5530, 29003.70
711.0351, 29028.02
711.5172, 29017.88
711.9993, 29010.98
712.4814, 29018.05
712.9636, 29034.88
713.4457, 29062.21
713.9278, 29107.72
714.4099, 29136.73
714.8920, 29146.73
715.3741, 29144.07
715.8563, 29132.89
716.3384, 29113.34
716.8205, 29088.88
717.3026, 29055.96
717.7847, 29032.53
718.2668, 29066.39
718.7490, 29129.03
719.2311, 29150.12
719.7132, 29074.96
720.1953, 28988.15
720.6774, 28941.70
721.1595, 28924.18
721.6417, 28904.41
722.1238, 28855.24
722.6059, 28826.42
723.0880, 28839.06
723.5701, 28886.64
724.0522, 28914.36
724.5344, 28921.56
725.0165, 28910.44
725.4986, 28865.74
725.9807, 28798.34
726.4628, 28777.52
726.9449, 28803.92
727.4271, 28845.56
727.9092, 28890.51
728.3913, 28929.62
728.8734, 28946.63
729.3555, 28930.65
729.8376, 28927.97
730.3198, 28985.02
730.8019, 29050.68
731.2840, 29069.94
731.7661, 29001.84
732.2482, 28960.73
732.7303, 28960.45
733.2125, 28981.31
733.6946, 28990.74
734.1767, 28988.46
734.6588, 28987.11
735.1409, 28982.46
735.6230, 28990.87
736.1052, 29061.72
736.5873, 29171.74
737.0694, 29246.68
737.5515, 29228.46
738.0336, 29181.38
738.5157, 29135.36
738.9979, 29091.97
739.4800, 29055.15
739.9621, 29012.16
740.4442, 28990.48
740.9263, 29008.66
741.4084, 29070.01
741.8906, 29102.36
742.3727, 29102.98
742.8548, 29089.79
743.3369, 29070.96
743.8190, 29049.60
744.3011, 29038.07
744.7833, 29038.21
745.2654, 29039.17
745.7475, 29021.95
746.2296, 29005.26
746.7117, 29014.62
747.1938, 29085.21
747.6760, 29124.79
748.1581, 29077.32
748.6402, 29001.94
749.1223, 28972.88
749.6044, 29009.41
750.0865, 29043.36
750.5687, 29065.87
751.0508, 29080.36
751.5329, 29089.42
752.0150, 29094.17
752.4971, 29106.61
752.9792, 29135.62
753.4614, 29169.47
753.9435, 29197.46
754.4256, 29218.87
754.9077, 29231.34
755.3898, 29217.70
755.8719, 29209.57
756.3541, 29218.31
756.8362, 29245.31
757.3183, 29294.23
757.8004, 29390.53
758.2825, 29465.20
758.7646, 29478.32
759.2468, 29434.10
759.7289, 29403.71
760.2110, 29387.23
760.6931, 29387.18
761.1752, 29422.44
761.6573, 29469.63
762.1395, 29491.31
762.6216, 29481.64
763.1037, 29459.48
763.5858, 29412.05
764.0679, 29369.11
764.5500, 29358.31
765.0322, 29417.77
765.5143, 29445.82
765.9964, 29419.45
766.4785, 29384.31
766.9606, 29399.81
767.4427, 29467.83
767.9249, 29544.32
768.4070, 29633.24
768.8891, 29698.73
769.3712, 29663.38
769.8533, 29565.56
770.3354, 29496.42
770.8176, 29507.90
771.2997, 29540.16
771.7818, 29574.77
772.2639, 29607.07
772.7460, 29623.00
773.2281, 29590.23
773.7103, 29584.41
774.1924, 29632.14
774.6745, 29717.65
775.1566, 29774.91
775.6387, 29802.42
776.1208, 29815.45
776.6029, 29807.44
777.0850, 29795.37
777.5671, 29827.13
778.0493, 29894.02
778.5314, 29936.97
779.0135, 29885.70
779.4956, 29825.28
779.9777, 29819.33
780.4598, 29878.20
780.9420, 29918.40
781.4241, 29930.36
781.9062, 29926.14
782.3883, 29907.05
782.8704, 29870.06
783.3525, 29850.42
783.8347, 29849.21
784.3168, 29860.22
784.7989, 29896.09
785.2810, 29936.39
785.7631, 29926.41
786.2452, 29847.51
786.7274, 29789.16
787.2095, 29842.92
787.6916, 29927.46
788.1737, 29963.07
788.6558, 29884.52
789.1379, 29837.58
789.6201, 29844.52
790.1022, 29865.72
790.5843, 29841.30
791.0664, 29764.39
791.5485, 29735.02
792.0306, 29781.29
792.5128, 29850.43
792.9949, 29870.39
793.4770, 29855.93
793.9591, 29841.88
794.4412, 29840.98
794.9233, 29843.99
795.4055, 29852.35
795.8876, 29860.88
796.3697, 29857.96
796.8518, 29841.80
797.3339, 29814.39
797.8160, 29765.07
798.2982, 29710.15
798.7803, 29714.31
799.2624, 29778.69
799.7445, 29819.77
800.2266, 29788.77
800.7087, 29725.11
801.1909, 29693.69
801.6730, 29684.57
802.1551, 29659.12
802.6372, 29563.98
803.1193, 29478.98
803.6014, 29452.82
804.0836, 29484.64
804.5657, 29491.79
805.0478, 29452.41
805.5299, 29428.15
806.0120, 29454.31
806.4941, 29522.08
806.9763, 29556.63
807.4584, 29558.52
807.9405, 29561.18
808.4226, 29609.44
808.9047, 29661.35
809.3868, 29649.88
809.8690, 29571.18
810.3511, 29514.87
810.8332, 29540.21
811.3153, 29579.89
811.7974, 29593.93
812.2795, 29577.15
812.7617, 29556.71
813.2438, 29527.97
813.7259, 29506.13
814.2080, 29517.01
814.6901, 29548.88
815.1722, 29529.15
815.6544, 29447.05
816.1365, 29383.51
816.6186, 29438.65
817.1007, 29533.37
817.5828, 29581.12
818.0649, 29551.63
818.5471, 29513.26
819.0292, 29453.86
819.5113, 29410.56
819.9934, 29426.11
820.4755, 29526.13
820.9576, 29557.68
821.4398, 29494.74
821.9219, 29413.71
822.4040, 29418.44
822.8861, 29479.31
823.3682, 29522.13
823.8503, 29531.44
824.3325, 29517.45
824.8146, 29456.94
825.2967, 29389.49
825.7788, 29363.65
826.2609, 29462.08
826.7430, 29496.93
827.2252, 29426.52
827.7073, 29322.24
828.1894, 29300.41
828.6715, 29362.85
829.1536, 29405.53
829.6357, 29397.93
830.1179, 29383.88
830.6000, 29434.85
831.0821, 29520.17
831.5642, 29578.69
832.0463, 29579.75
832.5284, 29559.55
833.0106, 29501.10
833.4927, 29436.62
833.9748, 29430.50
834.4569, 29513.91
834.9390, 29581.40
835.4211, 29613.82
835.9033, 29621.06
836.3854, 29621.92
836.8675, 29615.79
837.3496, 29597.61
837.8317, 29547.68
838.3138, 29506.99
838.7960, 29516.25
839.2781, 29562.51
839.7602, 29616.05
840.2423, 29674.87
840.7244, 29733.90
841.2065, 29799.94
841.6887, 29863.51
842.1708, 29887.43
842.6529, 29865.60
843.1350, 29853.33
843.6171, 29878.26
844.0992, 29915.16
844.5814, 29901.19
845.0635, 29856.27
845.5456, 29845.51
846.0277, 29974.28
846.5098, 30071.81
846.9919, 30010.24
847.4741, 29834.23
847.9562, 29757.88
848.4383, 29847.45
848.9204, 29911.45
849.4025, 29886.40
849.8846, 29801.60
850.3668, 29746.08
850.8489, 29720.00
851.3310, 29719.38
851.8131, 29782.15
852.2952, 29839.25
852.7773, 29797.78
853.2595, 29687.29
853.7416, 29623.15
854.2237, 29685.98
854.7058, 29751.50
855.1879, 29781.18
855.6700, 29782.16
856.1522, 29789.47
856.6343, 29803.56
857.1164, 29819.94
857.5985, 29843.65
858.0806, 29863.58
858.5627, 29853.17
859.0448, 29818.18
859.5269, 29783.71
860.0090, 29747.60
860.4911, 29730.24
860.9733, 29747.05
861.4554, 29796.23
861.9375, 29847.84
862.4196, 29904.67
862.9017, 29957.50
863.3839, 30005.00
863.8660, 30044.71
864.3481, 30065.75
864.8302, 30069.17
865.3123, 30063.98
865.7944, 30039.17
866.2766, 30020.32
866.7587, 30041.02
867.2408, 30092.15
867.7229, 30122.37
868.2050, 30089.91
868.6871, 30067.49
869.1693, 30078.05
869.6514, 30115.22
870.1335, 30144.90
870.6156, 30167.57
871.0977, 30179.56
871.5798, 30178.66
872.0620, 30166.59
872.5441, 30138.17
873.0262, 30098.72
873.5083, 30069.89
873.9904, 30064.78
874.4725, 30069.46
874.9547, 30080.88
875.4368, 30097.98
875.9189, 30117.48
876.4010, 30141.94
876.8831, 30159.34
877.3652, 30156.84
877.8474, 30149.13
878.3295, 30184.53
878.8116, 30252.38
879.2937, 30304.46
879.7758, 30298.69
880.2579, 30283.73
880.7401, 30289.87
881.2222, 30312.82
881.7043, 30325.14
882.1864, 30314.03
882.6685, 30311.70
883.1506, 30325.97
883.6328, 30355.69
884.1149, 30413.98
884.5970, 30493.71
885.0791, 30536.89
885.5612, 30470.01
886.0433, 30391.06
886.5255, 30394.06
887.0076, 30457.64
887.4897, 30514.77
887.9718, 30545.48
888.4539, 30570.35
888.9360, 30590.70
889.4182, 30609.20
889.9003, 30637.82
890.3824, 30676.86
890.8645, 30707.80
891.3466, 30717.55
891.8287, 30723.64
892.3109, 30769.40
892.7930, 30830.39
893.2751, 30847.62
893.7572, 30726.92
894.2393, 30640.80
894.7214, 30670.65
895.2036, 30761.22
895.6857, 30795.19
896.1678, 30757.50
896.6499, 30742.34
897.1320, 30778.89
897.6141, 30839.28
898.0963, 30887.69
898.5784, 30920.49
899.0605, 30926.03
899.5426, 30857.86
900.0247, 30813.16
900.5068, 30854.16
900.9890, 30939.67
901.4711, 30993.05
901.9532, 31006.74
902.4353, 31005.86
902.9174, 30991.02
903.3995, 30969.26
903.8817, 30939.13
904.3638, 30910.57
904.8459, 30921.47
905.3280, 30999.32
905.8101, 31079.29
906.2922, 31128.72
906.7744, 31151.53
907.2565, 31151.30
907.7386, 31120.53
908.2207, 31078.51
908.7028, 31011.69
909.1849, 30956.24
909.6671, 30964.88
910.1492, 31026.70
910.6313, 31092.04
911.1134, 31154.41
911.5955, 31207.01
912.0776, 31231.61
912.5598, 31249.45
913.0419, 31285.57
913.5240, 31363.40
914.0061, 31414.06
914.4882, 31417.25
914.9703, 31417.28
915.4525, 31453.10
915.9346, 31522.66
916.4167, 31617.79
916.8988, 31742.11
917.3809, 31821.27
917.8630, 31744.53
918.3452, 31617.46
918.8273, 31549.78
919.3094, 31566.65
919.7915, 31586.32
920.2736, 31611.83
920.7557, 31619.08
921.2379, 31586.14
921.7200, 31513.88
922.2021, 31464.28
922.6842, 31437.31
923.1663, 31438.62
923.6484, 31501.37
924.1306, 31575.63
924.6127, 31600.36
925.0948, 31574.21
925.5769, 31558.88
926.0590, 31570.58
926.5411, 31598.24
927.0233, 31646.33
927.5054, 31709.66
927.9875, 31731.24
928.4696, 31709.87
928.9517, 31700.17
929.4338, 31742.16
929.9160, 31806.41
930.3981, 31863.58
930.8802, 31912.82
931.3623, 31953.01
931.8444, 32002.41
932.3265, 32016.88
932.8087, 31962.45
933.2908, 31872.34
933.7729, 31868.19
934.2550, 31955.63
934.7371, 32006.82
935.2192, 31956.03
935.7014, 31882.88
936.1835, 31900.52
936.6656, 31973.68
937.1477, 32027.45
937.6298, 31997.94
938.1119, 31995.87
938.5941, 32064.65
939.0762, 32159.24
939.5583, 32210.91
940.0404, 32216.58
940.5225, 32218.00
941.0046, 32219.10
941.4867, 32228.19
941.9688, 32262.08
942.4509, 32308.28
942.9330, 32345.50
943.4152, 32356.78
943.8973, 32386.52
944.3794, 32471.30
944.8615, 32559.59
945.3436, 32604.38
945.8257, 32599.05
946.3079, 32621.65
946.7900, 32678.43
947.2721, 32741.36
947.7542, 32765.88
948.2363, 32789.86
948.7184, 32876.83
949.2006, 33041.46
949.6827, 33176.83
950.1648, 33204.64
950.6469, 33236.53
951.1290, 33332.89
951.6111, 33491.57
952.0933, 33599.20
952.5754, 33652.80
953.0575, 33714.59
953.5396, 33817.44
954.0217, 33955.81
954.5038, 34140.79
954.9860, 34362.00
955.4681, 34563.37
955.9502, 34704.93
956.4323, 34850.23
956.9144, 35014.94
957.3965, 35197.09
957.8787, 35377.09
958.3608, 35556.18
958.8429, 35768.24
959.3250, 36031.64
959.8071, 36323.08
960.2892, 36603.02
960.7714, 36895.44
961.2535, 37239.25
961.7356, 37674.11
962.2177, 38132.68
962.6998, 38586.63
963.1819, 39071.97
963.6641, 39638.59
964.1462, 40281.56
964.6283, 40992.93
965.1104, 41751.81
965.5925, 42605.41
966.0746, 43508.28
966.5568, 44569.41
967.0389, 45893.61
967.5210, 47353.42
968.0031, 49463.11
968.4852, 52113.19
968.9673, 55544.52
969.4495, 59974.51
969.9316, 65397.21
970.4137, 71645.54
970.8958, 78675.30
971.3779, 85728.07
971.8600, 92398.67
972.3422, 98640.84
972.8243, 104218.8
973.3064, 109094.6
973.7885, 114374.4
974.2706, 119984.3
974.7527, 126131.6
975.2349, 132945.5
975.7170, 140400.1
976.1991, 148532.9
976.6812, 157316.2
977.1633, 166601.5
977.6454, 176013.0
978.1276, 186216.2
978.6097, 197261.8
979.0918, 209497.0
979.5739, 223410.1
980.0560, 238731.7
980.5381, 256210.8
981.0203, 276520.3
981.5024, 297781.8
981.9845, 321805.5
982.4666, 344300.6
982.9487, 354795.5
983.4308, 350518.3
983.9130, 334020.5
984.3951, 298907.6
984.8772, 256798.6
985.3593, 218166.0
985.8414, 182542.7
986.3235, 152739.5
986.8057, 129019.6
987.2878, 109794.7
987.7699, 94694.73
988.2520, 82906.39
988.7341, 73596.25
989.2162, 66624.69
989.6984, 61055.46
990.1805, 56979.99
990.6626, 53726.91
991.1447, 51084.05
991.6268, 49003.88
992.1089, 47295.57
992.5911, 45976.26
993.0732, 44797.35
993.5553, 43630.33
994.0374, 42559.41
994.5195, 41692.96
995.0016, 41005.44
995.4838, 40394.19
995.9659, 39871.96
996.4480, 39375.15
996.9301, 38881.70
997.4122, 38418.54
997.8943, 38041.73
998.3765, 37742.00
998.8586, 37476.46
999.3407, 37241.42
999.8228, 37019.94
1000.305, 36790.20
1000.787, 36572.46
1001.269, 36386.03
1001.751, 36244.58
1002.233, 36101.90
1002.716, 35955.32
1003.198, 35818.50
1003.680, 35707.86
1004.162, 35615.38
1004.644, 35523.94
1005.126, 35431.41
1005.608, 35329.60
1006.090, 35210.04
1006.572, 35085.40
1007.055, 34944.62
1007.537, 34802.87
1008.019, 34739.50
1008.501, 34770.16
1008.983, 34790.47
1009.465, 34769.47
1009.947, 34716.78
1010.429, 34611.96
1010.911, 34490.90
1011.394, 34425.88
1011.876, 34500.56
1012.358, 34546.14
1012.840, 34505.50
1013.322, 34446.43
1013.804, 34452.43
1014.286, 34522.00
1014.768, 34541.29
1015.251, 34498.57
1015.733, 34432.76
1016.215, 34351.33
1016.697, 34281.20
1017.179, 34263.87
1017.661, 34311.35
1018.143, 34299.27
1018.625, 34174.96
1019.107, 34087.95
1019.590, 34132.34
1020.072, 34255.31
1020.554, 34271.49
1021.036, 34201.78
1021.518, 34141.45
1022.000, 34121.36
1022.482, 34140.45
1022.964, 34239.82
1023.446, 34366.46
1023.929, 34414.05
1024.411, 34366.40
1024.893, 34301.97
1025.375, 34220.20
1025.857, 34163.30
1026.339, 34208.11
1026.821, 34303.88
1027.303, 34372.01
1027.786, 34392.77
1028.268, 34407.20
1028.750, 34433.24
1029.232, 34447.03
1029.714, 34423.46
1030.196, 34367.69
1030.678, 34367.99
1031.160, 34422.84
1031.642, 34498.88
1032.125, 34598.89
1032.607, 34689.77
1033.089, 34739.60
1033.571, 34757.76
1034.053, 34786.18
1034.535, 34829.75
1035.017, 34876.79
1035.499, 34921.34
1035.982, 34975.91
1036.464, 35058.34
1036.946, 35169.41
1037.428, 35315.03
1037.910, 35513.58
1038.392, 35700.70
1038.874, 35862.50
1039.356, 35988.57
1039.839, 36061.45
1040.321, 36071.32
1040.803, 36124.71
1041.285, 36224.09
1041.767, 36334.74
1042.249, 36464.47
1042.731, 36568.70
1043.213, 36569.61
1043.695, 36486.81
1044.177, 36455.73
1044.660, 36559.08
1045.142, 36609.93
1045.624, 36551.07
1046.106, 36434.25
1046.588, 36358.30
1047.070, 36321.23
1047.552, 36308.22
1048.034, 36301.34
1048.517, 36352.50
1048.999, 36585.61
1049.481, 36826.60
1049.963, 36888.67
1050.445, 36698.89
1050.927, 36652.86
1051.409, 36762.96
1051.891, 36917.86
1052.374, 37028.95
1052.856, 37130.81
1053.338, 37270.66
1053.820, 37446.75
1054.302, 37621.70
1054.784, 37792.55
1055.266, 37952.77
1055.748, 38095.83
1056.230, 38231.60
1056.713, 38391.50
1057.195, 38568.13
1057.677, 38722.05
1058.159, 38836.33
1058.641, 38941.35
1059.123, 39047.24
1059.605, 39158.66
1060.087, 39284.46
1060.569, 39434.20
1061.052, 39552.01
1061.534, 39633.92
1062.016, 39710.89
1062.498, 39817.34
1062.980, 39929.42
1063.462, 40025.54
1063.944, 40102.10
1064.426, 40141.71
1064.908, 40089.78
1065.391, 40068.35
1065.873, 40118.50
1066.355, 40202.80
1066.837, 40236.55
1067.319, 40225.88
1067.801, 40196.11
1068.283, 40152.10
1068.765, 40095.81
1069.248, 40005.12
1069.730, 39919.07
1070.212, 39882.85
1070.694, 39914.28
1071.176, 39900.77
1071.658, 39838.09
1072.140, 39758.93
1072.622, 39680.16
1073.104, 39605.64
1073.587, 39540.15
1074.069, 39483.91
1074.551, 39440.42
1075.033, 39402.69
1075.515, 39393.88
1075.997, 39435.30
1076.479, 39487.45
1076.961, 39455.01
1077.443, 39366.54
1077.926, 39325.35
1078.408, 39372.95
1078.890, 39412.97
1079.372, 39351.26
1079.854, 39296.61
1080.336, 39344.76
1080.818, 39506.11
1081.300, 39611.69
1081.783, 39657.74
1082.265, 39705.22
1082.747, 39801.23
1083.229, 39912.88
1083.711, 39994.64
1084.193, 40062.23
1084.675, 40172.36
1085.157, 40343.03
1085.640, 40537.31
1086.122, 40762.34
1086.604, 40982.71
1087.086, 41136.59
1087.568, 41248.26
1088.050, 41392.23
1088.532, 41592.52
1089.014, 41750.43
1089.496, 41772.28
1089.979, 41790.93
1090.461, 41885.85
1090.943, 42046.61
1091.425, 42160.77
1091.907, 42229.49
1092.389, 42270.65
1092.871, 42276.59
1093.353, 42275.80
1093.835, 42298.20
1094.318, 42325.73
1094.800, 42325.42
1095.282, 42300.79
1095.764, 42227.31
1096.246, 42092.09
1096.728, 41949.97
1097.210, 41873.43
1097.692, 41820.58
1098.175, 41732.47
1098.657, 41603.50
1099.139, 41443.80
1099.621, 41204.60
1100.103, 41010.94
1100.585, 40923.92
1101.067, 40893.38
1101.549, 40765.06
1102.031, 40562.48
1102.514, 40370.62
1102.996, 40218.05
1103.478, 40089.57
1103.960, 40001.07
1104.442, 39919.18
1104.924, 39801.48
1105.406, 39633.93
1105.888, 39565.20
1106.370, 39603.54
1106.853, 39617.71
1107.335, 39449.77
1107.817, 39259.96
1108.299, 39205.80
1108.781, 39268.59
1109.263, 39312.46
1109.745, 39320.66
1110.227, 39331.73
1110.710, 39354.60
1111.192, 39381.28
1111.674, 39402.60
1112.156, 39419.23
1112.638, 39421.95
1113.120, 39391.89
1113.602, 39429.87
1114.084, 39604.64
1114.567, 39786.15
1115.049, 39900.86
1115.531, 39966.46
1116.013, 40061.18
1116.495, 40184.45
1116.977, 40326.48
1117.459, 40506.54
1117.941, 40677.07
1118.423, 40795.05
1118.906, 40901.04
1119.388, 41050.21
1119.870, 41243.39
1120.352, 41473.77
1120.834, 41744.64
1121.316, 41985.93
1121.798, 42094.92
1122.280, 42179.28
1122.762, 42341.18
1123.245, 42585.18
1123.727, 42805.69
1124.209, 43003.93
1124.691, 43170.96
1125.173, 43292.10
1125.655, 43407.88
1126.137, 43590.85
1126.619, 43809.38
1127.102, 44010.56
1127.584, 44182.55
1128.066, 44330.87
1128.548, 44456.28
1129.030, 44559.92
1129.512, 44641.77
1129.994, 44701.49
1130.476, 44732.58
1130.958, 44738.95
1131.441, 44742.48
1131.923, 44805.50
1132.405, 44802.91
1132.887, 44670.01
1133.369, 44467.73
1133.851, 44275.21
1134.333, 44091.82
1134.815, 43928.46
1135.297, 43791.59
1135.780, 43620.72
1136.262, 43339.02
1136.744, 43033.57
1137.226, 42771.41
1137.708, 42550.11
1138.190, 42318.04
1138.672, 42075.28
1139.154, 41826.52
1139.637, 41569.46
1140.119, 41315.27
1140.601, 41083.54
1141.083, 40863.48
1141.565, 40642.42
1142.047, 40401.44
1142.529, 40203.13
1143.011, 40057.45
1143.494, 39915.31
1143.976, 39710.16
1144.458, 39497.75
1144.940, 39396.11
1145.422, 39379.95
1145.904, 39340.46
1146.386, 39203.12
1146.868, 39094.94
1147.350, 39038.11
1147.833, 39010.35
1148.315, 38985.73
1148.797, 38962.32
1149.279, 38936.29
1149.761, 38907.27
1150.243, 38868.52
1150.725, 38826.44
1151.207, 38760.39
1151.689, 38657.24
1152.172, 38525.96
1152.654, 38396.02
1153.136, 38267.80
1153.618, 38143.46
1154.100, 38015.62
1154.582, 37907.71
1155.064, 37858.90
1155.546, 37819.70
1156.028, 37735.09
1156.511, 37596.50
1156.993, 37514.56
1157.475, 37490.80
1157.957, 37443.43
1158.439, 37279.52
1158.921, 37107.32
1159.403, 37014.33
1159.885, 36980.45
1160.368, 36951.68
1160.850, 36939.74
1161.332, 36868.98
1161.814, 36720.52
1162.296, 36566.34
1162.778, 36486.71
1163.260, 36440.33
1163.742, 36376.11
1164.224, 36290.17
1164.707, 36228.12
1165.189, 36195.96
1165.671, 36176.12
1166.153, 36164.78
1166.635, 36159.39
1167.117, 36163.95
1167.599, 36168.54
1168.081, 36152.90
1168.563, 36100.50
1169.046, 36063.52
1169.528, 36048.64
1170.010, 36044.09
1170.492, 36037.90
1170.974, 36038.61
1171.456, 36092.93
1171.938, 36178.77
1172.420, 36225.02
1172.903, 36181.03
1173.385, 36119.98
1173.867, 36046.27
1174.349, 35977.30
1174.831, 35933.55
1175.313, 35912.01
1175.795, 35903.56
1176.277, 35906.36
1176.760, 35905.01
1177.242, 35865.73
1177.724, 35851.36
1178.206, 35905.92
1178.688, 35988.67
1179.170, 35999.21
1179.652, 35948.12
1180.134, 35928.39
1180.616, 35965.73
1181.099, 35984.91
1181.581, 35885.49
1182.063, 35794.61
1182.545, 35818.89
1183.027, 35937.57
1183.509, 35971.03
1183.991, 35922.62
1184.473, 35871.73
1184.955, 35840.73
1185.438, 35833.57
1185.920, 35871.40
1186.402, 35924.22
1186.884, 35957.08
1187.366, 35966.89
1187.848, 35969.63
1188.330, 35964.81
1188.812, 35961.73
1189.295, 35980.08
1189.777, 35990.96
1190.259, 35966.99
1190.741, 35915.89
1191.223, 35852.30
1191.705, 35762.09
1192.187, 35726.81
1192.669, 35758.75
1193.151, 35815.14
1193.634, 35875.75
1194.116, 35923.85
1194.598, 35941.84
1195.080, 35928.45
1195.562, 35886.41
1196.044, 35794.18
1196.526, 35760.77
1197.008, 35827.20
1197.490, 35916.80
1197.973, 35938.79
1198.455, 35919.36
1198.937, 35882.25
1199.419, 35822.92
1199.901, 35819.73
1200.383, 35898.57
1200.865, 35961.71
1201.347, 35960.89
1201.830, 35929.07
1202.312, 35908.10
1202.794, 35899.70
1203.276, 35908.73
1203.758, 35951.92
1204.240, 35978.40
1204.722, 35980.65
1205.204, 35981.11
1205.687, 36004.07
1206.169, 36032.20
1206.651, 36017.72
1207.133, 35978.05
1207.615, 35968.81
1208.097, 36063.55
1208.579, 36099.58
1209.061, 36041.23
1209.543, 35971.66
1210.026, 35981.27
1210.508, 36046.67
1210.990, 36141.91
1211.472, 36257.78
1211.954, 36320.30
1212.436, 36234.40
1212.918, 36202.00
1213.400, 36277.44
1213.882, 36395.30
1214.365, 36458.15
1214.847, 36477.32
1215.329, 36471.34
1215.811, 36440.19
1216.293, 36414.27
1216.775, 36396.05
1217.257, 36392.88
1217.739, 36413.40
1218.222, 36443.80
1218.704, 36446.86
1219.186, 36433.86
1219.668, 36438.89
1220.150, 36492.05
1220.632, 36496.55
1221.114, 36390.79
1221.596, 36296.16
1222.078, 36289.77
1222.561, 36344.19
1223.043, 36386.50
1223.525, 36411.04
1224.007, 36398.91
1224.489, 36302.49
1224.971, 36228.27
1225.453, 36200.18
1225.935, 36187.12
1226.417, 36148.57
1226.900, 36104.55
1227.382, 36143.95
1227.864, 36249.19
1228.346, 36317.04
1228.828, 36267.83
1229.310, 36221.46
1229.792, 36201.03
1230.274, 36196.46
1230.756, 36195.64
1231.239, 36199.36
1231.721, 36211.64
1232.203, 36232.15
1232.685, 36254.18
1233.167, 36292.72
1233.649, 36302.88
1234.131, 36253.87
1234.613, 36196.33
1235.096, 36249.21
1235.578, 36368.04
1236.060, 36430.86
1236.542, 36412.02
1237.024, 36383.82
1237.506, 36363.36
1237.988, 36350.48
1238.470, 36346.13
1238.953, 36348.84
1239.435, 36357.07
1239.917, 36368.74
1240.399, 36380.82
1240.881, 36399.56
1241.363, 36389.82
1241.845, 36296.98
1242.327, 36251.12
1242.809, 36361.12
1243.292, 36545.38
1243.774, 36542.63
1244.256, 36414.88
1244.738, 36340.54
1245.220, 36440.66
1245.702, 36492.28
1246.184, 36446.76
1246.666, 36391.88
1247.148, 36395.68
1247.631, 36441.94
1248.113, 36504.82
1248.595, 36571.23
1249.077, 36594.48
1249.559, 36506.19
1250.041, 36446.95
1250.523, 36428.52
1251.005, 36444.79
1251.488, 36521.80
1251.970, 36614.47
1252.452, 36611.01
1252.934, 36526.14
1253.416, 36487.44
1253.898, 36569.56
1254.380, 36638.19
1254.862, 36674.20
1255.344, 36692.54
1255.827, 36706.00
1256.309, 36718.30
1256.791, 36744.91
1257.273, 36785.03
1257.755, 36779.85
1258.237, 36681.28
1258.719, 36641.36
1259.201, 36716.64
1259.683, 36813.63
1260.166, 36778.00
1260.648, 36686.69
1261.130, 36656.76
1261.612, 36710.53
1262.094, 36747.98
1262.576, 36763.18
1263.058, 36762.85
1263.540, 36747.81
1264.023, 36722.08
1264.505, 36678.18
1264.987, 36634.13
1265.469, 36614.52
1265.951, 36627.10
1266.433, 36655.55
1266.915, 36706.43
1267.397, 36738.76
1267.880, 36726.49
1268.362, 36697.45
##END=



