##NAMES=Britvinite
##RRUFFID=R070639
##IDEAL CHEMISTRY=Pb^2+^_14_Mg_9_Si_10_O_28_(BO_3_)_4_(CO_3_)_2_F_2_(OH)_12_
##LOCALITY=Kombat mine, Kombat, Grootfontein District, Otjozondjupa Region, Namibia
##OWNER=RRUFF
##SOURCE=William W. Pinch
##DESCRIPTION=Colorless tabular crystals, associated with barite and red hematophanite R070638 
##STATUS=The identification of this mineral has been confirmed by single-crystal X-ray diffraction.
##URL=rruff.info/R070639
112.2917, 14805.50
112.7738, 14838.70
113.2559, 14895.94
113.7380, 14980.90
114.2202, 15082.21
114.7023, 15197.29
115.1844, 15326.44
115.6665, 15476.77
116.1486, 15657.93
116.6307, 15864.13
117.1129, 16042.63
117.5950, 16190.40
118.0771, 16315.03
118.5592, 16411.06
119.0413, 16476.45
119.5234, 16541.40
120.0056, 16646.72
120.4877, 16775.31
120.9698, 16873.94
121.4519, 16908.82
121.9340, 16902.83
122.4161, 16915.56
122.8982, 16978.20
123.3804, 17017.41
123.8625, 16979.11
124.3446, 16873.60
124.8267, 16751.31
125.3088, 16649.65
125.7909, 16570.67
126.2731, 16484.71
126.7552, 16353.12
127.2373, 16238.03
127.7194, 16173.94
128.2015, 16165.82
128.6837, 16192.78
129.1658, 16223.05
129.6479, 16245.60
130.1300, 16296.71
130.6121, 16387.73
131.0942, 16497.91
131.5764, 16614.97
132.0585, 16732.79
132.5406, 16847.81
133.0227, 16945.36
133.5048, 17002.19
133.9869, 17065.77
134.4691, 17148.75
134.9512, 17241.94
135.4333, 17327.16
135.9154, 17390.92
136.3975, 17435.58
136.8796, 17502.86
137.3618, 17572.10
137.8439, 17675.75
138.3260, 17838.37
138.8081, 18056.54
139.2902, 18299.10
139.7723, 18546.38
140.2545, 18798.73
140.7366, 19049.72
141.2187, 19297.79
141.7008, 19544.73
142.1829, 19793.70
142.6650, 20043.98
143.1472, 20296.78
143.6293, 20576.11
144.1114, 20872.23
144.5935, 21125.24
145.0756, 21306.12
145.5577, 21423.62
146.0399, 21512.26
146.5220, 21597.86
147.0041, 21620.10
147.4862, 21538.59
147.9683, 21355.99
148.4504, 21122.66
148.9326, 20876.11
149.4147, 20615.06
149.8968, 20338.14
150.3789, 20028.58
150.8610, 19712.05
151.3431, 19404.71
151.8252, 19109.80
152.3074, 18813.28
152.7895, 18492.82
153.2716, 18130.72
153.7537, 17780.49
154.2358, 17469.93
154.7179, 17159.06
155.2001, 16803.31
155.6822, 16381.39
156.1643, 15923.61
156.6464, 15522.48
157.1285, 15222.76
157.6106, 14931.08
158.0928, 14639.73
158.5749, 14350.26
159.0570, 14063.27
159.5391, 13778.26
160.0212, 13496.58
160.5033, 13249.53
160.9855, 13041.22
161.4676, 12856.61
161.9497, 12704.25
162.4318, 12574.77
162.9139, 12443.88
163.3960, 12291.00
163.8782, 12115.27
164.3603, 11961.20
164.8424, 11845.37
165.3245, 11735.18
165.8066, 11608.82
166.2887, 11464.72
166.7709, 11319.64
167.2530, 11189.32
167.7351, 11073.54
168.2172, 10959.48
168.6993, 10846.66
169.1814, 10734.53
169.6636, 10621.58
170.1457, 10507.15
170.6278, 10394.10
171.1099, 10284.03
171.5920, 10176.49
172.0741, 10073.69
172.5563, 9977.562
173.0384, 9886.727
173.5205, 9798.061
174.0026, 9709.550
174.4847, 9624.628
174.9668, 9545.076
175.4490, 9470.594
175.9311, 9399.977
176.4132, 9336.941
176.8953, 9280.587
177.3774, 9212.067
177.8595, 9113.798
178.3417, 9012.861
178.8238, 8925.034
179.3059, 8851.884
179.7880, 8789.255
180.2701, 8737.530
180.7522, 8701.902
181.2344, 8653.958
181.7165, 8574.319
182.1986, 8490.997
182.6807, 8420.713
183.1628, 8368.241
183.6449, 8327.111
184.1271, 8288.592
184.6092, 8259.923
185.0913, 8218.448
185.5734, 8150.480
186.0555, 8077.069
186.5376, 8016.142
187.0198, 7974.880
187.5019, 7947.941
187.9840, 7921.303
188.4661, 7906.084
188.9482, 7875.710
189.4303, 7807.861
189.9125, 7730.282
190.3946, 7678.076
190.8767, 7669.588
191.3588, 7694.549
191.8409, 7704.388
192.3230, 7694.538
192.8052, 7674.685
193.2873, 7633.460
193.7694, 7583.988
194.2515, 7550.027
194.7336, 7547.557
195.2157, 7572.302
195.6979, 7581.765
196.1800, 7576.292
196.6621, 7559.649
197.1442, 7522.220
197.6263, 7472.153
198.1084, 7434.206
198.5906, 7428.661
199.0727, 7452.238
199.5548, 7455.900
200.0369, 7434.375
200.5190, 7400.037
201.0011, 7359.908
201.4833, 7313.822
201.9654, 7255.995
202.4475, 7173.550
202.9296, 7072.241
203.4117, 6998.433
203.8938, 6974.505
204.3760, 6965.502
204.8581, 6942.972
205.3402, 6905.022
205.8223, 6858.140
206.3044, 6799.047
206.7865, 6733.443
207.2687, 6683.397
207.7508, 6666.077
208.2329, 6661.788
208.7150, 6643.114
209.1971, 6605.841
209.6792, 6564.886
210.1614, 6528.961
210.6435, 6497.931
211.1256, 6473.731
211.6077, 6460.303
212.0898, 6453.794
212.5719, 6446.292
213.0541, 6437.800
213.5362, 6427.392
214.0183, 6410.946
214.5004, 6391.694
214.9825, 6378.275
215.4646, 6384.591
215.9468, 6402.902
216.4289, 6397.883
216.9110, 6351.310
217.3931, 6305.175
217.8752, 6286.211
218.3573, 6287.391
218.8395, 6288.330
219.3216, 6275.550
219.8037, 6249.934
220.2858, 6221.729
220.7679, 6192.391
221.2500, 6158.268
221.7322, 6113.246
222.2143, 6061.142
222.6964, 6013.193
223.1785, 5980.523
223.6606, 5963.937
224.1427, 5944.211
224.6249, 5915.271
225.1070, 5888.471
225.5891, 5869.697
226.0712, 5857.571
226.5533, 5846.233
227.0354, 5828.423
227.5176, 5801.896
227.9997, 5784.949
228.4818, 5795.442
228.9639, 5800.605
229.4460, 5781.946
229.9281, 5743.061
230.4103, 5702.221
230.8924, 5678.086
231.3745, 5673.250
231.8566, 5673.714
232.3387, 5691.893
232.8208, 5704.674
233.3030, 5698.397
233.7851, 5674.397
234.2672, 5644.292
234.7493, 5619.051
235.2314, 5595.993
235.7135, 5589.224
236.1957, 5612.778
236.6778, 5638.354
237.1599, 5651.408
237.6420, 5650.746
238.1241, 5643.423
238.6062, 5637.481
239.0884, 5634.353
239.5705, 5627.597
240.0526, 5604.774
240.5347, 5588.412
241.0168, 5598.583
241.4989, 5633.650
241.9811, 5671.413
242.4632, 5685.384
242.9453, 5664.725
243.4274, 5652.384
243.9095, 5647.319
244.3916, 5649.824
244.8738, 5664.647
245.3559, 5690.217
245.8380, 5715.841
246.3201, 5728.835
246.8022, 5724.448
247.2843, 5720.973
247.7665, 5714.446
248.2486, 5711.400
248.7307, 5718.089
249.2128, 5734.599
249.6949, 5754.953
250.1770, 5773.304
250.6592, 5790.803
251.1413, 5799.562
251.6234, 5787.775
252.1055, 5775.706
252.5876, 5783.103
253.0697, 5810.739
253.5519, 5838.922
254.0340, 5844.627
254.5161, 5819.617
254.9982, 5803.082
255.4803, 5803.045
255.9624, 5806.049
256.4445, 5799.498
256.9267, 5782.401
257.4088, 5766.032
257.8909, 5762.998
258.3730, 5777.360
258.8551, 5785.844
259.3372, 5792.165
259.8194, 5790.234
260.3015, 5772.594
260.7836, 5739.042
261.2657, 5698.737
261.7478, 5658.514
262.2299, 5618.036
262.7121, 5586.266
263.1942, 5565.240
263.6763, 5551.839
264.1584, 5546.120
264.6405, 5547.551
265.1227, 5549.743
265.6048, 5545.775
266.0869, 5535.191
266.5690, 5531.877
267.0511, 5541.964
267.5332, 5555.503
268.0154, 5569.003
268.4975, 5581.274
268.9796, 5581.210
269.4617, 5553.499
269.9438, 5498.716
270.4259, 5464.729
270.9081, 5462.930
271.3902, 5475.091
271.8723, 5492.836
272.3544, 5514.674
272.8365, 5529.530
273.3186, 5527.683
273.8008, 5509.508
274.2829, 5492.232
274.7650, 5474.018
275.2471, 5458.333
275.7292, 5447.138
276.2113, 5440.628
276.6935, 5439.576
277.1756, 5446.033
277.6577, 5459.196
278.1398, 5470.303
278.6219, 5480.187
279.1040, 5487.446
279.5862, 5493.213
280.0683, 5496.776
280.5504, 5490.811
281.0325, 5464.232
281.5146, 5425.829
281.9967, 5409.949
282.4789, 5426.926
282.9610, 5456.192
283.4431, 5489.576
283.9252, 5526.109
284.4073, 5560.250
284.8894, 5590.288
285.3716, 5614.820
285.8537, 5631.691
286.3358, 5632.387
286.8179, 5636.293
287.3000, 5655.487
287.7821, 5687.479
288.2643, 5722.817
288.7464, 5759.893
289.2285, 5795.629
289.7106, 5822.981
290.1927, 5838.923
290.6748, 5852.906
291.1570, 5865.836
291.6391, 5879.773
292.1212, 5899.568
292.6033, 5924.813
293.0854, 5960.675
293.5675, 6024.701
294.0497, 6139.833
294.5318, 6222.178
295.0139, 6200.766
295.4960, 6122.350
295.9781, 6102.755
296.4602, 6193.331
296.9424, 6328.021
297.4245, 6387.153
297.9066, 6362.226
298.3887, 6333.718
298.8708, 6324.038
299.3529, 6327.599
299.8351, 6333.410
300.3172, 6337.364
300.7993, 6347.661
301.2814, 6386.149
301.7635, 6458.457
302.2456, 6503.291
302.7278, 6488.070
303.2099, 6443.768
303.6920, 6410.322
304.1741, 6395.529
304.6562, 6390.639
305.1383, 6389.749
305.6205, 6393.664
306.1026, 6387.220
306.5847, 6360.492
307.0668, 6326.716
307.5489, 6300.913
308.0310, 6284.860
308.5132, 6267.632
308.9953, 6237.220
309.4774, 6193.059
309.9595, 6156.799
310.4416, 6138.508
310.9237, 6121.907
311.4059, 6093.027
311.8880, 6052.014
312.3701, 6008.104
312.8522, 5965.196
313.3343, 5925.150
313.8164, 5898.869
314.2986, 5905.950
314.7807, 5908.928
315.2628, 5883.988
315.7449, 5834.949
316.2270, 5779.087
316.7091, 5725.125
317.1913, 5673.883
317.6734, 5629.260
318.1555, 5595.274
318.6376, 5562.289
319.1197, 5521.961
319.6018, 5479.581
320.0840, 5449.491
320.5661, 5441.065
321.0482, 5445.548
321.5303, 5433.627
322.0124, 5396.321
322.4945, 5357.999
322.9767, 5320.199
323.4588, 5285.290
323.9409, 5257.380
324.4230, 5238.181
324.9051, 5225.150
325.3872, 5213.806
325.8694, 5211.063
326.3515, 5197.479
326.8336, 5159.341
327.3157, 5115.672
327.7978, 5087.176
328.2799, 5078.929
328.7621, 5079.550
329.2442, 5073.627
329.7263, 5058.515
330.2084, 5042.496
330.6905, 5023.846
331.1726, 5005.587
331.6548, 4989.516
332.1369, 4975.988
332.6190, 4964.619
333.1011, 4955.104
333.5832, 4947.614
334.0653, 4941.281
334.5475, 4943.103
335.0296, 4939.613
335.5117, 4920.063
335.9938, 4888.565
336.4759, 4858.674
336.9580, 4841.797
337.4402, 4837.592
337.9223, 4823.145
338.4044, 4779.048
338.8865, 4746.088
339.3686, 4745.207
339.8507, 4761.443
340.3329, 4767.736
340.8150, 4747.794
341.2971, 4708.881
341.7792, 4682.179
342.2613, 4678.030
342.7434, 4674.161
343.2256, 4669.908
343.7077, 4664.002
344.1898, 4652.417
344.6719, 4633.809
345.1540, 4616.020
345.6361, 4617.423
346.1183, 4656.967
346.6004, 4678.537
347.0825, 4663.969
347.5646, 4642.888
348.0467, 4637.794
348.5288, 4652.606
349.0110, 4673.791
349.4931, 4683.954
349.9752, 4679.978
350.4573, 4677.483
350.9394, 4686.629
351.4215, 4688.946
351.9037, 4666.145
352.3858, 4625.141
352.8679, 4593.309
353.3500, 4600.644
353.8321, 4645.449
354.3142, 4669.916
354.7964, 4658.237
355.2785, 4644.001
355.7606, 4647.576
356.2427, 4658.322
356.7248, 4653.356
357.2069, 4613.103
357.6891, 4552.539
358.1712, 4515.891
358.6533, 4511.888
359.1354, 4512.288
359.6175, 4502.369
360.0996, 4491.493
360.5818, 4493.047
361.0639, 4515.478
361.5460, 4541.159
362.0281, 4543.498
362.5102, 4519.587
362.9923, 4498.866
363.4745, 4496.034
363.9566, 4497.097
364.4387, 4485.722
364.9208, 4458.147
365.4029, 4434.659
365.8850, 4434.622
366.3672, 4453.588
366.8493, 4467.375
367.3314, 4470.605
367.8135, 4467.296
368.2956, 4460.161
368.7777, 4449.575
369.2599, 4440.517
369.7420, 4440.739
370.2241, 4442.271
370.7062, 4427.086
371.1883, 4389.834
371.6704, 4355.557
372.1526, 4348.788
372.6347, 4364.933
373.1168, 4377.013
373.5989, 4379.885
374.0810, 4378.865
374.5631, 4378.756
375.0453, 4379.218
375.5274, 4377.000
376.0095, 4371.198
376.4916, 4360.500
376.9737, 4340.674
377.4558, 4290.864
377.9380, 4256.372
378.4201, 4267.445
378.9022, 4303.933
379.3843, 4325.445
379.8664, 4314.961
380.3485, 4287.398
380.8307, 4272.926
381.3128, 4271.290
381.7949, 4283.900
382.2770, 4336.222
382.7591, 4388.959
383.2412, 4395.517
383.7234, 4350.959
384.2055, 4295.826
384.6876, 4278.546
385.1697, 4310.527
385.6518, 4332.596
386.1339, 4339.874
386.6161, 4343.682
387.0982, 4347.843
387.5803, 4353.226
388.0624, 4360.159
388.5445, 4369.042
389.0266, 4379.714
389.5088, 4390.197
389.9909, 4399.021
390.4730, 4409.426
390.9551, 4424.179
391.4372, 4440.020
391.9193, 4451.614
392.4015, 4456.440
392.8836, 4459.664
393.3657, 4473.390
393.8478, 4504.157
394.3299, 4528.965
394.8120, 4535.539
395.2942, 4541.803
395.7763, 4562.748
396.2584, 4599.481
396.7405, 4637.170
397.2226, 4658.088
397.7047, 4661.975
398.1869, 4676.162
398.6690, 4709.736
399.1511, 4745.491
399.6332, 4777.067
400.1153, 4803.158
400.5974, 4820.467
401.0796, 4817.862
401.5617, 4808.013
402.0438, 4824.057
402.5259, 4873.902
403.0080, 4918.503
403.4901, 4930.503
403.9723, 4925.399
404.4544, 4925.711
404.9365, 4937.061
405.4186, 4951.460
405.9007, 4961.535
406.3828, 4968.406
406.8650, 4979.541
407.3471, 5000.655
407.8292, 5022.952
408.3113, 5029.013
408.7934, 5014.209
409.2755, 5008.261
409.7577, 5032.142
410.2398, 5065.556
410.7219, 5078.529
411.2040, 5065.677
411.6861, 5045.926
412.1682, 5039.563
412.6504, 5049.436
413.1325, 5043.400
413.6146, 4999.870
414.0967, 4960.715
414.5788, 4956.056
415.0609, 4976.845
415.5431, 4992.803
416.0252, 4984.971
416.5073, 4958.496
416.9894, 4937.348
417.4715, 4922.895
417.9536, 4912.423
418.4358, 4908.278
418.9179, 4906.879
419.4000, 4907.056
419.8821, 4907.686
420.3642, 4903.309
420.8463, 4883.438
421.3285, 4839.418
421.8106, 4803.993
422.2927, 4780.396
422.7748, 4762.102
423.2569, 4750.646
423.7390, 4742.675
424.2212, 4728.980
424.7033, 4698.948
425.1854, 4656.913
425.6675, 4630.573
426.1496, 4629.640
426.6317, 4628.499
427.1139, 4612.855
427.5960, 4592.870
428.0781, 4582.598
428.5602, 4589.044
429.0423, 4600.612
429.5244, 4603.255
430.0066, 4596.843
430.4887, 4587.398
430.9708, 4572.399
431.4529, 4559.228
431.9350, 4557.627
432.4171, 4568.364
432.8993, 4576.299
433.3814, 4571.165
433.8635, 4559.210
434.3456, 4550.771
434.8277, 4546.990
435.3098, 4548.746
435.7920, 4559.648
436.2741, 4578.584
436.7562, 4590.308
437.2383, 4580.521
437.7204, 4576.045
438.2025, 4597.919
438.6847, 4638.729
439.1668, 4676.145
439.6489, 4698.942
440.1310, 4712.300
440.6131, 4730.114
441.0952, 4755.975
441.5774, 4781.539
442.0595, 4813.554
442.5416, 4841.039
443.0237, 4851.116
443.5058, 4843.145
443.9879, 4829.091
444.4701, 4822.744
444.9522, 4826.211
445.4343, 4822.465
445.9164, 4809.651
446.3985, 4791.290
446.8806, 4757.340
447.3628, 4719.982
447.8449, 4703.574
448.3270, 4725.457
448.8091, 4765.645
449.2912, 4769.198
449.7733, 4716.732
450.2555, 4681.777
450.7376, 4701.187
451.2197, 4734.304
451.7018, 4751.958
452.1839, 4749.371
452.6660, 4740.154
453.1482, 4731.253
453.6303, 4723.940
454.1124, 4726.892
454.5945, 4747.428
455.0766, 4764.448
455.5587, 4754.197
456.0409, 4725.207
456.5230, 4701.747
457.0051, 4690.612
457.4872, 4685.932
457.9693, 4682.644
458.4514, 4681.058
458.9336, 4682.945
459.4157, 4688.452
459.8978, 4698.812
460.3799, 4720.739
460.8620, 4775.802
461.3441, 4800.534
461.8262, 4768.646
462.3083, 4709.133
462.7905, 4651.622
463.2726, 4601.558
463.7547, 4547.296
464.2368, 4473.762
464.7189, 4376.460
465.2010, 4300.439
465.6832, 4264.587
466.1653, 4229.045
466.6474, 4179.207
467.1295, 4121.654
467.6116, 4066.793
468.0938, 4020.061
468.5759, 3980.947
469.0580, 3948.236
469.5401, 3920.140
470.0222, 3903.458
470.5043, 3919.425
470.9865, 3932.649
471.4686, 3914.472
471.9507, 3865.707
472.4328, 3817.760
472.9149, 3796.912
473.3970, 3796.181
473.8792, 3789.157
474.3613, 3771.617
474.8434, 3757.165
475.3255, 3759.890
475.8076, 3771.466
476.2897, 3774.171
476.7719, 3759.199
477.2540, 3742.714
477.7361, 3736.910
478.2182, 3738.730
478.7003, 3738.611
479.1824, 3732.953
479.6646, 3725.395
480.1467, 3721.574
480.6288, 3722.435
481.1109, 3724.319
481.5930, 3730.962
482.0751, 3735.548
482.5573, 3729.572
483.0394, 3715.846
483.5215, 3706.824
484.0036, 3712.358
484.4857, 3729.504
484.9678, 3739.108
485.4500, 3745.272
485.9321, 3736.882
486.4142, 3692.580
486.8963, 3644.545
487.3784, 3628.633
487.8605, 3652.098
488.3427, 3684.893
488.8248, 3691.891
489.3069, 3671.905
489.7890, 3653.896
490.2711, 3644.080
490.7532, 3629.583
491.2354, 3595.147
491.7175, 3551.229
492.1996, 3521.918
492.6817, 3519.228
493.1638, 3532.485
493.6459, 3554.863
494.1281, 3585.294
494.6102, 3608.690
495.0923, 3620.503
495.5744, 3620.887
496.0565, 3605.521
496.5386, 3568.678
497.0208, 3543.766
497.5029, 3548.380
497.9850, 3562.535
498.4671, 3565.763
498.9492, 3556.835
499.4313, 3546.057
499.9135, 3541.136
500.3956, 3541.910
500.8777, 3546.330
501.3598, 3563.919
501.8419, 3573.635
502.3240, 3566.388
502.8062, 3552.114
503.2883, 3541.699
503.7704, 3538.447
504.2525, 3538.343
504.7346, 3536.640
505.2167, 3533.328
505.6989, 3528.294
506.1810, 3516.768
506.6631, 3509.339
507.1452, 3516.562
507.6273, 3531.170
508.1094, 3536.610
508.5916, 3522.588
509.0737, 3500.223
509.5558, 3479.423
510.0379, 3460.706
510.5200, 3460.453
511.0021, 3494.015
511.4843, 3537.258
511.9664, 3551.989
512.4485, 3535.863
512.9306, 3517.913
513.4127, 3505.479
513.8948, 3494.612
514.3770, 3477.404
514.8591, 3455.750
515.3412, 3444.602
515.8233, 3456.158
516.3054, 3486.074
516.7875, 3506.125
517.2697, 3511.571
517.7518, 3512.592
518.2339, 3510.398
518.7160, 3504.056
519.1981, 3489.740
519.6802, 3468.070
520.1624, 3447.658
520.6445, 3437.496
521.1266, 3437.687
521.6087, 3445.075
522.0908, 3468.987
522.5729, 3485.918
523.0551, 3479.897
523.5372, 3462.505
524.0193, 3452.835
524.5014, 3459.689
524.9835, 3468.558
525.4656, 3462.854
525.9478, 3445.654
526.4299, 3433.554
526.9120, 3432.004
527.3941, 3433.609
527.8762, 3428.948
528.3583, 3417.635
528.8405, 3410.338
529.3226, 3412.980
529.8047, 3415.541
530.2868, 3408.627
530.7689, 3395.974
531.2510, 3388.925
531.7332, 3393.561
532.2153, 3405.112
532.6974, 3412.485
533.1795, 3418.583
533.6616, 3414.450
534.1437, 3383.851
534.6259, 3357.797
535.1080, 3361.290
535.5901, 3388.746
536.0722, 3414.679
536.5543, 3421.502
537.0364, 3413.122
537.5186, 3398.481
538.0007, 3373.632
538.4828, 3357.696
538.9649, 3366.071
539.4470, 3382.264
539.9291, 3385.092
540.4113, 3370.628
540.8934, 3361.311
541.3755, 3378.774
541.8576, 3404.258
542.3397, 3403.381
542.8218, 3373.165
543.3040, 3344.904
543.7861, 3343.245
544.2682, 3364.240
544.7503, 3374.244
545.2324, 3371.475
545.7145, 3361.605
546.1967, 3335.097
546.6788, 3307.525
547.1609, 3296.755
547.6430, 3305.982
548.1251, 3324.379
548.6072, 3343.094
549.0894, 3362.619
549.5715, 3366.785
550.0536, 3340.152
550.5357, 3320.389
551.0178, 3329.277
551.4999, 3349.642
551.9821, 3356.292
552.4642, 3339.127
552.9463, 3319.035
553.4284, 3317.337
553.9105, 3329.365
554.3926, 3336.822
554.8748, 3336.161
555.3569, 3330.486
555.8390, 3319.540
556.3211, 3303.865
556.8032, 3299.006
557.2853, 3320.676
557.7675, 3336.969
558.2496, 3323.042
558.7317, 3295.886
559.2138, 3287.542
559.6959, 3309.100
560.1780, 3342.069
560.6602, 3358.878
561.1423, 3356.702
561.6244, 3349.792
562.1065, 3326.657
562.5886, 3310.366
563.0707, 3319.064
563.5529, 3338.596
564.0350, 3339.203
564.5171, 3301.398
564.9992, 3260.060
565.4813, 3270.752
565.9634, 3329.473
566.4456, 3370.180
566.9277, 3374.625
567.4098, 3363.522
567.8919, 3356.498
568.3740, 3353.067
568.8561, 3348.700
569.3383, 3339.543
569.8204, 3332.139
570.3025, 3331.346
570.7846, 3335.625
571.2667, 3340.433
571.7488, 3343.774
572.2310, 3348.729
572.7131, 3361.747
573.1952, 3389.015
573.6773, 3407.662
574.1594, 3420.568
574.6415, 3422.648
575.1237, 3400.504
575.6058, 3366.794
576.0879, 3348.560
576.5700, 3362.582
577.0521, 3388.235
577.5342, 3390.375
578.0164, 3368.805
578.4985, 3357.800
578.9806, 3370.661
579.4627, 3388.510
579.9448, 3388.879
580.4269, 3374.168
580.9091, 3365.832
581.3912, 3369.426
581.8733, 3379.278
582.3554, 3396.591
582.8375, 3416.918
583.3196, 3429.287
583.8018, 3428.887
584.2839, 3421.970
584.7660, 3419.144
585.2481, 3421.443
585.7302, 3425.015
586.2123, 3431.203
586.6945, 3437.261
587.1766, 3442.602
587.6587, 3446.896
588.1408, 3449.482
588.6229, 3449.687
589.1050, 3449.259
589.5872, 3450.425
590.0693, 3453.191
590.5514, 3457.317
591.0335, 3462.632
591.5156, 3469.561
591.9977, 3480.384
592.4799, 3494.251
592.9620, 3503.780
593.4441, 3510.245
593.9262, 3509.844
594.4083, 3493.730
594.8904, 3470.155
595.3726, 3456.603
595.8547, 3459.108
596.3368, 3468.239
596.8189, 3470.641
597.3010, 3465.244
597.7831, 3458.222
598.2653, 3446.772
598.7474, 3436.649
599.2295, 3429.705
599.7116, 3425.296
600.1937, 3421.455
600.6758, 3416.844
601.1580, 3416.331
601.6401, 3432.640
602.1222, 3459.761
602.6043, 3463.681
603.0864, 3433.247
603.5685, 3401.164
604.0507, 3393.259
604.5328, 3409.044
605.0149, 3430.932
605.4970, 3477.336
605.9791, 3508.328
606.4612, 3496.664
606.9434, 3467.693
607.4255, 3454.930
607.9076, 3465.168
608.3897, 3480.650
608.8718, 3481.712
609.3539, 3468.795
609.8361, 3463.458
610.3182, 3470.424
610.8003, 3477.173
611.2824, 3473.021
611.7645, 3469.971
612.2466, 3485.861
612.7288, 3525.459
613.2109, 3557.870
613.6930, 3551.813
614.1751, 3528.374
614.6572, 3530.800
615.1393, 3562.044
615.6215, 3588.102
616.1036, 3585.986
616.5857, 3564.326
617.0678, 3554.511
617.5499, 3572.741
618.0320, 3580.276
618.5142, 3563.912
618.9963, 3545.213
619.4784, 3544.828
619.9605, 3558.803
620.4426, 3566.161
620.9247, 3550.599
621.4069, 3521.199
621.8890, 3501.831
622.3711, 3493.728
622.8532, 3488.819
623.3353, 3488.332
623.8174, 3486.830
624.2996, 3475.910
624.7817, 3456.523
625.2638, 3444.641
625.7459, 3446.562
626.2280, 3455.756
626.7101, 3472.670
627.1923, 3492.612
627.6744, 3504.053
628.1565, 3502.312
628.6386, 3492.737
629.1207, 3482.448
629.6028, 3468.844
630.0850, 3465.046
630.5671, 3488.696
631.0492, 3503.900
631.5313, 3489.132
632.0134, 3461.615
632.4955, 3450.586
632.9777, 3467.990
633.4598, 3487.790
633.9419, 3481.579
634.4240, 3457.005
634.9061, 3440.142
635.3882, 3435.128
635.8704, 3432.698
636.3525, 3425.823
636.8346, 3415.613
637.3167, 3409.259
637.7988, 3404.862
638.2809, 3406.224
638.7631, 3424.435
639.2452, 3441.800
639.7273, 3436.415
640.2094, 3410.838
640.6915, 3389.715
641.1736, 3394.899
641.6558, 3416.742
642.1379, 3417.282
642.6200, 3388.355
643.1021, 3374.843
643.5842, 3400.787
644.0663, 3437.039
644.5485, 3452.595
645.0306, 3447.960
645.5127, 3440.060
645.9948, 3427.567
646.4769, 3418.756
646.9590, 3422.770
647.4412, 3435.750
647.9233, 3449.372
648.4054, 3460.356
648.8875, 3466.116
649.3696, 3461.835
649.8517, 3445.392
650.3339, 3429.563
650.8160, 3409.386
651.2981, 3396.208
651.7802, 3397.039
652.2623, 3405.534
652.7444, 3411.510
653.2266, 3411.336
653.7087, 3415.916
654.1908, 3439.652
654.6729, 3472.989
655.1550, 3492.987
655.6371, 3497.413
656.1193, 3503.032
656.6014, 3521.184
657.0835, 3548.585
657.5656, 3572.310
658.0477, 3587.707
658.5298, 3605.809
659.0120, 3620.263
659.4941, 3642.865
659.9762, 3694.349
660.4583, 3762.321
660.9404, 3806.672
661.4225, 3796.910
661.9047, 3769.012
662.3868, 3790.466
662.8689, 3859.524
663.3510, 3917.168
663.8331, 3945.638
664.3152, 3971.207
664.7974, 4024.572
665.2795, 4103.290
665.7616, 4158.665
666.2437, 4173.550
666.7258, 4183.680
667.2079, 4207.786
667.6901, 4231.543
668.1722, 4233.827
668.6543, 4212.450
669.1364, 4185.112
669.6185, 4168.394
670.1006, 4160.068
670.5828, 4149.353
671.0649, 4140.903
671.5470, 4113.649
672.0291, 4045.111
672.5112, 3965.927
672.9933, 3911.170
673.4755, 3882.004
673.9576, 3854.959
674.4397, 3829.863
674.9218, 3798.695
675.4039, 3745.688
675.8860, 3682.353
676.3682, 3636.075
676.8503, 3617.602
677.3324, 3614.755
677.8145, 3611.929
678.2966, 3609.980
678.7787, 3600.992
679.2609, 3581.108
679.7430, 3559.918
680.2251, 3538.693
680.7072, 3519.494
681.1893, 3505.955
681.6714, 3499.372
682.1536, 3493.089
682.6357, 3482.625
683.1178, 3470.825
683.5999, 3460.245
684.0820, 3451.663
684.5641, 3448.921
685.0463, 3455.026
685.5284, 3464.241
686.0105, 3462.418
686.4926, 3442.887
686.9747, 3428.123
687.4568, 3419.312
687.9390, 3414.080
688.4211, 3409.905
688.9032, 3409.051
689.3853, 3416.967
689.8674, 3437.495
690.3495, 3459.245
690.8317, 3478.912
691.3138, 3491.465
691.7959, 3479.250
692.2780, 3441.254
692.7601, 3407.190
693.2422, 3398.941
693.7244, 3409.854
694.2065, 3414.104
694.6886, 3403.766
695.1707, 3399.650
695.6528, 3410.651
696.1349, 3420.147
696.6171, 3414.797
697.0992, 3399.534
697.5813, 3390.196
698.0634, 3397.753
698.5455, 3405.405
699.0276, 3389.405
699.5098, 3356.743
699.9919, 3333.802
700.4740, 3326.197
700.9561, 3320.410
701.4382, 3303.982
701.9203, 3279.384
702.4025, 3266.300
702.8846, 3277.516
703.3667, 3283.413
703.8488, 3274.804
704.3309, 3265.841
704.8130, 3270.651
705.2952, 3285.736
705.7773, 3294.644
706.2594, 3286.282
706.7415, 3269.893
707.2236, 3256.015
707.7057, 3245.089
708.1879, 3240.941
708.6700, 3245.189
709.1521, 3252.294
709.6342, 3258.484
710.1163, 3263.487
710.5984, 3260.529
711.0806, 3240.118
711.5627, 3224.683
712.0448, 3217.807
712.5269, 3216.979
713.0090, 3223.034
713.4911, 3233.711
713.9733, 3241.466
714.4554, 3240.547
714.9375, 3235.174
715.4196, 3230.735
715.9017, 3227.527
716.3839, 3229.729
716.8660, 3240.230
717.3481, 3247.787
717.8302, 3238.757
718.3123, 3213.274
718.7944, 3200.975
719.2766, 3219.505
719.7587, 3227.203
720.2408, 3205.666
720.7229, 3177.982
721.2050, 3163.182
721.6871, 3163.410
722.1693, 3173.256
722.6514, 3198.003
723.1335, 3221.272
723.6156, 3207.578
724.0977, 3163.154
724.5798, 3134.431
725.0620, 3134.757
725.5441, 3148.467
726.0262, 3162.526
726.5083, 3176.929
726.9904, 3179.548
727.4725, 3157.545
727.9547, 3140.777
728.4368, 3135.436
728.9189, 3136.221
729.4010, 3140.073
729.8831, 3145.695
730.3652, 3150.692
730.8474, 3151.767
731.3295, 3153.391
731.8116, 3165.104
732.2937, 3184.153
732.7758, 3196.602
733.2579, 3198.818
733.7401, 3194.946
734.2222, 3189.079
734.7043, 3181.158
735.1864, 3167.797
735.6685, 3131.469
736.1506, 3113.468
736.6328, 3132.674
737.1149, 3160.920
737.5970, 3177.985
738.0791, 3182.797
738.5612, 3182.683
739.0433, 3179.163
739.5255, 3175.247
740.0076, 3174.856
740.4897, 3176.914
740.9718, 3177.500
741.4539, 3175.695
741.9360, 3175.672
742.4182, 3183.074
742.9003, 3195.468
743.3824, 3189.972
743.8645, 3145.430
744.3466, 3119.599
744.8287, 3131.454
745.3109, 3152.696
745.7930, 3169.509
746.2751, 3179.854
746.7572, 3181.598
747.2393, 3169.688
747.7214, 3155.373
748.2036, 3147.024
748.6857, 3143.195
749.1678, 3140.469
749.6499, 3138.602
750.1320, 3142.252
750.6141, 3156.459
751.0963, 3176.590
751.5784, 3183.103
752.0605, 3170.371
752.5426, 3159.881
753.0247, 3156.318
753.5068, 3153.289
753.9890, 3146.319
754.4711, 3136.769
754.9532, 3127.989
755.4353, 3117.622
755.9174, 3113.630
756.3995, 3125.763
756.8817, 3143.151
757.3638, 3153.169
757.8459, 3154.978
758.3280, 3152.785
758.8101, 3148.813
759.2922, 3144.469
759.7744, 3143.391
760.2565, 3146.134
760.7386, 3146.342
761.2207, 3141.589
761.7028, 3137.968
762.1849, 3141.126
762.6671, 3147.798
763.1492, 3149.523
763.6313, 3144.130
764.1134, 3138.414
764.5955, 3132.383
765.0776, 3127.893
765.5598, 3126.618
766.0419, 3127.991
766.5240, 3130.215
767.0061, 3132.477
767.4882, 3136.490
767.9703, 3145.879
768.4525, 3159.361
768.9346, 3170.767
769.4167, 3180.276
769.8988, 3182.110
770.3809, 3170.921
770.8630, 3153.403
771.3452, 3141.993
771.8273, 3136.319
772.3094, 3138.638
772.7915, 3157.793
773.2736, 3174.797
773.7557, 3181.395
774.2379, 3181.495
774.7200, 3179.848
775.2021, 3177.754
775.6842, 3176.520
776.1663, 3178.205
776.6484, 3180.760
777.1306, 3180.060
777.6127, 3176.879
778.0948, 3176.624
778.5769, 3181.555
779.0590, 3185.420
779.5411, 3179.197
780.0233, 3162.476
780.5054, 3154.294
780.9875, 3159.574
781.4696, 3165.402
781.9517, 3173.240
782.4338, 3177.056
782.9160, 3164.607
783.3981, 3139.504
783.8802, 3131.825
784.3623, 3175.605
784.8444, 3214.823
785.3265, 3204.385
785.8087, 3169.531
786.2908, 3149.909
786.7729, 3151.363
787.2550, 3154.386
787.7371, 3143.043
788.2192, 3123.600
788.7014, 3114.134
789.1835, 3115.319
789.6656, 3120.602
790.1477, 3131.596
790.6298, 3140.595
791.1119, 3140.214
791.5941, 3132.679
792.0762, 3128.881
792.5583, 3136.002
793.0404, 3135.408
793.5225, 3112.334
794.0046, 3091.314
794.4868, 3092.724
794.9689, 3110.059
795.4510, 3126.515
795.9331, 3135.540
796.4152, 3138.319
796.8973, 3133.136
797.3795, 3123.240
797.8616, 3116.002
798.3437, 3112.100
798.8258, 3113.096
799.3079, 3120.531
799.7900, 3130.308
800.2722, 3133.963
800.7543, 3128.150
801.2364, 3132.715
801.7185, 3166.281
802.2006, 3184.439
802.6827, 3157.512
803.1649, 3118.407
803.6470, 3106.566
804.1291, 3125.712
804.6112, 3138.330
805.0933, 3125.452
805.5754, 3105.849
806.0576, 3083.227
806.5397, 3067.260
807.0218, 3081.976
807.5039, 3127.965
807.9860, 3168.839
808.4681, 3168.882
808.9503, 3142.354
809.4324, 3135.989
809.9145, 3151.116
810.3966, 3163.205
810.8787, 3167.076
811.3608, 3165.884
811.8430, 3160.551
812.3251, 3152.100
812.8072, 3148.088
813.2893, 3147.538
813.7714, 3152.579
814.2535, 3174.477
814.7357, 3191.837
815.2178, 3186.215
815.6999, 3165.404
816.1820, 3148.620
816.6641, 3142.716
817.1462, 3142.467
817.6284, 3145.261
818.1105, 3150.192
818.5926, 3157.539
819.0747, 3166.085
819.5568, 3169.510
820.0389, 3164.584
820.5211, 3157.885
821.0032, 3162.474
821.4853, 3179.949
821.9674, 3179.618
822.4495, 3154.105
822.9316, 3129.416
823.4138, 3114.577
823.8959, 3105.821
824.3780, 3097.146
824.8601, 3088.163
825.3422, 3088.552
825.8243, 3107.254
826.3065, 3126.108
826.7886, 3142.406
827.2707, 3152.511
827.7528, 3151.429
828.2349, 3139.995
828.7170, 3123.827
829.1992, 3102.929
829.6813, 3085.089
830.1633, 3084.147
830.6454, 3095.000
831.1276, 3098.673
831.6097, 3092.715
832.0918, 3094.956
832.5739, 3120.311
833.0560, 3155.416
833.5381, 3159.708
834.0203, 3118.474
834.5024, 3097.309
834.9845, 3107.446
835.4666, 3124.535
835.9487, 3142.608
836.4308, 3157.831
836.9130, 3162.424
837.3951, 3153.140
837.8772, 3148.854
838.3593, 3163.524
838.8414, 3174.833
839.3235, 3163.040
839.8057, 3141.793
840.2878, 3131.842
840.7699, 3137.654
841.2520, 3149.482
841.7341, 3161.922
842.2162, 3173.427
842.6984, 3179.634
843.1805, 3181.874
843.6626, 3186.368
844.1447, 3194.499
844.6268, 3207.760
845.1089, 3230.416
845.5911, 3256.472
846.0732, 3255.384
846.5553, 3209.340
847.0374, 3185.017
847.5195, 3202.113
848.0016, 3225.260
848.4838, 3238.152
848.9659, 3241.825
849.4480, 3236.289
849.9301, 3217.047
850.4122, 3202.972
850.8943, 3191.258
851.3765, 3194.042
851.8586, 3244.195
852.3407, 3306.172
852.8228, 3308.473
853.3049, 3236.474
853.7870, 3167.275
854.2692, 3188.484
854.7513, 3247.501
855.2334, 3235.833
855.7155, 3169.424
856.1976, 3128.280
856.6797, 3134.077
857.1619, 3152.653
857.6440, 3152.923
858.1261, 3138.865
858.6082, 3132.864
859.0903, 3139.221
859.5724, 3139.405
860.0546, 3127.394
860.5367, 3113.807
861.0188, 3103.536
861.5009, 3097.228
861.9830, 3097.674
862.4651, 3110.536
862.9473, 3116.159
863.4294, 3102.522
863.9115, 3089.182
864.3936, 3087.858
864.8757, 3094.782
865.3578, 3104.200
865.8400, 3114.283
866.3221, 3122.374
866.8042, 3125.867
867.2863, 3126.743
867.7684, 3127.929
868.2505, 3128.794
868.7327, 3127.296
869.2148, 3122.962
869.6969, 3116.314
870.1790, 3106.854
870.6611, 3096.895
871.1432, 3094.799
871.6254, 3101.160
872.1075, 3112.265
872.5896, 3132.511
873.0717, 3144.627
873.5538, 3131.841
874.0359, 3105.444
874.5181, 3096.912
875.0002, 3116.834
875.4823, 3131.332
875.9644, 3138.111
876.4465, 3141.860
876.9286, 3143.237
877.4108, 3143.342
877.8929, 3142.527
878.3750, 3141.090
878.8571, 3142.172
879.3392, 3145.592
879.8214, 3153.804
880.3035, 3172.841
880.7856, 3196.263
881.2677, 3215.566
881.7498, 3228.407
882.2319, 3232.829
882.7141, 3226.461
883.1962, 3214.508
883.6783, 3203.153
884.1604, 3193.723
884.6425, 3197.046
885.1246, 3214.948
885.6068, 3233.269
886.0889, 3243.957
886.5710, 3252.157
887.0531, 3268.974
887.5352, 3298.224
888.0173, 3313.360
888.4995, 3302.775
888.9816, 3298.072
889.4637, 3314.863
889.9458, 3337.533
890.4279, 3349.153
890.9100, 3350.858
891.3922, 3359.010
891.8743, 3383.591
892.3564, 3404.989
892.8385, 3415.829
893.3206, 3421.995
893.8027, 3427.265
894.2849, 3432.585
894.7670, 3438.526
895.2491, 3445.381
895.7312, 3452.585
896.2133, 3456.754
896.6954, 3462.673
897.1776, 3481.512
897.6597, 3509.167
898.1418, 3529.316
898.6239, 3536.365
899.1060, 3537.947
899.5881, 3540.015
900.0703, 3544.842
900.5524, 3567.755
901.0345, 3610.146
901.5166, 3636.790
901.9987, 3636.425
902.4808, 3631.019
902.9630, 3636.503
903.4451, 3652.413
903.9272, 3678.043
904.4093, 3725.588
904.8914, 3757.733
905.3735, 3764.623
905.8557, 3766.482
906.3378, 3764.528
906.8199, 3766.245
907.3020, 3788.435
907.7841, 3836.438
908.2662, 3862.506
908.7484, 3845.114
909.2305, 3815.249
909.7126, 3791.908
910.1947, 3761.946
910.6768, 3697.622
911.1589, 3607.268
911.6411, 3538.838
912.1232, 3525.817
912.6053, 3526.786
913.0874, 3498.915
913.5695, 3457.250
914.0516, 3428.706
914.5338, 3413.229
915.0159, 3396.234
915.4980, 3370.907
915.9801, 3343.020
916.4622, 3317.097
916.9443, 3294.937
917.4265, 3292.597
917.9086, 3311.115
918.3907, 3323.746
918.8728, 3322.320
919.3549, 3314.066
919.8370, 3304.951
920.3192, 3295.464
920.8013, 3289.395
921.2834, 3289.239
921.7655, 3286.279
922.2476, 3275.894
922.7297, 3267.630
923.2119, 3270.031
923.6940, 3276.902
924.1761, 3276.911
924.6582, 3267.637
925.1403, 3260.742
925.6224, 3264.521
926.1046, 3263.120
926.5867, 3242.440
927.0688, 3217.868
927.5509, 3206.405
928.0330, 3208.733
928.5151, 3214.975
928.9973, 3222.396
929.4794, 3229.540
929.9615, 3236.851
930.4436, 3242.343
930.9257, 3240.848
931.4078, 3235.122
931.8900, 3235.327
932.3721, 3245.800
932.8542, 3257.156
933.3363, 3262.260
933.8184, 3259.225
934.3005, 3236.357
934.7827, 3198.159
935.2648, 3174.436
935.7469, 3173.400
936.2290, 3180.264
936.7111, 3181.663
937.1932, 3180.804
937.6754, 3191.397
938.1575, 3215.831
938.6396, 3231.156
939.1217, 3234.453
939.6038, 3230.128
940.0859, 3219.969
940.5681, 3203.947
941.0502, 3178.505
941.5323, 3136.194
942.0144, 3124.023
942.4965, 3175.943
942.9786, 3209.434
943.4608, 3189.008
943.9429, 3158.774
944.4250, 3158.261
944.9071, 3180.387
945.3892, 3188.230
945.8713, 3160.811
946.3535, 3146.030
946.8356, 3170.472
947.3177, 3197.591
947.7998, 3200.583
948.2819, 3189.301
948.7640, 3182.479
949.2462, 3184.622
949.7283, 3189.279
950.2104, 3197.099
950.6925, 3201.482
951.1746, 3191.150
951.6567, 3175.822
952.1389, 3170.789
952.6210, 3177.660
953.1031, 3191.133
953.5852, 3208.978
954.0673, 3227.276
954.5494, 3241.669
955.0316, 3252.213
955.5137, 3258.581
955.9958, 3261.071
956.4779, 3261.099
956.9600, 3259.178
957.4421, 3257.090
957.9243, 3256.708
958.4064, 3257.906
958.8885, 3258.355
959.3706, 3257.442
959.8527, 3269.779
960.3348, 3301.509
960.8170, 3328.451
961.2991, 3333.029
961.7812, 3324.815
962.2633, 3327.054
962.7454, 3344.618
963.2275, 3350.245
963.7097, 3339.295
964.1918, 3324.871
964.6739, 3305.376
965.1560, 3289.614
965.6381, 3285.583
966.1202, 3293.458
966.6024, 3312.410
967.0845, 3362.104
967.5666, 3393.846
968.0487, 3384.750
968.5308, 3375.377
969.0129, 3387.455
969.4951, 3414.488
969.9772, 3445.281
970.4593, 3478.076
970.9414, 3513.322
971.4235, 3557.469
971.9056, 3596.506
972.3878, 3615.304
972.8699, 3630.507
973.3520, 3656.869
973.8341, 3697.559
974.3162, 3754.541
974.7983, 3831.638
975.2805, 3914.798
975.7626, 3994.167
976.2447, 4073.210
976.7268, 4150.293
977.2089, 4231.827
977.6910, 4327.767
978.1732, 4442.274
978.6553, 4581.061
979.1374, 4761.808
979.6195, 4951.935
980.1016, 5104.660
980.5837, 5222.807
981.0659, 5310.211
981.5480, 5369.567
982.0301, 5405.116
982.5122, 5418.103
982.9943, 5430.231
983.4764, 5477.842
983.9586, 5553.359
984.4407, 5608.660
984.9228, 5644.592
985.4049, 5689.841
985.8870, 5751.358
986.3691, 5829.594
986.8513, 5930.442
987.3334, 6039.472
987.8155, 6124.110
988.2976, 6193.753
988.7797, 6169.743
989.2618, 6031.924
989.7440, 5850.990
990.2261, 5641.399
990.7082, 5424.208
991.1903, 5221.448
991.6724, 5033.277
992.1545, 4866.949
992.6367, 4725.970
993.1188, 4600.951
993.6009, 4492.340
994.0830, 4396.832
994.5651, 4313.629
995.0472, 4242.278
995.5294, 4183.869
996.0115, 4142.833
996.4936, 4095.659
996.9757, 4034.585
997.4578, 3976.490
997.9399, 3928.042
998.4221, 3882.700
998.9042, 3831.490
999.3863, 3778.226
999.8684, 3737.122
1000.351, 3716.912
1000.833, 3694.157
1001.315, 3657.004
1001.797, 3620.896
1002.279, 3597.811
1002.761, 3579.686
1003.243, 3554.403
1003.725, 3520.979
1004.207, 3488.869
1004.690, 3461.570
1005.172, 3437.418
1005.654, 3415.086
1006.136, 3395.678
1006.618, 3381.210
1007.100, 3370.533
1007.582, 3360.835
1008.064, 3351.296
1008.547, 3343.824
1009.029, 3341.296
1009.511, 3340.251
1009.993, 3334.052
1010.475, 3328.333
1010.957, 3339.670
1011.439, 3362.559
1011.921, 3366.130
1012.403, 3333.404
1012.886, 3293.775
1013.368, 3278.694
1013.850, 3279.323
1014.332, 3284.448
1014.814, 3290.585
1015.296, 3285.460
1015.778, 3268.458
1016.260, 3258.632
1016.742, 3271.984
1017.225, 3294.448
1017.707, 3300.358
1018.189, 3294.400
1018.671, 3293.599
1019.153, 3298.602
1019.635, 3302.799
1020.117, 3303.760
1020.599, 3308.373
1021.082, 3326.159
1021.564, 3350.429
1022.046, 3355.064
1022.528, 3342.080
1023.010, 3341.217
1023.492, 3356.382
1023.974, 3383.295
1024.456, 3421.806
1024.938, 3459.979
1025.421, 3476.086
1025.903, 3473.833
1026.385, 3505.363
1026.867, 3575.733
1027.349, 3628.667
1027.831, 3647.958
1028.313, 3674.349
1028.795, 3737.219
1029.278, 3822.034
1029.760, 3896.243
1030.242, 3959.020
1030.724, 4020.150
1031.206, 4075.805
1031.688, 4141.941
1032.170, 4221.602
1032.652, 4315.821
1033.135, 4428.617
1033.617, 4553.847
1034.099, 4669.570
1034.581, 4774.627
1035.063, 4872.346
1035.545, 4962.362
1036.027, 5043.658
1036.509, 5102.613
1036.991, 5169.482
1037.474, 5287.450
1037.956, 5448.578
1038.438, 5571.028
1038.920, 5636.872
1039.402, 5698.747
1039.884, 5763.986
1040.366, 5818.631
1040.848, 5851.143
1041.330, 5873.038
1041.813, 5900.300
1042.295, 5933.364
1042.777, 5961.990
1043.259, 5975.606
1043.741, 6000.214
1044.223, 6053.541
1044.705, 6102.505
1045.187, 6125.024
1045.670, 6132.770
1046.152, 6146.905
1046.634, 6170.044
1047.116, 6185.613
1047.598, 6233.793
1048.080, 6217.365
1048.562, 6077.535
1049.044, 5901.000
1049.526, 5741.544
1050.009, 5593.774
1050.491, 5432.896
1050.973, 5247.896
1051.455, 5087.381
1051.937, 4971.268
1052.419, 4863.590
1052.901, 4746.535
1053.383, 4635.914
1053.865, 4550.049
1054.348, 4482.509
1054.830, 4413.578
1055.312, 4344.256
1055.794, 4259.795
1056.276, 4139.213
1056.758, 4023.428
1057.240, 3930.545
1057.722, 3853.634
1058.205, 3788.039
1058.687, 3730.918
1059.169, 3674.833
1059.651, 3613.246
1060.133, 3564.581
1060.615, 3543.076
1061.097, 3526.880
1061.579, 3502.253
1062.062, 3476.124
1062.544, 3459.206
1063.026, 3450.930
1063.508, 3439.728
1063.990, 3417.718
1064.472, 3400.566
1064.954, 3391.686
1065.436, 3392.237
1065.918, 3413.706
1066.401, 3439.460
1066.883, 3445.486
1067.365, 3429.759
1067.847, 3408.724
1068.329, 3379.943
1068.811, 3359.874
1069.293, 3360.514
1069.775, 3368.005
1070.257, 3375.057
1070.740, 3379.845
1071.222, 3378.993
1071.704, 3372.806
1072.186, 3371.444
1072.668, 3391.700
1073.150, 3401.328
1073.632, 3368.046
1074.114, 3333.313
1074.597, 3335.758
1075.079, 3362.152
1075.561, 3385.047
1076.043, 3398.571
1076.525, 3410.812
1077.007, 3427.947
1077.489, 3441.257
1077.971, 3449.314
1078.453, 3449.081
1078.936, 3429.589
1079.418, 3402.389
1079.900, 3390.878
1080.382, 3400.401
1080.864, 3413.174
1081.346, 3425.561
1081.828, 3433.831
1082.310, 3434.071
1082.792, 3430.886
1083.275, 3425.198
1083.757, 3420.546
1084.239, 3425.472
1084.721, 3442.484
1085.203, 3454.023
1085.685, 3446.658
1086.167, 3438.978
1086.649, 3439.859
1087.131, 3445.973
1087.614, 3455.021
1088.096, 3466.257
1088.578, 3479.924
1089.060, 3496.527
1089.542, 3509.519
1090.024, 3514.313
1090.506, 3517.286
1090.988, 3518.318
1091.471, 3521.982
1091.953, 3535.832
1092.435, 3555.160
1092.917, 3567.449
1093.399, 3569.004
1093.881, 3571.193
1094.363, 3585.254
1094.845, 3592.146
1095.328, 3575.304
1095.810, 3553.379
1096.292, 3539.656
1096.774, 3536.178
1097.256, 3547.118
1097.738, 3576.726
1098.220, 3595.633
1098.702, 3582.415
1099.184, 3571.778
1099.667, 3583.322
1100.149, 3599.960
1100.631, 3611.658
1101.113, 3614.585
1101.595, 3600.150
1102.077, 3562.743
1102.559, 3532.434
1103.041, 3513.898
1103.523, 3507.212
1104.006, 3524.227
1104.488, 3542.449
1104.970, 3540.501
1105.452, 3525.431
1105.934, 3517.288
1106.416, 3520.634
1106.898, 3520.190
1107.380, 3512.440
1107.863, 3501.702
1108.345, 3493.865
1108.827, 3479.264
1109.309, 3439.893
1109.791, 3390.557
1110.273, 3367.584
1110.755, 3379.852
1111.237, 3388.537
1111.719, 3380.505
1112.202, 3382.018
1112.684, 3413.544
1113.166, 3442.463
1113.648, 3442.432
1114.130, 3424.293
1114.612, 3412.101
1115.094, 3406.578
1115.576, 3405.396
1116.058, 3410.261
1116.541, 3416.925
1117.023, 3425.366
1117.505, 3434.767
1117.987, 3447.058
1118.469, 3458.704
1118.951, 3462.529
1119.433, 3457.964
1119.915, 3448.862
1120.398, 3427.202
1120.880, 3418.636
1121.362, 3436.304
1121.844, 3452.257
1122.326, 3447.054
1122.808, 3432.591
1123.290, 3430.176
1123.772, 3440.463
1124.255, 3449.494
1124.737, 3458.860
1125.219, 3460.486
1125.701, 3448.705
1126.183, 3441.950
1126.665, 3452.667
1127.147, 3469.286
1127.629, 3472.687
1128.111, 3464.129
1128.594, 3468.821
1129.076, 3489.570
1129.558, 3504.899
1130.040, 3511.297
1130.522, 3516.753
1131.004, 3525.203
1131.486, 3534.544
1131.968, 3542.089
1132.450, 3547.952
1132.933, 3552.315
1133.415, 3555.173
1133.897, 3554.871
1134.379, 3550.984
1134.861, 3562.650
1135.343, 3599.435
1135.825, 3634.552
1136.307, 3635.878
1136.790, 3617.070
1137.272, 3616.574
1137.754, 3631.940
1138.236, 3652.118
1138.718, 3674.774
1139.200, 3691.002
1139.682, 3697.757
1140.164, 3698.951
1140.646, 3696.971
1141.129, 3694.364
1141.611, 3693.868
1142.093, 3696.982
1142.575, 3711.803
1143.057, 3733.950
1143.539, 3745.394
1144.021, 3742.617
1144.503, 3739.728
1144.985, 3748.035
1145.468, 3755.812
1145.950, 3746.939
1146.432, 3730.105
1146.914, 3715.731
1147.396, 3705.057
1147.878, 3700.077
1148.360, 3699.927
1148.842, 3699.794
1149.325, 3697.821
1149.807, 3692.600
1150.289, 3677.000
1150.771, 3663.626
1151.253, 3668.479
1151.735, 3680.694
1152.217, 3683.927
1152.699, 3678.698
1153.182, 3675.644
1153.664, 3678.788
1154.146, 3681.750
1154.628, 3678.398
1155.110, 3677.718
1155.592, 3687.714
1156.074, 3700.398
1156.556, 3706.166
1157.038, 3708.190
1157.521, 3718.727
1158.003, 3743.068
1158.485, 3752.980
1158.967, 3727.673
1159.449, 3707.567
1159.931, 3700.957
1160.413, 3706.550
1160.895, 3732.984
1161.377, 3767.168
1161.860, 3783.547
1162.342, 3779.785
1162.824, 3781.088
1163.306, 3791.288
1163.788, 3799.546
1164.270, 3801.974
1164.752, 3807.774
1165.234, 3826.953
1165.717, 3844.281
1166.199, 3836.394
1166.681, 3807.749
1167.163, 3801.509
1167.645, 3825.582
1168.127, 3833.390
1168.609, 3814.696
1169.091, 3816.517
1169.573, 3863.045
1170.056, 3905.733
1170.538, 3893.516
1171.020, 3848.264
1171.502, 3835.811
1171.984, 3854.071
1172.466, 3866.173
1172.948, 3871.458
1173.430, 3892.313
1173.912, 3933.636
1174.395, 3963.022
1174.877, 3955.977
1175.359, 3935.167
1175.841, 3936.375
1176.323, 3951.981
1176.805, 3962.347
1177.287, 3969.575
1177.769, 3984.396
1178.252, 4005.278
1178.734, 4015.439
1179.216, 4006.827
1179.698, 3994.263
1180.180, 3989.781
1180.662, 3990.492
1181.144, 3994.688
1181.626, 4000.908
1182.109, 4010.645
1182.591, 4019.794
1183.073, 4014.263
1183.555, 3992.050
1184.037, 3983.475
1184.519, 4016.027
1185.001, 4050.654
1185.483, 4072.024
1185.965, 4083.032
1186.448, 4079.846
1186.930, 4071.225
1187.412, 4070.253
1187.894, 4077.119
1188.376, 4080.557
1188.858, 4074.077
1189.340, 4072.182
1189.822, 4076.274
1190.304, 4085.880
1190.787, 4109.340
1191.269, 4130.500
1191.751, 4131.755
1192.233, 4120.302
1192.715, 4119.372
1193.197, 4130.500
1193.679, 4145.892
1194.161, 4167.944
1194.644, 4188.049
1195.126, 4206.408
1195.608, 4214.608
1196.090, 4203.950
1196.572, 4189.808
1197.054, 4202.843
1197.536, 4235.770
1198.018, 4219.296
1198.500, 4157.299
1198.983, 4146.170
1199.465, 4195.233
1199.947, 4242.119
##END=



