##NAMES=Brizziite
##RRUFFID=R060611
##IDEAL CHEMISTRY=NaSb^5+^O_3_
##LOCALITY=Le Cetine di Cotorniano, Chiusdino, Siena Province, Tuscany, Italy
##OWNER=RRUFF
##SOURCE=Michael Scott
##DESCRIPTION=Colorless thin hexagonal plates associated with romeite, R060736
##STATUS=The identification of this mineral is confirmed by single-crystal X-ray diffraction and chemical analysis.
##URL=rruff.info/R060611
##MEASURED CHEMISTRY=Na_1.00_Sb_1.00_O_3_; = gray phase with trace amounts of Fe; bright phase: stibiconite
9.059570e+001, 4.217873e+003
9.107782e+001, 4.105264e+003
9.155994e+001, 4.065425e+003
9.204205e+001, 4.152072e+003
9.252417e+001, 4.275052e+003
9.300629e+001, 4.403493e+003
9.348840e+001, 4.504195e+003
9.397052e+001, 4.550115e+003
9.445264e+001, 4.534179e+003
9.493475e+001, 4.517740e+003
9.541687e+001, 4.497638e+003
9.589898e+001, 4.476692e+003
9.638110e+001, 4.456462e+003
9.686321e+001, 4.438034e+003
9.734533e+001, 4.418779e+003
9.782745e+001, 4.390572e+003
9.830956e+001, 4.367569e+003
9.879168e+001, 4.353592e+003
9.927380e+001, 4.340791e+003
9.975591e+001, 4.324393e+003
1.002380e+002, 4.306001e+003
1.007201e+002, 4.291788e+003
1.012023e+002, 4.286206e+003
1.016844e+002, 4.287430e+003
1.021665e+002, 4.286149e+003
1.026486e+002, 4.280076e+003
1.031307e+002, 4.272471e+003
1.036128e+002, 4.265716e+003
1.040950e+002, 4.259357e+003
1.045771e+002, 4.254648e+003
1.050592e+002, 4.251494e+003
1.055413e+002, 4.249255e+003
1.060234e+002, 4.247521e+003
1.065055e+002, 4.245388e+003
1.069877e+002, 4.243267e+003
1.074698e+002, 4.243814e+003
1.079519e+002, 4.251298e+003
1.084340e+002, 4.255476e+003
1.089161e+002, 4.251213e+003
1.093982e+002, 4.240195e+003
1.098804e+002, 4.226884e+003
1.103625e+002, 4.215073e+003
1.108446e+002, 4.205175e+003
1.113267e+002, 4.194503e+003
1.118088e+002, 4.182777e+003
1.122909e+002, 4.170515e+003
1.127731e+002, 4.157722e+003
1.132552e+002, 4.144521e+003
1.137373e+002, 4.131075e+003
1.142194e+002, 4.117825e+003
1.147015e+002, 4.105225e+003
1.151836e+002, 4.091583e+003
1.156658e+002, 4.077843e+003
1.161479e+002, 4.062683e+003
1.166300e+002, 4.044318e+003
1.171121e+002, 4.021939e+003
1.175942e+002, 3.997171e+003
1.180763e+002, 3.974043e+003
1.185584e+002, 3.953552e+003
1.190406e+002, 3.932196e+003
1.195227e+002, 3.908312e+003
1.200048e+002, 3.882702e+003
1.204869e+002, 3.857279e+003
1.209690e+002, 3.832727e+003
1.214511e+002, 3.809223e+003
1.219333e+002, 3.786603e+003
1.224154e+002, 3.764911e+003
1.228975e+002, 3.743939e+003
1.233796e+002, 3.724779e+003
1.238617e+002, 3.707851e+003
1.243438e+002, 3.688563e+003
1.248260e+002, 3.661538e+003
1.253081e+002, 3.632161e+003
1.257902e+002, 3.605057e+003
1.262723e+002, 3.582313e+003
1.267544e+002, 3.562436e+003
1.272365e+002, 3.542358e+003
1.277187e+002, 3.521329e+003
1.282008e+002, 3.501360e+003
1.286829e+002, 3.483525e+003
1.291650e+002, 3.466760e+003
1.296471e+002, 3.449785e+003
1.301292e+002, 3.431794e+003
1.306114e+002, 3.412850e+003
1.310935e+002, 3.393707e+003
1.315756e+002, 3.371987e+003
1.320577e+002, 3.352306e+003
1.325398e+002, 3.336919e+003
1.330219e+002, 3.324779e+003
1.335041e+002, 3.313397e+003
1.339862e+002, 3.300568e+003
1.344683e+002, 3.285952e+003
1.349504e+002, 3.271685e+003
1.354325e+002, 3.257558e+003
1.359146e+002, 3.243829e+003
1.363968e+002, 3.230515e+003
1.368789e+002, 3.217677e+003
1.373610e+002, 3.205660e+003
1.378431e+002, 3.195220e+003
1.383252e+002, 3.186705e+003
1.388073e+002, 3.177818e+003
1.392895e+002, 3.168009e+003
1.397716e+002, 3.157893e+003
1.402537e+002, 3.148146e+003
1.407358e+002, 3.138956e+003
1.412179e+002, 3.130136e+003
1.417000e+002, 3.121940e+003
1.421821e+002, 3.114369e+003
1.426643e+002, 3.105871e+003
1.431464e+002, 3.095152e+003
1.436285e+002, 3.082847e+003
1.441106e+002, 3.070986e+003
1.445927e+002, 3.059235e+003
1.450748e+002, 3.049215e+003
1.455570e+002, 3.042613e+003
1.460391e+002, 3.039413e+003
1.465212e+002, 3.036487e+003
1.470033e+002, 3.031109e+003
1.474854e+002, 3.023041e+003
1.479675e+002, 3.014740e+003
1.484497e+002, 3.004817e+003
1.489318e+002, 2.995925e+003
1.494139e+002, 2.990245e+003
1.498960e+002, 2.988111e+003
1.503781e+002, 2.987208e+003
1.508602e+002, 2.984060e+003
1.513424e+002, 2.977429e+003
1.518245e+002, 2.971088e+003
1.523066e+002, 2.965239e+003
1.527887e+002, 2.959839e+003
1.532708e+002, 2.954506e+003
1.537529e+002, 2.949180e+003
1.542351e+002, 2.944483e+003
1.547172e+002, 2.942047e+003
1.551993e+002, 2.944714e+003
1.556814e+002, 2.946440e+003
1.561635e+002, 2.946862e+003
1.566456e+002, 2.946226e+003
1.571278e+002, 2.944713e+003
1.576099e+002, 2.942375e+003
1.580920e+002, 2.939395e+003
1.585741e+002, 2.936547e+003
1.590562e+002, 2.935464e+003
1.595383e+002, 2.932705e+003
1.600205e+002, 2.926030e+003
1.605026e+002, 2.916916e+003
1.609847e+002, 2.908706e+003
1.614668e+002, 2.903338e+003
1.619489e+002, 2.900466e+003
1.624310e+002, 2.898000e+003
1.629131e+002, 2.896728e+003
1.633953e+002, 2.895113e+003
1.638774e+002, 2.891815e+003
1.643595e+002, 2.887029e+003
1.648416e+002, 2.882738e+003
1.653237e+002, 2.880497e+003
1.658058e+002, 2.879586e+003
1.662880e+002, 2.878242e+003
1.667701e+002, 2.876320e+003
1.672522e+002, 2.873861e+003
1.677343e+002, 2.870500e+003
1.682164e+002, 2.865890e+003
1.686985e+002, 2.862074e+003
1.691807e+002, 2.861270e+003
1.696628e+002, 2.861755e+003
1.701449e+002, 2.861382e+003
1.706270e+002, 2.858891e+003
1.711091e+002, 2.855320e+003
1.715912e+002, 2.853059e+003
1.720734e+002, 2.852495e+003
1.725555e+002, 2.852676e+003
1.730376e+002, 2.854124e+003
1.735197e+002, 2.855795e+003
1.740018e+002, 2.855954e+003
1.744839e+002, 2.852992e+003
1.749661e+002, 2.847764e+003
1.754482e+002, 2.845593e+003
1.759303e+002, 2.849693e+003
1.764124e+002, 2.853501e+003
1.768945e+002, 2.855186e+003
1.773766e+002, 2.855343e+003
1.778588e+002, 2.855116e+003
1.783409e+002, 2.855274e+003
1.788230e+002, 2.855819e+003
1.793051e+002, 2.856798e+003
1.797872e+002, 2.859094e+003
1.802693e+002, 2.860950e+003
1.807515e+002, 2.861657e+003
1.812336e+002, 2.861421e+003
1.817157e+002, 2.860820e+003
1.821978e+002, 2.860289e+003
1.826799e+002, 2.859784e+003
1.831620e+002, 2.859750e+003
1.836441e+002, 2.860180e+003
1.841263e+002, 2.860931e+003
1.846084e+002, 2.862712e+003
1.850905e+002, 2.865096e+003
1.855726e+002, 2.866152e+003
1.860547e+002, 2.863592e+003
1.865368e+002, 2.856675e+003
1.870190e+002, 2.853184e+003
1.875011e+002, 2.856081e+003
1.879832e+002, 2.860189e+003
1.884653e+002, 2.861792e+003
1.889474e+002, 2.860497e+003
1.894296e+002, 2.858052e+003
1.899117e+002, 2.855931e+003
1.903938e+002, 2.854140e+003
1.908759e+002, 2.852274e+003
1.913580e+002, 2.849248e+003
1.918401e+002, 2.846625e+003
1.923223e+002, 2.846965e+003
1.928044e+002, 2.851148e+003
1.932865e+002, 2.855175e+003
1.937686e+002, 2.853567e+003
1.942507e+002, 2.848174e+003
1.947328e+002, 2.844838e+003
1.952150e+002, 2.846554e+003
1.956971e+002, 2.851312e+003
1.961792e+002, 2.855399e+003
1.966613e+002, 2.858741e+003
1.971434e+002, 2.860828e+003
1.976255e+002, 2.860799e+003
1.981077e+002, 2.859271e+003
1.985898e+002, 2.857757e+003
1.990719e+002, 2.856994e+003
1.995540e+002, 2.856865e+003
2.000361e+002, 2.856910e+003
2.005182e+002, 2.857191e+003
2.010004e+002, 2.857563e+003
2.014825e+002, 2.857989e+003
2.019646e+002, 2.858444e+003
2.024467e+002, 2.858877e+003
2.029288e+002, 2.859334e+003
2.034109e+002, 2.859803e+003
2.038930e+002, 2.859945e+003
2.043752e+002, 2.859749e+003
2.048573e+002, 2.859209e+003
2.053394e+002, 2.858356e+003
2.058215e+002, 2.857193e+003
2.063036e+002, 2.855652e+003
2.067857e+002, 2.853446e+003
2.072679e+002, 2.850481e+003
2.077500e+002, 2.848758e+003
2.082321e+002, 2.850325e+003
2.087142e+002, 2.851313e+003
2.091963e+002, 2.850128e+003
2.096784e+002, 2.847202e+003
2.101606e+002, 2.843956e+003
2.106427e+002, 2.841620e+003
2.111248e+002, 2.840295e+003
2.116069e+002, 2.839054e+003
2.120890e+002, 2.837509e+003
2.125711e+002, 2.836377e+003
2.130533e+002, 2.836242e+003
2.135354e+002, 2.836863e+003
2.140175e+002, 2.837522e+003
2.144996e+002, 2.837622e+003
2.149817e+002, 2.837193e+003
2.154638e+002, 2.835805e+003
2.159460e+002, 2.832311e+003
2.164281e+002, 2.829092e+003
2.169102e+002, 2.827600e+003
2.173923e+002, 2.827647e+003
2.178744e+002, 2.827926e+003
2.183565e+002, 2.827300e+003
2.188387e+002, 2.825664e+003
2.193208e+002, 2.823644e+003
2.198029e+002, 2.820247e+003
2.202850e+002, 2.817293e+003
2.207671e+002, 2.816149e+003
2.212492e+002, 2.816723e+003
2.217314e+002, 2.817655e+003
2.222135e+002, 2.817671e+003
2.226956e+002, 2.816724e+003
2.231777e+002, 2.816926e+003
2.236598e+002, 2.819921e+003
2.241419e+002, 2.822856e+003
2.246240e+002, 2.823217e+003
2.251062e+002, 2.820980e+003
2.255883e+002, 2.818557e+003
2.260704e+002, 2.818442e+003
2.265525e+002, 2.820067e+003
2.270346e+002, 2.819194e+003
2.275167e+002, 2.811611e+003
2.279989e+002, 2.803898e+003
2.284810e+002, 2.803389e+003
2.289631e+002, 2.810631e+003
2.294452e+002, 2.818075e+003
2.299273e+002, 2.819645e+003
2.304094e+002, 2.817130e+003
2.308916e+002, 2.815584e+003
2.313737e+002, 2.816915e+003
2.318558e+002, 2.818958e+003
2.323379e+002, 2.819070e+003
2.328200e+002, 2.816993e+003
2.333021e+002, 2.814775e+003
2.337843e+002, 2.814156e+003
2.342664e+002, 2.814136e+003
2.347485e+002, 2.813099e+003
2.352306e+002, 2.810078e+003
2.357127e+002, 2.806333e+003
2.361948e+002, 2.803387e+003
2.366770e+002, 2.801196e+003
2.371591e+002, 2.799946e+003
2.376412e+002, 2.800570e+003
2.381233e+002, 2.801938e+003
2.386054e+002, 2.802775e+003
2.390875e+002, 2.802448e+003
2.395697e+002, 2.801776e+003
2.400518e+002, 2.802165e+003
2.405339e+002, 2.803957e+003
2.410160e+002, 2.805736e+003
2.414981e+002, 2.806214e+003
2.419802e+002, 2.806714e+003
2.424624e+002, 2.808793e+003
2.429445e+002, 2.813238e+003
2.434266e+002, 2.818616e+003
2.439087e+002, 2.822400e+003
2.443908e+002, 2.824041e+003
2.448729e+002, 2.825509e+003
2.453550e+002, 2.827782e+003
2.458372e+002, 2.829906e+003
2.463193e+002, 2.830418e+003
2.468014e+002, 2.828675e+003
2.472835e+002, 2.826925e+003
2.477656e+002, 2.829811e+003
2.482477e+002, 2.840419e+003
2.487299e+002, 2.848177e+003
2.492120e+002, 2.849888e+003
2.496941e+002, 2.849214e+003
2.501762e+002, 2.848591e+003
2.506583e+002, 2.848810e+003
2.511404e+002, 2.849562e+003
2.516226e+002, 2.850475e+003
2.521047e+002, 2.851972e+003
2.525868e+002, 2.852628e+003
2.530689e+002, 2.850979e+003
2.535510e+002, 2.849460e+003
2.540331e+002, 2.850359e+003
2.545153e+002, 2.854038e+003
2.549974e+002, 2.858433e+003
2.554795e+002, 2.860306e+003
2.559616e+002, 2.858386e+003
2.564437e+002, 2.856570e+003
2.569258e+002, 2.853404e+003
2.574080e+002, 2.851415e+003
2.578901e+002, 2.852970e+003
2.583722e+002, 2.858136e+003
2.588543e+002, 2.864501e+003
2.593364e+002, 2.868809e+003
2.598185e+002, 2.870249e+003
2.603007e+002, 2.871539e+003
2.607828e+002, 2.872432e+003
2.612649e+002, 2.873396e+003
2.617470e+002, 2.874906e+003
2.622291e+002, 2.876899e+003
2.627112e+002, 2.878732e+003
2.631934e+002, 2.879521e+003
2.636755e+002, 2.878557e+003
2.641576e+002, 2.879216e+003
2.646397e+002, 2.883345e+003
2.651218e+002, 2.887220e+003
2.656039e+002, 2.888404e+003
2.660861e+002, 2.887094e+003
2.665682e+002, 2.885282e+003
2.670503e+002, 2.884938e+003
2.675324e+002, 2.886361e+003
2.680145e+002, 2.887396e+003
2.684966e+002, 2.887849e+003
2.689788e+002, 2.888177e+003
2.694609e+002, 2.888655e+003
2.699430e+002, 2.889228e+003
2.704251e+002, 2.889551e+003
2.709072e+002, 2.889198e+003
2.713893e+002, 2.888107e+003
2.718715e+002, 2.888511e+003
2.723536e+002, 2.892023e+003
2.728357e+002, 2.895111e+003
2.733178e+002, 2.896201e+003
2.737999e+002, 2.895599e+003
2.742820e+002, 2.894177e+003
2.747642e+002, 2.892272e+003
2.752463e+002, 2.890064e+003
2.757284e+002, 2.890034e+003
2.762105e+002, 2.894438e+003
2.766926e+002, 2.898035e+003
2.771747e+002, 2.898367e+003
2.776568e+002, 2.896544e+003
2.781389e+002, 2.895082e+003
2.786211e+002, 2.895335e+003
2.791032e+002, 2.896996e+003
2.795853e+002, 2.898844e+003
2.800674e+002, 2.901136e+003
2.805495e+002, 2.903292e+003
2.810316e+002, 2.905086e+003
2.815138e+002, 2.906667e+003
2.819959e+002, 2.908500e+003
2.824780e+002, 2.910917e+003
2.829601e+002, 2.913285e+003
2.834422e+002, 2.913642e+003
2.839243e+002, 2.910416e+003
2.844065e+002, 2.908473e+003
2.848886e+002, 2.909820e+003
2.853707e+002, 2.912787e+003
2.858528e+002, 2.914924e+003
2.863349e+002, 2.915406e+003
2.868170e+002, 2.915021e+003
2.872992e+002, 2.915167e+003
2.877813e+002, 2.916234e+003
2.882634e+002, 2.916485e+003
2.887455e+002, 2.914412e+003
2.892276e+002, 2.911868e+003
2.897097e+002, 2.911480e+003
2.901919e+002, 2.913907e+003
2.906740e+002, 2.917011e+003
2.911561e+002, 2.917834e+003
2.916382e+002, 2.915853e+003
2.921203e+002, 2.915839e+003
2.926024e+002, 2.920355e+003
2.930846e+002, 2.925860e+003
2.935667e+002, 2.928389e+003
2.940488e+002, 2.927496e+003
2.945309e+002, 2.926504e+003
2.950130e+002, 2.928926e+003
2.954951e+002, 2.934774e+003
2.959773e+002, 2.938426e+003
2.964594e+002, 2.937599e+003
2.969415e+002, 2.936004e+003
2.974236e+002, 2.936636e+003
2.979057e+002, 2.939474e+003
2.983878e+002, 2.942595e+003
2.988700e+002, 2.944603e+003
2.993521e+002, 2.945718e+003
2.998342e+002, 2.947551e+003
3.003163e+002, 2.950360e+003
3.007984e+002, 2.953596e+003
3.012805e+002, 2.957174e+003
3.017627e+002, 2.960990e+003
3.022448e+002, 2.964724e+003
3.027269e+002, 2.968372e+003
3.032090e+002, 2.971700e+003
3.036911e+002, 2.974069e+003
3.041732e+002, 2.974784e+003
3.046554e+002, 2.975812e+003
3.051375e+002, 2.978483e+003
3.056196e+002, 2.982189e+003
3.061017e+002, 2.985213e+003
3.065838e+002, 2.986713e+003
3.070659e+002, 2.987635e+003
3.075481e+002, 2.989865e+003
3.080302e+002, 2.993599e+003
3.085123e+002, 2.997480e+003
3.089944e+002, 3.001644e+003
3.094765e+002, 3.005560e+003
3.099586e+002, 3.007873e+003
3.104408e+002, 3.007931e+003
3.109229e+002, 3.007625e+003
3.114050e+002, 3.009928e+003
3.118871e+002, 3.014958e+003
3.123692e+002, 3.018793e+003
3.128513e+002, 3.019550e+003
3.133335e+002, 3.019209e+003
3.138156e+002, 3.020657e+003
3.142977e+002, 3.024388e+003
3.147798e+002, 3.027501e+003
3.152619e+002, 3.027222e+003
3.157440e+002, 3.023589e+003
3.162262e+002, 3.019110e+003
3.167083e+002, 3.013059e+003
3.171904e+002, 3.006866e+003
3.176725e+002, 3.001353e+003
3.181546e+002, 2.996606e+003
3.186367e+002, 2.993257e+003
3.191188e+002, 2.992110e+003
3.196010e+002, 2.992768e+003
3.200831e+002, 2.992851e+003
3.205652e+002, 2.992041e+003
3.210473e+002, 2.991004e+003
3.215294e+002, 2.990093e+003
3.220115e+002, 2.989265e+003
3.224937e+002, 2.988272e+003
3.229758e+002, 2.986890e+003
3.234579e+002, 2.985433e+003
3.239400e+002, 2.984886e+003
3.244221e+002, 2.986108e+003
3.249042e+002, 2.986324e+003
3.253864e+002, 2.984302e+003
3.258685e+002, 2.980663e+003
3.263506e+002, 2.976675e+003
3.268327e+002, 2.972832e+003
3.273148e+002, 2.968343e+003
3.277969e+002, 2.961211e+003
3.282791e+002, 2.950667e+003
3.287612e+002, 2.942332e+003
3.292433e+002, 2.940458e+003
3.297254e+002, 2.939875e+003
3.302075e+002, 2.933992e+003
3.306896e+002, 2.921673e+003
3.311718e+002, 2.907349e+003
3.316539e+002, 2.894917e+003
3.321360e+002, 2.884595e+003
3.326181e+002, 2.875466e+003
3.331002e+002, 2.869465e+003
3.335823e+002, 2.863219e+003
3.340645e+002, 2.853390e+003
3.345466e+002, 2.840426e+003
3.350287e+002, 2.828095e+003
3.355108e+002, 2.819422e+003
3.359929e+002, 2.813680e+003
3.364750e+002, 2.805649e+003
3.369572e+002, 2.792723e+003
3.374393e+002, 2.780398e+003
3.379214e+002, 2.771291e+003
3.384035e+002, 2.764517e+003
3.388856e+002, 2.758149e+003
3.393677e+002, 2.751381e+003
3.398499e+002, 2.744262e+003
3.403320e+002, 2.736849e+003
3.408141e+002, 2.728534e+003
3.412962e+002, 2.721045e+003
3.417783e+002, 2.715655e+003
3.422604e+002, 2.710926e+003
3.427426e+002, 2.704777e+003
3.432247e+002, 2.696637e+003
3.437068e+002, 2.687927e+003
3.441889e+002, 2.680536e+003
3.446710e+002, 2.674699e+003
3.451531e+002, 2.670030e+003
3.456353e+002, 2.667789e+003
3.461174e+002, 2.665903e+003
3.465995e+002, 2.662921e+003
3.470816e+002, 2.658706e+003
3.475637e+002, 2.653613e+003
3.480458e+002, 2.647824e+003
3.485280e+002, 2.641259e+003
3.490101e+002, 2.635741e+003
3.494922e+002, 2.631253e+003
3.499743e+002, 2.627632e+003
3.504564e+002, 2.625074e+003
3.509385e+002, 2.623377e+003
3.514207e+002, 2.622286e+003
3.519028e+002, 2.621786e+003
3.523849e+002, 2.621523e+003
3.528670e+002, 2.619904e+003
3.533491e+002, 2.614899e+003
3.538312e+002, 2.611077e+003
3.543134e+002, 2.609439e+003
3.547955e+002, 2.609099e+003
3.552776e+002, 2.609359e+003
3.557597e+002, 2.609923e+003
3.562418e+002, 2.610189e+003
3.567239e+002, 2.609050e+003
3.572061e+002, 2.605410e+003
3.576882e+002, 2.602547e+003
3.581703e+002, 2.599829e+003
3.586524e+002, 2.598241e+003
3.591345e+002, 2.599431e+003
3.596166e+002, 2.602904e+003
3.600987e+002, 2.605895e+003
3.605808e+002, 2.605484e+003
3.610630e+002, 2.601152e+003
3.615451e+002, 2.598380e+003
3.620272e+002, 2.597697e+003
3.625093e+002, 2.597890e+003
3.629914e+002, 2.599188e+003
3.634735e+002, 2.601029e+003
3.639557e+002, 2.602252e+003
3.644378e+002, 2.602029e+003
3.649199e+002, 2.601053e+003
3.654020e+002, 2.602391e+003
3.658841e+002, 2.608765e+003
3.663662e+002, 2.613781e+003
3.668484e+002, 2.614272e+003
3.673305e+002, 2.614330e+003
3.678126e+002, 2.618587e+003
3.682947e+002, 2.628315e+003
3.687768e+002, 2.640255e+003
3.692589e+002, 2.649458e+003
3.697411e+002, 2.655164e+003
3.702232e+002, 2.660042e+003
3.707053e+002, 2.663906e+003
3.711874e+002, 2.667271e+003
3.716695e+002, 2.670250e+003
3.721516e+002, 2.672940e+003
3.726338e+002, 2.675667e+003
3.731159e+002, 2.679114e+003
3.735980e+002, 2.683183e+003
3.740801e+002, 2.684721e+003
3.745622e+002, 2.681254e+003
3.750443e+002, 2.678180e+003
3.755265e+002, 2.678456e+003
3.760086e+002, 2.680017e+003
3.764907e+002, 2.679701e+003
3.769728e+002, 2.675937e+003
3.774549e+002, 2.669509e+003
3.779370e+002, 2.661423e+003
3.784192e+002, 2.650196e+003
3.789013e+002, 2.641604e+003
3.793834e+002, 2.639301e+003
3.798655e+002, 2.638960e+003
3.803476e+002, 2.637016e+003
3.808297e+002, 2.632793e+003
3.813119e+002, 2.628979e+003
3.817940e+002, 2.628851e+003
3.822761e+002, 2.632324e+003
3.827582e+002, 2.634839e+003
3.832403e+002, 2.635086e+003
3.837224e+002, 2.635126e+003
3.842046e+002, 2.636406e+003
3.846867e+002, 2.638681e+003
3.851688e+002, 2.641061e+003
3.856509e+002, 2.642813e+003
3.861330e+002, 2.644359e+003
3.866151e+002, 2.646669e+003
3.870973e+002, 2.649780e+003
3.875794e+002, 2.653449e+003
3.880615e+002, 2.656853e+003
3.885436e+002, 2.660957e+003
3.890257e+002, 2.667740e+003
3.895078e+002, 2.679123e+003
3.899900e+002, 2.690390e+003
3.904721e+002, 2.696847e+003
3.909542e+002, 2.699065e+003
3.914363e+002, 2.701329e+003
3.919184e+002, 2.704904e+003
3.924005e+002, 2.709285e+003
3.928827e+002, 2.714219e+003
3.933648e+002, 2.719914e+003
3.938469e+002, 2.724110e+003
3.943290e+002, 2.724508e+003
3.948111e+002, 2.723326e+003
3.952932e+002, 2.724340e+003
3.957754e+002, 2.728269e+003
3.962575e+002, 2.732669e+003
3.967396e+002, 2.735452e+003
3.972217e+002, 2.736722e+003
3.977038e+002, 2.738177e+003
3.981859e+002, 2.740322e+003
3.986681e+002, 2.742325e+003
3.991501e+002, 2.743086e+003
3.996323e+002, 2.743108e+003
4.001144e+002, 2.744263e+003
4.005965e+002, 2.747596e+003
4.010786e+002, 2.752474e+003
4.015607e+002, 2.757171e+003
4.020428e+002, 2.762172e+003
4.025250e+002, 2.766186e+003
4.030071e+002, 2.768141e+003
4.034892e+002, 2.769361e+003
4.039713e+002, 2.771321e+003
4.044534e+002, 2.774348e+003
4.049355e+002, 2.777964e+003
4.054177e+002, 2.781738e+003
4.058998e+002, 2.785839e+003
4.063819e+002, 2.788987e+003
4.068640e+002, 2.790513e+003
4.073461e+002, 2.791853e+003
4.078282e+002, 2.793038e+003
4.083104e+002, 2.794613e+003
4.087925e+002, 2.798027e+003
4.092746e+002, 2.804497e+003
4.097567e+002, 2.812873e+003
4.102388e+002, 2.817904e+003
4.107209e+002, 2.815880e+003
4.112031e+002, 2.815159e+003
4.116852e+002, 2.817564e+003
4.121673e+002, 2.820932e+003
4.126494e+002, 2.823047e+003
4.131315e+002, 2.823398e+003
4.136136e+002, 2.823227e+003
4.140958e+002, 2.824207e+003
4.145779e+002, 2.826642e+003
4.150600e+002, 2.829043e+003
4.155421e+002, 2.832035e+003
4.160242e+002, 2.834395e+003
4.165063e+002, 2.835322e+003
4.169885e+002, 2.835213e+003
4.174706e+002, 2.834919e+003
4.179527e+002, 2.834779e+003
4.184348e+002, 2.835055e+003
4.189169e+002, 2.836939e+003
4.193990e+002, 2.841541e+003
4.198812e+002, 2.845261e+003
4.203633e+002, 2.846276e+003
4.208454e+002, 2.846336e+003
4.213275e+002, 2.847283e+003
4.218096e+002, 2.849594e+003
4.222917e+002, 2.851468e+003
4.227739e+002, 2.849806e+003
4.232560e+002, 2.844923e+003
4.237381e+002, 2.844001e+003
4.242202e+002, 2.850852e+003
4.247023e+002, 2.858083e+003
4.251844e+002, 2.859586e+003
4.256666e+002, 2.856635e+003
4.261487e+002, 2.853843e+003
4.266308e+002, 2.852829e+003
4.271129e+002, 2.853212e+003
4.275950e+002, 2.854918e+003
4.280771e+002, 2.858054e+003
4.285593e+002, 2.860742e+003
4.290414e+002, 2.862135e+003
4.295235e+002, 2.862294e+003
4.300056e+002, 2.861547e+003
4.304877e+002, 2.859397e+003
4.309698e+002, 2.857517e+003
4.314520e+002, 2.857140e+003
4.319341e+002, 2.857576e+003
4.324162e+002, 2.857113e+003
4.328983e+002, 2.855169e+003
4.333804e+002, 2.853470e+003
4.338625e+002, 2.854079e+003
4.343447e+002, 2.857308e+003
4.348268e+002, 2.860978e+003
4.353089e+002, 2.866999e+003
4.357910e+002, 2.871748e+003
4.362731e+002, 2.871715e+003
4.367552e+002, 2.868057e+003
4.372374e+002, 2.864963e+003
4.377195e+002, 2.864942e+003
4.382016e+002, 2.867149e+003
4.386837e+002, 2.868388e+003
4.391658e+002, 2.866150e+003
4.396479e+002, 2.866194e+003
4.401301e+002, 2.870547e+003
4.406122e+002, 2.876426e+003
4.410943e+002, 2.881191e+003
4.415764e+002, 2.884329e+003
4.420585e+002, 2.887126e+003
4.425406e+002, 2.891077e+003
4.430227e+002, 2.896425e+003
4.435049e+002, 2.901305e+003
4.439870e+002, 2.906586e+003
4.444691e+002, 2.910482e+003
4.449512e+002, 2.911054e+003
4.454333e+002, 2.910100e+003
4.459154e+002, 2.910476e+003
4.463976e+002, 2.913651e+003
4.468797e+002, 2.918856e+003
4.473618e+002, 2.924253e+003
4.478439e+002, 2.929284e+003
4.483260e+002, 2.936156e+003
4.488081e+002, 2.947754e+003
4.492903e+002, 2.959547e+003
4.497724e+002, 2.968450e+003
4.502545e+002, 2.974434e+003
4.507366e+002, 2.979859e+003
4.512187e+002, 2.986406e+003
4.517008e+002, 2.993856e+003
4.521830e+002, 3.000916e+003
4.526651e+002, 3.006924e+003
4.531472e+002, 3.014031e+003
4.536293e+002, 3.024252e+003
4.541114e+002, 3.036198e+003
4.545935e+002, 3.048319e+003
4.550757e+002, 3.060968e+003
4.555578e+002, 3.072286e+003
4.560399e+002, 3.079270e+003
4.565220e+002, 3.083177e+003
4.570041e+002, 3.089798e+003
4.574862e+002, 3.101138e+003
4.579684e+002, 3.114995e+003
4.584505e+002, 3.129291e+003
4.589326e+002, 3.144076e+003
4.594147e+002, 3.157612e+003
4.598968e+002, 3.168540e+003
4.603789e+002, 3.178816e+003
4.608611e+002, 3.189503e+003
4.613432e+002, 3.200939e+003
4.618253e+002, 3.214166e+003
4.623074e+002, 3.230150e+003
4.627895e+002, 3.248213e+003
4.632716e+002, 3.265923e+003
4.637538e+002, 3.281780e+003
4.642359e+002, 3.299281e+003
4.647180e+002, 3.320460e+003
4.652001e+002, 3.342747e+003
4.656822e+002, 3.363407e+003
4.661643e+002, 3.382024e+003
4.666465e+002, 3.399780e+003
4.671286e+002, 3.417874e+003
4.676107e+002, 3.436444e+003
4.680928e+002, 3.455229e+003
4.685749e+002, 3.473839e+003
4.690570e+002, 3.493069e+003
4.695392e+002, 3.512860e+003
4.700213e+002, 3.533440e+003
4.705034e+002, 3.554793e+003
4.709855e+002, 3.576896e+003
4.714676e+002, 3.600263e+003
4.719497e+002, 3.625552e+003
4.724319e+002, 3.652439e+003
4.729140e+002, 3.682519e+003
4.733961e+002, 3.716903e+003
4.738782e+002, 3.753984e+003
4.743603e+002, 3.791985e+003
4.748424e+002, 3.831448e+003
4.753246e+002, 3.875701e+003
4.758067e+002, 3.928587e+003
4.762888e+002, 3.986669e+003
4.767709e+002, 4.043270e+003
4.772530e+002, 4.098004e+003
4.777351e+002, 4.152366e+003
4.782173e+002, 4.207502e+003
4.786994e+002, 4.262409e+003
4.791815e+002, 4.316306e+003
4.796636e+002, 4.370458e+003
4.801457e+002, 4.418495e+003
4.806278e+002, 4.460122e+003
4.811100e+002, 4.492671e+003
4.815920e+002, 4.511482e+003
4.820742e+002, 4.515694e+003
4.825563e+002, 4.506869e+003
4.830384e+002, 4.485338e+003
4.835205e+002, 4.450515e+003
4.840026e+002, 4.408344e+003
4.844847e+002, 4.355726e+003
4.849669e+002, 4.299752e+003
4.854490e+002, 4.240448e+003
4.859311e+002, 4.180050e+003
4.864132e+002, 4.121604e+003
4.868953e+002, 4.066087e+003
4.873774e+002, 4.014450e+003
4.878596e+002, 3.968465e+003
4.883417e+002, 3.927159e+003
4.888238e+002, 3.893981e+003
4.893059e+002, 3.869501e+003
4.897880e+002, 3.851169e+003
4.902701e+002, 3.838279e+003
4.907523e+002, 3.830605e+003
4.912344e+002, 3.828278e+003
4.917165e+002, 3.831566e+003
4.921986e+002, 3.839795e+003
4.926807e+002, 3.851194e+003
4.931628e+002, 3.865727e+003
4.936450e+002, 3.883487e+003
4.941271e+002, 3.905868e+003
4.946092e+002, 3.930441e+003
4.950913e+002, 3.955466e+003
4.955734e+002, 3.980935e+003
4.960555e+002, 4.008652e+003
4.965377e+002, 4.040250e+003
4.970198e+002, 4.074802e+003
4.975019e+002, 4.109276e+003
4.979840e+002, 4.143186e+003
4.984661e+002, 4.179298e+003
4.989482e+002, 4.220746e+003
4.994304e+002, 4.265283e+003
4.999125e+002, 4.308246e+003
5.003946e+002, 4.349116e+003
5.008767e+002, 4.389457e+003
5.013588e+002, 4.432317e+003
5.018409e+002, 4.474856e+003
5.023231e+002, 4.511485e+003
5.028052e+002, 4.540898e+003
5.032873e+002, 4.569166e+003
5.037694e+002, 4.602626e+003
5.042515e+002, 4.641778e+003
5.047336e+002, 4.674791e+003
5.052158e+002, 4.700884e+003
5.056979e+002, 4.722522e+003
5.061800e+002, 4.741133e+003
5.066621e+002, 4.755715e+003
5.071442e+002, 4.764675e+003
5.076263e+002, 4.767433e+003
5.081085e+002, 4.764247e+003
5.085906e+002, 4.755204e+003
5.090727e+002, 4.739404e+003
5.095548e+002, 4.720870e+003
5.100369e+002, 4.702784e+003
5.105190e+002, 4.678742e+003
5.110012e+002, 4.646714e+003
5.114833e+002, 4.606677e+003
5.119654e+002, 4.557844e+003
5.124475e+002, 4.498476e+003
5.129296e+002, 4.434257e+003
5.134117e+002, 4.376167e+003
5.138939e+002, 4.325188e+003
5.143760e+002, 4.271022e+003
5.148581e+002, 4.209623e+003
5.153402e+002, 4.145664e+003
5.158223e+002, 4.081962e+003
5.163044e+002, 4.019005e+003
5.167866e+002, 3.959568e+003
5.172687e+002, 3.905662e+003
5.177508e+002, 3.855144e+003
5.182329e+002, 3.805032e+003
5.187150e+002, 3.755404e+003
5.191971e+002, 3.707856e+003
5.196793e+002, 3.663072e+003
5.201614e+002, 3.620828e+003
5.206435e+002, 3.581849e+003
5.211256e+002, 3.546333e+003
5.216077e+002, 3.512094e+003
5.220898e+002, 3.479018e+003
5.225720e+002, 3.447031e+003
5.230541e+002, 3.415669e+003
5.235362e+002, 3.385427e+003
5.240183e+002, 3.357729e+003
5.245004e+002, 3.333820e+003
5.249825e+002, 3.313392e+003
5.254647e+002, 3.294478e+003
5.259468e+002, 3.280337e+003
5.264289e+002, 3.263151e+003
5.269110e+002, 3.238811e+003
5.273931e+002, 3.213634e+003
5.278752e+002, 3.192832e+003
5.283574e+002, 3.176921e+003
5.288395e+002, 3.163211e+003
5.293216e+002, 3.150203e+003
5.298037e+002, 3.137513e+003
5.302858e+002, 3.122112e+003
5.307679e+002, 3.102545e+003
5.312501e+002, 3.083747e+003
5.317322e+002, 3.067966e+003
5.322143e+002, 3.054022e+003
5.326964e+002, 3.040847e+003
5.331785e+002, 3.028387e+003
5.336606e+002, 3.016101e+003
5.341428e+002, 3.003661e+003
5.346249e+002, 2.991093e+003
5.351070e+002, 2.978071e+003
5.355891e+002, 2.964473e+003
5.360712e+002, 2.951496e+003
5.365533e+002, 2.940322e+003
5.370355e+002, 2.930603e+003
5.375176e+002, 2.920307e+003
5.379997e+002, 2.907739e+003
5.384818e+002, 2.896664e+003
5.389639e+002, 2.890253e+003
5.394460e+002, 2.884909e+003
5.399282e+002, 2.875749e+003
5.404103e+002, 2.861997e+003
5.408924e+002, 2.846578e+003
5.413745e+002, 2.832296e+003
5.418566e+002, 2.819114e+003
5.423387e+002, 2.808406e+003
5.428209e+002, 2.803622e+003
5.433029e+002, 2.797306e+003
5.437850e+002, 2.787200e+003
5.442672e+002, 2.775196e+003
5.447493e+002, 2.763240e+003
5.452314e+002, 2.751910e+003
5.457135e+002, 2.741148e+003
5.461956e+002, 2.731394e+003
5.466777e+002, 2.722472e+003
5.471599e+002, 2.712574e+003
5.476420e+002, 2.701032e+003
5.481241e+002, 2.689771e+003
5.486062e+002, 2.681045e+003
5.490883e+002, 2.673192e+003
5.495704e+002, 2.662981e+003
5.500526e+002, 2.648365e+003
5.505347e+002, 2.634686e+003
5.510168e+002, 2.626565e+003
5.514989e+002, 2.621528e+003
5.519810e+002, 2.614375e+003
5.524631e+002, 2.604008e+003
5.529453e+002, 2.592132e+003
5.534274e+002, 2.580015e+003
5.539095e+002, 2.567614e+003
5.543916e+002, 2.556648e+003
5.548737e+002, 2.548675e+003
5.553558e+002, 2.540035e+003
5.558380e+002, 2.528961e+003
5.563201e+002, 2.516940e+003
5.568022e+002, 2.505900e+003
5.572843e+002, 2.496295e+003
5.577664e+002, 2.487508e+003
5.582485e+002, 2.478866e+003
5.587307e+002, 2.470429e+003
5.592128e+002, 2.461720e+003
5.596949e+002, 2.452460e+003
5.601770e+002, 2.443434e+003
5.606591e+002, 2.434215e+003
5.611412e+002, 2.425637e+003
5.616234e+002, 2.419084e+003
5.621055e+002, 2.415117e+003
5.625876e+002, 2.411093e+003
5.630697e+002, 2.404093e+003
5.635518e+002, 2.395138e+003
5.640339e+002, 2.387446e+003
5.645161e+002, 2.381254e+003
5.649982e+002, 2.377005e+003
5.654803e+002, 2.376169e+003
5.659624e+002, 2.377554e+003
5.664445e+002, 2.375892e+003
5.669266e+002, 2.369242e+003
5.674088e+002, 2.362347e+003
5.678909e+002, 2.355915e+003
5.683730e+002, 2.350558e+003
5.688551e+002, 2.347648e+003
5.693372e+002, 2.347105e+003
5.698193e+002, 2.346598e+003
5.703015e+002, 2.343847e+003
5.707836e+002, 2.339010e+003
5.712657e+002, 2.335415e+003
5.717478e+002, 2.334307e+003
5.722299e+002, 2.332775e+003
5.727120e+002, 2.329794e+003
5.731942e+002, 2.326554e+003
5.736763e+002, 2.324316e+003
5.741584e+002, 2.323179e+003
5.746405e+002, 2.322084e+003
5.751226e+002, 2.319493e+003
5.756047e+002, 2.316090e+003
5.760869e+002, 2.315196e+003
5.765690e+002, 2.317540e+003
5.770511e+002, 2.319302e+003
5.775332e+002, 2.318381e+003
5.780153e+002, 2.315939e+003
5.784974e+002, 2.313869e+003
5.789796e+002, 2.312224e+003
5.794617e+002, 2.310863e+003
5.799438e+002, 2.309419e+003
5.804259e+002, 2.308427e+003
5.809080e+002, 2.309092e+003
5.813901e+002, 2.311117e+003
5.818723e+002, 2.312289e+003
5.823544e+002, 2.311062e+003
5.828365e+002, 2.308251e+003
5.833186e+002, 2.306599e+003
5.838007e+002, 2.306592e+003
5.842828e+002, 2.307121e+003
5.847650e+002, 2.309138e+003
5.852471e+002, 2.310860e+003
5.857292e+002, 2.310744e+003
5.862113e+002, 2.309229e+003
5.866934e+002, 2.307882e+003
5.871755e+002, 2.307600e+003
5.876577e+002, 2.308256e+003
5.881398e+002, 2.309697e+003
5.886219e+002, 2.312017e+003
5.891040e+002, 2.314501e+003
5.895861e+002, 2.317173e+003
5.900682e+002, 2.319737e+003
5.905504e+002, 2.322120e+003
5.910325e+002, 2.324248e+003
5.915146e+002, 2.325561e+003
5.919967e+002, 2.325065e+003
5.924788e+002, 2.324367e+003
5.929609e+002, 2.325419e+003
5.934431e+002, 2.327440e+003
5.939252e+002, 2.327501e+003
5.944073e+002, 2.324341e+003
5.948894e+002, 2.321006e+003
5.953715e+002, 2.322011e+003
5.958536e+002, 2.328704e+003
5.963358e+002, 2.333711e+003
5.968179e+002, 2.336712e+003
5.973000e+002, 2.338664e+003
5.977821e+002, 2.339481e+003
5.982642e+002, 2.339618e+003
5.987463e+002, 2.339104e+003
5.992285e+002, 2.338048e+003
5.997106e+002, 2.338141e+003
6.001927e+002, 2.342754e+003
6.006748e+002, 2.351612e+003
6.011569e+002, 2.356311e+003
6.016390e+002, 2.355048e+003
6.021212e+002, 2.352637e+003
6.026033e+002, 2.350329e+003
6.030854e+002, 2.349068e+003
6.035675e+002, 2.350929e+003
6.040496e+002, 2.357270e+003
6.045317e+002, 2.363405e+003
6.050139e+002, 2.366800e+003
6.054960e+002, 2.368643e+003
6.059781e+002, 2.370023e+003
6.064602e+002, 2.371317e+003
6.069423e+002, 2.373984e+003
6.074244e+002, 2.379183e+003
6.079066e+002, 2.386460e+003
6.083887e+002, 2.393828e+003
6.088708e+002, 2.400915e+003
6.093529e+002, 2.408662e+003
6.098350e+002, 2.417672e+003
6.103171e+002, 2.426881e+003
6.107993e+002, 2.434914e+003
6.112814e+002, 2.442355e+003
6.117635e+002, 2.451322e+003
6.122456e+002, 2.463421e+003
6.127277e+002, 2.477418e+003
6.132098e+002, 2.490539e+003
6.136920e+002, 2.502642e+003
6.141741e+002, 2.516387e+003
6.146562e+002, 2.532697e+003
6.151383e+002, 2.550590e+003
6.156204e+002, 2.569593e+003
6.161025e+002, 2.589554e+003
6.165847e+002, 2.609450e+003
6.170668e+002, 2.628307e+003
6.175489e+002, 2.647760e+003
6.180310e+002, 2.669031e+003
6.185131e+002, 2.691613e+003
6.189952e+002, 2.714444e+003
6.194774e+002, 2.737223e+003
6.199595e+002, 2.760569e+003
6.204416e+002, 2.785066e+003
6.209237e+002, 2.810776e+003
6.214058e+002, 2.838265e+003
6.218879e+002, 2.869368e+003
6.223701e+002, 2.900128e+003
6.228522e+002, 2.928089e+003
6.233343e+002, 2.956132e+003
6.238164e+002, 2.987171e+003
6.242985e+002, 3.021590e+003
6.247806e+002, 3.057693e+003
6.252628e+002, 3.093129e+003
6.257448e+002, 3.129164e+003
6.262269e+002, 3.169650e+003
6.267090e+002, 3.215056e+003
6.271912e+002, 3.260954e+003
6.276733e+002, 3.305104e+003
6.281554e+002, 3.349048e+003
6.286375e+002, 3.397128e+003
6.291196e+002, 3.450519e+003
6.296017e+002, 3.501056e+003
6.300839e+002, 3.545518e+003
6.305660e+002, 3.588725e+003
6.310481e+002, 3.636273e+003
6.315302e+002, 3.685322e+003
6.320123e+002, 3.729523e+003
6.324944e+002, 3.765772e+003
6.329766e+002, 3.795383e+003
6.334587e+002, 3.821286e+003
6.339408e+002, 3.845051e+003
6.344229e+002, 3.857453e+003
6.349050e+002, 3.857021e+003
6.353871e+002, 3.846099e+003
6.358693e+002, 3.826940e+003
6.363514e+002, 3.798837e+003
6.368335e+002, 3.759802e+003
6.373156e+002, 3.708516e+003
6.377977e+002, 3.650899e+003
6.382798e+002, 3.589479e+003
6.387620e+002, 3.525620e+003
6.392441e+002, 3.459860e+003
6.397262e+002, 3.392763e+003
6.402083e+002, 3.327812e+003
6.406904e+002, 3.267076e+003
6.411725e+002, 3.210459e+003
6.416547e+002, 3.157074e+003
6.421368e+002, 3.105690e+003
6.426189e+002, 3.060134e+003
6.431010e+002, 3.022382e+003
6.435831e+002, 2.988730e+003
6.440652e+002, 2.956876e+003
6.445474e+002, 2.927012e+003
6.450295e+002, 2.900037e+003
6.455116e+002, 2.876520e+003
6.459937e+002, 2.856284e+003
6.464758e+002, 2.839785e+003
6.469579e+002, 2.826998e+003
6.474401e+002, 2.814472e+003
6.479222e+002, 2.801114e+003
6.484043e+002, 2.789343e+003
6.488864e+002, 2.781854e+003
6.493685e+002, 2.777515e+003
6.498506e+002, 2.772976e+003
6.503328e+002, 2.767452e+003
6.508149e+002, 2.762569e+003
6.512970e+002, 2.758263e+003
6.517791e+002, 2.755363e+003
6.522612e+002, 2.754917e+003
6.527433e+002, 2.756999e+003
6.532255e+002, 2.761160e+003
6.537076e+002, 2.767193e+003
6.541897e+002, 2.774752e+003
6.546718e+002, 2.782379e+003
6.551539e+002, 2.788808e+003
6.556360e+002, 2.798299e+003
6.561182e+002, 2.812924e+003
6.566003e+002, 2.829590e+003
6.570824e+002, 2.846575e+003
6.575645e+002, 2.864254e+003
6.580466e+002, 2.884089e+003
6.585287e+002, 2.907953e+003
6.590109e+002, 2.932138e+003
6.594930e+002, 2.954653e+003
6.599751e+002, 2.974596e+003
6.604572e+002, 2.990433e+003
6.609393e+002, 3.001851e+003
6.614214e+002, 3.006530e+003
6.619036e+002, 3.001859e+003
6.623857e+002, 2.988452e+003
6.628678e+002, 2.973094e+003
6.633499e+002, 2.956371e+003
6.638320e+002, 2.936883e+003
6.643141e+002, 2.910266e+003
6.647963e+002, 2.884032e+003
6.652784e+002, 2.864755e+003
6.657605e+002, 2.851719e+003
6.662426e+002, 2.839377e+003
6.667247e+002, 2.823560e+003
6.672068e+002, 2.807613e+003
6.676890e+002, 2.798061e+003
6.681711e+002, 2.794736e+003
6.686532e+002, 2.791778e+003
6.691353e+002, 2.787977e+003
6.696174e+002, 2.784050e+003
6.700995e+002, 2.780428e+003
6.705817e+002, 2.777216e+003
6.710638e+002, 2.775207e+003
6.715459e+002, 2.776187e+003
6.720280e+002, 2.776156e+003
6.725101e+002, 2.772645e+003
6.729922e+002, 2.768192e+003
6.734744e+002, 2.765533e+003
6.739565e+002, 2.764942e+003
6.744386e+002, 2.765180e+003
6.749207e+002, 2.765485e+003
6.754028e+002, 2.765605e+003
6.758849e+002, 2.764537e+003
6.763671e+002, 2.761937e+003
6.768492e+002, 2.759641e+003
6.773313e+002, 2.757757e+003
6.778134e+002, 2.756573e+003
6.782955e+002, 2.756569e+003
6.787776e+002, 2.757446e+003
6.792598e+002, 2.758142e+003
6.797419e+002, 2.758567e+003
6.802240e+002, 2.758573e+003
6.807061e+002, 2.758489e+003
6.811882e+002, 2.757775e+003
6.816703e+002, 2.754757e+003
6.821525e+002, 2.749587e+003
6.826346e+002, 2.745415e+003
6.831167e+002, 2.745039e+003
6.835988e+002, 2.747546e+003
6.840809e+002, 2.748330e+003
6.845630e+002, 2.746377e+003
6.850452e+002, 2.744926e+003
6.855273e+002, 2.744432e+003
6.860094e+002, 2.744542e+003
6.864915e+002, 2.745815e+003
6.869736e+002, 2.747559e+003
6.874557e+002, 2.747792e+003
6.879379e+002, 2.745198e+003
6.884200e+002, 2.741841e+003
6.889021e+002, 2.739028e+003
6.893842e+002, 2.736919e+003
6.898663e+002, 2.736407e+003
6.903484e+002, 2.737582e+003
6.908306e+002, 2.738365e+003
6.913127e+002, 2.737068e+003
6.917948e+002, 2.734082e+003
6.922769e+002, 2.731327e+003
6.927590e+002, 2.729037e+003
6.932411e+002, 2.726649e+003
6.937233e+002, 2.723634e+003
6.942054e+002, 2.721040e+003
6.946875e+002, 2.720346e+003
6.951696e+002, 2.720572e+003
6.956517e+002, 2.719312e+003
6.961339e+002, 2.715499e+003
6.966160e+002, 2.709956e+003
6.970981e+002, 2.702416e+003
6.975802e+002, 2.693821e+003
6.980623e+002, 2.687729e+003
6.985444e+002, 2.684835e+003
6.990266e+002, 2.682529e+003
6.995087e+002, 2.679196e+003
6.999908e+002, 2.674888e+003
7.004729e+002, 2.669875e+003
7.009550e+002, 2.664282e+003
7.014371e+002, 2.657704e+003
7.019193e+002, 2.648232e+003
7.024014e+002, 2.639512e+003
7.028835e+002, 2.634688e+003
7.033656e+002, 2.632246e+003
7.038477e+002, 2.628839e+003
7.043298e+002, 2.623117e+003
7.048120e+002, 2.615608e+003
7.052941e+002, 2.605923e+003
7.057762e+002, 2.594856e+003
7.062583e+002, 2.586412e+003
7.067404e+002, 2.581249e+003
7.072225e+002, 2.577032e+003
7.077046e+002, 2.572802e+003
7.081867e+002, 2.568292e+003
7.086688e+002, 2.562647e+003
7.091509e+002, 2.555073e+003
7.096331e+002, 2.548417e+003
7.101152e+002, 2.543741e+003
7.105973e+002, 2.539098e+003
7.110794e+002, 2.533575e+003
7.115615e+002, 2.527189e+003
7.120436e+002, 2.519520e+003
7.125258e+002, 2.510455e+003
7.130079e+002, 2.502558e+003
7.134900e+002, 2.499791e+003
7.139721e+002, 2.501038e+003
7.144542e+002, 2.500210e+003
7.149363e+002, 2.497130e+003
7.154185e+002, 2.492011e+003
7.159006e+002, 2.484501e+003
7.163827e+002, 2.475515e+003
7.168648e+002, 2.465913e+003
7.173469e+002, 2.455128e+003
7.178290e+002, 2.447227e+003
7.183112e+002, 2.444826e+003
7.187933e+002, 2.442999e+003
7.192754e+002, 2.439449e+003
7.197575e+002, 2.434868e+003
7.202396e+002, 2.430334e+003
7.207217e+002, 2.426173e+003
7.212039e+002, 2.422184e+003
7.216860e+002, 2.418603e+003
7.221681e+002, 2.414935e+003
7.226502e+002, 2.408402e+003
7.231323e+002, 2.398303e+003
7.236144e+002, 2.391118e+003
7.240966e+002, 2.390035e+003
7.245787e+002, 2.391030e+003
7.250608e+002, 2.389607e+003
7.255429e+002, 2.385805e+003
7.260250e+002, 2.381878e+003
7.265071e+002, 2.377669e+003
7.269893e+002, 2.373697e+003
7.274714e+002, 2.369882e+003
7.279535e+002, 2.366563e+003
7.284356e+002, 2.364786e+003
7.289177e+002, 2.364179e+003
7.293998e+002, 2.362531e+003
7.298820e+002, 2.357881e+003
7.303641e+002, 2.351760e+003
7.308462e+002, 2.347852e+003
7.313283e+002, 2.346243e+003
7.318104e+002, 2.344156e+003
7.322925e+002, 2.340619e+003
7.327747e+002, 2.337538e+003
7.332568e+002, 2.337256e+003
7.337389e+002, 2.338853e+003
7.342210e+002, 2.337540e+003
7.347031e+002, 2.330077e+003
7.351852e+002, 2.324707e+003
7.356674e+002, 2.326089e+003
7.361495e+002, 2.327754e+003
7.366316e+002, 2.323225e+003
7.371137e+002, 2.314208e+003
7.375958e+002, 2.306921e+003
7.380779e+002, 2.304502e+003
7.385601e+002, 2.303947e+003
7.390422e+002, 2.300576e+003
7.395243e+002, 2.294771e+003
7.400064e+002, 2.290043e+003
7.404885e+002, 2.286680e+003
7.409706e+002, 2.284549e+003
7.414528e+002, 2.284213e+003
7.419349e+002, 2.284651e+003
7.424170e+002, 2.283487e+003
7.428991e+002, 2.280285e+003
7.433812e+002, 2.277218e+003
7.438633e+002, 2.274496e+003
7.443455e+002, 2.271934e+003
7.448276e+002, 2.269450e+003
7.453097e+002, 2.267073e+003
7.457918e+002, 2.264740e+003
7.462739e+002, 2.262494e+003
7.467560e+002, 2.260741e+003
7.472382e+002, 2.260791e+003
7.477203e+002, 2.261504e+003
7.482024e+002, 2.258420e+003
7.486845e+002, 2.251400e+003
7.491666e+002, 2.246632e+003
7.496487e+002, 2.246836e+003
7.501309e+002, 2.248422e+003
7.506130e+002, 2.246923e+003
7.510951e+002, 2.242069e+003
7.515772e+002, 2.239248e+003
7.520593e+002, 2.240025e+003
7.525414e+002, 2.240573e+003
7.530236e+002, 2.240315e+003
7.535057e+002, 2.239237e+003
7.539878e+002, 2.237223e+003
7.544699e+002, 2.234366e+003
7.549520e+002, 2.230895e+003
7.554341e+002, 2.226657e+003
7.559163e+002, 2.222379e+003
7.563984e+002, 2.219549e+003
7.568805e+002, 2.217648e+003
7.573626e+002, 2.213992e+003
7.578447e+002, 2.207981e+003
7.583268e+002, 2.202870e+003
7.588090e+002, 2.201250e+003
7.592911e+002, 2.202003e+003
7.597732e+002, 2.201322e+003
7.602553e+002, 2.198340e+003
7.607374e+002, 2.195559e+003
7.612195e+002, 2.192897e+003
7.617017e+002, 2.190598e+003
7.621838e+002, 2.188785e+003
7.626659e+002, 2.187453e+003
7.631480e+002, 2.186802e+003
7.636301e+002, 2.186946e+003
7.641122e+002, 2.186673e+003
7.645944e+002, 2.184462e+003
7.650765e+002, 2.181594e+003
7.655586e+002, 2.179936e+003
7.660407e+002, 2.179504e+003
7.665228e+002, 2.180246e+003
7.670049e+002, 2.182224e+003
7.674871e+002, 2.184094e+003
7.679692e+002, 2.183914e+003
7.684513e+002, 2.181541e+003
7.689334e+002, 2.180225e+003
7.694155e+002, 2.180290e+003
7.698976e+002, 2.180840e+003
7.703798e+002, 2.181987e+003
7.708619e+002, 2.183251e+003
7.713440e+002, 2.184186e+003
7.718261e+002, 2.184859e+003
7.723082e+002, 2.185720e+003
7.727903e+002, 2.186870e+003
7.732725e+002, 2.188336e+003
7.737546e+002, 2.190610e+003
7.742367e+002, 2.193016e+003
7.747188e+002, 2.194094e+003
7.752009e+002, 2.193977e+003
7.756830e+002, 2.194592e+003
7.761652e+002, 2.197329e+003
7.766473e+002, 2.201088e+003
7.771294e+002, 2.203212e+003
7.776115e+002, 2.203504e+003
7.780936e+002, 2.203594e+003
7.785757e+002, 2.203749e+003
7.790579e+002, 2.203384e+003
7.795400e+002, 2.200984e+003
7.800221e+002, 2.198401e+003
7.805042e+002, 2.199380e+003
7.809863e+002, 2.205201e+003
7.814684e+002, 2.208704e+003
7.819506e+002, 2.206346e+003
7.824327e+002, 2.202961e+003
7.829148e+002, 2.200527e+003
7.833969e+002, 2.199609e+003
7.838790e+002, 2.201348e+003
7.843611e+002, 2.205712e+003
7.848433e+002, 2.210469e+003
7.853254e+002, 2.213807e+003
7.858075e+002, 2.215813e+003
7.862896e+002, 2.216010e+003
7.867717e+002, 2.214340e+003
7.872538e+002, 2.214838e+003
7.877360e+002, 2.219135e+003
7.882181e+002, 2.223937e+003
7.887002e+002, 2.226147e+003
7.891823e+002, 2.226099e+003
7.896644e+002, 2.226549e+003
7.901465e+002, 2.229392e+003
7.906286e+002, 2.229999e+003
7.911107e+002, 2.225498e+003
7.915928e+002, 2.221007e+003
7.920750e+002, 2.220198e+003
7.925571e+002, 2.221928e+003
7.930392e+002, 2.223293e+003
7.935213e+002, 2.223239e+003
7.940034e+002, 2.222800e+003
7.944855e+002, 2.223476e+003
7.949677e+002, 2.224140e+003
7.954498e+002, 2.222052e+003
7.959319e+002, 2.217544e+003
7.964140e+002, 2.213958e+003
7.968961e+002, 2.212727e+003
7.973782e+002, 2.212229e+003
7.978604e+002, 2.210142e+003
7.983425e+002, 2.206344e+003
7.988246e+002, 2.203369e+003
7.993067e+002, 2.201332e+003
7.997888e+002, 2.199857e+003
8.002709e+002, 2.199644e+003
8.007531e+002, 2.199327e+003
8.012352e+002, 2.197780e+003
8.017173e+002, 2.195173e+003
8.021994e+002, 2.192483e+003
8.026815e+002, 2.189433e+003
8.031636e+002, 2.187135e+003
8.036458e+002, 2.185853e+003
8.041279e+002, 2.185879e+003
8.046100e+002, 2.188813e+003
8.050921e+002, 2.193552e+003
8.055742e+002, 2.196145e+003
8.060563e+002, 2.194354e+003
8.065385e+002, 2.190690e+003
8.070206e+002, 2.188965e+003
8.075027e+002, 2.189083e+003
8.079848e+002, 2.189986e+003
8.084669e+002, 2.191965e+003
8.089490e+002, 2.192913e+003
8.094312e+002, 2.191393e+003
8.099133e+002, 2.189047e+003
8.103954e+002, 2.188405e+003
8.108775e+002, 2.189807e+003
8.113596e+002, 2.190759e+003
8.118417e+002, 2.190273e+003
8.123239e+002, 2.190601e+003
8.128060e+002, 2.193441e+003
8.132881e+002, 2.196588e+003
8.137702e+002, 2.197511e+003
8.142523e+002, 2.196576e+003
8.147344e+002, 2.196335e+003
8.152166e+002, 2.198179e+003
8.156987e+002, 2.200940e+003
8.161808e+002, 2.203654e+003
8.166629e+002, 2.206285e+003
8.171450e+002, 2.208727e+003
8.176271e+002, 2.210978e+003
8.181093e+002, 2.213155e+003
8.185914e+002, 2.215300e+003
8.190735e+002, 2.217484e+003
8.195556e+002, 2.220021e+003
8.200377e+002, 2.223156e+003
8.205198e+002, 2.224972e+003
8.210020e+002, 2.225294e+003
8.214841e+002, 2.224542e+003
8.219662e+002, 2.221260e+003
8.224483e+002, 2.218109e+003
8.229304e+002, 2.218447e+003
8.234125e+002, 2.222177e+003
8.238947e+002, 2.225488e+003
8.243768e+002, 2.227866e+003
8.248589e+002, 2.229423e+003
8.253410e+002, 2.229783e+003
8.258231e+002, 2.229671e+003
8.263052e+002, 2.229828e+003
8.267874e+002, 2.230326e+003
8.272695e+002, 2.230934e+003
8.277516e+002, 2.231555e+003
8.282337e+002, 2.232112e+003
8.287158e+002, 2.232802e+003
8.291979e+002, 2.233360e+003
8.296801e+002, 2.232410e+003
8.301622e+002, 2.229828e+003
8.306443e+002, 2.227226e+003
8.311264e+002, 2.225476e+003
8.316085e+002, 2.223879e+003
8.320906e+002, 2.221200e+003
8.325728e+002, 2.217236e+003
8.330549e+002, 2.213637e+003
8.335370e+002, 2.210546e+003
8.340191e+002, 2.207626e+003
8.345012e+002, 2.205475e+003
8.349833e+002, 2.202941e+003
8.354655e+002, 2.198891e+003
8.359476e+002, 2.193523e+003
8.364297e+002, 2.187984e+003
8.369118e+002, 2.182562e+003
8.373939e+002, 2.177158e+003
8.378760e+002, 2.171663e+003
8.383582e+002, 2.166184e+003
8.388403e+002, 2.160923e+003
8.393224e+002, 2.155801e+003
8.398045e+002, 2.150470e+003
8.402866e+002, 2.144778e+003
8.407687e+002, 2.139061e+003
8.412509e+002, 2.133898e+003
8.417330e+002, 2.129187e+003
8.422151e+002, 2.124306e+003
8.426972e+002, 2.119241e+003
8.431793e+002, 2.114501e+003
8.436614e+002, 2.110381e+003
8.441436e+002, 2.106354e+003
8.446257e+002, 2.101473e+003
8.451078e+002, 2.095795e+003
8.455899e+002, 2.092855e+003
8.460720e+002, 2.096643e+003
8.465541e+002, 2.097259e+003
8.470363e+002, 2.091831e+003
8.475184e+002, 2.084954e+003
8.480005e+002, 2.078423e+003
8.484826e+002, 2.072844e+003
8.489647e+002, 2.069319e+003
8.494468e+002, 2.068584e+003
8.499290e+002, 2.067858e+003
8.504111e+002, 2.066210e+003
8.508932e+002, 2.063384e+003
8.513753e+002, 2.058279e+003
8.518574e+002, 2.051938e+003
8.523395e+002, 2.046656e+003
8.528217e+002, 2.043158e+003
8.533038e+002, 2.040557e+003
8.537859e+002, 2.038082e+003
8.542680e+002, 2.035840e+003
8.547501e+002, 2.034576e+003
8.552322e+002, 2.034293e+003
8.557144e+002, 2.032466e+003
8.561965e+002, 2.028274e+003
8.566786e+002, 2.023928e+003
8.571607e+002, 2.021126e+003
8.576428e+002, 2.019401e+003
8.581249e+002, 2.017199e+003
8.586071e+002, 2.013869e+003
8.590892e+002, 2.011467e+003
8.595713e+002, 2.009964e+003
8.600534e+002, 2.009360e+003
8.605355e+002, 2.010644e+003
8.610176e+002, 2.012250e+003
8.614998e+002, 2.012400e+003
8.619819e+002, 2.010885e+003
8.624640e+002, 2.008408e+003
8.629461e+002, 2.003894e+003
8.634282e+002, 1.999936e+003
8.639103e+002, 1.999130e+003
8.643925e+002, 1.999560e+003
8.648746e+002, 1.998380e+003
8.653567e+002, 1.995553e+003
8.658388e+002, 1.992858e+003
8.663209e+002, 1.991300e+003
8.668030e+002, 1.990614e+003
8.672852e+002, 1.991323e+003
8.677673e+002, 1.992756e+003
8.682494e+002, 1.990313e+003
8.687315e+002, 1.983570e+003
8.692136e+002, 1.978906e+003
8.696957e+002, 1.979182e+003
8.701779e+002, 1.981979e+003
8.706600e+002, 1.984575e+003
8.711421e+002, 1.987004e+003
8.716242e+002, 1.986047e+003
8.721063e+002, 1.978869e+003
8.725884e+002, 1.973292e+003
8.730705e+002, 1.971329e+003
8.735526e+002, 1.970684e+003
8.740347e+002, 1.970373e+003
8.745168e+002, 1.970296e+003
8.749990e+002, 1.970369e+003
8.754811e+002, 1.970730e+003
8.759632e+002, 1.970765e+003
8.764453e+002, 1.970502e+003
8.769274e+002, 1.969605e+003
8.774095e+002, 1.967031e+003
8.778917e+002, 1.963951e+003
8.783738e+002, 1.962413e+003
8.788559e+002, 1.962787e+003
8.793380e+002, 1.963681e+003
8.798201e+002, 1.964086e+003
8.803022e+002, 1.964307e+003
8.807844e+002, 1.965032e+003
8.812665e+002, 1.966021e+003
8.817486e+002, 1.966469e+003
8.822307e+002, 1.966232e+003
8.827128e+002, 1.965048e+003
8.831949e+002, 1.962564e+003
8.836771e+002, 1.959829e+003
8.841592e+002, 1.959406e+003
8.846413e+002, 1.961864e+003
8.851234e+002, 1.961998e+003
8.856055e+002, 1.958367e+003
8.860876e+002, 1.955996e+003
8.865698e+002, 1.957414e+003
8.870519e+002, 1.960002e+003
8.875340e+002, 1.960780e+003
8.880161e+002, 1.959877e+003
8.884982e+002, 1.959444e+003
8.889803e+002, 1.959767e+003
8.894625e+002, 1.960238e+003
8.899446e+002, 1.961481e+003
8.904267e+002, 1.962166e+003
8.909088e+002, 1.960859e+003
8.913909e+002, 1.958456e+003
8.918730e+002, 1.956584e+003
8.923552e+002, 1.955657e+003
8.928373e+002, 1.955881e+003
8.933194e+002, 1.958862e+003
8.938015e+002, 1.961840e+003
8.942836e+002, 1.961533e+003
8.947657e+002, 1.959026e+003
8.952479e+002, 1.956143e+003
8.957300e+002, 1.953615e+003
8.962121e+002, 1.952588e+003
8.966942e+002, 1.954116e+003
8.971763e+002, 1.956970e+003
8.976584e+002, 1.958713e+003
8.981406e+002, 1.959436e+003
8.986227e+002, 1.960235e+003
8.991048e+002, 1.961215e+003
8.995869e+002, 1.961771e+003
9.000690e+002, 1.961228e+003
9.005511e+002, 1.961337e+003
9.010333e+002, 1.965399e+003
9.015154e+002, 1.973810e+003
9.019975e+002, 1.976891e+003
9.024796e+002, 1.971380e+003
9.029617e+002, 1.966594e+003
9.034438e+002, 1.963594e+003
9.039260e+002, 1.962529e+003
9.044081e+002, 1.964862e+003
9.048902e+002, 1.969032e+003
9.053723e+002, 1.970823e+003
9.058544e+002, 1.968734e+003
9.063365e+002, 1.967300e+003
9.068187e+002, 1.968018e+003
9.073008e+002, 1.969272e+003
9.077829e+002, 1.970567e+003
9.082650e+002, 1.971536e+003
9.087471e+002, 1.971474e+003
9.092292e+002, 1.970494e+003
9.097114e+002, 1.969948e+003
9.101935e+002, 1.970757e+003
9.106756e+002, 1.972109e+003
9.111577e+002, 1.973702e+003
9.116398e+002, 1.975032e+003
9.121219e+002, 1.974720e+003
9.126041e+002, 1.973079e+003
9.130862e+002, 1.972162e+003
9.135683e+002, 1.972949e+003
9.140504e+002, 1.974157e+003
9.145325e+002, 1.973621e+003
9.150146e+002, 1.971965e+003
9.154968e+002, 1.973468e+003
9.159789e+002, 1.978322e+003
9.164610e+002, 1.980907e+003
9.169431e+002, 1.979452e+003
9.174252e+002, 1.977161e+003
9.179073e+002, 1.976487e+003
9.183895e+002, 1.977236e+003
9.188716e+002, 1.978776e+003
9.193537e+002, 1.981574e+003
9.198358e+002, 1.983961e+003
9.203179e+002, 1.985766e+003
9.208000e+002, 1.987355e+003
9.212822e+002, 1.989323e+003
9.217643e+002, 1.990807e+003
9.222464e+002, 1.990236e+003
9.227285e+002, 1.987737e+003
9.232106e+002, 1.986783e+003
9.236927e+002, 1.989682e+003
9.241749e+002, 1.991679e+003
9.246570e+002, 1.990360e+003
9.251391e+002, 1.988614e+003
9.256212e+002, 1.988335e+003
9.261033e+002, 1.989546e+003
9.265854e+002, 1.992425e+003
9.270676e+002, 1.997119e+003
9.275497e+002, 2.000440e+003
9.280318e+002, 1.998907e+003
9.285139e+002, 1.996238e+003
9.289960e+002, 1.996393e+003
9.294781e+002, 1.998193e+003
9.299603e+002, 1.999031e+003
9.304424e+002, 1.998680e+003
9.309245e+002, 1.998899e+003
9.314066e+002, 2.000900e+003
9.318887e+002, 2.003514e+003
9.323708e+002, 2.005213e+003
9.328530e+002, 2.005932e+003
9.333351e+002, 2.004828e+003
9.338172e+002, 2.002021e+003
9.342993e+002, 2.000150e+003
9.347814e+002, 2.000163e+003
9.352635e+002, 2.001797e+003
9.357457e+002, 2.004981e+003
9.362278e+002, 2.009396e+003
9.367099e+002, 2.013426e+003
9.371920e+002, 2.017423e+003
9.376741e+002, 2.019147e+003
9.381563e+002, 2.017055e+003
9.386384e+002, 2.015612e+003
9.391205e+002, 2.018005e+003
9.396026e+002, 2.021940e+003
9.400847e+002, 2.023095e+003
9.405668e+002, 2.020757e+003
9.410490e+002, 2.019876e+003
9.415311e+002, 2.021967e+003
9.420132e+002, 2.023411e+003
9.424953e+002, 2.023142e+003
9.429774e+002, 2.022378e+003
9.434595e+002, 2.021426e+003
9.439417e+002, 2.020792e+003
9.444238e+002, 2.021852e+003
9.449059e+002, 2.025541e+003
9.453880e+002, 2.028369e+003
9.458701e+002, 2.028628e+003
9.463522e+002, 2.028154e+003
9.468344e+002, 2.027357e+003
9.473165e+002, 2.027024e+003
9.477986e+002, 2.028436e+003
9.482807e+002, 2.031423e+003
9.487628e+002, 2.034364e+003
9.492449e+002, 2.036474e+003
9.497271e+002, 2.038039e+003
9.502092e+002, 2.039228e+003
9.506913e+002, 2.040118e+003
9.511734e+002, 2.040302e+003
9.516555e+002, 2.040304e+003
9.521376e+002, 2.041974e+003
9.526198e+002, 2.045814e+003
9.531019e+002, 2.050011e+003
9.535840e+002, 2.052978e+003
9.540661e+002, 2.054906e+003
9.545482e+002, 2.056063e+003
9.550303e+002, 2.056554e+003
9.555124e+002, 2.057041e+003
9.559945e+002, 2.057616e+003
9.564766e+002, 2.058255e+003
9.569587e+002, 2.058860e+003
9.574409e+002, 2.060015e+003
9.579230e+002, 2.062925e+003
9.584051e+002, 2.067549e+003
9.588872e+002, 2.070541e+003
9.593693e+002, 2.071823e+003
9.598514e+002, 2.071557e+003
9.603336e+002, 2.068881e+003
9.608157e+002, 2.066723e+003
9.612978e+002, 2.067363e+003
9.617799e+002, 2.070118e+003
9.622620e+002, 2.073279e+003
9.627441e+002, 2.077691e+003
9.632263e+002, 2.079876e+003
9.637084e+002, 2.077698e+003
9.641905e+002, 2.076193e+003
9.646726e+002, 2.076994e+003
9.651547e+002, 2.078756e+003
9.656368e+002, 2.081065e+003
9.661190e+002, 2.083452e+003
9.666011e+002, 2.083932e+003
9.670832e+002, 2.081190e+003
9.675653e+002, 2.078730e+003
9.680474e+002, 2.076683e+003
9.685295e+002, 2.075773e+003
9.690117e+002, 2.077495e+003
9.694938e+002, 2.080003e+003
9.699759e+002, 2.080540e+003
9.704580e+002, 2.079079e+003
9.709401e+002, 2.078409e+003
9.714222e+002, 2.080757e+003
9.719044e+002, 2.082575e+003
9.723865e+002, 2.080771e+003
9.728686e+002, 2.077984e+003
9.733507e+002, 2.077161e+003
9.738328e+002, 2.077723e+003
9.743149e+002, 2.077827e+003
9.747971e+002, 2.076921e+003
9.752792e+002, 2.075677e+003
9.757613e+002, 2.074707e+003
9.762434e+002, 2.073604e+003
9.767255e+002, 2.071252e+003
9.772076e+002, 2.068538e+003
9.776898e+002, 2.067769e+003
9.781719e+002, 2.068756e+003
9.786540e+002, 2.069118e+003
9.791361e+002, 2.067725e+003
9.796182e+002, 2.065943e+003
9.801003e+002, 2.065686e+003
9.805825e+002, 2.066330e+003
9.810646e+002, 2.065883e+003
9.815467e+002, 2.064395e+003
9.820288e+002, 2.061791e+003
9.825109e+002, 2.058079e+003
9.829930e+002, 2.055368e+003
9.834752e+002, 2.055137e+003
9.839573e+002, 2.056325e+003
9.844394e+002, 2.057084e+003
9.849215e+002, 2.057419e+003
9.854036e+002, 2.056934e+003
9.858857e+002, 2.055416e+003
9.863679e+002, 2.054507e+003
9.868500e+002, 2.054954e+003
9.873321e+002, 2.055009e+003
9.878142e+002, 2.052987e+003
9.882963e+002, 2.049727e+003
9.887784e+002, 2.048016e+003
9.892606e+002, 2.048654e+003
9.897427e+002, 2.047880e+003
9.902248e+002, 2.044558e+003
9.907069e+002, 2.042005e+003
9.911890e+002, 2.041560e+003
9.916711e+002, 2.041936e+003
9.921533e+002, 2.041922e+003
9.926354e+002, 2.041642e+003
9.931175e+002, 2.041849e+003
9.935996e+002, 2.043377e+003
9.940817e+002, 2.043904e+003
9.945638e+002, 2.043140e+003
9.950460e+002, 2.041690e+003
9.955281e+002, 2.038922e+003
9.960102e+002, 2.036195e+003
9.964923e+002, 2.035410e+003
9.969744e+002, 2.036261e+003
9.974565e+002, 2.036002e+003
9.979387e+002, 2.033261e+003
9.984208e+002, 2.030813e+003
9.989029e+002, 2.030200e+003
9.993850e+002, 2.029200e+003
9.998671e+002, 2.026004e+003
1.000349e+003, 2.021767e+003
1.000831e+003, 2.018152e+003
1.001313e+003, 2.015377e+003
1.001796e+003, 2.012793e+003
1.002278e+003, 2.009877e+003
1.002760e+003, 2.007505e+003
1.003242e+003, 2.006672e+003
1.003724e+003, 2.006158e+003
1.004206e+003, 2.004768e+003
1.004688e+003, 2.002807e+003
1.005170e+003, 2.000891e+003
1.005653e+003, 1.999240e+003
1.006135e+003, 1.998140e+003
1.006617e+003, 1.997976e+003
1.007099e+003, 1.998151e+003
1.007581e+003, 1.998353e+003
1.008063e+003, 1.998382e+003
1.008545e+003, 1.997630e+003
1.009027e+003, 1.996468e+003
1.009509e+003, 1.996196e+003
1.009992e+003, 1.997178e+003
1.010474e+003, 1.997975e+003
1.010956e+003, 1.997316e+003
1.011438e+003, 1.995751e+003
1.011920e+003, 1.993574e+003
1.012402e+003, 1.991299e+003
1.012884e+003, 1.990076e+003
1.013366e+003, 1.989995e+003
1.013849e+003, 1.990930e+003
1.014331e+003, 1.992791e+003
1.014813e+003, 1.994465e+003
1.015295e+003, 1.994554e+003
1.015777e+003, 1.993647e+003
1.016259e+003, 1.992929e+003
1.016741e+003, 1.992514e+003
1.017223e+003, 1.993379e+003
1.017705e+003, 1.995473e+003
1.018188e+003, 1.996523e+003
1.018670e+003, 1.995293e+003
1.019152e+003, 1.993615e+003
1.019634e+003, 1.994153e+003
1.020116e+003, 1.996382e+003
1.020598e+003, 1.997706e+003
1.021080e+003, 1.998156e+003
1.021562e+003, 1.998835e+003
1.022044e+003, 1.999971e+003
1.022527e+003, 2.000341e+003
1.023009e+003, 1.998949e+003
1.023491e+003, 1.997913e+003
1.023973e+003, 2.001305e+003
1.024455e+003, 2.008663e+003
1.024937e+003, 2.011624e+003
1.025419e+003, 2.009532e+003
1.025901e+003, 2.008908e+003
1.026384e+003, 2.011509e+003
1.026866e+003, 2.012961e+003
1.027348e+003, 2.010013e+003
1.027830e+003, 2.005401e+003
1.028312e+003, 2.004177e+003
1.028794e+003, 2.006446e+003
1.029276e+003, 2.009839e+003
1.029758e+003, 2.015170e+003
1.030240e+003, 2.018699e+003
1.030723e+003, 2.019173e+003
1.031205e+003, 2.018976e+003
1.031687e+003, 2.019227e+003
1.032169e+003, 2.020313e+003
1.032651e+003, 2.023249e+003
1.033133e+003, 2.028381e+003
1.033615e+003, 2.032240e+003
1.034097e+003, 2.033866e+003
1.034579e+003, 2.036406e+003
1.035062e+003, 2.041731e+003
1.035544e+003, 2.046006e+003
1.036026e+003, 2.045210e+003
1.036508e+003, 2.042510e+003
1.036990e+003, 2.045402e+003
1.037472e+003, 2.055894e+003
1.037954e+003, 2.060523e+003
1.038436e+003, 2.055057e+003
1.038919e+003, 2.050441e+003
1.039401e+003, 2.048311e+003
1.039883e+003, 2.047831e+003
1.040365e+003, 2.049006e+003
1.040847e+003, 2.051324e+003
1.041329e+003, 2.053968e+003
1.041811e+003, 2.057322e+003
1.042293e+003, 2.059114e+003
1.042776e+003, 2.057594e+003
1.043258e+003, 2.056969e+003
1.043740e+003, 2.058942e+003
1.044222e+003, 2.061141e+003
1.044704e+003, 2.061809e+003
1.045186e+003, 2.061697e+003
1.045668e+003, 2.062488e+003
1.046150e+003, 2.064537e+003
1.046632e+003, 2.065656e+003
1.047115e+003, 2.064118e+003
1.047597e+003, 2.063683e+003
1.048079e+003, 2.066331e+003
1.048561e+003, 2.069320e+003
1.049043e+003, 2.071032e+003
1.049525e+003, 2.071623e+003
1.050007e+003, 2.071254e+003
1.050489e+003, 2.069772e+003
1.050971e+003, 2.069373e+003
1.051454e+003, 2.071226e+003
1.051936e+003, 2.073188e+003
1.052418e+003, 2.076278e+003
1.052900e+003, 2.077652e+003
1.053382e+003, 2.073002e+003
1.053864e+003, 2.066055e+003
1.054346e+003, 2.064166e+003
1.054828e+003, 2.068493e+003
1.055311e+003, 2.071849e+003
1.055793e+003, 2.071183e+003
1.056275e+003, 2.070828e+003
1.056757e+003, 2.073288e+003
1.057239e+003, 2.075614e+003
1.057721e+003, 2.074776e+003
1.058203e+003, 2.072560e+003
1.058685e+003, 2.072510e+003
1.059167e+003, 2.075120e+003
1.059650e+003, 2.077134e+003
1.060132e+003, 2.077444e+003
1.060614e+003, 2.077044e+003
1.061096e+003, 2.074971e+003
1.061578e+003, 2.073627e+003
1.062060e+003, 2.076086e+003
1.062542e+003, 2.079962e+003
1.063024e+003, 2.080792e+003
1.063506e+003, 2.078124e+003
1.063989e+003, 2.076236e+003
1.064471e+003, 2.076847e+003
1.064953e+003, 2.078245e+003
1.065435e+003, 2.080761e+003
1.065917e+003, 2.082757e+003
1.066399e+003, 2.082706e+003
1.066881e+003, 2.081425e+003
1.067363e+003, 2.080086e+003
1.067846e+003, 2.078945e+003
1.068328e+003, 2.078051e+003
1.068810e+003, 2.077182e+003
1.069292e+003, 2.077005e+003
1.069774e+003, 2.077438e+003
1.070256e+003, 2.079085e+003
1.070738e+003, 2.084721e+003
1.071220e+003, 2.090562e+003
1.071703e+003, 2.090210e+003
1.072185e+003, 2.084056e+003
1.072667e+003, 2.079706e+003
1.073149e+003, 2.080460e+003
1.073631e+003, 2.082199e+003
1.074113e+003, 2.083987e+003
1.074595e+003, 2.085036e+003
1.075077e+003, 2.083900e+003
1.075559e+003, 2.082222e+003
1.076042e+003, 2.082217e+003
1.076524e+003, 2.083883e+003
1.077006e+003, 2.085795e+003
1.077488e+003, 2.087690e+003
1.077970e+003, 2.089080e+003
1.078452e+003, 2.089382e+003
1.078934e+003, 2.089511e+003
1.079416e+003, 2.090328e+003
1.079898e+003, 2.091171e+003
1.080380e+003, 2.090916e+003
1.080863e+003, 2.089914e+003
1.081345e+003, 2.089801e+003
1.081827e+003, 2.091372e+003
1.082309e+003, 2.092347e+003
1.082791e+003, 2.089596e+003
1.083273e+003, 2.088368e+003
1.083755e+003, 2.094460e+003
1.084237e+003, 2.101721e+003
1.084720e+003, 2.102531e+003
1.085202e+003, 2.098778e+003
1.085684e+003, 2.097524e+003
1.086166e+003, 2.100917e+003
1.086648e+003, 2.103526e+003
1.087130e+003, 2.102208e+003
1.087612e+003, 2.100570e+003
1.088094e+003, 2.099963e+003
1.088577e+003, 2.100338e+003
1.089059e+003, 2.101956e+003
1.089541e+003, 2.104363e+003
1.090023e+003, 2.107247e+003
1.090505e+003, 2.110575e+003
1.090987e+003, 2.111493e+003
1.091469e+003, 2.106375e+003
1.091951e+003, 2.102093e+003
1.092433e+003, 2.101599e+003
1.092916e+003, 2.103096e+003
1.093398e+003, 2.106486e+003
1.093880e+003, 2.110260e+003
1.094362e+003, 2.111892e+003
1.094844e+003, 2.111207e+003
1.095326e+003, 2.111041e+003
1.095808e+003, 2.112947e+003
1.096290e+003, 2.114523e+003
1.096772e+003, 2.114384e+003
1.097255e+003, 2.114316e+003
1.097737e+003, 2.115174e+003
1.098219e+003, 2.116966e+003
1.098701e+003, 2.120155e+003
1.099183e+003, 2.124366e+003
1.099665e+003, 2.127362e+003
1.100147e+003, 2.127831e+003
1.100629e+003, 2.128692e+003
1.101112e+003, 2.131251e+003
1.101594e+003, 2.133670e+003
1.102076e+003, 2.134609e+003
1.102558e+003, 2.135275e+003
1.103040e+003, 2.136902e+003
1.103522e+003, 2.139421e+003
1.104004e+003, 2.142295e+003
1.104486e+003, 2.145691e+003
1.104969e+003, 2.148657e+003
1.105451e+003, 2.150394e+003
1.105933e+003, 2.152489e+003
1.106415e+003, 2.155740e+003
1.106897e+003, 2.159347e+003
1.107379e+003, 2.163419e+003
1.107861e+003, 2.167177e+003
1.108343e+003, 2.168333e+003
1.108825e+003, 2.165880e+003
1.109307e+003, 2.165758e+003
1.109790e+003, 2.169797e+003
1.110272e+003, 2.174332e+003
1.110754e+003, 2.179242e+003
1.111236e+003, 2.183795e+003
1.111718e+003, 2.187719e+003
1.112200e+003, 2.190967e+003
1.112682e+003, 2.193086e+003
1.113164e+003, 2.193967e+003
1.113647e+003, 2.196191e+003
1.114129e+003, 2.202035e+003
1.114611e+003, 2.205391e+003
1.115093e+003, 2.203151e+003
1.115575e+003, 2.202098e+003
1.116057e+003, 2.206086e+003
1.116539e+003, 2.211788e+003
1.117021e+003, 2.215390e+003
1.117504e+003, 2.217201e+003
1.117986e+003, 2.219387e+003
1.118468e+003, 2.221105e+003
1.118950e+003, 2.225398e+003
1.119432e+003, 2.234553e+003
1.119914e+003, 2.241556e+003
1.120396e+003, 2.243107e+003
1.120878e+003, 2.243602e+003
1.121360e+003, 2.246722e+003
1.121843e+003, 2.251771e+003
1.122325e+003, 2.256901e+003
1.122807e+003, 2.262457e+003
1.123289e+003, 2.265704e+003
1.123771e+003, 2.265583e+003
1.124253e+003, 2.266867e+003
1.124735e+003, 2.270740e+003
1.125217e+003, 2.275833e+003
1.125699e+003, 2.281642e+003
1.126182e+003, 2.287386e+003
1.126664e+003, 2.291624e+003
1.127146e+003, 2.294429e+003
1.127628e+003, 2.297004e+003
1.128110e+003, 2.299228e+003
1.128592e+003, 2.302177e+003
1.129074e+003, 2.306014e+003
1.129556e+003, 2.310039e+003
1.130039e+003, 2.313782e+003
1.130521e+003, 2.318470e+003
1.131003e+003, 2.325932e+003
1.131485e+003, 2.334794e+003
1.131967e+003, 2.339654e+003
1.132449e+003, 2.340800e+003
1.132931e+003, 2.343635e+003
1.133413e+003, 2.348437e+003
1.133896e+003, 2.352177e+003
1.134378e+003, 2.353941e+003
1.134860e+003, 2.356670e+003
1.135342e+003, 2.362805e+003
1.135824e+003, 2.370453e+003
1.136306e+003, 2.376548e+003
1.136788e+003, 2.381179e+003
1.137270e+003, 2.384254e+003
1.137752e+003, 2.386128e+003
1.138234e+003, 2.388378e+003
1.138717e+003, 2.391295e+003
1.139199e+003, 2.394386e+003
1.139681e+003, 2.397415e+003
1.140163e+003, 2.400986e+003
1.140645e+003, 2.406285e+003
1.141127e+003, 2.412173e+003
1.141609e+003, 2.416558e+003
1.142091e+003, 2.419935e+003
1.142574e+003, 2.423057e+003
1.143056e+003, 2.426231e+003
1.143538e+003, 2.430455e+003
1.144020e+003, 2.435771e+003
1.144502e+003, 2.439885e+003
1.144984e+003, 2.440876e+003
1.145466e+003, 2.440751e+003
1.145948e+003, 2.440869e+003
1.146431e+003, 2.441687e+003
1.146913e+003, 2.443776e+003
1.147395e+003, 2.447001e+003
1.147877e+003, 2.451610e+003
1.148359e+003, 2.457108e+003
1.148841e+003, 2.461860e+003
1.149323e+003, 2.465352e+003
1.149805e+003, 2.467016e+003
1.150287e+003, 2.464718e+003
1.150770e+003, 2.462478e+003
1.151252e+003, 2.463107e+003
1.151734e+003, 2.465400e+003
1.152216e+003, 2.469305e+003
1.152698e+003, 2.473318e+003
1.153180e+003, 2.473614e+003
1.153662e+003, 2.469441e+003
1.154144e+003, 2.468345e+003
1.154626e+003, 2.476161e+003
1.155109e+003, 2.482771e+003
1.155591e+003, 2.483874e+003
1.156073e+003, 2.483847e+003
1.156555e+003, 2.486082e+003
1.157037e+003, 2.488388e+003
1.157519e+003, 2.486524e+003
1.158001e+003, 2.481361e+003
1.158483e+003, 2.480267e+003
1.158966e+003, 2.486286e+003
1.159448e+003, 2.491294e+003
1.159930e+003, 2.495806e+003
1.160412e+003, 2.497803e+003
1.160894e+003, 2.494637e+003
1.161376e+003, 2.491183e+003
1.161858e+003, 2.491210e+003
1.162340e+003, 2.493374e+003
1.162822e+003, 2.494799e+003
1.163305e+003, 2.495419e+003
1.163787e+003, 2.495955e+003
1.164269e+003, 2.496168e+003
1.164751e+003, 2.497050e+003
1.165233e+003, 2.498963e+003
1.165715e+003, 2.500972e+003
1.166197e+003, 2.502921e+003
1.166679e+003, 2.503927e+003
1.167161e+003, 2.502582e+003
1.167644e+003, 2.499795e+003
1.168126e+003, 2.499092e+003
1.168608e+003, 2.500461e+003
1.169090e+003, 2.505459e+003
1.169572e+003, 2.514356e+003
1.170054e+003, 2.517290e+003
1.170536e+003, 2.511416e+003
1.171018e+003, 2.506057e+003
1.171500e+003, 2.507802e+003
1.171983e+003, 2.512425e+003
1.172465e+003, 2.513324e+003
1.172947e+003, 2.511487e+003
1.173429e+003, 2.509907e+003
1.173911e+003, 2.508544e+003
1.174393e+003, 2.506876e+003
1.174875e+003, 2.505159e+003
1.175357e+003, 2.505173e+003
1.175840e+003, 2.507448e+003
1.176322e+003, 2.509747e+003
1.176804e+003, 2.510267e+003
1.177286e+003, 2.509830e+003
1.177768e+003, 2.508699e+003
1.178250e+003, 2.507823e+003
1.178732e+003, 2.508532e+003
1.179214e+003, 2.510615e+003
1.179697e+003, 2.514354e+003
1.180179e+003, 2.518934e+003
1.180661e+003, 2.521337e+003
1.181143e+003, 2.520160e+003
1.181625e+003, 2.517985e+003
1.182107e+003, 2.514781e+003
1.182589e+003, 2.513010e+003
1.183071e+003, 2.515766e+003
1.183553e+003, 2.519400e+003
1.184036e+003, 2.520687e+003
1.184518e+003, 2.520065e+003
1.185000e+003, 2.518199e+003
1.185482e+003, 2.515413e+003
1.185964e+003, 2.514811e+003
1.186446e+003, 2.519066e+003
1.186928e+003, 2.522375e+003
1.187410e+003, 2.523672e+003
1.187892e+003, 2.524006e+003
1.188375e+003, 2.523175e+003
1.188857e+003, 2.522151e+003
1.189339e+003, 2.521537e+003
1.189821e+003, 2.521518e+003
1.190303e+003, 2.522845e+003
1.190785e+003, 2.526013e+003
1.191267e+003, 2.527524e+003
1.191749e+003, 2.526568e+003
1.192232e+003, 2.526169e+003
1.192714e+003, 2.526735e+003
1.193196e+003, 2.528270e+003
1.193678e+003, 2.531234e+003
1.194160e+003, 2.533626e+003
1.194642e+003, 2.532478e+003
1.195124e+003, 2.529302e+003
1.195606e+003, 2.530964e+003
1.196089e+003, 2.537156e+003
1.196571e+003, 2.539345e+003
1.197053e+003, 2.537352e+003
1.197535e+003, 2.536115e+003
1.198017e+003, 2.536876e+003
1.198499e+003, 2.538598e+003
1.198981e+003, 2.540654e+003
1.199463e+003, 2.543165e+003
1.199945e+003, 2.547068e+003
1.200427e+003, 2.550933e+003
1.200910e+003, 2.551456e+003
1.201392e+003, 2.549899e+003
1.201874e+003, 2.548430e+003
1.202356e+003, 2.547627e+003
1.202838e+003, 2.548297e+003
1.203320e+003, 2.550497e+003
1.203802e+003, 2.553135e+003
1.204284e+003, 2.555873e+003
1.204767e+003, 2.557955e+003
1.205249e+003, 2.558126e+003
1.205731e+003, 2.558127e+003
1.206213e+003, 2.559464e+003
1.206695e+003, 2.561425e+003
1.207177e+003, 2.562892e+003
1.207659e+003, 2.564207e+003
1.208141e+003, 2.566874e+003
1.208624e+003, 2.571331e+003
1.209106e+003, 2.574347e+003
1.209588e+003, 2.572711e+003
1.210070e+003, 2.573203e+003
1.210552e+003, 2.579894e+003
1.211034e+003, 2.585881e+003
1.211516e+003, 2.586712e+003
1.211998e+003, 2.586036e+003
1.212480e+003, 2.587382e+003
1.212963e+003, 2.590260e+003
1.213445e+003, 2.592966e+003
1.213927e+003, 2.595704e+003
1.214409e+003, 2.596800e+003
1.214891e+003, 2.595457e+003
1.215373e+003, 2.595802e+003
1.215855e+003, 2.599021e+003
1.216337e+003, 2.601718e+003
1.216819e+003, 2.601810e+003
1.217302e+003, 2.602232e+003
1.217784e+003, 2.606986e+003
1.218266e+003, 2.614264e+003
1.218748e+003, 2.618327e+003
1.219230e+003, 2.619770e+003
1.219712e+003, 2.621067e+003
1.220194e+003, 2.622577e+003
1.220676e+003, 2.625399e+003
1.221159e+003, 2.629511e+003
1.221641e+003, 2.632843e+003
1.222123e+003, 2.634241e+003
1.222605e+003, 2.635814e+003
1.223087e+003, 2.639941e+003
1.223569e+003, 2.645076e+003
1.224051e+003, 2.649103e+003
1.224533e+003, 2.653283e+003
1.225016e+003, 2.659685e+003
1.225498e+003, 2.667295e+003
1.225980e+003, 2.673507e+003
1.226462e+003, 2.678265e+003
1.226944e+003, 2.684874e+003
1.227426e+003, 2.696089e+003
1.227908e+003, 2.704148e+003
1.228390e+003, 2.702350e+003
1.228872e+003, 2.702069e+003
1.229354e+003, 2.711017e+003
1.229837e+003, 2.720440e+003
1.230319e+003, 2.721899e+003
1.230801e+003, 2.719880e+003
1.231283e+003, 2.722918e+003
1.231765e+003, 2.730859e+003
1.232247e+003, 2.737233e+003
1.232729e+003, 2.741236e+003
1.233211e+003, 2.746287e+003
1.233694e+003, 2.752862e+003
1.234176e+003, 2.759521e+003
1.234658e+003, 2.765946e+003
1.235140e+003, 2.772072e+003
1.235622e+003, 2.778012e+003
1.236104e+003, 2.783051e+003
1.236586e+003, 2.785558e+003
1.237068e+003, 2.786310e+003
1.237551e+003, 2.788236e+003
1.238033e+003, 2.791410e+003
1.238515e+003, 2.796968e+003
1.238997e+003, 2.804316e+003
1.239479e+003, 2.810370e+003
1.239961e+003, 2.814356e+003
1.240443e+003, 2.817854e+003
1.240925e+003, 2.821630e+003
1.241407e+003, 2.826535e+003
1.241890e+003, 2.835470e+003
1.242372e+003, 2.843773e+003
1.242854e+003, 2.845861e+003
1.243336e+003, 2.845492e+003
1.243818e+003, 2.846546e+003
1.244300e+003, 2.849402e+003
1.244782e+003, 2.854379e+003
1.245264e+003, 2.861216e+003
1.245746e+003, 2.866155e+003
1.246229e+003, 2.866573e+003
1.246711e+003, 2.868073e+003
1.247193e+003, 2.872151e+003
1.247675e+003, 2.876713e+003
1.248157e+003, 2.881316e+003
1.248639e+003, 2.885878e+003
1.249121e+003, 2.890857e+003
1.249603e+003, 2.895195e+003
1.250085e+003, 2.896601e+003
1.250568e+003, 2.895337e+003
1.251050e+003, 2.896243e+003
1.251532e+003, 2.899418e+003
1.252014e+003, 2.904067e+003
1.252496e+003, 2.910245e+003
1.252978e+003, 2.914160e+003
1.253460e+003, 2.914687e+003
1.253942e+003, 2.915589e+003
1.254425e+003, 2.919499e+003
1.254907e+003, 2.924478e+003
1.255389e+003, 2.928469e+003
1.255871e+003, 2.931147e+003
1.256353e+003, 2.930977e+003
1.256835e+003, 2.929519e+003
1.257317e+003, 2.929419e+003
1.257799e+003, 2.930717e+003
1.258281e+003, 2.932698e+003
1.258764e+003, 2.935234e+003
1.259246e+003, 2.938878e+003
1.259728e+003, 2.944388e+003
1.260210e+003, 2.949023e+003
1.260692e+003, 2.950716e+003
1.261174e+003, 2.952294e+003
1.261656e+003, 2.955489e+003
1.262138e+003, 2.958697e+003
1.262620e+003, 2.959716e+003
1.263103e+003, 2.960483e+003
1.263585e+003, 2.965052e+003
1.264067e+003, 2.972615e+003
1.264549e+003, 2.975844e+003
1.265031e+003, 2.972676e+003
1.265513e+003, 2.972082e+003
1.265995e+003, 2.974346e+003
1.266477e+003, 2.978069e+003
1.266960e+003, 2.983010e+003
1.267442e+003, 2.989355e+003
1.267924e+003, 2.997528e+003
1.268406e+003, 3.004061e+003
1.268888e+003, 3.003834e+003
1.269370e+003, 3.001024e+003
1.269852e+003, 3.007405e+003
1.270334e+003, 3.018043e+003
1.270817e+003, 3.018918e+003
1.271299e+003, 3.013429e+003
1.271781e+003, 3.012647e+003
1.272263e+003, 3.017420e+003
1.272745e+003, 3.021672e+003
1.273227e+003, 3.023088e+003
1.273709e+003, 3.026562e+003
1.274191e+003, 3.037845e+003
1.274673e+003, 3.048032e+003
1.275156e+003, 3.051916e+003
1.275638e+003, 3.054146e+003
1.276120e+003, 3.058483e+003
1.276602e+003, 3.062359e+003
1.277084e+003, 3.061066e+003
1.277566e+003, 3.056930e+003
1.278048e+003, 3.057873e+003
1.278530e+003, 3.064491e+003
1.279012e+003, 3.071215e+003
1.279495e+003, 3.078691e+003
1.279977e+003, 3.082945e+003
1.280459e+003, 3.082997e+003
1.280941e+003, 3.083404e+003
1.281423e+003, 3.085698e+003
1.281905e+003, 3.089938e+003
1.282387e+003, 3.096577e+003
1.282869e+003, 3.103141e+003
1.283352e+003, 3.104850e+003
1.283834e+003, 3.103308e+003
1.284316e+003, 3.101703e+003
1.284798e+003, 3.100184e+003
##END=



