##NAMES=Brookite
##RRUFFID=R130225
##IDEAL CHEMISTRY=Ti^4+^O_2_
##LOCALITY=Mont St-Hilaire, Quebec, Canada
##OWNER=RRUFF
##SOURCE=Don Doell
##DESCRIPTION=Black tabular crystals
##STATUS=The identification of this mineral has been confirmed by single-crystal X-ray diffraction.
##URL=rruff.info/R130225
8.936163e+001, 0.000000e+000
8.984375e+001, 1.651682e+002
9.032587e+001, 1.664534e+002
9.080798e+001, 1.667166e+002
9.129010e+001, 1.656053e+002
9.177222e+001, 1.638794e+002
9.225433e+001, 1.624064e+002
9.273645e+001, 1.611613e+002
9.321857e+001, 1.599426e+002
9.370068e+001, 1.588734e+002
9.418280e+001, 1.577685e+002
9.466492e+001, 1.559823e+002
9.514703e+001, 1.527369e+002
9.562915e+001, 1.487703e+002
9.611127e+001, 1.462575e+002
9.659338e+001, 1.453985e+002
9.707550e+001, 1.450781e+002
9.755762e+001, 1.439110e+002
9.803973e+001, 1.418741e+002
9.852185e+001, 1.398994e+002
9.900397e+001, 1.383637e+002
9.948608e+001, 1.372701e+002
9.996820e+001, 1.362968e+002
1.004503e+002, 1.355297e+002
1.009324e+002, 1.347677e+002
1.014146e+002, 1.335045e+002
1.018967e+002, 1.315408e+002
1.023788e+002, 1.296137e+002
1.028609e+002, 1.281220e+002
1.033430e+002, 1.272287e+002
1.038251e+002, 1.262909e+002
1.043073e+002, 1.252692e+002
1.047894e+002, 1.241745e+002
1.052715e+002, 1.230539e+002
1.057536e+002, 1.218182e+002
1.062357e+002, 1.206440e+002
1.067178e+002, 1.196519e+002
1.072000e+002, 1.190385e+002
1.076821e+002, 1.183348e+002
1.081642e+002, 1.174814e+002
1.086463e+002, 1.164723e+002
1.091284e+002, 1.153999e+002
1.096105e+002, 1.142973e+002
1.100927e+002, 1.131140e+002
1.105748e+002, 1.118159e+002
1.110569e+002, 1.100740e+002
1.115390e+002, 1.085256e+002
1.120211e+002, 1.074172e+002
1.125032e+002, 1.069332e+002
1.129854e+002, 1.062306e+002
1.134675e+002, 1.050908e+002
1.139496e+002, 1.036907e+002
1.144317e+002, 1.022687e+002
1.149138e+002, 1.005774e+002
1.153959e+002, 9.911202e+001
1.158781e+002, 9.817373e+001
1.163602e+002, 9.808717e+001
1.168423e+002, 9.791457e+001
1.173244e+002, 9.726210e+001
1.178065e+002, 9.626411e+001
1.182886e+002, 9.526249e+001
1.187708e+002, 9.434051e+001
1.192529e+002, 9.350096e+001
1.197350e+002, 9.276169e+001
1.202171e+002, 9.216810e+001
1.206992e+002, 9.162260e+001
1.211813e+002, 9.111813e+001
1.216635e+002, 9.063542e+001
1.221456e+002, 9.007829e+001
1.226277e+002, 8.933015e+001
1.231098e+002, 8.848470e+001
1.235919e+002, 8.766508e+001
1.240740e+002, 8.690915e+001
1.245562e+002, 8.619888e+001
1.250383e+002, 8.558891e+001
1.255204e+002, 8.507578e+001
1.260025e+002, 8.445916e+001
1.264846e+002, 8.333261e+001
1.269667e+002, 8.193770e+001
1.274489e+002, 8.087838e+001
1.279310e+002, 8.076029e+001
1.284131e+002, 8.109850e+001
1.288952e+002, 8.089668e+001
1.293773e+002, 8.006203e+001
1.298594e+002, 7.900040e+001
1.303416e+002, 7.819482e+001
1.308237e+002, 7.761758e+001
1.313058e+002, 7.701294e+001
1.317879e+002, 7.613744e+001
1.322700e+002, 7.508273e+001
1.327521e+002, 7.431900e+001
1.332343e+002, 7.392368e+001
1.337164e+002, 7.375565e+001
1.341985e+002, 7.345668e+001
1.346806e+002, 7.299702e+001
1.351627e+002, 7.280046e+001
1.356448e+002, 7.360823e+001
1.361270e+002, 7.545943e+001
1.366091e+002, 7.585165e+001
1.370912e+002, 7.401247e+001
1.375733e+002, 7.073532e+001
1.380554e+002, 6.861477e+001
1.385375e+002, 6.787326e+001
1.390197e+002, 6.763309e+001
1.395018e+002, 6.720430e+001
1.399839e+002, 6.649976e+001
1.404660e+002, 6.603487e+001
1.409481e+002, 6.604311e+001
1.414302e+002, 6.645367e+001
1.419124e+002, 6.616440e+001
1.423945e+002, 6.457722e+001
1.428766e+002, 6.311296e+001
1.433587e+002, 6.352453e+001
1.438408e+002, 6.740972e+001
1.443229e+002, 6.984914e+001
1.448051e+002, 6.933006e+001
1.452872e+002, 6.528670e+001
1.457693e+002, 6.250630e+001
1.462514e+002, 6.149535e+001
1.467335e+002, 6.138721e+001
1.472156e+002, 6.105111e+001
1.476978e+002, 6.009358e+001
1.481799e+002, 5.939867e+001
1.486620e+002, 5.921171e+001
1.491441e+002, 5.968939e+001
1.496262e+002, 6.027000e+001
1.501083e+002, 6.153673e+001
1.505905e+002, 6.280843e+001
1.510726e+002, 6.287238e+001
1.515547e+002, 6.013175e+001
1.520368e+002, 5.756723e+001
1.525189e+002, 5.613625e+001
1.530010e+002, 5.679433e+001
1.534832e+002, 5.697890e+001
1.539653e+002, 5.614578e+001
1.544474e+002, 5.470756e+001
1.549295e+002, 5.365483e+001
1.554116e+002, 5.348896e+001
1.558937e+002, 5.345993e+001
1.563759e+002, 5.321811e+001
1.568580e+002, 5.239419e+001
1.573401e+002, 5.178815e+001
1.578222e+002, 5.169884e+001
1.583043e+002, 5.198992e+001
1.587864e+002, 5.215854e+001
1.592686e+002, 5.195728e+001
1.597507e+002, 5.165576e+001
1.602328e+002, 5.142844e+001
1.607149e+002, 5.157928e+001
1.611970e+002, 5.154491e+001
1.616791e+002, 5.095007e+001
1.621613e+002, 4.990796e+001
1.626434e+002, 4.911112e+001
1.631255e+002, 4.895862e+001
1.636076e+002, 4.913347e+001
1.640897e+002, 4.935328e+001
1.645718e+002, 4.980460e+001
1.650540e+002, 5.005064e+001
1.655361e+002, 4.968618e+001
1.660182e+002, 4.874031e+001
1.665003e+002, 4.798407e+001
1.669824e+002, 4.802757e+001
1.674645e+002, 4.844170e+001
1.679467e+002, 4.869523e+001
1.684288e+002, 4.832428e+001
1.689109e+002, 4.790201e+001
1.693930e+002, 4.795081e+001
1.698751e+002, 4.851179e+001
1.703572e+002, 4.893877e+001
1.708394e+002, 4.855940e+001
1.713215e+002, 4.776705e+001
1.718036e+002, 4.723159e+001
1.722857e+002, 4.748707e+001
1.727678e+002, 4.800909e+001
1.732499e+002, 4.822518e+001
1.737321e+002, 4.805649e+001
1.742142e+002, 4.792896e+001
1.746963e+002, 4.814584e+001
1.751784e+002, 4.867420e+001
1.756605e+002, 4.943964e+001
1.761426e+002, 5.042592e+001
1.766248e+002, 5.161237e+001
1.771069e+002, 5.302354e+001
1.775890e+002, 5.471313e+001
1.780711e+002, 5.643341e+001
1.785532e+002, 5.783024e+001
1.790353e+002, 5.901443e+001
1.795175e+002, 6.032769e+001
1.799996e+002, 6.218647e+001
1.804817e+002, 6.428136e+001
1.809638e+002, 6.596188e+001
1.814459e+002, 6.702761e+001
1.819280e+002, 6.801253e+001
1.824102e+002, 6.972427e+001
1.828923e+002, 7.204958e+001
1.833744e+002, 7.447837e+001
1.838565e+002, 7.663917e+001
1.843386e+002, 7.863879e+001
1.848207e+002, 8.075295e+001
1.853029e+002, 8.311487e+001
1.857850e+002, 8.546657e+001
1.862671e+002, 8.727487e+001
1.867492e+002, 8.856413e+001
1.872313e+002, 9.000818e+001
1.877134e+002, 9.224235e+001
1.881956e+002, 9.510552e+001
1.886777e+002, 9.767754e+001
1.891598e+002, 9.972556e+001
1.896419e+002, 1.015507e+002
1.901240e+002, 1.039028e+002
1.906061e+002, 1.068392e+002
1.910883e+002, 1.097319e+002
1.915704e+002, 1.120638e+002
1.920525e+002, 1.139103e+002
1.925346e+002, 1.158050e+002
1.930167e+002, 1.178272e+002
1.934988e+002, 1.198841e+002
1.939810e+002, 1.216188e+002
1.944631e+002, 1.229588e+002
1.949452e+002, 1.240579e+002
1.954273e+002, 1.243610e+002
1.959094e+002, 1.238951e+002
1.963915e+002, 1.237635e+002
1.968737e+002, 1.242478e+002
1.973558e+002, 1.251749e+002
1.978379e+002, 1.259496e+002
1.983200e+002, 1.265358e+002
1.988021e+002, 1.271370e+002
1.992842e+002, 1.279249e+002
1.997664e+002, 1.289075e+002
2.002485e+002, 1.299689e+002
2.007306e+002, 1.311312e+002
2.012127e+002, 1.323642e+002
2.016948e+002, 1.334874e+002
2.021769e+002, 1.344676e+002
2.026591e+002, 1.354618e+002
2.031412e+002, 1.366801e+002
2.036233e+002, 1.381906e+002
2.041054e+002, 1.394464e+002
2.045875e+002, 1.401639e+002
2.050696e+002, 1.404560e+002
2.055518e+002, 1.414548e+002
2.060339e+002, 1.433478e+002
2.065160e+002, 1.455006e+002
2.069981e+002, 1.471829e+002
2.074802e+002, 1.482147e+002
2.079623e+002, 1.495641e+002
2.084445e+002, 1.516140e+002
2.089266e+002, 1.543235e+002
2.094087e+002, 1.564036e+002
2.098908e+002, 1.576816e+002
2.103729e+002, 1.586834e+002
2.108550e+002, 1.600575e+002
2.113372e+002, 1.619839e+002
2.118193e+002, 1.636254e+002
2.123014e+002, 1.649012e+002
2.127835e+002, 1.658103e+002
2.132656e+002, 1.657368e+002
2.137477e+002, 1.643996e+002
2.142299e+002, 1.624850e+002
2.147120e+002, 1.608321e+002
2.151941e+002, 1.595766e+002
2.156762e+002, 1.581352e+002
2.161583e+002, 1.561778e+002
2.166404e+002, 1.536536e+002
2.171226e+002, 1.518891e+002
2.176047e+002, 1.511048e+002
2.180868e+002, 1.508054e+002
2.185689e+002, 1.503969e+002
2.190510e+002, 1.498218e+002
2.195331e+002, 1.492642e+002
2.200153e+002, 1.487210e+002
2.204974e+002, 1.481687e+002
2.209795e+002, 1.478718e+002
2.214616e+002, 1.478130e+002
2.219437e+002, 1.480220e+002
2.224258e+002, 1.485806e+002
2.229080e+002, 1.496326e+002
2.233901e+002, 1.507212e+002
2.238722e+002, 1.516947e+002
2.243543e+002, 1.525384e+002
2.248364e+002, 1.534568e+002
2.253185e+002, 1.543608e+002
2.258007e+002, 1.554033e+002
2.262828e+002, 1.567877e+002
2.267649e+002, 1.585061e+002
2.272470e+002, 1.605633e+002
2.277291e+002, 1.630138e+002
2.282112e+002, 1.659755e+002
2.286934e+002, 1.686588e+002
2.291755e+002, 1.710071e+002
2.296576e+002, 1.731285e+002
2.301397e+002, 1.750921e+002
2.306218e+002, 1.768107e+002
2.311039e+002, 1.785811e+002
2.315861e+002, 1.804481e+002
2.320682e+002, 1.824389e+002
2.325503e+002, 1.845356e+002
2.330324e+002, 1.867301e+002
2.335145e+002, 1.890348e+002
2.339966e+002, 1.914908e+002
2.344788e+002, 1.940611e+002
2.349609e+002, 1.968347e+002
2.354430e+002, 1.998844e+002
2.359251e+002, 2.032630e+002
2.364072e+002, 2.064983e+002
2.368893e+002, 2.092228e+002
2.373715e+002, 2.121029e+002
2.378536e+002, 2.159951e+002
2.383357e+002, 2.213584e+002
2.388178e+002, 2.269926e+002
2.392999e+002, 2.325465e+002
2.397820e+002, 2.378638e+002
2.402642e+002, 2.438508e+002
2.407463e+002, 2.504648e+002
2.412284e+002, 2.577707e+002
2.417105e+002, 2.659430e+002
2.421926e+002, 2.754186e+002
2.426747e+002, 2.849336e+002
2.431569e+002, 2.942641e+002
2.436390e+002, 3.035199e+002
2.441211e+002, 3.120403e+002
2.446032e+002, 3.205096e+002
2.450853e+002, 3.277246e+002
2.455674e+002, 3.322376e+002
2.460496e+002, 3.334926e+002
2.465317e+002, 3.331088e+002
2.470138e+002, 3.315676e+002
2.474959e+002, 3.289489e+002
2.479780e+002, 3.240502e+002
2.484601e+002, 3.161128e+002
2.489423e+002, 3.066455e+002
2.494244e+002, 2.972125e+002
2.499065e+002, 2.877735e+002
2.503886e+002, 2.784266e+002
2.508707e+002, 2.688934e+002
2.513528e+002, 2.591797e+002
2.518350e+002, 2.509572e+002
2.523171e+002, 2.447233e+002
2.527992e+002, 2.395284e+002
2.532813e+002, 2.343864e+002
2.537634e+002, 2.290270e+002
2.542455e+002, 2.244200e+002
2.547277e+002, 2.209187e+002
2.552098e+002, 2.185262e+002
2.556919e+002, 2.160188e+002
2.561740e+002, 2.132697e+002
2.566561e+002, 2.105568e+002
2.571382e+002, 2.081823e+002
2.576204e+002, 2.061758e+002
2.581025e+002, 2.043896e+002
2.585846e+002, 2.028555e+002
2.590667e+002, 2.015557e+002
2.595488e+002, 2.002464e+002
2.600309e+002, 1.989094e+002
2.605131e+002, 1.976298e+002
2.609952e+002, 1.965097e+002
2.614773e+002, 1.955672e+002
2.619594e+002, 1.947156e+002
2.624415e+002, 1.939397e+002
2.629236e+002, 1.932413e+002
2.634058e+002, 1.927011e+002
2.638879e+002, 1.923365e+002
2.643700e+002, 1.920953e+002
2.648521e+002, 1.919050e+002
2.653342e+002, 1.917146e+002
2.658163e+002, 1.917710e+002
2.662985e+002, 1.921952e+002
2.667806e+002, 1.929025e+002
2.672627e+002, 1.934250e+002
2.677448e+002, 1.937274e+002
2.682269e+002, 1.939069e+002
2.687090e+002, 1.939492e+002
2.691912e+002, 1.937418e+002
2.696733e+002, 1.939040e+002
2.701554e+002, 1.946227e+002
2.706375e+002, 1.957376e+002
2.711196e+002, 1.965970e+002
2.716017e+002, 1.971714e+002
2.720839e+002, 1.975667e+002
2.725660e+002, 1.977785e+002
2.730481e+002, 1.977572e+002
2.735302e+002, 1.978688e+002
2.740123e+002, 1.981132e+002
2.744944e+002, 1.985382e+002
2.749766e+002, 1.993821e+002
2.754587e+002, 2.007630e+002
2.759408e+002, 2.021035e+002
2.764229e+002, 2.029925e+002
2.769050e+002, 2.034001e+002
2.773871e+002, 2.038107e+002
2.778693e+002, 2.042425e+002
2.783514e+002, 2.047164e+002
2.788335e+002, 2.052868e+002
2.793156e+002, 2.059702e+002
2.797977e+002, 2.066866e+002
2.802798e+002, 2.075614e+002
2.807620e+002, 2.085919e+002
2.812441e+002, 2.089057e+002
2.817262e+002, 2.082869e+002
2.822083e+002, 2.072467e+002
2.826904e+002, 2.065974e+002
2.831725e+002, 2.063381e+002
2.836547e+002, 2.064510e+002
2.841368e+002, 2.072045e+002
2.846189e+002, 2.084970e+002
2.851010e+002, 2.091508e+002
2.855831e+002, 2.090709e+002
2.860652e+002, 2.085470e+002
2.865474e+002, 2.078325e+002
2.870295e+002, 2.069355e+002
2.875116e+002, 2.062620e+002
2.879937e+002, 2.061027e+002
2.884758e+002, 2.063603e+002
2.889579e+002, 2.064832e+002
2.894401e+002, 2.064685e+002
2.899222e+002, 2.063540e+002
2.904043e+002, 2.059401e+002
2.908864e+002, 2.053225e+002
2.913685e+002, 2.052870e+002
2.918506e+002, 2.063909e+002
2.923328e+002, 2.082710e+002
2.928149e+002, 2.098405e+002
2.932970e+002, 2.110917e+002
2.937791e+002, 2.122308e+002
2.942612e+002, 2.133045e+002
2.947433e+002, 2.143909e+002
2.952255e+002, 2.157931e+002
2.957076e+002, 2.175988e+002
2.961897e+002, 2.197813e+002
2.966718e+002, 2.223562e+002
2.971539e+002, 2.253035e+002
2.976360e+002, 2.283214e+002
2.981182e+002, 2.308252e+002
2.986003e+002, 2.331663e+002
2.990824e+002, 2.364144e+002
2.995645e+002, 2.414652e+002
3.000466e+002, 2.469034e+002
3.005287e+002, 2.505260e+002
3.010109e+002, 2.525293e+002
3.014930e+002, 2.544230e+002
3.019751e+002, 2.571395e+002
3.024572e+002, 2.604923e+002
3.029393e+002, 2.641300e+002
3.034214e+002, 2.680721e+002
3.039036e+002, 2.721895e+002
3.043857e+002, 2.763410e+002
3.048678e+002, 2.805405e+002
3.053499e+002, 2.849375e+002
3.058320e+002, 2.897657e+002
3.063141e+002, 2.947576e+002
3.067963e+002, 2.994772e+002
3.072784e+002, 3.038404e+002
3.077605e+002, 3.081248e+002
3.082426e+002, 3.124234e+002
3.087247e+002, 3.168170e+002
3.092068e+002, 3.215016e+002
3.096890e+002, 3.267911e+002
3.101711e+002, 3.322914e+002
3.106532e+002, 3.376667e+002
3.111353e+002, 3.428862e+002
3.116174e+002, 3.478234e+002
3.120995e+002, 3.524220e+002
3.125817e+002, 3.566081e+002
3.130638e+002, 3.603349e+002
3.135459e+002, 3.633192e+002
3.140280e+002, 3.660714e+002
3.145101e+002, 3.690550e+002
3.149922e+002, 3.723349e+002
3.154744e+002, 3.751197e+002
3.159565e+002, 3.770178e+002
3.164386e+002, 3.782110e+002
3.169207e+002, 3.788878e+002
3.174028e+002, 3.793067e+002
3.178849e+002, 3.790742e+002
3.183671e+002, 3.780123e+002
3.188492e+002, 3.761252e+002
3.193313e+002, 3.736316e+002
3.198134e+002, 3.701788e+002
3.202955e+002, 3.663536e+002
3.207776e+002, 3.626639e+002
3.212598e+002, 3.599643e+002
3.217419e+002, 3.565743e+002
3.222240e+002, 3.517605e+002
3.227061e+002, 3.457765e+002
3.231882e+002, 3.399720e+002
3.236703e+002, 3.350172e+002
3.241525e+002, 3.299977e+002
3.246346e+002, 3.244443e+002
3.251167e+002, 3.175309e+002
3.255988e+002, 3.110855e+002
3.260809e+002, 3.057768e+002
3.265630e+002, 3.011008e+002
3.270452e+002, 2.956486e+002
3.275273e+002, 2.882192e+002
3.280094e+002, 2.810408e+002
3.284915e+002, 2.749370e+002
3.289736e+002, 2.705826e+002
3.294557e+002, 2.659545e+002
3.299379e+002, 2.609749e+002
3.304200e+002, 2.557226e+002
3.309021e+002, 2.503675e+002
3.313842e+002, 2.444958e+002
3.318663e+002, 2.390087e+002
3.323484e+002, 2.341406e+002
3.328306e+002, 2.300387e+002
3.333127e+002, 2.261195e+002
3.337948e+002, 2.222705e+002
3.342769e+002, 2.186896e+002
3.347590e+002, 2.156887e+002
3.352411e+002, 2.134888e+002
3.357233e+002, 2.113208e+002
3.362054e+002, 2.090208e+002
3.366875e+002, 2.065928e+002
3.371696e+002, 2.043753e+002
3.376517e+002, 2.023502e+002
3.381339e+002, 2.005831e+002
3.386160e+002, 1.992504e+002
3.390981e+002, 1.984691e+002
3.395802e+002, 1.974588e+002
3.400623e+002, 1.959693e+002
3.405444e+002, 1.942374e+002
3.410266e+002, 1.931638e+002
3.415087e+002, 1.927970e+002
3.419908e+002, 1.927570e+002
3.424729e+002, 1.929161e+002
3.429550e+002, 1.932683e+002
3.434371e+002, 1.933870e+002
3.439193e+002, 1.931508e+002
3.444014e+002, 1.928245e+002
3.448835e+002, 1.928876e+002
3.453656e+002, 1.933385e+002
3.458477e+002, 1.939582e+002
3.463298e+002, 1.946083e+002
3.468120e+002, 1.953352e+002
3.472941e+002, 1.963575e+002
3.477762e+002, 1.977284e+002
3.482583e+002, 1.991998e+002
3.487404e+002, 2.004243e+002
3.492225e+002, 2.014796e+002
3.497047e+002, 2.026863e+002
3.501868e+002, 2.041184e+002
3.506689e+002, 2.057928e+002
3.511510e+002, 2.078097e+002
3.516331e+002, 2.101577e+002
3.521152e+002, 2.126779e+002
3.525974e+002, 2.152252e+002
3.530795e+002, 2.178507e+002
3.535616e+002, 2.206481e+002
3.540437e+002, 2.236352e+002
3.545258e+002, 2.267986e+002
3.550079e+002, 2.303593e+002
3.554901e+002, 2.341871e+002
3.559722e+002, 2.377664e+002
3.564543e+002, 2.402408e+002
3.569364e+002, 2.425554e+002
3.574185e+002, 2.457751e+002
3.579006e+002, 2.502920e+002
3.583828e+002, 2.551621e+002
3.588649e+002, 2.602091e+002
3.593470e+002, 2.652028e+002
3.598291e+002, 2.697226e+002
3.603112e+002, 2.734658e+002
3.607933e+002, 2.767646e+002
3.612755e+002, 2.797772e+002
3.617576e+002, 2.824840e+002
3.622397e+002, 2.851452e+002
3.627218e+002, 2.887001e+002
3.632039e+002, 2.919601e+002
3.636860e+002, 2.935990e+002
3.641682e+002, 2.924952e+002
3.646503e+002, 2.904634e+002
3.651324e+002, 2.882647e+002
3.656145e+002, 2.858624e+002
3.660966e+002, 2.821149e+002
3.665787e+002, 2.758081e+002
3.670609e+002, 2.687435e+002
3.675430e+002, 2.620757e+002
3.680251e+002, 2.562009e+002
3.685072e+002, 2.503272e+002
3.689893e+002, 2.442911e+002
3.694714e+002, 2.382337e+002
3.699536e+002, 2.327977e+002
3.704357e+002, 2.282051e+002
3.709178e+002, 2.239830e+002
3.713999e+002, 2.199790e+002
3.718820e+002, 2.160896e+002
3.723641e+002, 2.126033e+002
3.728463e+002, 2.095361e+002
3.733284e+002, 2.068962e+002
3.738105e+002, 2.046976e+002
3.742926e+002, 2.030281e+002
3.747747e+002, 2.015993e+002
3.752568e+002, 2.003699e+002
3.757390e+002, 1.993362e+002
3.762211e+002, 1.981900e+002
3.767032e+002, 1.967860e+002
3.771853e+002, 1.955428e+002
3.776674e+002, 1.949271e+002
3.781495e+002, 1.950144e+002
3.786317e+002, 1.950278e+002
3.791138e+002, 1.947839e+002
3.795959e+002, 1.943897e+002
3.800780e+002, 1.941489e+002
3.805601e+002, 1.940658e+002
3.810422e+002, 1.941218e+002
3.815244e+002, 1.943949e+002
3.820065e+002, 1.948335e+002
3.824886e+002, 1.950869e+002
3.829707e+002, 1.950690e+002
3.834528e+002, 1.950237e+002
3.839349e+002, 1.952841e+002
3.844171e+002, 1.958293e+002
3.848992e+002, 1.965201e+002
3.853813e+002, 1.973373e+002
3.858634e+002, 1.982480e+002
3.863455e+002, 1.993363e+002
3.868276e+002, 2.006157e+002
3.873098e+002, 2.016374e+002
3.877919e+002, 2.017753e+002
3.882740e+002, 2.014217e+002
3.887561e+002, 2.012905e+002
3.892382e+002, 2.018681e+002
3.897203e+002, 2.025096e+002
3.902025e+002, 2.024661e+002
3.906846e+002, 2.019174e+002
3.911667e+002, 2.017239e+002
3.916488e+002, 2.029210e+002
3.921309e+002, 2.043773e+002
3.926130e+002, 2.050881e+002
3.930952e+002, 2.045540e+002
3.935773e+002, 2.039193e+002
3.940594e+002, 2.035860e+002
3.945415e+002, 2.034923e+002
3.950236e+002, 2.035230e+002
3.955057e+002, 2.037058e+002
3.959879e+002, 2.039554e+002
3.964700e+002, 2.042764e+002
3.969521e+002, 2.046973e+002
3.974342e+002, 2.050137e+002
3.979163e+002, 2.052013e+002
3.983984e+002, 2.052695e+002
3.988806e+002, 2.052269e+002
3.993627e+002, 2.043904e+002
3.998448e+002, 2.042407e+002
4.003269e+002, 2.053082e+002
4.008090e+002, 2.073847e+002
4.012911e+002, 2.088454e+002
4.017733e+002, 2.093706e+002
4.022554e+002, 2.096731e+002
4.027375e+002, 2.101047e+002
4.032196e+002, 2.106928e+002
4.037017e+002, 2.113564e+002
4.041838e+002, 2.121357e+002
4.046660e+002, 2.129555e+002
4.051481e+002, 2.136329e+002
4.056302e+002, 2.141228e+002
4.061123e+002, 2.146550e+002
4.065944e+002, 2.153385e+002
4.070765e+002, 2.161655e+002
4.075587e+002, 2.169065e+002
4.080408e+002, 2.175664e+002
4.085229e+002, 2.181334e+002
4.090050e+002, 2.186152e+002
4.094871e+002, 2.190027e+002
4.099692e+002, 2.192258e+002
4.104514e+002, 2.192649e+002
4.109335e+002, 2.191341e+002
4.114156e+002, 2.187869e+002
4.118977e+002, 2.182449e+002
4.123798e+002, 2.177342e+002
4.128619e+002, 2.177289e+002
4.133441e+002, 2.178094e+002
4.138262e+002, 2.170099e+002
4.143083e+002, 2.150799e+002
4.147904e+002, 2.129757e+002
4.152725e+002, 2.115362e+002
4.157546e+002, 2.106077e+002
4.162368e+002, 2.098347e+002
4.167189e+002, 2.094609e+002
4.172010e+002, 2.089104e+002
4.176831e+002, 2.075110e+002
4.181652e+002, 2.053261e+002
4.186473e+002, 2.032970e+002
4.191295e+002, 2.021270e+002
4.196116e+002, 2.012617e+002
4.200937e+002, 2.002154e+002
4.205758e+002, 1.986330e+002
4.210579e+002, 1.971824e+002
4.215400e+002, 1.961536e+002
4.220222e+002, 1.954083e+002
4.225043e+002, 1.945748e+002
4.229864e+002, 1.936052e+002
4.234685e+002, 1.925177e+002
4.239506e+002, 1.911939e+002
4.244327e+002, 1.893979e+002
4.249149e+002, 1.882024e+002
4.253970e+002, 1.882411e+002
4.258791e+002, 1.885647e+002
4.263612e+002, 1.881695e+002
4.268433e+002, 1.861796e+002
4.273254e+002, 1.849010e+002
4.278076e+002, 1.849782e+002
4.282897e+002, 1.861539e+002
4.287718e+002, 1.865535e+002
4.292539e+002, 1.859032e+002
4.297360e+002, 1.850206e+002
4.302181e+002, 1.843109e+002
4.307003e+002, 1.837410e+002
4.311824e+002, 1.835986e+002
4.316645e+002, 1.839846e+002
4.321466e+002, 1.846474e+002
4.326287e+002, 1.852231e+002
4.331108e+002, 1.857098e+002
4.335930e+002, 1.860328e+002
4.340751e+002, 1.859924e+002
4.345572e+002, 1.857915e+002
4.350393e+002, 1.862012e+002
4.355214e+002, 1.872342e+002
4.360035e+002, 1.883595e+002
4.364857e+002, 1.889713e+002
4.369678e+002, 1.893063e+002
4.374499e+002, 1.900047e+002
4.379320e+002, 1.913562e+002
4.384141e+002, 1.928129e+002
4.388962e+002, 1.936413e+002
4.393784e+002, 1.940539e+002
4.398605e+002, 1.946774e+002
4.403426e+002, 1.960523e+002
4.408247e+002, 1.976478e+002
4.413068e+002, 1.990696e+002
4.417889e+002, 2.002668e+002
4.422711e+002, 2.013233e+002
4.427532e+002, 2.021316e+002
4.432353e+002, 2.028774e+002
4.437174e+002, 2.037536e+002
4.441995e+002, 2.047163e+002
4.446816e+002, 2.059182e+002
4.451638e+002, 2.075805e+002
4.456459e+002, 2.095721e+002
4.461280e+002, 2.113642e+002
4.466101e+002, 2.126922e+002
4.470922e+002, 2.139584e+002
4.475743e+002, 2.153469e+002
4.480565e+002, 2.169089e+002
4.485386e+002, 2.184428e+002
4.490207e+002, 2.199922e+002
4.495028e+002, 2.214778e+002
4.499849e+002, 2.227485e+002
4.504670e+002, 2.237050e+002
4.509492e+002, 2.246953e+002
4.514313e+002, 2.257858e+002
4.519134e+002, 2.269723e+002
4.523955e+002, 2.282518e+002
4.528776e+002, 2.296837e+002
4.533597e+002, 2.309346e+002
4.538419e+002, 2.316082e+002
4.543240e+002, 2.317221e+002
4.548061e+002, 2.323017e+002
4.552882e+002, 2.335570e+002
4.557703e+002, 2.349580e+002
4.562524e+002, 2.356064e+002
4.567346e+002, 2.356062e+002
4.572167e+002, 2.356004e+002
4.576988e+002, 2.360162e+002
4.581809e+002, 2.365319e+002
4.586630e+002, 2.366425e+002
4.591451e+002, 2.363480e+002
4.596273e+002, 2.356943e+002
4.601094e+002, 2.345304e+002
4.605915e+002, 2.330942e+002
4.610736e+002, 2.316894e+002
4.615557e+002, 2.303617e+002
4.620378e+002, 2.290914e+002
4.625200e+002, 2.280055e+002
4.630021e+002, 2.269549e+002
4.634842e+002, 2.256688e+002
4.639663e+002, 2.237186e+002
4.644484e+002, 2.217850e+002
4.649305e+002, 2.203022e+002
4.654127e+002, 2.193222e+002
4.658948e+002, 2.181871e+002
4.663769e+002, 2.166372e+002
4.668590e+002, 2.149728e+002
4.673411e+002, 2.134171e+002
4.678232e+002, 2.119782e+002
4.683054e+002, 2.106194e+002
4.687875e+002, 2.093043e+002
4.692696e+002, 2.080843e+002
4.697517e+002, 2.071317e+002
4.702338e+002, 2.066870e+002
4.707159e+002, 2.060602e+002
4.711981e+002, 2.049061e+002
4.716802e+002, 2.031891e+002
4.721623e+002, 2.018944e+002
4.726444e+002, 2.011444e+002
4.731265e+002, 2.005220e+002
4.736086e+002, 1.994976e+002
4.740908e+002, 1.980847e+002
4.745729e+002, 1.971664e+002
4.750550e+002, 1.969915e+002
4.755371e+002, 1.972444e+002
4.760192e+002, 1.973751e+002
4.765013e+002, 1.973993e+002
4.769835e+002, 1.974452e+002
4.774656e+002, 1.977111e+002
4.779477e+002, 1.979991e+002
4.784298e+002, 1.979046e+002
4.789119e+002, 1.973996e+002
4.793940e+002, 1.969192e+002
4.798762e+002, 1.967841e+002
4.803583e+002, 1.968873e+002
4.808404e+002, 1.971028e+002
4.813225e+002, 1.975579e+002
4.818046e+002, 1.979001e+002
4.822867e+002, 1.977122e+002
4.827689e+002, 1.972576e+002
4.832510e+002, 1.972116e+002
4.837331e+002, 1.981659e+002
4.842152e+002, 1.992682e+002
4.846973e+002, 2.001591e+002
4.851794e+002, 2.007913e+002
4.856616e+002, 2.013635e+002
4.861437e+002, 2.017625e+002
4.866258e+002, 2.021875e+002
4.871079e+002, 2.028126e+002
4.875900e+002, 2.038467e+002
4.880721e+002, 2.047034e+002
4.885543e+002, 2.052477e+002
4.890364e+002, 2.056028e+002
4.895185e+002, 2.061223e+002
4.900006e+002, 2.068291e+002
4.904827e+002, 2.076005e+002
4.909648e+002, 2.083731e+002
4.914470e+002, 2.091506e+002
4.919291e+002, 2.100386e+002
4.924112e+002, 2.110757e+002
4.928933e+002, 2.120126e+002
4.933754e+002, 2.125397e+002
4.938575e+002, 2.127346e+002
4.943397e+002, 2.129527e+002
4.948218e+002, 2.133505e+002
4.953039e+002, 2.136570e+002
4.957860e+002, 2.133065e+002
4.962681e+002, 2.124986e+002
4.967502e+002, 2.119119e+002
4.972324e+002, 2.124108e+002
4.977145e+002, 2.129790e+002
4.981966e+002, 2.124787e+002
4.986787e+002, 2.108435e+002
4.991608e+002, 2.093420e+002
4.996429e+002, 2.088244e+002
5.001251e+002, 2.086354e+002
5.006072e+002, 2.081833e+002
5.010893e+002, 2.073001e+002
5.015714e+002, 2.061919e+002
5.020535e+002, 2.046730e+002
5.025356e+002, 2.029599e+002
5.030178e+002, 2.015445e+002
5.034999e+002, 2.009633e+002
5.039820e+002, 2.001092e+002
5.044641e+002, 1.985952e+002
5.049462e+002, 1.963854e+002
5.054283e+002, 1.945609e+002
5.059105e+002, 1.933138e+002
5.063926e+002, 1.921819e+002
5.068747e+002, 1.906974e+002
5.073568e+002, 1.887274e+002
5.078389e+002, 1.874238e+002
5.083210e+002, 1.870714e+002
5.088032e+002, 1.871548e+002
5.092853e+002, 1.867715e+002
5.097674e+002, 1.859484e+002
5.102495e+002, 1.851499e+002
5.107316e+002, 1.845509e+002
5.112137e+002, 1.840996e+002
5.116959e+002, 1.837387e+002
5.121780e+002, 1.834567e+002
5.126601e+002, 1.830907e+002
5.131422e+002, 1.822361e+002
5.136243e+002, 1.813395e+002
5.141064e+002, 1.810597e+002
5.145886e+002, 1.816655e+002
5.150707e+002, 1.823243e+002
5.155528e+002, 1.826156e+002
5.160349e+002, 1.826122e+002
5.165170e+002, 1.824249e+002
5.169991e+002, 1.818463e+002
5.174813e+002, 1.813402e+002
5.179634e+002, 1.810356e+002
5.184455e+002, 1.809336e+002
5.189276e+002, 1.809980e+002
5.194097e+002, 1.811575e+002
5.198918e+002, 1.815536e+002
5.203740e+002, 1.823111e+002
5.208561e+002, 1.836521e+002
5.213382e+002, 1.846113e+002
5.218203e+002, 1.850266e+002
5.223024e+002, 1.852413e+002
5.227845e+002, 1.856276e+002
5.232667e+002, 1.861850e+002
5.237488e+002, 1.869037e+002
5.242309e+002, 1.877850e+002
5.247130e+002, 1.888098e+002
5.251951e+002, 1.899885e+002
5.256772e+002, 1.913233e+002
5.261594e+002, 1.926613e+002
5.266415e+002, 1.940453e+002
5.271236e+002, 1.953657e+002
5.276057e+002, 1.962674e+002
5.280878e+002, 1.967334e+002
5.285699e+002, 1.972019e+002
5.290521e+002, 1.979427e+002
5.295342e+002, 1.989298e+002
5.300163e+002, 2.001676e+002
5.304984e+002, 2.018069e+002
5.309805e+002, 2.034025e+002
5.314626e+002, 2.045891e+002
5.319448e+002, 2.055566e+002
5.324269e+002, 2.066682e+002
5.329090e+002, 2.083719e+002
5.333911e+002, 2.099092e+002
5.338732e+002, 2.107941e+002
5.343553e+002, 2.109665e+002
5.348375e+002, 2.119277e+002
5.353196e+002, 2.146005e+002
5.358017e+002, 2.171607e+002
5.362838e+002, 2.185192e+002
5.367659e+002, 2.181278e+002
5.372480e+002, 2.180974e+002
5.377302e+002, 2.185260e+002
5.382123e+002, 2.192015e+002
5.386944e+002, 2.198989e+002
5.391765e+002, 2.206469e+002
5.396586e+002, 2.210735e+002
5.401407e+002, 2.209570e+002
5.406229e+002, 2.205651e+002
5.411050e+002, 2.205938e+002
5.415871e+002, 2.210018e+002
5.420692e+002, 2.213434e+002
5.425513e+002, 2.212646e+002
5.430334e+002, 2.209797e+002
5.435156e+002, 2.208285e+002
5.439977e+002, 2.208422e+002
5.444798e+002, 2.208418e+002
5.449619e+002, 2.208133e+002
5.454440e+002, 2.206561e+002
5.459261e+002, 2.202318e+002
5.464083e+002, 2.191644e+002
5.468904e+002, 2.183065e+002
5.473725e+002, 2.182925e+002
5.478546e+002, 2.186671e+002
5.483367e+002, 2.184616e+002
5.488188e+002, 2.167508e+002
5.493010e+002, 2.152705e+002
5.497831e+002, 2.146155e+002
5.502652e+002, 2.147657e+002
5.507473e+002, 2.142776e+002
5.512294e+002, 2.127961e+002
5.517115e+002, 2.112759e+002
5.521937e+002, 2.103799e+002
5.526758e+002, 2.102040e+002
5.531579e+002, 2.097590e+002
5.536400e+002, 2.089770e+002
5.541221e+002, 2.080116e+002
5.546042e+002, 2.069606e+002
5.550864e+002, 2.058654e+002
5.555685e+002, 2.049976e+002
5.560506e+002, 2.045548e+002
5.565327e+002, 2.042405e+002
5.570148e+002, 2.035914e+002
5.574969e+002, 2.026915e+002
5.579791e+002, 2.018596e+002
5.584612e+002, 2.012801e+002
5.589433e+002, 2.008440e+002
5.594254e+002, 2.005590e+002
5.599075e+002, 2.004262e+002
5.603896e+002, 2.000991e+002
5.608718e+002, 1.990503e+002
5.613539e+002, 1.979941e+002
5.618360e+002, 1.974890e+002
5.623181e+002, 1.982893e+002
5.628002e+002, 1.986078e+002
5.632823e+002, 1.978869e+002
5.637645e+002, 1.968413e+002
5.642466e+002, 1.966448e+002
5.647287e+002, 1.978272e+002
5.652108e+002, 1.986531e+002
5.656929e+002, 1.985898e+002
5.661750e+002, 1.978840e+002
5.666572e+002, 1.976531e+002
5.671393e+002, 1.979376e+002
5.676214e+002, 1.984084e+002
5.681035e+002, 1.989847e+002
5.685856e+002, 1.995966e+002
5.690677e+002, 1.998919e+002
5.695499e+002, 1.998267e+002
5.700320e+002, 1.998875e+002
5.705141e+002, 2.007368e+002
5.709962e+002, 2.019631e+002
5.714783e+002, 2.028730e+002
5.719604e+002, 2.031872e+002
5.724426e+002, 2.033951e+002
5.729247e+002, 2.038425e+002
5.734068e+002, 2.044014e+002
5.738889e+002, 2.048526e+002
5.743710e+002, 2.048928e+002
5.748531e+002, 2.050462e+002
5.753353e+002, 2.056246e+002
5.758174e+002, 2.065810e+002
5.762995e+002, 2.072052e+002
5.767816e+002, 2.072899e+002
5.772637e+002, 2.072637e+002
5.777458e+002, 2.073066e+002
5.782280e+002, 2.074355e+002
5.787101e+002, 2.075509e+002
5.791922e+002, 2.076667e+002
5.796743e+002, 2.077376e+002
5.801564e+002, 2.077375e+002
5.806385e+002, 2.076631e+002
5.811207e+002, 2.074498e+002
5.816028e+002, 2.070904e+002
5.820849e+002, 2.065768e+002
5.825670e+002, 2.057807e+002
5.830491e+002, 2.048041e+002
5.835313e+002, 2.039377e+002
5.840134e+002, 2.034898e+002
5.844955e+002, 2.031025e+002
5.849776e+002, 2.024212e+002
5.854597e+002, 2.014897e+002
5.859418e+002, 2.005635e+002
5.864240e+002, 1.997252e+002
5.869061e+002, 1.989597e+002
5.873882e+002, 1.982592e+002
5.878703e+002, 1.976533e+002
5.883524e+002, 1.970055e+002
5.888345e+002, 1.963603e+002
5.893167e+002, 1.956243e+002
5.897988e+002, 1.946878e+002
5.902809e+002, 1.933467e+002
5.907630e+002, 1.922977e+002
5.912451e+002, 1.917074e+002
5.917272e+002, 1.913051e+002
5.922094e+002, 1.904782e+002
5.926915e+002, 1.891913e+002
5.931736e+002, 1.881857e+002
5.936557e+002, 1.878593e+002
5.941378e+002, 1.878819e+002
5.946199e+002, 1.873313e+002
5.951021e+002, 1.862984e+002
5.955842e+002, 1.854844e+002
5.960663e+002, 1.856104e+002
5.965484e+002, 1.860688e+002
5.970305e+002, 1.860353e+002
5.975126e+002, 1.854201e+002
5.979948e+002, 1.850684e+002
5.984769e+002, 1.858533e+002
5.989590e+002, 1.868867e+002
5.994411e+002, 1.873948e+002
5.999232e+002, 1.868834e+002
6.004053e+002, 1.864143e+002
6.008875e+002, 1.860782e+002
6.013696e+002, 1.858958e+002
6.018517e+002, 1.859006e+002
6.023338e+002, 1.860815e+002
6.028159e+002, 1.864953e+002
6.032980e+002, 1.872637e+002
6.037802e+002, 1.882395e+002
6.042623e+002, 1.889040e+002
6.047444e+002, 1.892284e+002
6.052265e+002, 1.894334e+002
6.057086e+002, 1.895096e+002
6.061907e+002, 1.895518e+002
6.066729e+002, 1.898856e+002
6.071550e+002, 1.905051e+002
6.076371e+002, 1.913493e+002
6.081192e+002, 1.924597e+002
6.086013e+002, 1.937215e+002
6.090834e+002, 1.950323e+002
6.095656e+002, 1.964624e+002
6.100477e+002, 1.976195e+002
6.105298e+002, 1.979788e+002
6.110119e+002, 1.980804e+002
6.114940e+002, 1.985364e+002
6.119761e+002, 1.997137e+002
6.124583e+002, 2.009867e+002
6.129404e+002, 2.024564e+002
6.134225e+002, 2.039442e+002
6.139046e+002, 2.050132e+002
6.143867e+002, 2.052790e+002
6.148688e+002, 2.059013e+002
6.153510e+002, 2.072588e+002
6.158331e+002, 2.092619e+002
6.163152e+002, 2.115551e+002
6.167973e+002, 2.141955e+002
6.172794e+002, 2.164594e+002
6.177615e+002, 2.175348e+002
6.182437e+002, 2.178400e+002
6.187258e+002, 2.185326e+002
6.192079e+002, 2.196738e+002
6.196900e+002, 2.211523e+002
6.201721e+002, 2.232041e+002
6.206542e+002, 2.254053e+002
6.211364e+002, 2.271939e+002
6.216185e+002, 2.283327e+002
6.221006e+002, 2.293440e+002
6.225827e+002, 2.303490e+002
6.230648e+002, 2.314167e+002
6.235469e+002, 2.326430e+002
6.240291e+002, 2.341374e+002
6.245112e+002, 2.357048e+002
6.249933e+002, 2.374430e+002
6.254754e+002, 2.392423e+002
6.259575e+002, 2.406368e+002
6.264396e+002, 2.414826e+002
6.269218e+002, 2.423900e+002
6.274039e+002, 2.436673e+002
6.278860e+002, 2.452181e+002
6.283681e+002, 2.464415e+002
6.288502e+002, 2.473307e+002
6.293323e+002, 2.480650e+002
6.298145e+002, 2.486334e+002
6.302966e+002, 2.491730e+002
6.307787e+002, 2.500279e+002
6.312608e+002, 2.512537e+002
6.317429e+002, 2.524424e+002
6.322250e+002, 2.532922e+002
6.327072e+002, 2.539372e+002
6.331893e+002, 2.545587e+002
6.336714e+002, 2.553966e+002
6.341535e+002, 2.558605e+002
6.346356e+002, 2.554633e+002
6.351177e+002, 2.546857e+002
6.355999e+002, 2.543262e+002
6.360820e+002, 2.549874e+002
6.365641e+002, 2.550712e+002
6.370462e+002, 2.539982e+002
6.375283e+002, 2.522594e+002
6.380104e+002, 2.516801e+002
6.384926e+002, 2.524883e+002
6.389747e+002, 2.529789e+002
6.394568e+002, 2.522399e+002
6.399389e+002, 2.506211e+002
6.404210e+002, 2.493331e+002
6.409031e+002, 2.483445e+002
6.413853e+002, 2.472602e+002
6.418674e+002, 2.454988e+002
6.423495e+002, 2.436221e+002
6.428316e+002, 2.425117e+002
6.433137e+002, 2.423530e+002
6.437958e+002, 2.418730e+002
6.442780e+002, 2.402652e+002
6.447601e+002, 2.381271e+002
6.452422e+002, 2.359743e+002
6.457243e+002, 2.336804e+002
6.462064e+002, 2.317109e+002
6.466885e+002, 2.301806e+002
6.471707e+002, 2.289106e+002
6.476528e+002, 2.277801e+002
6.481349e+002, 2.269656e+002
6.486170e+002, 2.256111e+002
6.490991e+002, 2.233115e+002
6.495812e+002, 2.206104e+002
6.500634e+002, 2.188198e+002
6.505455e+002, 2.178667e+002
6.510276e+002, 2.169154e+002
6.515097e+002, 2.155782e+002
6.519918e+002, 2.139969e+002
6.524739e+002, 2.123161e+002
6.529561e+002, 2.105762e+002
6.534382e+002, 2.088575e+002
6.539203e+002, 2.071876e+002
6.544024e+002, 2.056021e+002
6.548845e+002, 2.040913e+002
6.553666e+002, 2.026566e+002
6.558488e+002, 2.013775e+002
6.563309e+002, 2.004573e+002
6.568130e+002, 1.995580e+002
6.572951e+002, 1.984883e+002
6.577772e+002, 1.972433e+002
6.582593e+002, 1.957835e+002
6.587415e+002, 1.939295e+002
6.592236e+002, 1.921504e+002
6.597057e+002, 1.911570e+002
6.601878e+002, 1.909298e+002
6.606699e+002, 1.903006e+002
6.611520e+002, 1.889906e+002
6.616342e+002, 1.874130e+002
6.621163e+002, 1.860723e+002
6.625984e+002, 1.849345e+002
6.630805e+002, 1.839130e+002
6.635626e+002, 1.830505e+002
6.640447e+002, 1.822103e+002
6.645269e+002, 1.811855e+002
6.650090e+002, 1.800974e+002
6.654911e+002, 1.792723e+002
6.659732e+002, 1.790120e+002
6.664553e+002, 1.788364e+002
6.669374e+002, 1.785784e+002
6.674196e+002, 1.782436e+002
6.679017e+002, 1.780281e+002
6.683838e+002, 1.782273e+002
6.688659e+002, 1.779901e+002
6.693480e+002, 1.766571e+002
6.698301e+002, 1.742522e+002
6.703123e+002, 1.725415e+002
6.707944e+002, 1.715659e+002
6.712765e+002, 1.709447e+002
6.717586e+002, 1.704741e+002
6.722407e+002, 1.700725e+002
6.727228e+002, 1.695758e+002
6.732050e+002, 1.689571e+002
6.736871e+002, 1.682278e+002
6.741692e+002, 1.671095e+002
6.746513e+002, 1.659910e+002
6.751334e+002, 1.653569e+002
6.756155e+002, 1.656867e+002
6.760977e+002, 1.659494e+002
6.765798e+002, 1.659241e+002
6.770619e+002, 1.656906e+002
6.775440e+002, 1.653697e+002
6.780261e+002, 1.649881e+002
6.785082e+002, 1.644585e+002
6.789904e+002, 1.636984e+002
6.794725e+002, 1.628348e+002
6.799546e+002, 1.621708e+002
6.804367e+002, 1.617194e+002
6.809188e+002, 1.613598e+002
6.814009e+002, 1.610029e+002
6.818831e+002, 1.607407e+002
6.823652e+002, 1.608904e+002
6.828473e+002, 1.613550e+002
6.833294e+002, 1.616388e+002
6.838115e+002, 1.613943e+002
6.842936e+002, 1.609075e+002
6.847758e+002, 1.602634e+002
6.852579e+002, 1.594812e+002
6.857400e+002, 1.589508e+002
6.862221e+002, 1.590082e+002
6.867042e+002, 1.591554e+002
6.871863e+002, 1.591640e+002
6.876685e+002, 1.590483e+002
6.881506e+002, 1.586563e+002
6.886327e+002, 1.578117e+002
6.891148e+002, 1.570317e+002
6.895969e+002, 1.569380e+002
6.900790e+002, 1.574610e+002
6.905612e+002, 1.574722e+002
6.910433e+002, 1.567678e+002
6.915254e+002, 1.559947e+002
6.920075e+002, 1.560204e+002
6.924896e+002, 1.564991e+002
6.929717e+002, 1.568175e+002
6.934539e+002, 1.568489e+002
6.939360e+002, 1.565966e+002
6.944181e+002, 1.557646e+002
6.949002e+002, 1.547247e+002
6.953823e+002, 1.540523e+002
6.958644e+002, 1.542422e+002
6.963466e+002, 1.543783e+002
6.968287e+002, 1.543662e+002
6.973108e+002, 1.542131e+002
6.977929e+002, 1.538986e+002
6.982750e+002, 1.533638e+002
6.987571e+002, 1.529128e+002
6.992393e+002, 1.526868e+002
6.997214e+002, 1.525908e+002
7.002035e+002, 1.523360e+002
7.006856e+002, 1.519341e+002
7.011677e+002, 1.514910e+002
7.016498e+002, 1.509350e+002
7.021320e+002, 1.504508e+002
7.026141e+002, 1.502789e+002
7.030962e+002, 1.503996e+002
7.035783e+002, 1.506023e+002
7.040604e+002, 1.509331e+002
7.045425e+002, 1.511963e+002
7.050247e+002, 1.512520e+002
7.055068e+002, 1.510437e+002
7.059889e+002, 1.508671e+002
7.064710e+002, 1.507365e+002
7.069531e+002, 1.506176e+002
7.074352e+002, 1.504987e+002
7.079174e+002, 1.503844e+002
7.083995e+002, 1.501839e+002
7.088816e+002, 1.498591e+002
7.093637e+002, 1.496299e+002
7.098458e+002, 1.499126e+002
7.103279e+002, 1.504576e+002
7.108101e+002, 1.506190e+002
7.112922e+002, 1.502364e+002
7.117743e+002, 1.496759e+002
7.122564e+002, 1.491658e+002
7.127385e+002, 1.486582e+002
7.132206e+002, 1.480818e+002
7.137028e+002, 1.471331e+002
7.141849e+002, 1.465218e+002
7.146670e+002, 1.465518e+002
7.151491e+002, 1.469304e+002
7.156312e+002, 1.473064e+002
7.161133e+002, 1.477097e+002
7.165955e+002, 1.480187e+002
7.170776e+002, 1.482143e+002
7.175597e+002, 1.482961e+002
7.180418e+002, 1.481997e+002
7.185239e+002, 1.479460e+002
7.190060e+002, 1.477697e+002
7.194882e+002, 1.478225e+002
7.199703e+002, 1.479285e+002
7.204524e+002, 1.478282e+002
7.209345e+002, 1.475927e+002
7.214166e+002, 1.474326e+002
7.218987e+002, 1.475941e+002
7.223809e+002, 1.477125e+002
7.228630e+002, 1.475591e+002
7.233451e+002, 1.471698e+002
7.238272e+002, 1.469063e+002
7.243093e+002, 1.469765e+002
7.247914e+002, 1.468829e+002
7.252736e+002, 1.463371e+002
7.257557e+002, 1.454073e+002
7.262378e+002, 1.449572e+002
7.267199e+002, 1.450162e+002
7.272020e+002, 1.452879e+002
7.276841e+002, 1.457021e+002
7.281663e+002, 1.461589e+002
7.286484e+002, 1.464118e+002
7.291305e+002, 1.464580e+002
7.296126e+002, 1.464305e+002
7.300947e+002, 1.465064e+002
7.305768e+002, 1.464864e+002
7.310590e+002, 1.460847e+002
7.315411e+002, 1.451097e+002
7.320232e+002, 1.445903e+002
7.325053e+002, 1.452378e+002
7.329874e+002, 1.459648e+002
7.334695e+002, 1.460755e+002
7.339517e+002, 1.453187e+002
7.344338e+002, 1.448246e+002
7.349159e+002, 1.446352e+002
7.353980e+002, 1.445780e+002
7.358801e+002, 1.444964e+002
7.363622e+002, 1.443937e+002
7.368444e+002, 1.442797e+002
7.373265e+002, 1.441536e+002
7.378086e+002, 1.440362e+002
7.382907e+002, 1.439405e+002
7.387728e+002, 1.438724e+002
7.392549e+002, 1.438369e+002
7.397371e+002, 1.438156e+002
7.402192e+002, 1.438668e+002
7.407013e+002, 1.441415e+002
7.411834e+002, 1.444413e+002
7.416655e+002, 1.444910e+002
7.421476e+002, 1.441426e+002
7.426298e+002, 1.439090e+002
7.431119e+002, 1.439021e+002
7.435940e+002, 1.439627e+002
7.440761e+002, 1.437559e+002
7.445582e+002, 1.433118e+002
7.450403e+002, 1.429295e+002
7.455225e+002, 1.426568e+002
7.460046e+002, 1.425514e+002
7.464867e+002, 1.428371e+002
7.469688e+002, 1.433318e+002
7.474509e+002, 1.436429e+002
7.479330e+002, 1.433387e+002
7.484152e+002, 1.431042e+002
7.488973e+002, 1.433033e+002
7.493794e+002, 1.437945e+002
7.498615e+002, 1.440884e+002
7.503436e+002, 1.440754e+002
7.508257e+002, 1.440700e+002
7.513079e+002, 1.442301e+002
7.517900e+002, 1.444268e+002
7.522721e+002, 1.441098e+002
7.527542e+002, 1.432811e+002
7.532363e+002, 1.424385e+002
7.537184e+002, 1.417274e+002
7.542006e+002, 1.412200e+002
7.546827e+002, 1.411085e+002
7.551648e+002, 1.413254e+002
7.556469e+002, 1.415927e+002
7.561290e+002, 1.418266e+002
7.566111e+002, 1.420191e+002
7.570933e+002, 1.420631e+002
7.575754e+002, 1.419848e+002
7.580575e+002, 1.422933e+002
7.585396e+002, 1.435106e+002
7.590217e+002, 1.443544e+002
7.595038e+002, 1.442258e+002
7.599860e+002, 1.432213e+002
7.604681e+002, 1.424093e+002
7.609502e+002, 1.417950e+002
7.614323e+002, 1.413548e+002
7.619144e+002, 1.410750e+002
7.623965e+002, 1.409575e+002
7.628787e+002, 1.410986e+002
7.633608e+002, 1.414688e+002
7.638429e+002, 1.417354e+002
7.643250e+002, 1.415876e+002
7.648071e+002, 1.413497e+002
7.652892e+002, 1.412853e+002
7.657714e+002, 1.414608e+002
7.662535e+002, 1.414053e+002
7.667356e+002, 1.408647e+002
7.672177e+002, 1.403939e+002
7.676998e+002, 1.403839e+002
7.681819e+002, 1.408829e+002
7.686641e+002, 1.409408e+002
7.691462e+002, 1.405041e+002
7.696283e+002, 1.400364e+002
7.701104e+002, 1.399790e+002
7.705925e+002, 1.401519e+002
7.710746e+002, 1.401819e+002
7.715568e+002, 1.400264e+002
7.720389e+002, 1.399367e+002
7.725210e+002, 1.402460e+002
7.730031e+002, 1.405637e+002
7.734852e+002, 1.405396e+002
7.739673e+002, 1.399512e+002
7.744495e+002, 1.395972e+002
7.749316e+002, 1.396330e+002
7.754137e+002, 1.397497e+002
7.758958e+002, 1.397318e+002
7.763779e+002, 1.395735e+002
7.768600e+002, 1.393210e+002
7.773422e+002, 1.389608e+002
7.778243e+002, 1.386004e+002
7.783064e+002, 1.383030e+002
7.787885e+002, 1.380959e+002
7.792706e+002, 1.380333e+002
7.797527e+002, 1.381297e+002
7.802349e+002, 1.383463e+002
7.807170e+002, 1.387949e+002
7.811991e+002, 1.392747e+002
7.816812e+002, 1.396198e+002
7.821633e+002, 1.398570e+002
7.826454e+002, 1.398155e+002
7.831276e+002, 1.393469e+002
7.836097e+002, 1.387774e+002
7.840918e+002, 1.384089e+002
7.845739e+002, 1.382427e+002
7.850560e+002, 1.382610e+002
7.855381e+002, 1.385008e+002
7.860203e+002, 1.387160e+002
7.865024e+002, 1.386408e+002
7.869845e+002, 1.383494e+002
7.874666e+002, 1.379029e+002
7.879487e+002, 1.371857e+002
7.884308e+002, 1.367342e+002
7.889130e+002, 1.370697e+002
7.893951e+002, 1.376559e+002
7.898772e+002, 1.379306e+002
7.903593e+002, 1.375431e+002
7.908414e+002, 1.373996e+002
7.913235e+002, 1.375568e+002
7.918057e+002, 1.378893e+002
7.922878e+002, 1.383759e+002
7.927699e+002, 1.389875e+002
7.932520e+002, 1.390967e+002
7.937341e+002, 1.385343e+002
7.942162e+002, 1.378272e+002
7.946984e+002, 1.375817e+002
7.951805e+002, 1.375562e+002
7.956626e+002, 1.373372e+002
7.961447e+002, 1.366437e+002
7.966268e+002, 1.361621e+002
7.971089e+002, 1.362990e+002
7.975911e+002, 1.366922e+002
7.980732e+002, 1.369261e+002
7.985553e+002, 1.369010e+002
7.990374e+002, 1.369498e+002
7.995195e+002, 1.371047e+002
8.000016e+002, 1.373132e+002
8.004838e+002, 1.376210e+002
8.009659e+002, 1.379636e+002
8.014480e+002, 1.378990e+002
8.019301e+002, 1.372564e+002
8.024122e+002, 1.365848e+002
8.028943e+002, 1.364054e+002
8.033765e+002, 1.365307e+002
8.038586e+002, 1.367304e+002
8.043407e+002, 1.370725e+002
8.048228e+002, 1.372538e+002
8.053049e+002, 1.371104e+002
8.057870e+002, 1.368329e+002
8.062692e+002, 1.365849e+002
8.067513e+002, 1.363449e+002
8.072334e+002, 1.362200e+002
8.077155e+002, 1.362342e+002
8.081976e+002, 1.363201e+002
8.086797e+002, 1.365296e+002
8.091619e+002, 1.367407e+002
8.096440e+002, 1.365059e+002
8.101261e+002, 1.355867e+002
8.106082e+002, 1.347690e+002
8.110903e+002, 1.347158e+002
8.115724e+002, 1.350466e+002
8.120546e+002, 1.353599e+002
8.125367e+002, 1.357024e+002
8.130188e+002, 1.357927e+002
8.135009e+002, 1.353997e+002
8.139830e+002, 1.349821e+002
8.144651e+002, 1.351812e+002
8.149473e+002, 1.360679e+002
8.154294e+002, 1.363499e+002
8.159115e+002, 1.358168e+002
8.163936e+002, 1.350588e+002
8.168757e+002, 1.346758e+002
8.173578e+002, 1.345666e+002
8.178400e+002, 1.345558e+002
8.183221e+002, 1.346140e+002
8.188042e+002, 1.347378e+002
8.192863e+002, 1.349116e+002
8.197684e+002, 1.351536e+002
8.202505e+002, 1.355236e+002
8.207327e+002, 1.363381e+002
8.212148e+002, 1.364716e+002
8.216969e+002, 1.355926e+002
8.221790e+002, 1.346257e+002
8.226611e+002, 1.347365e+002
8.231432e+002, 1.357227e+002
8.236254e+002, 1.363305e+002
8.241075e+002, 1.364262e+002
8.245896e+002, 1.361528e+002
8.250717e+002, 1.353727e+002
8.255538e+002, 1.344340e+002
8.260359e+002, 1.337154e+002
8.265181e+002, 1.332704e+002
8.270002e+002, 1.331093e+002
8.274823e+002, 1.336093e+002
8.279644e+002, 1.340996e+002
8.284465e+002, 1.340786e+002
8.289286e+002, 1.333661e+002
8.294108e+002, 1.330896e+002
8.298929e+002, 1.333267e+002
8.303750e+002, 1.336900e+002
8.308571e+002, 1.338787e+002
8.313392e+002, 1.339150e+002
8.318214e+002, 1.338528e+002
8.323035e+002, 1.336993e+002
8.327856e+002, 1.334027e+002
8.332677e+002, 1.325149e+002
8.337498e+002, 1.317667e+002
8.342319e+002, 1.318499e+002
8.347141e+002, 1.331839e+002
8.351962e+002, 1.338290e+002
8.356783e+002, 1.334821e+002
8.361604e+002, 1.329501e+002
8.366425e+002, 1.328103e+002
8.371246e+002, 1.330187e+002
8.376068e+002, 1.327725e+002
8.380889e+002, 1.320630e+002
8.385710e+002, 1.316165e+002
8.390531e+002, 1.324390e+002
8.395352e+002, 1.335433e+002
8.400173e+002, 1.337261e+002
8.404995e+002, 1.329275e+002
8.409816e+002, 1.323193e+002
8.414637e+002, 1.324607e+002
8.419458e+002, 1.327214e+002
8.424279e+002, 1.328500e+002
8.429100e+002, 1.328464e+002
8.433922e+002, 1.326599e+002
8.438743e+002, 1.322247e+002
8.443564e+002, 1.319622e+002
8.448385e+002, 1.323258e+002
8.453206e+002, 1.329860e+002
8.458027e+002, 1.331677e+002
8.462849e+002, 1.329223e+002
8.467670e+002, 1.325290e+002
8.472491e+002, 1.318697e+002
8.477312e+002, 1.313613e+002
8.482133e+002, 1.313662e+002
8.486954e+002, 1.318223e+002
8.491776e+002, 1.320317e+002
8.496597e+002, 1.319168e+002
8.501418e+002, 1.316801e+002
8.506239e+002, 1.313455e+002
8.511060e+002, 1.309649e+002
8.515881e+002, 1.306812e+002
8.520703e+002, 1.305016e+002
8.525524e+002, 1.304855e+002
8.530345e+002, 1.307988e+002
8.535166e+002, 1.311604e+002
8.539987e+002, 1.313920e+002
8.544808e+002, 1.314681e+002
8.549630e+002, 1.313249e+002
8.554451e+002, 1.305630e+002
8.559272e+002, 1.300536e+002
8.564093e+002, 1.300981e+002
8.568914e+002, 1.304321e+002
8.573735e+002, 1.303931e+002
8.578557e+002, 1.299339e+002
8.583378e+002, 1.297010e+002
8.588199e+002, 1.299663e+002
8.593020e+002, 1.303252e+002
8.597841e+002, 1.300620e+002
8.602662e+002, 1.294534e+002
8.607484e+002, 1.290647e+002
8.612305e+002, 1.290280e+002
8.617126e+002, 1.293389e+002
8.621947e+002, 1.304984e+002
8.626768e+002, 1.317917e+002
8.631589e+002, 1.321538e+002
8.636411e+002, 1.311111e+002
8.641232e+002, 1.305471e+002
8.646053e+002, 1.307622e+002
8.650874e+002, 1.311775e+002
8.655695e+002, 1.310704e+002
8.660516e+002, 1.305318e+002
8.665338e+002, 1.297646e+002
8.670159e+002, 1.287154e+002
8.674980e+002, 1.278807e+002
8.679801e+002, 1.276308e+002
8.684622e+002, 1.277485e+002
8.689443e+002, 1.280679e+002
8.694265e+002, 1.288239e+002
8.699086e+002, 1.291161e+002
8.703907e+002, 1.287332e+002
8.708728e+002, 1.282172e+002
8.713549e+002, 1.280082e+002
8.718370e+002, 1.280834e+002
8.723192e+002, 1.282068e+002
8.728013e+002, 1.283730e+002
8.732834e+002, 1.284727e+002
8.737655e+002, 1.283373e+002
8.742476e+002, 1.281410e+002
8.747297e+002, 1.281017e+002
8.752119e+002, 1.282442e+002
8.756940e+002, 1.282436e+002
8.761761e+002, 1.277915e+002
8.766582e+002, 1.274277e+002
8.771403e+002, 1.274325e+002
8.776224e+002, 1.277608e+002
8.781046e+002, 1.277713e+002
8.785867e+002, 1.274531e+002
8.790688e+002, 1.270769e+002
8.795509e+002, 1.267063e+002
8.800330e+002, 1.264405e+002
8.805151e+002, 1.265289e+002
8.809973e+002, 1.268755e+002
8.814794e+002, 1.271077e+002
8.819615e+002, 1.270644e+002
8.824436e+002, 1.268864e+002
8.829257e+002, 1.265713e+002
8.834078e+002, 1.261707e+002
8.838900e+002, 1.257446e+002
8.843721e+002, 1.252294e+002
8.848542e+002, 1.250623e+002
8.853363e+002, 1.254905e+002
8.858184e+002, 1.261299e+002
8.863005e+002, 1.262903e+002
8.867827e+002, 1.261169e+002
8.872648e+002, 1.259804e+002
8.877469e+002, 1.260350e+002
8.882290e+002, 1.261218e+002
8.887111e+002, 1.262826e+002
8.891932e+002, 1.263858e+002
8.896754e+002, 1.262207e+002
8.901575e+002, 1.256250e+002
8.906396e+002, 1.251873e+002
8.911217e+002, 1.249556e+002
8.916038e+002, 1.248944e+002
8.920859e+002, 1.250269e+002
8.925681e+002, 1.252933e+002
8.930502e+002, 1.255210e+002
8.935323e+002, 1.256848e+002
8.940144e+002, 1.257804e+002
8.944965e+002, 1.257743e+002
8.949786e+002, 1.257166e+002
8.954608e+002, 1.256423e+002
8.959429e+002, 1.255446e+002
8.964250e+002, 1.254777e+002
8.969071e+002, 1.254635e+002
8.973892e+002, 1.254351e+002
8.978713e+002, 1.253674e+002
8.983535e+002, 1.252504e+002
8.988356e+002, 1.249859e+002
8.993177e+002, 1.245856e+002
8.997998e+002, 1.242276e+002
9.002819e+002, 1.238598e+002
9.007640e+002, 1.237196e+002
9.012462e+002, 1.241745e+002
9.017283e+002, 1.251404e+002
9.022104e+002, 1.257233e+002
9.026925e+002, 1.256576e+002
9.031746e+002, 1.254892e+002
9.036567e+002, 1.253268e+002
9.041389e+002, 1.252023e+002
9.046210e+002, 1.253179e+002
9.051031e+002, 1.256245e+002
9.055852e+002, 1.256731e+002
9.060673e+002, 1.251204e+002
9.065494e+002, 1.244560e+002
9.070316e+002, 1.240401e+002
9.075137e+002, 1.238452e+002
9.079958e+002, 1.238198e+002
9.084779e+002, 1.241592e+002
9.089600e+002, 1.243840e+002
9.094421e+002, 1.244153e+002
9.099243e+002, 1.243555e+002
9.104064e+002, 1.243293e+002
9.108885e+002, 1.243370e+002
9.113706e+002, 1.243641e+002
9.118527e+002, 1.243988e+002
9.123348e+002, 1.245187e+002
9.128170e+002, 1.250207e+002
9.132991e+002, 1.255313e+002
9.137812e+002, 1.255350e+002
9.142633e+002, 1.247533e+002
9.147454e+002, 1.243174e+002
9.152275e+002, 1.246964e+002
9.157097e+002, 1.251011e+002
9.161918e+002, 1.250364e+002
9.166739e+002, 1.245122e+002
9.171560e+002, 1.241183e+002
9.176381e+002, 1.238568e+002
9.181202e+002, 1.238081e+002
9.186024e+002, 1.242449e+002
9.190845e+002, 1.247728e+002
9.195666e+002, 1.249685e+002
9.200487e+002, 1.248549e+002
9.205308e+002, 1.246613e+002
9.210129e+002, 1.242632e+002
9.214951e+002, 1.240295e+002
9.219772e+002, 1.241253e+002
9.224593e+002, 1.244132e+002
9.229414e+002, 1.244243e+002
9.234235e+002, 1.241653e+002
9.239056e+002, 1.240811e+002
9.243878e+002, 1.244086e+002
9.248699e+002, 1.247861e+002
9.253520e+002, 1.247962e+002
9.258341e+002, 1.245791e+002
9.263162e+002, 1.243499e+002
9.267983e+002, 1.239039e+002
9.272805e+002, 1.239021e+002
9.277626e+002, 1.248742e+002
9.282447e+002, 1.258378e+002
9.287268e+002, 1.256139e+002
9.292089e+002, 1.241965e+002
9.296910e+002, 1.232295e+002
9.301732e+002, 1.228454e+002
9.306553e+002, 1.228004e+002
9.311374e+002, 1.230573e+002
9.316195e+002, 1.234277e+002
9.321016e+002, 1.237014e+002
9.325837e+002, 1.238463e+002
9.330659e+002, 1.240025e+002
9.335480e+002, 1.242739e+002
9.340301e+002, 1.244672e+002
9.345122e+002, 1.244865e+002
9.349943e+002, 1.243539e+002
9.354764e+002, 1.241715e+002
9.359586e+002, 1.239419e+002
9.364407e+002, 1.238992e+002
9.369228e+002, 1.244128e+002
9.374049e+002, 1.249276e+002
9.378870e+002, 1.247048e+002
9.383691e+002, 1.240474e+002
9.388513e+002, 1.236611e+002
9.393334e+002, 1.240372e+002
9.398155e+002, 1.243024e+002
9.402976e+002, 1.243172e+002
9.407797e+002, 1.241981e+002
9.412618e+002, 1.240793e+002
9.417440e+002, 1.239715e+002
9.422261e+002, 1.240407e+002
9.427082e+002, 1.243563e+002
9.431903e+002, 1.246304e+002
9.436724e+002, 1.245998e+002
9.441545e+002, 1.243739e+002
9.446367e+002, 1.239983e+002
9.451188e+002, 1.233702e+002
9.456009e+002, 1.230646e+002
9.460830e+002, 1.231673e+002
9.465651e+002, 1.235023e+002
9.470472e+002, 1.241045e+002
9.475294e+002, 1.248957e+002
9.480115e+002, 1.250952e+002
9.484936e+002, 1.247472e+002
9.489757e+002, 1.243508e+002
9.494578e+002, 1.242153e+002
9.499399e+002, 1.241608e+002
9.504221e+002, 1.240303e+002
9.509042e+002, 1.238611e+002
9.513863e+002, 1.238173e+002
9.518684e+002, 1.240082e+002
9.523505e+002, 1.241620e+002
9.528326e+002, 1.242583e+002
9.533148e+002, 1.242668e+002
9.537969e+002, 1.240529e+002
9.542790e+002, 1.236845e+002
9.547611e+002, 1.234447e+002
9.552432e+002, 1.234091e+002
9.557253e+002, 1.235011e+002
9.562075e+002, 1.238605e+002
9.566896e+002, 1.242045e+002
9.571717e+002, 1.241875e+002
9.576538e+002, 1.235388e+002
9.581359e+002, 1.233775e+002
9.586180e+002, 1.238975e+002
9.591002e+002, 1.244084e+002
9.595823e+002, 1.241008e+002
9.600644e+002, 1.234156e+002
9.605465e+002, 1.240838e+002
9.610286e+002, 1.259039e+002
9.615107e+002, 1.271138e+002
9.619929e+002, 1.257566e+002
9.624750e+002, 1.244875e+002
9.629571e+002, 1.252268e+002
9.634392e+002, 1.272520e+002
9.639213e+002, 1.277671e+002
9.644034e+002, 1.263898e+002
9.648856e+002, 1.249614e+002
9.653677e+002, 1.238197e+002
9.658498e+002, 1.230532e+002
9.663319e+002, 1.229685e+002
9.668140e+002, 1.233253e+002
9.672961e+002, 1.236480e+002
9.677783e+002, 1.238544e+002
9.682604e+002, 1.239004e+002
9.687425e+002, 1.235943e+002
9.692246e+002, 1.232553e+002
9.697067e+002, 1.231272e+002
9.701888e+002, 1.232315e+002
9.706710e+002, 1.234299e+002
9.711531e+002, 1.237317e+002
9.716352e+002, 1.240177e+002
9.721173e+002, 1.242236e+002
9.725994e+002, 1.243371e+002
9.730815e+002, 1.243016e+002
9.735637e+002, 1.241420e+002
9.740458e+002, 1.240074e+002
9.745279e+002, 1.240130e+002
9.750100e+002, 1.239574e+002
9.754921e+002, 1.237157e+002
9.759742e+002, 1.234273e+002
9.764564e+002, 1.235025e+002
9.769385e+002, 1.239185e+002
9.774206e+002, 1.241958e+002
9.779027e+002, 1.241715e+002
9.783848e+002, 1.240952e+002
9.788669e+002, 1.242953e+002
9.793491e+002, 1.245408e+002
9.798312e+002, 1.245487e+002
9.803133e+002, 1.241936e+002
9.807954e+002, 1.237492e+002
9.812775e+002, 1.230798e+002
9.817596e+002, 1.225709e+002
9.822418e+002, 1.225795e+002
9.827239e+002, 1.229946e+002
9.832060e+002, 1.232262e+002
9.836881e+002, 1.232877e+002
9.841702e+002, 1.233459e+002
9.846523e+002, 1.235212e+002
9.851345e+002, 1.237025e+002
9.856166e+002, 1.238632e+002
9.860987e+002, 1.239717e+002
9.865808e+002, 1.239212e+002
9.870629e+002, 1.236111e+002
9.875450e+002, 1.234993e+002
9.880272e+002, 1.237527e+002
9.885093e+002, 1.240541e+002
9.889914e+002, 1.237973e+002
9.894735e+002, 1.232554e+002
9.899556e+002, 1.230084e+002
9.904377e+002, 1.232404e+002
9.909199e+002, 1.235245e+002
9.914020e+002, 1.239269e+002
9.918841e+002, 1.240989e+002
9.923662e+002, 1.236860e+002
9.928483e+002, 1.226610e+002
9.933304e+002, 1.223278e+002
9.938126e+002, 1.227216e+002
9.942947e+002, 1.231903e+002
9.947768e+002, 1.233669e+002
9.952589e+002, 1.233629e+002
9.957410e+002, 1.232013e+002
9.962231e+002, 1.229683e+002
9.967053e+002, 1.229037e+002
9.971874e+002, 1.234008e+002
9.976695e+002, 1.235886e+002
9.981516e+002, 1.231204e+002
9.986337e+002, 1.225590e+002
9.991158e+002, 1.229795e+002
9.995980e+002, 1.241915e+002
1.000080e+003, 1.247632e+002
1.000562e+003, 1.244410e+002
1.001044e+003, 1.239418e+002
1.001526e+003, 1.237310e+002
1.002009e+003, 1.236409e+002
1.002491e+003, 1.235393e+002
1.002973e+003, 1.234104e+002
1.003455e+003, 1.233353e+002
1.003937e+003, 1.233311e+002
1.004419e+003, 1.233329e+002
1.004901e+003, 1.233201e+002
1.005383e+003, 1.232872e+002
1.005865e+003, 1.231300e+002
1.006348e+003, 1.229383e+002
1.006830e+003, 1.229652e+002
1.007312e+003, 1.237719e+002
1.007794e+003, 1.242537e+002
1.008276e+003, 1.236260e+002
1.008758e+003, 1.227874e+002
1.009240e+003, 1.228057e+002
1.009722e+003, 1.238135e+002
1.010205e+003, 1.242438e+002
1.010687e+003, 1.239600e+002
1.011169e+003, 1.234993e+002
1.011651e+003, 1.233514e+002
1.012133e+003, 1.232737e+002
1.012615e+003, 1.228556e+002
1.013097e+003, 1.221194e+002
1.013579e+003, 1.219296e+002
1.014061e+003, 1.227523e+002
1.014544e+003, 1.235950e+002
1.015026e+003, 1.242731e+002
1.015508e+003, 1.246963e+002
1.015990e+003, 1.244585e+002
1.016472e+003, 1.237413e+002
1.016954e+003, 1.233285e+002
1.017436e+003, 1.236081e+002
1.017918e+003, 1.238559e+002
1.018401e+003, 1.233665e+002
1.018883e+003, 1.227871e+002
1.019365e+003, 1.228548e+002
1.019847e+003, 1.238366e+002
1.020329e+003, 1.241102e+002
1.020811e+003, 1.235459e+002
1.021293e+003, 1.229863e+002
1.021775e+003, 1.230972e+002
1.022257e+003, 1.235617e+002
1.022740e+003, 1.239728e+002
1.023222e+003, 1.243065e+002
1.023704e+003, 1.245109e+002
1.024186e+003, 1.244727e+002
1.024668e+003, 1.244267e+002
1.025150e+003, 1.244879e+002
1.025632e+003, 1.245071e+002
1.026114e+003, 1.240596e+002
1.026596e+003, 1.232491e+002
1.027079e+003, 1.230508e+002
1.027561e+003, 1.236814e+002
1.028043e+003, 1.244096e+002
1.028525e+003, 1.247586e+002
1.029007e+003, 1.248611e+002
1.029489e+003, 1.247678e+002
1.029971e+003, 1.244738e+002
1.030453e+003, 1.242778e+002
1.030936e+003, 1.241940e+002
1.031418e+003, 1.241707e+002
1.031900e+003, 1.242191e+002
1.032382e+003, 1.242770e+002
1.032864e+003, 1.242123e+002
1.033346e+003, 1.240586e+002
1.033828e+003, 1.238874e+002
1.034310e+003, 1.235241e+002
1.034792e+003, 1.234670e+002
1.035275e+003, 1.242455e+002
1.035757e+003, 1.250144e+002
1.036239e+003, 1.249101e+002
1.036721e+003, 1.239344e+002
1.037203e+003, 1.233996e+002
1.037685e+003, 1.233531e+002
1.038167e+003, 1.234361e+002
1.038649e+003, 1.234047e+002
1.039132e+003, 1.233841e+002
1.039614e+003, 1.235367e+002
1.040096e+003, 1.238070e+002
1.040578e+003, 1.239041e+002
1.041060e+003, 1.237865e+002
1.041542e+003, 1.235296e+002
1.042024e+003, 1.230404e+002
1.042506e+003, 1.226520e+002
1.042989e+003, 1.230591e+002
1.043471e+003, 1.238941e+002
1.043953e+003, 1.243670e+002
1.044435e+003, 1.242802e+002
1.044917e+003, 1.241358e+002
1.045399e+003, 1.240962e+002
1.045881e+003, 1.240774e+002
1.046363e+003, 1.240223e+002
1.046845e+003, 1.239474e+002
1.047328e+003, 1.240072e+002
1.047810e+003, 1.241949e+002
1.048292e+003, 1.243691e+002
1.048774e+003, 1.244981e+002
1.049256e+003, 1.245481e+002
1.049738e+003, 1.244257e+002
1.050220e+003, 1.242308e+002
1.050702e+003, 1.241401e+002
1.051184e+003, 1.243185e+002
1.051667e+003, 1.241600e+002
1.052149e+003, 1.235012e+002
1.052631e+003, 1.229990e+002
1.053113e+003, 1.235333e+002
1.053595e+003, 1.245030e+002
1.054077e+003, 1.246686e+002
1.054559e+003, 1.240825e+002
1.055041e+003, 1.234816e+002
1.055523e+003, 1.231356e+002
1.056006e+003, 1.228466e+002
1.056488e+003, 1.224742e+002
1.056970e+003, 1.221819e+002
1.057452e+003, 1.224053e+002
1.057934e+003, 1.230787e+002
1.058416e+003, 1.236077e+002
1.058898e+003, 1.238861e+002
1.059380e+003, 1.239663e+002
1.059863e+003, 1.237311e+002
1.060345e+003, 1.234326e+002
1.060827e+003, 1.232718e+002
1.061309e+003, 1.232606e+002
1.061791e+003, 1.233929e+002
1.062273e+003, 1.237427e+002
1.062755e+003, 1.238594e+002
1.063237e+003, 1.234279e+002
1.063719e+003, 1.228091e+002
1.064202e+003, 1.223629e+002
1.064684e+003, 1.221873e+002
1.065166e+003, 1.225118e+002
1.065648e+003, 1.240731e+002
1.066130e+003, 1.249134e+002
1.066612e+003, 1.246273e+002
1.067094e+003, 1.239421e+002
1.067576e+003, 1.231420e+002
1.068059e+003, 1.223979e+002
1.068541e+003, 1.232258e+002
1.069023e+003, 1.253826e+002
1.069505e+003, 1.267751e+002
1.069987e+003, 1.254002e+002
1.070469e+003, 1.237300e+002
1.070951e+003, 1.228854e+002
1.071433e+003, 1.227011e+002
1.071916e+003, 1.230383e+002
1.072398e+003, 1.240153e+002
1.072880e+003, 1.243308e+002
1.073362e+003, 1.237217e+002
1.073844e+003, 1.230108e+002
1.074326e+003, 1.230839e+002
1.074808e+003, 1.234636e+002
1.075290e+003, 1.236765e+002
1.075772e+003, 1.236741e+002
1.076255e+003, 1.235859e+002
1.076737e+003, 1.233274e+002
1.077219e+003, 1.232394e+002
1.077701e+003, 1.235113e+002
1.078183e+003, 1.239003e+002
1.078665e+003, 1.238415e+002
1.079147e+003, 1.235349e+002
1.079629e+003, 1.234779e+002
1.080111e+003, 1.239233e+002
1.080594e+003, 1.242559e+002
1.081076e+003, 1.240308e+002
1.081558e+003, 1.238614e+002
1.082040e+003, 1.242491e+002
1.082522e+003, 1.250782e+002
1.083004e+003, 1.248592e+002
1.083486e+003, 1.237334e+002
1.083968e+003, 1.230778e+002
1.084450e+003, 1.242310e+002
1.084933e+003, 1.254504e+002
1.085415e+003, 1.255826e+002
1.085897e+003, 1.250781e+002
1.086379e+003, 1.246795e+002
1.086861e+003, 1.244213e+002
1.087343e+003, 1.242313e+002
1.087825e+003, 1.241219e+002
1.088307e+003, 1.239846e+002
1.088790e+003, 1.235629e+002
1.089272e+003, 1.231708e+002
1.089754e+003, 1.233001e+002
1.090236e+003, 1.238549e+002
1.090718e+003, 1.242021e+002
1.091200e+003, 1.240542e+002
1.091682e+003, 1.240193e+002
1.092164e+003, 1.242393e+002
1.092646e+003, 1.245404e+002
1.093129e+003, 1.247134e+002
1.093611e+003, 1.247460e+002
1.094093e+003, 1.245758e+002
1.094575e+003, 1.241805e+002
1.095057e+003, 1.237801e+002
1.095539e+003, 1.232398e+002
1.096021e+003, 1.230088e+002
1.096503e+003, 1.234425e+002
1.096986e+003, 1.242686e+002
1.097468e+003, 1.243505e+002
1.097950e+003, 1.237850e+002
1.098432e+003, 1.234002e+002
1.098914e+003, 1.234973e+002
1.099396e+003, 1.237380e+002
1.099878e+003, 1.239793e+002
1.100360e+003, 1.241770e+002
1.100843e+003, 1.242825e+002
1.101325e+003, 1.242921e+002
1.101807e+003, 1.242681e+002
1.102289e+003, 1.242043e+002
1.102771e+003, 1.241749e+002
1.103253e+003, 1.242791e+002
1.103735e+003, 1.243838e+002
1.104217e+003, 1.241931e+002
1.104699e+003, 1.239194e+002
1.105182e+003, 1.239846e+002
1.105664e+003, 1.248807e+002
1.106146e+003, 1.253357e+002
1.106628e+003, 1.252561e+002
1.107110e+003, 1.249061e+002
1.107592e+003, 1.243171e+002
1.108074e+003, 1.237090e+002
1.108556e+003, 1.236029e+002
1.109038e+003, 1.239276e+002
1.109521e+003, 1.242057e+002
1.110003e+003, 1.242188e+002
1.110485e+003, 1.242163e+002
1.110967e+003, 1.242891e+002
1.111449e+003, 1.243298e+002
1.111931e+003, 1.240847e+002
1.112413e+003, 1.236507e+002
1.112895e+003, 1.234954e+002
1.113377e+003, 1.236759e+002
1.113860e+003, 1.239295e+002
1.114342e+003, 1.240968e+002
1.114824e+003, 1.243024e+002
1.115306e+003, 1.247379e+002
1.115788e+003, 1.252388e+002
1.116270e+003, 1.251413e+002
1.116752e+003, 1.244588e+002
1.117234e+003, 1.239784e+002
1.117717e+003, 1.239443e+002
1.118199e+003, 1.239703e+002
1.118681e+003, 1.235754e+002
1.119163e+003, 1.231719e+002
1.119645e+003, 1.232144e+002
1.120127e+003, 1.237392e+002
1.120609e+003, 1.241427e+002
1.121091e+003, 1.244275e+002
1.121573e+003, 1.245597e+002
1.122056e+003, 1.244926e+002
1.122538e+003, 1.243163e+002
1.123020e+003, 1.239505e+002
1.123502e+003, 1.236247e+002
1.123984e+003, 1.237487e+002
1.124466e+003, 1.248520e+002
1.124948e+003, 1.253044e+002
1.125430e+003, 1.249129e+002
1.125913e+003, 1.243266e+002
1.126395e+003, 1.238753e+002
1.126877e+003, 1.235869e+002
1.127359e+003, 1.235995e+002
1.127841e+003, 1.238237e+002
1.128323e+003, 1.240087e+002
1.128805e+003, 1.240650e+002
1.129287e+003, 1.240658e+002
1.129770e+003, 1.240062e+002
1.130252e+003, 1.239237e+002
1.130734e+003, 1.238245e+002
1.131216e+003, 1.237306e+002
1.131698e+003, 1.237859e+002
1.132180e+003, 1.239632e+002
1.132662e+003, 1.240337e+002
1.133144e+003, 1.236058e+002
1.133626e+003, 1.233744e+002
1.134109e+003, 1.236406e+002
1.134591e+003, 1.241870e+002
1.135073e+003, 1.248634e+002
1.135555e+003, 1.256082e+002
1.136037e+003, 1.255466e+002
1.136519e+003, 1.245556e+002
1.137001e+003, 1.237588e+002
1.137483e+003, 1.242412e+002
1.137965e+003, 1.249176e+002
1.138448e+003, 1.251318e+002
1.138930e+003, 1.249779e+002
1.139412e+003, 1.246707e+002
1.139894e+003, 1.241893e+002
1.140376e+003, 1.240350e+002
1.140858e+003, 1.243729e+002
1.141340e+003, 1.247379e+002
1.141822e+003, 1.246891e+002
1.142304e+003, 1.244719e+002
1.142787e+003, 1.242953e+002
1.143269e+003, 1.241769e+002
1.143751e+003, 1.240053e+002
1.144233e+003, 1.237234e+002
1.144715e+003, 1.237488e+002
1.145197e+003, 1.243523e+002
1.145679e+003, 1.250114e+002
1.146161e+003, 1.249692e+002
1.146644e+003, 1.246010e+002
1.147126e+003, 1.244096e+002
1.147608e+003, 1.245592e+002
1.148090e+003, 1.245450e+002
1.148572e+003, 1.242703e+002
1.149054e+003, 1.241252e+002
1.149536e+003, 1.244338e+002
1.150018e+003, 1.248337e+002
1.150500e+003, 1.245821e+002
1.150983e+003, 1.239639e+002
1.151465e+003, 1.235410e+002
1.151947e+003, 1.235135e+002
1.152429e+003, 1.236506e+002
1.152911e+003, 1.240846e+002
1.153393e+003, 1.243514e+002
1.153875e+003, 1.238811e+002
1.154357e+003, 1.230963e+002
1.154840e+003, 1.233640e+002
1.155322e+003, 1.243397e+002
1.155804e+003, 1.249139e+002
1.156286e+003, 1.241856e+002
1.156768e+003, 1.236779e+002
1.157250e+003, 1.236136e+002
1.157732e+003, 1.238121e+002
1.158214e+003, 1.242681e+002
1.158697e+003, 1.248502e+002
1.159179e+003, 1.248996e+002
1.159661e+003, 1.244855e+002
1.160143e+003, 1.241021e+002
1.160625e+003, 1.239866e+002
1.161107e+003, 1.239508e+002
1.161589e+003, 1.239072e+002
1.162071e+003, 1.239344e+002
1.162553e+003, 1.242334e+002
1.163036e+003, 1.247320e+002
1.163518e+003, 1.248715e+002
1.164000e+003, 1.246334e+002
1.164482e+003, 1.243955e+002
1.164964e+003, 1.243677e+002
1.165446e+003, 1.244226e+002
1.165928e+003, 1.245874e+002
1.166410e+003, 1.247464e+002
1.166892e+003, 1.246263e+002
1.167375e+003, 1.242541e+002
1.167857e+003, 1.240121e+002
1.168339e+003, 1.239485e+002
1.168821e+003, 1.240336e+002
1.169303e+003, 1.244636e+002
1.169785e+003, 1.248266e+002
1.170267e+003, 1.247575e+002
1.170749e+003, 1.244250e+002
1.171231e+003, 1.242998e+002
1.171714e+003, 1.243785e+002
1.172196e+003, 1.244585e+002
1.172678e+003, 1.244825e+002
1.173160e+003, 1.245972e+002
1.173642e+003, 1.251516e+002
1.174124e+003, 1.256629e+002
1.174606e+003, 1.256311e+002
1.175088e+003, 1.251650e+002
1.175571e+003, 1.248733e+002
1.176053e+003, 1.247543e+002
1.176535e+003, 1.248610e+002
1.177017e+003, 1.252898e+002
1.177499e+003, 1.256650e+002
1.177981e+003, 1.256102e+002
1.178463e+003, 1.253359e+002
1.178945e+003, 1.249415e+002
1.179427e+003, 1.244438e+002
1.179910e+003, 1.244104e+002
1.180392e+003, 1.248943e+002
1.180874e+003, 1.253105e+002
1.181356e+003, 1.254622e+002
1.181838e+003, 1.254081e+002
1.182320e+003, 1.250445e+002
1.182802e+003, 1.246078e+002
1.183284e+003, 1.243902e+002
1.183767e+003, 1.244438e+002
1.184249e+003, 1.244951e+002
1.184731e+003, 1.245383e+002
1.185213e+003, 1.246471e+002
1.185695e+003, 1.249838e+002
1.186177e+003, 1.252066e+002
1.186659e+003, 1.243667e+002
1.187141e+003, 1.233963e+002
1.187624e+003, 1.238681e+002
1.188106e+003, 1.266446e+002
1.188588e+003, 1.281360e+002
1.189070e+003, 1.281995e+002
1.189552e+003, 1.277318e+002
1.190034e+003, 1.270160e+002
1.190516e+003, 1.262927e+002
1.190998e+003, 1.257975e+002
1.191480e+003, 1.255314e+002
1.191963e+003, 1.255338e+002
1.192445e+003, 1.260519e+002
1.192927e+003, 1.261436e+002
1.193409e+003, 1.257153e+002
1.193891e+003, 1.252795e+002
1.194373e+003, 1.252011e+002
1.194855e+003, 1.253024e+002
1.195337e+003, 1.252714e+002
1.195819e+003, 1.252512e+002
1.196302e+003, 1.255903e+002
1.196784e+003, 1.266312e+002
1.197266e+003, 1.273758e+002
1.197748e+003, 1.278202e+002
1.198230e+003, 1.279038e+002
1.198712e+003, 1.272946e+002
1.199194e+003, 1.264954e+002
1.199676e+003, 1.261957e+002
1.200158e+003, 1.262771e+002
1.200641e+003, 1.264138e+002
1.201123e+003, 1.266776e+002
1.201605e+003, 1.266563e+002
1.202087e+003, 1.262581e+002
1.202569e+003, 1.258646e+002
1.203051e+003, 1.258201e+002
1.203533e+003, 1.259899e+002
1.204015e+003, 1.262990e+002
1.204498e+003, 1.266708e+002
1.204980e+003, 1.268624e+002
1.205462e+003, 1.267862e+002
1.205944e+003, 1.266588e+002
1.206426e+003, 1.264799e+002
1.206908e+003, 1.263176e+002
1.207390e+003, 1.261804e+002
1.207872e+003, 1.261380e+002
1.208354e+003, 1.263577e+002
1.208837e+003, 1.267724e+002
1.209319e+003, 1.270594e+002
1.209801e+003, 1.272010e+002
1.210283e+003, 1.271640e+002
1.210765e+003, 1.269114e+002
1.211247e+003, 1.266018e+002
1.211729e+003, 1.263165e+002
1.212211e+003, 1.261239e+002
1.212694e+003, 1.261344e+002
1.213176e+003, 1.263323e+002
1.213658e+003, 1.266276e+002
1.214140e+003, 1.271424e+002
1.214622e+003, 1.273020e+002
1.215104e+003, 1.269460e+002
1.215586e+003, 1.265633e+002
1.216068e+003, 1.267793e+002
1.216551e+003, 1.272076e+002
1.217033e+003, 1.273853e+002
1.217515e+003, 1.273131e+002
1.217997e+003, 1.272331e+002
1.218479e+003, 1.271306e+002
1.218961e+003, 1.271552e+002
1.219443e+003, 1.273570e+002
1.219925e+003, 1.275840e+002
1.220407e+003, 1.277428e+002
1.220890e+003, 1.277773e+002
1.221372e+003, 1.274804e+002
1.221854e+003, 1.269246e+002
1.222336e+003, 1.268475e+002
1.222818e+003, 1.274365e+002
1.223300e+003, 1.277944e+002
1.223782e+003, 1.277088e+002
1.224264e+003, 1.275267e+002
1.224746e+003, 1.277000e+002
1.225229e+003, 1.279280e+002
1.225711e+003, 1.278260e+002
1.226193e+003, 1.274161e+002
1.226675e+003, 1.272738e+002
1.227157e+003, 1.274567e+002
1.227639e+003, 1.276261e+002
1.228121e+003, 1.277147e+002
1.228603e+003, 1.277508e+002
1.229085e+003, 1.278395e+002
1.229568e+003, 1.278324e+002
1.230050e+003, 1.274583e+002
1.230532e+003, 1.267840e+002
1.231014e+003, 1.264912e+002
1.231496e+003, 1.265926e+002
1.231978e+003, 1.270152e+002
1.232460e+003, 1.278294e+002
1.232942e+003, 1.285216e+002
1.233425e+003, 1.284585e+002
1.233907e+003, 1.281714e+002
1.234389e+003, 1.281846e+002
1.234871e+003, 1.284336e+002
1.235353e+003, 1.283145e+002
1.235835e+003, 1.278043e+002
1.236317e+003, 1.275440e+002
1.236799e+003, 1.277460e+002
1.237281e+003, 1.279131e+002
1.237764e+003, 1.273437e+002
1.238246e+003, 1.268108e+002
1.238728e+003, 1.271661e+002
1.239210e+003, 1.281108e+002
1.239692e+003, 1.282646e+002
1.240174e+003, 1.276645e+002
1.240656e+003, 1.273773e+002
1.241138e+003, 1.277033e+002
1.241621e+003, 1.280980e+002
1.242103e+003, 1.283321e+002
1.242585e+003, 1.283027e+002
1.243067e+003, 1.277355e+002
1.243549e+003, 1.269124e+002
1.244031e+003, 1.270095e+002
1.244513e+003, 1.278932e+002
1.244995e+003, 1.284533e+002
1.245478e+003, 1.283748e+002
1.245960e+003, 1.283343e+002
1.246442e+003, 1.286365e+002
1.246924e+003, 1.292743e+002
1.247406e+003, 1.305208e+002
1.247888e+003, 1.318832e+002
1.248370e+003, 1.314196e+002
1.248852e+003, 1.296179e+002
1.249334e+003, 1.286249e+002
1.249817e+003, 1.290513e+002
1.250299e+003, 1.294570e+002
1.250781e+003, 1.290147e+002
1.251263e+003, 1.285753e+002
1.251745e+003, 1.285176e+002
1.252227e+003, 1.286557e+002
1.252709e+003, 1.284221e+002
1.253191e+003, 1.280083e+002
1.253673e+003, 1.280324e+002
1.254156e+003, 1.286879e+002
1.254638e+003, 1.292221e+002
1.255120e+003, 1.293396e+002
1.255602e+003, 1.293858e+002
1.256084e+003, 1.294678e+002
1.256566e+003, 1.295420e+002
1.257048e+003, 1.294873e+002
1.257530e+003, 1.293684e+002
1.258012e+003, 1.293204e+002
1.258495e+003, 1.293698e+002
1.258977e+003, 1.294389e+002
1.259459e+003, 1.294924e+002
1.259941e+003, 1.296311e+002
1.260423e+003, 1.299582e+002
1.260905e+003, 1.302305e+002
1.261387e+003, 1.298293e+002
1.261869e+003, 1.292363e+002
1.262352e+003, 1.292335e+002
1.262834e+003, 1.299769e+002
1.263316e+003, 1.305690e+002
1.263798e+003, 1.310297e+002
1.264280e+003, 1.310426e+002
1.264762e+003, 1.303874e+002
1.265244e+003, 1.296494e+002
1.265726e+003, 1.296132e+002
1.266208e+003, 1.298363e+002
1.266691e+003, 1.297533e+002
1.267173e+003, 1.293370e+002
1.267655e+003, 1.293590e+002
1.268137e+003, 1.298723e+002
1.268619e+003, 1.304179e+002
1.269101e+003, 1.309156e+002
1.269583e+003, 1.312191e+002
1.270065e+003, 1.310818e+002
1.270548e+003, 1.307786e+002
1.271030e+003, 1.305080e+002
1.271512e+003, 1.302882e+002
1.271994e+003, 1.301736e+002
1.272476e+003, 1.301645e+002
1.272958e+003, 1.302465e+002
1.273440e+003, 1.304420e+002
1.273922e+003, 1.305431e+002
1.274405e+003, 1.301496e+002
1.274887e+003, 1.298981e+002
1.275369e+003, 1.303625e+002
1.275851e+003, 1.311379e+002
1.276333e+003, 1.308928e+002
1.276815e+003, 1.298756e+002
1.277297e+003, 1.293521e+002
1.277779e+003, 1.295719e+002
1.278261e+003, 1.300859e+002
1.278744e+003, 1.312004e+002
1.279226e+003, 1.318445e+002
1.279708e+003, 1.314585e+002
1.280190e+003, 1.306299e+002
1.280672e+003, 1.305057e+002
1.281154e+003, 1.308477e+002
1.281636e+003, 1.310039e+002
1.282118e+003, 1.308844e+002
1.282600e+003, 1.309840e+002
1.283083e+003, 1.318199e+002
1.283565e+003, 1.322143e+002
1.284047e+003, 1.318197e+002
1.284529e+003, 1.310732e+002
1.285011e+003, 1.304191e+002
1.285493e+003, 1.299222e+002
1.285975e+003, 1.297942e+002
1.286457e+003, 1.300148e+002
1.286939e+003, 1.299713e+002
1.287422e+003, 1.294294e+002
1.287904e+003, 1.293265e+002
1.288386e+003, 1.299139e+002
1.288868e+003, 1.306406e+002
1.289350e+003, 1.310254e+002
1.289832e+003, 1.311582e+002
1.290314e+003, 1.310107e+002
1.290796e+003, 1.306741e+002
1.291279e+003, 1.305227e+002
1.291761e+003, 1.305504e+002
1.292243e+003, 1.309096e+002
1.292725e+003, 1.316557e+002
1.293207e+003, 1.321717e+002
1.293689e+003, 1.317532e+002
1.294171e+003, 1.311408e+002
1.294653e+003, 1.306912e+002
1.295135e+003, 1.304615e+002
1.295618e+003, 1.306901e+002
1.296100e+003, 1.313056e+002
1.296582e+003, 1.315689e+002
1.297064e+003, 1.314423e+002
1.297546e+003, 1.313322e+002
1.298028e+003, 1.314796e+002
1.298510e+003, 1.316200e+002
1.298992e+003, 1.316852e+002
1.299475e+003, 1.317090e+002
1.299957e+003, 1.317881e+002
1.300439e+003, 1.318532e+002
1.300921e+003, 1.315288e+002
1.301403e+003, 1.309215e+002
1.301885e+003, 1.306714e+002
##END=



