##NAMES=Brownmillerite
##RRUFFID=R130105
##IDEAL CHEMISTRY=Ca_2_Fe^3+^AlO_5_
##LOCALITY=Ettringer Feld, Bellerberg volcano, Ettringen, Mayen, Eifel, Rhineland-Palatinate, Germany
##OWNER=RRUFF
##SOURCE=Donald Doell
##DESCRIPTION=Brownish-red platy crystals. Diffraction indicates an I-centered lattice
##STATUS=The identification of this mineral has been confirmed by single-crystal X-ray diffraction.
##URL=rruff.info/R130105
8.936163e+001, 0.000000e+000
8.984375e+001, 4.567346e+002
9.032587e+001, 4.589325e+002
9.080798e+001, 4.593824e+002
9.129010e+001, 4.574554e+002
9.177222e+001, 4.545079e+002
9.225433e+001, 4.524156e+002
9.273645e+001, 4.510541e+002
9.321857e+001, 4.491343e+002
9.370068e+001, 4.454252e+002
9.418280e+001, 4.402559e+002
9.466492e+001, 4.346976e+002
9.514703e+001, 4.288335e+002
9.562915e+001, 4.228851e+002
9.611127e+001, 4.173344e+002
9.659338e+001, 4.122525e+002
9.707550e+001, 4.073844e+002
9.755762e+001, 4.019042e+002
9.803973e+001, 3.957582e+002
9.852185e+001, 3.909756e+002
9.900397e+001, 3.891311e+002
9.948608e+001, 3.903148e+002
9.996820e+001, 3.898949e+002
1.004503e+002, 3.876803e+002
1.009324e+002, 3.840446e+002
1.014146e+002, 3.795586e+002
1.018967e+002, 3.739140e+002
1.023788e+002, 3.681875e+002
1.028609e+002, 3.626093e+002
1.033430e+002, 3.567754e+002
1.038251e+002, 3.527062e+002
1.043073e+002, 3.513867e+002
1.047894e+002, 3.520895e+002
1.052715e+002, 3.509518e+002
1.057536e+002, 3.470287e+002
1.062357e+002, 3.422978e+002
1.067178e+002, 3.379790e+002
1.072000e+002, 3.336822e+002
1.076821e+002, 3.304572e+002
1.081642e+002, 3.292047e+002
1.086463e+002, 3.302105e+002
1.091284e+002, 3.292147e+002
1.096105e+002, 3.250721e+002
1.100927e+002, 3.194098e+002
1.105748e+002, 3.137894e+002
1.110569e+002, 3.067560e+002
1.115390e+002, 3.011557e+002
1.120211e+002, 2.982672e+002
1.125032e+002, 2.991939e+002
1.129854e+002, 2.988520e+002
1.134675e+002, 2.960863e+002
1.139496e+002, 2.917548e+002
1.144317e+002, 2.870479e+002
1.149138e+002, 2.801065e+002
1.153959e+002, 2.744647e+002
1.158781e+002, 2.722517e+002
1.163602e+002, 2.758452e+002
1.168423e+002, 2.784860e+002
1.173244e+002, 2.772967e+002
1.178065e+002, 2.733080e+002
1.182886e+002, 2.691434e+002
1.187708e+002, 2.657828e+002
1.192529e+002, 2.627429e+002
1.197350e+002, 2.596171e+002
1.202171e+002, 2.556791e+002
1.206992e+002, 2.523649e+002
1.211813e+002, 2.511034e+002
1.216635e+002, 2.515540e+002
1.221456e+002, 2.518797e+002
1.226277e+002, 2.511370e+002
1.231098e+002, 2.495405e+002
1.235919e+002, 2.473586e+002
1.240740e+002, 2.441548e+002
1.245562e+002, 2.407173e+002
1.250383e+002, 2.378152e+002
1.255204e+002, 2.354326e+002
1.260025e+002, 2.335505e+002
1.264846e+002, 2.325219e+002
1.269667e+002, 2.320286e+002
1.274489e+002, 2.312751e+002
1.279310e+002, 2.296624e+002
1.284131e+002, 2.275985e+002
1.288952e+002, 2.260106e+002
1.293773e+002, 2.250269e+002
1.298594e+002, 2.239861e+002
1.303416e+002, 2.217280e+002
1.308237e+002, 2.184583e+002
1.313058e+002, 2.155231e+002
1.317879e+002, 2.140687e+002
1.322700e+002, 2.137088e+002
1.327521e+002, 2.123594e+002
1.332343e+002, 2.095019e+002
1.337164e+002, 2.062294e+002
1.341985e+002, 2.047091e+002
1.346806e+002, 2.050666e+002
1.351627e+002, 2.055142e+002
1.356448e+002, 2.050439e+002
1.361270e+002, 2.036547e+002
1.366091e+002, 2.014371e+002
1.370912e+002, 1.980056e+002
1.375733e+002, 1.939506e+002
1.380554e+002, 1.911512e+002
1.385375e+002, 1.898703e+002
1.390197e+002, 1.890655e+002
1.395018e+002, 1.878192e+002
1.399839e+002, 1.859190e+002
1.404660e+002, 1.846079e+002
1.409481e+002, 1.843540e+002
1.414302e+002, 1.850295e+002
1.419124e+002, 1.848757e+002
1.423945e+002, 1.836091e+002
1.428766e+002, 1.819126e+002
1.433587e+002, 1.804695e+002
1.438408e+002, 1.794943e+002
1.443229e+002, 1.783501e+002
1.448051e+002, 1.768342e+002
1.452872e+002, 1.748368e+002
1.457693e+002, 1.731518e+002
1.462514e+002, 1.717624e+002
1.467335e+002, 1.706710e+002
1.472156e+002, 1.699196e+002
1.476978e+002, 1.702330e+002
1.481799e+002, 1.699972e+002
1.486620e+002, 1.686412e+002
1.491441e+002, 1.655621e+002
1.496262e+002, 1.630185e+002
1.501083e+002, 1.610233e+002
1.505905e+002, 1.595918e+002
1.510726e+002, 1.587611e+002
1.515547e+002, 1.592741e+002
1.520368e+002, 1.597523e+002
1.525189e+002, 1.598438e+002
1.530010e+002, 1.597619e+002
1.534832e+002, 1.588863e+002
1.539653e+002, 1.563008e+002
1.544474e+002, 1.528426e+002
1.549295e+002, 1.505220e+002
1.554116e+002, 1.511007e+002
1.558937e+002, 1.517745e+002
1.563759e+002, 1.512289e+002
1.568580e+002, 1.481530e+002
1.573401e+002, 1.453733e+002
1.578222e+002, 1.430095e+002
1.583043e+002, 1.412439e+002
1.587864e+002, 1.407469e+002
1.592686e+002, 1.431578e+002
1.597507e+002, 1.460458e+002
1.602328e+002, 1.478517e+002
1.607149e+002, 1.470083e+002
1.611970e+002, 1.462435e+002
1.616791e+002, 1.469350e+002
1.621613e+002, 1.487569e+002
1.626434e+002, 1.496107e+002
1.631255e+002, 1.476514e+002
1.636076e+002, 1.447588e+002
1.640897e+002, 1.426072e+002
1.645718e+002, 1.425598e+002
1.650540e+002, 1.426974e+002
1.655361e+002, 1.419442e+002
1.660182e+002, 1.403272e+002
1.665003e+002, 1.388302e+002
1.669824e+002, 1.383003e+002
1.674645e+002, 1.380964e+002
1.679467e+002, 1.374360e+002
1.684288e+002, 1.349604e+002
1.689109e+002, 1.326410e+002
1.693930e+002, 1.320417e+002
1.698751e+002, 1.332653e+002
1.703572e+002, 1.349729e+002
1.708394e+002, 1.363747e+002
1.713215e+002, 1.376408e+002
1.718036e+002, 1.390354e+002
1.722857e+002, 1.412733e+002
1.727678e+002, 1.434008e+002
1.732499e+002, 1.440338e+002
1.737321e+002, 1.428475e+002
1.742142e+002, 1.420435e+002
1.746963e+002, 1.437970e+002
1.751784e+002, 1.473898e+002
1.756605e+002, 1.511368e+002
1.761426e+002, 1.536308e+002
1.766248e+002, 1.559237e+002
1.771069e+002, 1.596358e+002
1.775890e+002, 1.651528e+002
1.780711e+002, 1.711311e+002
1.785532e+002, 1.759659e+002
1.790353e+002, 1.800182e+002
1.795175e+002, 1.843908e+002
1.799996e+002, 1.896046e+002
1.804817e+002, 1.955961e+002
1.809638e+002, 2.024670e+002
1.814459e+002, 2.104059e+002
1.819280e+002, 2.187978e+002
1.824102e+002, 2.272025e+002
1.828923e+002, 2.354535e+002
1.833744e+002, 2.435081e+002
1.838565e+002, 2.510306e+002
1.843386e+002, 2.582643e+002
1.848207e+002, 2.656974e+002
1.853029e+002, 2.735493e+002
1.857850e+002, 2.814789e+002
1.862671e+002, 2.892448e+002
1.867492e+002, 2.967989e+002
1.872313e+002, 3.038864e+002
1.877134e+002, 3.100540e+002
1.881956e+002, 3.155418e+002
1.886777e+002, 3.211910e+002
1.891598e+002, 3.272166e+002
1.896419e+002, 3.334739e+002
1.901240e+002, 3.396332e+002
1.906061e+002, 3.457632e+002
1.910883e+002, 3.520478e+002
1.915704e+002, 3.590074e+002
1.920525e+002, 3.665696e+002
1.925346e+002, 3.732104e+002
1.930167e+002, 3.781205e+002
1.934988e+002, 3.820568e+002
1.939810e+002, 3.865448e+002
1.944631e+002, 3.912999e+002
1.949452e+002, 3.971248e+002
1.954273e+002, 4.034266e+002
1.959094e+002, 4.101852e+002
1.963915e+002, 4.166795e+002
1.968737e+002, 4.227793e+002
1.973558e+002, 4.285116e+002
1.978379e+002, 4.339363e+002
1.983200e+002, 4.389294e+002
1.988021e+002, 4.441200e+002
1.992842e+002, 4.501890e+002
1.997664e+002, 4.572293e+002
2.002485e+002, 4.639140e+002
2.007306e+002, 4.699898e+002
2.012127e+002, 4.755523e+002
2.016948e+002, 4.813401e+002
2.021769e+002, 4.875556e+002
2.026591e+002, 4.934707e+002
2.031412e+002, 4.982130e+002
2.036233e+002, 5.016922e+002
2.041054e+002, 5.050201e+002
2.045875e+002, 5.083605e+002
2.050696e+002, 5.117362e+002
2.055518e+002, 5.154816e+002
2.060339e+002, 5.197822e+002
2.065160e+002, 5.240251e+002
2.069981e+002, 5.274557e+002
2.074802e+002, 5.298224e+002
2.079623e+002, 5.324105e+002
2.084445e+002, 5.356113e+002
2.089266e+002, 5.393972e+002
2.094087e+002, 5.427806e+002
2.098908e+002, 5.456257e+002
2.103729e+002, 5.483499e+002
2.108550e+002, 5.515438e+002
2.113372e+002, 5.554407e+002
2.118193e+002, 5.588582e+002
2.123014e+002, 5.613604e+002
2.127835e+002, 5.629260e+002
2.132656e+002, 5.649088e+002
2.137477e+002, 5.674630e+002
2.142299e+002, 5.702172e+002
2.147120e+002, 5.725188e+002
2.151941e+002, 5.738987e+002
2.156762e+002, 5.762034e+002
2.161583e+002, 5.802783e+002
2.166404e+002, 5.862293e+002
2.171226e+002, 5.910894e+002
2.176047e+002, 5.946357e+002
2.180868e+002, 5.973687e+002
2.185689e+002, 5.998008e+002
2.190510e+002, 6.016316e+002
2.195331e+002, 6.039225e+002
2.200153e+002, 6.071332e+002
2.204974e+002, 6.114095e+002
2.209795e+002, 6.152021e+002
2.214616e+002, 6.184851e+002
2.219437e+002, 6.213798e+002
2.224258e+002, 6.241296e+002
2.229080e+002, 6.268793e+002
2.233901e+002, 6.291422e+002
2.238722e+002, 6.305614e+002
2.243543e+002, 6.309832e+002
2.248364e+002, 6.320750e+002
2.253185e+002, 6.341514e+002
2.258007e+002, 6.365673e+002
2.262828e+002, 6.384191e+002
2.267649e+002, 6.390549e+002
2.272470e+002, 6.403927e+002
2.277291e+002, 6.433857e+002
2.282112e+002, 6.485746e+002
2.286934e+002, 6.513510e+002
2.291755e+002, 6.506994e+002
2.296576e+002, 6.485320e+002
2.301397e+002, 6.472814e+002
2.306218e+002, 6.471874e+002
2.311039e+002, 6.475644e+002
2.315861e+002, 6.483214e+002
2.320682e+002, 6.495417e+002
2.325503e+002, 6.506345e+002
2.330324e+002, 6.511511e+002
2.335145e+002, 6.519349e+002
2.339966e+002, 6.543409e+002
2.344788e+002, 6.599279e+002
2.349609e+002, 6.643253e+002
2.354430e+002, 6.660208e+002
2.359251e+002, 6.644700e+002
2.364072e+002, 6.640862e+002
2.368893e+002, 6.651451e+002
2.373715e+002, 6.671260e+002
2.378536e+002, 6.695192e+002
2.383357e+002, 6.729717e+002
2.388178e+002, 6.757061e+002
2.392999e+002, 6.770846e+002
2.397820e+002, 6.768619e+002
2.402642e+002, 6.769822e+002
2.407463e+002, 6.775320e+002
2.412284e+002, 6.783234e+002
2.417105e+002, 6.790861e+002
2.421926e+002, 6.795452e+002
2.426747e+002, 6.804661e+002
2.431569e+002, 6.823071e+002
2.436390e+002, 6.853201e+002
2.441211e+002, 6.870611e+002
2.446032e+002, 6.868065e+002
2.450853e+002, 6.859396e+002
2.455674e+002, 6.861425e+002
2.460496e+002, 6.881436e+002
2.465317e+002, 6.898776e+002
2.470138e+002, 6.907830e+002
2.474959e+002, 6.907659e+002
2.479780e+002, 6.912123e+002
2.484601e+002, 6.925112e+002
2.489423e+002, 6.939235e+002
2.494244e+002, 6.946082e+002
2.499065e+002, 6.942766e+002
2.503886e+002, 6.938264e+002
2.508707e+002, 6.934162e+002
2.513528e+002, 6.930517e+002
2.518350e+002, 6.927402e+002
2.523171e+002, 6.922872e+002
2.527992e+002, 6.920948e+002
2.532813e+002, 6.926681e+002
2.537634e+002, 6.944127e+002
2.542455e+002, 6.959980e+002
2.547277e+002, 6.971021e+002
2.552098e+002, 6.977103e+002
2.556919e+002, 6.984208e+002
2.561740e+002, 6.992952e+002
2.566561e+002, 7.001667e+002
2.571382e+002, 7.008305e+002
2.576204e+002, 7.011433e+002
2.581025e+002, 7.015682e+002
2.585846e+002, 7.020809e+002
2.590667e+002, 7.027028e+002
2.595488e+002, 7.041411e+002
2.600309e+002, 7.070428e+002
2.605131e+002, 7.097870e+002
2.609952e+002, 7.106483e+002
2.614773e+002, 7.086956e+002
2.619594e+002, 7.075693e+002
2.624415e+002, 7.081746e+002
2.629236e+002, 7.102983e+002
2.634058e+002, 7.115731e+002
2.638879e+002, 7.116837e+002
2.643700e+002, 7.115206e+002
2.648521e+002, 7.117516e+002
2.653342e+002, 7.124053e+002
2.658163e+002, 7.134277e+002
2.662985e+002, 7.151234e+002
2.667806e+002, 7.172098e+002
2.672627e+002, 7.178895e+002
2.677448e+002, 7.165852e+002
2.682269e+002, 7.150607e+002
2.687090e+002, 7.147342e+002
2.691912e+002, 7.159710e+002
2.696733e+002, 7.167247e+002
2.701554e+002, 7.164774e+002
2.706375e+002, 7.156172e+002
2.711196e+002, 7.159399e+002
2.716017e+002, 7.179037e+002
2.720839e+002, 7.197607e+002
2.725660e+002, 7.200643e+002
2.730481e+002, 7.184833e+002
2.735302e+002, 7.175855e+002
2.740123e+002, 7.177428e+002
2.744944e+002, 7.186559e+002
2.749766e+002, 7.194589e+002
2.754587e+002, 7.201139e+002
2.759408e+002, 7.208304e+002
2.764229e+002, 7.218796e+002
2.769050e+002, 7.233443e+002
2.773871e+002, 7.241270e+002
2.778693e+002, 7.238964e+002
2.783514e+002, 7.232455e+002
2.788335e+002, 7.236261e+002
2.793156e+002, 7.252172e+002
2.797977e+002, 7.268120e+002
2.802798e+002, 7.277796e+002
2.807620e+002, 7.281096e+002
2.812441e+002, 7.280795e+002
2.817262e+002, 7.275112e+002
2.822083e+002, 7.269152e+002
2.826904e+002, 7.273365e+002
2.831725e+002, 7.288350e+002
2.836547e+002, 7.304064e+002
2.841368e+002, 7.315236e+002
2.846189e+002, 7.322217e+002
2.851010e+002, 7.331257e+002
2.855831e+002, 7.343304e+002
2.860652e+002, 7.355062e+002
2.865474e+002, 7.360040e+002
2.870295e+002, 7.358421e+002
2.875116e+002, 7.359057e+002
2.879937e+002, 7.368927e+002
2.884758e+002, 7.385579e+002
2.889579e+002, 7.393457e+002
2.894401e+002, 7.391856e+002
2.899222e+002, 7.386093e+002
2.904043e+002, 7.379281e+002
2.908864e+002, 7.372323e+002
2.913685e+002, 7.372758e+002
2.918506e+002, 7.389442e+002
2.923328e+002, 7.414991e+002
2.928149e+002, 7.425420e+002
2.932970e+002, 7.419908e+002
2.937791e+002, 7.410221e+002
2.942612e+002, 7.407101e+002
2.947433e+002, 7.409725e+002
2.952255e+002, 7.415111e+002
2.957076e+002, 7.422743e+002
2.961897e+002, 7.432244e+002
2.966718e+002, 7.443272e+002
2.971539e+002, 7.455737e+002
2.976360e+002, 7.468223e+002
2.981182e+002, 7.481131e+002
2.986003e+002, 7.493104e+002
2.990824e+002, 7.500659e+002
2.995645e+002, 7.500800e+002
3.000466e+002, 7.498321e+002
3.005287e+002, 7.500375e+002
3.010109e+002, 7.506417e+002
3.014930e+002, 7.512663e+002
3.019751e+002, 7.516740e+002
3.024572e+002, 7.519120e+002
3.029393e+002, 7.519788e+002
3.034214e+002, 7.516911e+002
3.039036e+002, 7.515851e+002
3.043857e+002, 7.525392e+002
3.048678e+002, 7.542676e+002
3.053499e+002, 7.557328e+002
3.058320e+002, 7.559406e+002
3.063141e+002, 7.556640e+002
3.067963e+002, 7.558273e+002
3.072784e+002, 7.566418e+002
3.077605e+002, 7.577387e+002
3.082426e+002, 7.589479e+002
3.087247e+002, 7.602070e+002
3.092068e+002, 7.613716e+002
3.096890e+002, 7.623598e+002
3.101711e+002, 7.632054e+002
3.106532e+002, 7.638597e+002
3.111353e+002, 7.642549e+002
3.116174e+002, 7.647125e+002
3.120995e+002, 7.656455e+002
3.125817e+002, 7.667271e+002
3.130638e+002, 7.674506e+002
3.135459e+002, 7.673970e+002
3.140280e+002, 7.670849e+002
3.145101e+002, 7.666642e+002
3.149922e+002, 7.661213e+002
3.154744e+002, 7.660392e+002
3.159565e+002, 7.671465e+002
3.164386e+002, 7.687459e+002
3.169207e+002, 7.700278e+002
3.174028e+002, 7.704101e+002
3.178849e+002, 7.707704e+002
3.183671e+002, 7.717119e+002
3.188492e+002, 7.731979e+002
3.193313e+002, 7.740712e+002
3.198134e+002, 7.732949e+002
3.202955e+002, 7.720872e+002
3.207776e+002, 7.714241e+002
3.212598e+002, 7.716394e+002
3.217419e+002, 7.722614e+002
3.222240e+002, 7.733027e+002
3.227061e+002, 7.746964e+002
3.231882e+002, 7.761346e+002
3.236703e+002, 7.779808e+002
3.241525e+002, 7.795544e+002
3.246346e+002, 7.804393e+002
3.251167e+002, 7.798566e+002
3.255988e+002, 7.796060e+002
3.260809e+002, 7.799402e+002
3.265630e+002, 7.807332e+002
3.270452e+002, 7.816365e+002
3.275273e+002, 7.829307e+002
3.280094e+002, 7.840778e+002
3.284915e+002, 7.849011e+002
3.289736e+002, 7.853485e+002
3.294557e+002, 7.855684e+002
3.299379e+002, 7.852147e+002
3.304200e+002, 7.847421e+002
3.309021e+002, 7.849019e+002
3.313842e+002, 7.861913e+002
3.318663e+002, 7.874273e+002
3.323484e+002, 7.881580e+002
3.328306e+002, 7.881764e+002
3.333127e+002, 7.889915e+002
3.337948e+002, 7.912955e+002
3.342769e+002, 7.937714e+002
3.347590e+002, 7.948368e+002
3.352411e+002, 7.937927e+002
3.357233e+002, 7.929261e+002
3.362054e+002, 7.926854e+002
3.366875e+002, 7.930549e+002
3.371696e+002, 7.937026e+002
3.376517e+002, 7.946677e+002
3.381339e+002, 7.958619e+002
3.386160e+002, 7.973510e+002
3.390981e+002, 7.993229e+002
3.395802e+002, 8.006689e+002
3.400623e+002, 8.010148e+002
3.405444e+002, 8.007135e+002
3.410266e+002, 8.009929e+002
3.415087e+002, 8.019532e+002
3.419908e+002, 8.029621e+002
3.424729e+002, 8.036356e+002
3.429550e+002, 8.039583e+002
3.434371e+002, 8.040756e+002
3.439193e+002, 8.038463e+002
3.444014e+002, 8.036735e+002
3.448835e+002, 8.045364e+002
3.453656e+002, 8.064259e+002
3.458477e+002, 8.080725e+002
3.463298e+002, 8.087415e+002
3.468120e+002, 8.086326e+002
3.472941e+002, 8.082646e+002
3.477762e+002, 8.074901e+002
3.482583e+002, 8.073759e+002
3.487404e+002, 8.103113e+002
3.492225e+002, 8.153944e+002
3.497047e+002, 8.187161e+002
3.501868e+002, 8.176601e+002
3.506689e+002, 8.144183e+002
3.511510e+002, 8.127510e+002
3.516331e+002, 8.126456e+002
3.521152e+002, 8.131213e+002
3.525974e+002, 8.134398e+002
3.530795e+002, 8.137458e+002
3.535616e+002, 8.143576e+002
3.540437e+002, 8.156077e+002
3.545258e+002, 8.168715e+002
3.550079e+002, 8.175414e+002
3.554901e+002, 8.176781e+002
3.559722e+002, 8.175705e+002
3.564543e+002, 8.170340e+002
3.569364e+002, 8.165234e+002
3.574185e+002, 8.165621e+002
3.579006e+002, 8.174105e+002
3.583828e+002, 8.183752e+002
3.588649e+002, 8.191597e+002
3.593470e+002, 8.197503e+002
3.598291e+002, 8.201256e+002
3.603112e+002, 8.199598e+002
3.607933e+002, 8.198104e+002
3.612755e+002, 8.200035e+002
3.617576e+002, 8.205871e+002
3.622397e+002, 8.213411e+002
3.627218e+002, 8.223525e+002
3.632039e+002, 8.234202e+002
3.636860e+002, 8.243212e+002
3.641682e+002, 8.249698e+002
3.646503e+002, 8.254680e+002
3.651324e+002, 8.256798e+002
3.656145e+002, 8.256340e+002
3.660966e+002, 8.259301e+002
3.665787e+002, 8.271406e+002
3.670609e+002, 8.284316e+002
3.675430e+002, 8.292708e+002
3.680251e+002, 8.290638e+002
3.685072e+002, 8.290663e+002
3.689893e+002, 8.295805e+002
3.694714e+002, 8.304025e+002
3.699536e+002, 8.308173e+002
3.704357e+002, 8.302726e+002
3.709178e+002, 8.299119e+002
3.713999e+002, 8.302294e+002
3.718820e+002, 8.315388e+002
3.723641e+002, 8.327419e+002
3.728463e+002, 8.338839e+002
3.733284e+002, 8.348723e+002
3.738105e+002, 8.355217e+002
3.742926e+002, 8.356373e+002
3.747747e+002, 8.358400e+002
3.752568e+002, 8.363124e+002
3.757390e+002, 8.370544e+002
3.762211e+002, 8.378558e+002
3.767032e+002, 8.387686e+002
3.771853e+002, 8.396284e+002
3.776674e+002, 8.403370e+002
3.781495e+002, 8.409072e+002
3.786317e+002, 8.411351e+002
3.791138e+002, 8.407967e+002
3.795959e+002, 8.402079e+002
3.800780e+002, 8.404590e+002
3.805601e+002, 8.416210e+002
3.810422e+002, 8.428947e+002
3.815244e+002, 8.438904e+002
3.820065e+002, 8.445931e+002
3.824886e+002, 8.447449e+002
3.829707e+002, 8.442281e+002
3.834528e+002, 8.434725e+002
3.839349e+002, 8.429641e+002
3.844171e+002, 8.427167e+002
3.848992e+002, 8.427612e+002
3.853813e+002, 8.427881e+002
3.858634e+002, 8.432107e+002
3.863455e+002, 8.452481e+002
3.868276e+002, 8.490051e+002
3.873098e+002, 8.523583e+002
3.877919e+002, 8.529971e+002
3.882740e+002, 8.520322e+002
3.887561e+002, 8.514582e+002
3.892382e+002, 8.521480e+002
3.897203e+002, 8.532529e+002
3.902025e+002, 8.542470e+002
3.906846e+002, 8.550897e+002
3.911667e+002, 8.556390e+002
3.916488e+002, 8.556733e+002
3.921309e+002, 8.554399e+002
3.926130e+002, 8.550576e+002
3.930952e+002, 8.542936e+002
3.935773e+002, 8.539756e+002
3.940594e+002, 8.547011e+002
3.945415e+002, 8.561041e+002
3.950236e+002, 8.575023e+002
3.955057e+002, 8.592795e+002
3.959879e+002, 8.605157e+002
3.964700e+002, 8.605679e+002
3.969521e+002, 8.591393e+002
3.974342e+002, 8.582648e+002
3.979163e+002, 8.586864e+002
3.983984e+002, 8.596031e+002
3.988806e+002, 8.602842e+002
3.993627e+002, 8.604694e+002
3.998448e+002, 8.606566e+002
4.003269e+002, 8.608245e+002
4.008090e+002, 8.610027e+002
4.012911e+002, 8.614280e+002
4.017733e+002, 8.622317e+002
4.022554e+002, 8.631241e+002
4.027375e+002, 8.639675e+002
4.032196e+002, 8.647754e+002
4.037017e+002, 8.655143e+002
4.041838e+002, 8.662022e+002
4.046660e+002, 8.668073e+002
4.051481e+002, 8.672586e+002
4.056302e+002, 8.675634e+002
4.061123e+002, 8.676829e+002
4.065944e+002, 8.673274e+002
4.070765e+002, 8.665717e+002
4.075587e+002, 8.672912e+002
4.080408e+002, 8.698103e+002
4.085229e+002, 8.725543e+002
4.090050e+002, 8.737501e+002
4.094871e+002, 8.734927e+002
4.099692e+002, 8.732986e+002
4.104514e+002, 8.733834e+002
4.109335e+002, 8.738263e+002
4.114156e+002, 8.751364e+002
4.118977e+002, 8.772016e+002
4.123798e+002, 8.789019e+002
4.128619e+002, 8.791553e+002
4.133441e+002, 8.785670e+002
4.138262e+002, 8.782836e+002
4.143083e+002, 8.784473e+002
4.147904e+002, 8.788772e+002
4.152725e+002, 8.796429e+002
4.157546e+002, 8.805447e+002
4.162368e+002, 8.811794e+002
4.167189e+002, 8.810309e+002
4.172010e+002, 8.807824e+002
4.176831e+002, 8.809376e+002
4.181652e+002, 8.814997e+002
4.186473e+002, 8.823214e+002
4.191295e+002, 8.837764e+002
4.196116e+002, 8.852204e+002
4.200937e+002, 8.860421e+002
4.205758e+002, 8.857982e+002
4.210579e+002, 8.853577e+002
4.215400e+002, 8.847602e+002
4.220222e+002, 8.841689e+002
4.225043e+002, 8.839673e+002
4.229864e+002, 8.845957e+002
4.234685e+002, 8.853427e+002
4.239506e+002, 8.859429e+002
4.244327e+002, 8.863162e+002
4.249149e+002, 8.867756e+002
4.253970e+002, 8.872034e+002
4.258791e+002, 8.877924e+002
4.263612e+002, 8.887893e+002
4.268433e+002, 8.907207e+002
4.273254e+002, 8.921854e+002
4.278076e+002, 8.928707e+002
4.282897e+002, 8.928705e+002
4.287718e+002, 8.927880e+002
4.292539e+002, 8.924573e+002
4.297360e+002, 8.923392e+002
4.302181e+002, 8.927899e+002
4.307003e+002, 8.939061e+002
4.311824e+002, 8.949141e+002
4.316645e+002, 8.958122e+002
4.321466e+002, 8.965377e+002
4.326287e+002, 8.968371e+002
4.331108e+002, 8.967031e+002
4.335930e+002, 8.967988e+002
4.340751e+002, 8.975156e+002
4.345572e+002, 8.986565e+002
4.350393e+002, 8.995612e+002
4.355214e+002, 9.002336e+002
4.360035e+002, 9.007930e+002
4.364857e+002, 9.011782e+002
4.369678e+002, 9.015280e+002
4.374499e+002, 9.022860e+002
4.379320e+002, 9.038151e+002
4.384141e+002, 9.052383e+002
4.388962e+002, 9.051853e+002
4.393784e+002, 9.041511e+002
4.398605e+002, 9.036007e+002
4.403426e+002, 9.044683e+002
4.408247e+002, 9.060480e+002
4.413068e+002, 9.079321e+002
4.417889e+002, 9.101029e+002
4.422711e+002, 9.120569e+002
4.427532e+002, 9.136718e+002
4.432353e+002, 9.148740e+002
4.437174e+002, 9.155883e+002
4.441995e+002, 9.157092e+002
4.446816e+002, 9.154198e+002
4.451638e+002, 9.142259e+002
4.456459e+002, 9.124877e+002
4.461280e+002, 9.117886e+002
4.466101e+002, 9.134034e+002
4.470922e+002, 9.152421e+002
4.475743e+002, 9.163971e+002
4.480565e+002, 9.165626e+002
4.485386e+002, 9.167682e+002
4.490207e+002, 9.170430e+002
4.495028e+002, 9.173407e+002
4.499849e+002, 9.175870e+002
4.504670e+002, 9.177309e+002
4.509492e+002, 9.179639e+002
4.514313e+002, 9.183751e+002
4.519134e+002, 9.189352e+002
4.523955e+002, 9.194668e+002
4.528776e+002, 9.200851e+002
4.533597e+002, 9.202983e+002
4.538419e+002, 9.193858e+002
4.543240e+002, 9.174066e+002
4.548061e+002, 9.164379e+002
4.552882e+002, 9.167805e+002
4.557703e+002, 9.178635e+002
4.562524e+002, 9.191658e+002
4.567346e+002, 9.205942e+002
4.572167e+002, 9.214267e+002
4.576988e+002, 9.208958e+002
4.581809e+002, 9.197852e+002
4.586630e+002, 9.193543e+002
4.591451e+002, 9.195872e+002
4.596273e+002, 9.203023e+002
4.601094e+002, 9.218397e+002
4.605915e+002, 9.235976e+002
4.610736e+002, 9.247953e+002
4.615557e+002, 9.252147e+002
4.620378e+002, 9.251847e+002
4.625200e+002, 9.242584e+002
4.630021e+002, 9.230865e+002
4.634842e+002, 9.229520e+002
4.639663e+002, 9.254170e+002
4.644484e+002, 9.281326e+002
4.649305e+002, 9.301007e+002
4.654127e+002, 9.312637e+002
4.658948e+002, 9.318125e+002
4.663769e+002, 9.310920e+002
4.668590e+002, 9.301857e+002
4.673411e+002, 9.298782e+002
4.678232e+002, 9.305065e+002
4.683054e+002, 9.313583e+002
4.687875e+002, 9.324526e+002
4.692696e+002, 9.337313e+002
4.697517e+002, 9.351028e+002
4.702338e+002, 9.366917e+002
4.707159e+002, 9.381106e+002
4.711981e+002, 9.392606e+002
4.716802e+002, 9.401433e+002
4.721623e+002, 9.404623e+002
4.726444e+002, 9.399778e+002
4.731265e+002, 9.395605e+002
4.736086e+002, 9.402882e+002
4.740908e+002, 9.421332e+002
4.745729e+002, 9.435439e+002
4.750550e+002, 9.441227e+002
4.755371e+002, 9.442973e+002
4.760192e+002, 9.449202e+002
4.765013e+002, 9.459212e+002
4.769835e+002, 9.467840e+002
4.774656e+002, 9.470504e+002
4.779477e+002, 9.470538e+002
4.784298e+002, 9.473596e+002
4.789119e+002, 9.479949e+002
4.793940e+002, 9.486934e+002
4.798762e+002, 9.493569e+002
4.803583e+002, 9.499225e+002
4.808404e+002, 9.503181e+002
4.813225e+002, 9.505801e+002
4.818046e+002, 9.506199e+002
4.822867e+002, 9.501862e+002
4.827689e+002, 9.495007e+002
4.832510e+002, 9.491137e+002
4.837331e+002, 9.493266e+002
4.842152e+002, 9.498095e+002
4.846973e+002, 9.505103e+002
4.851794e+002, 9.515177e+002
4.856616e+002, 9.523236e+002
4.861437e+002, 9.528658e+002
4.866258e+002, 9.532013e+002
4.871079e+002, 9.533137e+002
4.875900e+002, 9.526718e+002
4.880721e+002, 9.527657e+002
4.885543e+002, 9.540076e+002
4.890364e+002, 9.559561e+002
4.895185e+002, 9.573163e+002
4.900006e+002, 9.578906e+002
4.904827e+002, 9.584085e+002
4.909648e+002, 9.592937e+002
4.914470e+002, 9.604987e+002
4.919291e+002, 9.609208e+002
4.924112e+002, 9.603974e+002
4.928933e+002, 9.598702e+002
4.933754e+002, 9.606292e+002
4.938575e+002, 9.623239e+002
4.943397e+002, 9.633145e+002
4.948218e+002, 9.630886e+002
4.953039e+002, 9.623256e+002
4.957860e+002, 9.617881e+002
4.962681e+002, 9.614720e+002
4.967502e+002, 9.613424e+002
4.972324e+002, 9.612801e+002
4.977145e+002, 9.614601e+002
4.981966e+002, 9.620170e+002
4.986787e+002, 9.629582e+002
4.991608e+002, 9.642745e+002
4.996429e+002, 9.666605e+002
5.001251e+002, 9.690365e+002
5.006072e+002, 9.704706e+002
5.010893e+002, 9.699674e+002
5.015714e+002, 9.695328e+002
5.020535e+002, 9.697842e+002
5.025356e+002, 9.703854e+002
5.030178e+002, 9.705748e+002
5.034999e+002, 9.692722e+002
5.039820e+002, 9.686960e+002
5.044641e+002, 9.697291e+002
5.049462e+002, 9.724764e+002
5.054283e+002, 9.742809e+002
5.059105e+002, 9.747719e+002
5.063926e+002, 9.749133e+002
5.068747e+002, 9.755628e+002
5.073568e+002, 9.769095e+002
5.078389e+002, 9.773918e+002
5.083210e+002, 9.765417e+002
5.088032e+002, 9.753348e+002
5.092853e+002, 9.757225e+002
5.097674e+002, 9.775934e+002
5.102495e+002, 9.791588e+002
5.107316e+002, 9.793381e+002
5.112137e+002, 9.788613e+002
5.116959e+002, 9.795328e+002
5.121780e+002, 9.812390e+002
5.126601e+002, 9.827190e+002
5.131422e+002, 9.827806e+002
5.136243e+002, 9.821644e+002
5.141064e+002, 9.817462e+002
5.145886e+002, 9.816232e+002
5.150707e+002, 9.819234e+002
5.155528e+002, 9.833478e+002
5.160349e+002, 9.851048e+002
5.165170e+002, 9.860688e+002
5.169991e+002, 9.850367e+002
5.174813e+002, 9.840466e+002
5.179634e+002, 9.839230e+002
5.184455e+002, 9.845589e+002
5.189276e+002, 9.848922e+002
5.194097e+002, 9.842750e+002
5.198918e+002, 9.838038e+002
5.203740e+002, 9.839393e+002
5.208561e+002, 9.848472e+002
5.213382e+002, 9.857761e+002
5.218203e+002, 9.866233e+002
5.223024e+002, 9.875780e+002
5.227845e+002, 9.890038e+002
5.232667e+002, 9.910459e+002
5.237488e+002, 9.926030e+002
5.242309e+002, 9.932882e+002
5.247130e+002, 9.934768e+002
5.251951e+002, 9.941721e+002
5.256772e+002, 9.953672e+002
5.261594e+002, 9.965530e+002
5.266415e+002, 9.975641e+002
5.271236e+002, 9.983616e+002
5.276057e+002, 9.988201e+002
5.280878e+002, 9.989449e+002
5.285699e+002, 9.988645e+002
5.290521e+002, 9.984584e+002
5.295342e+002, 9.980031e+002
5.300163e+002, 9.978969e+002
5.304984e+002, 9.984464e+002
5.309805e+002, 9.990057e+002
5.314626e+002, 9.989192e+002
5.319448e+002, 9.986125e+002
5.324269e+002, 9.989066e+002
5.329090e+002, 9.999008e+002
5.333911e+002, 1.001645e+003
5.338732e+002, 1.004843e+003
5.343553e+002, 1.009549e+003
5.348375e+002, 1.012300e+003
5.353196e+002, 1.011761e+003
5.358017e+002, 1.010456e+003
5.362838e+002, 1.009702e+003
5.367659e+002, 1.009593e+003
5.372480e+002, 1.009728e+003
5.377302e+002, 1.010161e+003
5.382123e+002, 1.010740e+003
5.386944e+002, 1.011262e+003
5.391765e+002, 1.011736e+003
5.396586e+002, 1.012193e+003
5.401407e+002, 1.012738e+003
5.406229e+002, 1.013211e+003
5.411050e+002, 1.013154e+003
5.415871e+002, 1.012613e+003
5.420692e+002, 1.011908e+003
5.425513e+002, 1.010823e+003
5.430334e+002, 1.009883e+003
5.435156e+002, 1.010140e+003
5.439977e+002, 1.011721e+003
5.444798e+002, 1.013225e+003
5.449619e+002, 1.013386e+003
5.454440e+002, 1.013050e+003
5.459261e+002, 1.013139e+003
5.464083e+002, 1.014058e+003
5.468904e+002, 1.015166e+003
5.473725e+002, 1.016216e+003
5.478546e+002, 1.017269e+003
5.483367e+002, 1.018492e+003
5.488188e+002, 1.020605e+003
5.493010e+002, 1.022096e+003
5.497831e+002, 1.022342e+003
5.502652e+002, 1.021361e+003
5.507473e+002, 1.020930e+003
5.512294e+002, 1.021326e+003
5.517115e+002, 1.021810e+003
5.521937e+002, 1.021832e+003
5.526758e+002, 1.021309e+003
5.531579e+002, 1.021302e+003
5.536400e+002, 1.021939e+003
5.541221e+002, 1.022934e+003
5.546042e+002, 1.024040e+003
5.550864e+002, 1.025223e+003
5.555685e+002, 1.026221e+003
5.560506e+002, 1.026938e+003
5.565327e+002, 1.027436e+003
5.570148e+002, 1.027652e+003
5.574969e+002, 1.027669e+003
5.579791e+002, 1.027830e+003
5.584612e+002, 1.028532e+003
5.589433e+002, 1.029297e+003
5.594254e+002, 1.029646e+003
5.599075e+002, 1.029536e+003
5.603896e+002, 1.029544e+003
5.608718e+002, 1.030023e+003
5.613539e+002, 1.030636e+003
5.618360e+002, 1.031145e+003
5.623181e+002, 1.031624e+003
5.628002e+002, 1.031846e+003
5.632823e+002, 1.031466e+003
5.637645e+002, 1.031003e+003
5.642466e+002, 1.031364e+003
5.647287e+002, 1.033187e+003
5.652108e+002, 1.034392e+003
5.656929e+002, 1.034260e+003
5.661750e+002, 1.033180e+003
5.666572e+002, 1.032901e+003
5.671393e+002, 1.033480e+003
5.676214e+002, 1.034420e+003
5.681035e+002, 1.035622e+003
5.685856e+002, 1.036948e+003
5.690677e+002, 1.037704e+003
5.695499e+002, 1.037788e+003
5.700320e+002, 1.038252e+003
5.705141e+002, 1.041022e+003
5.709962e+002, 1.044583e+003
5.714783e+002, 1.046312e+003
5.719604e+002, 1.044875e+003
5.724426e+002, 1.042952e+003
5.729247e+002, 1.041764e+003
5.734068e+002, 1.041363e+003
5.738889e+002, 1.041811e+003
5.743710e+002, 1.044556e+003
5.748531e+002, 1.046755e+003
5.753353e+002, 1.047094e+003
5.758174e+002, 1.045718e+003
5.762995e+002, 1.045001e+003
5.767816e+002, 1.045293e+003
5.772637e+002, 1.045921e+003
5.777458e+002, 1.046624e+003
5.782280e+002, 1.047394e+003
5.787101e+002, 1.048331e+003
5.791922e+002, 1.049581e+003
5.796743e+002, 1.050668e+003
5.801564e+002, 1.050876e+003
5.806385e+002, 1.050268e+003
5.811207e+002, 1.050035e+003
5.816028e+002, 1.050327e+003
5.820849e+002, 1.051205e+003
5.825670e+002, 1.053400e+003
5.830491e+002, 1.056360e+003
5.835313e+002, 1.058398e+003
5.840134e+002, 1.057638e+003
5.844955e+002, 1.056337e+003
5.849776e+002, 1.056621e+003
5.854597e+002, 1.058277e+003
5.859418e+002, 1.060038e+003
5.864240e+002, 1.062010e+003
5.869061e+002, 1.063358e+003
5.873882e+002, 1.063295e+003
5.878703e+002, 1.061114e+003
5.883524e+002, 1.059954e+003
5.888345e+002, 1.060688e+003
5.893167e+002, 1.062256e+003
5.897988e+002, 1.063965e+003
5.902809e+002, 1.066203e+003
5.907630e+002, 1.067684e+003
5.912451e+002, 1.068252e+003
5.917272e+002, 1.068106e+003
5.922094e+002, 1.067283e+003
5.926915e+002, 1.065702e+003
5.931736e+002, 1.064899e+003
5.936557e+002, 1.065523e+003
5.941378e+002, 1.067185e+003
5.946199e+002, 1.069394e+003
5.951021e+002, 1.072009e+003
5.955842e+002, 1.073997e+003
5.960663e+002, 1.074262e+003
5.965484e+002, 1.073752e+003
5.970305e+002, 1.073308e+003
5.975126e+002, 1.072975e+003
5.979948e+002, 1.073429e+003
5.984769e+002, 1.076424e+003
5.989590e+002, 1.079593e+003
5.994411e+002, 1.080811e+003
5.999232e+002, 1.078093e+003
6.004053e+002, 1.076026e+003
6.008875e+002, 1.075412e+003
6.013696e+002, 1.075795e+003
6.018517e+002, 1.076682e+003
6.023338e+002, 1.078606e+003
6.028159e+002, 1.079930e+003
6.032980e+002, 1.080104e+003
6.037802e+002, 1.079545e+003
6.042623e+002, 1.079879e+003
6.047444e+002, 1.081207e+003
6.052265e+002, 1.082492e+003
6.057086e+002, 1.082776e+003
6.061907e+002, 1.082573e+003
6.066729e+002, 1.084108e+003
6.071550e+002, 1.087322e+003
6.076371e+002, 1.090232e+003
6.081192e+002, 1.091111e+003
6.086013e+002, 1.090755e+003
6.090834e+002, 1.089985e+003
6.095656e+002, 1.088736e+003
6.100477e+002, 1.087957e+003
6.105298e+002, 1.088657e+003
6.110119e+002, 1.089923e+003
6.114940e+002, 1.090742e+003
6.119761e+002, 1.090273e+003
6.124583e+002, 1.090109e+003
6.129404e+002, 1.090948e+003
6.134225e+002, 1.092215e+003
6.139046e+002, 1.092451e+003
6.143867e+002, 1.090737e+003
6.148688e+002, 1.089992e+003
6.153510e+002, 1.091366e+003
6.158331e+002, 1.094451e+003
6.163152e+002, 1.096677e+003
6.167973e+002, 1.097955e+003
6.172794e+002, 1.099007e+003
6.177615e+002, 1.100470e+003
6.182437e+002, 1.102015e+003
6.187258e+002, 1.102499e+003
6.192079e+002, 1.101795e+003
6.196900e+002, 1.101318e+003
6.201721e+002, 1.102750e+003
6.206542e+002, 1.104908e+003
6.211364e+002, 1.106248e+003
6.216185e+002, 1.106109e+003
6.221006e+002, 1.105862e+003
6.225827e+002, 1.106328e+003
6.230648e+002, 1.107016e+003
6.235469e+002, 1.107235e+003
6.240291e+002, 1.106096e+003
6.245112e+002, 1.105497e+003
6.249933e+002, 1.106012e+003
6.254754e+002, 1.107277e+003
6.259575e+002, 1.107996e+003
6.264396e+002, 1.108081e+003
6.269218e+002, 1.107932e+003
6.274039e+002, 1.107406e+003
6.278860e+002, 1.106733e+003
6.283681e+002, 1.107669e+003
6.288502e+002, 1.110274e+003
6.293323e+002, 1.112752e+003
6.298145e+002, 1.113501e+003
6.302966e+002, 1.113227e+003
6.307787e+002, 1.113230e+003
6.312608e+002, 1.113620e+003
6.317429e+002, 1.114290e+003
6.322250e+002, 1.115557e+003
6.327072e+002, 1.116861e+003
6.331893e+002, 1.117573e+003
6.336714e+002, 1.117120e+003
6.341535e+002, 1.116737e+003
6.346356e+002, 1.116410e+003
6.351177e+002, 1.116436e+003
6.355999e+002, 1.117348e+003
6.360820e+002, 1.120280e+003
6.365641e+002, 1.122238e+003
6.370462e+002, 1.122530e+003
6.375283e+002, 1.121577e+003
6.380104e+002, 1.120528e+003
6.384926e+002, 1.119229e+003
6.389747e+002, 1.118849e+003
6.394568e+002, 1.120531e+003
6.399389e+002, 1.123456e+003
6.404210e+002, 1.124533e+003
6.409031e+002, 1.123887e+003
6.413853e+002, 1.123324e+003
6.418674e+002, 1.124644e+003
6.423495e+002, 1.126559e+003
6.428316e+002, 1.127292e+003
6.433137e+002, 1.126517e+003
6.437958e+002, 1.126067e+003
6.442780e+002, 1.127143e+003
6.447601e+002, 1.128790e+003
6.452422e+002, 1.130180e+003
6.457243e+002, 1.131347e+003
6.462064e+002, 1.131906e+003
6.466885e+002, 1.131142e+003
6.471707e+002, 1.130179e+003
6.476528e+002, 1.130620e+003
6.481349e+002, 1.132921e+003
6.486170e+002, 1.135204e+003
6.490991e+002, 1.137373e+003
6.495812e+002, 1.139089e+003
6.500634e+002, 1.139218e+003
6.505455e+002, 1.137892e+003
6.510276e+002, 1.137007e+003
6.515097e+002, 1.137768e+003
6.519918e+002, 1.139302e+003
6.524739e+002, 1.140249e+003
6.529561e+002, 1.140707e+003
6.534382e+002, 1.141231e+003
6.539203e+002, 1.142427e+003
6.544024e+002, 1.143576e+003
6.548845e+002, 1.143986e+003
6.553666e+002, 1.143480e+003
6.558488e+002, 1.143571e+003
6.563309e+002, 1.145524e+003
6.568130e+002, 1.147466e+003
6.572951e+002, 1.148162e+003
6.577772e+002, 1.146812e+003
6.582593e+002, 1.146468e+003
6.587415e+002, 1.147523e+003
6.592236e+002, 1.148952e+003
6.597057e+002, 1.149455e+003
6.601878e+002, 1.149058e+003
6.606699e+002, 1.149059e+003
6.611520e+002, 1.149814e+003
6.616342e+002, 1.150737e+003
6.621163e+002, 1.150558e+003
6.625984e+002, 1.149850e+003
6.630805e+002, 1.150152e+003
6.635626e+002, 1.152959e+003
6.640447e+002, 1.156078e+003
6.645269e+002, 1.158328e+003
6.650090e+002, 1.159673e+003
6.654911e+002, 1.160078e+003
6.659732e+002, 1.157998e+003
6.664553e+002, 1.156491e+003
6.669374e+002, 1.157173e+003
6.674196e+002, 1.159852e+003
6.679017e+002, 1.161365e+003
6.683838e+002, 1.161098e+003
6.688659e+002, 1.160886e+003
6.693480e+002, 1.161906e+003
6.698301e+002, 1.164134e+003
6.703123e+002, 1.165269e+003
6.707944e+002, 1.165251e+003
6.712765e+002, 1.164609e+003
6.717586e+002, 1.163034e+003
6.722407e+002, 1.161288e+003
6.727228e+002, 1.161304e+003
6.732050e+002, 1.163529e+003
6.736871e+002, 1.166196e+003
6.741692e+002, 1.168211e+003
6.746513e+002, 1.169826e+003
6.751334e+002, 1.171334e+003
6.756155e+002, 1.173199e+003
6.760977e+002, 1.174368e+003
6.765798e+002, 1.174081e+003
6.770619e+002, 1.173102e+003
6.775440e+002, 1.172564e+003
6.780261e+002, 1.172655e+003
6.785082e+002, 1.172797e+003
6.789904e+002, 1.172760e+003
6.794725e+002, 1.172838e+003
6.799546e+002, 1.174084e+003
6.804367e+002, 1.176506e+003
6.809188e+002, 1.178551e+003
6.814009e+002, 1.179589e+003
6.818831e+002, 1.179823e+003
6.823652e+002, 1.179101e+003
6.828473e+002, 1.177695e+003
6.833294e+002, 1.176957e+003
6.838115e+002, 1.178436e+003
6.842936e+002, 1.180291e+003
6.847758e+002, 1.181031e+003
6.852579e+002, 1.180565e+003
6.857400e+002, 1.180495e+003
6.862221e+002, 1.181133e+003
6.867042e+002, 1.182365e+003
6.871863e+002, 1.184245e+003
6.876685e+002, 1.187029e+003
6.881506e+002, 1.189316e+003
6.886327e+002, 1.191127e+003
6.891148e+002, 1.192437e+003
6.895969e+002, 1.192937e+003
6.900790e+002, 1.192705e+003
6.905612e+002, 1.193133e+003
6.910433e+002, 1.194428e+003
6.915254e+002, 1.195947e+003
6.920075e+002, 1.197087e+003
6.924896e+002, 1.197860e+003
6.929717e+002, 1.198240e+003
6.934539e+002, 1.198037e+003
6.939360e+002, 1.197795e+003
6.944181e+002, 1.197699e+003
6.949002e+002, 1.197803e+003
6.953823e+002, 1.198198e+003
6.958644e+002, 1.199653e+003
6.963466e+002, 1.200492e+003
6.968287e+002, 1.200206e+003
6.973108e+002, 1.199277e+003
6.977929e+002, 1.198990e+003
6.982750e+002, 1.199568e+003
6.987571e+002, 1.200077e+003
6.992393e+002, 1.200168e+003
6.997214e+002, 1.200041e+003
7.002035e+002, 1.200264e+003
7.006856e+002, 1.200815e+003
7.011677e+002, 1.201497e+003
7.016498e+002, 1.202136e+003
7.021320e+002, 1.202862e+003
7.026141e+002, 1.203972e+003
7.030962e+002, 1.205388e+003
7.035783e+002, 1.206474e+003
7.040604e+002, 1.206128e+003
7.045425e+002, 1.205990e+003
7.050247e+002, 1.207231e+003
7.055068e+002, 1.210331e+003
7.059889e+002, 1.212391e+003
7.064710e+002, 1.212759e+003
7.069531e+002, 1.212887e+003
7.074352e+002, 1.213901e+003
7.079174e+002, 1.215970e+003
7.083995e+002, 1.216848e+003
7.088816e+002, 1.216336e+003
7.093637e+002, 1.215465e+003
7.098458e+002, 1.215406e+003
7.103279e+002, 1.215832e+003
7.108101e+002, 1.215719e+003
7.112922e+002, 1.214668e+003
7.117743e+002, 1.214131e+003
7.122564e+002, 1.216127e+003
7.127385e+002, 1.218916e+003
7.132206e+002, 1.220392e+003
7.137028e+002, 1.218981e+003
7.141849e+002, 1.217646e+003
7.146670e+002, 1.216547e+003
7.151491e+002, 1.215990e+003
7.156312e+002, 1.216505e+003
7.161133e+002, 1.218416e+003
7.165955e+002, 1.220529e+003
7.170776e+002, 1.222759e+003
7.175597e+002, 1.224897e+003
7.180418e+002, 1.226497e+003
7.185239e+002, 1.227560e+003
7.190060e+002, 1.228041e+003
7.194882e+002, 1.227564e+003
7.199703e+002, 1.226849e+003
7.204524e+002, 1.226969e+003
7.209345e+002, 1.227601e+003
7.214166e+002, 1.227826e+003
7.218987e+002, 1.225720e+003
7.223809e+002, 1.224509e+003
7.228630e+002, 1.226704e+003
7.233451e+002, 1.231760e+003
7.238272e+002, 1.234717e+003
7.243093e+002, 1.234415e+003
7.247914e+002, 1.233415e+003
7.252736e+002, 1.232293e+003
7.257557e+002, 1.231162e+003
7.262378e+002, 1.231625e+003
7.267199e+002, 1.233906e+003
7.272020e+002, 1.236065e+003
7.276841e+002, 1.236632e+003
7.281663e+002, 1.236231e+003
7.286484e+002, 1.236134e+003
7.291305e+002, 1.236393e+003
7.296126e+002, 1.236851e+003
7.300947e+002, 1.237647e+003
7.305768e+002, 1.238429e+003
7.310590e+002, 1.238862e+003
7.315411e+002, 1.238819e+003
7.320232e+002, 1.238814e+003
7.325053e+002, 1.238381e+003
7.329874e+002, 1.238439e+003
7.334695e+002, 1.239836e+003
7.339517e+002, 1.243420e+003
7.344338e+002, 1.245065e+003
7.349159e+002, 1.244369e+003
7.353980e+002, 1.242875e+003
7.358801e+002, 1.241969e+003
7.363622e+002, 1.241643e+003
7.368444e+002, 1.241969e+003
7.373265e+002, 1.243059e+003
7.378086e+002, 1.244340e+003
7.382907e+002, 1.245507e+003
7.387728e+002, 1.246469e+003
7.392549e+002, 1.247104e+003
7.397371e+002, 1.247509e+003
7.402192e+002, 1.247406e+003
7.407013e+002, 1.245707e+003
7.411834e+002, 1.243906e+003
7.416655e+002, 1.244098e+003
7.421476e+002, 1.247574e+003
7.426298e+002, 1.249818e+003
7.431119e+002, 1.249841e+003
7.435940e+002, 1.248958e+003
7.440761e+002, 1.249652e+003
7.445582e+002, 1.251752e+003
7.450403e+002, 1.253830e+003
7.455225e+002, 1.255649e+003
7.460046e+002, 1.256873e+003
7.464867e+002, 1.256468e+003
7.469688e+002, 1.255190e+003
7.474509e+002, 1.254691e+003
7.479330e+002, 1.256680e+003
7.484152e+002, 1.258490e+003
7.488973e+002, 1.258981e+003
7.493794e+002, 1.258477e+003
7.498615e+002, 1.258081e+003
7.503436e+002, 1.257884e+003
7.508257e+002, 1.257749e+003
7.513079e+002, 1.257654e+003
7.517900e+002, 1.257629e+003
7.522721e+002, 1.257909e+003
7.527542e+002, 1.258510e+003
7.532363e+002, 1.258662e+003
7.537184e+002, 1.257489e+003
7.542006e+002, 1.255982e+003
7.546827e+002, 1.255870e+003
7.551648e+002, 1.256872e+003
7.556469e+002, 1.257796e+003
7.561290e+002, 1.257943e+003
7.566111e+002, 1.257930e+003
7.570933e+002, 1.257972e+003
7.575754e+002, 1.258096e+003
7.580575e+002, 1.258587e+003
7.585396e+002, 1.259820e+003
7.590217e+002, 1.260798e+003
7.595038e+002, 1.260824e+003
7.599860e+002, 1.260082e+003
7.604681e+002, 1.261241e+003
7.609502e+002, 1.264483e+003
7.614323e+002, 1.267312e+003
7.619144e+002, 1.267400e+003
7.623965e+002, 1.266192e+003
7.628787e+002, 1.266292e+003
7.633608e+002, 1.267716e+003
7.638429e+002, 1.269633e+003
7.643250e+002, 1.272527e+003
7.648071e+002, 1.274984e+003
7.652892e+002, 1.275894e+003
7.657714e+002, 1.275018e+003
7.662535e+002, 1.273895e+003
7.667356e+002, 1.272161e+003
7.672177e+002, 1.270827e+003
7.676998e+002, 1.270544e+003
7.681819e+002, 1.271379e+003
7.686641e+002, 1.272310e+003
7.691462e+002, 1.273379e+003
7.696283e+002, 1.274210e+003
7.701104e+002, 1.274252e+003
7.705925e+002, 1.273893e+003
7.710746e+002, 1.273725e+003
7.715568e+002, 1.273787e+003
7.720389e+002, 1.274491e+003
7.725210e+002, 1.277193e+003
7.730031e+002, 1.279886e+003
7.734852e+002, 1.280845e+003
7.739673e+002, 1.279103e+003
7.744495e+002, 1.277916e+003
7.749316e+002, 1.277374e+003
7.754137e+002, 1.277412e+003
7.758958e+002, 1.278207e+003
7.763779e+002, 1.279866e+003
7.768600e+002, 1.280821e+003
7.773422e+002, 1.280974e+003
7.778243e+002, 1.280765e+003
7.783064e+002, 1.280245e+003
7.787885e+002, 1.279792e+003
7.792706e+002, 1.280320e+003
7.797527e+002, 1.282168e+003
7.802349e+002, 1.283810e+003
7.807170e+002, 1.284500e+003
7.811991e+002, 1.284496e+003
7.816812e+002, 1.283944e+003
7.821633e+002, 1.282218e+003
7.826454e+002, 1.281236e+003
7.831276e+002, 1.280982e+003
7.836097e+002, 1.281508e+003
7.840918e+002, 1.283426e+003
7.845739e+002, 1.286782e+003
7.850560e+002, 1.288034e+003
7.855381e+002, 1.286566e+003
7.860203e+002, 1.284385e+003
7.865024e+002, 1.283482e+003
7.869845e+002, 1.283467e+003
7.874666e+002, 1.283590e+003
7.879487e+002, 1.283537e+003
7.884308e+002, 1.284096e+003
7.889130e+002, 1.286299e+003
7.893951e+002, 1.288956e+003
7.898772e+002, 1.290827e+003
7.903593e+002, 1.291024e+003
7.908414e+002, 1.291878e+003
7.913235e+002, 1.293710e+003
7.918057e+002, 1.295737e+003
7.922878e+002, 1.296755e+003
7.927699e+002, 1.296867e+003
7.932520e+002, 1.297842e+003
7.937341e+002, 1.300128e+003
7.942162e+002, 1.302400e+003
7.946984e+002, 1.303281e+003
7.951805e+002, 1.303191e+003
7.956626e+002, 1.302730e+003
7.961447e+002, 1.301810e+003
7.966268e+002, 1.301110e+003
7.971089e+002, 1.300876e+003
7.975911e+002, 1.301011e+003
7.980732e+002, 1.301425e+003
7.985553e+002, 1.302374e+003
7.990374e+002, 1.303047e+003
7.995195e+002, 1.303408e+003
8.000016e+002, 1.303524e+003
8.004838e+002, 1.303319e+003
8.009659e+002, 1.302904e+003
8.014480e+002, 1.302902e+003
8.019301e+002, 1.303491e+003
8.024122e+002, 1.304278e+003
8.028943e+002, 1.304961e+003
8.033765e+002, 1.305574e+003
8.038586e+002, 1.306171e+003
8.043407e+002, 1.306775e+003
8.048228e+002, 1.307323e+003
8.053049e+002, 1.307864e+003
8.057870e+002, 1.308286e+003
8.062692e+002, 1.308323e+003
8.067513e+002, 1.307631e+003
8.072334e+002, 1.308034e+003
8.077155e+002, 1.309956e+003
8.081976e+002, 1.312178e+003
8.086797e+002, 1.313243e+003
8.091619e+002, 1.313308e+003
8.096440e+002, 1.312600e+003
8.101261e+002, 1.310818e+003
8.106082e+002, 1.309621e+003
8.110903e+002, 1.310925e+003
8.115724e+002, 1.313166e+003
8.120546e+002, 1.314611e+003
8.125367e+002, 1.313985e+003
8.130188e+002, 1.314183e+003
8.135009e+002, 1.315840e+003
8.139830e+002, 1.317905e+003
8.144651e+002, 1.319247e+003
8.149473e+002, 1.319861e+003
8.154294e+002, 1.320217e+003
8.159115e+002, 1.320306e+003
8.163936e+002, 1.320498e+003
8.168757e+002, 1.321455e+003
8.173578e+002, 1.322743e+003
8.178400e+002, 1.323417e+003
8.183221e+002, 1.322876e+003
8.188042e+002, 1.323096e+003
8.192863e+002, 1.325596e+003
8.197684e+002, 1.328933e+003
8.202505e+002, 1.331790e+003
8.207327e+002, 1.334286e+003
8.212148e+002, 1.335697e+003
8.216969e+002, 1.335714e+003
8.221790e+002, 1.335121e+003
8.226611e+002, 1.334634e+003
8.231432e+002, 1.334229e+003
8.236254e+002, 1.333924e+003
8.241075e+002, 1.333729e+003
8.245896e+002, 1.333454e+003
8.250717e+002, 1.332450e+003
8.255538e+002, 1.331522e+003
8.260359e+002, 1.331746e+003
8.265181e+002, 1.333693e+003
8.270002e+002, 1.335492e+003
8.274823e+002, 1.337248e+003
8.279644e+002, 1.338354e+003
8.284465e+002, 1.338230e+003
8.289286e+002, 1.336516e+003
8.294108e+002, 1.335560e+003
8.298929e+002, 1.335492e+003
8.303750e+002, 1.335806e+003
8.308571e+002, 1.336303e+003
8.313392e+002, 1.336783e+003
8.318214e+002, 1.336595e+003
8.323035e+002, 1.335644e+003
8.327856e+002, 1.335023e+003
8.332677e+002, 1.335369e+003
8.337498e+002, 1.336324e+003
8.342319e+002, 1.337774e+003
8.347141e+002, 1.339946e+003
8.351962e+002, 1.341347e+003
8.356783e+002, 1.341451e+003
8.361604e+002, 1.341597e+003
8.366425e+002, 1.342951e+003
8.371246e+002, 1.345356e+003
8.376068e+002, 1.346201e+003
8.380889e+002, 1.345456e+003
8.385710e+002, 1.345111e+003
8.390531e+002, 1.347626e+003
8.395352e+002, 1.350781e+003
8.400173e+002, 1.351809e+003
8.404995e+002, 1.350590e+003
8.409816e+002, 1.350019e+003
8.414637e+002, 1.351293e+003
8.419458e+002, 1.353260e+003
8.424279e+002, 1.355697e+003
8.429100e+002, 1.358571e+003
8.433922e+002, 1.360106e+003
8.438743e+002, 1.360106e+003
8.443564e+002, 1.359767e+003
8.448385e+002, 1.359890e+003
8.453206e+002, 1.360144e+003
8.458027e+002, 1.359454e+003
8.462849e+002, 1.358044e+003
8.467670e+002, 1.357204e+003
8.472491e+002, 1.358343e+003
8.477312e+002, 1.359640e+003
8.482133e+002, 1.359969e+003
8.486954e+002, 1.359428e+003
8.491776e+002, 1.359301e+003
8.496597e+002, 1.359900e+003
8.501418e+002, 1.360424e+003
8.506239e+002, 1.360555e+003
8.511060e+002, 1.360481e+003
8.515881e+002, 1.361052e+003
8.520703e+002, 1.362143e+003
8.525524e+002, 1.362628e+003
8.530345e+002, 1.360946e+003
8.535166e+002, 1.359324e+003
8.539987e+002, 1.360035e+003
8.544808e+002, 1.362394e+003
8.549630e+002, 1.364688e+003
8.554451e+002, 1.366619e+003
8.559272e+002, 1.368062e+003
8.564093e+002, 1.368753e+003
8.568914e+002, 1.369032e+003
8.573735e+002, 1.369720e+003
8.578557e+002, 1.370832e+003
8.583378e+002, 1.372134e+003
8.588199e+002, 1.373692e+003
8.593020e+002, 1.375178e+003
8.597841e+002, 1.376250e+003
8.602662e+002, 1.376862e+003
8.607484e+002, 1.376841e+003
8.612305e+002, 1.375472e+003
8.617126e+002, 1.374480e+003
8.621947e+002, 1.374659e+003
8.626768e+002, 1.375567e+003
8.631589e+002, 1.376578e+003
8.636411e+002, 1.377867e+003
8.641232e+002, 1.378804e+003
8.646053e+002, 1.379325e+003
8.650874e+002, 1.379496e+003
8.655695e+002, 1.379283e+003
8.660516e+002, 1.378790e+003
8.665338e+002, 1.378162e+003
8.670159e+002, 1.377231e+003
8.674980e+002, 1.377133e+003
8.679801e+002, 1.379624e+003
8.684622e+002, 1.382794e+003
8.689443e+002, 1.384773e+003
8.694265e+002, 1.384754e+003
8.699086e+002, 1.384860e+003
8.703907e+002, 1.385346e+003
8.708728e+002, 1.385589e+003
8.713549e+002, 1.384592e+003
8.718370e+002, 1.382587e+003
8.723192e+002, 1.382582e+003
8.728013e+002, 1.384720e+003
8.732834e+002, 1.387147e+003
8.737655e+002, 1.388610e+003
8.742476e+002, 1.389418e+003
8.747297e+002, 1.389658e+003
8.752119e+002, 1.389320e+003
8.756940e+002, 1.389323e+003
8.761761e+002, 1.390565e+003
8.766582e+002, 1.391424e+003
8.771403e+002, 1.390959e+003
8.776224e+002, 1.389342e+003
8.781046e+002, 1.389198e+003
8.785867e+002, 1.390591e+003
8.790688e+002, 1.392094e+003
8.795509e+002, 1.392889e+003
8.800330e+002, 1.393263e+003
8.805151e+002, 1.393398e+003
8.809973e+002, 1.393433e+003
8.814794e+002, 1.393849e+003
8.819615e+002, 1.395331e+003
8.824436e+002, 1.396741e+003
8.829257e+002, 1.397722e+003
8.834078e+002, 1.398315e+003
8.838900e+002, 1.398656e+003
8.843721e+002, 1.398769e+003
8.848542e+002, 1.398386e+003
8.853363e+002, 1.397087e+003
8.858184e+002, 1.395793e+003
8.863005e+002, 1.396014e+003
8.867827e+002, 1.397544e+003
8.872648e+002, 1.399966e+003
8.877469e+002, 1.404294e+003
8.882290e+002, 1.407661e+003
8.887111e+002, 1.408301e+003
8.891932e+002, 1.407383e+003
8.896754e+002, 1.406570e+003
8.901575e+002, 1.405697e+003
8.906396e+002, 1.405609e+003
8.911217e+002, 1.406617e+003
8.916038e+002, 1.407860e+003
8.920859e+002, 1.408204e+003
8.925681e+002, 1.407914e+003
8.930502e+002, 1.407693e+003
8.935323e+002, 1.407607e+003
8.940144e+002, 1.408000e+003
8.944965e+002, 1.409932e+003
8.949786e+002, 1.411899e+003
8.954608e+002, 1.412298e+003
8.959429e+002, 1.410046e+003
8.964250e+002, 1.409980e+003
8.969071e+002, 1.413169e+003
8.973892e+002, 1.416377e+003
8.978713e+002, 1.416960e+003
8.983535e+002, 1.415491e+003
8.988356e+002, 1.415190e+003
8.993177e+002, 1.416062e+003
8.997998e+002, 1.417838e+003
9.002819e+002, 1.421947e+003
9.007640e+002, 1.425581e+003
9.012462e+002, 1.426012e+003
9.017283e+002, 1.423537e+003
9.022104e+002, 1.422200e+003
9.026925e+002, 1.423024e+003
9.031746e+002, 1.424043e+003
9.036567e+002, 1.424732e+003
9.041389e+002, 1.425200e+003
9.046210e+002, 1.425767e+003
9.051031e+002, 1.426434e+003
9.055852e+002, 1.427256e+003
9.060673e+002, 1.428540e+003
9.065494e+002, 1.429586e+003
9.070316e+002, 1.429350e+003
9.075137e+002, 1.428502e+003
9.079958e+002, 1.428230e+003
9.084779e+002, 1.429307e+003
9.089600e+002, 1.430353e+003
9.094421e+002, 1.431373e+003
9.099243e+002, 1.432157e+003
9.104064e+002, 1.432146e+003
9.108885e+002, 1.431428e+003
9.113706e+002, 1.431861e+003
9.118527e+002, 1.433916e+003
9.123348e+002, 1.435898e+003
9.128170e+002, 1.435885e+003
9.132991e+002, 1.435056e+003
9.137812e+002, 1.434760e+003
9.142633e+002, 1.435355e+003
9.147454e+002, 1.435927e+003
9.152275e+002, 1.436146e+003
9.157097e+002, 1.436547e+003
9.161918e+002, 1.437596e+003
9.166739e+002, 1.439278e+003
9.171560e+002, 1.440110e+003
9.176381e+002, 1.440074e+003
9.181202e+002, 1.440279e+003
9.186024e+002, 1.442043e+003
9.190845e+002, 1.444053e+003
9.195666e+002, 1.444644e+003
9.200487e+002, 1.444047e+003
9.205308e+002, 1.443893e+003
9.210129e+002, 1.445027e+003
9.214951e+002, 1.446184e+003
9.219772e+002, 1.446955e+003
9.224593e+002, 1.447542e+003
9.229414e+002, 1.448651e+003
9.234235e+002, 1.450250e+003
9.239056e+002, 1.451777e+003
9.243878e+002, 1.453094e+003
9.248699e+002, 1.454147e+003
9.253520e+002, 1.455037e+003
9.258341e+002, 1.455587e+003
9.263162e+002, 1.455506e+003
9.267983e+002, 1.453744e+003
9.272805e+002, 1.452885e+003
9.277626e+002, 1.453631e+003
9.282447e+002, 1.454960e+003
9.287268e+002, 1.456000e+003
9.292089e+002, 1.456775e+003
9.296910e+002, 1.456635e+003
9.301732e+002, 1.455429e+003
9.306553e+002, 1.454767e+003
9.311374e+002, 1.456912e+003
9.316195e+002, 1.459949e+003
9.321016e+002, 1.461523e+003
9.325837e+002, 1.461271e+003
9.330659e+002, 1.461669e+003
9.335480e+002, 1.464000e+003
9.340301e+002, 1.466182e+003
9.345122e+002, 1.467407e+003
9.349943e+002, 1.467739e+003
9.354764e+002, 1.467462e+003
9.359586e+002, 1.466567e+003
9.364407e+002, 1.465971e+003
9.369228e+002, 1.465867e+003
9.374049e+002, 1.466488e+003
9.378870e+002, 1.469072e+003
9.383691e+002, 1.472514e+003
9.388513e+002, 1.474203e+003
9.393334e+002, 1.471472e+003
9.398155e+002, 1.469610e+003
9.402976e+002, 1.469558e+003
9.407797e+002, 1.470516e+003
9.412618e+002, 1.471361e+003
9.417440e+002, 1.472121e+003
9.422261e+002, 1.472777e+003
9.427082e+002, 1.473278e+003
9.431903e+002, 1.474088e+003
9.436724e+002, 1.476085e+003
9.441545e+002, 1.478346e+003
9.446367e+002, 1.479825e+003
9.451188e+002, 1.480059e+003
9.456009e+002, 1.480524e+003
9.460830e+002, 1.481328e+003
9.465651e+002, 1.482282e+003
9.470472e+002, 1.483427e+003
9.475294e+002, 1.484647e+003
9.480115e+002, 1.484773e+003
9.484936e+002, 1.483907e+003
9.489757e+002, 1.483350e+003
9.494578e+002, 1.484729e+003
9.499399e+002, 1.486057e+003
9.504221e+002, 1.485472e+003
9.509042e+002, 1.483503e+003
9.513863e+002, 1.482338e+003
9.518684e+002, 1.483284e+003
9.523505e+002, 1.482976e+003
9.528326e+002, 1.480188e+003
9.533148e+002, 1.476816e+003
9.537969e+002, 1.476949e+003
9.542790e+002, 1.479772e+003
9.547611e+002, 1.481551e+003
9.552432e+002, 1.481050e+003
9.557253e+002, 1.480467e+003
9.562075e+002, 1.481252e+003
9.566896e+002, 1.482778e+003
9.571717e+002, 1.484549e+003
9.576538e+002, 1.486814e+003
9.581359e+002, 1.488098e+003
9.586180e+002, 1.488112e+003
9.591002e+002, 1.487741e+003
9.595823e+002, 1.487288e+003
9.600644e+002, 1.486976e+003
9.605465e+002, 1.487702e+003
9.610286e+002, 1.489365e+003
9.615107e+002, 1.491131e+003
9.619929e+002, 1.491858e+003
9.624750e+002, 1.493245e+003
9.629571e+002, 1.496921e+003
9.634392e+002, 1.502067e+003
9.639213e+002, 1.505910e+003
9.644034e+002, 1.508485e+003
9.648856e+002, 1.509343e+003
9.653677e+002, 1.507927e+003
9.658498e+002, 1.505676e+003
9.663319e+002, 1.504414e+003
9.668140e+002, 1.504135e+003
9.672961e+002, 1.505017e+003
9.677783e+002, 1.507650e+003
9.682604e+002, 1.509981e+003
9.687425e+002, 1.511567e+003
9.692246e+002, 1.512270e+003
9.697067e+002, 1.511731e+003
9.701888e+002, 1.509600e+003
9.706710e+002, 1.509010e+003
9.711531e+002, 1.510101e+003
9.716352e+002, 1.511333e+003
9.721173e+002, 1.510920e+003
9.725994e+002, 1.510289e+003
9.730815e+002, 1.511966e+003
9.735637e+002, 1.515447e+003
9.740458e+002, 1.517590e+003
9.745279e+002, 1.515747e+003
9.750100e+002, 1.514287e+003
9.754921e+002, 1.513872e+003
9.759742e+002, 1.514788e+003
9.764564e+002, 1.519030e+003
9.769385e+002, 1.526302e+003
9.774206e+002, 1.529639e+003
9.779027e+002, 1.526186e+003
9.783848e+002, 1.521626e+003
9.788669e+002, 1.521517e+003
9.793491e+002, 1.523398e+003
9.798312e+002, 1.524167e+003
9.803133e+002, 1.522250e+003
9.807954e+002, 1.522170e+003
9.812775e+002, 1.525306e+003
9.817596e+002, 1.528118e+003
9.822418e+002, 1.527260e+003
9.827239e+002, 1.523730e+003
9.832060e+002, 1.523307e+003
9.836881e+002, 1.525676e+003
9.841702e+002, 1.527983e+003
9.846523e+002, 1.528139e+003
9.851345e+002, 1.527974e+003
9.856166e+002, 1.528515e+003
9.860987e+002, 1.529635e+003
9.865808e+002, 1.530782e+003
9.870629e+002, 1.532076e+003
9.875450e+002, 1.533020e+003
9.880272e+002, 1.533563e+003
9.885093e+002, 1.533654e+003
9.889914e+002, 1.532709e+003
9.894735e+002, 1.531385e+003
9.899556e+002, 1.531128e+003
9.904377e+002, 1.532491e+003
9.909199e+002, 1.533957e+003
9.914020e+002, 1.535255e+003
9.918841e+002, 1.536129e+003
9.923662e+002, 1.536078e+003
9.928483e+002, 1.535023e+003
9.933304e+002, 1.536365e+003
9.938126e+002, 1.540270e+003
9.942947e+002, 1.543667e+003
9.947768e+002, 1.544364e+003
9.952589e+002, 1.543675e+003
9.957410e+002, 1.542449e+003
9.962231e+002, 1.541132e+003
9.967053e+002, 1.540943e+003
9.971874e+002, 1.543709e+003
9.976695e+002, 1.545567e+003
9.981516e+002, 1.545615e+003
9.986337e+002, 1.544959e+003
9.991158e+002, 1.545304e+003
9.995980e+002, 1.546527e+003
1.000080e+003, 1.547788e+003
1.000562e+003, 1.549000e+003
1.001044e+003, 1.550075e+003
1.001526e+003, 1.551271e+003
1.002009e+003, 1.552106e+003
1.002491e+003, 1.551843e+003
1.002973e+003, 1.550264e+003
1.003455e+003, 1.550217e+003
1.003937e+003, 1.552388e+003
1.004419e+003, 1.553908e+003
1.004901e+003, 1.552823e+003
1.005383e+003, 1.550817e+003
1.005865e+003, 1.551863e+003
1.006348e+003, 1.555084e+003
1.006830e+003, 1.558013e+003
1.007312e+003, 1.559408e+003
1.007794e+003, 1.560511e+003
1.008276e+003, 1.561529e+003
1.008758e+003, 1.562541e+003
1.009240e+003, 1.563743e+003
1.009722e+003, 1.565189e+003
1.010205e+003, 1.565963e+003
1.010687e+003, 1.565953e+003
1.011169e+003, 1.565788e+003
1.011651e+003, 1.565820e+003
1.012133e+003, 1.566137e+003
1.012615e+003, 1.567130e+003
1.013097e+003, 1.568742e+003
1.013579e+003, 1.569531e+003
1.014061e+003, 1.568506e+003
1.014544e+003, 1.567978e+003
1.015026e+003, 1.568807e+003
1.015508e+003, 1.570377e+003
1.015990e+003, 1.571182e+003
1.016472e+003, 1.571387e+003
1.016954e+003, 1.571703e+003
1.017436e+003, 1.572497e+003
1.017918e+003, 1.573072e+003
1.018401e+003, 1.572449e+003
1.018883e+003, 1.571745e+003
1.019365e+003, 1.572162e+003
1.019847e+003, 1.574013e+003
1.020329e+003, 1.575606e+003
1.020811e+003, 1.576979e+003
1.021293e+003, 1.577943e+003
1.021775e+003, 1.578166e+003
1.022257e+003, 1.578006e+003
1.022740e+003, 1.577746e+003
1.023222e+003, 1.577555e+003
1.023704e+003, 1.578021e+003
1.024186e+003, 1.580307e+003
1.024668e+003, 1.581965e+003
1.025150e+003, 1.582062e+003
1.025632e+003, 1.581663e+003
1.026114e+003, 1.582715e+003
1.026596e+003, 1.585021e+003
1.027079e+003, 1.587137e+003
1.027561e+003, 1.588876e+003
1.028043e+003, 1.589993e+003
1.028525e+003, 1.589775e+003
1.029007e+003, 1.589227e+003
1.029489e+003, 1.589252e+003
1.029971e+003, 1.589974e+003
1.030453e+003, 1.590560e+003
1.030936e+003, 1.591004e+003
1.031418e+003, 1.591409e+003
1.031900e+003, 1.591988e+003
1.032382e+003, 1.592383e+003
1.032864e+003, 1.591297e+003
1.033346e+003, 1.589499e+003
1.033828e+003, 1.588902e+003
1.034310e+003, 1.591662e+003
1.034792e+003, 1.593385e+003
1.035275e+003, 1.591714e+003
1.035757e+003, 1.589746e+003
1.036239e+003, 1.590572e+003
1.036721e+003, 1.594194e+003
1.037203e+003, 1.596400e+003
1.037685e+003, 1.597043e+003
1.038167e+003, 1.596913e+003
1.038649e+003, 1.595755e+003
1.039132e+003, 1.594781e+003
1.039614e+003, 1.595293e+003
1.040096e+003, 1.596967e+003
1.040578e+003, 1.597822e+003
1.041060e+003, 1.597159e+003
1.041542e+003, 1.597280e+003
1.042024e+003, 1.598715e+003
1.042506e+003, 1.600836e+003
1.042989e+003, 1.602930e+003
1.043471e+003, 1.604939e+003
1.043953e+003, 1.606728e+003
1.044435e+003, 1.608217e+003
1.044917e+003, 1.609799e+003
1.045399e+003, 1.612894e+003
1.045881e+003, 1.614701e+003
1.046363e+003, 1.612995e+003
1.046845e+003, 1.608555e+003
1.047328e+003, 1.608232e+003
1.047810e+003, 1.611781e+003
1.048292e+003, 1.614763e+003
1.048774e+003, 1.614890e+003
1.049256e+003, 1.614076e+003
1.049738e+003, 1.613417e+003
1.050220e+003, 1.613007e+003
1.050702e+003, 1.612985e+003
1.051184e+003, 1.613236e+003
1.051667e+003, 1.614311e+003
1.052149e+003, 1.616575e+003
1.052631e+003, 1.618464e+003
1.053113e+003, 1.617923e+003
1.053595e+003, 1.616317e+003
1.054077e+003, 1.616671e+003
1.054559e+003, 1.618755e+003
1.055041e+003, 1.620215e+003
1.055523e+003, 1.618725e+003
1.056006e+003, 1.618261e+003
1.056488e+003, 1.620386e+003
1.056970e+003, 1.623755e+003
1.057452e+003, 1.625873e+003
1.057934e+003, 1.626777e+003
1.058416e+003, 1.626418e+003
1.058898e+003, 1.624606e+003
1.059380e+003, 1.622820e+003
1.059863e+003, 1.621852e+003
1.060345e+003, 1.621759e+003
1.060827e+003, 1.622981e+003
1.061309e+003, 1.625551e+003
1.061791e+003, 1.627134e+003
1.062273e+003, 1.627486e+003
1.062755e+003, 1.627937e+003
1.063237e+003, 1.629182e+003
1.063719e+003, 1.630642e+003
1.064202e+003, 1.631285e+003
1.064684e+003, 1.631506e+003
1.065166e+003, 1.632075e+003
1.065648e+003, 1.633361e+003
1.066130e+003, 1.634828e+003
1.066612e+003, 1.636870e+003
1.067094e+003, 1.638427e+003
1.067576e+003, 1.637990e+003
1.068059e+003, 1.636168e+003
1.068541e+003, 1.636814e+003
1.069023e+003, 1.639707e+003
1.069505e+003, 1.642604e+003
1.069987e+003, 1.644311e+003
1.070469e+003, 1.645513e+003
1.070951e+003, 1.646329e+003
1.071433e+003, 1.646916e+003
1.071916e+003, 1.647448e+003
1.072398e+003, 1.647866e+003
1.072880e+003, 1.648806e+003
1.073362e+003, 1.650441e+003
1.073844e+003, 1.651994e+003
1.074326e+003, 1.652807e+003
1.074808e+003, 1.653038e+003
1.075290e+003, 1.652484e+003
1.075772e+003, 1.651165e+003
1.076255e+003, 1.651086e+003
1.076737e+003, 1.652741e+003
1.077219e+003, 1.654728e+003
1.077701e+003, 1.656631e+003
1.078183e+003, 1.658550e+003
1.078665e+003, 1.661157e+003
1.079147e+003, 1.663858e+003
1.079629e+003, 1.665075e+003
1.080111e+003, 1.663751e+003
1.080594e+003, 1.662847e+003
1.081076e+003, 1.663583e+003
1.081558e+003, 1.664845e+003
1.082040e+003, 1.666019e+003
1.082522e+003, 1.667130e+003
1.083004e+003, 1.668685e+003
1.083486e+003, 1.670613e+003
1.083968e+003, 1.672186e+003
1.084450e+003, 1.672639e+003
1.084933e+003, 1.673008e+003
1.085415e+003, 1.673975e+003
1.085897e+003, 1.675273e+003
1.086379e+003, 1.676453e+003
1.086861e+003, 1.677385e+003
1.087343e+003, 1.678875e+003
1.087825e+003, 1.681099e+003
1.088307e+003, 1.683050e+003
1.088790e+003, 1.683788e+003
1.089272e+003, 1.683817e+003
1.089754e+003, 1.683327e+003
1.090236e+003, 1.682585e+003
1.090718e+003, 1.682895e+003
1.091200e+003, 1.685714e+003
1.091682e+003, 1.687280e+003
1.092164e+003, 1.686609e+003
1.092646e+003, 1.685051e+003
1.093129e+003, 1.684437e+003
1.093611e+003, 1.684608e+003
1.094093e+003, 1.685587e+003
1.094575e+003, 1.687497e+003
1.095057e+003, 1.688041e+003
1.095539e+003, 1.684146e+003
1.096021e+003, 1.680897e+003
1.096503e+003, 1.680851e+003
1.096986e+003, 1.683006e+003
1.097468e+003, 1.683180e+003
1.097950e+003, 1.681710e+003
1.098432e+003, 1.681583e+003
1.098914e+003, 1.684299e+003
1.099396e+003, 1.687125e+003
1.099878e+003, 1.688217e+003
1.100360e+003, 1.688353e+003
1.100843e+003, 1.688175e+003
1.101325e+003, 1.687654e+003
1.101807e+003, 1.687661e+003
1.102289e+003, 1.688245e+003
1.102771e+003, 1.688845e+003
1.103253e+003, 1.689167e+003
1.103735e+003, 1.689314e+003
1.104217e+003, 1.689106e+003
1.104699e+003, 1.688883e+003
1.105182e+003, 1.689327e+003
1.105664e+003, 1.691312e+003
1.106146e+003, 1.692584e+003
1.106628e+003, 1.693047e+003
1.107110e+003, 1.692921e+003
1.107592e+003, 1.691717e+003
1.108074e+003, 1.690346e+003
1.108556e+003, 1.691118e+003
1.109038e+003, 1.693665e+003
1.109521e+003, 1.695637e+003
1.110003e+003, 1.695064e+003
1.110485e+003, 1.695326e+003
1.110967e+003, 1.697635e+003
1.111449e+003, 1.700460e+003
1.111931e+003, 1.701274e+003
1.112413e+003, 1.700535e+003
1.112895e+003, 1.700378e+003
1.113377e+003, 1.701065e+003
1.113860e+003, 1.701760e+003
1.114342e+003, 1.701550e+003
1.114824e+003, 1.701654e+003
1.115306e+003, 1.702925e+003
1.115788e+003, 1.704989e+003
1.116270e+003, 1.706835e+003
1.116752e+003, 1.708471e+003
1.117234e+003, 1.708978e+003
1.117717e+003, 1.707834e+003
1.118199e+003, 1.706735e+003
1.118681e+003, 1.707063e+003
1.119163e+003, 1.708225e+003
1.119645e+003, 1.709921e+003
1.120127e+003, 1.712127e+003
1.120609e+003, 1.713466e+003
1.121091e+003, 1.713791e+003
1.121573e+003, 1.714072e+003
1.122056e+003, 1.714850e+003
1.122538e+003, 1.715553e+003
1.123020e+003, 1.715156e+003
1.123502e+003, 1.714305e+003
1.123984e+003, 1.714046e+003
1.124466e+003, 1.714988e+003
1.124948e+003, 1.715576e+003
1.125430e+003, 1.715477e+003
1.125913e+003, 1.715913e+003
1.126395e+003, 1.718137e+003
1.126877e+003, 1.721301e+003
1.127359e+003, 1.724041e+003
1.127841e+003, 1.726109e+003
1.128323e+003, 1.726726e+003
1.128805e+003, 1.723705e+003
1.129287e+003, 1.721974e+003
1.129770e+003, 1.722503e+003
1.130252e+003, 1.723901e+003
1.130734e+003, 1.724729e+003
1.131216e+003, 1.725239e+003
1.131698e+003, 1.726706e+003
1.132180e+003, 1.729028e+003
1.132662e+003, 1.731221e+003
1.133144e+003, 1.732981e+003
1.133626e+003, 1.734147e+003
1.134109e+003, 1.734266e+003
1.134591e+003, 1.734079e+003
1.135073e+003, 1.735075e+003
1.135555e+003, 1.737051e+003
1.136037e+003, 1.737451e+003
1.136519e+003, 1.735959e+003
1.137001e+003, 1.734425e+003
1.137483e+003, 1.733950e+003
1.137965e+003, 1.734133e+003
1.138448e+003, 1.735567e+003
1.138930e+003, 1.737432e+003
1.139412e+003, 1.736571e+003
1.139894e+003, 1.732781e+003
1.140376e+003, 1.731074e+003
1.140858e+003, 1.732769e+003
1.141340e+003, 1.735411e+003
1.141822e+003, 1.737411e+003
1.142304e+003, 1.738793e+003
1.142787e+003, 1.739254e+003
1.143269e+003, 1.738816e+003
1.143751e+003, 1.739462e+003
1.144233e+003, 1.741364e+003
1.144715e+003, 1.743207e+003
1.145197e+003, 1.744459e+003
1.145679e+003, 1.745491e+003
1.146161e+003, 1.746704e+003
1.146644e+003, 1.747963e+003
1.147126e+003, 1.749215e+003
1.147608e+003, 1.750610e+003
1.148090e+003, 1.750819e+003
1.148572e+003, 1.749207e+003
1.149054e+003, 1.748403e+003
1.149536e+003, 1.750234e+003
1.150018e+003, 1.753041e+003
1.150500e+003, 1.753593e+003
1.150983e+003, 1.753017e+003
1.151465e+003, 1.753676e+003
1.151947e+003, 1.757729e+003
1.152429e+003, 1.759747e+003
1.152911e+003, 1.758763e+003
1.153393e+003, 1.757125e+003
1.153875e+003, 1.756062e+003
1.154357e+003, 1.755715e+003
1.154840e+003, 1.757108e+003
1.155322e+003, 1.759609e+003
1.155804e+003, 1.761148e+003
1.156286e+003, 1.760223e+003
1.156768e+003, 1.759186e+003
1.157250e+003, 1.758127e+003
1.157732e+003, 1.757456e+003
1.158214e+003, 1.757439e+003
1.158697e+003, 1.758126e+003
1.159179e+003, 1.760464e+003
1.159661e+003, 1.763998e+003
1.160143e+003, 1.766013e+003
1.160625e+003, 1.762787e+003
1.161107e+003, 1.760889e+003
1.161589e+003, 1.763093e+003
1.162071e+003, 1.766712e+003
1.162553e+003, 1.768282e+003
1.163036e+003, 1.768110e+003
1.163518e+003, 1.768516e+003
1.164000e+003, 1.769638e+003
1.164482e+003, 1.770756e+003
1.164964e+003, 1.771193e+003
1.165446e+003, 1.771855e+003
1.165928e+003, 1.774048e+003
1.166410e+003, 1.776279e+003
1.166892e+003, 1.774659e+003
1.167375e+003, 1.769652e+003
1.167857e+003, 1.768807e+003
1.168339e+003, 1.773287e+003
1.168821e+003, 1.777526e+003
1.169303e+003, 1.776174e+003
1.169785e+003, 1.774512e+003
1.170267e+003, 1.776602e+003
1.170749e+003, 1.780994e+003
1.171231e+003, 1.783571e+003
1.171714e+003, 1.784339e+003
1.172196e+003, 1.784882e+003
1.172678e+003, 1.785467e+003
1.173160e+003, 1.786101e+003
1.173642e+003, 1.787043e+003
1.174124e+003, 1.787814e+003
1.174606e+003, 1.787601e+003
1.175088e+003, 1.786748e+003
1.175571e+003, 1.787824e+003
1.176053e+003, 1.791026e+003
1.176535e+003, 1.792174e+003
1.177017e+003, 1.789350e+003
1.177499e+003, 1.786768e+003
1.177981e+003, 1.789292e+003
1.178463e+003, 1.793473e+003
1.178945e+003, 1.796001e+003
1.179427e+003, 1.796681e+003
1.179910e+003, 1.797151e+003
1.180392e+003, 1.797351e+003
1.180874e+003, 1.797996e+003
1.181356e+003, 1.799675e+003
1.181838e+003, 1.801133e+003
1.182320e+003, 1.800412e+003
1.182802e+003, 1.799067e+003
1.183284e+003, 1.799119e+003
1.183767e+003, 1.801000e+003
1.184249e+003, 1.802150e+003
1.184731e+003, 1.802557e+003
1.185213e+003, 1.802391e+003
1.185695e+003, 1.801474e+003
1.186177e+003, 1.800464e+003
1.186659e+003, 1.799705e+003
1.187141e+003, 1.799553e+003
1.187624e+003, 1.800823e+003
1.188106e+003, 1.804397e+003
1.188588e+003, 1.806098e+003
1.189070e+003, 1.805599e+003
1.189552e+003, 1.805167e+003
1.190034e+003, 1.806361e+003
1.190516e+003, 1.808064e+003
1.190998e+003, 1.808838e+003
1.191480e+003, 1.809130e+003
1.191963e+003, 1.809743e+003
1.192445e+003, 1.811099e+003
1.192927e+003, 1.811717e+003
1.193409e+003, 1.811269e+003
1.193891e+003, 1.811470e+003
1.194373e+003, 1.814318e+003
1.194855e+003, 1.817825e+003
1.195337e+003, 1.819098e+003
1.195819e+003, 1.819020e+003
1.196302e+003, 1.819596e+003
1.196784e+003, 1.821658e+003
1.197266e+003, 1.823023e+003
1.197748e+003, 1.823460e+003
1.198230e+003, 1.823982e+003
1.198712e+003, 1.825818e+003
1.199194e+003, 1.827929e+003
1.199676e+003, 1.829018e+003
1.200158e+003, 1.829214e+003
1.200641e+003, 1.828772e+003
1.201123e+003, 1.826914e+003
1.201605e+003, 1.826723e+003
1.202087e+003, 1.828769e+003
1.202569e+003, 1.830932e+003
1.203051e+003, 1.830853e+003
1.203533e+003, 1.830037e+003
1.204015e+003, 1.830527e+003
1.204498e+003, 1.832039e+003
1.204980e+003, 1.833359e+003
1.205462e+003, 1.834231e+003
1.205944e+003, 1.835039e+003
1.206426e+003, 1.835761e+003
1.206908e+003, 1.836632e+003
1.207390e+003, 1.837839e+003
1.207872e+003, 1.839347e+003
1.208354e+003, 1.841324e+003
1.208837e+003, 1.843609e+003
1.209319e+003, 1.845450e+003
1.209801e+003, 1.846638e+003
1.210283e+003, 1.847751e+003
1.210765e+003, 1.848875e+003
1.211247e+003, 1.849861e+003
1.211729e+003, 1.850553e+003
1.212211e+003, 1.851035e+003
1.212694e+003, 1.851686e+003
1.213176e+003, 1.852319e+003
1.213658e+003, 1.851526e+003
1.214140e+003, 1.848308e+003
1.214622e+003, 1.846746e+003
1.215104e+003, 1.847749e+003
1.215586e+003, 1.849267e+003
1.216068e+003, 1.848873e+003
1.216551e+003, 1.847907e+003
1.217033e+003, 1.847982e+003
1.217515e+003, 1.849121e+003
1.217997e+003, 1.850374e+003
1.218479e+003, 1.851602e+003
1.218961e+003, 1.853278e+003
1.219443e+003, 1.855662e+003
1.219925e+003, 1.857764e+003
1.220407e+003, 1.857643e+003
1.220890e+003, 1.857172e+003
1.221372e+003, 1.859071e+003
1.221854e+003, 1.863045e+003
1.222336e+003, 1.864727e+003
1.222818e+003, 1.863066e+003
1.223300e+003, 1.862966e+003
1.223782e+003, 1.865730e+003
1.224264e+003, 1.868609e+003
1.224746e+003, 1.868279e+003
1.225229e+003, 1.866694e+003
1.225711e+003, 1.865478e+003
1.226193e+003, 1.864944e+003
1.226675e+003, 1.866053e+003
1.227157e+003, 1.869380e+003
1.227639e+003, 1.871150e+003
1.228121e+003, 1.870327e+003
1.228603e+003, 1.868938e+003
1.229085e+003, 1.868833e+003
1.229568e+003, 1.869436e+003
1.230050e+003, 1.870212e+003
1.230532e+003, 1.871169e+003
1.231014e+003, 1.872896e+003
1.231496e+003, 1.875625e+003
1.231978e+003, 1.876859e+003
1.232460e+003, 1.875764e+003
1.232942e+003, 1.874371e+003
1.233425e+003, 1.874335e+003
1.233907e+003, 1.875118e+003
1.234389e+003, 1.876822e+003
1.234871e+003, 1.879056e+003
1.235353e+003, 1.879224e+003
1.235835e+003, 1.877190e+003
1.236317e+003, 1.876745e+003
1.236799e+003, 1.879148e+003
1.237281e+003, 1.881449e+003
1.237764e+003, 1.880216e+003
1.238246e+003, 1.878696e+003
1.238728e+003, 1.879925e+003
1.239210e+003, 1.883171e+003
1.239692e+003, 1.885448e+003
1.240174e+003, 1.886738e+003
1.240656e+003, 1.887474e+003
1.241138e+003, 1.887711e+003
1.241621e+003, 1.887590e+003
1.242103e+003, 1.885910e+003
1.242585e+003, 1.885230e+003
1.243067e+003, 1.887932e+003
1.243549e+003, 1.892757e+003
1.244031e+003, 1.894919e+003
1.244513e+003, 1.894789e+003
1.244995e+003, 1.895309e+003
1.245478e+003, 1.897216e+003
1.245960e+003, 1.899457e+003
1.246442e+003, 1.902004e+003
1.246924e+003, 1.904039e+003
1.247406e+003, 1.905155e+003
1.247888e+003, 1.905507e+003
1.248370e+003, 1.905152e+003
1.248852e+003, 1.904377e+003
1.249334e+003, 1.904487e+003
1.249817e+003, 1.905905e+003
1.250299e+003, 1.907406e+003
1.250781e+003, 1.909445e+003
1.251263e+003, 1.910055e+003
1.251745e+003, 1.907804e+003
1.252227e+003, 1.904337e+003
1.252709e+003, 1.903850e+003
1.253191e+003, 1.905504e+003
1.253673e+003, 1.906858e+003
1.254156e+003, 1.907379e+003
1.254638e+003, 1.907967e+003
1.255120e+003, 1.908931e+003
1.255602e+003, 1.909908e+003
1.256084e+003, 1.910541e+003
1.256566e+003, 1.911429e+003
1.257048e+003, 1.914395e+003
1.257530e+003, 1.918344e+003
1.258012e+003, 1.920811e+003
1.258495e+003, 1.921182e+003
1.258977e+003, 1.922119e+003
1.259459e+003, 1.924072e+003
1.259941e+003, 1.926478e+003
1.260423e+003, 1.929379e+003
1.260905e+003, 1.932135e+003
1.261387e+003, 1.934057e+003
1.261869e+003, 1.935004e+003
1.262352e+003, 1.934393e+003
1.262834e+003, 1.932018e+003
1.263316e+003, 1.930807e+003
1.263798e+003, 1.930994e+003
1.264280e+003, 1.932248e+003
1.264762e+003, 1.934964e+003
1.265244e+003, 1.937201e+003
1.265726e+003, 1.935450e+003
1.266208e+003, 1.932695e+003
1.266691e+003, 1.932519e+003
1.267173e+003, 1.935221e+003
1.267655e+003, 1.937213e+003
1.268137e+003, 1.938444e+003
1.268619e+003, 1.939317e+003
1.269101e+003, 1.939771e+003
1.269583e+003, 1.940564e+003
1.270065e+003, 1.943864e+003
1.270548e+003, 1.946655e+003
1.271030e+003, 1.945113e+003
1.271512e+003, 1.940531e+003
1.271994e+003, 1.938706e+003
1.272476e+003, 1.939594e+003
1.272958e+003, 1.940155e+003
1.273440e+003, 1.939574e+003
1.273922e+003, 1.939805e+003
1.274405e+003, 1.944139e+003
1.274887e+003, 1.947750e+003
1.275369e+003, 1.947240e+003
1.275851e+003, 1.944295e+003
1.276333e+003, 1.943561e+003
1.276815e+003, 1.944695e+003
1.277297e+003, 1.945989e+003
1.277779e+003, 1.947115e+003
1.278261e+003, 1.948304e+003
1.278744e+003, 1.949315e+003
1.279226e+003, 1.950850e+003
1.279708e+003, 1.953408e+003
1.280190e+003, 1.956225e+003
1.280672e+003, 1.958039e+003
1.281154e+003, 1.958959e+003
1.281636e+003, 1.959101e+003
1.282118e+003, 1.958469e+003
1.282600e+003, 1.958202e+003
1.283083e+003, 1.958473e+003
1.283565e+003, 1.959539e+003
1.284047e+003, 1.961786e+003
1.284529e+003, 1.964132e+003
1.285011e+003, 1.965039e+003
1.285493e+003, 1.965043e+003
1.285975e+003, 1.964661e+003
1.286457e+003, 1.964054e+003
1.286939e+003, 1.964291e+003
1.287422e+003, 1.965836e+003
1.287904e+003, 1.966825e+003
1.288386e+003, 1.966766e+003
1.288868e+003, 1.966824e+003
1.289350e+003, 1.968975e+003
1.289832e+003, 1.971307e+003
1.290314e+003, 1.971578e+003
1.290796e+003, 1.970124e+003
1.291279e+003, 1.969269e+003
1.291761e+003, 1.968964e+003
1.292243e+003, 1.969483e+003
1.292725e+003, 1.970887e+003
1.293207e+003, 1.972370e+003
1.293689e+003, 1.972887e+003
1.294171e+003, 1.973611e+003
1.294653e+003, 1.976202e+003
1.295135e+003, 1.979065e+003
1.295618e+003, 1.978726e+003
1.296100e+003, 1.975694e+003
1.296582e+003, 1.975140e+003
1.297064e+003, 1.977646e+003
1.297546e+003, 1.980943e+003
1.298028e+003, 1.984068e+003
1.298510e+003, 1.986400e+003
1.298992e+003, 1.987833e+003
1.299475e+003, 1.988806e+003
1.299957e+003, 1.989673e+003
1.300439e+003, 1.990631e+003
1.300921e+003, 1.991602e+003
1.301403e+003, 1.992902e+003
1.301885e+003, 1.995737e+003
##END=



