##NAMES=Bunsenite
##RRUFFID=R080121
##IDEAL CHEMISTRY=Ni^2+^O
##LOCALITY=Johanngeorgenstadt, Saxony, Germany
##OWNER=RRUFF
##SOURCE=William W. Pinch
##DESCRIPTION=Dark green octahedra
##STATUS=The identification of this mineral has been confirmed by single-crystal X-ray diffraction.
##URL=rruff.info/R080121
##MEASURED CHEMISTRY=Ni_1.00_O
93.78320, 133.5657
94.26532, 137.7492
94.74744, 138.5463
95.22955, 135.5781
95.71167, 130.4333
96.19379, 124.5315
96.67590, 117.6320
97.15802, 111.7971
97.64014, 107.7201
98.12225, 104.7730
98.60437, 102.0780
99.08649, 99.78716
99.56860, 96.99590
100.0507, 92.32021
100.5328, 85.29172
101.0150, 78.00546
101.4971, 71.60449
101.9792, 65.97431
102.4613, 61.80802
102.9434, 60.66662
103.4255, 60.46114
103.9077, 59.83989
104.3898, 58.43920
104.8719, 56.36283
105.3540, 53.68704
105.8361, 49.76662
106.3182, 46.33089
106.8004, 43.83986
107.2825, 41.92314
107.7646, 40.12549
108.2467, 38.15783
108.7288, 36.05294
109.2109, 34.31236
109.6931, 33.05212
110.1752, 32.00946
110.6573, 31.11363
111.1394, 30.37670
111.6215, 29.86816
112.1036, 29.67954
112.5858, 29.86953
113.0679, 29.95493
113.5500, 29.96853
114.0321, 29.87026
114.5142, 29.58529
114.9964, 29.10253
115.4785, 28.56459
115.9606, 28.08431
116.4427, 27.65582
116.9248, 27.43824
117.4069, 27.69389
117.8891, 28.17277
118.3712, 28.32627
118.8533, 27.92112
119.3354, 27.35319
119.8175, 26.96689
120.2996, 26.75181
120.7818, 26.66436
121.2639, 26.76104
121.7460, 27.05472
122.2281, 27.17412
122.7102, 26.92890
123.1923, 26.55865
123.6745, 26.10686
124.1566, 25.59979
124.6387, 25.15585
125.1208, 24.97161
125.6029, 25.21502
126.0850, 25.37176
126.5672, 25.34968
127.0493, 25.26828
127.5314, 25.26064
128.0135, 25.37475
128.4956, 25.51241
128.9777, 25.39364
129.4599, 24.73316
129.9420, 24.11334
130.4241, 23.51833
130.9062, 22.99638
131.3883, 22.61446
131.8705, 22.41183
132.3526, 22.37536
132.8347, 22.42346
133.3168, 22.63254
133.7989, 22.83012
134.2810, 22.99539
134.7632, 23.10979
135.2453, 23.07403
135.7274, 22.74950
136.2095, 22.22523
136.6916, 21.84759
137.1737, 21.73038
137.6559, 21.70682
138.1380, 21.62948
138.6201, 21.50398
139.1022, 21.29405
139.5843, 20.88189
140.0664, 20.37955
140.5486, 19.95728
141.0307, 19.73923
141.5128, 19.64194
141.9949, 19.39368
142.4770, 18.80774
142.9591, 18.35777
143.4413, 18.33584
143.9234, 18.57367
144.4055, 18.75981
144.8876, 18.64914
145.3697, 18.23983
145.8518, 17.91143
146.3340, 17.75811
146.8161, 17.60925
147.2982, 17.37408
147.7803, 17.08699
148.2624, 16.85787
148.7445, 16.80736
149.2267, 16.99651
149.7088, 17.11560
150.1909, 17.17726
150.6730, 17.17881
151.1551, 17.09520
151.6372, 16.93363
152.1194, 16.74542
152.6015, 16.58784
153.0836, 16.46163
153.5657, 16.38729
154.0478, 16.45226
154.5299, 16.52770
155.0121, 16.46891
155.4942, 16.23425
155.9763, 15.92360
156.4584, 15.66517
156.9405, 15.44717
157.4227, 15.30882
157.9048, 15.27030
158.3869, 15.31874
158.8690, 15.45284
159.3511, 15.73157
159.8332, 15.99912
160.3154, 16.05974
160.7975, 15.91255
161.2796, 15.72746
161.7617, 15.60262
162.2438, 15.53354
162.7259, 15.47232
163.2081, 15.42456
163.6902, 15.36612
164.1723, 15.26816
164.6544, 15.12793
165.1365, 14.99270
165.6186, 14.91934
166.1008, 14.92383
166.5829, 14.92014
167.0650, 14.88758
167.5471, 14.84699
168.0292, 14.81315
168.5113, 14.78924
168.9935, 14.76451
169.4756, 14.71142
169.9577, 14.57377
170.4398, 14.52260
170.9219, 14.66621
171.4040, 14.83551
171.8862, 14.87418
172.3683, 14.72755
172.8504, 14.47705
173.3325, 14.31448
173.8146, 14.31580
174.2967, 14.32792
174.7789, 14.37133
175.2610, 14.41533
175.7431, 14.41481
176.2252, 14.34700
176.7073, 14.24128
177.1894, 14.19704
177.6716, 14.28876
178.1537, 14.34378
178.6358, 14.30233
179.1179, 14.20290
179.6000, 14.11808
180.0821, 14.08371
180.5643, 14.08798
181.0464, 14.09009
181.5285, 14.07177
182.0106, 14.07650
182.4927, 14.15200
182.9749, 14.27910
183.4570, 14.37287
183.9391, 14.39757
184.4212, 14.35248
184.9033, 14.25716
185.3854, 14.08896
185.8676, 13.90814
186.3497, 13.73742
186.8318, 13.57478
187.3139, 13.49659
187.7960, 13.63428
188.2781, 13.83348
188.7603, 13.92292
189.2424, 13.85416
189.7245, 13.70372
190.2066, 13.55097
190.6887, 13.38170
191.1708, 13.26382
191.6530, 13.22310
192.1351, 13.24069
192.6172, 13.34203
193.0993, 13.55799
193.5814, 13.77392
194.0635, 13.70965
194.5457, 13.11940
195.0278, 12.74813
195.5099, 12.91888
195.9920, 13.27432
196.4741, 13.45189
196.9562, 13.28378
197.4384, 12.90080
197.9205, 12.67774
198.4026, 12.70381
198.8847, 12.79218
199.3668, 13.00812
199.8489, 13.23776
200.3311, 13.33361
200.8132, 13.21712
201.2953, 12.95847
201.7774, 12.83682
202.2595, 13.04965
202.7416, 13.18693
203.2238, 13.18324
203.7059, 13.08515
204.1880, 12.95543
204.6701, 12.82577
205.1522, 12.69614
205.6344, 12.56707
206.1165, 12.31497
206.5986, 12.19906
207.0807, 12.40540
207.5628, 12.78008
208.0449, 13.02708
208.5271, 12.97730
209.0092, 12.70826
209.4913, 12.53903
209.9734, 12.50612
210.4555, 12.50328
210.9376, 12.47164
211.4198, 12.43714
211.9019, 12.48765
212.3840, 12.70025
212.8661, 12.99705
213.3482, 13.16561
213.8303, 13.18860
214.3125, 13.12862
214.7946, 12.95938
215.2767, 12.70835
215.7588, 12.53417
216.2409, 12.53430
216.7230, 12.63915
217.2052, 12.70056
217.6873, 12.69630
218.1694, 12.69237
218.6515, 12.76560
219.1336, 12.91131
219.6157, 12.99154
220.0979, 12.88847
220.5800, 12.73490
221.0621, 12.67782
221.5442, 12.74386
222.0263, 12.86174
222.5084, 13.01130
222.9906, 13.20896
223.4727, 13.26111
223.9548, 12.94683
224.4369, 12.55399
224.9190, 12.28570
225.4011, 12.17961
225.8833, 12.16364
226.3654, 12.14759
226.8475, 12.11721
227.3296, 12.15731
227.8117, 12.40450
228.2938, 12.65210
228.7760, 12.74863
229.2581, 12.66835
229.7402, 12.52847
230.2223, 12.49367
230.7044, 12.61061
231.1866, 12.68328
231.6687, 12.61248
232.1508, 12.54915
232.6329, 12.62308
233.1150, 12.84330
233.5971, 13.07964
234.0793, 13.13467
234.5614, 12.90755
235.0435, 12.74563
235.5256, 12.66390
236.0077, 12.63291
236.4898, 12.66852
236.9720, 12.75698
237.4541, 12.83367
237.9362, 12.79670
238.4183, 12.55489
238.9004, 12.42597
239.3825, 12.42339
239.8647, 12.49969
240.3468, 12.67939
240.8289, 12.93796
241.3110, 13.16467
241.7931, 13.21129
242.2752, 12.97704
242.7574, 12.84953
243.2395, 12.92784
243.7216, 13.02217
244.2037, 12.99969
244.6858, 12.85185
245.1679, 12.66915
245.6501, 12.54968
246.1322, 12.50816
246.6143, 12.48599
247.0964, 12.53920
247.5785, 12.56823
248.0606, 12.48692
248.5428, 12.29876
249.0249, 12.08599
249.5070, 11.92001
249.9891, 11.80487
250.4712, 11.75511
250.9533, 11.84196
251.4355, 11.93490
251.9176, 11.96787
252.3997, 11.93030
252.8818, 11.80143
253.3639, 11.52268
253.8460, 11.09842
254.3282, 10.86833
254.8103, 10.98832
255.2924, 11.17338
255.7745, 11.22389
256.2566, 11.14281
256.7387, 11.05420
257.2209, 11.04670
257.7030, 11.11052
258.1851, 11.15110
258.6672, 11.14571
259.1493, 11.13528
259.6314, 11.15967
260.1136, 11.21328
260.5957, 11.23823
261.0778, 11.17349
261.5599, 11.06430
262.0420, 11.05186
262.5241, 11.25147
263.0063, 11.41282
263.4884, 11.29135
263.9705, 10.92504
264.4526, 10.65738
264.9347, 10.70870
265.4168, 10.92296
265.8990, 10.97025
266.3811, 10.75790
266.8632, 10.57178
267.3453, 10.68965
267.8275, 11.06333
268.3096, 11.30187
268.7917, 11.19126
269.2738, 10.93805
269.7559, 10.82707
270.2380, 10.88033
270.7202, 10.97808
271.2023, 11.06551
271.6844, 11.13770
272.1665, 11.15852
272.6486, 11.10532
273.1307, 11.00644
273.6129, 10.88995
274.0950, 10.75558
274.5771, 10.62265
275.0592, 10.47921
275.5413, 10.33734
276.0234, 10.27627
276.5056, 10.34865
276.9877, 10.45404
277.4698, 10.51327
277.9519, 10.53321
278.4340, 10.54965
278.9161, 10.58777
279.3983, 10.64122
279.8804, 10.68235
280.3625, 10.70796
280.8446, 10.72211
281.3267, 10.75299
281.8088, 10.77866
282.2910, 10.73975
282.7731, 10.51268
283.2552, 10.20040
283.7373, 10.18938
284.2194, 10.67513
284.7015, 11.09616
285.1837, 11.17640
285.6658, 11.03715
286.1479, 10.83993
286.6300, 10.62941
287.1121, 10.43400
287.5942, 10.33332
288.0764, 10.37408
288.5585, 10.40027
289.0406, 10.32041
289.5227, 10.21144
290.0048, 10.15425
290.4869, 10.17920
290.9691, 10.25861
291.4512, 10.35547
291.9333, 10.48319
292.4154, 10.58469
292.8975, 10.67602
293.3796, 10.71880
293.8618, 10.64768
294.3439, 10.44671
294.8260, 10.23137
295.3081, 10.18223
295.7902, 10.35476
296.2723, 10.42940
296.7545, 10.22151
297.2366, 9.993186
297.7187, 9.903386
298.2008, 9.960547
298.6829, 10.05392
299.1650, 10.05998
299.6472, 9.964617
300.1293, 9.915453
300.6114, 9.958637
301.0935, 10.01859
301.5756, 10.06770
302.0577, 10.10508
302.5399, 10.14074
303.0220, 10.19510
303.5041, 10.26475
303.9862, 10.26114
304.4683, 10.03657
304.9504, 9.916318
305.4326, 10.14089
305.9147, 10.53882
306.3968, 10.78000
306.8789, 10.62297
307.3610, 10.18022
307.8431, 9.952617
308.3253, 10.11055
308.8074, 10.22201
309.2895, 10.09512
309.7716, 9.885119
310.2537, 9.788602
310.7358, 9.898877
311.2180, 10.12783
311.7001, 10.28527
312.1822, 10.35944
312.6643, 10.38483
313.1464, 10.35137
313.6285, 10.28927
314.1107, 10.20468
314.5928, 10.10236
315.0749, 10.02149
315.5570, 10.06062
316.0392, 10.30403
316.5213, 10.35507
317.0034, 9.884888
317.4855, 9.433207
317.9676, 9.357038
318.4497, 9.647326
318.9319, 9.992501
319.4140, 10.05470
319.8961, 9.795366
320.3782, 9.636860
320.8603, 9.688665
321.3424, 9.745579
321.8246, 9.720994
322.3067, 9.636339
322.7888, 9.553921
323.2709, 9.510119
323.7530, 9.506745
324.2351, 9.569209
324.7173, 9.795004
325.1994, 9.946740
325.6815, 9.936769
326.1636, 9.821196
326.6457, 9.665331
327.1278, 9.489064
327.6100, 9.323007
328.0921, 9.248043
328.5742, 9.303044
329.0563, 9.368651
329.5384, 9.383674
330.0205, 9.413057
330.5027, 9.546722
330.9848, 9.809584
331.4669, 10.07270
331.9490, 10.13662
332.4311, 9.950729
332.9132, 9.788152
333.3954, 9.726119
333.8775, 9.669468
334.3596, 9.529333
334.8417, 9.320471
335.3238, 9.170927
335.8059, 9.256699
336.2881, 9.583273
336.7702, 9.760250
337.2523, 9.679046
337.7344, 9.549657
338.2165, 9.459597
338.6986, 9.399302
339.1808, 9.332074
339.6629, 9.216607
340.1450, 9.082045
340.6271, 9.057100
341.1092, 9.232230
341.5913, 9.339940
342.0735, 9.228105
342.5556, 9.016954
343.0377, 8.839869
343.5198, 8.739057
344.0019, 8.713177
344.4840, 8.776147
344.9662, 8.947854
345.4483, 9.122265
345.9304, 9.323419
346.4125, 9.481034
346.8946, 9.514110
347.3767, 9.411788
347.8589, 9.290107
348.3410, 9.266737
348.8231, 9.338809
349.3052, 9.398362
349.7873, 9.450281
350.2694, 9.459944
350.7516, 9.387609
351.2337, 9.250566
351.7158, 9.122385
352.1979, 9.026737
352.6800, 8.971892
353.1621, 9.009896
353.6443, 9.202131
354.1264, 9.347253
354.6085, 9.273359
355.0906, 9.086850
355.5727, 8.953776
356.0548, 8.951811
356.5370, 8.998491
357.0191, 8.968664
357.5012, 8.851792
357.9833, 8.781968
358.4654, 8.887867
358.9475, 9.024804
359.4297, 8.990354
359.9118, 8.725201
360.3939, 8.488407
360.8760, 8.525670
361.3581, 8.777287
361.8402, 8.929564
362.3224, 8.873469
362.8045, 8.754546
363.2866, 8.743207
363.7687, 8.825724
364.2508, 8.861667
364.7329, 8.719559
365.2151, 8.519485
365.6972, 8.476912
366.1793, 8.626665
366.6614, 8.835110
367.1436, 9.076880
367.6257, 9.298721
368.1078, 9.333461
368.5899, 8.956013
369.0720, 8.552652
369.5541, 8.472696
370.0363, 8.673157
370.5184, 8.869769
371.0005, 8.923154
371.4826, 8.898278
371.9647, 8.956991
372.4468, 9.154485
372.9290, 9.288713
373.4111, 9.234598
373.8932, 9.072560
374.3753, 8.945470
374.8574, 8.890283
375.3395, 8.876122
375.8217, 8.865668
376.3038, 8.856359
376.7859, 8.876558
377.2680, 9.006567
377.7501, 9.114318
378.2322, 9.035705
378.7144, 8.788042
379.1965, 8.590403
379.6786, 8.632645
380.1607, 8.880923
380.6428, 8.941875
381.1249, 8.625236
381.6071, 8.359633
382.0892, 8.307155
382.5713, 8.410818
383.0534, 8.594228
383.5355, 8.837742
384.0176, 9.051522
384.4998, 9.029279
384.9819, 8.444585
385.4640, 8.163617
385.9461, 8.509431
386.4282, 8.977609
386.9103, 9.106175
387.3925, 8.847555
387.8746, 8.482401
388.3567, 8.309306
388.8388, 8.357583
389.3209, 8.391191
389.8030, 8.436130
390.2852, 8.443400
390.7673, 8.334302
391.2494, 8.177173
391.7315, 8.115432
392.2136, 8.240073
392.6957, 8.493930
393.1779, 8.657796
393.6600, 8.716504
394.1421, 8.692572
394.6242, 8.492809
395.1063, 8.271720
395.5884, 8.180614
396.0706, 8.250906
396.5527, 8.389155
397.0348, 8.480049
397.5169, 8.518588
397.9990, 8.527274
398.4811, 8.478774
398.9633, 8.424267
399.4454, 8.353098
399.9275, 8.290731
400.4096, 8.300982
400.8917, 8.459718
401.3738, 8.708779
401.8560, 8.780714
402.3381, 8.568492
402.8202, 8.379994
403.3023, 8.344370
403.7844, 8.359202
404.2665, 8.306036
404.7487, 8.145050
405.2308, 7.974565
405.7129, 7.937977
406.1950, 8.045205
406.6771, 8.091760
407.1592, 7.976587
407.6414, 7.858346
408.1235, 7.853067
408.6056, 7.949348
409.0877, 8.070555
409.5698, 8.194522
410.0519, 8.308981
410.5341, 8.388475
411.0162, 8.433825
411.4983, 8.437128
411.9804, 8.377445
412.4625, 8.274289
412.9446, 8.151269
413.4268, 7.985171
413.9089, 7.845397
414.3910, 7.802205
414.8731, 7.839351
415.3553, 7.881430
415.8374, 7.909212
416.3195, 7.924033
416.8016, 7.924895
417.2837, 7.911896
417.7658, 7.896711
418.2480, 7.868421
418.7301, 7.846934
419.2122, 7.867277
419.6943, 7.930357
420.1764, 7.984255
420.6585, 7.985947
421.1407, 7.939223
421.6228, 7.901007
422.1049, 7.819583
422.5870, 7.800378
423.0691, 7.946340
423.5512, 8.173089
424.0334, 8.335407
424.5155, 8.375440
424.9976, 8.318069
425.4797, 8.203979
425.9618, 7.988965
426.4439, 7.804139
426.9261, 7.592508
427.4082, 7.452065
427.8903, 7.506896
428.3724, 7.720537
428.8545, 7.914942
429.3366, 7.935813
429.8188, 7.793697
430.3009, 7.720749
430.7830, 7.804616
431.2651, 7.863811
431.7472, 7.859735
432.2293, 7.819524
432.7115, 7.772331
433.1936, 7.729758
433.6757, 7.694123
434.1578, 7.668877
434.6399, 7.653144
435.1220, 7.650772
435.6042, 7.719887
436.0863, 7.752316
436.5684, 7.664336
437.0505, 7.486023
437.5326, 7.317941
438.0147, 7.210222
438.4969, 7.171269
438.9790, 7.258967
439.4611, 7.545989
439.9432, 7.775091
440.4253, 7.824339
440.9074, 7.768817
441.3896, 7.652733
441.8717, 7.468403
442.3538, 7.319818
442.8359, 7.322203
443.3180, 7.452160
443.8001, 7.574896
444.2823, 7.674619
444.7644, 7.743972
445.2465, 7.767245
445.7286, 7.752715
446.2107, 7.727971
446.6928, 7.661460
447.1750, 7.614314
447.6571, 7.684775
448.1392, 7.857028
448.6213, 7.983395
449.1034, 7.988793
449.5855, 7.892896
450.0677, 7.734614
450.5498, 7.448142
451.0319, 7.246011
451.5140, 7.209403
451.9961, 7.274280
452.4782, 7.392575
452.9604, 7.546288
453.4425, 7.675966
453.9246, 7.716959
454.4067, 7.660174
454.8888, 7.606250
455.3709, 7.545326
455.8531, 7.497448
456.3352, 7.473284
456.8173, 7.466520
457.2994, 7.463755
457.7815, 7.458766
458.2636, 7.461014
458.7458, 7.495505
459.2279, 7.595693
459.7100, 7.657235
460.1921, 7.721163
460.6742, 7.715146
461.1563, 7.509851
461.6385, 7.173498
462.1206, 6.950440
462.6027, 7.078574
463.0848, 7.465614
463.5669, 7.598326
464.0491, 7.297822
464.5312, 7.106538
465.0133, 7.317976
465.4954, 7.665660
465.9775, 7.901050
466.4597, 7.968885
466.9418, 7.924134
467.4239, 7.753812
467.9060, 7.489070
468.3881, 7.357735
468.8702, 7.452552
469.3524, 7.567830
469.8345, 7.497444
470.3166, 7.303145
470.7987, 7.161972
471.2808, 7.105889
471.7629, 7.130173
472.2451, 7.336289
472.7272, 7.660770
473.2093, 7.723734
473.6914, 7.274166
474.1735, 6.649220
474.6556, 6.572916
475.1378, 7.251726
475.6199, 7.687614
476.1020, 7.565553
476.5841, 7.254538
477.0662, 7.040358
477.5483, 6.959618
478.0305, 6.956692
478.5126, 6.998826
478.9947, 7.078763
479.4768, 7.131090
479.9589, 7.086510
480.4410, 7.100381
480.9232, 7.292413
481.4053, 7.500641
481.8874, 7.528420
482.3695, 7.343078
482.8516, 7.103406
483.3337, 7.014554
483.8159, 7.103500
484.2980, 7.107469
484.7801, 6.855482
485.2622, 6.716728
485.7443, 6.922811
486.2264, 7.298158
486.7086, 7.558863
487.1907, 7.578977
487.6728, 7.467730
488.1549, 7.374940
488.6370, 7.303010
489.1191, 7.201429
489.6013, 7.000278
490.0834, 6.835467
490.5655, 6.867662
491.0476, 7.062826
491.5297, 7.184999
492.0118, 7.077596
492.4940, 6.880972
492.9761, 6.758364
493.4582, 6.713109
493.9403, 6.728096
494.4224, 6.810655
494.9045, 6.933868
495.3867, 7.033915
495.8688, 7.126655
496.3509, 7.167322
496.8330, 7.115453
497.3151, 7.023513
497.7972, 6.930728
498.2794, 6.849685
498.7615, 6.803971
499.2436, 6.818079
499.7257, 6.888501
500.2078, 6.953205
500.6899, 6.999221
501.1721, 7.055307
501.6542, 7.146760
502.1363, 7.240238
502.6184, 7.295029
503.1005, 7.302928
503.5826, 7.295425
504.0648, 7.316609
504.5469, 7.372642
505.0290, 7.395105
505.5111, 7.366753
505.9932, 7.324185
506.4753, 7.279589
506.9575, 7.232132
507.4396, 7.173048
507.9217, 7.090486
508.4038, 7.024518
508.8859, 7.043182
509.3680, 7.140532
509.8502, 7.200773
510.3323, 7.171797
510.8144, 7.142437
511.2965, 7.239205
511.7786, 7.431190
512.2607, 7.539612
512.7429, 7.453825
513.2250, 7.319602
513.7071, 7.248304
514.1892, 7.236439
514.6713, 7.262175
515.1534, 7.324766
515.6356, 7.394485
516.1177, 7.412905
516.5998, 7.365860
517.0819, 7.294091
517.5640, 7.177307
518.0461, 7.053605
518.5283, 6.913660
519.0104, 6.785855
519.4925, 6.751968
519.9746, 6.875124
520.4567, 7.105813
520.9388, 7.260893
521.4210, 7.318804
521.9031, 7.336642
522.3852, 7.262906
522.8673, 7.200746
523.3494, 7.260849
523.8315, 7.422875
524.3137, 7.540089
524.7958, 7.463366
525.2779, 7.257345
525.7600, 7.157012
526.2421, 7.187159
526.7242, 7.230279
527.2064, 7.238822
527.6885, 7.230444
528.1706, 7.228184
528.6527, 7.235306
529.1348, 7.239055
529.6169, 7.230515
530.0991, 7.215323
530.5812, 7.189719
531.0633, 7.154346
531.5454, 7.162310
532.0275, 7.273310
532.5096, 7.461605
532.9918, 7.543735
533.4739, 7.478627
533.9560, 7.379268
534.4381, 7.190780
534.9202, 7.020718
535.4023, 7.013641
535.8845, 7.179512
536.3666, 7.387806
536.8487, 7.510323
537.3308, 7.547593
537.8129, 7.556356
538.2951, 7.452424
538.7772, 7.435118
539.2593, 7.667675
539.7415, 7.944146
540.2236, 8.019729
540.7057, 7.835970
541.1878, 7.591587
541.6699, 7.478546
542.1520, 7.482142
542.6342, 7.498041
543.1163, 7.513789
543.5984, 7.556041
544.0805, 7.672771
544.5626, 7.821883
545.0447, 7.923250
545.5269, 7.952968
546.0090, 7.958908
546.4911, 7.975720
546.9732, 7.986879
547.4553, 7.935728
547.9374, 7.809127
548.4196, 7.720374
548.9017, 7.800584
549.3838, 8.056484
549.8659, 8.166019
550.3480, 7.992276
550.8301, 7.863099
551.3123, 7.896371
551.7944, 8.011608
552.2765, 8.131091
552.7586, 8.223533
553.2407, 8.258970
553.7228, 8.189619
554.2050, 8.009420
554.6871, 7.829622
555.1692, 7.600611
555.6513, 7.447561
556.1334, 7.444312
556.6155, 7.522119
557.0977, 7.602285
557.5798, 7.667669
558.0619, 7.706373
558.5440, 7.693139
559.0261, 7.642360
559.5082, 7.612974
559.9904, 7.619810
560.4725, 7.613102
560.9546, 7.513561
561.4367, 7.366128
561.9188, 7.377801
562.4009, 7.777249
562.8831, 8.050767
563.3652, 7.900900
563.8473, 7.555506
564.3294, 7.312963
564.8115, 7.241108
565.2936, 7.264510
565.7758, 7.316497
566.2579, 7.397412
566.7400, 7.465177
567.2221, 7.556262
567.7042, 7.585935
568.1863, 7.498220
568.6685, 7.365850
569.1506, 7.239625
569.6327, 7.140030
570.1148, 7.103659
570.5969, 7.208283
571.0790, 7.423172
571.5612, 7.548746
572.0433, 7.564351
572.5254, 7.542485
573.0075, 7.506831
573.4896, 7.460738
573.9717, 7.405585
574.4539, 7.336269
574.9360, 7.277590
575.4181, 7.214015
575.9002, 7.180572
576.3823, 7.262819
576.8644, 7.455541
577.3466, 7.617519
577.8287, 7.653561
578.3108, 7.573446
578.7929, 7.424266
579.2750, 7.021053
579.7571, 6.795286
580.2393, 6.892377
580.7214, 7.084206
581.2035, 7.199781
581.6856, 7.229582
582.1677, 7.269897
582.6498, 7.418037
583.1320, 7.604792
583.6141, 7.549517
584.0962, 7.153745
584.5783, 6.853702
585.0604, 6.821963
585.5425, 6.894073
586.0247, 6.939608
586.5068, 6.956143
586.9889, 6.982596
587.4710, 7.036844
587.9531, 7.109220
588.4352, 7.195908
588.9174, 7.293046
589.3995, 7.389279
589.8816, 7.486887
590.3637, 7.557580
590.8458, 7.542952
591.3279, 7.385378
591.8101, 7.308815
592.2922, 7.378592
592.7743, 7.463244
593.2564, 7.501673
593.7385, 7.501099
594.2206, 7.481575
594.7028, 7.452024
595.1849, 7.422816
595.6670, 7.427772
596.1491, 7.482102
596.6312, 7.449880
597.1133, 7.241164
597.5955, 7.050368
598.0776, 6.970631
598.5597, 6.981612
599.0418, 7.053303
599.5239, 7.200082
600.0060, 7.355186
600.4882, 7.502961
600.9703, 7.615106
601.4524, 7.607278
601.9345, 7.460317
602.4166, 7.259924
602.8987, 7.068156
603.3809, 6.887191
603.8630, 6.762934
604.3451, 6.728461
604.8272, 6.699037
605.3093, 6.609065
605.7914, 6.547856
606.2736, 6.630023
606.7557, 6.850042
607.2378, 7.088540
607.7199, 7.253542
608.2020, 7.349297
608.6841, 7.384698
609.1663, 7.333145
609.6484, 7.298454
610.1305, 7.335173
610.6126, 7.384495
611.0947, 7.401595
611.5768, 7.384210
612.0590, 7.339958
612.5411, 7.207397
613.0232, 7.093753
613.5053, 7.174461
613.9874, 7.402117
614.4695, 7.529070
614.9517, 7.439561
615.4338, 7.264701
615.9159, 7.233131
616.3980, 7.438293
616.8801, 7.459050
617.3622, 7.061389
617.8444, 6.748901
618.3265, 6.819812
618.8086, 7.090319
619.2907, 7.255623
619.7728, 7.205686
620.2549, 7.077578
620.7371, 7.062015
621.2192, 7.151567
621.7013, 7.132911
622.1834, 6.923996
622.6655, 6.770875
623.1476, 6.895434
623.6298, 7.142901
624.1119, 7.253295
624.5940, 7.164336
625.0761, 7.062303
625.5582, 7.031042
626.0403, 7.033705
626.5225, 7.022063
627.0046, 6.994867
627.4867, 6.972673
627.9688, 6.961221
628.4509, 6.982268
628.9330, 7.119670
629.4152, 7.520895
629.8973, 7.765457
630.3794, 7.793157
630.8615, 7.728569
631.3436, 7.592170
631.8257, 7.424007
632.3079, 7.298697
632.7900, 7.257742
633.2721, 7.258127
633.7542, 7.236532
634.2363, 7.197853
634.7184, 7.198476
635.2006, 7.267840
635.6827, 7.322662
636.1648, 7.286250
636.6469, 7.165338
637.1291, 7.041234
637.6112, 6.863138
638.0933, 6.744933
638.5754, 6.733589
639.0576, 6.796907
639.5397, 6.928691
640.0218, 7.108054
640.5039, 7.265689
640.9860, 7.347163
641.4681, 7.358830
641.9503, 7.322114
642.4324, 7.194200
642.9145, 7.125339
643.3966, 7.191355
643.8787, 7.293715
644.3608, 7.404717
644.8430, 7.503827
645.3251, 7.513229
645.8072, 7.309259
646.2893, 7.084335
646.7714, 7.060935
647.2535, 7.182715
647.7357, 7.263364
648.2178, 7.246581
648.6999, 7.207094
649.1820, 7.232664
649.6641, 7.328732
650.1462, 7.378187
650.6284, 7.370797
651.1105, 7.332326
651.5926, 7.202720
652.0747, 7.083918
652.5568, 7.097653
653.0389, 7.246234
653.5211, 7.411942
654.0032, 7.503723
654.4853, 7.540390
654.9674, 7.580859
655.4495, 7.629387
655.9316, 7.619119
656.4138, 7.467779
656.8959, 7.322457
657.3780, 7.453475
657.8601, 7.852827
658.3422, 8.048017
658.8243, 7.812308
659.3065, 7.525621
659.7886, 7.372599
660.2707, 7.318090
660.7528, 7.294101
661.2349, 7.279101
661.7170, 7.282329
662.1992, 7.318866
662.6813, 7.386798
663.1634, 7.443611
663.6455, 7.505017
664.1276, 7.524642
664.6097, 7.445418
665.0919, 7.344900
665.5740, 7.278056
666.0561, 7.250635
666.5382, 7.275414
667.0203, 7.431401
667.5024, 7.587741
667.9846, 7.557540
668.4667, 7.399542
668.9488, 7.355710
669.4309, 7.523448
669.9130, 7.704650
670.3951, 7.603258
670.8773, 7.152023
671.3594, 6.967310
671.8415, 7.355270
672.3236, 7.654243
672.8057, 7.666841
673.2878, 7.556160
673.7700, 7.486893
674.2521, 7.489068
674.7342, 7.503140
675.2163, 7.491872
675.6984, 7.459248
676.1805, 7.392517
676.6627, 7.294785
677.1448, 7.257927
677.6269, 7.323793
678.1090, 7.448666
678.5911, 7.587983
679.0732, 7.757411
679.5554, 7.837698
680.0375, 7.799539
680.5196, 7.709256
681.0017, 7.513038
681.4838, 7.316923
681.9659, 7.271131
682.4481, 7.397192
682.9302, 7.565609
683.4123, 7.657752
683.8944, 7.692915
684.3765, 7.760247
684.8586, 7.871238
685.3408, 7.940657
685.8229, 7.921571
686.3050, 7.868294
686.7871, 7.847417
687.2692, 7.857529
687.7513, 7.870169
688.2335, 7.901985
688.7156, 7.913221
689.1977, 7.853093
689.6798, 7.769393
690.1619, 7.735525
690.6440, 7.768517
691.1262, 7.837924
691.6083, 7.922715
692.0904, 8.016007
692.5725, 8.063204
693.0546, 8.046676
693.5367, 8.035422
694.0189, 8.053635
694.5010, 8.080119
694.9831, 8.088511
695.4652, 8.083354
695.9473, 8.102271
696.4294, 8.208922
696.9116, 8.290725
697.3937, 8.202974
697.8758, 8.054615
698.3579, 8.082341
698.8400, 8.323501
699.3221, 8.572116
699.8043, 8.627562
700.2864, 8.515967
700.7685, 8.433037
701.2506, 8.380029
701.7327, 8.352985
702.2148, 8.350017
702.6970, 8.374959
703.1791, 8.455149
703.6612, 8.570766
704.1433, 8.648959
704.6254, 8.646054
705.1075, 8.618335
705.5897, 8.623540
706.0718, 8.635022
706.5539, 8.571224
707.0360, 8.424923
707.5181, 8.322683
708.0002, 8.380980
708.4824, 8.555211
708.9645, 8.607840
709.4466, 8.398728
709.9287, 8.338418
710.4108, 8.596843
710.8929, 8.881641
711.3751, 9.073248
711.8572, 9.157620
712.3393, 9.107764
712.8214, 8.860895
713.3035, 8.619052
713.7856, 8.568623
714.2678, 8.648615
714.7499, 8.747668
715.2320, 8.846210
715.7141, 8.923173
716.1962, 8.967776
716.6783, 8.973943
717.1605, 8.914165
717.6426, 8.699739
718.1247, 8.595033
718.6068, 8.698920
719.0889, 8.803823
719.5710, 8.764010
720.0532, 8.676830
720.5353, 8.750361
721.0174, 9.070499
721.4995, 9.345112
721.9816, 9.278647
722.4637, 9.022873
722.9459, 8.854621
723.4280, 8.794570
723.9101, 8.828199
724.3922, 8.964905
724.8743, 9.136303
725.3564, 9.211837
725.8386, 9.165608
726.3207, 9.116566
726.8028, 9.024252
727.2849, 8.975593
727.7670, 9.065187
728.2491, 9.177837
728.7313, 9.137013
729.2134, 8.921778
729.6955, 8.761154
730.1776, 8.885454
730.6597, 9.124957
731.1418, 9.224074
731.6240, 9.191747
732.1061, 9.077277
732.5882, 8.882817
733.0703, 8.725233
733.5524, 8.759451
734.0345, 8.995484
734.5167, 9.182893
734.9988, 9.330095
735.4809, 9.413469
735.9631, 9.389802
736.4452, 9.331028
736.9273, 9.280323
737.4094, 9.248885
737.8915, 9.251510
738.3737, 9.322556
738.8558, 9.394960
739.3379, 9.400685
739.8200, 9.346219
740.3021, 9.217847
740.7842, 9.014393
741.2664, 8.875696
741.7485, 8.917806
742.2306, 9.113907
742.7127, 9.348627
743.1948, 9.798326
743.6769, 9.957795
744.1591, 9.496726
744.6412, 9.055441
745.1233, 9.024322
745.6054, 9.253344
746.0875, 9.402665
746.5696, 9.356400
747.0518, 9.256412
747.5339, 9.209214
748.0160, 9.180469
748.4981, 9.094314
748.9802, 8.958087
749.4623, 8.862123
749.9445, 8.853088
750.4266, 8.900974
750.9087, 8.944977
751.3908, 8.967685
751.8729, 9.075532
752.3550, 9.426339
752.8372, 9.651228
753.3193, 9.547714
753.8014, 9.318359
754.2835, 9.156850
754.7656, 9.089507
755.2477, 9.122300
755.7299, 9.380426
756.2120, 9.635390
756.6941, 9.599960
757.1762, 9.395974
757.6583, 9.358028
758.1404, 9.566660
758.6226, 9.776567
759.1047, 9.730206
759.5868, 9.476817
760.0689, 9.369529
760.5510, 9.497351
761.0331, 9.530593
761.5153, 9.278331
761.9974, 9.045978
762.4795, 9.106470
762.9616, 9.367249
763.4437, 9.524762
763.9258, 9.475710
764.4080, 9.389506
764.8901, 9.295382
765.3722, 9.240210
765.8543, 9.314045
766.3364, 9.485701
766.8185, 9.630841
767.3007, 9.682886
767.7828, 9.660725
768.2649, 9.569016
768.7470, 9.402373
769.2291, 9.334226
769.7112, 9.411231
770.1934, 9.480754
770.6755, 9.467911
771.1576, 9.405219
771.6397, 9.339528
772.1218, 9.264951
772.6039, 9.223996
773.0861, 9.202441
773.5682, 9.238692
774.0503, 9.409840
774.5324, 9.625487
775.0145, 9.757967
775.4966, 9.784069
775.9788, 9.773501
776.4609, 9.794355
776.9430, 9.809443
777.4251, 9.703810
777.9072, 9.481364
778.3893, 9.293653
778.8715, 9.162410
779.3536, 9.123626
779.8357, 9.242023
780.3178, 9.484756
780.7999, 9.625083
781.2820, 9.602725
781.7642, 9.567263
782.2463, 9.421537
782.7284, 9.362424
783.2105, 9.631972
783.6926, 10.05891
784.1747, 10.27558
784.6569, 10.14160
785.1390, 9.905393
785.6211, 9.763253
786.1032, 9.683226
786.5853, 9.602494
787.0674, 9.520818
787.5496, 9.461765
788.0317, 9.434143
788.5138, 9.449956
788.9959, 9.537558
789.4780, 9.706231
789.9601, 9.812039
790.4423, 9.816148
790.9244, 9.819414
791.4065, 9.890235
791.8886, 9.935146
792.3707, 9.840445
792.8528, 9.635983
793.3350, 9.504010
793.8171, 9.566877
794.2992, 9.632158
794.7813, 9.536102
795.2634, 9.392831
795.7455, 9.377304
796.2277, 9.487504
796.7098, 9.596966
797.1919, 9.628767
797.6740, 9.620520
798.1561, 9.648267
798.6382, 9.714016
799.1204, 9.755032
799.6025, 9.754028
800.0846, 9.772817
800.5667, 9.877063
801.0488, 9.995045
801.5309, 9.975192
802.0131, 9.790851
802.4952, 9.663077
802.9773, 9.664218
803.4594, 9.664071
803.9415, 9.578063
804.4236, 9.476253
804.9058, 9.435935
805.3879, 9.472397
805.8700, 9.577855
806.3521, 9.794242
806.8342, 10.00910
807.3163, 10.01188
807.7985, 9.855209
808.2806, 9.760527
808.7627, 9.768414
809.2448, 9.816847
809.7269, 9.873510
810.2090, 9.919921
810.6912, 9.887615
811.1733, 9.692915
811.6554, 9.620020
812.1375, 9.812097
812.6196, 9.962280
813.1017, 9.924447
813.5839, 9.793172
814.0660, 9.690915
814.5481, 9.634840
815.0302, 9.582180
815.5123, 9.494909
815.9944, 9.423277
816.4766, 9.417068
816.9587, 9.452353
817.4408, 9.490175
817.9229, 9.519054
818.4050, 9.537135
818.8871, 9.539366
819.3693, 9.536185
819.8514, 9.550079
820.3335, 9.580164
820.8156, 9.664461
821.2977, 9.838362
821.7798, 9.973476
822.2620, 9.964282
822.7441, 9.863041
823.2262, 9.822110
823.7083, 9.856801
824.1904, 9.916196
824.6725, 10.05712
825.1547, 10.15860
825.6368, 10.15831
826.1189, 10.08924
826.6010, 9.982638
827.0831, 9.850555
827.5652, 9.730700
828.0474, 9.645651
828.5295, 9.586991
829.0116, 9.558018
829.4937, 9.545828
829.9758, 9.502768
830.4579, 9.424284
830.9401, 9.375926
831.4222, 9.407558
831.9043, 9.507660
832.3864, 9.668660
832.8685, 9.928102
833.3506, 10.04394
833.8328, 9.934012
834.3149, 9.796198
834.7971, 9.706539
835.2792, 9.671605
835.7613, 9.717908
836.2434, 9.870392
836.7255, 9.961347
837.2076, 9.860458
837.6898, 9.808687
838.1719, 10.04119
838.6540, 10.32053
839.1361, 10.30011
839.6182, 9.983184
840.1003, 9.707302
840.5825, 9.696721
841.0646, 9.819449
841.5467, 9.918664
842.0288, 10.00021
842.5109, 10.09741
842.9930, 10.21073
843.4752, 10.24912
843.9573, 10.14425
844.4394, 9.981622
844.9215, 9.965174
845.4036, 10.15343
845.8857, 10.17400
846.3679, 9.887774
846.8500, 9.681438
847.3321, 9.776415
847.8142, 9.962648
848.2963, 10.00024
848.7784, 9.896415
849.2606, 9.864898
849.7427, 10.02688
850.2248, 10.16661
850.7069, 10.21546
851.1890, 10.18956
851.6711, 10.03299
852.1533, 9.817282
852.6354, 9.777487
853.1175, 10.05824
853.5996, 10.32003
854.0817, 10.03124
854.5638, 9.452164
855.0460, 9.336686
855.5281, 9.678922
856.0102, 9.970798
856.4923, 10.00967
856.9744, 9.915566
857.4565, 9.824636
857.9387, 9.739375
858.4208, 9.751604
858.9029, 9.931853
859.3850, 10.03743
859.8671, 9.981488
860.3492, 9.881006
860.8314, 9.799166
861.3135, 9.741909
861.7956, 9.731975
862.2777, 9.801569
862.7598, 9.848309
863.2419, 9.802983
863.7241, 9.768399
864.2062, 9.866421
864.6883, 10.00461
865.1704, 9.997163
865.6525, 9.811803
866.1346, 9.641439
866.6168, 9.649917
867.0989, 9.753373
867.5810, 9.861948
868.0631, 9.953273
868.5452, 9.938470
869.0273, 9.802912
869.5095, 9.602925
869.9916, 9.363251
870.4737, 9.138947
870.9558, 9.093693
871.4379, 9.267591
871.9200, 9.389709
872.4022, 9.430923
872.8843, 9.467715
873.3664, 9.565743
873.8485, 9.652919
874.3306, 9.593725
874.8127, 9.381486
875.2949, 9.243625
875.7770, 9.233733
876.2591, 9.249674
876.7412, 9.332857
877.2233, 9.374043
877.7054, 9.210938
878.1876, 8.925696
878.6697, 8.767400
879.1518, 8.853449
879.6339, 9.000592
880.1160, 9.117573
880.5981, 9.172818
881.0803, 9.054662
881.5624, 8.831925
882.0445, 8.761785
882.5266, 8.921921
883.0087, 9.096758
883.4908, 9.043561
883.9730, 8.835641
884.4551, 8.781508
884.9372, 8.892509
885.4193, 8.959552
885.9014, 8.938868
886.3835, 8.889756
886.8657, 8.847478
887.3478, 8.810732
887.8299, 8.770928
888.3120, 8.698999
888.7941, 8.702733
889.2762, 8.864165
889.7584, 9.000896
890.2405, 9.106717
890.7226, 9.129506
891.2047, 8.939304
891.6868, 8.576030
892.1689, 8.377005
892.6511, 8.575888
893.1332, 8.795274
893.6153, 8.822969
894.0974, 8.790769
894.5795, 8.879049
895.0616, 9.034786
895.5438, 9.039678
896.0259, 8.804122
896.5080, 8.564570
896.9901, 8.637188
897.4722, 8.871212
897.9543, 8.904873
898.4365, 8.763638
898.9186, 8.626451
899.4007, 8.543417
899.8828, 8.448616
900.3649, 8.271420
900.8470, 8.057219
901.3292, 7.976116
901.8113, 8.052386
902.2934, 8.157418
902.7755, 8.335308
903.2576, 8.417040
903.7397, 8.251405
904.2219, 7.991119
904.7040, 7.886579
905.1861, 7.959603
905.6682, 8.030927
906.1503, 8.204760
906.6324, 8.235978
907.1146, 7.882938
907.5967, 7.519114
908.0788, 7.475600
908.5609, 7.681034
909.0430, 7.873977
909.5251, 7.979473
910.0073, 8.041788
910.4894, 8.090907
910.9715, 8.104930
911.4536, 8.042924
911.9357, 7.933801
912.4178, 7.846783
912.9000, 7.792531
913.3821, 7.701220
913.8642, 7.483781
914.3463, 7.248107
914.8284, 7.239479
915.3105, 7.399538
915.7927, 7.446929
916.2748, 7.347095
916.7569, 7.244649
917.2390, 7.209748
917.7211, 7.265500
918.2032, 7.488875
918.6854, 7.892762
919.1675, 8.067713
919.6496, 7.954852
920.1317, 7.780745
920.6138, 7.529301
921.0959, 7.344745
921.5781, 7.398877
922.0602, 7.630523
922.5423, 7.735927
923.0244, 7.620406
923.5065, 7.561788
923.9886, 7.627235
924.4708, 7.687578
924.9529, 7.699753
925.4350, 7.666593
925.9171, 7.577656
926.3992, 7.440009
926.8813, 7.322498
927.3635, 7.217384
927.8456, 7.181100
928.3277, 7.308106
928.8098, 7.476718
929.2919, 7.571382
929.7740, 7.580843
930.2562, 7.498673
930.7383, 7.322916
931.2204, 7.179741
931.7025, 7.214179
932.1846, 7.354534
932.6667, 7.517439
933.1489, 7.670151
933.6310, 7.675525
934.1132, 7.511686
934.5953, 7.303442
935.0774, 7.132913
935.5595, 7.024172
936.0416, 7.059861
936.5237, 7.241424
937.0059, 7.388573
937.4880, 7.498278
937.9701, 7.535688
938.4522, 7.465071
938.9343, 7.368674
939.4164, 7.348458
939.8986, 7.398236
940.3807, 7.405797
940.8628, 7.330306
941.3449, 7.293691
941.8270, 7.331975
942.3091, 7.382373
942.7913, 7.413919
943.2734, 7.435313
943.7555, 7.472323
944.2376, 7.535681
944.7197, 7.532080
945.2018, 7.400012
945.6840, 7.256255
946.1661, 7.120506
946.6482, 7.011988
947.1303, 6.935277
947.6124, 6.900581
948.0945, 6.949875
948.5767, 7.124396
949.0588, 7.244430
949.5409, 7.145784
950.0230, 6.985842
950.5051, 6.905570
950.9872, 6.888722
951.4694, 6.885464
951.9515, 6.887980
952.4336, 6.929304
952.9157, 7.042809
953.3978, 7.175249
953.8799, 7.256159
954.3621, 7.293426
954.8442, 7.301476
955.3263, 7.285131
955.8084, 7.257286
956.2905, 7.223048
956.7726, 7.204662
957.2548, 7.230603
957.7369, 7.291057
958.2190, 7.359612
958.7011, 7.440509
959.1832, 7.421451
959.6653, 7.261958
960.1475, 7.118831
960.6296, 7.076549
961.1117, 7.119740
961.5938, 7.243490
962.0759, 7.474558
962.5580, 7.514023
963.0402, 7.235749
963.5223, 7.031126
964.0044, 7.005576
964.4865, 7.051504
964.9686, 7.107922
965.4507, 7.170598
965.9329, 7.223550
966.4150, 7.251973
966.8971, 7.310483
967.3792, 7.491066
967.8613, 7.593939
968.3434, 7.506258
968.8256, 7.336449
969.3077, 7.128007
969.7898, 6.929632
970.2719, 6.916864
970.7540, 7.252443
971.2361, 7.525914
971.7183, 7.523363
972.2004, 7.436778
972.6825, 7.414123
973.1646, 7.413156
973.6467, 7.315538
974.1288, 7.122353
974.6110, 7.007569
975.0931, 7.106237
975.5752, 7.267570
976.0573, 7.358653
976.5394, 7.419150
977.0215, 7.526029
977.5037, 7.658453
977.9858, 7.733397
978.4679, 7.721824
978.9500, 7.656059
979.4321, 7.536464
979.9142, 7.414515
980.3964, 7.408597
980.8785, 7.490862
981.3606, 7.569647
981.8427, 7.629059
982.3248, 7.668222
982.8069, 7.686542
983.2891, 7.686110
983.7712, 7.654203
984.2533, 7.604369
984.7354, 7.660273
985.2175, 7.826986
985.6996, 7.902619
986.1818, 7.828888
986.6639, 7.765137
987.1460, 7.832465
987.6281, 7.963858
988.1102, 8.001529
988.5923, 7.927935
989.0745, 7.900638
989.5566, 7.952591
990.0387, 7.943673
990.5208, 7.786970
991.0029, 7.645768
991.4850, 7.695791
991.9672, 7.869611
992.4493, 7.899544
992.9314, 7.693830
993.4135, 7.562934
993.8956, 7.490965
994.3777, 7.516696
994.8599, 7.722607
995.3420, 7.977071
995.8241, 8.190949
996.3062, 8.352095
996.7883, 8.408442
997.2704, 8.265208
997.7526, 8.179339
998.2347, 8.251410
998.7168, 8.313631
999.1989, 8.252633
999.6810, 8.153060
1000.163, 8.128132
1000.645, 8.179190
1001.127, 8.220449
1001.609, 8.224290
1002.092, 8.217383
1002.574, 8.157963
1003.056, 8.141934
1003.538, 8.348457
1004.020, 8.607057
1004.502, 8.590230
1004.984, 8.267241
1005.466, 7.983257
1005.949, 7.943217
1006.431, 7.971879
1006.913, 7.906295
1007.395, 7.863741
1007.877, 8.056191
1008.359, 8.377626
1008.841, 8.533753
1009.323, 8.447118
1009.805, 8.328278
1010.288, 8.348490
1010.770, 8.410456
1011.252, 8.372732
1011.734, 8.302611
1012.216, 8.330936
1012.698, 8.451551
1013.180, 8.602889
1013.662, 8.754456
1014.145, 8.838467
1014.627, 8.739948
1015.109, 8.566866
1015.591, 8.538583
1016.073, 8.621860
1016.555, 8.737482
1017.037, 8.858878
1017.519, 8.895362
1018.001, 8.799300
1018.484, 8.687490
1018.966, 8.711841
1019.448, 8.845302
1019.930, 9.039138
1020.412, 9.271894
1020.894, 9.317709
1021.376, 9.141114
1021.858, 8.995751
1022.341, 9.029081
1022.823, 9.159862
1023.305, 9.282088
1023.787, 9.386638
1024.269, 9.354766
1024.751, 9.175017
1025.233, 9.104680
1025.715, 9.214208
1026.198, 9.276809
1026.680, 9.121852
1027.162, 8.915633
1027.644, 9.005178
1028.126, 9.401463
1028.608, 9.578526
1029.090, 9.493580
1029.572, 9.379344
1030.054, 9.258473
1030.536, 9.197505
1031.019, 9.251759
1031.501, 9.383131
1031.983, 9.521710
1032.465, 9.677655
1032.947, 9.747603
1033.429, 9.692126
1033.911, 9.658340
1034.393, 9.706866
1034.876, 9.729696
1035.358, 9.625381
1035.840, 9.458007
1036.322, 9.389228
1036.804, 9.454327
1037.286, 9.437591
1037.768, 9.199466
1038.250, 9.138247
1038.733, 9.484529
1039.215, 9.856476
1039.697, 9.980447
1040.179, 9.927286
1040.661, 9.868064
1041.143, 9.795625
1041.625, 9.743320
1042.107, 9.725310
1042.589, 9.708037
1043.072, 9.643996
1043.554, 9.617498
1044.036, 9.718716
1044.518, 9.895974
1045.000, 10.02446
1045.482, 10.09004
1045.964, 10.14687
1046.446, 10.29945
1046.928, 10.30709
1047.411, 9.926950
1047.893, 9.550657
1048.375, 9.493118
1048.857, 9.655860
1049.339, 9.787100
1049.821, 9.856322
1050.303, 9.929544
1050.785, 9.994477
1051.268, 10.09436
1051.750, 10.33326
1052.232, 10.52961
1052.714, 10.51054
1053.196, 10.34442
1053.678, 10.18776
1054.160, 10.05959
1054.642, 9.967470
1055.125, 9.785598
1055.607, 9.601227
1056.089, 10.11151
1056.571, 10.41954
1057.053, 10.53617
1057.535, 9.888174
1058.017, 10.22753
1058.499, 10.17122
1058.981, 10.09866
1059.464, 10.57710
1059.946, 10.04032
1060.428, 10.50991
1060.910, 10.57778
1061.392, 9.958723
1061.874, 9.618055
1062.356, 9.623751
1062.838, 10.13630
1063.320, 10.44657
1063.803, 10.56557
1064.285, 9.919825
1064.767, 10.26143
1065.249, 10.20737
1065.731, 10.13706
1066.213, 10.61765
1066.695, 10.68483
1067.177, 10.92653
1067.660, 10.97680
1068.142, 10.26248
1068.624, 10.53551
1069.106, 10.41286
1069.588, 10.27398
1070.070, 10.68599
1070.552, 10.08288
1071.034, 10.48614
1071.516, 10.48769
1071.999, 10.67305
1072.481, 10.46032
1072.963, 10.37056
1073.445, 10.67906
1073.927, 10.67386
1074.409, 10.72272
1074.891, 10.63709
1075.373, 10.62142
1075.855, 10.69863
1076.338, 10.71519
1076.820, 10.57391
1077.302, 10.41853
1077.784, 10.29442
1078.266, 10.20742
1078.748, 10.16598
1079.230, 10.16293
1079.712, 10.20013
1080.195, 10.26898
1080.677, 10.32713
1081.159, 10.35235
1081.641, 10.37756
1082.123, 10.41311
1082.605, 10.45910
1083.087, 10.50651
1083.569, 10.56963
1084.052, 10.73232
1084.534, 10.94328
1085.016, 10.93438
1085.498, 10.51197
1085.980, 10.16899
1086.462, 10.17730
1086.944, 10.27324
1087.426, 10.29483
1087.908, 10.29958
1088.391, 10.40413
1088.873, 10.56781
1089.355, 10.60418
1089.837, 10.41969
1090.319, 10.28639
1090.801, 10.32962
1091.283, 10.43441
1091.765, 10.57212
1092.248, 10.71135
1092.730, 10.86322
1093.212, 10.98583
1093.694, 10.96801
1094.176, 10.76661
1094.658, 10.56994
1095.140, 10.39425
1095.622, 10.30224
1096.104, 10.42715
1096.587, 10.55309
1097.069, 10.47326
1097.551, 10.25572
1098.033, 10.04671
1098.515, 9.869658
1098.997, 9.767491
1099.479, 9.750017
1099.961, 9.813128
1100.443, 10.07803
1100.926, 10.29936
1101.408, 10.19973
1101.890, 9.990092
1102.372, 10.08026
1102.854, 10.48877
1103.336, 10.68032
1103.818, 10.36296
1104.300, 10.07447
1104.783, 9.923004
1105.265, 9.838964
1105.747, 9.799234
1106.229, 9.795176
1106.711, 9.863776
1107.193, 9.977761
1107.675, 9.939459
1108.157, 9.522674
1108.640, 9.343274
1109.122, 9.749221
1109.604, 10.06875
1110.086, 9.931107
1110.568, 9.676495
1111.050, 9.628451
1111.532, 9.747583
1112.014, 9.847880
1112.496, 9.921987
1112.979, 9.974934
1113.461, 10.04102
1113.943, 10.03850
1114.425, 9.854753
1114.907, 9.690579
1115.389, 9.740344
1115.871, 9.894039
1116.353, 9.883035
1116.835, 9.656268
1117.318, 9.569770
1117.800, 9.683643
1118.282, 9.833681
1118.764, 10.07353
1119.246, 10.22414
1119.728, 10.14308
1120.210, 9.957488
1120.692, 9.867656
1121.175, 9.870075
1121.657, 9.794255
1122.139, 9.592338
1122.621, 9.437834
1123.103, 9.328661
1123.585, 9.316640
1124.067, 9.467900
1124.549, 9.640075
1125.031, 9.668626
1125.514, 9.585622
1125.996, 9.532764
1126.478, 9.500579
1126.960, 9.569556
1127.442, 9.779410
1127.924, 9.912364
1128.406, 9.892195
1128.888, 9.820053
1129.370, 9.773531
1129.853, 9.737100
1130.335, 9.659864
1130.817, 9.541950
1131.299, 9.530858
1131.781, 9.630114
1132.263, 9.801336
1132.745, 10.05086
1133.227, 10.11870
1133.710, 9.834476
1134.192, 9.451522
1134.674, 9.345718
1135.156, 9.445033
1135.638, 9.461966
1136.120, 9.403917
1136.602, 9.294174
1137.084, 9.150771
1137.567, 9.154040
1138.049, 9.369919
1138.531, 9.555993
1139.013, 9.458745
1139.495, 9.240099
1139.977, 9.267210
1140.459, 9.417445
1140.941, 9.275736
1141.423, 8.921042
1141.906, 8.767855
1142.388, 8.891705
1142.870, 9.016189
1143.352, 8.966678
1143.834, 8.862213
1144.316, 8.815691
1144.798, 8.825008
1145.280, 8.982261
1145.762, 9.151729
1146.245, 8.962696
1146.727, 8.511496
1147.209, 8.315182
1147.691, 8.571783
1148.173, 8.883559
1148.655, 8.925638
1149.137, 8.921084
1149.619, 9.164750
1150.102, 9.389459
1150.584, 9.185826
1151.066, 8.749328
1151.548, 8.511840
1152.030, 8.548876
1152.512, 8.652532
1152.994, 8.776703
1153.476, 8.858034
1153.958, 8.852359
1154.441, 8.807397
1154.923, 8.740355
1155.405, 8.662901
1155.887, 8.562602
1156.369, 8.461839
1156.851, 8.444326
1157.333, 8.558684
1157.815, 8.625682
1158.297, 8.534514
1158.780, 8.488725
1159.262, 8.648972
1159.744, 8.781033
1160.226, 8.640924
1160.708, 8.386662
1161.190, 8.338550
1161.672, 8.518268
1162.154, 8.624804
1162.637, 8.617778
1163.119, 8.613425
1163.601, 8.625931
1164.083, 8.631390
1164.565, 8.621310
1165.047, 8.595172
1165.529, 8.535112
1166.011, 8.466906
1166.494, 8.517640
1166.976, 8.743622
1167.458, 8.781498
1167.940, 8.580422
1168.422, 8.445786
1168.904, 8.456213
1169.386, 8.521927
1169.868, 8.592559
1170.350, 8.648673
1170.833, 8.656649
1171.315, 8.621210
1171.797, 8.558629
1172.279, 8.473330
1172.761, 8.414783
1173.243, 8.387692
1173.725, 8.371428
1174.207, 8.358236
1174.689, 8.375777
1175.172, 8.470921
1175.654, 8.545309
1176.136, 8.362854
1176.618, 8.060842
1177.100, 7.955561
1177.582, 8.010754
1178.064, 8.111243
1178.546, 8.209418
1179.029, 8.214022
1179.511, 8.071665
1179.993, 7.979936
1180.475, 8.231296
1180.957, 8.485818
1181.439, 8.320142
1181.921, 8.025467
1182.403, 8.007977
1182.885, 8.161263
1183.368, 8.151960
1183.850, 7.928960
1184.332, 7.785333
1184.814, 7.863842
1185.296, 8.001397
1185.778, 8.265428
1186.260, 8.414795
1186.742, 8.185954
1187.225, 7.857966
1187.707, 7.726575
1188.189, 7.767514
1188.671, 7.834064
1189.153, 7.941679
1189.635, 7.959691
1190.117, 7.807990
1190.599, 7.673531
1191.082, 7.562128
1191.564, 7.508208
1192.046, 7.569704
1192.528, 7.651605
1193.010, 7.606934
1193.492, 7.460134
1193.974, 7.414585
1194.456, 7.476089
1194.938, 7.637945
1195.421, 7.939660
1195.903, 8.084277
1196.385, 7.960017
1196.867, 7.831943
1197.349, 7.909372
1197.831, 8.048902
1198.313, 7.972275
1198.795, 7.730257
1199.277, 7.535344
1199.760, 7.399341
1200.242, 7.438385
1200.724, 7.628112
1201.206, 7.728055
1201.688, 7.654893
1202.170, 7.577465
1202.652, 7.647860
1203.134, 7.748181
1203.617, 7.734955
1204.099, 7.653929
1204.581, 7.527582
1205.063, 7.404478
1205.545, 7.366842
1206.027, 7.413826
1206.509, 7.504521
1206.991, 7.631108
1207.474, 7.710721
1207.956, 7.648943
1208.438, 7.594697
1208.920, 7.648817
1209.402, 7.716908
1209.884, 7.730006
1210.366, 7.702946
1210.848, 7.653013
1211.330, 7.587329
1211.813, 7.548574
1212.295, 7.550872
1212.777, 7.560616
1213.259, 7.555351
1213.741, 7.597471
1214.223, 7.763495
1214.705, 7.878752
1215.187, 7.786661
1215.669, 7.617493
1216.152, 7.634242
1216.634, 7.815464
1217.116, 7.755777
1217.598, 7.423801
1218.080, 7.263596
1218.562, 7.326112
1219.044, 7.385438
1219.526, 7.362252
1220.009, 7.338088
1220.491, 7.382933
1220.973, 7.446475
1221.455, 7.447196
1221.937, 7.396459
1222.419, 7.257886
1222.901, 7.110797
1223.383, 7.221863
1223.865, 7.541914
1224.348, 7.799757
1224.830, 7.891458
1225.312, 7.783646
1225.794, 7.270355
1226.276, 6.897576
1226.758, 7.289278
1227.240, 7.793591
1227.722, 7.807246
1228.204, 7.590588
1228.687, 7.522192
1229.169, 7.581744
1229.651, 7.520503
1230.133, 7.241037
1230.615, 7.152205
1231.097, 7.583783
1231.579, 7.828190
1232.061, 7.599051
1232.544, 7.340795
1233.026, 7.208542
1233.508, 7.198970
1233.990, 7.337858
1234.472, 7.583751
1234.954, 7.776057
1235.436, 7.928299
1235.918, 7.907170
1236.401, 7.692947
1236.883, 7.511642
1237.365, 7.409010
1237.847, 7.369838
1238.329, 7.387504
1238.811, 7.447967
1239.293, 7.542346
1239.775, 7.655471
1240.257, 7.790257
1240.740, 7.904527
1241.222, 7.871112
1241.704, 7.737454
1242.186, 7.650671
1242.668, 7.624373
1243.150, 7.558184
1243.632, 7.402351
1244.114, 7.284104
1244.596, 7.310884
1245.079, 7.373058
1245.561, 7.399871
1246.043, 7.433641
1246.525, 7.539024
1247.007, 7.659173
1247.489, 7.702163
1247.971, 7.671715
1248.453, 7.646535
1248.936, 7.629137
1249.418, 7.631957
1249.900, 7.681419
1250.382, 7.693639
1250.864, 7.613602
1251.346, 7.587649
1251.828, 7.734919
1252.310, 7.889297
1252.792, 7.817181
1253.275, 7.578783
1253.757, 7.397351
1254.239, 7.277800
1254.721, 7.325146
1255.203, 7.515576
1255.685, 7.619123
1256.167, 7.590337
1256.649, 7.501540
1257.131, 7.389099
1257.614, 7.357207
1258.096, 7.602907
1258.578, 7.864406
1259.060, 7.744368
1259.542, 7.538159
1260.024, 7.675325
1260.506, 7.965919
1260.988, 8.034505
1261.471, 7.875291
1261.953, 7.715223
1262.435, 7.597827
1262.917, 7.557277
1263.399, 7.655010
1263.881, 7.754211
1264.363, 7.820167
1264.845, 7.878446
1265.328, 7.968184
1265.810, 8.024998
1266.292, 7.956428
1266.774, 7.803689
1267.256, 7.739904
1267.738, 7.777719
1268.220, 7.778589
1268.702, 7.742640
1269.184, 7.614367
1269.667, 7.392828
1270.149, 7.424214
1270.631, 7.863836
1271.113, 8.283578
1271.595, 8.258068
1272.077, 8.032924
1272.559, 7.919305
1273.041, 7.886502
1273.523, 7.937999
1274.006, 8.008422
1274.488, 7.971255
1274.970, 7.852664
1275.452, 7.774083
1275.934, 7.768308
1276.416, 7.791995
1276.898, 7.826901
1277.380, 7.892512
1277.863, 8.043077
1278.345, 8.164401
1278.827, 8.226375
1279.309, 8.204671
1279.791, 8.003905
1280.273, 7.763012
1280.755, 7.823815
1281.237, 8.180678
1281.719, 8.324574
1282.202, 8.238059
1282.684, 8.182117
1283.166, 8.182174
1283.648, 8.243727
1284.130, 8.363398
1284.612, 8.415677
1285.094, 8.309267
1285.576, 8.141843
1286.059, 7.993336
1286.541, 7.896544
1287.023, 7.889579
1287.505, 7.974692
##END=



