##NAMES=Burangaite
##RRUFFID=R070408
##IDEAL CHEMISTRY=NaFe^2+^Al_5_(PO_4_)_4_(OH)_6_&#183;2H_2_O
##LOCALITY=Buranga pegmatite, Gatumba District, Gisenyi Province, Rwanda
##OWNER=RRUFF
##SOURCE=Michael Scott
##DESCRIPTION=Blue to blue-green prismatic, co-type specimen. This is the piece used by Selway et al (1997) to determine structure.
##STATUS=The identification of this mineral has been confirmed by single-crystal X-ray diffraction.
##URL=rruff.info/R070408
141.9480, 2337.984
142.4301, 2366.386
142.9122, 2391.578
143.3943, 2413.382
143.8764, 2429.842
144.3585, 2441.036
144.8407, 2458.284
145.3228, 2481.063
145.8049, 2510.220
146.2870, 2547.117
146.7691, 2600.278
147.2512, 2649.398
147.7334, 2689.869
148.2155, 2720.514
148.6976, 2749.466
149.1797, 2778.268
149.6618, 2804.982
150.1439, 2826.836
150.6261, 2844.253
151.1082, 2856.177
151.5903, 2860.506
152.0724, 2850.954
152.5545, 2847.960
153.0366, 2850.518
153.5188, 2860.729
154.0009, 2882.626
154.4830, 2927.787
154.9651, 2976.808
155.4472, 3021.352
155.9293, 3055.978
156.4115, 3092.322
156.8936, 3130.187
157.3757, 3171.018
157.8578, 3220.202
158.3399, 3283.333
158.8221, 3352.911
159.3042, 3424.652
159.7863, 3497.902
160.2684, 3572.748
160.7505, 3646.171
161.2326, 3719.869
161.7148, 3801.885
162.1969, 3900.058
162.6790, 4007.018
163.1611, 4114.352
163.6432, 4222.781
164.1253, 4329.215
164.6075, 4429.305
165.0896, 4522.801
165.5717, 4620.879
166.0538, 4738.193
166.5359, 4862.636
167.0180, 4977.165
167.5002, 5080.088
167.9823, 5168.197
168.4644, 5245.462
168.9465, 5315.597
169.4286, 5351.032
169.9107, 5327.015
170.3929, 5253.206
170.8750, 5149.153
171.3571, 4999.164
171.8392, 4836.146
172.3213, 4693.359
172.8034, 4575.783
173.2856, 4480.581
173.7677, 4402.657
174.2498, 4344.283
174.7319, 4314.237
175.2140, 4336.826
175.6961, 4386.465
176.1783, 4427.043
176.6604, 4456.182
177.1425, 4466.101
177.6246, 4443.520
178.1067, 4390.743
178.5888, 4320.902
179.0710, 4246.653
179.5531, 4163.323
180.0352, 4058.707
180.5173, 3921.729
180.9994, 3771.552
181.4815, 3639.627
181.9637, 3524.677
182.4458, 3423.045
182.9279, 3332.103
183.4100, 3251.348
183.8921, 3177.209
184.3742, 3108.630
184.8564, 3045.846
185.3385, 2992.269
185.8206, 2947.741
186.3027, 2908.735
186.7848, 2874.012
187.2669, 2842.744
187.7491, 2807.025
188.2312, 2755.628
188.7133, 2697.418
189.1954, 2668.868
189.6775, 2674.389
190.1596, 2690.787
190.6418, 2686.717
191.1239, 2662.883
191.6060, 2646.982
192.0881, 2654.634
192.5702, 2682.748
193.0524, 2704.599
193.5345, 2719.781
194.0166, 2729.685
194.4987, 2733.180
194.9808, 2729.557
195.4629, 2730.251
195.9451, 2743.009
196.4272, 2767.683
196.9093, 2788.503
197.3914, 2805.330
197.8735, 2817.753
198.3556, 2821.870
198.8378, 2815.619
199.3199, 2813.959
199.8020, 2827.569
200.2841, 2857.615
200.7662, 2882.863
201.2483, 2899.910
201.7305, 2913.500
202.2126, 2935.687
202.6947, 2967.793
203.1768, 3003.562
203.6589, 3039.802
204.1410, 3076.158
204.6232, 3113.508
205.1053, 3152.952
205.5874, 3192.983
206.0695, 3228.319
206.5516, 3258.119
207.0337, 3285.431
207.5159, 3313.448
207.9980, 3343.080
208.4801, 3366.728
208.9622, 3383.383
209.4443, 3393.324
209.9264, 3398.086
210.4086, 3398.113
210.8907, 3392.015
211.3728, 3376.716
211.8549, 3347.954
212.3370, 3324.422
212.8191, 3310.324
213.3013, 3304.363
213.7834, 3294.321
214.2655, 3278.858
214.7476, 3261.393
215.2297, 3243.223
215.7118, 3220.193
216.1940, 3208.414
216.6761, 3215.552
217.1582, 3240.234
217.6403, 3249.718
218.1224, 3238.103
218.6045, 3219.072
219.0867, 3205.555
219.5688, 3199.825
220.0509, 3194.333
220.5330, 3186.559
221.0151, 3176.219
221.4972, 3173.574
221.9794, 3185.090
222.4615, 3197.066
222.9436, 3192.675
223.4257, 3160.183
223.9078, 3135.598
224.3899, 3129.693
224.8721, 3144.268
225.3542, 3152.704
225.8363, 3153.423
226.3184, 3149.583
226.8005, 3144.408
227.2827, 3136.549
227.7648, 3130.067
228.2469, 3126.671
228.7290, 3127.115
229.2111, 3124.200
229.6932, 3113.920
230.1754, 3103.555
230.6575, 3103.853
231.1396, 3122.751
231.6217, 3138.132
232.1038, 3142.128
232.5859, 3131.209
233.0681, 3128.569
233.5502, 3139.159
234.0323, 3154.450
234.5144, 3160.648
234.9965, 3147.506
235.4786, 3142.698
235.9608, 3156.828
236.4429, 3194.871
236.9250, 3228.346
237.4071, 3259.310
237.8892, 3284.136
238.3713, 3295.381
238.8535, 3283.381
239.3356, 3274.007
239.8177, 3276.526
240.2998, 3295.063
240.7819, 3309.612
241.2640, 3318.795
241.7462, 3325.026
242.2283, 3332.330
242.7104, 3340.432
243.1925, 3350.029
243.6746, 3360.843
244.1567, 3371.768
244.6389, 3388.455
245.1210, 3413.645
245.6031, 3442.893
246.0852, 3469.133
246.5673, 3495.270
247.0494, 3513.251
247.5316, 3516.803
248.0137, 3496.747
248.4958, 3493.908
248.9779, 3513.039
249.4600, 3546.806
249.9421, 3581.651
250.4243, 3617.973
250.9064, 3654.938
251.3885, 3689.727
251.8706, 3716.207
252.3527, 3763.036
252.8348, 3836.750
253.3170, 3926.498
253.7991, 4010.450
254.2812, 4080.729
254.7633, 4158.611
255.2454, 4254.233
255.7275, 4372.461
256.2097, 4487.644
256.6918, 4599.314
257.1739, 4706.960
257.6560, 4812.717
258.1381, 4922.497
258.6202, 5018.854
259.1024, 5103.754
259.5845, 5188.831
260.0666, 5207.992
260.5487, 5144.732
261.0308, 5027.870
261.5129, 4904.111
261.9951, 4773.561
262.4772, 4638.252
262.9593, 4498.028
263.4414, 4348.138
263.9235, 4208.562
264.4056, 4072.793
264.8878, 3951.925
265.3699, 3865.870
265.8520, 3823.113
266.3341, 3788.949
266.8162, 3750.993
267.2983, 3709.377
267.7805, 3663.744
268.2626, 3610.488
268.7447, 3557.680
269.2268, 3520.219
269.7089, 3500.951
270.1910, 3486.838
270.6732, 3470.919
271.1553, 3451.767
271.6374, 3448.593
272.1195, 3467.234
272.6016, 3493.305
273.0837, 3500.941
273.5659, 3486.323
274.0480, 3473.137
274.5301, 3472.125
275.0122, 3483.904
275.4943, 3489.402
275.9764, 3486.490
276.4586, 3481.301
276.9407, 3483.863
277.4228, 3495.054
277.9049, 3505.969
278.3870, 3512.182
278.8691, 3514.031
279.3513, 3519.487
279.8334, 3529.000
280.3155, 3540.960
280.7976, 3554.131
281.2798, 3568.512
281.7619, 3581.691
282.2440, 3594.951
282.7261, 3607.128
283.2082, 3607.426
283.6903, 3593.851
284.1725, 3575.732
284.6546, 3562.253
285.1367, 3553.600
285.6188, 3552.212
286.1009, 3565.089
286.5830, 3586.542
287.0652, 3589.030
287.5473, 3570.159
288.0294, 3546.500
288.5115, 3534.174
288.9936, 3532.746
289.4757, 3539.270
289.9579, 3558.866
290.4400, 3584.206
290.9221, 3594.385
291.4042, 3588.716
291.8863, 3576.482
292.3684, 3562.507
292.8506, 3548.528
293.3327, 3542.039
293.8148, 3548.253
294.2969, 3561.694
294.7790, 3571.294
295.2611, 3577.088
295.7433, 3584.090
296.2254, 3604.777
296.7075, 3631.220
297.1896, 3639.640
297.6717, 3614.838
298.1538, 3576.097
298.6360, 3548.750
299.1181, 3532.573
299.6002, 3527.805
300.0823, 3542.054
300.5644, 3566.930
301.0465, 3586.458
301.5287, 3594.612
302.0108, 3598.042
302.4929, 3599.642
302.9750, 3600.931
303.4571, 3610.508
303.9392, 3645.867
304.4214, 3689.548
304.9035, 3717.646
305.3856, 3718.311
305.8677, 3710.853
306.3498, 3705.537
306.8319, 3704.257
307.3141, 3713.822
307.7962, 3745.286
308.2783, 3786.157
308.7604, 3825.550
309.2425, 3861.760
309.7246, 3893.356
310.2068, 3914.896
310.6889, 3930.619
311.1710, 3951.743
311.6531, 3984.303
312.1352, 4023.988
312.6173, 4070.841
313.0995, 4130.560
313.5816, 4179.107
314.0637, 4203.166
314.5458, 4208.496
315.0279, 4206.311
315.5100, 4213.749
315.9922, 4205.119
316.4743, 4161.757
316.9564, 4073.472
317.4385, 3983.909
317.9206, 3899.196
318.4027, 3823.680
318.8849, 3763.439
319.3670, 3730.418
319.8491, 3703.880
320.3312, 3674.182
320.8133, 3638.039
321.2954, 3614.165
321.7776, 3610.700
322.2597, 3619.277
322.7418, 3630.975
323.2239, 3644.814
323.7060, 3661.363
324.1881, 3681.535
324.6703, 3705.645
325.1524, 3729.608
325.6345, 3753.704
326.1166, 3776.984
326.5987, 3798.990
327.0808, 3826.212
327.5630, 3844.359
328.0451, 3845.841
328.5272, 3831.943
329.0093, 3831.139
329.4914, 3851.843
329.9735, 3877.945
330.4557, 3898.583
330.9378, 3907.106
331.4199, 3922.229
331.9020, 3949.284
332.3841, 3984.766
332.8662, 4010.188
333.3484, 4017.073
333.8305, 4026.382
334.3126, 4051.314
334.7947, 4098.024
335.2768, 4140.794
335.7589, 4178.627
336.2411, 4211.590
336.7232, 4241.222
337.2053, 4268.031
337.6874, 4289.362
338.1695, 4300.776
338.6516, 4299.823
339.1338, 4311.411
339.6159, 4340.002
340.0980, 4374.646
340.5801, 4394.164
341.0622, 4396.886
341.5443, 4402.095
342.0265, 4420.378
342.5086, 4449.714
342.9907, 4470.814
343.4728, 4481.451
343.9549, 4491.907
344.4370, 4521.403
344.9192, 4566.696
345.4013, 4597.199
345.8834, 4594.701
346.3655, 4571.400
346.8476, 4554.842
347.3297, 4544.785
347.8119, 4548.149
348.2940, 4579.501
348.7761, 4630.826
349.2582, 4676.360
349.7403, 4703.627
350.2225, 4728.206
350.7046, 4780.129
351.1867, 4855.585
351.6688, 4921.529
352.1509, 4947.159
352.6331, 4950.043
353.1152, 4958.158
353.5973, 4983.976
354.0794, 5004.641
354.5615, 5004.232
355.0436, 4982.846
355.5258, 4940.779
356.0079, 4863.193
356.4900, 4773.313
356.9721, 4688.893
357.4542, 4610.532
357.9363, 4544.852
358.4185, 4496.009
358.9006, 4462.316
359.3827, 4440.850
359.8648, 4434.435
360.3469, 4436.814
360.8290, 4443.426
361.3112, 4452.875
361.7933, 4474.625
362.2754, 4523.109
362.7575, 4581.253
363.2396, 4630.704
363.7217, 4645.277
364.2039, 4672.135
364.6860, 4730.852
365.1681, 4822.286
365.6502, 4902.500
366.1323, 4957.540
366.6144, 5005.849
367.0966, 5060.365
367.5787, 5131.908
368.0608, 5196.351
368.5429, 5255.221
369.0250, 5306.926
369.5071, 5342.061
369.9893, 5356.456
370.4714, 5359.171
370.9535, 5355.519
371.4356, 5352.135
371.9177, 5326.929
372.3998, 5275.875
372.8820, 5204.446
373.3641, 5124.333
373.8462, 5034.216
374.3283, 4939.228
374.8104, 4838.362
375.2925, 4728.737
375.7747, 4637.502
376.2568, 4565.160
376.7389, 4508.630
377.2210, 4467.960
377.7031, 4444.147
378.1852, 4421.856
378.6674, 4395.177
379.1495, 4366.270
379.6316, 4340.682
380.1137, 4317.804
380.5958, 4305.715
381.0779, 4318.619
381.5601, 4351.562
382.0422, 4378.528
382.5243, 4392.206
383.0064, 4399.776
383.4885, 4409.140
383.9706, 4421.325
384.4528, 4443.173
384.9349, 4486.975
385.4170, 4541.724
385.8991, 4590.826
386.3812, 4632.556
386.8633, 4667.529
387.3455, 4692.706
387.8276, 4711.418
388.3097, 4731.730
388.7918, 4765.320
389.2739, 4796.992
389.7560, 4815.777
390.2382, 4820.840
390.7203, 4812.861
391.2024, 4791.779
391.6845, 4758.149
392.1666, 4712.189
392.6487, 4629.553
393.1309, 4557.622
393.6130, 4520.335
394.0951, 4515.061
394.5772, 4510.939
395.0593, 4498.579
395.5414, 4485.852
396.0236, 4477.819
396.5057, 4485.218
396.9878, 4485.381
397.4699, 4467.039
397.9520, 4438.731
398.4341, 4427.660
398.9163, 4450.833
399.3984, 4473.744
399.8805, 4485.894
400.3626, 4489.641
400.8447, 4475.194
401.3268, 4439.161
401.8090, 4387.422
402.2911, 4325.667
402.7732, 4250.906
403.2553, 4175.491
403.7374, 4102.448
404.2195, 4031.694
404.7017, 3961.210
405.1838, 3889.935
405.6659, 3821.059
406.1480, 3754.821
406.6301, 3690.737
407.1122, 3641.094
407.5944, 3611.803
408.0765, 3594.271
408.5586, 3568.287
409.0407, 3533.916
409.5228, 3499.728
410.0049, 3471.878
410.4871, 3448.916
410.9692, 3424.165
411.4513, 3394.774
411.9334, 3372.307
412.4155, 3377.557
412.8976, 3401.508
413.3798, 3417.948
413.8619, 3405.642
414.3440, 3385.449
414.8261, 3379.679
415.3082, 3388.817
415.7903, 3400.897
416.2725, 3408.341
416.7546, 3414.323
417.2367, 3422.465
417.7188, 3430.924
418.2009, 3444.853
418.6830, 3473.923
419.1652, 3512.479
419.6473, 3538.620
420.1294, 3526.326
420.6115, 3513.724
421.0937, 3523.586
421.5758, 3572.459
422.0579, 3614.130
422.5400, 3633.950
423.0221, 3644.871
423.5042, 3668.740
423.9864, 3719.695
424.4685, 3768.106
424.9506, 3805.187
425.4327, 3828.699
425.9148, 3864.460
426.3969, 3919.351
426.8791, 3978.613
427.3612, 4027.433
427.8433, 4059.867
428.3254, 4100.396
428.8075, 4153.736
429.2896, 4216.884
429.7718, 4279.126
430.2539, 4340.597
430.7360, 4401.040
431.2181, 4459.122
431.7002, 4515.054
432.1823, 4573.056
432.6645, 4634.566
433.1466, 4694.265
433.6287, 4741.380
434.1108, 4778.354
434.5929, 4817.954
435.0750, 4872.891
435.5572, 4930.088
436.0393, 4963.926
436.5214, 4975.215
437.0035, 4981.183
437.4856, 5001.966
437.9677, 5023.773
438.4499, 5026.754
438.9320, 5002.234
439.4141, 4963.920
439.8962, 4914.209
440.3783, 4857.780
440.8604, 4805.222
441.3426, 4769.168
441.8247, 4733.019
442.3068, 4686.707
442.7889, 4627.257
443.2710, 4566.713
443.7531, 4506.499
444.2353, 4447.663
444.7174, 4390.317
445.1995, 4329.980
445.6816, 4276.958
446.1637, 4234.190
446.6458, 4201.305
447.1280, 4170.827
447.6101, 4140.393
448.0922, 4114.897
448.5743, 4097.213
449.0564, 4087.784
449.5385, 4085.024
450.0207, 4090.265
450.5028, 4100.837
450.9849, 4111.911
451.4670, 4123.182
451.9491, 4135.826
452.4312, 4148.802
452.9134, 4162.990
453.3955, 4186.334
453.8776, 4219.289
454.3597, 4257.342
454.8418, 4293.782
455.3239, 4330.874
455.8061, 4377.529
456.2882, 4439.777
456.7703, 4507.149
457.2524, 4561.667
457.7345, 4607.014
458.2166, 4659.737
458.6988, 4739.786
459.1809, 4826.811
459.6630, 4896.818
460.1451, 4946.639
460.6272, 4990.142
461.1093, 5035.202
461.5915, 5079.200
462.0736, 5117.942
462.5557, 5155.844
463.0378, 5182.677
463.5199, 5193.690
464.0020, 5189.534
464.4842, 5175.518
464.9663, 5146.259
465.4484, 5112.170
465.9305, 5078.146
466.4126, 5040.704
466.8947, 5009.098
467.3769, 4983.822
467.8590, 4964.233
468.3411, 4948.750
468.8232, 4936.035
469.3053, 4929.884
469.7874, 4928.013
470.2696, 4931.406
470.7517, 4961.024
471.2338, 5021.170
471.7159, 5093.807
472.1980, 5165.771
472.6801, 5237.280
473.1623, 5304.226
473.6444, 5364.990
474.1265, 5424.021
474.6086, 5492.924
475.0907, 5569.248
475.5728, 5637.136
476.0550, 5672.553
476.5371, 5699.852
477.0192, 5767.614
477.5013, 5878.352
477.9834, 5980.541
478.4655, 6026.197
478.9477, 6042.152
479.4298, 6062.811
479.9119, 6100.853
480.3940, 6143.318
480.8761, 6188.909
481.3582, 6234.223
481.8404, 6268.792
482.3225, 6280.930
482.8046, 6288.330
483.2867, 6302.482
483.7688, 6332.273
484.2509, 6341.191
484.7331, 6313.998
485.2152, 6270.720
485.6973, 6229.299
486.1794, 6195.469
486.6615, 6153.753
487.1436, 6102.844
487.6258, 6042.278
488.1079, 5966.072
488.5900, 5867.695
489.0721, 5772.952
489.5542, 5697.593
490.0363, 5641.408
490.5185, 5586.790
491.0006, 5534.065
491.4827, 5481.874
491.9648, 5423.016
492.4470, 5361.053
492.9291, 5318.638
493.4112, 5317.209
493.8933, 5328.543
494.3754, 5301.458
494.8575, 5242.505
495.3397, 5194.531
495.8218, 5201.525
496.3039, 5226.045
496.7860, 5224.181
497.2681, 5182.383
497.7502, 5142.130
498.2324, 5124.279
498.7145, 5121.397
499.1966, 5123.051
499.6787, 5129.873
500.1608, 5137.175
500.6429, 5140.452
501.1251, 5140.561
501.6072, 5151.119
502.0893, 5180.442
502.5714, 5213.985
503.0535, 5245.719
503.5356, 5276.920
504.0178, 5303.231
504.4999, 5324.815
504.9820, 5341.075
505.4641, 5347.399
505.9462, 5339.351
506.4283, 5344.840
506.9105, 5375.752
507.3926, 5425.413
507.8747, 5466.468
508.3568, 5498.541
508.8389, 5531.767
509.3210, 5580.149
509.8032, 5636.055
510.2853, 5676.838
510.7674, 5697.080
511.2495, 5713.302
511.7316, 5739.212
512.2137, 5773.925
512.6959, 5815.078
513.1780, 5860.412
513.6601, 5913.267
514.1422, 5984.666
514.6243, 6070.172
515.1064, 6140.077
515.5886, 6170.208
516.0707, 6190.089
516.5528, 6216.147
517.0349, 6248.502
517.5170, 6291.664
517.9991, 6361.957
518.4813, 6436.838
518.9634, 6486.122
519.4455, 6492.953
519.9276, 6503.687
520.4097, 6532.459
520.8918, 6573.797
521.3740, 6595.316
521.8561, 6596.280
522.3382, 6579.842
522.8203, 6549.621
523.3024, 6505.338
523.7845, 6435.048
524.2667, 6334.904
524.7488, 6218.573
525.2309, 6092.040
525.7130, 5958.881
526.1951, 5834.530
526.6772, 5726.884
527.1594, 5626.207
527.6415, 5521.853
528.1236, 5415.611
528.6057, 5312.655
529.0878, 5215.143
529.5699, 5123.669
530.0521, 5038.983
530.5342, 4959.139
531.0163, 4891.666
531.4984, 4839.665
531.9805, 4800.239
532.4626, 4769.995
532.9448, 4763.182
533.4269, 4747.710
533.9090, 4713.381
534.3911, 4667.075
534.8732, 4637.216
535.3553, 4628.346
535.8375, 4627.050
536.3196, 4629.309
536.8017, 4635.468
537.2838, 4637.610
537.7659, 4634.585
538.2480, 4631.400
538.7302, 4634.724
539.2123, 4643.447
539.6944, 4649.278
540.1765, 4649.234
540.6586, 4647.710
541.1407, 4652.161
541.6229, 4660.805
542.1050, 4667.303
542.5871, 4665.812
543.0692, 4662.258
543.5513, 4663.849
544.0334, 4670.837
544.5156, 4672.647
544.9977, 4661.022
545.4798, 4644.073
545.9619, 4628.551
546.4440, 4621.344
546.9261, 4607.222
547.4083, 4578.879
547.8904, 4543.196
548.3725, 4513.544
548.8546, 4496.281
549.3367, 4474.070
549.8188, 4440.783
550.3010, 4397.716
550.7831, 4361.372
551.2652, 4334.253
551.7473, 4305.356
552.2294, 4264.312
552.7115, 4212.708
553.1937, 4168.489
553.6758, 4133.660
554.1579, 4103.790
554.6400, 4074.604
555.1221, 4045.932
555.6042, 4017.959
556.0864, 3991.652
556.5685, 3964.682
557.0506, 3930.472
557.5327, 3892.573
558.0148, 3864.865
558.4969, 3867.254
558.9791, 3871.969
559.4612, 3861.205
559.9433, 3830.434
560.4254, 3798.571
560.9075, 3760.113
561.3896, 3727.301
561.8718, 3710.769
562.3539, 3723.985
562.8360, 3730.709
563.3181, 3727.662
563.8002, 3716.815
564.2823, 3700.856
564.7645, 3677.991
565.2466, 3658.694
565.7287, 3647.781
566.2108, 3643.966
566.6929, 3642.261
567.1750, 3642.789
567.6572, 3642.951
568.1393, 3638.482
568.6214, 3632.435
569.1035, 3632.504
569.5856, 3641.739
570.0677, 3649.500
570.5499, 3643.751
571.0320, 3631.411
571.5141, 3623.399
571.9962, 3626.654
572.4783, 3632.058
572.9604, 3631.919
573.4426, 3629.206
573.9247, 3639.498
574.4068, 3680.376
574.8889, 3720.961
575.3710, 3749.201
575.8531, 3762.604
576.3353, 3774.600
576.8174, 3783.434
577.2995, 3793.292
577.7816, 3809.207
578.2637, 3831.792
578.7458, 3852.935
579.2280, 3870.907
579.7101, 3887.962
580.1922, 3906.556
580.6743, 3927.198
581.1564, 3952.764
581.6385, 3986.883
582.1207, 4025.497
582.6028, 4060.712
583.0849, 4093.485
583.5670, 4133.622
584.0491, 4199.086
584.5313, 4266.360
585.0134, 4315.398
585.4955, 4337.134
585.9776, 4360.170
586.4597, 4399.322
586.9418, 4440.071
587.4240, 4464.746
587.9061, 4455.122
588.3882, 4458.452
588.8703, 4487.964
589.3524, 4531.434
589.8345, 4551.846
590.3167, 4545.179
590.7988, 4530.148
591.2809, 4507.409
591.7630, 4482.021
592.2451, 4483.480
592.7272, 4512.330
593.2094, 4554.883
593.6915, 4600.667
594.1736, 4651.875
594.6557, 4716.441
595.1378, 4798.229
595.6199, 4876.848
596.1021, 4925.740
596.5842, 4964.417
597.0663, 5020.949
597.5485, 5115.444
598.0306, 5217.125
598.5127, 5322.132
598.9948, 5427.721
599.4769, 5524.074
599.9590, 5610.808
600.4412, 5689.831
600.9233, 5760.152
601.4054, 5821.731
601.8875, 5880.115
602.3696, 5933.884
602.8517, 5986.992
603.3339, 6046.182
603.8160, 6110.279
604.2981, 6155.427
604.7802, 6177.313
605.2623, 6184.244
605.7444, 6192.487
606.2266, 6194.413
606.7087, 6169.589
607.1908, 6104.325
607.6729, 6015.768
608.1550, 5903.913
608.6371, 5777.602
609.1193, 5661.689
609.6014, 5579.689
610.0835, 5499.596
610.5656, 5403.726
611.0477, 5286.689
611.5298, 5187.247
612.0120, 5104.623
612.4941, 5042.391
612.9762, 5008.417
613.4583, 5014.519
613.9404, 5004.340
614.4225, 4969.727
614.9047, 4928.964
615.3868, 4911.505
615.8689, 4915.107
616.3510, 4911.965
616.8331, 4892.820
617.3152, 4864.355
617.7974, 4832.426
618.2795, 4798.969
618.7616, 4769.782
619.2437, 4761.800
619.7258, 4749.276
620.2079, 4708.583
620.6901, 4638.904
621.1722, 4569.355
621.6543, 4505.221
622.1364, 4447.636
622.6185, 4399.484
623.1006, 4368.818
623.5828, 4327.571
624.0649, 4265.038
624.5470, 4201.745
625.0291, 4164.847
625.5112, 4159.595
625.9933, 4152.008
626.4755, 4134.366
626.9576, 4113.490
627.4397, 4105.818
627.9218, 4109.584
628.4039, 4111.291
628.8860, 4094.228
629.3682, 4076.561
629.8503, 4089.550
630.3324, 4129.023
630.8145, 4163.064
631.2966, 4169.402
631.7787, 4165.863
632.2609, 4163.287
632.7430, 4161.830
633.2251, 4166.443
633.7072, 4183.907
634.1893, 4204.265
634.6714, 4219.271
635.1536, 4226.222
635.6357, 4234.017
636.1178, 4244.156
636.5999, 4254.417
637.0820, 4261.130
637.5641, 4264.261
638.0463, 4262.978
638.5284, 4254.234
639.0105, 4243.333
639.4926, 4243.649
639.9747, 4252.899
640.4568, 4257.895
640.9390, 4253.924
641.4211, 4239.886
641.9032, 4209.766
642.3853, 4163.358
642.8674, 4123.131
643.3495, 4108.162
643.8317, 4095.840
644.3138, 4069.090
644.7959, 4011.847
645.2780, 3968.447
645.7601, 3946.875
646.2422, 3932.261
646.7244, 3905.915
647.2065, 3865.332
647.6886, 3826.506
648.1707, 3791.208
648.6528, 3761.056
649.1349, 3741.963
649.6171, 3732.369
650.0992, 3720.645
650.5813, 3698.336
651.0634, 3672.820
651.5455, 3654.949
652.0276, 3642.822
652.5098, 3627.057
652.9919, 3587.360
653.4740, 3554.275
653.9561, 3554.083
654.4382, 3598.019
654.9203, 3620.630
655.4025, 3596.837
655.8846, 3563.270
656.3667, 3543.427
656.8488, 3539.839
657.3309, 3543.976
657.8130, 3558.913
658.2952, 3575.372
658.7773, 3577.456
659.2594, 3566.727
659.7415, 3562.593
660.2236, 3573.215
660.7057, 3587.578
661.1879, 3586.407
661.6700, 3575.580
662.1521, 3571.535
662.6342, 3590.475
663.1163, 3611.629
663.5984, 3622.140
664.0806, 3622.723
664.5627, 3622.146
665.0448, 3618.389
665.5269, 3617.836
666.0090, 3624.140
666.4911, 3638.553
666.9733, 3649.431
667.4554, 3654.481
667.9375, 3660.544
668.4196, 3674.589
668.9017, 3696.349
669.3839, 3716.587
669.8660, 3735.313
670.3481, 3748.310
670.8302, 3750.556
671.3123, 3743.283
671.7944, 3728.625
672.2766, 3704.791
672.7587, 3677.946
673.2408, 3647.805
673.7229, 3617.973
674.2050, 3594.881
674.6871, 3586.256
675.1693, 3578.199
675.6514, 3563.767
676.1335, 3545.692
676.6156, 3541.316
677.0977, 3560.089
677.5798, 3570.865
678.0620, 3556.054
678.5441, 3518.970
679.0262, 3494.576
679.5083, 3483.393
679.9904, 3473.058
680.4725, 3446.324
680.9547, 3415.853
681.4368, 3406.172
681.9189, 3421.831
682.4010, 3442.487
682.8831, 3462.370
683.3652, 3476.399
683.8474, 3478.332
684.3295, 3454.387
684.8116, 3438.038
685.2937, 3442.595
685.7758, 3453.518
686.2579, 3450.077
686.7401, 3422.955
687.2222, 3408.035
687.7043, 3415.467
688.1864, 3435.325
688.6685, 3444.072
689.1506, 3442.231
689.6328, 3438.059
690.1149, 3431.803
690.5970, 3427.602
691.0791, 3435.243
691.5612, 3452.057
692.0433, 3464.266
692.5255, 3460.447
693.0076, 3453.135
693.4897, 3449.946
693.9718, 3451.776
694.4539, 3454.394
694.9360, 3462.912
695.4182, 3466.741
695.9003, 3457.345
696.3824, 3428.164
696.8645, 3416.353
697.3466, 3426.556
697.8287, 3441.947
698.3109, 3444.403
698.7930, 3435.937
699.2751, 3426.931
699.7572, 3419.124
700.2393, 3411.636
700.7214, 3404.702
701.2036, 3397.253
701.6857, 3387.453
702.1678, 3372.049
702.6499, 3357.221
703.1320, 3343.511
703.6141, 3332.115
704.0963, 3326.265
704.5784, 3329.787
705.0605, 3333.114
705.5426, 3336.097
706.0247, 3337.175
706.5068, 3327.122
706.9890, 3304.312
707.4711, 3283.602
707.9532, 3273.920
708.4353, 3271.772
708.9174, 3269.882
709.3995, 3268.026
709.8817, 3263.968
710.3638, 3252.097
710.8459, 3240.019
711.3280, 3234.854
711.8101, 3237.811
712.2922, 3243.002
712.7744, 3251.162
713.2565, 3259.267
713.7386, 3265.814
714.2207, 3272.308
714.7028, 3272.539
715.1849, 3264.039
715.6671, 3253.564
716.1492, 3249.486
716.6313, 3251.132
717.1134, 3248.271
717.5955, 3236.791
718.0776, 3228.149
718.5598, 3244.824
719.0419, 3273.534
719.5240, 3288.249
720.0061, 3270.296
720.4882, 3247.956
720.9703, 3231.794
721.4525, 3220.770
721.9346, 3212.305
722.4167, 3200.119
722.8988, 3198.908
723.3809, 3217.905
723.8630, 3249.298
724.3452, 3259.758
724.8273, 3246.761
725.3094, 3230.736
725.7915, 3218.708
726.2736, 3211.463
726.7557, 3214.113
727.2379, 3225.283
727.7200, 3234.160
728.2021, 3231.052
728.6842, 3224.598
729.1663, 3222.309
729.6484, 3224.973
730.1306, 3226.094
730.6127, 3220.415
731.0948, 3215.574
731.5769, 3216.029
732.0590, 3223.363
732.5411, 3229.421
733.0233, 3233.936
733.5054, 3237.774
733.9875, 3242.662
734.4696, 3248.040
734.9517, 3249.694
735.4338, 3247.158
735.9160, 3241.033
736.3981, 3228.311
736.8802, 3213.527
737.3623, 3202.936
737.8444, 3196.518
738.3266, 3197.815
738.8087, 3215.761
739.2908, 3239.712
739.7729, 3253.982
740.2551, 3255.943
740.7372, 3251.719
741.2193, 3238.616
741.7014, 3222.522
742.1835, 3216.291
742.6656, 3220.048
743.1478, 3226.440
743.6299, 3233.959
744.1120, 3241.788
744.5941, 3249.001
745.0762, 3255.453
745.5583, 3260.932
746.0405, 3269.837
746.5226, 3273.450
747.0047, 3260.922
747.4868, 3236.375
747.9689, 3224.305
748.4510, 3239.671
748.9332, 3252.009
749.4153, 3248.430
749.8974, 3231.448
750.3795, 3233.960
750.8616, 3258.713
751.3438, 3281.448
751.8259, 3285.338
752.3080, 3276.214
752.7901, 3262.694
753.2722, 3245.966
753.7543, 3241.211
754.2365, 3278.906
754.7186, 3318.720
755.2007, 3322.555
755.6828, 3278.023
756.1649, 3247.403
756.6470, 3249.938
757.1292, 3261.156
757.6113, 3266.356
758.0934, 3262.698
758.5755, 3267.399
759.0576, 3283.057
759.5397, 3298.553
760.0219, 3299.530
760.5040, 3290.743
760.9861, 3288.001
761.4682, 3294.802
761.9503, 3302.076
762.4324, 3302.417
762.9146, 3299.294
763.3967, 3296.566
763.8788, 3292.693
764.3609, 3293.358
764.8430, 3306.067
765.3251, 3320.030
765.8073, 3322.071
766.2894, 3308.672
766.7715, 3296.249
767.2536, 3285.270
767.7357, 3279.674
768.2178, 3291.500
768.7000, 3315.925
769.1821, 3331.883
769.6642, 3328.057
770.1463, 3320.927
770.6284, 3328.705
771.1105, 3342.894
771.5927, 3347.069
772.0748, 3316.675
772.5569, 3298.625
773.0390, 3310.618
773.5211, 3341.065
774.0032, 3361.213
774.4854, 3368.876
774.9675, 3374.261
775.4496, 3379.886
775.9317, 3385.650
776.4138, 3392.929
776.8959, 3400.754
777.3781, 3404.199
777.8602, 3396.257
778.3423, 3386.381
778.8244, 3382.148
779.3065, 3382.803
779.7886, 3384.689
780.2708, 3386.914
780.7529, 3390.037
781.2350, 3394.176
781.7171, 3399.330
782.1992, 3406.230
782.6813, 3415.833
783.1635, 3423.111
783.6456, 3424.493
784.1277, 3421.699
784.6098, 3417.616
785.0919, 3413.091
785.5740, 3415.989
786.0562, 3440.470
786.5383, 3467.993
787.0204, 3481.833
787.5025, 3481.143
787.9846, 3480.443
788.4667, 3479.594
788.9489, 3483.197
789.4310, 3495.499
789.9131, 3517.342
790.3952, 3529.750
790.8773, 3531.684
791.3594, 3528.564
791.8416, 3518.248
792.3237, 3506.741
792.8058, 3514.635
793.2879, 3542.584
793.7700, 3566.695
794.2521, 3563.639
794.7343, 3554.314
795.2164, 3556.229
795.6985, 3574.061
796.1806, 3591.908
796.6627, 3608.829
797.1448, 3624.477
797.6270, 3638.494
798.1091, 3650.867
798.5912, 3661.728
799.0733, 3671.210
799.5554, 3678.987
800.0375, 3685.262
800.5197, 3689.443
801.0018, 3688.264
801.4839, 3680.099
801.9660, 3676.986
802.4481, 3693.357
802.9302, 3713.561
803.4124, 3725.242
803.8945, 3728.637
804.3766, 3715.784
804.8587, 3674.078
805.3408, 3632.784
805.8229, 3621.594
806.3051, 3640.298
806.7872, 3658.251
807.2693, 3674.292
807.7514, 3680.779
808.2335, 3658.471
808.7156, 3625.569
809.1978, 3612.484
809.6799, 3632.927
810.1620, 3648.295
810.6441, 3638.117
811.1262, 3617.675
811.6083, 3602.256
812.0905, 3596.138
812.5726, 3584.298
813.0547, 3561.502
813.5368, 3542.711
814.0189, 3551.345
814.5010, 3581.978
814.9832, 3603.740
815.4653, 3611.955
815.9474, 3608.880
816.4295, 3591.015
816.9116, 3565.491
817.3937, 3540.688
817.8759, 3517.451
818.3580, 3497.775
818.8401, 3478.016
819.3222, 3465.030
819.8043, 3467.794
820.2864, 3490.962
820.7686, 3509.473
821.2507, 3521.980
821.7328, 3526.419
822.2149, 3516.681
822.6970, 3496.882
823.1791, 3475.573
823.6613, 3452.429
824.1434, 3436.293
824.6255, 3437.930
825.1076, 3447.765
825.5897, 3455.126
826.0718, 3452.322
826.5540, 3456.443
827.0361, 3473.558
827.5182, 3490.752
828.0003, 3488.858
828.4824, 3468.223
828.9645, 3459.357
829.4467, 3468.854
829.9288, 3482.228
830.4109, 3483.376
830.8930, 3477.354
831.3751, 3471.406
831.8572, 3465.920
832.3394, 3464.175
832.8215, 3471.843
833.3036, 3481.369
833.7857, 3483.574
834.2678, 3473.278
834.7499, 3471.972
835.2321, 3483.933
835.7142, 3498.154
836.1963, 3497.714
836.6784, 3487.420
837.1605, 3486.674
837.6426, 3501.551
838.1248, 3515.329
838.6069, 3511.713
839.0890, 3501.466
839.5711, 3496.841
840.0532, 3506.486
840.5353, 3510.064
841.0175, 3501.736
841.4996, 3491.811
841.9817, 3491.332
842.4638, 3500.650
842.9459, 3511.230
843.4280, 3523.168
843.9102, 3531.627
844.3923, 3527.445
844.8744, 3517.465
845.3565, 3512.692
845.8386, 3515.847
846.3207, 3522.095
846.8029, 3538.703
847.2850, 3551.446
847.7671, 3546.623
848.2492, 3513.302
848.7313, 3492.820
849.2134, 3488.270
849.6956, 3489.067
850.1777, 3483.183
850.6598, 3473.689
851.1419, 3474.365
851.6240, 3488.299
852.1061, 3497.078
852.5883, 3476.446
853.0704, 3450.481
853.5525, 3443.235
854.0346, 3467.806
854.5167, 3481.189
854.9988, 3474.722
855.4810, 3464.818
855.9631, 3464.125
856.4452, 3472.860
856.9273, 3475.583
857.4094, 3471.606
857.8915, 3466.121
858.3737, 3461.232
858.8558, 3458.802
859.3379, 3462.476
859.8200, 3473.088
860.3021, 3482.906
860.7842, 3488.188
861.2664, 3492.397
861.7485, 3497.889
862.2306, 3505.180
862.7127, 3508.724
863.1948, 3508.184
863.6769, 3505.507
864.1591, 3498.075
864.6412, 3490.461
865.1233, 3494.018
865.6054, 3508.660
866.0875, 3527.866
866.5696, 3553.702
867.0518, 3578.087
867.5339, 3594.493
868.0160, 3602.236
868.4981, 3613.984
868.9802, 3632.406
869.4623, 3649.317
869.9445, 3659.756
870.4266, 3665.490
870.9087, 3673.553
871.3908, 3684.213
871.8729, 3698.944
872.3550, 3721.513
872.8372, 3746.371
873.3193, 3768.782
873.8014, 3789.296
874.2835, 3810.676
874.7656, 3836.309
875.2477, 3859.584
875.7299, 3878.805
876.2120, 3894.354
876.6941, 3906.728
877.1762, 3915.882
877.6583, 3929.388
878.1404, 3956.165
878.6226, 3982.955
879.1047, 3988.507
879.5869, 3979.802
880.0690, 3974.956
880.5511, 3979.930
881.0332, 3990.908
881.5153, 4013.026
881.9974, 4038.387
882.4796, 4049.851
882.9617, 4044.596
883.4438, 4041.817
883.9259, 4047.218
884.4080, 4054.697
884.8901, 4053.947
885.3723, 4047.719
885.8544, 4042.926
886.3365, 4046.901
886.8186, 4044.671
887.3007, 4027.791
887.7828, 4001.412
888.2650, 3972.236
888.7471, 3937.828
889.2292, 3908.253
889.7113, 3883.998
890.1934, 3865.451
890.6755, 3853.383
891.1577, 3847.219
891.6398, 3847.733
892.1219, 3857.950
892.6040, 3859.668
893.0861, 3833.014
893.5682, 3796.135
894.0504, 3765.905
894.5325, 3747.006
895.0146, 3729.260
895.4967, 3712.424
895.9788, 3697.230
896.4609, 3684.955
896.9431, 3675.167
897.4252, 3666.171
897.9073, 3657.905
898.3894, 3648.150
898.8715, 3634.190
899.3536, 3618.542
899.8358, 3601.130
900.3179, 3581.448
900.8000, 3570.961
901.2821, 3577.998
901.7642, 3583.359
902.2463, 3577.170
902.7285, 3561.402
903.2106, 3549.446
903.6927, 3541.348
904.1748, 3536.613
904.6569, 3537.100
905.1390, 3539.124
905.6212, 3541.396
906.1033, 3542.519
906.5854, 3537.025
907.0675, 3512.806
907.5496, 3494.665
908.0317, 3490.015
908.5139, 3494.790
908.9960, 3496.678
909.4781, 3495.656
909.9602, 3496.116
910.4423, 3500.872
910.9244, 3505.755
911.4066, 3504.390
911.8887, 3499.729
912.3708, 3497.192
912.8529, 3502.029
913.3350, 3504.688
913.8171, 3501.574
914.2993, 3496.871
914.7814, 3497.430
915.2635, 3504.067
915.7456, 3503.277
916.2277, 3491.092
916.7098, 3480.121
917.1920, 3489.254
917.6741, 3507.460
918.1562, 3517.971
918.6383, 3515.001
919.1204, 3512.555
919.6025, 3517.040
920.0847, 3521.608
920.5668, 3521.627
921.0489, 3516.512
921.5310, 3509.284
922.0131, 3499.153
922.4952, 3493.535
922.9774, 3503.584
923.4595, 3519.488
923.9416, 3526.405
924.4237, 3523.838
924.9058, 3519.577
925.3879, 3509.532
925.8701, 3506.235
926.3522, 3517.220
926.8343, 3540.169
927.3164, 3555.400
927.7985, 3562.226
928.2806, 3568.464
928.7628, 3578.213
929.2449, 3588.842
929.7270, 3595.607
930.2091, 3599.858
930.6912, 3605.454
931.1733, 3614.452
931.6555, 3624.443
932.1376, 3637.844
932.6197, 3650.383
933.1018, 3654.023
933.5839, 3647.740
934.0660, 3639.563
934.5482, 3629.688
935.0303, 3622.092
935.5124, 3617.294
935.9945, 3619.640
936.4766, 3639.635
936.9587, 3690.242
937.4409, 3729.610
937.9230, 3741.059
938.4051, 3738.411
938.8872, 3729.677
939.3693, 3712.012
939.8514, 3705.437
940.3336, 3710.866
940.8157, 3721.279
941.2978, 3729.291
941.7799, 3739.506
942.2620, 3764.567
942.7441, 3803.342
943.2263, 3828.555
943.7084, 3811.389
944.1905, 3797.009
944.6726, 3804.146
945.1547, 3829.632
945.6368, 3855.436
946.1190, 3882.035
946.6011, 3904.060
947.0832, 3916.478
947.5653, 3926.003
948.0474, 3940.899
948.5295, 3960.210
949.0117, 3981.713
949.4938, 4009.433
949.9759, 4032.853
950.4580, 4047.145
950.9401, 4058.585
951.4222, 4075.128
951.9044, 4096.768
952.3865, 4129.079
952.8686, 4176.044
953.3507, 4218.868
953.8328, 4239.043
954.3149, 4242.421
954.7971, 4233.638
955.2792, 4208.896
955.7613, 4190.210
956.2434, 4177.498
956.7255, 4175.724
957.2076, 4193.842
957.6898, 4230.829
958.1719, 4244.697
958.6540, 4235.849
959.1361, 4224.293
959.6182, 4224.035
960.1003, 4227.167
960.5825, 4226.950
961.0646, 4223.533
961.5467, 4219.226
962.0288, 4209.548
962.5109, 4207.104
962.9930, 4217.614
963.4752, 4234.851
963.9573, 4243.325
964.4394, 4244.013
964.9215, 4242.738
965.4036, 4239.145
965.8857, 4238.851
966.3679, 4246.961
966.8500, 4260.783
967.3321, 4277.437
967.8142, 4304.915
968.2963, 4316.994
968.7784, 4305.380
969.2606, 4294.692
969.7427, 4315.386
970.2248, 4358.043
970.7069, 4385.817
971.1890, 4396.036
971.6711, 4411.330
972.1533, 4449.235
972.6354, 4494.740
973.1175, 4539.579
973.5996, 4583.117
974.0817, 4620.709
974.5638, 4648.786
975.0460, 4683.514
975.5281, 4733.209
976.0102, 4792.874
976.4923, 4854.572
976.9744, 4917.662
977.4565, 4980.251
977.9387, 5036.783
978.4208, 5098.216
978.9029, 5178.819
979.3850, 5261.140
979.8671, 5319.315
980.3492, 5347.306
980.8314, 5386.422
981.3135, 5443.396
981.7956, 5502.382
982.2777, 5553.525
982.7598, 5592.930
983.2419, 5613.193
983.7241, 5611.829
984.2062, 5603.505
984.6883, 5590.375
985.1704, 5572.926
985.6525, 5549.977
986.1346, 5522.209
986.6168, 5499.163
987.0989, 5480.476
987.5810, 5454.849
988.0631, 5411.023
988.5452, 5361.113
989.0273, 5315.948
989.5095, 5274.113
989.9916, 5232.229
990.4737, 5183.488
990.9558, 5144.473
991.4379, 5118.665
991.9200, 5101.733
992.4022, 5086.703
992.8843, 5074.810
993.3664, 5072.489
993.8485, 5082.380
994.3306, 5092.766
994.8127, 5091.626
995.2949, 5090.124
995.7770, 5097.965
996.2591, 5115.859
996.7412, 5141.772
997.2233, 5178.935
997.7054, 5211.417
998.1876, 5220.441
998.6697, 5221.551
999.1518, 5256.824
999.6339, 5317.281
1000.116, 5367.367
1000.598, 5373.160
1001.080, 5387.425
1001.562, 5440.229
1002.044, 5507.632
1002.527, 5543.613
1003.009, 5544.858
1003.491, 5560.167
1003.973, 5600.291
1004.455, 5646.634
1004.937, 5673.844
1005.419, 5696.872
1005.901, 5735.135
1006.384, 5795.303
1006.866, 5856.205
1007.348, 5911.985
1007.830, 5971.905
1008.312, 6039.509
1008.794, 6115.220
1009.276, 6203.667
1009.758, 6304.621
1010.240, 6418.464
1010.723, 6550.834
1011.205, 6690.829
1011.687, 6819.518
1012.169, 6952.425
1012.651, 7130.935
1013.133, 7374.867
1013.615, 7611.251
1014.097, 7828.163
1014.580, 8038.349
1015.062, 8245.677
1015.544, 8459.493
1016.026, 8709.920
1016.508, 9011.789
1016.990, 9285.029
1017.472, 9474.922
1017.954, 9646.686
1018.436, 9837.704
1018.919, 10045.40
1019.401, 10257.21
1019.883, 10473.24
1020.365, 10649.91
1020.847, 10755.83
1021.329, 10815.60
1021.811, 10853.68
1022.293, 10864.62
1022.776, 10835.08
1023.258, 10756.99
1023.740, 10644.80
1024.222, 10493.13
1024.704, 10318.22
1025.186, 10146.89
1025.668, 9971.870
1026.150, 9768.585
1026.632, 9530.422
1027.115, 9295.262
1027.597, 9078.940
1028.079, 8879.858
1028.561, 8690.018
1029.043, 8509.679
1029.525, 8374.555
1030.007, 8291.616
1030.489, 8213.796
1030.972, 8114.261
1031.454, 8014.596
1031.936, 7934.093
1032.418, 7876.563
1032.900, 7851.016
1033.382, 7870.410
1033.864, 7909.604
1034.346, 7966.183
1034.828, 8038.607
1035.311, 8123.954
1035.793, 8223.167
1036.275, 8336.105
1036.757, 8463.685
1037.239, 8609.935
1037.721, 8788.999
1038.203, 8978.468
1038.685, 9158.672
1039.167, 9330.795
1039.650, 9523.172
1040.132, 9741.320
1040.614, 9948.378
1041.096, 10122.53
1041.578, 10287.46
1042.060, 10489.71
1042.542, 10703.54
1043.024, 10886.61
1043.507, 11044.63
1043.989, 11127.50
1044.471, 11116.17
1044.953, 11044.30
1045.435, 10942.35
1045.917, 10807.56
1046.399, 10583.76
1046.881, 10272.53
1047.364, 9915.473
1047.846, 9500.254
1048.328, 9086.169
1048.810, 8714.762
1049.292, 8381.188
1049.774, 8046.550
1050.256, 7698.440
1050.738, 7394.448
1051.220, 7151.407
1051.703, 6942.942
1052.185, 6733.952
1052.667, 6539.103
1053.149, 6388.422
1053.631, 6294.573
1054.113, 6212.613
1054.595, 6121.034
1055.077, 6050.508
1055.559, 6024.478
1056.042, 6035.021
1056.524, 6017.788
1057.006, 5978.382
1057.488, 5962.615
1057.970, 6021.776
1058.452, 6085.247
1058.934, 6103.737
1059.416, 6097.943
1059.899, 6107.934
1060.381, 6139.192
1060.863, 6172.172
1061.345, 6207.591
1061.827, 6235.126
1062.309, 6240.173
1062.791, 6232.903
1063.273, 6231.458
1063.755, 6236.836
1064.238, 6226.896
1064.720, 6187.347
1065.202, 6141.750
1065.684, 6098.600
1066.166, 6053.087
1066.648, 5992.714
1067.130, 5918.772
1067.612, 5828.599
1068.094, 5707.697
1068.577, 5603.450
1069.059, 5559.144
1069.541, 5534.649
1070.023, 5489.146
1070.505, 5417.085
1070.987, 5349.542
1071.469, 5285.359
1071.951, 5228.753
1072.434, 5186.294
1072.916, 5149.585
1073.398, 5103.582
1073.880, 5053.595
1074.362, 5019.277
1074.844, 5018.933
1075.326, 5009.483
1075.808, 4983.998
1076.291, 4950.255
1076.773, 4915.974
1077.255, 4882.430
1077.737, 4854.519
1078.219, 4833.397
1078.701, 4814.578
1079.183, 4800.400
1079.665, 4783.299
1080.147, 4755.197
1080.630, 4720.599
1081.112, 4710.107
1081.594, 4722.745
1082.076, 4727.289
1082.558, 4705.540
1083.040, 4683.714
1083.522, 4687.359
1084.004, 4704.242
1084.486, 4717.598
1084.969, 4721.074
1085.451, 4735.062
1085.933, 4761.600
1086.415, 4790.479
1086.897, 4814.897
1087.379, 4835.885
1087.861, 4855.311
1088.343, 4872.975
1088.826, 4887.907
1089.308, 4891.618
1089.790, 4904.222
1090.272, 4933.452
1090.754, 4967.766
1091.236, 4981.397
1091.718, 4982.697
1092.200, 5015.077
1092.682, 5086.720
1093.165, 5159.419
1093.647, 5210.524
1094.129, 5253.467
1094.611, 5295.097
1095.093, 5336.360
1095.575, 5386.616
1096.057, 5446.775
1096.539, 5491.728
1097.022, 5503.965
1097.504, 5511.816
1097.986, 5546.916
1098.468, 5594.625
1098.950, 5636.004
1099.432, 5675.121
1099.914, 5685.285
1100.396, 5657.936
1100.879, 5628.943
1101.361, 5635.263
1101.843, 5652.677
1102.325, 5627.625
1102.807, 5570.117
1103.289, 5519.796
1103.771, 5502.555
1104.253, 5477.362
1104.735, 5432.287
1105.218, 5381.955
1105.700, 5353.230
1106.182, 5338.598
1106.664, 5299.101
1107.146, 5229.567
1107.628, 5162.997
1108.110, 5116.640
1108.592, 5081.317
1109.074, 5055.832
1109.557, 5036.809
1110.039, 5013.405
1110.521, 4985.408
1111.003, 4955.644
1111.485, 4927.224
1111.967, 4891.486
1112.449, 4833.679
1112.931, 4768.612
1113.414, 4712.745
1113.896, 4670.652
1114.378, 4623.306
1114.860, 4569.948
1115.342, 4514.421
1115.824, 4455.050
1116.306, 4398.066
1116.788, 4354.234
1117.271, 4320.626
1117.753, 4290.084
1118.235, 4260.673
1118.717, 4235.412
1119.199, 4217.051
1119.681, 4197.589
1120.163, 4161.929
1120.645, 4119.857
1121.127, 4106.285
1121.609, 4119.074
1122.092, 4125.080
1122.574, 4098.431
1123.056, 4073.399
1123.538, 4060.371
1124.020, 4056.325
1124.502, 4057.926
1124.984, 4064.128
1125.466, 4064.941
1125.949, 4057.820
1126.431, 4051.835
1126.913, 4059.068
1127.395, 4064.834
1127.877, 4056.598
1128.359, 4036.336
1128.841, 4017.864
1129.323, 4000.906
1129.806, 3990.897
1130.288, 3993.242
1130.770, 3995.923
1131.252, 3977.084
1131.734, 3955.847
1132.216, 3961.360
1132.698, 4010.162
1133.180, 4032.413
1133.662, 4021.793
1134.145, 4010.708
1134.627, 4022.582
1135.109, 4044.887
1135.591, 4061.041
1136.073, 4071.333
1136.555, 4076.069
1137.037, 4068.035
1137.519, 4065.883
1138.001, 4072.474
1138.484, 4081.344
1138.966, 4082.977
1139.448, 4082.386
1139.930, 4096.219
1140.412, 4122.931
1140.894, 4139.833
1141.376, 4133.028
1141.858, 4120.456
1142.341, 4105.076
1142.823, 4088.978
1143.305, 4073.997
1143.787, 4061.210
1144.269, 4056.552
1144.751, 4061.743
1145.233, 4066.697
1145.715, 4071.748
1146.198, 4067.897
1146.680, 4045.337
1147.162, 4010.984
1147.644, 4002.385
1148.126, 4017.245
1148.608, 4023.335
1149.090, 4005.284
1149.572, 3989.647
1150.054, 4005.364
1150.536, 4026.615
1151.019, 4024.264
1151.501, 3994.472
1151.983, 3995.864
1152.465, 4029.928
1152.947, 4057.829
1153.429, 4052.722
1153.911, 4038.725
1154.393, 4033.302
1154.876, 4036.605
1155.358, 4051.383
1155.840, 4085.776
1156.322, 4103.373
1156.804, 4101.209
1157.286, 4094.904
1157.768, 4096.408
1158.250, 4101.446
1158.733, 4105.791
1159.215, 4109.048
1159.697, 4110.396
1160.179, 4109.004
1160.661, 4107.125
1161.143, 4104.457
1161.625, 4102.949
1162.107, 4108.603
1162.589, 4115.199
1163.072, 4108.381
1163.554, 4088.511
1164.036, 4079.304
1164.518, 4102.180
1165.000, 4107.974
1165.482, 4077.545
1165.964, 4036.269
1166.446, 4033.010
1166.928, 4054.188
1167.411, 4069.607
1167.893, 4072.842
1168.375, 4076.644
1168.857, 4080.871
1169.339, 4093.154
1169.821, 4122.139
1170.303, 4157.079
1170.785, 4160.812
1171.268, 4143.262
1171.750, 4137.701
1172.232, 4158.034
1172.714, 4182.520
1173.196, 4208.886
1173.678, 4230.125
1174.160, 4237.599
1174.642, 4235.312
1175.125, 4255.776
1175.607, 4293.377
1176.089, 4316.000
1176.571, 4293.605
1177.053, 4272.998
1177.535, 4277.458
1178.017, 4291.404
1178.499, 4305.087
1178.981, 4318.368
1179.464, 4304.305
1179.946, 4264.810
1180.428, 4234.142
1180.910, 4246.969
1181.392, 4260.040
1181.874, 4245.075
1182.356, 4218.130
1182.838, 4206.448
1183.320, 4210.892
1183.803, 4198.913
1184.285, 4167.435
1184.767, 4135.732
1185.249, 4122.294
1185.731, 4109.487
1186.213, 4083.597
1186.695, 4048.976
1187.177, 4016.009
1187.660, 3983.897
1188.142, 3970.580
1188.624, 3982.206
1189.106, 3987.565
1189.588, 3944.330
1190.070, 3895.698
1190.552, 3879.091
1191.034, 3891.802
1191.516, 3903.450
1191.999, 3914.648
1192.481, 3916.896
1192.963, 3904.590
1193.445, 3896.158
1193.927, 3919.193
1194.409, 3949.177
1194.891, 3957.579
1195.373, 3942.115
1195.855, 3942.576
1196.338, 3960.526
1196.820, 3980.896
1197.302, 3998.030
1197.784, 4014.369
1198.266, 4036.570
1198.748, 4057.371
1199.230, 4063.964
1199.712, 4050.047
1200.195, 4057.390
1200.677, 4088.497
1201.159, 4123.769
1201.641, 4155.506
1202.123, 4182.255
1202.605, 4199.156
1203.087, 4210.771
1203.569, 4225.313
1204.052, 4245.098
1204.534, 4264.857
1205.016, 4285.820
1205.498, 4300.295
1205.980, 4300.423
1206.462, 4293.484
1206.944, 4283.513
1207.426, 4273.750
1207.908, 4273.696
1208.391, 4294.062
1208.873, 4293.411
1209.355, 4267.488
1209.837, 4234.028
1210.319, 4206.337
1210.801, 4180.960
1211.283, 4149.164
1211.765, 4116.374
1212.247, 4106.181
1212.730, 4134.583
1213.212, 4133.788
1213.694, 4091.239
1214.176, 4045.841
1214.658, 4043.124
1215.140, 4051.973
1215.622, 4033.971
1216.104, 3992.417
1216.587, 3959.310
1217.069, 3935.344
1217.551, 3924.774
1218.033, 3929.736
1218.515, 3941.963
1218.997, 3952.965
1219.479, 3965.663
1219.961, 3987.218
1220.443, 4016.264
1220.926, 4029.321
1221.408, 4018.245
1221.890, 4022.685
1222.372, 4056.301
1222.854, 4092.656
1223.336, 4100.370
1223.818, 4092.913
1224.300, 4082.694
1224.782, 4071.194
1225.265, 4066.053
1225.747, 4066.349
1226.229, 4079.444
1226.711, 4112.508
1227.193, 4145.694
1227.675, 4156.274
1228.157, 4152.452
1228.639, 4142.994
1229.122, 4128.652
1229.604, 4108.428
1230.086, 4081.582
1230.568, 4052.879
1231.050, 4022.887
1231.532, 3994.493
1232.014, 3970.156
1232.496, 3949.941
1232.979, 3934.997
1233.461, 3926.451
1233.943, 3909.775
1234.425, 3884.157
1234.907, 3859.614
1235.389, 3839.349
1235.871, 3824.646
1236.353, 3821.484
1236.835, 3821.542
1237.318, 3812.857
1237.800, 3793.470
1238.282, 3779.562
1238.764, 3771.634
1239.246, 3760.442
1239.728, 3731.092
1240.210, 3709.155
1240.692, 3729.119
1241.175, 3763.063
1241.657, 3769.954
1242.139, 3741.838
1242.621, 3740.110
1243.103, 3765.038
1243.585, 3782.064
1244.067, 3760.730
1244.549, 3734.493
1245.031, 3726.777
1245.514, 3727.497
1245.996, 3720.510
1246.478, 3704.202
1246.960, 3701.753
1247.442, 3712.848
1247.924, 3723.619
1248.406, 3721.867
1248.888, 3720.811
1249.370, 3734.977
1249.853, 3749.659
1250.335, 3741.502
1250.817, 3711.785
1251.299, 3699.207
1251.781, 3704.579
1252.263, 3713.154
1252.745, 3720.735
1253.227, 3723.683
1253.710, 3719.836
1254.192, 3710.910
1254.674, 3696.364
1255.156, 3677.579
1255.638, 3664.316
1256.120, 3657.042
1256.602, 3653.635
1257.084, 3655.150
1257.567, 3657.652
1258.049, 3659.486
1258.531, 3661.909
1259.013, 3670.009
1259.495, 3680.101
1259.977, 3674.312
1260.459, 3653.400
1260.941, 3640.521
1261.423, 3658.077
1261.906, 3667.910
1262.388, 3657.108
1262.870, 3642.406
1263.352, 3651.243
1263.834, 3673.821
1264.316, 3689.478
1264.798, 3696.091
1265.280, 3695.097
1265.762, 3681.736
1266.245, 3668.333
1266.727, 3655.602
1267.209, 3646.807
1267.691, 3653.657
1268.173, 3663.971
1268.655, 3649.995
1269.137, 3612.118
1269.619, 3602.255
1270.102, 3638.880
1270.584, 3666.213
1271.066, 3673.166
1271.548, 3665.381
1272.030, 3635.359
1272.512, 3604.313
1272.994, 3601.557
1273.476, 3627.672
1273.958, 3646.869
1274.441, 3658.574
1274.923, 3659.081
1275.405, 3645.458
1275.887, 3629.972
1276.369, 3621.169
1276.851, 3619.952
1277.333, 3630.172
1277.815, 3649.790
1278.297, 3671.165
1278.780, 3695.195
1279.262, 3693.995
1279.744, 3656.786
1280.226, 3620.729
1280.708, 3616.026
1281.190, 3623.823
1281.672, 3632.275
1282.154, 3641.101
1282.637, 3650.282
1283.119, 3660.161
1283.601, 3676.675
1284.083, 3703.861
1284.565, 3718.313
1285.047, 3689.376
1285.529, 3662.739
1286.011, 3663.354
1286.494, 3680.063
1286.976, 3682.739
1287.458, 3674.465
1287.940, 3663.240
1288.422, 3649.340
1288.904, 3644.335
1289.386, 3660.105
1289.868, 3676.176
1290.350, 3687.940
1290.833, 3693.316
1291.315, 3679.417
1291.797, 3658.649
1292.279, 3658.731
1292.761, 3688.034
1293.243, 3707.419
1293.725, 3711.201
1294.207, 3708.182
1294.689, 3699.090
1295.172, 3689.706
1295.654, 3690.945
1296.136, 3695.711
1296.618, 3692.428
1297.100, 3678.423
1297.582, 3678.080
1298.064, 3693.986
1298.546, 3706.615
1299.029, 3708.947
1299.511, 3708.998
1299.993, 3720.491
1300.475, 3729.853
1300.957, 3716.265
1301.439, 3685.630
1301.921, 3683.716
1302.403, 3709.071
1302.885, 3716.062
1303.368, 3686.561
1303.850, 3660.909
1304.332, 3674.716
1304.814, 3694.670
1305.296, 3700.782
1305.778, 3695.872
1306.260, 3688.617
1306.742, 3679.333
1307.224, 3667.057
1307.707, 3649.381
1308.189, 3641.814
1308.671, 3657.091
1309.153, 3676.336
##END=



