##NAMES=Burbankite
##RRUFFID=R110199
##IDEAL CHEMISTRY=(Na,Ca)_3_(Sr,Ba,Ce)_3_(CO_3_)_5_
##LOCALITY=Poudrette quarry, Mont Saint-Hilaire, Quebec, Canada
##OWNER=RRUFF
##SOURCE=Donald Doell
##DESCRIPTION=Tufts of white lathlike crystals
##STATUS=The identification of this mineral has been confirmed only by single crystal X-ray diffraction.
##URL=rruff.info/R110199
188.3619, 256.6997
188.8440, 261.1809
189.3261, 264.5286
189.8082, 266.8166
190.2903, 268.5288
190.7725, 269.7494
191.2546, 270.5645
191.7367, 271.3623
192.2188, 272.1687
192.7009, 272.9563
193.1830, 273.4370
193.6652, 273.5977
194.1473, 274.3082
194.6294, 276.2490
195.1115, 279.3182
195.5936, 282.3126
196.0757, 285.2173
196.5579, 287.9309
197.0400, 290.2743
197.5221, 292.2496
198.0042, 291.0294
198.4863, 295.1774
198.9684, 297.7931
199.4506, 298.9590
199.9327, 294.3324
200.4148, 297.1855
200.8969, 297.0411
201.3790, 296.7738
201.8611, 300.6797
202.3433, 296.8957
202.8254, 300.7353
203.3075, 301.5317
203.7896, 303.7210
204.2717, 302.8941
204.7538, 302.9989
205.2360, 306.1208
205.7181, 307.5720
206.2002, 306.3979
206.6823, 308.6757
207.1644, 304.7862
207.6465, 306.3086
208.1287, 310.1660
208.6108, 309.1436
209.0929, 310.2481
209.5750, 312.2826
210.0571, 313.0254
210.5392, 312.0872
211.0214, 311.8274
211.5035, 312.8389
211.9856, 314.5441
212.4677, 314.6831
212.9498, 312.4938
213.4319, 310.4634
213.9140, 310.3913
214.3962, 313.1195
214.8783, 314.7096
215.3604, 314.3301
215.8425, 312.6378
216.3246, 312.4482
216.8067, 314.4875
217.2889, 316.6176
217.7710, 317.3009
218.2531, 315.6592
218.7352, 312.5272
219.2173, 316.5227
219.6994, 318.9859
220.1816, 319.9994
220.6637, 315.2203
221.1458, 317.9210
221.6279, 317.6241
222.1100, 317.2044
222.5921, 320.9578
223.0743, 317.0213
223.5564, 320.7086
224.0385, 321.3525
224.5206, 323.3893
225.0027, 322.4101
225.4848, 322.3624
225.9670, 325.3318
226.4491, 326.6306
226.9312, 323.6281
227.4133, 324.0021
227.8954, 323.7543
228.3775, 322.4479
228.8597, 321.1697
229.3418, 320.6651
229.8239, 321.4212
230.3060, 321.8087
230.7881, 321.6264
231.2702, 320.9659
231.7524, 320.2070
232.2345, 319.0513
232.7166, 318.2105
233.1987, 318.2513
233.6808, 319.9290
234.1629, 320.7834
234.6451, 320.4825
235.1272, 319.2269
235.6093, 317.8574
236.0914, 316.2100
236.5735, 314.6737
237.0556, 313.3785
237.5378, 311.9777
238.0199, 311.6614
238.5020, 313.0638
238.9841, 315.6247
239.4662, 314.1653
239.9483, 317.4416
240.4305, 319.1857
240.9126, 319.4799
241.3947, 313.9816
241.8768, 315.9631
242.3589, 314.9471
242.8410, 313.8081
243.3232, 316.8423
243.8053, 312.1866
244.2874, 315.1547
244.7695, 315.0794
245.2516, 316.3971
245.7337, 314.6986
246.2159, 313.9317
246.6980, 316.1818
247.1801, 316.7614
247.6622, 314.7158
248.1443, 316.1219
248.6264, 311.3608
249.1086, 312.0116
249.5907, 314.9973
250.0728, 313.1033
250.5549, 314.5646
251.0370, 314.7480
251.5191, 309.1240
252.0013, 313.5996
252.4834, 313.7076
252.9655, 309.3307
253.4476, 313.4603
253.9297, 309.7017
254.4118, 308.7588
254.8940, 309.9347
255.3761, 308.9017
255.8582, 311.3513
256.3403, 310.4460
256.8224, 309.2408
257.3046, 309.3438
257.7867, 305.7399
258.2688, 309.0130
258.7509, 307.5886
259.2330, 308.4992
259.7151, 309.9391
260.1973, 307.3263
260.6794, 309.0040
261.1615, 304.0282
261.6436, 304.6197
262.1257, 304.6116
262.6078, 308.1620
263.0900, 303.2186
263.5721, 303.6553
264.0542, 306.3829
264.5363, 305.9051
265.0184, 306.7675
265.5005, 303.6624
265.9827, 304.2844
266.4648, 303.8791
266.9469, 304.1870
267.4290, 304.3951
267.9111, 305.5007
268.3932, 307.6245
268.8754, 308.3867
269.3575, 307.4174
269.8396, 305.6476
270.3217, 304.1105
270.8038, 302.7163
271.2859, 301.9134
271.7681, 302.0425
272.2502, 303.0526
272.7323, 303.5277
273.2144, 303.3857
273.6965, 302.8516
274.1786, 301.8788
274.6608, 300.2018
275.1429, 299.6002
275.6250, 301.0704
276.1071, 304.1450
276.5892, 305.0163
277.0714, 303.1432
277.5535, 300.5726
278.0356, 299.2388
278.5177, 299.2609
278.9998, 299.2112
279.4819, 298.5952
279.9641, 297.7206
280.4462, 298.4340
280.9283, 301.2343
281.4104, 303.4789
281.8925, 302.2001
282.3746, 297.3258
282.8568, 294.4242
283.3389, 294.9996
283.8210, 297.6594
284.3031, 298.5492
284.7852, 297.5515
285.2673, 295.8636
285.7495, 294.1280
286.2316, 292.3651
286.7137, 290.7887
287.1958, 289.4291
287.6779, 288.2687
288.1600, 287.2872
288.6422, 286.4839
289.1243, 285.7997
289.6064, 285.0779
290.0885, 284.3954
290.5706, 284.4566
291.0527, 285.6278
291.5349, 286.7903
292.0170, 285.5196
292.4991, 282.0809
292.9812, 279.3730
293.4633, 279.3504
293.9454, 281.3432
294.4276, 283.5326
294.9097, 285.9537
295.3918, 287.8885
295.8739, 288.1333
296.3560, 286.9593
296.8381, 285.6531
297.3203, 285.0127
297.8024, 284.6369
298.2845, 283.3025
298.7666, 280.8377
299.2487, 278.9109
299.7308, 279.9198
300.2130, 282.9268
300.6951, 285.2041
301.1772, 284.7958
301.6593, 283.4580
302.1414, 284.2351
302.6235, 287.0590
303.1057, 289.3344
303.5878, 288.0411
304.0699, 284.7392
304.5520, 282.3553
305.0341, 282.3693
305.5162, 283.2248
305.9984, 283.4472
306.4805, 283.0810
306.9626, 282.4399
307.4447, 281.4033
307.9268, 280.3233
308.4089, 279.7639
308.8911, 280.3173
309.3732, 280.7346
309.8553, 279.6162
310.3374, 277.4195
310.8195, 275.6662
311.3016, 275.4732
311.7838, 275.9980
312.2659, 276.5631
312.7480, 277.1498
313.2301, 277.4847
313.7122, 277.2820
314.1943, 276.7117
314.6765, 276.1363
315.1586, 275.8399
315.6407, 275.5079
316.1228, 274.8481
316.6049, 273.7040
317.0870, 272.7721
317.5692, 272.6115
318.0513, 272.8015
318.5334, 272.7544
319.0155, 271.7867
319.4976, 270.9668
319.9797, 270.9384
320.4619, 271.8281
320.9440, 272.4136
321.4261, 272.3901
321.9082, 271.8631
322.3903, 270.9283
322.8724, 268.7643
323.3546, 267.0378
323.8367, 266.2674
324.3188, 266.4351
324.8009, 266.8015
325.2830, 267.6195
325.7651, 268.3729
326.2473, 268.7260
326.7294, 268.3460
327.2115, 267.9269
327.6936, 267.4984
328.1757, 267.0791
328.6578, 266.7170
329.1400, 265.9994
329.6221, 265.6937
330.1042, 266.2508
330.5863, 269.3978
331.0684, 270.4775
331.5505, 267.9455
332.0327, 263.6231
332.5148, 261.6423
332.9969, 263.4690
333.4790, 265.6814
333.9611, 267.3067
334.4432, 268.4339
334.9254, 268.4459
335.4075, 266.6758
335.8896, 264.3401
336.3717, 263.2182
336.8538, 263.8617
337.3359, 264.4068
337.8180, 264.3526
338.3001, 263.7109
338.7823, 262.8946
339.2644, 261.6957
339.7465, 260.7587
340.2286, 260.8969
340.7107, 262.3344
341.1928, 263.5461
341.6750, 264.2328
342.1571, 264.4805
342.6392, 264.6099
343.1213, 264.6674
343.6034, 264.3862
344.0855, 263.0617
344.5677, 260.7969
345.0498, 260.1306
345.5319, 261.7932
346.0140, 264.4914
346.4961, 265.7626
346.9782, 265.6473
347.4604, 265.2021
347.9425, 264.8073
348.4246, 264.5319
348.9067, 264.7538
349.3888, 265.5765
349.8709, 266.4800
350.3531, 266.8244
350.8352, 266.7087
351.3173, 266.5033
351.7994, 266.0829
352.2815, 265.7635
352.7636, 266.2786
353.2458, 267.6240
353.7279, 268.8984
354.2100, 269.4398
354.6921, 269.3723
355.1742, 268.8427
355.6563, 267.2946
356.1385, 265.9384
356.6206, 266.2365
357.1027, 267.8922
357.5848, 269.4178
358.0669, 270.2475
358.5490, 270.3795
359.0312, 269.6586
359.5133, 267.6221
359.9954, 265.7221
360.4775, 264.9655
360.9596, 264.9547
361.4417, 264.8539
361.9239, 264.1980
362.4060, 263.4583
362.8881, 262.8963
363.3702, 262.5670
363.8523, 262.2754
364.3344, 262.0067
364.8166, 261.7262
365.2987, 261.3916
365.7808, 260.2475
366.2629, 259.8040
366.7450, 260.7719
367.2271, 263.1454
367.7093, 265.2462
368.1914, 267.3566
368.6735, 268.8329
369.1556, 269.2447
369.6377, 267.3975
370.1198, 265.9456
370.6020, 264.9869
371.0841, 264.4896
371.5662, 264.3827
372.0483, 265.0215
372.5304, 265.6126
373.0125, 265.7787
373.4947, 265.2593
373.9768, 265.0575
374.4589, 265.2382
374.9410, 265.6817
375.4231, 266.2318
375.9052, 266.9629
376.3874, 267.6212
376.8695, 268.1563
377.3516, 268.5760
377.8337, 268.7611
378.3158, 268.6771
378.7979, 268.4848
379.2801, 268.2503
379.7622, 267.9581
380.2443, 268.0299
380.7264, 268.6971
381.2085, 269.6577
381.6906, 269.9892
382.1728, 269.6742
382.6549, 269.4430
383.1370, 270.0557
383.6191, 271.2169
384.1012, 271.6714
384.5833, 271.1813
385.0655, 270.3351
385.5476, 269.7593
386.0297, 269.4489
386.5118, 269.4297
386.9939, 270.0756
387.4760, 270.8736
387.9582, 270.8211
388.4403, 269.8914
388.9224, 269.3037
389.4045, 271.0185
389.8866, 273.4550
390.3687, 274.2718
390.8509, 271.0459
391.3330, 267.7539
391.8151, 267.5972
392.2972, 269.9156
392.7793, 271.9936
393.2614, 272.3500
393.7436, 272.0445
394.2257, 271.8453
394.7078, 271.9991
395.1899, 271.9778
395.6720, 271.1898
396.1541, 270.1738
396.6363, 269.7970
397.1184, 271.0960
397.6005, 272.2943
398.0826, 272.7022
398.5647, 272.1775
399.0468, 271.7931
399.5290, 271.9198
400.0111, 272.0746
400.4932, 271.8579
400.9753, 270.6797
401.4574, 269.9271
401.9395, 269.8467
402.4217, 270.3145
402.9038, 270.7075
403.3859, 270.7318
403.8680, 271.1165
404.3501, 272.5013
404.8322, 275.6176
405.3144, 276.9758
405.7965, 275.9822
406.2786, 273.9219
406.7607, 272.8205
407.2428, 272.8077
407.7249, 273.0753
408.2071, 273.5653
408.6892, 274.1525
409.1713, 273.7315
409.6534, 272.0922
410.1355, 270.6548
410.6176, 271.1849
411.0998, 273.2711
411.5819, 274.3820
412.0640, 273.7079
412.5461, 272.3806
413.0282, 272.2200
413.5103, 273.0927
413.9925, 274.1924
414.4746, 275.4422
414.9567, 276.5004
415.4388, 276.6813
415.9209, 275.8593
416.4030, 274.8549
416.8852, 274.1616
417.3673, 273.7748
417.8494, 273.6788
418.3315, 274.4411
418.8136, 275.0216
419.2957, 274.4372
419.7779, 272.9047
420.2600, 271.8093
420.7421, 272.2398
421.2242, 273.0817
421.7063, 273.4979
422.1884, 273.0710
422.6706, 272.7411
423.1527, 272.9532
423.6348, 273.3916
424.1169, 273.4642
424.5990, 272.5877
425.0811, 271.8055
425.5633, 271.4151
426.0454, 271.4408
426.5275, 271.6838
427.0096, 272.4629
427.4917, 273.1999
427.9738, 273.3555
428.4560, 272.4578
428.9381, 271.9620
429.4202, 272.1034
429.9023, 272.7396
430.3844, 273.5434
430.8665, 274.7362
431.3487, 275.4462
431.8308, 274.7691
432.3129, 272.5636
432.7950, 272.2782
433.2771, 274.5040
433.7592, 277.1683
434.2414, 277.2018
434.7235, 274.8543
435.2056, 273.1432
435.6877, 273.2556
436.1698, 274.4401
436.6519, 275.4483
437.1341, 276.2440
437.6162, 276.2724
438.0983, 274.1979
438.5804, 271.2997
439.0625, 269.9363
439.5446, 270.7802
440.0268, 272.2263
440.5089, 273.1522
440.9910, 273.6170
441.4731, 273.7337
441.9552, 273.1009
442.4373, 272.4943
442.9195, 272.4367
443.4016, 272.9337
443.8837, 273.5575
444.3658, 274.4202
444.8479, 275.1729
445.3300, 275.5190
445.8122, 274.9132
446.2943, 274.5357
446.7764, 274.6112
447.2585, 275.0534
447.7406, 275.6474
448.2227, 277.1276
448.7049, 277.9987
449.1870, 277.5399
449.6691, 275.3550
450.1512, 274.3549
450.6333, 275.3232
451.1154, 276.6419
451.5976, 276.5655
452.0797, 274.4069
452.5618, 273.2340
453.0439, 273.8102
453.5260, 275.5289
454.0081, 276.5187
454.4903, 276.6884
454.9724, 276.7507
455.4545, 277.3551
455.9366, 278.3183
456.4187, 278.0650
456.9008, 276.3305
457.3830, 274.5655
457.8651, 274.8854
458.3472, 276.6631
458.8293, 277.7859
459.3114, 276.8951
459.7935, 275.7097
460.2757, 277.0762
460.7578, 280.4037
461.2399, 282.7446
461.7220, 281.1266
462.2041, 278.2920
462.6862, 276.9024
463.1684, 277.5703
463.6505, 278.6591
464.1326, 280.0789
464.6147, 281.2075
465.0968, 281.2482
465.5789, 277.9690
466.0611, 275.5996
466.5432, 276.0500
467.0253, 279.0349
467.5074, 281.0420
467.9895, 281.2719
468.4716, 280.7539
468.9538, 279.8306
469.4359, 277.8159
469.9180, 276.9559
470.4001, 277.6970
470.8822, 279.2726
471.3643, 280.7148
471.8465, 282.3114
472.3286, 282.8172
472.8107, 281.3314
473.2928, 278.4417
473.7749, 277.8609
474.2570, 279.9989
474.7392, 282.3092
475.2213, 282.6148
475.7034, 281.2572
476.1855, 280.6856
476.6676, 281.3130
477.1497, 282.2299
477.6319, 282.0577
478.1140, 281.1194
478.5961, 280.4678
479.0782, 281.0945
479.5603, 281.9200
480.0424, 281.2476
480.5246, 279.3163
481.0067, 278.0870
481.4888, 279.7115
481.9709, 282.0688
482.4530, 283.1211
482.9352, 281.8212
483.4173, 280.8399
483.8994, 281.4880
484.3815, 283.0588
484.8636, 284.4695
485.3457, 286.1963
485.8279, 286.9946
486.3100, 286.2433
486.7921, 283.9228
487.2742, 281.6868
487.7563, 278.7811
488.2384, 276.7093
488.7206, 276.5936
489.2027, 279.7084
489.6848, 281.1983
490.1669, 280.2975
490.6490, 278.5289
491.1311, 278.6099
491.6133, 280.9166
492.0954, 282.3869
492.5775, 281.5703
493.0596, 279.3314
493.5417, 279.2114
494.0238, 281.2380
494.5060, 283.2971
494.9881, 283.3954
495.4702, 282.3342
495.9523, 282.3092
496.4344, 283.8106
496.9165, 285.3773
497.3987, 285.4874
497.8808, 284.6260
498.3629, 283.7050
498.8450, 283.0318
499.3271, 282.4859
499.8092, 281.9462
500.2914, 281.4471
500.7735, 281.2074
501.2556, 281.8333
501.7377, 282.3590
502.2198, 282.0484
502.7019, 280.1566
503.1841, 279.1721
503.6662, 280.2643
504.1483, 282.0689
504.6304, 282.9293
505.1125, 281.6980
505.5946, 281.4581
506.0768, 283.4553
506.5589, 286.8882
507.0410, 287.2665
507.5231, 283.3176
508.0052, 279.8860
508.4873, 280.2822
508.9695, 284.5494
509.4516, 285.9623
509.9337, 283.9914
510.4158, 281.2008
510.8979, 280.5541
511.3800, 281.6597
511.8622, 282.8926
512.3443, 284.1104
512.8264, 284.8258
513.3085, 283.7220
513.7906, 281.3857
514.2728, 279.9200
514.7549, 281.5643
515.2370, 283.9077
515.7191, 284.8419
516.2012, 284.1559
516.6833, 283.1678
517.1655, 282.0245
517.6476, 281.0986
518.1297, 280.7110
518.6118, 281.2155
519.0939, 281.9068
519.5760, 282.7603
520.0582, 283.7258
520.5403, 284.7492
521.0224, 286.4106
521.5045, 287.2650
521.9866, 286.5131
522.4688, 284.1558
522.9509, 283.3429
523.4330, 284.6123
523.9151, 286.1501
524.3972, 286.2758
524.8793, 284.9383
525.3615, 284.8506
525.8436, 286.5783
526.3257, 288.7066
526.8078, 288.9258
527.2899, 287.5890
527.7720, 286.3473
528.2542, 285.7915
528.7363, 285.7378
529.2184, 286.2326
529.7005, 287.1341
530.1826, 287.6933
530.6647, 286.9767
531.1469, 286.0075
531.6290, 285.7825
532.1111, 286.6377
532.5932, 287.2723
533.0753, 286.7064
533.5574, 285.8701
534.0396, 285.7368
534.5217, 287.6653
535.0038, 288.9077
535.4859, 288.5387
535.9680, 287.1836
536.4501, 286.9302
536.9323, 288.7281
537.4144, 289.9917
537.8965, 289.4390
538.3786, 286.9999
538.8607, 286.0384
539.3428, 286.8989
539.8250, 288.1878
540.3071, 288.5460
540.7892, 288.0801
541.2713, 287.8709
541.7534, 288.1033
542.2355, 288.5706
542.7177, 289.0557
543.1998, 289.5497
543.6819, 290.0118
544.1640, 290.3083
544.6461, 290.6393
545.1282, 291.4338
545.6104, 292.5546
546.0925, 293.1768
546.5746, 292.5898
547.0567, 291.5616
547.5388, 290.4398
548.0209, 289.0335
548.5031, 288.3879
548.9852, 289.1015
549.4673, 290.4938
549.9494, 291.9141
550.4315, 294.3541
550.9136, 295.1360
551.3958, 293.0181
551.8779, 289.2953
552.3600, 288.0997
552.8421, 290.1244
553.3242, 292.2213
553.8063, 293.1570
554.2885, 293.0270
554.7706, 292.3916
555.2527, 291.1934
555.7348, 290.1064
556.2169, 289.5411
556.6990, 289.5520
557.1812, 290.5131
557.6633, 292.7708
558.1454, 294.8641
558.6275, 295.0195
559.1096, 294.0768
559.5917, 293.5182
560.0739, 294.8761
560.5560, 295.8853
561.0381, 294.8746
561.5202, 292.3804
562.0023, 290.7508
562.4844, 291.0649
562.9666, 291.9500
563.4487, 293.0758
563.9308, 294.7114
564.4129, 295.0608
564.8950, 293.1563
565.3771, 291.0176
565.8593, 290.4292
566.3414, 291.8300
566.8235, 292.8358
567.3056, 293.0500
567.7877, 293.0392
568.2698, 294.2152
568.7520, 296.4727
569.2341, 297.7878
569.7162, 296.8075
570.1983, 294.8233
570.6804, 294.2300
571.1625, 294.8829
571.6447, 295.7217
572.1268, 296.5856
572.6089, 297.0010
573.0910, 296.0648
573.5731, 293.3925
574.0552, 291.6475
574.5374, 293.0124
575.0195, 295.3790
575.5016, 296.7781
575.9837, 295.6545
576.4658, 294.9975
576.9479, 295.1802
577.4301, 295.9598
577.9122, 296.9555
578.3943, 298.5155
578.8764, 299.5446
579.3585, 299.4441
579.8406, 298.4882
580.3228, 299.0901
580.8049, 301.6176
581.2870, 303.3221
581.7691, 301.4886
582.2512, 297.1582
582.7333, 294.6032
583.2155, 294.1558
583.6975, 294.6011
584.1796, 295.1096
584.6617, 295.6556
585.1439, 296.2433
585.6260, 297.0856
586.1081, 297.5951
586.5902, 297.1675
587.0723, 296.1782
587.5544, 295.3602
588.0366, 294.2635
588.5187, 294.0142
589.0008, 295.4806
589.4829, 298.5338
589.9650, 300.6384
590.4471, 301.6871
590.9293, 301.8930
591.4114, 301.0369
591.8935, 298.7941
592.3756, 297.9604
592.8577, 298.9367
593.3398, 300.2339
593.8220, 300.0938
594.3041, 298.7383
594.7862, 297.8820
595.2683, 297.8470
595.7504, 298.3926
596.2325, 299.7327
596.7147, 301.4443
597.1968, 302.4045
597.6789, 301.2174
598.1610, 299.8749
598.6431, 300.0687
599.1252, 301.4606
599.6074, 302.4350
600.0895, 302.0867
600.5716, 301.4715
601.0537, 301.0773
601.5358, 300.9926
602.0179, 300.9079
602.5001, 300.9699
602.9822, 300.8797
603.4643, 300.2444
603.9464, 298.6690
604.4285, 298.2133
604.9106, 299.3077
605.3928, 300.9869
605.8749, 301.8594
606.3570, 301.9613
606.8391, 301.6803
607.3212, 300.8491
607.8033, 300.0602
608.2855, 300.5166
608.7676, 301.8781
609.2497, 302.9145
609.7318, 302.5432
610.2139, 301.8580
610.6960, 301.6675
611.1782, 302.0049
611.6603, 302.5303
612.1424, 303.4464
612.6245, 304.2848
613.1066, 304.7437
613.5887, 304.6694
614.0709, 304.5186
614.5530, 304.1513
615.0351, 303.8408
615.5172, 303.9206
615.9993, 304.5071
616.4814, 304.9344
616.9636, 305.0115
617.4457, 305.0277
617.9278, 305.8142
618.4099, 307.2474
618.8920, 308.0599
619.3741, 307.1463
619.8563, 305.7362
620.3384, 305.9126
620.8205, 307.3582
621.3026, 308.4964
621.7847, 308.5663
622.2668, 307.8716
622.7490, 306.2601
623.2311, 303.5802
623.7132, 301.7458
624.1953, 301.8062
624.6774, 302.5321
625.1595, 303.0631
625.6417, 303.1387
626.1238, 303.5579
626.6059, 304.5873
627.0880, 305.6753
627.5701, 306.0138
628.0522, 305.5274
628.5344, 304.9875
629.0165, 304.4239
629.4986, 304.0882
629.9807, 304.7676
630.4628, 306.2510
630.9449, 307.3881
631.4271, 307.2831
631.9092, 306.7572
632.3913, 306.8732
632.8734, 307.4759
633.3555, 307.5907
633.8376, 305.3685
634.3198, 303.5677
634.8019, 304.3901
635.2840, 308.8724
635.7661, 311.5476
636.2482, 310.5054
636.7303, 308.6422
637.2125, 307.9161
637.6946, 308.7612
638.1767, 309.4820
638.6588, 309.9400
639.1409, 310.3974
639.6230, 311.5570
640.1052, 313.3219
640.5873, 313.9819
641.0694, 312.8396
641.5515, 310.8438
642.0336, 308.9891
642.5157, 307.4239
642.9979, 306.5582
643.4800, 307.0914
643.9621, 307.9961
644.4442, 308.7087
644.9263, 309.2052
645.4084, 309.4268
645.8906, 308.9202
646.3727, 308.5099
646.8548, 308.8279
647.3369, 310.1163
647.8190, 310.1402
648.3011, 307.9189
648.7833, 305.9057
649.2654, 306.2936
649.7475, 309.3643
650.2296, 311.2759
650.7117, 311.6301
651.1938, 311.5534
651.6760, 312.7133
652.1581, 314.6122
652.6402, 315.6157
653.1223, 315.0533
653.6044, 313.9820
654.0865, 313.2584
654.5687, 312.7152
655.0508, 312.0286
655.5329, 309.9432
656.0150, 308.8488
656.4971, 310.4189
656.9792, 314.0129
657.4614, 316.2323
657.9435, 316.2858
658.4256, 315.8845
658.9077, 315.5277
659.3898, 315.2064
659.8719, 314.5821
660.3541, 313.5194
660.8362, 312.7861
661.3183, 313.2115
661.8004, 314.4507
662.2825, 315.0414
662.7646, 314.8675
663.2468, 314.7034
663.7289, 315.3556
664.2110, 316.3833
664.6931, 317.1375
665.1752, 317.2359
665.6573, 317.7110
666.1395, 319.9628
666.6216, 322.4933
667.1037, 323.4589
667.5858, 320.7841
668.0679, 318.8466
668.5500, 318.2593
669.0322, 318.4774
669.5143, 318.1515
669.9964, 316.9801
670.4785, 316.8526
670.9606, 318.9571
671.4427, 322.0683
671.9249, 322.2148
672.4070, 319.7827
672.8891, 317.8825
673.3712, 319.3180
673.8533, 321.7115
674.3354, 322.1212
674.8176, 320.6554
675.2997, 319.2484
675.7818, 318.6830
676.2639, 318.6382
676.7460, 318.9731
677.2281, 319.7360
677.7103, 320.6679
678.1924, 322.2001
678.6745, 323.4457
679.1566, 323.5027
679.6387, 321.8670
680.1208, 321.6634
680.6030, 323.4234
681.0851, 325.6438
681.5672, 326.1712
682.0493, 325.4565
682.5314, 325.6481
683.0135, 327.7128
683.4957, 329.7593
683.9778, 329.1739
684.4599, 327.2008
684.9420, 326.2010
685.4241, 327.7702
685.9063, 329.6994
686.3884, 331.3700
686.8705, 332.7774
687.3526, 333.9654
687.8347, 335.0091
688.3168, 335.7734
688.7990, 336.1707
689.2811, 336.2534
689.7632, 336.1740
690.2453, 335.8426
690.7274, 335.9686
691.2095, 337.3998
691.6917, 339.5703
692.1738, 340.7973
692.6559, 341.0674
693.1380, 340.9326
693.6201, 340.3860
694.1022, 339.8654
694.5844, 339.8766
695.0665, 340.5702
695.5486, 341.1755
696.0307, 341.2537
696.5128, 341.2456
696.9949, 341.5449
697.4771, 342.6129
697.9592, 342.9596
698.4413, 342.1756
698.9234, 341.2027
699.4055, 341.2954
699.8876, 342.4800
700.3698, 343.5783
700.8519, 344.4457
701.3340, 344.9990
701.8161, 344.8510
702.2982, 344.2910
702.7803, 344.0619
703.2625, 344.8263
703.7446, 345.5420
704.2267, 345.3523
704.7088, 344.6061
705.1909, 344.0682
705.6730, 343.5823
706.1552, 343.7609
706.6373, 345.2066
707.1194, 347.4796
707.6015, 348.4111
708.0836, 347.5085
708.5657, 346.7162
709.0479, 346.8892
709.5300, 347.7950
710.0121, 348.5016
710.4942, 349.0119
710.9763, 349.4133
711.4584, 349.8237
711.9406, 350.1333
712.4227, 350.1260
712.9048, 349.8075
713.3869, 349.5768
713.8690, 349.6890
714.3511, 349.9193
714.8333, 350.2370
715.3154, 350.8976
715.7975, 350.6888
716.2796, 349.0304
716.7617, 347.2235
717.2438, 346.4297
717.7260, 346.8104
718.2081, 346.3972
718.6902, 344.8784
719.1723, 343.4007
719.6544, 343.6652
720.1365, 345.0186
720.6187, 345.8373
721.1008, 345.7466
721.5829, 345.1084
722.0650, 343.7648
722.5471, 342.1808
723.0292, 340.9527
723.5114, 339.9589
723.9935, 339.7267
724.4756, 340.6909
724.9577, 342.3187
725.4398, 343.9068
725.9219, 345.7285
726.4041, 346.4457
726.8862, 345.2293
727.3683, 343.3125
727.8504, 344.4413
728.3325, 348.0533
728.8146, 350.2843
729.2968, 348.5350
729.7789, 345.2322
730.2610, 342.6576
730.7431, 340.7794
731.2252, 339.4925
731.7073, 338.7472
732.1895, 338.5878
732.6716, 339.3685
733.1537, 340.9877
733.6358, 342.0247
734.1179, 342.6243
734.6000, 342.3553
735.0822, 340.5070
735.5643, 337.4036
736.0464, 336.7516
736.5285, 338.6694
737.0106, 340.7097
737.4927, 341.1758
737.9749, 340.5945
738.4570, 339.3885
738.9391, 337.6537
739.4212, 336.8952
739.9033, 339.1851
740.3854, 341.9398
740.8676, 343.2202
741.3497, 342.3900
741.8318, 341.7224
742.3139, 341.5100
742.7960, 341.3387
743.2781, 340.7677
743.7603, 339.6117
744.2424, 339.5912
744.7245, 341.0001
745.2066, 342.5218
745.6887, 342.6985
746.1708, 341.9244
746.6530, 341.1122
747.1351, 340.3434
747.6172, 339.9586
748.0993, 340.5468
748.5814, 341.5135
749.0635, 342.1623
749.5457, 341.8263
750.0278, 342.0037
750.5099, 343.1555
750.9920, 344.7092
751.4741, 346.1036
751.9562, 347.4087
752.4384, 348.1157
752.9205, 348.0244
753.4026, 347.5518
753.8847, 347.2047
754.3668, 347.0173
754.8489, 347.1307
755.3311, 347.5973
755.8132, 348.3539
756.2953, 350.0045
756.7774, 351.7863
757.2595, 352.3274
757.7416, 349.2749
758.2238, 347.2187
758.7059, 347.9149
759.1880, 350.1176
759.6701, 351.1989
760.1522, 350.7654
760.6343, 350.5599
761.1165, 351.1339
761.5986, 352.1029
762.0807, 352.4601
762.5628, 352.3111
763.0449, 352.2636
763.5270, 352.6460
764.0092, 353.2117
764.4913, 353.9998
764.9734, 354.8140
765.4555, 355.0620
765.9376, 353.0784
766.4197, 352.0173
766.9019, 353.7901
767.3840, 357.5785
767.8661, 359.5211
768.3482, 359.0701
768.8303, 358.3647
769.3124, 358.3112
769.7946, 357.6998
770.2767, 358.1217
770.7588, 356.9035
771.2409, 355.8909
771.7230, 355.6367
772.2051, 355.8645
772.6873, 356.3920
773.1694, 357.1906
773.6515, 358.0949
774.1336, 359.5237
774.6157, 360.5873
775.0978, 360.7195
775.5800, 359.9738
776.0621, 359.6826
776.5442, 359.8963
777.0263, 360.4355
777.5084, 361.3888
777.9905, 362.6035
778.4727, 363.3517
778.9548, 363.6404
779.4369, 363.6328
779.9190, 363.1481
780.4011, 362.6119
780.8832, 362.5408
781.3654, 362.9568
781.8475, 363.1650
782.3296, 362.6853
782.8117, 362.1693
783.2938, 361.8424
783.7759, 361.6705
784.2581, 362.2279
784.7402, 363.7470
785.2223, 365.2735
785.7044, 366.0956
786.1865, 366.3832
786.6686, 366.8142
787.1508, 367.4134
787.6329, 368.0411
788.1150, 368.4955
788.5971, 369.0033
789.0792, 370.0695
789.5613, 371.9321
790.0435, 372.6147
790.5256, 369.6581
791.0077, 367.1653
791.4898, 367.7283
791.9719, 372.0968
792.4540, 373.7921
792.9362, 372.2166
793.4183, 370.2933
793.9004, 370.8681
794.3825, 372.9866
794.8646, 373.7733
795.3467, 373.0145
795.8289, 372.3301
796.3110, 373.6078
796.7931, 375.0142
797.2752, 374.6546
797.7573, 371.5909
798.2394, 370.0447
798.7216, 371.3716
799.2037, 373.3370
799.6858, 374.5605
800.1679, 374.9233
800.6500, 375.5307
801.1321, 376.4158
801.6143, 377.3990
802.0964, 378.5214
802.5785, 379.5675
803.0606, 379.8791
803.5427, 379.3077
804.0248, 379.2657
804.5070, 381.3326
804.9891, 383.7408
805.4712, 385.1086
805.9533, 384.9500
806.4354, 384.7617
806.9175, 384.5306
807.3997, 384.2962
807.8818, 384.0464
808.3639, 383.7859
808.8460, 383.6576
809.3281, 383.6511
809.8102, 383.9599
810.2924, 385.0041
810.7745, 386.3619
811.2566, 387.7213
811.7387, 389.1359
812.2208, 389.4327
812.7029, 386.7134
813.1851, 383.7687
813.6672, 382.5177
814.1493, 383.1980
814.6314, 384.7871
815.1135, 387.6979
815.5956, 390.4558
816.0778, 391.6620
816.5599, 391.6383
817.0420, 391.8089
817.5241, 392.2495
818.0062, 392.7488
818.4883, 393.1368
818.9705, 393.5027
819.4526, 393.9357
819.9347, 394.4517
820.4168, 394.9547
820.8989, 395.4429
821.3810, 395.8911
821.8632, 396.2621
822.3453, 396.5351
822.8274, 397.0179
823.3095, 397.7505
823.7916, 398.4413
824.2737, 399.0226
824.7559, 399.3501
825.2380, 398.7827
825.7201, 397.3434
826.2022, 396.4884
826.6843, 398.1640
827.1664, 399.9056
827.6486, 399.6985
828.1307, 396.9189
828.6128, 395.6601
829.0949, 396.5298
829.5770, 397.8711
830.0591, 398.7889
830.5413, 399.3379
831.0234, 400.3353
831.5055, 401.7694
831.9876, 402.9850
832.4697, 403.2819
832.9518, 403.2683
833.4340, 403.5709
833.9161, 404.2202
834.3982, 405.0442
834.8803, 406.6915
835.3624, 407.7667
835.8445, 407.3512
836.3267, 405.5566
836.8088, 405.1640
837.2909, 406.4863
837.7730, 407.7999
838.2551, 408.1193
838.7372, 407.7504
839.2194, 406.9868
839.7015, 406.0468
840.1836, 406.1898
840.6657, 409.6787
841.1478, 413.1001
841.6299, 413.7806
842.1121, 412.0577
842.5942, 411.6979
843.0763, 413.4289
843.5584, 415.6534
844.0405, 418.2720
844.5226, 420.8725
845.0048, 421.3310
845.4869, 419.8087
845.9690, 418.8376
846.4511, 420.4058
846.9332, 422.5630
847.4153, 423.1115
847.8975, 422.5070
848.3796, 422.0346
848.8617, 422.1131
849.3438, 422.4375
849.8259, 423.0011
850.3080, 423.7262
850.7902, 424.4819
851.2723, 425.3224
851.7544, 425.7548
852.2365, 425.3483
852.7186, 424.9170
853.2007, 426.3291
853.6829, 428.9221
854.1650, 430.8765
854.6471, 430.8965
855.1292, 430.8772
855.6113, 431.9419
856.0934, 433.5125
856.5756, 434.4857
857.0577, 434.1806
857.5398, 434.6622
858.0219, 436.4286
858.5040, 438.6555
858.9861, 439.6230
859.4683, 439.7052
859.9504, 441.3096
860.4325, 445.6505
860.9146, 449.4123
861.3967, 448.9697
861.8788, 446.3936
862.3610, 444.1251
862.8431, 441.9316
863.3252, 441.6858
863.8073, 444.7525
864.2894, 448.4484
864.7715, 449.9384
865.2537, 449.0910
865.7358, 448.8755
866.2179, 449.5652
866.7000, 450.5692
867.1821, 451.4457
867.6642, 452.2008
868.1464, 452.7124
868.6285, 452.8901
869.1106, 453.4503
869.5927, 455.3555
870.0748, 457.1710
870.5569, 457.8576
871.0391, 457.1828
871.5212, 456.8073
872.0033, 456.6412
872.4854, 457.0956
872.9675, 458.9537
873.4496, 461.5356
873.9318, 462.9252
874.4139, 463.1815
874.8960, 463.8086
875.3781, 466.6187
875.8602, 469.2752
876.3423, 469.9770
876.8245, 468.6646
877.3066, 468.4290
877.7887, 469.8276
878.2708, 471.1172
878.7529, 471.7660
879.2350, 471.7367
879.7172, 470.0442
880.1993, 467.1500
880.6814, 465.8230
881.1635, 469.3045
881.6456, 473.3618
882.1277, 474.1493
882.6099, 472.9080
883.0920, 473.4359
883.5741, 478.7834
884.0562, 482.5634
884.5383, 483.2557
885.0204, 482.2599
885.5026, 482.6045
885.9847, 484.2029
886.4668, 485.9400
886.9489, 487.5809
887.4310, 489.0303
887.9131, 490.0741
888.3953, 490.8783
888.8774, 491.6923
889.3595, 492.3129
889.8416, 493.4208
890.3237, 495.7795
890.8058, 498.1030
891.2880, 498.7171
891.7701, 497.3870
892.2522, 497.5298
892.7343, 499.5663
893.2164, 502.2386
893.6985, 504.8052
894.1807, 506.9193
894.6628, 507.9941
895.1449, 507.8173
895.6270, 507.4409
896.1091, 506.7748
896.5912, 506.4419
897.0734, 506.7587
897.5555, 507.7291
898.0376, 509.4731
898.5197, 512.1187
899.0018, 514.7280
899.4839, 516.6848
899.9661, 518.1253
900.4482, 519.0168
900.9303, 519.5104
901.4124, 520.4305
901.8945, 522.8509
902.3766, 525.1418
902.8588, 526.4338
903.3409, 526.9008
903.8230, 527.2775
904.3051, 527.3309
904.7872, 528.2687
905.2693, 530.8357
905.7515, 534.0979
906.2336, 536.3884
906.7157, 537.8021
907.1978, 538.5997
907.6799, 538.1411
908.1620, 538.0336
908.6442, 539.2899
909.1263, 541.2848
909.6084, 542.9277
910.0905, 543.9136
910.5726, 545.3847
911.0547, 547.6024
911.5369, 550.0269
912.0190, 552.2025
912.5011, 554.0067
912.9832, 554.9583
913.4653, 554.8734
913.9474, 554.6378
914.4296, 554.0523
914.9117, 554.0634
915.3938, 555.8903
915.8759, 560.4208
916.3580, 562.7224
916.8401, 561.8539
917.3223, 561.0591
917.8044, 563.2039
918.2865, 567.2433
918.7686, 569.1373
919.2507, 569.0562
919.7328, 568.8961
920.2150, 569.9081
920.6971, 571.1674
921.1792, 571.9371
921.6613, 572.3624
922.1434, 573.5944
922.6255, 576.0478
923.1077, 578.4605
923.5898, 580.6602
924.0719, 582.3942
924.5540, 582.2842
925.0361, 581.0344
925.5182, 581.6449
926.0004, 586.4199
926.4825, 591.3801
926.9646, 594.3112
927.4467, 595.7740
927.9288, 596.4796
928.4109, 596.0472
928.8931, 595.8978
929.3752, 596.1149
929.8573, 596.5881
930.3394, 597.2016
930.8215, 598.0562
931.3036, 599.0101
931.7858, 600.3468
932.2679, 601.7903
932.7500, 603.4191
933.2321, 604.9753
933.7142, 606.2109
934.1964, 607.0284
934.6785, 608.3183
935.1606, 610.3698
935.6427, 612.1758
936.1248, 613.0662
936.6069, 613.3401
937.0891, 613.6934
937.5712, 614.2295
938.0533, 615.4716
938.5354, 618.8173
939.0175, 621.8198
939.4996, 622.4299
939.9818, 621.5988
940.4639, 622.2252
940.9460, 625.2423
941.4281, 627.2805
941.9102, 627.4113
942.3923, 626.9191
942.8745, 627.9484
943.3566, 630.0797
943.8387, 632.0954
944.3208, 633.6726
944.8029, 635.1581
945.2850, 636.9144
945.7672, 638.5878
946.2493, 639.7823
946.7314, 640.3064
947.2135, 641.1880
947.6956, 642.4763
948.1777, 643.9739
948.6599, 645.6337
949.1420, 647.3381
949.6241, 648.8094
950.1062, 650.0381
950.5883, 651.0384
951.0704, 652.0627
951.5526, 652.6116
952.0347, 651.7637
952.5168, 650.1558
952.9989, 650.3658
953.4810, 652.7992
953.9631, 655.1664
954.4453, 656.8994
954.9274, 658.0774
955.4095, 658.3484
955.8916, 658.2352
956.3737, 658.9351
956.8558, 661.4149
957.3380, 663.6526
957.8201, 664.5968
958.3022, 665.2589
958.7843, 666.6025
959.2664, 668.7802
959.7485, 671.0019
960.2307, 673.3212
960.7128, 675.0813
961.1949, 675.0509
961.6770, 674.4220
962.1591, 675.0867
962.6412, 677.0831
963.1234, 678.7141
963.6055, 679.5050
964.0876, 679.6367
964.5697, 678.9290
965.0518, 677.6555
965.5339, 677.3798
966.0161, 678.0898
966.4982, 677.5618
966.9803, 674.2418
967.4624, 670.4554
967.9445, 668.7324
968.4266, 668.4059
968.9088, 668.4099
969.3909, 669.0499
969.8730, 669.1696
970.3551, 668.7718
970.8372, 667.7869
971.3193, 665.4251
971.8015, 662.0579
972.2836, 661.7463
972.7657, 664.9160
973.2478, 667.3896
973.7299, 665.2139
974.2120, 661.4932
974.6942, 658.5285
975.1763, 656.5483
975.6584, 655.3313
976.1405, 655.2343
976.6226, 655.0215
977.1047, 654.2319
977.5869, 653.0140
978.0690, 651.5217
978.5511, 649.9367
979.0332, 648.9639
979.5153, 649.5873
979.9974, 649.8395
980.4796, 647.9191
980.9617, 645.3234
981.4438, 644.2924
981.9259, 645.7330
982.4080, 645.9420
982.8901, 644.5603
983.3723, 642.6798
983.8544, 640.9960
984.3365, 639.7422
984.8186, 639.7818
985.3007, 641.1224
985.7828, 641.6862
986.2650, 640.0205
986.7471, 637.9078
987.2292, 635.8870
987.7113, 634.0858
988.1934, 633.3772
988.6755, 633.8055
989.1577, 634.1283
989.6398, 633.8513
990.1219, 633.2626
990.6040, 632.7879
991.0861, 632.2166
991.5682, 631.1832
992.0504, 628.7747
992.5325, 627.1914
993.0146, 626.9752
993.4967, 627.0947
993.9788, 626.6648
994.4609, 625.7083
994.9431, 624.1959
995.4252, 622.1302
995.9073, 620.3514
996.3894, 619.7480
996.8715, 619.4207
997.3536, 618.6835
997.8358, 617.5402
998.3179, 616.4950
998.8000, 615.5209
999.2821, 614.7779
999.7642, 614.4121
1000.246, 614.1447
1000.728, 613.3276
1001.211, 612.1631
1001.693, 611.2585
1002.175, 611.1065
1002.657, 610.5458
1003.139, 608.6364
1003.621, 606.3971
1004.103, 604.7224
1004.585, 603.6400
1005.068, 603.1286
1005.550, 603.2597
1006.032, 603.1707
1006.514, 602.0431
1006.996, 600.4076
1007.478, 598.3148
1007.960, 596.1022
1008.442, 595.4592
1008.924, 599.1398
1009.407, 601.3889
1009.889, 600.6503
1010.371, 598.2389
1010.853, 596.9467
1011.335, 596.5442
1011.817, 595.5810
1012.299, 593.6503
1012.781, 591.4568
1013.263, 589.0680
1013.746, 586.9680
1014.228, 585.7351
1014.710, 585.5909
1015.192, 585.3028
1015.674, 584.8290
1016.156, 584.3823
1016.638, 584.2625
1017.120, 584.1691
1017.603, 583.2104
1018.085, 581.6468
1018.567, 580.4454
1019.049, 580.0494
1019.531, 580.0565
1020.013, 580.8372
1020.495, 581.5813
1020.977, 580.8578
1021.459, 578.6095
1021.942, 577.0939
1022.424, 576.6725
1022.906, 576.3265
1023.388, 574.8923
1023.870, 573.1990
1024.352, 572.1509
1024.834, 571.9086
1025.316, 571.5052
1025.799, 570.9355
1026.281, 570.1283
1026.763, 569.0617
1027.245, 567.7536
1027.727, 565.7507
1028.209, 563.4432
1028.691, 562.1933
1029.173, 563.4202
1029.656, 564.3865
1030.138, 563.4158
1030.620, 561.7883
1031.102, 560.8344
1031.584, 560.6293
1032.066, 560.7775
1032.548, 561.3334
1033.030, 561.5615
1033.512, 560.4429
1033.995, 558.9172
1034.477, 558.3470
1034.959, 558.5522
1035.441, 558.0247
1035.923, 555.6601
1036.405, 553.7011
1036.887, 552.7043
1037.369, 552.1943
1037.851, 551.1900
1038.334, 549.8484
1038.816, 548.6168
1039.298, 547.5163
1039.780, 546.9291
1040.262, 547.6229
1040.744, 548.5190
1041.226, 548.8343
1041.708, 548.5703
1042.191, 547.6087
1042.673, 545.8786
1043.155, 543.9744
1043.637, 541.7667
1044.119, 539.9384
1044.601, 539.8328
1045.083, 540.7990
1045.565, 541.3497
1046.047, 540.8908
1046.530, 540.1185
1047.012, 538.7521
1047.494, 537.6125
1047.976, 537.8509
1048.458, 539.1655
1048.940, 540.1423
1049.422, 540.6746
1049.904, 540.9300
1050.386, 541.1600
1050.869, 541.0096
1051.351, 539.6295
1051.833, 537.6111
1052.315, 537.6042
1052.797, 539.9033
1053.279, 542.0707
1053.761, 543.6427
1054.243, 544.3820
1054.726, 542.7868
1055.208, 540.6971
1055.690, 540.8734
1056.172, 544.6996
1056.654, 548.2097
1057.136, 550.9587
1057.618, 553.5235
1058.100, 556.1475
1058.583, 558.8840
1059.065, 562.2733
1059.547, 566.0684
1060.029, 569.1447
1060.511, 569.0950
1060.993, 570.2209
1061.475, 575.2397
1061.957, 582.0507
1062.439, 587.9899
1062.922, 593.0623
1063.404, 597.2821
1063.886, 600.6415
1064.368, 603.0221
1064.850, 602.2688
1065.332, 601.9835
1065.814, 606.5860
1066.296, 615.9008
1066.778, 624.1240
1067.261, 630.2894
1067.743, 636.3481
1068.225, 642.6910
1068.707, 649.3499
1069.189, 656.5167
1069.671, 663.9061
1070.153, 670.8602
1070.635, 677.1992
1071.118, 682.9392
1071.600, 687.9758
1072.082, 692.3046
1072.564, 695.8616
1073.046, 698.6578
1073.528, 701.1924
1074.010, 703.4218
1074.492, 704.8484
1074.974, 704.6319
1075.457, 704.1595
1075.939, 704.7871
1076.421, 705.7401
1076.903, 705.7141
1077.385, 704.6564
1077.867, 702.5870
1078.349, 699.3625
1078.831, 695.7384
1079.313, 692.5806
1079.796, 689.3636
1080.278, 685.2169
1080.760, 680.1653
1081.242, 674.9659
1081.724, 670.2997
1082.206, 664.8155
1082.688, 658.1786
1083.170, 650.8276
1083.652, 643.7018
1084.135, 636.5817
1084.617, 628.9490
1085.099, 620.7568
1085.581, 611.6592
1086.063, 600.3975
1086.545, 589.1873
1087.027, 579.2903
1087.509, 570.6113
1087.992, 561.4442
1088.474, 551.7715
1088.956, 543.1952
1089.438, 536.7476
1089.920, 530.9685
1090.402, 523.9161
1090.884, 516.7594
1091.366, 511.2258
1091.849, 508.2149
1092.331, 504.7764
1092.813, 500.5522
1093.295, 497.1129
1093.777, 496.4647
1094.259, 496.9703
1094.741, 495.0118
1095.223, 491.3794
1095.705, 488.9469
1096.188, 489.6912
1096.670, 490.6409
1097.152, 491.8044
1097.634, 492.2868
1098.116, 490.2806
1098.598, 486.4656
1099.080, 484.0009
1099.562, 483.1640
1100.044, 483.3942
1100.527, 485.7729
1101.009, 487.6949
1101.491, 487.4686
1101.973, 485.7500
1102.455, 484.5092
1102.937, 483.7540
1103.419, 482.7107
1103.901, 481.0601
1104.384, 479.6528
1104.866, 479.5052
1105.348, 479.9134
1105.830, 480.2053
1106.312, 480.2911
1106.794, 480.4767
1107.276, 480.8988
1107.758, 480.8260
1108.240, 479.6971
1108.723, 478.1553
1109.205, 477.0525
1109.687, 476.3137
1110.169, 475.7583
1110.651, 474.8548
1111.133, 475.2750
1111.615, 478.2054
1112.097, 480.4710
1112.579, 478.7675
1113.062, 474.4923
1113.544, 472.5628
1114.026, 472.6782
1114.508, 473.2558
1114.990, 474.0157
1115.472, 474.4875
1115.954, 474.1045
1116.436, 473.7137
1116.919, 474.8242
1117.401, 477.2527
1117.883, 478.1413
1118.365, 477.2456
1118.847, 475.6000
1119.329, 472.9054
1119.811, 470.6862
1120.293, 470.3513
1120.776, 471.3405
1121.258, 471.5872
1121.740, 470.9284
1122.222, 471.3512
1122.704, 473.6058
1123.186, 475.5334
1123.668, 474.0893
1124.150, 471.6927
1124.632, 471.2291
1125.115, 473.2895
1125.597, 473.5501
1126.079, 471.3310
1126.561, 469.4512
1127.043, 469.0846
1127.525, 469.4593
1128.007, 469.4381
1128.489, 469.2035
1128.971, 469.1186
1129.454, 469.5575
1129.936, 469.3253
1130.418, 468.0272
1130.900, 466.6750
1131.382, 465.9498
1131.864, 465.6047
1132.346, 464.5958
1132.828, 463.2484
1133.311, 462.6384
1133.793, 463.7217
1134.275, 464.9585
1134.757, 466.1719
1135.239, 467.1901
1135.721, 468.0650
1136.203, 468.6655
1136.685, 467.3021
1137.167, 464.2005
1137.650, 462.3180
1138.132, 464.6571
1138.614, 467.2993
1139.096, 468.9064
1139.578, 469.3177
1140.060, 467.5191
1140.542, 463.4125
1141.024, 462.1558
1141.506, 464.4406
1141.989, 466.7510
1142.471, 465.7010
1142.953, 464.1322
1143.435, 464.3904
1143.917, 466.1298
1144.399, 467.2294
1144.881, 467.6744
1145.363, 467.4875
1145.846, 466.6191
1146.328, 465.3442
1146.810, 463.5373
1147.292, 461.7702
1147.774, 460.6392
1148.256, 460.2716
1148.738, 460.1892
1149.220, 460.3976
1149.703, 460.8241
1150.185, 461.4979
1150.667, 462.2626
1151.149, 463.2193
1151.631, 463.9889
1152.113, 463.9083
1152.595, 462.5824
1153.077, 461.1834
1153.559, 459.4374
1154.042, 458.5273
1154.524, 459.5187
1155.006, 461.3895
1155.488, 462.2495
1155.970, 462.0962
1156.452, 460.7818
1156.934, 456.5202
1157.416, 454.4584
1157.898, 455.9474
1158.381, 458.3029
1158.863, 459.7928
1159.345, 460.4691
1159.827, 460.3191
1160.309, 459.4860
1160.791, 458.5488
1161.273, 457.0565
1161.755, 456.4955
1162.238, 457.7799
1162.720, 459.4732
1163.202, 460.0630
1163.684, 459.6807
1164.166, 459.1205
1164.648, 458.4409
1165.130, 457.8366
1165.612, 456.9931
1166.094, 456.7718
1166.577, 458.1170
1167.059, 459.9066
1167.541, 460.2276
1168.023, 459.2250
1168.505, 458.7070
1168.987, 458.8647
1169.469, 459.0262
1169.951, 458.6737
1170.433, 458.2365
1170.916, 457.8264
1171.398, 457.5640
1171.880, 458.0670
1172.362, 459.3135
1172.844, 459.1283
1173.326, 456.8837
1173.808, 454.8854
1174.290, 455.5605
1174.773, 456.8306
1175.255, 456.8862
1175.737, 457.3394
1176.219, 457.6808
1176.701, 457.1291
1177.183, 457.5102
1177.665, 456.5551
1178.147, 455.4990
1178.630, 455.4908
1179.112, 455.9889
1179.594, 456.7438
1180.076, 457.7187
1180.558, 457.2076
1181.040, 454.9563
1181.522, 453.8256
1182.004, 455.4335
1182.486, 457.4667
1182.969, 457.4599
1183.451, 456.4132
1183.933, 455.4033
1184.415, 454.4686
1184.897, 454.1687
1185.379, 454.5972
1185.861, 455.0127
1186.343, 454.9784
1186.825, 454.8095
1187.308, 454.8163
1187.790, 454.9647
1188.272, 455.2536
1188.754, 455.9048
1189.236, 455.8233
1189.718, 454.7769
1190.200, 454.2265
1190.682, 455.8933
1191.165, 457.9539
1191.647, 457.8068
1192.129, 456.3235
1192.611, 455.2167
1193.093, 454.5465
1193.575, 455.0939
1194.057, 457.2734
1194.539, 459.0324
1195.021, 458.1096
1195.504, 456.2723
1195.986, 455.8244
1196.468, 456.5016
1196.950, 457.5218
1197.432, 459.6576
1197.914, 459.8859
1198.396, 457.6284
1198.878, 454.8643
1199.360, 453.1103
1199.843, 452.2665
1200.325, 452.7855
1200.807, 454.2094
1201.289, 454.6503
1201.771, 453.2119
1202.253, 452.0847
1202.735, 451.4572
1203.217, 451.3931
1203.700, 452.2967
1204.182, 453.6143
1204.664, 454.6889
1205.146, 455.4386
1205.628, 455.6971
1206.110, 455.1288
1206.592, 454.7961
1207.074, 454.8963
1207.557, 455.1419
1208.039, 455.0646
1208.521, 454.9514
1209.003, 455.2650
1209.485, 456.0183
1209.967, 456.7814
1210.449, 457.5224
1210.931, 458.2645
1211.413, 459.1359
1211.896, 459.7088
1212.378, 459.1797
1212.860, 458.1269
1213.342, 457.4341
1213.824, 457.2011
1214.306, 456.7137
1214.788, 455.7309
1215.270, 455.0306
1215.752, 454.9535
1216.235, 454.9147
1216.717, 453.8407
1217.199, 452.3761
1217.681, 451.4876
1218.163, 451.3452
1218.645, 451.1397
1219.127, 450.6422
1219.609, 450.5609
1220.092, 451.1795
1220.574, 452.1832
1221.056, 453.3745
1221.538, 454.5116
1222.020, 455.3601
1222.502, 455.9077
1222.984, 455.3409
1223.466, 453.2173
1223.948, 451.3393
1224.431, 450.1554
1224.913, 449.9478
1225.395, 452.2289
1225.877, 455.2090
1226.359, 456.3634
1226.841, 454.8781
1227.323, 453.0881
1227.805, 450.7359
1228.287, 449.3081
1228.770, 449.7593
1229.252, 450.8217
1229.734, 450.3749
1230.216, 449.6333
1230.698, 450.6216
1231.180, 454.3498
1231.662, 455.5391
1232.144, 453.7637
1232.627, 451.9705
1233.109, 451.5756
1233.591, 451.6927
1234.073, 451.4072
1234.555, 450.8972
1235.037, 450.4579
1235.519, 450.2292
1236.001, 449.2650
1236.484, 447.4581
1236.966, 445.9967
1237.448, 445.5681
1237.930, 445.6284
1238.412, 445.8640
1238.894, 446.1205
1239.376, 446.0483
1239.858, 446.7228
1240.340, 446.0493
1240.823, 447.8823
1241.305, 449.4287
1241.787, 449.9456
1242.269, 449.7115
1242.751, 448.1665
1243.233, 446.4603
1243.715, 446.1463
1244.197, 447.4065
1244.679, 448.2096
1245.162, 448.5700
1245.644, 448.8298
1246.126, 449.4286
1246.608, 449.6744
1247.090, 449.1364
1247.572, 447.9317
1248.054, 445.8166
1248.536, 442.6393
1249.019, 443.2436
1249.501, 447.2494
1249.983, 450.5155
1250.465, 450.1927
1250.947, 449.2319
1251.429, 449.0759
1251.911, 449.0192
1252.393, 448.2065
1252.875, 446.7198
1253.358, 446.4276
1253.840, 447.1713
1254.322, 447.9236
1254.804, 448.4460
1255.286, 448.4573
1255.768, 447.3226
1256.250, 446.1953
1256.732, 446.0147
1257.214, 446.7069
1257.697, 448.3129
1258.179, 450.4955
1258.661, 451.6850
1259.143, 450.2259
1259.625, 449.1165
1260.107, 449.2210
1260.589, 449.3688
1261.071, 448.0988
1261.554, 446.1776
1262.036, 446.5767
1262.518, 448.5525
1263.000, 449.5388
1263.482, 446.8989
1263.964, 445.9732
1264.446, 447.8802
1264.928, 449.9300
1265.411, 449.3903
1265.893, 447.6941
1266.375, 447.7220
1266.857, 448.9258
1267.339, 449.7636
1267.821, 450.1136
1268.303, 449.3326
1268.785, 447.0443
1269.267, 445.0397
1269.750, 444.8489
1270.232, 445.6981
1270.714, 447.2905
1271.196, 449.0060
1271.678, 449.1895
1272.160, 446.7442
1272.642, 446.2245
1273.124, 447.9342
1273.606, 449.8334
1274.089, 450.5455
1274.571, 450.6854
1275.053, 450.5207
1275.535, 450.2635
1276.017, 450.3654
1276.499, 450.9933
1276.981, 450.8879
1277.463, 450.0337
1277.946, 448.6729
1278.428, 446.1240
1278.910, 444.0830
1279.392, 443.6996
1279.874, 444.4342
1280.356, 446.0300
1280.838, 448.4182
1281.320, 448.9459
1281.802, 447.7870
1282.285, 446.7742
1282.767, 447.4411
1283.249, 447.6942
1283.731, 446.0049
1284.213, 444.4321
1284.695, 445.3051
1285.177, 447.8846
1285.659, 448.4360
1286.141, 447.3743
1286.624, 446.5207
1287.106, 447.1649
1287.588, 447.1952
1288.070, 445.8722
1288.552, 444.8789
1289.034, 446.1290
1289.516, 448.4869
1289.998, 449.5848
1290.481, 449.6227
1290.963, 449.1336
1291.445, 447.5678
1291.927, 446.7539
1292.409, 446.7796
1292.891, 447.2430
1293.373, 448.5272
1293.855, 449.5417
1294.338, 448.2734
1294.820, 445.9030
1295.302, 444.7124
1295.784, 444.9472
1296.266, 446.0184
1296.748, 448.0002
1297.230, 449.4619
1297.712, 449.3077
1298.194, 448.5458
1298.677, 447.5757
1299.159, 446.6877
1299.641, 446.1231
1300.123, 445.8625
1300.605, 446.4503
1301.087, 447.7729
1301.569, 448.8462
1302.051, 449.1153
1302.533, 448.9905
1303.016, 448.5532
##END=



