##NAMES=Burbankite
##RRUFFID=R120073
##IDEAL CHEMISTRY=(Na,Ca)_3_(Sr,Ba,Ce)_3_(CO_3_)_5_
##LOCALITY=Mont Saint-Hilaire, Rouville RCM, Montérégie, Québec, Canada
##OWNER=RRUFF
##SOURCE=Donald Doell
##DESCRIPTION=Prismatic yellow-orange crystals embedded in microcline. Color is dependent upon light source.
##STATUS=The identification of this mineral has been confirmed only by single crystal X-ray diffraction.
##URL=rruff.info/R120073
##MEASURED CHEMISTRY=(Na_2.99_K_0.04_)_Σ=3.03_(Ce_0.73_La_0.42_Nd_0.17_Pr_0.07_Sr_0.54_Ca_0.48_Ba_0.18_)_Σ=2.59_(CO_3_)_5_
9.112140e+001, 0.000000e+000
9.160352e+001, 1.061131e+004
9.208563e+001, 1.032787e+004
9.256775e+001, 1.029368e+004
9.304987e+001, 1.063778e+004
9.353198e+001, 1.106502e+004
9.401410e+001, 1.135953e+004
9.449622e+001, 1.152403e+004
9.497833e+001, 1.161428e+004
9.546045e+001, 1.167406e+004
9.594257e+001, 1.170169e+004
9.642468e+001, 1.174063e+004
9.690680e+001, 1.182603e+004
9.738892e+001, 1.190226e+004
9.787103e+001, 1.195592e+004
9.835315e+001, 1.197151e+004
9.883527e+001, 1.194595e+004
9.931738e+001, 1.190601e+004
9.979950e+001, 1.184271e+004
1.002816e+002, 1.181677e+004
1.007637e+002, 1.185146e+004
1.012458e+002, 1.190207e+004
1.017280e+002, 1.192035e+004
1.022101e+002, 1.189079e+004
1.026922e+002, 1.185366e+004
1.031743e+002, 1.187915e+004
1.036564e+002, 1.196298e+004
1.041385e+002, 1.205804e+004
1.046207e+002, 1.216352e+004
1.051028e+002, 1.227038e+004
1.055849e+002, 1.234498e+004
1.060670e+002, 1.235263e+004
1.065491e+002, 1.234010e+004
1.070313e+002, 1.236066e+004
1.075134e+002, 1.241959e+004
1.079955e+002, 1.249174e+004
1.084776e+002, 1.255124e+004
1.089597e+002, 1.259428e+004
1.094418e+002, 1.263973e+004
1.099240e+002, 1.269018e+004
1.104061e+002, 1.274562e+004
1.108882e+002, 1.281150e+004
1.113703e+002, 1.289142e+004
1.118524e+002, 1.297274e+004
1.123345e+002, 1.301858e+004
1.128167e+002, 1.298201e+004
1.132988e+002, 1.297169e+004
1.137809e+002, 1.301078e+004
1.142630e+002, 1.308204e+004
1.147451e+002, 1.316739e+004
1.152272e+002, 1.325681e+004
1.157094e+002, 1.334941e+004
1.161915e+002, 1.341208e+004
1.166736e+002, 1.341977e+004
1.171557e+002, 1.342756e+004
1.176378e+002, 1.345212e+004
1.181199e+002, 1.349280e+004
1.186021e+002, 1.354189e+004
1.190842e+002, 1.359346e+004
1.195663e+002, 1.364779e+004
1.200484e+002, 1.370474e+004
1.205305e+002, 1.377395e+004
1.210126e+002, 1.384011e+004
1.214948e+002, 1.388461e+004
1.219769e+002, 1.390299e+004
1.224590e+002, 1.391912e+004
1.229411e+002, 1.396006e+004
1.234232e+002, 1.401952e+004
1.239053e+002, 1.408050e+004
1.243875e+002, 1.413445e+004
1.248696e+002, 1.418545e+004
1.253517e+002, 1.424891e+004
1.258338e+002, 1.434654e+004
1.263159e+002, 1.442683e+004
1.267980e+002, 1.444360e+004
1.272802e+002, 1.440861e+004
1.277623e+002, 1.437683e+004
1.282444e+002, 1.440018e+004
1.287265e+002, 1.448555e+004
1.292086e+002, 1.455224e+004
1.296907e+002, 1.456432e+004
1.301729e+002, 1.457761e+004
1.306550e+002, 1.462169e+004
1.311371e+002, 1.469822e+004
1.316192e+002, 1.478531e+004
1.321013e+002, 1.485190e+004
1.325834e+002, 1.488576e+004
1.330656e+002, 1.492317e+004
1.335477e+002, 1.496955e+004
1.340298e+002, 1.501646e+004
1.345119e+002, 1.505241e+004
1.349940e+002, 1.507466e+004
1.354761e+002, 1.509596e+004
1.359583e+002, 1.514573e+004
1.364404e+002, 1.527299e+004
1.369225e+002, 1.536842e+004
1.374046e+002, 1.539960e+004
1.378867e+002, 1.540107e+004
1.383688e+002, 1.542302e+004
1.388510e+002, 1.549115e+004
1.393331e+002, 1.558964e+004
1.398152e+002, 1.566514e+004
1.402973e+002, 1.569923e+004
1.407794e+002, 1.574183e+004
1.412615e+002, 1.582434e+004
1.417437e+002, 1.593738e+004
1.422258e+002, 1.603919e+004
1.427079e+002, 1.610079e+004
1.431900e+002, 1.613940e+004
1.436721e+002, 1.619345e+004
1.441542e+002, 1.626646e+004
1.446364e+002, 1.635324e+004
1.451185e+002, 1.645722e+004
1.456006e+002, 1.658365e+004
1.460827e+002, 1.669501e+004
1.465648e+002, 1.675933e+004
1.470469e+002, 1.680242e+004
1.475291e+002, 1.684827e+004
1.480112e+002, 1.690484e+004
1.484933e+002, 1.696959e+004
1.489754e+002, 1.703578e+004
1.494575e+002, 1.709886e+004
1.499396e+002, 1.717361e+004
1.504218e+002, 1.726851e+004
1.509039e+002, 1.737514e+004
1.513860e+002, 1.748161e+004
1.518681e+002, 1.758065e+004
1.523502e+002, 1.767426e+004
1.528323e+002, 1.777408e+004
1.533145e+002, 1.789148e+004
1.537966e+002, 1.800442e+004
1.542787e+002, 1.810421e+004
1.547608e+002, 1.819631e+004
1.552429e+002, 1.829320e+004
1.557250e+002, 1.840646e+004
1.562072e+002, 1.853781e+004
1.566893e+002, 1.865467e+004
1.571714e+002, 1.873213e+004
1.576535e+002, 1.882078e+004
1.581356e+002, 1.895027e+004
1.586177e+002, 1.911512e+004
1.590999e+002, 1.928613e+004
1.595820e+002, 1.943687e+004
1.600641e+002, 1.956411e+004
1.605462e+002, 1.968834e+004
1.610283e+002, 1.979964e+004
1.615104e+002, 1.991402e+004
1.619926e+002, 2.004536e+004
1.624747e+002, 2.019508e+004
1.629568e+002, 2.035246e+004
1.634389e+002, 2.050524e+004
1.639210e+002, 2.065418e+004
1.644031e+002, 2.080512e+004
1.648853e+002, 2.095347e+004
1.653674e+002, 2.110613e+004
1.658495e+002, 2.127597e+004
1.663316e+002, 2.147345e+004
1.668137e+002, 2.166648e+004
1.672958e+002, 2.181011e+004
1.677780e+002, 2.191843e+004
1.682601e+002, 2.204731e+004
1.687422e+002, 2.224046e+004
1.692243e+002, 2.248040e+004
1.697064e+002, 2.269332e+004
1.701885e+002, 2.286556e+004
1.706707e+002, 2.301335e+004
1.711528e+002, 2.313308e+004
1.716349e+002, 2.323475e+004
1.721170e+002, 2.335802e+004
1.725991e+002, 2.354637e+004
1.730812e+002, 2.380373e+004
1.735634e+002, 2.404135e+004
1.740455e+002, 2.422989e+004
1.745276e+002, 2.441843e+004
1.750097e+002, 2.462413e+004
1.754918e+002, 2.484860e+004
1.759739e+002, 2.508550e+004
1.764561e+002, 2.532657e+004
1.769382e+002, 2.557286e+004
1.774203e+002, 2.582641e+004
1.779024e+002, 2.610867e+004
1.783845e+002, 2.638049e+004
1.788666e+002, 2.660983e+004
1.793488e+002, 2.679733e+004
1.798309e+002, 2.697572e+004
1.803130e+002, 2.718572e+004
1.807951e+002, 2.743610e+004
1.812772e+002, 2.770328e+004
1.817593e+002, 2.800306e+004
1.822415e+002, 2.830655e+004
1.827236e+002, 2.858280e+004
1.832057e+002, 2.882743e+004
1.836878e+002, 2.907024e+004
1.841699e+002, 2.935838e+004
1.846520e+002, 2.972837e+004
1.851342e+002, 3.007422e+004
1.856163e+002, 3.037488e+004
1.860984e+002, 3.065816e+004
1.865805e+002, 3.095043e+004
1.870626e+002, 3.125909e+004
1.875447e+002, 3.158287e+004
1.880269e+002, 3.192223e+004
1.885090e+002, 3.227794e+004
1.889911e+002, 3.264293e+004
1.894732e+002, 3.302066e+004
1.899553e+002, 3.340568e+004
1.904374e+002, 3.378116e+004
1.909196e+002, 3.414179e+004
1.914017e+002, 3.450106e+004
1.918838e+002, 3.488205e+004
1.923659e+002, 3.528137e+004
1.928480e+002, 3.569482e+004
1.933301e+002, 3.613068e+004
1.938123e+002, 3.658095e+004
1.942944e+002, 3.701403e+004
1.947765e+002, 3.739664e+004
1.952586e+002, 3.779145e+004
1.957407e+002, 3.827004e+004
1.962228e+002, 3.883262e+004
1.967050e+002, 3.939875e+004
1.971871e+002, 3.990141e+004
1.976692e+002, 4.034416e+004
1.981513e+002, 4.080963e+004
1.986334e+002, 4.134810e+004
1.991155e+002, 4.188474e+004
1.995977e+002, 4.235806e+004
2.000798e+002, 4.276876e+004
2.005619e+002, 4.317420e+004
2.010440e+002, 4.362765e+004
2.015261e+002, 4.413506e+004
2.020082e+002, 4.467194e+004
2.024904e+002, 4.525796e+004
2.029725e+002, 4.586122e+004
2.034546e+002, 4.647960e+004
2.039367e+002, 4.710829e+004
2.044188e+002, 4.773226e+004
2.049009e+002, 4.832218e+004
2.053831e+002, 4.885379e+004
2.058652e+002, 4.942453e+004
2.063473e+002, 5.005948e+004
2.068294e+002, 5.071279e+004
2.073115e+002, 5.135108e+004
2.077936e+002, 5.197056e+004
2.082758e+002, 5.259869e+004
2.087579e+002, 5.327815e+004
2.092400e+002, 5.406616e+004
2.097221e+002, 5.477296e+004
2.102042e+002, 5.530220e+004
2.106863e+002, 5.582811e+004
2.111685e+002, 5.649270e+004
2.116506e+002, 5.731396e+004
2.121327e+002, 5.818635e+004
2.126148e+002, 5.896353e+004
2.130969e+002, 5.958516e+004
2.135790e+002, 6.021294e+004
2.140612e+002, 6.082274e+004
2.145433e+002, 6.145000e+004
2.150254e+002, 6.214515e+004
2.155075e+002, 6.291069e+004
2.159896e+002, 6.369975e+004
2.164717e+002, 6.443600e+004
2.169539e+002, 6.508482e+004
2.174360e+002, 6.577212e+004
2.179181e+002, 6.651756e+004
2.184002e+002, 6.729485e+004
2.188823e+002, 6.809813e+004
2.193644e+002, 6.892411e+004
2.198466e+002, 6.974011e+004
2.203287e+002, 7.049134e+004
2.208108e+002, 7.116793e+004
2.212929e+002, 7.186053e+004
2.217750e+002, 7.259966e+004
2.222571e+002, 7.335451e+004
2.227393e+002, 7.407173e+004
2.232214e+002, 7.473048e+004
2.237035e+002, 7.540365e+004
2.241856e+002, 7.620490e+004
2.246677e+002, 7.712080e+004
2.251498e+002, 7.801532e+004
2.256320e+002, 7.885723e+004
2.261141e+002, 7.965548e+004
2.265962e+002, 8.041595e+004
2.270783e+002, 8.113100e+004
2.275604e+002, 8.183586e+004
2.280425e+002, 8.257551e+004
2.285247e+002, 8.333794e+004
2.290068e+002, 8.410152e+004
2.294889e+002, 8.485779e+004
2.299710e+002, 8.560298e+004
2.304531e+002, 8.632634e+004
2.309352e+002, 8.700464e+004
2.314174e+002, 8.770181e+004
2.318995e+002, 8.848051e+004
2.323816e+002, 8.931495e+004
2.328637e+002, 9.013574e+004
2.333458e+002, 9.091468e+004
2.338279e+002, 9.165483e+004
2.343101e+002, 9.236907e+004
2.347922e+002, 9.301338e+004
2.352743e+002, 9.370020e+004
2.357564e+002, 9.453099e+004
2.362385e+002, 9.544302e+004
2.367206e+002, 9.631390e+004
2.372028e+002, 9.704525e+004
2.376849e+002, 9.767374e+004
2.381670e+002, 9.837521e+004
2.386491e+002, 9.919657e+004
2.391312e+002, 1.000249e+005
2.396133e+002, 1.008437e+005
2.400955e+002, 1.016364e+005
2.405776e+002, 1.023773e+005
2.410597e+002, 1.030188e+005
2.415418e+002, 1.036020e+005
2.420239e+002, 1.043179e+005
2.425060e+002, 1.052646e+005
2.429882e+002, 1.062236e+005
2.434703e+002, 1.071877e+005
2.439524e+002, 1.081130e+005
2.444345e+002, 1.089277e+005
2.449166e+002, 1.095702e+005
2.453987e+002, 1.100933e+005
2.458809e+002, 1.107402e+005
2.463630e+002, 1.116397e+005
2.468451e+002, 1.125026e+005
2.473272e+002, 1.132405e+005
2.478093e+002, 1.139175e+005
2.482914e+002, 1.146177e+005
2.487736e+002, 1.153895e+005
2.492557e+002, 1.162096e+005
2.497378e+002, 1.169711e+005
2.502199e+002, 1.175946e+005
2.507020e+002, 1.182608e+005
2.511841e+002, 1.190244e+005
2.516663e+002, 1.198290e+005
2.521484e+002, 1.206047e+005
2.526305e+002, 1.213222e+005
2.531126e+002, 1.219869e+005
2.535947e+002, 1.226311e+005
2.540768e+002, 1.231540e+005
2.545590e+002, 1.237788e+005
2.550411e+002, 1.245864e+005
2.555232e+002, 1.254762e+005
2.560053e+002, 1.263235e+005
2.564874e+002, 1.270738e+005
2.569695e+002, 1.278034e+005
2.574517e+002, 1.286954e+005
2.579338e+002, 1.299339e+005
2.584159e+002, 1.311336e+005
2.588980e+002, 1.322697e+005
2.593801e+002, 1.333769e+005
2.598622e+002, 1.344935e+005
2.603444e+002, 1.356328e+005
2.608265e+002, 1.367969e+005
2.613086e+002, 1.379874e+005
2.617907e+002, 1.392061e+005
2.622728e+002, 1.404686e+005
2.627549e+002, 1.417921e+005
2.632371e+002, 1.431563e+005
2.637192e+002, 1.445379e+005
2.642013e+002, 1.459337e+005
2.646834e+002, 1.473413e+005
2.651655e+002, 1.487630e+005
2.656476e+002, 1.502155e+005
2.661298e+002, 1.516276e+005
2.666119e+002, 1.529447e+005
2.670940e+002, 1.542580e+005
2.675761e+002, 1.556683e+005
2.680582e+002, 1.571980e+005
2.685403e+002, 1.587405e+005
2.690225e+002, 1.601726e+005
2.695046e+002, 1.614648e+005
2.699867e+002, 1.627560e+005
2.704688e+002, 1.640719e+005
2.709509e+002, 1.653708e+005
2.714330e+002, 1.666196e+005
2.719152e+002, 1.678120e+005
2.723973e+002, 1.689640e+005
2.728794e+002, 1.700881e+005
2.733615e+002, 1.711820e+005
2.738436e+002, 1.721982e+005
2.743257e+002, 1.730970e+005
2.748079e+002, 1.739504e+005
2.752900e+002, 1.748045e+005
2.757721e+002, 1.756644e+005
2.762542e+002, 1.765006e+005
2.767363e+002, 1.773004e+005
2.772184e+002, 1.780518e+005
2.777006e+002, 1.787658e+005
2.781827e+002, 1.794036e+005
2.786648e+002, 1.800285e+005
2.791469e+002, 1.807109e+005
2.796290e+002, 1.814355e+005
2.801111e+002, 1.820880e+005
2.805933e+002, 1.825859e+005
2.810754e+002, 1.829555e+005
2.815575e+002, 1.833273e+005
2.820396e+002, 1.836794e+005
2.825217e+002, 1.840599e+005
2.830038e+002, 1.845397e+005
2.834860e+002, 1.850930e+005
2.839681e+002, 1.855854e+005
2.844502e+002, 1.859488e+005
2.849323e+002, 1.862151e+005
2.854144e+002, 1.864634e+005
2.858965e+002, 1.866850e+005
2.863787e+002, 1.869107e+005
2.868608e+002, 1.871594e+005
2.873429e+002, 1.874262e+005
2.878250e+002, 1.876938e+005
2.883071e+002, 1.879493e+005
2.887892e+002, 1.882138e+005
2.892714e+002, 1.885460e+005
2.897535e+002, 1.889656e+005
2.902356e+002, 1.892983e+005
2.907177e+002, 1.894332e+005
2.911998e+002, 1.894186e+005
2.916819e+002, 1.893858e+005
2.921641e+002, 1.893694e+005
2.926462e+002, 1.893249e+005
2.931283e+002, 1.891730e+005
2.936104e+002, 1.889291e+005
2.940925e+002, 1.887255e+005
2.945746e+002, 1.886602e+005
2.950568e+002, 1.886638e+005
2.955389e+002, 1.886048e+005
2.960210e+002, 1.884706e+005
2.965031e+002, 1.882653e+005
2.969852e+002, 1.879712e+005
2.974673e+002, 1.876071e+005
2.979495e+002, 1.872041e+005
2.984316e+002, 1.867510e+005
2.989137e+002, 1.862743e+005
2.993958e+002, 1.858263e+005
2.998779e+002, 1.854198e+005
3.003600e+002, 1.849826e+005
3.008422e+002, 1.844408e+005
3.013243e+002, 1.838384e+005
3.018064e+002, 1.832556e+005
3.022885e+002, 1.827084e+005
3.027706e+002, 1.821813e+005
3.032527e+002, 1.816586e+005
3.037349e+002, 1.811383e+005
3.042170e+002, 1.806203e+005
3.046991e+002, 1.801327e+005
3.051812e+002, 1.796313e+005
3.056633e+002, 1.790384e+005
3.061454e+002, 1.783015e+005
3.066276e+002, 1.775847e+005
3.071097e+002, 1.770412e+005
3.075918e+002, 1.766648e+005
3.080739e+002, 1.763316e+005
3.085560e+002, 1.760619e+005
3.090381e+002, 1.757672e+005
3.095203e+002, 1.753403e+005
3.100024e+002, 1.747648e+005
3.104845e+002, 1.741792e+005
3.109666e+002, 1.736118e+005
3.114487e+002, 1.730913e+005
3.119308e+002, 1.727943e+005
3.124130e+002, 1.728602e+005
3.128951e+002, 1.730133e+005
3.133772e+002, 1.729704e+005
3.138593e+002, 1.727633e+005
3.143414e+002, 1.726062e+005
3.148235e+002, 1.726210e+005
3.153057e+002, 1.727630e+005
3.157878e+002, 1.729290e+005
3.162699e+002, 1.731259e+005
3.167520e+002, 1.733086e+005
3.172341e+002, 1.733823e+005
3.177162e+002, 1.734129e+005
3.181984e+002, 1.735596e+005
3.186805e+002, 1.739335e+005
3.191626e+002, 1.744319e+005
3.196447e+002, 1.748841e+005
3.201268e+002, 1.752721e+005
3.206089e+002, 1.757070e+005
3.210911e+002, 1.762931e+005
3.215732e+002, 1.769601e+005
3.220553e+002, 1.776055e+005
3.225374e+002, 1.781823e+005
3.230195e+002, 1.787811e+005
3.235016e+002, 1.795340e+005
3.239838e+002, 1.804473e+005
3.244659e+002, 1.812774e+005
3.249480e+002, 1.818615e+005
3.254301e+002, 1.823601e+005
3.259122e+002, 1.829590e+005
3.263943e+002, 1.836810e+005
3.268765e+002, 1.844620e+005
3.273586e+002, 1.852646e+005
3.278407e+002, 1.860922e+005
3.283228e+002, 1.869464e+005
3.288049e+002, 1.878292e+005
3.292870e+002, 1.887378e+005
3.297692e+002, 1.896720e+005
3.302513e+002, 1.906266e+005
3.307334e+002, 1.915741e+005
3.312155e+002, 1.924818e+005
3.316976e+002, 1.933708e+005
3.321797e+002, 1.942937e+005
3.326619e+002, 1.952632e+005
3.331440e+002, 1.962456e+005
3.336261e+002, 1.972495e+005
3.341082e+002, 1.982484e+005
3.345903e+002, 1.991742e+005
3.350724e+002, 1.999019e+005
3.355546e+002, 2.005894e+005
3.360367e+002, 2.014888e+005
3.365188e+002, 2.026234e+005
3.370009e+002, 2.036924e+005
3.374830e+002, 2.044681e+005
3.379651e+002, 2.050785e+005
3.384473e+002, 2.057628e+005
3.389294e+002, 2.065756e+005
3.394115e+002, 2.074210e+005
3.398936e+002, 2.082266e+005
3.403757e+002, 2.089982e+005
3.408578e+002, 2.097568e+005
3.413400e+002, 2.105305e+005
3.418221e+002, 2.112759e+005
3.423042e+002, 2.119402e+005
3.427863e+002, 2.125244e+005
3.432684e+002, 2.130487e+005
3.437505e+002, 2.135026e+005
3.442327e+002, 2.139046e+005
3.447148e+002, 2.143020e+005
3.451969e+002, 2.147088e+005
3.456790e+002, 2.150999e+005
3.461611e+002, 2.154471e+005
3.466432e+002, 2.157556e+005
3.471254e+002, 2.160248e+005
3.476075e+002, 2.162747e+005
3.480896e+002, 2.164748e+005
3.485717e+002, 2.165700e+005
3.490538e+002, 2.165535e+005
3.495359e+002, 2.165029e+005
3.500181e+002, 2.164989e+005
3.505002e+002, 2.165055e+005
3.509823e+002, 2.163834e+005
3.514644e+002, 2.160075e+005
3.519465e+002, 2.156017e+005
3.524286e+002, 2.153695e+005
3.529108e+002, 2.152613e+005
3.533929e+002, 2.150263e+005
3.538750e+002, 2.145259e+005
3.543571e+002, 2.138388e+005
3.548392e+002, 2.131606e+005
3.553214e+002, 2.124853e+005
3.558035e+002, 2.118304e+005
3.562856e+002, 2.112644e+005
3.567677e+002, 2.107144e+005
3.572498e+002, 2.100352e+005
3.577319e+002, 2.091736e+005
3.582141e+002, 2.082346e+005
3.586962e+002, 2.073549e+005
3.591783e+002, 2.065541e+005
3.596604e+002, 2.056902e+005
3.601425e+002, 2.046898e+005
3.606246e+002, 2.036509e+005
3.611068e+002, 2.026921e+005
3.615889e+002, 2.018099e+005
3.620710e+002, 2.009018e+005
3.625531e+002, 1.998776e+005
3.630352e+002, 1.987324e+005
3.635173e+002, 1.975939e+005
3.639995e+002, 1.964273e+005
3.644816e+002, 1.952945e+005
3.649637e+002, 1.942482e+005
3.654458e+002, 1.932633e+005
3.659279e+002, 1.922814e+005
3.664100e+002, 1.912784e+005
3.668922e+002, 1.902454e+005
3.673743e+002, 1.891656e+005
3.678564e+002, 1.879746e+005
3.683385e+002, 1.868271e+005
3.688206e+002, 1.857724e+005
3.693027e+002, 1.847565e+005
3.697849e+002, 1.837299e+005
3.702670e+002, 1.826811e+005
3.707491e+002, 1.816081e+005
3.712312e+002, 1.805069e+005
3.717133e+002, 1.793728e+005
3.721954e+002, 1.782425e+005
3.726776e+002, 1.771096e+005
3.731597e+002, 1.759905e+005
3.736418e+002, 1.749022e+005
3.741239e+002, 1.738371e+005
3.746060e+002, 1.727596e+005
3.750881e+002, 1.716242e+005
3.755703e+002, 1.704385e+005
3.760524e+002, 1.693095e+005
3.765345e+002, 1.682336e+005
3.770166e+002, 1.672113e+005
3.774987e+002, 1.662658e+005
3.779808e+002, 1.653656e+005
3.784630e+002, 1.644675e+005
3.789451e+002, 1.635520e+005
3.794272e+002, 1.626228e+005
3.799093e+002, 1.616835e+005
3.803914e+002, 1.606586e+005
3.808735e+002, 1.597520e+005
3.813557e+002, 1.590538e+005
3.818378e+002, 1.584045e+005
3.823199e+002, 1.576673e+005
3.828020e+002, 1.568303e+005
3.832841e+002, 1.559971e+005
3.837662e+002, 1.552976e+005
3.842484e+002, 1.547551e+005
3.847305e+002, 1.541608e+005
3.852126e+002, 1.534347e+005
3.856947e+002, 1.527279e+005
3.861768e+002, 1.521031e+005
3.866589e+002, 1.515331e+005
3.871411e+002, 1.509564e+005
3.876232e+002, 1.503319e+005
3.881053e+002, 1.496737e+005
3.885874e+002, 1.490314e+005
3.890695e+002, 1.483816e+005
3.895516e+002, 1.477987e+005
3.900338e+002, 1.472695e+005
3.905159e+002, 1.468163e+005
3.909980e+002, 1.465064e+005
3.914801e+002, 1.463544e+005
3.919622e+002, 1.462066e+005
3.924443e+002, 1.458518e+005
3.929265e+002, 1.452676e+005
3.934086e+002, 1.446992e+005
3.938907e+002, 1.441200e+005
3.943728e+002, 1.436272e+005
3.948549e+002, 1.433326e+005
3.953370e+002, 1.431886e+005
3.958192e+002, 1.430163e+005
3.963013e+002, 1.426806e+005
3.967834e+002, 1.422293e+005
3.972655e+002, 1.418146e+005
3.977476e+002, 1.414310e+005
3.982297e+002, 1.411012e+005
3.987119e+002, 1.408574e+005
3.991940e+002, 1.406667e+005
3.996761e+002, 1.404922e+005
4.001582e+002, 1.403198e+005
4.006403e+002, 1.401704e+005
4.011224e+002, 1.401118e+005
4.016046e+002, 1.401315e+005
4.020867e+002, 1.400162e+005
4.025688e+002, 1.396117e+005
4.030509e+002, 1.391443e+005
4.035330e+002, 1.389112e+005
4.040151e+002, 1.389174e+005
4.044973e+002, 1.388847e+005
4.049794e+002, 1.386545e+005
4.054615e+002, 1.383169e+005
4.059436e+002, 1.380239e+005
4.064257e+002, 1.377966e+005
4.069078e+002, 1.375983e+005
4.073900e+002, 1.374052e+005
4.078721e+002, 1.372202e+005
4.083542e+002, 1.370494e+005
4.088363e+002, 1.369146e+005
4.093184e+002, 1.367764e+005
4.098005e+002, 1.366075e+005
4.102827e+002, 1.364144e+005
4.107648e+002, 1.362236e+005
4.112469e+002, 1.360489e+005
4.117290e+002, 1.358797e+005
4.122111e+002, 1.356911e+005
4.126932e+002, 1.354798e+005
4.131754e+002, 1.352616e+005
4.136575e+002, 1.350335e+005
4.141396e+002, 1.348026e+005
4.146217e+002, 1.345909e+005
4.151038e+002, 1.343965e+005
4.155859e+002, 1.341640e+005
4.160681e+002, 1.338252e+005
4.165502e+002, 1.333630e+005
4.170323e+002, 1.329862e+005
4.175144e+002, 1.327666e+005
4.179965e+002, 1.325423e+005
4.184786e+002, 1.322383e+005
4.189608e+002, 1.318831e+005
4.194429e+002, 1.315420e+005
4.199250e+002, 1.312507e+005
4.204071e+002, 1.309805e+005
4.208892e+002, 1.306498e+005
4.213713e+002, 1.302212e+005
4.218535e+002, 1.297875e+005
4.223356e+002, 1.293446e+005
4.228177e+002, 1.289017e+005
4.232998e+002, 1.284768e+005
4.237819e+002, 1.280649e+005
4.242640e+002, 1.276415e+005
4.247462e+002, 1.271773e+005
4.252283e+002, 1.266671e+005
4.257104e+002, 1.261664e+005
4.261925e+002, 1.256964e+005
4.266746e+002, 1.252121e+005
4.271567e+002, 1.246848e+005
4.276389e+002, 1.241380e+005
4.281210e+002, 1.236142e+005
4.286031e+002, 1.231356e+005
4.290852e+002, 1.226799e+005
4.295673e+002, 1.222145e+005
4.300494e+002, 1.217495e+005
4.305316e+002, 1.212367e+005
4.310137e+002, 1.205986e+005
4.314958e+002, 1.199571e+005
4.319779e+002, 1.194140e+005
4.324600e+002, 1.189667e+005
4.329421e+002, 1.185066e+005
4.334243e+002, 1.179406e+005
4.339064e+002, 1.172912e+005
4.343885e+002, 1.166460e+005
4.348706e+002, 1.159945e+005
4.353527e+002, 1.153755e+005
4.358348e+002, 1.148440e+005
4.363170e+002, 1.143543e+005
4.367991e+002, 1.138203e+005
4.372812e+002, 1.131969e+005
4.377633e+002, 1.125590e+005
4.382454e+002, 1.119848e+005
4.387275e+002, 1.114624e+005
4.392097e+002, 1.109259e+005
4.396918e+002, 1.103540e+005
4.401739e+002, 1.097602e+005
4.406560e+002, 1.091595e+005
4.411381e+002, 1.085472e+005
4.416202e+002, 1.079500e+005
4.421024e+002, 1.073872e+005
4.425845e+002, 1.068384e+005
4.430666e+002, 1.062726e+005
4.435487e+002, 1.056898e+005
4.440308e+002, 1.051472e+005
4.445129e+002, 1.047072e+005
4.449951e+002, 1.043513e+005
4.454772e+002, 1.038832e+005
4.459593e+002, 1.032081e+005
4.464414e+002, 1.025520e+005
4.469235e+002, 1.019988e+005
4.474056e+002, 1.015034e+005
4.478878e+002, 1.009841e+005
4.483699e+002, 1.004143e+005
4.488520e+002, 9.985302e+004
4.493341e+002, 9.939540e+004
4.498162e+002, 9.910320e+004
4.502983e+002, 9.874358e+004
4.507805e+002, 9.832797e+004
4.512626e+002, 9.784743e+004
4.517447e+002, 9.723982e+004
4.522268e+002, 9.655880e+004
4.527089e+002, 9.592948e+004
4.531910e+002, 9.544284e+004
4.536732e+002, 9.506524e+004
4.541553e+002, 9.465820e+004
4.546374e+002, 9.418746e+004
4.551195e+002, 9.374545e+004
4.556016e+002, 9.336884e+004
4.560837e+002, 9.300982e+004
4.565659e+002, 9.262252e+004
4.570480e+002, 9.219896e+004
4.575301e+002, 9.178720e+004
4.580122e+002, 9.144808e+004
4.584943e+002, 9.117848e+004
4.589764e+002, 9.088830e+004
4.594586e+002, 9.059927e+004
4.599407e+002, 9.024827e+004
4.604228e+002, 8.974456e+004
4.609049e+002, 8.917444e+004
4.613870e+002, 8.869852e+004
4.618691e+002, 8.840116e+004
4.623513e+002, 8.817402e+004
4.628334e+002, 8.789073e+004
4.633155e+002, 8.755364e+004
4.637976e+002, 8.722917e+004
4.642797e+002, 8.696178e+004
4.647618e+002, 8.668603e+004
4.652440e+002, 8.628413e+004
4.657261e+002, 8.575027e+004
4.662082e+002, 8.531033e+004
4.666903e+002, 8.515037e+004
4.671724e+002, 8.506459e+004
4.676545e+002, 8.477055e+004
4.681367e+002, 8.425953e+004
4.686188e+002, 8.374907e+004
4.691009e+002, 8.338017e+004
4.695830e+002, 8.313509e+004
4.700651e+002, 8.291123e+004
4.705472e+002, 8.276720e+004
4.710294e+002, 8.256996e+004
4.715115e+002, 8.225970e+004
4.719936e+002, 8.188878e+004
4.724757e+002, 8.150262e+004
4.729578e+002, 8.111913e+004
4.734399e+002, 8.077174e+004
4.739221e+002, 8.051391e+004
4.744042e+002, 8.037922e+004
4.748863e+002, 8.013541e+004
4.753684e+002, 7.972078e+004
4.758505e+002, 7.927397e+004
4.763326e+002, 7.878455e+004
4.768148e+002, 7.831113e+004
4.772969e+002, 7.796328e+004
4.777790e+002, 7.780060e+004
4.782611e+002, 7.772084e+004
4.787432e+002, 7.749349e+004
4.792253e+002, 7.704084e+004
4.797075e+002, 7.666425e+004
4.801896e+002, 7.652058e+004
4.806717e+002, 7.636098e+004
4.811538e+002, 7.601832e+004
4.816359e+002, 7.552164e+004
4.821180e+002, 7.503223e+004
4.826002e+002, 7.465368e+004
4.830823e+002, 7.436433e+004
4.835644e+002, 7.411073e+004
4.840465e+002, 7.390991e+004
4.845286e+002, 7.368622e+004
4.850107e+002, 7.338129e+004
4.854929e+002, 7.304821e+004
4.859750e+002, 7.274423e+004
4.864571e+002, 7.247710e+004
4.869392e+002, 7.223884e+004
4.874213e+002, 7.206006e+004
4.879034e+002, 7.190148e+004
4.883856e+002, 7.166355e+004
4.888677e+002, 7.132018e+004
4.893498e+002, 7.096583e+004
4.898319e+002, 7.068623e+004
4.903140e+002, 7.047529e+004
4.907961e+002, 7.023856e+004
4.912783e+002, 6.992498e+004
4.917604e+002, 6.963757e+004
4.922425e+002, 6.947833e+004
4.927246e+002, 6.936730e+004
4.932067e+002, 6.913148e+004
4.936888e+002, 6.871109e+004
4.941710e+002, 6.823021e+004
4.946531e+002, 6.788838e+004
4.951352e+002, 6.773864e+004
4.956173e+002, 6.756814e+004
4.960994e+002, 6.739218e+004
4.965815e+002, 6.718438e+004
4.970637e+002, 6.689673e+004
4.975458e+002, 6.657016e+004
4.980279e+002, 6.630100e+004
4.985100e+002, 6.615041e+004
4.989921e+002, 6.605239e+004
4.994742e+002, 6.581678e+004
4.999564e+002, 6.535492e+004
5.004385e+002, 6.498122e+004
5.009206e+002, 6.482759e+004
5.014027e+002, 6.470285e+004
5.018848e+002, 6.448388e+004
5.023669e+002, 6.417706e+004
5.028491e+002, 6.387904e+004
5.033312e+002, 6.367243e+004
5.038133e+002, 6.351902e+004
5.042954e+002, 6.331160e+004
5.047775e+002, 6.304114e+004
5.052596e+002, 6.276181e+004
5.057418e+002, 6.247211e+004
5.062239e+002, 6.220625e+004
5.067060e+002, 6.202350e+004
5.071881e+002, 6.195233e+004
5.076702e+002, 6.185959e+004
5.081523e+002, 6.166308e+004
5.086345e+002, 6.140693e+004
5.091166e+002, 6.115076e+004
5.095987e+002, 6.090238e+004
5.100808e+002, 6.069532e+004
5.105629e+002, 6.057594e+004
5.110450e+002, 6.053040e+004
5.115272e+002, 6.039279e+004
5.120093e+002, 6.007636e+004
5.124914e+002, 5.978248e+004
5.129735e+002, 5.957123e+004
5.134556e+002, 5.941470e+004
5.139377e+002, 5.928923e+004
5.144199e+002, 5.918351e+004
5.149020e+002, 5.906421e+004
5.153841e+002, 5.888730e+004
5.158662e+002, 5.864314e+004
5.163483e+002, 5.841071e+004
5.168304e+002, 5.818138e+004
5.173126e+002, 5.797502e+004
5.177947e+002, 5.781134e+004
5.182768e+002, 5.767116e+004
5.187589e+002, 5.752604e+004
5.192410e+002, 5.736426e+004
5.197231e+002, 5.720057e+004
5.202053e+002, 5.705608e+004
5.206874e+002, 5.693221e+004
5.211695e+002, 5.680982e+004
5.216516e+002, 5.668291e+004
5.221337e+002, 5.656164e+004
5.226158e+002, 5.647521e+004
5.230980e+002, 5.640143e+004
5.235801e+002, 5.627116e+004
5.240622e+002, 5.599822e+004
5.245443e+002, 5.572007e+004
5.250264e+002, 5.560306e+004
5.255085e+002, 5.562181e+004
5.259907e+002, 5.564127e+004
5.264728e+002, 5.562911e+004
5.269549e+002, 5.556468e+004
5.274370e+002, 5.539357e+004
5.279191e+002, 5.508883e+004
5.284012e+002, 5.484877e+004
5.288834e+002, 5.472063e+004
5.293655e+002, 5.463976e+004
5.298476e+002, 5.457927e+004
5.303297e+002, 5.452844e+004
5.308118e+002, 5.446652e+004
5.312939e+002, 5.438016e+004
5.317761e+002, 5.428808e+004
5.322582e+002, 5.424188e+004
5.327403e+002, 5.428620e+004
5.332224e+002, 5.429274e+004
5.337045e+002, 5.424083e+004
5.341866e+002, 5.417098e+004
5.346688e+002, 5.409895e+004
5.351509e+002, 5.402945e+004
5.356330e+002, 5.396559e+004
5.361151e+002, 5.390811e+004
5.365972e+002, 5.385935e+004
5.370793e+002, 5.383286e+004
5.375615e+002, 5.384113e+004
5.380436e+002, 5.382039e+004
5.385257e+002, 5.371185e+004
5.390078e+002, 5.359971e+004
5.394899e+002, 5.356717e+004
5.399720e+002, 5.361290e+004
5.404542e+002, 5.365614e+004
5.409363e+002, 5.364837e+004
5.414184e+002, 5.362013e+004
5.419005e+002, 5.361843e+004
5.423826e+002, 5.364354e+004
5.428647e+002, 5.366323e+004
5.433469e+002, 5.365990e+004
5.438290e+002, 5.364115e+004
5.443111e+002, 5.362345e+004
5.447932e+002, 5.359447e+004
5.452753e+002, 5.359314e+004
5.457574e+002, 5.364406e+004
5.462396e+002, 5.371076e+004
5.467217e+002, 5.377312e+004
5.472038e+002, 5.382287e+004
5.476859e+002, 5.383718e+004
5.481680e+002, 5.379130e+004
5.486501e+002, 5.371437e+004
5.491323e+002, 5.374504e+004
5.496144e+002, 5.398357e+004
5.500965e+002, 5.415588e+004
5.505786e+002, 5.420268e+004
5.510607e+002, 5.420507e+004
5.515428e+002, 5.420110e+004
5.520250e+002, 5.420536e+004
5.525071e+002, 5.424147e+004
5.529892e+002, 5.434440e+004
5.534713e+002, 5.448621e+004
5.539534e+002, 5.458102e+004
5.544355e+002, 5.461848e+004
5.549177e+002, 5.465846e+004
5.553998e+002, 5.470928e+004
5.558819e+002, 5.478784e+004
5.563640e+002, 5.493489e+004
5.568461e+002, 5.516671e+004
5.573282e+002, 5.533564e+004
5.578104e+002, 5.533268e+004
5.582925e+002, 5.526752e+004
5.587746e+002, 5.527052e+004
5.592567e+002, 5.534463e+004
5.597388e+002, 5.542006e+004
5.602209e+002, 5.544741e+004
5.607031e+002, 5.545866e+004
5.611852e+002, 5.555620e+004
5.616673e+002, 5.583075e+004
5.621494e+002, 5.606881e+004
5.626315e+002, 5.625311e+004
5.631136e+002, 5.641164e+004
5.635958e+002, 5.655937e+004
5.640779e+002, 5.670070e+004
5.645600e+002, 5.683272e+004
5.650421e+002, 5.695067e+004
5.655242e+002, 5.706313e+004
5.660063e+002, 5.719145e+004
5.664885e+002, 5.731730e+004
5.669706e+002, 5.751046e+004
5.674527e+002, 5.791336e+004
5.679348e+002, 5.829318e+004
5.684169e+002, 5.844757e+004
5.688990e+002, 5.839845e+004
5.693812e+002, 5.837495e+004
5.698633e+002, 5.853652e+004
5.703454e+002, 5.877182e+004
5.708275e+002, 5.891202e+004
5.713096e+002, 5.896253e+004
5.717917e+002, 5.902251e+004
5.722739e+002, 5.913197e+004
5.727560e+002, 5.927778e+004
5.732381e+002, 5.944226e+004
5.737202e+002, 5.963339e+004
5.742023e+002, 5.981457e+004
5.746844e+002, 5.997279e+004
5.751666e+002, 6.012974e+004
5.756487e+002, 6.030207e+004
5.761308e+002, 6.048598e+004
5.766129e+002, 6.066567e+004
5.770950e+002, 6.083298e+004
5.775771e+002, 6.099973e+004
5.780593e+002, 6.119563e+004
5.785414e+002, 6.143459e+004
5.790235e+002, 6.166390e+004
5.795056e+002, 6.191811e+004
5.799877e+002, 6.212598e+004
5.804698e+002, 6.220952e+004
5.809520e+002, 6.222221e+004
5.814341e+002, 6.229250e+004
5.819162e+002, 6.249550e+004
5.823983e+002, 6.274325e+004
5.828804e+002, 6.290516e+004
5.833625e+002, 6.299242e+004
5.838447e+002, 6.312372e+004
5.843268e+002, 6.333752e+004
5.848089e+002, 6.357783e+004
5.852910e+002, 6.380488e+004
5.857731e+002, 6.401466e+004
5.862552e+002, 6.415711e+004
5.867374e+002, 6.415557e+004
5.872195e+002, 6.416171e+004
5.877016e+002, 6.426177e+004
5.881837e+002, 6.442113e+004
5.886658e+002, 6.458952e+004
5.891479e+002, 6.474877e+004
5.896301e+002, 6.487899e+004
5.901122e+002, 6.494865e+004
5.905943e+002, 6.494729e+004
5.910764e+002, 6.498466e+004
5.915585e+002, 6.510161e+004
5.920406e+002, 6.521054e+004
5.925228e+002, 6.525964e+004
5.930049e+002, 6.530412e+004
5.934870e+002, 6.542941e+004
5.939691e+002, 6.565453e+004
5.944512e+002, 6.586770e+004
5.949333e+002, 6.595229e+004
5.954155e+002, 6.593388e+004
5.958976e+002, 6.591306e+004
5.963797e+002, 6.588625e+004
5.968618e+002, 6.590123e+004
5.973439e+002, 6.602013e+004
5.978260e+002, 6.618749e+004
5.983082e+002, 6.626054e+004
5.987903e+002, 6.618895e+004
5.992724e+002, 6.615103e+004
5.997545e+002, 6.622373e+004
6.002366e+002, 6.634663e+004
6.007188e+002, 6.647494e+004
6.012009e+002, 6.659390e+004
6.016830e+002, 6.667296e+004
6.021651e+002, 6.668741e+004
6.026472e+002, 6.665723e+004
6.031293e+002, 6.665440e+004
6.036115e+002, 6.667232e+004
6.040936e+002, 6.673228e+004
6.045757e+002, 6.688369e+004
6.050578e+002, 6.703023e+004
6.055399e+002, 6.712104e+004
6.060220e+002, 6.715444e+004
6.065042e+002, 6.714200e+004
6.069863e+002, 6.707130e+004
6.074684e+002, 6.698653e+004
6.079505e+002, 6.697072e+004
6.084326e+002, 6.702177e+004
6.089147e+002, 6.704629e+004
6.093969e+002, 6.700423e+004
6.098790e+002, 6.695807e+004
6.103611e+002, 6.699621e+004
6.108432e+002, 6.710888e+004
6.113253e+002, 6.716257e+004
6.118074e+002, 6.708257e+004
6.122896e+002, 6.700386e+004
6.127717e+002, 6.699290e+004
6.132538e+002, 6.703263e+004
6.137359e+002, 6.710266e+004
6.142180e+002, 6.719334e+004
6.147001e+002, 6.727698e+004
6.151823e+002, 6.731870e+004
6.156644e+002, 6.731591e+004
6.161465e+002, 6.732164e+004
6.166286e+002, 6.734728e+004
6.171107e+002, 6.736503e+004
6.175928e+002, 6.736705e+004
6.180750e+002, 6.735855e+004
6.185571e+002, 6.733448e+004
6.190392e+002, 6.729630e+004
6.195213e+002, 6.728238e+004
6.200034e+002, 6.735962e+004
6.204855e+002, 6.747304e+004
6.209677e+002, 6.747549e+004
6.214498e+002, 6.735684e+004
6.219319e+002, 6.726627e+004
6.224140e+002, 6.727002e+004
6.228961e+002, 6.735463e+004
6.233782e+002, 6.751844e+004
6.238604e+002, 6.782205e+004
6.243425e+002, 6.800623e+004
6.248246e+002, 6.795541e+004
6.253067e+002, 6.785185e+004
6.257888e+002, 6.778708e+004
6.262709e+002, 6.777375e+004
6.267531e+002, 6.781724e+004
6.272352e+002, 6.792104e+004
6.277173e+002, 6.805380e+004
6.281994e+002, 6.816463e+004
6.286815e+002, 6.825693e+004
6.291636e+002, 6.830491e+004
6.296458e+002, 6.827075e+004
6.301279e+002, 6.823715e+004
6.306100e+002, 6.824071e+004
6.310921e+002, 6.827350e+004
6.315742e+002, 6.832256e+004
6.320563e+002, 6.838559e+004
6.325385e+002, 6.846163e+004
6.330206e+002, 6.855554e+004
6.335027e+002, 6.866076e+004
6.339848e+002, 6.876886e+004
6.344669e+002, 6.887827e+004
6.349490e+002, 6.897706e+004
6.354312e+002, 6.905539e+004
6.359133e+002, 6.911771e+004
6.363954e+002, 6.918534e+004
6.368775e+002, 6.924525e+004
6.373596e+002, 6.932934e+004
6.378417e+002, 6.944084e+004
6.383239e+002, 6.957484e+004
6.388060e+002, 6.976077e+004
6.392881e+002, 6.996895e+004
6.397702e+002, 7.011173e+004
6.402523e+002, 7.012476e+004
6.407344e+002, 7.007428e+004
6.412166e+002, 7.009631e+004
6.416987e+002, 7.019551e+004
6.421808e+002, 7.025354e+004
6.426629e+002, 7.022171e+004
6.431450e+002, 7.018455e+004
6.436271e+002, 7.022459e+004
6.441093e+002, 7.032398e+004
6.445914e+002, 7.042211e+004
6.450735e+002, 7.051637e+004
6.455556e+002, 7.060122e+004
6.460377e+002, 7.066108e+004
6.465198e+002, 7.071556e+004
6.470020e+002, 7.081334e+004
6.474841e+002, 7.095209e+004
6.479662e+002, 7.104620e+004
6.484483e+002, 7.100430e+004
6.489304e+002, 7.085741e+004
6.494125e+002, 7.083585e+004
6.498947e+002, 7.103055e+004
6.503768e+002, 7.118054e+004
6.508589e+002, 7.123868e+004
6.513410e+002, 7.124041e+004
6.518231e+002, 7.117755e+004
6.523052e+002, 7.107052e+004
6.527874e+002, 7.100062e+004
6.532695e+002, 7.104709e+004
6.537516e+002, 7.111358e+004
6.542337e+002, 7.106115e+004
6.547158e+002, 7.091750e+004
6.551979e+002, 7.081632e+004
6.556801e+002, 7.079982e+004
6.561622e+002, 7.081149e+004
6.566443e+002, 7.079369e+004
6.571264e+002, 7.074597e+004
6.576085e+002, 7.067641e+004
6.580906e+002, 7.055109e+004
6.585728e+002, 7.044989e+004
6.590549e+002, 7.042280e+004
6.595370e+002, 7.041009e+004
6.600191e+002, 7.035583e+004
6.605012e+002, 7.024834e+004
6.609833e+002, 7.009837e+004
6.614655e+002, 6.989934e+004
6.619476e+002, 6.967280e+004
6.624297e+002, 6.950316e+004
6.629118e+002, 6.940212e+004
6.633939e+002, 6.926305e+004
6.638760e+002, 6.902247e+004
6.643582e+002, 6.876834e+004
6.648403e+002, 6.862922e+004
6.653224e+002, 6.859374e+004
6.658045e+002, 6.850545e+004
6.662866e+002, 6.829080e+004
6.667687e+002, 6.806827e+004
6.672509e+002, 6.791133e+004
6.677330e+002, 6.778898e+004
6.682151e+002, 6.765795e+004
6.686972e+002, 6.750241e+004
6.691793e+002, 6.730924e+004
6.696614e+002, 6.705237e+004
6.701436e+002, 6.673906e+004
6.706257e+002, 6.648086e+004
6.711078e+002, 6.631488e+004
6.715899e+002, 6.612582e+004
6.720720e+002, 6.583973e+004
6.725541e+002, 6.554518e+004
6.730363e+002, 6.532377e+004
6.735184e+002, 6.517141e+004
6.740005e+002, 6.499717e+004
6.744826e+002, 6.474673e+004
6.749647e+002, 6.446657e+004
6.754468e+002, 6.417821e+004
6.759290e+002, 6.389715e+004
6.764111e+002, 6.368763e+004
6.768932e+002, 6.357184e+004
6.773753e+002, 6.345505e+004
6.778574e+002, 6.322281e+004
6.783395e+002, 6.287005e+004
6.788217e+002, 6.253368e+004
6.793038e+002, 6.219406e+004
6.797859e+002, 6.189911e+004
6.802680e+002, 6.169796e+004
6.807501e+002, 6.152000e+004
6.812322e+002, 6.130920e+004
6.817144e+002, 6.105833e+004
6.821965e+002, 6.077634e+004
6.826786e+002, 6.043670e+004
6.831607e+002, 6.009493e+004
6.836428e+002, 5.987379e+004
6.841249e+002, 5.975467e+004
6.846071e+002, 5.957861e+004
6.850892e+002, 5.928715e+004
6.855713e+002, 5.895696e+004
6.860534e+002, 5.867252e+004
6.865355e+002, 5.843836e+004
6.870176e+002, 5.818590e+004
6.874998e+002, 5.791767e+004
6.879819e+002, 5.763046e+004
6.884640e+002, 5.730722e+004
6.889461e+002, 5.697511e+004
6.894282e+002, 5.665743e+004
6.899103e+002, 5.635887e+004
6.903925e+002, 5.606844e+004
6.908746e+002, 5.576713e+004
6.913567e+002, 5.548100e+004
6.918388e+002, 5.529654e+004
6.923209e+002, 5.521956e+004
6.928030e+002, 5.510330e+004
6.932852e+002, 5.490792e+004
6.937673e+002, 5.466401e+004
6.942494e+002, 5.439127e+004
6.947315e+002, 5.409079e+004
6.952136e+002, 5.379300e+004
6.956957e+002, 5.349184e+004
6.961779e+002, 5.320069e+004
6.966600e+002, 5.290799e+004
6.971421e+002, 5.263700e+004
6.976242e+002, 5.244047e+004
6.981063e+002, 5.230473e+004
6.985884e+002, 5.213152e+004
6.990706e+002, 5.183233e+004
6.995527e+002, 5.146613e+004
7.000348e+002, 5.121675e+004
7.005169e+002, 5.110981e+004
7.009990e+002, 5.095398e+004
7.014811e+002, 5.069433e+004
7.019633e+002, 5.040020e+004
7.024454e+002, 5.011229e+004
7.029275e+002, 4.983548e+004
7.034096e+002, 4.958396e+004
7.038917e+002, 4.936699e+004
7.043738e+002, 4.916564e+004
7.048560e+002, 4.898104e+004
7.053381e+002, 4.880064e+004
7.058202e+002, 4.861740e+004
7.063023e+002, 4.842391e+004
7.067844e+002, 4.818993e+004
7.072665e+002, 4.788791e+004
7.077487e+002, 4.755796e+004
7.082308e+002, 4.733612e+004
7.087129e+002, 4.726295e+004
7.091950e+002, 4.710200e+004
7.096771e+002, 4.676064e+004
7.101592e+002, 4.641245e+004
7.106414e+002, 4.617718e+004
7.111235e+002, 4.601512e+004
7.116056e+002, 4.584683e+004
7.120877e+002, 4.566808e+004
7.125698e+002, 4.546200e+004
7.130519e+002, 4.519905e+004
7.135341e+002, 4.491949e+004
7.140162e+002, 4.466827e+004
7.144983e+002, 4.444891e+004
7.149804e+002, 4.425103e+004
7.154625e+002, 4.407000e+004
7.159446e+002, 4.388961e+004
7.164268e+002, 4.367146e+004
7.169089e+002, 4.340585e+004
7.173910e+002, 4.314038e+004
7.178731e+002, 4.285136e+004
7.183552e+002, 4.259454e+004
7.188373e+002, 4.241292e+004
7.193195e+002, 4.226967e+004
7.198016e+002, 4.211482e+004
7.202837e+002, 4.194023e+004
7.207658e+002, 4.175522e+004
7.212479e+002, 4.157426e+004
7.217300e+002, 4.137819e+004
7.222122e+002, 4.112664e+004
7.226943e+002, 4.083813e+004
7.231764e+002, 4.057647e+004
7.236585e+002, 4.036961e+004
7.241406e+002, 4.019553e+004
7.246227e+002, 4.002616e+004
7.251049e+002, 3.986248e+004
7.255870e+002, 3.968461e+004
7.260691e+002, 3.949443e+004
7.265512e+002, 3.928746e+004
7.270333e+002, 3.903719e+004
7.275154e+002, 3.878546e+004
7.279976e+002, 3.857917e+004
7.284797e+002, 3.842199e+004
7.289618e+002, 3.827861e+004
7.294439e+002, 3.815925e+004
7.299260e+002, 3.802664e+004
7.304081e+002, 3.782251e+004
7.308903e+002, 3.758188e+004
7.313724e+002, 3.740161e+004
7.318545e+002, 3.730609e+004
7.323366e+002, 3.721648e+004
7.328187e+002, 3.704760e+004
7.333008e+002, 3.680572e+004
7.337830e+002, 3.656018e+004
7.342651e+002, 3.629947e+004
7.347472e+002, 3.606048e+004
7.352293e+002, 3.587182e+004
7.357114e+002, 3.569149e+004
7.361935e+002, 3.548563e+004
7.366757e+002, 3.526122e+004
7.371578e+002, 3.505024e+004
7.376399e+002, 3.486594e+004
7.381220e+002, 3.469310e+004
7.386041e+002, 3.453500e+004
7.390862e+002, 3.437682e+004
7.395684e+002, 3.418425e+004
7.400505e+002, 3.396032e+004
7.405326e+002, 3.375713e+004
7.410147e+002, 3.361650e+004
7.414968e+002, 3.351196e+004
7.419789e+002, 3.335836e+004
7.424611e+002, 3.313933e+004
7.429432e+002, 3.293049e+004
7.434253e+002, 3.272764e+004
7.439074e+002, 3.255205e+004
7.443895e+002, 3.243211e+004
7.448716e+002, 3.234161e+004
7.453538e+002, 3.223195e+004
7.458359e+002, 3.209219e+004
7.463180e+002, 3.194440e+004
7.468001e+002, 3.178747e+004
7.472822e+002, 3.163650e+004
7.477643e+002, 3.152397e+004
7.482465e+002, 3.143275e+004
7.487286e+002, 3.130217e+004
7.492107e+002, 3.110503e+004
7.496928e+002, 3.087659e+004
7.501749e+002, 3.066180e+004
7.506570e+002, 3.045954e+004
7.511392e+002, 3.029198e+004
7.516213e+002, 3.016761e+004
7.521034e+002, 3.005780e+004
7.525855e+002, 2.996709e+004
7.530676e+002, 2.987405e+004
7.535497e+002, 2.975484e+004
7.540319e+002, 2.960874e+004
7.545140e+002, 2.944631e+004
7.549961e+002, 2.925924e+004
7.554782e+002, 2.906750e+004
7.559603e+002, 2.886065e+004
7.564424e+002, 2.866703e+004
7.569246e+002, 2.853968e+004
7.574067e+002, 2.848126e+004
7.578888e+002, 2.843561e+004
7.583709e+002, 2.836144e+004
7.588530e+002, 2.825308e+004
7.593351e+002, 2.807116e+004
7.598173e+002, 2.780038e+004
7.602994e+002, 2.759871e+004
7.607815e+002, 2.753286e+004
7.612636e+002, 2.748644e+004
7.617457e+002, 2.735011e+004
7.622278e+002, 2.714790e+004
7.627100e+002, 2.699830e+004
7.631921e+002, 2.694930e+004
7.636742e+002, 2.688347e+004
7.641563e+002, 2.677034e+004
7.646384e+002, 2.663382e+004
7.651205e+002, 2.647791e+004
7.656027e+002, 2.631625e+004
7.660848e+002, 2.618052e+004
7.665669e+002, 2.608645e+004
7.670490e+002, 2.599887e+004
7.675311e+002, 2.585686e+004
7.680132e+002, 2.567608e+004
7.684954e+002, 2.555486e+004
7.689775e+002, 2.550692e+004
7.694596e+002, 2.544607e+004
7.699417e+002, 2.532376e+004
7.704238e+002, 2.517508e+004
7.709059e+002, 2.506689e+004
7.713881e+002, 2.502250e+004
7.718702e+002, 2.492277e+004
7.723523e+002, 2.469076e+004
7.728344e+002, 2.449587e+004
7.733165e+002, 2.442538e+004
7.737986e+002, 2.440614e+004
7.742808e+002, 2.436706e+004
7.747629e+002, 2.429149e+004
7.752450e+002, 2.417709e+004
7.757271e+002, 2.398099e+004
7.762092e+002, 2.378562e+004
7.766913e+002, 2.375769e+004
7.771735e+002, 2.384654e+004
7.776556e+002, 2.382451e+004
7.781377e+002, 2.363554e+004
7.786198e+002, 2.343088e+004
7.791019e+002, 2.334577e+004
7.795840e+002, 2.335014e+004
7.800662e+002, 2.328675e+004
7.805483e+002, 2.309258e+004
7.810304e+002, 2.295022e+004
7.815125e+002, 2.292472e+004
7.819946e+002, 2.289822e+004
7.824767e+002, 2.281021e+004
7.829589e+002, 2.268053e+004
7.834410e+002, 2.254740e+004
7.839231e+002, 2.241606e+004
7.844052e+002, 2.230025e+004
7.848873e+002, 2.220739e+004
7.853694e+002, 2.213497e+004
7.858516e+002, 2.209000e+004
7.863337e+002, 2.206407e+004
7.868158e+002, 2.203540e+004
7.872979e+002, 2.199504e+004
7.877800e+002, 2.193510e+004
7.882621e+002, 2.184031e+004
7.887443e+002, 2.171255e+004
7.892264e+002, 2.159079e+004
7.897085e+002, 2.146512e+004
7.901906e+002, 2.137572e+004
7.906727e+002, 2.136659e+004
7.911548e+002, 2.136650e+004
7.916370e+002, 2.128814e+004
7.921191e+002, 2.114605e+004
7.926012e+002, 2.104664e+004
7.930833e+002, 2.103152e+004
7.935654e+002, 2.102842e+004
7.940475e+002, 2.104826e+004
7.945297e+002, 2.104071e+004
7.950118e+002, 2.092381e+004
7.954939e+002, 2.072538e+004
7.959760e+002, 2.055788e+004
7.964581e+002, 2.048411e+004
7.969402e+002, 2.046315e+004
7.974224e+002, 2.043971e+004
7.979045e+002, 2.041500e+004
7.983866e+002, 2.040753e+004
7.988687e+002, 2.042435e+004
7.993508e+002, 2.040590e+004
7.998329e+002, 2.031554e+004
8.003151e+002, 2.018127e+004
8.007972e+002, 2.005269e+004
8.012793e+002, 1.992563e+004
8.017614e+002, 1.981990e+004
8.022435e+002, 1.972886e+004
8.027256e+002, 1.966481e+004
8.032078e+002, 1.964506e+004
8.036899e+002, 1.964544e+004
8.041720e+002, 1.965525e+004
8.046541e+002, 1.966484e+004
8.051362e+002, 1.963846e+004
8.056183e+002, 1.953259e+004
8.061005e+002, 1.941125e+004
8.065826e+002, 1.934350e+004
8.070647e+002, 1.931122e+004
8.075468e+002, 1.927636e+004
8.080289e+002, 1.923146e+004
8.085110e+002, 1.917972e+004
8.089932e+002, 1.912159e+004
8.094753e+002, 1.906388e+004
8.099574e+002, 1.903201e+004
8.104395e+002, 1.904210e+004
8.109216e+002, 1.900013e+004
8.114037e+002, 1.886705e+004
8.118859e+002, 1.873903e+004
8.123680e+002, 1.866101e+004
8.128501e+002, 1.861878e+004
8.133322e+002, 1.859564e+004
8.138143e+002, 1.859278e+004
8.142964e+002, 1.859630e+004
8.147786e+002, 1.862849e+004
8.152607e+002, 1.863904e+004
8.157428e+002, 1.857837e+004
8.162249e+002, 1.848719e+004
8.167070e+002, 1.842209e+004
8.171891e+002, 1.839362e+004
8.176713e+002, 1.838049e+004
8.181534e+002, 1.837147e+004
8.186355e+002, 1.836044e+004
8.191176e+002, 1.832677e+004
8.195997e+002, 1.827581e+004
8.200818e+002, 1.826127e+004
8.205640e+002, 1.829869e+004
8.210461e+002, 1.831274e+004
8.215282e+002, 1.823935e+004
8.220103e+002, 1.811581e+004
8.224924e+002, 1.806036e+004
8.229745e+002, 1.812926e+004
8.234567e+002, 1.813970e+004
8.239388e+002, 1.804741e+004
8.244209e+002, 1.794788e+004
8.249030e+002, 1.785849e+004
8.253851e+002, 1.778927e+004
8.258672e+002, 1.776243e+004
8.263494e+002, 1.777938e+004
8.268315e+002, 1.778260e+004
8.273136e+002, 1.772756e+004
8.277957e+002, 1.766487e+004
8.282778e+002, 1.764461e+004
8.287599e+002, 1.764552e+004
8.292421e+002, 1.762150e+004
8.297242e+002, 1.756829e+004
8.302063e+002, 1.752568e+004
8.306884e+002, 1.752703e+004
8.311705e+002, 1.755069e+004
8.316526e+002, 1.753889e+004
8.321348e+002, 1.749008e+004
8.326169e+002, 1.745430e+004
8.330990e+002, 1.744174e+004
8.335811e+002, 1.742603e+004
8.340632e+002, 1.738289e+004
8.345453e+002, 1.733263e+004
8.350275e+002, 1.732668e+004
8.355096e+002, 1.739866e+004
8.359917e+002, 1.741179e+004
8.364738e+002, 1.729307e+004
8.369559e+002, 1.720028e+004
8.374380e+002, 1.721543e+004
8.379202e+002, 1.727207e+004
8.384023e+002, 1.730067e+004
8.388844e+002, 1.729050e+004
8.393665e+002, 1.726022e+004
8.398486e+002, 1.721849e+004
8.403307e+002, 1.716275e+004
8.408129e+002, 1.706624e+004
8.412950e+002, 1.696155e+004
8.417771e+002, 1.692133e+004
8.422592e+002, 1.694982e+004
8.427413e+002, 1.699945e+004
8.432234e+002, 1.704217e+004
8.437056e+002, 1.707509e+004
8.441877e+002, 1.709468e+004
8.446698e+002, 1.710209e+004
8.451519e+002, 1.707628e+004
8.456340e+002, 1.700264e+004
8.461161e+002, 1.693512e+004
8.465983e+002, 1.689613e+004
8.470804e+002, 1.687454e+004
8.475625e+002, 1.685412e+004
8.480446e+002, 1.683402e+004
8.485267e+002, 1.682725e+004
8.490089e+002, 1.684588e+004
8.494910e+002, 1.686289e+004
8.499731e+002, 1.687710e+004
8.504552e+002, 1.688160e+004
8.509373e+002, 1.685602e+004
8.514194e+002, 1.681499e+004
8.519016e+002, 1.681098e+004
8.523837e+002, 1.688233e+004
8.528658e+002, 1.693965e+004
8.533479e+002, 1.687714e+004
8.538300e+002, 1.675632e+004
8.543121e+002, 1.667762e+004
8.547943e+002, 1.664667e+004
8.552764e+002, 1.664853e+004
8.557585e+002, 1.667725e+004
8.562406e+002, 1.671449e+004
8.567227e+002, 1.673806e+004
8.572048e+002, 1.674800e+004
8.576870e+002, 1.674000e+004
8.581691e+002, 1.670099e+004
8.586512e+002, 1.670325e+004
8.591333e+002, 1.680262e+004
8.596154e+002, 1.688699e+004
8.600975e+002, 1.683423e+004
8.605797e+002, 1.667522e+004
8.610618e+002, 1.658789e+004
8.615439e+002, 1.661088e+004
8.620260e+002, 1.663919e+004
8.625081e+002, 1.668670e+004
8.629902e+002, 1.671163e+004
8.634724e+002, 1.666199e+004
8.639545e+002, 1.658348e+004
8.644366e+002, 1.655806e+004
8.649187e+002, 1.660419e+004
8.654008e+002, 1.664708e+004
8.658829e+002, 1.661971e+004
8.663651e+002, 1.657737e+004
8.668472e+002, 1.658897e+004
8.673293e+002, 1.663589e+004
8.678114e+002, 1.668188e+004
8.682935e+002, 1.671395e+004
8.687756e+002, 1.670365e+004
8.692578e+002, 1.662071e+004
8.697399e+002, 1.650888e+004
8.702220e+002, 1.648953e+004
8.707041e+002, 1.656847e+004
8.711862e+002, 1.661317e+004
8.716683e+002, 1.660518e+004
8.721505e+002, 1.658657e+004
8.726326e+002, 1.656666e+004
8.731147e+002, 1.656275e+004
8.735968e+002, 1.661429e+004
8.740789e+002, 1.674234e+004
8.745610e+002, 1.681070e+004
8.750432e+002, 1.678286e+004
8.755253e+002, 1.674581e+004
8.760074e+002, 1.671136e+004
8.764895e+002, 1.668161e+004
8.769716e+002, 1.665327e+004
8.774537e+002, 1.663017e+004
8.779359e+002, 1.662780e+004
8.784180e+002, 1.666548e+004
8.789001e+002, 1.668982e+004
8.793822e+002, 1.664658e+004
8.798643e+002, 1.658831e+004
8.803464e+002, 1.657853e+004
8.808286e+002, 1.660669e+004
8.813107e+002, 1.662650e+004
8.817928e+002, 1.662242e+004
8.822749e+002, 1.662696e+004
8.827570e+002, 1.668560e+004
8.832391e+002, 1.677551e+004
8.837213e+002, 1.682019e+004
8.842034e+002, 1.682229e+004
8.846855e+002, 1.682323e+004
8.851676e+002, 1.683114e+004
8.856497e+002, 1.685136e+004
8.861318e+002, 1.689325e+004
8.866140e+002, 1.694491e+004
8.870961e+002, 1.696705e+004
8.875782e+002, 1.696082e+004
8.880603e+002, 1.691784e+004
8.885424e+002, 1.677580e+004
8.890245e+002, 1.668305e+004
8.895067e+002, 1.674938e+004
8.899888e+002, 1.686539e+004
8.904709e+002, 1.688887e+004
8.909530e+002, 1.681576e+004
8.914351e+002, 1.680157e+004
8.919172e+002, 1.695013e+004
8.923994e+002, 1.707402e+004
8.928815e+002, 1.706808e+004
8.933636e+002, 1.702375e+004
8.938457e+002, 1.702935e+004
8.943278e+002, 1.708047e+004
8.948099e+002, 1.713543e+004
8.952921e+002, 1.717906e+004
8.957742e+002, 1.720121e+004
8.962563e+002, 1.717897e+004
8.967384e+002, 1.713575e+004
8.972205e+002, 1.710746e+004
8.977026e+002, 1.709564e+004
8.981848e+002, 1.709828e+004
8.986669e+002, 1.711463e+004
8.991490e+002, 1.714320e+004
8.996311e+002, 1.718462e+004
9.001132e+002, 1.723468e+004
9.005953e+002, 1.727860e+004
9.010775e+002, 1.731676e+004
9.015596e+002, 1.734061e+004
9.020417e+002, 1.734239e+004
9.025238e+002, 1.735101e+004
9.030059e+002, 1.738495e+004
9.034880e+002, 1.743538e+004
9.039702e+002, 1.748764e+004
9.044523e+002, 1.754825e+004
9.049344e+002, 1.758299e+004
9.054165e+002, 1.753732e+004
9.058986e+002, 1.753629e+004
9.063807e+002, 1.765687e+004
9.068629e+002, 1.779442e+004
9.073450e+002, 1.785848e+004
9.078271e+002, 1.785678e+004
9.083092e+002, 1.784305e+004
9.087913e+002, 1.782302e+004
9.092734e+002, 1.780947e+004
9.097556e+002, 1.780361e+004
9.102377e+002, 1.781062e+004
9.107198e+002, 1.784742e+004
9.112019e+002, 1.789720e+004
9.116840e+002, 1.791861e+004
9.121661e+002, 1.790383e+004
9.126483e+002, 1.790520e+004
9.131304e+002, 1.798306e+004
9.136125e+002, 1.808883e+004
9.140946e+002, 1.813263e+004
9.145767e+002, 1.813697e+004
9.150588e+002, 1.818677e+004
9.155410e+002, 1.828989e+004
9.160231e+002, 1.836039e+004
9.165052e+002, 1.833899e+004
9.169873e+002, 1.828371e+004
9.174694e+002, 1.831829e+004
9.179515e+002, 1.844769e+004
9.184337e+002, 1.852961e+004
9.189158e+002, 1.855726e+004
9.193979e+002, 1.856124e+004
9.198800e+002, 1.853635e+004
9.203621e+002, 1.852335e+004
9.208442e+002, 1.857393e+004
9.213264e+002, 1.867996e+004
9.218085e+002, 1.875297e+004
9.222906e+002, 1.878256e+004
9.227727e+002, 1.879606e+004
9.232548e+002, 1.877138e+004
9.237369e+002, 1.875710e+004
9.242191e+002, 1.877630e+004
9.247012e+002, 1.882038e+004
9.251833e+002, 1.887433e+004
9.256654e+002, 1.893606e+004
9.261475e+002, 1.901763e+004
9.266296e+002, 1.916768e+004
9.271118e+002, 1.928499e+004
9.275939e+002, 1.929702e+004
9.280760e+002, 1.926505e+004
9.285581e+002, 1.923486e+004
9.290402e+002, 1.922593e+004
9.295223e+002, 1.927214e+004
9.300045e+002, 1.939678e+004
9.304866e+002, 1.952274e+004
9.309687e+002, 1.957315e+004
9.314508e+002, 1.958468e+004
9.319329e+002, 1.960809e+004
9.324150e+002, 1.964398e+004
9.328972e+002, 1.968456e+004
9.333793e+002, 1.972742e+004
9.338614e+002, 1.977384e+004
9.343435e+002, 1.982431e+004
9.348256e+002, 1.987999e+004
9.353077e+002, 1.994926e+004
9.357899e+002, 2.003001e+004
9.362720e+002, 2.008976e+004
9.367541e+002, 2.012305e+004
9.372362e+002, 2.015145e+004
9.377183e+002, 2.018012e+004
9.382004e+002, 2.022819e+004
9.386826e+002, 2.033373e+004
9.391647e+002, 2.049950e+004
9.396468e+002, 2.059959e+004
9.401289e+002, 2.060125e+004
9.406110e+002, 2.061705e+004
9.410931e+002, 2.067794e+004
9.415753e+002, 2.074454e+004
9.420574e+002, 2.078418e+004
9.425395e+002, 2.080978e+004
9.430216e+002, 2.085778e+004
9.435037e+002, 2.093505e+004
9.439858e+002, 2.101379e+004
9.444680e+002, 2.109278e+004
9.449501e+002, 2.117181e+004
9.454322e+002, 2.126364e+004
9.459143e+002, 2.134680e+004
9.463964e+002, 2.138613e+004
9.468785e+002, 2.139307e+004
9.473607e+002, 2.142870e+004
9.478428e+002, 2.153079e+004
9.483249e+002, 2.162747e+004
9.488070e+002, 2.168152e+004
9.492891e+002, 2.171073e+004
9.497712e+002, 2.170647e+004
9.502534e+002, 2.169793e+004
9.507355e+002, 2.173757e+004
9.512176e+002, 2.183748e+004
9.516997e+002, 2.197156e+004
9.521818e+002, 2.214646e+004
9.526639e+002, 2.230979e+004
9.531461e+002, 2.236977e+004
9.536282e+002, 2.236686e+004
9.541103e+002, 2.238836e+004
9.545924e+002, 2.244580e+004
9.550745e+002, 2.253099e+004
9.555566e+002, 2.264110e+004
9.560388e+002, 2.274813e+004
9.565209e+002, 2.280160e+004
9.570030e+002, 2.282033e+004
9.574851e+002, 2.291317e+004
9.579672e+002, 2.308011e+004
9.584493e+002, 2.321922e+004
9.589315e+002, 2.330782e+004
9.594136e+002, 2.336425e+004
9.598957e+002, 2.339460e+004
9.603778e+002, 2.341800e+004
9.608599e+002, 2.348866e+004
9.613420e+002, 2.361983e+004
9.618242e+002, 2.372625e+004
9.623063e+002, 2.379159e+004
9.627884e+002, 2.387356e+004
9.632705e+002, 2.401032e+004
9.637526e+002, 2.414374e+004
9.642347e+002, 2.419702e+004
9.647169e+002, 2.418813e+004
9.651990e+002, 2.425153e+004
9.656811e+002, 2.448063e+004
9.661632e+002, 2.463854e+004
9.666453e+002, 2.466736e+004
9.671274e+002, 2.469086e+004
9.676096e+002, 2.473205e+004
9.680917e+002, 2.481458e+004
9.685738e+002, 2.498280e+004
9.690559e+002, 2.523396e+004
9.695380e+002, 2.546727e+004
9.700201e+002, 2.568128e+004
9.705023e+002, 2.584594e+004
9.709844e+002, 2.593156e+004
9.714665e+002, 2.598195e+004
9.719486e+002, 2.599740e+004
9.724307e+002, 2.601726e+004
9.729128e+002, 2.612341e+004
9.733950e+002, 2.633487e+004
9.738771e+002, 2.653557e+004
9.743592e+002, 2.663724e+004
9.748413e+002, 2.672041e+004
9.753234e+002, 2.686576e+004
9.758055e+002, 2.703339e+004
9.762877e+002, 2.714664e+004
9.767698e+002, 2.721986e+004
9.772519e+002, 2.734099e+004
9.777340e+002, 2.755242e+004
9.782161e+002, 2.778552e+004
9.786982e+002, 2.796685e+004
9.791804e+002, 2.811770e+004
9.796625e+002, 2.826946e+004
9.801446e+002, 2.842458e+004
9.806267e+002, 2.859461e+004
9.811088e+002, 2.877911e+004
9.815909e+002, 2.895603e+004
9.820731e+002, 2.910748e+004
9.825552e+002, 2.925921e+004
9.830373e+002, 2.947679e+004
9.835194e+002, 2.974481e+004
9.840015e+002, 2.994582e+004
9.844836e+002, 3.007724e+004
9.849658e+002, 3.020295e+004
9.854479e+002, 3.034038e+004
9.859300e+002, 3.050334e+004
9.864121e+002, 3.070632e+004
9.868942e+002, 3.094204e+004
9.873763e+002, 3.118455e+004
9.878585e+002, 3.143678e+004
9.883406e+002, 3.168300e+004
9.888227e+002, 3.193163e+004
9.893048e+002, 3.214026e+004
9.897869e+002, 3.227557e+004
9.902690e+002, 3.238872e+004
9.907512e+002, 3.254061e+004
9.912333e+002, 3.272734e+004
9.917154e+002, 3.289452e+004
9.921975e+002, 3.301250e+004
9.926796e+002, 3.317497e+004
9.931617e+002, 3.340642e+004
9.936439e+002, 3.365755e+004
9.941260e+002, 3.393071e+004
9.946081e+002, 3.419756e+004
9.950902e+002, 3.441121e+004
9.955723e+002, 3.456937e+004
9.960544e+002, 3.474422e+004
9.965366e+002, 3.492907e+004
9.970187e+002, 3.514586e+004
9.975008e+002, 3.545398e+004
9.979829e+002, 3.573838e+004
9.984650e+002, 3.590009e+004
9.989471e+002, 3.600375e+004
9.994293e+002, 3.615387e+004
9.999114e+002, 3.636484e+004
1.000393e+003, 3.661360e+004
1.000876e+003, 3.695048e+004
1.001358e+003, 3.725038e+004
1.001840e+003, 3.740563e+004
1.002322e+003, 3.754509e+004
1.002804e+003, 3.778554e+004
1.003286e+003, 3.810593e+004
1.003768e+003, 3.845484e+004
1.004250e+003, 3.882177e+004
1.004733e+003, 3.912419e+004
1.005215e+003, 3.925136e+004
1.005697e+003, 3.936720e+004
1.006179e+003, 3.962311e+004
1.006661e+003, 3.992173e+004
1.007143e+003, 4.010515e+004
1.007625e+003, 4.020466e+004
1.008107e+003, 4.037604e+004
1.008589e+003, 4.068396e+004
1.009072e+003, 4.106843e+004
1.009554e+003, 4.154818e+004
1.010036e+003, 4.201698e+004
1.010518e+003, 4.233616e+004
1.011000e+003, 4.255032e+004
1.011482e+003, 4.273946e+004
1.011964e+003, 4.292805e+004
1.012446e+003, 4.313321e+004
1.012929e+003, 4.336547e+004
1.013411e+003, 4.362492e+004
1.013893e+003, 4.392373e+004
1.014375e+003, 4.424446e+004
1.014857e+003, 4.455264e+004
1.015339e+003, 4.485177e+004
1.015821e+003, 4.516336e+004
1.016303e+003, 4.549058e+004
1.016785e+003, 4.582104e+004
1.017268e+003, 4.614689e+004
1.017750e+003, 4.647074e+004
1.018232e+003, 4.681143e+004
1.018714e+003, 4.715723e+004
1.019196e+003, 4.745517e+004
1.019678e+003, 4.770791e+004
1.020160e+003, 4.796016e+004
1.020642e+003, 4.822574e+004
1.021125e+003, 4.849094e+004
1.021607e+003, 4.873933e+004
1.022089e+003, 4.900788e+004
1.022571e+003, 4.940539e+004
1.023053e+003, 4.992481e+004
1.023535e+003, 5.037371e+004
1.024017e+003, 5.074382e+004
1.024499e+003, 5.107712e+004
1.024981e+003, 5.138318e+004
1.025464e+003, 5.169010e+004
1.025946e+003, 5.202323e+004
1.026428e+003, 5.237446e+004
1.026910e+003, 5.271130e+004
1.027392e+003, 5.302736e+004
1.027874e+003, 5.339804e+004
1.028356e+003, 5.383797e+004
1.028838e+003, 5.426981e+004
1.029321e+003, 5.465939e+004
1.029803e+003, 5.505732e+004
1.030285e+003, 5.552945e+004
1.030767e+003, 5.604761e+004
1.031249e+003, 5.647810e+004
1.031731e+003, 5.679207e+004
1.032213e+003, 5.712880e+004
1.032695e+003, 5.748169e+004
1.033177e+003, 5.789273e+004
1.033660e+003, 5.840919e+004
1.034142e+003, 5.893404e+004
1.034624e+003, 5.935623e+004
1.035106e+003, 5.969871e+004
1.035588e+003, 6.008650e+004
1.036070e+003, 6.054391e+004
1.036552e+003, 6.098686e+004
1.037034e+003, 6.139087e+004
1.037516e+003, 6.182266e+004
1.037999e+003, 6.233396e+004
1.038481e+003, 6.285068e+004
1.038963e+003, 6.327836e+004
1.039445e+003, 6.363330e+004
1.039927e+003, 6.404364e+004
1.040409e+003, 6.458880e+004
1.040891e+003, 6.504914e+004
1.041373e+003, 6.532304e+004
1.041855e+003, 6.563884e+004
1.042338e+003, 6.607094e+004
1.042820e+003, 6.658808e+004
1.043302e+003, 6.721395e+004
1.043784e+003, 6.791924e+004
1.044266e+003, 6.849592e+004
1.044748e+003, 6.882273e+004
1.045230e+003, 6.921232e+004
1.045712e+003, 6.971291e+004
1.046195e+003, 7.023784e+004
1.046677e+003, 7.076426e+004
1.047159e+003, 7.129242e+004
1.047641e+003, 7.182912e+004
1.048123e+003, 7.237009e+004
1.048605e+003, 7.289910e+004
1.049087e+003, 7.341700e+004
1.049569e+003, 7.392276e+004
1.050052e+003, 7.439841e+004
1.050534e+003, 7.487912e+004
1.051016e+003, 7.536540e+004
1.051498e+003, 7.587478e+004
1.051980e+003, 7.644194e+004
1.052462e+003, 7.705429e+004
1.052944e+003, 7.763753e+004
1.053426e+003, 7.814516e+004
1.053908e+003, 7.869482e+004
1.054391e+003, 7.938348e+004
1.054873e+003, 8.003520e+004
1.055355e+003, 8.051345e+004
1.055837e+003, 8.094198e+004
1.056319e+003, 8.148460e+004
1.056801e+003, 8.212434e+004
1.057283e+003, 8.270438e+004
1.057765e+003, 8.312627e+004
1.058248e+003, 8.362776e+004
1.058730e+003, 8.435165e+004
1.059212e+003, 8.509359e+004
1.059694e+003, 8.577311e+004
1.060176e+003, 8.638628e+004
1.060658e+003, 8.689592e+004
1.061140e+003, 8.734065e+004
1.061622e+003, 8.786936e+004
1.062104e+003, 8.852869e+004
1.062587e+003, 8.924985e+004
1.063069e+003, 9.011297e+004
1.063551e+003, 9.090725e+004
1.064033e+003, 9.142405e+004
1.064515e+003, 9.186466e+004
1.064997e+003, 9.247841e+004
1.065479e+003, 9.324128e+004
1.065961e+003, 9.396288e+004
1.066443e+003, 9.456509e+004
1.066926e+003, 9.520007e+004
1.067408e+003, 9.599804e+004
1.067890e+003, 9.676697e+004
1.068372e+003, 9.732941e+004
1.068854e+003, 9.784886e+004
1.069336e+003, 9.855248e+004
1.069818e+003, 9.938866e+004
1.070300e+003, 1.001193e+005
1.070782e+003, 1.006537e+005
1.071265e+003, 1.012081e+005
1.071747e+003, 1.019340e+005
1.072229e+003, 1.026489e+005
1.072711e+003, 1.031922e+005
1.073193e+003, 1.037064e+005
1.073675e+003, 1.043521e+005
1.074157e+003, 1.051034e+005
1.074639e+003, 1.058480e+005
1.075122e+003, 1.065570e+005
1.075604e+003, 1.072503e+005
1.076086e+003, 1.079198e+005
1.076568e+003, 1.085979e+005
1.077050e+003, 1.092964e+005
1.077532e+003, 1.100187e+005
1.078014e+003, 1.107955e+005
1.078496e+003, 1.115903e+005
1.078979e+003, 1.122914e+005
1.079461e+003, 1.128631e+005
1.079943e+003, 1.135024e+005
1.080425e+003, 1.143569e+005
1.080907e+003, 1.152253e+005
1.081389e+003, 1.160079e+005
1.081871e+003, 1.167371e+005
1.082353e+003, 1.174326e+005
1.082835e+003, 1.181050e+005
1.083318e+003, 1.187404e+005
1.083800e+003, 1.193371e+005
1.084282e+003, 1.200210e+005
1.084764e+003, 1.209359e+005
1.085246e+003, 1.218378e+005
1.085728e+003, 1.226400e+005
1.086210e+003, 1.233461e+005
1.086692e+003, 1.238479e+005
1.087175e+003, 1.243044e+005
1.087657e+003, 1.250134e+005
1.088139e+003, 1.260113e+005
1.088621e+003, 1.269883e+005
1.089103e+003, 1.278165e+005
1.089585e+003, 1.286051e+005
1.090067e+003, 1.293900e+005
1.090549e+003, 1.301643e+005
1.091031e+003, 1.308684e+005
1.091514e+003, 1.315815e+005
1.091996e+003, 1.324464e+005
1.092478e+003, 1.334600e+005
1.092960e+003, 1.344368e+005
1.093442e+003, 1.353183e+005
1.093924e+003, 1.361456e+005
1.094406e+003, 1.368692e+005
1.094888e+003, 1.376250e+005
1.095370e+003, 1.385441e+005
1.095853e+003, 1.395241e+005
1.096335e+003, 1.404283e+005
1.096817e+003, 1.412614e+005
1.097299e+003, 1.421159e+005
1.097781e+003, 1.430477e+005
1.098263e+003, 1.439264e+005
1.098745e+003, 1.445560e+005
1.099227e+003, 1.453080e+005
1.099709e+003, 1.465139e+005
1.100192e+003, 1.478408e+005
1.100674e+003, 1.489205e+005
1.101156e+003, 1.497956e+005
1.101638e+003, 1.507020e+005
1.102120e+003, 1.516831e+005
1.102602e+003, 1.527015e+005
1.103084e+003, 1.538005e+005
1.103566e+003, 1.548694e+005
1.104049e+003, 1.558271e+005
1.104531e+003, 1.567710e+005
1.105013e+003, 1.577815e+005
1.105495e+003, 1.588484e+005
1.105977e+003, 1.599414e+005
1.106459e+003, 1.610617e+005
1.106941e+003, 1.621952e+005
1.107423e+003, 1.633399e+005
1.107906e+003, 1.644988e+005
1.108388e+003, 1.657326e+005
1.108870e+003, 1.669150e+005
1.109352e+003, 1.678995e+005
1.109834e+003, 1.688012e+005
1.110316e+003, 1.698510e+005
1.110798e+003, 1.710843e+005
1.111280e+003, 1.721335e+005
1.111762e+003, 1.727301e+005
1.112245e+003, 1.735130e+005
1.112727e+003, 1.746462e+005
1.113209e+003, 1.758906e+005
1.113691e+003, 1.771575e+005
1.114173e+003, 1.784492e+005
1.114655e+003, 1.798321e+005
1.115137e+003, 1.812806e+005
1.115619e+003, 1.825173e+005
1.116102e+003, 1.833054e+005
1.116584e+003, 1.842946e+005
1.117066e+003, 1.856241e+005
1.117548e+003, 1.869568e+005
1.118030e+003, 1.882006e+005
1.118512e+003, 1.893773e+005
1.118994e+003, 1.904664e+005
1.119476e+003, 1.915190e+005
1.119958e+003, 1.927540e+005
1.120441e+003, 1.942528e+005
1.120923e+003, 1.956759e+005
1.121405e+003, 1.969909e+005
1.121887e+003, 1.982883e+005
1.122369e+003, 1.995638e+005
1.122851e+003, 2.008710e+005
1.123333e+003, 2.022735e+005
1.123815e+003, 2.037115e+005
1.124297e+003, 2.050461e+005
1.124780e+003, 2.062605e+005
1.125262e+003, 2.075667e+005
1.125744e+003, 2.090168e+005
1.126226e+003, 2.103060e+005
1.126708e+003, 2.112812e+005
1.127190e+003, 2.124524e+005
1.127672e+003, 2.141615e+005
1.128154e+003, 2.160655e+005
1.128636e+003, 2.176703e+005
1.129119e+003, 2.190068e+005
1.129601e+003, 2.202881e+005
1.130083e+003, 2.215070e+005
1.130565e+003, 2.228315e+005
1.131047e+003, 2.242853e+005
1.131529e+003, 2.257204e+005
1.132011e+003, 2.270636e+005
1.132493e+003, 2.284086e+005
1.132976e+003, 2.298426e+005
1.133458e+003, 2.313674e+005
1.133940e+003, 2.330524e+005
1.134422e+003, 2.348735e+005
1.134904e+003, 2.364701e+005
1.135386e+003, 2.378323e+005
1.135868e+003, 2.391030e+005
1.136350e+003, 2.403272e+005
1.136833e+003, 2.417343e+005
1.137315e+003, 2.435156e+005
1.137797e+003, 2.454348e+005
1.138279e+003, 2.470821e+005
1.138761e+003, 2.485367e+005
1.139243e+003, 2.500173e+005
1.139725e+003, 2.515434e+005
1.140207e+003, 2.532390e+005
1.140689e+003, 2.550863e+005
1.141172e+003, 2.568215e+005
1.141654e+003, 2.583258e+005
1.142136e+003, 2.597337e+005
1.142618e+003, 2.611332e+005
1.143100e+003, 2.625747e+005
1.143582e+003, 2.641145e+005
1.144064e+003, 2.657693e+005
1.144546e+003, 2.677030e+005
1.145029e+003, 2.697790e+005
1.145511e+003, 2.714645e+005
1.145993e+003, 2.726868e+005
1.146475e+003, 2.741508e+005
1.146957e+003, 2.764623e+005
1.147439e+003, 2.788796e+005
1.147921e+003, 2.805856e+005
1.148403e+003, 2.820586e+005
1.148885e+003, 2.838719e+005
1.149368e+003, 2.858637e+005
1.149850e+003, 2.876655e+005
1.150332e+003, 2.892668e+005
1.150814e+003, 2.909482e+005
1.151296e+003, 2.928135e+005
1.151778e+003, 2.947587e+005
1.152260e+003, 2.967413e+005
1.152742e+003, 2.987434e+005
1.153224e+003, 3.007956e+005
1.153707e+003, 3.028516e+005
1.154189e+003, 3.048871e+005
1.154671e+003, 3.068881e+005
1.155153e+003, 3.088133e+005
1.155635e+003, 3.106613e+005
1.156117e+003, 3.125491e+005
1.156599e+003, 3.144015e+005
1.157081e+003, 3.164621e+005
1.157563e+003, 3.191251e+005
1.158046e+003, 3.216706e+005
1.158528e+003, 3.234151e+005
1.159010e+003, 3.249127e+005
1.159492e+003, 3.269919e+005
1.159974e+003, 3.295970e+005
1.160456e+003, 3.319754e+005
1.160938e+003, 3.338875e+005
1.161420e+003, 3.359155e+005
1.161903e+003, 3.380488e+005
1.162385e+003, 3.403375e+005
1.162867e+003, 3.428810e+005
1.163349e+003, 3.454911e+005
1.163831e+003, 3.480799e+005
1.164313e+003, 3.505978e+005
1.164795e+003, 3.528472e+005
1.165277e+003, 3.547603e+005
1.165760e+003, 3.570617e+005
1.166242e+003, 3.598715e+005
1.166724e+003, 3.627444e+005
1.167206e+003, 3.657278e+005
1.167688e+003, 3.682792e+005
1.168170e+003, 3.699263e+005
1.168652e+003, 3.715441e+005
1.169134e+003, 3.743409e+005
1.169616e+003, 3.779853e+005
1.170099e+003, 3.808343e+005
1.170581e+003, 3.828815e+005
1.171063e+003, 3.850423e+005
1.171545e+003, 3.873806e+005
1.172027e+003, 3.898780e+005
1.172509e+003, 3.925488e+005
1.172991e+003, 3.954190e+005
1.173473e+003, 3.985345e+005
1.173956e+003, 4.017459e+005
1.174438e+003, 4.048258e+005
1.174920e+003, 4.077853e+005
1.175402e+003, 4.105885e+005
1.175884e+003, 4.132727e+005
1.176366e+003, 4.158786e+005
1.176848e+003, 4.184913e+005
1.177330e+003, 4.214225e+005
1.177813e+003, 4.248042e+005
1.178295e+003, 4.283168e+005
1.178777e+003, 4.317463e+005
1.179259e+003, 4.351283e+005
1.179741e+003, 4.384731e+005
1.180223e+003, 4.418164e+005
1.180705e+003, 4.451800e+005
1.181187e+003, 4.485762e+005
1.181669e+003, 4.519966e+005
1.182151e+003, 4.554106e+005
1.182634e+003, 4.587138e+005
1.183116e+003, 4.618063e+005
1.183598e+003, 4.649174e+005
1.184080e+003, 4.680578e+005
1.184562e+003, 4.713821e+005
1.185044e+003, 4.750678e+005
1.185526e+003, 4.789203e+005
1.186008e+003, 4.827756e+005
1.186490e+003, 4.866323e+005
1.186973e+003, 4.905442e+005
1.187455e+003, 4.945008e+005
1.187937e+003, 4.985678e+005
1.188419e+003, 5.028233e+005
1.188901e+003, 5.071207e+005
1.189383e+003, 5.116328e+005
1.189865e+003, 5.159727e+005
1.190347e+003, 5.195632e+005
1.190830e+003, 5.231634e+005
1.191312e+003, 5.277481e+005
1.191794e+003, 5.330630e+005
1.192276e+003, 5.378636e+005
1.192758e+003, 5.419842e+005
1.193240e+003, 5.461598e+005
1.193722e+003, 5.502712e+005
1.194204e+003, 5.547986e+005
1.194687e+003, 5.599338e+005
1.195169e+003, 5.652480e+005
1.195651e+003, 5.705128e+005
1.196133e+003, 5.757664e+005
1.196615e+003, 5.811196e+005
1.197097e+003, 5.865108e+005
1.197579e+003, 5.916149e+005
1.198061e+003, 5.964789e+005
1.198543e+003, 6.014958e+005
1.199026e+003, 6.067028e+005
1.199508e+003, 6.117408e+005
1.199990e+003, 6.165011e+005
1.200472e+003, 6.220101e+005
1.200954e+003, 6.291693e+005
1.201436e+003, 6.368209e+005
1.201918e+003, 6.432459e+005
1.202400e+003, 6.489289e+005
1.202883e+003, 6.545708e+005
1.203365e+003, 6.603359e+005
1.203847e+003, 6.665596e+005
1.204329e+003, 6.731994e+005
1.204811e+003, 6.800308e+005
1.205293e+003, 6.869441e+005
1.205775e+003, 6.938483e+005
1.206257e+003, 7.005995e+005
1.206740e+003, 7.074365e+005
1.207222e+003, 7.145937e+005
1.207704e+003, 7.218587e+005
1.208186e+003, 7.287954e+005
1.208668e+003, 7.358558e+005
1.209150e+003, 7.439829e+005
1.209632e+003, 7.529924e+005
1.210114e+003, 7.615656e+005
1.210596e+003, 7.691976e+005
1.211078e+003, 7.770066e+005
1.211561e+003, 7.850751e+005
1.212043e+003, 7.936466e+005
1.212525e+003, 8.031473e+005
1.213007e+003, 8.128048e+005
1.213489e+003, 8.222686e+005
1.213971e+003, 8.314671e+005
1.214453e+003, 8.399893e+005
1.214935e+003, 8.479297e+005
1.215417e+003, 8.572335e+005
1.215900e+003, 8.682936e+005
1.216382e+003, 8.791948e+005
1.216864e+003, 8.897819e+005
1.217346e+003, 9.001083e+005
1.217828e+003, 9.101373e+005
1.218310e+003, 9.202086e+005
1.218792e+003, 9.306806e+005
1.219274e+003, 9.414438e+005
1.219757e+003, 9.524551e+005
1.220239e+003, 9.636635e+005
1.220721e+003, 9.748641e+005
1.221203e+003, 9.862033e+005
1.221685e+003, 9.984010e+005
1.222167e+003, 1.011408e+006
1.222649e+003, 1.024446e+006
1.223131e+003, 1.037281e+006
1.223614e+003, 1.049982e+006
1.224096e+003, 1.062465e+006
1.224578e+003, 1.075307e+006
1.225060e+003, 1.089010e+006
1.225542e+003, 1.103547e+006
1.226024e+003, 1.119330e+006
1.226506e+003, 1.135567e+006
1.226988e+003, 1.150804e+006
1.227470e+003, 1.165303e+006
1.227953e+003, 1.180388e+006
1.228435e+003, 1.196331e+006
1.228917e+003, 1.212618e+006
1.229399e+003, 1.229082e+006
1.229881e+003, 1.245656e+006
1.230363e+003, 1.262177e+006
1.230845e+003, 1.279162e+006
1.231327e+003, 1.296959e+006
1.231810e+003, 1.315362e+006
1.232292e+003, 1.334385e+006
1.232774e+003, 1.353867e+006
1.233256e+003, 1.372986e+006
1.233738e+003, 1.391538e+006
1.234220e+003, 1.410621e+006
1.234702e+003, 1.430186e+006
1.235184e+003, 1.450099e+006
1.235667e+003, 1.470239e+006
1.236149e+003, 1.490943e+006
1.236631e+003, 1.512325e+006
1.237113e+003, 1.534169e+006
1.237595e+003, 1.556350e+006
1.238077e+003, 1.578762e+006
1.238559e+003, 1.601516e+006
1.239041e+003, 1.624548e+006
1.239523e+003, 1.647565e+006
1.240005e+003, 1.670776e+006
1.240488e+003, 1.694365e+006
1.240970e+003, 1.718410e+006
1.241452e+003, 1.742815e+006
1.241934e+003, 1.767737e+006
1.242416e+003, 1.793356e+006
1.242898e+003, 1.820423e+006
1.243380e+003, 1.847665e+006
1.243862e+003, 1.873388e+006
1.244344e+003, 1.899108e+006
1.244827e+003, 1.926835e+006
1.245309e+003, 1.955926e+006
1.245791e+003, 1.985236e+006
1.246273e+003, 2.014555e+006
1.246755e+003, 2.044056e+006
1.247237e+003, 2.074074e+006
1.247719e+003, 2.103370e+006
1.248201e+003, 2.130201e+006
1.248684e+003, 2.158529e+006
1.249166e+003, 2.190793e+006
1.249648e+003, 2.223278e+006
1.250130e+003, 2.253480e+006
1.250612e+003, 2.282976e+006
1.251094e+003, 2.314079e+006
1.251576e+003, 2.346556e+006
1.252058e+003, 2.378601e+006
1.252541e+003, 2.410341e+006
1.253023e+003, 2.440418e+006
1.253505e+003, 2.468737e+006
1.253987e+003, 2.497814e+006
1.254469e+003, 2.528295e+006
1.254951e+003, 2.560914e+006
1.255433e+003, 2.596230e+006
1.255915e+003, 2.631371e+006
1.256397e+003, 2.662757e+006
1.256880e+003, 2.691780e+006
1.257362e+003, 2.720216e+006
1.257844e+003, 2.748622e+006
1.258326e+003, 2.778255e+006
1.258808e+003, 2.808635e+006
1.259290e+003, 2.839253e+006
1.259772e+003, 2.869497e+006
1.260254e+003, 2.898052e+006
1.260737e+003, 2.924096e+006
1.261219e+003, 2.950066e+006
1.261701e+003, 2.978461e+006
1.262183e+003, 3.005450e+006
1.262665e+003, 3.027991e+006
1.263147e+003, 3.049876e+006
1.263629e+003, 3.074469e+006
1.264111e+003, 3.099769e+006
1.264594e+003, 3.123128e+006
1.265076e+003, 3.144452e+006
1.265558e+003, 3.163941e+006
1.266040e+003, 3.181336e+006
1.266522e+003, 3.197803e+006
1.267004e+003, 3.213342e+006
1.267486e+003, 3.228076e+006
1.267968e+003, 3.242135e+006
1.268450e+003, 3.254902e+006
1.268932e+003, 3.266023e+006
1.269415e+003, 3.276124e+006
1.269897e+003, 3.286164e+006
1.270379e+003, 3.295409e+006
1.270861e+003, 3.302069e+006
1.271343e+003, 3.306570e+006
1.271825e+003, 3.309526e+006
1.272307e+003, 3.311624e+006
1.272789e+003, 3.315454e+006
1.273271e+003, 3.320398e+006
1.273754e+003, 3.322287e+006
1.274236e+003, 3.319597e+006
1.274718e+003, 3.315215e+006
1.275200e+003, 3.309898e+006
1.275682e+003, 3.305282e+006
1.276164e+003, 3.302547e+006
1.276646e+003, 3.300601e+006
1.277128e+003, 3.300433e+006
1.277611e+003, 3.299283e+006
1.278093e+003, 3.293453e+006
1.278575e+003, 3.284081e+006
1.279057e+003, 3.275360e+006
1.279539e+003, 3.267688e+006
1.280021e+003, 3.259865e+006
1.280503e+003, 3.249984e+006
1.280985e+003, 3.243936e+006
1.281468e+003, 3.244465e+006
1.281950e+003, 3.244536e+006
1.282432e+003, 3.241392e+006
1.282914e+003, 3.237276e+006
1.283396e+003, 3.233876e+006
1.283878e+003, 3.231681e+006
1.284360e+003, 3.231603e+006
1.284842e+003, 3.231863e+006
1.285324e+003, 3.228006e+006
##END=



