##NAMES=Bussyite-(Ce)
##RRUFFID=R120059
##IDEAL CHEMISTRY=(Na,H_2_O)_6_Ce^3+^_3_Be_5_Mn^2+^Si_9_(O,OH)_30_F_4_
##LOCALITY=Mont Saint-Hilaire, Rouville RCM, Montérégie, Québec, Canada
##OWNER=RRUFF
##SOURCE=Donald Doell
##DESCRIPTION=Sprays of pale yellow, elongated crystals, associated with catapleiite, albite and aegirine
##STATUS=The identification of this mineral has been confirmed only by single crystal X-ray diffraction.
##URL=rruff.info/R120059
9.001007e+001, 0.000000e+000
9.049219e+001, 9.845871e+001
9.097430e+001, 9.898003e+001
9.145642e+001, 9.881606e+001
9.193854e+001, 9.803282e+001
9.242065e+001, 9.718090e+001
9.290277e+001, 9.696785e+001
9.338489e+001, 9.703849e+001
9.386700e+001, 9.653026e+001
9.434912e+001, 9.462394e+001
9.483124e+001, 9.210774e+001
9.531335e+001, 9.083846e+001
9.579547e+001, 9.094966e+001
9.627759e+001, 9.132089e+001
9.675970e+001, 9.053807e+001
9.724182e+001, 8.868420e+001
9.772394e+001, 8.688639e+001
9.820605e+001, 8.565047e+001
9.868817e+001, 8.492947e+001
9.917029e+001, 8.416638e+001
9.965240e+001, 8.328419e+001
1.001345e+002, 8.246045e+001
1.006166e+002, 8.226118e+001
1.010988e+002, 8.291714e+001
1.015809e+002, 8.317640e+001
1.020630e+002, 8.203878e+001
1.025451e+002, 7.900532e+001
1.030272e+002, 7.709093e+001
1.035093e+002, 7.680258e+001
1.039915e+002, 7.773420e+001
1.044736e+002, 7.819057e+001
1.049557e+002, 7.807610e+001
1.054378e+002, 7.761559e+001
1.059199e+002, 7.692632e+001
1.064020e+002, 7.583629e+001
1.068842e+002, 7.482361e+001
1.073663e+002, 7.393196e+001
1.078484e+002, 7.316928e+001
1.083305e+002, 7.248385e+001
1.088126e+002, 7.187216e+001
1.092947e+002, 7.134496e+001
1.097769e+002, 7.091218e+001
1.102590e+002, 7.058876e+001
1.107411e+002, 7.034545e+001
1.112232e+002, 7.031058e+001
1.117053e+002, 7.065430e+001
1.121874e+002, 7.046507e+001
1.126696e+002, 6.935274e+001
1.131517e+002, 6.775725e+001
1.136338e+002, 6.624873e+001
1.141159e+002, 6.436799e+001
1.145980e+002, 6.303819e+001
1.150801e+002, 6.272711e+001
1.155623e+002, 6.398236e+001
1.160444e+002, 6.506810e+001
1.165265e+002, 6.568495e+001
1.170086e+002, 6.582101e+001
1.174907e+002, 6.543070e+001
1.179728e+002, 6.389003e+001
1.184550e+002, 6.219354e+001
1.189371e+002, 6.103530e+001
1.194192e+002, 6.102406e+001
1.199013e+002, 6.085799e+001
1.203834e+002, 5.939620e+001
1.208655e+002, 5.704631e+001
1.213477e+002, 5.539710e+001
1.218298e+002, 5.620034e+001
1.223119e+002, 5.786322e+001
1.227940e+002, 5.867824e+001
1.232761e+002, 5.758251e+001
1.237582e+002, 5.593945e+001
1.242404e+002, 5.481903e+001
1.247225e+002, 5.419673e+001
1.252046e+002, 5.376786e+001
1.256867e+002, 5.326167e+001
1.261688e+002, 5.279066e+001
1.266509e+002, 5.256551e+001
1.271331e+002, 5.298626e+001
1.276152e+002, 5.359053e+001
1.280973e+002, 5.367588e+001
1.285794e+002, 5.322245e+001
1.290615e+002, 5.249068e+001
1.295436e+002, 5.157131e+001
1.300258e+002, 5.053493e+001
1.305079e+002, 4.971102e+001
1.309900e+002, 4.928091e+001
1.314721e+002, 4.917911e+001
1.319542e+002, 4.920820e+001
1.324363e+002, 4.937196e+001
1.329185e+002, 4.963387e+001
1.334006e+002, 5.011742e+001
1.338827e+002, 5.082176e+001
1.343648e+002, 5.114145e+001
1.348469e+002, 5.046093e+001
1.353290e+002, 4.887976e+001
1.358112e+002, 4.789826e+001
1.362933e+002, 4.775624e+001
1.367754e+002, 4.811704e+001
1.372575e+002, 4.823433e+001
1.377396e+002, 4.806832e+001
1.382217e+002, 4.783667e+001
1.387039e+002, 4.773108e+001
1.391860e+002, 4.780508e+001
1.396681e+002, 4.757558e+001
1.401502e+002, 4.684553e+001
1.406323e+002, 4.579498e+001
1.411144e+002, 4.521341e+001
1.415966e+002, 4.523829e+001
1.420787e+002, 4.547010e+001
1.425608e+002, 4.557737e+001
1.430429e+002, 4.543619e+001
1.435250e+002, 4.554959e+001
1.440071e+002, 4.619822e+001
1.444893e+002, 4.732981e+001
1.449714e+002, 4.767772e+001
1.454535e+002, 4.687736e+001
1.459356e+002, 4.564051e+001
1.464177e+002, 4.464913e+001
1.468998e+002, 4.402959e+001
1.473820e+002, 4.342491e+001
1.478641e+002, 4.268261e+001
1.483462e+002, 4.172695e+001
1.488283e+002, 4.121111e+001
1.493104e+002, 4.145562e+001
1.497925e+002, 4.198653e+001
1.502747e+002, 4.226095e+001
1.507568e+002, 4.219021e+001
1.512389e+002, 4.194970e+001
1.517210e+002, 4.143134e+001
1.522031e+002, 4.034362e+001
1.526852e+002, 3.990932e+001
1.531674e+002, 4.072507e+001
1.536495e+002, 4.207628e+001
1.541316e+002, 4.293231e+001
1.546137e+002, 4.267384e+001
1.550958e+002, 4.237573e+001
1.555779e+002, 4.236925e+001
1.560601e+002, 4.275569e+001
1.565422e+002, 4.325293e+001
1.570243e+002, 4.375969e+001
1.575064e+002, 4.435258e+001
1.579885e+002, 4.518003e+001
1.584706e+002, 4.671816e+001
1.589528e+002, 4.817290e+001
1.594349e+002, 4.900457e+001
1.599170e+002, 4.814780e+001
1.603991e+002, 4.841566e+001
1.608812e+002, 5.118604e+001
1.613633e+002, 5.574432e+001
1.618455e+002, 6.021466e+001
1.623276e+002, 6.332032e+001
1.628097e+002, 6.648595e+001
1.632918e+002, 7.069117e+001
1.637739e+002, 7.638953e+001
1.642560e+002, 8.278985e+001
1.647382e+002, 8.972617e+001
1.652203e+002, 9.713848e+001
1.657024e+002, 1.047972e+002
1.661845e+002, 1.128152e+002
1.666666e+002, 1.209655e+002
1.671487e+002, 1.289016e+002
1.676309e+002, 1.358817e+002
1.681130e+002, 1.434265e+002
1.685951e+002, 1.527267e+002
1.690772e+002, 1.635721e+002
1.695593e+002, 1.744708e+002
1.700414e+002, 1.845342e+002
1.705236e+002, 1.941957e+002
1.710057e+002, 2.038299e+002
1.714878e+002, 2.134485e+002
1.719699e+002, 2.233226e+002
1.724520e+002, 2.338092e+002
1.729341e+002, 2.448857e+002
1.734163e+002, 2.556887e+002
1.738984e+002, 2.654013e+002
1.743805e+002, 2.745246e+002
1.748626e+002, 2.835929e+002
1.753447e+002, 2.927553e+002
1.758268e+002, 3.021672e+002
1.763090e+002, 3.122518e+002
1.767911e+002, 3.229300e+002
1.772732e+002, 3.334908e+002
1.777553e+002, 3.417406e+002
1.782374e+002, 3.477754e+002
1.787195e+002, 3.534305e+002
1.792017e+002, 3.594589e+002
1.796838e+002, 3.656874e+002
1.801659e+002, 3.715536e+002
1.806480e+002, 3.770682e+002
1.811301e+002, 3.828886e+002
1.816122e+002, 3.901237e+002
1.820944e+002, 3.984026e+002
1.825765e+002, 4.063090e+002
1.830586e+002, 4.129344e+002
1.835407e+002, 4.188345e+002
1.840228e+002, 4.256186e+002
1.845049e+002, 4.333515e+002
1.849871e+002, 4.413971e+002
1.854692e+002, 4.489669e+002
1.859513e+002, 4.561570e+002
1.864334e+002, 4.630510e+002
1.869155e+002, 4.692772e+002
1.873976e+002, 4.752254e+002
1.878798e+002, 4.825482e+002
1.883619e+002, 4.914913e+002
1.888440e+002, 5.009260e+002
1.893261e+002, 5.090649e+002
1.898082e+002, 5.160599e+002
1.902903e+002, 5.229163e+002
1.907725e+002, 5.303650e+002
1.912546e+002, 5.382946e+002
1.917367e+002, 5.453511e+002
1.922188e+002, 5.514046e+002
1.927009e+002, 5.568771e+002
1.931830e+002, 5.622947e+002
1.936652e+002, 5.676379e+002
1.941473e+002, 5.728444e+002
1.946294e+002, 5.780698e+002
1.951115e+002, 5.832476e+002
1.955936e+002, 5.872979e+002
1.960757e+002, 5.898937e+002
1.965579e+002, 5.918113e+002
1.970400e+002, 5.947828e+002
1.975221e+002, 5.989562e+002
1.980042e+002, 6.026163e+002
1.984863e+002, 6.045272e+002
1.989684e+002, 6.046590e+002
1.994506e+002, 6.053821e+002
1.999327e+002, 6.070413e+002
2.004148e+002, 6.091275e+002
2.008969e+002, 6.103442e+002
2.013790e+002, 6.105079e+002
2.018611e+002, 6.108774e+002
2.023433e+002, 6.123671e+002
2.028254e+002, 6.151026e+002
2.033075e+002, 6.174033e+002
2.037896e+002, 6.189300e+002
2.042717e+002, 6.201119e+002
2.047538e+002, 6.221705e+002
2.052360e+002, 6.253455e+002
2.057181e+002, 6.284659e+002
2.062002e+002, 6.306469e+002
2.066823e+002, 6.316448e+002
2.071644e+002, 6.332449e+002
2.076465e+002, 6.356916e+002
2.081287e+002, 6.387484e+002
2.086108e+002, 6.418474e+002
2.090929e+002, 6.450159e+002
2.095750e+002, 6.481458e+002
2.100571e+002, 6.512637e+002
2.105392e+002, 6.545437e+002
2.110214e+002, 6.570231e+002
2.115035e+002, 6.583428e+002
2.119856e+002, 6.589061e+002
2.124677e+002, 6.602118e+002
2.129498e+002, 6.625480e+002
2.134319e+002, 6.650291e+002
2.139140e+002, 6.672096e+002
2.143962e+002, 6.691370e+002
2.148783e+002, 6.706442e+002
2.153604e+002, 6.716312e+002
2.158425e+002, 6.722062e+002
2.163246e+002, 6.727252e+002
2.168067e+002, 6.731555e+002
2.172889e+002, 6.735905e+002
2.177710e+002, 6.741620e+002
2.182531e+002, 6.750628e+002
2.187352e+002, 6.754300e+002
2.192173e+002, 6.748522e+002
2.196994e+002, 6.736622e+002
2.201816e+002, 6.735732e+002
2.206637e+002, 6.750695e+002
2.211458e+002, 6.767816e+002
2.216279e+002, 6.777776e+002
2.221100e+002, 6.776801e+002
2.225921e+002, 6.779280e+002
2.230743e+002, 6.789689e+002
2.235564e+002, 6.804669e+002
2.240385e+002, 6.806950e+002
2.245206e+002, 6.788632e+002
2.250027e+002, 6.770341e+002
2.254848e+002, 6.766018e+002
2.259670e+002, 6.783556e+002
2.264491e+002, 6.796380e+002
2.269312e+002, 6.801644e+002
2.274133e+002, 6.800739e+002
2.278954e+002, 6.799357e+002
2.283775e+002, 6.794210e+002
2.288597e+002, 6.793479e+002
2.293418e+002, 6.803780e+002
2.298239e+002, 6.832972e+002
2.303060e+002, 6.854443e+002
2.307881e+002, 6.863370e+002
2.312702e+002, 6.862568e+002
2.317524e+002, 6.865261e+002
2.322345e+002, 6.872447e+002
2.327166e+002, 6.881248e+002
2.331987e+002, 6.890538e+002
2.336808e+002, 6.902678e+002
2.341629e+002, 6.909377e+002
2.346451e+002, 6.907845e+002
2.351272e+002, 6.900209e+002
2.356093e+002, 6.896406e+002
2.360914e+002, 6.899744e+002
2.365735e+002, 6.902391e+002
2.370556e+002, 6.899277e+002
2.375378e+002, 6.885632e+002
2.380199e+002, 6.877136e+002
2.385020e+002, 6.876706e+002
2.389841e+002, 6.882264e+002
2.394662e+002, 6.885557e+002
2.399483e+002, 6.887889e+002
2.404305e+002, 6.886631e+002
2.409126e+002, 6.879052e+002
2.413947e+002, 6.858195e+002
2.418768e+002, 6.847015e+002
2.423589e+002, 6.849629e+002
2.428410e+002, 6.862454e+002
2.433232e+002, 6.873361e+002
2.438053e+002, 6.883287e+002
2.442874e+002, 6.889805e+002
2.447695e+002, 6.891068e+002
2.452516e+002, 6.884135e+002
2.457337e+002, 6.878083e+002
2.462159e+002, 6.872880e+002
2.466980e+002, 6.868525e+002
2.471801e+002, 6.864808e+002
2.476622e+002, 6.859130e+002
2.481443e+002, 6.857667e+002
2.486264e+002, 6.864371e+002
2.491086e+002, 6.884565e+002
2.495907e+002, 6.900060e+002
2.500728e+002, 6.909518e+002
2.505549e+002, 6.914481e+002
2.510370e+002, 6.918776e+002
2.515191e+002, 6.922090e+002
2.520013e+002, 6.925510e+002
2.524834e+002, 6.930197e+002
2.529655e+002, 6.938466e+002
2.534476e+002, 6.941880e+002
2.539297e+002, 6.938303e+002
2.544118e+002, 6.930956e+002
2.548940e+002, 6.926642e+002
2.553761e+002, 6.925388e+002
2.558582e+002, 6.927101e+002
2.563403e+002, 6.932625e+002
2.568224e+002, 6.944189e+002
2.573046e+002, 6.951341e+002
2.577867e+002, 6.951730e+002
2.582688e+002, 6.948913e+002
2.587509e+002, 6.950043e+002
2.592330e+002, 6.956544e+002
2.597151e+002, 6.963799e+002
2.601973e+002, 6.970667e+002
2.606794e+002, 6.977690e+002
2.611615e+002, 6.980527e+002
2.616436e+002, 6.976204e+002
2.621257e+002, 6.970319e+002
2.626078e+002, 6.973453e+002
2.630900e+002, 6.989863e+002
2.635721e+002, 7.005588e+002
2.640542e+002, 7.016805e+002
2.645363e+002, 7.024160e+002
2.650184e+002, 7.022629e+002
2.655005e+002, 7.006586e+002
2.659827e+002, 6.988489e+002
2.664648e+002, 6.989218e+002
2.669469e+002, 7.017677e+002
2.674290e+002, 7.038986e+002
2.679111e+002, 7.039811e+002
2.683932e+002, 7.018383e+002
2.688754e+002, 7.004518e+002
2.693575e+002, 6.999542e+002
2.698396e+002, 6.999759e+002
2.703217e+002, 7.000521e+002
2.708038e+002, 7.001088e+002
2.712859e+002, 7.004510e+002
2.717681e+002, 7.012530e+002
2.722502e+002, 7.024803e+002
2.727323e+002, 7.034063e+002
2.732144e+002, 7.039020e+002
2.736965e+002, 7.043152e+002
2.741786e+002, 7.050629e+002
2.746608e+002, 7.062358e+002
2.751429e+002, 7.072978e+002
2.756250e+002, 7.081083e+002
2.761071e+002, 7.086945e+002
2.765892e+002, 7.093610e+002
2.770714e+002, 7.102275e+002
2.775535e+002, 7.108059e+002
2.780356e+002, 7.103805e+002
2.785177e+002, 7.088015e+002
2.789998e+002, 7.077535e+002
2.794819e+002, 7.076823e+002
2.799641e+002, 7.083741e+002
2.804462e+002, 7.091132e+002
2.809283e+002, 7.100313e+002
2.814104e+002, 7.104203e+002
2.818925e+002, 7.091716e+002
2.823746e+002, 7.062479e+002
2.828568e+002, 7.047188e+002
2.833389e+002, 7.055333e+002
2.838210e+002, 7.077301e+002
2.843031e+002, 7.084678e+002
2.847852e+002, 7.076037e+002
2.852673e+002, 7.066747e+002
2.857495e+002, 7.069553e+002
2.862316e+002, 7.083428e+002
2.867137e+002, 7.093259e+002
2.871958e+002, 7.096693e+002
2.876779e+002, 7.096067e+002
2.881600e+002, 7.091819e+002
2.886422e+002, 7.083699e+002
2.891243e+002, 7.085444e+002
2.896064e+002, 7.118026e+002
2.900885e+002, 7.172334e+002
2.905706e+002, 7.195119e+002
2.910527e+002, 7.174679e+002
2.915349e+002, 7.137831e+002
2.920170e+002, 7.127690e+002
2.924991e+002, 7.142267e+002
2.929812e+002, 7.159509e+002
2.934633e+002, 7.168223e+002
2.939454e+002, 7.170135e+002
2.944276e+002, 7.170257e+002
2.949097e+002, 7.168745e+002
2.953918e+002, 7.166069e+002
2.958739e+002, 7.161364e+002
2.963560e+002, 7.155480e+002
2.968381e+002, 7.152119e+002
2.973203e+002, 7.155631e+002
2.978024e+002, 7.162486e+002
2.982845e+002, 7.164057e+002
2.987666e+002, 7.159607e+002
2.992487e+002, 7.156108e+002
2.997308e+002, 7.161191e+002
3.002130e+002, 7.173024e+002
3.006951e+002, 7.186282e+002
3.011772e+002, 7.201180e+002
3.016593e+002, 7.215074e+002
3.021414e+002, 7.223776e+002
3.026235e+002, 7.227260e+002
3.031057e+002, 7.228701e+002
3.035878e+002, 7.228480e+002
3.040699e+002, 7.228245e+002
3.045520e+002, 7.231454e+002
3.050341e+002, 7.243661e+002
3.055162e+002, 7.255726e+002
3.059984e+002, 7.254886e+002
3.064805e+002, 7.243176e+002
3.069626e+002, 7.234415e+002
3.074447e+002, 7.243152e+002
3.079268e+002, 7.258936e+002
3.084089e+002, 7.267709e+002
3.088911e+002, 7.262833e+002
3.093732e+002, 7.254737e+002
3.098553e+002, 7.250440e+002
3.103374e+002, 7.249576e+002
3.108195e+002, 7.250850e+002
3.113016e+002, 7.255331e+002
3.117838e+002, 7.260663e+002
3.122659e+002, 7.264543e+002
3.127480e+002, 7.265748e+002
3.132301e+002, 7.267189e+002
3.137122e+002, 7.268289e+002
3.141943e+002, 7.270847e+002
3.146765e+002, 7.278699e+002
3.151586e+002, 7.304478e+002
3.156407e+002, 7.328439e+002
3.161228e+002, 7.336130e+002
3.166049e+002, 7.321873e+002
3.170870e+002, 7.307801e+002
3.175692e+002, 7.306107e+002
3.180513e+002, 7.310102e+002
3.185334e+002, 7.310439e+002
3.190155e+002, 7.296310e+002
3.194976e+002, 7.284595e+002
3.199797e+002, 7.283352e+002
3.204619e+002, 7.293735e+002
3.209440e+002, 7.306752e+002
3.214261e+002, 7.322354e+002
3.219082e+002, 7.338033e+002
3.223903e+002, 7.351337e+002
3.228724e+002, 7.363425e+002
3.233546e+002, 7.371230e+002
3.238367e+002, 7.371144e+002
3.243188e+002, 7.363596e+002
3.248009e+002, 7.360284e+002
3.252830e+002, 7.365925e+002
3.257651e+002, 7.374754e+002
3.262473e+002, 7.383084e+002
3.267294e+002, 7.394617e+002
3.272115e+002, 7.401308e+002
3.276936e+002, 7.399830e+002
3.281757e+002, 7.392171e+002
3.286578e+002, 7.387684e+002
3.291400e+002, 7.387313e+002
3.296221e+002, 7.389719e+002
3.301042e+002, 7.394490e+002
3.305863e+002, 7.402963e+002
3.310684e+002, 7.411625e+002
3.315505e+002, 7.418486e+002
3.320327e+002, 7.425712e+002
3.325148e+002, 7.438510e+002
3.329969e+002, 7.461373e+002
3.334790e+002, 7.483361e+002
3.339611e+002, 7.501219e+002
3.344432e+002, 7.514557e+002
3.349254e+002, 7.523497e+002
3.354075e+002, 7.524030e+002
3.358896e+002, 7.523024e+002
3.363717e+002, 7.530807e+002
3.368538e+002, 7.550920e+002
3.373359e+002, 7.570882e+002
3.378180e+002, 7.587441e+002
3.383001e+002, 7.600609e+002
3.387823e+002, 7.612267e+002
3.392644e+002, 7.621256e+002
3.397465e+002, 7.631114e+002
3.402286e+002, 7.647342e+002
3.407107e+002, 7.672091e+002
3.411928e+002, 7.689965e+002
3.416750e+002, 7.695157e+002
3.421571e+002, 7.692219e+002
3.426392e+002, 7.699266e+002
3.431213e+002, 7.717939e+002
3.436034e+002, 7.738574e+002
3.440855e+002, 7.752348e+002
3.445677e+002, 7.759714e+002
3.450498e+002, 7.775268e+002
3.455319e+002, 7.802072e+002
3.460140e+002, 7.835491e+002
3.464961e+002, 7.866392e+002
3.469782e+002, 7.894824e+002
3.474604e+002, 7.925855e+002
3.479425e+002, 7.966362e+002
3.484246e+002, 8.012381e+002
3.489067e+002, 8.046310e+002
3.493888e+002, 8.065666e+002
3.498709e+002, 8.080815e+002
3.503531e+002, 8.104258e+002
3.508352e+002, 8.134171e+002
3.513173e+002, 8.163688e+002
3.517994e+002, 8.189784e+002
3.522815e+002, 8.213813e+002
3.527636e+002, 8.238019e+002
3.532458e+002, 8.262325e+002
3.537279e+002, 8.286613e+002
3.542100e+002, 8.314731e+002
3.546921e+002, 8.342076e+002
3.551742e+002, 8.360562e+002
3.556563e+002, 8.366088e+002
3.561385e+002, 8.363575e+002
3.566206e+002, 8.354589e+002
3.571027e+002, 8.340339e+002
3.575848e+002, 8.327261e+002
3.580669e+002, 8.323109e+002
3.585490e+002, 8.319916e+002
3.590312e+002, 8.309046e+002
3.595133e+002, 8.284907e+002
3.599954e+002, 8.261830e+002
3.604775e+002, 8.249788e+002
3.609596e+002, 8.244890e+002
3.614417e+002, 8.238984e+002
3.619239e+002, 8.222765e+002
3.624060e+002, 8.209303e+002
3.628881e+002, 8.211529e+002
3.633702e+002, 8.236881e+002
3.638523e+002, 8.244828e+002
3.643344e+002, 8.203784e+002
3.648166e+002, 8.144842e+002
3.652987e+002, 8.103133e+002
3.657808e+002, 8.101551e+002
3.662629e+002, 8.104446e+002
3.667450e+002, 8.103552e+002
3.672271e+002, 8.098586e+002
3.677093e+002, 8.093256e+002
3.681914e+002, 8.089902e+002
3.686735e+002, 8.084996e+002
3.691556e+002, 8.076112e+002
3.696377e+002, 8.059988e+002
3.701198e+002, 8.043938e+002
3.706020e+002, 8.028477e+002
3.710841e+002, 8.013214e+002
3.715662e+002, 7.996484e+002
3.720483e+002, 7.974692e+002
3.725304e+002, 7.955911e+002
3.730125e+002, 7.944923e+002
3.734947e+002, 7.947655e+002
3.739768e+002, 7.940632e+002
3.744589e+002, 7.919866e+002
3.749410e+002, 7.892450e+002
3.754231e+002, 7.868974e+002
3.759052e+002, 7.848317e+002
3.763874e+002, 7.835135e+002
3.768695e+002, 7.834987e+002
3.773516e+002, 7.847372e+002
3.778337e+002, 7.844274e+002
3.783158e+002, 7.822214e+002
3.787979e+002, 7.794945e+002
3.792801e+002, 7.774279e+002
3.797622e+002, 7.760043e+002
3.802443e+002, 7.755421e+002
3.807264e+002, 7.765466e+002
3.812085e+002, 7.781769e+002
3.816906e+002, 7.775987e+002
3.821728e+002, 7.747477e+002
3.826549e+002, 7.726207e+002
3.831370e+002, 7.741885e+002
3.836191e+002, 7.783697e+002
3.841012e+002, 7.809072e+002
3.845833e+002, 7.813110e+002
3.850655e+002, 7.802098e+002
3.855476e+002, 7.777056e+002
3.860297e+002, 7.741952e+002
3.865118e+002, 7.712838e+002
3.869939e+002, 7.701137e+002
3.874760e+002, 7.698273e+002
3.879582e+002, 7.691967e+002
3.884403e+002, 7.681927e+002
3.889224e+002, 7.671775e+002
3.894045e+002, 7.664478e+002
3.898866e+002, 7.659139e+002
3.903687e+002, 7.654403e+002
3.908509e+002, 7.649594e+002
3.913330e+002, 7.645844e+002
3.918151e+002, 7.643303e+002
3.922972e+002, 7.642358e+002
3.927793e+002, 7.644296e+002
3.932614e+002, 7.651281e+002
3.937436e+002, 7.660387e+002
3.942257e+002, 7.670671e+002
3.947078e+002, 7.684487e+002
3.951899e+002, 7.692804e+002
3.956720e+002, 7.688533e+002
3.961541e+002, 7.677285e+002
3.966363e+002, 7.668138e+002
3.971184e+002, 7.663122e+002
3.976005e+002, 7.660591e+002
3.980826e+002, 7.659725e+002
3.985647e+002, 7.660276e+002
3.990468e+002, 7.664185e+002
3.995290e+002, 7.673982e+002
4.000111e+002, 7.685909e+002
4.004932e+002, 7.697006e+002
4.009753e+002, 7.707380e+002
4.014574e+002, 7.717088e+002
4.019395e+002, 7.729473e+002
4.024217e+002, 7.741974e+002
4.029038e+002, 7.740380e+002
4.033859e+002, 7.713899e+002
4.038680e+002, 7.689236e+002
4.043501e+002, 7.681409e+002
4.048322e+002, 7.698334e+002
4.053144e+002, 7.703097e+002
4.057965e+002, 7.689982e+002
4.062786e+002, 7.671431e+002
4.067607e+002, 7.669374e+002
4.072428e+002, 7.687161e+002
4.077249e+002, 7.702971e+002
4.082071e+002, 7.708523e+002
4.086892e+002, 7.705640e+002
4.091713e+002, 7.705479e+002
4.096534e+002, 7.708157e+002
4.101355e+002, 7.712722e+002
4.106176e+002, 7.719092e+002
4.110998e+002, 7.726869e+002
4.115819e+002, 7.733802e+002
4.120640e+002, 7.739545e+002
4.125461e+002, 7.744028e+002
4.130282e+002, 7.746531e+002
4.135103e+002, 7.747384e+002
4.139925e+002, 7.748688e+002
4.144746e+002, 7.751373e+002
4.149567e+002, 7.755373e+002
4.154388e+002, 7.761146e+002
4.159209e+002, 7.769028e+002
4.164030e+002, 7.776370e+002
4.168852e+002, 7.780670e+002
4.173673e+002, 7.783114e+002
4.178494e+002, 7.785653e+002
4.183315e+002, 7.792015e+002
4.188136e+002, 7.796447e+002
4.192957e+002, 7.793768e+002
4.197779e+002, 7.785143e+002
4.202600e+002, 7.777701e+002
4.207421e+002, 7.772996e+002
4.212242e+002, 7.771960e+002
4.217063e+002, 7.776062e+002
4.221884e+002, 7.789541e+002
4.226706e+002, 7.800789e+002
4.231527e+002, 7.804587e+002
4.236348e+002, 7.804628e+002
4.241169e+002, 7.807866e+002
4.245990e+002, 7.819197e+002
4.250811e+002, 7.830074e+002
4.255633e+002, 7.837145e+002
4.260454e+002, 7.839405e+002
4.265275e+002, 7.844231e+002
4.270096e+002, 7.854827e+002
4.274917e+002, 7.865219e+002
4.279738e+002, 7.870172e+002
4.284560e+002, 7.866524e+002
4.289381e+002, 7.863757e+002
4.294202e+002, 7.863406e+002
4.299023e+002, 7.864473e+002
4.303844e+002, 7.862770e+002
4.308665e+002, 7.856519e+002
4.313487e+002, 7.852606e+002
4.318308e+002, 7.856240e+002
4.323129e+002, 7.868040e+002
4.327950e+002, 7.874246e+002
4.332771e+002, 7.873337e+002
4.337592e+002, 7.870725e+002
4.342414e+002, 7.876317e+002
4.347235e+002, 7.888963e+002
4.352056e+002, 7.893405e+002
4.356877e+002, 7.880554e+002
4.361698e+002, 7.859630e+002
4.366519e+002, 7.850019e+002
4.371341e+002, 7.851434e+002
4.376162e+002, 7.856821e+002
4.380983e+002, 7.863104e+002
4.385804e+002, 7.869394e+002
4.390625e+002, 7.873884e+002
4.395446e+002, 7.875918e+002
4.400268e+002, 7.877414e+002
4.405089e+002, 7.881109e+002
4.409910e+002, 7.885477e+002
4.414731e+002, 7.887382e+002
4.419552e+002, 7.881552e+002
4.424373e+002, 7.875765e+002
4.429195e+002, 7.875229e+002
4.434016e+002, 7.879954e+002
4.438837e+002, 7.885663e+002
4.443658e+002, 7.891950e+002
4.448479e+002, 7.897581e+002
4.453300e+002, 7.901553e+002
4.458122e+002, 7.904208e+002
4.462943e+002, 7.904333e+002
4.467764e+002, 7.898063e+002
4.472585e+002, 7.888909e+002
4.477406e+002, 7.885934e+002
4.482227e+002, 7.896526e+002
4.487049e+002, 7.906672e+002
4.491870e+002, 7.912639e+002
4.496691e+002, 7.914033e+002
4.501512e+002, 7.913399e+002
4.506333e+002, 7.908713e+002
4.511154e+002, 7.904413e+002
4.515976e+002, 7.905526e+002
4.520797e+002, 7.914453e+002
4.525618e+002, 7.921108e+002
4.530439e+002, 7.923422e+002
4.535260e+002, 7.922930e+002
4.540081e+002, 7.923976e+002
4.544903e+002, 7.926579e+002
4.549724e+002, 7.930984e+002
4.554545e+002, 7.938789e+002
4.559366e+002, 7.949107e+002
4.564187e+002, 7.955598e+002
4.569008e+002, 7.957439e+002
4.573830e+002, 7.958174e+002
4.578651e+002, 7.960813e+002
4.583472e+002, 7.965416e+002
4.588293e+002, 7.972487e+002
4.593114e+002, 7.983538e+002
4.597935e+002, 7.995546e+002
4.602757e+002, 8.003789e+002
4.607578e+002, 8.009111e+002
4.612399e+002, 8.016314e+002
4.617220e+002, 8.034236e+002
4.622041e+002, 8.052236e+002
4.626862e+002, 8.058043e+002
4.631684e+002, 8.047042e+002
4.636505e+002, 8.037260e+002
4.641326e+002, 8.042166e+002
4.646147e+002, 8.052677e+002
4.650968e+002, 8.057064e+002
4.655789e+002, 8.049636e+002
4.660611e+002, 8.038044e+002
4.665432e+002, 8.019625e+002
4.670253e+002, 7.996153e+002
4.675074e+002, 7.984069e+002
4.679895e+002, 7.996346e+002
4.684716e+002, 8.011669e+002
4.689538e+002, 8.019586e+002
4.694359e+002, 8.014545e+002
4.699180e+002, 8.014045e+002
4.704001e+002, 8.019207e+002
4.708822e+002, 8.027975e+002
4.713643e+002, 8.038014e+002
4.718465e+002, 8.050570e+002
4.723286e+002, 8.060154e+002
4.728107e+002, 8.063936e+002
4.732928e+002, 8.063309e+002
4.737749e+002, 8.067697e+002
4.742570e+002, 8.077881e+002
4.747392e+002, 8.088602e+002
4.752213e+002, 8.094957e+002
4.757034e+002, 8.097878e+002
4.761855e+002, 8.104752e+002
4.766676e+002, 8.117553e+002
4.771497e+002, 8.130552e+002
4.776319e+002, 8.131842e+002
4.781140e+002, 8.126013e+002
4.785961e+002, 8.127955e+002
4.790782e+002, 8.150684e+002
4.795603e+002, 8.180596e+002
4.800424e+002, 8.202448e+002
4.805246e+002, 8.216957e+002
4.810067e+002, 8.229277e+002
4.814888e+002, 8.238926e+002
4.819709e+002, 8.249824e+002
4.824530e+002, 8.265515e+002
4.829352e+002, 8.287352e+002
4.834173e+002, 8.312129e+002
4.838994e+002, 8.345980e+002
4.843815e+002, 8.380353e+002
4.848636e+002, 8.401922e+002
4.853457e+002, 8.394974e+002
4.858279e+002, 8.387908e+002
4.863100e+002, 8.388079e+002
4.867921e+002, 8.395793e+002
4.872742e+002, 8.404343e+002
4.877563e+002, 8.416233e+002
4.882384e+002, 8.426791e+002
4.887206e+002, 8.432004e+002
4.892027e+002, 8.425861e+002
4.896848e+002, 8.432079e+002
4.901669e+002, 8.456202e+002
4.906490e+002, 8.487275e+002
4.911311e+002, 8.508441e+002
4.916133e+002, 8.518604e+002
4.920954e+002, 8.524807e+002
4.925775e+002, 8.526642e+002
4.930596e+002, 8.526740e+002
4.935417e+002, 8.535610e+002
4.940238e+002, 8.553168e+002
4.945060e+002, 8.574397e+002
4.949881e+002, 8.599605e+002
4.954702e+002, 8.625117e+002
4.959523e+002, 8.640742e+002
4.964344e+002, 8.643101e+002
4.969165e+002, 8.643922e+002
4.973987e+002, 8.657842e+002
4.978808e+002, 8.678364e+002
4.983629e+002, 8.693000e+002
4.988450e+002, 8.693152e+002
4.993271e+002, 8.688763e+002
4.998092e+002, 8.683998e+002
5.002914e+002, 8.679526e+002
5.007735e+002, 8.678651e+002
5.012556e+002, 8.691338e+002
5.017377e+002, 8.701801e+002
5.022198e+002, 8.699403e+002
5.027019e+002, 8.676533e+002
5.031841e+002, 8.657982e+002
5.036662e+002, 8.651085e+002
5.041483e+002, 8.648428e+002
5.046304e+002, 8.641826e+002
5.051125e+002, 8.632810e+002
5.055946e+002, 8.616927e+002
5.060768e+002, 8.587970e+002
5.065589e+002, 8.550922e+002
5.070410e+002, 8.534139e+002
5.075231e+002, 8.546647e+002
5.080052e+002, 8.553817e+002
5.084873e+002, 8.534488e+002
5.089695e+002, 8.488574e+002
5.094516e+002, 8.443522e+002
5.099337e+002, 8.398021e+002
5.104158e+002, 8.359230e+002
5.108979e+002, 8.340436e+002
5.113800e+002, 8.336953e+002
5.118622e+002, 8.328124e+002
5.123443e+002, 8.305828e+002
5.128264e+002, 8.279479e+002
5.133085e+002, 8.263318e+002
5.137906e+002, 8.254276e+002
5.142728e+002, 8.241274e+002
5.147549e+002, 8.214852e+002
5.152370e+002, 8.183984e+002
5.157191e+002, 8.154626e+002
5.162012e+002, 8.127040e+002
5.166833e+002, 8.105405e+002
5.171655e+002, 8.093383e+002
5.176476e+002, 8.087086e+002
5.181297e+002, 8.083257e+002
5.186118e+002, 8.084650e+002
5.190939e+002, 8.084297e+002
5.195760e+002, 8.080154e+002
5.200582e+002, 8.073600e+002
5.205403e+002, 8.067607e+002
5.210224e+002, 8.059486e+002
5.215045e+002, 8.055887e+002
5.219866e+002, 8.060621e+002
5.224688e+002, 8.073631e+002
5.229509e+002, 8.077783e+002
5.234330e+002, 8.067270e+002
5.239151e+002, 8.061129e+002
5.243972e+002, 8.080143e+002
5.248793e+002, 8.125007e+002
5.253615e+002, 8.151906e+002
5.258436e+002, 8.154920e+002
5.263257e+002, 8.144915e+002
5.268078e+002, 8.136580e+002
5.272899e+002, 8.129088e+002
5.277720e+002, 8.118468e+002
5.282542e+002, 8.099518e+002
5.287363e+002, 8.079565e+002
5.292184e+002, 8.067850e+002
5.297005e+002, 8.063890e+002
5.301826e+002, 8.064482e+002
5.306647e+002, 8.073127e+002
5.311469e+002, 8.082263e+002
5.316290e+002, 8.084777e+002
5.321111e+002, 8.078473e+002
5.325932e+002, 8.071915e+002
5.330753e+002, 8.067051e+002
5.335574e+002, 8.064406e+002
5.340396e+002, 8.064603e+002
5.345217e+002, 8.072010e+002
5.350038e+002, 8.077410e+002
5.354859e+002, 8.076727e+002
5.359680e+002, 8.073033e+002
5.364501e+002, 8.077117e+002
5.369323e+002, 8.096736e+002
5.374144e+002, 8.110632e+002
5.378965e+002, 8.106565e+002
5.383786e+002, 8.083655e+002
5.388607e+002, 8.082025e+002
5.393428e+002, 8.106426e+002
5.398250e+002, 8.137180e+002
5.403071e+002, 8.157570e+002
5.407892e+002, 8.167850e+002
5.412713e+002, 8.172320e+002
5.417534e+002, 8.170517e+002
5.422355e+002, 8.165715e+002
5.427177e+002, 8.162597e+002
5.431998e+002, 8.160320e+002
5.436819e+002, 8.156299e+002
5.441640e+002, 8.143525e+002
5.446461e+002, 8.132621e+002
5.451282e+002, 8.135682e+002
5.456104e+002, 8.150883e+002
5.460925e+002, 8.166605e+002
5.465746e+002, 8.174816e+002
5.470567e+002, 8.182910e+002
5.475388e+002, 8.198534e+002
5.480209e+002, 8.228383e+002
5.485031e+002, 8.246160e+002
5.489852e+002, 8.238594e+002
5.494673e+002, 8.220107e+002
5.499494e+002, 8.205923e+002
5.504315e+002, 8.199574e+002
5.509136e+002, 8.192070e+002
5.513958e+002, 8.179958e+002
5.518779e+002, 8.166588e+002
5.523600e+002, 8.163629e+002
5.528421e+002, 8.174236e+002
5.533242e+002, 8.183914e+002
5.538063e+002, 8.186185e+002
5.542885e+002, 8.181992e+002
5.547706e+002, 8.178799e+002
5.552527e+002, 8.176754e+002
5.557348e+002, 8.174439e+002
5.562169e+002, 8.169795e+002
5.566990e+002, 8.164031e+002
5.571812e+002, 8.160228e+002
5.576633e+002, 8.159161e+002
5.581454e+002, 8.159296e+002
5.586275e+002, 8.157815e+002
5.591096e+002, 8.156760e+002
5.595917e+002, 8.159661e+002
5.600739e+002, 8.172803e+002
5.605560e+002, 8.185673e+002
5.610381e+002, 8.193873e+002
5.615202e+002, 8.197508e+002
5.620023e+002, 8.197672e+002
5.624844e+002, 8.192430e+002
5.629666e+002, 8.185524e+002
5.634487e+002, 8.177693e+002
5.639308e+002, 8.167966e+002
5.644129e+002, 8.162490e+002
5.648950e+002, 8.164739e+002
5.653771e+002, 8.167299e+002
5.658593e+002, 8.162195e+002
5.663414e+002, 8.145460e+002
5.668235e+002, 8.138682e+002
5.673056e+002, 8.146313e+002
5.677877e+002, 8.161025e+002
5.682698e+002, 8.169406e+002
5.687520e+002, 8.171942e+002
5.692341e+002, 8.175320e+002
5.697162e+002, 8.184423e+002
5.701983e+002, 8.194617e+002
5.706804e+002, 8.196525e+002
5.711625e+002, 8.191159e+002
5.716447e+002, 8.185062e+002
5.721268e+002, 8.179619e+002
5.726089e+002, 8.177322e+002
5.730910e+002, 8.182983e+002
5.735731e+002, 8.198715e+002
5.740552e+002, 8.210267e+002
5.745374e+002, 8.204940e+002
5.750195e+002, 8.195540e+002
5.755016e+002, 8.193979e+002
5.759837e+002, 8.208297e+002
5.764658e+002, 8.223181e+002
5.769479e+002, 8.239993e+002
5.774301e+002, 8.255648e+002
5.779122e+002, 8.263054e+002
5.783943e+002, 8.255117e+002
5.788764e+002, 8.252994e+002
5.793585e+002, 8.264840e+002
5.798406e+002, 8.287753e+002
5.803228e+002, 8.300645e+002
5.808049e+002, 8.302050e+002
5.812870e+002, 8.302729e+002
5.817691e+002, 8.314410e+002
5.822512e+002, 8.332260e+002
5.827333e+002, 8.333753e+002
5.832155e+002, 8.316288e+002
5.836975e+002, 8.297021e+002
5.841796e+002, 8.289306e+002
5.846617e+002, 8.291358e+002
5.851439e+002, 8.300917e+002
5.856260e+002, 8.321472e+002
5.861081e+002, 8.342203e+002
5.865902e+002, 8.358431e+002
5.870723e+002, 8.370050e+002
5.875544e+002, 8.376594e+002
5.880366e+002, 8.373092e+002
5.885187e+002, 8.369459e+002
5.890008e+002, 8.368094e+002
5.894829e+002, 8.369009e+002
5.899650e+002, 8.371745e+002
5.904471e+002, 8.373456e+002
5.909293e+002, 8.380314e+002
5.914114e+002, 8.396733e+002
5.918935e+002, 8.424724e+002
5.923756e+002, 8.447152e+002
5.928577e+002, 8.463028e+002
5.933398e+002, 8.475961e+002
5.938220e+002, 8.491878e+002
5.943041e+002, 8.509590e+002
5.947862e+002, 8.518185e+002
5.952683e+002, 8.513502e+002
5.957504e+002, 8.505270e+002
5.962325e+002, 8.504128e+002
5.967147e+002, 8.509565e+002
5.971968e+002, 8.519980e+002
5.976789e+002, 8.541409e+002
5.981610e+002, 8.562173e+002
5.986431e+002, 8.573148e+002
5.991252e+002, 8.575823e+002
5.996074e+002, 8.577495e+002
6.000895e+002, 8.582965e+002
6.005716e+002, 8.586220e+002
6.010537e+002, 8.582620e+002
6.015358e+002, 8.569108e+002
6.020179e+002, 8.562379e+002
6.025001e+002, 8.565664e+002
6.029822e+002, 8.572715e+002
6.034643e+002, 8.579518e+002
6.039464e+002, 8.586653e+002
6.044285e+002, 8.591324e+002
6.049106e+002, 8.592939e+002
6.053928e+002, 8.592937e+002
6.058749e+002, 8.593474e+002
6.063570e+002, 8.594469e+002
6.068391e+002, 8.595101e+002
6.073212e+002, 8.595277e+002
6.078033e+002, 8.594672e+002
6.082855e+002, 8.590625e+002
6.087676e+002, 8.584737e+002
6.092497e+002, 8.582929e+002
6.097318e+002, 8.592664e+002
6.102139e+002, 8.604589e+002
6.106960e+002, 8.612979e+002
6.111782e+002, 8.617321e+002
6.116603e+002, 8.615319e+002
6.121424e+002, 8.602144e+002
6.126245e+002, 8.585289e+002
6.131066e+002, 8.568820e+002
6.135887e+002, 8.550851e+002
6.140709e+002, 8.538864e+002
6.145530e+002, 8.537182e+002
6.150351e+002, 8.537730e+002
6.155172e+002, 8.530955e+002
6.159993e+002, 8.514337e+002
6.164814e+002, 8.501961e+002
6.169636e+002, 8.496157e+002
6.174457e+002, 8.495061e+002
6.179278e+002, 8.497475e+002
6.184099e+002, 8.502637e+002
6.188920e+002, 8.503262e+002
6.193741e+002, 8.493887e+002
6.198563e+002, 8.479853e+002
6.203384e+002, 8.467794e+002
6.208205e+002, 8.457743e+002
6.213026e+002, 8.450192e+002
6.217847e+002, 8.448843e+002
6.222668e+002, 8.447548e+002
6.227490e+002, 8.440644e+002
6.232311e+002, 8.426964e+002
6.237132e+002, 8.416006e+002
6.241953e+002, 8.412136e+002
6.246774e+002, 8.410864e+002
6.251595e+002, 8.409319e+002
6.256417e+002, 8.409039e+002
6.261238e+002, 8.405440e+002
6.266059e+002, 8.396501e+002
6.270880e+002, 8.386848e+002
6.275701e+002, 8.382437e+002
6.280522e+002, 8.383536e+002
6.285344e+002, 8.388934e+002
6.290165e+002, 8.400849e+002
6.294986e+002, 8.413224e+002
6.299807e+002, 8.411616e+002
6.304628e+002, 8.398460e+002
6.309449e+002, 8.387254e+002
6.314271e+002, 8.385046e+002
6.319092e+002, 8.387641e+002
6.323913e+002, 8.391895e+002
6.328734e+002, 8.397284e+002
6.333555e+002, 8.401305e+002
6.338376e+002, 8.397429e+002
6.343198e+002, 8.395752e+002
6.348019e+002, 8.405029e+002
6.352840e+002, 8.429885e+002
6.357661e+002, 8.445238e+002
6.362482e+002, 8.445009e+002
6.367303e+002, 8.437726e+002
6.372125e+002, 8.427872e+002
6.376946e+002, 8.412385e+002
6.381767e+002, 8.404433e+002
6.386588e+002, 8.407179e+002
6.391409e+002, 8.413152e+002
6.396230e+002, 8.409581e+002
6.401052e+002, 8.397462e+002
6.405873e+002, 8.392025e+002
6.410694e+002, 8.399053e+002
6.415515e+002, 8.411468e+002
6.420336e+002, 8.419276e+002
6.425157e+002, 8.423597e+002
6.429979e+002, 8.427824e+002
6.434800e+002, 8.436152e+002
6.439621e+002, 8.442726e+002
6.444442e+002, 8.442111e+002
6.449263e+002, 8.435377e+002
6.454084e+002, 8.429146e+002
6.458906e+002, 8.423886e+002
6.463727e+002, 8.421114e+002
6.468548e+002, 8.421495e+002
6.473369e+002, 8.424874e+002
6.478190e+002, 8.432702e+002
6.483011e+002, 8.449493e+002
6.487833e+002, 8.463919e+002
6.492654e+002, 8.465893e+002
6.497475e+002, 8.454199e+002
6.502296e+002, 8.444262e+002
6.507117e+002, 8.436255e+002
6.511938e+002, 8.432528e+002
6.516760e+002, 8.438874e+002
6.521581e+002, 8.452248e+002
6.526402e+002, 8.462469e+002
6.531223e+002, 8.464771e+002
6.536044e+002, 8.467460e+002
6.540865e+002, 8.481116e+002
6.545687e+002, 8.500243e+002
6.550508e+002, 8.514371e+002
6.555329e+002, 8.516408e+002
6.560150e+002, 8.516183e+002
6.564971e+002, 8.515327e+002
6.569792e+002, 8.514691e+002
6.574614e+002, 8.518411e+002
6.579435e+002, 8.530718e+002
6.584256e+002, 8.541573e+002
6.589077e+002, 8.547826e+002
6.593898e+002, 8.549555e+002
6.598719e+002, 8.548063e+002
6.603541e+002, 8.542281e+002
6.608362e+002, 8.538202e+002
6.613183e+002, 8.540367e+002
6.618004e+002, 8.547787e+002
6.622825e+002, 8.559363e+002
6.627646e+002, 8.575625e+002
6.632468e+002, 8.585720e+002
6.637289e+002, 8.575701e+002
6.642110e+002, 8.555533e+002
6.646931e+002, 8.537543e+002
6.651752e+002, 8.523715e+002
6.656573e+002, 8.514376e+002
6.661395e+002, 8.509933e+002
6.666216e+002, 8.509938e+002
6.671037e+002, 8.513798e+002
6.675858e+002, 8.526154e+002
6.680679e+002, 8.536485e+002
6.685500e+002, 8.543470e+002
6.690322e+002, 8.548162e+002
6.695143e+002, 8.554061e+002
6.699964e+002, 8.563018e+002
6.704785e+002, 8.563126e+002
6.709606e+002, 8.546036e+002
6.714427e+002, 8.520790e+002
6.719249e+002, 8.515009e+002
6.724070e+002, 8.526501e+002
6.728891e+002, 8.538279e+002
6.733712e+002, 8.539057e+002
6.738533e+002, 8.535378e+002
6.743354e+002, 8.535124e+002
6.748176e+002, 8.538078e+002
6.752997e+002, 8.539488e+002
6.757818e+002, 8.531951e+002
6.762639e+002, 8.525977e+002
6.767460e+002, 8.530272e+002
6.772281e+002, 8.550613e+002
6.777103e+002, 8.561104e+002
6.781924e+002, 8.553932e+002
6.786745e+002, 8.543762e+002
6.791566e+002, 8.541605e+002
6.796387e+002, 8.549391e+002
6.801208e+002, 8.555687e+002
6.806030e+002, 8.559369e+002
6.810851e+002, 8.562973e+002
6.815672e+002, 8.571451e+002
6.820493e+002, 8.583070e+002
6.825314e+002, 8.590490e+002
6.830135e+002, 8.590680e+002
6.834957e+002, 8.588757e+002
6.839778e+002, 8.591777e+002
6.844599e+002, 8.596313e+002
6.849420e+002, 8.595881e+002
6.854241e+002, 8.579101e+002
6.859063e+002, 8.566454e+002
6.863884e+002, 8.568740e+002
6.868705e+002, 8.581766e+002
6.873526e+002, 8.590659e+002
6.878347e+002, 8.594062e+002
6.883168e+002, 8.594325e+002
6.887990e+002, 8.590947e+002
6.892811e+002, 8.584837e+002
6.897632e+002, 8.581487e+002
6.902453e+002, 8.580826e+002
6.907274e+002, 8.583737e+002
6.912095e+002, 8.592576e+002
6.916917e+002, 8.605202e+002
6.921738e+002, 8.618043e+002
6.926559e+002, 8.630475e+002
6.931380e+002, 8.634885e+002
6.936201e+002, 8.614896e+002
6.941022e+002, 8.590402e+002
6.945844e+002, 8.581077e+002
6.950665e+002, 8.590997e+002
6.955486e+002, 8.605643e+002
6.960307e+002, 8.627670e+002
6.965128e+002, 8.647331e+002
6.969949e+002, 8.656648e+002
6.974771e+002, 8.649268e+002
6.979592e+002, 8.645041e+002
6.984413e+002, 8.645280e+002
6.989234e+002, 8.647273e+002
6.994055e+002, 8.648410e+002
6.998876e+002, 8.648844e+002
7.003698e+002, 8.646951e+002
7.008519e+002, 8.642321e+002
7.013340e+002, 8.636267e+002
7.018161e+002, 8.630250e+002
7.022982e+002, 8.624373e+002
7.027803e+002, 8.618551e+002
7.032625e+002, 8.610758e+002
7.037446e+002, 8.605579e+002
7.042267e+002, 8.605067e+002
7.047088e+002, 8.609462e+002
7.051909e+002, 8.619424e+002
7.056730e+002, 8.647090e+002
7.061552e+002, 8.666218e+002
7.066373e+002, 8.665238e+002
7.071194e+002, 8.649821e+002
7.076015e+002, 8.647535e+002
7.080836e+002, 8.661996e+002
7.085657e+002, 8.678248e+002
7.090479e+002, 8.691157e+002
7.095300e+002, 8.700723e+002
7.100121e+002, 8.707294e+002
7.104942e+002, 8.710792e+002
7.109763e+002, 8.711011e+002
7.114584e+002, 8.704874e+002
7.119406e+002, 8.696967e+002
7.124227e+002, 8.695458e+002
7.129048e+002, 8.700389e+002
7.133869e+002, 8.699335e+002
7.138690e+002, 8.673546e+002
7.143511e+002, 8.649301e+002
7.148333e+002, 8.647828e+002
7.153154e+002, 8.685365e+002
7.157975e+002, 8.698875e+002
7.162796e+002, 8.676158e+002
7.167617e+002, 8.644527e+002
7.172438e+002, 8.623822e+002
7.177260e+002, 8.614764e+002
7.182081e+002, 8.612879e+002
7.186902e+002, 8.618981e+002
7.191723e+002, 8.628290e+002
7.196544e+002, 8.636602e+002
7.201365e+002, 8.643591e+002
7.206187e+002, 8.647767e+002
7.211008e+002, 8.647593e+002
7.215829e+002, 8.648131e+002
7.220650e+002, 8.652507e+002
7.225471e+002, 8.659996e+002
7.230292e+002, 8.669777e+002
7.235114e+002, 8.688899e+002
7.239935e+002, 8.700736e+002
7.244756e+002, 8.697886e+002
7.249577e+002, 8.687913e+002
7.254398e+002, 8.681791e+002
7.259219e+002, 8.676740e+002
7.264041e+002, 8.685694e+002
7.268862e+002, 8.716403e+002
7.273683e+002, 8.757415e+002
7.278504e+002, 8.780816e+002
7.283325e+002, 8.788122e+002
7.288146e+002, 8.788947e+002
7.292968e+002, 8.783112e+002
7.297789e+002, 8.776735e+002
7.302610e+002, 8.776533e+002
7.307431e+002, 8.781638e+002
7.312252e+002, 8.789169e+002
7.317073e+002, 8.802469e+002
7.321895e+002, 8.813518e+002
7.326716e+002, 8.819441e+002
7.331537e+002, 8.819968e+002
7.336358e+002, 8.815105e+002
7.341179e+002, 8.800161e+002
7.346000e+002, 8.788037e+002
7.350822e+002, 8.785854e+002
7.355643e+002, 8.792205e+002
7.360464e+002, 8.791008e+002
7.365285e+002, 8.781832e+002
7.370106e+002, 8.774788e+002
7.374927e+002, 8.778316e+002
7.379749e+002, 8.788344e+002
7.384570e+002, 8.800334e+002
7.389391e+002, 8.813669e+002
7.394212e+002, 8.821613e+002
7.399033e+002, 8.816370e+002
7.403854e+002, 8.806869e+002
7.408676e+002, 8.798141e+002
7.413497e+002, 8.789219e+002
7.418318e+002, 8.788047e+002
7.423139e+002, 8.802001e+002
7.427960e+002, 8.815596e+002
7.432781e+002, 8.816429e+002
7.437603e+002, 8.801454e+002
7.442424e+002, 8.796389e+002
7.447245e+002, 8.803372e+002
7.452066e+002, 8.814437e+002
7.456887e+002, 8.821783e+002
7.461708e+002, 8.826812e+002
7.466530e+002, 8.833582e+002
7.471351e+002, 8.843477e+002
7.476172e+002, 8.851749e+002
7.480993e+002, 8.854077e+002
7.485814e+002, 8.853289e+002
7.490635e+002, 8.852377e+002
7.495457e+002, 8.850735e+002
7.500278e+002, 8.850900e+002
7.505099e+002, 8.849868e+002
7.509920e+002, 8.852664e+002
7.514741e+002, 8.867202e+002
7.519562e+002, 8.897288e+002
7.524384e+002, 8.920661e+002
7.529205e+002, 8.931750e+002
7.534026e+002, 8.939510e+002
7.538847e+002, 8.961876e+002
7.543668e+002, 8.994009e+002
7.548489e+002, 9.017458e+002
7.553311e+002, 9.026114e+002
7.558132e+002, 9.024963e+002
7.562953e+002, 9.007557e+002
7.567774e+002, 8.985254e+002
7.572595e+002, 8.978344e+002
7.577416e+002, 9.017035e+002
7.582238e+002, 9.043837e+002
7.587059e+002, 9.039004e+002
7.591880e+002, 9.015759e+002
7.596701e+002, 9.001546e+002
7.601522e+002, 9.000305e+002
7.606343e+002, 8.994446e+002
7.611165e+002, 8.975430e+002
7.615986e+002, 8.953323e+002
7.620807e+002, 8.957504e+002
7.625628e+002, 8.983422e+002
7.630449e+002, 9.004072e+002
7.635270e+002, 8.998302e+002
7.640092e+002, 8.989271e+002
7.644913e+002, 9.003604e+002
7.649734e+002, 9.033342e+002
7.654555e+002, 9.054006e+002
7.659376e+002, 9.050370e+002
7.664197e+002, 9.042494e+002
7.669019e+002, 9.032714e+002
7.673840e+002, 9.023307e+002
7.678661e+002, 9.028184e+002
7.683482e+002, 9.055262e+002
7.688303e+002, 9.072523e+002
7.693124e+002, 9.061623e+002
7.697946e+002, 9.032982e+002
7.702767e+002, 9.022913e+002
7.707588e+002, 9.030198e+002
7.712409e+002, 9.043514e+002
7.717230e+002, 9.061368e+002
7.722051e+002, 9.078227e+002
7.726873e+002, 9.086330e+002
7.731694e+002, 9.087119e+002
7.736515e+002, 9.091500e+002
7.741336e+002, 9.113821e+002
7.746157e+002, 9.130403e+002
7.750978e+002, 9.127384e+002
7.755800e+002, 9.105875e+002
7.760621e+002, 9.095103e+002
7.765442e+002, 9.097344e+002
7.770263e+002, 9.104030e+002
7.775084e+002, 9.111624e+002
7.779905e+002, 9.119833e+002
7.784727e+002, 9.127289e+002
7.789548e+002, 9.133945e+002
7.794369e+002, 9.139848e+002
7.799190e+002, 9.145963e+002
7.804011e+002, 9.150561e+002
7.808832e+002, 9.151335e+002
7.813654e+002, 9.148133e+002
7.818475e+002, 9.144846e+002
7.823296e+002, 9.138571e+002
7.828117e+002, 9.136484e+002
7.832938e+002, 9.144321e+002
7.837759e+002, 9.163899e+002
7.842581e+002, 9.170941e+002
7.847402e+002, 9.161227e+002
7.852223e+002, 9.152488e+002
7.857044e+002, 9.164269e+002
7.861865e+002, 9.187982e+002
7.866686e+002, 9.183323e+002
7.871508e+002, 9.149670e+002
7.876329e+002, 9.120792e+002
7.881150e+002, 9.127109e+002
7.885971e+002, 9.146824e+002
7.890792e+002, 9.158331e+002
7.895613e+002, 9.157983e+002
7.900435e+002, 9.162361e+002
7.905256e+002, 9.179172e+002
7.910077e+002, 9.198375e+002
7.914898e+002, 9.216740e+002
7.919719e+002, 9.235593e+002
7.924540e+002, 9.239716e+002
7.929362e+002, 9.225993e+002
7.934183e+002, 9.209431e+002
7.939004e+002, 9.199773e+002
7.943825e+002, 9.197353e+002
7.948646e+002, 9.208720e+002
7.953467e+002, 9.234692e+002
7.958289e+002, 9.252199e+002
7.963110e+002, 9.235403e+002
7.967931e+002, 9.209036e+002
7.972752e+002, 9.193069e+002
7.977573e+002, 9.191003e+002
7.982394e+002, 9.195828e+002
7.987216e+002, 9.210909e+002
7.992037e+002, 9.228016e+002
7.996858e+002, 9.241650e+002
8.001679e+002, 9.251149e+002
8.006500e+002, 9.263762e+002
8.011321e+002, 9.280018e+002
8.016143e+002, 9.297391e+002
8.020964e+002, 9.316229e+002
8.025785e+002, 9.333783e+002
8.030606e+002, 9.342805e+002
8.035427e+002, 9.341759e+002
8.040248e+002, 9.343238e+002
8.045070e+002, 9.353094e+002
8.049891e+002, 9.369420e+002
8.054712e+002, 9.391951e+002
8.059533e+002, 9.424222e+002
8.064354e+002, 9.451074e+002
8.069175e+002, 9.469482e+002
8.073997e+002, 9.486574e+002
8.078818e+002, 9.507966e+002
8.083639e+002, 9.533336e+002
8.088460e+002, 9.557465e+002
8.093281e+002, 9.580162e+002
8.098102e+002, 9.601721e+002
8.102924e+002, 9.622270e+002
8.107745e+002, 9.641967e+002
8.112566e+002, 9.662676e+002
8.117387e+002, 9.685273e+002
8.122208e+002, 9.700862e+002
8.127029e+002, 9.701963e+002
8.131851e+002, 9.697667e+002
8.136672e+002, 9.695384e+002
8.141493e+002, 9.698395e+002
8.146314e+002, 9.690302e+002
8.151135e+002, 9.670344e+002
8.155956e+002, 9.641281e+002
8.160778e+002, 9.599708e+002
8.165599e+002, 9.549923e+002
8.170420e+002, 9.513240e+002
8.175241e+002, 9.490715e+002
8.180062e+002, 9.475605e+002
8.184883e+002, 9.465211e+002
8.189705e+002, 9.457442e+002
8.194526e+002, 9.449592e+002
8.199347e+002, 9.440620e+002
8.204168e+002, 9.436674e+002
8.208989e+002, 9.449161e+002
8.213810e+002, 9.457431e+002
8.218632e+002, 9.448427e+002
8.223453e+002, 9.419365e+002
8.228274e+002, 9.402037e+002
8.233095e+002, 9.398116e+002
8.237916e+002, 9.398368e+002
8.242737e+002, 9.396913e+002
8.247559e+002, 9.394288e+002
8.252380e+002, 9.391796e+002
8.257201e+002, 9.389559e+002
8.262022e+002, 9.385743e+002
8.266843e+002, 9.376992e+002
8.271664e+002, 9.368137e+002
8.276486e+002, 9.362315e+002
8.281307e+002, 9.360023e+002
8.286128e+002, 9.359335e+002
8.290949e+002, 9.359978e+002
8.295770e+002, 9.362396e+002
8.300591e+002, 9.365828e+002
8.305413e+002, 9.370660e+002
8.310234e+002, 9.385660e+002
8.315055e+002, 9.410546e+002
8.319876e+002, 9.429169e+002
8.324697e+002, 9.427396e+002
8.329518e+002, 9.415032e+002
8.334340e+002, 9.398772e+002
8.339161e+002, 9.380023e+002
8.343982e+002, 9.369033e+002
8.348803e+002, 9.375059e+002
8.353624e+002, 9.384310e+002
8.358445e+002, 9.390676e+002
8.363267e+002, 9.394346e+002
8.368088e+002, 9.400148e+002
8.372909e+002, 9.408504e+002
8.377730e+002, 9.417181e+002
8.382551e+002, 9.422919e+002
8.387372e+002, 9.428788e+002
8.392194e+002, 9.444680e+002
8.397015e+002, 9.468929e+002
8.401836e+002, 9.491716e+002
8.406657e+002, 9.511358e+002
8.411478e+002, 9.524197e+002
8.416299e+002, 9.521198e+002
8.421121e+002, 9.505510e+002
8.425942e+002, 9.505198e+002
8.430763e+002, 9.525421e+002
8.435584e+002, 9.554313e+002
8.440405e+002, 9.591932e+002
8.445226e+002, 9.634094e+002
8.450048e+002, 9.662330e+002
8.454869e+002, 9.677468e+002
8.459690e+002, 9.693311e+002
8.464511e+002, 9.714950e+002
8.469332e+002, 9.742045e+002
8.474153e+002, 9.774199e+002
8.478975e+002, 9.811549e+002
8.483796e+002, 9.854423e+002
8.488617e+002, 9.910088e+002
8.493438e+002, 9.963513e+002
8.498259e+002, 1.000931e+003
8.503080e+002, 1.005018e+003
8.507902e+002, 1.009166e+003
8.512723e+002, 1.013284e+003
8.517544e+002, 1.017951e+003
8.522365e+002, 1.023673e+003
8.527186e+002, 1.029488e+003
8.532007e+002, 1.033302e+003
8.536829e+002, 1.035781e+003
8.541650e+002, 1.038795e+003
8.546471e+002, 1.043722e+003
8.551292e+002, 1.048540e+003
8.556113e+002, 1.052435e+003
8.560934e+002, 1.055494e+003
8.565756e+002, 1.057989e+003
8.570577e+002, 1.060141e+003
8.575398e+002, 1.061271e+003
8.580219e+002, 1.061041e+003
8.585040e+002, 1.060192e+003
8.589861e+002, 1.060264e+003
8.594683e+002, 1.060919e+003
8.599504e+002, 1.060246e+003
8.604325e+002, 1.057629e+003
8.609146e+002, 1.054150e+003
8.613967e+002, 1.050635e+003
8.618788e+002, 1.046945e+003
8.623610e+002, 1.042843e+003
8.628431e+002, 1.038087e+003
8.633252e+002, 1.033316e+003
8.638073e+002, 1.028647e+003
8.642894e+002, 1.023979e+003
8.647715e+002, 1.019319e+003
8.652537e+002, 1.014694e+003
8.657358e+002, 1.009676e+003
8.662179e+002, 1.004091e+003
8.667000e+002, 9.989020e+002
8.671821e+002, 9.954772e+002
8.676642e+002, 9.928908e+002
8.681464e+002, 9.896796e+002
8.686285e+002, 9.853948e+002
8.691106e+002, 9.819067e+002
8.695927e+002, 9.802487e+002
8.700748e+002, 9.793594e+002
8.705569e+002, 9.786217e+002
8.710391e+002, 9.780936e+002
8.715212e+002, 9.770385e+002
8.720033e+002, 9.752330e+002
8.724854e+002, 9.736713e+002
8.729675e+002, 9.733663e+002
8.734496e+002, 9.737742e+002
8.739318e+002, 9.736929e+002
8.744139e+002, 9.730821e+002
8.748960e+002, 9.722012e+002
8.753781e+002, 9.708171e+002
8.758602e+002, 9.695381e+002
8.763423e+002, 9.689382e+002
8.768245e+002, 9.690377e+002
8.773066e+002, 9.686046e+002
8.777887e+002, 9.676164e+002
8.782708e+002, 9.662051e+002
8.787529e+002, 9.641495e+002
8.792350e+002, 9.618951e+002
8.797172e+002, 9.610478e+002
8.801993e+002, 9.614623e+002
8.806814e+002, 9.619735e+002
8.811635e+002, 9.622006e+002
8.816456e+002, 9.620801e+002
8.821277e+002, 9.609625e+002
8.826099e+002, 9.594069e+002
8.830920e+002, 9.591124e+002
8.835741e+002, 9.620942e+002
8.840562e+002, 9.638416e+002
8.845383e+002, 9.631957e+002
8.850204e+002, 9.612448e+002
8.855026e+002, 9.603356e+002
8.859847e+002, 9.603954e+002
8.864668e+002, 9.605919e+002
8.869489e+002, 9.606218e+002
8.874310e+002, 9.608154e+002
8.879131e+002, 9.617282e+002
8.883953e+002, 9.629919e+002
8.888774e+002, 9.640977e+002
8.893595e+002, 9.657153e+002
8.898416e+002, 9.658759e+002
8.903237e+002, 9.630232e+002
8.908058e+002, 9.597652e+002
8.912880e+002, 9.590784e+002
8.917701e+002, 9.612408e+002
8.922522e+002, 9.625812e+002
8.927343e+002, 9.627763e+002
8.932164e+002, 9.622841e+002
8.936985e+002, 9.607455e+002
8.941807e+002, 9.591749e+002
8.946628e+002, 9.595273e+002
8.951449e+002, 9.625209e+002
8.956270e+002, 9.642164e+002
8.961091e+002, 9.613732e+002
8.965912e+002, 9.583995e+002
8.970734e+002, 9.581080e+002
8.975555e+002, 9.607897e+002
8.980376e+002, 9.626895e+002
8.985197e+002, 9.637579e+002
8.990018e+002, 9.643562e+002
8.994839e+002, 9.640541e+002
8.999661e+002, 9.637362e+002
9.004482e+002, 9.659141e+002
9.009303e+002, 9.700666e+002
9.014124e+002, 9.725769e+002
9.018945e+002, 9.700923e+002
9.023766e+002, 9.671246e+002
9.028588e+002, 9.655784e+002
9.033409e+002, 9.653437e+002
9.038230e+002, 9.658670e+002
9.043051e+002, 9.673298e+002
9.047872e+002, 9.688524e+002
9.052693e+002, 9.703962e+002
9.057515e+002, 9.715084e+002
9.062336e+002, 9.706295e+002
9.067157e+002, 9.685155e+002
9.071978e+002, 9.673943e+002
9.076799e+002, 9.689233e+002
9.081620e+002, 9.707058e+002
9.086442e+002, 9.717366e+002
9.091263e+002, 9.723251e+002
9.096084e+002, 9.730582e+002
9.100905e+002, 9.742421e+002
9.105726e+002, 9.747540e+002
9.110547e+002, 9.743322e+002
9.115369e+002, 9.736594e+002
9.120190e+002, 9.737475e+002
9.125011e+002, 9.743146e+002
9.129832e+002, 9.744720e+002
9.134653e+002, 9.739924e+002
9.139474e+002, 9.736176e+002
9.144296e+002, 9.735752e+002
9.149117e+002, 9.739962e+002
9.153938e+002, 9.752467e+002
9.158759e+002, 9.778035e+002
9.163580e+002, 9.789030e+002
9.168401e+002, 9.781099e+002
9.173223e+002, 9.768925e+002
9.178044e+002, 9.761677e+002
9.182865e+002, 9.758463e+002
9.187686e+002, 9.756080e+002
9.192507e+002, 9.754528e+002
9.197328e+002, 9.753785e+002
9.202150e+002, 9.753936e+002
9.206971e+002, 9.755020e+002
9.211792e+002, 9.757584e+002
9.216613e+002, 9.761503e+002
9.221434e+002, 9.764861e+002
9.226255e+002, 9.767054e+002
9.231077e+002, 9.770687e+002
9.235898e+002, 9.777922e+002
9.240719e+002, 9.785530e+002
9.245540e+002, 9.783984e+002
9.250361e+002, 9.775621e+002
9.255182e+002, 9.770164e+002
9.260004e+002, 9.771160e+002
9.264825e+002, 9.775649e+002
9.269646e+002, 9.781872e+002
9.274467e+002, 9.790159e+002
9.279288e+002, 9.801512e+002
9.284109e+002, 9.820370e+002
9.288931e+002, 9.832718e+002
9.293752e+002, 9.836995e+002
9.298573e+002, 9.836330e+002
9.303394e+002, 9.832653e+002
9.308215e+002, 9.827062e+002
9.313036e+002, 9.824149e+002
9.317858e+002, 9.824856e+002
9.322679e+002, 9.823632e+002
9.327500e+002, 9.812794e+002
9.332321e+002, 9.801646e+002
9.337142e+002, 9.798187e+002
9.341964e+002, 9.804569e+002
9.346785e+002, 9.807932e+002
9.351606e+002, 9.807333e+002
9.356427e+002, 9.806142e+002
9.361248e+002, 9.804131e+002
9.366069e+002, 9.803456e+002
9.370891e+002, 9.814376e+002
9.375712e+002, 9.834500e+002
9.380533e+002, 9.851306e+002
9.385354e+002, 9.858301e+002
9.390175e+002, 9.859454e+002
9.394996e+002, 9.851461e+002
9.399818e+002, 9.839208e+002
9.404639e+002, 9.836946e+002
9.409460e+002, 9.848412e+002
9.414281e+002, 9.860411e+002
9.419102e+002, 9.871183e+002
9.423923e+002, 9.880013e+002
9.428745e+002, 9.883357e+002
9.433566e+002, 9.883881e+002
9.438387e+002, 9.890901e+002
9.443208e+002, 9.909650e+002
9.448029e+002, 9.923822e+002
9.452850e+002, 9.917127e+002
9.457672e+002, 9.906215e+002
9.462493e+002, 9.908024e+002
9.467314e+002, 9.927560e+002
9.472135e+002, 9.941252e+002
9.476956e+002, 9.948539e+002
9.481777e+002, 9.952244e+002
9.486599e+002, 9.950951e+002
9.491420e+002, 9.948504e+002
9.496241e+002, 9.956766e+002
9.501062e+002, 9.974376e+002
9.505883e+002, 9.988753e+002
9.510704e+002, 9.990714e+002
9.515526e+002, 9.989961e+002
9.520347e+002, 9.989218e+002
9.525168e+002, 9.989579e+002
9.529989e+002, 9.996185e+002
9.534810e+002, 1.001087e+003
9.539631e+002, 1.002270e+003
9.544453e+002, 1.002765e+003
9.549274e+002, 1.002978e+003
9.554095e+002, 1.003496e+003
9.558916e+002, 1.004263e+003
9.563737e+002, 1.005219e+003
9.568558e+002, 1.006733e+003
9.573380e+002, 1.007719e+003
9.578201e+002, 1.007136e+003
9.583022e+002, 1.006337e+003
9.587843e+002, 1.006532e+003
9.592664e+002, 1.007809e+003
9.597485e+002, 1.009993e+003
9.602307e+002, 1.013264e+003
9.607128e+002, 1.016030e+003
9.611949e+002, 1.016260e+003
9.616770e+002, 1.015410e+003
9.621591e+002, 1.015588e+003
9.626412e+002, 1.016880e+003
9.631234e+002, 1.018096e+003
9.636055e+002, 1.018204e+003
9.640876e+002, 1.018891e+003
9.645697e+002, 1.021073e+003
9.650518e+002, 1.024237e+003
9.655339e+002, 1.026230e+003
9.660161e+002, 1.027045e+003
9.664982e+002, 1.027214e+003
9.669803e+002, 1.026616e+003
9.674624e+002, 1.025982e+003
9.679445e+002, 1.026520e+003
9.684266e+002, 1.027497e+003
9.689088e+002, 1.027694e+003
9.693909e+002, 1.025571e+003
9.698730e+002, 1.024442e+003
9.703551e+002, 1.024918e+003
9.708372e+002, 1.025926e+003
9.713193e+002, 1.026369e+003
9.718015e+002, 1.026322e+003
9.722836e+002, 1.026442e+003
9.727657e+002, 1.026795e+003
9.732478e+002, 1.027208e+003
9.737299e+002, 1.027410e+003
9.742120e+002, 1.027738e+003
9.746942e+002, 1.028555e+003
9.751763e+002, 1.029894e+003
9.756584e+002, 1.031140e+003
9.761405e+002, 1.032427e+003
9.766226e+002, 1.033247e+003
9.771047e+002, 1.033166e+003
9.775869e+002, 1.032681e+003
9.780690e+002, 1.033293e+003
9.785511e+002, 1.034735e+003
9.790332e+002, 1.036061e+003
9.795153e+002, 1.036968e+003
9.799974e+002, 1.037550e+003
9.804796e+002, 1.037432e+003
9.809617e+002, 1.037209e+003
9.814438e+002, 1.037675e+003
9.819259e+002, 1.038873e+003
9.824080e+002, 1.041064e+003
9.828901e+002, 1.044756e+003
9.833723e+002, 1.047639e+003
9.838544e+002, 1.046316e+003
9.843365e+002, 1.042933e+003
9.848186e+002, 1.041549e+003
9.853007e+002, 1.042490e+003
9.857828e+002, 1.043922e+003
9.862650e+002, 1.045551e+003
9.867471e+002, 1.046968e+003
9.872292e+002, 1.047986e+003
9.877113e+002, 1.048648e+003
9.881934e+002, 1.049201e+003
9.886755e+002, 1.049634e+003
9.891577e+002, 1.049923e+003
9.896398e+002, 1.049902e+003
9.901219e+002, 1.049952e+003
9.906040e+002, 1.050532e+003
9.910861e+002, 1.051494e+003
9.915682e+002, 1.052608e+003
9.920504e+002, 1.054035e+003
9.925325e+002, 1.055272e+003
9.930146e+002, 1.056488e+003
9.934967e+002, 1.057260e+003
9.939788e+002, 1.056798e+003
9.944609e+002, 1.055359e+003
9.949431e+002, 1.055449e+003
9.954252e+002, 1.057199e+003
9.959073e+002, 1.058869e+003
9.963894e+002, 1.059076e+003
9.968715e+002, 1.058827e+003
9.973536e+002, 1.058816e+003
9.978358e+002, 1.059075e+003
9.983179e+002, 1.059297e+003
9.988000e+002, 1.059427e+003
9.992821e+002, 1.059630e+003
9.997642e+002, 1.059866e+003
1.000246e+003, 1.060346e+003
1.000728e+003, 1.061999e+003
1.001211e+003, 1.064212e+003
1.001693e+003, 1.065185e+003
1.002175e+003, 1.063515e+003
1.002657e+003, 1.062460e+003
1.003139e+003, 1.064093e+003
1.003621e+003, 1.066543e+003
1.004103e+003, 1.068032e+003
1.004585e+003, 1.068296e+003
1.005068e+003, 1.069189e+003
1.005550e+003, 1.070775e+003
1.006032e+003, 1.072347e+003
1.006514e+003, 1.073415e+003
1.006996e+003, 1.074122e+003
1.007478e+003, 1.074512e+003
1.007960e+003, 1.074659e+003
1.008442e+003, 1.074979e+003
1.008924e+003, 1.075793e+003
1.009407e+003, 1.076484e+003
1.009889e+003, 1.076798e+003
1.010371e+003, 1.077041e+003
1.010853e+003, 1.078200e+003
1.011335e+003, 1.080039e+003
1.011817e+003, 1.080788e+003
1.012299e+003, 1.079899e+003
1.012781e+003, 1.078602e+003
1.013263e+003, 1.077144e+003
1.013746e+003, 1.076190e+003
1.014228e+003, 1.076710e+003
1.014710e+003, 1.079260e+003
1.015192e+003, 1.080402e+003
1.015674e+003, 1.079732e+003
1.016156e+003, 1.079007e+003
1.016638e+003, 1.079109e+003
1.017120e+003, 1.079973e+003
1.017603e+003, 1.082208e+003
1.018085e+003, 1.085201e+003
1.018567e+003, 1.086737e+003
1.019049e+003, 1.084511e+003
1.019531e+003, 1.082174e+003
1.020013e+003, 1.080257e+003
1.020495e+003, 1.079121e+003
1.020977e+003, 1.079729e+003
1.021459e+003, 1.082122e+003
1.021942e+003, 1.083555e+003
1.022424e+003, 1.083604e+003
1.022906e+003, 1.083257e+003
1.023388e+003, 1.083093e+003
1.023870e+003, 1.083246e+003
1.024352e+003, 1.084267e+003
1.024834e+003, 1.086358e+003
1.025316e+003, 1.086672e+003
1.025799e+003, 1.084008e+003
1.026281e+003, 1.081851e+003
1.026763e+003, 1.081635e+003
1.027245e+003, 1.082850e+003
1.027727e+003, 1.084764e+003
1.028209e+003, 1.086998e+003
1.028691e+003, 1.088183e+003
1.029173e+003, 1.086942e+003
1.029656e+003, 1.085893e+003
1.030138e+003, 1.086351e+003
1.030620e+003, 1.087541e+003
1.031102e+003, 1.088620e+003
1.031584e+003, 1.089515e+003
1.032066e+003, 1.090718e+003
1.032548e+003, 1.092277e+003
1.033030e+003, 1.093697e+003
1.033512e+003, 1.094388e+003
1.033995e+003, 1.094807e+003
1.034477e+003, 1.095387e+003
1.034959e+003, 1.096158e+003
1.035441e+003, 1.097193e+003
1.035923e+003, 1.099287e+003
1.036405e+003, 1.100438e+003
1.036887e+003, 1.100096e+003
1.037369e+003, 1.098801e+003
1.037851e+003, 1.097222e+003
1.038334e+003, 1.095584e+003
1.038816e+003, 1.094774e+003
1.039298e+003, 1.095212e+003
1.039780e+003, 1.095509e+003
1.040262e+003, 1.094372e+003
1.040744e+003, 1.093104e+003
1.041226e+003, 1.092954e+003
1.041708e+003, 1.094052e+003
1.042191e+003, 1.093944e+003
1.042673e+003, 1.092484e+003
1.043155e+003, 1.091119e+003
1.043637e+003, 1.090901e+003
1.044119e+003, 1.090978e+003
1.044601e+003, 1.089903e+003
1.045083e+003, 1.088208e+003
1.045565e+003, 1.087147e+003
1.046047e+003, 1.087736e+003
1.046530e+003, 1.088024e+003
1.047012e+003, 1.087733e+003
1.047494e+003, 1.087254e+003
1.047976e+003, 1.087062e+003
1.048458e+003, 1.087068e+003
1.048940e+003, 1.087025e+003
1.049422e+003, 1.086892e+003
1.049904e+003, 1.086119e+003
1.050386e+003, 1.083180e+003
1.050869e+003, 1.080573e+003
1.051351e+003, 1.080018e+003
1.051833e+003, 1.081113e+003
1.052315e+003, 1.082520e+003
1.052797e+003, 1.084368e+003
1.053279e+003, 1.085473e+003
1.053761e+003, 1.085445e+003
1.054243e+003, 1.084784e+003
1.054726e+003, 1.083535e+003
1.055208e+003, 1.082320e+003
1.055690e+003, 1.082154e+003
1.056172e+003, 1.083756e+003
1.056654e+003, 1.084717e+003
1.057136e+003, 1.084628e+003
1.057618e+003, 1.084282e+003
1.058100e+003, 1.084030e+003
1.058583e+003, 1.083926e+003
1.059065e+003, 1.084440e+003
1.059547e+003, 1.085377e+003
1.060029e+003, 1.085837e+003
1.060511e+003, 1.084901e+003
1.060993e+003, 1.083912e+003
1.061475e+003, 1.083417e+003
1.061957e+003, 1.083214e+003
1.062439e+003, 1.083005e+003
1.062922e+003, 1.082762e+003
1.063404e+003, 1.082961e+003
1.063886e+003, 1.083716e+003
1.064368e+003, 1.084188e+003
1.064850e+003, 1.083179e+003
1.065332e+003, 1.081842e+003
1.065814e+003, 1.081281e+003
1.066296e+003, 1.081549e+003
1.066778e+003, 1.082246e+003
1.067261e+003, 1.083921e+003
1.067743e+003, 1.084531e+003
1.068225e+003, 1.083134e+003
1.068707e+003, 1.081100e+003
1.069189e+003, 1.081124e+003
1.069671e+003, 1.082497e+003
1.070153e+003, 1.083689e+003
1.070635e+003, 1.084425e+003
1.071118e+003, 1.084522e+003
1.071600e+003, 1.083109e+003
1.072082e+003, 1.081797e+003
1.072564e+003, 1.081637e+003
1.073046e+003, 1.082516e+003
1.073528e+003, 1.082806e+003
1.074010e+003, 1.082566e+003
1.074492e+003, 1.082510e+003
1.074974e+003, 1.083449e+003
1.075457e+003, 1.084243e+003
1.075939e+003, 1.083890e+003
1.076421e+003, 1.082874e+003
1.076903e+003, 1.081896e+003
1.077385e+003, 1.080554e+003
1.077867e+003, 1.080845e+003
1.078349e+003, 1.083235e+003
1.078831e+003, 1.085570e+003
1.079313e+003, 1.084919e+003
1.079796e+003, 1.083425e+003
1.080278e+003, 1.084594e+003
1.080760e+003, 1.088234e+003
1.081242e+003, 1.091751e+003
1.081724e+003, 1.094882e+003
1.082206e+003, 1.097070e+003
1.082688e+003, 1.098256e+003
1.083170e+003, 1.098318e+003
1.083652e+003, 1.095887e+003
1.084135e+003, 1.092011e+003
1.084617e+003, 1.091318e+003
1.085099e+003, 1.095172e+003
1.085581e+003, 1.098398e+003
1.086063e+003, 1.096885e+003
1.086545e+003, 1.094763e+003
1.087027e+003, 1.094746e+003
1.087509e+003, 1.096609e+003
1.087992e+003, 1.098057e+003
1.088474e+003, 1.099096e+003
1.088956e+003, 1.099158e+003
1.089438e+003, 1.097201e+003
1.089920e+003, 1.095592e+003
1.090402e+003, 1.097040e+003
1.090884e+003, 1.100099e+003
1.091366e+003, 1.102816e+003
1.091849e+003, 1.104781e+003
1.092331e+003, 1.106816e+003
1.092813e+003, 1.108953e+003
1.093295e+003, 1.111049e+003
1.093777e+003, 1.113105e+003
1.094259e+003, 1.114981e+003
1.094741e+003, 1.116319e+003
1.095223e+003, 1.117250e+003
1.095705e+003, 1.118261e+003
1.096188e+003, 1.119119e+003
1.096670e+003, 1.120716e+003
1.097152e+003, 1.123776e+003
1.097634e+003, 1.126787e+003
1.098116e+003, 1.127361e+003
1.098598e+003, 1.126110e+003
1.099080e+003, 1.125891e+003
1.099562e+003, 1.126962e+003
1.100044e+003, 1.128636e+003
1.100527e+003, 1.131958e+003
1.101009e+003, 1.134284e+003
1.101491e+003, 1.133433e+003
1.101973e+003, 1.130647e+003
1.102455e+003, 1.129771e+003
1.102937e+003, 1.130828e+003
1.103419e+003, 1.132232e+003
1.103901e+003, 1.133699e+003
1.104384e+003, 1.134994e+003
1.104866e+003, 1.135345e+003
1.105348e+003, 1.135745e+003
1.105830e+003, 1.137404e+003
1.106312e+003, 1.140628e+003
1.106794e+003, 1.143246e+003
1.107276e+003, 1.145226e+003
1.107758e+003, 1.146618e+003
1.108240e+003, 1.146850e+003
1.108723e+003, 1.147261e+003
1.109205e+003, 1.150670e+003
1.109687e+003, 1.155729e+003
1.110169e+003, 1.159854e+003
1.110651e+003, 1.161934e+003
1.111133e+003, 1.163792e+003
1.111615e+003, 1.165785e+003
1.112097e+003, 1.167256e+003
1.112579e+003, 1.167112e+003
1.113062e+003, 1.166085e+003
1.113544e+003, 1.167412e+003
1.114026e+003, 1.170499e+003
1.114508e+003, 1.172329e+003
1.114990e+003, 1.170533e+003
1.115472e+003, 1.168343e+003
1.115954e+003, 1.166705e+003
1.116436e+003, 1.165320e+003
1.116919e+003, 1.163860e+003
1.117401e+003, 1.162326e+003
1.117883e+003, 1.160746e+003
1.118365e+003, 1.159137e+003
1.118847e+003, 1.157323e+003
1.119329e+003, 1.155216e+003
1.119811e+003, 1.152845e+003
1.120293e+003, 1.149772e+003
1.120776e+003, 1.146458e+003
1.121258e+003, 1.144688e+003
1.121740e+003, 1.144672e+003
1.122222e+003, 1.143955e+003
1.122704e+003, 1.141895e+003
1.123186e+003, 1.139474e+003
1.123668e+003, 1.137317e+003
1.124150e+003, 1.135504e+003
1.124632e+003, 1.134274e+003
1.125115e+003, 1.133725e+003
1.125597e+003, 1.132538e+003
1.126079e+003, 1.130435e+003
1.126561e+003, 1.128613e+003
1.127043e+003, 1.127682e+003
1.127525e+003, 1.127048e+003
1.128007e+003, 1.125651e+003
1.128489e+003, 1.123884e+003
1.128971e+003, 1.122402e+003
1.129454e+003, 1.121392e+003
1.129936e+003, 1.120760e+003
1.130418e+003, 1.120785e+003
1.130900e+003, 1.120638e+003
1.131382e+003, 1.119495e+003
1.131864e+003, 1.117934e+003
1.132346e+003, 1.117711e+003
1.132828e+003, 1.118580e+003
1.133311e+003, 1.119742e+003
1.133793e+003, 1.121094e+003
1.134275e+003, 1.122319e+003
1.134757e+003, 1.123166e+003
1.135239e+003, 1.124021e+003
1.135721e+003, 1.125449e+003
1.136203e+003, 1.127274e+003
1.136685e+003, 1.128001e+003
1.137167e+003, 1.127694e+003
1.137650e+003, 1.127616e+003
1.138132e+003, 1.129236e+003
1.138614e+003, 1.130490e+003
1.139096e+003, 1.130013e+003
1.139578e+003, 1.128695e+003
1.140060e+003, 1.127848e+003
1.140542e+003, 1.127484e+003
1.141024e+003, 1.127528e+003
1.141506e+003, 1.128016e+003
1.141989e+003, 1.128460e+003
1.142471e+003, 1.128023e+003
1.142953e+003, 1.127826e+003
1.143435e+003, 1.129257e+003
1.143917e+003, 1.131803e+003
1.144399e+003, 1.132771e+003
1.144881e+003, 1.131895e+003
1.145363e+003, 1.131085e+003
1.145846e+003, 1.130648e+003
1.146328e+003, 1.130834e+003
1.146810e+003, 1.132544e+003
1.147292e+003, 1.134600e+003
1.147774e+003, 1.135418e+003
1.148256e+003, 1.134655e+003
1.148738e+003, 1.135791e+003
1.149220e+003, 1.139559e+003
1.149703e+003, 1.142699e+003
1.150185e+003, 1.144060e+003
1.150667e+003, 1.144243e+003
1.151149e+003, 1.143547e+003
1.151631e+003, 1.142523e+003
1.152113e+003, 1.142013e+003
1.152595e+003, 1.142201e+003
1.153077e+003, 1.143131e+003
1.153559e+003, 1.145390e+003
1.154042e+003, 1.146945e+003
1.154524e+003, 1.146417e+003
1.155006e+003, 1.144749e+003
1.155488e+003, 1.143703e+003
1.155970e+003, 1.143252e+003
1.156452e+003, 1.143405e+003
1.156934e+003, 1.144880e+003
1.157416e+003, 1.145567e+003
1.157898e+003, 1.144607e+003
1.158381e+003, 1.143873e+003
1.158863e+003, 1.145286e+003
1.159345e+003, 1.148081e+003
1.159827e+003, 1.149034e+003
1.160309e+003, 1.148501e+003
1.160791e+003, 1.147907e+003
1.161273e+003, 1.147760e+003
1.161755e+003, 1.147835e+003
1.162238e+003, 1.148480e+003
1.162720e+003, 1.148833e+003
1.163202e+003, 1.147474e+003
1.163684e+003, 1.144834e+003
1.164166e+003, 1.144168e+003
1.164648e+003, 1.145353e+003
1.165130e+003, 1.145953e+003
1.165612e+003, 1.143341e+003
1.166094e+003, 1.141299e+003
1.166577e+003, 1.142175e+003
1.167059e+003, 1.144094e+003
1.167541e+003, 1.144046e+003
1.168023e+003, 1.142205e+003
1.168505e+003, 1.140539e+003
1.168987e+003, 1.139250e+003
1.169469e+003, 1.138395e+003
1.169951e+003, 1.137957e+003
1.170433e+003, 1.138039e+003
1.170916e+003, 1.139361e+003
1.171398e+003, 1.141085e+003
1.171880e+003, 1.140776e+003
1.172362e+003, 1.138466e+003
1.172844e+003, 1.137047e+003
1.173326e+003, 1.137095e+003
1.173808e+003, 1.137786e+003
1.174290e+003, 1.138920e+003
1.174773e+003, 1.140002e+003
1.175255e+003, 1.140813e+003
1.175737e+003, 1.141251e+003
1.176219e+003, 1.140420e+003
1.176701e+003, 1.138227e+003
1.177183e+003, 1.136612e+003
1.177665e+003, 1.136133e+003
1.178147e+003, 1.136255e+003
1.178630e+003, 1.137289e+003
1.179112e+003, 1.138101e+003
1.179594e+003, 1.136958e+003
1.180076e+003, 1.133844e+003
1.180558e+003, 1.133557e+003
1.181040e+003, 1.136449e+003
1.181522e+003, 1.138876e+003
1.182004e+003, 1.139524e+003
1.182486e+003, 1.138980e+003
1.182969e+003, 1.136848e+003
1.183451e+003, 1.134455e+003
1.183933e+003, 1.133433e+003
1.184415e+003, 1.134036e+003
1.184897e+003, 1.135574e+003
1.185379e+003, 1.138364e+003
1.185861e+003, 1.139991e+003
1.186343e+003, 1.138540e+003
1.186825e+003, 1.136206e+003
1.187308e+003, 1.135394e+003
1.187790e+003, 1.135533e+003
1.188272e+003, 1.135845e+003
1.188754e+003, 1.136497e+003
1.189236e+003, 1.136349e+003
1.189718e+003, 1.135271e+003
1.190200e+003, 1.134107e+003
1.190682e+003, 1.133123e+003
1.191165e+003, 1.132612e+003
1.191647e+003, 1.133419e+003
1.192129e+003, 1.134887e+003
1.192611e+003, 1.135672e+003
1.193093e+003, 1.135323e+003
1.193575e+003, 1.134766e+003
1.194057e+003, 1.133982e+003
1.194539e+003, 1.133137e+003
1.195021e+003, 1.132092e+003
1.195504e+003, 1.131233e+003
1.195986e+003, 1.130959e+003
1.196468e+003, 1.131314e+003
1.196950e+003, 1.132516e+003
1.197432e+003, 1.135556e+003
1.197914e+003, 1.137060e+003
1.198396e+003, 1.136466e+003
1.198878e+003, 1.135590e+003
1.199360e+003, 1.136288e+003
1.199843e+003, 1.137702e+003
1.200325e+003, 1.138935e+003
1.200807e+003, 1.139825e+003
1.201289e+003, 1.139808e+003
1.201771e+003, 1.138239e+003
1.202253e+003, 1.137115e+003
1.202735e+003, 1.136698e+003
1.203217e+003, 1.136706e+003
1.203700e+003, 1.136821e+003
1.204182e+003, 1.137174e+003
1.204664e+003, 1.138027e+003
1.205146e+003, 1.139323e+003
1.205628e+003, 1.140710e+003
1.206110e+003, 1.142506e+003
1.206592e+003, 1.143321e+003
1.207074e+003, 1.142587e+003
1.207557e+003, 1.141754e+003
1.208039e+003, 1.143034e+003
1.208521e+003, 1.145139e+003
1.209003e+003, 1.146027e+003
1.209485e+003, 1.145617e+003
1.209967e+003, 1.145901e+003
1.210449e+003, 1.147656e+003
1.210931e+003, 1.148832e+003
1.211413e+003, 1.148976e+003
1.211896e+003, 1.148518e+003
1.212378e+003, 1.147633e+003
1.212860e+003, 1.146758e+003
1.213342e+003, 1.146901e+003
1.213824e+003, 1.148172e+003
1.214306e+003, 1.147994e+003
1.214788e+003, 1.145457e+003
1.215270e+003, 1.143438e+003
1.215752e+003, 1.142721e+003
1.216235e+003, 1.142810e+003
1.216717e+003, 1.143428e+003
1.217199e+003, 1.144178e+003
1.217681e+003, 1.144405e+003
1.218163e+003, 1.143981e+003
1.218645e+003, 1.143795e+003
1.219127e+003, 1.144004e+003
1.219609e+003, 1.144100e+003
1.220092e+003, 1.143715e+003
1.220574e+003, 1.143617e+003
1.221056e+003, 1.145239e+003
1.221538e+003, 1.147735e+003
1.222020e+003, 1.150030e+003
1.222502e+003, 1.151942e+003
1.222984e+003, 1.153055e+003
1.223466e+003, 1.153031e+003
1.223948e+003, 1.153304e+003
1.224431e+003, 1.154569e+003
1.224913e+003, 1.155998e+003
1.225395e+003, 1.156247e+003
1.225877e+003, 1.155955e+003
1.226359e+003, 1.156001e+003
1.226841e+003, 1.156594e+003
1.227323e+003, 1.157356e+003
1.227805e+003, 1.158420e+003
1.228287e+003, 1.159089e+003
1.228770e+003, 1.159014e+003
1.229252e+003, 1.158510e+003
1.229734e+003, 1.157069e+003
1.230216e+003, 1.155944e+003
1.230698e+003, 1.157387e+003
1.231180e+003, 1.162697e+003
1.231662e+003, 1.164932e+003
1.232144e+003, 1.163632e+003
1.232627e+003, 1.162051e+003
1.233109e+003, 1.161855e+003
1.233591e+003, 1.161808e+003
1.234073e+003, 1.159870e+003
1.234555e+003, 1.157455e+003
1.235037e+003, 1.156695e+003
1.235519e+003, 1.158178e+003
1.236001e+003, 1.158479e+003
1.236484e+003, 1.157357e+003
1.236966e+003, 1.157441e+003
1.237448e+003, 1.161068e+003
1.237930e+003, 1.164898e+003
1.238412e+003, 1.165102e+003
1.238894e+003, 1.163670e+003
1.239376e+003, 1.163206e+003
1.239858e+003, 1.163842e+003
1.240340e+003, 1.165412e+003
1.240823e+003, 1.167934e+003
1.241305e+003, 1.169859e+003
1.241787e+003, 1.169949e+003
1.242269e+003, 1.169612e+003
1.242751e+003, 1.169923e+003
1.243233e+003, 1.170541e+003
1.243715e+003, 1.171042e+003
1.244197e+003, 1.171402e+003
1.244679e+003, 1.171739e+003
1.245162e+003, 1.172057e+003
1.245644e+003, 1.172307e+003
1.246126e+003, 1.172544e+003
1.246608e+003, 1.172641e+003
1.247090e+003, 1.172584e+003
1.247572e+003, 1.172314e+003
1.248054e+003, 1.171456e+003
1.248536e+003, 1.169926e+003
1.249019e+003, 1.171247e+003
1.249501e+003, 1.175163e+003
1.249983e+003, 1.178765e+003
1.250465e+003, 1.180341e+003
1.250947e+003, 1.181304e+003
1.251429e+003, 1.182342e+003
1.251911e+003, 1.183080e+003
1.252393e+003, 1.183065e+003
1.252875e+003, 1.182322e+003
1.253358e+003, 1.181687e+003
1.253840e+003, 1.181131e+003
1.254322e+003, 1.180590e+003
1.254804e+003, 1.179964e+003
1.255286e+003, 1.179364e+003
1.255768e+003, 1.178354e+003
1.256250e+003, 1.177848e+003
1.256732e+003, 1.178769e+003
1.257214e+003, 1.180945e+003
1.257697e+003, 1.183944e+003
1.258179e+003, 1.187370e+003
1.258661e+003, 1.189335e+003
1.259143e+003, 1.187532e+003
1.259625e+003, 1.186350e+003
1.260107e+003, 1.186707e+003
1.260589e+003, 1.187754e+003
1.261071e+003, 1.189015e+003
1.261554e+003, 1.190341e+003
1.262036e+003, 1.191301e+003
1.262518e+003, 1.191886e+003
1.263000e+003, 1.192130e+003
1.263482e+003, 1.191203e+003
1.263964e+003, 1.191370e+003
1.264446e+003, 1.193403e+003
1.264928e+003, 1.195087e+003
1.265411e+003, 1.193881e+003
1.265893e+003, 1.191404e+003
1.266375e+003, 1.190589e+003
1.266857e+003, 1.191157e+003
1.267339e+003, 1.192285e+003
1.267821e+003, 1.193804e+003
1.268303e+003, 1.196235e+003
1.268785e+003, 1.200137e+003
1.269267e+003, 1.203026e+003
1.269750e+003, 1.201968e+003
1.270232e+003, 1.199503e+003
1.270714e+003, 1.198793e+003
1.271196e+003, 1.199291e+003
1.271678e+003, 1.199613e+003
1.272160e+003, 1.199197e+003
1.272642e+003, 1.200120e+003
1.273124e+003, 1.202626e+003
1.273606e+003, 1.204579e+003
1.274089e+003, 1.203557e+003
1.274571e+003, 1.202103e+003
1.275053e+003, 1.202881e+003
1.275535e+003, 1.204642e+003
1.276017e+003, 1.205177e+003
1.276499e+003, 1.204297e+003
1.276981e+003, 1.202933e+003
1.277463e+003, 1.201124e+003
1.277946e+003, 1.199625e+003
1.278428e+003, 1.199233e+003
1.278910e+003, 1.199026e+003
1.279392e+003, 1.198705e+003
1.279874e+003, 1.198108e+003
1.280356e+003, 1.196695e+003
1.280838e+003, 1.194551e+003
1.281320e+003, 1.194567e+003
1.281802e+003, 1.196521e+003
1.282285e+003, 1.198131e+003
1.282767e+003, 1.198139e+003
1.283249e+003, 1.197578e+003
1.283731e+003, 1.196538e+003
1.284213e+003, 1.195359e+003
1.284695e+003, 1.194023e+003
1.285177e+003, 1.192766e+003
1.285659e+003, 1.193234e+003
1.286141e+003, 1.194952e+003
1.286624e+003, 1.195975e+003
1.287106e+003, 1.194545e+003
1.287588e+003, 1.193766e+003
1.288070e+003, 1.194308e+003
1.288552e+003, 1.195003e+003
1.289034e+003, 1.194668e+003
1.289516e+003, 1.193900e+003
1.289998e+003, 1.194150e+003
1.290481e+003, 1.195083e+003
1.290963e+003, 1.195811e+003
1.291445e+003, 1.195852e+003
1.291927e+003, 1.196023e+003
1.292409e+003, 1.196221e+003
1.292891e+003, 1.196979e+003
1.293373e+003, 1.199391e+003
1.293855e+003, 1.202010e+003
1.294338e+003, 1.202146e+003
1.294820e+003, 1.201390e+003
1.295302e+003, 1.203233e+003
1.295784e+003, 1.209391e+003
1.296266e+003, 1.211233e+003
1.296748e+003, 1.208505e+003
1.297230e+003, 1.205986e+003
1.297712e+003, 1.206942e+003
1.298194e+003, 1.208808e+003
1.298677e+003, 1.210592e+003
1.299159e+003, 1.211339e+003
1.299641e+003, 1.209751e+003
1.300123e+003, 1.205733e+003
1.300605e+003, 1.202316e+003
1.301087e+003, 1.199531e+003
1.301569e+003, 1.197789e+003
1.302051e+003, 1.198417e+003
1.302533e+003, 1.198124e+003
1.303016e+003, 1.195739e+003
##END=



