##NAMES=Buttgenbachite
##RRUFFID=R090013
##IDEAL CHEMISTRY=Cu^2+^_36_(N^5+^O_3_)_2_Cl_6_(OH)_64_&#183;nH_2_O
##LOCALITY=Likasi Mine, Jadotville, Shaba, Zaire
##OWNER=RRUFF
##SOURCE=William W. Pinch
##DESCRIPTION=Deep blue acicular crystals aggregate on matrix
##STATUS=The identification of this mineral has been confirmed only by single crystal X-ray diffraction.
##URL=rruff.info/R090013
92.37695, 26.44525
92.85907, 26.16973
93.34119, 26.19368
93.82330, 26.24858
94.30542, 26.38432
94.78754, 26.82858
95.26965, 27.54655
95.75177, 28.03599
96.23389, 28.17371
96.71600, 28.00280
97.19812, 27.55870
97.68024, 26.82217
98.16235, 25.96196
98.64447, 25.18417
99.12659, 24.49836
99.60870, 23.80237
100.0908, 22.98839
100.5729, 22.26115
101.0551, 21.86760
101.5372, 21.95968
102.0193, 22.40148
102.5014, 22.50202
102.9835, 21.52850
103.4656, 20.93904
103.9478, 21.37449
104.4299, 22.38284
104.9120, 23.07524
105.3941, 22.70258
105.8762, 21.12179
106.3583, 19.94119
106.8405, 19.12257
107.3226, 18.61821
107.8047, 18.59039
108.2868, 18.99552
108.7689, 19.37427
109.2510, 19.18246
109.7332, 18.38046
110.2153, 17.51333
110.6974, 16.36087
111.1795, 15.25011
111.6616, 14.70405
112.1437, 14.92154
112.6259, 15.57083
113.1080, 16.48662
113.5901, 17.63909
114.0722, 18.43157
114.5543, 18.24354
115.0364, 17.13293
115.5185, 16.33204
116.0007, 16.41863
116.4828, 16.66468
116.9649, 16.58539
117.4470, 16.11766
117.9291, 15.57337
118.4112, 15.39490
118.8934, 15.77416
119.3755, 16.06488
119.8576, 16.11860
120.3397, 16.10565
120.8218, 16.15823
121.3039, 16.32971
121.7861, 16.58124
122.2682, 16.80404
122.7503, 17.30095
123.2324, 17.39969
123.7145, 16.73145
124.1966, 15.68377
124.6788, 14.77935
125.1609, 14.30205
125.6430, 14.23895
126.1251, 14.48066
126.6072, 15.31860
127.0893, 16.09667
127.5715, 16.59036
128.0536, 16.80030
128.5357, 16.76614
129.0178, 16.42312
129.4999, 15.82996
129.9821, 15.40290
130.4642, 15.33006
130.9463, 15.33581
131.4284, 15.12437
131.9105, 14.65709
132.3926, 14.10592
132.8748, 13.44398
133.3569, 12.78133
133.8390, 12.38145
134.3211, 12.52141
134.8032, 13.03592
135.2853, 13.34201
135.7674, 13.29495
136.2496, 13.21877
136.7317, 13.30205
137.2138, 13.49526
137.6959, 13.66658
138.1780, 13.70312
138.6601, 13.59110
139.1423, 13.49015
139.6244, 13.43819
140.1065, 13.36584
140.5886, 13.22495
141.0707, 13.02695
141.5528, 12.82372
142.0350, 12.66578
142.5171, 12.51875
142.9992, 12.53219
143.4813, 12.92882
143.9634, 13.30581
144.4455, 13.36607
144.9277, 13.04657
145.4098, 12.52972
145.8919, 12.08695
146.3740, 11.57939
146.8561, 11.45831
147.3382, 12.14209
147.8204, 13.09694
148.3025, 13.64632
148.7846, 13.52688
149.2667, 13.00576
149.7488, 12.61686
150.2309, 12.42355
150.7131, 12.13053
151.1952, 11.39380
151.6773, 10.41951
152.1594, 9.920953
152.6415, 10.35977
153.1236, 11.24393
153.6058, 11.77563
154.0879, 11.90283
154.5700, 11.83204
155.0521, 11.68828
155.5342, 11.47031
156.0163, 11.22497
156.4985, 10.94328
156.9806, 10.65550
157.4627, 10.36027
157.9448, 10.04090
158.4269, 9.785153
158.9090, 9.766700
159.3912, 10.12163
159.8733, 10.37015
160.3554, 10.25785
160.8375, 10.06197
161.3196, 10.03811
161.8017, 10.30436
162.2839, 10.76608
162.7660, 11.16970
163.2481, 11.80717
163.7302, 11.93363
164.2123, 10.89606
164.6944, 9.467887
165.1766, 8.656787
165.6587, 9.065350
166.1408, 10.46267
166.6229, 11.33303
167.1050, 11.30006
167.5871, 11.15640
168.0693, 11.07156
168.5514, 10.99231
169.0335, 10.74312
169.5156, 10.16406
169.9977, 9.302642
170.4798, 8.938287
170.9620, 9.441511
171.4441, 9.975924
171.9262, 10.09330
172.4083, 9.868670
172.8904, 9.743622
173.3725, 10.14733
173.8547, 10.96489
174.3368, 11.22893
174.8189, 10.42324
175.3010, 9.426312
175.7831, 9.008752
176.2652, 9.213414
176.7474, 9.455152
177.2295, 9.168683
177.7116, 8.591997
178.1937, 8.324057
178.6758, 8.695688
179.1579, 9.372454
179.6401, 9.922351
180.1222, 10.38121
180.6043, 10.58492
181.0864, 10.28173
181.5685, 9.684262
182.0506, 9.114474
182.5328, 8.677632
183.0149, 8.379101
183.4970, 8.253134
183.9791, 8.398424
184.4612, 8.577004
184.9433, 8.662908
185.4255, 8.704316
185.9076, 8.807231
186.3897, 9.119816
186.8718, 9.590037
187.3539, 9.622206
187.8360, 8.539866
188.3182, 7.720232
188.8003, 7.685537
189.2824, 8.222985
189.7645, 8.892632
190.2466, 9.393393
190.7287, 9.734543
191.2109, 9.703658
191.6930, 8.740863
192.1751, 7.944849
192.6572, 7.698443
193.1393, 7.937365
193.6214, 8.443276
194.1036, 9.092683
194.5857, 9.989931
195.0678, 10.12409
195.5499, 8.883882
196.0320, 7.620014
196.5141, 6.941016
196.9963, 6.848384
197.4784, 7.031680
197.9605, 7.227071
198.4426, 7.434556
198.9247, 7.675310
199.4068, 8.183721
199.8890, 8.549359
200.3711, 8.357473
200.8532, 7.624429
201.3353, 6.885295
201.8174, 6.621180
202.2995, 6.880978
202.7817, 7.250967
203.2638, 7.943155
203.7459, 8.611293
204.2280, 8.926887
204.7101, 8.850472
205.1922, 8.546506
205.6744, 7.981158
206.1565, 7.249082
206.6386, 6.850915
207.1207, 7.175373
207.6028, 7.778182
208.0849, 8.000059
208.5671, 7.702139
209.0492, 7.381465
209.5313, 7.589056
210.0134, 8.087338
210.4955, 8.352719
210.9776, 7.923653
211.4598, 7.163156
211.9419, 6.932153
212.4240, 7.456347
212.9061, 8.069059
213.3882, 8.446095
213.8703, 8.623265
214.3525, 8.637675
214.8346, 8.429758
215.3167, 8.073545
215.7988, 7.845902
216.2809, 7.797372
216.7630, 7.810880
217.2451, 7.761246
217.7273, 7.731748
218.2094, 7.901397
218.6915, 8.497899
219.1736, 9.386030
219.6557, 9.702987
220.1378, 8.867636
220.6200, 8.144468
221.1021, 8.005265
221.5842, 8.224252
222.0663, 8.408715
222.5484, 8.285161
223.0305, 7.896663
223.5127, 7.660996
223.9948, 7.792804
224.4769, 7.861804
224.9590, 7.739949
225.4411, 7.496023
225.9232, 7.221544
226.4054, 6.949811
226.8875, 6.708693
227.3696, 6.836382
227.8517, 7.929167
228.3338, 8.774150
228.8159, 9.148164
229.2981, 9.085279
229.7802, 8.592571
230.2623, 7.613953
230.7444, 6.241312
231.2265, 5.564475
231.7086, 6.139532
232.1908, 6.738211
232.6729, 7.172727
233.1550, 7.406410
233.6371, 7.357376
234.1192, 6.924279
234.6013, 6.209790
235.0835, 6.015347
235.5656, 6.617434
236.0477, 7.319978
236.5298, 8.102659
237.0119, 8.836680
237.4940, 9.245471
237.9762, 9.134365
238.4583, 8.615346
238.9404, 8.219529
239.4225, 7.925794
239.9046, 7.746633
240.3867, 7.762320
240.8689, 7.903977
241.3510, 8.001199
241.8331, 7.965159
242.3152, 7.832788
242.7973, 7.721542
243.2794, 7.660967
243.7616, 7.573061
244.2437, 7.247845
244.7258, 6.837146
245.2079, 6.891332
245.6900, 7.852065
246.1721, 9.146391
246.6543, 9.586963
247.1364, 8.929776
247.6185, 8.197238
248.1006, 7.856968
248.5827, 7.851674
249.0648, 8.015719
249.5470, 8.426310
250.0291, 8.819143
250.5112, 8.774348
250.9933, 8.225993
251.4754, 7.693941
251.9576, 7.550065
252.4397, 7.692835
252.9218, 7.646927
253.4039, 7.188819
253.8860, 6.626808
254.3681, 6.207001
254.8503, 5.922140
255.3324, 5.953507
255.8145, 6.691890
256.2966, 7.946071
256.7787, 8.716348
257.2608, 8.668024
257.7430, 8.271573
258.2251, 7.809329
258.7072, 7.323044
259.1893, 7.092200
259.6714, 7.532736
260.1535, 8.474497
260.6357, 8.941317
261.1178, 8.630495
261.5999, 8.084428
262.0820, 7.650117
262.5641, 7.294661
263.0462, 6.910071
263.5284, 6.289435
264.0105, 5.526786
264.4926, 5.200647
264.9747, 5.545049
265.4568, 6.025091
265.9389, 6.538733
266.4211, 6.977421
266.9032, 7.096254
267.3853, 6.570355
267.8674, 5.620658
268.3495, 5.262935
268.8316, 5.940937
269.3138, 6.559932
269.7959, 6.675773
270.2780, 6.487006
270.7601, 6.280642
271.2422, 6.195062
271.7243, 6.209863
272.2065, 6.270462
272.6886, 6.430205
273.1707, 6.542593
273.6528, 6.637922
274.1349, 6.650010
274.6170, 6.430616
275.0992, 5.874640
275.5813, 5.221069
276.0634, 5.123308
276.5455, 5.999261
277.0276, 6.653906
277.5097, 6.802968
277.9919, 6.707060
278.4740, 6.592519
278.9561, 6.540835
279.4382, 6.507544
279.9203, 6.407160
280.4024, 6.216902
280.8846, 6.003647
281.3667, 5.624399
281.8488, 5.321210
282.3309, 5.309492
282.8130, 5.628703
283.2951, 6.115987
283.7773, 6.575309
284.2594, 7.109279
284.7415, 7.336280
285.2236, 7.001014
285.7057, 6.590295
286.1878, 6.436563
286.6700, 6.549767
287.1521, 6.671333
287.6342, 6.471797
288.1163, 5.824985
288.5984, 5.358422
289.0805, 5.156612
289.5627, 5.043010
290.0448, 4.889365
290.5269, 4.736636
291.0090, 4.769306
291.4911, 5.224456
291.9732, 6.173312
292.4554, 6.617735
292.9375, 6.107096
293.4196, 5.551117
293.9017, 5.147429
294.3838, 4.929828
294.8659, 4.896887
295.3481, 5.055053
295.8302, 5.396738
296.3123, 5.812109
296.7944, 6.813243
297.2765, 7.327140
297.7586, 6.576182
298.2408, 5.311082
298.7229, 4.768201
299.2050, 5.675864
299.6871, 7.536012
300.1692, 8.411412
300.6513, 6.991149
301.1335, 6.118460
301.6156, 6.457524
302.0977, 7.286907
302.5798, 7.836562
303.0619, 7.798370
303.5440, 7.377098
304.0262, 6.994126
304.5083, 6.702380
304.9904, 6.373072
305.4725, 5.843154
305.9546, 5.375265
306.4367, 5.210202
306.9189, 5.391387
307.4010, 5.761609
307.8831, 6.151102
308.3652, 6.775624
308.8473, 6.792177
309.3294, 5.680800
309.8116, 4.484644
310.2937, 3.753660
310.7758, 3.560239
311.2579, 3.767318
311.7400, 4.285386
312.2221, 5.193196
312.7043, 5.872615
313.1864, 6.350415
313.6685, 6.618669
314.1506, 6.563358
314.6327, 6.286581
315.1148, 5.979334
315.5970, 5.754618
316.0791, 5.630601
316.5612, 5.871032
317.0433, 7.012017
317.5254, 7.923504
318.0075, 8.317355
318.4897, 8.340464
318.9718, 8.198003
319.4539, 7.988886
319.9360, 7.746681
320.4181, 7.583597
320.9002, 7.820896
321.3824, 7.713328
321.8645, 6.891505
322.3466, 5.875281
322.8287, 5.150831
323.3108, 4.888328
323.7929, 4.947266
324.2751, 5.106843
324.7572, 5.456826
325.2393, 5.736609
325.7214, 5.854108
326.2035, 5.980211
326.6856, 6.333224
327.1678, 6.878249
327.6499, 7.291140
328.1320, 7.134024
328.6141, 6.144049
329.0962, 5.919421
329.5783, 7.297236
330.0605, 8.538052
330.5426, 8.827433
331.0247, 8.336225
331.5068, 7.673278
331.9889, 7.293067
332.4710, 7.172782
332.9532, 6.941737
333.4353, 6.474175
333.9174, 6.023840
334.3995, 5.418838
334.8816, 4.915534
335.3637, 4.973122
335.8459, 5.842026
336.3280, 7.166328
336.8101, 7.841442
337.2922, 7.268532
337.7743, 6.911554
338.2564, 7.121502
338.7386, 7.444951
339.2206, 7.419111
339.7028, 6.939858
340.1849, 6.326169
340.6670, 6.069036
341.1491, 6.318325
341.6312, 6.562566
342.1133, 7.017722
342.5955, 7.293425
343.0776, 7.016940
343.5597, 6.289650
344.0418, 5.595662
344.5239, 5.431252
345.0060, 5.839712
345.4882, 6.013593
345.9703, 5.843240
346.4524, 5.519847
346.9345, 4.854405
347.4166, 4.092189
347.8987, 3.653008
348.3809, 3.816617
348.8630, 4.457895
349.3451, 5.111692
349.8272, 6.123967
350.3093, 6.567605
350.7914, 5.961956
351.2736, 4.927887
351.7557, 3.951952
352.2378, 3.209593
352.7199, 2.866152
353.2020, 3.423934
353.6841, 5.462398
354.1663, 6.613060
354.6484, 5.721492
355.1305, 4.580221
355.6126, 4.248595
356.0947, 4.781301
356.5768, 5.526346
357.0590, 5.883412
357.5411, 5.838042
358.0232, 5.741371
358.5053, 5.528638
358.9874, 5.336215
359.4695, 5.125909
359.9517, 4.979744
360.4338, 5.090557
360.9159, 5.690721
361.3980, 6.546381
361.8801, 6.897352
362.3622, 6.510144
362.8444, 6.121478
363.3265, 6.114648
363.8086, 6.187391
364.2907, 5.957937
364.7728, 5.261903
365.2549, 4.517712
365.7371, 4.390460
366.2192, 4.981646
366.7013, 5.224878
367.1834, 4.381978
367.6655, 3.511283
368.1476, 3.526722
368.6298, 4.414916
369.1119, 5.288617
369.5940, 5.330764
370.0761, 4.759790
370.5582, 4.685639
371.0403, 5.461075
371.5225, 6.262372
372.0046, 6.478673
372.4867, 6.296840
372.9688, 6.134526
373.4509, 6.208992
373.9330, 6.352933
374.4152, 6.238256
374.8973, 5.813291
375.3794, 5.590915
375.8615, 6.111094
376.3436, 6.854400
376.8257, 6.979082
377.3079, 6.184690
377.7900, 5.333612
378.2721, 5.203033
378.7542, 5.593781
379.2363, 5.520905
379.7184, 4.418228
380.2006, 3.249941
380.6827, 3.406977
381.1648, 4.842344
381.6469, 6.200923
382.1290, 7.311890
382.6111, 7.994550
383.0933, 7.824438
383.5754, 6.718595
384.0575, 5.428650
384.5396, 4.345207
385.0217, 3.581049
385.5038, 3.527393
385.9860, 5.085048
386.4681, 6.553821
386.9502, 6.654920
387.4323, 5.736981
387.9144, 5.036421
388.3965, 5.151003
388.8787, 5.828555
389.3608, 6.458199
389.8429, 7.119083
390.3250, 7.598750
390.8071, 7.648249
391.2892, 7.582316
391.7714, 7.856921
392.2535, 8.559391
392.7356, 9.306271
393.2177, 9.646581
393.6998, 9.495729
394.1819, 9.267058
394.6641, 8.592129
395.1462, 8.172414
395.6283, 8.642161
396.1104, 9.748040
396.5925, 10.71081
397.0746, 11.02719
397.5568, 10.78639
398.0389, 10.48496
398.5210, 9.966220
399.0031, 9.580339
399.4852, 9.517133
399.9673, 9.536884
400.4495, 9.342286
400.9316, 8.851865
401.4137, 8.260502
401.8958, 7.862994
402.3779, 7.709074
402.8600, 7.625503
403.3422, 7.650260
403.8243, 7.700475
404.3064, 7.725853
404.7885, 7.737496
405.2706, 7.796692
405.7527, 7.979528
406.2349, 8.246965
406.7170, 8.273971
407.1991, 7.974775
407.6812, 7.532911
408.1633, 6.824793
408.6454, 6.085023
409.1276, 5.590368
409.6097, 5.445230
410.0918, 5.476035
410.5739, 5.354224
411.0560, 4.977193
411.5381, 5.016695
412.0203, 6.375630
412.5024, 7.498831
412.9845, 7.161359
413.4666, 5.614277
413.9487, 4.271932
414.4308, 4.331202
414.9130, 5.409163
415.3951, 6.082788
415.8772, 6.312077
416.3593, 6.228003
416.8414, 5.462235
417.3235, 4.551145
417.8057, 4.362360
418.2878, 5.466596
418.7699, 6.610115
419.2520, 6.254366
419.7341, 4.598039
420.2162, 3.635564
420.6984, 4.245935
421.1805, 5.440217
421.6626, 5.908046
422.1447, 5.656872
422.6268, 5.488217
423.1089, 5.869220
423.5911, 6.421236
424.0732, 6.594667
424.5553, 6.328155
425.0374, 5.946085
425.5195, 5.639181
426.0016, 5.427722
426.4838, 5.362478
426.9659, 5.847106
427.4480, 6.051833
427.9301, 5.293570
428.4122, 4.003894
428.8943, 3.109618
429.3765, 2.971038
429.8586, 3.281605
430.3407, 3.524396
430.8228, 3.673678
431.3049, 3.801770
431.7870, 3.851261
432.2692, 3.922404
432.7513, 4.137340
433.2334, 4.464124
433.7155, 4.733822
434.1976, 4.796289
434.6797, 4.671175
435.1619, 4.648542
435.6440, 4.929810
436.1261, 5.080617
436.6082, 4.841722
437.0903, 4.513763
437.5724, 4.476367
438.0546, 4.854300
438.5367, 5.423541
439.0188, 5.865150
439.5009, 6.203270
439.9830, 6.329999
440.4651, 6.178281
440.9473, 5.869010
441.4294, 5.237354
441.9115, 4.468763
442.3936, 4.051632
442.8757, 4.447989
443.3578, 5.349370
443.8400, 5.678538
444.3221, 5.264885
444.8042, 4.701654
445.2863, 3.814893
445.7684, 3.080427
446.2505, 3.116158
446.7327, 4.094300
447.2148, 5.132289
447.6969, 5.347297
448.1790, 4.900574
448.6611, 4.746659
449.1432, 5.192178
449.6254, 5.629553
450.1075, 5.409505
450.5896, 4.733521
451.0717, 4.204457
451.5538, 3.966748
452.0359, 3.956101
452.5181, 4.192726
453.0002, 4.641858
453.4823, 5.053029
453.9644, 5.276698
454.4465, 5.438403
454.9286, 5.947151
455.4108, 7.155597
455.8929, 7.652942
456.3750, 6.368492
456.8571, 4.616944
457.3392, 3.997907
457.8214, 4.657953
458.3035, 5.400424
458.7856, 5.089433
459.2677, 3.704357
459.7498, 3.129943
460.2319, 3.855929
460.7141, 4.685828
461.1962, 5.529619
461.6783, 6.195823
462.1604, 6.326660
462.6425, 5.807428
463.1246, 5.067831
463.6068, 4.911818
464.0889, 5.770746
464.5710, 6.062711
465.0531, 5.254110
465.5352, 4.411353
466.0173, 3.973784
466.4995, 3.928186
466.9816, 4.135214
467.4637, 4.583653
467.9458, 5.128066
468.4279, 5.273092
468.9100, 4.873673
469.3922, 4.449885
469.8743, 3.999313
470.3564, 3.679938
470.8385, 3.639164
471.3206, 3.898008
471.8027, 4.356878
472.2849, 5.160619
472.7670, 6.135949
473.2491, 6.549708
473.7312, 6.207961
474.2133, 5.671629
474.6954, 5.135161
475.1776, 4.714773
475.6597, 4.762033
476.1418, 5.801129
476.6239, 6.744907
477.1060, 6.641349
477.5881, 5.812478
478.0703, 5.245246
478.5524, 5.307198
479.0345, 5.600757
479.5166, 5.526538
479.9987, 4.957378
480.4808, 4.621812
480.9630, 4.720466
481.4451, 4.929090
481.9272, 5.117846
482.4093, 5.231665
482.8914, 5.126969
483.3735, 4.681237
483.8557, 4.058988
484.3378, 3.854178
484.8199, 4.471268
485.3020, 4.946890
485.7841, 5.219056
486.2662, 5.361792
486.7484, 5.471273
487.2305, 5.532005
487.7126, 5.405855
488.1947, 4.909926
488.6768, 4.076906
489.1589, 3.403659
489.6411, 2.705332
490.1232, 2.494439
490.6053, 3.410462
491.0874, 4.607024
491.5695, 5.026878
492.0516, 4.337371
492.5338, 3.373299
493.0159, 2.961846
493.4980, 3.055026
493.9801, 3.277281
494.4622, 3.677374
494.9443, 4.005518
495.4265, 3.939237
495.9086, 3.624251
496.3907, 3.474393
496.8728, 3.837788
497.3549, 4.182196
497.8370, 3.872945
498.3192, 3.122552
498.8013, 2.793924
499.2834, 3.297323
499.7655, 4.132329
500.2476, 4.455687
500.7297, 4.059209
501.2119, 3.901766
501.6940, 4.047031
502.1761, 4.444013
502.6582, 5.348205
503.1403, 6.513251
503.6224, 7.211519
504.1045, 6.951343
504.5866, 6.006105
505.0688, 5.359926
505.5509, 5.190160
506.0330, 5.056246
506.5151, 4.922361
506.9972, 4.816773
507.4793, 4.819151
507.9615, 4.893481
508.4436, 4.861094
508.9257, 4.488772
509.4078, 3.876558
509.8899, 3.696727
510.3720, 4.171321
510.8542, 4.593799
511.3363, 4.557864
511.8184, 4.413596
512.3005, 4.618368
512.7827, 5.304167
513.2648, 5.762090
513.7469, 5.223526
514.2290, 4.041912
514.7111, 3.217232
515.1932, 2.874944
515.6754, 2.903836
516.1575, 3.427945
516.6396, 4.280819
517.1217, 4.684123
517.6038, 3.986146
518.0859, 3.560192
518.5681, 4.485956
519.0502, 5.978593
519.5323, 6.631797
520.0144, 6.059686
520.4965, 4.981175
520.9786, 4.262577
521.4608, 3.989355
521.9429, 3.551903
522.4250, 2.320466
522.9071, 1.625719
523.3892, 2.325847
523.8713, 3.761031
524.3535, 4.954261
524.8356, 5.497037
525.3177, 5.636741
525.7998, 5.742034
526.2819, 5.817791
526.7640, 5.835391
527.2462, 5.799308
527.7283, 5.691370
528.2104, 5.482179
528.6925, 5.198135
529.1746, 4.861346
529.6567, 4.360701
530.1389, 4.004730
530.6210, 4.476342
531.1031, 5.699575
531.5852, 6.233429
532.0673, 5.343814
532.5494, 4.109726
533.0316, 4.025499
533.5137, 5.004063
533.9958, 5.620808
534.4779, 5.420817
534.9600, 4.895774
535.4421, 4.260207
535.9243, 3.612970
536.4064, 3.212066
536.8885, 3.202441
537.3706, 3.405614
537.8527, 3.436844
538.3348, 3.103308
538.8170, 2.991539
539.2991, 3.308067
539.7812, 3.643239
540.2633, 3.741114
540.7454, 3.652640
541.2275, 3.569016
541.7097, 3.604285
542.1918, 3.725908
542.6739, 3.913344
543.1560, 4.305173
543.6381, 4.311476
544.1202, 3.160852
544.6024, 2.125457
545.0845, 2.181537
545.5666, 3.178182
546.0487, 4.113963
546.5308, 4.412068
547.0129, 4.359494
547.4951, 4.408014
547.9772, 4.552844
548.4593, 4.604405
548.9414, 4.494710
549.4235, 4.236831
549.9056, 3.724090
550.3878, 2.820221
550.8699, 2.419824
551.3520, 3.141186
551.8341, 4.088078
552.3162, 4.632289
552.7983, 4.731744
553.2805, 4.416471
553.7626, 3.647849
554.2447, 2.700752
554.7268, 2.384572
555.2089, 3.041400
555.6910, 3.751137
556.1732, 4.871849
556.6553, 5.705055
557.1374, 5.538535
557.6195, 4.667783
558.1016, 4.114596
558.5837, 4.673332
559.0659, 5.736305
559.5480, 5.751686
560.0301, 4.518196
560.5122, 3.418400
560.9943, 2.728420
561.4764, 2.446326
561.9586, 2.643629
562.4407, 3.285560
562.9228, 3.865628
563.4049, 4.185554
563.8870, 4.361382
564.3691, 4.475204
564.8513, 4.543633
565.3334, 4.645103
565.8155, 4.834605
566.2976, 5.015771
566.7797, 4.987776
567.2618, 4.577206
567.7440, 4.364788
568.2261, 4.459773
568.7082, 4.651400
569.1903, 5.004902
569.6724, 5.343267
570.1545, 5.233972
570.6367, 4.413915
571.1188, 3.322296
571.6009, 2.943582
572.0830, 3.473434
572.5651, 3.962186
573.0472, 4.330764
573.5294, 4.611071
574.0115, 4.824753
574.4936, 4.967730
574.9757, 5.014995
575.4578, 4.893148
575.9399, 4.757865
576.4221, 4.768890
576.9042, 4.920401
577.3863, 5.268606
577.8684, 5.946157
578.3505, 6.464633
578.8326, 6.106501
579.3148, 4.782296
579.7969, 4.005415
580.2790, 4.134441
580.7611, 4.486778
581.2432, 4.923154
581.7253, 5.305873
582.2075, 5.382110
582.6896, 5.080180
583.1717, 4.682664
583.6538, 4.600362
584.1359, 4.893783
584.6180, 5.073861
585.1002, 5.203405
585.5823, 5.128828
586.0643, 4.490037
586.5464, 3.751414
587.0286, 3.639087
587.5107, 4.405415
587.9928, 5.199811
588.4749, 5.042121
588.9570, 4.209394
589.4391, 3.834504
589.9213, 4.112943
590.4034, 4.495471
590.8855, 4.665879
591.3676, 4.634240
591.8497, 4.480477
592.3318, 4.102608
592.8140, 3.775588
593.2961, 3.568998
593.7782, 3.467235
594.2603, 3.458305
594.7424, 3.537903
595.2245, 3.733141
595.7067, 4.101814
596.1888, 4.566352
596.6709, 4.640863
597.1530, 3.874315
597.6351, 3.507755
598.1172, 4.063150
598.5994, 4.742610
599.0815, 4.960000
599.5636, 4.721128
600.0457, 4.386001
600.5278, 4.104392
601.0099, 3.927822
601.4921, 4.102420
601.9742, 4.637980
602.4563, 4.695903
602.9384, 3.675401
603.4205, 2.477551
603.9026, 2.647349
604.3848, 4.243112
604.8669, 5.114003
605.3490, 4.466463
605.8311, 3.480354
606.3132, 2.654271
606.7953, 2.113256
607.2775, 2.102714
607.7596, 2.706774
608.2417, 3.544016
608.7238, 4.004168
609.2059, 3.991202
609.6880, 4.085859
610.1702, 4.604001
610.6523, 4.857787
611.1344, 4.265845
611.6165, 3.416220
612.0986, 3.190506
612.5807, 3.872501
613.0629, 4.752642
613.5450, 5.327331
614.0271, 5.574598
614.5092, 5.299295
614.9913, 4.399546
615.4734, 3.585960
615.9556, 3.303210
616.4377, 3.455639
616.9198, 3.723413
617.4019, 4.392611
617.8840, 4.637085
618.3661, 3.810484
618.8483, 2.834581
619.3304, 2.573139
619.8125, 2.993346
620.2946, 3.570801
620.7767, 3.969688
621.2589, 4.257079
621.7410, 4.662565
622.2231, 5.317953
622.7052, 5.697266
623.1873, 5.476102
623.6694, 5.187708
624.1516, 5.184107
624.6337, 5.366753
625.1158, 5.399759
625.5979, 5.041200
626.0800, 4.644637
626.5621, 4.659400
627.0443, 4.948469
627.5264, 5.005479
628.0085, 4.688314
628.4906, 4.292784
628.9727, 4.141379
629.4548, 3.693354
629.9370, 4.016630
630.4191, 3.021245
630.9012, 2.343765
631.3833, 2.216454
631.8654, 2.526614
632.3475, 3.373467
632.8297, 4.619214
633.3118, 5.675287
633.7939, 6.029630
634.2760, 5.784585
634.7581, 5.240597
635.2402, 4.245957
635.7224, 3.545603
636.2045, 3.388837
636.6866, 3.629929
637.1687, 4.282592
637.6508, 5.301682
638.1329, 5.908976
638.6151, 5.667744
639.0972, 5.088473
639.5793, 4.491339
640.0614, 3.906890
640.5435, 3.329581
641.0256, 2.759148
641.5078, 2.331638
641.9899, 2.256584
642.4720, 2.582320
642.9541, 2.863314
643.4362, 3.088553
643.9183, 3.278126
644.4005, 3.405090
644.8826, 3.514002
645.3647, 3.706532
645.8468, 3.984464
646.3289, 4.128956
646.8110, 3.763072
647.2932, 3.167945
647.7753, 3.113196
648.2574, 3.635585
648.7395, 4.211473
649.2216, 4.660213
649.7037, 4.970006
650.1859, 5.088359
650.6680, 4.973177
651.1501, 4.874200
651.6322, 4.826921
652.1143, 4.784372
652.5964, 4.742921
653.0786, 4.680942
653.5607, 4.552144
654.0428, 4.342329
654.5249, 4.107438
655.0070, 3.869644
655.4891, 3.618521
655.9713, 3.718283
656.4534, 4.463886
656.9355, 4.987523
657.4176, 4.597260
657.8997, 3.881863
658.3818, 3.518431
658.8640, 3.601589
659.3461, 3.817815
659.8282, 4.139770
660.3103, 4.448000
660.7924, 4.605628
661.2745, 4.620926
661.7567, 4.547971
662.2388, 4.401904
662.7209, 4.259864
663.2030, 4.268744
663.6851, 4.457720
664.1672, 4.703522
664.6494, 5.560078
665.1315, 5.865473
665.6136, 4.511315
666.0957, 2.641993
666.5778, 1.985498
667.0599, 3.052294
667.5421, 4.481762
668.0242, 5.255443
668.5063, 5.484616
668.9884, 5.386171
669.4705, 4.974205
669.9526, 4.410732
670.4348, 3.709579
670.9169, 3.012754
671.3990, 2.630153
671.8811, 2.598414
672.3632, 2.822192
672.8453, 3.710751
673.3275, 4.448419
673.8096, 4.592553
674.2917, 4.268301
674.7738, 3.635703
675.2559, 2.767526
675.7380, 1.990980
676.2202, 1.757829
676.7023, 2.022544
677.1844, 2.320816
677.6665, 2.618805
678.1486, 3.025022
678.6307, 3.713782
679.1129, 4.478067
679.5950, 4.925245
680.0771, 5.010094
680.5592, 5.011030
681.0413, 4.993964
681.5234, 4.918420
682.0056, 4.769844
682.4877, 4.535499
682.9698, 4.136627
683.4519, 3.545386
683.9340, 2.972539
684.4161, 2.802143
684.8983, 3.095040
685.3804, 3.003417
685.8625, 2.054399
686.3446, 1.555409
686.8267, 2.787698
687.3088, 4.402995
687.7910, 4.732351
688.2731, 3.493728
688.7552, 2.314622
689.2373, 1.879783
689.7194, 1.874707
690.2015, 2.033855
690.6837, 2.334876
691.1658, 2.853002
691.6479, 3.630659
692.1300, 4.371454
692.6121, 4.592316
693.0942, 4.180167
693.5764, 4.058094
694.0585, 4.576104
694.5406, 4.913667
695.0227, 4.639677
695.5048, 4.200381
695.9869, 4.194463
696.4691, 4.677345
696.9512, 4.874653
697.4333, 3.667907
697.9154, 2.326002
698.3975, 3.068540
698.8796, 5.420911
699.3618, 6.749614
699.8439, 6.028556
700.3260, 4.472342
700.8081, 3.639140
701.2902, 3.591932
701.7723, 3.671116
702.2545, 4.036339
702.7366, 4.334316
703.2187, 4.576207
703.7008, 4.669191
704.1829, 4.377707
704.6650, 3.770855
705.1472, 3.386355
705.6293, 3.647790
706.1114, 4.295835
706.5935, 5.173439
707.0756, 6.163229
707.5577, 6.368569
708.0399, 5.412565
708.5220, 4.165111
709.0041, 3.515704
709.4862, 3.465410
709.9683, 3.628315
710.4504, 4.487308
710.9326, 4.915717
711.4147, 4.213876
711.8968, 3.383198
712.3789, 3.482128
712.8610, 4.362933
713.3431, 4.977397
713.8253, 4.614659
714.3074, 3.775097
714.7895, 3.065008
715.2716, 2.528181
715.7537, 2.556310
716.2358, 3.322988
716.7180, 4.216333
717.2001, 4.752729
717.6822, 4.970173
718.1643, 5.122249
718.6464, 5.262180
719.1285, 5.266594
719.6107, 5.003779
720.0928, 4.703546
720.5749, 4.537054
721.0570, 4.477344
721.5391, 4.396927
722.0212, 4.224231
722.5034, 4.055565
722.9855, 4.135455
723.4676, 4.374557
723.9497, 4.114341
724.4318, 3.175866
724.9139, 2.413725
725.3961, 2.337863
725.8782, 2.821467
726.3603, 3.575396
726.8424, 4.921987
727.3245, 5.796221
727.8066, 6.075274
728.2888, 5.940044
728.7709, 4.989869
729.2530, 3.843563
729.7351, 3.754663
730.2172, 5.115901
730.6993, 6.484520
731.1815, 6.030481
731.6636, 4.289747
732.1457, 3.294778
732.6278, 3.139360
733.1099, 3.211527
733.5920, 3.292433
734.0742, 3.407006
734.5563, 3.586195
735.0384, 3.828109
735.5205, 4.168997
736.0026, 4.717828
736.4847, 5.236208
736.9669, 5.742217
737.4490, 6.113602
737.9311, 6.211482
738.4132, 6.020019
738.8953, 5.633909
739.3774, 5.041758
739.8596, 4.371491
740.3417, 3.816070
740.8238, 3.387104
741.3059, 3.357287
741.7880, 3.877666
742.2701, 4.539567
742.7523, 5.013564
743.2344, 5.293778
743.7165, 5.257510
744.1986, 4.270556
744.6807, 3.867682
745.1628, 4.913274
745.6450, 6.051920
746.1271, 6.153090
746.6092, 5.418442
747.0913, 4.727275
747.5734, 4.519936
748.0555, 4.463637
748.5377, 4.150762
749.0198, 3.645429
749.5019, 3.029282
749.9840, 2.277988
750.4661, 2.250947
750.9482, 3.731771
751.4304, 5.905323
751.9125, 6.758378
752.3946, 5.714742
752.8767, 4.660568
753.3588, 3.059853
753.8409, 2.030948
754.3231, 2.492577
754.8052, 3.608808
755.2873, 4.209527
755.7694, 4.020144
756.2515, 3.647289
756.7336, 3.360229
757.2158, 3.275634
757.6979, 3.813128
758.1800, 4.822761
758.6621, 5.377868
759.1442, 5.136298
759.6263, 4.545497
760.1085, 4.093157
760.5906, 3.780748
761.0727, 3.615648
761.5548, 3.631303
762.0369, 3.752877
762.5190, 4.126214
763.0012, 4.463829
763.4833, 4.463380
763.9654, 4.220186
764.4475, 4.155078
764.9296, 4.557078
765.4117, 4.968985
765.8939, 4.973429
766.3760, 4.738941
766.8581, 4.522272
767.3402, 4.381790
767.8223, 4.484902
768.3044, 5.008218
768.7866, 5.554845
769.2687, 4.922183
769.7508, 2.462978
770.2329, 1.248053
770.7150, 2.149663
771.1971, 3.201374
771.6793, 3.544513
772.1614, 3.492182
772.6435, 3.384591
773.1256, 3.235973
773.6077, 3.266362
774.0898, 3.695788
774.5720, 4.215776
775.0541, 4.642561
775.5362, 4.948247
776.0183, 5.107096
776.5004, 5.112368
776.9825, 4.983345
777.4647, 4.729943
777.9468, 4.362643
778.4289, 3.877582
778.9110, 3.196815
779.3931, 2.833141
779.8752, 3.098504
780.3574, 3.424295
780.8395, 3.172729
781.3216, 2.505479
781.8037, 2.269047
782.2858, 2.764752
782.7679, 3.305308
783.2501, 3.785440
783.7322, 4.196127
784.2143, 4.531549
784.6964, 4.789690
785.1785, 5.038417
785.6606, 5.327144
786.1428, 5.332511
786.6249, 4.161760
787.1070, 2.318838
787.5891, 2.242528
788.0712, 4.145136
788.5533, 5.649806
789.0355, 5.614914
789.5176, 4.798216
789.9997, 4.336771
790.4818, 4.289426
790.9639, 4.223525
791.4460, 4.094856
791.9282, 4.004589
792.4103, 4.029393
792.8924, 4.063438
793.3745, 3.879081
793.8566, 3.567353
794.3387, 3.631788
794.8209, 4.565399
795.3030, 5.593678
795.7851, 6.022194
796.2672, 5.965147
796.7493, 5.510787
797.2314, 4.743372
797.7136, 4.174449
798.1957, 4.149747
798.6778, 4.478462
799.1599, 4.694832
799.6420, 4.750381
800.1241, 4.909524
800.6063, 5.313777
801.0884, 5.609797
801.5705, 5.557357
802.0526, 5.341516
802.5347, 5.173163
803.0168, 5.068098
803.4990, 4.962358
803.9811, 4.921546
804.4632, 4.788222
804.9453, 4.216616
805.4274, 3.600541
805.9095, 3.685029
806.3917, 4.477645
806.8738, 5.133723
807.3559, 4.937085
807.8380, 4.263412
808.3201, 3.928358
808.8022, 3.920698
809.2844, 4.070772
809.7665, 4.397111
810.2486, 4.653790
810.7307, 4.597814
811.2128, 4.393884
811.6949, 4.596374
812.1771, 5.841361
812.6592, 6.167145
813.1413, 4.549144
813.6234, 3.163228
814.1055, 3.063840
814.5876, 3.721027
815.0698, 4.495649
815.5519, 5.225901
816.0340, 5.749424
816.5161, 5.881830
816.9982, 5.815373
817.4803, 5.703052
817.9625, 5.581689
818.4446, 5.616447
818.9267, 5.817794
819.4088, 5.821141
819.8909, 5.268491
820.3730, 4.371137
820.8552, 3.909172
821.3373, 3.982268
821.8194, 4.021800
822.3015, 3.814389
822.7836, 3.827900
823.2657, 4.626015
823.7479, 5.744382
824.2300, 6.230834
824.7121, 5.916303
825.1942, 5.539176
825.6763, 5.143945
826.1584, 4.830584
826.6406, 4.585729
827.1227, 4.492874
827.6048, 4.792691
828.0869, 5.448593
828.5690, 5.950913
829.0511, 5.849801
829.5333, 5.423341
830.0154, 5.147817
830.4975, 4.982263
830.9796, 4.615760
831.4617, 3.973149
831.9438, 3.698116
832.4260, 4.361964
832.9081, 5.569726
833.3902, 6.108286
833.8723, 5.683432
834.3544, 5.362960
834.8365, 5.407128
835.3187, 5.226319
835.8008, 4.009503
836.2829, 2.767858
836.7650, 3.012897
837.2471, 4.912610
837.7292, 6.377084
838.2114, 6.557488
838.6935, 6.287106
839.1756, 6.030872
839.6577, 5.684123
840.1398, 4.850254
840.6219, 3.663506
841.1041, 2.996576
841.5862, 3.539354
842.0683, 4.538487
842.5504, 4.592904
843.0325, 3.857265
843.5146, 3.300741
843.9968, 3.012034
844.4789, 3.196373
844.9610, 4.128042
845.4431, 5.238723
845.9252, 5.404508
846.4073, 4.309271
846.8895, 3.889281
847.3716, 4.939084
847.8537, 5.605184
848.3358, 5.207455
848.8179, 4.483611
849.3000, 3.997977
849.7822, 3.784355
850.2643, 3.732497
850.7464, 3.786840
851.2285, 4.028226
851.7106, 4.808360
852.1927, 5.595610
852.6749, 5.699851
853.1570, 5.224574
853.6391, 4.640004
854.1212, 4.165630
854.6033, 3.876695
855.0854, 3.896043
855.5676, 4.190146
856.0497, 4.735008
856.5318, 5.549019
857.0139, 5.855693
857.4960, 5.280856
857.9781, 4.582451
858.4603, 4.595072
858.9424, 5.247046
859.4245, 5.713025
859.9066, 6.285117
860.3887, 6.157315
860.8708, 4.317638
861.3530, 2.755012
861.8351, 2.849536
862.3172, 3.838575
862.7993, 4.204232
863.2814, 3.540933
863.7635, 3.164973
864.2457, 3.961898
864.7278, 4.944265
865.2099, 5.403954
865.6920, 5.459198
866.1741, 5.285208
866.6563, 4.976739
867.1384, 4.727637
867.6205, 4.710831
868.1026, 4.796033
868.5847, 4.786223
869.0668, 4.666367
869.5490, 4.195586
870.0311, 3.309591
870.5132, 2.855449
870.9953, 3.416848
871.4774, 4.494424
871.9595, 5.094501
872.4417, 5.161332
872.9238, 5.040245
873.4059, 4.476778
873.8880, 4.128844
874.3701, 4.411929
874.8522, 4.822730
875.3344, 4.915938
875.8165, 4.740349
876.2986, 4.646417
876.7807, 4.702368
877.2628, 4.847674
877.7449, 5.169180
878.2271, 5.480594
878.7092, 5.670060
879.1913, 5.700859
879.6734, 5.546982
880.1555, 5.199884
880.6376, 4.639748
881.1198, 3.577821
881.6019, 2.430591
882.0840, 1.925502
882.5661, 2.034487
883.0482, 2.779240
883.5303, 4.136491
884.0125, 5.338934
884.4946, 5.748298
884.9767, 5.484620
885.4588, 4.747357
885.9409, 3.278591
886.4230, 2.905692
886.9052, 4.321123
887.3873, 5.537013
887.8694, 5.412235
888.3515, 4.643736
888.8336, 4.395858
889.3157, 4.764498
889.7979, 4.913836
890.2800, 4.695899
890.7621, 4.420705
891.2442, 4.087940
891.7263, 3.798588
892.2084, 3.651566
892.6906, 3.622952
893.1727, 3.635007
893.6548, 3.682624
894.1369, 3.683013
894.6190, 3.533754
895.1011, 3.341149
895.5833, 3.251793
896.0654, 3.225594
896.5475, 3.140257
897.0296, 2.960328
897.5117, 2.719050
897.9938, 2.355664
898.4760, 2.061244
898.9581, 2.512241
899.4402, 3.623995
899.9223, 4.366404
900.4044, 4.558358
900.8865, 4.461678
901.3687, 4.189836
901.8508, 3.847474
902.3329, 3.675283
902.8150, 3.730124
903.2971, 3.662839
903.7792, 3.391037
904.2614, 3.136143
904.7435, 2.842635
905.2256, 2.695160
905.7077, 2.968138
906.1898, 3.569221
906.6719, 3.985741
907.1541, 4.092677
907.6362, 4.108635
908.1183, 3.998366
908.6004, 3.897487
909.0825, 3.954066
909.5646, 4.070533
910.0468, 4.061917
910.5289, 3.884646
911.0110, 3.672565
911.4931, 3.406939
911.9752, 3.246993
912.4573, 3.586107
912.9395, 4.093743
913.4216, 3.909778
913.9037, 3.061435
914.3858, 2.512155
914.8679, 2.865112
915.3500, 3.641356
915.8321, 4.123174
916.3142, 4.314287
916.7963, 4.220427
917.2784, 3.832658
917.7606, 3.292091
918.2427, 2.569382
918.7248, 2.038518
919.2069, 2.143921
919.6890, 2.794341
920.1711, 3.294413
920.6533, 3.620549
921.1354, 3.846269
921.6175, 3.870888
922.0996, 3.937043
922.5817, 4.287135
923.0638, 4.705083
923.5460, 4.909480
924.0281, 4.903155
924.5102, 4.581209
924.9923, 3.557179
925.4744, 2.684078
925.9565, 2.255187
926.4387, 2.116877
926.9208, 2.158169
927.4029, 2.352705
927.8850, 2.720556
928.3671, 3.312173
928.8492, 3.855655
929.3314, 4.224671
929.8135, 4.399626
930.2956, 4.225216
930.7777, 3.874599
931.2598, 3.721142
931.7419, 3.842224
932.2241, 4.078265
932.7062, 4.367532
933.1883, 4.543551
933.6704, 4.134233
934.1525, 3.321992
934.6346, 2.973955
935.1168, 3.162854
935.5989, 3.376411
936.0810, 3.367622
936.5631, 3.353571
937.0452, 3.690629
937.5273, 4.332755
938.0095, 4.474048
938.4916, 3.969481
938.9737, 3.557194
939.4558, 3.373928
939.9379, 3.309033
940.4200, 3.351810
940.9022, 3.420127
941.3843, 3.259856
941.8664, 2.639752
942.3485, 2.504610
942.8306, 3.420997
943.3127, 4.073962
943.7949, 3.835373
944.2770, 3.411355
944.7591, 3.556317
945.2412, 4.107052
945.7233, 4.208898
946.2054, 3.301108
946.6876, 2.753237
947.1697, 3.498844
947.6518, 4.354685
948.1339, 4.340185
948.6160, 3.875046
949.0981, 3.687812
949.5803, 3.918570
950.0624, 4.238298
950.5445, 4.491992
951.0266, 4.683238
951.5087, 4.823760
951.9908, 4.902989
952.4730, 4.924844
952.9551, 4.871119
953.4372, 4.659385
953.9193, 4.260934
954.4014, 3.812784
954.8835, 3.494333
955.3657, 3.236092
955.8478, 2.694039
956.3299, 1.963394
956.8120, 1.949787
957.2941, 2.837019
957.7762, 3.250628
958.2584, 2.182230
958.7405, 0.5782837
959.2226, 0.4668738
959.7047, 1.977254
960.1868, 2.849252
960.6689, 2.979363
961.1511, 2.850322
961.6332, 2.442649
962.1153, 2.154111
962.5974, 2.425376
963.0795, 3.093414
963.5616, 3.425507
964.0438, 3.108253
964.5259, 3.137228
965.0080, 3.954524
965.4901, 4.546878
965.9722, 4.420818
966.4543, 4.015394
966.9365, 3.800935
967.4186, 3.752479
967.9007, 3.512294
968.3828, 2.831638
968.8649, 2.248729
969.3470, 1.639822
969.8292, 1.411217
970.3113, 2.301055
970.7934, 3.529064
971.2755, 3.712936
971.7576, 2.694256
972.2397, 1.986551
972.7219, 2.474918
973.2040, 3.305465
973.6861, 4.352395
974.1682, 5.145401
974.6503, 4.872542
975.1324, 3.894349
975.6146, 3.322109
976.0967, 3.538358
976.5788, 3.747248
977.0609, 3.013743
977.5430, 2.050957
978.0251, 1.861867
978.5073, 2.236282
978.9894, 2.730468
979.4715, 3.251099
979.9536, 3.863324
980.4357, 4.618522
980.9178, 5.213971
981.4000, 5.206901
981.8821, 4.680038
982.3642, 3.537197
982.8463, 1.975098
983.3284, 2.107908
983.8105, 4.475663
984.2927, 6.616460
984.7748, 6.661427
985.2569, 5.394182
985.7390, 4.483062
986.2211, 3.934161
986.7032, 3.776685
987.1854, 4.142098
987.6675, 4.062630
988.1496, 3.036576
988.6317, 2.077505
989.1138, 2.228320
989.5959, 3.181972
990.0781, 3.598680
990.5602, 3.271288
991.0423, 2.981809
991.5244, 2.591777
992.0065, 2.550472
992.4886, 3.388810
992.9708, 4.288292
993.4529, 4.259918
993.9350, 3.387722
994.4171, 2.667408
994.8992, 1.972226
995.3813, 1.626852
995.8635, 1.656792
996.3456, 2.024802
996.8277, 3.107913
997.3098, 4.278295
997.7919, 4.759930
998.2740, 4.532599
998.7562, 4.127693
999.2383, 3.505401
999.7204, 2.918782
1000.203, 2.398566
1000.685, 1.969794
1001.167, 1.532833
1001.649, 1.253500
1002.131, 1.487609
1002.613, 2.256836
1003.095, 2.946066
1003.577, 3.334734
1004.059, 3.514260
1004.542, 3.427506
1005.024, 3.243812
1005.506, 3.172012
1005.988, 3.132300
1006.470, 2.785937
1006.952, 2.082342
1007.434, 1.734893
1007.916, 2.507620
1008.398, 3.574811
1008.881, 4.419777
1009.363, 4.884709
1009.845, 4.437714
1010.327, 3.388967
1010.809, 2.771329
1011.291, 2.980282
1011.773, 3.437290
1012.255, 3.799748
1012.738, 3.916934
1013.220, 3.363423
1013.702, 2.425194
1014.184, 1.782967
1014.666, 1.500094
1015.148, 1.288454
1015.630, 1.009281
1016.112, 0.8579113
1016.594, 1.086993
1017.077, 1.616187
1017.559, 2.391371
1018.041, 3.299858
1018.523, 3.794279
1019.005, 3.785038
1019.487, 3.362331
1019.969, 2.539925
1020.451, 1.728113
1020.934, 1.576457
1021.416, 1.980127
1021.898, 2.416093
1022.380, 2.875645
1022.862, 2.983189
1023.344, 2.649319
1023.826, 2.188405
1024.308, 1.733074
1024.791, 1.546659
1025.273, 2.292976
1025.755, 3.921412
1026.237, 4.361288
1026.719, 3.442501
1027.201, 2.636570
1027.683, 2.220241
1028.165, 2.146517
1028.647, 2.491177
1029.130, 2.937008
1029.612, 2.732573
1030.094, 1.777213
1030.576, 1.549987
1031.058, 2.287442
1031.540, 2.962260
1032.022, 3.432050
1032.504, 3.603266
1032.986, 3.336043
1033.469, 2.795059
1033.951, 2.302658
1034.433, 1.793869
1034.915, 1.792790
1035.397, 2.694497
1035.879, 3.238617
1036.361, 2.985920
1036.843, 2.566028
1037.326, 2.393867
1037.808, 2.381845
1038.290, 2.288565
1038.772, 1.998724
1039.254, 2.171029
1039.736, 3.557141
1040.218, 4.198298
1040.700, 3.008641
1041.182, 1.715335
1041.665, 1.668571
1042.147, 2.347986
1042.629, 2.476689
1043.111, 1.809457
1043.593, 1.674008
1044.075, 2.907120
1044.557, 3.556336
1045.039, 2.325405
1045.521, 1.265364
1046.004, 2.322551
1046.486, 4.421561
1046.968, 5.075800
1047.450, 3.788160
1047.932, 2.999007
1048.414, 3.507651
1048.896, 3.800921
1049.378, 3.173872
1049.861, 2.494957
1050.343, 2.354358
1050.825, 2.630306
1051.307, 3.095194
1051.789, 3.765456
1052.271, 4.216196
1052.753, 4.177218
1053.235, 4.159037
1053.718, 4.589819
1054.200, 4.841220
1054.682, 4.156754
1055.164, 3.053752
1055.646, 2.567271
1056.128, 2.877597
1056.610, 3.221611
1057.092, 3.466572
1057.574, 3.620423
1058.057, 3.601491
1058.539, 3.573968
1059.021, 3.817787
1059.503, 4.082282
1059.985, 3.821148
1060.467, 2.953287
1060.949, 2.268383
1061.431, 2.007689
1061.913, 1.993661
1062.396, 2.550343
1062.878, 2.947320
1063.360, 2.215115
1063.842, 1.100796
1064.324, 1.056361
1064.806, 2.231467
1065.288, 3.122977
1065.770, 2.990289
1066.253, 2.717440
1066.735, 2.667281
1067.217, 2.615518
1067.699, 2.277371
1068.181, 1.874365
1068.663, 1.735567
1069.145, 1.916393
1069.627, 2.346803
1070.109, 3.251275
1070.592, 3.978858
1071.074, 4.048362
1071.556, 4.025336
1072.038, 4.572829
1072.520, 5.178448
1073.002, 4.845675
1073.484, 3.659523
1073.966, 3.000130
1074.448, 3.751126
1074.931, 4.242371
1075.413, 3.150019
1075.895, 2.069663
1076.377, 2.566198
1076.859, 3.536939
1077.341, 3.122862
1077.823, 1.553089
1078.305, 0.9625495
1078.788, 2.462275
1079.270, 3.754571
1079.752, 3.554619
1080.234, 3.001216
1080.716, 2.569657
1081.198, 2.429910
1081.680, 2.983207
1082.162, 3.962642
1082.644, 4.434348
1083.127, 4.026543
1083.609, 3.531154
1084.091, 3.130967
1084.573, 2.946398
1085.055, 3.247291
1085.537, 3.646989
1086.019, 3.692518
1086.501, 3.484535
1086.984, 3.342590
1087.466, 3.328307
1087.948, 3.617486
1088.430, 4.832169
1088.912, 5.686652
1089.394, 5.328583
1089.876, 4.464650
1090.358, 3.461457
1090.840, 2.580406
1091.323, 2.256788
1091.805, 2.578034
1092.287, 2.937058
1092.769, 3.319660
1093.251, 3.411817
1093.733, 2.747302
1094.215, 2.068276
1094.697, 1.956917
1095.179, 2.236296
1095.662, 2.583072
1096.144, 2.945462
1096.626, 3.376534
1097.108, 4.445750
1097.590, 4.721515
1098.072, 2.784657
1098.554, 0.9434055
1099.036, 0.5917527
1099.519, 1.241705
1100.001, 2.588897
1100.483, 4.316253
1100.965, 5.141006
1101.447, 4.307298
1101.929, 3.567843
1102.411, 3.561990
1102.893, 3.520833
1103.375, 2.868674
1103.858, 2.161979
1104.340, 1.958541
1104.822, 2.215604
1105.304, 2.691046
1105.786, 3.496759
1106.268, 4.014441
1106.750, 4.099818
1107.232, 3.927450
1107.714, 3.449690
1108.197, 2.835446
1108.679, 1.873167
1109.161, 0.9657861
1109.643, 1.184240
1110.125, 2.866848
1110.607, 3.818808
1111.089, 3.338255
1111.571, 2.830126
1112.054, 2.405332
1112.536, 2.179819
1113.018, 2.327378
1113.500, 2.655825
1113.982, 2.827067
1114.464, 2.831818
1114.946, 3.096480
1115.428, 4.166463
1115.911, 4.573212
1116.393, 3.662347
1116.875, 2.889613
1117.357, 2.990792
1117.839, 3.353966
1118.321, 3.291883
1118.803, 2.898141
1119.285, 2.721396
1119.767, 2.806432
1120.250, 3.043333
1120.732, 3.807784
1121.214, 3.874432
1121.696, 2.322276
1122.178, 0.9511192
1122.660, 1.470727
1123.142, 3.035318
1123.624, 3.370061
1124.106, 2.249335
1124.589, 1.631470
1125.071, 1.589287
1125.553, 1.873900
1126.035, 2.609222
1126.517, 3.099301
1126.999, 2.833464
1127.481, 2.322810
1127.963, 2.429842
1128.446, 3.069526
1128.928, 3.181994
1129.410, 2.679690
1129.892, 2.447047
1130.374, 2.597440
1130.856, 2.965274
1131.338, 3.545323
1131.820, 3.862302
1132.302, 3.301639
1132.785, 3.639333
1133.267, 3.629050
1133.749, 3.308341
1134.231, 3.558253
1134.713, 3.020125
1135.195, 2.354200
1135.677, 1.751163
1136.159, 1.829260
1136.641, 3.134361
1137.124, 4.749581
1137.606, 5.016774
1138.088, 4.301272
1138.570, 3.986109
1139.052, 3.962898
1139.534, 3.649355
1140.016, 3.005505
1140.498, 2.489450
1140.981, 2.313057
1141.463, 2.222538
1141.945, 1.908123
1142.427, 1.560075
1142.909, 1.424138
1143.391, 1.544600
1143.873, 2.391674
1144.355, 3.558982
1144.838, 3.530791
1145.320, 2.088826
1145.802, 0.8901472
1146.284, 1.054204
1146.766, 1.832888
1147.248, 2.803394
1147.730, 3.676437
1148.212, 4.178422
1148.694, 4.286359
1149.177, 3.736639
1149.659, 2.783178
1150.141, 2.351331
1150.623, 2.826627
1151.105, 3.515199
1151.587, 4.294012
1152.069, 4.779729
1152.551, 4.492445
1153.033, 3.966016
1153.516, 3.784393
1153.998, 3.786000
1154.480, 3.467690
1154.962, 2.769699
1155.444, 2.327715
1155.926, 2.408738
1156.408, 2.696508
1156.890, 3.443849
1157.373, 3.973125
1157.855, 3.572997
1158.337, 2.980980
1158.819, 3.304932
1159.301, 4.280592
1159.783, 4.391363
1160.265, 3.079371
1160.747, 2.057156
1161.229, 1.290763
1161.712, 1.028852
1162.194, 1.778479
1162.676, 2.504519
1163.158, 2.392848
1163.640, 2.846012
1164.122, 2.920880
1164.604, 2.727329
1165.086, 2.866302
1165.568, 2.124470
1166.051, 1.794302
1166.533, 2.100126
1167.015, 2.524269
1167.497, 2.868207
1167.979, 3.216576
1168.461, 3.687753
1168.943, 4.187322
1169.425, 4.441724
1169.908, 4.450448
1170.390, 4.109328
1170.872, 3.409482
1171.354, 2.660000
1171.836, 1.924330
1172.318, 1.621645
1172.800, 2.026567
1173.282, 2.775926
1173.765, 3.506779
1174.247, 4.068257
1174.729, 3.894177
1175.211, 3.163862
1175.693, 2.276101
1176.175, 1.453819
1176.657, 1.597153
1177.139, 2.860923
1177.621, 3.810350
1178.104, 3.312679
1178.586, 2.322631
1179.068, 1.816947
1179.550, 1.642554
1180.032, 1.811096
1180.514, 2.042950
1180.996, 1.644984
1181.478, 0.8305303
1181.960, 0.6701069
1182.443, 1.571453
1182.925, 2.584411
1183.407, 3.377986
1183.889, 3.826485
1184.371, 3.630286
1184.853, 3.271995
1185.335, 3.136602
1185.817, 3.150691
1186.300, 3.202244
1186.782, 3.248782
1187.264, 3.122403
1187.746, 2.657154
1188.228, 2.295801
1188.710, 2.021901
1189.192, 1.986457
1189.674, 2.441144
1190.156, 2.969382
1190.639, 3.313272
1191.121, 3.464226
1191.603, 3.363908
1192.085, 2.984669
1192.567, 2.750735
1193.049, 2.809737
1193.531, 2.516334
1194.013, 1.568273
1194.495, 0.9917460
1194.978, 1.252459
1195.460, 2.008371
1195.942, 3.062249
1196.424, 4.063548
1196.906, 3.662530
1197.388, 1.974242
1197.870, 1.657465
1198.352, 2.671594
1198.835, 3.395293
1199.317, 3.525765
1199.799, 3.920408
1200.281, 5.041338
1200.763, 5.887176
1201.245, 5.089739
1201.727, 3.569629
1202.209, 2.951996
1202.692, 2.891958
1203.174, 2.608924
1203.656, 2.240037
1204.138, 2.465123
1204.620, 3.286595
1205.102, 3.909646
1205.584, 3.956184
1206.066, 3.578238
1206.548, 2.424637
1207.031, 1.417427
1207.513, 1.332857
1207.995, 1.718936
1208.477, 2.323011
1208.959, 2.899344
1209.441, 2.989939
1209.923, 2.547879
1210.405, 2.253709
1210.887, 2.354068
1211.370, 2.477127
1211.852, 2.473821
1212.334, 2.597965
1212.816, 3.125642
1213.298, 3.661840
1213.780, 3.985842
1214.262, 4.019834
1214.744, 3.480271
1215.227, 2.266551
1215.709, 1.582811
1216.191, 1.502735
1216.673, 1.684906
1217.155, 2.146188
1217.637, 2.527761
1218.119, 2.648930
1218.601, 2.826724
1219.083, 3.467118
1219.566, 4.147432
1220.048, 3.619727
1220.530, 2.220787
1221.012, 1.523810
1221.494, 1.444555
1221.976, 1.310639
1222.458, 1.065517
1222.940, 1.220266
1223.422, 1.988491
1223.905, 2.789120
1224.387, 3.240225
1224.869, 3.283058
1225.351, 2.299646
1225.833, 1.342191
1226.315, 2.021005
1226.797, 3.470473
1227.279, 4.245826
1227.762, 4.197324
1228.244, 3.701205
1228.726, 2.692488
1229.208, 2.235847
1229.690, 3.630579
1230.172, 4.329745
1230.654, 2.434304
1231.136, 0.6461080
1231.619, 0.8942258
1232.101, 2.197628
1232.583, 3.538161
1233.065, 4.739355
1233.547, 4.555858
1234.029, 2.324232
1234.511, 0.9400136
1234.993, 0.4761690
1235.475, 0.6733866
1235.958, 1.626662
1236.440, 2.495472
1236.922, 2.796156
1237.404, 2.742459
1237.886, 2.590052
1238.368, 2.353796
1238.850, 1.929451
1239.332, 1.470658
1239.814, 1.855949
1240.297, 2.830832
1240.779, 2.929256
1241.261, 2.045163
1241.743, 1.708329
1242.225, 2.752196
1242.707, 3.812910
1243.189, 3.483035
1243.671, 2.852792
1244.154, 2.906726
1244.636, 3.187147
1245.118, 3.298445
1245.600, 3.207347
1246.082, 2.798451
1246.564, 2.177643
1247.046, 1.920468
1247.528, 2.201734
1248.010, 2.716325
1248.493, 4.229568
1248.975, 4.766687
1249.457, 2.735098
1249.939, 1.117521
1250.421, 1.962228
1250.903, 3.626248
1251.385, 3.863182
1251.867, 2.977899
1252.349, 2.721677
1252.832, 3.148295
1253.314, 3.599610
1253.796, 4.067588
1254.278, 3.834092
1254.760, 2.766886
1255.242, 2.230183
1255.724, 2.981414
1256.206, 3.850988
1256.689, 3.446230
1257.171, 2.483830
1257.653, 1.867460
1258.135, 1.705478
1258.617, 2.624190
1259.099, 3.958130
1259.581, 4.322906
1260.063, 3.687735
1260.546, 2.931674
1261.028, 2.343533
1261.510, 1.822559
1261.992, 0.9892803
1262.474, 0.6857210
1262.956, 1.941622
1263.438, 3.048358
1263.920, 2.516006
1264.402, 1.574232
1264.885, 1.904432
1265.367, 1.776441
1265.849, 1.878615
1266.331, 2.610031
1266.813, 2.532404
1267.295, 3.377231
1267.777, 3.744083
1268.259, 3.382820
1268.741, 2.812485
1269.224, 2.232260
1269.706, 1.836657
1270.188, 1.814217
1270.670, 2.073040
1271.152, 2.556602
1271.634, 3.129426
1272.116, 3.597780
1272.598, 3.847867
1273.081, 3.356906
1273.563, 2.451550
1274.045, 2.314340
1274.527, 3.202295
1275.009, 3.979222
1275.491, 4.114214
1275.973, 3.936418
1276.455, 3.317359
1276.938, 2.787288
1277.420, 2.738293
1277.902, 2.814238
1278.384, 2.676812
1278.866, 2.428791
1279.348, 2.245006
1279.830, 2.136124
1280.312, 2.446425
1280.794, 3.465337
1281.276, 3.675640
1281.759, 2.847241
1282.241, 2.112836
1282.723, 1.735937
1283.205, 1.938405
1283.687, 2.905835
1284.169, 3.933146
1284.651, 4.084193
1285.133, 3.733320
1285.616, 3.519293
1286.098, 3.441758
##END=



