##NAMES=Cahnite
##RRUFFID=R070182
##IDEAL CHEMISTRY=Ca_2_B(As^5+^O_4_)(OH)_4_
##LOCALITY=Vallerano Quarry, Vallerano, Rome, Rome Province, Latium, Italy
##OWNER=RRUFF
##SOURCE=Michael Scott
##DESCRIPTION=Pale yellow tetrahedra associated with colorless prismatic chabazite, botryoidal phillipsite, dark green prismatic augite, acicular apatite, calcite, akermanite, and calzirtite
##STATUS=The identification of this mineral is confirmed by single-crystal X-ray diffraction and chemical analysis.
##URL=rruff.info/R070182
##MEASURED CHEMISTRY=Ca_2.03_B(As_0.98_O_4_)(OH)_4_ ; The sample suffered some damage during the probework.
139.3331, 457.8400
139.8152, 457.7677
140.2973, 455.7363
140.7794, 454.2945
141.2615, 455.2014
141.7437, 457.8957
142.2258, 459.8011
142.7079, 459.1946
143.1900, 457.0499
143.6721, 455.6484
144.1542, 455.3716
144.6364, 455.5104
145.1185, 455.3341
145.6006, 454.7613
146.0827, 454.3704
146.5648, 454.6890
147.0469, 455.2809
147.5291, 455.6867
148.0112, 455.6560
148.4933, 455.4429
148.9754, 455.7460
149.4575, 457.2536
149.9396, 458.0343
150.4218, 456.8276
150.9039, 454.7971
151.3860, 453.5057
151.8681, 453.9450
152.3502, 455.9168
152.8323, 457.6502
153.3145, 458.9677
153.7966, 460.1888
154.2787, 461.4605
154.7608, 462.6879
155.2429, 463.7279
155.7250, 464.5059
156.2072, 465.0434
156.6893, 464.8328
157.1714, 462.6390
157.6535, 460.9598
158.1356, 461.2425
158.6177, 463.2165
159.0999, 465.3939
159.5820, 466.4073
160.0641, 466.0302
160.5462, 465.7175
161.0283, 465.1676
161.5104, 464.8753
161.9926, 465.4181
162.4747, 466.8549
162.9568, 468.3998
163.4389, 469.0847
163.9210, 468.9687
164.4031, 469.2046
164.8853, 470.0273
165.3674, 471.3040
165.8495, 472.9426
166.3316, 475.0802
166.8137, 477.1860
167.2958, 478.5604
167.7780, 479.4072
168.2601, 480.5233
168.7422, 482.3598
169.2243, 484.7938
169.7064, 487.3134
170.1885, 489.9095
170.6707, 492.5341
171.1528, 495.3281
171.6349, 498.1911
172.1170, 500.7491
172.5991, 502.9750
173.0812, 504.9164
173.5634, 505.5177
174.0455, 504.5510
174.5276, 502.1607
175.0097, 497.5402
175.4918, 491.1385
175.9739, 484.6362
176.4561, 479.9910
176.9382, 477.7734
177.4203, 475.4108
177.9024, 472.4150
178.3845, 469.6618
178.8666, 467.6673
179.3488, 466.4787
179.8309, 465.7719
180.3130, 465.1343
180.7951, 464.4926
181.2772, 464.1342
181.7593, 464.3542
182.2415, 464.6320
182.7236, 464.5841
183.2057, 464.1227
183.6878, 463.4190
184.1699, 462.7158
184.6520, 461.9659
185.1342, 461.3408
185.6163, 461.1255
186.0984, 460.9244
186.5805, 460.1259
187.0626, 458.5056
187.5447, 456.7802
188.0269, 456.3542
188.5090, 457.5865
188.9911, 458.3994
189.4732, 458.1561
189.9553, 457.2225
190.4374, 456.1691
190.9196, 455.0758
191.4017, 454.0669
191.8838, 453.2472
192.3659, 452.5715
192.8480, 452.2280
193.3301, 452.5423
193.8123, 453.3155
194.2944, 453.8068
194.7765, 453.7316
195.2586, 453.4082
195.7407, 453.1676
196.2228, 453.0099
196.7050, 452.9323
197.1871, 452.9388
197.6692, 453.0293
198.1513, 453.2079
198.6334, 453.7824
199.1155, 454.1654
199.5977, 453.7458
200.0798, 452.5510
200.5619, 451.4492
201.0440, 451.4384
201.5261, 452.7318
202.0082, 453.7081
202.4904, 453.8364
202.9725, 453.8339
203.4546, 454.1495
203.9367, 454.7907
204.4188, 455.3501
204.9009, 455.1463
205.3831, 453.6582
205.8652, 453.0400
206.3473, 454.0979
206.8294, 455.4091
207.3115, 456.0938
207.7936, 456.0476
208.2758, 455.8193
208.7579, 456.1802
209.2400, 457.3956
209.7221, 458.6663
210.2042, 459.9193
210.6863, 461.2573
211.1685, 462.8412
211.6506, 464.6636
212.1327, 466.5125
212.6148, 468.1471
213.0969, 469.8580
213.5790, 470.5183
214.0612, 469.0919
214.5433, 467.3339
215.0254, 466.7014
215.5075, 467.5138
215.9896, 468.9750
216.4717, 469.9888
216.9539, 470.3934
217.4360, 470.6488
217.9181, 470.8764
218.4002, 470.9026
218.8823, 470.5848
219.3644, 469.8890
219.8466, 468.7895
220.3287, 467.0627
220.8108, 464.4885
221.2929, 462.5177
221.7750, 461.7181
222.2571, 461.4836
222.7393, 461.0947
223.2214, 460.4028
223.7035, 459.5649
224.1856, 458.6850
224.6677, 457.7650
225.1498, 457.0659
225.6320, 456.9152
226.1141, 456.9656
226.5962, 456.5223
227.0783, 455.2907
227.5604, 454.1076
228.0425, 454.1258
228.5247, 455.0346
229.0068, 455.5114
229.4889, 454.6147
229.9710, 452.9676
230.4531, 451.9635
230.9352, 451.8487
231.4174, 452.1801
231.8995, 452.8759
232.3816, 453.7616
232.8637, 454.3234
233.3458, 454.1223
233.8279, 453.3873
234.3101, 452.8784
234.7922, 452.7492
235.2743, 452.6252
235.7564, 452.1674
236.2385, 451.5557
236.7206, 451.1644
237.2028, 451.3041
237.6849, 451.8413
238.1670, 452.2199
238.6491, 452.4462
239.1312, 452.4742
239.6133, 452.1454
240.0955, 451.6558
240.5776, 451.3246
241.0597, 451.3464
241.5418, 451.6758
242.0239, 452.1209
242.5060, 452.9042
242.9882, 453.4847
243.4703, 453.6311
243.9524, 453.5132
244.4345, 453.3332
244.9166, 453.1627
245.3987, 453.0695
245.8809, 453.4157
246.3630, 454.7751
246.8451, 455.8354
247.3272, 456.2474
247.8093, 456.2474
248.2914, 456.1175
248.7736, 456.0024
249.2557, 455.9021
249.7378, 455.8066
250.2199, 455.4579
250.7020, 455.4689
251.1841, 456.3244
251.6663, 457.4399
252.1484, 458.0839
252.6305, 457.9004
253.1126, 457.1516
253.5947, 456.6476
254.0768, 456.2829
254.5590, 456.3668
255.0411, 457.2228
255.5232, 458.4118
256.0053, 459.5463
256.4874, 460.4559
256.9695, 461.0848
257.4517, 461.2952
257.9338, 460.3209
258.4159, 459.8427
258.8980, 460.0237
259.3801, 460.6362
259.8622, 461.5035
260.3444, 462.5567
260.8265, 463.7206
261.3086, 464.8521
261.7907, 465.9115
262.2728, 467.0085
262.7549, 468.2385
263.2371, 469.4635
263.7192, 470.4067
264.2013, 471.0174
264.6834, 471.7065
265.1655, 473.1031
265.6476, 475.4977
266.1298, 478.0034
266.6119, 480.8515
267.0940, 483.6819
267.5761, 486.1745
268.0582, 488.2751
268.5403, 490.0662
269.0225, 491.7012
269.5046, 493.2416
269.9867, 494.0395
270.4688, 493.9185
270.9509, 493.1478
271.4330, 491.9202
271.9152, 490.2709
272.3973, 488.1486
272.8794, 485.3166
273.3615, 481.7143
273.8436, 478.8398
274.3257, 477.1925
274.8079, 475.9257
275.2900, 474.2583
275.7721, 472.1909
276.2542, 470.5142
276.7363, 469.9237
277.2184, 470.3448
277.7006, 470.5219
278.1827, 470.2697
278.6648, 469.9159
279.1469, 469.5536
279.6290, 469.2245
280.1111, 469.1901
280.5933, 469.5817
281.0754, 470.4493
281.5575, 471.7580
282.0396, 474.0433
282.5217, 476.1187
283.0038, 476.9494
283.4860, 476.7964
283.9681, 477.1238
284.4502, 478.9086
284.9323, 481.2991
285.4144, 482.5373
285.8965, 482.3817
286.3787, 481.7596
286.8608, 480.7902
287.3429, 479.6794
287.8250, 479.2858
288.3071, 480.2350
288.7892, 481.5504
289.2714, 481.8139
289.7535, 480.9695
290.2356, 479.8351
290.7177, 478.6875
291.1998, 477.5336
291.6819, 476.4586
292.1641, 475.6373
292.6462, 474.5681
293.1283, 472.3583
293.6104, 469.1758
294.0925, 466.5241
294.5746, 465.4129
295.0568, 465.1738
295.5389, 464.4514
296.0210, 462.9870
296.5031, 461.3492
296.9852, 459.8062
297.4673, 458.4263
297.9495, 457.5219
298.4316, 457.4943
298.9137, 457.8881
299.3958, 458.0523
299.8779, 457.9519
300.3600, 457.7159
300.8422, 457.2977
301.3243, 456.8182
301.8064, 456.5001
302.2885, 456.4174
302.7706, 456.4874
303.2527, 456.6351
303.7349, 456.8638
304.2170, 457.1385
304.6991, 457.5176
305.1812, 457.8956
305.6633, 458.1236
306.1454, 458.1524
306.6276, 458.1057
307.1097, 458.0482
307.5918, 457.9857
308.0739, 457.9904
308.5560, 457.9576
309.0381, 458.1473
309.5203, 458.9783
310.0024, 460.5480
310.4845, 461.8682
310.9666, 462.0446
311.4487, 461.3167
311.9308, 460.8083
312.4130, 460.5793
312.8951, 460.8918
313.3772, 462.2563
313.8593, 464.4874
314.3414, 466.3112
314.8235, 466.5005
315.3057, 465.8382
315.7878, 466.4665
316.2699, 468.8918
316.7520, 471.8153
317.2341, 474.3351
317.7162, 476.6049
318.1984, 478.9759
318.6805, 481.6451
319.1626, 484.4469
319.6447, 487.2096
320.1268, 489.9942
320.6089, 492.4509
321.0911, 494.7627
321.5732, 496.4942
322.0553, 496.9458
322.5374, 495.9683
323.0195, 493.6960
323.5016, 489.9421
323.9838, 484.6755
324.4659, 479.1798
324.9480, 473.4223
325.4301, 468.1064
325.9122, 464.2072
326.3943, 461.9454
326.8765, 460.0153
327.3586, 457.2171
327.8407, 453.8081
328.3228, 451.3260
328.8049, 450.3229
329.2870, 450.1244
329.7692, 450.2501
330.2513, 450.6502
330.7334, 450.6395
331.2155, 449.4003
331.6976, 447.5562
332.1797, 446.7443
332.6619, 447.4867
333.1440, 448.2671
333.6261, 447.4642
334.1082, 445.7054
334.5903, 444.4775
335.0724, 444.6582
335.5546, 445.3975
336.0367, 445.4699
336.5188, 444.7823
337.0009, 444.4218
337.4830, 445.5976
337.9651, 447.3181
338.4473, 447.6040
338.9294, 445.3878
339.4115, 443.0601
339.8936, 442.8755
340.3757, 444.5216
340.8578, 445.5871
341.3400, 444.8773
341.8221, 443.4644
342.3042, 443.0791
342.7863, 443.8954
343.2684, 444.6693
343.7505, 444.5459
344.2327, 443.9380
344.7148, 443.9193
345.1969, 444.8504
345.6790, 446.0431
346.1611, 446.6531
346.6432, 446.7789
347.1254, 447.0215
347.6075, 447.6532
348.0896, 448.4269
348.5717, 449.0501
349.0538, 449.5001
349.5359, 449.8291
350.0181, 450.0180
350.5002, 450.1111
350.9823, 450.3111
351.4644, 450.7040
351.9465, 451.1411
352.4286, 451.4948
352.9108, 451.7930
353.3929, 452.2144
353.8750, 452.9321
354.3571, 453.7321
354.8392, 454.0272
355.3214, 453.4945
355.8035, 453.2447
356.2856, 453.9095
356.7677, 455.0815
357.2498, 455.9531
357.7319, 456.2437
358.2141, 456.4873
358.6962, 457.5270
359.1783, 459.5293
359.6604, 461.2590
360.1425, 462.6346
360.6246, 463.6534
361.1068, 463.9784
361.5889, 463.6912
362.0710, 463.8452
362.5531, 465.5117
363.0352, 468.6571
363.5173, 470.7635
363.9995, 470.9036
364.4816, 471.0389
364.9637, 472.1967
365.4458, 474.1002
365.9279, 475.9088
366.4100, 477.1370
366.8922, 478.0830
367.3743, 479.7256
367.8564, 482.5272
368.3385, 485.3134
368.8206, 488.2025
369.3027, 490.8878
369.7849, 492.8813
370.2670, 494.0655
370.7491, 494.9297
371.2312, 496.1754
371.7133, 498.0704
372.1954, 499.4700
372.6776, 500.0175
373.1597, 500.4061
373.6418, 501.2121
374.1239, 502.3177
374.6060, 503.0714
375.0881, 502.8771
375.5703, 501.7818
376.0524, 501.3900
376.5345, 502.9103
377.0166, 503.7439
377.4987, 503.0533
377.9808, 501.3766
378.4630, 499.3350
378.9451, 497.2078
379.4272, 495.2857
379.9093, 494.3495
380.3914, 495.5060
380.8735, 495.7848
381.3557, 494.4375
381.8378, 492.7268
382.3199, 491.5479
382.8020, 491.0325
383.2841, 490.7749
383.7662, 490.2585
384.2484, 489.3537
384.7305, 489.0777
385.2126, 490.0826
385.6947, 491.1099
386.1768, 491.8426
386.6589, 492.2884
387.1411, 492.4998
387.6232, 492.4520
388.1053, 492.2823
388.5874, 492.4346
389.0695, 492.7293
389.5516, 493.7460
390.0338, 496.2830
390.5159, 499.1358
390.9980, 501.1529
391.4801, 502.0239
391.9622, 502.3872
392.4443, 503.1531
392.9265, 504.4388
393.4086, 505.0183
393.8907, 504.6782
394.3728, 503.5699
394.8549, 501.6126
395.3370, 498.9454
395.8192, 496.0418
396.3013, 493.2102
396.7834, 490.3677
397.2655, 487.1993
397.7476, 483.5551
398.2297, 479.9922
398.7119, 476.6753
399.1940, 473.6432
399.6761, 471.0180
400.1582, 468.8628
400.6403, 467.0403
401.1224, 465.2573
401.6046, 463.5409
402.0867, 462.7112
402.5688, 463.5014
403.0509, 464.7504
403.5330, 465.1043
404.0151, 464.5634
404.4973, 463.7030
404.9794, 462.6286
405.4615, 461.4384
405.9436, 460.1830
406.4257, 458.8244
406.9078, 457.8254
407.3900, 457.7395
407.8721, 458.4085
408.3542, 458.8918
408.8363, 459.0576
409.3184, 459.0871
409.8005, 458.9582
410.2827, 458.7602
410.7648, 458.7538
411.2469, 459.0078
411.7290, 459.6071
412.2111, 460.9244
412.6932, 463.5187
413.1754, 465.3408
413.6575, 465.5679
414.1396, 465.1038
414.6217, 464.7607
415.1038, 464.7171
415.5859, 464.9914
416.0681, 465.7135
416.5502, 466.9872
417.0323, 467.4165
417.5144, 466.1382
417.9965, 465.0560
418.4786, 464.8802
418.9608, 465.4727
419.4429, 466.6675
419.9250, 468.4300
420.4071, 470.2967
420.8892, 470.9257
421.3713, 468.9933
421.8535, 467.7999
422.3356, 467.6909
422.8177, 468.1218
423.2998, 468.8180
423.7819, 469.6611
424.2640, 470.4987
424.7462, 471.1428
425.2283, 471.5693
425.7104, 472.1845
426.1925, 472.7832
426.6746, 473.8346
427.1567, 475.9964
427.6389, 478.5758
428.1210, 480.3945
428.6031, 480.7890
429.0852, 480.5673
429.5673, 481.4137
430.0494, 483.6241
430.5316, 485.8334
431.0137, 487.8244
431.4958, 489.6329
431.9779, 491.2430
432.4600, 492.6637
432.9421, 493.9334
433.4243, 495.0497
433.9064, 496.0323
434.3885, 496.9406
434.8706, 497.7068
435.3527, 498.5731
435.8348, 500.1514
436.3170, 501.8696
436.7991, 502.6643
437.2812, 501.9259
437.7633, 500.6697
438.2454, 499.7520
438.7275, 499.1339
439.2097, 498.5892
439.6918, 498.0669
440.1739, 497.5497
440.6560, 496.8942
441.1381, 496.0253
441.6202, 495.6449
442.1024, 496.3409
442.5845, 497.4122
443.0666, 498.1439
443.5487, 498.4542
444.0308, 498.3924
444.5129, 497.8860
444.9951, 497.0185
445.4772, 496.5620
445.9593, 497.5970
446.4414, 497.7444
446.9235, 495.8018
447.4056, 492.6576
447.8878, 489.5641
448.3699, 486.9568
448.8520, 484.6449
449.3341, 482.3406
449.8162, 480.0948
450.2983, 477.7194
450.7805, 475.2351
451.2626, 472.6318
451.7447, 469.7635
452.2268, 466.7574
452.7089, 463.8815
453.1910, 461.3235
453.6732, 459.0499
454.1553, 456.9413
454.6374, 454.9540
455.1195, 453.2281
455.6016, 451.8829
456.0837, 450.7067
456.5659, 449.5407
457.0480, 448.3429
457.5301, 447.1847
458.0122, 446.1458
458.4943, 445.2201
458.9764, 444.3139
459.4586, 443.4170
459.9407, 442.5543
460.4228, 441.7751
460.9049, 441.0315
461.3870, 440.2137
461.8691, 439.2067
462.3513, 438.2391
462.8334, 437.6217
463.3155, 437.3448
463.7976, 437.1844
464.2797, 437.2438
464.7618, 437.1788
465.2440, 436.4383
465.7261, 435.0087
466.2082, 433.7862
466.6903, 433.0406
467.1724, 432.6747
467.6545, 432.7516
468.1367, 433.2310
468.6188, 433.5212
469.1009, 433.1624
469.5830, 432.3086
470.0651, 431.7379
470.5472, 431.5822
471.0294, 431.5006
471.5115, 431.4237
471.9936, 431.3651
472.4757, 431.4256
472.9578, 431.6044
473.4399, 431.6295
473.9221, 431.1280
474.4042, 429.9573
474.8863, 429.0841
475.3684, 428.6696
475.8505, 428.3341
476.3326, 428.0723
476.8148, 427.7677
477.2969, 427.1611
477.7790, 426.1139
478.2611, 424.9720
478.7432, 424.5292
479.2253, 425.0354
479.7075, 425.5445
480.1896, 426.1966
480.6717, 426.6247
481.1538, 426.4688
481.6359, 425.8467
482.1180, 425.2794
482.6002, 425.1966
483.0823, 425.4004
483.5644, 425.2249
484.0465, 424.4848
484.5286, 424.0748
485.0107, 424.9765
485.4929, 426.1114
485.9750, 426.0562
486.4571, 424.4494
486.9392, 422.7930
487.4213, 421.9520
487.9034, 421.7206
488.3856, 421.7061
488.8677, 421.8663
489.3498, 422.0919
489.8319, 422.3720
490.3140, 422.6595
490.7961, 422.5912
491.2783, 421.8326
491.7604, 421.0759
492.2425, 420.5263
492.7246, 420.2185
493.2067, 420.3182
493.6888, 420.8842
494.1710, 421.5174
494.6531, 421.5758
495.1352, 420.8344
495.6173, 420.2079
496.0994, 419.4273
496.5815, 418.9996
497.0637, 419.5378
497.5458, 420.5981
498.0279, 421.2168
498.5100, 420.8226
498.9921, 419.8039
499.4742, 419.1062
499.9564, 418.7646
500.4385, 418.6647
500.9206, 419.2299
501.4027, 419.6774
501.8848, 419.4281
502.3669, 418.5450
502.8491, 417.5718
503.3312, 416.7472
503.8133, 416.1326
504.2954, 416.0098
504.7775, 416.5065
505.2596, 416.8874
505.7418, 416.6407
506.2239, 416.1817
506.7060, 416.1673
507.1881, 416.7672
507.6702, 417.2357
508.1523, 417.0123
508.6345, 416.4774
509.1166, 416.4046
509.5987, 416.9101
510.0808, 417.1377
510.5629, 416.1130
511.0450, 414.0705
511.5272, 413.6388
512.0093, 416.8407
512.4914, 419.0258
512.9735, 418.0557
513.4556, 415.6164
513.9377, 413.8773
514.4199, 413.4462
514.9020, 413.5796
515.3841, 413.3643
515.8662, 412.7230
516.3483, 412.2781
516.8304, 411.9488
517.3126, 411.9214
517.7947, 412.6014
518.2768, 413.5158
518.7589, 413.9510
519.2410, 413.6097
519.7231, 412.9334
520.2053, 412.5433
520.6874, 412.4617
521.1695, 412.3462
521.6516, 412.1582
522.1337, 411.9147
522.6158, 411.6096
523.0980, 411.2622
523.5801, 410.9270
524.0622, 410.6294
524.5443, 410.3487
525.0264, 409.9556
525.5085, 409.5132
525.9907, 409.5476
526.4728, 410.4703
526.9549, 411.4372
527.4370, 410.9749
527.9191, 408.7569
528.4012, 407.2879
528.8834, 407.1311
529.3655, 407.5288
529.8476, 408.2182
530.3297, 409.0279
530.8118, 409.6205
531.2939, 409.8060
531.7761, 409.7141
532.2582, 409.6733
532.7403, 409.7217
533.2224, 409.7409
533.7045, 409.6052
534.1866, 409.5418
534.6688, 409.7091
535.1509, 410.0705
535.6330, 410.4608
536.1151, 410.7256
536.5972, 411.0097
537.0793, 411.8977
537.5615, 413.6979
538.0436, 414.8008
538.5257, 414.0739
539.0078, 412.9649
539.4899, 412.7715
539.9720, 413.5008
540.4542, 414.3015
540.9363, 414.9380
541.4184, 415.3184
541.9005, 415.3346
542.3826, 414.9805
542.8647, 414.1375
543.3469, 412.5337
543.8290, 410.6080
544.3111, 409.5562
544.7932, 409.7455
545.2753, 409.7970
545.7574, 409.1725
546.2396, 408.5763
546.7217, 408.8644
547.2038, 409.8535
547.6859, 410.5057
548.1680, 410.0415
548.6501, 408.7614
549.1323, 408.0168
549.6144, 408.1653
550.0965, 408.2509
550.5786, 408.0820
551.0607, 407.8859
551.5428, 407.9688
552.0250, 408.2480
552.5071, 408.2238
552.9892, 407.3670
553.4713, 405.9933
553.9534, 405.0171
554.4355, 404.4954
554.9177, 404.1119
555.3998, 403.9347
555.8819, 403.6812
556.3640, 402.7924
556.8461, 401.1112
557.3282, 400.0468
557.8104, 400.8739
558.2925, 402.1757
558.7746, 402.0249
559.2567, 400.4950
559.7388, 399.2589
560.2209, 399.4168
560.7031, 400.4238
561.1852, 400.5359
561.6673, 398.5095
562.1494, 397.3372
562.6315, 397.5959
563.1136, 398.2999
563.5958, 398.9682
564.0779, 399.4335
564.5600, 399.5114
565.0421, 399.0425
565.5242, 398.1462
566.0063, 397.1028
566.4885, 395.6539
566.9706, 394.8265
567.4527, 395.6215
567.9348, 396.5646
568.4169, 396.5085
568.8990, 395.5378
569.3812, 394.6979
569.8633, 394.7078
570.3454, 395.0797
570.8275, 395.0762
571.3096, 394.7224
571.7917, 394.4666
572.2739, 394.5177
572.7560, 394.7338
573.2381, 394.8886
573.7202, 395.0168
574.2023, 394.9690
574.6844, 394.4963
575.1666, 394.0492
575.6487, 393.9663
576.1308, 394.1704
576.6129, 394.4042
577.0950, 394.5336
577.5771, 394.6233
578.0593, 394.8579
578.5414, 395.4017
579.0235, 395.6349
579.5056, 395.2788
579.9877, 394.8280
580.4698, 394.5281
580.9520, 394.3022
581.4341, 393.8878
581.9162, 393.0300
582.3983, 392.2227
582.8804, 392.2978
583.3625, 393.1564
583.8447, 393.7451
584.3268, 393.8095
584.8089, 393.5631
585.2910, 393.0385
585.7731, 392.2974
586.2552, 391.9994
586.7374, 392.6987
587.2195, 393.3374
587.7016, 393.4597
588.1837, 393.1249
588.6658, 392.2121
589.1479, 390.7472
589.6301, 389.5175
590.1122, 389.5998
590.5943, 391.1898
591.0764, 392.2157
591.5585, 392.1974
592.0406, 392.1513
592.5228, 392.4309
593.0049, 392.7549
593.4870, 392.7940
593.9691, 392.4627
594.4512, 391.8859
594.9333, 390.9153
595.4155, 389.7489
595.8976, 389.3032
596.3797, 389.7056
596.8618, 390.5336
597.3439, 392.0128
597.8260, 393.5542
598.3082, 393.7291
598.7903, 391.9302
599.2724, 390.3129
599.7545, 389.7085
600.2366, 389.5421
600.7188, 389.1758
601.2009, 388.6011
601.6830, 388.2575
602.1651, 388.4834
602.6472, 389.0580
603.1293, 389.1286
603.6115, 388.2273
604.0936, 387.6830
604.5757, 387.7881
605.0578, 388.0555
605.5399, 388.2610
606.0220, 388.3691
606.5042, 388.3872
606.9863, 388.3245
607.4684, 388.1660
607.9505, 387.7901
608.4326, 387.2078
608.9147, 386.9032
609.3969, 387.0821
609.8790, 387.4326
610.3611, 387.6240
610.8432, 387.6732
611.3253, 387.7699
611.8074, 387.9028
612.2896, 388.1210
612.7717, 388.6425
613.2538, 389.2119
613.7359, 389.3300
614.2180, 388.8730
614.7001, 388.2604
615.1823, 388.0404
615.6644, 388.2563
616.1465, 387.9106
616.6286, 386.3172
617.1107, 385.1130
617.5928, 384.9230
618.0750, 385.1790
618.5571, 385.4178
619.0392, 385.5272
619.5213, 385.3333
620.0034, 384.1893
620.4855, 382.7743
620.9677, 383.0388
621.4498, 385.1344
621.9319, 386.4685
622.4140, 385.4830
622.8961, 383.2696
623.3782, 382.1875
623.8604, 382.6316
624.3425, 382.8037
624.8246, 382.2925
625.3067, 381.6374
625.7888, 380.9216
626.2709, 380.3815
626.7531, 380.5782
627.2352, 381.8039
627.7173, 383.4149
628.1994, 384.1772
628.6815, 383.9111
629.1636, 383.8234
629.6458, 384.3839
630.1279, 384.5777
630.6100, 383.4614
631.0921, 381.7802
631.5742, 380.9207
632.0563, 381.4224
632.5385, 382.1910
633.0206, 382.4348
633.5027, 382.3887
633.9848, 382.6667
634.4669, 383.3384
634.9490, 383.5900
635.4312, 382.6949
635.9133, 380.9866
636.3954, 380.0355
636.8775, 380.5473
637.3596, 380.9078
637.8417, 380.8793
638.3239, 380.8389
638.8060, 381.1736
639.2881, 381.7558
639.7702, 382.1239
640.2523, 381.9926
640.7344, 381.5188
641.2166, 380.8427
641.6987, 379.9295
642.1808, 379.6164
642.6629, 380.3806
643.1450, 381.2713
643.6271, 381.4470
644.1093, 381.0429
644.5914, 380.4699
645.0735, 379.3267
645.5556, 378.5515
646.0377, 378.9464
646.5198, 379.8272
647.0020, 380.2143
647.4841, 379.9328
647.9662, 379.3849
648.4483, 378.8971
648.9304, 378.4749
649.4125, 378.1205
649.8947, 377.7183
650.3768, 377.6165
650.8589, 378.1757
651.3410, 378.7991
651.8231, 379.1128
652.3052, 379.1023
652.7874, 378.8970
653.2695, 378.4611
653.7516, 377.9564
654.2337, 377.5607
654.7158, 377.2678
655.1979, 377.0632
655.6801, 376.9500
656.1622, 376.8763
656.6443, 376.7746
657.1264, 376.6385
657.6085, 376.6149
658.0906, 376.4120
658.5728, 376.6651
659.0549, 378.3302
659.5370, 380.0446
660.0191, 380.1999
660.5012, 378.7256
660.9833, 377.0010
661.4655, 376.1697
661.9476, 375.9366
662.4297, 375.2520
662.9118, 373.9738
663.3939, 373.4432
663.8760, 374.4762
664.3582, 375.9471
664.8403, 376.6037
665.3224, 376.5039
665.8045, 375.9691
666.2866, 374.4048
666.7687, 373.0916
667.2509, 372.7758
667.7330, 373.1816
668.2151, 374.0547
668.6972, 375.2326
669.1793, 376.1535
669.6614, 376.1832
670.1436, 375.3874
670.6257, 374.7172
671.1078, 374.1772
671.5899, 373.7488
672.0720, 373.3864
672.5541, 373.1603
673.0363, 373.0929
673.5184, 373.2000
674.0005, 373.5784
674.4826, 374.8055
674.9647, 375.8943
675.4468, 375.6544
675.9290, 374.4479
676.4111, 373.3020
676.8932, 372.5311
677.3753, 372.1259
677.8574, 372.1205
678.3395, 372.5320
678.8217, 372.9198
679.3038, 373.5945
679.7859, 373.8305
680.2680, 372.9309
680.7501, 371.9349
681.2322, 372.0090
681.7144, 373.0993
682.1965, 373.9416
682.6786, 373.4999
683.1607, 372.4554
683.6428, 371.7954
684.1249, 371.5201
684.6071, 371.7867
685.0892, 372.7921
685.5713, 373.7822
686.0534, 373.8132
686.5355, 372.8029
687.0176, 372.2493
687.4998, 372.9353
687.9819, 373.0528
688.4640, 371.3798
688.9461, 369.4034
689.4282, 368.7391
689.9103, 369.4760
690.3925, 370.4907
690.8746, 371.0083
691.3567, 371.1416
691.8388, 371.0654
692.3209, 370.7678
692.8030, 370.6642
693.2852, 370.9951
693.7673, 371.3078
694.2494, 370.9852
694.7315, 370.0995
695.2136, 369.7555
695.6957, 370.5597
696.1779, 371.2259
696.6600, 371.1515
697.1421, 370.8051
697.6242, 370.7144
698.1063, 370.9333
698.5884, 371.1902
699.0706, 371.2711
699.5527, 371.2537
700.0348, 371.4085
700.5169, 371.7911
700.9990, 371.9791
701.4811, 371.8712
701.9633, 371.5731
702.4454, 370.9931
702.9275, 370.2694
703.4096, 369.8942
703.8917, 370.2731
704.3738, 370.5396
704.8560, 370.1265
705.3381, 369.5212
705.8202, 369.2392
706.3023, 369.3651
706.7844, 369.8989
707.2665, 370.9196
707.7487, 372.0576
708.2308, 372.0627
708.7129, 370.4976
709.1950, 369.9085
709.6771, 371.2743
710.1592, 372.7724
710.6414, 373.2836
711.1235, 373.0775
711.6056, 372.6088
712.0877, 371.6402
712.5698, 371.1596
713.0519, 372.3501
713.5341, 373.8669
714.0162, 373.9665
714.4983, 372.7466
714.9804, 371.3823
715.4625, 370.5193
715.9446, 370.0391
716.4268, 369.6919
716.9089, 369.4733
717.3910, 369.4247
717.8731, 369.7765
718.3552, 369.9769
718.8373, 369.5094
719.3195, 368.8430
719.8016, 368.7729
720.2837, 369.5584
720.7658, 370.0580
721.2479, 369.2066
721.7300, 368.1636
722.2122, 368.4278
722.6943, 369.6818
723.1764, 370.5364
723.6585, 370.3827
724.1406, 369.7881
724.6227, 369.6232
725.1049, 369.9456
725.5870, 370.1207
726.0691, 369.9419
726.5512, 369.9524
727.0333, 370.5221
727.5154, 371.2484
727.9976, 371.7049
728.4797, 371.8591
728.9618, 372.0387
729.4439, 372.3419
729.9260, 372.7591
730.4081, 373.2881
730.8903, 373.9220
731.3724, 374.6916
731.8545, 375.5941
732.3366, 376.4657
732.8187, 377.1307
733.3008, 377.6048
733.7830, 378.0670
734.2651, 378.4428
734.7472, 378.9709
735.2293, 379.6665
735.7114, 380.5745
736.1935, 381.8246
736.6757, 383.3409
737.1578, 384.8026
737.6399, 385.9464
738.1220, 387.2270
738.6041, 389.1059
739.0862, 391.2519
739.5684, 392.9234
740.0505, 394.1439
740.5326, 395.8467
741.0147, 398.7607
741.4968, 402.5008
741.9789, 405.8936
742.4611, 408.7838
742.9432, 411.9004
743.4253, 415.6040
743.9074, 419.1517
744.3895, 421.9326
744.8716, 424.3277
745.3538, 427.0493
745.8359, 430.2694
746.3180, 433.6215
746.8001, 437.0829
747.2822, 440.4720
747.7643, 443.7440
748.2465, 446.7778
748.7286, 449.2072
749.2107, 450.8560
749.6928, 452.3331
750.1749, 454.6989
750.6570, 458.0313
751.1392, 460.6559
751.6213, 462.3505
752.1034, 463.8799
752.5855, 465.7304
753.0676, 467.4259
753.5497, 468.3654
754.0319, 468.5265
754.5140, 468.4278
754.9961, 468.0266
755.4782, 467.5677
755.9603, 467.4288
756.4424, 467.2333
756.9246, 466.4137
757.4067, 464.8499
757.8888, 462.7811
758.3709, 460.3735
758.8530, 457.6249
759.3351, 454.5221
759.8173, 451.0655
760.2994, 447.3445
760.7815, 443.3575
761.2636, 439.1938
761.7457, 434.7534
762.2278, 430.1967
762.7100, 426.2220
763.1921, 423.1525
763.6742, 420.2160
764.1563, 416.8823
764.6384, 413.9260
765.1205, 412.1864
765.6027, 411.3627
766.0848, 410.6460
766.5669, 409.6805
767.0490, 408.3368
767.5311, 406.1178
768.0132, 403.2802
768.4954, 401.3126
768.9775, 400.3617
769.4596, 399.7731
769.9417, 399.2828
770.4238, 398.8952
770.9059, 398.6158
771.3881, 398.4437
771.8702, 398.3990
772.3523, 398.6417
772.8344, 398.8135
773.3165, 398.7466
773.7986, 398.5684
774.2808, 398.2231
774.7629, 397.8301
775.2450, 398.0106
775.7271, 399.4962
776.2092, 401.4852
776.6913, 402.7090
777.1735, 403.3702
777.6556, 404.3327
778.1377, 405.8077
778.6198, 407.3396
779.1019, 408.4977
779.5840, 409.4071
780.0662, 410.7026
780.5483, 412.5294
781.0304, 414.4731
781.5125, 416.7489
781.9946, 418.8817
782.4767, 420.6353
782.9589, 422.0895
783.4410, 423.3753
783.9231, 424.5049
784.4052, 425.6061
784.8873, 426.6447
785.3694, 427.7748
785.8516, 429.6136
786.3337, 431.7481
786.8158, 432.7181
787.2979, 431.9488
787.7800, 430.3136
788.2621, 428.9063
788.7443, 427.7217
789.2264, 426.2531
789.7085, 424.2695
790.1906, 422.6807
790.6727, 422.2041
791.1548, 421.7712
791.6370, 420.0527
792.1191, 417.2799
792.6012, 415.1519
793.0833, 414.3282
793.5654, 413.6595
794.0475, 412.8781
794.5297, 411.9328
795.0118, 410.7323
795.4939, 409.3089
795.9760, 407.7431
796.4581, 406.0432
796.9402, 404.4442
797.4224, 403.4214
797.9045, 402.8629
798.3866, 402.0679
798.8687, 400.9818
799.3508, 399.6149
799.8329, 397.8506
800.3151, 395.9977
800.7972, 394.6783
801.2793, 394.0558
801.7614, 393.3128
802.2435, 392.2839
802.7256, 391.3492
803.2078, 390.5312
803.6899, 389.9217
804.1720, 389.7216
804.6541, 389.8728
805.1362, 389.9308
805.6183, 389.6760
806.1005, 389.2081
806.5826, 388.5859
807.0647, 387.8424
807.5468, 386.9912
808.0289, 386.0586
808.5110, 385.2329
808.9932, 384.6380
809.4753, 384.2657
809.9574, 384.0739
810.4395, 384.0338
810.9216, 384.3562
811.4037, 385.4242
811.8859, 386.2271
812.3680, 385.8277
812.8501, 385.0589
813.3322, 385.3029
813.8143, 386.8356
814.2964, 387.7393
814.7786, 386.9226
815.2607, 386.0552
815.7428, 386.0400
816.2249, 386.6164
816.7070, 387.5119
817.1891, 388.5698
817.6713, 389.4294
818.1534, 389.6117
818.6355, 389.7308
819.1176, 391.1615
819.5997, 393.7318
820.0818, 396.0575
820.5640, 397.8624
821.0461, 399.7030
821.5282, 401.9761
822.0103, 404.5651
822.4924, 407.0672
822.9745, 409.2205
823.4567, 411.9179
823.9388, 415.5800
824.4209, 419.3169
824.9030, 422.2271
825.3851, 425.3622
825.8672, 430.0424
826.3494, 436.4732
826.8315, 443.8799
827.3136, 452.2576
827.7957, 461.1386
828.2778, 470.4512
828.7599, 479.8345
829.2421, 488.2263
829.7242, 495.7152
830.2063, 504.0785
830.6884, 514.8066
831.1705, 527.1003
831.6526, 538.9167
832.1348, 550.1395
832.6169, 562.2643
833.0990, 575.1502
833.5811, 589.8452
834.0632, 606.7883
834.5453, 626.1064
835.0275, 648.5656
835.5096, 674.6777
835.9917, 702.3220
836.4738, 729.9636
836.9559, 761.0182
837.4380, 796.6651
837.9202, 836.5186
838.4023, 880.9612
838.8844, 929.5580
839.3665, 980.4997
839.8486, 1035.833
840.3307, 1089.799
840.8129, 1140.095
841.2950, 1183.548
841.7771, 1215.127
842.2592, 1233.292
842.7413, 1235.094
843.2234, 1218.457
843.7056, 1185.330
844.1877, 1137.067
844.6698, 1072.737
845.1519, 1007.385
845.6340, 940.0510
846.1161, 876.3273
846.5983, 817.3604
847.0804, 764.0266
847.5625, 717.7158
848.0446, 678.4626
848.5267, 643.1545
849.0089, 611.5481
849.4910, 584.0753
849.9731, 561.5834
850.4552, 542.5761
850.9373, 526.4244
851.4194, 512.4955
851.9016, 499.5289
852.3837, 486.7727
852.8658, 475.3055
853.3479, 466.3894
853.8300, 459.1869
854.3121, 452.5231
854.7943, 446.2174
855.2764, 439.8775
855.7585, 433.3631
856.2406, 427.5761
856.7227, 424.0221
857.2048, 422.4413
857.6870, 418.8234
858.1691, 412.4279
858.6512, 407.0179
859.1333, 403.7897
859.6154, 401.3987
860.0975, 398.8322
860.5797, 396.1085
861.0618, 393.3197
861.5439, 390.5647
862.0260, 387.5939
862.5081, 383.7775
862.9902, 380.3348
863.4724, 378.2233
863.9545, 376.8919
864.4366, 375.3636
864.9187, 373.3973
865.4008, 371.5422
865.8829, 370.1001
866.3651, 368.9989
866.8472, 368.5009
867.3293, 368.2015
867.8114, 366.9108
868.2935, 364.5107
868.7756, 362.2658
869.2578, 361.1911
869.7399, 360.7660
870.2220, 359.6676
870.7041, 357.8586
871.1862, 356.1425
871.6683, 354.5591
872.1505, 353.1267
872.6326, 351.6919
873.1147, 350.6182
873.5968, 350.6788
874.0789, 352.2352
874.5610, 352.9593
875.0432, 352.6810
875.5253, 351.8363
876.0074, 350.0367
876.4895, 348.0991
876.9716, 346.5614
877.4537, 345.4908
877.9359, 344.8686
878.4180, 344.7998
878.9001, 344.8970
879.3822, 345.2803
879.8643, 345.4456
880.3464, 344.5237
880.8286, 342.9001
881.3107, 341.7281
881.7928, 341.4106
882.2749, 341.3322
882.7570, 340.8141
883.2391, 340.4758
883.7213, 340.1210
884.2034, 339.4813
884.6855, 339.1581
885.1676, 338.4867
885.6497, 337.6949
886.1318, 336.9171
886.6140, 336.1992
887.0961, 335.7098
887.5782, 335.5369
888.0603, 335.3613
888.5424, 335.1397
889.0245, 334.9711
889.5067, 334.9959
889.9888, 335.0303
890.4709, 334.7823
890.9530, 334.2458
891.4351, 333.9498
891.9172, 334.3809
892.3994, 334.5977
892.8815, 333.7755
893.3636, 332.8941
893.8457, 333.1734
894.3278, 334.2697
894.8099, 334.9057
895.2921, 334.5141
895.7742, 333.7656
896.2563, 333.3717
896.7384, 333.0047
897.2205, 331.7432
897.7026, 329.9417
898.1848, 329.2886
898.6669, 330.2530
899.1490, 331.3353
899.6311, 331.0013
900.1132, 329.7169
900.5953, 329.3717
901.0775, 330.0877
901.5596, 330.1273
902.0417, 328.7785
902.5238, 332.9965
903.0059, 332.2207
903.4880, 331.2594
903.9702, 330.1553
904.4523, 329.3848
904.9344, 328.9424
905.4165, 327.7187
905.8986, 328.3438
906.3807, 327.7549
906.8629, 327.3589
907.3450, 326.3958
907.8271, 326.0556
908.3092, 325.8660
908.7913, 325.8534
909.2734, 325.7847
909.7556, 325.4255
910.2377, 325.0797
910.7198, 325.1375
911.2019, 325.3888
911.6840, 325.2354
912.1661, 324.5755
912.6483, 324.2552
913.1304, 325.3620
913.6125, 326.8976
914.0946, 327.2035
914.5767, 326.5501
915.0588, 325.6027
915.5410, 324.5521
916.0231, 323.9318
916.5052, 324.0937
916.9873, 324.7854
917.4694, 325.6776
917.9515, 326.7999
918.4337, 327.2372
918.9158, 326.8737
919.3979, 326.2929
919.8800, 325.5489
920.3621, 324.9453
920.8442, 324.8158
921.3264, 325.1317
921.8085, 325.5912
922.2906, 326.1146
922.7727, 326.9232
923.2548, 329.1266
923.7369, 330.4152
924.2191, 328.7573
924.7012, 325.9227
925.1833, 324.7431
925.6654, 325.6098
926.1475, 326.1948
926.6296, 325.4044
927.1118, 324.6439
927.5939, 324.7473
928.0760, 325.1633
928.5581, 325.2087
929.0402, 324.9660
929.5223, 324.9996
930.0045, 325.5887
930.4866, 326.2922
930.9687, 326.8237
931.4508, 327.1457
931.9329, 326.9759
932.4150, 326.5489
932.8972, 326.6791
933.3793, 327.5382
933.8614, 328.4723
934.3435, 328.9572
934.8256, 329.0174
935.3077, 328.4694
935.7899, 327.3975
936.2720, 327.1168
936.7541, 327.8233
937.2362, 328.7233
937.7183, 329.4907
938.2004, 330.0437
938.6826, 330.2007
939.1647, 329.9474
939.6468, 329.9826
940.1289, 330.2572
940.6110, 330.9862
941.0931, 332.7803
941.5753, 334.2905
942.0574, 334.4650
942.5395, 333.6551
943.0216, 332.7446
943.5037, 331.4628
943.9858, 330.9236
944.4680, 331.6948
944.9501, 332.6405
945.4322, 333.6654
945.9143, 334.4273
946.3964, 334.4634
946.8785, 333.8941
947.3607, 333.3761
947.8428, 333.0805
948.3249, 332.9627
948.8070, 333.2394
949.2891, 333.4736
949.7712, 333.2335
950.2534, 332.6281
950.7355, 331.9050
951.2176, 331.1445
951.6997, 330.3178
952.1818, 329.2192
952.6639, 328.2867
953.1461, 328.4511
953.6282, 329.1659
954.1103, 328.9911
954.5924, 327.9319
955.0745, 327.1888
955.5566, 327.3625
956.0388, 327.6967
956.5209, 327.1226
957.0030, 325.8145
957.4851, 324.6279
957.9672, 323.5572
958.4493, 322.4439
958.9315, 321.2044
959.4136, 320.3351
959.8957, 320.3268
960.3778, 320.6818
960.8599, 319.9746
961.3420, 317.8152
961.8242, 316.6707
962.3063, 316.9790
962.7884, 317.2363
963.2705, 316.9492
963.7526, 316.4286
964.2347, 315.9248
964.7169, 315.4500
965.1990, 315.0915
965.6811, 314.7009
966.1632, 314.6644
966.6453, 315.2937
967.1274, 315.9205
967.6096, 316.5621
968.0917, 316.8722
968.5738, 316.0938
969.0559, 314.2934
969.5380, 313.3159
970.0201, 314.5904
970.5023, 315.4339
970.9844, 314.3394
971.4665, 312.9486
971.9486, 312.7628
972.4307, 313.2684
972.9128, 313.1646
973.3950, 312.1233
973.8771, 311.1074
974.3592, 310.6568
974.8413, 310.5000
975.3234, 310.5247
975.8055, 310.6165
976.2877, 310.7535
976.7698, 310.8033
977.2519, 310.3160
977.7340, 309.0625
978.2161, 307.7475
978.6982, 306.9429
979.1804, 306.6996
979.6625, 307.4760
980.1446, 308.9083
980.6267, 309.9588
981.1088, 310.3308
981.5909, 309.5490
982.0731, 307.0807
982.5552, 304.4915
983.0373, 305.2194
983.5194, 308.6427
984.0015, 310.0780
984.4836, 309.3930
984.9658, 308.6051
985.4479, 308.3456
985.9300, 308.1405
986.4121, 307.4938
986.8942, 306.6468
987.3763, 306.5890
987.8585, 307.5104
988.3406, 307.8741
988.8227, 307.3334
989.3048, 307.2477
989.7869, 308.5063
990.2690, 309.8332
990.7512, 309.5952
991.2333, 307.9446
991.7154, 306.7879
992.1975, 306.1981
992.6796, 305.9583
993.1617, 306.2367
993.6439, 306.6121
994.1260, 306.9935
994.6081, 307.2986
995.0902, 307.3491
995.5723, 307.1312
996.0544, 307.1058
996.5366, 307.8692
997.0187, 307.9978
997.5008, 306.4627
997.9829, 305.0471
998.4650, 305.0594
998.9471, 305.8395
999.4293, 306.2466
999.9114, 306.1227
1000.393, 305.8234
1000.876, 305.2222
1001.358, 304.7486
1001.840, 304.7720
1002.322, 304.8427
1002.804, 304.3596
1003.286, 303.6368
1003.768, 303.5656
1004.250, 304.4373
1004.733, 305.0625
1005.215, 304.6168
1005.697, 303.8916
1006.179, 303.2163
1006.661, 302.7836
1007.143, 303.0572
1007.625, 303.7870
1008.107, 304.0512
1008.589, 303.4224
1009.072, 302.8538
1009.554, 303.4037
1010.036, 304.2353
1010.518, 304.4502
1011.000, 304.1323
1011.482, 303.2774
1011.964, 302.0835
1012.446, 301.2801
1012.929, 301.2823
1013.411, 301.5996
1013.893, 301.7086
1014.375, 301.6753
1014.857, 301.6098
1015.339, 301.5254
1015.821, 301.3942
1016.303, 301.2406
1016.785, 301.3338
1017.268, 301.9097
1017.750, 302.5017
1018.232, 302.2837
1018.714, 301.4239
1019.196, 300.4333
1019.678, 299.4076
1020.160, 299.0504
1020.642, 299.5492
1021.125, 300.1896
1021.607, 300.4398
1022.089, 300.3058
1022.571, 299.6613
1023.053, 298.5453
1023.535, 297.8199
1024.017, 297.5234
1024.499, 297.4140
1024.981, 297.4224
1025.464, 297.5754
1025.946, 297.9469
1026.428, 298.3924
1026.910, 298.3841
1027.392, 297.8460
1027.874, 297.6051
1028.356, 297.7336
1028.838, 297.9397
1029.321, 298.1247
1029.803, 298.3718
1030.285, 298.8493
1030.767, 299.4041
1031.249, 299.2601
1031.731, 298.0760
1032.213, 297.5451
1032.695, 297.9803
1033.177, 298.3685
1033.660, 298.2920
1034.142, 298.1044
1034.624, 298.1994
1035.106, 298.5096
1035.588, 298.5733
1036.070, 298.0299
1036.552, 298.1724
1037.034, 299.7542
1037.516, 300.7478
1037.999, 300.0638
1038.481, 298.7970
1038.963, 298.0428
1039.445, 297.7493
1039.927, 297.5109
1040.409, 297.2794
1040.891, 297.1923
1041.373, 297.4127
1041.855, 297.5710
1042.338, 297.3995
1042.820, 297.1994
1043.302, 297.4408
1043.784, 298.0102
1044.266, 298.0234
1044.748, 297.0442
1045.230, 296.2044
1045.712, 295.2961
1046.195, 294.8599
1046.677, 295.7126
1047.159, 296.7152
1047.641, 296.3478
1048.123, 294.8568
1048.605, 294.2294
1049.087, 295.4603
1049.569, 296.1276
1050.052, 295.3815
1050.534, 294.5962
1051.016, 294.2877
1051.498, 294.3400
1051.980, 294.8460
1052.462, 295.6313
1052.944, 295.7757
1053.426, 294.4868
1053.908, 293.8351
1054.391, 294.9191
1054.873, 296.0159
1055.355, 296.4000
1055.837, 296.2291
1056.319, 295.4734
1056.801, 294.3364
1057.283, 293.6298
1057.765, 293.6155
1058.248, 293.8779
1058.730, 294.4652
1059.212, 295.1089
1059.694, 295.9654
1060.176, 296.5858
1060.658, 296.3542
1061.140, 295.3961
1061.622, 294.3491
1062.104, 293.0735
1062.587, 292.6227
1063.069, 294.2133
1063.551, 295.7857
1064.033, 295.9639
1064.515, 295.5920
1064.997, 295.6777
1065.479, 296.1992
1065.961, 296.6232
1066.443, 296.8122
1066.926, 296.8316
1067.408, 296.5508
1067.890, 296.2857
1068.372, 296.3161
1068.854, 296.3961
1069.336, 296.2021
1069.818, 295.7916
1070.300, 295.4878
1070.782, 295.4415
1071.265, 295.2042
1071.747, 294.3687
1072.229, 293.5239
1072.711, 293.0455
1073.193, 292.7291
1073.675, 292.3165
1074.157, 291.8636
1074.639, 291.6136
1075.122, 291.6575
1075.604, 291.7250
1076.086, 291.5676
1076.568, 291.5476
1077.050, 292.3430
1077.532, 293.0127
1078.014, 292.3694
1078.496, 290.8040
1078.979, 289.3519
1079.461, 288.2478
1079.943, 287.8426
1080.425, 288.8354
1080.907, 289.9189
1081.389, 290.4638
1081.871, 290.6793
1082.353, 290.7415
1082.835, 290.6576
1083.318, 290.3075
1083.800, 289.6732
1084.282, 289.2359
1084.764, 289.2578
1085.246, 289.4585
1085.728, 289.9005
1086.210, 290.2762
1086.692, 290.2267
1087.175, 289.9535
1087.657, 289.8520
1088.139, 289.9830
1088.621, 290.0846
1089.103, 290.2849
1089.585, 290.1065
1090.067, 288.2298
1090.549, 286.9992
1091.031, 289.3621
1091.514, 292.9693
1091.996, 293.9543
1092.478, 292.0984
1092.960, 290.4702
1093.442, 290.2263
1093.924, 290.1022
1094.406, 289.6918
1094.888, 289.1743
1095.370, 288.6767
1095.853, 288.1373
1096.335, 287.3485
1096.817, 286.4051
1097.299, 285.8345
1097.781, 285.9132
1098.263, 286.0253
1098.745, 285.8127
1099.227, 285.7831
1099.709, 286.6711
1100.192, 287.5222
1100.674, 286.9149
1101.156, 285.3698
1101.638, 284.9545
1102.120, 286.4641
1102.602, 287.5423
1103.084, 287.2716
1103.566, 286.9039
1104.049, 287.0467
1104.531, 287.1898
1105.013, 286.8596
1105.495, 286.1777
1105.977, 285.3026
1106.459, 284.0615
1106.941, 283.9352
1107.423, 286.5101
1107.906, 288.3596
1108.388, 288.1620
1108.870, 287.3847
1109.352, 286.8226
1109.834, 286.4155
1110.316, 285.8385
1110.798, 285.0305
1111.280, 285.0908
1111.762, 287.5723
1112.245, 288.7163
1112.727, 286.4644
1113.209, 284.6231
1113.691, 285.9353
1114.173, 288.1143
1114.655, 287.9063
1115.137, 285.5518
1115.619, 284.4685
1116.102, 285.6148
1116.584, 286.3473
1117.066, 286.6776
1117.548, 286.4887
1118.030, 285.1043
1118.512, 283.8791
1118.994, 284.4001
1119.476, 286.1114
1119.958, 286.7025
1120.441, 285.6027
1120.923, 285.2631
1121.405, 286.2411
1121.887, 286.6993
1122.369, 285.7775
1122.851, 284.9794
1123.333, 285.6246
1123.815, 286.9505
1124.297, 287.2665
1124.780, 286.5146
1125.262, 285.3952
1125.744, 283.5536
1126.226, 282.8503
1126.708, 284.0114
1127.190, 284.8840
1127.672, 284.0587
1128.154, 282.9038
1128.636, 283.5832
1129.119, 285.7648
1129.601, 286.5262
1130.083, 285.7137
1130.565, 285.2102
1131.047, 285.2252
1131.529, 285.3230
1132.011, 285.3281
1132.493, 285.3676
1132.976, 285.5884
1133.458, 285.9033
1133.940, 286.0150
1134.422, 285.9542
1134.904, 286.1976
1135.386, 286.7376
1135.868, 286.9585
1136.350, 286.6976
1136.833, 286.2554
1137.315, 285.8279
1137.797, 285.4463
1138.279, 285.1646
1138.761, 284.9732
1139.243, 284.8007
1139.725, 284.6861
1140.207, 284.8500
1140.689, 285.2826
1141.172, 285.7806
1141.654, 286.2411
1142.136, 286.2547
1142.618, 284.9533
1143.100, 283.4111
1143.582, 283.6266
1144.064, 284.9096
1144.546, 286.0148
1145.029, 286.7904
1145.511, 287.2671
1145.993, 287.4853
1146.475, 287.6128
1146.957, 287.7310
1147.439, 287.8864
1147.921, 288.3817
1148.403, 288.7255
1148.885, 288.1162
1149.368, 287.0111
1149.850, 286.0841
1150.332, 285.5394
1150.814, 285.5683
1151.296, 286.3535
1151.778, 287.1030
1152.260, 287.3853
1152.742, 287.4196
1153.224, 287.1745
1153.707, 286.9095
1154.189, 287.0091
1154.671, 287.2766
1155.153, 287.2823
1155.635, 286.9411
1156.117, 286.1924
1156.599, 284.2611
1157.081, 282.9979
1157.563, 283.2802
1158.046, 284.0704
1158.528, 285.1656
1159.010, 286.1064
1159.492, 286.0387
1159.974, 286.8917
1160.456, 287.5059
1160.938, 287.3076
1161.420, 288.4539
1161.903, 287.8271
1162.385, 287.1992
1162.867, 287.2502
1163.349, 287.2068
1163.831, 286.2158
1164.313, 284.8383
1164.795, 284.5731
1165.277, 285.6544
1165.760, 285.7610
1166.242, 284.3939
1166.724, 283.7148
1167.206, 284.2787
1167.688, 284.8195
1168.170, 284.6375
1168.652, 284.2691
1169.134, 284.4017
1169.616, 284.9438
1170.099, 285.5862
1170.581, 286.3376
1171.063, 286.2347
1171.545, 285.2092
1172.027, 285.1366
1172.509, 286.6086
1172.991, 287.5947
1173.473, 286.4295
1173.956, 287.1855
1174.438, 287.0003
1174.920, 286.5027
1175.402, 286.7486
1175.884, 285.9743
1176.366, 285.5374
1176.848, 285.5919
1177.330, 285.5710
1177.813, 285.2535
1178.295, 285.2978
1178.777, 286.6588
1179.259, 288.1431
1179.741, 288.1795
1180.223, 287.4493
1180.705, 286.6620
1181.187, 286.0101
1181.669, 285.6718
1182.151, 285.6880
1182.634, 286.0691
1183.116, 286.9013
1183.598, 287.7835
1184.080, 288.8229
1184.562, 289.4312
1185.044, 288.8691
1185.526, 287.9606
1186.008, 287.5029
1186.490, 287.4277
1186.973, 287.3563
1187.455, 287.2158
1187.937, 287.2972
1188.419, 287.8697
1188.901, 288.3514
1189.383, 288.6134
1189.865, 288.7812
1190.347, 288.8193
1190.830, 288.8746
1191.312, 289.2110
1191.794, 289.7061
1192.276, 289.6985
1192.758, 288.8387
1193.240, 288.7342
1193.722, 289.7370
1194.204, 290.4532
1194.687, 290.5591
1195.169, 290.2894
1195.651, 289.6889
1196.133, 289.0851
1196.615, 289.0120
1197.097, 289.4017
1197.579, 289.9160
1198.061, 290.5397
1198.543, 290.9009
1199.026, 290.9774
1199.508, 290.9911
1199.990, 291.0120
1200.472, 290.8289
1200.954, 290.2142
1201.436, 289.6072
1201.918, 289.8187
1202.400, 290.4312
1202.883, 290.6347
1203.365, 290.5362
1203.847, 290.3281
1204.329, 290.1329
1204.811, 290.2314
1205.293, 290.7145
1205.775, 291.1899
1206.257, 291.4694
1206.740, 291.5355
1207.222, 290.9904
1207.704, 290.6013
1208.186, 291.3538
1208.668, 292.5583
1209.150, 293.1800
1209.632, 293.1853
1210.114, 293.1265
1210.596, 293.1698
1211.078, 293.0019
1211.561, 292.1281
1212.043, 291.6277
1212.525, 292.0811
1213.007, 292.7382
1213.489, 293.3149
1213.971, 293.6411
1214.453, 293.3238
1214.935, 292.4205
1215.417, 292.0252
1215.900, 292.2047
1216.382, 292.6625
1216.864, 293.4363
1217.346, 294.3066
1217.828, 295.2818
1218.310, 295.8756
1218.792, 295.6454
1219.274, 295.1238
1219.757, 295.4458
1220.239, 295.0322
1220.721, 296.0739
1221.203, 295.0370
1221.685, 294.9019
1222.167, 295.7100
1222.649, 296.4370
1223.131, 296.7139
1223.614, 296.8224
1224.096, 297.0602
1224.578, 296.9590
1225.060, 295.3273
1225.542, 293.6678
1226.024, 294.2556
1226.506, 295.7861
1226.988, 295.9357
1227.470, 295.0311
1227.953, 295.1247
1228.435, 296.8360
1228.917, 297.8149
1229.399, 296.4774
1229.881, 295.2419
1230.363, 294.7967
1230.845, 294.7875
1231.327, 295.2884
1231.810, 295.8968
1232.292, 296.3315
1232.774, 296.4736
1233.256, 295.7022
1233.738, 293.4619
1234.220, 292.7716
1234.702, 294.0585
1235.184, 295.6577
1235.667, 297.5462
1236.149, 298.5216
1236.631, 297.8040
1237.113, 296.6139
1237.595, 296.4109
1238.077, 296.8685
1238.559, 297.0474
1239.041, 296.9916
1239.523, 297.0692
1240.005, 297.1497
1240.488, 296.1980
1240.970, 294.3048
1241.452, 293.2743
1241.934, 293.9961
1242.416, 295.3592
1242.898, 296.9316
1243.380, 297.9683
1243.862, 297.3752
1244.344, 296.1361
1244.827, 294.8508
1245.309, 294.0190
1245.791, 294.6469
1246.273, 296.4599
1246.755, 297.5785
1247.237, 297.2841
1247.719, 297.1292
1248.201, 297.8315
1248.684, 298.2021
1249.166, 297.5336
1249.648, 296.8621
1250.130, 296.9511
1250.612, 297.1646
1251.094, 296.4744
1251.576, 296.7343
1252.058, 296.8456
1252.541, 296.5541
1253.023, 297.2038
1253.505, 296.9000
1253.987, 296.6710
1254.469, 296.7580
1254.951, 296.8169
1255.433, 296.6450
1255.915, 296.4310
1256.397, 296.3816
1256.880, 296.4778
1257.362, 296.6947
1257.844, 297.0225
1258.326, 297.5710
1258.808, 298.1714
1259.290, 298.1508
1259.772, 297.7145
1260.254, 298.4286
1260.737, 301.1652
1261.219, 303.1324
1261.701, 302.3279
1262.183, 301.1083
1262.665, 300.3869
1263.147, 299.9048
1263.629, 299.2915
1264.111, 298.8905
1264.594, 299.5506
1265.076, 300.9570
1265.558, 301.2068
1266.040, 299.8863
1266.522, 298.8436
1267.004, 297.9695
1267.486, 297.8124
1267.968, 298.5948
1268.450, 299.6199
1268.932, 300.6085
1269.415, 301.1685
1269.897, 300.7839
1270.379, 299.8281
1270.861, 299.0084
1271.343, 298.4274
1271.825, 298.5395
1272.307, 299.1399
1272.789, 299.6187
1273.271, 299.8966
1273.754, 300.2767
1274.236, 300.8550
1274.718, 300.9618
1275.200, 299.5054
1275.682, 298.4516
1276.164, 299.3870
1276.646, 300.6717
1277.128, 301.4216
1277.611, 301.6374
1278.093, 301.0244
1278.575, 299.9846
1279.057, 299.8854
1279.539, 300.9565
1280.021, 301.4624
1280.503, 301.1770
1280.985, 300.7023
1281.468, 299.9662
1281.950, 299.9570
1282.432, 301.1092
1282.914, 302.7027
1283.396, 304.2428
1283.878, 305.4654
1284.360, 305.7704
1284.842, 305.2787
1285.324, 304.3869
##END=



