##NAMES=Calaverite
##RRUFFID=R070397
##IDEAL CHEMISTRY=AuTe_2_
##LOCALITY=Sacarambu, Transylvania, Romania
##OWNER=RRUFF
##SOURCE=Michael Scott
##DESCRIPTION=Gold metallic massive associated with quartz
##STATUS=The identification of this mineral is confirmed by single-crystal X-ray diffraction and chemical analysis.
##URL=rruff.info/R070397
##MEASURED CHEMISTRY=(Au_0.95_Ag_0.05_)_Î£=1_Te_2.00_
169.1814, 1480.562
169.6636, 1444.168
170.1457, 1408.841
170.6278, 1381.901
171.1099, 1377.860
171.5920, 1392.150
172.0741, 1401.990
172.5563, 1395.833
173.0384, 1378.236
173.5205, 1362.017
174.0026, 1348.579
174.4847, 1337.877
174.9668, 1332.157
175.4490, 1330.734
175.9311, 1324.587
176.4132, 1302.846
176.8953, 1266.020
177.3774, 1238.254
177.8595, 1232.156
178.3417, 1229.882
178.8238, 1219.166
179.3059, 1199.038
179.7880, 1178.193
180.2701, 1168.135
180.7522, 1172.691
181.2344, 1171.696
181.7165, 1153.693
182.1986, 1134.695
182.6807, 1126.303
183.1628, 1131.386
183.6449, 1141.464
184.1271, 1142.066
184.6092, 1128.460
185.0913, 1114.059
185.5734, 1097.165
186.0555, 1081.853
186.5376, 1072.969
187.0198, 1072.407
187.5019, 1076.150
187.9840, 1073.353
188.4661, 1054.006
188.9482, 1040.625
189.4303, 1040.237
189.9125, 1044.942
190.3946, 1044.942
190.8767, 1034.994
191.3588, 1017.786
191.8409, 1005.740
192.3230, 1003.084
192.8052, 1000.918
193.2873, 998.3706
193.7694, 995.2811
194.2515, 991.6725
194.7336, 987.5999
195.2157, 982.9957
195.6979, 976.7938
196.1800, 965.5264
196.6621, 956.5137
197.1442, 954.4588
197.6263, 957.3729
198.1084, 958.9988
198.5906, 954.7554
199.0727, 945.0678
199.5548, 937.4847
200.0369, 933.4075
200.5190, 930.0546
201.0011, 924.6061
201.4833, 917.5059
201.9654, 913.7906
202.4475, 920.8135
202.9296, 935.7847
203.4117, 936.5717
203.8938, 906.8784
204.3760, 872.4414
204.8581, 857.4350
205.3402, 863.7874
205.8223, 875.8821
206.3044, 883.0611
206.7865, 886.2154
207.2687, 888.2392
207.7508, 888.5688
208.2329, 888.4630
208.7150, 891.1927
209.1971, 898.6122
209.6792, 902.3728
210.1614, 890.7455
210.6435, 869.7532
211.1256, 853.3056
211.6077, 849.8566
212.0898, 854.0172
212.5719, 853.5432
213.0541, 845.6746
213.5362, 837.6849
214.0183, 835.5869
214.5004, 837.3863
214.9825, 838.1725
215.4646, 834.4702
215.9468, 827.4139
216.4289, 821.7928
216.9110, 818.0416
217.3931, 815.4548
217.8752, 812.6337
218.3573, 810.2336
218.8395, 810.1370
219.3216, 816.7786
219.8037, 829.0805
220.2858, 832.8423
220.7679, 821.7280
221.2500, 807.9717
221.7322, 795.3304
222.2143, 784.6113
222.6964, 777.0600
223.1785, 775.0005
223.6606, 778.7736
224.1427, 780.2772
224.6249, 776.1988
225.1070, 772.6569
225.5891, 773.5988
226.0712, 777.7454
226.5533, 780.3329
227.0354, 775.9265
227.5176, 763.1046
227.9997, 753.3163
228.4818, 746.9554
228.9639, 743.4454
229.4460, 744.9086
229.9281, 749.9634
230.4103, 754.1509
230.8924, 751.8715
231.3745, 740.4240
231.8566, 734.8311
232.3387, 742.1107
232.8208, 748.8785
233.3030, 747.6646
233.7851, 739.0336
234.2672, 729.2803
234.7493, 725.9712
235.2314, 732.5192
235.7135, 732.9332
236.1957, 728.1445
236.6778, 717.7916
237.1599, 694.5257
237.6420, 661.9489
238.1241, 636.0422
238.6062, 637.8867
239.0884, 682.1321
239.5705, 705.6066
240.0526, 693.3148
240.5347, 675.9436
241.0168, 672.6213
241.4989, 684.6211
241.9811, 700.0832
242.4632, 705.1411
242.9453, 695.5034
243.4274, 687.8480
243.9095, 679.9266
244.3916, 675.2579
244.8738, 680.0426
245.3559, 693.1666
245.8380, 703.8208
246.3201, 698.3409
246.8022, 668.5369
247.2843, 648.5376
247.7665, 638.8561
248.2486, 637.3451
248.7307, 648.6317
249.2128, 670.7466
249.6949, 688.8615
250.1770, 684.1926
250.6592, 645.5299
251.1413, 623.2162
251.6234, 629.9409
252.1055, 643.4083
252.5876, 646.8107
253.0697, 638.1136
253.5519, 626.1111
254.0340, 620.3733
254.5161, 622.8341
254.9982, 625.2066
255.4803, 629.1240
255.9624, 631.8943
256.4445, 631.6563
256.9267, 628.1016
257.4088, 621.2225
257.8909, 609.5175
258.3730, 590.8068
258.8551, 581.3889
259.3372, 588.4881
259.8194, 600.2328
260.3015, 608.9226
260.7836, 613.2603
261.2657, 612.2181
261.7478, 602.6262
262.2299, 582.4894
262.7121, 572.0082
263.1942, 579.7148
263.6763, 591.7756
264.1584, 597.0288
264.6405, 594.4437
265.1227, 589.3739
265.6048, 585.8525
266.0869, 584.1149
266.5690, 585.1851
267.0511, 594.8811
267.5332, 603.5459
268.0154, 600.7586
268.4975, 586.3699
268.9796, 572.0290
269.4617, 567.5172
269.9438, 573.1572
270.4259, 578.3263
270.9081, 587.0200
271.3902, 592.1996
271.8723, 584.5734
272.3544, 564.5821
272.8365, 547.0967
273.3186, 544.5992
273.8008, 556.0731
274.2829, 562.5170
274.7650, 559.9095
275.2471, 555.0011
275.7292, 553.3744
276.2113, 554.8452
276.6935, 554.4693
277.1756, 546.8984
277.6577, 534.3419
278.1398, 530.2324
278.6219, 543.8882
279.1040, 558.4928
279.5862, 561.7188
280.0683, 554.5364
280.5504, 545.6655
281.0325, 539.9693
281.5146, 536.9115
281.9967, 533.4023
282.4789, 527.3759
282.9610, 522.7408
283.4431, 523.2157
283.9252, 527.9042
284.4073, 532.0522
284.8894, 534.2460
285.3716, 533.2776
285.8537, 526.5645
286.3358, 507.6934
286.8179, 491.3428
287.3000, 486.5130
287.7821, 491.4016
288.2643, 499.7727
288.7464, 511.1315
289.2285, 522.1555
289.7106, 524.5016
290.1927, 512.3516
290.6748, 502.7136
291.1570, 506.0151
291.6391, 518.6564
292.1212, 530.5588
292.6033, 539.4886
293.0854, 543.1287
293.5675, 535.0244
294.0497, 509.1339
294.5318, 489.1176
295.0139, 487.3980
295.4960, 498.4287
295.9781, 510.7232
296.4602, 521.8459
296.9424, 530.1382
297.4245, 531.7814
297.9066, 526.4913
298.3887, 519.2443
298.8708, 510.0069
299.3529, 500.1085
299.8351, 491.7774
300.3172, 485.5601
300.7993, 481.1204
301.2814, 478.6744
301.7635, 478.4648
302.2456, 477.4033
302.7278, 472.6069
303.2099, 467.3478
303.6920, 466.3431
304.1741, 470.6739
304.6562, 477.7788
305.1383, 486.6035
305.6205, 497.5485
306.1026, 502.5317
306.5847, 497.1296
307.0668, 487.0502
307.5489, 475.8799
308.0310, 464.1115
308.5132, 456.9835
308.9953, 461.5608
309.4774, 478.3651
309.9595, 488.5943
310.4416, 487.7270
310.9237, 482.7361
311.4059, 480.2272
311.8880, 479.9981
312.3701, 474.7739
312.8522, 455.3017
313.3343, 423.8639
313.8164, 410.6653
314.2986, 432.9991
314.7807, 457.3658
315.2628, 463.2111
315.7449, 453.4050
316.2270, 442.5495
316.7091, 439.1459
317.1913, 442.3166
317.6734, 446.1534
318.1555, 449.8903
318.6376, 454.9562
319.1197, 464.6236
319.6018, 476.1550
320.0840, 482.8047
320.5661, 480.7408
321.0482, 472.5744
321.5303, 466.7679
322.0124, 462.8314
322.4945, 461.3407
322.9767, 457.4208
323.4588, 466.2801
323.9409, 470.7124
324.4230, 470.9556
324.9051, 454.4631
325.3872, 459.5813
325.8694, 456.0387
326.3515, 452.1411
326.8336, 460.3009
327.3157, 446.2425
327.7978, 454.2112
328.2799, 453.3870
328.7621, 456.5868
329.2442, 451.0728
329.7263, 448.2503
330.2084, 454.1446
330.6905, 455.2124
331.1726, 448.6952
331.6548, 452.1508
332.1369, 437.7880
332.6190, 439.0613
333.1011, 447.0809
333.5832, 441.0019
334.0653, 446.2764
334.5475, 445.5115
335.0296, 441.6128
335.5117, 434.8604
335.9938, 427.0114
336.4759, 422.1738
336.9580, 424.2310
337.4402, 432.9923
337.9223, 435.7083
338.4044, 424.7719
338.8865, 416.2462
339.3686, 417.0351
339.8507, 422.7521
340.3329, 424.6989
340.8150, 417.3884
341.2971, 404.2273
341.7792, 400.0559
342.2613, 416.1700
342.7434, 427.4180
343.2256, 428.8651
343.7077, 425.1114
344.1898, 420.2238
344.6719, 415.8800
345.1540, 413.0753
345.6361, 414.4738
346.1183, 424.4011
346.6004, 430.0138
347.0825, 427.3490
347.5646, 422.9076
348.0467, 421.9951
348.5288, 425.3820
349.0110, 429.1661
349.4931, 427.7166
349.9752, 419.0450
350.4573, 413.0565
350.9394, 409.5051
351.4215, 409.0986
351.9037, 415.3715
352.3858, 426.1868
352.8679, 434.1421
353.3500, 430.8936
353.8321, 416.9401
354.3142, 409.1605
354.7964, 411.1900
355.2785, 415.5596
355.7606, 421.7375
356.2427, 427.7531
356.7248, 430.0384
357.2069, 426.1183
357.6891, 417.3813
358.1712, 406.0476
358.6533, 387.5475
359.1354, 377.0328
359.6175, 389.9221
360.0996, 410.1238
360.5818, 417.5805
361.0639, 402.4379
361.5460, 381.2401
362.0281, 378.1533
362.5102, 395.4932
362.9923, 409.8832
363.4745, 411.9027
363.9566, 408.6696
364.4387, 407.3880
364.9208, 409.1739
365.4029, 409.6606
365.8850, 403.0238
366.3672, 391.2287
366.8493, 385.3891
367.3314, 389.8323
367.8135, 398.1930
368.2956, 407.4459
368.7777, 417.2683
369.2599, 416.9268
369.7420, 389.9386
370.2241, 353.3395
370.7062, 338.1853
371.1883, 350.1854
371.6704, 370.2659
372.1526, 385.5579
372.6347, 396.0433
373.1168, 401.6167
373.5989, 397.5237
374.0810, 392.0201
374.5631, 393.0958
375.0453, 400.0207
375.5274, 405.1348
376.0095, 403.1425
376.4916, 396.0514
376.9737, 392.8302
377.4558, 397.9409
377.9380, 401.3488
378.4201, 399.5040
378.9022, 393.4139
379.3843, 382.6510
379.8664, 365.9276
380.3485, 350.1902
380.8307, 351.1831
381.3128, 383.3471
381.7949, 405.4720
382.2770, 409.7414
382.7591, 405.7459
383.2412, 401.7386
383.7234, 399.5428
384.2055, 396.9495
384.6876, 390.7900
385.1697, 378.7402
385.6518, 373.5026
386.1339, 383.0541
386.6161, 390.8464
387.0982, 385.7969
387.5803, 371.4758
388.0624, 359.3837
388.5445, 358.1565
389.0266, 366.7120
389.5088, 373.2737
389.9909, 377.9535
390.4730, 380.1796
390.9551, 379.0620
391.4372, 375.7047
391.9193, 370.2762
392.4015, 362.6843
392.8836, 356.0305
393.3657, 358.0032
393.8478, 374.1979
394.3299, 385.1455
394.8120, 384.0736
395.2942, 380.1137
395.7763, 379.8104
396.2584, 383.9262
396.7405, 387.8423
397.2226, 386.2838
397.7047, 379.2111
398.1869, 373.4159
398.6690, 369.5638
399.1511, 366.8781
399.6332, 366.5597
400.1153, 367.1998
400.5974, 364.6576
401.0796, 351.7851
401.5617, 335.6911
402.0438, 334.3854
402.5259, 351.6347
403.0080, 368.8296
403.4901, 375.0216
403.9723, 374.9785
404.4544, 375.5673
404.9365, 378.6763
405.4186, 381.3974
405.9007, 380.2855
406.3828, 376.2002
406.8650, 373.9983
407.3471, 375.8265
407.8292, 379.7926
408.3113, 384.3076
408.7934, 391.1554
409.2755, 391.0704
409.7577, 372.5357
410.2398, 348.7277
410.7219, 339.3872
411.2040, 348.0423
411.6861, 361.7482
412.1682, 367.6192
412.6504, 364.2578
413.1325, 364.5455
413.6146, 374.2546
414.0967, 382.2285
414.5788, 379.3216
415.0609, 368.9088
415.5431, 362.3919
416.0252, 367.5193
416.5073, 380.7821
416.9894, 385.6319
417.4715, 372.5698
417.9536, 362.3331
418.4358, 357.1841
418.9179, 355.7019
419.4000, 357.2927
419.8821, 361.4549
420.3642, 365.9569
420.8463, 367.0710
421.3285, 362.9888
421.8106, 360.4804
422.2927, 359.2378
422.7748, 359.7326
423.2569, 364.2175
423.7390, 371.1241
424.2212, 375.5494
424.7033, 372.3953
425.1854, 363.4368
425.6675, 360.2935
426.1496, 367.3458
426.6317, 372.8303
427.1139, 370.7884
427.5960, 365.3163
428.0781, 361.9256
428.5602, 363.2001
429.0423, 365.1701
429.5244, 361.3879
430.0066, 351.6413
430.4887, 345.9341
430.9708, 348.5536
431.4529, 355.2487
431.9350, 362.1200
432.4171, 369.3830
432.8993, 373.0544
433.3814, 368.9111
433.8635, 360.4933
434.3456, 354.0684
434.8277, 350.5307
435.3098, 348.3466
435.7920, 346.1472
436.2741, 344.1273
436.7562, 343.7961
437.2383, 345.5623
437.7204, 348.6932
438.2025, 353.7520
438.6847, 359.9423
439.1668, 365.4892
439.6489, 369.7735
440.1310, 372.1747
440.6131, 370.8892
441.0952, 362.6492
441.5774, 355.2238
442.0595, 347.6858
442.5416, 341.8422
443.0237, 340.2101
443.5058, 342.7566
443.9879, 346.5011
444.4701, 348.0519
444.9522, 346.9471
445.4343, 346.9019
445.9164, 349.6974
446.3985, 351.7566
446.8806, 351.6938
447.3628, 350.0815
447.8449, 347.6901
448.3270, 344.5102
448.8091, 341.8504
449.2912, 342.9466
449.7733, 348.2079
450.2555, 356.1545
450.7376, 371.7454
451.2197, 386.5351
451.7018, 394.1221
452.1839, 393.4222
452.6660, 387.8839
453.1482, 378.9381
453.6303, 367.1186
454.1124, 354.0377
454.5945, 337.6873
455.0766, 324.6984
455.5587, 323.6273
456.0409, 330.8672
456.5230, 336.4038
457.0051, 335.6457
457.4872, 334.1208
457.9693, 338.3281
458.4514, 346.9772
458.9336, 351.7221
459.4156, 347.1127
459.8978, 337.9374
460.3799, 337.9110
460.8620, 353.5462
461.3441, 364.4084
461.8262, 363.8047
462.3083, 358.3962
462.7905, 355.0896
463.2726, 355.1233
463.7547, 355.6566
464.2368, 353.7358
464.7189, 349.1317
465.2010, 344.0486
465.6832, 332.7422
466.1653, 327.1004
466.6474, 335.1375
467.1295, 350.6217
467.6116, 364.1639
468.0938, 371.1620
468.5759, 372.2169
469.0580, 367.1889
469.5401, 352.5076
470.0222, 341.8880
470.5043, 340.3039
470.9865, 341.6842
471.4686, 342.6402
471.9507, 342.8284
472.4328, 343.4407
472.9149, 347.4226
473.3970, 352.7694
473.8792, 350.1702
474.3613, 335.5005
474.8434, 324.1229
475.3255, 330.3377
475.8076, 346.5670
476.2897, 357.3338
476.7719, 358.7686
477.2540, 356.2608
477.7361, 352.4171
478.2182, 347.5070
478.7003, 341.3860
479.1824, 333.2259
479.6646, 326.8094
480.1467, 329.1717
480.6288, 344.7627
481.1109, 354.8992
481.5930, 354.8215
482.0751, 351.9804
482.5573, 351.0027
483.0394, 352.2355
483.5215, 354.6918
484.0036, 357.9647
484.4857, 361.5831
484.9678, 362.3510
485.4500, 357.7837
485.9321, 353.5060
486.4142, 350.6825
486.8963, 348.2446
487.3784, 344.0649
487.8605, 337.9814
488.3427, 333.7297
488.8248, 337.0391
489.3069, 348.3557
489.7890, 356.7454
490.2711, 361.7138
490.7532, 363.3936
491.2354, 359.8412
491.7175, 353.5207
492.1996, 350.5020
492.6817, 356.4791
493.1638, 363.3472
493.6459, 359.2105
494.1281, 345.0367
494.6102, 334.9394
495.0923, 335.6930
495.5744, 341.5215
496.0565, 341.7181
496.5386, 334.7197
497.0208, 330.2694
497.5029, 332.0137
497.9850, 336.5178
498.4671, 341.2036
498.9492, 345.4381
499.4313, 348.1238
499.9135, 347.9257
500.3956, 345.2534
500.8777, 345.6939
501.3598, 358.1857
501.8419, 362.9963
502.3240, 349.3671
502.8062, 329.8840
503.2883, 319.6971
503.7704, 322.9136
504.2525, 330.0514
504.7346, 327.2543
505.2167, 312.1404
505.6989, 304.6306
506.1810, 309.9779
506.6631, 317.8781
507.1452, 324.0312
507.6273, 328.8261
508.1094, 333.5309
508.5916, 339.0911
509.0737, 344.3051
509.5558, 347.8838
510.0379, 349.7929
510.5200, 348.9323
511.0021, 343.4722
511.4843, 336.7597
511.9664, 334.0749
512.4485, 335.7205
512.9306, 337.7707
513.4127, 341.1038
513.8948, 343.1888
514.3770, 339.4938
514.8591, 330.9557
515.3412, 324.9156
515.8233, 326.8271
516.3054, 335.4214
516.7875, 342.5066
517.2697, 348.5422
517.7518, 352.4107
518.2339, 353.6622
518.7160, 352.8998
519.1981, 349.8608
519.6802, 344.9050
520.1624, 340.1756
520.6445, 338.2835
521.1266, 339.3114
521.6087, 340.2454
522.0908, 344.0775
522.5729, 343.0796
523.0551, 327.6970
523.5372, 307.4280
524.0193, 298.2189
524.5014, 307.7667
524.9835, 322.6965
525.4656, 330.6871
525.9478, 332.6409
526.4299, 332.8819
526.9120, 331.6919
527.3941, 331.1115
527.8762, 334.3558
528.3583, 341.6435
528.8405, 346.7909
529.3226, 351.0362
529.8047, 351.3947
530.2868, 342.3159
530.7689, 327.5392
531.2510, 317.6747
531.7332, 318.4924
532.2153, 324.9442
532.6974, 323.8825
533.1795, 305.2545
533.6616, 297.7601
534.1437, 308.8155
534.6259, 323.8525
535.1080, 336.5515
535.5901, 345.2683
536.0722, 348.3105
536.5543, 342.3005
537.0364, 330.9733
537.5186, 327.2565
538.0007, 333.8181
538.4828, 337.6773
538.9649, 330.4852
539.4470, 320.2326
539.9291, 316.9172
540.4113, 322.2472
540.8934, 326.7827
541.3755, 324.5950
541.8576, 319.1851
542.3397, 316.1116
542.8218, 315.9676
543.3040, 315.8820
543.7861, 313.2032
544.2682, 308.6390
544.7503, 308.4340
545.2324, 318.1300
545.7145, 324.6682
546.1967, 323.0689
546.6788, 318.3062
547.1609, 315.9931
547.6430, 317.2150
548.1251, 318.7541
548.6072, 316.2339
549.0894, 309.3636
549.5715, 307.8311
550.0536, 316.4908
550.5357, 323.5729
551.0178, 323.9814
551.4999, 320.7092
551.9821, 317.3757
552.4642, 314.5992
552.9463, 313.5906
553.4284, 316.9752
553.9105, 323.3736
554.3926, 326.5030
554.8748, 324.2739
555.3569, 322.1691
555.8390, 326.2869
556.3211, 336.4652
556.8032, 342.4421
557.2853, 342.3190
557.7675, 339.7794
558.2496, 335.4269
558.7317, 323.1351
559.2138, 331.6471
559.6959, 336.3130
560.1780, 337.3395
560.6602, 323.8257
561.1423, 329.0876
561.6244, 326.8250
562.1065, 324.2540
562.5886, 332.1584
563.0707, 320.7596
563.5529, 328.4978
564.0350, 328.5969
564.5171, 332.1923
564.9992, 328.2168
565.4813, 326.5797
565.9634, 332.5159
566.4456, 334.2587
566.9277, 329.4117
567.4098, 333.2293
567.8919, 321.5660
568.3740, 323.4874
568.8561, 331.2701
569.3383, 326.8036
569.8204, 330.7597
570.3025, 331.5081
570.7846, 317.6787
571.2667, 329.2014
571.7488, 329.7602
572.2310, 319.0613
572.7131, 329.7154
573.1952, 320.5686
573.6773, 318.4894
574.1594, 321.7292
574.6415, 319.4243
575.1237, 325.8612
575.6058, 323.8764
576.0879, 318.6987
576.5700, 315.5015
577.0521, 313.0775
577.5342, 316.6435
578.0164, 326.2552
578.4985, 330.1164
578.9806, 322.7272
579.4627, 312.8825
579.9448, 310.8578
580.4269, 315.6000
580.9091, 317.8455
581.3912, 312.9720
581.8733, 307.6476
582.3554, 305.4396
582.8375, 306.5042
583.3196, 311.8432
583.8018, 322.0502
584.2839, 333.1644
584.7660, 338.0657
585.2481, 334.5176
585.7302, 330.9820
586.2123, 325.4841
586.6945, 321.9492
587.1766, 324.4347
587.6587, 329.7761
588.1408, 331.0411
588.6229, 323.9182
589.1050, 315.1123
589.5872, 316.0253
590.0693, 326.1670
590.5514, 331.3619
591.0335, 326.9146
591.5156, 320.0232
591.9977, 316.8376
592.4799, 317.1463
592.9620, 320.9012
593.4441, 333.5325
593.9262, 344.2527
594.4083, 345.8720
594.8904, 341.1161
595.3726, 335.1132
595.8547, 329.7425
596.3368, 324.6927
596.8189, 319.3855
597.3010, 313.4139
597.7831, 309.1505
598.2653, 306.5936
598.7474, 305.9333
599.2295, 309.4197
599.7116, 314.2343
600.1937, 315.6451
600.6758, 311.4077
601.1580, 306.4069
601.6401, 306.1080
602.1222, 309.6701
602.6043, 313.2039
603.0864, 316.3000
603.5685, 318.4014
604.0507, 317.8170
604.5328, 315.3183
605.0149, 317.5883
605.4970, 333.3623
605.9791, 343.6483
606.4612, 335.4877
606.9434, 320.9597
607.4255, 316.9693
607.9076, 326.5040
608.3897, 338.2038
608.8718, 339.0280
609.3539, 329.3409
609.8361, 327.3553
610.3182, 340.6448
610.8003, 348.9592
611.2824, 343.5147
611.7645, 331.3331
612.2466, 317.0625
612.7288, 300.8695
613.2109, 292.4582
613.6930, 304.9682
614.1751, 327.4061
614.6572, 340.0273
615.1393, 341.1734
615.6215, 336.7834
616.1036, 329.2410
616.5857, 319.9759
617.0678, 314.0618
617.5499, 313.8464
618.0320, 313.7696
618.5142, 311.0038
618.9963, 310.3029
619.4784, 317.8709
619.9605, 331.4775
620.4426, 342.2451
620.9247, 343.3697
621.4069, 338.4025
621.8890, 330.6783
622.3711, 339.2517
622.8532, 343.9790
623.3353, 345.0668
623.8174, 331.6145
624.2996, 336.9377
624.7817, 334.7365
625.2638, 332.2268
625.7459, 340.1926
626.2280, 328.8551
626.7101, 336.6548
627.1923, 336.8152
627.6744, 340.4720
628.1565, 336.5578
628.6386, 334.9821
629.1207, 340.9797
629.6028, 342.7839
630.0850, 337.9982
630.5671, 335.2303
631.0492, 336.6161
631.5313, 339.4161
632.0134, 341.2276
632.4955, 336.7995
632.9777, 323.0888
633.4598, 311.1906
633.9419, 316.8210
634.4240, 333.3618
634.9061, 335.9321
635.3882, 319.3935
635.8704, 303.4009
636.3525, 302.9266
636.8346, 315.5909
637.3167, 326.1483
637.7988, 336.8556
638.2809, 342.7825
638.7631, 337.0048
639.2452, 330.1285
639.7273, 335.8533
640.2094, 352.2794
640.6915, 362.5727
641.1736, 350.7666
641.6558, 325.4285
642.1379, 319.1486
642.6200, 337.2946
643.1021, 351.2004
643.5842, 353.4643
644.0663, 347.2746
644.5485, 332.2118
645.0306, 308.7794
645.5127, 296.0810
645.9948, 307.1035
646.4769, 324.2287
646.9590, 336.3134
647.4412, 342.9925
647.9233, 344.0883
648.4054, 339.5114
648.8875, 332.1624
649.3696, 325.9203
649.8517, 320.4522
650.3339, 318.0802
650.8160, 321.4586
651.2981, 324.8931
651.7802, 327.1399
652.2623, 328.0752
652.7444, 326.8374
653.2266, 322.6642
653.7087, 320.1344
654.1908, 325.6302
654.6729, 334.7046
655.1550, 336.4103
655.6371, 329.6968
656.1193, 323.3275
656.6014, 323.0410
657.0835, 327.4414
657.5656, 331.2283
658.0477, 333.7654
658.5298, 336.5522
659.0120, 343.3788
659.4941, 347.3123
659.9762, 339.6162
660.4583, 324.4709
660.9404, 315.3748
661.4225, 321.2921
661.9047, 334.4022
662.3868, 341.5951
662.8689, 343.0560
663.3510, 344.0756
663.8331, 346.5467
664.3152, 346.9796
664.7974, 339.3128
665.2795, 324.4525
665.7616, 319.1212
666.2437, 336.3525
666.7258, 348.4184
667.2079, 337.5249
667.6901, 319.5009
668.1722, 316.9896
668.6543, 332.5738
669.1364, 347.9839
669.6185, 344.2863
670.1006, 325.6327
670.5828, 318.4298
671.0649, 326.6432
671.5470, 333.1455
672.0291, 331.3466
672.5112, 325.9747
672.9933, 321.6653
673.4755, 318.4184
673.9576, 318.0161
674.4397, 325.0313
674.9218, 331.5570
675.4039, 330.6639
675.8860, 324.3296
676.3682, 316.5792
676.8503, 309.0843
677.3324, 304.4354
677.8145, 307.5411
678.2966, 319.8332
678.7787, 328.3199
679.2609, 331.2982
679.7430, 332.8393
680.2251, 335.2456
680.7072, 336.9060
681.1893, 335.2776
681.6714, 329.5463
682.1536, 323.5423
682.6357, 316.1047
683.1178, 311.4615
683.5999, 318.5267
684.0820, 335.4708
684.5641, 349.5558
685.0463, 353.9716
685.5284, 351.2180
686.0105, 346.7829
686.4926, 339.9519
686.9747, 333.1390
687.4568, 323.2068
687.9390, 316.4605
688.4211, 318.4220
688.9032, 324.8660
689.3853, 327.3334
689.8674, 322.0002
690.3495, 316.5839
690.8317, 318.9412
691.3138, 325.7228
691.7959, 330.2070
692.2780, 331.4151
692.7601, 328.5760
693.2422, 319.9702
693.7244, 308.1794
694.2065, 303.5434
694.6886, 312.8285
695.1707, 318.4092
695.6528, 314.9493
696.1349, 312.2425
696.6171, 319.1957
697.0992, 331.8660
697.5813, 338.3959
698.0634, 331.2317
698.5455, 320.8083
699.0276, 320.9578
699.5098, 328.1852
699.9919, 328.3608
700.4740, 318.2389
700.9561, 308.4355
701.4382, 308.2133
701.9203, 316.1237
702.4025, 320.6525
702.8846, 316.6948
703.3667, 316.1562
703.8488, 322.5323
704.3309, 330.4828
704.8130, 337.5354
705.2952, 342.6026
705.7773, 343.8642
706.2594, 338.8538
706.7415, 331.7853
707.2236, 327.7643
707.7057, 326.8182
708.1879, 330.7856
708.6700, 341.3501
709.1521, 349.4293
709.6342, 345.1581
710.1163, 329.2738
710.5984, 319.5719
711.0806, 316.9664
711.5627, 318.9705
712.0448, 331.1095
712.5269, 343.4824
713.0090, 346.5990
713.4911, 341.0956
713.9733, 335.2887
714.4554, 336.1247
714.9375, 337.6351
715.4196, 326.7240
715.9017, 305.6480
716.3839, 292.4116
716.8660, 291.6636
717.3481, 300.1998
717.8302, 318.1326
718.3123, 345.3130
718.7944, 358.6103
719.2766, 347.1398
719.7587, 337.1379
720.2408, 333.2039
720.7229, 332.6165
721.2050, 334.7604
721.6871, 338.1816
722.1693, 338.0623
722.6514, 328.2549
723.1335, 316.2949
723.6156, 317.1773
724.0977, 328.7541
724.5798, 334.5077
725.0620, 329.3608
725.5441, 320.9427
726.0262, 316.4399
726.5083, 315.8518
726.9904, 317.9105
727.4725, 327.4890
727.9547, 333.3159
728.4368, 330.7355
728.9189, 325.6840
729.4010, 322.3905
729.8831, 321.6833
730.3652, 323.8242
730.8474, 332.3316
731.3295, 340.2209
731.8116, 333.0248
732.2937, 314.7661
732.7758, 307.6817
733.2579, 318.5696
733.7401, 331.9803
734.2222, 331.7445
734.7043, 318.6434
735.1864, 312.6123
735.6685, 321.5117
736.1506, 327.2835
736.6328, 325.9528
737.1149, 322.2508
737.5970, 318.4322
738.0791, 315.5401
738.5612, 315.9799
739.0433, 323.2885
739.5255, 331.6679
740.0076, 335.0315
740.4897, 334.0041
740.9718, 328.7224
741.4539, 319.1844
741.9360, 312.8390
742.4182, 317.3235
742.9003, 330.9811
743.3824, 339.4247
743.8645, 343.0779
744.3466, 340.5350
744.8287, 323.0127
745.3109, 307.0332
745.7930, 305.6740
746.2751, 315.9735
746.7572, 324.8956
747.2393, 327.8441
747.7214, 327.3273
748.2036, 321.8804
748.6857, 315.3861
749.1678, 317.3248
749.6499, 328.3600
750.1320, 338.5315
750.6141, 339.9432
751.0963, 334.9167
751.5784, 333.0621
752.0605, 336.6944
752.5426, 336.8470
753.0247, 329.0160
753.5068, 321.0493
753.9890, 317.3564
754.4711, 317.2645
754.9532, 319.2320
755.4353, 325.6612
755.9174, 329.0536
756.3995, 320.3397
756.8817, 309.5676
757.3638, 310.8875
757.8459, 323.2655
758.3280, 335.5728
758.8101, 341.1796
759.2922, 341.1697
759.7744, 335.8569
760.2565, 324.1299
760.7386, 319.1924
761.2207, 325.8546
761.7028, 332.3331
762.1849, 330.2965
762.6671, 322.8794
763.1492, 318.1073
763.6313, 316.4514
764.1134, 316.7019
764.5955, 321.3730
765.0776, 325.4290
765.5598, 322.8824
766.0419, 316.8584
766.5240, 316.0554
767.0061, 324.3978
767.4882, 333.7282
767.9703, 331.7510
768.4525, 320.9912
768.9346, 315.1538
769.4167, 315.1440
769.8988, 320.1988
770.3809, 333.3304
770.8630, 346.9197
771.3452, 344.8745
771.8273, 318.6606
772.3094, 301.4884
772.7915, 294.6540
773.2736, 294.9189
773.7557, 307.1736
774.2379, 322.9353
774.7200, 330.4172
775.2021, 327.1880
775.6842, 322.5968
776.1663, 324.2836
776.6484, 328.6088
777.1306, 329.9936
777.6127, 328.6256
778.0948, 325.4693
778.5769, 320.6524
779.0590, 317.2034
779.5411, 319.9263
780.0233, 329.1313
780.5054, 330.2465
780.9875, 313.0818
781.4696, 304.7675
781.9517, 325.5342
782.4338, 347.1799
782.9160, 341.8848
783.3981, 312.4013
783.8802, 291.4964
784.3623, 297.3669
784.8444, 307.7239
785.3265, 306.6910
785.8087, 301.3496
786.2908, 304.3247
786.7729, 316.5847
787.2550, 328.0463
787.7371, 330.4427
788.2192, 326.9858
788.7014, 327.8753
789.1835, 334.1277
789.6656, 333.0928
790.1477, 317.8280
790.6298, 305.3568
791.1119, 311.0775
791.5941, 330.8141
792.0762, 344.7462
792.5583, 353.6470
793.0404, 355.7086
793.5225, 342.6224
794.0046, 329.6416
794.4868, 330.3264
794.9689, 339.6182
795.4510, 343.5656
795.9331, 335.7932
796.4152, 325.6257
796.8973, 323.5790
797.3795, 326.5146
797.8616, 326.5775
798.3437, 323.2549
798.8258, 318.3423
799.3079, 312.2805
799.7900, 306.7633
800.2722, 304.7888
800.7543, 306.4463
801.2364, 311.4566
801.7185, 325.6150
802.2006, 335.0909
802.6827, 332.9183
803.1649, 325.7234
803.6470, 320.8154
804.1291, 318.9072
804.6112, 315.3159
805.0933, 303.4709
805.5754, 293.9850
806.0576, 296.4102
806.5397, 306.3351
807.0218, 317.8333
807.5039, 328.5150
807.9860, 334.4264
808.4681, 330.9360
808.9503, 321.1227
809.4324, 313.9410
809.9145, 309.3135
810.3966, 309.9291
810.8787, 319.1908
811.3608, 326.3216
811.8430, 320.3829
812.3251, 303.6526
812.8072, 292.8076
813.2893, 287.6363
813.7714, 288.3654
814.2535, 300.4970
814.7357, 313.4895
815.2178, 321.4333
815.6999, 324.5555
816.1820, 324.5697
816.6641, 321.7948
817.1462, 317.4792
817.6284, 309.0203
818.1105, 301.3762
818.5926, 306.5012
819.0747, 321.7672
819.5568, 329.7324
820.0389, 321.9578
820.5211, 308.1751
821.0032, 303.8596
821.4853, 309.5763
821.9674, 315.7353
822.4495, 323.8523
822.9316, 328.4672
823.4138, 325.6194
823.8959, 319.8072
824.3780, 316.6245
824.8601, 316.0691
825.3422, 315.9221
825.8243, 316.7548
826.3065, 316.9830
826.7886, 315.6859
827.2707, 313.6728
827.7528, 310.6688
828.2349, 307.5391
828.7170, 307.6372
829.1992, 314.3407
829.6813, 322.9004
830.1633, 327.2659
830.6454, 328.1749
831.1276, 327.1781
831.6097, 324.6644
832.0918, 323.1295
832.5739, 324.3296
833.0560, 327.5407
833.5381, 331.5804
834.0203, 338.6042
834.5024, 338.6038
834.9845, 326.1259
835.4666, 314.0288
835.9487, 308.4851
836.4308, 307.3010
836.9130, 308.1196
837.3951, 311.3950
837.8772, 313.3631
838.3593, 314.1655
838.8414, 312.2940
839.3235, 302.0875
839.8057, 290.6842
840.2878, 291.0179
840.7699, 304.4001
841.2520, 316.2387
841.7341, 311.9689
842.2162, 300.9837
842.6984, 301.5951
843.1805, 311.5692
843.6626, 319.6581
844.1447, 323.2149
844.6268, 325.0845
845.1089, 328.0232
845.5911, 330.9207
846.0732, 327.8074
846.5553, 314.2364
847.0374, 307.0605
847.5195, 313.9412
848.0016, 319.9383
848.4838, 313.6245
848.9659, 301.1941
849.4480, 294.2389
849.9301, 293.7937
850.4122, 298.4647
850.8943, 314.8734
851.3765, 329.5047
851.8586, 330.4041
852.3407, 323.8574
852.8228, 322.1490
853.3049, 328.2625
853.7870, 333.1870
854.2692, 327.1157
854.7513, 315.5692
855.2334, 307.4265
855.7155, 302.8630
856.1976, 304.1364
856.6797, 311.9461
857.1619, 319.4963
857.6440, 319.9230
858.1261, 315.2761
858.6082, 317.6792
859.0903, 331.3263
859.5724, 338.3276
860.0546, 333.5253
860.5367, 325.6540
861.0188, 317.9544
861.5009, 311.8476
861.9830, 311.1454
862.4651, 317.9549
862.9473, 325.1759
863.4294, 335.2175
863.9115, 341.5221
864.3936, 338.8435
864.8757, 330.2639
865.3578, 318.9966
865.8400, 306.3864
866.3221, 298.3113
866.8042, 302.2809
867.2863, 311.0336
867.7684, 314.3202
868.2505, 313.9201
868.7327, 316.0164
869.2148, 321.9436
869.6969, 327.6977
870.1790, 329.8123
870.6611, 329.0607
871.1432, 327.4427
871.6254, 324.4463
872.1075, 325.2643
872.5896, 332.3864
873.0717, 338.9929
873.5538, 340.9637
874.0359, 339.1200
874.5181, 335.5085
875.0002, 328.6361
875.4823, 323.2428
875.9644, 320.0466
876.4465, 317.5685
876.9286, 315.5140
877.4108, 313.6726
877.8929, 311.0555
878.3750, 307.7299
878.8571, 307.2918
879.3392, 314.7084
879.8214, 322.4603
880.3035, 323.9600
880.7856, 321.9367
881.2677, 320.6145
881.7498, 320.7428
882.2319, 321.1368
882.7141, 320.8947
883.1962, 320.7725
883.6783, 322.9794
884.1604, 326.8471
884.6425, 327.0303
885.1246, 322.6532
885.6068, 320.7652
886.0889, 325.9256
886.5710, 333.6491
887.0531, 335.0055
887.5352, 328.1838
888.0173, 325.6266
888.4995, 331.0774
888.9816, 334.2889
889.4637, 326.1348
889.9458, 318.8821
890.4279, 329.0216
890.9100, 354.4664
891.3922, 367.7546
891.8743, 357.4251
892.3564, 344.4025
892.8385, 331.1014
893.3206, 321.1143
893.8027, 319.0239
894.2849, 322.8195
894.7670, 326.1619
895.2491, 325.9470
895.7312, 327.8968
896.2133, 344.3317
896.6954, 361.7604
897.1776, 354.3419
897.6597, 328.1752
898.1418, 308.1196
898.6239, 303.0844
899.1060, 307.1368
899.5881, 315.1159
900.0703, 326.0515
900.5524, 337.3322
901.0345, 349.3436
901.5166, 351.3625
901.9987, 338.3282
902.4808, 324.8223
902.9630, 322.7281
903.4451, 329.7083
903.9272, 336.4879
904.4093, 345.5884
904.8914, 349.2216
905.3735, 342.3554
905.8557, 335.7211
906.3378, 336.1518
906.8199, 338.4298
907.3020, 333.9083
907.7841, 320.8919
908.2662, 311.8100
908.7484, 310.4233
909.2305, 312.6373
909.7126, 321.2628
910.1947, 329.3651
910.6768, 326.1103
911.1589, 313.4836
911.6411, 305.8169
912.1232, 312.7563
912.6053, 323.0066
913.0874, 325.9583
913.5695, 324.1594
914.0516, 319.9773
914.5338, 315.0902
915.0159, 315.2799
915.4980, 323.2968
915.9801, 333.1222
916.4622, 337.2489
916.9443, 335.9148
917.4265, 328.3432
917.9086, 314.0632
918.3907, 306.4418
918.8728, 310.0223
919.3549, 319.2191
919.8370, 330.0118
920.3192, 341.3415
920.8013, 345.2679
921.2834, 337.5826
921.7655, 332.8288
922.2476, 335.7540
922.7297, 337.2941
923.2119, 330.4279
923.6940, 319.5719
924.1761, 312.6192
924.6582, 310.9398
925.1403, 308.1530
925.6224, 297.4269
926.1046, 292.4213
926.5867, 304.3959
927.0688, 321.5952
927.5509, 331.4384
928.0330, 333.0753
928.5151, 332.4706
928.9973, 331.0415
929.4794, 330.2916
929.9615, 332.9680
930.4436, 335.9030
930.9257, 333.8059
931.4078, 328.0974
931.8900, 324.9901
932.3721, 327.1409
932.8542, 329.7540
933.3363, 325.6955
933.8184, 318.4629
934.3005, 317.5128
934.7827, 322.2548
935.2648, 329.1089
935.7469, 337.0941
936.2290, 342.9620
936.7111, 343.5670
937.1932, 340.1743
937.6754, 337.6481
938.1575, 336.5291
938.6396, 330.6299
939.1217, 316.4422
939.6038, 307.2376
940.0859, 312.4400
940.5681, 324.1776
941.0502, 327.5899
941.5323, 320.2244
942.0144, 317.3746
942.4965, 323.3340
942.9786, 327.6768
943.4608, 326.7297
943.9429, 324.5611
944.4250, 324.8175
944.9071, 326.8484
945.3892, 327.2559
945.8713, 324.0750
946.3535, 321.8056
946.8356, 323.6973
947.3177, 324.8280
947.7998, 320.0817
948.2819, 312.8699
948.7640, 308.6895
949.2462, 308.9092
949.7283, 312.6514
950.2104, 322.8228
950.6925, 332.9746
951.1746, 338.2363
951.6567, 339.1364
952.1389, 334.5921
952.6210, 326.2458
953.1031, 320.9642
953.5852, 323.2425
954.0673, 327.5952
954.5494, 325.2094
955.0316, 319.5279
955.5137, 320.3251
955.9958, 327.3018
956.4779, 335.2672
956.9600, 342.3199
957.4421, 346.0566
957.9243, 342.9116
958.4064, 334.7845
958.8885, 330.7887
959.3706, 331.1987
959.8527, 330.4209
960.3348, 326.9594
960.8170, 325.0448
961.2991, 327.7842
961.7812, 333.4456
962.2633, 338.3884
962.7454, 343.3942
963.2275, 344.0449
963.7097, 338.7579
964.1918, 332.0222
964.6739, 323.5589
965.1560, 315.8277
965.6381, 309.8592
966.1202, 306.2039
966.6024, 310.5548
967.0845, 338.1099
967.5666, 351.2188
968.0487, 330.5751
968.5308, 310.9174
969.0129, 315.0720
969.4951, 331.5832
969.9772, 340.8199
970.4593, 339.3740
970.9414, 336.4265
971.4235, 335.8616
971.9056, 333.4856
972.3878, 321.5921
972.8699, 310.5576
973.3520, 315.7273
973.8341, 333.1408
974.3162, 343.5081
974.7983, 337.0668
975.2805, 328.1020
975.7626, 328.7218
976.2447, 331.8617
976.7268, 327.8929
977.2089, 319.7324
977.6910, 315.2912
978.1732, 316.5968
978.6553, 319.9762
979.1374, 322.8294
979.6195, 325.4917
980.1016, 327.7198
980.5837, 330.3175
981.0659, 337.9771
981.5480, 349.6959
982.0301, 353.5676
982.5122, 343.1396
982.9943, 330.0653
983.4764, 333.3510
983.9586, 349.4226
984.4407, 358.2172
984.9228, 359.7941
985.4049, 352.5816
985.8870, 335.1714
986.3691, 318.5839
986.8513, 311.5289
987.3334, 312.4014
987.8155, 317.4882
988.2976, 328.1278
988.7797, 333.5056
989.2618, 331.8341
989.7440, 329.1596
990.2261, 327.1367
990.7082, 326.6770
991.1903, 329.4030
991.6724, 335.2024
992.1545, 338.7570
992.6367, 335.5944
993.1188, 339.9278
993.6009, 364.5334
994.0830, 382.7429
994.5651, 372.4594
995.0472, 347.2714
995.5294, 335.7471
996.0115, 341.7812
996.4936, 344.2774
996.9757, 337.9500
997.4578, 333.8760
997.9399, 337.7527
998.4221, 342.8004
998.9042, 342.9126
999.3863, 339.1018
999.8684, 336.3430
1000.351, 336.5544
1000.833, 335.4147
1001.315, 328.5186
1001.797, 323.3527
1002.279, 325.7081
1002.761, 331.7940
1003.243, 337.4938
1003.725, 341.6830
1004.207, 342.2496
1004.690, 335.0861
1005.172, 328.6992
1005.654, 327.6562
1006.136, 330.0877
1006.618, 335.6968
1007.100, 342.8310
1007.582, 349.5206
1008.064, 354.9839
1008.547, 355.9659
1009.029, 344.1871
1009.511, 332.2113
1009.993, 336.4264
1010.475, 347.8782
1010.957, 351.6152
1011.439, 346.8213
1011.921, 340.2885
1012.403, 335.1796
1012.886, 332.3645
1013.368, 335.1894
1013.850, 339.6943
1014.332, 337.6789
1014.814, 330.9877
1015.296, 325.2772
1015.778, 322.2700
1016.260, 323.3903
1016.742, 330.8523
1017.225, 339.0899
1017.707, 336.0793
1018.189, 325.6322
1018.671, 321.7767
1019.153, 324.9487
1019.635, 329.7647
1020.117, 334.2511
1020.599, 339.6183
1021.082, 348.3311
1021.564, 357.5298
1022.046, 355.9709
1022.528, 344.5787
1023.010, 335.7905
1023.492, 331.1430
1023.974, 333.3824
1024.456, 345.0827
1024.938, 357.9033
1025.421, 358.7456
1025.903, 348.7331
1026.385, 341.7252
1026.867, 337.7912
1027.349, 336.4978
1027.831, 338.1074
1028.313, 340.9877
1028.795, 344.5833
1029.278, 347.6585
1029.760, 346.8902
1030.242, 341.4321
1030.724, 339.5865
1031.206, 342.6747
1031.688, 344.7279
1032.170, 343.6582
1032.652, 342.1711
1033.135, 343.0290
1033.617, 345.1587
1034.099, 344.0471
1034.581, 337.2175
1035.063, 334.5806
1035.545, 338.1339
1036.027, 341.9905
1036.509, 344.1202
1036.991, 345.5410
1037.474, 347.2392
1037.956, 349.2124
1038.438, 351.7182
1038.920, 358.7187
1039.402, 358.2508
1039.884, 341.4503
1040.366, 328.4753
1040.848, 331.5376
1041.330, 341.2707
1041.813, 344.6996
1042.295, 341.4114
1042.777, 340.7871
1043.259, 345.9342
1043.741, 349.1479
1044.223, 346.8560
1044.705, 345.4757
1045.187, 350.4016
1045.670, 357.7967
1046.152, 360.7531
1046.634, 358.3979
1047.116, 356.3257
1047.598, 356.3990
1048.080, 354.8407
1048.562, 345.5954
1049.044, 339.3548
1049.526, 347.9657
1050.009, 364.3795
1050.491, 371.6646
1050.973, 365.9716
1051.455, 360.5733
1051.937, 356.0592
1052.419, 354.1557
1052.901, 359.4568
1053.383, 364.2758
1053.865, 359.7393
1054.348, 349.0315
1054.830, 342.8614
1055.312, 343.5275
1055.794, 347.5025
1056.276, 359.9219
1056.758, 368.3342
1057.240, 363.9070
1057.722, 354.6256
1058.205, 346.8062
1058.687, 341.9938
1059.169, 343.1035
1059.651, 353.6046
1060.133, 363.3698
1060.615, 371.1017
1061.097, 375.1068
1061.579, 371.8196
1062.062, 365.8502
1062.544, 364.1233
1063.026, 365.9977
1063.508, 362.8232
1063.990, 346.9714
1064.472, 335.0668
1064.954, 334.9272
1065.436, 339.2902
1065.918, 346.4327
1066.401, 353.1487
1066.883, 355.8083
1067.365, 353.8926
1067.847, 348.4040
1068.329, 335.5271
1068.811, 325.5591
1069.293, 325.2381
1069.775, 327.3892
1070.257, 324.5962
1070.740, 321.2073
1071.222, 325.7711
1071.704, 339.2509
1072.186, 352.9723
1072.668, 371.5122
1073.150, 378.9486
1073.632, 355.3368
1074.114, 328.7819
1074.597, 325.4099
1075.079, 336.3596
1075.561, 342.0540
1076.043, 338.5953
1076.525, 336.9491
1077.007, 342.7032
1077.489, 350.3856
1077.971, 361.3009
1078.453, 369.4106
1078.936, 367.1004
1079.418, 358.4263
1079.900, 352.1556
1080.382, 350.3068
1080.864, 348.2518
1081.346, 343.3830
1081.828, 338.4720
1082.310, 332.8920
1082.792, 329.7377
1083.275, 334.1638
1083.757, 342.8029
1084.239, 347.1865
1084.721, 345.0355
1085.203, 346.0191
1085.685, 361.7459
1086.167, 372.6065
1086.649, 362.3327
1087.131, 347.1413
1087.614, 341.8548
1088.096, 344.8058
1088.578, 349.0186
1089.060, 352.9705
1089.542, 355.8423
1090.024, 358.1500
1090.506, 358.2698
1090.988, 352.4576
1091.471, 346.5020
1091.953, 347.8001
1092.435, 353.1707
1092.917, 353.0784
1093.399, 344.4111
1093.881, 339.0829
1094.363, 346.8997
1094.845, 352.3622
1095.328, 342.2193
1095.810, 331.2239
1096.292, 333.9940
1096.774, 347.2164
1097.256, 361.8629
1097.738, 377.3811
1098.220, 384.2447
1098.702, 372.9132
1099.184, 360.5088
1099.667, 353.3370
1100.149, 349.2259
1100.631, 346.1333
1101.113, 336.1029
1101.595, 346.4147
1102.077, 352.2996
1102.559, 353.9954
1103.041, 338.9555
1103.523, 345.5264
1104.006, 343.4370
1104.488, 340.9922
1104.970, 350.6046
1105.452, 337.9989
1105.934, 347.4201
1106.416, 348.0486
1106.898, 352.7013
1107.380, 348.6400
1107.863, 347.2705
1108.345, 354.6175
1108.827, 357.1379
1109.309, 352.0734
1109.791, 356.9820
1110.273, 349.1111
1110.755, 344.3699
1111.237, 339.7706
1111.719, 334.2781
1112.202, 331.1254
1112.684, 331.6024
1113.166, 334.0945
1113.648, 338.4666
1114.130, 343.7863
1114.612, 347.6822
1115.094, 349.3518
1115.576, 353.2744
1116.058, 365.9449
1116.541, 370.7915
1117.023, 358.0906
1117.505, 345.1125
1117.987, 341.5720
1118.469, 345.7102
1118.951, 356.3100
1119.433, 376.0759
1119.915, 381.7198
1120.398, 364.5691
1120.880, 351.5093
1121.362, 348.6429
1121.844, 347.7064
1122.326, 343.5509
1122.808, 338.5320
1123.290, 336.8130
1123.772, 338.4963
1124.255, 341.4521
1124.737, 345.8210
1125.219, 351.5044
1125.701, 360.1510
1126.183, 365.2649
1126.665, 362.0331
1127.147, 355.9007
1127.629, 356.2269
1128.111, 362.2320
1128.594, 357.1549
1129.076, 337.6942
1129.558, 330.5830
1130.040, 341.8560
1130.522, 350.4416
1131.004, 345.0537
1131.486, 335.7248
1131.968, 336.1605
1132.450, 344.1430
1132.933, 346.6664
1133.415, 343.7850
1133.897, 344.8232
1134.379, 350.8780
1134.861, 355.5331
1135.343, 355.9702
1135.825, 354.9797
1136.307, 355.8452
1136.790, 357.3063
1137.272, 354.5684
1137.754, 348.8567
1138.236, 348.5529
1138.718, 353.3181
1139.200, 352.5640
1139.682, 343.0644
1140.164, 338.1322
1140.646, 351.4932
1141.129, 372.3058
1141.611, 381.8894
1142.093, 383.2177
1142.575, 384.6292
1143.057, 385.0968
1143.539, 376.6012
1144.021, 358.4850
1144.503, 342.2160
1144.985, 335.6157
1145.468, 335.3776
1145.950, 340.7318
1146.432, 347.7207
1146.914, 350.5113
1147.396, 349.9868
1147.878, 347.6664
1148.360, 344.7198
1148.842, 344.1986
1149.325, 348.0571
1149.807, 353.0243
1150.289, 352.8912
1150.771, 361.7522
1151.253, 366.7669
1151.735, 368.1422
1152.217, 354.9774
1152.699, 360.5881
1153.182, 358.6746
1153.664, 356.4523
1154.146, 364.7056
1154.628, 353.6556
1155.110, 361.7428
1155.592, 362.1907
1156.074, 366.1350
1156.556, 362.5083
1157.038, 361.2201
1157.521, 367.5053
1158.003, 369.5970
1158.485, 365.0988
1158.967, 369.2653
1159.449, 357.9508
1159.931, 360.2211
1160.413, 368.3526
1160.895, 364.2351
1161.377, 368.5399
1161.860, 369.6373
1162.342, 356.1568
1162.824, 368.0284
1163.306, 368.9360
1163.788, 358.5860
1164.270, 369.5889
1164.752, 360.7909
1165.234, 359.0606
1165.717, 362.6494
1166.199, 360.6933
1166.681, 367.4791
1167.163, 363.2426
1167.645, 364.8242
1168.127, 364.4042
1168.609, 361.0892
1169.091, 359.4051
1169.573, 361.7683
1170.056, 362.8019
1170.538, 356.3599
1171.020, 346.2759
1171.502, 344.8058
1171.984, 351.3332
1172.466, 355.1563
1172.948, 356.0163
1173.430, 358.2592
1173.912, 362.8994
1174.395, 365.1454
1174.877, 361.2751
1175.359, 355.3583
1175.841, 352.3759
1176.323, 352.9552
1176.805, 362.4118
1177.287, 376.3828
1177.769, 380.1959
1178.252, 373.3100
1178.734, 365.7525
1179.216, 362.1977
1179.698, 360.4352
1180.180, 358.8275
1180.662, 357.4531
1181.144, 355.1255
1181.626, 353.9277
1182.109, 358.3782
1182.591, 366.2477
1183.073, 371.4821
1183.555, 372.4903
1184.037, 372.1152
1184.519, 371.0908
1185.001, 370.0461
1185.483, 369.5459
1185.965, 368.9000
1186.448, 366.5830
1186.930, 364.3272
1187.412, 365.0262
1187.894, 368.6136
1188.376, 371.9126
1188.858, 374.7795
1189.340, 376.5290
1189.822, 377.6319
1190.304, 376.8917
1190.787, 371.2513
1191.269, 365.8982
1191.751, 365.1011
1192.233, 368.2726
1192.715, 374.3441
1193.197, 385.7412
1193.679, 388.5336
1194.161, 379.5082
1194.644, 371.6453
1195.126, 368.2836
1195.608, 363.9845
1196.090, 353.8514
1196.572, 344.9341
1197.054, 351.2114
1197.536, 369.3569
1198.018, 370.3465
1198.500, 355.2767
1198.983, 351.7694
1199.465, 362.6079
1199.947, 371.6471
1200.429, 372.2573
1200.911, 367.7983
1201.393, 360.0219
1201.875, 352.6696
1202.357, 353.5602
1202.839, 359.6793
1203.322, 366.7046
1203.804, 372.5304
1204.286, 370.9623
1204.768, 362.3669
1205.250, 356.8531
1205.732, 360.7553
1206.214, 365.9855
1206.696, 367.2049
1207.179, 365.8003
1207.661, 356.1092
1208.143, 349.4147
1208.625, 368.9507
1209.107, 402.9279
1209.589, 412.2333
1210.071, 384.4996
1210.553, 359.7506
1211.036, 345.8857
1211.518, 341.4781
1212.000, 355.3683
1212.482, 368.6682
1212.964, 365.2053
1213.446, 355.9942
1213.928, 359.8712
1214.410, 375.9600
1214.892, 383.6519
1215.375, 379.3294
1215.857, 376.3693
1216.339, 375.8568
1216.821, 375.4187
1217.303, 374.1684
1217.785, 373.0443
1218.267, 373.0558
1218.749, 373.4459
1219.231, 372.0506
1219.714, 369.0433
1220.196, 366.9631
1220.678, 365.8028
1221.160, 365.5009
1221.642, 365.9413
1222.124, 366.0038
1222.606, 365.0720
1223.088, 364.5192
1223.571, 366.3606
1224.053, 369.0797
1224.535, 368.6984
1225.017, 368.3971
1225.499, 376.8078
1225.981, 389.4829
1226.463, 392.1865
1226.945, 383.0017
1227.427, 377.2419
1227.910, 386.6144
1228.392, 392.5256
1228.874, 378.6306
1229.356, 365.1213
1229.838, 369.3346
1230.320, 378.3257
1230.802, 375.2807
1231.284, 363.1346
1231.766, 356.5056
1232.249, 357.9643
1232.731, 361.0992
1233.213, 368.7533
1233.695, 372.4187
1234.177, 368.6782
1234.659, 364.0656
1235.141, 360.9569
1235.623, 361.3157
1236.106, 369.8059
1236.588, 383.7853
1237.070, 382.6122
1237.552, 365.6740
1238.034, 362.8601
1238.516, 376.0162
1238.998, 384.5142
1239.480, 382.0844
1239.963, 378.4224
1240.445, 380.8244
1240.927, 385.9985
1241.409, 390.5966
1241.891, 393.5835
1242.373, 392.9781
1242.855, 389.2295
1243.337, 379.7281
1243.819, 368.2805
1244.302, 368.6446
1244.784, 385.3472
1245.266, 398.0812
1245.748, 390.8141
1246.230, 382.3584
1246.712, 383.0650
1247.194, 385.5350
1247.676, 384.2531
1248.158, 381.1974
1248.641, 377.6095
1249.123, 374.6018
1249.605, 380.1394
1250.087, 405.8835
1250.569, 411.0678
1251.051, 380.2692
1251.533, 362.8453
1252.015, 374.5906
1252.498, 393.5915
1252.980, 408.3211
1253.462, 414.6161
1253.944, 401.9933
1254.426, 375.6284
1254.908, 365.6471
1255.390, 374.8140
1255.872, 380.1346
1256.354, 381.8158
1256.837, 368.9576
1257.319, 374.8742
1257.801, 373.2664
1258.283, 371.3501
1258.765, 379.9093
1259.247, 369.1651
1259.729, 377.5582
1260.211, 378.3121
1260.693, 382.5622
1261.176, 379.2423
1261.658, 378.2599
1262.140, 384.8509
1262.622, 387.2484
1263.104, 383.0562
1263.586, 387.5286
1264.068, 376.5200
1264.550, 379.0962
1265.033, 387.5343
1265.515, 383.7228
1265.997, 388.3336
1266.479, 389.7367
1266.961, 376.5621
1267.443, 388.7396
1267.925, 389.9531
1268.407, 379.9090
1268.890, 387.0110
1269.372, 387.1250
1269.854, 379.5241
1270.336, 372.6111
1270.818, 371.0811
1271.300, 373.1198
1271.782, 378.5421
1272.264, 383.5492
1272.746, 376.6387
1273.229, 365.9101
1273.711, 370.8757
1274.193, 384.9644
1274.675, 387.2278
1275.157, 375.7444
1275.639, 367.9012
1276.121, 372.2231
1276.603, 377.5924
1277.085, 380.2131
1277.568, 380.6219
1278.050, 375.8544
##END=



