##NAMES=Calcite
##RRUFFID=R050307
##IDEAL CHEMISTRY=CaCO_3_
##LOCALITY=Zaire
##OWNER=RRUFF
##SOURCE=Eugene Schlepp
##DESCRIPTION=Group of pink prismatic crystals
##STATUS=The identification of this mineral has been confirmed by X-ray diffraction and chemical analysis
##URL=rruff.info/R050307
##MEASURED CHEMISTRY=Ca_1.00_CO_3_
93.79987, 10.07221
94.28198, 11.83698
94.76410, 12.88925
95.24622, 12.76664
95.72833, 11.91152
96.21045, 11.05946
96.69257, 10.18458
97.17468, 9.631941
97.65680, 9.857935
98.13892, 10.84701
98.62103, 11.82868
99.10315, 12.55074
99.58527, 13.07930
100.0674, 13.81991
100.5495, 14.77557
101.0316, 15.92358
101.5137, 17.33125
101.9958, 19.16960
102.4780, 20.68638
102.9601, 21.47793
103.4422, 21.34749
103.9243, 21.80292
104.4064, 22.98206
104.8885, 24.65950
105.3707, 26.53518
105.8528, 28.96165
106.3349, 31.06496
106.8170, 32.40396
107.2991, 32.16711
107.7813, 32.72335
108.2634, 34.61277
108.7455, 37.37986
109.2276, 39.42816
109.7097, 40.04789
110.1918, 40.47838
110.6740, 41.23377
111.1561, 42.15690
111.6382, 43.59614
112.1203, 45.66568
112.6024, 48.32856
113.0845, 51.25206
113.5667, 54.85417
114.0488, 58.42829
114.5309, 61.53743
115.0130, 63.21728
115.4951, 65.20781
115.9772, 68.21309
116.4594, 72.23807
116.9415, 76.16736
117.4236, 79.59281
117.9057, 82.71202
118.3878, 85.72363
118.8699, 88.75716
119.3521, 91.69243
119.8342, 94.36029
120.3163, 96.70125
120.7984, 99.32179
121.2805, 102.6892
121.7626, 106.5803
122.2448, 110.6138
122.7269, 115.3331
123.2090, 119.7595
123.6911, 122.7066
124.1732, 123.7946
124.6553, 124.4710
125.1375, 126.0258
125.6196, 128.2668
126.1017, 130.5851
126.5838, 132.2949
127.0659, 133.8938
127.5480, 136.2309
128.0302, 139.4034
128.5123, 143.4270
128.9944, 148.4160
129.4765, 154.3412
129.9586, 160.9298
130.4407, 168.1096
130.9229, 175.8251
131.4050, 183.8500
131.8871, 191.7925
132.3692, 200.1187
132.8513, 209.6693
133.3334, 220.0956
133.8156, 230.6647
134.2977, 241.2882
134.7798, 252.7525
135.2619, 265.6338
135.7440, 280.8654
136.2261, 297.4586
136.7083, 311.9200
137.1904, 324.0724
137.6725, 335.0019
138.1546, 345.6246
138.6367, 355.7875
139.1188, 366.8116
139.6010, 379.6036
140.0831, 394.1277
140.5652, 406.8632
141.0473, 417.1541
141.5294, 426.8081
142.0115, 437.9152
142.4937, 450.6662
142.9758, 464.5663
143.4579, 479.7053
143.9400, 496.1273
144.4221, 513.0194
144.9042, 529.7475
145.3864, 547.2895
145.8685, 566.8375
146.3506, 588.2504
146.8327, 611.9691
147.3148, 638.4119
147.7969, 667.6103
148.2791, 698.9183
148.7612, 730.4862
149.2433, 764.0836
149.7254, 804.5999
150.2075, 853.5645
150.6896, 907.7577
151.1718, 965.7208
151.6539, 1029.461
152.1360, 1094.075
152.6181, 1164.914
153.1002, 1237.494
153.5823, 1297.989
154.0645, 1356.149
154.5466, 1395.306
155.0287, 1407.917
155.5108, 1387.962
155.9929, 1348.346
156.4750, 1286.507
156.9572, 1205.297
157.4393, 1117.176
157.9214, 1013.553
158.4035, 909.7380
158.8856, 814.9756
159.3677, 731.1998
159.8499, 656.2724
160.3320, 591.3346
160.8141, 535.7853
161.2962, 486.3326
161.7783, 442.5664
162.2604, 404.5086
162.7426, 372.1705
163.2247, 348.0132
163.7068, 327.3465
164.1889, 308.1631
164.6710, 290.6485
165.1531, 275.4735
165.6353, 264.0053
166.1174, 254.7153
166.5995, 245.9592
167.0816, 236.5660
167.5637, 227.9342
168.0458, 221.2633
168.5280, 216.6121
169.0101, 212.2584
169.4922, 206.9124
169.9743, 201.2685
170.4564, 196.3323
170.9385, 193.0993
171.4207, 190.3976
171.9028, 187.0842
172.3849, 183.1010
172.8670, 179.2689
173.3491, 176.2082
173.8312, 173.7224
174.3134, 171.4270
174.7955, 168.7838
175.2776, 166.4150
175.7597, 165.3903
176.2418, 165.9128
176.7239, 166.4698
177.2061, 165.3740
177.6882, 163.1364
178.1703, 161.1689
178.6524, 160.5755
179.1345, 160.5652
179.6166, 159.5825
180.0988, 157.3367
180.5809, 155.1542
181.0630, 154.8854
181.5451, 156.1014
182.0272, 157.0959
182.5093, 156.7005
182.9915, 155.4505
183.4736, 154.7345
183.9557, 154.7505
184.4378, 154.8966
184.9199, 154.3286
185.4020, 153.1269
185.8842, 151.7832
186.3663, 150.2718
186.8484, 148.7818
187.3305, 148.2991
187.8126, 149.1881
188.2947, 150.3211
188.7769, 149.5104
189.2590, 146.8630
189.7411, 144.6035
190.2232, 144.3000
190.7053, 145.6403
191.1874, 146.5900
191.6696, 146.9526
192.1517, 146.9508
192.6338, 146.9734
193.1159, 147.0235
193.5980, 147.0238
194.0801, 146.7707
194.5623, 146.3096
195.0444, 146.4283
195.5265, 147.4122
196.0086, 148.7012
196.4907, 148.9347
196.9728, 147.9793
197.4550, 147.0816
197.9371, 147.0896
198.4192, 148.0186
198.9013, 148.8491
199.3834, 149.5092
199.8655, 150.0041
200.3477, 150.3410
200.8298, 150.5072
201.3119, 150.5655
201.7940, 150.5669
202.2761, 150.5198
202.7582, 150.2574
203.2404, 149.5751
203.7225, 148.8095
204.2046, 148.9977
204.6867, 150.3395
205.1688, 151.9560
205.6509, 153.3712
206.1331, 154.6091
206.6152, 155.5425
207.0973, 156.1286
207.5794, 156.4212
208.0615, 156.5901
208.5436, 156.6576
209.0258, 156.5421
209.5079, 156.1142
209.9900, 155.2642
210.4721, 154.5370
210.9542, 153.7070
211.4363, 153.1170
211.9185, 154.2561
212.4006, 157.9754
212.8827, 161.5964
213.3648, 163.2926
213.8469, 162.5571
214.3290, 161.8399
214.8112, 161.2733
215.2933, 160.8659
215.7754, 160.5956
216.2575, 160.3580
216.7396, 160.4533
217.2217, 161.1678
217.7038, 162.8017
218.1860, 164.1055
218.6681, 164.8698
219.1502, 165.2580
219.6323, 165.9431
220.1144, 167.2771
220.5965, 168.2987
221.0787, 168.2602
221.5608, 166.4483
222.0429, 165.5503
222.5250, 165.9419
223.0071, 167.3412
223.4892, 168.7935
223.9714, 170.6175
224.4535, 172.0208
224.9356, 172.4011
225.4177, 170.9285
225.8998, 170.4721
226.3819, 171.4366
226.8641, 173.4806
227.3462, 175.3864
227.8283, 176.9760
228.3104, 178.6919
228.7925, 180.8859
229.2746, 184.3128
229.7568, 186.4839
230.2389, 186.8045
230.7210, 185.9105
231.2031, 185.8272
231.6852, 186.8872
232.1673, 188.2594
232.6495, 189.4576
233.1316, 190.0002
233.6137, 191.4718
234.0958, 194.1242
234.5779, 197.6653
235.0600, 201.3423
235.5422, 205.6493
236.0243, 209.4371
236.5064, 212.0371
236.9885, 212.4546
237.4706, 213.9467
237.9527, 217.0221
238.4349, 221.0202
238.9170, 224.2077
239.3991, 226.0097
239.8812, 227.8603
240.3633, 230.4398
240.8454, 234.2478
241.3276, 237.4832
241.8097, 239.6578
242.2918, 241.3984
242.7739, 244.0658
243.2560, 247.9335
243.7381, 252.3064
244.2203, 256.9405
244.7024, 261.8230
245.1845, 267.0332
245.6666, 272.7747
246.1487, 278.7363
246.6308, 284.3044
247.1130, 288.7302
247.5951, 294.0236
248.0772, 301.0054
248.5593, 310.2593
249.0414, 319.1900
249.5235, 327.6989
250.0057, 335.9298
250.4878, 344.1599
250.9699, 351.9324
251.4520, 360.5463
251.9341, 370.2877
252.4162, 381.2119
252.8984, 393.2674
253.3805, 406.8301
253.8626, 421.3508
254.3447, 435.5585
254.8268, 449.2172
255.3089, 463.4306
255.7911, 478.0982
256.2732, 493.0858
256.7553, 510.2070
257.2374, 529.7880
257.7195, 551.2753
258.2017, 573.8639
258.6838, 597.2767
259.1659, 622.8480
259.6480, 651.2106
260.1301, 682.1362
260.6122, 715.1306
261.0944, 750.2517
261.5765, 787.5779
262.0586, 827.5800
262.5407, 870.7077
263.0228, 914.9598
263.5049, 959.4653
263.9871, 1004.632
264.4692, 1050.541
264.9513, 1097.458
265.4334, 1145.336
265.9155, 1195.365
266.3976, 1247.200
266.8798, 1299.177
267.3619, 1349.842
267.8440, 1400.100
268.3261, 1453.573
268.8082, 1510.352
269.2903, 1569.881
269.7725, 1631.466
270.2546, 1694.358
270.7367, 1758.831
271.2188, 1823.611
271.7009, 1889.498
272.1830, 1961.737
272.6652, 2040.273
273.1473, 2123.868
273.6294, 2212.562
274.1115, 2306.274
274.5936, 2405.303
275.0757, 2509.987
275.5579, 2620.643
276.0400, 2736.158
276.5221, 2857.448
277.0042, 2979.750
277.4863, 3102.061
277.9684, 3224.895
278.4506, 3341.863
278.9327, 3455.630
279.4148, 3559.426
279.8969, 3641.864
280.3790, 3703.964
280.8611, 3737.917
281.3433, 3741.220
281.8254, 3713.694
282.3075, 3650.573
282.7896, 3550.073
283.2717, 3417.587
283.7538, 3254.708
284.2360, 3060.550
284.7181, 2859.638
285.2002, 2659.162
285.6823, 2459.766
286.1644, 2264.997
286.6465, 2075.155
287.1287, 1895.402
287.6108, 1733.737
288.0929, 1589.842
288.5750, 1458.388
289.0571, 1337.560
289.5392, 1227.147
290.0214, 1129.333
290.5035, 1044.773
290.9856, 970.0988
291.4677, 903.2992
291.9498, 843.8787
292.4319, 790.9712
292.9141, 744.9602
293.3962, 704.3538
293.8783, 665.5397
294.3604, 628.6829
294.8425, 594.9556
295.3246, 565.7023
295.8068, 540.1514
296.2889, 516.3134
296.7710, 493.4589
297.2531, 471.9648
297.7352, 452.7921
298.2173, 435.9372
298.6995, 420.6529
299.1816, 406.9558
299.6637, 394.4951
300.1458, 383.0296
300.6279, 372.6752
301.1100, 362.6706
301.5922, 351.5070
302.0743, 339.7114
302.5564, 329.4691
303.0385, 323.2354
303.5206, 318.9097
304.0027, 313.2596
304.4849, 305.7291
304.9670, 297.6827
305.4491, 290.0511
305.9312, 282.9482
306.4133, 276.6463
306.8954, 271.6888
307.3776, 267.3744
307.8597, 263.0508
308.3418, 258.6110
308.8239, 254.4843
309.3060, 251.4448
309.7881, 248.8247
310.2703, 245.6690
310.7524, 240.4974
311.2345, 235.4093
311.7166, 232.3728
312.1987, 231.3293
312.6808, 229.9837
313.1630, 226.5847
313.6451, 222.3537
314.1272, 218.5695
314.6093, 215.5605
315.0914, 213.2182
315.5735, 212.0107
316.0557, 211.6742
316.5378, 210.8142
317.0199, 208.5184
317.5020, 205.6671
317.9841, 202.7983
318.4662, 199.6754
318.9484, 197.1816
319.4305, 196.0941
319.9126, 195.9098
320.3947, 195.3063
320.8768, 193.3791
321.3589, 191.3326
321.8411, 189.8608
322.3232, 189.5025
322.8053, 188.6433
323.2874, 186.2603
323.7695, 183.3194
324.2516, 181.3504
324.7338, 181.7484
325.2159, 182.0815
325.6980, 181.5819
326.1801, 180.0579
326.6622, 178.3813
327.1443, 175.9040
327.6265, 173.5961
328.1086, 172.4464
328.5907, 174.3482
329.0728, 175.3004
329.5549, 174.1465
330.0370, 170.8502
330.5192, 168.8982
331.0013, 169.1993
331.4834, 170.0580
331.9655, 170.3036
332.4476, 169.5033
332.9297, 168.8491
333.4119, 168.6374
333.8940, 168.6713
334.3761, 167.9836
334.8582, 166.0717
335.3403, 164.2569
335.8224, 163.2755
336.3046, 163.4609
336.7867, 163.4724
337.2688, 163.2313
337.7509, 162.8409
338.2330, 162.4887
338.7151, 162.1679
339.1973, 161.9164
339.6794, 161.7556
340.1615, 161.6908
340.6436, 161.7207
341.1257, 161.9501
341.6078, 162.0557
342.0899, 161.4731
342.5721, 160.1500
343.0542, 159.0231
343.5363, 158.4271
344.0184, 158.2531
344.5005, 158.0387
344.9826, 157.7866
345.4648, 157.4949
345.9469, 157.1168
346.4290, 156.6694
346.9111, 156.3716
347.3932, 156.3600
347.8753, 156.3791
348.3575, 155.7780
348.8396, 154.6195
349.3217, 153.6176
349.8038, 153.1293
350.2859, 153.1658
350.7680, 153.9753
351.2502, 155.7949
351.7323, 157.5725
352.2144, 157.9916
352.6965, 157.3514
353.1786, 156.5429
353.6607, 155.8549
354.1429, 155.3241
354.6250, 155.0674
355.1071, 155.0998
355.5892, 155.1348
356.0713, 154.8185
356.5534, 154.3935
357.0356, 154.2234
357.5177, 154.8629
357.9998, 155.4512
358.4819, 155.2144
358.9640, 154.2920
359.4461, 153.4621
359.9283, 153.4165
360.4104, 153.4841
360.8925, 153.0102
361.3746, 151.2598
361.8567, 149.9684
362.3388, 150.1653
362.8210, 151.3470
363.3031, 152.3731
363.7852, 152.9134
364.2673, 153.1937
364.7494, 153.3803
365.2315, 153.6078
365.7137, 153.3038
366.1958, 151.3317
366.6779, 149.1297
367.1600, 148.3718
367.6421, 151.0762
368.1242, 153.3453
368.6064, 154.2845
369.0885, 153.8194
369.5706, 153.2784
370.0527, 152.4174
370.5348, 151.6674
371.0169, 151.3046
371.4991, 151.4615
371.9812, 151.8194
372.4633, 152.6229
372.9454, 153.6074
373.4275, 153.7142
373.9096, 152.3283
374.3918, 151.1413
374.8739, 151.1017
375.3560, 152.6142
375.8381, 153.3525
376.3202, 152.9924
376.8023, 152.2683
377.2845, 152.4571
377.7666, 153.7850
378.2487, 154.7558
378.7308, 154.7117
379.2129, 153.8404
379.6950, 153.4700
380.1772, 153.6749
380.6593, 153.9762
381.1414, 153.9418
381.6235, 153.5966
382.1056, 153.1363
382.5877, 152.5340
383.0699, 151.9336
383.5520, 151.5968
384.0341, 151.5130
384.5162, 151.6030
384.9983, 152.0974
385.4804, 152.6921
385.9626, 152.6524
386.4447, 151.8301
386.9268, 150.7815
387.4089, 150.1582
387.8910, 149.7416
388.3731, 149.0552
388.8553, 147.1783
389.3374, 145.3743
389.8195, 145.0697
390.3016, 146.2043
390.7837, 147.5403
391.2658, 148.8456
391.7480, 149.7209
392.2301, 149.6490
392.7122, 147.4740
393.1943, 145.7317
393.6764, 146.3158
394.1585, 148.3846
394.6407, 149.5345
395.1228, 147.7164
395.6049, 145.7533
396.0870, 145.2069
396.5691, 146.8223
397.0512, 148.0194
397.5334, 147.9799
398.0155, 147.3644
398.4976, 147.0014
398.9797, 147.0699
399.4618, 147.2892
399.9439, 147.6926
400.4261, 148.2764
400.9082, 148.6763
401.3903, 148.9156
401.8724, 148.9444
402.3545, 148.6841
402.8366, 147.8916
403.3188, 147.3461
403.8009, 147.1331
404.2830, 147.1739
404.7651, 147.2715
405.2472, 147.4116
405.7293, 147.6490
406.2115, 148.0261
406.6936, 148.5436
407.1757, 149.1632
407.6578, 150.0064
408.1399, 150.6270
408.6220, 150.2331
409.1042, 148.8576
409.5863, 148.0247
410.0684, 148.2624
410.5505, 149.2002
411.0326, 150.1502
411.5147, 151.1042
411.9969, 151.7264
412.4790, 151.5692
412.9611, 150.9217
413.4432, 150.4327
413.9253, 150.1562
414.4074, 150.1559
414.8896, 150.8433
415.3717, 151.8778
415.8538, 152.4487
416.3359, 151.5508
416.8180, 150.4086
417.3001, 150.2329
417.7823, 151.0196
418.2644, 151.8680
418.7465, 152.2673
419.2286, 152.4801
419.7107, 152.7765
420.1928, 153.5216
420.6750, 153.9624
421.1571, 153.5974
421.6392, 152.6922
422.1213, 151.9459
422.6034, 151.7645
423.0855, 151.5926
423.5677, 151.1095
424.0498, 150.0888
424.5319, 149.5106
425.0140, 149.7121
425.4961, 150.2677
425.9782, 150.7590
426.4604, 151.2396
426.9425, 151.5779
427.4246, 151.6964
427.9067, 151.6387
428.3888, 151.6892
428.8709, 151.8481
429.3531, 152.1139
429.8352, 152.6031
430.3173, 153.4586
430.7994, 153.6498
431.2815, 152.8889
431.7636, 151.8711
432.2458, 151.9010
432.7279, 153.0534
433.2100, 153.9489
433.6921, 153.9897
434.1742, 153.4130
434.6563, 153.0755
435.1385, 152.9763
435.6206, 152.9677
436.1027, 152.8514
436.5848, 152.7237
437.0669, 152.9661
437.5490, 153.8660
438.0312, 154.6169
438.5133, 153.7873
438.9954, 151.9940
439.4775, 150.9489
439.9596, 152.3879
440.4417, 154.4281
440.9239, 155.1801
441.4060, 154.5359
441.8881, 154.1221
442.3702, 155.6627
442.8523, 157.5218
443.3344, 158.0986
443.8166, 155.2820
444.2987, 153.1014
444.7808, 153.4400
445.2629, 155.4391
445.7450, 156.5932
446.2271, 155.1848
446.7093, 153.8697
447.1914, 153.8446
447.6735, 155.8090
448.1556, 156.8499
448.6377, 156.3428
449.1198, 155.3237
449.6020, 154.8793
450.0841, 155.4806
450.5662, 155.6395
451.0483, 154.8324
451.5304, 153.4249
452.0125, 153.2581
452.4947, 154.7692
452.9768, 156.1674
453.4589, 156.1516
453.9410, 154.6669
454.4231, 154.4090
454.9052, 155.7004
455.3874, 157.3423
455.8695, 157.7419
456.3516, 157.0437
456.8337, 156.2916
457.3158, 155.7013
457.7979, 155.3476
458.2801, 155.3935
458.7622, 155.8153
459.2443, 156.4604
459.7264, 157.3738
460.2085, 158.3910
460.6906, 159.3522
461.1728, 160.2921
461.6549, 160.9107
462.1370, 160.9536
462.6191, 160.5371
463.1012, 159.8235
463.5833, 158.3206
464.0655, 157.0481
464.5476, 156.5767
465.0297, 156.8321
465.5118, 157.1146
465.9939, 157.2541
466.4760, 157.3537
466.9582, 157.4779
467.4403, 157.7380
467.9224, 157.8247
468.4045, 157.5997
468.8866, 157.2558
469.3687, 157.0478
469.8509, 156.9236
470.3330, 157.0610
470.8151, 157.6491
471.2972, 158.6070
471.7793, 158.9242
472.2614, 158.2965
472.7436, 157.8709
473.2257, 158.7951
473.7078, 161.1102
474.1899, 162.2500
474.6720, 161.8067
475.1541, 160.7644
475.6363, 160.4709
476.1184, 160.8610
476.6005, 161.5485
477.0826, 162.7560
477.5647, 163.9405
478.0468, 163.9499
478.5290, 162.9134
479.0111, 162.0050
479.4932, 162.3891
479.9753, 163.2216
480.4574, 163.4259
480.9395, 162.6171
481.4217, 161.8158
481.9038, 161.5234
482.3859, 161.6712
482.8680, 162.1702
483.3501, 163.6229
483.8322, 164.8053
484.3144, 165.3007
484.7965, 165.1061
485.2786, 164.4825
485.7607, 162.4572
486.2428, 160.8157
486.7249, 160.5173
487.2071, 162.3890
487.6892, 163.8141
488.1713, 164.5036
488.6534, 164.9491
489.1355, 166.0593
489.6176, 168.3816
490.0998, 169.7058
490.5819, 169.1664
491.0640, 167.2506
491.5461, 166.6012
492.0282, 167.3845
492.5103, 168.1872
492.9925, 167.7821
493.4746, 166.4678
493.9567, 165.8803
494.4388, 166.2032
494.9209, 166.8435
495.4030, 167.0854
495.8852, 167.1070
496.3673, 167.3899
496.8494, 168.4475
497.3315, 169.5113
497.8136, 169.7571
498.2957, 169.3367
498.7779, 168.8717
499.2600, 168.6234
499.7421, 168.4876
500.2242, 168.3816
500.7063, 168.2757
501.1884, 168.2892
501.6706, 168.6932
502.1527, 169.1340
502.6348, 169.2466
503.1169, 168.6730
503.5990, 168.1394
504.0811, 167.5899
504.5633, 167.1262
505.0454, 167.2222
505.5275, 168.4254
506.0096, 169.2169
506.4917, 168.5833
506.9738, 166.2453
507.4560, 166.2306
507.9381, 169.2657
508.4202, 172.6628
508.9023, 173.3107
509.3844, 171.3887
509.8665, 170.0279
510.3487, 169.8685
510.8308, 170.4165
511.3129, 170.9317
511.7950, 171.4464
512.2772, 172.1091
512.7593, 173.4600
513.2414, 174.7554
513.7235, 174.7839
514.2056, 173.5985
514.6877, 172.7426
515.1699, 173.4352
515.6520, 174.7869
516.1341, 176.0723
516.6162, 177.4880
517.0983, 178.1220
517.5804, 176.8253
518.0626, 174.7298
518.5447, 173.6929
519.0268, 175.2699
519.5089, 176.5854
519.9910, 176.8680
520.4731, 176.1967
520.9553, 175.7703
521.4374, 175.6180
521.9195, 175.6738
522.4016, 175.9076
522.8837, 176.3182
523.3658, 177.0262
523.8480, 178.2447
524.3301, 179.3170
524.8122, 179.0663
525.2943, 177.5977
525.7764, 176.5980
526.2585, 176.6757
526.7407, 177.3052
527.2228, 177.4639
527.7049, 177.2548
528.1870, 177.2682
528.6691, 178.4534
529.1512, 179.7516
529.6334, 179.6307
530.1155, 177.9324
530.5976, 176.4852
531.0797, 176.5827
531.5618, 177.3607
532.0439, 177.9633
532.5261, 178.0299
533.0082, 178.1203
533.4903, 178.3090
533.9724, 178.6226
534.4545, 179.1330
534.9366, 180.4314
535.4188, 181.2323
535.9009, 180.9112
536.3830, 179.5178
536.8651, 179.3167
537.3472, 180.8109
537.8293, 182.5107
538.3115, 183.4760
538.7936, 183.6796
539.2757, 183.4538
539.7578, 182.6739
540.2399, 181.8714
540.7220, 181.8377
541.2042, 182.4590
541.6863, 183.0733
542.1684, 183.4524
542.6505, 183.7578
543.1326, 184.2744
543.6147, 184.9342
544.0969, 185.4945
544.5790, 185.7856
545.0611, 185.9196
545.5432, 185.9194
546.0253, 185.7760
546.5074, 185.7546
546.9896, 186.4712
547.4717, 187.0712
547.9538, 186.8427
548.4359, 184.6254
548.9180, 182.9976
549.4001, 182.1453
549.8823, 181.9880
550.3644, 182.4903
550.8465, 184.1504
551.3286, 185.5437
551.8107, 186.2804
552.2928, 186.4425
552.7750, 186.5803
553.2571, 186.6851
553.7392, 186.8137
554.2213, 186.9916
554.7034, 187.2200
555.1855, 187.6042
555.6677, 188.1921
556.1498, 188.6062
556.6319, 188.0872
557.1140, 187.1319
557.5961, 186.8263
558.0782, 187.7860
558.5604, 188.9726
559.0425, 189.6905
559.5246, 189.9921
560.0067, 189.9831
560.4888, 188.8152
560.9709, 188.1543
561.4531, 189.3569
561.9352, 192.4395
562.4173, 194.1376
562.8994, 192.7093
563.3815, 190.8403
563.8636, 189.8297
564.3458, 189.9043
564.8279, 190.3333
565.3100, 191.4020
565.7921, 192.4742
566.2742, 192.4846
566.7563, 191.2577
567.2385, 190.8042
567.7206, 191.8616
568.2027, 193.5503
568.6848, 193.7624
569.1669, 192.6839
569.6490, 191.6756
570.1312, 191.3866
570.6133, 191.6361
571.0954, 192.3611
571.5775, 193.5254
572.0596, 194.5116
572.5417, 194.6668
573.0239, 194.6304
573.5060, 195.0195
573.9881, 196.1887
574.4702, 197.1144
574.9523, 197.2471
575.4344, 197.0689
575.9166, 197.1932
576.3987, 198.2191
576.8808, 198.8077
577.3629, 198.6684
577.8450, 198.0081
578.3271, 197.3785
578.8093, 196.5527
579.2914, 196.4660
579.7735, 197.9917
580.2556, 200.7517
580.7377, 201.7059
581.2198, 200.7101
581.7020, 199.3649
582.1841, 198.8776
582.6662, 199.0557
583.1483, 199.5481
583.6304, 200.3726
584.1125, 201.1158
584.5947, 201.1970
585.0768, 201.0201
585.5589, 201.1920
586.0410, 202.7405
586.5231, 203.7654
587.0052, 202.8904
587.4873, 200.8479
587.9694, 199.6143
588.4515, 200.2334
588.9337, 201.0227
589.4158, 201.4920
589.8979, 201.6394
590.3800, 201.9560
590.8621, 202.5274
591.3442, 203.1143
591.8264, 203.4348
592.3085, 203.4324
592.7906, 204.2074
593.2727, 206.0226
593.7548, 207.7716
594.2369, 207.7574
594.7191, 206.4923
595.2012, 206.1022
595.6833, 207.5686
596.1654, 209.1781
596.6475, 208.7194
597.1296, 206.9375
597.6118, 205.5509
598.0939, 205.3461
598.5760, 205.7455
599.0581, 206.7791
599.5402, 208.3074
600.0223, 209.3560
600.5045, 209.5500
600.9866, 209.3459
601.4687, 208.8117
601.9508, 207.7055
602.4329, 207.3847
602.9150, 208.0920
603.3972, 209.2548
603.8793, 210.3833
604.3614, 211.4668
604.8435, 212.8058
605.3256, 214.6398
605.8077, 216.2238
606.2899, 215.9298
606.7720, 214.1654
607.2541, 212.9074
607.7362, 213.3134
608.2183, 214.1317
608.7004, 213.7688
609.1826, 212.5280
609.6647, 211.4756
610.1468, 211.1016
610.6289, 211.1156
611.1110, 211.4971
611.5931, 212.2598
612.0753, 212.7657
612.5574, 212.5825
613.0395, 212.3545
613.5216, 212.4774
614.0037, 213.1943
614.4858, 213.6104
614.9680, 213.5699
615.4501, 213.4367
615.9322, 213.7236
616.4143, 214.4619
616.8964, 214.9629
617.3785, 215.0680
617.8607, 214.9227
618.3428, 214.6957
618.8249, 214.4157
619.3070, 214.2031
619.7891, 213.8440
620.2712, 213.7729
620.7534, 214.7770
621.2355, 216.5951
621.7176, 217.9636
622.1997, 218.0571
622.6818, 217.7084
623.1639, 217.2690
623.6461, 216.7151
624.1282, 216.5063
624.6103, 217.1558
625.0924, 217.7586
625.5745, 217.6418
626.0566, 216.2727
626.5388, 215.7435
627.0209, 216.2764
627.5030, 217.3480
627.9851, 218.3802
628.4672, 219.3538
628.9493, 220.0706
629.4315, 220.3995
629.9136, 220.5975
630.3957, 221.2542
630.8778, 222.1394
631.3599, 222.5533
631.8420, 221.6577
632.3242, 220.5688
632.8063, 219.9695
633.2884, 219.8802
633.7705, 220.2835
634.2526, 221.5526
634.7347, 222.9917
635.2169, 224.5441
635.6990, 226.4167
636.1811, 226.8297
636.6632, 224.8764
637.1453, 222.6018
637.6274, 221.4306
638.1096, 221.4487
638.5917, 222.0987
639.0738, 223.6086
639.5559, 225.0006
640.0380, 224.5391
640.5201, 222.7491
641.0023, 222.0891
641.4844, 223.6481
641.9665, 225.6059
642.4486, 225.9231
642.9307, 225.1833
643.4128, 224.6544
643.8950, 225.1900
644.3771, 225.7541
644.8592, 225.8070
645.3413, 225.4437
645.8234, 225.2179
646.3055, 225.2097
646.7877, 225.3751
647.2698, 225.7766
647.7519, 226.4334
648.2340, 226.8004
648.7161, 226.7710
649.1982, 226.7373
649.6804, 227.0950
650.1625, 227.7704
650.6446, 228.0000
651.1267, 227.6975
651.6088, 227.3168
652.0909, 227.2249
652.5731, 227.4058
653.0552, 227.8806
653.5373, 228.7785
654.0194, 229.6648
654.5015, 230.5928
654.9836, 231.2663
655.4658, 231.2600
655.9479, 229.1407
656.4300, 227.8707
656.9121, 228.6054
657.3942, 230.5841
657.8763, 231.7180
658.3585, 231.6513
658.8406, 231.5696
659.3227, 231.7814
659.8048, 232.2786
660.2869, 233.1752
660.7690, 234.4897
661.2512, 235.5727
661.7333, 235.8285
662.2154, 235.6024
662.6975, 235.4903
663.1796, 235.5151
663.6617, 235.6887
664.1439, 235.9456
664.6260, 236.4001
665.1081, 237.2846
665.5902, 238.8904
666.0723, 240.0210
666.5544, 240.0263
667.0366, 239.6422
667.5187, 239.5995
668.0008, 240.3753
668.4829, 240.4723
668.9650, 239.5825
669.4471, 238.2591
669.9293, 237.1172
670.4114, 236.1483
670.8935, 236.3314
671.3756, 238.4683
671.8577, 241.0466
672.3398, 241.2513
672.8220, 239.6976
673.3041, 238.4908
673.7862, 238.6129
674.2683, 239.5063
674.7504, 241.2747
675.2325, 243.6430
675.7147, 245.2826
676.1968, 244.8911
676.6789, 244.5340
677.1610, 245.2821
677.6431, 247.2188
678.1252, 248.4381
678.6074, 248.7285
679.0895, 248.6788
679.5716, 248.5667
680.0537, 248.3925
680.5358, 248.4822
681.0179, 248.8972
681.5001, 249.1620
681.9822, 248.4572
682.4643, 247.3167
682.9464, 246.8020
683.4285, 247.0901
683.9106, 248.0481
684.3928, 250.1568
684.8749, 252.6585
685.3570, 254.6669
685.8391, 256.0562
686.3212, 256.8411
686.8033, 256.4595
687.2855, 255.6591
687.7676, 255.5647
688.2497, 256.1716
688.7318, 257.6057
689.2139, 260.1884
689.6960, 263.3821
690.1782, 265.7724
690.6603, 267.3717
691.1424, 268.3278
691.6245, 267.4788
692.1066, 266.8403
692.5887, 270.1862
693.0709, 276.7436
693.5530, 283.2346
694.0351, 286.9808
694.5172, 290.7471
694.9993, 295.7193
695.4814, 301.9720
695.9636, 310.8293
696.4457, 323.2582
696.9278, 337.6438
697.4099, 353.9206
697.8920, 372.7483
698.3741, 388.8429
698.8563, 401.8022
699.3384, 413.2534
699.8205, 424.0251
700.3026, 434.3426
700.7847, 445.5518
701.2668, 457.7194
701.7490, 471.2996
702.2311, 485.9536
702.7132, 502.5631
703.1953, 522.2294
703.6774, 544.9288
704.1595, 571.4918
704.6417, 602.0878
705.1238, 637.0981
705.6059, 676.6789
706.0880, 719.5338
706.5701, 769.2064
707.0522, 827.1902
707.5344, 891.5894
708.0165, 957.1532
708.4986, 1023.287
708.9807, 1095.190
709.4628, 1174.365
709.9449, 1260.095
710.4271, 1359.041
710.9092, 1464.857
711.3913, 1557.714
711.8734, 1656.110
712.3555, 1711.883
712.8376, 1684.017
713.3198, 1580.745
713.8019, 1447.260
714.2840, 1260.527
714.7661, 1079.514
715.2482, 923.2806
715.7303, 791.7549
716.2125, 683.8619
716.6946, 601.4550
717.1767, 535.4067
717.6588, 483.5534
718.1409, 444.5754
718.6230, 412.5688
719.1052, 387.2143
719.5873, 367.4515
720.0694, 353.6259
720.5515, 343.6879
721.0336, 334.9485
721.5157, 327.1360
721.9979, 320.4892
722.4800, 315.7676
722.9621, 311.7690
723.4442, 307.4236
723.9263, 301.7852
724.4084, 297.7326
724.8906, 295.7776
725.3727, 294.7565
725.8548, 293.3979
726.3369, 291.6119
726.8190, 290.8785
727.3011, 291.6173
727.7833, 292.5614
728.2654, 291.8514
728.7475, 290.0765
729.2296, 288.6058
729.7117, 287.7922
730.1938, 287.4539
730.6760, 288.1308
731.1581, 289.0394
731.6402, 288.9845
732.1223, 286.7060
732.6044, 284.6430
733.0865, 283.0725
733.5687, 281.9655
734.0508, 281.3100
734.5329, 281.1844
735.0150, 281.2088
735.4971, 281.3326
735.9792, 281.4916
736.4614, 281.5198
736.9435, 281.4414
737.4256, 281.3803
737.9077, 281.0350
738.3898, 281.0161
738.8719, 282.1832
739.3541, 284.2118
739.8362, 285.9504
740.3183, 287.6421
740.8004, 288.3116
741.2825, 286.8169
741.7646, 283.5675
742.2468, 282.0822
742.7289, 283.0435
743.2110, 284.0419
743.6931, 283.7731
744.1752, 282.5744
744.6573, 282.6153
745.1395, 283.8565
745.6216, 284.9400
746.1037, 284.5137
746.5858, 283.6071
747.0679, 283.4410
747.5500, 284.0696
748.0322, 285.0551
748.5143, 286.9200
748.9964, 288.5091
749.4785, 289.1652
749.9606, 288.8039
750.4427, 287.4250
750.9249, 283.8123
751.4070, 281.1889
751.8891, 282.7535
752.3712, 288.4095
752.8533, 290.9867
753.3354, 290.1136
753.8176, 288.1138
754.2997, 286.2166
754.7818, 284.9762
755.2639, 285.6360
755.7460, 288.7195
756.2281, 291.4695
756.7103, 291.9598
757.1924, 291.7394
757.6745, 292.2391
758.1566, 294.9779
758.6387, 295.5383
759.1208, 292.5511
759.6030, 289.0426
760.0851, 288.3655
760.5672, 290.6141
761.0493, 292.6014
761.5314, 293.9984
762.0135, 294.9684
762.4957, 295.5398
762.9778, 295.8542
763.4599, 296.1408
763.9420, 296.3356
764.4241, 296.8155
764.9063, 298.8117
765.3884, 300.7986
765.8705, 300.8610
766.3526, 295.6869
766.8347, 293.1596
767.3168, 294.7259
767.7990, 298.0467
768.2811, 299.5546
768.7632, 299.1583
769.2453, 298.8691
769.7274, 299.1190
770.2095, 299.5560
770.6917, 299.5297
771.1738, 299.3184
771.6559, 299.5517
772.1380, 300.6249
772.6201, 301.9566
773.1022, 303.4180
773.5844, 304.8840
774.0665, 306.1369
774.5486, 307.7599
775.0307, 308.1833
775.5128, 306.6157
775.9949, 304.1400
776.4771, 303.2413
776.9592, 303.9628
777.4413, 304.9021
777.9234, 305.7670
778.4055, 306.4604
778.8876, 306.6783
779.3698, 306.5987
779.8519, 306.6774
780.3340, 307.4965
780.8161, 308.1280
781.2982, 307.4394
781.7803, 306.2289
782.2625, 306.8487
782.7446, 311.5624
783.2267, 314.4437
783.7088, 313.6676
784.1909, 310.6424
784.6730, 309.3248
785.1552, 309.6942
785.6373, 310.7320
786.1194, 312.3469
786.6015, 314.0579
787.0836, 315.2101
787.5657, 315.8635
788.0479, 316.1680
788.5300, 315.9992
789.0121, 315.6806
789.4942, 315.1984
789.9763, 314.6570
790.4584, 314.4590
790.9406, 314.8078
791.4227, 315.1541
791.9048, 315.5376
792.3869, 315.7097
792.8690, 314.3566
793.3511, 311.6201
793.8333, 309.8574
794.3154, 310.6048
794.7975, 312.5421
795.2796, 314.5375
795.7617, 316.4537
796.2438, 317.7515
796.7260, 318.1691
797.2081, 318.0118
797.6902, 316.3477
798.1723, 314.0436
798.6544, 314.9178
799.1365, 320.6458
799.6187, 325.0558
800.1008, 325.9043
800.5829, 324.1705
801.0650, 322.1935
801.5471, 320.1163
802.0292, 318.8315
802.5114, 319.2449
802.9935, 320.3477
803.4756, 321.6635
803.9577, 322.9555
804.4398, 323.4405
804.9219, 321.6338
805.4041, 320.3900
805.8862, 320.7092
806.3683, 322.2264
806.8504, 323.5226
807.3325, 324.6365
807.8146, 325.3216
808.2968, 325.3321
808.7789, 324.9957
809.2610, 324.9319
809.7431, 325.1485
810.2252, 325.6755
810.7073, 326.8259
811.1895, 328.0200
811.6716, 329.1046
812.1537, 329.9720
812.6358, 330.2347
813.1179, 329.3962
813.6000, 328.5282
814.0822, 327.6949
814.5643, 327.0522
815.0464, 327.4792
815.5285, 329.0058
816.0106, 329.8430
816.4927, 328.5123
816.9749, 326.8581
817.4570, 328.3861
817.9391, 331.9851
818.4212, 334.4979
818.9033, 333.2080
819.3854, 331.8555
819.8676, 332.3010
820.3497, 333.9271
820.8318, 334.5140
821.3139, 333.5811
821.7960, 332.6397
822.2781, 331.7887
822.7603, 331.4118
823.2424, 332.9242
823.7245, 335.9979
824.2066, 338.4881
824.6887, 339.5762
825.1708, 339.6931
825.6530, 338.6000
826.1351, 336.8925
826.6172, 335.9225
827.0993, 336.5149
827.5814, 337.3900
828.0635, 338.7673
828.5457, 340.0597
829.0278, 339.6867
829.5099, 337.2506
829.9920, 335.9520
830.4741, 336.8452
830.9562, 338.7043
831.4384, 339.9855
831.9205, 340.6470
832.4026, 340.5286
832.8847, 338.6733
833.3668, 337.3148
833.8489, 338.0445
834.3311, 339.8958
834.8132, 341.2342
835.2953, 341.9354
835.7774, 342.0692
836.2595, 341.2559
836.7416, 340.3671
837.2238, 341.1313
837.7059, 343.3374
838.1880, 344.9392
838.6701, 345.4233
839.1522, 345.3840
839.6343, 344.9891
840.1165, 344.6099
840.5986, 344.8163
841.0807, 346.2443
841.5628, 347.4658
842.0449, 347.8867
842.5270, 348.1850
843.0092, 349.2035
843.4913, 351.2333
843.9734, 352.2686
844.4555, 352.0186
844.9376, 351.1844
845.4197, 350.3352
845.9019, 349.5771
846.3840, 349.0456
846.8661, 348.6966
847.3482, 348.9309
847.8303, 350.6077
848.3124, 352.5900
848.7946, 353.8305
849.2767, 354.0058
849.7588, 353.9990
850.2409, 353.5699
850.7230, 353.4102
851.2051, 354.5893
851.6873, 356.7459
852.1694, 357.4025
852.6515, 356.3553
853.1336, 354.9228
853.6157, 353.3056
854.0978, 352.3798
854.5800, 353.5279
855.0621, 357.2794
855.5442, 359.6203
856.0263, 358.4886
856.5084, 357.0524
856.9905, 356.8460
857.4727, 357.8719
857.9548, 358.7937
858.4369, 359.6477
858.9190, 360.0690
859.4011, 359.1607
859.8832, 357.9731
860.3654, 358.6924
860.8475, 361.0611
861.3296, 362.5247
861.8117, 360.6413
862.2938, 358.7840
862.7759, 358.6765
863.2581, 360.1231
863.7402, 361.8808
864.2223, 364.1028
864.7044, 366.0992
865.1865, 367.7320
865.6686, 368.8379
866.1508, 368.7404
866.6329, 367.6348
867.1150, 366.3759
867.5971, 364.5684
868.0792, 363.5565
868.5613, 364.9081
869.0435, 367.7482
869.5256, 369.2469
870.0077, 368.3545
870.4898, 367.6821
870.9719, 367.7531
871.4540, 368.2601
871.9362, 368.3635
872.4183, 368.1802
872.9004, 368.7677
873.3825, 370.9424
873.8646, 372.9632
874.3467, 372.6642
874.8289, 371.2452
875.3110, 370.5220
875.7931, 371.2463
876.2752, 372.4691
876.7573, 374.7312
877.2394, 376.8437
877.7216, 377.0299
878.2037, 375.1186
878.6858, 374.5158
879.1679, 375.8449
879.6500, 377.3706
880.1321, 376.7461
880.6143, 375.2961
881.0964, 375.1846
881.5785, 377.2166
882.0606, 378.6584
882.5427, 378.2070
883.0248, 377.0655
883.5070, 375.7895
883.9891, 374.0255
884.4712, 374.6833
884.9533, 378.2416
885.4354, 381.7369
885.9175, 382.2326
886.3997, 381.1725
886.8818, 381.7596
887.3639, 383.9676
887.8460, 385.7295
888.3281, 385.5432
888.8102, 384.9161
889.2924, 384.5511
889.7745, 384.4772
890.2566, 384.6549
890.7387, 385.0497
891.2208, 385.8136
891.7029, 387.0815
892.1851, 388.7226
892.6672, 391.1971
893.1493, 393.9915
893.6314, 394.8584
894.1135, 390.7252
894.5956, 386.3012
895.0778, 383.4975
895.5599, 382.4756
896.0420, 383.8851
896.5241, 389.5346
897.0062, 393.7104
897.4883, 395.3682
897.9705, 395.2777
898.4526, 394.0795
898.9347, 392.1696
899.4168, 391.5671
899.8989, 393.1953
900.3810, 394.9514
900.8632, 395.2620
901.3453, 394.7199
901.8274, 393.9506
902.3095, 392.4366
902.7916, 391.9775
903.2737, 392.9507
903.7559, 394.4224
904.2380, 395.7254
904.7201, 396.8342
905.2022, 397.2347
905.6843, 396.8734
906.1664, 396.6506
906.6486, 397.8605
907.1307, 399.1603
907.6128, 399.0607
908.0949, 397.3253
908.5770, 396.2646
909.0591, 396.3698
909.5413, 396.9728
910.0234, 398.0109
910.5055, 399.3435
910.9876, 399.8584
911.4697, 399.6172
911.9518, 399.7516
912.4340, 401.5359
912.9161, 403.4968
913.3982, 403.9184
913.8803, 403.2718
914.3624, 402.8652
914.8445, 403.5184
915.3267, 403.7937
915.8088, 403.0829
916.2909, 402.1244
916.7730, 402.5982
917.2551, 404.4675
917.7372, 406.1330
918.2194, 407.3693
918.7015, 407.8718
919.1836, 406.1211
919.6657, 403.8997
920.1478, 403.9147
920.6299, 408.6467
921.1121, 411.4640
921.5942, 409.9869
922.0763, 407.9874
922.5584, 408.8180
923.0405, 412.6247
923.5226, 414.6627
924.0048, 414.7242
924.4869, 414.2609
924.9690, 414.2513
925.4511, 414.4862
925.9332, 414.6898
926.4153, 414.8547
926.8975, 415.2673
927.3796, 416.8168
927.8617, 417.6581
928.3438, 416.8367
928.8259, 414.8107
929.3080, 413.7744
929.7902, 413.7199
930.2723, 414.9102
930.7544, 418.6540
931.2365, 422.2814
931.7186, 421.7693
932.2007, 418.9024
932.6829, 417.3456
933.1650, 419.7045
933.6471, 421.4445
934.1292, 421.9504
934.6113, 421.6000
935.0934, 420.4597
935.5756, 418.5441
936.0577, 418.3945
936.5398, 420.5892
937.0219, 423.0163
937.5040, 423.3340
937.9861, 422.8323
938.4683, 423.1131
938.9504, 424.6844
939.4325, 425.6594
939.9146, 425.5558
940.3967, 424.9874
940.8788, 423.7973
941.3610, 422.1869
941.8431, 423.2016
942.3252, 426.7562
942.8073, 430.1902
943.2894, 431.6482
943.7715, 432.3014
944.2537, 433.2635
944.7358, 434.3521
945.2179, 434.8271
945.7000, 433.9813
946.1821, 433.2769
946.6642, 433.0648
947.1464, 433.0250
947.6285, 432.0882
948.1106, 430.5015
948.5927, 430.3670
949.0748, 432.5853
949.5569, 435.1548
950.0391, 436.4740
950.5212, 437.0706
951.0033, 437.5060
951.4854, 437.7904
951.9675, 438.1042
952.4496, 438.3988
952.9318, 438.8042
953.4139, 439.4868
953.8960, 440.3832
954.3781, 441.2650
954.8602, 442.0902
955.3423, 442.4576
955.8245, 441.5207
956.3066, 440.5294
956.7887, 440.6515
957.2708, 441.6870
957.7529, 441.6245
958.2350, 439.3475
958.7172, 438.6790
959.1993, 441.4386
959.6814, 445.3709
960.1635, 444.9474
960.6456, 441.4916
961.1277, 439.2115
961.6099, 439.7078
962.0920, 441.2395
962.5741, 443.8884
963.0562, 446.4676
963.5383, 447.4227
964.0204, 445.6574
964.5026, 445.7723
964.9847, 448.4213
965.4668, 450.7210
965.9489, 448.6178
966.4310, 444.6736
966.9131, 445.0956
967.3953, 449.8495
967.8774, 453.3613
968.3595, 451.2173
968.8416, 448.7547
969.3237, 448.6135
969.8058, 450.3278
970.2880, 451.7864
970.7701, 452.9595
971.2522, 454.2228
971.7343, 455.7438
972.2164, 457.3639
972.6985, 459.3344
973.1807, 461.1625
973.6628, 461.8556
974.1449, 460.2100
974.6270, 458.9029
975.1091, 458.2769
975.5912, 458.3152
976.0734, 459.2112
976.5555, 460.9861
977.0376, 462.5562
977.5197, 463.8720
978.0018, 464.6130
978.4839, 463.6352
978.9661, 462.5794
979.4482, 463.6085
979.9303, 466.6656
980.4124, 468.3285
980.8945, 467.0114
981.3766, 466.0057
981.8588, 466.2720
982.3409, 467.4699
982.8230, 468.9514
983.3051, 470.5836
983.7872, 471.6110
984.2693, 471.3944
984.7515, 471.2068
985.2336, 472.2561
985.7157, 473.7160
986.1978, 474.4439
986.6799, 473.7902
987.1620, 473.7189
987.6442, 474.2364
988.1263, 475.3203
988.6084, 477.1974
989.0905, 479.5670
989.5726, 481.7214
990.0547, 483.6281
990.5369, 485.2743
991.0190, 486.7592
991.5011, 487.8731
991.9832, 488.3867
992.4653, 488.4613
992.9474, 488.4005
993.4296, 488.0847
993.9117, 488.9853
994.3938, 492.0905
994.8759, 495.3690
995.3580, 495.5391
995.8401, 494.1852
996.3223, 493.8823
996.8044, 495.6456
997.2865, 497.7633
997.7686, 500.7153
998.2507, 503.0522
998.7328, 503.1487
999.2150, 501.1697
999.6971, 501.1501
1000.179, 503.0719
1000.661, 505.3530
1001.143, 507.7678
1001.626, 509.3653
1002.108, 508.5953
1002.590, 506.1534
1003.072, 505.6117
1003.554, 508.0016
1004.036, 510.2496
1004.518, 511.7731
1005.000, 512.7750
1005.482, 513.4859
1005.965, 513.9395
1006.447, 513.8915
1006.929, 512.7833
1007.411, 513.2338
1007.893, 518.9385
1008.375, 524.7141
1008.857, 526.1969
1009.339, 522.8671
1009.822, 523.0656
1010.304, 527.0673
1010.786, 531.5047
1011.268, 534.5526
1011.750, 536.5408
1012.232, 537.8453
1012.714, 538.4355
1013.196, 538.2474
1013.678, 535.8900
1014.161, 534.6162
1014.643, 534.9676
1015.125, 536.4819
1015.607, 539.3798
1016.089, 543.1281
1016.571, 543.8232
1017.053, 540.5868
1017.535, 537.7930
1018.018, 539.9135
1018.500, 542.9540
1018.982, 543.2312
1019.464, 540.4619
1019.946, 540.3988
1020.428, 543.9188
1020.910, 546.9051
1021.392, 547.3029
1021.874, 546.4169
1022.357, 546.6499
1022.839, 547.6188
1023.321, 548.4274
1023.803, 548.4435
1024.285, 548.6923
1024.767, 549.6888
1025.249, 550.7844
1025.731, 551.5118
1026.214, 551.8798
1026.696, 550.8519
1027.178, 548.3148
1027.660, 546.6166
1028.142, 548.5072
1028.624, 551.3014
1029.106, 552.7565
1029.588, 552.8702
1030.070, 552.8043
1030.553, 552.6017
1031.035, 552.3502
1031.517, 551.9961
1031.999, 551.7284
1032.481, 552.1589
1032.963, 552.9160
1033.445, 552.8531
1033.927, 551.2597
1034.410, 550.4324
1034.892, 551.6910
1035.374, 553.8934
1035.856, 556.5264
1036.338, 559.6414
1036.820, 560.9755
1037.302, 560.4796
1037.784, 559.7941
1038.266, 559.9489
1038.749, 560.3632
1039.231, 560.3282
1039.713, 560.1070
1040.195, 560.3385
1040.677, 561.1368
1041.159, 562.5411
1041.641, 564.9930
1042.123, 567.2079
1042.605, 567.0074
1043.088, 565.3756
1043.570, 565.2551
1044.052, 566.9534
1044.534, 568.8578
1045.016, 570.2909
1045.498, 571.5104
1045.980, 572.5399
1046.462, 573.4668
1046.945, 575.0928
1047.427, 577.5145
1047.909, 577.8724
1048.391, 574.0956
1048.873, 570.5599
1049.355, 572.9542
1049.837, 578.0499
1050.319, 581.3918
1050.802, 580.7325
1051.284, 581.6638
1051.766, 584.7301
1052.248, 588.2719
1052.730, 591.2348
1053.212, 593.6892
1053.694, 595.6893
1054.176, 597.3342
1054.658, 599.0922
1055.141, 601.4741
1055.623, 603.6608
1056.105, 604.9206
1056.587, 606.0781
1057.069, 608.4101
1057.551, 611.9397
1058.033, 615.9236
1058.515, 620.3608
1058.997, 624.5647
1059.480, 626.8277
1059.962, 629.4113
1060.444, 635.2318
1060.926, 644.4690
1061.408, 650.9159
1061.890, 652.4383
1062.372, 656.5347
1062.854, 666.1003
1063.337, 679.0225
1063.819, 690.8431
1064.301, 702.7791
1064.783, 717.6993
1065.265, 737.9061
1065.747, 757.6541
1066.229, 780.0835
1066.711, 796.8300
1067.193, 800.9204
1067.676, 793.0260
1068.158, 785.5253
1068.640, 778.6400
1069.122, 775.8979
1069.604, 777.1184
1070.086, 785.4780
1070.568, 798.5989
1071.050, 822.1123
1071.532, 864.7656
1072.015, 924.4901
1072.497, 1009.239
1072.979, 1119.427
1073.461, 1259.958
1073.943, 1449.960
1074.425, 1665.677
1074.907, 1886.116
1075.389, 2105.794
1075.872, 2297.908
1076.354, 2432.268
1076.836, 2567.931
1077.318, 2715.714
1077.800, 2877.157
1078.282, 3054.718
1078.764, 3253.157
1079.246, 3488.106
1079.729, 3760.913
1080.211, 4089.341
1080.693, 4444.872
1081.175, 4899.308
1081.657, 5465.761
1082.139, 6144.868
1082.621, 7055.283
1083.103, 8205.077
1083.585, 9537.967
1084.068, 11008.37
1084.550, 12673.44
1085.032, 14841.00
1085.514, 17164.58
1085.996, 19012.74
1086.478, 20951.79
1086.960, 20891.16
1087.442, 18417.73
1087.924, 15039.44
1088.406, 11672.46
1088.889, 8602.716
1089.371, 6357.829
1089.853, 4896.417
1090.335, 3794.834
1090.817, 3058.843
1091.299, 2482.666
1091.781, 2033.094
1092.263, 1688.991
1092.746, 1430.490
1093.228, 1248.969
1093.710, 1115.060
1094.192, 1026.120
1094.674, 960.0189
1095.156, 911.1064
1095.638, 872.7985
1096.120, 842.4530
1096.603, 819.0749
1097.085, 797.8964
1097.567, 778.8746
1098.049, 763.3284
1098.531, 752.7728
1099.013, 743.6431
1099.495, 731.3405
1099.977, 718.4711
1100.459, 708.4028
1100.942, 702.8196
1101.424, 696.5045
1101.906, 688.9896
1102.388, 682.2383
1102.870, 677.9088
1103.352, 674.9164
1103.834, 670.6077
1104.316, 665.7965
1104.798, 662.8907
1105.281, 665.4649
1105.763, 665.9515
1106.245, 662.4888
1106.727, 658.0183
1107.209, 656.2916
1107.691, 656.4552
1108.173, 654.6799
1108.655, 650.8923
1109.138, 647.5910
1109.620, 646.3885
1110.102, 645.7720
1110.584, 645.3171
1111.066, 644.8093
1111.548, 643.6273
1112.030, 641.7803
1112.512, 640.5726
1112.995, 640.3527
1113.477, 639.9012
1113.959, 637.6191
1114.441, 635.0424
1114.923, 633.2609
1115.405, 632.3782
1115.887, 633.2806
1116.369, 636.5810
1116.851, 637.9637
1117.333, 634.9999
1117.816, 631.3221
1118.298, 632.4702
1118.780, 635.7554
1119.262, 637.2142
1119.744, 635.3187
1120.226, 633.6713
1120.708, 632.4061
1121.190, 631.4219
1121.673, 630.5433
1122.155, 629.9681
1122.637, 630.2363
1123.119, 631.1793
1123.601, 632.3290
1124.083, 634.8947
1124.565, 635.5371
1125.047, 632.7715
1125.530, 629.3830
1126.012, 627.7189
1126.494, 627.6556
1126.976, 629.0223
1127.458, 631.5980
1127.940, 633.6725
1128.422, 633.0453
1128.904, 633.1166
1129.386, 636.6240
1129.869, 641.0233
1130.351, 641.9041
1130.833, 639.3427
1131.315, 638.3499
1131.797, 639.6126
1132.279, 640.3719
1132.761, 636.9495
1133.243, 633.5181
1133.725, 633.7228
1134.208, 636.8194
1134.690, 638.6518
1135.172, 639.1204
1135.654, 639.0223
1136.136, 638.4680
1136.618, 637.7152
1137.100, 636.1744
1137.582, 635.1359
1138.065, 636.6943
1138.547, 641.6805
1139.029, 643.4321
1139.511, 640.7274
1139.993, 638.9363
1140.475, 641.0475
1140.957, 643.8182
1141.439, 640.6351
1141.922, 634.9049
1142.404, 632.6699
1142.886, 637.1220
1143.368, 640.6349
1143.850, 642.5830
1144.332, 643.5026
1144.814, 643.3337
1145.296, 642.5442
1145.778, 642.4891
1146.260, 642.8610
1146.743, 642.7584
1147.225, 639.9542
1147.707, 639.5549
1148.189, 644.1648
1148.671, 648.6927
1149.153, 647.8448
1149.635, 642.9252
1150.117, 640.0220
1150.600, 639.1420
1151.082, 639.1289
1151.564, 640.1864
1152.046, 641.0010
1152.528, 640.6310
1153.010, 640.1490
1153.492, 641.3169
1153.974, 643.9232
1154.457, 645.5127
1154.939, 645.8625
1155.421, 645.9894
1155.903, 645.9139
1156.385, 646.4722
1156.867, 649.2333
1157.349, 652.7073
1157.831, 652.9543
1158.313, 649.8969
1158.796, 648.5964
1159.278, 649.9982
1159.760, 652.2958
1160.242, 655.0121
1160.724, 657.1293
1161.206, 657.1702
1161.688, 655.5801
1162.170, 656.0961
1162.652, 659.0477
1163.135, 660.3807
1163.617, 658.4348
1164.099, 656.2964
1164.581, 657.7813
1165.063, 660.4037
1165.545, 661.4992
1166.027, 660.6561
1166.509, 659.3570
1166.992, 657.2820
1167.474, 656.5861
1167.956, 658.6922
1168.438, 661.6021
1168.920, 662.9745
1169.402, 663.3704
1169.884, 663.4734
1170.366, 663.0023
1170.849, 663.8685
1171.331, 666.5770
1171.813, 668.8883
1172.295, 669.5004
1172.777, 669.0239
1173.259, 667.6415
1173.741, 666.1141
1174.223, 666.0150
1174.705, 669.6351
1175.188, 671.1667
1175.670, 669.7836
1176.152, 668.3293
1176.634, 669.2277
1177.116, 671.3908
1177.598, 673.1205
1178.080, 674.2720
1178.562, 674.5160
1179.044, 672.5055
1179.527, 671.4837
1180.009, 671.9436
1180.491, 672.9050
1180.973, 673.4237
1181.455, 673.7411
1181.937, 674.4409
1182.419, 675.4740
1182.901, 676.4862
1183.384, 677.3483
1183.866, 678.1956
1184.348, 679.1107
1184.830, 679.9415
1185.312, 680.4769
1185.794, 680.7813
1186.276, 680.9426
1186.758, 680.9930
1187.240, 681.1711
1187.723, 681.6709
1188.205, 682.0803
1188.687, 681.8775
1189.169, 682.0735
1189.651, 685.5106
1190.133, 690.6400
1190.615, 691.8634
1191.097, 688.4393
1191.579, 686.0931
1192.062, 688.5911
1192.544, 691.1210
1193.026, 692.1381
1193.508, 692.1879
1193.990, 692.0541
1194.472, 691.9784
1194.954, 693.3419
1195.436, 696.7532
1195.919, 698.2645
1196.401, 693.6121
1196.883, 689.5901
1197.365, 689.3062
1197.847, 691.3995
1198.329, 691.9207
1198.811, 691.3148
1199.293, 691.4319
1199.776, 692.9542
1200.258, 694.1476
1200.740, 693.4000
1201.222, 693.0161
1201.704, 694.4106
1202.186, 696.9492
1202.668, 698.0729
1203.150, 698.0410
1203.632, 697.9318
1204.115, 698.1598
1204.597, 698.1324
1205.079, 696.7689
1205.561, 695.9346
1206.043, 696.8856
1206.525, 699.2561
1207.007, 701.6439
1207.489, 703.8121
1207.971, 704.6488
1208.454, 702.7794
1208.936, 701.3826
1209.418, 701.8944
1209.900, 703.3392
1210.382, 705.5142
1210.864, 708.1539
1211.346, 708.8829
1211.828, 708.1450
1212.311, 708.1124
1212.793, 710.5525
1213.275, 712.6459
1213.757, 712.6232
1214.239, 712.6097
1214.721, 714.8859
1215.203, 718.8136
1215.685, 718.9587
1216.167, 715.9019
1216.650, 712.7659
1217.132, 710.0172
1217.614, 708.9095
1218.096, 710.5945
1218.578, 713.2477
1219.060, 715.6511
1219.542, 717.7147
1220.024, 718.4879
1220.506, 718.2426
1220.989, 718.5961
1221.471, 722.0942
1221.953, 723.8600
1222.435, 720.7726
1222.917, 717.5016
1223.399, 719.8787
1223.881, 726.4131
1224.363, 729.6947
1224.846, 729.7999
1225.328, 728.7400
1225.810, 725.7612
1226.292, 724.1558
1226.774, 725.1981
1227.256, 727.1045
1227.738, 727.9467
1228.220, 727.8727
1228.703, 726.9579
1229.185, 725.4652
1229.667, 725.0630
1230.149, 727.1364
1230.631, 729.6545
1231.113, 732.3923
1231.595, 734.9664
1232.077, 737.0645
1232.559, 738.5805
1233.042, 738.8871
1233.524, 738.1099
1234.006, 737.5690
1234.488, 738.1434
1234.970, 738.4800
1235.452, 738.0958
1235.934, 737.7892
1236.416, 739.1590
1236.898, 741.2568
1237.381, 741.5157
1237.863, 740.0078
1238.345, 739.4955
1238.827, 742.6043
1239.309, 743.9617
1239.791, 742.0679
1240.273, 739.4933
1240.755, 739.7553
1241.238, 741.7595
1241.720, 744.2112
1242.202, 746.7574
1242.684, 746.7448
1243.166, 740.8942
1243.648, 738.6504
1244.130, 742.6588
1244.612, 748.4222
1245.094, 749.9604
1245.577, 749.4762
1246.059, 750.4589
1246.541, 753.0618
1247.023, 754.3544
1247.505, 753.3806
1247.987, 753.3508
1248.469, 755.2466
1248.951, 757.1562
1249.433, 755.5111
1249.916, 753.2645
1250.398, 754.5540
1250.880, 759.4268
1251.362, 762.3953
1251.844, 763.0182
1252.326, 762.9217
1252.808, 762.3918
1253.290, 761.5201
1253.773, 759.8397
1254.255, 758.2914
1254.737, 757.8961
1255.219, 758.6516
1255.701, 759.4225
1256.183, 760.1556
1256.665, 761.5692
1257.147, 764.0040
1257.630, 766.0861
1258.112, 766.1362
1258.594, 765.6145
1259.076, 765.8871
1259.558, 766.7050
1260.040, 766.5807
1260.522, 765.5345
1261.004, 764.9033
1261.486, 764.7489
1261.969, 766.6424
1262.451, 775.2916
1262.933, 782.8847
1263.415, 783.4633
1263.897, 779.2153
1264.379, 776.9156
1264.861, 776.4098
1265.343, 777.1591
1265.825, 779.3566
1266.308, 780.2032
1266.790, 775.1791
1267.272, 771.7985
1267.754, 774.4686
1268.236, 780.4816
1268.718, 782.5654
1269.200, 781.8434
1269.682, 782.7040
1270.165, 786.2921
1270.647, 788.4525
1271.129, 786.2844
1271.611, 783.6229
1272.093, 781.1205
1272.575, 779.5648
1273.057, 781.8301
1273.539, 785.9014
1274.021, 786.6643
1274.504, 782.8706
1274.986, 780.9950
1275.468, 782.5659
1275.950, 785.4725
1276.432, 789.6995
1276.914, 793.7142
1277.396, 795.1172
1277.878, 794.7976
1278.360, 793.8733
1278.843, 792.4783
1279.325, 791.2084
1279.807, 789.6973
1280.289, 790.1422
1280.771, 793.8199
##END=



