##NAMES=Calcioferrite
##RRUFFID=R120092
##IDEAL CHEMISTRY=Ca_4_MgFe^3+^_4_(PO_4_)_6_(OH)_4_&#183;12H_2_O
##LOCALITY=Moculta quarry, Angastan, South Australia, Australia
##OWNER=RRUFF
##SOURCE=Bob Jenkins
##DESCRIPTION=Clusters of pale yellow, micaceous crystals. Used in the Lafuente et al (2014) structural study.
##STATUS=The identification of this mineral is confirmed by single-crystal X-ray diffraction and chemical analysis.
##URL=rruff.info/R120092
##MEASURED CHEMISTRY=(Ca_3.78_Sr_0.07_)_Σ=3.85_Mg_0.98_(Fe^3+^_2.82_Al_1.03_)_Σ=3.85_(PO_4_)_6.00_(OH)_4_·14.21H_2_O
8.936163e+001, 0.000000e+000
8.984375e+001, 1.800775e+002
9.032587e+001, 1.803451e+002
9.080798e+001, 1.804355e+002
9.129010e+001, 1.803886e+002
9.177222e+001, 1.801140e+002
9.225433e+001, 1.794622e+002
9.273645e+001, 1.784476e+002
9.321857e+001, 1.772330e+002
9.370068e+001, 1.760483e+002
9.418280e+001, 1.748025e+002
9.466492e+001, 1.731860e+002
9.514703e+001, 1.708037e+002
9.562915e+001, 1.680382e+002
9.611127e+001, 1.659127e+002
9.659338e+001, 1.644869e+002
9.707550e+001, 1.634776e+002
9.755762e+001, 1.628099e+002
9.803973e+001, 1.624942e+002
9.852185e+001, 1.616828e+002
9.900397e+001, 1.596382e+002
9.948608e+001, 1.563060e+002
9.996820e+001, 1.540403e+002
1.004503e+002, 1.531246e+002
1.009324e+002, 1.529305e+002
1.014146e+002, 1.520916e+002
1.018967e+002, 1.503723e+002
1.023788e+002, 1.486602e+002
1.028609e+002, 1.474549e+002
1.033430e+002, 1.469724e+002
1.038251e+002, 1.463530e+002
1.043073e+002, 1.456023e+002
1.047894e+002, 1.446826e+002
1.052715e+002, 1.433347e+002
1.057536e+002, 1.411293e+002
1.062357e+002, 1.389555e+002
1.067178e+002, 1.374465e+002
1.072000e+002, 1.372821e+002
1.076821e+002, 1.368082e+002
1.081642e+002, 1.356316e+002
1.086463e+002, 1.336663e+002
1.091284e+002, 1.321969e+002
1.096105e+002, 1.319523e+002
1.100927e+002, 1.318852e+002
1.105748e+002, 1.310259e+002
1.110569e+002, 1.281540e+002
1.115390e+002, 1.256222e+002
1.120211e+002, 1.240292e+002
1.125032e+002, 1.236070e+002
1.129854e+002, 1.233561e+002
1.134675e+002, 1.236551e+002
1.139496e+002, 1.239569e+002
1.144317e+002, 1.234675e+002
1.149138e+002, 1.206567e+002
1.153959e+002, 1.180115e+002
1.158781e+002, 1.168861e+002
1.163602e+002, 1.184574e+002
1.168423e+002, 1.194771e+002
1.173244e+002, 1.183788e+002
1.178065e+002, 1.158152e+002
1.182886e+002, 1.134480e+002
1.187708e+002, 1.118327e+002
1.192529e+002, 1.107608e+002
1.197350e+002, 1.101497e+002
1.202171e+002, 1.104350e+002
1.206992e+002, 1.106207e+002
1.211813e+002, 1.098473e+002
1.216635e+002, 1.082895e+002
1.221456e+002, 1.069281e+002
1.226277e+002, 1.066134e+002
1.231098e+002, 1.068056e+002
1.235919e+002, 1.067971e+002
1.240740e+002, 1.064448e+002
1.245562e+002, 1.057114e+002
1.250383e+002, 1.042467e+002
1.255204e+002, 1.020501e+002
1.260025e+002, 1.001709e+002
1.264846e+002, 9.978242e+001
1.269667e+002, 1.004517e+002
1.274489e+002, 1.010965e+002
1.279310e+002, 1.013512e+002
1.284131e+002, 1.012496e+002
1.288952e+002, 1.008167e+002
1.293773e+002, 1.000262e+002
1.298594e+002, 9.902273e+001
1.303416e+002, 9.778310e+001
1.308237e+002, 9.637911e+001
1.313058e+002, 9.525118e+001
1.317879e+002, 9.480083e+001
1.322700e+002, 9.488506e+001
1.327521e+002, 9.480935e+001
1.332343e+002, 9.450737e+001
1.337164e+002, 9.404955e+001
1.341985e+002, 9.340763e+001
1.346806e+002, 9.254592e+001
1.351627e+002, 9.197237e+001
1.356448e+002, 9.238351e+001
1.361270e+002, 9.380937e+001
1.366091e+002, 9.423802e+001
1.370912e+002, 9.313972e+001
1.375733e+002, 9.101735e+001
1.380554e+002, 8.950168e+001
1.385375e+002, 8.870984e+001
1.390197e+002, 8.817626e+001
1.395018e+002, 8.754464e+001
1.399839e+002, 8.679204e+001
1.404660e+002, 8.604844e+001
1.409481e+002, 8.524493e+001
1.414302e+002, 8.442204e+001
1.419124e+002, 8.415318e+001
1.423945e+002, 8.477957e+001
1.428766e+002, 8.549014e+001
1.433587e+002, 8.533163e+001
1.438408e+002, 8.356025e+001
1.443229e+002, 8.248768e+001
1.448051e+002, 8.300807e+001
1.452872e+002, 8.554591e+001
1.457693e+002, 8.637831e+001
1.462514e+002, 8.436263e+001
1.467335e+002, 8.137240e+001
1.472156e+002, 7.980583e+001
1.476978e+002, 8.075346e+001
1.481799e+002, 8.180298e+001
1.486620e+002, 8.238808e+001
1.491441e+002, 8.240407e+001
1.496262e+002, 8.222404e+001
1.501083e+002, 8.182260e+001
1.505905e+002, 8.123371e+001
1.510726e+002, 8.050774e+001
1.515547e+002, 7.918305e+001
1.520368e+002, 7.812617e+001
1.525189e+002, 7.764514e+001
1.530010e+002, 7.824349e+001
1.534832e+002, 7.855733e+001
1.539653e+002, 7.791599e+001
1.544474e+002, 7.689719e+001
1.549295e+002, 7.688808e+001
1.554116e+002, 7.816428e+001
1.558937e+002, 8.041005e+001
1.563759e+002, 8.362991e+001
1.568580e+002, 8.990050e+001
1.573401e+002, 9.434200e+001
1.578222e+002, 9.463772e+001
1.583043e+002, 9.196964e+001
1.587864e+002, 9.069557e+001
1.592686e+002, 9.157832e+001
1.597507e+002, 9.446743e+001
1.602328e+002, 9.929536e+001
1.607149e+002, 1.084554e+002
1.611970e+002, 1.171265e+002
1.616791e+002, 1.230371e+002
1.621613e+002, 1.266130e+002
1.626434e+002, 1.312535e+002
1.631255e+002, 1.381754e+002
1.636076e+002, 1.467879e+002
1.640897e+002, 1.565649e+002
1.645718e+002, 1.680228e+002
1.650540e+002, 1.800401e+002
1.655361e+002, 1.915519e+002
1.660182e+002, 2.026964e+002
1.665003e+002, 2.154217e+002
1.669824e+002, 2.310251e+002
1.674645e+002, 2.489246e+002
1.679467e+002, 2.681611e+002
1.684288e+002, 2.889895e+002
1.689109e+002, 3.107817e+002
1.693930e+002, 3.331936e+002
1.698751e+002, 3.563185e+002
1.703572e+002, 3.798029e+002
1.708394e+002, 4.043818e+002
1.713215e+002, 4.293868e+002
1.718036e+002, 4.533096e+002
1.722857e+002, 4.759166e+002
1.727678e+002, 4.971610e+002
1.732499e+002, 5.169097e+002
1.737321e+002, 5.352659e+002
1.742142e+002, 5.522902e+002
1.746963e+002, 5.684435e+002
1.751784e+002, 5.836711e+002
1.756605e+002, 5.979034e+002
1.761426e+002, 6.105558e+002
1.766248e+002, 6.222469e+002
1.771069e+002, 6.336727e+002
1.775890e+002, 6.449205e+002
1.780711e+002, 6.559949e+002
1.785532e+002, 6.665065e+002
1.790353e+002, 6.768099e+002
1.795175e+002, 6.877604e+002
1.799996e+002, 6.995527e+002
1.804817e+002, 7.124076e+002
1.809638e+002, 7.271429e+002
1.814459e+002, 7.441254e+002
1.819280e+002, 7.623822e+002
1.824102e+002, 7.812974e+002
1.828923e+002, 8.005250e+002
1.833744e+002, 8.201550e+002
1.838565e+002, 8.401617e+002
1.843386e+002, 8.605209e+002
1.848207e+002, 8.802932e+002
1.853029e+002, 8.991822e+002
1.857850e+002, 9.181187e+002
1.862671e+002, 9.399908e+002
1.867492e+002, 9.645289e+002
1.872313e+002, 9.880634e+002
1.877134e+002, 1.007504e+003
1.881956e+002, 1.023672e+003
1.886777e+002, 1.039498e+003
1.891598e+002, 1.055602e+003
1.896419e+002, 1.071695e+003
1.901240e+002, 1.087572e+003
1.906061e+002, 1.103473e+003
1.910883e+002, 1.118177e+003
1.915704e+002, 1.131123e+003
1.920525e+002, 1.142401e+003
1.925346e+002, 1.151504e+003
1.930167e+002, 1.157644e+003
1.934988e+002, 1.161230e+003
1.939810e+002, 1.161955e+003
1.944631e+002, 1.158973e+003
1.949452e+002, 1.156361e+003
1.954273e+002, 1.152516e+003
1.959094e+002, 1.147475e+003
1.963915e+002, 1.142965e+003
1.968737e+002, 1.139463e+003
1.973558e+002, 1.136682e+003
1.978379e+002, 1.133525e+003
1.983200e+002, 1.129983e+003
1.988021e+002, 1.126303e+003
1.992842e+002, 1.122708e+003
1.997664e+002, 1.119195e+003
2.002485e+002, 1.115864e+003
2.007306e+002, 1.112707e+003
2.012127e+002, 1.109761e+003
2.016948e+002, 1.106964e+003
2.021769e+002, 1.104191e+003
2.026591e+002, 1.101974e+003
2.031412e+002, 1.101099e+003
2.036233e+002, 1.101767e+003
2.041054e+002, 1.102126e+003
2.045875e+002, 1.101482e+003
2.050696e+002, 1.100046e+003
2.055518e+002, 1.099878e+003
2.060339e+002, 1.101175e+003
2.065160e+002, 1.103200e+003
2.069981e+002, 1.105359e+003
2.074802e+002, 1.107721e+003
2.079623e+002, 1.109710e+003
2.084445e+002, 1.111043e+003
2.089266e+002, 1.111756e+003
2.094087e+002, 1.112782e+003
2.098908e+002, 1.114071e+003
2.103729e+002, 1.115721e+003
2.108550e+002, 1.117933e+003
2.113372e+002, 1.120839e+003
2.118193e+002, 1.123771e+003
2.123014e+002, 1.126732e+003
2.127835e+002, 1.129702e+003
2.132656e+002, 1.131638e+003
2.137477e+002, 1.131831e+003
2.142299e+002, 1.131981e+003
2.147120e+002, 1.134306e+003
2.151941e+002, 1.139675e+003
2.156762e+002, 1.144800e+003
2.161583e+002, 1.149042e+003
2.166404e+002, 1.152377e+003
2.171226e+002, 1.154390e+003
2.176047e+002, 1.154220e+003
2.180868e+002, 1.153740e+003
2.185689e+002, 1.155385e+003
2.190510e+002, 1.160048e+003
2.195331e+002, 1.164761e+003
2.200153e+002, 1.168790e+003
2.204974e+002, 1.172066e+003
2.209795e+002, 1.175769e+003
2.214616e+002, 1.180170e+003
2.219437e+002, 1.184786e+003
2.224258e+002, 1.189068e+003
2.229080e+002, 1.192798e+003
2.233901e+002, 1.196643e+003
2.238722e+002, 1.200674e+003
2.243543e+002, 1.204917e+003
2.248364e+002, 1.209384e+003
2.253185e+002, 1.213935e+003
2.258007e+002, 1.218744e+003
2.262828e+002, 1.224203e+003
2.267649e+002, 1.230679e+003
2.272470e+002, 1.236905e+003
2.277291e+002, 1.242232e+003
2.282112e+002, 1.246502e+003
2.286934e+002, 1.251519e+003
2.291755e+002, 1.257478e+003
2.296576e+002, 1.263985e+003
2.301397e+002, 1.270440e+003
2.306218e+002, 1.276904e+003
2.311039e+002, 1.283367e+003
2.315861e+002, 1.289611e+003
2.320682e+002, 1.295583e+003
2.325503e+002, 1.302570e+003
2.330324e+002, 1.311174e+003
2.335145e+002, 1.320313e+003
2.339966e+002, 1.328649e+003
2.344788e+002, 1.335474e+003
2.349609e+002, 1.342741e+003
2.354430e+002, 1.351066e+003
2.359251e+002, 1.360634e+003
2.364072e+002, 1.370017e+003
2.368893e+002, 1.379116e+003
2.373715e+002, 1.388100e+003
2.378536e+002, 1.397182e+003
2.383357e+002, 1.406707e+003
2.388178e+002, 1.415837e+003
2.392999e+002, 1.424313e+003
2.397820e+002, 1.431949e+003
2.402642e+002, 1.439646e+003
2.407463e+002, 1.447669e+003
2.412284e+002, 1.455472e+003
2.417105e+002, 1.462368e+003
2.421926e+002, 1.468060e+003
2.426747e+002, 1.473272e+003
2.431569e+002, 1.477861e+003
2.436390e+002, 1.481640e+003
2.441211e+002, 1.486601e+003
2.446032e+002, 1.493943e+003
2.450853e+002, 1.501436e+003
2.455674e+002, 1.506237e+003
2.460496e+002, 1.506501e+003
2.465317e+002, 1.507535e+003
2.470138e+002, 1.510682e+003
2.474959e+002, 1.516159e+003
2.479780e+002, 1.521718e+003
2.484601e+002, 1.527436e+003
2.489423e+002, 1.533268e+003
2.494244e+002, 1.539125e+003
2.499065e+002, 1.544851e+003
2.503886e+002, 1.551014e+003
2.508707e+002, 1.557917e+003
2.513528e+002, 1.565557e+003
2.518350e+002, 1.572932e+003
2.523171e+002, 1.579721e+003
2.527992e+002, 1.586493e+003
2.532813e+002, 1.593838e+003
2.537634e+002, 1.601846e+003
2.542455e+002, 1.610038e+003
2.547277e+002, 1.618482e+003
2.552098e+002, 1.627209e+003
2.556919e+002, 1.635140e+003
2.561740e+002, 1.642364e+003
2.566561e+002, 1.648624e+003
2.571382e+002, 1.653447e+003
2.576204e+002, 1.656390e+003
2.581025e+002, 1.659010e+003
2.585846e+002, 1.661527e+003
2.590667e+002, 1.663945e+003
2.595488e+002, 1.666335e+003
2.600309e+002, 1.669112e+003
2.605131e+002, 1.671216e+003
2.609952e+002, 1.671529e+003
2.614773e+002, 1.669499e+003
2.619594e+002, 1.667331e+003
2.624415e+002, 1.665553e+003
2.629236e+002, 1.664055e+003
2.634058e+002, 1.661632e+003
2.638879e+002, 1.657928e+003
2.643700e+002, 1.653900e+003
2.648521e+002, 1.650307e+003
2.653342e+002, 1.647482e+003
2.658163e+002, 1.644122e+003
2.662985e+002, 1.640208e+003
2.667806e+002, 1.635659e+003
2.672627e+002, 1.629859e+003
2.677448e+002, 1.622808e+003
2.682269e+002, 1.614539e+003
2.687090e+002, 1.604865e+003
2.691912e+002, 1.593326e+003
2.696733e+002, 1.581884e+003
2.701554e+002, 1.570888e+003
2.706375e+002, 1.560069e+003
2.711196e+002, 1.548781e+003
2.716017e+002, 1.536969e+003
2.720839e+002, 1.524850e+003
2.725660e+002, 1.512977e+003
2.730481e+002, 1.501458e+003
2.735302e+002, 1.489132e+003
2.740123e+002, 1.475627e+003
2.744944e+002, 1.461306e+003
2.749766e+002, 1.446984e+003
2.754587e+002, 1.432713e+003
2.759408e+002, 1.418418e+003
2.764229e+002, 1.404412e+003
2.769050e+002, 1.390674e+003
2.773871e+002, 1.376733e+003
2.778693e+002, 1.362399e+003
2.783514e+002, 1.348045e+003
2.788335e+002, 1.334557e+003
2.793156e+002, 1.321875e+003
2.797977e+002, 1.309688e+003
2.802798e+002, 1.298009e+003
2.807620e+002, 1.286938e+003
2.812441e+002, 1.275094e+003
2.817262e+002, 1.262110e+003
2.822083e+002, 1.248844e+003
2.826904e+002, 1.236841e+003
2.831725e+002, 1.226144e+003
2.836547e+002, 1.215952e+003
2.841368e+002, 1.205816e+003
2.846189e+002, 1.195849e+003
2.851010e+002, 1.186254e+003
2.855831e+002, 1.176903e+003
2.860652e+002, 1.168291e+003
2.865474e+002, 1.161419e+003
2.870295e+002, 1.156259e+003
2.875116e+002, 1.151373e+003
2.879937e+002, 1.146278e+003
2.884758e+002, 1.140926e+003
2.889579e+002, 1.135170e+003
2.894401e+002, 1.128820e+003
2.899222e+002, 1.122747e+003
2.904043e+002, 1.118225e+003
2.908864e+002, 1.115094e+003
2.913685e+002, 1.112028e+003
2.918506e+002, 1.108434e+003
2.923328e+002, 1.104552e+003
2.928149e+002, 1.101156e+003
2.932970e+002, 1.098225e+003
2.937791e+002, 1.095740e+003
2.942612e+002, 1.093928e+003
2.947433e+002, 1.092628e+003
2.952255e+002, 1.091224e+003
2.957076e+002, 1.089516e+003
2.961897e+002, 1.087586e+003
2.966718e+002, 1.085507e+003
2.971539e+002, 1.083294e+003
2.976360e+002, 1.081292e+003
2.981182e+002, 1.080144e+003
2.986003e+002, 1.079458e+003
2.990824e+002, 1.078133e+003
2.995645e+002, 1.075412e+003
3.000466e+002, 1.072408e+003
3.005287e+002, 1.070963e+003
3.010109e+002, 1.070879e+003
3.014930e+002, 1.070686e+003
3.019751e+002, 1.069257e+003
3.024572e+002, 1.067027e+003
3.029393e+002, 1.064709e+003
3.034214e+002, 1.062334e+003
3.039036e+002, 1.060104e+003
3.043857e+002, 1.058406e+003
3.048678e+002, 1.057102e+003
3.053499e+002, 1.055629e+003
3.058320e+002, 1.053651e+003
3.063141e+002, 1.051327e+003
3.067963e+002, 1.048882e+003
3.072784e+002, 1.046342e+003
3.077605e+002, 1.043630e+003
3.082426e+002, 1.040458e+003
3.087247e+002, 1.037024e+003
3.092068e+002, 1.033816e+003
3.096890e+002, 1.031349e+003
3.101711e+002, 1.029026e+003
3.106532e+002, 1.026389e+003
3.111353e+002, 1.023381e+003
3.116174e+002, 1.020042e+003
3.120995e+002, 1.016039e+003
3.125817e+002, 1.011796e+003
3.130638e+002, 1.007954e+003
3.135459e+002, 1.004803e+003
3.140280e+002, 1.002072e+003
3.145101e+002, 9.999323e+002
3.149922e+002, 9.984895e+002
3.154744e+002, 9.963214e+002
3.159565e+002, 9.925349e+002
3.164386e+002, 9.877596e+002
3.169207e+002, 9.827672e+002
3.174028e+002, 9.770880e+002
3.178849e+002, 9.718815e+002
3.183671e+002, 9.679400e+002
3.188492e+002, 9.651730e+002
3.193313e+002, 9.621631e+002
3.198134e+002, 9.577962e+002
3.202955e+002, 9.533054e+002
3.207776e+002, 9.497176e+002
3.212598e+002, 9.483632e+002
3.217419e+002, 9.466874e+002
3.222240e+002, 9.435049e+002
3.227061e+002, 9.392353e+002
3.231882e+002, 9.361299e+002
3.236703e+002, 9.360552e+002
3.241525e+002, 9.362473e+002
3.246346e+002, 9.351591e+002
3.251167e+002, 9.311241e+002
3.255988e+002, 9.278521e+002
3.260809e+002, 9.263445e+002
3.265630e+002, 9.259013e+002
3.270452e+002, 9.245895e+002
3.275273e+002, 9.214855e+002
3.280094e+002, 9.182310e+002
3.284915e+002, 9.153691e+002
3.289736e+002, 9.130371e+002
3.294557e+002, 9.108690e+002
3.299379e+002, 9.087361e+002
3.304200e+002, 9.067986e+002
3.309021e+002, 9.053941e+002
3.313842e+002, 9.052476e+002
3.318663e+002, 9.046256e+002
3.323484e+002, 9.028467e+002
3.328306e+002, 8.996656e+002
3.333127e+002, 8.970783e+002
3.337948e+002, 8.951639e+002
3.342769e+002, 8.937565e+002
3.347590e+002, 8.927724e+002
3.352411e+002, 8.924711e+002
3.357233e+002, 8.920134e+002
3.362054e+002, 8.912439e+002
3.366875e+002, 8.901755e+002
3.371696e+002, 8.889367e+002
3.376517e+002, 8.874075e+002
3.381339e+002, 8.859789e+002
3.386160e+002, 8.851091e+002
3.390981e+002, 8.849779e+002
3.395802e+002, 8.844948e+002
3.400623e+002, 8.834456e+002
3.405444e+002, 8.819541e+002
3.410266e+002, 8.803477e+002
3.415087e+002, 8.784693e+002
3.419908e+002, 8.770466e+002
3.424729e+002, 8.768194e+002
3.429550e+002, 8.777685e+002
3.434371e+002, 8.780739e+002
3.439193e+002, 8.775189e+002
3.444014e+002, 8.763687e+002
3.448835e+002, 8.747643e+002
3.453656e+002, 8.727148e+002
3.458477e+002, 8.713209e+002
3.463298e+002, 8.716300e+002
3.468120e+002, 8.731780e+002
3.472941e+002, 8.738265e+002
3.477762e+002, 8.734421e+002
3.482583e+002, 8.727200e+002
3.487404e+002, 8.726593e+002
3.492225e+002, 8.730476e+002
3.497047e+002, 8.729348e+002
3.501868e+002, 8.715594e+002
3.506689e+002, 8.696412e+002
3.511510e+002, 8.685099e+002
3.516331e+002, 8.681530e+002
3.521152e+002, 8.678817e+002
3.525974e+002, 8.671300e+002
3.530795e+002, 8.660506e+002
3.535616e+002, 8.649123e+002
3.540437e+002, 8.637006e+002
3.545258e+002, 8.625696e+002
3.550079e+002, 8.617977e+002
3.554901e+002, 8.612936e+002
3.559722e+002, 8.606285e+002
3.564543e+002, 8.591667e+002
3.569364e+002, 8.575973e+002
3.574185e+002, 8.566667e+002
3.579006e+002, 8.566819e+002
3.583828e+002, 8.568961e+002
3.588649e+002, 8.569229e+002
3.593470e+002, 8.568108e+002
3.598291e+002, 8.566553e+002
3.603112e+002, 8.567450e+002
3.607933e+002, 8.566161e+002
3.612755e+002, 8.557562e+002
3.617576e+002, 8.539485e+002
3.622397e+002, 8.526453e+002
3.627218e+002, 8.527620e+002
3.632039e+002, 8.535342e+002
3.636860e+002, 8.541094e+002
3.641682e+002, 8.539628e+002
3.646503e+002, 8.538782e+002
3.651324e+002, 8.541407e+002
3.656145e+002, 8.547423e+002
3.660966e+002, 8.553137e+002
3.665787e+002, 8.560364e+002
3.670609e+002, 8.565641e+002
3.675430e+002, 8.566755e+002
3.680251e+002, 8.552116e+002
3.685072e+002, 8.546959e+002
3.689893e+002, 8.557133e+002
3.694714e+002, 8.578655e+002
3.699536e+002, 8.598806e+002
3.704357e+002, 8.621483e+002
3.709178e+002, 8.638752e+002
3.713999e+002, 8.646349e+002
3.718820e+002, 8.639191e+002
3.723641e+002, 8.635549e+002
3.728463e+002, 8.635705e+002
3.733284e+002, 8.639170e+002
3.738105e+002, 8.645377e+002
3.742926e+002, 8.654696e+002
3.747747e+002, 8.665780e+002
3.752568e+002, 8.677747e+002
3.757390e+002, 8.690575e+002
3.762211e+002, 8.709232e+002
3.767032e+002, 8.736926e+002
3.771853e+002, 8.763920e+002
3.776674e+002, 8.779420e+002
3.781495e+002, 8.781740e+002
3.786317e+002, 8.788209e+002
3.791138e+002, 8.803967e+002
3.795959e+002, 8.825030e+002
3.800780e+002, 8.839137e+002
3.805601e+002, 8.845812e+002
3.810422e+002, 8.850623e+002
3.815244e+002, 8.856682e+002
3.820065e+002, 8.864117e+002
3.824886e+002, 8.873184e+002
3.829707e+002, 8.884448e+002
3.834528e+002, 8.896410e+002
3.839349e+002, 8.908222e+002
3.844171e+002, 8.919526e+002
3.848992e+002, 8.928106e+002
3.853813e+002, 8.931031e+002
3.858634e+002, 8.931271e+002
3.863455e+002, 8.932892e+002
3.868276e+002, 8.935870e+002
3.873098e+002, 8.942571e+002
3.877919e+002, 8.958139e+002
3.882740e+002, 8.978438e+002
3.887561e+002, 8.996340e+002
3.892382e+002, 9.013350e+002
3.897203e+002, 9.023235e+002
3.902025e+002, 9.016183e+002
3.906846e+002, 8.995336e+002
3.911667e+002, 8.975578e+002
3.916488e+002, 8.964334e+002
3.921309e+002, 8.958370e+002
3.926130e+002, 8.954974e+002
3.930952e+002, 8.953382e+002
3.935773e+002, 8.954982e+002
3.940594e+002, 8.967369e+002
3.945415e+002, 8.982839e+002
3.950236e+002, 8.987059e+002
3.955057e+002, 8.960612e+002
3.959879e+002, 8.935507e+002
3.964700e+002, 8.927333e+002
3.969521e+002, 8.940722e+002
3.974342e+002, 8.948238e+002
3.979163e+002, 8.937853e+002
3.983984e+002, 8.923557e+002
3.988806e+002, 8.918099e+002
3.993627e+002, 8.941384e+002
3.998448e+002, 8.951428e+002
4.003269e+002, 8.934828e+002
4.008090e+002, 8.896660e+002
4.012911e+002, 8.876844e+002
4.017733e+002, 8.888705e+002
4.022554e+002, 8.902870e+002
4.027375e+002, 8.902089e+002
4.032196e+002, 8.873810e+002
4.037017e+002, 8.863190e+002
4.041838e+002, 8.876888e+002
4.046660e+002, 8.903871e+002
4.051481e+002, 8.924159e+002
4.056302e+002, 8.937878e+002
4.061123e+002, 8.944708e+002
4.065944e+002, 8.940808e+002
4.070765e+002, 8.927167e+002
4.075587e+002, 8.926254e+002
4.080408e+002, 8.939665e+002
4.085229e+002, 8.959304e+002
4.090050e+002, 8.978553e+002
4.094871e+002, 8.997143e+002
4.099692e+002, 9.012751e+002
4.104514e+002, 9.023011e+002
4.109335e+002, 9.032018e+002
4.114156e+002, 9.050189e+002
4.118977e+002, 9.076535e+002
4.123798e+002, 9.101942e+002
4.128619e+002, 9.118259e+002
4.133441e+002, 9.129493e+002
4.138262e+002, 9.142313e+002
4.143083e+002, 9.156767e+002
4.147904e+002, 9.176885e+002
4.152725e+002, 9.212775e+002
4.157546e+002, 9.257227e+002
4.162368e+002, 9.296137e+002
4.167189e+002, 9.317366e+002
4.172010e+002, 9.334225e+002
4.176831e+002, 9.355125e+002
4.181652e+002, 9.380340e+002
4.186473e+002, 9.412867e+002
4.191295e+002, 9.461935e+002
4.196116e+002, 9.514979e+002
4.200937e+002, 9.559573e+002
4.205758e+002, 9.585731e+002
4.210579e+002, 9.613998e+002
4.215400e+002, 9.649962e+002
4.220222e+002, 9.693135e+002
4.225043e+002, 9.743342e+002
4.229864e+002, 9.800906e+002
4.234685e+002, 9.864720e+002
4.239506e+002, 9.938383e+002
4.244327e+002, 1.002866e+003
4.249149e+002, 1.010482e+003
4.253970e+002, 1.015047e+003
4.258791e+002, 1.018996e+003
4.263612e+002, 1.024825e+003
4.268433e+002, 1.033385e+003
4.273254e+002, 1.042420e+003
4.278076e+002, 1.051651e+003
4.282897e+002, 1.061132e+003
4.287718e+002, 1.070807e+003
4.292539e+002, 1.080732e+003
4.297360e+002, 1.090454e+003
4.302181e+002, 1.099448e+003
4.307003e+002, 1.107542e+003
4.311824e+002, 1.116017e+003
4.316645e+002, 1.124982e+003
4.321466e+002, 1.134219e+003
4.326287e+002, 1.143217e+003
4.331108e+002, 1.151905e+003
4.335930e+002, 1.160683e+003
4.340751e+002, 1.169817e+003
4.345572e+002, 1.179156e+003
4.350393e+002, 1.188217e+003
4.355214e+002, 1.196979e+003
4.360035e+002, 1.205502e+003
4.364857e+002, 1.213836e+003
4.369678e+002, 1.221860e+003
4.374499e+002, 1.229444e+003
4.379320e+002, 1.236484e+003
4.384141e+002, 1.243206e+003
4.388962e+002, 1.249850e+003
4.393784e+002, 1.256369e+003
4.398605e+002, 1.262643e+003
4.403426e+002, 1.269075e+003
4.408247e+002, 1.274904e+003
4.413068e+002, 1.279596e+003
4.417889e+002, 1.283043e+003
4.422711e+002, 1.285482e+003
4.427532e+002, 1.286061e+003
4.432353e+002, 1.286071e+003
4.437174e+002, 1.286857e+003
4.441995e+002, 1.290058e+003
4.446816e+002, 1.292745e+003
4.451638e+002, 1.293606e+003
4.456459e+002, 1.293102e+003
4.461280e+002, 1.293405e+003
4.466101e+002, 1.296488e+003
4.470922e+002, 1.299071e+003
4.475743e+002, 1.299645e+003
4.480565e+002, 1.297494e+003
4.485386e+002, 1.295091e+003
4.490207e+002, 1.292028e+003
4.495028e+002, 1.288988e+003
4.499849e+002, 1.287113e+003
4.504670e+002, 1.287380e+003
4.509492e+002, 1.286565e+003
4.514313e+002, 1.283715e+003
4.519134e+002, 1.279144e+003
4.523955e+002, 1.275160e+003
4.528776e+002, 1.272040e+003
4.533597e+002, 1.268876e+003
4.538419e+002, 1.265165e+003
4.543240e+002, 1.260940e+003
4.548061e+002, 1.255872e+003
4.552882e+002, 1.249751e+003
4.557703e+002, 1.243377e+003
4.562524e+002, 1.238512e+003
4.567346e+002, 1.234784e+003
4.572167e+002, 1.230213e+003
4.576988e+002, 1.222984e+003
4.581809e+002, 1.214716e+003
4.586630e+002, 1.208373e+003
4.591451e+002, 1.203872e+003
4.596273e+002, 1.199187e+003
4.601094e+002, 1.192378e+003
4.605915e+002, 1.184656e+003
4.610736e+002, 1.177554e+003
4.615557e+002, 1.171256e+003
4.620378e+002, 1.165805e+003
4.625200e+002, 1.161727e+003
4.630021e+002, 1.158463e+003
4.634842e+002, 1.154999e+003
4.639663e+002, 1.150535e+003
4.644484e+002, 1.146135e+003
4.649305e+002, 1.142378e+003
4.654127e+002, 1.139312e+003
4.658948e+002, 1.136541e+003
4.663769e+002, 1.133879e+003
4.668590e+002, 1.131587e+003
4.673411e+002, 1.129868e+003
4.678232e+002, 1.128871e+003
4.683054e+002, 1.128236e+003
4.687875e+002, 1.127938e+003
4.692696e+002, 1.127989e+003
4.697517e+002, 1.128394e+003
4.702338e+002, 1.128915e+003
4.707159e+002, 1.130220e+003
4.711981e+002, 1.132636e+003
4.716802e+002, 1.136194e+003
4.721623e+002, 1.140094e+003
4.726444e+002, 1.144379e+003
4.731265e+002, 1.148746e+003
4.736086e+002, 1.152438e+003
4.740908e+002, 1.155483e+003
4.745729e+002, 1.159948e+003
4.750550e+002, 1.166415e+003
4.755371e+002, 1.174131e+003
4.760192e+002, 1.181840e+003
4.765013e+002, 1.189584e+003
4.769835e+002, 1.197433e+003
4.774656e+002, 1.205059e+003
4.779477e+002, 1.213006e+003
4.784298e+002, 1.222420e+003
4.789119e+002, 1.233375e+003
4.793940e+002, 1.244553e+003
4.798762e+002, 1.254435e+003
4.803583e+002, 1.264080e+003
4.808404e+002, 1.274906e+003
4.813225e+002, 1.287692e+003
4.818046e+002, 1.301380e+003
4.822867e+002, 1.316084e+003
4.827689e+002, 1.331346e+003
4.832510e+002, 1.345968e+003
4.837331e+002, 1.358660e+003
4.842152e+002, 1.371496e+003
4.846973e+002, 1.385395e+003
4.851794e+002, 1.400644e+003
4.856616e+002, 1.416247e+003
4.861437e+002, 1.432190e+003
4.866258e+002, 1.448407e+003
4.871079e+002, 1.465055e+003
4.875900e+002, 1.482736e+003
4.880721e+002, 1.499885e+003
4.885543e+002, 1.516278e+003
4.890364e+002, 1.532036e+003
4.895185e+002, 1.547582e+003
4.900006e+002, 1.563121e+003
4.904827e+002, 1.577262e+003
4.909648e+002, 1.588776e+003
4.914470e+002, 1.597847e+003
4.919291e+002, 1.607880e+003
4.924112e+002, 1.619186e+003
4.928933e+002, 1.629685e+003
4.933754e+002, 1.637567e+003
4.938575e+002, 1.642941e+003
4.943397e+002, 1.646151e+003
4.948218e+002, 1.647506e+003
4.953039e+002, 1.646281e+003
4.957860e+002, 1.640377e+003
4.962681e+002, 1.630773e+003
4.967502e+002, 1.620798e+003
4.972324e+002, 1.613397e+003
4.977145e+002, 1.605616e+003
4.981966e+002, 1.594391e+003
4.986787e+002, 1.579453e+003
4.991608e+002, 1.563621e+003
4.996429e+002, 1.548973e+003
5.001251e+002, 1.533676e+003
5.006072e+002, 1.515606e+003
5.010893e+002, 1.492365e+003
5.015714e+002, 1.469237e+003
5.020535e+002, 1.446679e+003
5.025356e+002, 1.424920e+003
5.030178e+002, 1.404387e+003
5.034999e+002, 1.386024e+003
5.039820e+002, 1.367510e+003
5.044641e+002, 1.348176e+003
5.049462e+002, 1.327954e+003
5.054283e+002, 1.308964e+003
5.059105e+002, 1.291605e+003
5.063926e+002, 1.275120e+003
5.068747e+002, 1.258834e+003
5.073568e+002, 1.242672e+003
5.078389e+002, 1.227588e+003
5.083210e+002, 1.213873e+003
5.088032e+002, 1.201401e+003
5.092853e+002, 1.190089e+003
5.097674e+002, 1.179926e+003
5.102495e+002, 1.170881e+003
5.107316e+002, 1.163133e+003
5.112137e+002, 1.156302e+003
5.116959e+002, 1.149706e+003
5.121780e+002, 1.143351e+003
5.126601e+002, 1.136768e+003
5.131422e+002, 1.128610e+003
5.136243e+002, 1.120428e+003
5.141064e+002, 1.114577e+003
5.145886e+002, 1.112095e+003
5.150707e+002, 1.109650e+003
5.155528e+002, 1.104416e+003
5.160349e+002, 1.098137e+003
5.165170e+002, 1.093245e+003
5.169991e+002, 1.091662e+003
5.174813e+002, 1.090460e+003
5.179634e+002, 1.088763e+003
5.184455e+002, 1.086626e+003
5.189276e+002, 1.084572e+003
5.194097e+002, 1.082242e+003
5.198918e+002, 1.080411e+003
5.203740e+002, 1.079389e+003
5.208561e+002, 1.079167e+003
5.213382e+002, 1.079840e+003
5.218203e+002, 1.081971e+003
5.223024e+002, 1.084311e+003
5.227845e+002, 1.085134e+003
5.232667e+002, 1.083979e+003
5.237488e+002, 1.083870e+003
5.242309e+002, 1.085672e+003
5.247130e+002, 1.088601e+003
5.251951e+002, 1.090693e+003
5.256772e+002, 1.091975e+003
5.261594e+002, 1.093274e+003
5.266415e+002, 1.095371e+003
5.271236e+002, 1.097799e+003
5.276057e+002, 1.099343e+003
5.280878e+002, 1.099962e+003
5.285699e+002, 1.100523e+003
5.290521e+002, 1.101668e+003
5.295342e+002, 1.103218e+003
5.300163e+002, 1.104938e+003
5.304984e+002, 1.106764e+003
5.309805e+002, 1.108746e+003
5.314626e+002, 1.110676e+003
5.319448e+002, 1.112785e+003
5.324269e+002, 1.115511e+003
5.329090e+002, 1.119976e+003
5.333911e+002, 1.124106e+003
5.338732e+002, 1.126989e+003
5.343553e+002, 1.128502e+003
5.348375e+002, 1.130532e+003
5.353196e+002, 1.133537e+003
5.358017e+002, 1.136591e+003
5.362838e+002, 1.139094e+003
5.367659e+002, 1.140651e+003
5.372480e+002, 1.142817e+003
5.377302e+002, 1.145762e+003
5.382123e+002, 1.149074e+003
5.386944e+002, 1.152256e+003
5.391765e+002, 1.155375e+003
5.396586e+002, 1.157808e+003
5.401407e+002, 1.159074e+003
5.406229e+002, 1.159831e+003
5.411050e+002, 1.161953e+003
5.415871e+002, 1.165279e+003
5.420692e+002, 1.168003e+003
5.425513e+002, 1.168158e+003
5.430334e+002, 1.167378e+003
5.435156e+002, 1.168387e+003
5.439977e+002, 1.171443e+003
5.444798e+002, 1.174554e+003
5.449619e+002, 1.176091e+003
5.454440e+002, 1.177001e+003
5.459261e+002, 1.178283e+003
5.464083e+002, 1.180001e+003
5.468904e+002, 1.182370e+003
5.473725e+002, 1.185884e+003
5.478546e+002, 1.190017e+003
5.483367e+002, 1.193742e+003
5.488188e+002, 1.196983e+003
5.493010e+002, 1.199656e+003
5.497831e+002, 1.201764e+003
5.502652e+002, 1.203294e+003
5.507473e+002, 1.204082e+003
5.512294e+002, 1.203869e+003
5.517115e+002, 1.203355e+003
5.521937e+002, 1.202883e+003
5.526758e+002, 1.202433e+003
5.531579e+002, 1.202392e+003
5.536400e+002, 1.202828e+003
5.541221e+002, 1.203609e+003
5.546042e+002, 1.204692e+003
5.550864e+002, 1.206027e+003
5.555685e+002, 1.207244e+003
5.560506e+002, 1.208174e+003
5.565327e+002, 1.208985e+003
5.570148e+002, 1.209764e+003
5.574969e+002, 1.210569e+003
5.579791e+002, 1.211652e+003
5.584612e+002, 1.213594e+003
5.589433e+002, 1.215535e+003
5.594254e+002, 1.216487e+003
5.599075e+002, 1.216363e+003
5.603896e+002, 1.216731e+003
5.608718e+002, 1.218659e+003
5.613539e+002, 1.221055e+003
5.618360e+002, 1.223132e+003
5.623181e+002, 1.224845e+003
5.628002e+002, 1.226147e+003
5.632823e+002, 1.226658e+003
5.637645e+002, 1.226968e+003
5.642466e+002, 1.228004e+003
5.647287e+002, 1.230040e+003
5.652108e+002, 1.232240e+003
5.656929e+002, 1.234578e+003
5.661750e+002, 1.236914e+003
5.666572e+002, 1.238641e+003
5.671393e+002, 1.239692e+003
5.676214e+002, 1.240493e+003
5.681035e+002, 1.241029e+003
5.685856e+002, 1.241475e+003
5.690677e+002, 1.242827e+003
5.695499e+002, 1.245166e+003
5.700320e+002, 1.247254e+003
5.705141e+002, 1.247658e+003
5.709962e+002, 1.247068e+003
5.714783e+002, 1.246564e+003
5.719604e+002, 1.246327e+003
5.724426e+002, 1.246399e+003
5.729247e+002, 1.247148e+003
5.734068e+002, 1.248178e+003
5.738889e+002, 1.248796e+003
5.743710e+002, 1.248912e+003
5.748531e+002, 1.248461e+003
5.753353e+002, 1.247286e+003
5.758174e+002, 1.245444e+003
5.762995e+002, 1.243519e+003
5.767816e+002, 1.241016e+003
5.772637e+002, 1.239079e+003
5.777458e+002, 1.238452e+003
5.782280e+002, 1.239604e+003
5.787101e+002, 1.239332e+003
5.791922e+002, 1.237017e+003
5.796743e+002, 1.234624e+003
5.801564e+002, 1.234601e+003
5.806385e+002, 1.236788e+003
5.811207e+002, 1.238446e+003
5.816028e+002, 1.239281e+003
5.820849e+002, 1.238936e+003
5.825670e+002, 1.236375e+003
5.830491e+002, 1.232107e+003
5.835313e+002, 1.227638e+003
5.840134e+002, 1.223248e+003
5.844955e+002, 1.219331e+003
5.849776e+002, 1.216681e+003
5.854597e+002, 1.215027e+003
5.859418e+002, 1.212849e+003
5.864240e+002, 1.209496e+003
5.869061e+002, 1.205370e+003
5.873882e+002, 1.200406e+003
5.878703e+002, 1.194268e+003
5.883524e+002, 1.188699e+003
5.888345e+002, 1.184526e+003
5.893167e+002, 1.180582e+003
5.897988e+002, 1.175954e+003
5.902809e+002, 1.170347e+003
5.907630e+002, 1.164638e+003
5.912451e+002, 1.158651e+003
5.917272e+002, 1.152789e+003
5.922094e+002, 1.148077e+003
5.926915e+002, 1.144663e+003
5.931736e+002, 1.140728e+003
5.936557e+002, 1.135617e+003
5.941378e+002, 1.129626e+003
5.946199e+002, 1.123150e+003
5.951021e+002, 1.116326e+003
5.955842e+002, 1.109789e+003
5.960663e+002, 1.104239e+003
5.965484e+002, 1.099084e+003
5.970305e+002, 1.093465e+003
5.975126e+002, 1.087292e+003
5.979948e+002, 1.081293e+003
5.984769e+002, 1.075980e+003
5.989590e+002, 1.071036e+003
5.994411e+002, 1.066125e+003
5.999232e+002, 1.060849e+003
6.004053e+002, 1.056148e+003
6.008875e+002, 1.052934e+003
6.013696e+002, 1.050142e+003
6.018517e+002, 1.046162e+003
6.023338e+002, 1.039908e+003
6.028159e+002, 1.034755e+003
6.032980e+002, 1.031654e+003
6.037802e+002, 1.029977e+003
6.042623e+002, 1.027240e+003
6.047444e+002, 1.023334e+003
6.052265e+002, 1.019449e+003
6.057086e+002, 1.016215e+003
6.061907e+002, 1.013482e+003
6.066729e+002, 1.010592e+003
6.071550e+002, 1.007555e+003
6.076371e+002, 1.004886e+003
6.081192e+002, 1.003698e+003
6.086013e+002, 1.002858e+003
6.090834e+002, 1.000776e+003
6.095656e+002, 9.969045e+002
6.100477e+002, 9.929326e+002
6.105298e+002, 9.892275e+002
6.110119e+002, 9.861752e+002
6.114940e+002, 9.841727e+002
6.119761e+002, 9.844799e+002
6.124583e+002, 9.845358e+002
6.129404e+002, 9.839029e+002
6.134225e+002, 9.828146e+002
6.139046e+002, 9.816964e+002
6.143867e+002, 9.805053e+002
6.148688e+002, 9.794693e+002
6.153510e+002, 9.787850e+002
6.158331e+002, 9.783168e+002
6.163152e+002, 9.769995e+002
6.167973e+002, 9.747117e+002
6.172794e+002, 9.726381e+002
6.177615e+002, 9.718608e+002
6.182437e+002, 9.718858e+002
6.187258e+002, 9.712796e+002
6.192079e+002, 9.699257e+002
6.196900e+002, 9.684363e+002
6.201721e+002, 9.671461e+002
6.206542e+002, 9.660816e+002
6.211364e+002, 9.653968e+002
6.216185e+002, 9.655078e+002
6.221006e+002, 9.651135e+002
6.225827e+002, 9.632270e+002
6.230648e+002, 9.606397e+002
6.235469e+002, 9.584542e+002
6.240291e+002, 9.574626e+002
6.245112e+002, 9.562220e+002
6.249933e+002, 9.546674e+002
6.254754e+002, 9.527457e+002
6.259575e+002, 9.502690e+002
6.264396e+002, 9.471830e+002
6.269218e+002, 9.436648e+002
6.274039e+002, 9.392882e+002
6.278860e+002, 9.344627e+002
6.283681e+002, 9.320797e+002
6.288502e+002, 9.322151e+002
6.293323e+002, 9.326517e+002
6.298145e+002, 9.318203e+002
6.302966e+002, 9.300929e+002
6.307787e+002, 9.279785e+002
6.312608e+002, 9.254700e+002
6.317429e+002, 9.232228e+002
6.322250e+002, 9.221835e+002
6.327072e+002, 9.214449e+002
6.331893e+002, 9.198802e+002
6.336714e+002, 9.160638e+002
6.341535e+002, 9.133781e+002
6.346356e+002, 9.136450e+002
6.351177e+002, 9.153212e+002
6.355999e+002, 9.159277e+002
6.360820e+002, 9.148622e+002
6.365641e+002, 9.135898e+002
6.370462e+002, 9.121671e+002
6.375283e+002, 9.107498e+002
6.380104e+002, 9.100078e+002
6.384926e+002, 9.100973e+002
6.389747e+002, 9.098632e+002
6.394568e+002, 9.087228e+002
6.399389e+002, 9.068781e+002
6.404210e+002, 9.047148e+002
6.409031e+002, 9.022766e+002
6.413853e+002, 9.004758e+002
6.418674e+002, 9.004346e+002
6.423495e+002, 9.011749e+002
6.428316e+002, 9.016478e+002
6.433137e+002, 9.017554e+002
6.437958e+002, 9.014246e+002
6.442780e+002, 8.999651e+002
6.447601e+002, 8.984007e+002
6.452422e+002, 8.976752e+002
6.457243e+002, 8.989908e+002
6.462064e+002, 8.994836e+002
6.466885e+002, 8.984999e+002
6.471707e+002, 8.969268e+002
6.476528e+002, 8.959825e+002
6.481349e+002, 8.958653e+002
6.486170e+002, 8.956631e+002
6.490991e+002, 8.951476e+002
6.495812e+002, 8.944983e+002
6.500634e+002, 8.941560e+002
6.505455e+002, 8.940997e+002
6.510276e+002, 8.940536e+002
6.515097e+002, 8.937453e+002
6.519918e+002, 8.934637e+002
6.524739e+002, 8.939194e+002
6.529561e+002, 8.949250e+002
6.534382e+002, 8.955130e+002
6.539203e+002, 8.947802e+002
6.544024e+002, 8.936784e+002
6.548845e+002, 8.927684e+002
6.553666e+002, 8.921050e+002
6.558488e+002, 8.916991e+002
6.563309e+002, 8.920843e+002
6.568130e+002, 8.923194e+002
6.572951e+002, 8.917463e+002
6.577772e+002, 8.897664e+002
6.582593e+002, 8.886547e+002
6.587415e+002, 8.886696e+002
6.592236e+002, 8.891398e+002
6.597057e+002, 8.893959e+002
6.601878e+002, 8.894373e+002
6.606699e+002, 8.892139e+002
6.611520e+002, 8.887398e+002
6.616342e+002, 8.879435e+002
6.621163e+002, 8.862449e+002
6.625984e+002, 8.841149e+002
6.630805e+002, 8.828203e+002
6.635626e+002, 8.836038e+002
6.640447e+002, 8.846365e+002
6.645269e+002, 8.846514e+002
6.650090e+002, 8.838779e+002
6.654911e+002, 8.829983e+002
6.659732e+002, 8.822904e+002
6.664553e+002, 8.814511e+002
6.669374e+002, 8.802164e+002
6.674196e+002, 8.786384e+002
6.679017e+002, 8.775781e+002
6.683838e+002, 8.773214e+002
6.688659e+002, 8.770576e+002
6.693480e+002, 8.762272e+002
6.698301e+002, 8.748525e+002
6.703123e+002, 8.744401e+002
6.707944e+002, 8.751524e+002
6.712765e+002, 8.755833e+002
6.717586e+002, 8.736022e+002
6.722407e+002, 8.705358e+002
6.727228e+002, 8.697921e+002
6.732050e+002, 8.721859e+002
6.736871e+002, 8.744592e+002
6.741692e+002, 8.739817e+002
6.746513e+002, 8.720823e+002
6.751334e+002, 8.702802e+002
6.756155e+002, 8.686473e+002
6.760977e+002, 8.675547e+002
6.765798e+002, 8.673723e+002
6.770619e+002, 8.677040e+002
6.775440e+002, 8.680200e+002
6.780261e+002, 8.685078e+002
6.785082e+002, 8.685541e+002
6.789904e+002, 8.678701e+002
6.794725e+002, 8.668334e+002
6.799546e+002, 8.664330e+002
6.804367e+002, 8.666889e+002
6.809188e+002, 8.670982e+002
6.814009e+002, 8.676695e+002
6.818831e+002, 8.681308e+002
6.823652e+002, 8.679639e+002
6.828473e+002, 8.672170e+002
6.833294e+002, 8.661103e+002
6.838115e+002, 8.641949e+002
6.842936e+002, 8.624082e+002
6.847758e+002, 8.614295e+002
6.852579e+002, 8.613079e+002
6.857400e+002, 8.614457e+002
6.862221e+002, 8.617666e+002
6.867042e+002, 8.622460e+002
6.871863e+002, 8.629220e+002
6.876685e+002, 8.638989e+002
6.881506e+002, 8.645535e+002
6.886327e+002, 8.647923e+002
6.891148e+002, 8.648947e+002
6.895969e+002, 8.651085e+002
6.900790e+002, 8.654150e+002
6.905612e+002, 8.656866e+002
6.910433e+002, 8.659289e+002
6.915254e+002, 8.659683e+002
6.920075e+002, 8.656093e+002
6.924896e+002, 8.648958e+002
6.929717e+002, 8.638627e+002
6.934539e+002, 8.623088e+002
6.939360e+002, 8.608603e+002
6.944181e+002, 8.597026e+002
6.949002e+002, 8.589431e+002
6.953823e+002, 8.587490e+002
6.958644e+002, 8.595373e+002
6.963466e+002, 8.605032e+002
6.968287e+002, 8.618680e+002
6.973108e+002, 8.632826e+002
6.977929e+002, 8.636903e+002
6.982750e+002, 8.628655e+002
6.987571e+002, 8.619543e+002
6.992393e+002, 8.612523e+002
6.997214e+002, 8.607850e+002
7.002035e+002, 8.607375e+002
7.006856e+002, 8.610618e+002
7.011677e+002, 8.613229e+002
7.016498e+002, 8.613757e+002
7.021320e+002, 8.611513e+002
7.026141e+002, 8.602576e+002
7.030962e+002, 8.588121e+002
7.035783e+002, 8.579207e+002
7.040604e+002, 8.584417e+002
7.045425e+002, 8.593365e+002
7.050247e+002, 8.600159e+002
7.055068e+002, 8.603665e+002
7.059889e+002, 8.608290e+002
7.064710e+002, 8.615928e+002
7.069531e+002, 8.622014e+002
7.074352e+002, 8.623996e+002
7.079174e+002, 8.621954e+002
7.083995e+002, 8.613359e+002
7.088816e+002, 8.596566e+002
7.093637e+002, 8.581332e+002
7.098458e+002, 8.578707e+002
7.103279e+002, 8.585620e+002
7.108101e+002, 8.595530e+002
7.112922e+002, 8.608550e+002
7.117743e+002, 8.619113e+002
7.122564e+002, 8.622965e+002
7.127385e+002, 8.622220e+002
7.132206e+002, 8.619210e+002
7.137028e+002, 8.611456e+002
7.141849e+002, 8.606002e+002
7.146670e+002, 8.605316e+002
7.151491e+002, 8.607286e+002
7.156312e+002, 8.609172e+002
7.161133e+002, 8.610589e+002
7.165955e+002, 8.612584e+002
7.170776e+002, 8.614521e+002
7.175597e+002, 8.617914e+002
7.180418e+002, 8.628672e+002
7.185239e+002, 8.645609e+002
7.190060e+002, 8.656660e+002
7.194882e+002, 8.654017e+002
7.199703e+002, 8.646235e+002
7.204524e+002, 8.641742e+002
7.209345e+002, 8.640596e+002
7.214166e+002, 8.643044e+002
7.218987e+002, 8.654924e+002
7.223809e+002, 8.664909e+002
7.228630e+002, 8.668398e+002
7.233451e+002, 8.665253e+002
7.238272e+002, 8.655036e+002
7.243093e+002, 8.626888e+002
7.247914e+002, 8.608767e+002
7.252736e+002, 8.615762e+002
7.257557e+002, 8.644876e+002
7.262378e+002, 8.654936e+002
7.267199e+002, 8.643885e+002
7.272020e+002, 8.633307e+002
7.276841e+002, 8.641208e+002
7.281663e+002, 8.659194e+002
7.286484e+002, 8.668093e+002
7.291305e+002, 8.667538e+002
7.296126e+002, 8.665220e+002
7.300947e+002, 8.667226e+002
7.305768e+002, 8.668989e+002
7.310590e+002, 8.665701e+002
7.315411e+002, 8.655151e+002
7.320232e+002, 8.647800e+002
7.325053e+002, 8.644503e+002
7.329874e+002, 8.645623e+002
7.334695e+002, 8.652635e+002
7.339517e+002, 8.668603e+002
7.344338e+002, 8.678467e+002
7.349159e+002, 8.680814e+002
7.353980e+002, 8.680997e+002
7.358801e+002, 8.685673e+002
7.363622e+002, 8.693347e+002
7.368444e+002, 8.697089e+002
7.373265e+002, 8.695197e+002
7.378086e+002, 8.693029e+002
7.382907e+002, 8.698270e+002
7.387728e+002, 8.705477e+002
7.392549e+002, 8.706947e+002
7.397371e+002, 8.695323e+002
7.402192e+002, 8.687302e+002
7.407013e+002, 8.690168e+002
7.411834e+002, 8.698259e+002
7.416655e+002, 8.704101e+002
7.421476e+002, 8.707561e+002
7.426298e+002, 8.708337e+002
7.431119e+002, 8.704875e+002
7.435940e+002, 8.700400e+002
7.440761e+002, 8.701331e+002
7.445582e+002, 8.707051e+002
7.450403e+002, 8.712446e+002
7.455225e+002, 8.715048e+002
7.460046e+002, 8.717955e+002
7.464867e+002, 8.727010e+002
7.469688e+002, 8.739111e+002
7.474509e+002, 8.747592e+002
7.479330e+002, 8.749758e+002
7.484152e+002, 8.747702e+002
7.488973e+002, 8.740583e+002
7.493794e+002, 8.729747e+002
7.498615e+002, 8.719474e+002
7.503436e+002, 8.707510e+002
7.508257e+002, 8.700898e+002
7.513079e+002, 8.703513e+002
7.517900e+002, 8.712204e+002
7.522721e+002, 8.713834e+002
7.527542e+002, 8.708518e+002
7.532363e+002, 8.706774e+002
7.537184e+002, 8.718127e+002
7.542006e+002, 8.733390e+002
7.546827e+002, 8.737612e+002
7.551648e+002, 8.732653e+002
7.556469e+002, 8.725959e+002
7.561290e+002, 8.719620e+002
7.566111e+002, 8.714120e+002
7.570933e+002, 8.708371e+002
7.575754e+002, 8.702770e+002
7.580575e+002, 8.702731e+002
7.585396e+002, 8.712197e+002
7.590217e+002, 8.721377e+002
7.595038e+002, 8.726801e+002
7.599860e+002, 8.728545e+002
7.604681e+002, 8.726866e+002
7.609502e+002, 8.721170e+002
7.614323e+002, 8.718801e+002
7.619144e+002, 8.726110e+002
7.623965e+002, 8.739470e+002
7.628787e+002, 8.754883e+002
7.633608e+002, 8.771455e+002
7.638429e+002, 8.782392e+002
7.643250e+002, 8.773987e+002
7.648071e+002, 8.765779e+002
7.652892e+002, 8.776794e+002
7.657714e+002, 8.813651e+002
7.662535e+002, 8.825610e+002
7.667356e+002, 8.790985e+002
7.672177e+002, 8.756373e+002
7.676998e+002, 8.749210e+002
7.681819e+002, 8.771370e+002
7.686641e+002, 8.789581e+002
7.691462e+002, 8.803831e+002
7.696283e+002, 8.813348e+002
7.701104e+002, 8.815967e+002
7.705925e+002, 8.813740e+002
7.710746e+002, 8.808393e+002
7.715568e+002, 8.799805e+002
7.720389e+002, 8.796649e+002
7.725210e+002, 8.810166e+002
7.730031e+002, 8.827258e+002
7.734852e+002, 8.837802e+002
7.739673e+002, 8.838857e+002
7.744495e+002, 8.837393e+002
7.749316e+002, 8.829915e+002
7.754137e+002, 8.824435e+002
7.758958e+002, 8.829572e+002
7.763779e+002, 8.846913e+002
7.768600e+002, 8.851578e+002
7.773422e+002, 8.840878e+002
7.778243e+002, 8.829426e+002
7.783064e+002, 8.835951e+002
7.787885e+002, 8.851312e+002
7.792706e+002, 8.857861e+002
7.797527e+002, 8.852007e+002
7.802349e+002, 8.842653e+002
7.807170e+002, 8.827785e+002
7.811991e+002, 8.816284e+002
7.816812e+002, 8.817245e+002
7.821633e+002, 8.845200e+002
7.826454e+002, 8.859160e+002
7.831276e+002, 8.851674e+002
7.836097e+002, 8.839188e+002
7.840918e+002, 8.838763e+002
7.845739e+002, 8.850603e+002
7.850560e+002, 8.860125e+002
7.855381e+002, 8.865693e+002
7.860203e+002, 8.869564e+002
7.865024e+002, 8.875848e+002
7.869845e+002, 8.881655e+002
7.874666e+002, 8.880553e+002
7.879487e+002, 8.867747e+002
7.884308e+002, 8.858932e+002
7.889130e+002, 8.862126e+002
7.893951e+002, 8.872748e+002
7.898772e+002, 8.886710e+002
7.903593e+002, 8.909399e+002
7.908414e+002, 8.923652e+002
7.913235e+002, 8.925533e+002
7.918057e+002, 8.923876e+002
7.922878e+002, 8.929659e+002
7.927699e+002, 8.942338e+002
7.932520e+002, 8.953557e+002
7.937341e+002, 8.962430e+002
7.942162e+002, 8.968264e+002
7.946984e+002, 8.968748e+002
7.951805e+002, 8.966270e+002
7.956626e+002, 8.964111e+002
7.961447e+002, 8.961337e+002
7.966268e+002, 8.963107e+002
7.971089e+002, 8.978010e+002
7.975911e+002, 8.995043e+002
7.980732e+002, 9.001870e+002
7.985553e+002, 8.994397e+002
7.990374e+002, 8.985955e+002
7.995195e+002, 8.975833e+002
8.000016e+002, 8.967767e+002
8.004838e+002, 8.967716e+002
8.009659e+002, 8.974461e+002
8.014480e+002, 8.980617e+002
8.019301e+002, 8.984775e+002
8.024122e+002, 8.988545e+002
8.028943e+002, 8.994152e+002
8.033765e+002, 9.000009e+002
8.038586e+002, 9.003496e+002
8.043407e+002, 8.999061e+002
8.048228e+002, 9.001068e+002
8.053049e+002, 9.020414e+002
8.057870e+002, 9.042802e+002
8.062692e+002, 9.052764e+002
8.067513e+002, 9.045332e+002
8.072334e+002, 9.045510e+002
8.077155e+002, 9.056983e+002
8.081976e+002, 9.071647e+002
8.086797e+002, 9.081685e+002
8.091619e+002, 9.086282e+002
8.096440e+002, 9.080170e+002
8.101261e+002, 9.057811e+002
8.106082e+002, 9.041776e+002
8.110903e+002, 9.059088e+002
8.115724e+002, 9.087001e+002
8.120546e+002, 9.100240e+002
8.125367e+002, 9.080687e+002
8.130188e+002, 9.068417e+002
8.135009e+002, 9.069447e+002
8.139830e+002, 9.074550e+002
8.144651e+002, 9.072441e+002
8.149473e+002, 9.062406e+002
8.154294e+002, 9.059724e+002
8.159115e+002, 9.066870e+002
8.163936e+002, 9.077527e+002
8.168757e+002, 9.084908e+002
8.173578e+002, 9.090556e+002
8.178400e+002, 9.098009e+002
8.183221e+002, 9.109509e+002
8.188042e+002, 9.117258e+002
8.192863e+002, 9.113871e+002
8.197684e+002, 9.106804e+002
8.202505e+002, 9.102654e+002
8.207327e+002, 9.098740e+002
8.212148e+002, 9.104634e+002
8.216969e+002, 9.124066e+002
8.221790e+002, 9.146142e+002
8.226611e+002, 9.160641e+002
8.231432e+002, 9.167638e+002
8.236254e+002, 9.165601e+002
8.241075e+002, 9.153737e+002
8.245896e+002, 9.138220e+002
8.250717e+002, 9.118446e+002
8.255538e+002, 9.101496e+002
8.260359e+002, 9.098292e+002
8.265181e+002, 9.116811e+002
8.270002e+002, 9.127770e+002
8.274823e+002, 9.120366e+002
8.279644e+002, 9.106878e+002
8.284465e+002, 9.094169e+002
8.289286e+002, 9.082059e+002
8.294108e+002, 9.072533e+002
8.298929e+002, 9.065065e+002
8.303750e+002, 9.063843e+002
8.308571e+002, 9.077933e+002
8.313392e+002, 9.100019e+002
8.318214e+002, 9.115237e+002
8.323035e+002, 9.121947e+002
8.327856e+002, 9.122210e+002
8.332677e+002, 9.112253e+002
8.337498e+002, 9.099643e+002
8.342319e+002, 9.088961e+002
8.347141e+002, 9.079697e+002
8.351962e+002, 9.077945e+002
8.356783e+002, 9.088944e+002
8.361604e+002, 9.098109e+002
8.366425e+002, 9.091158e+002
8.371246e+002, 9.070070e+002
8.376068e+002, 9.069276e+002
8.380889e+002, 9.089046e+002
8.385710e+002, 9.111093e+002
8.390531e+002, 9.120839e+002
8.395352e+002, 9.125824e+002
8.400173e+002, 9.135287e+002
8.404995e+002, 9.149823e+002
8.409816e+002, 9.160155e+002
8.414637e+002, 9.161272e+002
8.419458e+002, 9.159211e+002
8.424279e+002, 9.155633e+002
8.429100e+002, 9.150599e+002
8.433922e+002, 9.149361e+002
8.438743e+002, 9.152096e+002
8.443564e+002, 9.157188e+002
8.448385e+002, 9.167454e+002
8.453206e+002, 9.178224e+002
8.458027e+002, 9.174999e+002
8.462849e+002, 9.160494e+002
8.467670e+002, 9.150173e+002
8.472491e+002, 9.157123e+002
8.477312e+002, 9.166769e+002
8.482133e+002, 9.173378e+002
8.486954e+002, 9.176061e+002
8.491776e+002, 9.170413e+002
8.496597e+002, 9.149911e+002
8.501418e+002, 9.134632e+002
8.506239e+002, 9.131526e+002
8.511060e+002, 9.138643e+002
8.515881e+002, 9.152867e+002
8.520703e+002, 9.173023e+002
8.525524e+002, 9.188683e+002
8.530345e+002, 9.190763e+002
8.535166e+002, 9.189412e+002
8.539987e+002, 9.195113e+002
8.544808e+002, 9.204636e+002
8.549630e+002, 9.209930e+002
8.554451e+002, 9.202260e+002
8.559272e+002, 9.197522e+002
8.564093e+002, 9.199874e+002
8.568914e+002, 9.206318e+002
8.573735e+002, 9.210313e+002
8.578557e+002, 9.211627e+002
8.583378e+002, 9.212052e+002
8.588199e+002, 9.211014e+002
8.593020e+002, 9.211533e+002
8.597841e+002, 9.221629e+002
8.602662e+002, 9.236287e+002
8.607484e+002, 9.244376e+002
8.612305e+002, 9.233568e+002
8.617126e+002, 9.228575e+002
8.621947e+002, 9.246887e+002
8.626768e+002, 9.272962e+002
8.631589e+002, 9.283610e+002
8.636411e+002, 9.270697e+002
8.641232e+002, 9.266945e+002
8.646053e+002, 9.277881e+002
8.650874e+002, 9.292349e+002
8.655695e+002, 9.294448e+002
8.660516e+002, 9.287880e+002
8.665338e+002, 9.284694e+002
8.670159e+002, 9.287629e+002
8.674980e+002, 9.291227e+002
8.679801e+002, 9.289482e+002
8.684622e+002, 9.287740e+002
8.689443e+002, 9.291989e+002
8.694265e+002, 9.308598e+002
8.699086e+002, 9.317614e+002
8.703907e+002, 9.316113e+002
8.708728e+002, 9.311614e+002
8.713549e+002, 9.309160e+002
8.718370e+002, 9.308885e+002
8.723192e+002, 9.312858e+002
8.728013e+002, 9.321259e+002
8.732834e+002, 9.330228e+002
8.737655e+002, 9.338165e+002
8.742476e+002, 9.343989e+002
8.747297e+002, 9.345787e+002
8.752119e+002, 9.343265e+002
8.756940e+002, 9.341061e+002
8.761761e+002, 9.339918e+002
8.766582e+002, 9.339493e+002
8.771403e+002, 9.338461e+002
8.776224e+002, 9.337350e+002
8.781046e+002, 9.346751e+002
8.785867e+002, 9.367369e+002
8.790688e+002, 9.383338e+002
8.795509e+002, 9.380943e+002
8.800330e+002, 9.370589e+002
8.805151e+002, 9.365090e+002
8.809973e+002, 9.364385e+002
8.814794e+002, 9.367686e+002
8.819615e+002, 9.381208e+002
8.824436e+002, 9.391777e+002
8.829257e+002, 9.389182e+002
8.834078e+002, 9.380556e+002
8.838900e+002, 9.389347e+002
8.843721e+002, 9.420491e+002
8.848542e+002, 9.442222e+002
8.853363e+002, 9.442883e+002
8.858184e+002, 9.433362e+002
8.863005e+002, 9.432078e+002
8.867827e+002, 9.435978e+002
8.872648e+002, 9.436932e+002
8.877469e+002, 9.425601e+002
8.882290e+002, 9.420182e+002
8.887111e+002, 9.433623e+002
8.891932e+002, 9.455837e+002
8.896754e+002, 9.472438e+002
8.901575e+002, 9.482586e+002
8.906396e+002, 9.486971e+002
8.911217e+002, 9.483092e+002
8.916038e+002, 9.479521e+002
8.920859e+002, 9.491035e+002
8.925681e+002, 9.511680e+002
8.930502e+002, 9.520434e+002
8.935323e+002, 9.511736e+002
8.940144e+002, 9.507349e+002
8.944965e+002, 9.530847e+002
8.949786e+002, 9.559578e+002
8.954608e+002, 9.571855e+002
8.959429e+002, 9.556931e+002
8.964250e+002, 9.559451e+002
8.969071e+002, 9.588731e+002
8.973892e+002, 9.616549e+002
8.978713e+002, 9.617723e+002
8.983535e+002, 9.598803e+002
8.988356e+002, 9.602237e+002
8.993177e+002, 9.626660e+002
8.997998e+002, 9.647903e+002
9.002819e+002, 9.642567e+002
9.007640e+002, 9.633834e+002
9.012462e+002, 9.642012e+002
9.017283e+002, 9.665717e+002
9.022104e+002, 9.682034e+002
9.026925e+002, 9.681983e+002
9.031746e+002, 9.685646e+002
9.036567e+002, 9.700922e+002
9.041389e+002, 9.723049e+002
9.046210e+002, 9.737213e+002
9.051031e+002, 9.743922e+002
9.055852e+002, 9.747922e+002
9.060673e+002, 9.747653e+002
9.065494e+002, 9.750284e+002
9.070316e+002, 9.765626e+002
9.075137e+002, 9.787605e+002
9.079958e+002, 9.805774e+002
9.084779e+002, 9.811796e+002
9.089600e+002, 9.821557e+002
9.094421e+002, 9.838276e+002
9.099243e+002, 9.857134e+002
9.104064e+002, 9.872010e+002
9.108885e+002, 9.883029e+002
9.113706e+002, 9.893332e+002
9.118527e+002, 9.903215e+002
9.123348e+002, 9.913826e+002
9.128170e+002, 9.926234e+002
9.132991e+002, 9.940095e+002
9.137812e+002, 9.954157e+002
9.142633e+002, 9.966788e+002
9.147454e+002, 9.986672e+002
9.152275e+002, 1.002338e+003
9.157097e+002, 1.005771e+003
9.161918e+002, 1.007610e+003
9.166739e+002, 1.007894e+003
9.171560e+002, 1.009193e+003
9.176381e+002, 1.011501e+003
9.181202e+002, 1.014248e+003
9.186024e+002, 1.017592e+003
9.190845e+002, 1.020770e+003
9.195666e+002, 1.022570e+003
9.200487e+002, 1.023269e+003
9.205308e+002, 1.024653e+003
9.210129e+002, 1.027394e+003
9.214951e+002, 1.030740e+003
9.219772e+002, 1.034660e+003
9.224593e+002, 1.038972e+003
9.229414e+002, 1.043311e+003
9.234235e+002, 1.047622e+003
9.239056e+002, 1.051352e+003
9.243878e+002, 1.054065e+003
9.248699e+002, 1.056602e+003
9.253520e+002, 1.059784e+003
9.258341e+002, 1.063516e+003
9.263162e+002, 1.067706e+003
9.267983e+002, 1.072482e+003
9.272805e+002, 1.077509e+003
9.277626e+002, 1.082597e+003
9.282447e+002, 1.088143e+003
9.287268e+002, 1.094965e+003
9.292089e+002, 1.103075e+003
9.296910e+002, 1.109326e+003
9.301732e+002, 1.113327e+003
9.306553e+002, 1.117077e+003
9.311374e+002, 1.121848e+003
9.316195e+002, 1.127677e+003
9.321016e+002, 1.134871e+003
9.325837e+002, 1.143380e+003
9.330659e+002, 1.152398e+003
9.335480e+002, 1.162976e+003
9.340301e+002, 1.172372e+003
9.345122e+002, 1.178785e+003
9.349943e+002, 1.182911e+003
9.354764e+002, 1.189355e+003
9.359586e+002, 1.198124e+003
9.364407e+002, 1.207240e+003
9.369228e+002, 1.216234e+003
9.374049e+002, 1.224802e+003
9.378870e+002, 1.232459e+003
9.383691e+002, 1.239522e+003
9.388513e+002, 1.246533e+003
9.393334e+002, 1.253579e+003
9.398155e+002, 1.260902e+003
9.402976e+002, 1.268681e+003
9.407797e+002, 1.276560e+003
9.412618e+002, 1.284418e+003
9.417440e+002, 1.292093e+003
9.422261e+002, 1.296459e+003
9.427082e+002, 1.296482e+003
9.431903e+002, 1.296341e+003
9.436724e+002, 1.300960e+003
9.441545e+002, 1.306957e+003
9.446367e+002, 1.310693e+003
9.451188e+002, 1.310903e+003
9.456009e+002, 1.311397e+003
9.460830e+002, 1.312935e+003
9.465651e+002, 1.314061e+003
9.470472e+002, 1.313968e+003
9.475294e+002, 1.312671e+003
9.480115e+002, 1.310269e+003
9.484936e+002, 1.306828e+003
9.489757e+002, 1.303329e+003
9.494578e+002, 1.300264e+003
9.499399e+002, 1.297516e+003
9.504221e+002, 1.294992e+003
9.509042e+002, 1.292732e+003
9.513863e+002, 1.290968e+003
9.518684e+002, 1.290432e+003
9.523505e+002, 1.289075e+003
9.528326e+002, 1.286313e+003
9.533148e+002, 1.282954e+003
9.537969e+002, 1.280291e+003
9.542790e+002, 1.278334e+003
9.547611e+002, 1.276975e+003
9.552432e+002, 1.276070e+003
9.557253e+002, 1.276234e+003
9.562075e+002, 1.278641e+003
9.566896e+002, 1.281886e+003
9.571717e+002, 1.284589e+003
9.576538e+002, 1.286457e+003
9.581359e+002, 1.288004e+003
9.586180e+002, 1.288716e+003
9.591002e+002, 1.290325e+003
9.595823e+002, 1.294850e+003
9.600644e+002, 1.301159e+003
9.605465e+002, 1.305475e+003
9.610286e+002, 1.308021e+003
9.615107e+002, 1.310966e+003
9.619929e+002, 1.316104e+003
9.624750e+002, 1.321448e+003
9.629571e+002, 1.325835e+003
9.634392e+002, 1.329570e+003
9.639213e+002, 1.334183e+003
9.644034e+002, 1.340111e+003
9.648856e+002, 1.344997e+003
9.653677e+002, 1.348176e+003
9.658498e+002, 1.350274e+003
9.663319e+002, 1.351503e+003
9.668140e+002, 1.352587e+003
9.672961e+002, 1.355205e+003
9.677783e+002, 1.360575e+003
9.682604e+002, 1.365468e+003
9.687425e+002, 1.368471e+003
9.692246e+002, 1.370676e+003
9.697067e+002, 1.373006e+003
9.701888e+002, 1.375494e+003
9.706710e+002, 1.377298e+003
9.711531e+002, 1.378258e+003
9.716352e+002, 1.379835e+003
9.721173e+002, 1.383994e+003
9.725994e+002, 1.388861e+003
9.730815e+002, 1.391572e+003
9.735637e+002, 1.392495e+003
9.740458e+002, 1.394368e+003
9.745279e+002, 1.398547e+003
9.750100e+002, 1.403287e+003
9.754921e+002, 1.408368e+003
9.759742e+002, 1.413623e+003
9.764564e+002, 1.418468e+003
9.769385e+002, 1.423013e+003
9.774206e+002, 1.428536e+003
9.779027e+002, 1.435716e+003
9.783848e+002, 1.442791e+003
9.788669e+002, 1.447456e+003
9.793491e+002, 1.451428e+003
9.798312e+002, 1.456941e+003
9.803133e+002, 1.465476e+003
9.807954e+002, 1.472676e+003
9.812775e+002, 1.477716e+003
9.817596e+002, 1.482748e+003
9.822418e+002, 1.489596e+003
9.827239e+002, 1.497844e+003
9.832060e+002, 1.505536e+003
9.836881e+002, 1.512623e+003
9.841702e+002, 1.518975e+003
9.846523e+002, 1.524547e+003
9.851345e+002, 1.529274e+003
9.856166e+002, 1.533164e+003
9.860987e+002, 1.536140e+003
9.865808e+002, 1.538272e+003
9.870629e+002, 1.539637e+003
9.875450e+002, 1.539929e+003
9.880272e+002, 1.539117e+003
9.885093e+002, 1.537163e+003
9.889914e+002, 1.533773e+003
9.894735e+002, 1.529293e+003
9.899556e+002, 1.524503e+003
9.904377e+002, 1.519725e+003
9.909199e+002, 1.514055e+003
9.914020e+002, 1.506467e+003
9.918841e+002, 1.498417e+003
9.923662e+002, 1.490945e+003
9.928483e+002, 1.484212e+003
9.933304e+002, 1.476422e+003
9.938126e+002, 1.467499e+003
9.942947e+002, 1.458798e+003
9.947768e+002, 1.451060e+003
9.952589e+002, 1.444080e+003
9.957410e+002, 1.437570e+003
9.962231e+002, 1.431537e+003
9.967053e+002, 1.425829e+003
9.971874e+002, 1.420263e+003
9.976695e+002, 1.415310e+003
9.981516e+002, 1.410910e+003
9.986337e+002, 1.407261e+003
9.991158e+002, 1.404696e+003
9.995980e+002, 1.403126e+003
1.000080e+003, 1.402152e+003
1.000562e+003, 1.401743e+003
1.001044e+003, 1.401514e+003
1.001526e+003, 1.400642e+003
1.002009e+003, 1.400225e+003
1.002491e+003, 1.401159e+003
1.002973e+003, 1.403614e+003
1.003455e+003, 1.407210e+003
1.003937e+003, 1.412171e+003
1.004419e+003, 1.417617e+003
1.004901e+003, 1.423280e+003
1.005383e+003, 1.429112e+003
1.005865e+003, 1.435546e+003
1.006348e+003, 1.442154e+003
1.006830e+003, 1.447902e+003
1.007312e+003, 1.452585e+003
1.007794e+003, 1.455919e+003
1.008276e+003, 1.457842e+003
1.008758e+003, 1.458336e+003
1.009240e+003, 1.457451e+003
1.009722e+003, 1.455261e+003
1.010205e+003, 1.450607e+003
1.010687e+003, 1.443266e+003
1.011169e+003, 1.434186e+003
1.011651e+003, 1.423802e+003
1.012133e+003, 1.412338e+003
1.012615e+003, 1.399990e+003
1.013097e+003, 1.386793e+003
1.013579e+003, 1.372116e+003
1.014061e+003, 1.354906e+003
1.014544e+003, 1.337856e+003
1.015026e+003, 1.321666e+003
1.015508e+003, 1.306375e+003
1.015990e+003, 1.291626e+003
1.016472e+003, 1.277502e+003
1.016954e+003, 1.264338e+003
1.017436e+003, 1.252009e+003
1.017918e+003, 1.240890e+003
1.018401e+003, 1.231926e+003
1.018883e+003, 1.223834e+003
1.019365e+003, 1.214983e+003
1.019847e+003, 1.204759e+003
1.020329e+003, 1.196814e+003
1.020811e+003, 1.191467e+003
1.021293e+003, 1.186695e+003
1.021775e+003, 1.180386e+003
1.022257e+003, 1.174118e+003
1.022740e+003, 1.170929e+003
1.023222e+003, 1.170040e+003
1.023704e+003, 1.168374e+003
1.024186e+003, 1.162838e+003
1.024668e+003, 1.159076e+003
1.025150e+003, 1.158740e+003
1.025632e+003, 1.160196e+003
1.026114e+003, 1.160840e+003
1.026596e+003, 1.160751e+003
1.027079e+003, 1.160794e+003
1.027561e+003, 1.161115e+003
1.028043e+003, 1.161462e+003
1.028525e+003, 1.161598e+003
1.029007e+003, 1.161699e+003
1.029489e+003, 1.161963e+003
1.029971e+003, 1.162426e+003
1.030453e+003, 1.162617e+003
1.030936e+003, 1.162353e+003
1.031418e+003, 1.162523e+003
1.031900e+003, 1.163846e+003
1.032382e+003, 1.165468e+003
1.032864e+003, 1.165706e+003
1.033346e+003, 1.164876e+003
1.033828e+003, 1.163688e+003
1.034310e+003, 1.161880e+003
1.034792e+003, 1.160563e+003
1.035275e+003, 1.160824e+003
1.035757e+003, 1.160958e+003
1.036239e+003, 1.159405e+003
1.036721e+003, 1.156184e+003
1.037203e+003, 1.152281e+003
1.037685e+003, 1.147802e+003
1.038167e+003, 1.143746e+003
1.038649e+003, 1.141212e+003
1.039132e+003, 1.139140e+003
1.039614e+003, 1.136415e+003
1.040096e+003, 1.133310e+003
1.040578e+003, 1.131326e+003
1.041060e+003, 1.131040e+003
1.041542e+003, 1.130367e+003
1.042024e+003, 1.128760e+003
1.042506e+003, 1.126846e+003
1.042989e+003, 1.125336e+003
1.043471e+003, 1.124245e+003
1.043953e+003, 1.123600e+003
1.044435e+003, 1.123382e+003
1.044917e+003, 1.123610e+003
1.045399e+003, 1.124687e+003
1.045881e+003, 1.125802e+003
1.046363e+003, 1.126571e+003
1.046845e+003, 1.127023e+003
1.047328e+003, 1.127238e+003
1.047810e+003, 1.127255e+003
1.048292e+003, 1.127560e+003
1.048774e+003, 1.128897e+003
1.049256e+003, 1.129926e+003
1.049738e+003, 1.128404e+003
1.050220e+003, 1.126274e+003
1.050702e+003, 1.126868e+003
1.051184e+003, 1.131884e+003
1.051667e+003, 1.135980e+003
1.052149e+003, 1.138939e+003
1.052631e+003, 1.141329e+003
1.053113e+003, 1.143400e+003
1.053595e+003, 1.145406e+003
1.054077e+003, 1.147578e+003
1.054559e+003, 1.150057e+003
1.055041e+003, 1.153631e+003
1.055523e+003, 1.159818e+003
1.056006e+003, 1.165668e+003
1.056488e+003, 1.170110e+003
1.056970e+003, 1.174018e+003
1.057452e+003, 1.179400e+003
1.057934e+003, 1.186064e+003
1.058416e+003, 1.192010e+003
1.058898e+003, 1.196736e+003
1.059380e+003, 1.201607e+003
1.059863e+003, 1.207099e+003
1.060345e+003, 1.213539e+003
1.060827e+003, 1.221791e+003
1.061309e+003, 1.231947e+003
1.061791e+003, 1.239768e+003
1.062273e+003, 1.244598e+003
1.062755e+003, 1.250216e+003
1.063237e+003, 1.258573e+003
1.063719e+003, 1.268101e+003
1.064202e+003, 1.276887e+003
1.064684e+003, 1.285002e+003
1.065166e+003, 1.292637e+003
1.065648e+003, 1.300038e+003
1.066130e+003, 1.306373e+003
1.066612e+003, 1.311336e+003
1.067094e+003, 1.315698e+003
1.067576e+003, 1.320116e+003
1.068059e+003, 1.324530e+003
1.068541e+003, 1.328579e+003
1.069023e+003, 1.332194e+003
1.069505e+003, 1.334743e+003
1.069987e+003, 1.335667e+003
1.070469e+003, 1.335584e+003
1.070951e+003, 1.335198e+003
1.071433e+003, 1.333828e+003
1.071916e+003, 1.329651e+003
1.072398e+003, 1.322253e+003
1.072880e+003, 1.316059e+003
1.073362e+003, 1.311783e+003
1.073844e+003, 1.308318e+003
1.074326e+003, 1.304899e+003
1.074808e+003, 1.301560e+003
1.075290e+003, 1.298380e+003
1.075772e+003, 1.295389e+003
1.076255e+003, 1.292304e+003
1.076737e+003, 1.289134e+003
1.077219e+003, 1.285855e+003
1.077701e+003, 1.282315e+003
1.078183e+003, 1.278928e+003
1.078665e+003, 1.276584e+003
1.079147e+003, 1.275018e+003
1.079629e+003, 1.273672e+003
1.080111e+003, 1.272468e+003
1.080594e+003, 1.271177e+003
1.081076e+003, 1.269621e+003
1.081558e+003, 1.268006e+003
1.082040e+003, 1.266464e+003
1.082522e+003, 1.264972e+003
1.083004e+003, 1.263503e+003
1.083486e+003, 1.262031e+003
1.083968e+003, 1.260488e+003
1.084450e+003, 1.259131e+003
1.084933e+003, 1.257359e+003
1.085415e+003, 1.254734e+003
1.085897e+003, 1.251462e+003
1.086379e+003, 1.247650e+003
1.086861e+003, 1.242853e+003
1.087343e+003, 1.239759e+003
1.087825e+003, 1.238748e+003
1.088307e+003, 1.237787e+003
1.088790e+003, 1.235007e+003
1.089272e+003, 1.231355e+003
1.089754e+003, 1.227398e+003
1.090236e+003, 1.223452e+003
1.090718e+003, 1.220974e+003
1.091200e+003, 1.221500e+003
1.091682e+003, 1.221068e+003
1.092164e+003, 1.218678e+003
1.092646e+003, 1.215654e+003
1.093129e+003, 1.213826e+003
1.093611e+003, 1.213006e+003
1.094093e+003, 1.212942e+003
1.094575e+003, 1.213659e+003
1.095057e+003, 1.213922e+003
1.095539e+003, 1.212654e+003
1.096021e+003, 1.211328e+003
1.096503e+003, 1.210429e+003
1.096986e+003, 1.210011e+003
1.097468e+003, 1.210444e+003
1.097950e+003, 1.211639e+003
1.098432e+003, 1.212723e+003
1.098914e+003, 1.213251e+003
1.099396e+003, 1.214083e+003
1.099878e+003, 1.216410e+003
1.100360e+003, 1.218975e+003
1.100843e+003, 1.220418e+003
1.101325e+003, 1.220580e+003
1.101807e+003, 1.221304e+003
1.102289e+003, 1.222645e+003
1.102771e+003, 1.223988e+003
1.103253e+003, 1.224884e+003
1.103735e+003, 1.225688e+003
1.104217e+003, 1.226630e+003
1.104699e+003, 1.227816e+003
1.105182e+003, 1.229493e+003
1.105664e+003, 1.232267e+003
1.106146e+003, 1.234363e+003
1.106628e+003, 1.235478e+003
1.107110e+003, 1.236631e+003
1.107592e+003, 1.239107e+003
1.108074e+003, 1.242143e+003
1.108556e+003, 1.243798e+003
1.109038e+003, 1.244412e+003
1.109521e+003, 1.246123e+003
1.110003e+003, 1.250817e+003
1.110485e+003, 1.255379e+003
1.110967e+003, 1.259434e+003
1.111449e+003, 1.262751e+003
1.111931e+003, 1.264319e+003
1.112413e+003, 1.264763e+003
1.112895e+003, 1.267347e+003
1.113377e+003, 1.272516e+003
1.113860e+003, 1.277254e+003
1.114342e+003, 1.278920e+003
1.114824e+003, 1.280522e+003
1.115306e+003, 1.284275e+003
1.115788e+003, 1.289124e+003
1.116270e+003, 1.290889e+003
1.116752e+003, 1.289670e+003
1.117234e+003, 1.290109e+003
1.117717e+003, 1.293807e+003
1.118199e+003, 1.297679e+003
1.118681e+003, 1.298415e+003
1.119163e+003, 1.298411e+003
1.119645e+003, 1.300236e+003
1.120127e+003, 1.304107e+003
1.120609e+003, 1.306515e+003
1.121091e+003, 1.307227e+003
1.121573e+003, 1.307928e+003
1.122056e+003, 1.309760e+003
1.122538e+003, 1.311216e+003
1.123020e+003, 1.309390e+003
1.123502e+003, 1.306243e+003
1.123984e+003, 1.304935e+003
1.124466e+003, 1.307378e+003
1.124948e+003, 1.308790e+003
1.125430e+003, 1.308821e+003
1.125913e+003, 1.308621e+003
1.126395e+003, 1.309132e+003
1.126877e+003, 1.309898e+003
1.127359e+003, 1.310059e+003
1.127841e+003, 1.309606e+003
1.128323e+003, 1.308477e+003
1.128805e+003, 1.305363e+003
1.129287e+003, 1.303445e+003
1.129770e+003, 1.303196e+003
1.130252e+003, 1.304025e+003
1.130734e+003, 1.305932e+003
1.131216e+003, 1.308416e+003
1.131698e+003, 1.309027e+003
1.132180e+003, 1.307984e+003
1.132662e+003, 1.307707e+003
1.133144e+003, 1.309750e+003
1.133626e+003, 1.312477e+003
1.134109e+003, 1.315519e+003
1.134591e+003, 1.318685e+003
1.135073e+003, 1.321705e+003
1.135555e+003, 1.324572e+003
1.136037e+003, 1.327429e+003
1.136519e+003, 1.330297e+003
1.137001e+003, 1.333699e+003
1.137483e+003, 1.338780e+003
1.137965e+003, 1.343818e+003
1.138448e+003, 1.347754e+003
1.138930e+003, 1.350824e+003
1.139412e+003, 1.353363e+003
1.139894e+003, 1.355348e+003
1.140376e+003, 1.358308e+003
1.140858e+003, 1.362803e+003
1.141340e+003, 1.367130e+003
1.141822e+003, 1.370325e+003
1.142304e+003, 1.372195e+003
1.142787e+003, 1.372239e+003
1.143269e+003, 1.370448e+003
1.143751e+003, 1.368620e+003
1.144233e+003, 1.366626e+003
1.144715e+003, 1.365483e+003
1.145197e+003, 1.366159e+003
1.145679e+003, 1.366358e+003
1.146161e+003, 1.362741e+003
1.146644e+003, 1.357013e+003
1.147126e+003, 1.351256e+003
1.147608e+003, 1.345831e+003
1.148090e+003, 1.340555e+003
1.148572e+003, 1.335684e+003
1.149054e+003, 1.330106e+003
1.149536e+003, 1.322992e+003
1.150018e+003, 1.315227e+003
1.150500e+003, 1.308299e+003
1.150983e+003, 1.301840e+003
1.151465e+003, 1.294993e+003
1.151947e+003, 1.286886e+003
1.152429e+003, 1.279928e+003
1.152911e+003, 1.274796e+003
1.153393e+003, 1.269724e+003
1.153875e+003, 1.263470e+003
1.154357e+003, 1.256377e+003
1.154840e+003, 1.248921e+003
1.155322e+003, 1.241341e+003
1.155804e+003, 1.234738e+003
1.156286e+003, 1.230284e+003
1.156768e+003, 1.225724e+003
1.157250e+003, 1.220798e+003
1.157732e+003, 1.215547e+003
1.158214e+003, 1.209952e+003
1.158697e+003, 1.204035e+003
1.159179e+003, 1.197675e+003
1.159661e+003, 1.191063e+003
1.160143e+003, 1.185443e+003
1.160625e+003, 1.181575e+003
1.161107e+003, 1.178715e+003
1.161589e+003, 1.177419e+003
1.162071e+003, 1.176165e+003
1.162553e+003, 1.172656e+003
1.163036e+003, 1.167281e+003
1.163518e+003, 1.162840e+003
1.164000e+003, 1.159469e+003
1.164482e+003, 1.156135e+003
1.164964e+003, 1.151579e+003
1.165446e+003, 1.147655e+003
1.165928e+003, 1.145911e+003
1.166410e+003, 1.145025e+003
1.166892e+003, 1.142229e+003
1.167375e+003, 1.137727e+003
1.167857e+003, 1.135104e+003
1.168339e+003, 1.134911e+003
1.168821e+003, 1.134363e+003
1.169303e+003, 1.130131e+003
1.169785e+003, 1.126135e+003
1.170267e+003, 1.125371e+003
1.170749e+003, 1.126757e+003
1.171231e+003, 1.127625e+003
1.171714e+003, 1.127966e+003
1.172196e+003, 1.126807e+003
1.172678e+003, 1.123684e+003
1.173160e+003, 1.120768e+003
1.173642e+003, 1.120182e+003
1.174124e+003, 1.120356e+003
1.174606e+003, 1.120071e+003
1.175088e+003, 1.119379e+003
1.175571e+003, 1.118937e+003
1.176053e+003, 1.118781e+003
1.176535e+003, 1.118121e+003
1.177017e+003, 1.116512e+003
1.177499e+003, 1.115107e+003
1.177981e+003, 1.115681e+003
1.178463e+003, 1.116536e+003
1.178945e+003, 1.115591e+003
1.179427e+003, 1.112779e+003
1.179910e+003, 1.111876e+003
1.180392e+003, 1.113130e+003
1.180874e+003, 1.113637e+003
1.181356e+003, 1.112131e+003
1.181838e+003, 1.109867e+003
1.182320e+003, 1.107373e+003
1.182802e+003, 1.105352e+003
1.183284e+003, 1.104907e+003
1.183767e+003, 1.106392e+003
1.184249e+003, 1.107059e+003
1.184731e+003, 1.106810e+003
1.185213e+003, 1.106503e+003
1.185695e+003, 1.106674e+003
1.186177e+003, 1.106805e+003
1.186659e+003, 1.106358e+003
1.187141e+003, 1.105466e+003
1.187624e+003, 1.104281e+003
1.188106e+003, 1.102777e+003
1.188588e+003, 1.101081e+003
1.189070e+003, 1.099049e+003
1.189552e+003, 1.097807e+003
1.190034e+003, 1.098216e+003
1.190516e+003, 1.099553e+003
1.190998e+003, 1.101523e+003
1.191480e+003, 1.103572e+003
1.191963e+003, 1.104704e+003
1.192445e+003, 1.104411e+003
1.192927e+003, 1.104023e+003
1.193409e+003, 1.103481e+003
1.193891e+003, 1.103045e+003
1.194373e+003, 1.102795e+003
1.194855e+003, 1.102795e+003
1.195337e+003, 1.102984e+003
1.195819e+003, 1.103503e+003
1.196302e+003, 1.104776e+003
1.196784e+003, 1.107850e+003
1.197266e+003, 1.109295e+003
1.197748e+003, 1.108882e+003
1.198230e+003, 1.107518e+003
1.198712e+003, 1.105144e+003
1.199194e+003, 1.102819e+003
1.199676e+003, 1.102080e+003
1.200158e+003, 1.102608e+003
1.200641e+003, 1.103606e+003
1.201123e+003, 1.105693e+003
1.201605e+003, 1.106301e+003
1.202087e+003, 1.104996e+003
1.202569e+003, 1.103475e+003
1.203051e+003, 1.103132e+003
1.203533e+003, 1.103598e+003
1.204015e+003, 1.104788e+003
1.204498e+003, 1.106379e+003
1.204980e+003, 1.107331e+003
1.205462e+003, 1.107398e+003
1.205944e+003, 1.107049e+003
1.206426e+003, 1.106232e+003
1.206908e+003, 1.105320e+003
1.207390e+003, 1.104006e+003
1.207872e+003, 1.103261e+003
1.208354e+003, 1.105237e+003
1.208837e+003, 1.109139e+003
1.209319e+003, 1.110854e+003
1.209801e+003, 1.108548e+003
1.210283e+003, 1.108021e+003
1.210765e+003, 1.110386e+003
1.211247e+003, 1.112943e+003
1.211729e+003, 1.112220e+003
1.212211e+003, 1.110482e+003
1.212694e+003, 1.111115e+003
1.213176e+003, 1.113682e+003
1.213658e+003, 1.114333e+003
1.214140e+003, 1.111852e+003
1.214622e+003, 1.110395e+003
1.215104e+003, 1.110719e+003
1.215586e+003, 1.111577e+003
1.216068e+003, 1.112237e+003
1.216551e+003, 1.112259e+003
1.217033e+003, 1.110528e+003
1.217515e+003, 1.107382e+003
1.217997e+003, 1.105765e+003
1.218479e+003, 1.106245e+003
1.218961e+003, 1.106820e+003
1.219443e+003, 1.107217e+003
1.219925e+003, 1.107333e+003
1.220407e+003, 1.106561e+003
1.220890e+003, 1.105770e+003
1.221372e+003, 1.106054e+003
1.221854e+003, 1.107382e+003
1.222336e+003, 1.108590e+003
1.222818e+003, 1.109550e+003
1.223300e+003, 1.110700e+003
1.223782e+003, 1.112197e+003
1.224264e+003, 1.113556e+003
1.224746e+003, 1.114369e+003
1.225229e+003, 1.114677e+003
1.225711e+003, 1.114305e+003
1.226193e+003, 1.113355e+003
1.226675e+003, 1.112910e+003
1.227157e+003, 1.113048e+003
1.227639e+003, 1.113385e+003
1.228121e+003, 1.113870e+003
1.228603e+003, 1.114406e+003
1.229085e+003, 1.114648e+003
1.229568e+003, 1.115065e+003
1.230050e+003, 1.116380e+003
1.230532e+003, 1.118445e+003
1.231014e+003, 1.119628e+003
1.231496e+003, 1.119847e+003
1.231978e+003, 1.119887e+003
1.232460e+003, 1.119930e+003
1.232942e+003, 1.119827e+003
1.233425e+003, 1.119451e+003
1.233907e+003, 1.118862e+003
1.234389e+003, 1.117701e+003
1.234871e+003, 1.116272e+003
1.235353e+003, 1.116647e+003
1.235835e+003, 1.118925e+003
1.236317e+003, 1.120941e+003
1.236799e+003, 1.122305e+003
1.237281e+003, 1.122595e+003
1.237764e+003, 1.120155e+003
1.238246e+003, 1.117625e+003
1.238728e+003, 1.117502e+003
1.239210e+003, 1.119165e+003
1.239692e+003, 1.120073e+003
1.240174e+003, 1.120238e+003
1.240656e+003, 1.120363e+003
1.241138e+003, 1.120601e+003
1.241621e+003, 1.120864e+003
1.242103e+003, 1.121185e+003
1.242585e+003, 1.121375e+003
1.243067e+003, 1.120965e+003
1.243549e+003, 1.120395e+003
1.244031e+003, 1.121695e+003
1.244513e+003, 1.124577e+003
1.244995e+003, 1.126592e+003
1.245478e+003, 1.127042e+003
1.245960e+003, 1.127450e+003
1.246442e+003, 1.129381e+003
1.246924e+003, 1.130787e+003
1.247406e+003, 1.130314e+003
1.247888e+003, 1.128724e+003
1.248370e+003, 1.128349e+003
1.248852e+003, 1.128966e+003
1.249334e+003, 1.129631e+003
1.249817e+003, 1.130137e+003
1.250299e+003, 1.130684e+003
1.250781e+003, 1.131904e+003
1.251263e+003, 1.132491e+003
1.251745e+003, 1.131627e+003
1.252227e+003, 1.130123e+003
1.252709e+003, 1.130221e+003
1.253191e+003, 1.131316e+003
1.253673e+003, 1.131504e+003
1.254156e+003, 1.130253e+003
1.254638e+003, 1.129328e+003
1.255120e+003, 1.129395e+003
1.255602e+003, 1.129703e+003
1.256084e+003, 1.130012e+003
1.256566e+003, 1.130410e+003
1.257048e+003, 1.131070e+003
1.257530e+003, 1.131948e+003
1.258012e+003, 1.132873e+003
1.258495e+003, 1.133762e+003
1.258977e+003, 1.135359e+003
1.259459e+003, 1.138466e+003
1.259941e+003, 1.140491e+003
1.260423e+003, 1.140260e+003
1.260905e+003, 1.139276e+003
1.261387e+003, 1.140284e+003
1.261869e+003, 1.141941e+003
1.262352e+003, 1.142003e+003
1.262834e+003, 1.140027e+003
1.263316e+003, 1.139111e+003
1.263798e+003, 1.139734e+003
1.264280e+003, 1.140205e+003
1.264762e+003, 1.139923e+003
1.265244e+003, 1.139658e+003
1.265726e+003, 1.140477e+003
1.266208e+003, 1.141750e+003
1.266691e+003, 1.142846e+003
1.267173e+003, 1.143692e+003
1.267655e+003, 1.144429e+003
1.268137e+003, 1.145139e+003
1.268619e+003, 1.144878e+003
1.269101e+003, 1.143088e+003
1.269583e+003, 1.141628e+003
1.270065e+003, 1.142899e+003
1.270548e+003, 1.144756e+003
1.271030e+003, 1.145057e+003
1.271512e+003, 1.144202e+003
1.271994e+003, 1.144238e+003
1.272476e+003, 1.145143e+003
1.272958e+003, 1.145341e+003
1.273440e+003, 1.144335e+003
1.273922e+003, 1.143809e+003
1.274405e+003, 1.146156e+003
1.274887e+003, 1.148115e+003
1.275369e+003, 1.147221e+003
1.275851e+003, 1.144840e+003
1.276333e+003, 1.145055e+003
1.276815e+003, 1.147340e+003
1.277297e+003, 1.149008e+003
1.277779e+003, 1.149520e+003
1.278261e+003, 1.149841e+003
1.278744e+003, 1.150791e+003
1.279226e+003, 1.151057e+003
1.279708e+003, 1.149689e+003
1.280190e+003, 1.147963e+003
1.280672e+003, 1.148814e+003
1.281154e+003, 1.151173e+003
1.281636e+003, 1.152181e+003
1.282118e+003, 1.151444e+003
1.282600e+003, 1.150845e+003
1.283083e+003, 1.150551e+003
1.283565e+003, 1.151308e+003
1.284047e+003, 1.153767e+003
1.284529e+003, 1.156247e+003
1.285011e+003, 1.156066e+003
1.285493e+003, 1.154487e+003
1.285975e+003, 1.153264e+003
1.286457e+003, 1.152592e+003
1.286939e+003, 1.152320e+003
1.287422e+003, 1.152563e+003
1.287904e+003, 1.152814e+003
1.288386e+003, 1.153066e+003
1.288868e+003, 1.152952e+003
1.289350e+003, 1.151031e+003
1.289832e+003, 1.149363e+003
1.290314e+003, 1.150855e+003
1.290796e+003, 1.154659e+003
1.291279e+003, 1.155714e+003
1.291761e+003, 1.153547e+003
1.292243e+003, 1.153861e+003
1.292725e+003, 1.157631e+003
1.293207e+003, 1.160793e+003
1.293689e+003, 1.158992e+003
1.294171e+003, 1.156529e+003
1.294653e+003, 1.156500e+003
1.295135e+003, 1.157677e+003
1.295618e+003, 1.157952e+003
1.296100e+003, 1.157443e+003
1.296582e+003, 1.157353e+003
1.297064e+003, 1.157890e+003
1.297546e+003, 1.158611e+003
1.298028e+003, 1.159391e+003
1.298510e+003, 1.159518e+003
1.298992e+003, 1.158274e+003
1.299475e+003, 1.157305e+003
1.299957e+003, 1.159555e+003
1.300439e+003, 1.163698e+003
1.300921e+003, 1.165434e+003
1.301403e+003, 1.164978e+003
1.301885e+003, 1.164965e+003
##END=



