##NAMES=Calcioancylite-(Ce)
##RRUFFID=R130005
##IDEAL CHEMISTRY=(Ce,Ca,Sr)(CO_3_)(OH,H_2_O)
##LOCALITY=Mont Saint-Hilaire, Rouville RCM, Monteregie, Quebec, Canada
##OWNER=RRUFF
##SOURCE=Don Doell
##DESCRIPTION=Granular massive, green under sunlight, light red under microscope light, associated with albite and rhodochrosite
##STATUS=The identification of this mineral has been confirmed only by single crystal X-ray diffraction.
##URL=rruff.info/R130005
8.975323e+001, 0.000000e+000
9.023535e+001, 7.539868e+002
9.071747e+001, 7.365043e+002
9.119958e+001, 7.273859e+002
9.168170e+001, 7.472172e+002
9.216382e+001, 7.675370e+002
9.264594e+001, 7.818046e+002
9.312805e+001, 7.910582e+002
9.361017e+001, 7.975285e+002
9.409229e+001, 7.999685e+002
9.457440e+001, 7.947226e+002
9.505651e+001, 7.917020e+002
9.553863e+001, 7.914915e+002
9.602074e+001, 7.935184e+002
9.650286e+001, 7.977441e+002
9.698498e+001, 8.036612e+002
9.746709e+001, 8.089710e+002
9.794921e+001, 8.129919e+002
9.843133e+001, 8.148109e+002
9.891344e+001, 8.171152e+002
9.939556e+001, 8.204400e+002
9.987768e+001, 8.245441e+002
1.003598e+002, 8.289287e+002
1.008419e+002, 8.331415e+002
1.013240e+002, 8.374913e+002
1.018061e+002, 8.427575e+002
1.022883e+002, 8.497309e+002
1.027704e+002, 8.570070e+002
1.032525e+002, 8.629005e+002
1.037346e+002, 8.670419e+002
1.042167e+002, 8.716404e+002
1.046988e+002, 8.787878e+002
1.051810e+002, 8.870791e+002
1.056631e+002, 8.944285e+002
1.061452e+002, 8.998469e+002
1.066273e+002, 9.035919e+002
1.071094e+002, 9.067036e+002
1.075915e+002, 9.084169e+002
1.080737e+002, 9.103621e+002
1.085558e+002, 9.134957e+002
1.090379e+002, 9.174407e+002
1.095200e+002, 9.211818e+002
1.100021e+002, 9.233831e+002
1.104842e+002, 9.232493e+002
1.109664e+002, 9.257861e+002
1.114485e+002, 9.338027e+002
1.119306e+002, 9.419945e+002
1.124127e+002, 9.479112e+002
1.128948e+002, 9.511921e+002
1.133769e+002, 9.530381e+002
1.138591e+002, 9.550198e+002
1.143412e+002, 9.564766e+002
1.148233e+002, 9.595576e+002
1.153054e+002, 9.657940e+002
1.157875e+002, 9.728804e+002
1.162696e+002, 9.783776e+002
1.167517e+002, 9.813644e+002
1.172339e+002, 9.830169e+002
1.177160e+002, 9.861309e+002
1.181981e+002, 9.911943e+002
1.186802e+002, 9.962576e+002
1.191623e+002, 1.000571e+003
1.196444e+002, 1.004400e+003
1.201266e+002, 1.008553e+003
1.206087e+002, 1.013461e+003
1.210908e+002, 1.018838e+003
1.215729e+002, 1.024151e+003
1.220550e+002, 1.029692e+003
1.225371e+002, 1.034660e+003
1.230193e+002, 1.038134e+003
1.235014e+002, 1.039992e+003
1.239835e+002, 1.041463e+003
1.244656e+002, 1.043663e+003
1.249477e+002, 1.045561e+003
1.254298e+002, 1.045981e+003
1.259120e+002, 1.044229e+003
1.263941e+002, 1.041138e+003
1.268762e+002, 1.038674e+003
1.273583e+002, 1.037588e+003
1.278404e+002, 1.035830e+003
1.283225e+002, 1.032687e+003
1.288047e+002, 1.028648e+003
1.292868e+002, 1.024295e+003
1.297689e+002, 1.019904e+003
1.302510e+002, 1.015515e+003
1.307331e+002, 1.011724e+003
1.312152e+002, 1.008618e+003
1.316974e+002, 1.006054e+003
1.321795e+002, 1.004208e+003
1.326616e+002, 1.002925e+003
1.331437e+002, 1.001910e+003
1.336258e+002, 1.000926e+003
1.341079e+002, 9.999886e+002
1.345901e+002, 9.989268e+002
1.350722e+002, 9.962885e+002
1.355543e+002, 9.946494e+002
1.360364e+002, 9.959491e+002
1.365185e+002, 1.000177e+003
1.370006e+002, 1.005527e+003
1.374828e+002, 1.010148e+003
1.379649e+002, 1.014039e+003
1.384470e+002, 1.016765e+003
1.389291e+002, 1.016764e+003
1.394112e+002, 1.016191e+003
1.398933e+002, 1.017710e+003
1.403755e+002, 1.022081e+003
1.408576e+002, 1.027839e+003
1.413397e+002, 1.033022e+003
1.418218e+002, 1.037636e+003
1.423039e+002, 1.043070e+003
1.427860e+002, 1.050680e+003
1.432681e+002, 1.059748e+003
1.437503e+002, 1.067592e+003
1.442324e+002, 1.072814e+003
1.447145e+002, 1.077514e+003
1.451966e+002, 1.083662e+003
1.456787e+002, 1.091264e+003
1.461608e+002, 1.099195e+003
1.466430e+002, 1.106631e+003
1.471251e+002, 1.113576e+003
1.476072e+002, 1.120061e+003
1.480893e+002, 1.125512e+003
1.485714e+002, 1.130914e+003
1.490535e+002, 1.136894e+003
1.495357e+002, 1.143540e+003
1.500178e+002, 1.150454e+003
1.504999e+002, 1.156926e+003
1.509820e+002, 1.162665e+003
1.514641e+002, 1.168727e+003
1.519462e+002, 1.176019e+003
1.524284e+002, 1.183201e+003
1.529105e+002, 1.189067e+003
1.533926e+002, 1.193167e+003
1.538747e+002, 1.196260e+003
1.543568e+002, 1.200209e+003
1.548389e+002, 1.205396e+003
1.553211e+002, 1.211126e+003
1.558032e+002, 1.218068e+003
1.562853e+002, 1.225325e+003
1.567674e+002, 1.231831e+003
1.572495e+002, 1.237062e+003
1.577316e+002, 1.241173e+003
1.582138e+002, 1.244726e+003
1.586959e+002, 1.246375e+003
1.591780e+002, 1.249023e+003
1.596601e+002, 1.253552e+003
1.601422e+002, 1.259616e+003
1.606243e+002, 1.266642e+003
1.611065e+002, 1.274626e+003
1.615886e+002, 1.283074e+003
1.620707e+002, 1.289818e+003
1.625528e+002, 1.293303e+003
1.630349e+002, 1.296695e+003
1.635170e+002, 1.301384e+003
1.639991e+002, 1.307383e+003
1.644813e+002, 1.314846e+003
1.649634e+002, 1.324543e+003
1.654455e+002, 1.335738e+003
1.659276e+002, 1.346611e+003
1.664097e+002, 1.357030e+003
1.668918e+002, 1.367071e+003
1.673740e+002, 1.376731e+003
1.678561e+002, 1.385959e+003
1.683382e+002, 1.394967e+003
1.688203e+002, 1.402687e+003
1.693024e+002, 1.410455e+003
1.697845e+002, 1.420384e+003
1.702667e+002, 1.434330e+003
1.707488e+002, 1.450250e+003
1.712309e+002, 1.463086e+003
1.717130e+002, 1.470801e+003
1.721951e+002, 1.479113e+003
1.726772e+002, 1.490240e+003
1.731594e+002, 1.503322e+003
1.736415e+002, 1.517407e+003
1.741236e+002, 1.532225e+003
1.746057e+002, 1.547517e+003
1.750878e+002, 1.561369e+003
1.755699e+002, 1.571383e+003
1.760521e+002, 1.582713e+003
1.765342e+002, 1.597024e+003
1.770163e+002, 1.613562e+003
1.774984e+002, 1.630893e+003
1.779805e+002, 1.648236e+003
1.784626e+002, 1.665634e+003
1.789448e+002, 1.681658e+003
1.794269e+002, 1.695801e+003
1.799090e+002, 1.709116e+003
1.803911e+002, 1.720900e+003
1.808732e+002, 1.731933e+003
1.813553e+002, 1.743884e+003
1.818375e+002, 1.758394e+003
1.823196e+002, 1.775897e+003
1.828017e+002, 1.791502e+003
1.832838e+002, 1.805118e+003
1.837659e+002, 1.817408e+003
1.842480e+002, 1.827804e+003
1.847301e+002, 1.836749e+003
1.852123e+002, 1.846125e+003
1.856944e+002, 1.858034e+003
1.861765e+002, 1.873044e+003
1.866586e+002, 1.884463e+003
1.871407e+002, 1.889490e+003
1.876228e+002, 1.892994e+003
1.881050e+002, 1.898662e+003
1.885871e+002, 1.906828e+003
1.890692e+002, 1.915359e+003
1.895513e+002, 1.922442e+003
1.900334e+002, 1.927997e+003
1.905155e+002, 1.932327e+003
1.909977e+002, 1.934550e+003
1.914798e+002, 1.935955e+003
1.919619e+002, 1.938546e+003
1.924440e+002, 1.942963e+003
1.929261e+002, 1.946407e+003
1.934082e+002, 1.943989e+003
1.938904e+002, 1.937750e+003
1.943725e+002, 1.934377e+003
1.948546e+002, 1.938587e+003
1.953367e+002, 1.946602e+003
1.958188e+002, 1.950550e+003
1.963009e+002, 1.948336e+003
1.967831e+002, 1.945244e+003
1.972652e+002, 1.944849e+003
1.977473e+002, 1.946610e+003
1.982294e+002, 1.949438e+003
1.987115e+002, 1.952704e+003
1.991936e+002, 1.956569e+003
1.996758e+002, 1.961964e+003
2.001579e+002, 1.970525e+003
2.006400e+002, 1.978336e+003
2.011221e+002, 1.982210e+003
2.016042e+002, 1.983609e+003
2.020863e+002, 1.986115e+003
2.025685e+002, 1.992515e+003
2.030506e+002, 2.002592e+003
2.035327e+002, 2.012580e+003
2.040148e+002, 2.022486e+003
2.044969e+002, 2.032217e+003
2.049790e+002, 2.040584e+003
2.054612e+002, 2.048548e+003
2.059433e+002, 2.058476e+003
2.064254e+002, 2.073048e+003
2.069075e+002, 2.092662e+003
2.073896e+002, 2.109058e+003
2.078717e+002, 2.119872e+003
2.083539e+002, 2.129411e+003
2.088360e+002, 2.138045e+003
2.093181e+002, 2.146345e+003
2.098002e+002, 2.155125e+003
2.102823e+002, 2.165058e+003
2.107644e+002, 2.176065e+003
2.112466e+002, 2.188547e+003
2.117287e+002, 2.203370e+003
2.122108e+002, 2.218674e+003
2.126929e+002, 2.233956e+003
2.131750e+002, 2.249110e+003
2.136571e+002, 2.264454e+003
2.141393e+002, 2.280445e+003
2.146214e+002, 2.297510e+003
2.151035e+002, 2.312062e+003
2.155856e+002, 2.321026e+003
2.160677e+002, 2.330801e+003
2.165498e+002, 2.345617e+003
2.170320e+002, 2.364753e+003
2.175141e+002, 2.384094e+003
2.179962e+002, 2.399637e+003
2.184783e+002, 2.410736e+003
2.189604e+002, 2.423622e+003
2.194425e+002, 2.441034e+003
2.199247e+002, 2.457863e+003
2.204068e+002, 2.470132e+003
2.208889e+002, 2.478149e+003
2.213710e+002, 2.486030e+003
2.218531e+002, 2.497563e+003
2.223352e+002, 2.513020e+003
2.228174e+002, 2.526488e+003
2.232995e+002, 2.536256e+003
2.237816e+002, 2.545327e+003
2.242637e+002, 2.556911e+003
2.247458e+002, 2.570957e+003
2.252279e+002, 2.582980e+003
2.257100e+002, 2.588165e+003
2.261922e+002, 2.587410e+003
2.266743e+002, 2.589375e+003
2.271564e+002, 2.595133e+003
2.276385e+002, 2.603475e+003
2.281206e+002, 2.614586e+003
2.286027e+002, 2.628587e+003
2.290849e+002, 2.641185e+003
2.295670e+002, 2.647824e+003
2.300491e+002, 2.650523e+003
2.305312e+002, 2.655003e+003
2.310133e+002, 2.663322e+003
2.314954e+002, 2.673184e+003
2.319776e+002, 2.681971e+003
2.324597e+002, 2.689519e+003
2.329418e+002, 2.697139e+003
2.334239e+002, 2.705714e+003
2.339060e+002, 2.714933e+003
2.343881e+002, 2.724474e+003
2.348703e+002, 2.734735e+003
2.353524e+002, 2.744871e+003
2.358345e+002, 2.753473e+003
2.363166e+002, 2.760140e+003
2.367987e+002, 2.767116e+003
2.372808e+002, 2.776286e+003
2.377630e+002, 2.786217e+003
2.382451e+002, 2.795332e+003
2.387272e+002, 2.802864e+003
2.392093e+002, 2.809784e+003
2.396914e+002, 2.818058e+003
2.401735e+002, 2.828686e+003
2.406557e+002, 2.837500e+003
2.411378e+002, 2.841270e+003
2.416199e+002, 2.843219e+003
2.421020e+002, 2.846269e+003
2.425841e+002, 2.851456e+003
2.430662e+002, 2.857979e+003
2.435484e+002, 2.865086e+003
2.440305e+002, 2.873980e+003
2.445126e+002, 2.880012e+003
2.449947e+002, 2.878755e+003
2.454768e+002, 2.875935e+003
2.459589e+002, 2.876972e+003
2.464410e+002, 2.883869e+003
2.469232e+002, 2.893077e+003
2.474053e+002, 2.898433e+003
2.478874e+002, 2.898363e+003
2.483695e+002, 2.897986e+003
2.488516e+002, 2.898515e+003
2.493337e+002, 2.898953e+003
2.498159e+002, 2.897965e+003
2.502980e+002, 2.895232e+003
2.507801e+002, 2.892514e+003
2.512622e+002, 2.893261e+003
2.517443e+002, 2.900077e+003
2.522264e+002, 2.904370e+003
2.527086e+002, 2.904797e+003
2.531907e+002, 2.903257e+003
2.536728e+002, 2.900101e+003
2.541549e+002, 2.895781e+003
2.546370e+002, 2.892015e+003
2.551191e+002, 2.891636e+003
2.556013e+002, 2.896382e+003
2.560834e+002, 2.900968e+003
2.565655e+002, 2.906750e+003
2.570476e+002, 2.911382e+003
2.575297e+002, 2.912492e+003
2.580118e+002, 2.910079e+003
2.584940e+002, 2.906835e+003
2.589761e+002, 2.906539e+003
2.594582e+002, 2.910833e+003
2.599403e+002, 2.914013e+003
2.604224e+002, 2.914562e+003
2.609045e+002, 2.915421e+003
2.613867e+002, 2.918304e+003
2.618688e+002, 2.923431e+003
2.623509e+002, 2.930147e+003
2.628330e+002, 2.938151e+003
2.633151e+002, 2.948847e+003
2.637972e+002, 2.955332e+003
2.642794e+002, 2.954302e+003
2.647615e+002, 2.952686e+003
2.652436e+002, 2.953948e+003
2.657257e+002, 2.958338e+003
2.662078e+002, 2.964462e+003
2.666899e+002, 2.971078e+003
2.671721e+002, 2.978217e+003
2.676542e+002, 2.985614e+003
2.681363e+002, 2.993733e+003
2.686184e+002, 3.001640e+003
2.691005e+002, 3.009294e+003
2.695826e+002, 3.016407e+003
2.700648e+002, 3.021859e+003
2.705469e+002, 3.024110e+003
2.710290e+002, 3.022845e+003
2.715111e+002, 3.027823e+003
2.719932e+002, 3.045873e+003
2.724753e+002, 3.062061e+003
2.729575e+002, 3.067187e+003
2.734396e+002, 3.064710e+003
2.739217e+002, 3.064998e+003
2.744038e+002, 3.075527e+003
2.748859e+002, 3.095245e+003
2.753680e+002, 3.110923e+003
2.758501e+002, 3.121424e+003
2.763322e+002, 3.130292e+003
2.768144e+002, 3.137427e+003
2.772965e+002, 3.143845e+003
2.777786e+002, 3.151799e+003
2.782607e+002, 3.162798e+003
2.787428e+002, 3.175848e+003
2.792249e+002, 3.186681e+003
2.797071e+002, 3.193043e+003
2.801892e+002, 3.200343e+003
2.806713e+002, 3.210000e+003
2.811534e+002, 3.221497e+003
2.816355e+002, 3.234358e+003
2.821176e+002, 3.248634e+003
2.825998e+002, 3.263329e+003
2.830819e+002, 3.275311e+003
2.835640e+002, 3.282907e+003
2.840461e+002, 3.291500e+003
2.845282e+002, 3.302519e+003
2.850103e+002, 3.315108e+003
2.854925e+002, 3.328032e+003
2.859746e+002, 3.340918e+003
2.864567e+002, 3.354037e+003
2.869388e+002, 3.367936e+003
2.874209e+002, 3.382357e+003
2.879030e+002, 3.398081e+003
2.883852e+002, 3.417318e+003
2.888673e+002, 3.437015e+003
2.893494e+002, 3.452920e+003
2.898315e+002, 3.463991e+003
2.903136e+002, 3.472983e+003
2.907957e+002, 3.482863e+003
2.912779e+002, 3.493508e+003
2.917600e+002, 3.506007e+003
2.922421e+002, 3.521145e+003
2.927242e+002, 3.537796e+003
2.932063e+002, 3.555651e+003
2.936884e+002, 3.574661e+003
2.941706e+002, 3.592529e+003
2.946527e+002, 3.606383e+003
2.951348e+002, 3.616226e+003
2.956169e+002, 3.628816e+003
2.960990e+002, 3.644804e+003
2.965811e+002, 3.663320e+003
2.970633e+002, 3.686323e+003
2.975454e+002, 3.712925e+003
2.980275e+002, 3.735315e+003
2.985096e+002, 3.746192e+003
2.989917e+002, 3.747674e+003
2.994738e+002, 3.755286e+003
2.999560e+002, 3.773061e+003
3.004381e+002, 3.793055e+003
3.009202e+002, 3.811382e+003
3.014023e+002, 3.828185e+003
3.018844e+002, 3.844646e+003
3.023665e+002, 3.861465e+003
3.028487e+002, 3.878356e+003
3.033308e+002, 3.894436e+003
3.038129e+002, 3.908201e+003
3.042950e+002, 3.923651e+003
3.047771e+002, 3.944357e+003
3.052592e+002, 3.968241e+003
3.057414e+002, 3.990132e+003
3.062235e+002, 4.008257e+003
3.067056e+002, 4.023102e+003
3.071877e+002, 4.034453e+003
3.076698e+002, 4.041086e+003
3.081519e+002, 4.049657e+003
3.086341e+002, 4.063779e+003
3.091162e+002, 4.080922e+003
3.095983e+002, 4.096500e+003
3.100804e+002, 4.109123e+003
3.105625e+002, 4.120796e+003
3.110446e+002, 4.134536e+003
3.115268e+002, 4.150574e+003
3.120089e+002, 4.164530e+003
3.124910e+002, 4.173806e+003
3.129731e+002, 4.181331e+003
3.134552e+002, 4.190980e+003
3.139373e+002, 4.203348e+003
3.144195e+002, 4.215904e+003
3.149016e+002, 4.227170e+003
3.153837e+002, 4.236842e+003
3.158658e+002, 4.242566e+003
3.163479e+002, 4.240319e+003
3.168300e+002, 4.236741e+003
3.173121e+002, 4.238095e+003
3.177943e+002, 4.244201e+003
3.182764e+002, 4.249589e+003
3.187585e+002, 4.250318e+003
3.192406e+002, 4.247299e+003
3.197227e+002, 4.245800e+003
3.202048e+002, 4.247232e+003
3.206870e+002, 4.248756e+003
3.211691e+002, 4.249344e+003
3.216512e+002, 4.248881e+003
3.221333e+002, 4.246956e+003
3.226154e+002, 4.243443e+003
3.230975e+002, 4.238246e+003
3.235797e+002, 4.231109e+003
3.240618e+002, 4.221315e+003
3.245439e+002, 4.211530e+003
3.250260e+002, 4.203498e+003
3.255081e+002, 4.195999e+003
3.259902e+002, 4.186401e+003
3.264724e+002, 4.173642e+003
3.269545e+002, 4.159375e+003
3.274366e+002, 4.146029e+003
3.279187e+002, 4.133718e+003
3.284008e+002, 4.121408e+003
3.288829e+002, 4.109404e+003
3.293651e+002, 4.097099e+003
3.298472e+002, 4.084271e+003
3.303293e+002, 4.070873e+003
3.308114e+002, 4.055488e+003
3.312935e+002, 4.035888e+003
3.317756e+002, 4.011668e+003
3.322578e+002, 3.989131e+003
3.327399e+002, 3.969823e+003
3.332220e+002, 3.951355e+003
3.337041e+002, 3.931706e+003
3.341862e+002, 3.911076e+003
3.346683e+002, 3.890969e+003
3.351505e+002, 3.872915e+003
3.356326e+002, 3.856333e+003
3.361147e+002, 3.837636e+003
3.365968e+002, 3.816071e+003
3.370789e+002, 3.793317e+003
3.375610e+002, 3.769380e+003
3.380432e+002, 3.744717e+003
3.385253e+002, 3.720746e+003
3.390074e+002, 3.698282e+003
3.394895e+002, 3.676604e+003
3.399716e+002, 3.653682e+003
3.404537e+002, 3.628131e+003
3.409359e+002, 3.604110e+003
3.414180e+002, 3.582991e+003
3.419001e+002, 3.563600e+003
3.423822e+002, 3.544957e+003
3.428643e+002, 3.526860e+003
3.433464e+002, 3.508475e+003
3.438286e+002, 3.488628e+003
3.443107e+002, 3.466689e+003
3.447928e+002, 3.444895e+003
3.452749e+002, 3.422808e+003
3.457570e+002, 3.401340e+003
3.462391e+002, 3.381049e+003
3.467213e+002, 3.362156e+003
3.472034e+002, 3.344657e+003
3.476855e+002, 3.329107e+003
3.481676e+002, 3.315618e+003
3.486497e+002, 3.300321e+003
3.491318e+002, 3.280135e+003
3.496140e+002, 3.261559e+003
3.500961e+002, 3.249355e+003
3.505782e+002, 3.241161e+003
3.510603e+002, 3.230995e+003
3.515424e+002, 3.215193e+003
3.520245e+002, 3.195348e+003
3.525067e+002, 3.178120e+003
3.529888e+002, 3.165898e+003
3.534709e+002, 3.153358e+003
3.539530e+002, 3.137591e+003
3.544351e+002, 3.122074e+003
3.549172e+002, 3.111969e+003
3.553994e+002, 3.108898e+003
3.558815e+002, 3.108268e+003
3.563636e+002, 3.102034e+003
3.568457e+002, 3.085806e+003
3.573278e+002, 3.072705e+003
3.578099e+002, 3.064389e+003
3.582920e+002, 3.057597e+003
3.587741e+002, 3.049742e+003
3.592563e+002, 3.040866e+003
3.597384e+002, 3.033350e+003
3.602205e+002, 3.029937e+003
3.607026e+002, 3.031402e+003
3.611847e+002, 3.029370e+003
3.616668e+002, 3.020959e+003
3.621490e+002, 3.012317e+003
3.626311e+002, 3.005563e+003
3.631132e+002, 3.000055e+003
3.635953e+002, 2.994221e+003
3.640774e+002, 2.986988e+003
3.645595e+002, 2.978984e+003
3.650417e+002, 2.973039e+003
3.655238e+002, 2.972559e+003
3.660059e+002, 2.969369e+003
3.664880e+002, 2.959129e+003
3.669701e+002, 2.947594e+003
3.674522e+002, 2.941403e+003
3.679344e+002, 2.942390e+003
3.684165e+002, 2.945570e+003
3.688986e+002, 2.942467e+003
3.693807e+002, 2.929333e+003
3.698628e+002, 2.920226e+003
3.703449e+002, 2.919612e+003
3.708271e+002, 2.919512e+003
3.713092e+002, 2.916165e+003
3.717913e+002, 2.909331e+003
3.722734e+002, 2.900333e+003
3.727555e+002, 2.889578e+003
3.732376e+002, 2.877220e+003
3.737198e+002, 2.867574e+003
3.742019e+002, 2.861687e+003
3.746840e+002, 2.857553e+003
3.751661e+002, 2.856344e+003
3.756482e+002, 2.855923e+003
3.761303e+002, 2.852850e+003
3.766125e+002, 2.844992e+003
3.770946e+002, 2.834586e+003
3.775767e+002, 2.826733e+003
3.780588e+002, 2.822405e+003
3.785409e+002, 2.817859e+003
3.790230e+002, 2.811462e+003
3.795052e+002, 2.804785e+003
3.799873e+002, 2.799513e+003
3.804694e+002, 2.795936e+003
3.809515e+002, 2.791801e+003
3.814336e+002, 2.784076e+003
3.819157e+002, 2.772843e+003
3.823979e+002, 2.763427e+003
3.828800e+002, 2.757542e+003
3.833621e+002, 2.752446e+003
3.838442e+002, 2.746564e+003
3.843263e+002, 2.739913e+003
3.848084e+002, 2.732468e+003
3.852906e+002, 2.722602e+003
3.857727e+002, 2.712273e+003
3.862548e+002, 2.706686e+003
3.867369e+002, 2.707208e+003
3.872190e+002, 2.707608e+003
3.877011e+002, 2.704526e+003
3.881833e+002, 2.699005e+003
3.886654e+002, 2.692189e+003
3.891475e+002, 2.684051e+003
3.896296e+002, 2.675111e+003
3.901117e+002, 2.664911e+003
3.905938e+002, 2.653800e+003
3.910760e+002, 2.645022e+003
3.915581e+002, 2.640569e+003
3.920402e+002, 2.637824e+003
3.925223e+002, 2.633322e+003
3.930044e+002, 2.627100e+003
3.934865e+002, 2.619883e+003
3.939687e+002, 2.610902e+003
3.944508e+002, 2.601456e+003
3.949329e+002, 2.594019e+003
3.954150e+002, 2.589029e+003
3.958971e+002, 2.584394e+003
3.963792e+002, 2.578039e+003
3.968614e+002, 2.570164e+003
3.973435e+002, 2.563331e+003
3.978256e+002, 2.557812e+003
3.983077e+002, 2.553125e+003
3.987898e+002, 2.549698e+003
3.992719e+002, 2.546981e+003
3.997540e+002, 2.543062e+003
4.002361e+002, 2.536865e+003
4.007183e+002, 2.529029e+003
4.012004e+002, 2.521463e+003
4.016825e+002, 2.514614e+003
4.021646e+002, 2.507198e+003
4.026467e+002, 2.497309e+003
4.031288e+002, 2.487503e+003
4.036110e+002, 2.481322e+003
4.040931e+002, 2.479436e+003
4.045752e+002, 2.479034e+003
4.050573e+002, 2.476963e+003
4.055394e+002, 2.473021e+003
4.060215e+002, 2.468250e+003
4.065037e+002, 2.461988e+003
4.069858e+002, 2.455677e+003
4.074679e+002, 2.449605e+003
4.079500e+002, 2.444044e+003
4.084321e+002, 2.439748e+003
4.089142e+002, 2.437363e+003
4.093964e+002, 2.436057e+003
4.098785e+002, 2.431876e+003
4.103606e+002, 2.419882e+003
4.108427e+002, 2.411450e+003
4.113248e+002, 2.410625e+003
4.118069e+002, 2.411986e+003
4.122891e+002, 2.410152e+003
4.127712e+002, 2.403829e+003
4.132533e+002, 2.395763e+003
4.137354e+002, 2.389629e+003
4.142175e+002, 2.385983e+003
4.146996e+002, 2.381913e+003
4.151818e+002, 2.375280e+003
4.156639e+002, 2.370267e+003
4.161460e+002, 2.370109e+003
4.166281e+002, 2.372993e+003
4.171102e+002, 2.374415e+003
4.175923e+002, 2.371034e+003
4.180745e+002, 2.364529e+003
4.185566e+002, 2.360899e+003
4.190387e+002, 2.361844e+003
4.195208e+002, 2.361945e+003
4.200029e+002, 2.358805e+003
4.204850e+002, 2.354533e+003
4.209672e+002, 2.351161e+003
4.214493e+002, 2.349203e+003
4.219314e+002, 2.347321e+003
4.224135e+002, 2.343949e+003
4.228956e+002, 2.339183e+003
4.233777e+002, 2.334845e+003
4.238599e+002, 2.331331e+003
4.243420e+002, 2.328167e+003
4.248241e+002, 2.323944e+003
4.253062e+002, 2.319445e+003
4.257883e+002, 2.317616e+003
4.262704e+002, 2.322792e+003
4.267526e+002, 2.329957e+003
4.272347e+002, 2.330634e+003
4.277168e+002, 2.324393e+003
4.281989e+002, 2.318789e+003
4.286810e+002, 2.318048e+003
4.291631e+002, 2.320499e+003
4.296453e+002, 2.321983e+003
4.301274e+002, 2.322125e+003
4.306095e+002, 2.322121e+003
4.310916e+002, 2.322842e+003
4.315737e+002, 2.323779e+003
4.320558e+002, 2.323608e+003
4.325380e+002, 2.321834e+003
4.330201e+002, 2.320047e+003
4.335022e+002, 2.320294e+003
4.339843e+002, 2.322921e+003
4.344664e+002, 2.324717e+003
4.349485e+002, 2.326252e+003
4.354307e+002, 2.326329e+003
4.359128e+002, 2.322780e+003
4.363949e+002, 2.316799e+003
4.368770e+002, 2.312228e+003
4.373591e+002, 2.311340e+003
4.378412e+002, 2.313461e+003
4.383234e+002, 2.316082e+003
4.388055e+002, 2.320504e+003
4.392876e+002, 2.323771e+003
4.397697e+002, 2.324616e+003
4.402518e+002, 2.324839e+003
4.407339e+002, 2.326231e+003
4.412160e+002, 2.329088e+003
4.416982e+002, 2.332390e+003
4.421803e+002, 2.335001e+003
4.426624e+002, 2.336887e+003
4.431445e+002, 2.338429e+003
4.436266e+002, 2.339750e+003
4.441087e+002, 2.340594e+003
4.445909e+002, 2.339368e+003
4.450730e+002, 2.337895e+003
4.455551e+002, 2.339775e+003
4.460372e+002, 2.347280e+003
4.465193e+002, 2.356891e+003
4.470014e+002, 2.360113e+003
4.474836e+002, 2.354223e+003
4.479657e+002, 2.350061e+003
4.484478e+002, 2.349503e+003
4.489299e+002, 2.351402e+003
4.494120e+002, 2.356270e+003
4.498941e+002, 2.363598e+003
4.503763e+002, 2.370554e+003
4.508584e+002, 2.374922e+003
4.513405e+002, 2.377109e+003
4.518226e+002, 2.378382e+003
4.523047e+002, 2.378067e+003
4.527868e+002, 2.378543e+003
4.532690e+002, 2.381999e+003
4.537511e+002, 2.386934e+003
4.542332e+002, 2.391465e+003
4.547153e+002, 2.395532e+003
4.551974e+002, 2.398402e+003
4.556795e+002, 2.398111e+003
4.561617e+002, 2.395710e+003
4.566438e+002, 2.396008e+003
4.571259e+002, 2.400801e+003
4.576080e+002, 2.407855e+003
4.580901e+002, 2.415411e+003
4.585722e+002, 2.423640e+003
4.590544e+002, 2.428670e+003
4.595365e+002, 2.425825e+003
4.600186e+002, 2.422367e+003
4.605007e+002, 2.426265e+003
4.609828e+002, 2.436392e+003
4.614649e+002, 2.444431e+003
4.619471e+002, 2.444917e+003
4.624292e+002, 2.439839e+003
4.629113e+002, 2.437457e+003
4.633934e+002, 2.438310e+003
4.638755e+002, 2.440927e+003
4.643576e+002, 2.446266e+003
4.648398e+002, 2.452700e+003
4.653219e+002, 2.458912e+003
4.658040e+002, 2.464490e+003
4.662861e+002, 2.469097e+003
4.667682e+002, 2.472125e+003
4.672503e+002, 2.473276e+003
4.677325e+002, 2.475861e+003
4.682146e+002, 2.481069e+003
4.686967e+002, 2.486446e+003
4.691788e+002, 2.491206e+003
4.696609e+002, 2.495752e+003
4.701430e+002, 2.501012e+003
4.706252e+002, 2.507462e+003
4.711073e+002, 2.513837e+003
4.715894e+002, 2.517377e+003
4.720715e+002, 2.517073e+003
4.725536e+002, 2.518434e+003
4.730357e+002, 2.524539e+003
4.735179e+002, 2.530574e+003
4.740000e+002, 2.533247e+003
4.744821e+002, 2.533192e+003
4.749642e+002, 2.533632e+003
4.754463e+002, 2.536776e+003
4.759284e+002, 2.541584e+003
4.764106e+002, 2.546195e+003
4.768927e+002, 2.550765e+003
4.773748e+002, 2.553891e+003
4.778569e+002, 2.553308e+003
4.783390e+002, 2.551763e+003
4.788211e+002, 2.553677e+003
4.793033e+002, 2.559957e+003
4.797854e+002, 2.566933e+003
4.802675e+002, 2.573241e+003
4.807496e+002, 2.578878e+003
4.812317e+002, 2.583620e+003
4.817138e+002, 2.587379e+003
4.821959e+002, 2.591224e+003
4.826780e+002, 2.596534e+003
4.831602e+002, 2.603165e+003
4.836423e+002, 2.607378e+003
4.841244e+002, 2.606405e+003
4.846065e+002, 2.606156e+003
4.850886e+002, 2.609176e+003
4.855707e+002, 2.614536e+003
4.860529e+002, 2.620970e+003
4.865350e+002, 2.627996e+003
4.870171e+002, 2.634636e+003
4.874992e+002, 2.639040e+003
4.879813e+002, 2.639827e+003
4.884634e+002, 2.642288e+003
4.889456e+002, 2.647579e+003
4.894277e+002, 2.653148e+003
4.899098e+002, 2.658607e+003
4.903919e+002, 2.663303e+003
4.908740e+002, 2.665736e+003
4.913561e+002, 2.664566e+003
4.918383e+002, 2.661765e+003
4.923204e+002, 2.663346e+003
4.928025e+002, 2.671651e+003
4.932846e+002, 2.677867e+003
4.937667e+002, 2.676419e+003
4.942488e+002, 2.674953e+003
4.947310e+002, 2.680007e+003
4.952131e+002, 2.691175e+003
4.956952e+002, 2.701093e+003
4.961773e+002, 2.703084e+003
4.966594e+002, 2.700038e+003
4.971415e+002, 2.700323e+003
4.976237e+002, 2.704955e+003
4.981058e+002, 2.708723e+003
4.985879e+002, 2.706973e+003
4.990700e+002, 2.703278e+003
4.995521e+002, 2.704632e+003
5.000342e+002, 2.713035e+003
5.005164e+002, 2.722431e+003
5.009985e+002, 2.731296e+003
5.014806e+002, 2.738788e+003
5.019627e+002, 2.742427e+003
5.024448e+002, 2.741632e+003
5.029269e+002, 2.741220e+003
5.034091e+002, 2.746248e+003
5.038912e+002, 2.757011e+003
5.043733e+002, 2.764667e+003
5.048554e+002, 2.768122e+003
5.053375e+002, 2.770102e+003
5.058196e+002, 2.770367e+003
5.063018e+002, 2.770150e+003
5.067839e+002, 2.771309e+003
5.072660e+002, 2.774478e+003
5.077481e+002, 2.778616e+003
5.082302e+002, 2.781875e+003
5.087123e+002, 2.783369e+003
5.091945e+002, 2.787211e+003
5.096766e+002, 2.797277e+003
5.101587e+002, 2.805794e+003
5.106408e+002, 2.808641e+003
5.111229e+002, 2.807929e+003
5.116050e+002, 2.808062e+003
5.120872e+002, 2.811443e+003
5.125693e+002, 2.816012e+003
5.130514e+002, 2.817184e+003
5.135335e+002, 2.814110e+003
5.140156e+002, 2.814330e+003
5.144977e+002, 2.820986e+003
5.149799e+002, 2.830118e+003
5.154620e+002, 2.839163e+003
5.159441e+002, 2.847869e+003
5.164262e+002, 2.854954e+003
5.169083e+002, 2.859762e+003
5.173904e+002, 2.862750e+003
5.178726e+002, 2.863460e+003
5.183547e+002, 2.862189e+003
5.188368e+002, 2.862756e+003
5.193189e+002, 2.867506e+003
5.198010e+002, 2.874527e+003
5.202831e+002, 2.879245e+003
5.207653e+002, 2.880743e+003
5.212474e+002, 2.883167e+003
5.217295e+002, 2.888457e+003
5.222116e+002, 2.894062e+003
5.226937e+002, 2.897110e+003
5.231758e+002, 2.897952e+003
5.236580e+002, 2.899501e+003
5.241401e+002, 2.903948e+003
5.246222e+002, 2.910667e+003
5.251043e+002, 2.916588e+003
5.255864e+002, 2.922107e+003
5.260685e+002, 2.926054e+003
5.265507e+002, 2.926631e+003
5.270328e+002, 2.926893e+003
5.275149e+002, 2.930356e+003
5.279970e+002, 2.936717e+003
5.284791e+002, 2.941668e+003
5.289612e+002, 2.940300e+003
5.294434e+002, 2.934052e+003
5.299255e+002, 2.931981e+003
5.304076e+002, 2.935527e+003
5.308897e+002, 2.939954e+003
5.313718e+002, 2.944649e+003
5.318539e+002, 2.948518e+003
5.323361e+002, 2.949788e+003
5.328182e+002, 2.947765e+003
5.333003e+002, 2.946222e+003
5.337824e+002, 2.948331e+003
5.342645e+002, 2.952546e+003
5.347466e+002, 2.955135e+003
5.352288e+002, 2.955452e+003
5.357109e+002, 2.956646e+003
5.361930e+002, 2.961713e+003
5.366751e+002, 2.969758e+003
5.371572e+002, 2.975008e+003
5.376393e+002, 2.975702e+003
5.381215e+002, 2.976041e+003
5.386036e+002, 2.977181e+003
5.390857e+002, 2.978631e+003
5.395678e+002, 2.979731e+003
5.400499e+002, 2.980364e+003
5.405320e+002, 2.980919e+003
5.410142e+002, 2.981772e+003
5.414963e+002, 2.982915e+003
5.419784e+002, 2.984339e+003
5.424604e+002, 2.985905e+003
5.429426e+002, 2.987928e+003
5.434247e+002, 2.991377e+003
5.439068e+002, 2.994864e+003
5.443889e+002, 2.996583e+003
5.448710e+002, 2.996120e+003
5.453531e+002, 2.995058e+003
5.458353e+002, 2.995415e+003
5.463174e+002, 2.996978e+003
5.467995e+002, 2.997021e+003
5.472816e+002, 2.994672e+003
5.477637e+002, 2.992343e+003
5.482458e+002, 2.991481e+003
5.487280e+002, 2.991649e+003
5.492101e+002, 2.992392e+003
5.496922e+002, 2.994111e+003
5.501743e+002, 2.995393e+003
5.506564e+002, 2.995145e+003
5.511385e+002, 2.993874e+003
5.516207e+002, 2.992770e+003
5.521028e+002, 2.992108e+003
5.525849e+002, 2.990890e+003
5.530670e+002, 2.987897e+003
5.535491e+002, 2.983120e+003
5.540313e+002, 2.980091e+003
5.545134e+002, 2.979892e+003
5.549955e+002, 2.979890e+003
5.554776e+002, 2.979534e+003
5.559597e+002, 2.978906e+003
5.564418e+002, 2.977963e+003
5.569240e+002, 2.976774e+003
5.574061e+002, 2.975875e+003
5.578882e+002, 2.976235e+003
5.583703e+002, 2.977965e+003
5.588524e+002, 2.977401e+003
5.593345e+002, 2.972070e+003
5.598167e+002, 2.967961e+003
5.602988e+002, 2.969040e+003
5.607809e+002, 2.971404e+003
5.612630e+002, 2.969549e+003
5.617451e+002, 2.961710e+003
5.622272e+002, 2.953815e+003
5.627094e+002, 2.951925e+003
5.631915e+002, 2.954199e+003
5.636736e+002, 2.954292e+003
5.641557e+002, 2.951132e+003
5.646378e+002, 2.947458e+003
5.651199e+002, 2.944839e+003
5.656021e+002, 2.943380e+003
5.660842e+002, 2.943134e+003
5.665663e+002, 2.946294e+003
5.670484e+002, 2.947591e+003
5.675305e+002, 2.943613e+003
5.680126e+002, 2.937583e+003
5.684948e+002, 2.934037e+003
5.689769e+002, 2.933494e+003
5.694590e+002, 2.932408e+003
5.699411e+002, 2.927071e+003
5.704232e+002, 2.917877e+003
5.709053e+002, 2.912751e+003
5.713875e+002, 2.916462e+003
5.718696e+002, 2.917869e+003
5.723517e+002, 2.913418e+003
5.728338e+002, 2.907158e+003
5.733159e+002, 2.902667e+003
5.737980e+002, 2.900554e+003
5.742802e+002, 2.899483e+003
5.747623e+002, 2.899110e+003
5.752444e+002, 2.898910e+003
5.757265e+002, 2.896377e+003
5.762086e+002, 2.890982e+003
5.766907e+002, 2.885474e+003
5.771729e+002, 2.881237e+003
5.776550e+002, 2.877640e+003
5.781371e+002, 2.873249e+003
5.786192e+002, 2.867425e+003
5.791013e+002, 2.863600e+003
5.795834e+002, 2.865042e+003
5.800656e+002, 2.867991e+003
5.805477e+002, 2.868225e+003
5.810298e+002, 2.865556e+003
5.815119e+002, 2.861551e+003
5.819940e+002, 2.856954e+003
5.824761e+002, 2.852201e+003
5.829583e+002, 2.848769e+003
5.834404e+002, 2.847233e+003
5.839225e+002, 2.846192e+003
5.844046e+002, 2.847410e+003
5.848867e+002, 2.847555e+003
5.853688e+002, 2.843028e+003
5.858510e+002, 2.835264e+003
5.863331e+002, 2.829161e+003
5.868152e+002, 2.828164e+003
5.872973e+002, 2.830003e+003
5.877794e+002, 2.829557e+003
5.882615e+002, 2.826547e+003
5.887437e+002, 2.823113e+003
5.892258e+002, 2.820041e+003
5.897079e+002, 2.816336e+003
5.901900e+002, 2.810833e+003
5.906721e+002, 2.803818e+003
5.911542e+002, 2.797134e+003
5.916364e+002, 2.791004e+003
5.921185e+002, 2.785756e+003
5.926006e+002, 2.782000e+003
5.930827e+002, 2.779458e+003
5.935648e+002, 2.777760e+003
5.940469e+002, 2.776948e+003
5.945291e+002, 2.775241e+003
5.950112e+002, 2.769719e+003
5.954933e+002, 2.758904e+003
5.959754e+002, 2.751101e+003
5.964575e+002, 2.748248e+003
5.969396e+002, 2.745819e+003
5.974218e+002, 2.742388e+003
5.979039e+002, 2.738323e+003
5.983860e+002, 2.733970e+003
5.988681e+002, 2.729495e+003
5.993502e+002, 2.725778e+003
5.998323e+002, 2.724735e+003
6.003145e+002, 2.726168e+003
6.007966e+002, 2.724769e+003
6.012787e+002, 2.719482e+003
6.017608e+002, 2.713063e+003
6.022429e+002, 2.704642e+003
6.027250e+002, 2.696824e+003
6.032072e+002, 2.695110e+003
6.036893e+002, 2.703121e+003
6.041714e+002, 2.708266e+003
6.046535e+002, 2.702064e+003
6.051356e+002, 2.690009e+003
6.056177e+002, 2.679386e+003
6.060999e+002, 2.671271e+003
6.065820e+002, 2.664877e+003
6.070641e+002, 2.659860e+003
6.075462e+002, 2.655968e+003
6.080283e+002, 2.652001e+003
6.085104e+002, 2.648083e+003
6.089926e+002, 2.643944e+003
6.094747e+002, 2.639778e+003
6.099568e+002, 2.635259e+003
6.104389e+002, 2.629880e+003
6.109210e+002, 2.623907e+003
6.114031e+002, 2.618297e+003
6.118853e+002, 2.613913e+003
6.123674e+002, 2.609846e+003
6.128495e+002, 2.603863e+003
6.133316e+002, 2.595733e+003
6.138137e+002, 2.588001e+003
6.142958e+002, 2.581081e+003
6.147780e+002, 2.574997e+003
6.152601e+002, 2.569530e+003
6.157422e+002, 2.564728e+003
6.162243e+002, 2.561372e+003
6.167064e+002, 2.562089e+003
6.171885e+002, 2.561851e+003
6.176707e+002, 2.556717e+003
6.181528e+002, 2.548405e+003
6.186349e+002, 2.540252e+003
6.191170e+002, 2.533281e+003
6.195991e+002, 2.526841e+003
6.200812e+002, 2.520074e+003
6.205634e+002, 2.512839e+003
6.210455e+002, 2.506996e+003
6.215276e+002, 2.504583e+003
6.220097e+002, 2.501042e+003
6.224918e+002, 2.494820e+003
6.229739e+002, 2.487403e+003
6.234561e+002, 2.480066e+003
6.239382e+002, 2.473183e+003
6.244203e+002, 2.467000e+003
6.249023e+002, 2.462164e+003
6.253845e+002, 2.458154e+003
6.258666e+002, 2.454015e+003
6.263487e+002, 2.449852e+003
6.268308e+002, 2.443536e+003
6.273129e+002, 2.432577e+003
6.277950e+002, 2.420319e+003
6.282772e+002, 2.414065e+003
6.287593e+002, 2.415544e+003
6.292414e+002, 2.413713e+003
6.297235e+002, 2.403443e+003
6.302056e+002, 2.392473e+003
6.306877e+002, 2.386162e+003
6.311699e+002, 2.383522e+003
6.316520e+002, 2.381684e+003
6.321341e+002, 2.379353e+003
6.326162e+002, 2.375992e+003
6.330983e+002, 2.370364e+003
6.335804e+002, 2.361855e+003
6.340626e+002, 2.354036e+003
6.345447e+002, 2.346191e+003
6.350268e+002, 2.340226e+003
6.355089e+002, 2.339069e+003
6.359910e+002, 2.339440e+003
6.364731e+002, 2.335940e+003
6.369553e+002, 2.326651e+003
6.374374e+002, 2.316483e+003
6.379195e+002, 2.308187e+003
6.384016e+002, 2.301703e+003
6.388837e+002, 2.297624e+003
6.393658e+002, 2.295886e+003
6.398480e+002, 2.293361e+003
6.403301e+002, 2.287813e+003
6.408122e+002, 2.280194e+003
6.412943e+002, 2.273649e+003
6.417764e+002, 2.269083e+003
6.422585e+002, 2.264315e+003
6.427407e+002, 2.258692e+003
6.432228e+002, 2.253441e+003
6.437049e+002, 2.250075e+003
6.441870e+002, 2.247698e+003
6.446691e+002, 2.243937e+003
6.451512e+002, 2.237455e+003
6.456334e+002, 2.229608e+003
6.461155e+002, 2.222363e+003
6.465976e+002, 2.215728e+003
6.470797e+002, 2.209653e+003
6.475618e+002, 2.204095e+003
6.480439e+002, 2.199273e+003
6.485261e+002, 2.195911e+003
6.490082e+002, 2.193452e+003
6.494903e+002, 2.190215e+003
6.499724e+002, 2.185766e+003
6.504545e+002, 2.181020e+003
6.509366e+002, 2.176366e+003
6.514188e+002, 2.171596e+003
6.519009e+002, 2.166303e+003
6.523830e+002, 2.160567e+003
6.528651e+002, 2.155034e+003
6.533472e+002, 2.150187e+003
6.538293e+002, 2.145898e+003
6.543115e+002, 2.141543e+003
6.547936e+002, 2.136543e+003
6.552757e+002, 2.132881e+003
6.557578e+002, 2.133894e+003
6.562399e+002, 2.133617e+003
6.567220e+002, 2.127219e+003
6.572042e+002, 2.116618e+003
6.576863e+002, 2.108163e+003
6.581684e+002, 2.105561e+003
6.586505e+002, 2.103801e+003
6.591326e+002, 2.096798e+003
6.596147e+002, 2.086906e+003
6.600969e+002, 2.081425e+003
6.605790e+002, 2.082059e+003
6.610611e+002, 2.083336e+003
6.615432e+002, 2.080590e+003
6.620253e+002, 2.074091e+003
6.625074e+002, 2.066826e+003
6.629896e+002, 2.055744e+003
6.634717e+002, 2.048029e+003
6.639538e+002, 2.047877e+003
6.644359e+002, 2.048561e+003
6.649180e+002, 2.043455e+003
6.654001e+002, 2.033779e+003
6.658823e+002, 2.026639e+003
6.663644e+002, 2.027657e+003
6.668465e+002, 2.031550e+003
6.673286e+002, 2.027471e+003
6.678107e+002, 2.015722e+003
6.682928e+002, 2.007161e+003
6.687750e+002, 2.005050e+003
6.692571e+002, 2.004731e+003
6.697392e+002, 2.002518e+003
6.702213e+002, 1.998328e+003
6.707034e+002, 1.992590e+003
6.711855e+002, 1.982753e+003
6.716677e+002, 1.974494e+003
6.721498e+002, 1.971026e+003
6.726319e+002, 1.969250e+003
6.731140e+002, 1.965887e+003
6.735961e+002, 1.960538e+003
6.740782e+002, 1.954419e+003
6.745604e+002, 1.948200e+003
6.750425e+002, 1.942268e+003
6.755246e+002, 1.938489e+003
6.760067e+002, 1.937971e+003
6.764888e+002, 1.934513e+003
6.769709e+002, 1.924371e+003
6.774531e+002, 1.913780e+003
6.779352e+002, 1.908144e+003
6.784173e+002, 1.906245e+003
6.788994e+002, 1.903768e+003
6.793815e+002, 1.898972e+003
6.798636e+002, 1.894370e+003
6.803458e+002, 1.892278e+003
6.808279e+002, 1.891023e+003
6.813100e+002, 1.887813e+003
6.817921e+002, 1.882284e+003
6.822742e+002, 1.875913e+003
6.827563e+002, 1.869818e+003
6.832385e+002, 1.863989e+003
6.837206e+002, 1.858359e+003
6.842027e+002, 1.853077e+003
6.846848e+002, 1.847660e+003
6.851669e+002, 1.839969e+003
6.856490e+002, 1.833996e+003
6.861312e+002, 1.834568e+003
6.866133e+002, 1.838942e+003
6.870954e+002, 1.838666e+003
6.875775e+002, 1.828438e+003
6.880596e+002, 1.816386e+003
6.885417e+002, 1.809437e+003
6.890239e+002, 1.806238e+003
6.895060e+002, 1.804117e+003
6.899881e+002, 1.802532e+003
6.904702e+002, 1.800755e+003
6.909523e+002, 1.797962e+003
6.914344e+002, 1.794677e+003
6.919166e+002, 1.793588e+003
6.923987e+002, 1.797327e+003
6.928808e+002, 1.799053e+003
6.933629e+002, 1.796129e+003
6.938450e+002, 1.793349e+003
6.943271e+002, 1.793896e+003
6.948093e+002, 1.796983e+003
6.952914e+002, 1.800011e+003
6.957735e+002, 1.801698e+003
6.962556e+002, 1.803356e+003
6.967377e+002, 1.807090e+003
6.972198e+002, 1.812060e+003
6.977020e+002, 1.815574e+003
6.981841e+002, 1.817243e+003
6.986662e+002, 1.816963e+003
6.991483e+002, 1.814694e+003
6.996304e+002, 1.810405e+003
7.001125e+002, 1.804045e+003
7.005947e+002, 1.798196e+003
7.010768e+002, 1.786086e+003
7.015589e+002, 1.762082e+003
7.020410e+002, 1.736974e+003
7.025231e+002, 1.717228e+003
7.030052e+002, 1.701662e+003
7.034874e+002, 1.686211e+003
7.039695e+002, 1.669208e+003
7.044516e+002, 1.652265e+003
7.049337e+002, 1.637913e+003
7.054158e+002, 1.625648e+003
7.058979e+002, 1.612766e+003
7.063801e+002, 1.598953e+003
7.068622e+002, 1.585045e+003
7.073442e+002, 1.570834e+003
7.078264e+002, 1.557270e+003
7.083085e+002, 1.547098e+003
7.087906e+002, 1.542160e+003
7.092727e+002, 1.535660e+003
7.097548e+002, 1.524933e+003
7.102369e+002, 1.514613e+003
7.107191e+002, 1.508074e+003
7.112012e+002, 1.503750e+003
7.116833e+002, 1.498430e+003
7.121654e+002, 1.490945e+003
7.126475e+002, 1.483319e+003
7.131296e+002, 1.478100e+003
7.136118e+002, 1.474845e+003
7.140939e+002, 1.470799e+003
7.145760e+002, 1.465713e+003
7.150581e+002, 1.461176e+003
7.155402e+002, 1.458200e+003
7.160223e+002, 1.455949e+003
7.165045e+002, 1.452858e+003
7.169866e+002, 1.448673e+003
7.174687e+002, 1.445324e+003
7.179508e+002, 1.444582e+003
7.184329e+002, 1.443004e+003
7.189150e+002, 1.437642e+003
7.193972e+002, 1.430876e+003
7.198793e+002, 1.425826e+003
7.203614e+002, 1.423440e+003
7.208435e+002, 1.423287e+003
7.213256e+002, 1.425815e+003
7.218077e+002, 1.430047e+003
7.222899e+002, 1.431796e+003
7.227720e+002, 1.430725e+003
7.232541e+002, 1.430155e+003
7.237362e+002, 1.431674e+003
7.242183e+002, 1.433309e+003
7.247004e+002, 1.432792e+003
7.251826e+002, 1.430141e+003
7.256647e+002, 1.426632e+003
7.261468e+002, 1.421903e+003
7.266289e+002, 1.416835e+003
7.271110e+002, 1.413479e+003
7.275931e+002, 1.408933e+003
7.280753e+002, 1.399504e+003
7.285574e+002, 1.385205e+003
7.290395e+002, 1.368955e+003
7.295216e+002, 1.352496e+003
7.300037e+002, 1.336216e+003
7.304858e+002, 1.321549e+003
7.309680e+002, 1.308655e+003
7.314501e+002, 1.292773e+003
7.319322e+002, 1.271286e+003
7.324143e+002, 1.250629e+003
7.328964e+002, 1.236800e+003
7.333785e+002, 1.228484e+003
7.338607e+002, 1.218103e+003
7.343428e+002, 1.204266e+003
7.348249e+002, 1.190636e+003
7.353070e+002, 1.177312e+003
7.357891e+002, 1.164930e+003
7.362712e+002, 1.153979e+003
7.367534e+002, 1.144362e+003
7.372355e+002, 1.135722e+003
7.377176e+002, 1.127827e+003
7.381997e+002, 1.120557e+003
7.386818e+002, 1.113876e+003
7.391639e+002, 1.107720e+003
7.396461e+002, 1.101231e+003
7.401282e+002, 1.094227e+003
7.406103e+002, 1.087574e+003
7.410924e+002, 1.081959e+003
7.415745e+002, 1.076901e+003
7.420566e+002, 1.071377e+003
7.425388e+002, 1.065407e+003
7.430209e+002, 1.058968e+003
7.435030e+002, 1.051500e+003
7.439851e+002, 1.044145e+003
7.444672e+002, 1.037456e+003
7.449493e+002, 1.031300e+003
7.454315e+002, 1.025432e+003
7.459136e+002, 1.019796e+003
7.463957e+002, 1.014364e+003
7.468778e+002, 1.009297e+003
7.473599e+002, 1.004413e+003
7.478420e+002, 9.990823e+002
7.483242e+002, 9.932773e+002
7.488063e+002, 9.876625e+002
7.492884e+002, 9.824564e+002
7.497705e+002, 9.775286e+002
7.502526e+002, 9.726605e+002
7.507347e+002, 9.678625e+002
7.512169e+002, 9.633466e+002
7.516990e+002, 9.600490e+002
7.521811e+002, 9.558077e+002
7.526632e+002, 9.493099e+002
7.531453e+002, 9.422554e+002
7.536274e+002, 9.359453e+002
7.541096e+002, 9.305822e+002
7.545917e+002, 9.259310e+002
7.550738e+002, 9.219543e+002
7.555559e+002, 9.183811e+002
7.560380e+002, 9.153278e+002
7.565201e+002, 9.124354e+002
7.570023e+002, 9.077906e+002
7.574844e+002, 9.009492e+002
7.579665e+002, 8.944223e+002
7.584486e+002, 8.901826e+002
7.589307e+002, 8.873903e+002
7.594128e+002, 8.831121e+002
7.598950e+002, 8.751016e+002
7.603771e+002, 8.697047e+002
7.608592e+002, 8.693539e+002
7.613413e+002, 8.688824e+002
7.618234e+002, 8.661533e+002
7.623055e+002, 8.615805e+002
7.627877e+002, 8.554387e+002
7.632698e+002, 8.477054e+002
7.637519e+002, 8.410724e+002
7.642340e+002, 8.383810e+002
7.647161e+002, 8.376082e+002
7.651982e+002, 8.359949e+002
7.656804e+002, 8.333522e+002
7.661625e+002, 8.292736e+002
7.666446e+002, 8.234841e+002
7.671267e+002, 8.176210e+002
7.676088e+002, 8.141263e+002
7.680909e+002, 8.131437e+002
7.685731e+002, 8.100014e+002
7.690552e+002, 8.028661e+002
7.695373e+002, 7.965350e+002
7.700194e+002, 7.918845e+002
7.705015e+002, 7.885035e+002
7.709836e+002, 7.875074e+002
7.714658e+002, 7.879420e+002
7.719479e+002, 7.853678e+002
7.724300e+002, 7.757981e+002
7.729121e+002, 7.660656e+002
7.733942e+002, 7.614382e+002
7.738763e+002, 7.595311e+002
7.743585e+002, 7.568441e+002
7.748406e+002, 7.528858e+002
7.753227e+002, 7.485663e+002
7.758048e+002, 7.444142e+002
7.762869e+002, 7.405325e+002
7.767690e+002, 7.373576e+002
7.772512e+002, 7.351072e+002
7.777333e+002, 7.320671e+002
7.782154e+002, 7.279205e+002
7.786975e+002, 7.233394e+002
7.791796e+002, 7.179641e+002
7.796617e+002, 7.127069e+002
7.801439e+002, 7.094137e+002
7.806260e+002, 7.086320e+002
7.811081e+002, 7.071695e+002
7.815902e+002, 7.042267e+002
7.820723e+002, 7.003909e+002
7.825544e+002, 6.954882e+002
7.830366e+002, 6.901241e+002
7.835187e+002, 6.852437e+002
7.840008e+002, 6.810770e+002
7.844829e+002, 6.771703e+002
7.849650e+002, 6.730134e+002
7.854471e+002, 6.688514e+002
7.859293e+002, 6.655453e+002
7.864114e+002, 6.631163e+002
7.868935e+002, 6.610782e+002
7.873756e+002, 6.596630e+002
7.878577e+002, 6.574908e+002
7.883398e+002, 6.528513e+002
7.888220e+002, 6.461868e+002
7.893040e+002, 6.414094e+002
7.897861e+002, 6.402001e+002
7.902682e+002, 6.383502e+002
7.907504e+002, 6.355569e+002
7.912325e+002, 6.320350e+002
7.917146e+002, 6.272067e+002
7.921967e+002, 6.219005e+002
7.926788e+002, 6.177521e+002
7.931609e+002, 6.154377e+002
7.936431e+002, 6.136873e+002
7.941252e+002, 6.117607e+002
7.946073e+002, 6.094818e+002
7.950894e+002, 6.064404e+002
7.955715e+002, 6.026735e+002
7.960536e+002, 5.985566e+002
7.965358e+002, 5.941764e+002
7.970179e+002, 5.900837e+002
7.975000e+002, 5.872279e+002
7.979821e+002, 5.856937e+002
7.984642e+002, 5.827906e+002
7.989464e+002, 5.776384e+002
7.994285e+002, 5.726926e+002
7.999106e+002, 5.685880e+002
8.003927e+002, 5.648959e+002
8.008748e+002, 5.611476e+002
8.013569e+002, 5.575123e+002
8.018391e+002, 5.549584e+002
8.023212e+002, 5.550173e+002
8.028033e+002, 5.543481e+002
8.032854e+002, 5.500295e+002
8.037675e+002, 5.448046e+002
8.042496e+002, 5.425725e+002
8.047318e+002, 5.427437e+002
8.052139e+002, 5.416061e+002
8.056960e+002, 5.371041e+002
8.061781e+002, 5.312302e+002
8.066602e+002, 5.270193e+002
8.071423e+002, 5.243859e+002
8.076245e+002, 5.225808e+002
8.081066e+002, 5.218790e+002
8.085887e+002, 5.201951e+002
8.090708e+002, 5.158840e+002
8.095529e+002, 5.111345e+002
8.100350e+002, 5.096751e+002
8.105172e+002, 5.123727e+002
8.109993e+002, 5.125696e+002
8.114814e+002, 5.082940e+002
8.119635e+002, 5.040757e+002
8.124456e+002, 5.016032e+002
8.129277e+002, 4.994116e+002
8.134099e+002, 4.955524e+002
8.138920e+002, 4.904909e+002
8.143741e+002, 4.868383e+002
8.148562e+002, 4.863307e+002
8.153383e+002, 4.867994e+002
8.158204e+002, 4.863261e+002
8.163026e+002, 4.850545e+002
8.167847e+002, 4.830104e+002
8.172668e+002, 4.803383e+002
8.177489e+002, 4.780126e+002
8.182310e+002, 4.766009e+002
8.187131e+002, 4.757863e+002
8.191953e+002, 4.752017e+002
8.196774e+002, 4.751475e+002
8.201595e+002, 4.731753e+002
8.206416e+002, 4.678315e+002
8.211237e+002, 4.632782e+002
8.216058e+002, 4.614448e+002
8.220880e+002, 4.609257e+002
8.225701e+002, 4.604418e+002
8.230522e+002, 4.599514e+002
8.235343e+002, 4.590333e+002
8.240164e+002, 4.570805e+002
8.244985e+002, 4.553174e+002
8.249807e+002, 4.546592e+002
8.254628e+002, 4.542153e+002
8.259449e+002, 4.529454e+002
8.264270e+002, 4.508777e+002
8.269091e+002, 4.486820e+002
8.273912e+002, 4.467151e+002
8.278734e+002, 4.448256e+002
8.283555e+002, 4.426194e+002
8.288376e+002, 4.402828e+002
8.293197e+002, 4.386777e+002
8.298018e+002, 4.378900e+002
8.302839e+002, 4.373073e+002
8.307661e+002, 4.366823e+002
8.312482e+002, 4.359579e+002
8.317303e+002, 4.350352e+002
8.322124e+002, 4.339160e+002
8.326945e+002, 4.326115e+002
8.331766e+002, 4.308780e+002
8.336588e+002, 4.293239e+002
8.341409e+002, 4.282852e+002
8.346230e+002, 4.273181e+002
8.351051e+002, 4.262943e+002
8.355872e+002, 4.250569e+002
8.360693e+002, 4.229295e+002
8.365515e+002, 4.186563e+002
8.370336e+002, 4.151366e+002
8.375157e+002, 4.142486e+002
8.379978e+002, 4.147520e+002
8.384799e+002, 4.157523e+002
8.389620e+002, 4.167760e+002
8.394442e+002, 4.169341e+002
8.399263e+002, 4.158041e+002
8.404084e+002, 4.141914e+002
8.408905e+002, 4.133473e+002
8.413726e+002, 4.130445e+002
8.418547e+002, 4.117616e+002
8.423369e+002, 4.093993e+002
8.428190e+002, 4.073737e+002
8.433011e+002, 4.060934e+002
8.437832e+002, 4.057186e+002
8.442653e+002, 4.067864e+002
8.447474e+002, 4.092285e+002
8.452296e+002, 4.100114e+002
8.457117e+002, 4.077773e+002
8.461938e+002, 4.058382e+002
8.466759e+002, 4.039926e+002
8.471580e+002, 4.029709e+002
8.476401e+002, 4.039764e+002
8.481223e+002, 4.060170e+002
8.486044e+002, 4.068017e+002
8.490865e+002, 4.055028e+002
8.495686e+002, 4.040448e+002
8.500507e+002, 4.035480e+002
8.505328e+002, 4.033301e+002
8.510150e+002, 4.026596e+002
8.514971e+002, 4.016926e+002
8.519792e+002, 4.006931e+002
8.524613e+002, 3.998339e+002
8.529434e+002, 3.997363e+002
8.534255e+002, 4.014235e+002
8.539077e+002, 4.039902e+002
8.543898e+002, 4.043720e+002
8.548719e+002, 4.025724e+002
8.553540e+002, 4.006474e+002
8.558361e+002, 3.988540e+002
8.563182e+002, 3.977264e+002
8.568004e+002, 3.979268e+002
8.572825e+002, 3.989112e+002
8.577646e+002, 3.988906e+002
8.582467e+002, 3.971817e+002
8.587288e+002, 3.959433e+002
8.592109e+002, 3.958842e+002
8.596931e+002, 3.954539e+002
8.601752e+002, 3.935260e+002
8.606573e+002, 3.912568e+002
8.611394e+002, 3.901171e+002
8.616215e+002, 3.902322e+002
8.621036e+002, 3.904787e+002
8.625858e+002, 3.904150e+002
8.630679e+002, 3.903276e+002
8.635500e+002, 3.904811e+002
8.640321e+002, 3.906992e+002
8.645142e+002, 3.908742e+002
8.649963e+002, 3.908827e+002
8.654785e+002, 3.902794e+002
8.659606e+002, 3.887308e+002
8.664427e+002, 3.870456e+002
8.669248e+002, 3.867143e+002
8.674069e+002, 3.874138e+002
8.678890e+002, 3.872039e+002
8.683712e+002, 3.859313e+002
8.688533e+002, 3.853618e+002
8.693354e+002, 3.864449e+002
8.698175e+002, 3.877517e+002
8.702996e+002, 3.872250e+002
8.707817e+002, 3.848394e+002
8.712639e+002, 3.835373e+002
8.717459e+002, 3.838944e+002
8.722280e+002, 3.843210e+002
8.727101e+002, 3.845830e+002
8.731923e+002, 3.848245e+002
8.736744e+002, 3.853160e+002
8.741565e+002, 3.858288e+002
8.746386e+002, 3.857387e+002
8.751207e+002, 3.846860e+002
8.756028e+002, 3.838323e+002
8.760850e+002, 3.838793e+002
8.765671e+002, 3.839872e+002
8.770492e+002, 3.833262e+002
8.775313e+002, 3.823648e+002
8.780134e+002, 3.820099e+002
8.784955e+002, 3.824175e+002
8.789777e+002, 3.829222e+002
8.794598e+002, 3.829488e+002
8.799419e+002, 3.828456e+002
8.804240e+002, 3.832957e+002
8.809061e+002, 3.841191e+002
8.813882e+002, 3.846512e+002
8.818704e+002, 3.847911e+002
8.823525e+002, 3.847490e+002
8.828346e+002, 3.846470e+002
8.833167e+002, 3.844859e+002
8.837988e+002, 3.843154e+002
8.842809e+002, 3.841891e+002
8.847631e+002, 3.835241e+002
8.852452e+002, 3.818269e+002
8.857273e+002, 3.808380e+002
8.862094e+002, 3.814967e+002
8.866915e+002, 3.827730e+002
8.871736e+002, 3.836968e+002
8.876558e+002, 3.842544e+002
8.881379e+002, 3.843211e+002
8.886200e+002, 3.830000e+002
8.891021e+002, 3.824457e+002
8.895842e+002, 3.834521e+002
8.900663e+002, 3.849388e+002
8.905485e+002, 3.868878e+002
8.910306e+002, 3.885461e+002
8.915127e+002, 3.882272e+002
8.919948e+002, 3.853687e+002
8.924769e+002, 3.830324e+002
8.929590e+002, 3.831943e+002
8.934412e+002, 3.848340e+002
8.939233e+002, 3.878711e+002
8.944054e+002, 3.912612e+002
8.948875e+002, 3.925760e+002
8.953696e+002, 3.915809e+002
8.958517e+002, 3.904447e+002
8.963339e+002, 3.908042e+002
8.968160e+002, 3.919120e+002
8.972981e+002, 3.922546e+002
8.977802e+002, 3.919109e+002
8.982623e+002, 3.915565e+002
8.987444e+002, 3.912035e+002
8.992266e+002, 3.915831e+002
8.997087e+002, 3.932818e+002
9.001908e+002, 3.951909e+002
9.006729e+002, 3.955516e+002
9.011550e+002, 3.942614e+002
9.016371e+002, 3.937007e+002
9.021193e+002, 3.940487e+002
9.026014e+002, 3.948026e+002
9.030835e+002, 3.965280e+002
9.035656e+002, 3.979842e+002
9.040477e+002, 3.979576e+002
9.045298e+002, 3.970616e+002
9.050120e+002, 3.969287e+002
9.054941e+002, 3.980603e+002
9.059762e+002, 3.990136e+002
9.064583e+002, 3.992036e+002
9.069404e+002, 3.993710e+002
9.074225e+002, 3.999530e+002
9.079047e+002, 4.007885e+002
9.083868e+002, 4.016596e+002
9.088689e+002, 4.025112e+002
9.093510e+002, 4.033408e+002
9.098331e+002, 4.040292e+002
9.103152e+002, 4.048748e+002
9.107974e+002, 4.067119e+002
9.112795e+002, 4.087091e+002
9.117616e+002, 4.088778e+002
9.122437e+002, 4.074966e+002
9.127258e+002, 4.067403e+002
9.132079e+002, 4.076381e+002
9.136901e+002, 4.094465e+002
9.141722e+002, 4.115554e+002
9.146543e+002, 4.137173e+002
9.151364e+002, 4.141408e+002
9.156185e+002, 4.127278e+002
9.161006e+002, 4.126478e+002
9.165828e+002, 4.149988e+002
9.170649e+002, 4.174189e+002
9.175470e+002, 4.178339e+002
9.180291e+002, 4.168954e+002
9.185112e+002, 4.170471e+002
9.189933e+002, 4.189560e+002
9.194755e+002, 4.202418e+002
9.199576e+002, 4.203465e+002
9.204397e+002, 4.206302e+002
9.209218e+002, 4.218180e+002
9.214039e+002, 4.233348e+002
9.218860e+002, 4.245441e+002
9.223682e+002, 4.254530e+002
9.228503e+002, 4.264751e+002
9.233324e+002, 4.280974e+002
9.238145e+002, 4.292585e+002
9.242966e+002, 4.287618e+002
9.247787e+002, 4.284925e+002
9.252609e+002, 4.303628e+002
9.257430e+002, 4.335168e+002
9.262251e+002, 4.360152e+002
9.267072e+002, 4.372825e+002
9.271893e+002, 4.381461e+002
9.276714e+002, 4.390585e+002
9.281536e+002, 4.398974e+002
9.286357e+002, 4.400055e+002
9.291178e+002, 4.401429e+002
9.295999e+002, 4.423220e+002
9.300820e+002, 4.463813e+002
9.305641e+002, 4.496079e+002
9.310463e+002, 4.502021e+002
9.315284e+002, 4.495226e+002
9.320105e+002, 4.492552e+002
9.324926e+002, 4.495371e+002
9.329747e+002, 4.506646e+002
9.334568e+002, 4.527191e+002
9.339390e+002, 4.578555e+002
9.344211e+002, 4.673139e+002
9.349032e+002, 4.749464e+002
9.353853e+002, 4.733014e+002
9.358674e+002, 4.644085e+002
9.363495e+002, 4.603537e+002
9.368317e+002, 4.621384e+002
9.373138e+002, 4.645215e+002
9.377959e+002, 4.672838e+002
9.382780e+002, 4.697825e+002
9.387601e+002, 4.716964e+002
9.392422e+002, 4.731222e+002
9.397244e+002, 4.741148e+002
9.402065e+002, 4.744829e+002
9.406886e+002, 4.755139e+002
9.411707e+002, 4.778933e+002
9.416528e+002, 4.799669e+002
9.421349e+002, 4.813491e+002
9.426171e+002, 4.823856e+002
9.430992e+002, 4.831476e+002
9.435813e+002, 4.837974e+002
9.440634e+002, 4.845630e+002
9.445455e+002, 4.852673e+002
9.450276e+002, 4.869588e+002
9.455098e+002, 4.913961e+002
9.459919e+002, 4.954890e+002
9.464740e+002, 4.966120e+002
9.469561e+002, 4.964230e+002
9.474382e+002, 4.971917e+002
9.479203e+002, 4.991730e+002
9.484025e+002, 5.012999e+002
9.488846e+002, 5.028997e+002
9.493667e+002, 5.047266e+002
9.498488e+002, 5.080555e+002
9.503309e+002, 5.117683e+002
9.508130e+002, 5.141478e+002
9.512952e+002, 5.153002e+002
9.517773e+002, 5.157156e+002
9.522594e+002, 5.157013e+002
9.527415e+002, 5.164731e+002
9.532236e+002, 5.194379e+002
9.537057e+002, 5.237249e+002
9.541878e+002, 5.277513e+002
9.546699e+002, 5.313118e+002
9.551520e+002, 5.325221e+002
9.556342e+002, 5.311387e+002
9.561163e+002, 5.301172e+002
9.565984e+002, 5.309930e+002
9.570805e+002, 5.334144e+002
9.575626e+002, 5.371420e+002
9.580447e+002, 5.421510e+002
9.585269e+002, 5.452242e+002
9.590090e+002, 5.458017e+002
9.594911e+002, 5.468631e+002
9.599732e+002, 5.489516e+002
9.604553e+002, 5.519799e+002
9.609374e+002, 5.565373e+002
9.614196e+002, 5.615574e+002
9.619017e+002, 5.638411e+002
9.623838e+002, 5.620253e+002
9.628659e+002, 5.616493e+002
9.633480e+002, 5.628602e+002
9.638301e+002, 5.653323e+002
9.643123e+002, 5.707745e+002
9.647944e+002, 5.759305e+002
9.652765e+002, 5.771463e+002
9.657586e+002, 5.754338e+002
9.662407e+002, 5.757074e+002
9.667228e+002, 5.795950e+002
9.672050e+002, 5.834003e+002
9.676871e+002, 5.863275e+002
9.681692e+002, 5.889874e+002
9.686513e+002, 5.919824e+002
9.691334e+002, 5.947757e+002
9.696155e+002, 5.960632e+002
9.700977e+002, 5.960880e+002
9.705798e+002, 5.975276e+002
9.710619e+002, 6.027858e+002
9.715440e+002, 6.077574e+002
9.720261e+002, 6.092781e+002
9.725082e+002, 6.096657e+002
9.729904e+002, 6.110067e+002
9.734725e+002, 6.133859e+002
9.739546e+002, 6.166993e+002
9.744367e+002, 6.207687e+002
9.749188e+002, 6.244393e+002
9.754009e+002, 6.262609e+002
9.758831e+002, 6.277422e+002
9.763652e+002, 6.316115e+002
9.768473e+002, 6.364424e+002
9.773294e+002, 6.385525e+002
9.778115e+002, 6.382286e+002
9.782936e+002, 6.392012e+002
9.787758e+002, 6.432457e+002
9.792579e+002, 6.483978e+002
9.797400e+002, 6.525274e+002
9.802221e+002, 6.557073e+002
9.807042e+002, 6.577084e+002
9.811863e+002, 6.587242e+002
9.816685e+002, 6.602407e+002
9.821506e+002, 6.625497e+002
9.826327e+002, 6.659805e+002
9.831148e+002, 6.710145e+002
9.835969e+002, 6.759809e+002
9.840790e+002, 6.771028e+002
9.845612e+002, 6.743389e+002
9.850433e+002, 6.743987e+002
9.855254e+002, 6.777468e+002
9.860075e+002, 6.811881e+002
9.864896e+002, 6.838434e+002
9.869717e+002, 6.865615e+002
9.874539e+002, 6.900240e+002
9.879360e+002, 6.940790e+002
9.884181e+002, 6.983528e+002
9.889002e+002, 7.031349e+002
9.893823e+002, 7.069998e+002
9.898644e+002, 7.096104e+002
9.903466e+002, 7.119191e+002
9.908287e+002, 7.139049e+002
9.913108e+002, 7.160682e+002
9.917929e+002, 7.188421e+002
9.922750e+002, 7.222117e+002
9.927571e+002, 7.260943e+002
9.932393e+002, 7.312742e+002
9.937214e+002, 7.355470e+002
9.942035e+002, 7.387799e+002
9.946856e+002, 7.412625e+002
9.951677e+002, 7.419960e+002
9.956498e+002, 7.427950e+002
9.961320e+002, 7.460805e+002
9.966141e+002, 7.515209e+002
9.970962e+002, 7.559127e+002
9.975783e+002, 7.577711e+002
9.980604e+002, 7.599898e+002
9.985425e+002, 7.634180e+002
9.990247e+002, 7.672687e+002
9.995068e+002, 7.714100e+002
9.999889e+002, 7.754336e+002
1.000471e+003, 7.786058e+002
1.000953e+003, 7.809608e+002
1.001435e+003, 7.836123e+002
1.001917e+003, 7.871543e+002
1.002399e+003, 7.908688e+002
1.002882e+003, 7.943012e+002
1.003364e+003, 7.977701e+002
1.003846e+003, 8.015925e+002
1.004328e+003, 8.057127e+002
1.004810e+003, 8.102664e+002
1.005292e+003, 8.151635e+002
1.005774e+003, 8.193902e+002
1.006256e+003, 8.218214e+002
1.006739e+003, 8.240222e+002
1.007221e+003, 8.267502e+002
1.007703e+003, 8.306042e+002
1.008185e+003, 8.379537e+002
1.008667e+003, 8.470847e+002
1.009149e+003, 8.526240e+002
1.009631e+003, 8.529188e+002
1.010113e+003, 8.524776e+002
1.010595e+003, 8.551466e+002
1.011078e+003, 8.594646e+002
1.011560e+003, 8.636281e+002
1.012042e+003, 8.675945e+002
1.012524e+003, 8.709100e+002
1.013006e+003, 8.738519e+002
1.013488e+003, 8.778680e+002
1.013970e+003, 8.835909e+002
1.014452e+003, 8.900296e+002
1.014935e+003, 8.964562e+002
1.015417e+003, 9.024834e+002
1.015899e+003, 9.066912e+002
1.016381e+003, 9.095590e+002
1.016863e+003, 9.133807e+002
1.017345e+003, 9.184069e+002
1.017827e+003, 9.235780e+002
1.018309e+003, 9.283847e+002
1.018791e+003, 9.324082e+002
1.019274e+003, 9.345609e+002
1.019756e+003, 9.355806e+002
1.020238e+003, 9.393303e+002
1.020720e+003, 9.457131e+002
1.021202e+003, 9.526742e+002
1.021684e+003, 9.599421e+002
1.022166e+003, 9.662942e+002
1.022648e+003, 9.709167e+002
1.023130e+003, 9.747965e+002
1.023613e+003, 9.795394e+002
1.024095e+003, 9.850966e+002
1.024577e+003, 9.904437e+002
1.025059e+003, 9.954513e+002
1.025541e+003, 1.001266e+003
1.026023e+003, 1.008363e+003
1.026505e+003, 1.015114e+003
1.026987e+003, 1.020382e+003
1.027469e+003, 1.025001e+003
1.027952e+003, 1.030689e+003
1.028434e+003, 1.037608e+003
1.028916e+003, 1.042159e+003
1.029398e+003, 1.043526e+003
1.029880e+003, 1.045364e+003
1.030362e+003, 1.048118e+003
1.030844e+003, 1.052093e+003
1.031326e+003, 1.057733e+003
1.031809e+003, 1.064513e+003
1.032291e+003, 1.071562e+003
1.032773e+003, 1.079058e+003
1.033255e+003, 1.085203e+003
1.033737e+003, 1.088983e+003
1.034219e+003, 1.093787e+003
1.034701e+003, 1.101293e+003
1.035183e+003, 1.108317e+003
1.035666e+003, 1.111611e+003
1.036148e+003, 1.113634e+003
1.036630e+003, 1.120029e+003
1.037112e+003, 1.132093e+003
1.037594e+003, 1.141126e+003
1.038076e+003, 1.145045e+003
1.038558e+003, 1.149142e+003
1.039040e+003, 1.154379e+003
1.039522e+003, 1.159914e+003
1.040005e+003, 1.164605e+003
1.040487e+003, 1.169396e+003
1.040969e+003, 1.176730e+003
1.041451e+003, 1.187556e+003
1.041933e+003, 1.195984e+003
1.042415e+003, 1.199899e+003
1.042897e+003, 1.204277e+003
1.043379e+003, 1.210726e+003
1.043861e+003, 1.217241e+003
1.044344e+003, 1.221460e+003
1.044826e+003, 1.225177e+003
1.045308e+003, 1.232690e+003
1.045790e+003, 1.245266e+003
1.046272e+003, 1.254299e+003
1.046754e+003, 1.255169e+003
1.047236e+003, 1.257554e+003
1.047718e+003, 1.264262e+003
1.048201e+003, 1.272795e+003
1.048683e+003, 1.282663e+003
1.049165e+003, 1.292644e+003
1.049647e+003, 1.300472e+003
1.050129e+003, 1.305585e+003
1.050611e+003, 1.311712e+003
1.051093e+003, 1.319982e+003
1.051575e+003, 1.328711e+003
1.052057e+003, 1.337464e+003
1.052540e+003, 1.346420e+003
1.053022e+003, 1.356279e+003
1.053504e+003, 1.366219e+003
1.053986e+003, 1.374435e+003
1.054468e+003, 1.380646e+003
1.054950e+003, 1.387713e+003
1.055432e+003, 1.396866e+003
1.055914e+003, 1.406353e+003
1.056396e+003, 1.415687e+003
1.056879e+003, 1.425035e+003
1.057361e+003, 1.434652e+003
1.057843e+003, 1.444276e+003
1.058325e+003, 1.453579e+003
1.058807e+003, 1.462504e+003
1.059289e+003, 1.471012e+003
1.059771e+003, 1.477962e+003
1.060253e+003, 1.486039e+003
1.060736e+003, 1.497070e+003
1.061218e+003, 1.508862e+003
1.061700e+003, 1.519809e+003
1.062182e+003, 1.530382e+003
1.062664e+003, 1.541143e+003
1.063146e+003, 1.552321e+003
1.063628e+003, 1.565053e+003
1.064110e+003, 1.580368e+003
1.064593e+003, 1.596539e+003
1.065075e+003, 1.613965e+003
1.065557e+003, 1.630906e+003
1.066039e+003, 1.645078e+003
1.066521e+003, 1.658362e+003
1.067003e+003, 1.673412e+003
1.067485e+003, 1.690618e+003
1.067967e+003, 1.709377e+003
1.068449e+003, 1.729755e+003
1.068932e+003, 1.751124e+003
1.069414e+003, 1.772120e+003
1.069896e+003, 1.795101e+003
1.070378e+003, 1.823688e+003
1.070860e+003, 1.854410e+003
1.071342e+003, 1.882401e+003
1.071824e+003, 1.907380e+003
1.072306e+003, 1.933121e+003
1.072788e+003, 1.960944e+003
1.073271e+003, 1.989728e+003
1.073753e+003, 2.019120e+003
1.074235e+003, 2.049126e+003
1.074717e+003, 2.080522e+003
1.075199e+003, 2.112039e+003
1.075681e+003, 2.141540e+003
1.076163e+003, 2.169554e+003
1.076645e+003, 2.199474e+003
1.077127e+003, 2.233228e+003
1.077610e+003, 2.266777e+003
1.078092e+003, 2.296323e+003
1.078574e+003, 2.327375e+003
1.079056e+003, 2.364376e+003
1.079538e+003, 2.404735e+003
1.080020e+003, 2.444956e+003
1.080502e+003, 2.485572e+003
1.080984e+003, 2.530007e+003
1.081467e+003, 2.579649e+003
1.081949e+003, 2.630842e+003
1.082431e+003, 2.688745e+003
1.082913e+003, 2.740132e+003
1.083395e+003, 2.778534e+003
1.083877e+003, 2.804730e+003
1.084359e+003, 2.820425e+003
1.084841e+003, 2.824901e+003
1.085323e+003, 2.815047e+003
1.085806e+003, 2.789360e+003
1.086288e+003, 2.756101e+003
1.086770e+003, 2.718267e+003
1.087252e+003, 2.674369e+003
1.087734e+003, 2.619906e+003
1.088216e+003, 2.561684e+003
1.088698e+003, 2.504497e+003
1.089180e+003, 2.449161e+003
1.089662e+003, 2.395460e+003
1.090145e+003, 2.342915e+003
1.090627e+003, 2.297687e+003
1.091109e+003, 2.261583e+003
1.091591e+003, 2.233512e+003
1.092073e+003, 2.214949e+003
1.092555e+003, 2.202300e+003
1.093037e+003, 2.195117e+003
1.093519e+003, 2.191018e+003
1.094002e+003, 2.185673e+003
1.094484e+003, 2.178924e+003
1.094966e+003, 2.177101e+003
1.095448e+003, 2.185189e+003
1.095930e+003, 2.194089e+003
1.096412e+003, 2.201304e+003
1.096894e+003, 2.207886e+003
1.097376e+003, 2.212953e+003
1.097859e+003, 2.218827e+003
1.098341e+003, 2.228997e+003
1.098823e+003, 2.243171e+003
1.099305e+003, 2.257461e+003
1.099787e+003, 2.270765e+003
1.100269e+003, 2.284594e+003
1.100751e+003, 2.301815e+003
1.101233e+003, 2.316616e+003
1.101715e+003, 2.323831e+003
1.102198e+003, 2.329032e+003
1.102680e+003, 2.338687e+003
1.103162e+003, 2.351684e+003
1.103644e+003, 2.361783e+003
1.104126e+003, 2.365913e+003
1.104608e+003, 2.374240e+003
1.105090e+003, 2.390606e+003
1.105572e+003, 2.408765e+003
1.106054e+003, 2.428915e+003
1.106537e+003, 2.447900e+003
1.107019e+003, 2.463319e+003
1.107501e+003, 2.475712e+003
1.107983e+003, 2.485856e+003
1.108465e+003, 2.492905e+003
1.108947e+003, 2.503130e+003
1.109429e+003, 2.520415e+003
1.109911e+003, 2.536163e+003
1.110394e+003, 2.546114e+003
1.110876e+003, 2.556639e+003
1.111358e+003, 2.572315e+003
1.111840e+003, 2.590726e+003
1.112322e+003, 2.607882e+003
1.112804e+003, 2.623616e+003
1.113286e+003, 2.639606e+003
1.113768e+003, 2.656389e+003
1.114250e+003, 2.672425e+003
1.114733e+003, 2.687240e+003
1.115215e+003, 2.701721e+003
1.115697e+003, 2.715741e+003
1.116179e+003, 2.730093e+003
1.116661e+003, 2.745681e+003
1.117143e+003, 2.762450e+003
1.117625e+003, 2.779983e+003
1.118107e+003, 2.798717e+003
1.118589e+003, 2.816984e+003
1.119072e+003, 2.834385e+003
1.119554e+003, 2.852222e+003
1.120036e+003, 2.871873e+003
1.120518e+003, 2.890536e+003
1.121000e+003, 2.905017e+003
1.121482e+003, 2.917379e+003
1.121964e+003, 2.933805e+003
1.122446e+003, 2.955103e+003
1.122929e+003, 2.975304e+003
1.123411e+003, 2.993747e+003
1.123893e+003, 3.013659e+003
1.124375e+003, 3.036063e+003
1.124857e+003, 3.059101e+003
1.125339e+003, 3.081826e+003
1.125821e+003, 3.103859e+003
1.126303e+003, 3.124077e+003
1.126786e+003, 3.142663e+003
1.127268e+003, 3.164060e+003
1.127750e+003, 3.188985e+003
1.128232e+003, 3.208141e+003
1.128714e+003, 3.219118e+003
1.129196e+003, 3.232812e+003
1.129678e+003, 3.254301e+003
1.130160e+003, 3.279228e+003
1.130642e+003, 3.302836e+003
1.131125e+003, 3.325558e+003
1.131607e+003, 3.348597e+003
1.132089e+003, 3.371973e+003
1.132571e+003, 3.395379e+003
1.133053e+003, 3.419018e+003
1.133535e+003, 3.445185e+003
1.134017e+003, 3.474601e+003
1.134499e+003, 3.501333e+003
1.134981e+003, 3.520336e+003
1.135464e+003, 3.536262e+003
1.135946e+003, 3.557122e+003
1.136428e+003, 3.582169e+003
1.136910e+003, 3.609329e+003
1.137392e+003, 3.638069e+003
1.137874e+003, 3.665473e+003
1.138356e+003, 3.691555e+003
1.138838e+003, 3.720637e+003
1.139321e+003, 3.755088e+003
1.139803e+003, 3.790029e+003
1.140285e+003, 3.821164e+003
1.140767e+003, 3.848620e+003
1.141249e+003, 3.869693e+003
1.141731e+003, 3.888695e+003
1.142213e+003, 3.915768e+003
1.142695e+003, 3.950014e+003
1.143177e+003, 3.985505e+003
1.143660e+003, 4.020008e+003
1.144142e+003, 4.052729e+003
1.144624e+003, 4.082877e+003
1.145106e+003, 4.112065e+003
1.145588e+003, 4.141252e+003
1.146070e+003, 4.171154e+003
1.146552e+003, 4.203227e+003
1.147034e+003, 4.236463e+003
1.147516e+003, 4.268946e+003
1.147999e+003, 4.300591e+003
1.148481e+003, 4.332049e+003
1.148963e+003, 4.363329e+003
1.149445e+003, 4.396685e+003
1.149927e+003, 4.433734e+003
1.150409e+003, 4.473161e+003
1.150891e+003, 4.515204e+003
1.151373e+003, 4.558092e+003
1.151856e+003, 4.599674e+003
1.152338e+003, 4.640536e+003
1.152820e+003, 4.683289e+003
1.153302e+003, 4.728438e+003
1.153784e+003, 4.770857e+003
1.154266e+003, 4.803758e+003
1.154748e+003, 4.841158e+003
1.155230e+003, 4.891950e+003
1.155713e+003, 4.943903e+003
1.156195e+003, 4.990162e+003
1.156677e+003, 5.032851e+003
1.157159e+003, 5.074010e+003
1.157641e+003, 5.114716e+003
1.158123e+003, 5.159601e+003
1.158605e+003, 5.211485e+003
1.159087e+003, 5.263282e+003
1.159569e+003, 5.315634e+003
1.160052e+003, 5.366665e+003
1.160534e+003, 5.414166e+003
1.161016e+003, 5.462519e+003
1.161498e+003, 5.514849e+003
1.161980e+003, 5.570181e+003
1.162462e+003, 5.626642e+003
1.162944e+003, 5.684587e+003
1.163426e+003, 5.740287e+003
1.163908e+003, 5.789975e+003
1.164391e+003, 5.849112e+003
1.164873e+003, 5.922998e+003
1.165355e+003, 5.995585e+003
1.165837e+003, 6.058623e+003
1.166319e+003, 6.119458e+003
1.166801e+003, 6.187036e+003
1.167283e+003, 6.259669e+003
1.167765e+003, 6.331600e+003
1.168247e+003, 6.402775e+003
1.168730e+003, 6.474995e+003
1.169212e+003, 6.548136e+003
1.169694e+003, 6.620299e+003
1.170176e+003, 6.690625e+003
1.170658e+003, 6.761029e+003
1.171140e+003, 6.832454e+003
1.171622e+003, 6.907777e+003
1.172104e+003, 6.995014e+003
1.172587e+003, 7.088740e+003
1.173069e+003, 7.169751e+003
1.173551e+003, 7.241615e+003
1.174033e+003, 7.316562e+003
1.174515e+003, 7.396950e+003
1.174997e+003, 7.485117e+003
1.175479e+003, 7.581931e+003
1.175961e+003, 7.680799e+003
1.176443e+003, 7.777735e+003
1.176926e+003, 7.872239e+003
1.177408e+003, 7.961720e+003
1.177890e+003, 8.049808e+003
1.178372e+003, 8.139299e+003
1.178854e+003, 8.232752e+003
1.179336e+003, 8.336196e+003
1.179818e+003, 8.448888e+003
1.180300e+003, 8.561526e+003
1.180782e+003, 8.670576e+003
1.181265e+003, 8.776954e+003
1.181747e+003, 8.877541e+003
1.182229e+003, 8.979397e+003
1.182711e+003, 9.085277e+003
1.183193e+003, 9.195739e+003
1.183675e+003, 9.311901e+003
1.184157e+003, 9.432483e+003
1.184639e+003, 9.556296e+003
1.185122e+003, 9.683037e+003
1.185604e+003, 9.811318e+003
1.186086e+003, 9.942311e+003
1.186568e+003, 1.007316e+004
1.187050e+003, 1.020656e+004
1.187532e+003, 1.033595e+004
1.188014e+003, 1.045054e+004
1.188496e+003, 1.056645e+004
1.188979e+003, 1.069730e+004
1.189461e+003, 1.084082e+004
1.189943e+003, 1.098826e+004
1.190425e+003, 1.114033e+004
1.190907e+003, 1.129075e+004
1.191389e+003, 1.143878e+004
1.191871e+003, 1.158479e+004
1.192353e+003, 1.172543e+004
1.192835e+003, 1.187309e+004
1.193318e+003, 1.203434e+004
1.193800e+003, 1.220417e+004
1.194282e+003, 1.237654e+004
1.194764e+003, 1.255062e+004
1.195246e+003, 1.271989e+004
1.195728e+003, 1.288477e+004
1.196210e+003, 1.305834e+004
1.196692e+003, 1.323989e+004
1.197174e+003, 1.342311e+004
1.197657e+003, 1.360525e+004
1.198139e+003, 1.377907e+004
1.198621e+003, 1.393891e+004
1.199103e+003, 1.410259e+004
1.199585e+003, 1.429614e+004
1.200067e+003, 1.450648e+004
1.200549e+003, 1.471248e+004
1.201031e+003, 1.491531e+004
1.201514e+003, 1.511869e+004
1.201996e+003, 1.532292e+004
1.202478e+003, 1.552396e+004
1.202960e+003, 1.572358e+004
1.203442e+003, 1.593682e+004
1.203924e+003, 1.617953e+004
1.204406e+003, 1.641784e+004
1.204888e+003, 1.661533e+004
1.205370e+003, 1.680805e+004
1.205853e+003, 1.702663e+004
1.206335e+003, 1.725578e+004
1.206817e+003, 1.747277e+004
1.207299e+003, 1.768478e+004
1.207781e+003, 1.791817e+004
1.208263e+003, 1.817862e+004
1.208745e+003, 1.843596e+004
1.209227e+003, 1.867616e+004
1.209709e+003, 1.892057e+004
1.210192e+003, 1.917811e+004
1.210674e+003, 1.943846e+004
1.211156e+003, 1.969224e+004
1.211638e+003, 1.995019e+004
1.212120e+003, 2.022554e+004
1.212602e+003, 2.051382e+004
1.213084e+003, 2.079390e+004
1.213566e+003, 2.106254e+004
1.214049e+003, 2.133937e+004
1.214531e+003, 2.162729e+004
1.215013e+003, 2.191189e+004
1.215495e+003, 2.219088e+004
1.215977e+003, 2.246383e+004
1.216459e+003, 2.272823e+004
1.216941e+003, 2.299184e+004
1.217423e+003, 2.326316e+004
1.217906e+003, 2.354205e+004
1.218388e+003, 2.383049e+004
1.218870e+003, 2.412413e+004
1.219352e+003, 2.439784e+004
1.219834e+003, 2.465699e+004
1.220316e+003, 2.493963e+004
1.220798e+003, 2.524839e+004
1.221280e+003, 2.553632e+004
1.221762e+003, 2.577839e+004
1.222245e+003, 2.601334e+004
1.222727e+003, 2.628105e+004
1.223209e+003, 2.656182e+004
1.223691e+003, 2.684450e+004
1.224173e+003, 2.711818e+004
1.224655e+003, 2.736371e+004
1.225137e+003, 2.758733e+004
1.225619e+003, 2.780424e+004
1.226101e+003, 2.801454e+004
1.226584e+003, 2.820813e+004
1.227066e+003, 2.837798e+004
1.227548e+003, 2.853729e+004
1.228030e+003, 2.868905e+004
1.228512e+003, 2.883243e+004
1.228994e+003, 2.896282e+004
1.229476e+003, 2.908933e+004
1.229958e+003, 2.922970e+004
1.230441e+003, 2.936574e+004
1.230923e+003, 2.946240e+004
1.231405e+003, 2.952118e+004
1.231887e+003, 2.958604e+004
1.232369e+003, 2.966846e+004
1.232851e+003, 2.971769e+004
1.233333e+003, 2.972038e+004
1.233815e+003, 2.973187e+004
1.234297e+003, 2.977335e+004
1.234780e+003, 2.980684e+004
1.235262e+003, 2.980581e+004
1.235744e+003, 2.977633e+004
1.236226e+003, 2.972447e+004
1.236708e+003, 2.965538e+004
1.237190e+003, 2.959049e+004
1.237672e+003, 2.952801e+004
1.238154e+003, 2.945923e+004
1.238636e+003, 2.938324e+004
1.239119e+003, 2.930026e+004
1.239601e+003, 2.921038e+004
1.240083e+003, 2.911082e+004
1.240565e+003, 2.899813e+004
1.241047e+003, 2.888459e+004
1.241529e+003, 2.878879e+004
1.242011e+003, 2.869097e+004
1.242493e+003, 2.856280e+004
1.242975e+003, 2.842697e+004
1.243458e+003, 2.831556e+004
1.243940e+003, 2.821819e+004
1.244422e+003, 2.810889e+004
1.244904e+003, 2.798313e+004
1.245386e+003, 2.785258e+004
1.245868e+003, 2.771944e+004
1.246350e+003, 2.758428e+004
1.246832e+003, 2.743946e+004
1.247315e+003, 2.730251e+004
1.247797e+003, 2.718428e+004
1.248279e+003, 2.706941e+004
1.248761e+003, 2.694891e+004
1.249243e+003, 2.682213e+004
1.249725e+003, 2.668349e+004
1.250207e+003, 2.653499e+004
1.250689e+003, 2.642086e+004
1.251172e+003, 2.634823e+004
1.251654e+003, 2.621706e+004
1.252136e+003, 2.601611e+004
1.252618e+003, 2.584866e+004
1.253100e+003, 2.574543e+004
1.253582e+003, 2.565007e+004
1.254064e+003, 2.552471e+004
1.254546e+003, 2.538635e+004
1.255028e+003, 2.525891e+004
1.255510e+003, 2.513690e+004
1.255993e+003, 2.501119e+004
1.256475e+003, 2.488388e+004
1.256957e+003, 2.476557e+004
1.257439e+003, 2.464970e+004
1.257921e+003, 2.451272e+004
1.258403e+003, 2.435615e+004
1.258885e+003, 2.421354e+004
1.259367e+003, 2.410252e+004
1.259850e+003, 2.399594e+004
1.260332e+003, 2.388340e+004
1.260814e+003, 2.376966e+004
1.261296e+003, 2.364679e+004
1.261778e+003, 2.353319e+004
1.262260e+003, 2.345099e+004
1.262742e+003, 2.338203e+004
1.263224e+003, 2.329595e+004
1.263707e+003, 2.319481e+004
1.264189e+003, 2.310387e+004
1.264671e+003, 2.302573e+004
1.265153e+003, 2.294726e+004
1.265635e+003, 2.286705e+004
1.266117e+003, 2.279217e+004
1.266599e+003, 2.272278e+004
1.267081e+003, 2.266927e+004
1.267563e+003, 2.263816e+004
1.268046e+003, 2.261879e+004
1.268528e+003, 2.260175e+004
1.269010e+003, 2.258003e+004
1.269492e+003, 2.252393e+004
1.269974e+003, 2.245588e+004
1.270456e+003, 2.243977e+004
1.270938e+003, 2.246003e+004
1.271420e+003, 2.246627e+004
1.271902e+003, 2.245407e+004
1.272385e+003, 2.244781e+004
1.272867e+003, 2.245688e+004
1.273349e+003, 2.246964e+004
1.273831e+003, 2.248010e+004
1.274313e+003, 2.249122e+004
1.274795e+003, 2.249932e+004
1.275277e+003, 2.251469e+004
1.275759e+003, 2.254961e+004
1.276242e+003, 2.259146e+004
1.276724e+003, 2.262668e+004
1.277206e+003, 2.265661e+004
1.277688e+003, 2.268608e+004
1.278170e+003, 2.271441e+004
1.278652e+003, 2.274776e+004
1.279134e+003, 2.278404e+004
1.279616e+003, 2.283470e+004
1.280099e+003, 2.290363e+004
1.280581e+003, 2.297055e+004
1.281063e+003, 2.302728e+004
1.281545e+003, 2.308744e+004
1.282027e+003, 2.316324e+004
1.282509e+003, 2.324392e+004
1.282991e+003, 2.331032e+004
1.283473e+003, 2.336767e+004
1.283955e+003, 2.343193e+004
##END=



