##NAMES=Calcite
##RRUFFID=R150075
##IDEAL CHEMISTRY=CaCO_3_
##LOCALITY=Montana, USA
##OWNER=RRUFF
##SOURCE=Michael Scott
##DESCRIPTION=Colorless cleavage rhomb
##STATUS=The identification of this mineral has been determined only by Raman spectroscopy
##URL=rruff.info/R150075
9.059570e+001, 1.356036e+003
9.107782e+001, 1.355203e+003
9.155994e+001, 1.354973e+003
9.204205e+001, 1.357172e+003
9.252417e+001, 1.358664e+003
9.300629e+001, 1.357573e+003
9.348840e+001, 1.346788e+003
9.397052e+001, 1.319797e+003
9.445264e+001, 1.277389e+003
9.493475e+001, 1.238101e+003
9.541687e+001, 1.201057e+003
9.589898e+001, 1.165765e+003
9.638110e+001, 1.133558e+003
9.686321e+001, 1.106052e+003
9.734533e+001, 1.083099e+003
9.782745e+001, 1.061353e+003
9.830956e+001, 1.040156e+003
9.879168e+001, 1.019205e+003
9.927380e+001, 9.992133e+002
9.975591e+001, 9.798254e+002
1.002380e+002, 9.610676e+002
1.007201e+002, 9.435714e+002
1.012023e+002, 9.276038e+002
1.016844e+002, 9.132130e+002
1.021665e+002, 8.998448e+002
1.026486e+002, 8.871877e+002
1.031307e+002, 8.754694e+002
1.036128e+002, 8.651769e+002
1.040950e+002, 8.563760e+002
1.045771e+002, 8.480192e+002
1.050592e+002, 8.390543e+002
1.055413e+002, 8.298182e+002
1.060234e+002, 8.208967e+002
1.065055e+002, 8.116072e+002
1.069877e+002, 8.025900e+002
1.074698e+002, 7.971118e+002
1.079519e+002, 7.999582e+002
1.084340e+002, 8.002676e+002
1.089161e+002, 7.928353e+002
1.093982e+002, 7.792600e+002
1.098804e+002, 7.637363e+002
1.103625e+002, 7.492938e+002
1.108446e+002, 7.356017e+002
1.113267e+002, 7.251444e+002
1.118088e+002, 7.196018e+002
1.122909e+002, 7.155422e+002
1.127731e+002, 7.119475e+002
1.132552e+002, 7.084156e+002
1.137373e+002, 7.046063e+002
1.142194e+002, 6.999533e+002
1.147015e+002, 6.927142e+002
1.151836e+002, 6.879368e+002
1.156658e+002, 6.874068e+002
1.161479e+002, 6.883708e+002
1.166300e+002, 6.881853e+002
1.171121e+002, 6.858912e+002
1.175942e+002, 6.822414e+002
1.180763e+002, 6.789265e+002
1.185584e+002, 6.760989e+002
1.190406e+002, 6.731909e+002
1.195227e+002, 6.698463e+002
1.200048e+002, 6.662649e+002
1.204869e+002, 6.629290e+002
1.209690e+002, 6.599395e+002
1.214511e+002, 6.575121e+002
1.219333e+002, 6.555363e+002
1.224154e+002, 6.533513e+002
1.228975e+002, 6.527061e+002
1.233796e+002, 6.564377e+002
1.238617e+002, 6.652663e+002
1.243438e+002, 6.723744e+002
1.248260e+002, 6.723027e+002
1.253081e+002, 6.695300e+002
1.257902e+002, 6.677713e+002
1.262723e+002, 6.682976e+002
1.267544e+002, 6.705486e+002
1.272365e+002, 6.733407e+002
1.277187e+002, 6.768398e+002
1.282008e+002, 6.807022e+002
1.286829e+002, 6.842817e+002
1.291650e+002, 6.881961e+002
1.296471e+002, 6.931901e+002
1.301292e+002, 6.996955e+002
1.306114e+002, 7.077084e+002
1.310935e+002, 7.171863e+002
1.315756e+002, 7.279987e+002
1.320577e+002, 7.406236e+002
1.325398e+002, 7.550732e+002
1.330219e+002, 7.714875e+002
1.335041e+002, 7.899982e+002
1.339862e+002, 8.108166e+002
1.344683e+002, 8.342327e+002
1.349504e+002, 8.593217e+002
1.354325e+002, 8.871404e+002
1.359146e+002, 9.154691e+002
1.363968e+002, 9.436310e+002
1.368789e+002, 9.713006e+002
1.373610e+002, 9.975713e+002
1.378431e+002, 1.020812e+003
1.383252e+002, 1.040465e+003
1.388073e+002, 1.059832e+003
1.392895e+002, 1.078584e+003
1.397716e+002, 1.097388e+003
1.402537e+002, 1.116748e+003
1.407358e+002, 1.136476e+003
1.412179e+002, 1.157616e+003
1.417000e+002, 1.181368e+003
1.421821e+002, 1.207294e+003
1.426643e+002, 1.235592e+003
1.431464e+002, 1.265997e+003
1.436285e+002, 1.298741e+003
1.441106e+002, 1.334523e+003
1.445927e+002, 1.372128e+003
1.450748e+002, 1.415213e+003
1.455570e+002, 1.465195e+003
1.460391e+002, 1.522050e+003
1.465212e+002, 1.585812e+003
1.470033e+002, 1.656422e+003
1.474854e+002, 1.734005e+003
1.479675e+002, 1.818502e+003
1.484497e+002, 1.905344e+003
1.489318e+002, 2.003737e+003
1.494139e+002, 2.118335e+003
1.498960e+002, 2.250038e+003
1.503781e+002, 2.401239e+003
1.508602e+002, 2.572636e+003
1.513424e+002, 2.762219e+003
1.518245e+002, 2.984472e+003
1.523066e+002, 3.243545e+003
1.527887e+002, 3.526731e+003
1.532708e+002, 3.835172e+003
1.537529e+002, 4.166175e+003
1.542351e+002, 4.505037e+003
1.547172e+002, 4.815833e+003
1.551993e+002, 5.151106e+003
1.556814e+002, 5.379481e+003
1.561635e+002, 5.500813e+003
1.566456e+002, 5.513424e+003
1.571278e+002, 5.404576e+003
1.576099e+002, 5.165040e+003
1.580920e+002, 4.814432e+003
1.585741e+002, 4.428013e+003
1.590562e+002, 3.959661e+003
1.595383e+002, 3.511774e+003
1.600205e+002, 3.101055e+003
1.605026e+002, 2.729497e+003
1.609847e+002, 2.400437e+003
1.614668e+002, 2.119323e+003
1.619489e+002, 1.885823e+003
1.624310e+002, 1.686441e+003
1.629131e+002, 1.528292e+003
1.633953e+002, 1.393816e+003
1.638774e+002, 1.277185e+003
1.643595e+002, 1.177719e+003
1.648416e+002, 1.091812e+003
1.653237e+002, 1.020363e+003
1.658058e+002, 9.616241e+002
1.662880e+002, 9.094566e+002
1.667701e+002, 8.642684e+002
1.672522e+002, 8.243491e+002
1.677343e+002, 7.883983e+002
1.682164e+002, 7.566893e+002
1.686985e+002, 7.279550e+002
1.691807e+002, 7.021832e+002
1.696628e+002, 6.788994e+002
1.701449e+002, 6.579001e+002
1.706270e+002, 6.395492e+002
1.711091e+002, 6.232977e+002
1.715912e+002, 6.079006e+002
1.720734e+002, 5.931967e+002
1.725555e+002, 5.798336e+002
1.730376e+002, 5.680961e+002
1.735197e+002, 5.574821e+002
1.740018e+002, 5.472413e+002
1.744839e+002, 5.369917e+002
1.749661e+002, 5.267872e+002
1.754482e+002, 5.170566e+002
1.759303e+002, 5.075510e+002
1.764124e+002, 4.989264e+002
1.768945e+002, 4.917679e+002
1.773766e+002, 4.855714e+002
1.778588e+002, 4.794907e+002
1.783409e+002, 4.727731e+002
1.788230e+002, 4.653918e+002
1.793051e+002, 4.593813e+002
1.797872e+002, 4.558322e+002
1.802693e+002, 4.525545e+002
1.807515e+002, 4.491503e+002
1.812336e+002, 4.455067e+002
1.817157e+002, 4.415818e+002
1.821978e+002, 4.372852e+002
1.826799e+002, 4.325400e+002
1.831620e+002, 4.282044e+002
1.836441e+002, 4.238491e+002
1.841263e+002, 4.201482e+002
1.846084e+002, 4.177847e+002
1.850905e+002, 4.165739e+002
1.855726e+002, 4.155652e+002
1.860547e+002, 4.139059e+002
1.865368e+002, 4.114841e+002
1.870190e+002, 4.091063e+002
1.875011e+002, 4.066830e+002
1.879832e+002, 4.043828e+002
1.884653e+002, 4.025934e+002
1.889474e+002, 4.013177e+002
1.894296e+002, 3.997077e+002
1.899117e+002, 3.967570e+002
1.903938e+002, 3.924996e+002
1.908759e+002, 3.884463e+002
1.913580e+002, 3.838213e+002
1.918401e+002, 3.799236e+002
1.923223e+002, 3.788974e+002
1.928044e+002, 3.814892e+002
1.932865e+002, 3.842848e+002
1.937686e+002, 3.834594e+002
1.942507e+002, 3.800252e+002
1.947328e+002, 3.767243e+002
1.952150e+002, 3.743863e+002
1.956971e+002, 3.727304e+002
1.961792e+002, 3.711432e+002
1.966613e+002, 3.694312e+002
1.971434e+002, 3.681434e+002
1.976255e+002, 3.679399e+002
1.981077e+002, 3.684698e+002
1.985898e+002, 3.688667e+002
1.990719e+002, 3.684797e+002
1.995540e+002, 3.675395e+002
2.000361e+002, 3.670517e+002
2.005182e+002, 3.671933e+002
2.010004e+002, 3.676209e+002
2.014825e+002, 3.683411e+002
2.019646e+002, 3.691891e+002
2.024467e+002, 3.697484e+002
2.029288e+002, 3.694492e+002
2.034109e+002, 3.683865e+002
2.038930e+002, 3.682497e+002
2.043752e+002, 3.700992e+002
2.048573e+002, 3.718287e+002
2.053394e+002, 3.728051e+002
2.058215e+002, 3.730316e+002
2.063036e+002, 3.726430e+002
2.067857e+002, 3.716075e+002
2.072679e+002, 3.698758e+002
2.077500e+002, 3.684698e+002
2.082321e+002, 3.673107e+002
2.087142e+002, 3.665786e+002
2.091963e+002, 3.663804e+002
2.096784e+002, 3.666842e+002
2.101606e+002, 3.674456e+002
2.106427e+002, 3.687404e+002
2.111248e+002, 3.707049e+002
2.116069e+002, 3.718886e+002
2.120890e+002, 3.716387e+002
2.125711e+002, 3.712952e+002
2.130533e+002, 3.712693e+002
2.135354e+002, 3.716111e+002
2.140175e+002, 3.723075e+002
2.144996e+002, 3.734709e+002
2.149817e+002, 3.753422e+002
2.154638e+002, 3.758258e+002
2.159460e+002, 3.733812e+002
2.164281e+002, 3.712286e+002
2.169102e+002, 3.711615e+002
2.173923e+002, 3.730225e+002
2.178744e+002, 3.754922e+002
2.183565e+002, 3.775226e+002
2.188387e+002, 3.791156e+002
2.193208e+002, 3.795079e+002
2.198029e+002, 3.774876e+002
2.202850e+002, 3.753997e+002
2.207671e+002, 3.747225e+002
2.212492e+002, 3.754595e+002
2.217314e+002, 3.766353e+002
2.222135e+002, 3.773763e+002
2.226956e+002, 3.776708e+002
2.231777e+002, 3.786786e+002
2.236598e+002, 3.811615e+002
2.241419e+002, 3.837933e+002
2.246240e+002, 3.855615e+002
2.251062e+002, 3.864291e+002
2.255883e+002, 3.869155e+002
2.260704e+002, 3.870617e+002
2.265525e+002, 3.871048e+002
2.270346e+002, 3.884322e+002
2.275167e+002, 3.926063e+002
2.279989e+002, 3.971823e+002
2.284810e+002, 3.996062e+002
2.289631e+002, 3.997002e+002
2.294452e+002, 3.995951e+002
2.299273e+002, 4.007473e+002
2.304094e+002, 4.029062e+002
2.308916e+002, 4.053650e+002
2.313737e+002, 4.080272e+002
2.318558e+002, 4.109302e+002
2.323379e+002, 4.142734e+002
2.328200e+002, 4.181457e+002
2.333021e+002, 4.218167e+002
2.337843e+002, 4.242921e+002
2.342664e+002, 4.263724e+002
2.347485e+002, 4.293940e+002
2.352306e+002, 4.342844e+002
2.357127e+002, 4.397572e+002
2.361948e+002, 4.438828e+002
2.366770e+002, 4.463014e+002
2.371591e+002, 4.489677e+002
2.376412e+002, 4.528343e+002
2.381233e+002, 4.575475e+002
2.386054e+002, 4.629017e+002
2.390875e+002, 4.689052e+002
2.395697e+002, 4.754284e+002
2.400518e+002, 4.823148e+002
2.405339e+002, 4.897208e+002
2.410160e+002, 4.970899e+002
2.414981e+002, 5.046688e+002
2.419802e+002, 5.119263e+002
2.424624e+002, 5.180188e+002
2.429445e+002, 5.223614e+002
2.434266e+002, 5.262914e+002
2.439087e+002, 5.321477e+002
2.443908e+002, 5.403791e+002
2.448729e+002, 5.493633e+002
2.453550e+002, 5.588076e+002
2.458372e+002, 5.686242e+002
2.463193e+002, 5.786200e+002
2.468014e+002, 5.887176e+002
2.472835e+002, 5.993167e+002
2.477656e+002, 6.114528e+002
2.482477e+002, 6.257899e+002
2.487299e+002, 6.400565e+002
2.492120e+002, 6.532011e+002
2.496941e+002, 6.664430e+002
2.501762e+002, 6.803742e+002
2.506583e+002, 6.952606e+002
2.511404e+002, 7.115493e+002
2.516226e+002, 7.303653e+002
2.521047e+002, 7.526253e+002
2.525868e+002, 7.752670e+002
2.530689e+002, 7.971049e+002
2.535510e+002, 8.196985e+002
2.540331e+002, 8.441199e+002
2.545153e+002, 8.706468e+002
2.549974e+002, 8.991906e+002
2.554795e+002, 9.295380e+002
2.559616e+002, 9.603046e+002
2.564437e+002, 9.962618e+002
2.569258e+002, 1.037654e+003
2.574080e+002, 1.082889e+003
2.578901e+002, 1.131309e+003
2.583722e+002, 1.182621e+003
2.588543e+002, 1.236946e+003
2.593364e+002, 1.294058e+003
2.598185e+002, 1.352260e+003
2.603007e+002, 1.418573e+003
2.607828e+002, 1.494163e+003
2.612649e+002, 1.575608e+003
2.617470e+002, 1.661381e+003
2.622291e+002, 1.751186e+003
2.627112e+002, 1.843962e+003
2.631934e+002, 1.939441e+003
2.636755e+002, 2.038840e+003
2.641576e+002, 2.136565e+003
2.646397e+002, 2.234702e+003
2.651218e+002, 2.329555e+003
2.656039e+002, 2.418678e+003
2.660861e+002, 2.501887e+003
2.665682e+002, 2.580313e+003
2.670503e+002, 2.654396e+003
2.675324e+002, 2.722765e+003
2.680145e+002, 2.794473e+003
2.684966e+002, 2.872554e+003
2.689788e+002, 2.950475e+003
2.694609e+002, 3.023243e+003
2.699430e+002, 3.092171e+003
2.704251e+002, 3.162205e+003
2.709072e+002, 3.237045e+003
2.713893e+002, 3.316173e+003
2.718715e+002, 3.403366e+003
2.723536e+002, 3.499342e+003
2.728357e+002, 3.600468e+003
2.733178e+002, 3.703621e+003
2.737999e+002, 3.810194e+003
2.742820e+002, 3.923072e+003
2.747642e+002, 4.043647e+003
2.752463e+002, 4.172479e+003
2.757284e+002, 4.315217e+003
2.762105e+002, 4.470811e+003
2.766926e+002, 4.637717e+003
2.771747e+002, 4.814326e+003
2.776568e+002, 5.002595e+003
2.781389e+002, 5.208178e+003
2.786211e+002, 5.436678e+003
2.791032e+002, 5.681128e+003
2.795853e+002, 5.913636e+003
2.800674e+002, 6.146164e+003
2.805495e+002, 6.357104e+003
2.810316e+002, 6.556313e+003
2.815138e+002, 6.728736e+003
2.819959e+002, 6.852429e+003
2.824780e+002, 6.920726e+003
2.829601e+002, 6.926558e+003
2.834422e+002, 6.841659e+003
2.839243e+002, 6.659915e+003
2.844065e+002, 6.420474e+003
2.848886e+002, 6.112401e+003
2.853707e+002, 5.755833e+003
2.858528e+002, 5.372003e+003
2.863349e+002, 4.963937e+003
2.868170e+002, 4.550282e+003
2.872992e+002, 4.156632e+003
2.877813e+002, 3.781456e+003
2.882634e+002, 3.432796e+003
2.887455e+002, 3.112993e+003
2.892276e+002, 2.822259e+003
2.897097e+002, 2.565383e+003
2.901919e+002, 2.343633e+003
2.906740e+002, 2.149468e+003
2.911561e+002, 1.974268e+003
2.916382e+002, 1.819598e+003
2.921203e+002, 1.680378e+003
2.926024e+002, 1.559443e+003
2.930846e+002, 1.451992e+003
2.935667e+002, 1.354007e+003
2.940488e+002, 1.264531e+003
2.945309e+002, 1.184655e+003
2.950130e+002, 1.116753e+003
2.954951e+002, 1.061507e+003
2.959773e+002, 1.008804e+003
2.964594e+002, 9.563907e+002
2.969415e+002, 9.078044e+002
2.974236e+002, 8.668359e+002
2.979057e+002, 8.333214e+002
2.983878e+002, 8.023506e+002
2.988700e+002, 7.705748e+002
2.993521e+002, 7.386730e+002
2.998342e+002, 7.096584e+002
3.003163e+002, 6.841859e+002
3.007984e+002, 6.611326e+002
3.012805e+002, 6.402220e+002
3.017627e+002, 6.212592e+002
3.022448e+002, 6.029788e+002
3.027269e+002, 5.844828e+002
3.032090e+002, 5.663700e+002
3.036911e+002, 5.500879e+002
3.041732e+002, 5.357679e+002
3.046554e+002, 5.226596e+002
3.051375e+002, 5.109002e+002
3.056196e+002, 5.001263e+002
3.061017e+002, 4.893244e+002
3.065838e+002, 4.780215e+002
3.070659e+002, 4.667236e+002
3.075481e+002, 4.564903e+002
3.080302e+002, 4.472620e+002
3.085123e+002, 4.387861e+002
3.089944e+002, 4.313840e+002
3.094765e+002, 4.246154e+002
3.099586e+002, 4.178227e+002
3.104408e+002, 4.108638e+002
3.109229e+002, 4.038515e+002
3.114050e+002, 3.967903e+002
3.118871e+002, 3.895737e+002
3.123692e+002, 3.833163e+002
3.128513e+002, 3.789856e+002
3.133335e+002, 3.753886e+002
3.138156e+002, 3.709789e+002
3.142977e+002, 3.655199e+002
3.147798e+002, 3.599481e+002
3.152619e+002, 3.550713e+002
3.157440e+002, 3.508674e+002
3.162262e+002, 3.468473e+002
3.167083e+002, 3.429790e+002
3.171904e+002, 3.392759e+002
3.176725e+002, 3.356862e+002
3.181546e+002, 3.322150e+002
3.186367e+002, 3.291791e+002
3.191188e+002, 3.271544e+002
3.196010e+002, 3.256812e+002
3.200831e+002, 3.227271e+002
3.205652e+002, 3.165047e+002
3.210473e+002, 3.106057e+002
3.215294e+002, 3.073937e+002
3.220115e+002, 3.062548e+002
3.224937e+002, 3.049603e+002
3.229758e+002, 3.024680e+002
3.234579e+002, 2.992191e+002
3.239400e+002, 2.964184e+002
3.244221e+002, 2.942558e+002
3.249042e+002, 2.920250e+002
3.253864e+002, 2.893282e+002
3.258685e+002, 2.864115e+002
3.263506e+002, 2.836771e+002
3.268327e+002, 2.812267e+002
3.273148e+002, 2.790769e+002
3.277969e+002, 2.773514e+002
3.282791e+002, 2.761227e+002
3.287612e+002, 2.748015e+002
3.292433e+002, 2.733502e+002
3.297254e+002, 2.717239e+002
3.302075e+002, 2.697695e+002
3.306896e+002, 2.674604e+002
3.311718e+002, 2.651572e+002
3.316539e+002, 2.631991e+002
3.321360e+002, 2.616249e+002
3.326181e+002, 2.601651e+002
3.331002e+002, 2.589953e+002
3.335823e+002, 2.578080e+002
3.340645e+002, 2.561653e+002
3.345466e+002, 2.541718e+002
3.350287e+002, 2.525574e+002
3.355108e+002, 2.519252e+002
3.359929e+002, 2.521317e+002
3.364750e+002, 2.520150e+002
3.369572e+002, 2.520342e+002
3.374393e+002, 2.513083e+002
3.379214e+002, 2.487949e+002
3.384035e+002, 2.452235e+002
3.388856e+002, 2.423388e+002
3.393677e+002, 2.409632e+002
3.398499e+002, 2.407226e+002
3.403320e+002, 2.407429e+002
3.408141e+002, 2.413411e+002
3.412962e+002, 2.415947e+002
3.417783e+002, 2.413591e+002
3.422604e+002, 2.406724e+002
3.427426e+002, 2.393938e+002
3.432247e+002, 2.374861e+002
3.437068e+002, 2.355247e+002
3.441889e+002, 2.344056e+002
3.446710e+002, 2.347104e+002
3.451531e+002, 2.340919e+002
3.456353e+002, 2.313195e+002
3.461174e+002, 2.284720e+002
3.465995e+002, 2.272478e+002
3.470816e+002, 2.277084e+002
3.475637e+002, 2.288086e+002
3.480458e+002, 2.297259e+002
3.485280e+002, 2.304655e+002
3.490101e+002, 2.306694e+002
3.494922e+002, 2.302052e+002
3.499743e+002, 2.294461e+002
3.504564e+002, 2.283488e+002
3.509385e+002, 2.270809e+002
3.514207e+002, 2.259683e+002
3.519028e+002, 2.252104e+002
3.523849e+002, 2.247467e+002
3.528670e+002, 2.243189e+002
3.533491e+002, 2.238561e+002
3.538312e+002, 2.235182e+002
3.543134e+002, 2.236067e+002
3.547955e+002, 2.237209e+002
3.552776e+002, 2.231830e+002
3.557597e+002, 2.217917e+002
3.562418e+002, 2.202927e+002
3.567239e+002, 2.200237e+002
3.572061e+002, 2.221274e+002
3.576882e+002, 2.231182e+002
3.581703e+002, 2.223498e+002
3.586524e+002, 2.210656e+002
3.591345e+002, 2.199045e+002
3.596166e+002, 2.190351e+002
3.600987e+002, 2.185374e+002
3.605808e+002, 2.185608e+002
3.610630e+002, 2.192079e+002
3.615451e+002, 2.193619e+002
3.620272e+002, 2.187427e+002
3.625093e+002, 2.179588e+002
3.629914e+002, 2.169478e+002
3.634735e+002, 2.159377e+002
3.639557e+002, 2.153719e+002
3.644378e+002, 2.155559e+002
3.649199e+002, 2.162711e+002
3.654020e+002, 2.165960e+002
3.658841e+002, 2.164805e+002
3.663662e+002, 2.159821e+002
3.668484e+002, 2.148149e+002
3.673305e+002, 2.134441e+002
3.678126e+002, 2.121900e+002
3.682947e+002, 2.111943e+002
3.687768e+002, 2.106166e+002
3.692589e+002, 2.108981e+002
3.697411e+002, 2.126759e+002
3.702232e+002, 2.135485e+002
3.707053e+002, 2.129445e+002
3.711874e+002, 2.118969e+002
3.716695e+002, 2.106669e+002
3.721516e+002, 2.094326e+002
3.726338e+002, 2.084930e+002
3.731159e+002, 2.082254e+002
3.735980e+002, 2.086010e+002
3.740801e+002, 2.086228e+002
3.745622e+002, 2.078529e+002
3.750443e+002, 2.072642e+002
3.755265e+002, 2.074353e+002
3.760086e+002, 2.079294e+002
3.764907e+002, 2.080531e+002
3.769728e+002, 2.074316e+002
3.774549e+002, 2.063420e+002
3.779370e+002, 2.053481e+002
3.784192e+002, 2.044098e+002
3.789013e+002, 2.036892e+002
3.793834e+002, 2.035397e+002
3.798655e+002, 2.034357e+002
3.803476e+002, 2.028459e+002
3.808297e+002, 2.016753e+002
3.813119e+002, 2.005480e+002
3.817940e+002, 2.003335e+002
3.822761e+002, 2.010022e+002
3.827582e+002, 2.009863e+002
3.832403e+002, 1.997310e+002
3.837224e+002, 1.981319e+002
3.842046e+002, 1.967232e+002
3.846867e+002, 1.955013e+002
3.851688e+002, 1.943876e+002
3.856509e+002, 1.932773e+002
3.861330e+002, 1.922686e+002
3.866151e+002, 1.917041e+002
3.870973e+002, 1.917621e+002
3.875794e+002, 1.916197e+002
3.880615e+002, 1.905185e+002
3.885436e+002, 1.889910e+002
3.890257e+002, 1.877493e+002
3.895078e+002, 1.868764e+002
3.899900e+002, 1.864052e+002
3.904721e+002, 1.867617e+002
3.909542e+002, 1.877693e+002
3.914363e+002, 1.879497e+002
3.919184e+002, 1.865098e+002
3.924005e+002, 1.844021e+002
3.928827e+002, 1.828340e+002
3.933648e+002, 1.817746e+002
3.938469e+002, 1.812443e+002
3.943290e+002, 1.817644e+002
3.948111e+002, 1.826592e+002
3.952932e+002, 1.828759e+002
3.957754e+002, 1.822540e+002
3.962575e+002, 1.810829e+002
3.967396e+002, 1.793977e+002
3.972217e+002, 1.772709e+002
3.977038e+002, 1.755358e+002
3.981859e+002, 1.741836e+002
3.986681e+002, 1.732542e+002
3.991501e+002, 1.730950e+002
3.996323e+002, 1.734541e+002
4.001144e+002, 1.734159e+002
4.005965e+002, 1.724571e+002
4.010786e+002, 1.709122e+002
4.015607e+002, 1.697540e+002
4.020428e+002, 1.690855e+002
4.025250e+002, 1.685428e+002
4.030071e+002, 1.680643e+002
4.034892e+002, 1.676776e+002
4.039713e+002, 1.674864e+002
4.044534e+002, 1.674961e+002
4.049355e+002, 1.674977e+002
4.054177e+002, 1.672634e+002
4.058998e+002, 1.667908e+002
4.063819e+002, 1.660344e+002
4.068640e+002, 1.645522e+002
4.073461e+002, 1.632449e+002
4.078282e+002, 1.627410e+002
4.083104e+002, 1.627872e+002
4.087925e+002, 1.626160e+002
4.092746e+002, 1.616883e+002
4.097567e+002, 1.603018e+002
4.102388e+002, 1.598366e+002
4.107209e+002, 1.616786e+002
4.112031e+002, 1.626507e+002
4.116852e+002, 1.617923e+002
4.121673e+002, 1.603488e+002
4.126494e+002, 1.596327e+002
4.131315e+002, 1.599286e+002
4.136136e+002, 1.603958e+002
4.140958e+002, 1.597305e+002
4.145779e+002, 1.573864e+002
4.150600e+002, 1.561028e+002
4.155421e+002, 1.569185e+002
4.160242e+002, 1.578633e+002
4.165063e+002, 1.583677e+002
4.169885e+002, 1.583897e+002
4.174706e+002, 1.579506e+002
4.179527e+002, 1.569138e+002
4.184348e+002, 1.555663e+002
4.189169e+002, 1.549891e+002
4.193990e+002, 1.556751e+002
4.198812e+002, 1.560404e+002
4.203633e+002, 1.552416e+002
4.208454e+002, 1.541132e+002
4.213275e+002, 1.534456e+002
4.218096e+002, 1.534356e+002
4.222917e+002, 1.536213e+002
4.227739e+002, 1.534548e+002
4.232560e+002, 1.529677e+002
4.237381e+002, 1.528848e+002
4.242202e+002, 1.536608e+002
4.247023e+002, 1.543763e+002
4.251844e+002, 1.542221e+002
4.256666e+002, 1.534046e+002
4.261487e+002, 1.526691e+002
4.266308e+002, 1.524600e+002
4.271129e+002, 1.524505e+002
4.275950e+002, 1.521690e+002
4.280771e+002, 1.516038e+002
4.285593e+002, 1.508829e+002
4.290414e+002, 1.499301e+002
4.295235e+002, 1.489445e+002
4.300056e+002, 1.483829e+002
4.304877e+002, 1.484992e+002
4.309698e+002, 1.484655e+002
4.314520e+002, 1.475947e+002
4.319341e+002, 1.463295e+002
4.324162e+002, 1.456302e+002
4.328983e+002, 1.457846e+002
4.333804e+002, 1.461868e+002
4.338625e+002, 1.461029e+002
4.343447e+002, 1.454388e+002
4.348268e+002, 1.450794e+002
4.353089e+002, 1.453478e+002
4.357910e+002, 1.456779e+002
4.362731e+002, 1.457343e+002
4.367552e+002, 1.455282e+002
4.372374e+002, 1.452045e+002
4.377195e+002, 1.448595e+002
4.382016e+002, 1.444357e+002
4.386837e+002, 1.437139e+002
4.391658e+002, 1.419211e+002
4.396479e+002, 1.408274e+002
4.401301e+002, 1.409799e+002
4.406122e+002, 1.416429e+002
4.410943e+002, 1.422164e+002
4.415764e+002, 1.425374e+002
4.420585e+002, 1.427021e+002
4.425406e+002, 1.428647e+002
4.430227e+002, 1.431063e+002
4.435049e+002, 1.427545e+002
4.439870e+002, 1.410045e+002
4.444691e+002, 1.394925e+002
4.449512e+002, 1.387621e+002
4.454333e+002, 1.386091e+002
4.459154e+002, 1.386611e+002
4.463976e+002, 1.387423e+002
4.468797e+002, 1.388714e+002
4.473618e+002, 1.391838e+002
4.478439e+002, 1.399115e+002
4.483260e+002, 1.401231e+002
4.488081e+002, 1.391531e+002
4.492903e+002, 1.379686e+002
4.497724e+002, 1.371053e+002
4.502545e+002, 1.366173e+002
4.507366e+002, 1.363361e+002
4.512187e+002, 1.362817e+002
4.517008e+002, 1.363566e+002
4.521830e+002, 1.360965e+002
4.526651e+002, 1.353642e+002
4.531472e+002, 1.346219e+002
4.536293e+002, 1.340390e+002
4.541114e+002, 1.336437e+002
4.545935e+002, 1.335928e+002
4.550757e+002, 1.341906e+002
4.555578e+002, 1.346081e+002
4.560399e+002, 1.337068e+002
4.565220e+002, 1.319061e+002
4.570041e+002, 1.312127e+002
4.574862e+002, 1.325511e+002
4.579684e+002, 1.344237e+002
4.584505e+002, 1.347286e+002
4.589326e+002, 1.334961e+002
4.594147e+002, 1.324911e+002
4.598968e+002, 1.318577e+002
4.603789e+002, 1.317021e+002
4.608611e+002, 1.324728e+002
4.613432e+002, 1.339598e+002
4.618253e+002, 1.350902e+002
4.623074e+002, 1.351824e+002
4.627895e+002, 1.344455e+002
4.632716e+002, 1.337339e+002
4.637538e+002, 1.329987e+002
4.642359e+002, 1.323505e+002
4.647180e+002, 1.318482e+002
4.652001e+002, 1.314075e+002
4.656822e+002, 1.308461e+002
4.661643e+002, 1.301752e+002
4.666465e+002, 1.297296e+002
4.671286e+002, 1.299540e+002
4.676107e+002, 1.309740e+002
4.680928e+002, 1.314545e+002
4.685749e+002, 1.308758e+002
4.690570e+002, 1.303008e+002
4.695392e+002, 1.301632e+002
4.700213e+002, 1.301647e+002
4.705034e+002, 1.297225e+002
4.709855e+002, 1.285531e+002
4.714676e+002, 1.272532e+002
4.719497e+002, 1.270995e+002
4.724319e+002, 1.285345e+002
4.729140e+002, 1.291562e+002
4.733961e+002, 1.275975e+002
4.738782e+002, 1.260033e+002
4.743603e+002, 1.257759e+002
4.748424e+002, 1.266785e+002
4.753246e+002, 1.274636e+002
4.758067e+002, 1.271787e+002
4.762888e+002, 1.263548e+002
4.767709e+002, 1.263774e+002
4.772530e+002, 1.274748e+002
4.777351e+002, 1.279359e+002
4.782173e+002, 1.264018e+002
4.786994e+002, 1.240465e+002
4.791815e+002, 1.227951e+002
4.796636e+002, 1.229898e+002
4.801457e+002, 1.233073e+002
4.806278e+002, 1.228529e+002
4.811100e+002, 1.221345e+002
4.815920e+002, 1.222208e+002
4.820742e+002, 1.233296e+002
4.825563e+002, 1.245605e+002
4.830384e+002, 1.251920e+002
4.835205e+002, 1.251892e+002
4.840026e+002, 1.247798e+002
4.844847e+002, 1.229524e+002
4.849669e+002, 1.218329e+002
4.854490e+002, 1.230342e+002
4.859311e+002, 1.253732e+002
4.864132e+002, 1.266766e+002
4.868953e+002, 1.261439e+002
4.873774e+002, 1.247692e+002
4.878596e+002, 1.242268e+002
4.883417e+002, 1.250453e+002
4.888238e+002, 1.252308e+002
4.893059e+002, 1.242110e+002
4.897880e+002, 1.232152e+002
4.902701e+002, 1.228790e+002
4.907523e+002, 1.230529e+002
4.912344e+002, 1.233374e+002
4.917165e+002, 1.235363e+002
4.921986e+002, 1.235625e+002
4.926807e+002, 1.230814e+002
4.931628e+002, 1.218092e+002
4.936450e+002, 1.208204e+002
4.941271e+002, 1.203999e+002
4.946092e+002, 1.203057e+002
4.950913e+002, 1.205252e+002
4.955734e+002, 1.209968e+002
4.960555e+002, 1.214043e+002
4.965377e+002, 1.213373e+002
4.970198e+002, 1.210533e+002
4.975019e+002, 1.214293e+002
4.979840e+002, 1.226896e+002
4.984661e+002, 1.236138e+002
4.989482e+002, 1.233208e+002
4.994304e+002, 1.223287e+002
4.999125e+002, 1.216638e+002
5.003946e+002, 1.214799e+002
5.008767e+002, 1.213676e+002
5.013588e+002, 1.210580e+002
5.018409e+002, 1.206987e+002
5.023231e+002, 1.206183e+002
5.028052e+002, 1.208883e+002
5.032873e+002, 1.211561e+002
5.037694e+002, 1.210965e+002
5.042515e+002, 1.206943e+002
5.047336e+002, 1.201786e+002
5.052158e+002, 1.193329e+002
5.056979e+002, 1.186280e+002
5.061800e+002, 1.182273e+002
5.066621e+002, 1.180749e+002
5.071442e+002, 1.181162e+002
5.076263e+002, 1.183233e+002
5.081085e+002, 1.186200e+002
5.085906e+002, 1.189126e+002
5.090727e+002, 1.192546e+002
5.095548e+002, 1.193970e+002
5.100369e+002, 1.192847e+002
5.105190e+002, 1.190249e+002
5.110012e+002, 1.184785e+002
5.114833e+002, 1.178363e+002
5.119654e+002, 1.174607e+002
5.124475e+002, 1.175692e+002
5.129296e+002, 1.179072e+002
5.134117e+002, 1.180756e+002
5.138939e+002, 1.180897e+002
5.143760e+002, 1.177896e+002
5.148581e+002, 1.167991e+002
5.153402e+002, 1.158270e+002
5.158223e+002, 1.154254e+002
5.163044e+002, 1.155600e+002
5.167866e+002, 1.159533e+002
5.172687e+002, 1.169214e+002
5.177508e+002, 1.178393e+002
5.182329e+002, 1.176060e+002
5.187150e+002, 1.163234e+002
5.191971e+002, 1.155411e+002
5.196793e+002, 1.161681e+002
5.201614e+002, 1.175206e+002
5.206435e+002, 1.180264e+002
5.211256e+002, 1.175267e+002
5.216077e+002, 1.168758e+002
5.220898e+002, 1.160869e+002
5.225720e+002, 1.152942e+002
5.230541e+002, 1.145935e+002
5.235362e+002, 1.140061e+002
5.240183e+002, 1.135089e+002
5.245004e+002, 1.130637e+002
5.249825e+002, 1.127298e+002
5.254647e+002, 1.128406e+002
5.259468e+002, 1.139811e+002
5.264289e+002, 1.147279e+002
5.269110e+002, 1.148177e+002
5.273931e+002, 1.145903e+002
5.278752e+002, 1.141300e+002
5.283574e+002, 1.135669e+002
5.288395e+002, 1.133124e+002
5.293216e+002, 1.140236e+002
5.298037e+002, 1.154066e+002
5.302858e+002, 1.154786e+002
5.307679e+002, 1.135800e+002
5.312501e+002, 1.119007e+002
5.317322e+002, 1.115491e+002
5.322143e+002, 1.118235e+002
5.326964e+002, 1.120966e+002
5.331785e+002, 1.122905e+002
5.336606e+002, 1.123859e+002
5.341428e+002, 1.124065e+002
5.346249e+002, 1.123134e+002
5.351070e+002, 1.119063e+002
5.355891e+002, 1.111231e+002
5.360712e+002, 1.105325e+002
5.365533e+002, 1.106561e+002
5.370355e+002, 1.113555e+002
5.375176e+002, 1.117197e+002
5.379997e+002, 1.116381e+002
5.384818e+002, 1.113934e+002
5.389639e+002, 1.109044e+002
5.394460e+002, 1.103694e+002
5.399282e+002, 1.100225e+002
5.404103e+002, 1.099159e+002
5.408924e+002, 1.100100e+002
5.413745e+002, 1.103477e+002
5.418566e+002, 1.109557e+002
5.423387e+002, 1.108687e+002
5.428209e+002, 1.089394e+002
5.433029e+002, 1.076881e+002
5.437850e+002, 1.081565e+002
5.442672e+002, 1.093016e+002
5.447493e+002, 1.099165e+002
5.452314e+002, 1.096888e+002
5.457135e+002, 1.092341e+002
5.461956e+002, 1.092047e+002
5.466777e+002, 1.095686e+002
5.471599e+002, 1.099868e+002
5.476420e+002, 1.105339e+002
5.481241e+002, 1.109375e+002
5.486062e+002, 1.109035e+002
5.490883e+002, 1.106379e+002
5.495704e+002, 1.104258e+002
5.500526e+002, 1.102140e+002
5.505347e+002, 1.102770e+002
5.510168e+002, 1.112186e+002
5.514989e+002, 1.124835e+002
5.519810e+002, 1.127419e+002
5.524631e+002, 1.116955e+002
5.529453e+002, 1.104420e+002
5.534274e+002, 1.100197e+002
5.539095e+002, 1.104333e+002
5.543916e+002, 1.106476e+002
5.548737e+002, 1.104217e+002
5.553558e+002, 1.103147e+002
5.558380e+002, 1.106937e+002
5.563201e+002, 1.111797e+002
5.568022e+002, 1.112308e+002
5.572843e+002, 1.107442e+002
5.577664e+002, 1.101383e+002
5.582485e+002, 1.098820e+002
5.587307e+002, 1.099847e+002
5.592128e+002, 1.102140e+002
5.596949e+002, 1.108588e+002
5.601770e+002, 1.111955e+002
5.606591e+002, 1.108328e+002
5.611412e+002, 1.101364e+002
5.616234e+002, 1.094796e+002
5.621055e+002, 1.089403e+002
5.625876e+002, 1.086388e+002
5.630697e+002, 1.088736e+002
5.635518e+002, 1.094435e+002
5.640339e+002, 1.095508e+002
5.645161e+002, 1.089795e+002
5.649982e+002, 1.086221e+002
5.654803e+002, 1.093932e+002
5.659624e+002, 1.109007e+002
5.664445e+002, 1.114141e+002
5.669266e+002, 1.102487e+002
5.674088e+002, 1.090745e+002
5.678909e+002, 1.085436e+002
5.683730e+002, 1.082785e+002
5.688551e+002, 1.076289e+002
5.693372e+002, 1.065758e+002
5.698193e+002, 1.058946e+002
5.703015e+002, 1.064296e+002
5.707836e+002, 1.080827e+002
5.712657e+002, 1.089024e+002
5.717478e+002, 1.080398e+002
5.722299e+002, 1.074631e+002
5.727120e+002, 1.077056e+002
5.731942e+002, 1.082106e+002
5.736763e+002, 1.084623e+002
5.741584e+002, 1.083816e+002
5.746405e+002, 1.082209e+002
5.751226e+002, 1.082515e+002
5.756047e+002, 1.083913e+002
5.760869e+002, 1.082231e+002
5.765690e+002, 1.076342e+002
5.770511e+002, 1.072161e+002
5.775332e+002, 1.073362e+002
5.780153e+002, 1.077522e+002
5.784974e+002, 1.080986e+002
5.789796e+002, 1.083976e+002
5.794617e+002, 1.084990e+002
5.799438e+002, 1.082417e+002
5.804259e+002, 1.078199e+002
5.809080e+002, 1.073907e+002
5.813901e+002, 1.069970e+002
5.818723e+002, 1.066807e+002
5.823544e+002, 1.064247e+002
5.828365e+002, 1.063543e+002
5.833186e+002, 1.069314e+002
5.838007e+002, 1.093630e+002
5.842828e+002, 1.105712e+002
5.847650e+002, 1.097002e+002
5.852471e+002, 1.083520e+002
5.857292e+002, 1.074321e+002
5.862113e+002, 1.069905e+002
5.866934e+002, 1.067339e+002
5.871755e+002, 1.064659e+002
5.876577e+002, 1.062931e+002
5.881398e+002, 1.065563e+002
5.886219e+002, 1.073488e+002
5.891040e+002, 1.079183e+002
5.895861e+002, 1.079034e+002
5.900682e+002, 1.078077e+002
5.905504e+002, 1.082355e+002
5.910325e+002, 1.090723e+002
5.915146e+002, 1.095520e+002
5.919967e+002, 1.091497e+002
5.924788e+002, 1.085442e+002
5.929609e+002, 1.083827e+002
5.934431e+002, 1.085028e+002
5.939252e+002, 1.084006e+002
5.944073e+002, 1.078931e+002
5.948894e+002, 1.070937e+002
5.953715e+002, 1.060465e+002
5.958536e+002, 1.044691e+002
5.963358e+002, 1.039760e+002
5.968179e+002, 1.054001e+002
5.973000e+002, 1.068149e+002
5.977821e+002, 1.077380e+002
5.982642e+002, 1.081599e+002
5.987463e+002, 1.079756e+002
5.992285e+002, 1.071796e+002
5.997106e+002, 1.063638e+002
6.001927e+002, 1.064093e+002
6.006748e+002, 1.072695e+002
6.011569e+002, 1.075305e+002
6.016390e+002, 1.067245e+002
6.021212e+002, 1.061889e+002
6.026033e+002, 1.070674e+002
6.030854e+002, 1.085927e+002
6.035675e+002, 1.096274e+002
6.040496e+002, 1.100064e+002
6.045317e+002, 1.100015e+002
6.050139e+002, 1.094905e+002
6.054960e+002, 1.087959e+002
6.059781e+002, 1.084264e+002
6.064602e+002, 1.084186e+002
6.069423e+002, 1.084456e+002
6.074244e+002, 1.082668e+002
6.079066e+002, 1.079431e+002
6.083887e+002, 1.077561e+002
6.088708e+002, 1.081422e+002
6.093529e+002, 1.080211e+002
6.098350e+002, 1.066322e+002
6.103171e+002, 1.053263e+002
6.107993e+002, 1.052181e+002
6.112814e+002, 1.061101e+002
6.117635e+002, 1.070308e+002
6.122456e+002, 1.074030e+002
6.127277e+002, 1.073698e+002
6.132098e+002, 1.071997e+002
6.136920e+002, 1.068853e+002
6.141741e+002, 1.064827e+002
6.146562e+002, 1.059154e+002
6.151383e+002, 1.053797e+002
6.156204e+002, 1.050549e+002
6.161025e+002, 1.049229e+002
6.165847e+002, 1.049346e+002
6.170668e+002, 1.053986e+002
6.175489e+002, 1.056883e+002
6.180310e+002, 1.051967e+002
6.185131e+002, 1.042762e+002
6.189952e+002, 1.035986e+002
6.194774e+002, 1.033708e+002
6.199595e+002, 1.035041e+002
6.204416e+002, 1.039703e+002
6.209237e+002, 1.048234e+002
6.214058e+002, 1.052005e+002
6.218879e+002, 1.043680e+002
6.223701e+002, 1.039648e+002
6.228522e+002, 1.049768e+002
6.233343e+002, 1.062087e+002
6.238164e+002, 1.062347e+002
6.242985e+002, 1.048638e+002
6.247806e+002, 1.034026e+002
6.252628e+002, 1.031080e+002
6.257448e+002, 1.035062e+002
6.262269e+002, 1.031934e+002
6.267090e+002, 1.020617e+002
6.271912e+002, 1.011877e+002
6.276733e+002, 1.010963e+002
6.281554e+002, 1.015097e+002
6.286375e+002, 1.019337e+002
6.291196e+002, 1.023406e+002
6.296017e+002, 1.028621e+002
6.300839e+002, 1.038559e+002
6.305660e+002, 1.046707e+002
6.310481e+002, 1.046127e+002
6.315302e+002, 1.040261e+002
6.320123e+002, 1.038431e+002
6.324944e+002, 1.044930e+002
6.329766e+002, 1.053989e+002
6.334587e+002, 1.054842e+002
6.339408e+002, 1.045043e+002
6.344229e+002, 1.039874e+002
6.349050e+002, 1.044104e+002
6.353871e+002, 1.047018e+002
6.358693e+002, 1.039880e+002
6.363514e+002, 1.029906e+002
6.368335e+002, 1.029313e+002
6.373156e+002, 1.042831e+002
6.377977e+002, 1.057339e+002
6.382798e+002, 1.063671e+002
6.387620e+002, 1.064464e+002
6.392441e+002, 1.065215e+002
6.397262e+002, 1.066415e+002
6.402083e+002, 1.063578e+002
6.406904e+002, 1.052507e+002
6.411725e+002, 1.036710e+002
6.416547e+002, 1.027906e+002
6.421368e+002, 1.033133e+002
6.426189e+002, 1.035242e+002
6.431010e+002, 1.032975e+002
6.435831e+002, 1.028734e+002
6.440652e+002, 1.023028e+002
6.445474e+002, 1.016673e+002
6.450295e+002, 1.010776e+002
6.455116e+002, 1.005756e+002
6.459937e+002, 1.002332e+002
6.464758e+002, 1.002789e+002
6.469579e+002, 1.007077e+002
6.474401e+002, 1.009127e+002
6.479222e+002, 1.008471e+002
6.484043e+002, 1.004463e+002
6.488864e+002, 9.935811e+001
6.493685e+002, 9.788658e+001
6.498506e+002, 9.702450e+001
6.503328e+002, 9.709761e+001
6.508149e+002, 9.739921e+001
6.512970e+002, 9.772421e+001
6.517791e+002, 9.809192e+001
6.522612e+002, 9.858699e+001
6.527433e+002, 9.917531e+001
6.532255e+002, 9.968346e+001
6.537076e+002, 1.000045e+002
6.541897e+002, 1.000991e+002
6.546718e+002, 9.971760e+001
6.551539e+002, 9.842152e+001
6.556360e+002, 9.771606e+001
6.561182e+002, 9.844563e+001
6.566003e+002, 9.927734e+001
6.570824e+002, 9.951641e+001
6.575645e+002, 9.924848e+001
6.580466e+002, 9.884334e+001
6.585287e+002, 9.839571e+001
6.590109e+002, 9.793111e+001
6.594930e+002, 9.730135e+001
6.599751e+002, 9.667879e+001
6.604572e+002, 9.670283e+001
6.609393e+002, 9.753288e+001
6.614214e+002, 9.828278e+001
6.619036e+002, 9.807693e+001
6.623857e+002, 9.705541e+001
6.628678e+002, 9.673525e+001
6.633499e+002, 9.782558e+001
6.638320e+002, 9.869071e+001
6.643141e+002, 9.908305e+001
6.647963e+002, 9.928783e+001
6.652784e+002, 9.950902e+001
6.657605e+002, 9.976305e+001
6.662426e+002, 9.998666e+001
6.667247e+002, 1.001544e+002
6.672068e+002, 1.002491e+002
6.676890e+002, 1.002351e+002
6.681711e+002, 1.001138e+002
6.686532e+002, 9.992056e+001
6.691353e+002, 9.964099e+001
6.696174e+002, 9.933804e+001
6.700995e+002, 9.896891e+001
6.705817e+002, 9.859048e+001
6.710638e+002, 9.865765e+001
6.715459e+002, 9.967754e+001
6.720280e+002, 1.005260e+002
6.725101e+002, 1.006526e+002
6.729922e+002, 1.005388e+002
6.734744e+002, 1.007904e+002
6.739565e+002, 1.014078e+002
6.744386e+002, 1.019118e+002
6.749207e+002, 1.019472e+002
6.754028e+002, 1.015833e+002
6.758849e+002, 1.009258e+002
6.763671e+002, 9.979859e+001
6.768492e+002, 9.916628e+001
6.773313e+002, 9.934525e+001
6.778134e+002, 9.994558e+001
6.782955e+002, 1.010604e+002
6.787776e+002, 1.023826e+002
6.792598e+002, 1.027328e+002
6.797419e+002, 1.009468e+002
6.802240e+002, 9.927645e+001
6.807061e+002, 9.924538e+001
6.811882e+002, 1.001099e+002
6.816703e+002, 1.007435e+002
6.821525e+002, 1.009406e+002
6.826346e+002, 1.010883e+002
6.831167e+002, 1.015539e+002
6.835988e+002, 1.021688e+002
6.840809e+002, 1.019574e+002
6.845630e+002, 1.000108e+002
6.850452e+002, 9.922981e+001
6.855273e+002, 1.009718e+002
6.860094e+002, 1.031377e+002
6.864915e+002, 1.048584e+002
6.869736e+002, 1.060112e+002
6.874557e+002, 1.064179e+002
6.879379e+002, 1.056215e+002
6.884200e+002, 1.047430e+002
6.889021e+002, 1.047992e+002
6.893842e+002, 1.055281e+002
6.898663e+002, 1.062914e+002
6.903484e+002, 1.069834e+002
6.908306e+002, 1.079651e+002
6.913127e+002, 1.095865e+002
6.917948e+002, 1.116908e+002
6.922769e+002, 1.134605e+002
6.927590e+002, 1.135657e+002
6.932411e+002, 1.155403e+002
6.937233e+002, 1.209530e+002
6.942054e+002, 1.268462e+002
6.946875e+002, 1.303919e+002
6.951696e+002, 1.330047e+002
6.956517e+002, 1.382522e+002
6.961339e+002, 1.475966e+002
6.966160e+002, 1.603942e+002
6.970981e+002, 1.760847e+002
6.975802e+002, 1.946470e+002
6.980623e+002, 2.175881e+002
6.985444e+002, 2.453825e+002
6.990266e+002, 2.721855e+002
6.995087e+002, 2.945666e+002
6.999908e+002, 3.123684e+002
7.004729e+002, 3.246064e+002
7.009550e+002, 3.289891e+002
7.014371e+002, 3.309603e+002
7.019193e+002, 3.281738e+002
7.024014e+002, 3.252192e+002
7.028835e+002, 3.242296e+002
7.033656e+002, 3.254010e+002
7.038477e+002, 3.286857e+002
7.043298e+002, 3.341386e+002
7.048120e+002, 3.408222e+002
7.052941e+002, 3.481194e+002
7.057762e+002, 3.557100e+002
7.062583e+002, 3.618274e+002
7.067404e+002, 3.660771e+002
7.072225e+002, 3.702608e+002
7.077046e+002, 3.750370e+002
7.081867e+002, 3.807477e+002
7.086688e+002, 3.877900e+002
7.091509e+002, 3.935121e+002
7.096331e+002, 4.071680e+002
7.101152e+002, 4.303680e+002
7.105973e+002, 4.608247e+002
7.110794e+002, 5.002958e+002
7.115615e+002, 5.451016e+002
7.120436e+002, 5.920353e+002
7.125258e+002, 6.398112e+002
7.130079e+002, 6.795342e+002
7.134900e+002, 7.059904e+002
7.139721e+002, 7.168372e+002
7.144542e+002, 6.963758e+002
7.149363e+002, 6.413346e+002
7.154185e+002, 5.723397e+002
7.159006e+002, 4.920497e+002
7.163827e+002, 4.104305e+002
7.168648e+002, 3.440269e+002
7.173469e+002, 2.937520e+002
7.178290e+002, 2.514495e+002
7.183112e+002, 2.175135e+002
7.187933e+002, 1.905334e+002
7.192754e+002, 1.719104e+002
7.197575e+002, 1.589470e+002
7.202396e+002, 1.482259e+002
7.207217e+002, 1.387701e+002
7.212039e+002, 1.311860e+002
7.216860e+002, 1.265712e+002
7.221681e+002, 1.241918e+002
7.226502e+002, 1.210181e+002
7.231323e+002, 1.168148e+002
7.236144e+002, 1.137394e+002
7.240966e+002, 1.130075e+002
7.245787e+002, 1.128857e+002
7.250608e+002, 1.111106e+002
7.255429e+002, 1.077212e+002
7.260250e+002, 1.054704e+002
7.265071e+002, 1.054316e+002
7.269893e+002, 1.054282e+002
7.274714e+002, 1.045191e+002
7.279535e+002, 1.033236e+002
7.284356e+002, 1.025229e+002
7.289177e+002, 1.022165e+002
7.293998e+002, 1.021961e+002
7.298820e+002, 1.023819e+002
7.303641e+002, 1.026211e+002
7.308462e+002, 1.025320e+002
7.313283e+002, 1.021030e+002
7.318104e+002, 1.016548e+002
7.322925e+002, 1.012389e+002
7.327747e+002, 1.008320e+002
7.332568e+002, 1.003727e+002
7.337389e+002, 9.990253e+001
7.342210e+002, 9.962257e+001
7.347031e+002, 9.972538e+001
7.351852e+002, 9.972012e+001
7.356674e+002, 9.934319e+001
7.361495e+002, 9.895113e+001
7.366316e+002, 9.881143e+001
7.371137e+002, 9.891995e+001
7.375958e+002, 9.924113e+001
7.380779e+002, 9.979034e+001
7.385601e+002, 1.002445e+002
7.390422e+002, 9.999450e+001
7.395243e+002, 9.913368e+001
7.400064e+002, 9.858081e+001
7.404885e+002, 9.845907e+001
7.409706e+002, 9.841977e+001
7.414528e+002, 9.827731e+001
7.419349e+002, 9.809138e+001
7.424170e+002, 9.800514e+001
7.428991e+002, 9.805917e+001
7.433812e+002, 9.806551e+001
7.438633e+002, 9.815609e+001
7.443455e+002, 9.804415e+001
7.448276e+002, 9.727445e+001
7.453097e+002, 9.631956e+001
7.457918e+002, 9.589297e+001
7.462739e+002, 9.618992e+001
7.467560e+002, 9.687632e+001
7.472382e+002, 9.798286e+001
7.477203e+002, 9.916833e+001
7.482024e+002, 9.910198e+001
7.486845e+002, 9.774345e+001
7.491666e+002, 9.688229e+001
7.496487e+002, 9.725901e+001
7.501309e+002, 9.799749e+001
7.506130e+002, 9.803745e+001
7.510951e+002, 9.732162e+001
7.515772e+002, 9.696894e+001
7.520593e+002, 9.720424e+001
7.525414e+002, 9.747649e+001
7.530236e+002, 9.750392e+001
7.535057e+002, 9.763252e+001
7.539878e+002, 9.846795e+001
7.544699e+002, 9.976887e+001
7.549520e+002, 1.004779e+002
7.554341e+002, 9.981947e+001
7.559163e+002, 9.866519e+001
7.563984e+002, 9.829681e+001
7.568805e+002, 9.851238e+001
7.573626e+002, 9.833269e+001
7.578447e+002, 9.756282e+001
7.583268e+002, 9.699245e+001
7.588090e+002, 9.723238e+001
7.592911e+002, 9.804323e+001
7.597732e+002, 9.863100e+001
7.602553e+002, 9.901220e+001
7.607374e+002, 9.913292e+001
7.612195e+002, 9.868349e+001
7.617017e+002, 9.832201e+001
7.621838e+002, 9.841895e+001
7.626659e+002, 9.878928e+001
7.631480e+002, 9.915170e+001
7.636301e+002, 9.943304e+001
7.641122e+002, 9.961083e+001
7.645944e+002, 9.961723e+001
7.650765e+002, 9.953613e+001
7.655586e+002, 9.955917e+001
7.660407e+002, 9.964157e+001
7.665228e+002, 9.943726e+001
7.670049e+002, 9.878633e+001
7.674871e+002, 9.811842e+001
7.679692e+002, 9.798103e+001
7.684513e+002, 9.838124e+001
7.689334e+002, 9.916306e+001
7.694155e+002, 1.008366e+002
7.698976e+002, 1.020550e+002
7.703798e+002, 1.025530e+002
7.708619e+002, 1.024872e+002
7.713440e+002, 1.017055e+002
7.718261e+002, 1.003831e+002
7.723082e+002, 9.928490e+001
7.727903e+002, 9.864021e+001
7.732725e+002, 9.834722e+001
7.737546e+002, 9.851932e+001
7.742367e+002, 9.892216e+001
7.747188e+002, 9.917699e+001
7.752009e+002, 9.925524e+001
7.756830e+002, 9.937713e+001
7.761652e+002, 9.969759e+001
7.766473e+002, 1.001133e+002
7.771294e+002, 1.003519e+002
7.776115e+002, 1.003700e+002
7.780936e+002, 1.005364e+002
7.785757e+002, 1.010286e+002
7.790579e+002, 1.013822e+002
7.795400e+002, 1.011627e+002
7.800221e+002, 1.007242e+002
7.805042e+002, 1.007464e+002
7.809863e+002, 1.014156e+002
7.814684e+002, 1.017047e+002
7.819506e+002, 1.010817e+002
7.824327e+002, 1.002881e+002
7.829148e+002, 9.980415e+001
7.833969e+002, 9.947543e+001
7.838790e+002, 9.885246e+001
7.843611e+002, 9.790198e+001
7.848433e+002, 9.731303e+001
7.853254e+002, 9.795291e+001
7.858075e+002, 9.929394e+001
7.862896e+002, 9.960661e+001
7.867717e+002, 9.887104e+001
7.872538e+002, 9.841656e+001
7.877360e+002, 9.859543e+001
7.882181e+002, 9.907613e+001
7.887002e+002, 9.962130e+001
7.891823e+002, 1.002132e+002
7.896644e+002, 1.006817e+002
7.901465e+002, 1.013345e+002
7.906286e+002, 1.014309e+002
7.911107e+002, 1.002688e+002
7.915928e+002, 9.913313e+001
7.920750e+002, 9.897166e+001
7.925571e+002, 9.946566e+001
7.930392e+002, 9.981602e+001
7.935213e+002, 9.972685e+001
7.940034e+002, 9.954166e+001
7.944855e+002, 9.968228e+001
7.949677e+002, 9.988247e+001
7.954498e+002, 9.946692e+001
7.959319e+002, 9.853059e+001
7.964140e+002, 9.793520e+001
7.968961e+002, 9.804006e+001
7.973782e+002, 9.858733e+001
7.978604e+002, 9.929829e+001
7.983425e+002, 1.002004e+002
7.988246e+002, 1.006089e+002
7.993067e+002, 1.001193e+002
7.997888e+002, 9.986852e+001
8.002709e+002, 1.003862e+002
8.007531e+002, 1.010474e+002
8.012352e+002, 1.014916e+002
8.017173e+002, 1.016872e+002
8.021994e+002, 1.015566e+002
8.026815e+002, 1.007238e+002
8.031636e+002, 1.000817e+002
8.036458e+002, 1.004419e+002
8.041279e+002, 1.010317e+002
8.046100e+002, 1.007015e+002
8.050921e+002, 9.966623e+001
8.055742e+002, 9.908244e+001
8.060563e+002, 9.959000e+001
8.065385e+002, 1.006974e+002
8.070206e+002, 1.017725e+002
8.075027e+002, 1.027947e+002
8.079848e+002, 1.034499e+002
8.084669e+002, 1.037403e+002
8.089490e+002, 1.035219e+002
8.094312e+002, 1.024443e+002
8.099133e+002, 1.012198e+002
8.103954e+002, 1.010277e+002
8.108775e+002, 1.021121e+002
8.113596e+002, 1.026258e+002
8.118417e+002, 1.020493e+002
8.123239e+002, 1.015718e+002
8.128060e+002, 1.015945e+002
8.132881e+002, 1.018036e+002
8.137702e+002, 1.018858e+002
8.142523e+002, 1.018501e+002
8.147344e+002, 1.019304e+002
8.152166e+002, 1.023356e+002
8.156987e+002, 1.027038e+002
8.161808e+002, 1.025209e+002
8.166629e+002, 1.020477e+002
8.171450e+002, 1.018496e+002
8.176271e+002, 1.019869e+002
8.181093e+002, 1.023283e+002
8.185914e+002, 1.028257e+002
8.190735e+002, 1.033248e+002
8.195556e+002, 1.035532e+002
8.200377e+002, 1.035225e+002
8.205198e+002, 1.030481e+002
8.210020e+002, 1.015858e+002
8.214841e+002, 1.007095e+002
8.219662e+002, 1.014790e+002
8.224483e+002, 1.027991e+002
8.229304e+002, 1.034943e+002
8.234125e+002, 1.035672e+002
8.238947e+002, 1.035425e+002
8.243768e+002, 1.033931e+002
8.248589e+002, 1.033220e+002
8.253410e+002, 1.035161e+002
8.258231e+002, 1.037721e+002
8.263052e+002, 1.039651e+002
8.267874e+002, 1.040051e+002
8.272695e+002, 1.036547e+002
8.277516e+002, 1.027044e+002
8.282337e+002, 1.016659e+002
8.287158e+002, 1.013533e+002
8.291979e+002, 1.015862e+002
8.296801e+002, 1.015963e+002
8.301622e+002, 1.013151e+002
8.306443e+002, 1.010173e+002
8.311264e+002, 1.008215e+002
8.316085e+002, 1.007354e+002
8.320906e+002, 1.007955e+002
8.325728e+002, 1.010411e+002
8.330549e+002, 1.011342e+002
8.335370e+002, 1.008736e+002
8.340191e+002, 1.007497e+002
8.345012e+002, 1.011443e+002
8.349833e+002, 1.014937e+002
8.354655e+002, 1.012135e+002
8.359476e+002, 1.004265e+002
8.364297e+002, 9.983005e+001
8.369118e+002, 9.955653e+001
8.373939e+002, 9.963758e+001
8.378760e+002, 1.002619e+002
8.383582e+002, 1.011375e+002
8.388403e+002, 1.020526e+002
8.393224e+002, 1.028991e+002
8.398045e+002, 1.035286e+002
8.402866e+002, 1.038720e+002
8.407687e+002, 1.038938e+002
8.412509e+002, 1.033435e+002
8.417330e+002, 1.023771e+002
8.422151e+002, 1.019801e+002
8.426972e+002, 1.022061e+002
8.431793e+002, 1.024087e+002
8.436614e+002, 1.023781e+002
8.441436e+002, 1.021683e+002
8.446257e+002, 1.017869e+002
8.451078e+002, 1.012418e+002
8.455899e+002, 1.009464e+002
8.460720e+002, 1.010609e+002
8.465541e+002, 1.011960e+002
8.470363e+002, 1.014424e+002
8.475184e+002, 1.015796e+002
8.480005e+002, 1.014781e+002
8.484826e+002, 1.011597e+002
8.489647e+002, 1.006038e+002
8.494468e+002, 9.967616e+001
8.499290e+002, 9.909413e+001
8.504111e+002, 9.956247e+001
8.508932e+002, 1.003095e+002
8.513753e+002, 1.006627e+002
8.518574e+002, 1.006232e+002
8.523395e+002, 1.002430e+002
8.528217e+002, 9.957974e+001
8.533038e+002, 9.888569e+001
8.537859e+002, 9.839989e+001
8.542680e+002, 9.809025e+001
8.547501e+002, 9.784118e+001
8.552322e+002, 9.765228e+001
8.557144e+002, 9.774944e+001
8.561965e+002, 9.827493e+001
8.566786e+002, 9.865349e+001
8.571607e+002, 9.840618e+001
8.576428e+002, 9.772041e+001
8.581249e+002, 9.718584e+001
8.586071e+002, 9.679141e+001
8.590892e+002, 9.657907e+001
8.595713e+002, 9.683069e+001
8.600534e+002, 9.692919e+001
8.605355e+002, 9.640292e+001
8.610176e+002, 9.574844e+001
8.614998e+002, 9.572668e+001
8.619819e+002, 9.636510e+001
8.624640e+002, 9.660978e+001
8.629461e+002, 9.558923e+001
8.634282e+002, 9.451879e+001
8.639103e+002, 9.422218e+001
8.643925e+002, 9.439732e+001
8.648746e+002, 9.478503e+001
8.653567e+002, 9.522727e+001
8.658388e+002, 9.536819e+001
8.663209e+002, 9.497643e+001
8.668030e+002, 9.438872e+001
8.672852e+002, 9.421114e+001
8.677673e+002, 9.432008e+001
8.682494e+002, 9.392739e+001
8.687315e+002, 9.296680e+001
8.692136e+002, 9.228578e+001
8.696957e+002, 9.225568e+001
8.701779e+002, 9.260292e+001
8.706600e+002, 9.306644e+001
8.711421e+002, 9.365444e+001
8.716242e+002, 9.350403e+001
8.721063e+002, 9.202077e+001
8.725884e+002, 9.084538e+001
8.730705e+002, 9.033743e+001
8.735526e+002, 9.013725e+001
8.740347e+002, 9.026138e+001
8.745168e+002, 9.050418e+001
8.749990e+002, 9.032323e+001
8.754811e+002, 8.940948e+001
8.759632e+002, 8.876025e+001
8.764453e+002, 8.896469e+001
8.769274e+002, 8.932774e+001
8.774095e+002, 8.934304e+001
8.778917e+002, 8.914941e+001
8.783738e+002, 8.906046e+001
8.788559e+002, 8.913293e+001
8.793380e+002, 8.914680e+001
8.798201e+002, 8.888457e+001
8.803022e+002, 8.852021e+001
8.807844e+002, 8.836716e+001
8.812665e+002, 8.836037e+001
8.817486e+002, 8.821386e+001
8.822307e+002, 8.789677e+001
8.827128e+002, 8.772142e+001
8.831949e+002, 8.790673e+001
8.836771e+002, 8.826389e+001
8.841592e+002, 8.839581e+001
8.846413e+002, 8.827393e+001
8.851234e+002, 8.814113e+001
8.856055e+002, 8.800296e+001
8.860876e+002, 8.783914e+001
8.865698e+002, 8.765005e+001
8.870519e+002, 8.742419e+001
8.875340e+002, 8.719297e+001
8.880161e+002, 8.694165e+001
8.884982e+002, 8.644227e+001
8.889803e+002, 8.520135e+001
8.894625e+002, 8.440060e+001
8.899446e+002, 8.444307e+001
8.904267e+002, 8.479649e+001
8.909088e+002, 8.535323e+001
8.913909e+002, 8.587007e+001
8.918730e+002, 8.584040e+001
8.923552e+002, 8.509653e+001
8.928373e+002, 8.453609e+001
8.933194e+002, 8.507887e+001
8.938015e+002, 8.579946e+001
8.942836e+002, 8.558878e+001
8.947657e+002, 8.481957e+001
8.952479e+002, 8.433952e+001
8.957300e+002, 8.430211e+001
8.962121e+002, 8.427526e+001
8.966942e+002, 8.391290e+001
8.971763e+002, 8.345731e+001
8.976584e+002, 8.350777e+001
8.981406e+002, 8.398643e+001
8.986227e+002, 8.401436e+001
8.991048e+002, 8.346078e+001
8.995869e+002, 8.315351e+001
9.000690e+002, 8.357571e+001
9.005511e+002, 8.416964e+001
9.010333e+002, 8.406268e+001
9.015154e+002, 8.321012e+001
9.019975e+002, 8.265827e+001
9.024796e+002, 8.247486e+001
9.029617e+002, 8.247079e+001
9.034438e+002, 8.294146e+001
9.039260e+002, 8.325581e+001
9.044081e+002, 8.263890e+001
9.048902e+002, 8.157659e+001
9.053723e+002, 8.147166e+001
9.058544e+002, 8.308882e+001
9.063365e+002, 8.389250e+001
9.068187e+002, 8.248189e+001
9.073008e+002, 8.091665e+001
9.077829e+002, 8.047816e+001
9.082650e+002, 8.063029e+001
9.087471e+002, 8.053210e+001
9.092292e+002, 8.007610e+001
9.097114e+002, 7.971941e+001
9.101935e+002, 7.967876e+001
9.106756e+002, 7.993486e+001
9.111577e+002, 8.091657e+001
9.116398e+002, 8.199681e+001
9.121219e+002, 8.172144e+001
9.126041e+002, 8.027074e+001
9.130862e+002, 7.919340e+001
9.135683e+002, 7.922350e+001
9.140504e+002, 7.960164e+001
9.145325e+002, 7.916097e+001
9.150146e+002, 7.815630e+001
9.154968e+002, 7.818047e+001
9.159789e+002, 7.927345e+001
9.164610e+002, 8.026631e+001
9.169431e+002, 8.087500e+001
9.174252e+002, 8.132137e+001
9.179073e+002, 8.180653e+001
9.183895e+002, 8.226648e+001
9.188716e+002, 8.248281e+001
9.193537e+002, 8.249852e+001
9.198358e+002, 8.214011e+001
9.203179e+002, 8.108318e+001
9.208000e+002, 8.011655e+001
9.212822e+002, 7.947620e+001
9.217643e+002, 7.912947e+001
9.222464e+002, 7.923709e+001
9.227285e+002, 7.975626e+001
9.232106e+002, 7.980909e+001
9.236927e+002, 7.853355e+001
9.241749e+002, 7.778029e+001
9.246570e+002, 7.868230e+001
9.251391e+002, 7.975118e+001
9.256212e+002, 7.973341e+001
9.261033e+002, 7.897482e+001
9.265854e+002, 7.834986e+001
9.270676e+002, 7.811381e+001
9.275497e+002, 7.803719e+001
9.280318e+002, 7.808349e+001
9.285139e+002, 7.811766e+001
9.289960e+002, 7.787431e+001
9.294781e+002, 7.756137e+001
9.299603e+002, 7.768707e+001
9.304424e+002, 7.823559e+001
9.309245e+002, 7.861024e+001
9.314066e+002, 7.840166e+001
9.318887e+002, 7.799948e+001
9.323708e+002, 7.805528e+001
9.328530e+002, 7.844984e+001
9.333351e+002, 7.878770e+001
9.338172e+002, 7.902528e+001
9.342993e+002, 7.866345e+001
9.347814e+002, 7.743314e+001
9.352635e+002, 7.648780e+001
9.357457e+002, 7.724850e+001
9.362278e+002, 7.929739e+001
9.367099e+002, 8.003127e+001
9.371920e+002, 7.902365e+001
9.376741e+002, 7.862139e+001
9.381563e+002, 7.938979e+001
9.386384e+002, 8.011861e+001
9.391205e+002, 8.014177e+001
9.396026e+002, 7.972615e+001
9.400847e+002, 7.937550e+001
9.405668e+002, 7.917134e+001
9.410490e+002, 7.855537e+001
9.415311e+002, 7.675386e+001
9.420132e+002, 7.561173e+001
9.424953e+002, 7.575145e+001
9.429774e+002, 7.641598e+001
9.434595e+002, 7.734557e+001
9.439417e+002, 7.831205e+001
9.444238e+002, 7.882045e+001
9.449059e+002, 7.870547e+001
9.453880e+002, 7.840418e+001
9.458701e+002, 7.796410e+001
9.463522e+002, 7.750144e+001
9.468344e+002, 7.701480e+001
9.473165e+002, 7.660102e+001
9.477986e+002, 7.635941e+001
9.482807e+002, 7.631695e+001
9.487628e+002, 7.654038e+001
9.492449e+002, 7.724810e+001
9.497271e+002, 7.775790e+001
9.502092e+002, 7.700082e+001
9.506913e+002, 7.586651e+001
9.511734e+002, 7.593115e+001
9.516555e+002, 7.691025e+001
9.521376e+002, 7.754287e+001
9.526198e+002, 7.739849e+001
9.531019e+002, 7.688212e+001
9.535840e+002, 7.632376e+001
9.540661e+002, 7.573941e+001
9.545482e+002, 7.512949e+001
9.550303e+002, 7.451530e+001
9.555124e+002, 7.399296e+001
9.559945e+002, 7.357536e+001
9.564766e+002, 7.348682e+001
9.569587e+002, 7.387358e+001
9.574409e+002, 7.450959e+001
9.579230e+002, 7.506731e+001
9.584051e+002, 7.554774e+001
9.588872e+002, 7.578026e+001
9.593693e+002, 7.569946e+001
9.598514e+002, 7.566945e+001
9.603336e+002, 7.582790e+001
9.608157e+002, 7.592159e+001
9.612978e+002, 7.577971e+001
9.617799e+002, 7.541659e+001
9.622620e+002, 7.479606e+001
9.627441e+002, 7.354265e+001
9.632263e+002, 7.320568e+001
9.637084e+002, 7.464735e+001
9.641905e+002, 7.583977e+001
9.646726e+002, 7.620909e+001
9.651547e+002, 7.614807e+001
9.656368e+002, 7.576876e+001
9.661190e+002, 7.521640e+001
9.666011e+002, 7.510143e+001
9.670832e+002, 7.576997e+001
9.675653e+002, 7.632341e+001
9.680474e+002, 7.648733e+001
9.685295e+002, 7.657686e+001
9.690117e+002, 7.686347e+001
9.694938e+002, 7.713245e+001
9.699759e+002, 7.701610e+001
9.704580e+002, 7.652818e+001
9.709401e+002, 7.613213e+001
9.714222e+002, 7.618389e+001
9.719044e+002, 7.613163e+001
9.723865e+002, 7.533058e+001
9.728686e+002, 7.448209e+001
9.733507e+002, 7.440715e+001
9.738328e+002, 7.490591e+001
9.743149e+002, 7.549575e+001
9.747971e+002, 7.598562e+001
9.752792e+002, 7.614853e+001
9.757613e+002, 7.545155e+001
9.762434e+002, 7.471828e+001
9.767255e+002, 7.527638e+001
9.772076e+002, 7.656590e+001
9.776898e+002, 7.751917e+001
9.781719e+002, 7.796976e+001
9.786540e+002, 7.797798e+001
9.791361e+002, 7.757432e+001
9.796182e+002, 7.676692e+001
9.801003e+002, 7.525320e+001
9.805825e+002, 7.345125e+001
9.810646e+002, 7.289357e+001
9.815467e+002, 7.346526e+001
9.820288e+002, 7.430514e+001
9.825109e+002, 7.523933e+001
9.829930e+002, 7.624768e+001
9.834752e+002, 7.735506e+001
9.839573e+002, 7.832973e+001
9.844394e+002, 7.869615e+001
9.849215e+002, 7.845110e+001
9.854036e+002, 7.803997e+001
9.858857e+002, 7.738992e+001
9.863679e+002, 7.703477e+001
9.868500e+002, 7.716557e+001
9.873321e+002, 7.744275e+001
9.878142e+002, 7.754914e+001
9.882963e+002, 7.763082e+001
9.887784e+002, 7.820461e+001
9.892606e+002, 7.952775e+001
9.897427e+002, 8.039292e+001
9.902248e+002, 8.050146e+001
9.907069e+002, 8.073416e+001
9.911890e+002, 8.147868e+001
9.916711e+002, 8.233250e+001
9.921533e+002, 8.288270e+001
9.926354e+002, 8.319408e+001
9.931175e+002, 8.365958e+001
9.935996e+002, 8.464482e+001
9.940817e+002, 8.512450e+001
9.945638e+002, 8.461961e+001
9.950460e+002, 8.416624e+001
9.955281e+002, 8.420090e+001
9.960102e+002, 8.445887e+001
9.964923e+002, 8.464632e+001
9.969744e+002, 8.477029e+001
9.974565e+002, 8.500359e+001
9.979387e+002, 8.531494e+001
9.984208e+002, 8.584253e+001
9.989029e+002, 8.677250e+001
9.993850e+002, 8.776850e+001
9.998671e+002, 8.871608e+001
1.000349e+003, 8.953728e+001
1.000831e+003, 9.018789e+001
1.001313e+003, 9.063967e+001
1.001796e+003, 9.072478e+001
1.002278e+003, 8.984853e+001
1.002760e+003, 8.938934e+001
1.003242e+003, 9.053117e+001
1.003724e+003, 9.205212e+001
1.004206e+003, 9.285328e+001
1.004688e+003, 9.312381e+001
1.005170e+003, 9.342419e+001
1.005653e+003, 9.389860e+001
1.006135e+003, 9.439467e+001
1.006617e+003, 9.495486e+001
1.007099e+003, 9.531349e+001
1.007581e+003, 9.489531e+001
1.008063e+003, 9.432217e+001
1.008545e+003, 9.461489e+001
1.009027e+003, 9.556441e+001
1.009509e+003, 9.620545e+001
1.009992e+003, 9.624430e+001
1.010474e+003, 9.652589e+001
1.010956e+003, 9.795683e+001
1.011438e+003, 9.987162e+001
1.011920e+003, 1.016415e+002
1.012402e+003, 1.029965e+002
1.012884e+003, 1.028893e+002
1.013366e+003, 1.016112e+002
1.013849e+003, 1.009879e+002
1.014331e+003, 1.018073e+002
1.014813e+003, 1.031502e+002
1.015295e+003, 1.042124e+002
1.015777e+003, 1.048562e+002
1.016259e+003, 1.044211e+002
1.016741e+003, 1.032054e+002
1.017223e+003, 1.025839e+002
1.017705e+003, 1.027554e+002
1.018188e+003, 1.035321e+002
1.018670e+003, 1.048573e+002
1.019152e+003, 1.060372e+002
1.019634e+003, 1.059593e+002
1.020116e+003, 1.049535e+002
1.020598e+003, 1.047743e+002
1.021080e+003, 1.053752e+002
1.021562e+003, 1.054678e+002
1.022044e+003, 1.048168e+002
1.022527e+003, 1.037762e+002
1.023009e+003, 1.024618e+002
1.023491e+003, 1.013045e+002
1.023973e+003, 1.010695e+002
1.024455e+003, 1.016932e+002
1.024937e+003, 1.021089e+002
1.025419e+003, 1.022933e+002
1.025901e+003, 1.025243e+002
1.026384e+003, 1.029497e+002
1.026866e+003, 1.028910e+002
1.027348e+003, 1.016926e+002
1.027830e+003, 1.002811e+002
1.028312e+003, 1.005474e+002
1.028794e+003, 1.026081e+002
1.029276e+003, 1.033767e+002
1.029758e+003, 1.024344e+002
1.030240e+003, 1.016690e+002
1.030723e+003, 1.014201e+002
1.031205e+003, 1.014545e+002
1.031687e+003, 1.017102e+002
1.032169e+003, 1.020542e+002
1.032651e+003, 1.022175e+002
1.033133e+003, 1.021851e+002
1.033615e+003, 1.021229e+002
1.034097e+003, 1.022427e+002
1.034579e+003, 1.017821e+002
1.035062e+003, 9.982120e+001
1.035544e+003, 9.846682e+001
1.036026e+003, 9.973095e+001
1.036508e+003, 1.021766e+002
1.036990e+003, 1.025962e+002
1.037472e+003, 1.004067e+002
1.037954e+003, 9.947939e+001
1.038436e+003, 1.008118e+002
1.038919e+003, 1.018078e+002
1.039401e+003, 1.015566e+002
1.039883e+003, 1.013560e+002
1.040365e+003, 1.024042e+002
1.040847e+003, 1.039752e+002
1.041329e+003, 1.044106e+002
1.041811e+003, 1.033993e+002
1.042293e+003, 1.029249e+002
1.042776e+003, 1.033044e+002
1.043258e+003, 1.038305e+002
1.043740e+003, 1.047016e+002
1.044222e+003, 1.053552e+002
1.044704e+003, 1.051218e+002
1.045186e+003, 1.045153e+002
1.045668e+003, 1.046885e+002
1.046150e+003, 1.059181e+002
1.046632e+003, 1.064430e+002
1.047115e+003, 1.052932e+002
1.047597e+003, 1.045012e+002
1.048079e+003, 1.046275e+002
1.048561e+003, 1.052083e+002
1.049043e+003, 1.063029e+002
1.049525e+003, 1.074747e+002
1.050007e+003, 1.078741e+002
1.050489e+003, 1.073255e+002
1.050971e+003, 1.069698e+002
1.051454e+003, 1.070887e+002
1.051936e+003, 1.073429e+002
1.052418e+003, 1.077369e+002
1.052900e+003, 1.081303e+002
1.053382e+003, 1.083113e+002
1.053864e+003, 1.084642e+002
1.054346e+003, 1.088502e+002
1.054828e+003, 1.095022e+002
1.055311e+003, 1.106675e+002
1.055793e+003, 1.132906e+002
1.056275e+003, 1.152460e+002
1.056757e+003, 1.151351e+002
1.057239e+003, 1.147459e+002
1.057721e+003, 1.155219e+002
1.058203e+003, 1.169322e+002
1.058685e+003, 1.177203e+002
1.059167e+003, 1.177269e+002
1.059650e+003, 1.185226e+002
1.060132e+003, 1.215572e+002
1.060614e+003, 1.242018e+002
1.061096e+003, 1.245604e+002
1.061578e+003, 1.250423e+002
1.062060e+003, 1.274853e+002
1.062542e+003, 1.313532e+002
1.063024e+003, 1.355287e+002
1.063506e+003, 1.398543e+002
1.063989e+003, 1.449090e+002
1.064471e+003, 1.502676e+002
1.064953e+003, 1.573328e+002
1.065435e+003, 1.663768e+002
1.065917e+003, 1.776466e+002
1.066399e+003, 1.933262e+002
1.066881e+003, 2.103602e+002
1.067363e+003, 2.258149e+002
1.067846e+003, 2.383249e+002
1.068328e+003, 2.433346e+002
1.068810e+003, 2.365996e+002
1.069292e+003, 2.265235e+002
1.069774e+003, 2.125760e+002
1.070256e+003, 2.010458e+002
1.070738e+003, 1.961954e+002
1.071220e+003, 1.969944e+002
1.071703e+003, 2.007797e+002
1.072185e+003, 2.078633e+002
1.072667e+003, 2.217667e+002
1.073149e+003, 2.428783e+002
1.073631e+003, 2.729383e+002
1.074113e+003, 3.115650e+002
1.074595e+003, 3.607787e+002
1.075077e+003, 4.275351e+002
1.075559e+003, 5.022639e+002
1.076042e+003, 5.777099e+002
1.076524e+003, 6.496678e+002
1.077006e+003, 7.075334e+002
1.077488e+003, 7.436526e+002
1.077970e+003, 7.791569e+002
1.078452e+003, 8.129423e+002
1.078934e+003, 8.617526e+002
1.079416e+003, 9.324478e+002
1.079898e+003, 1.027943e+003
1.080380e+003, 1.148276e+003
1.080863e+003, 1.296253e+003
1.081345e+003, 1.475951e+003
1.081827e+003, 1.683346e+003
1.082309e+003, 1.947408e+003
1.082791e+003, 2.245530e+003
1.083273e+003, 2.647332e+003
1.083755e+003, 3.127798e+003
1.084237e+003, 3.785106e+003
1.084720e+003, 4.666378e+003
1.085202e+003, 5.820857e+003
1.085684e+003, 7.423146e+003
1.086166e+003, 9.565580e+003
1.086648e+003, 1.163906e+004
1.087130e+003, 1.406159e+004
1.087612e+003, 1.550936e+004
1.088094e+003, 1.511471e+004
1.088577e+003, 1.360272e+004
1.089059e+003, 1.115607e+004
1.089541e+003, 8.308604e+003
1.090023e+003, 5.928131e+003
1.090505e+003, 4.175945e+003
1.090987e+003, 2.863829e+003
1.091469e+003, 2.052035e+003
1.091951e+003, 1.476335e+003
1.092433e+003, 1.101765e+003
1.092916e+003, 8.420101e+002
1.093398e+003, 6.651896e+002
1.093880e+003, 5.452453e+002
1.094362e+003, 4.565564e+002
1.094844e+003, 3.935341e+002
1.095326e+003, 3.441895e+002
1.095808e+003, 3.093914e+002
1.096290e+003, 2.813039e+002
1.096772e+003, 2.592676e+002
1.097255e+003, 2.411418e+002
1.097737e+003, 2.265687e+002
1.098219e+003, 2.142241e+002
1.098701e+003, 2.023750e+002
1.099183e+003, 1.910793e+002
1.099665e+003, 1.817410e+002
1.100147e+003, 1.754269e+002
1.100629e+003, 1.695221e+002
1.101112e+003, 1.633351e+002
1.101594e+003, 1.574704e+002
1.102076e+003, 1.517775e+002
1.102558e+003, 1.468654e+002
1.103040e+003, 1.436609e+002
1.103522e+003, 1.418238e+002
1.104004e+003, 1.400398e+002
1.104486e+003, 1.382308e+002
1.104969e+003, 1.360875e+002
1.105451e+003, 1.329389e+002
1.105933e+003, 1.302589e+002
1.106415e+003, 1.287914e+002
1.106897e+003, 1.277693e+002
1.107379e+003, 1.266865e+002
1.107861e+003, 1.255245e+002
1.108343e+003, 1.241874e+002
1.108825e+003, 1.224885e+002
1.109307e+003, 1.216477e+002
1.109790e+003, 1.231372e+002
1.110272e+003, 1.235441e+002
1.110754e+003, 1.211864e+002
1.111236e+003, 1.186190e+002
1.111718e+003, 1.171411e+002
1.112200e+003, 1.165420e+002
1.112682e+003, 1.167318e+002
1.113164e+003, 1.177817e+002
1.113647e+003, 1.179944e+002
1.114129e+003, 1.170229e+002
1.114611e+003, 1.157695e+002
1.115093e+003, 1.135710e+002
1.115575e+003, 1.121002e+002
1.116057e+003, 1.124714e+002
1.116539e+003, 1.135558e+002
1.117021e+003, 1.141795e+002
1.117504e+003, 1.143607e+002
1.117986e+003, 1.142355e+002
1.118468e+003, 1.138117e+002
1.118950e+003, 1.130365e+002
1.119432e+003, 1.116641e+002
1.119914e+003, 1.104332e+002
1.120396e+003, 1.095962e+002
1.120878e+003, 1.089326e+002
1.121360e+003, 1.082545e+002
1.121843e+003, 1.075957e+002
1.122325e+003, 1.070330e+002
1.122807e+003, 1.065183e+002
1.123289e+003, 1.064182e+002
1.123771e+003, 1.068183e+002
1.124253e+003, 1.074066e+002
1.124735e+003, 1.082801e+002
1.125217e+003, 1.088270e+002
1.125699e+003, 1.086222e+002
1.126182e+003, 1.079343e+002
1.126664e+003, 1.071854e+002
1.127146e+003, 1.063831e+002
1.127628e+003, 1.055598e+002
1.128110e+003, 1.046338e+002
1.128592e+003, 1.045664e+002
1.129074e+003, 1.055964e+002
1.129556e+003, 1.066279e+002
1.130039e+003, 1.071622e+002
1.130521e+003, 1.075224e+002
1.131003e+003, 1.081370e+002
1.131485e+003, 1.087776e+002
1.131967e+003, 1.083702e+002
1.132449e+003, 1.070228e+002
1.132931e+003, 1.069429e+002
1.133413e+003, 1.082042e+002
1.133896e+003, 1.085952e+002
1.134378e+003, 1.074422e+002
1.134860e+003, 1.063177e+002
1.135342e+003, 1.064429e+002
1.135824e+003, 1.073135e+002
1.136306e+003, 1.082885e+002
1.136788e+003, 1.091953e+002
1.137270e+003, 1.091896e+002
1.137752e+003, 1.084622e+002
1.138234e+003, 1.079033e+002
1.138717e+003, 1.076955e+002
1.139199e+003, 1.077603e+002
1.139681e+003, 1.080574e+002
1.140163e+003, 1.085789e+002
1.140645e+003, 1.095245e+002
1.141127e+003, 1.104989e+002
1.141609e+003, 1.107867e+002
1.142091e+003, 1.105429e+002
1.142574e+003, 1.098092e+002
1.143056e+003, 1.088829e+002
1.143538e+003, 1.087135e+002
1.144020e+003, 1.095035e+002
1.144502e+003, 1.102310e+002
1.144984e+003, 1.100017e+002
1.145466e+003, 1.098329e+002
1.145948e+003, 1.112044e+002
1.146431e+003, 1.129177e+002
1.146913e+003, 1.134615e+002
1.147395e+003, 1.131834e+002
1.147877e+003, 1.125570e+002
1.148359e+003, 1.119364e+002
1.148841e+003, 1.122775e+002
1.149323e+003, 1.142150e+002
1.149805e+003, 1.156952e+002
1.150287e+003, 1.147610e+002
1.150770e+003, 1.136600e+002
1.151252e+003, 1.139372e+002
1.151734e+003, 1.149700e+002
1.152216e+003, 1.164171e+002
1.152698e+003, 1.178984e+002
1.153180e+003, 1.188212e+002
1.153662e+003, 1.190614e+002
1.154144e+003, 1.188799e+002
1.154626e+003, 1.174879e+002
1.155109e+003, 1.169365e+002
1.155591e+003, 1.187861e+002
1.156073e+003, 1.207071e+002
1.156555e+003, 1.211316e+002
1.157037e+003, 1.208551e+002
1.157519e+003, 1.210010e+002
1.158001e+003, 1.215498e+002
1.158483e+003, 1.217673e+002
1.158966e+003, 1.209405e+002
1.159448e+003, 1.211677e+002
1.159930e+003, 1.241343e+002
1.160412e+003, 1.260091e+002
1.160894e+003, 1.245691e+002
1.161376e+003, 1.230879e+002
1.161858e+003, 1.243564e+002
1.162340e+003, 1.270671e+002
1.162822e+003, 1.283469e+002
1.163305e+003, 1.280584e+002
1.163787e+003, 1.277893e+002
1.164269e+003, 1.273321e+002
1.164751e+003, 1.275649e+002
1.165233e+003, 1.288085e+002
1.165715e+003, 1.302015e+002
1.166197e+003, 1.314930e+002
1.166679e+003, 1.322956e+002
1.167161e+003, 1.319267e+002
1.167644e+003, 1.309223e+002
1.168126e+003, 1.318199e+002
1.168608e+003, 1.347238e+002
1.169090e+003, 1.360026e+002
1.169572e+003, 1.354394e+002
1.170054e+003, 1.356098e+002
1.170536e+003, 1.372219e+002
1.171018e+003, 1.392492e+002
1.171500e+003, 1.410410e+002
1.171983e+003, 1.424615e+002
1.172465e+003, 1.431281e+002
1.172947e+003, 1.433124e+002
1.173429e+003, 1.438903e+002
1.173911e+003, 1.448040e+002
1.174393e+003, 1.458096e+002
1.174875e+003, 1.469108e+002
1.175357e+003, 1.485332e+002
1.175840e+003, 1.507505e+002
1.176322e+003, 1.522864e+002
1.176804e+003, 1.517962e+002
1.177286e+003, 1.507997e+002
1.177768e+003, 1.510379e+002
1.178250e+003, 1.520831e+002
1.178732e+003, 1.534573e+002
1.179214e+003, 1.550847e+002
1.179697e+003, 1.571246e+002
1.180179e+003, 1.594031e+002
1.180661e+003, 1.611227e+002
1.181143e+003, 1.618862e+002
1.181625e+003, 1.626311e+002
1.182107e+003, 1.640637e+002
1.182589e+003, 1.654914e+002
1.183071e+003, 1.662379e+002
1.183553e+003, 1.669566e+002
1.184036e+003, 1.685246e+002
1.184518e+003, 1.704379e+002
1.185000e+003, 1.714862e+002
1.185482e+003, 1.715838e+002
1.185964e+003, 1.724123e+002
1.186446e+003, 1.750780e+002
1.186928e+003, 1.773296e+002
1.187410e+003, 1.783286e+002
1.187892e+003, 1.794283e+002
1.188375e+003, 1.813145e+002
1.188857e+003, 1.834510e+002
1.189339e+003, 1.854300e+002
1.189821e+003, 1.872331e+002
1.190303e+003, 1.887456e+002
1.190785e+003, 1.899315e+002
1.191267e+003, 1.909484e+002
1.191749e+003, 1.913742e+002
1.192232e+003, 1.929227e+002
1.192714e+003, 1.962610e+002
1.193196e+003, 1.995967e+002
1.193678e+003, 2.020907e+002
1.194160e+003, 2.039800e+002
1.194642e+003, 2.055032e+002
1.195124e+003, 2.066956e+002
1.195606e+003, 2.075137e+002
1.196089e+003, 2.079953e+002
1.196571e+003, 2.093197e+002
1.197053e+003, 2.115004e+002
1.197535e+003, 2.138565e+002
1.198017e+003, 2.162010e+002
1.198499e+003, 2.185719e+002
1.198981e+003, 2.209847e+002
1.199463e+003, 2.235177e+002
1.199945e+003, 2.260698e+002
1.200427e+003, 2.289468e+002
1.200910e+003, 2.334027e+002
1.201392e+003, 2.384422e+002
1.201874e+003, 2.417049e+002
1.202356e+003, 2.435075e+002
1.202838e+003, 2.455473e+002
1.203320e+003, 2.482595e+002
1.203802e+003, 2.507844e+002
1.204284e+003, 2.523931e+002
1.204767e+003, 2.543780e+002
1.205249e+003, 2.582960e+002
1.205731e+003, 2.623566e+002
1.206213e+003, 2.643669e+002
1.206695e+003, 2.661526e+002
1.207177e+003, 2.704300e+002
1.207659e+003, 2.763761e+002
1.208141e+003, 2.812905e+002
1.208624e+003, 2.845836e+002
1.209106e+003, 2.877098e+002
1.209588e+003, 2.904023e+002
1.210070e+003, 2.938493e+002
1.210552e+003, 2.990251e+002
1.211034e+003, 3.041927e+002
1.211516e+003, 3.086794e+002
1.211998e+003, 3.125587e+002
1.212480e+003, 3.154726e+002
1.212963e+003, 3.179196e+002
1.213445e+003, 3.218631e+002
1.213927e+003, 3.277169e+002
1.214409e+003, 3.328485e+002
1.214891e+003, 3.368619e+002
1.215373e+003, 3.418498e+002
1.215855e+003, 3.484362e+002
1.216337e+003, 3.549844e+002
1.216819e+003, 3.606927e+002
1.217302e+003, 3.654219e+002
1.217784e+003, 3.687310e+002
1.218266e+003, 3.713600e+002
1.218748e+003, 3.758907e+002
1.219230e+003, 3.818163e+002
1.219712e+003, 3.863339e+002
1.220194e+003, 3.896963e+002
1.220676e+003, 3.939831e+002
1.221159e+003, 3.995915e+002
1.221641e+003, 4.057146e+002
1.222123e+003, 4.119755e+002
1.222605e+003, 4.177622e+002
1.223087e+003, 4.225843e+002
1.223569e+003, 4.264917e+002
1.224051e+003, 4.286305e+002
1.224533e+003, 4.305866e+002
1.225016e+003, 4.346289e+002
1.225498e+003, 4.400310e+002
1.225980e+003, 4.451203e+002
1.226462e+003, 4.495964e+002
1.226944e+003, 4.541314e+002
1.227426e+003, 4.590504e+002
1.227908e+003, 4.636319e+002
1.228390e+003, 4.675172e+002
1.228872e+003, 4.711168e+002
1.229354e+003, 4.752812e+002
1.229837e+003, 4.785558e+002
1.230319e+003, 4.787681e+002
1.230801e+003, 4.778400e+002
1.231283e+003, 4.794603e+002
1.231765e+003, 4.835302e+002
1.232247e+003, 4.863168e+002
1.232729e+003, 4.875628e+002
1.233211e+003, 4.882065e+002
1.233694e+003, 4.879727e+002
1.234176e+003, 4.884707e+002
1.234658e+003, 4.905001e+002
1.235140e+003, 4.917950e+002
1.235622e+003, 4.904902e+002
1.236104e+003, 4.884798e+002
1.236586e+003, 4.894077e+002
1.237068e+003, 4.922069e+002
1.237551e+003, 4.921203e+002
1.238033e+003, 4.898150e+002
1.238515e+003, 4.883860e+002
1.238997e+003, 4.878286e+002
1.239479e+003, 4.861560e+002
1.239961e+003, 4.829953e+002
1.240443e+003, 4.802589e+002
1.240925e+003, 4.792719e+002
1.241407e+003, 4.784965e+002
1.241890e+003, 4.764239e+002
1.242372e+003, 4.738806e+002
1.242854e+003, 4.709208e+002
1.243336e+003, 4.685464e+002
1.243818e+003, 4.692839e+002
1.244300e+003, 4.710614e+002
1.244782e+003, 4.688046e+002
1.245264e+003, 4.620679e+002
1.245746e+003, 4.568425e+002
1.246229e+003, 4.556618e+002
1.246711e+003, 4.542903e+002
1.247193e+003, 4.524787e+002
1.247675e+003, 4.497033e+002
1.248157e+003, 4.448913e+002
1.248639e+003, 4.401116e+002
1.249121e+003, 4.364710e+002
1.249603e+003, 4.341673e+002
1.250085e+003, 4.339423e+002
1.250568e+003, 4.355717e+002
1.251050e+003, 4.350514e+002
1.251532e+003, 4.322090e+002
1.252014e+003, 4.286925e+002
1.252496e+003, 4.245413e+002
1.252978e+003, 4.222855e+002
1.253460e+003, 4.226679e+002
1.253942e+003, 4.223367e+002
1.254425e+003, 4.189125e+002
1.254907e+003, 4.145152e+002
1.255389e+003, 4.119076e+002
1.255871e+003, 4.105381e+002
1.256353e+003, 4.098570e+002
1.256835e+003, 4.093965e+002
1.257317e+003, 4.081124e+002
1.257799e+003, 4.063380e+002
1.258281e+003, 4.051991e+002
1.258764e+003, 4.047836e+002
1.259246e+003, 4.039456e+002
1.259728e+003, 4.019488e+002
1.260210e+003, 4.004697e+002
1.260692e+003, 4.010636e+002
1.261174e+003, 4.013389e+002
1.261656e+003, 3.997842e+002
1.262138e+003, 3.978574e+002
1.262620e+003, 3.962418e+002
1.263103e+003, 3.952678e+002
1.263585e+003, 3.957083e+002
1.264067e+003, 3.972997e+002
1.264549e+003, 3.978273e+002
1.265031e+003, 3.968691e+002
1.265513e+003, 3.962091e+002
1.265995e+003, 3.957846e+002
1.266477e+003, 3.962469e+002
1.266960e+003, 3.980140e+002
1.267442e+003, 3.984927e+002
1.267924e+003, 3.960597e+002
1.268406e+003, 3.933308e+002
1.268888e+003, 3.935333e+002
1.269370e+003, 3.954618e+002
1.269852e+003, 3.964203e+002
1.270334e+003, 3.968239e+002
1.270817e+003, 3.979606e+002
1.271299e+003, 3.994131e+002
1.271781e+003, 3.993885e+002
1.272263e+003, 3.982672e+002
1.272745e+003, 3.989549e+002
1.273227e+003, 4.025676e+002
1.273709e+003, 4.053810e+002
1.274191e+003, 4.040856e+002
1.274673e+003, 4.029691e+002
1.275156e+003, 4.045534e+002
1.275638e+003, 4.066103e+002
1.276120e+003, 4.075775e+002
1.276602e+003, 4.082702e+002
1.277084e+003, 4.099403e+002
1.277566e+003, 4.121515e+002
1.278048e+003, 4.132612e+002
1.278530e+003, 4.130831e+002
1.279012e+003, 4.134468e+002
1.279495e+003, 4.141579e+002
1.279977e+003, 4.164088e+002
1.280459e+003, 4.209311e+002
1.280941e+003, 4.236195e+002
1.281423e+003, 4.228081e+002
1.281905e+003, 4.214266e+002
1.282387e+003, 4.218071e+002
1.282869e+003, 4.229187e+002
1.283352e+003, 4.228791e+002
1.283834e+003, 4.222758e+002
1.284316e+003, 4.223347e+002
1.284798e+003, 4.230769e+002
##END=



