##NAMES=Calcite
##RRUFFID=R040170
##IDEAL CHEMISTRY=CaCO_3_
##LOCALITY=Peramea, Lerida Province, Catalonia, Spain
##OWNER=RRUFF
##SOURCE=University of Arizona Mineral Museum
##DESCRIPTION=Pink fragment
##STATUS=The identification of this mineral has been confirmed by X-ray diffraction and chemical analysis
##URL=rruff.info/R040170
##MEASURED CHEMISTRY=(Ca_0.99_Mg_0.01_)CO_3_; trace amounts of Co
81.00372, 12.39582
81.48584, 13.48353
81.96796, 12.84841
82.45007, 10.46792
82.93219, 8.702193
83.41431, 9.620930
83.89642, 11.58420
84.37854, 12.36536
84.86066, 10.92147
85.34277, 8.643986
85.82489, 7.693870
86.30701, 8.493509
86.78912, 9.479541
87.27124, 9.849007
87.75336, 9.969585
88.23547, 10.31934
88.71759, 11.21363
89.19971, 12.48801
89.68182, 13.56889
90.16394, 14.81373
90.64606, 15.28366
91.12817, 14.11849
91.61029, 12.04974
92.09241, 10.35795
92.57452, 10.07526
93.05664, 11.21914
93.53876, 12.11137
94.02087, 12.80673
94.50299, 13.18003
94.98511, 13.27396
95.46722, 13.02084
95.94934, 12.17737
96.43146, 10.23230
96.91357, 6.436654
97.39569, 5.140488
97.87781, 8.330366
98.35992, 11.88143
98.84204, 13.62171
99.32416, 13.32712
99.80627, 12.15656
100.2884, 11.54889
100.7705, 11.96489
101.2526, 11.73083
101.7347, 10.05420
102.2169, 8.224360
102.6990, 7.180891
103.1811, 7.170563
103.6632, 8.104068
104.1453, 10.10050
104.6274, 14.10245
105.1096, 16.73618
105.5917, 16.74813
106.0738, 15.45236
106.5559, 14.56747
107.0380, 14.64551
107.5201, 15.32565
108.0023, 16.03089
108.4844, 16.81662
108.9665, 17.47096
109.4486, 17.50924
109.9307, 17.31687
110.4128, 18.22637
110.8950, 21.51617
111.3771, 25.08503
111.8592, 25.17630
112.3413, 20.69189
112.8234, 16.34304
113.3055, 15.46017
113.7877, 17.68703
114.2698, 19.78204
114.7519, 20.45326
115.2340, 20.43486
115.7161, 20.41861
116.1982, 20.18036
116.6804, 20.74225
117.1625, 24.04351
117.6446, 30.66712
118.1267, 35.43407
118.6088, 34.22756
119.0909, 31.11768
119.5731, 29.15883
120.0552, 29.15870
120.5373, 30.58197
121.0194, 32.75671
121.5015, 35.82773
121.9836, 39.27597
122.4658, 43.59562
122.9479, 47.93761
123.4300, 51.27118
123.9121, 53.01661
124.3942, 54.05449
124.8763, 56.55246
125.3585, 61.44490
125.8406, 66.32870
126.3227, 70.96967
126.8048, 75.19768
127.2869, 78.57323
127.7690, 80.65166
128.2512, 82.14405
128.7333, 85.89443
129.2154, 93.38997
129.6975, 101.5863
130.1796, 110.6736
130.6617, 119.9155
131.1439, 128.3112
131.6260, 135.2366
132.1081, 140.8308
132.5902, 146.1689
133.0723, 149.3555
133.5544, 154.2963
134.0366, 162.9897
134.5187, 173.9054
135.0008, 184.2942
135.4829, 192.1223
135.9650, 197.5738
136.4471, 204.6960
136.9293, 213.2283
137.4114, 223.4556
137.8935, 236.2753
138.3756, 250.9643
138.8577, 266.0954
139.3398, 280.6229
139.8220, 294.5591
140.3041, 308.8744
140.7862, 323.2205
141.2683, 338.1528
141.7504, 353.5184
142.2325, 369.5004
142.7147, 386.5211
143.1968, 404.8989
143.6789, 424.6872
144.1610, 446.6576
144.6431, 471.4024
145.1252, 497.4343
145.6074, 523.3893
146.0895, 549.5177
146.5716, 578.0502
147.0537, 612.0694
147.5358, 651.3687
148.0179, 684.1783
148.5001, 701.5518
148.9822, 719.0800
149.4643, 750.6762
149.9464, 796.6083
150.4285, 842.9033
150.9106, 879.4959
151.3928, 906.0052
151.8749, 928.0756
152.3570, 944.4200
152.8391, 957.3513
153.3212, 971.2870
153.8033, 986.7565
154.2855, 994.9315
154.7676, 986.4488
155.2497, 963.7557
155.7318, 937.7330
156.2139, 907.7682
156.6960, 876.3443
157.1782, 846.5454
157.6603, 818.8343
158.1424, 790.8840
158.6245, 760.1730
159.1066, 727.8673
159.5887, 696.8901
160.0709, 665.5455
160.5530, 636.9140
161.0351, 617.7513
161.5172, 610.7639
161.9993, 603.9490
162.4814, 585.3456
162.9636, 560.8459
163.4457, 541.1069
163.9278, 532.4077
164.4099, 530.1117
164.8920, 525.9518
165.3741, 519.1824
165.8563, 512.6735
166.3384, 509.3600
166.8205, 507.4438
167.3026, 503.5876
167.7847, 493.4225
168.2668, 481.3994
168.7490, 478.6631
169.2311, 489.8452
169.7132, 499.8090
170.1953, 500.4094
170.6774, 494.7479
171.1595, 486.8776
171.6417, 476.6529
172.1238, 466.2261
172.6059, 461.9287
173.0880, 467.3335
173.5701, 471.7452
174.0522, 468.5369
174.5344, 461.7671
175.0165, 457.5367
175.4986, 459.9352
175.9807, 466.0793
176.4628, 467.7294
176.9449, 462.5485
177.4271, 456.9812
177.9092, 453.0537
178.3913, 450.4164
178.8734, 448.6819
179.3555, 447.7348
179.8376, 447.4762
180.3197, 447.5754
180.8019, 447.9077
181.2840, 448.9012
181.7661, 452.1293
182.2482, 455.5795
182.7303, 456.5471
183.2124, 453.4132
183.6946, 447.4727
184.1767, 441.9564
184.6588, 435.1872
185.1409, 432.2307
185.6230, 436.5705
186.1051, 443.9964
186.5873, 449.6766
187.0694, 451.2455
187.5515, 450.1374
188.0336, 450.2114
188.5157, 452.3395
188.9978, 454.1827
189.4800, 455.0957
189.9621, 455.5619
190.4442, 456.2086
190.9263, 457.3533
191.4084, 458.5167
191.8905, 458.3171
192.3727, 455.2293
192.8548, 453.5511
193.3369, 454.4287
193.8190, 456.5945
194.3011, 459.1850
194.7832, 461.8829
195.2654, 464.1470
195.7475, 464.5311
196.2296, 461.2674
196.7117, 459.4740
197.1938, 459.7445
197.6759, 461.5051
198.1581, 464.8134
198.6402, 469.6148
199.1223, 474.6686
199.6044, 477.6216
200.0865, 477.6697
200.5686, 477.0393
201.0508, 476.7670
201.5329, 475.5666
202.0150, 471.2876
202.4971, 463.6771
202.9792, 456.0370
203.4613, 454.1400
203.9435, 461.3033
204.4256, 466.8867
204.9077, 470.5883
205.3898, 472.7151
205.8719, 472.7006
206.3540, 470.7711
206.8362, 468.6281
207.3183, 469.0933
207.8004, 474.4093
208.2825, 476.4762
208.7646, 470.9977
209.2467, 465.9183
209.7289, 467.0565
210.2110, 474.3554
210.6931, 482.6141
211.1752, 485.2544
211.6573, 479.9081
212.1395, 477.6209
212.6216, 480.8318
213.1037, 484.7867
213.5858, 487.2556
214.0679, 488.2072
214.5500, 488.9923
215.0322, 491.4381
215.5143, 496.3680
215.9964, 497.2725
216.4785, 489.0564
216.9606, 481.5950
217.4427, 478.8911
217.9249, 480.3074
218.4070, 482.9436
218.8891, 484.4347
219.3712, 484.7344
219.8533, 485.5692
220.3354, 487.9010
220.8176, 489.8483
221.2997, 490.1775
221.7818, 489.7290
222.2639, 490.4835
222.7460, 494.2497
223.2281, 500.4753
223.7103, 502.8728
224.1924, 497.8575
224.6745, 492.5898
225.1566, 486.3208
225.6387, 481.1469
226.1208, 480.3233
226.6030, 486.0823
227.0851, 496.7964
227.5672, 505.6987
228.0493, 512.4149
228.5314, 517.5814
229.0135, 522.2799
229.4957, 525.2640
229.9778, 524.1890
230.4599, 517.8320
230.9420, 509.0813
231.4241, 504.9926
231.9062, 506.9702
232.3884, 511.8179
232.8705, 521.5663
233.3526, 532.1774
233.8347, 540.2670
234.3168, 544.6890
234.7989, 546.7244
235.2811, 548.3840
235.7632, 549.5221
236.2453, 550.6272
236.7274, 551.9900
237.2095, 553.1822
237.6916, 553.3692
238.1738, 552.6319
238.6559, 552.4942
239.1380, 555.1067
239.6201, 561.2665
240.1022, 567.2862
240.5843, 572.2412
241.0665, 577.6783
241.5486, 585.3206
242.0307, 594.6466
242.5128, 603.0028
242.9949, 607.2178
243.4770, 606.8025
243.9592, 608.1783
244.4413, 611.5377
244.9234, 616.7863
245.4055, 625.6840
245.8876, 636.6738
246.3697, 645.8190
246.8519, 649.2004
247.3340, 647.8778
247.8161, 651.5316
248.2982, 664.8261
248.7803, 677.0410
249.2624, 682.1817
249.7446, 684.2574
250.2267, 690.1338
250.7088, 704.5173
251.1909, 724.0204
251.6730, 738.6068
252.1551, 745.8304
252.6373, 753.0877
253.1194, 762.7140
253.6015, 773.5964
254.0836, 784.0076
254.5657, 792.8332
255.0478, 802.8403
255.5300, 820.0767
256.0121, 847.2941
256.4942, 871.0847
256.9763, 882.4622
257.4584, 891.8582
257.9406, 907.2368
258.4227, 930.3467
258.9048, 956.5488
259.3869, 980.7437
259.8690, 1002.769
260.3511, 1027.744
260.8333, 1058.228
261.3154, 1091.073
261.7975, 1124.775
262.2796, 1159.056
262.7617, 1192.836
263.2438, 1225.087
263.7260, 1256.185
264.2081, 1287.008
264.6902, 1314.280
265.1723, 1346.945
265.6544, 1393.120
266.1365, 1449.876
266.6187, 1507.295
267.1008, 1561.362
267.5829, 1612.854
268.0650, 1662.532
268.5471, 1709.238
269.0292, 1757.732
269.5114, 1811.638
269.9935, 1869.304
270.4756, 1929.330
270.9577, 1994.471
271.4398, 2059.245
271.9219, 2115.628
272.4041, 2163.423
272.8862, 2213.037
273.3683, 2267.871
273.8504, 2329.138
274.3325, 2397.843
274.8146, 2477.034
275.2968, 2558.522
275.7789, 2643.735
276.2610, 2728.627
276.7431, 2794.724
277.2252, 2829.422
277.7073, 2850.383
278.1895, 2890.996
278.6716, 2957.748
279.1537, 3010.830
279.6358, 3032.286
280.1179, 3031.427
280.6000, 3026.242
281.0822, 3022.066
281.5643, 3005.370
282.0464, 2955.104
282.5285, 2868.924
283.0106, 2782.761
283.4927, 2703.310
283.9749, 2623.832
284.4570, 2538.893
284.9391, 2447.781
285.4212, 2349.585
285.9033, 2242.029
286.3854, 2125.634
286.8676, 2015.829
287.3497, 1908.587
287.8318, 1810.902
288.3139, 1729.346
288.7960, 1660.165
289.2781, 1595.048
289.7603, 1529.848
290.2424, 1464.356
290.7245, 1398.899
291.2066, 1324.264
291.6887, 1260.763
292.1708, 1218.871
292.6530, 1187.171
293.1351, 1150.404
293.6172, 1103.340
294.0993, 1053.539
294.5814, 1014.783
295.0635, 992.9935
295.5457, 971.9080
296.0278, 951.7518
296.5099, 932.2040
296.9920, 914.2310
297.4741, 897.2198
297.9562, 878.6830
298.4384, 855.5366
298.9205, 826.8068
299.4026, 799.9114
299.8847, 771.3970
300.3668, 748.0695
300.8489, 732.7041
301.3311, 724.3791
301.8131, 722.3883
302.2953, 728.0063
302.7774, 737.6846
303.2595, 731.8051
303.7416, 693.0518
304.2237, 664.2979
304.7058, 661.1692
305.1880, 668.4553
305.6701, 669.6227
306.1522, 658.4542
306.6343, 641.4872
307.1164, 629.5327
307.5985, 624.2352
308.0807, 617.9945
308.5628, 608.4276
309.0449, 598.2556
309.5270, 588.0998
310.0091, 578.3749
310.4912, 571.2843
310.9734, 571.1251
311.4555, 576.8745
311.9376, 576.5637
312.4197, 565.5145
312.9018, 553.7964
313.3839, 547.6966
313.8661, 545.8512
314.3482, 544.9012
314.8303, 543.7158
315.3124, 542.3313
315.7945, 541.0572
316.2766, 540.0865
316.7588, 538.0598
317.2409, 533.2609
317.7230, 527.2615
318.2051, 522.6855
318.6872, 520.1901
319.1693, 518.5828
319.6515, 518.2039
320.1336, 518.3741
320.6157, 515.6029
321.0978, 507.7952
321.5799, 498.0038
322.0620, 490.7079
322.5442, 485.7775
323.0263, 482.8172
323.5084, 483.2463
323.9905, 484.9261
324.4726, 484.7012
324.9547, 482.0532
325.4369, 479.5089
325.9190, 479.8785
326.4011, 483.5533
326.8832, 484.7033
327.3653, 481.8607
327.8474, 477.9624
328.3296, 473.8595
328.8117, 469.9801
329.2938, 467.2392
329.7759, 466.2310
330.2580, 466.6355
330.7401, 467.0390
331.2223, 468.6865
331.7044, 468.7755
332.1865, 466.5653
332.6686, 462.8586
333.1507, 457.8803
333.6328, 451.8999
334.1150, 446.2926
334.5971, 443.2301
335.0792, 443.7763
335.5613, 444.0907
336.0434, 444.8897
336.5255, 444.8718
337.0077, 442.8825
337.4898, 439.3645
337.9719, 435.5692
338.4540, 431.9737
338.9361, 428.9219
339.4182, 430.0411
339.9004, 440.0838
340.3825, 447.1833
340.8646, 447.7653
341.3467, 443.8699
341.8288, 437.1642
342.3109, 427.6313
342.7931, 418.5015
343.2752, 415.2735
343.7573, 418.8037
344.2394, 422.2074
344.7215, 424.4450
345.2036, 425.4494
345.6858, 424.1377
346.1679, 420.6307
346.6500, 418.9982
347.1321, 425.0030
347.6142, 434.8037
348.0963, 436.5876
348.5785, 427.0849
349.0606, 416.1225
349.5427, 411.3417
350.0248, 411.2850
350.5069, 412.0827
350.9890, 414.0950
351.4712, 415.9091
351.9533, 417.1004
352.4354, 417.3670
352.9175, 414.3728
353.3996, 405.4774
353.8817, 394.4159
354.3639, 391.8696
354.8460, 401.2558
355.3281, 409.8323
355.8102, 415.4605
356.2923, 418.5020
356.7744, 418.6305
357.2566, 415.9601
357.7387, 412.2495
358.2208, 409.2652
358.7029, 406.8567
359.1850, 406.2578
359.6671, 409.2746
360.1493, 412.0302
360.6314, 412.5872
361.1135, 411.5266
361.5956, 410.4065
362.0777, 410.1725
362.5598, 410.4441
363.0420, 409.7307
363.5241, 406.7812
364.0062, 404.8895
364.4883, 405.6519
364.9704, 406.7604
365.4525, 405.4707
365.9347, 401.5419
366.4168, 398.2308
366.8989, 400.1254
367.3810, 407.6964
367.8631, 412.9679
368.3452, 416.2695
368.8274, 416.1601
369.3095, 408.9172
369.7916, 397.9634
370.2737, 391.6596
370.7558, 396.3637
371.2379, 405.9276
371.7201, 409.9515
372.2022, 407.9949
372.6843, 404.5455
373.1664, 399.8368
373.6485, 395.7493
374.1306, 394.9429
374.6128, 397.9652
375.0949, 402.5865
375.5770, 409.8159
376.0591, 417.4523
376.5412, 420.5630
377.0233, 417.8539
377.5055, 412.8596
377.9876, 409.0775
378.4697, 406.6941
378.9518, 403.1648
379.4339, 397.3039
379.9160, 391.3411
380.3982, 385.4976
380.8803, 380.5846
381.3624, 378.6548
381.8445, 380.9211
382.3266, 386.5174
382.8087, 393.0074
383.2909, 405.1532
383.7730, 411.5135
384.2551, 409.4205
384.7372, 403.1396
385.2193, 393.8145
385.7014, 382.9635
386.1836, 375.0761
386.6657, 376.1909
387.1478, 387.0472
387.6299, 392.4666
388.1120, 387.7842
388.5941, 382.7953
389.0763, 380.3047
389.5584, 379.7056
390.0405, 379.7764
390.5226, 379.8659
391.0047, 380.7762
391.4868, 384.9519
391.9690, 393.0617
392.4511, 397.7379
392.9332, 395.0078
393.4153, 389.7674
393.8974, 386.5416
394.3795, 385.3900
394.8617, 384.8925
395.3438, 384.5411
395.8259, 384.3360
396.3080, 384.3624
396.7901, 384.6469
397.2722, 384.8825
397.7544, 385.1283
398.2365, 385.1087
398.7186, 383.7376
399.2007, 378.4063
399.6828, 374.6702
400.1649, 375.7546
400.6471, 379.6016
401.1292, 383.1461
401.6113, 385.4010
402.0934, 386.2328
402.5755, 385.1254
403.0576, 380.4576
403.5398, 378.9886
404.0219, 383.6924
404.5040, 388.3609
404.9861, 389.5577
405.4682, 388.0159
405.9503, 386.2481
406.4325, 385.8876
406.9146, 386.3832
407.3967, 385.4096
407.8788, 380.8909
408.3609, 379.2779
408.8430, 385.4629
409.3252, 392.3976
409.8073, 394.0776
410.2894, 389.7633
410.7715, 383.9518
411.2536, 378.9633
411.7357, 375.3324
412.2179, 377.2145
412.7000, 387.6129
413.1821, 396.9207
413.6642, 396.2406
414.1463, 389.8482
414.6284, 386.0490
415.1106, 388.0938
415.5927, 391.0167
416.0748, 390.8939
416.5569, 388.6456
417.0390, 387.5050
417.5211, 388.9266
418.0033, 390.4671
418.4854, 387.8723
418.9675, 378.7584
419.4496, 373.9091
419.9317, 377.0930
420.4138, 381.8933
420.8960, 383.9804
421.3781, 383.7541
421.8602, 384.1270
422.3423, 387.2488
422.8244, 391.8528
423.3065, 392.1390
423.7887, 382.4088
424.2708, 377.3613
424.7529, 382.2643
425.2350, 389.4789
425.7171, 393.1031
426.1992, 392.1906
426.6814, 389.1438
427.1635, 385.1805
427.6456, 380.5374
428.1277, 378.6670
428.6098, 380.7078
429.0919, 383.3668
429.5741, 385.4813
430.0562, 386.9825
430.5383, 387.4973
431.0204, 386.3811
431.5025, 385.4711
431.9846, 387.2255
432.4668, 390.6118
432.9489, 391.5190
433.4310, 388.3947
433.9131, 384.2107
434.3952, 382.1046
434.8773, 382.1760
435.3595, 384.2594
435.8416, 393.1503
436.3237, 399.7336
436.8058, 395.1970
437.2879, 383.6924
437.7701, 376.3971
438.2522, 379.2298
438.7343, 388.4626
439.2164, 394.7097
439.6985, 396.5881
440.1806, 397.7458
440.6628, 398.5927
441.1449, 398.6117
441.6270, 397.2040
442.1091, 394.5902
442.5912, 391.5219
443.0733, 388.1659
443.5555, 384.9636
444.0376, 383.8444
444.5197, 385.4484
445.0018, 387.3542
445.4839, 389.6078
445.9660, 391.1964
446.4482, 390.4982
446.9303, 386.9449
447.4124, 384.0819
447.8945, 385.4560
448.3766, 388.7892
448.8587, 388.7178
449.3409, 384.2962
449.8230, 379.7807
450.3051, 378.3578
450.7872, 379.8900
451.2693, 381.9777
451.7514, 386.7883
452.2336, 389.6120
452.7157, 386.5968
453.1978, 381.4875
453.6799, 380.4678
454.1620, 385.0087
454.6441, 390.0840
455.1263, 388.6533
455.6084, 378.9859
456.0905, 372.6469
456.5726, 372.1019
457.0547, 372.5945
457.5368, 373.2008
458.0190, 373.8072
458.5011, 374.6091
458.9832, 375.8374
459.4653, 376.5623
459.9474, 374.4000
460.4295, 369.2707
460.9117, 367.6516
461.3938, 373.0584
461.8759, 379.2147
462.3580, 380.2560
462.8401, 377.0231
463.3222, 373.6480
463.8044, 370.2998
464.2865, 368.0072
464.7686, 367.8467
465.2507, 369.5942
465.7328, 373.0791
466.2149, 378.8332
466.6971, 384.0684
467.1792, 382.7921
467.6613, 368.5533
468.1434, 361.5995
468.6255, 367.6519
469.1076, 375.8604
469.5898, 379.9849
470.0719, 380.2953
470.5540, 379.6575
471.0361, 379.8807
471.5182, 380.4000
472.0003, 379.2872
472.4825, 375.6078
472.9646, 372.8702
473.4467, 373.1351
473.9288, 373.6472
474.4109, 371.9950
474.8930, 368.4186
475.3752, 366.0473
475.8573, 368.2565
476.3394, 372.1845
476.8215, 371.9002
477.3036, 367.2312
477.7857, 364.6897
478.2679, 368.1797
478.7500, 375.3160
479.2321, 380.5818
479.7142, 384.1824
480.1963, 385.8272
480.6784, 385.5497
481.1606, 383.2299
481.6427, 377.4177
482.1248, 368.9514
482.6069, 361.3809
483.0890, 357.2357
483.5711, 356.2845
484.0533, 357.2555
484.5354, 360.9592
485.0175, 365.3816
485.4996, 372.7560
485.9817, 378.8974
486.4638, 379.0601
486.9460, 373.5091
487.4281, 368.3452
487.9102, 369.5223
488.3923, 374.6943
488.8744, 376.0456
489.3565, 372.6697
489.8387, 370.4995
490.3208, 373.5107
490.8029, 379.1225
491.2850, 381.7430
491.7671, 380.3269
492.2492, 379.0263
492.7314, 378.7771
493.2135, 379.6280
493.6956, 383.4717
494.1777, 389.4515
494.6598, 391.3309
495.1419, 383.2276
495.6241, 367.7022
496.1062, 361.3971
496.5883, 372.8729
497.0704, 381.9232
497.5525, 385.6364
498.0346, 386.9185
498.5168, 387.5468
498.9989, 388.0828
499.4810, 389.0908
499.9631, 391.7565
500.4452, 395.2432
500.9273, 396.3305
501.4095, 394.8258
501.8916, 391.5186
502.3737, 384.6798
502.8558, 377.4716
503.3379, 375.4009
503.8200, 380.1039
504.3022, 383.4288
504.7843, 379.5070
505.2664, 374.2204
505.7485, 375.9334
506.2306, 384.1886
506.7127, 390.6888
507.1949, 389.4429
507.6770, 382.6956
508.1591, 380.3330
508.6412, 386.6659
509.1233, 391.1916
509.6054, 394.3773
510.0876, 394.8877
510.5697, 389.9612
511.0518, 380.8510
511.5339, 372.8374
512.0161, 369.8801
512.4982, 370.6343
512.9803, 371.9250
513.4624, 374.0084
513.9445, 374.8125
514.4266, 371.9915
514.9088, 368.9808
515.3909, 371.7817
515.8730, 381.2595
516.3551, 385.5368
516.8372, 375.5757
517.3193, 362.8852
517.8015, 358.6899
518.2836, 361.8729
518.7657, 365.0318
519.2478, 364.2195
519.7299, 361.1519
520.2120, 360.0367
520.6942, 362.9033
521.1763, 363.8133
521.6584, 359.9830
522.1405, 357.0186
522.6226, 359.6311
523.1047, 365.6055
523.5869, 368.7802
524.0690, 365.2534
524.5511, 358.8549
525.0332, 355.9814
525.5153, 356.6077
525.9974, 356.5300
526.4796, 354.1317
526.9617, 351.7539
527.4438, 352.9642
527.9259, 357.1729
528.4080, 358.6454
528.8901, 353.7492
529.3723, 348.7027
529.8544, 346.5607
530.3365, 347.0373
530.8186, 350.3441
531.3007, 356.4196
531.7828, 362.1569
532.2650, 362.7593
532.7471, 356.9410
533.2292, 354.0258
533.7113, 356.1042
534.1934, 358.8234
534.6755, 361.2887
535.1577, 363.4319
535.6398, 365.5867
536.1219, 368.0016
536.6040, 369.0175
537.0861, 365.3854
537.5682, 359.0525
538.0504, 357.2106
538.5325, 361.3094
539.0146, 365.1007
539.4967, 363.5459
539.9788, 358.0680
540.4609, 355.8354
540.9431, 358.8168
541.4252, 361.9175
541.9073, 366.5063
542.3894, 369.2220
542.8715, 364.1244
543.3536, 352.6760
543.8358, 344.5021
544.3179, 348.3038
544.8000, 360.5365
545.2821, 364.8664
545.7642, 357.6532
546.2463, 352.5413
546.7285, 355.8336
547.2106, 360.3599
547.6927, 360.2925
548.1748, 355.7733
548.6569, 351.3044
549.1390, 348.4233
549.6211, 346.8811
550.1032, 347.3090
550.5853, 349.0814
551.0674, 349.0438
551.5496, 345.5429
552.0317, 341.7889
552.5138, 343.4540
552.9959, 353.5394
553.4780, 358.8339
553.9601, 357.1085
554.4423, 353.7389
554.9244, 350.2964
555.4065, 346.8163
555.8886, 342.1048
556.3707, 335.5806
556.8528, 331.3731
557.3350, 337.1001
557.8171, 351.0103
558.2992, 358.0389
558.7813, 355.1550
559.2634, 350.5799
559.7455, 349.0476
560.2277, 350.0733
560.7098, 351.8149
561.1919, 355.4973
561.6740, 357.7301
562.1561, 357.0207
562.6382, 354.6013
563.1204, 350.7862
563.6025, 346.2891
564.0846, 343.3369
564.5667, 343.6720
565.0488, 346.5663
565.5309, 349.5955
566.0131, 354.1236
566.4952, 355.3237
566.9773, 348.5911
567.4594, 341.2625
567.9415, 337.8154
568.4236, 337.9369
568.9058, 339.0725
569.3879, 340.9362
569.8700, 342.6400
570.3521, 342.4071
570.8342, 341.1542
571.3163, 342.5111
571.7985, 347.7991
572.2806, 353.8905
572.7627, 357.0787
573.2448, 357.1577
573.7269, 356.3068
574.2090, 353.2431
574.6912, 350.8162
575.1733, 349.7589
575.6554, 349.6958
576.1375, 350.6293
576.6196, 352.3804
577.1017, 353.5775
577.5839, 352.2570
578.0660, 349.3958
578.5481, 348.5262
579.0302, 349.9161
579.5123, 351.4093
579.9944, 352.2236
580.4766, 352.3973
580.9587, 351.9339
581.4408, 350.8347
581.9229, 349.3064
582.4050, 345.4142
582.8871, 342.8853
583.3693, 345.0415
583.8514, 350.4324
584.3335, 356.3701
584.8156, 361.6260
585.2977, 364.8698
585.7798, 362.9340
586.2620, 355.1629
586.7441, 350.1566
587.2262, 349.7336
587.7083, 349.7197
588.1904, 346.7467
588.6725, 342.8692
589.1547, 341.7022
589.6368, 344.5612
590.1189, 347.9018
590.6010, 350.6045
591.0831, 352.5178
591.5652, 353.1920
592.0474, 352.7665
592.5295, 351.9887
593.0116, 351.2838
593.4937, 350.7792
593.9758, 350.8425
594.4579, 351.4351
594.9401, 352.6880
595.4222, 355.9100
595.9043, 358.5987
596.3864, 359.5905
596.8685, 359.0277
597.3506, 357.1190
597.8328, 352.7895
598.3149, 349.4121
598.7970, 350.7744
599.2791, 355.4026
599.7612, 360.0497
600.2433, 364.1131
600.7255, 366.4344
601.2076, 365.8483
601.6897, 362.6631
602.1718, 359.3654
602.6539, 354.1048
603.1360, 351.3809
603.6182, 352.6877
604.1003, 355.6883
604.5824, 359.7530
605.0645, 364.0535
605.5466, 366.5630
606.0287, 365.8788
606.5109, 363.1305
606.9930, 358.9139
607.4751, 353.6619
607.9572, 351.1465
608.4393, 352.6542
608.9214, 355.7420
609.4036, 358.1910
609.8857, 359.9982
610.3678, 361.4585
610.8499, 361.2995
611.3320, 362.4208
611.8141, 367.0114
612.2963, 372.2551
612.7784, 375.8452
613.2605, 377.1999
613.7426, 376.0056
614.2247, 370.7163
614.7068, 363.7922
615.1890, 362.1382
615.6711, 366.0432
616.1532, 368.6264
616.6353, 367.5875
617.1174, 365.1009
617.5995, 363.3507
618.0817, 362.3521
618.5638, 361.7782
619.0459, 362.9049
619.5280, 362.9697
620.0101, 359.3336
620.4922, 354.8141
620.9744, 353.5521
621.4565, 355.9093
621.9386, 358.1396
622.4207, 356.3610
622.9028, 351.9796
623.3849, 350.5547
623.8671, 352.3713
624.3492, 355.7003
624.8313, 361.1381
625.3134, 366.6124
625.7955, 369.9178
626.2776, 371.1863
626.7598, 370.1313
627.2419, 364.3100
627.7240, 358.7473
628.2061, 355.7368
628.6882, 354.7112
629.1703, 355.0802
629.6525, 356.5226
630.1346, 358.4434
630.6167, 360.6670
631.0988, 362.7997
631.5809, 361.9292
632.0630, 356.6526
632.5452, 354.1404
633.0273, 359.4091
633.5094, 365.5891
633.9915, 363.2951
634.4736, 353.1358
634.9557, 347.7177
635.4379, 355.0705
635.9200, 361.9833
636.4021, 360.2147
636.8842, 353.4523
637.3663, 346.6956
637.8484, 341.6219
638.3306, 339.2261
638.8127, 341.4749
639.2948, 347.1071
639.7769, 347.9056
640.2590, 342.4987
640.7411, 336.8579
641.2233, 330.0830
641.7054, 326.3781
642.1875, 333.0077
642.6696, 348.7370
643.1517, 357.4240
643.6339, 350.6743
644.1160, 341.4909
644.5981, 334.0918
645.0802, 330.0236
645.5623, 333.6680
646.0444, 344.6408
646.5266, 354.4338
647.0087, 354.5302
647.4908, 347.1826
647.9729, 342.8477
648.4550, 341.9547
648.9371, 342.6820
649.4193, 346.2007
649.9014, 349.4150
650.3835, 348.7040
650.8656, 344.6920
651.3477, 341.7559
651.8298, 340.9825
652.3120, 341.0192
652.7941, 341.0758
653.2762, 341.6349
653.7583, 344.2814
654.2404, 348.6299
654.7225, 351.1699
655.2047, 348.3091
655.6868, 342.5027
656.1689, 342.9039
656.6510, 350.9858
657.1331, 356.1525
657.6152, 355.6809
658.0974, 352.4347
658.5795, 347.2197
659.0616, 340.9369
659.5437, 338.0085
660.0258, 342.8230
660.5079, 346.0627
660.9901, 342.6797
661.4722, 337.3648
661.9543, 334.1265
662.4364, 333.8861
662.9185, 337.4042
663.4006, 346.1552
663.8828, 356.1955
664.3649, 357.6872
664.8470, 350.2745
665.3291, 346.3003
665.8112, 348.6370
666.2933, 352.3929
666.7755, 354.8874
667.2576, 355.7981
667.7397, 354.0056
668.2218, 346.1575
668.7039, 341.0747
669.1860, 341.5310
669.6682, 344.4850
670.1503, 348.8904
670.6324, 353.6267
671.1145, 356.9143
671.5966, 357.9451
672.0787, 356.7638
672.5609, 352.0453
673.0430, 344.5991
673.5251, 340.6596
674.0072, 341.2434
674.4893, 342.7761
674.9714, 343.2911
675.4536, 343.2034
675.9357, 343.5882
676.4178, 344.7007
676.8999, 345.7392
677.3820, 346.6437
677.8641, 347.5127
678.3463, 348.7803
678.8284, 349.9155
679.3105, 349.9519
679.7926, 348.5841
680.2747, 346.7618
680.7568, 345.3140
681.2390, 344.0984
681.7211, 342.5331
682.2032, 340.6671
682.6853, 339.6062
683.1674, 339.7805
683.6495, 341.1776
684.1317, 343.9696
684.6138, 348.5470
685.0959, 352.4080
685.5780, 356.0484
686.0601, 358.3961
686.5422, 357.7148
687.0244, 356.5094
687.5065, 357.8087
687.9886, 361.7573
688.4707, 365.2393
688.9528, 366.5898
689.4349, 366.4999
689.9171, 363.4427
690.3992, 359.6089
690.8813, 362.7435
691.3634, 374.7703
691.8455, 388.0278
692.3276, 394.8926
692.8098, 395.9250
693.2919, 395.2498
693.7740, 389.8995
694.2561, 389.4690
694.7382, 398.5184
695.2203, 410.6494
695.7025, 421.7788
696.1846, 432.3112
696.6667, 444.1524
697.1488, 459.1530
697.6309, 473.4803
698.1130, 482.4323
698.5952, 491.0092
699.0773, 506.1876
699.5594, 527.7092
700.0415, 549.8298
700.5236, 568.7583
701.0057, 588.2455
701.4879, 617.3476
701.9700, 656.7153
702.4521, 692.7865
702.9342, 723.2761
703.4163, 753.1381
703.8984, 784.2952
704.3806, 817.1848
704.8627, 852.6467
705.3448, 889.1233
705.8269, 932.3467
706.3090, 984.9831
706.7911, 1042.950
707.2733, 1104.381
707.7554, 1169.367
708.2375, 1238.105
708.7196, 1310.894
709.2017, 1386.441
709.6838, 1469.240
710.1660, 1552.610
710.6481, 1622.179
711.1302, 1677.379
711.6123, 1714.545
712.0944, 1734.178
712.5765, 1727.291
713.0587, 1680.763
713.5408, 1593.295
714.0229, 1493.182
714.5050, 1365.581
714.9871, 1246.313
715.4692, 1142.307
715.9514, 1047.380
716.4335, 956.7786
716.9156, 870.9089
717.3977, 792.4619
717.8798, 719.2302
718.3619, 658.5438
718.8441, 622.7283
719.3262, 600.7823
719.8083, 573.3947
720.2904, 538.9067
720.7725, 507.0269
721.2546, 484.3196
721.7368, 468.8708
722.2189, 456.8068
722.7010, 448.5996
723.1831, 440.8116
723.6652, 434.3116
724.1473, 425.8732
724.6295, 410.9908
725.1116, 394.0858
725.5937, 384.5879
726.0758, 385.1025
726.5579, 384.1841
727.0400, 376.7821
727.5222, 370.3977
728.0043, 371.5899
728.4864, 376.0353
728.9685, 376.1843
729.4506, 370.2383
729.9327, 362.9830
730.4149, 357.7865
730.8970, 354.7636
731.3791, 355.5364
731.8612, 359.5032
732.3433, 360.2354
732.8254, 355.3552
733.3076, 350.3672
733.7897, 351.7843
734.2718, 358.6840
734.7539, 358.5086
735.2360, 344.2471
735.7181, 334.6446
736.2003, 334.6080
736.6824, 337.0199
737.1645, 339.5874
737.6466, 340.9457
738.1287, 337.4069
738.6108, 324.7039
739.0930, 315.0459
739.5751, 317.4218
740.0572, 325.0776
740.5393, 331.6877
741.0214, 336.2297
741.5035, 338.2340
741.9857, 337.4425
742.4678, 335.3395
742.9499, 334.4748
743.4320, 334.5876
743.9141, 330.8399
744.3962, 321.7698
744.8784, 316.9985
745.3605, 321.9297
745.8426, 330.3562
746.3247, 333.8748
746.8068, 331.8784
747.2889, 330.5351
747.7711, 329.9253
748.2532, 329.8070
748.7353, 330.1412
749.2174, 330.9271
749.6995, 332.8361
750.1816, 335.3195
750.6638, 336.4434
751.1459, 335.5210
751.6280, 332.4798
752.1101, 325.5730
752.5922, 317.0861
753.0743, 310.3819
753.5565, 306.3533
754.0386, 307.6687
754.5207, 316.4198
755.0028, 327.5817
755.4849, 330.6698
755.9670, 324.6188
756.4492, 320.4827
756.9313, 319.1752
757.4134, 317.9515
757.8955, 315.3128
758.3776, 312.3195
758.8597, 310.6816
759.3419, 310.5132
759.8240, 310.2400
760.3061, 310.9032
760.7882, 310.0434
761.2703, 304.2137
761.7524, 298.0485
762.2346, 296.4625
762.7167, 299.6964
763.1988, 305.3551
763.6809, 314.2682
764.1630, 321.0984
764.6451, 316.8766
765.1273, 306.2720
765.6094, 300.7879
766.0915, 301.8708
766.5736, 306.1551
767.0557, 312.0681
767.5378, 317.6095
768.0200, 317.5515
768.5021, 310.4064
768.9842, 306.9299
769.4663, 308.9316
769.9484, 311.0970
770.4305, 311.4050
770.9127, 310.4405
771.3948, 308.7208
771.8769, 306.1200
772.3590, 304.4791
772.8411, 302.7734
773.3232, 303.5638
773.8054, 311.0533
774.2875, 319.4101
774.7696, 321.3908
775.2517, 317.6224
775.7338, 315.2285
776.2159, 319.2432
776.6981, 323.8078
777.1802, 321.7059
777.6623, 315.2962
778.1444, 309.1080
778.6265, 304.0357
779.1086, 301.4906
779.5908, 302.4221
780.0729, 305.3181
780.5550, 307.7537
781.0371, 309.8511
781.5192, 309.7748
782.0013, 306.1786
782.4835, 304.1594
782.9656, 307.2906
783.4477, 311.3720
783.9298, 310.1129
784.4119, 303.3379
784.8940, 299.6525
785.3762, 301.2155
785.8583, 303.5901
786.3404, 306.3453
786.8225, 308.8272
787.3046, 311.3570
787.7867, 313.1709
788.2689, 311.7973
788.7510, 305.1394
789.2331, 298.5468
789.7152, 295.9337
790.1973, 296.5805
790.6794, 301.3255
791.1616, 308.5485
791.6437, 311.9381
792.1258, 308.7894
792.6079, 302.9748
793.0900, 299.0818
793.5721, 297.1737
794.0543, 298.6332
794.5364, 304.2546
795.0185, 308.1235
795.5006, 308.0326
795.9827, 306.7277
796.4648, 306.6414
796.9470, 307.7266
797.4291, 309.4659
797.9112, 313.5659
798.3933, 315.8329
798.8754, 316.2044
799.3575, 314.5785
799.8397, 309.3488
800.3218, 302.5272
800.8039, 297.8645
801.2860, 296.4822
801.7681, 295.4687
802.2502, 292.3026
802.7324, 289.8129
803.2145, 292.0638
803.6966, 296.4632
804.1787, 296.7231
804.6608, 292.0891
805.1429, 289.5881
805.6251, 296.4663
806.1072, 307.5721
806.5893, 311.6740
807.0714, 309.5267
807.5535, 305.9375
808.0356, 301.5187
808.5178, 299.3174
808.9999, 301.9836
809.4820, 306.8826
809.9641, 306.8483
810.4462, 299.5354
810.9283, 295.9979
811.4105, 298.2187
811.8926, 300.9796
812.3747, 302.5959
812.8568, 303.5400
813.3389, 304.7711
813.8210, 306.2732
814.3032, 305.5633
814.7853, 298.9917
815.2674, 294.3389
815.7495, 296.6391
816.2316, 300.1471
816.7137, 298.3211
817.1959, 292.8894
817.6780, 291.0866
818.1601, 296.8012
818.6422, 302.6469
819.1243, 301.5888
819.6064, 297.0831
820.0886, 293.4294
820.5707, 291.2598
821.0528, 292.2041
821.5349, 296.6412
822.0170, 300.4245
822.4991, 298.3744
822.9813, 292.2067
823.4634, 289.8719
823.9455, 291.6346
824.4276, 290.6458
824.9097, 284.3824
825.3918, 279.7908
825.8740, 282.8851
826.3561, 291.0666
826.8382, 295.3253
827.3203, 292.5188
827.8024, 293.1212
828.2845, 302.0989
828.7667, 308.3589
829.2488, 304.4296
829.7309, 297.7617
830.2130, 298.0314
830.6951, 305.7499
831.1772, 311.6570
831.6594, 312.9621
832.1415, 312.7411
832.6236, 312.4353
833.1057, 311.1831
833.5878, 306.1421
834.0699, 299.2773
834.5521, 297.5706
835.0342, 305.2505
835.5163, 312.4218
835.9984, 307.6073
836.4805, 297.5693
836.9626, 292.9733
837.4448, 293.5160
837.9269, 296.1461
838.4090, 299.6292
838.8911, 302.0890
839.3732, 301.1289
839.8553, 297.9008
840.3375, 296.4561
840.8196, 296.8028
841.3017, 298.9343
841.7838, 303.3144
842.2659, 307.2354
842.7480, 308.9160
843.2302, 308.8271
843.7123, 308.0457
844.1944, 306.1609
844.6765, 304.9930
845.1586, 305.2641
845.6407, 305.1755
846.1229, 303.1688
846.6050, 301.1915
847.0871, 302.2230
847.5692, 305.8020
848.0513, 306.0540
848.5334, 298.1317
849.0156, 292.2766
849.4977, 291.6085
849.9798, 293.7201
850.4619, 297.9255
850.9440, 303.1207
851.4261, 307.5664
851.9083, 310.7598
852.3904, 313.0817
852.8725, 315.5144
853.3546, 316.6192
853.8367, 313.7329
854.3188, 308.6935
854.8010, 304.9392
855.2831, 303.2878
855.7652, 303.5249
856.2473, 306.1530
856.7294, 308.6618
857.2115, 305.7006
857.6937, 298.6134
858.1758, 292.8489
858.6579, 289.0088
859.1400, 287.5618
859.6221, 288.6914
860.1042, 292.7012
860.5864, 301.3814
861.0685, 314.2333
861.5506, 317.6112
862.0327, 308.5995
862.5148, 301.3691
862.9969, 298.7249
863.4791, 299.2089
863.9612, 303.3646
864.4433, 309.3064
864.9254, 309.9999
865.4075, 302.2513
865.8896, 295.8999
866.3718, 288.5515
866.8539, 285.3458
867.3360, 292.3915
867.8181, 301.7650
868.3002, 304.4439
868.7823, 300.1356
869.2645, 294.6779
869.7466, 286.9048
870.2287, 281.6993
870.7108, 282.6119
871.1929, 285.5218
871.6750, 286.2475
872.1572, 285.9883
872.6393, 288.9766
873.1214, 296.8009
873.6035, 303.5698
874.0856, 304.0682
874.5677, 302.1147
875.0499, 302.4218
875.5320, 303.5188
876.0141, 301.5599
876.4962, 296.3162
876.9783, 291.2335
877.4604, 288.6739
877.9426, 287.3623
878.4247, 283.8853
878.9068, 279.9302
879.3889, 283.5397
879.8710, 294.4355
880.3531, 303.5834
880.8353, 307.4034
881.3174, 306.3656
881.7995, 300.2226
882.2816, 289.9937
882.7637, 281.5815
883.2458, 274.7158
883.7280, 272.5869
884.2101, 277.1660
884.6922, 281.6986
885.1743, 281.4024
885.6564, 278.7142
886.1385, 279.1375
886.6207, 283.6684
887.1028, 286.8455
887.5849, 288.8075
888.0670, 289.1417
888.5491, 286.3813
889.0313, 283.1346
889.5134, 281.2245
889.9955, 280.6815
890.4776, 281.7485
890.9597, 286.6549
891.4418, 289.1513
891.9240, 287.1857
892.4061, 283.9300
892.8882, 279.5747
893.3703, 275.7437
893.8524, 274.7896
894.3345, 276.8305
894.8167, 279.1874
895.2988, 281.6752
895.7809, 283.1295
896.2630, 281.7021
896.7451, 279.8721
897.2272, 280.0941
897.7094, 282.2240
898.1915, 285.7733
898.6736, 290.5920
899.1557, 293.7990
899.6378, 291.4216
900.1199, 287.4661
900.6021, 286.5877
901.0842, 288.0825
901.5663, 290.7838
902.0484, 294.1143
902.5305, 297.2667
903.0126, 299.9881
903.4948, 300.6565
903.9769, 295.5100
904.4590, 286.5542
904.9411, 279.1816
905.4232, 273.9722
905.9053, 273.6275
906.3875, 278.9703
906.8696, 285.6534
907.3517, 289.6266
907.8338, 291.5063
908.3159, 293.2238
908.7980, 294.7787
909.2802, 296.4323
909.7623, 298.5800
910.2444, 297.3645
910.7265, 289.8886
911.2086, 281.3826
911.6907, 279.8946
912.1729, 285.3046
912.6550, 287.1900
913.1371, 283.8318
913.6192, 282.5395
914.1013, 285.4154
914.5834, 289.1224
915.0656, 292.7487
915.5477, 294.8623
916.0298, 291.3403
916.5119, 279.0210
916.9940, 273.0318
917.4761, 279.6180
917.9583, 283.6956
918.4404, 279.2446
918.9225, 273.1902
919.4046, 271.2917
919.8867, 272.3944
920.3688, 271.6057
920.8510, 265.5590
921.3331, 264.3093
921.8152, 275.9499
922.2973, 284.9901
922.7794, 281.2742
923.2615, 273.0630
923.7437, 269.9166
924.2258, 272.2779
924.7079, 275.4575
925.1900, 279.2751
925.6721, 281.6685
926.1542, 280.9292
926.6364, 279.2408
927.1185, 277.4725
927.6006, 276.3733
928.0827, 277.5120
928.5648, 280.9445
929.0469, 283.4281
929.5291, 282.6635
930.0112, 280.8642
930.4933, 279.0720
930.9754, 277.6088
931.4575, 276.8494
931.9396, 276.7885
932.4218, 277.2241
932.9039, 278.0888
933.3860, 279.6747
933.8681, 284.2993
934.3502, 288.1192
934.8323, 283.7678
935.3145, 275.6090
935.7966, 274.2368
936.2787, 279.2624
936.7608, 280.2833
937.2429, 271.5010
937.7250, 261.5168
938.2072, 261.8239
938.6893, 268.3167
939.1714, 271.7054
939.6535, 272.6011
940.1356, 274.7146
940.6177, 278.6282
941.0999, 280.9281
941.5820, 278.9912
942.0641, 275.2446
942.5462, 273.8602
943.0283, 274.5506
943.5104, 276.3737
943.9926, 279.1119
944.4747, 280.7272
944.9568, 280.6021
945.4389, 278.2411
945.9210, 272.3100
946.4031, 265.9133
946.8853, 269.5245
947.3674, 283.0771
947.8495, 291.5924
948.3316, 294.0407
948.8137, 291.5949
949.2958, 283.9296
949.7780, 275.3173
950.2601, 270.3468
950.7422, 268.7407
951.2243, 269.5804
951.7064, 273.5015
952.1885, 275.8362
952.6707, 276.2326
953.1528, 274.2542
953.6349, 268.4967
954.1170, 262.7958
954.5991, 262.5246
955.0812, 267.4438
955.5634, 272.7285
956.0455, 280.0780
956.5276, 281.9098
957.0097, 274.1098
957.4918, 267.3718
957.9739, 267.7976
958.4561, 272.3553
958.9382, 276.7190
959.4203, 281.1180
959.9024, 281.9102
960.3845, 275.7033
960.8666, 272.8324
961.3488, 277.3086
961.8309, 281.9966
962.3130, 282.1364
962.7951, 279.7878
963.2772, 279.1743
963.7593, 280.9280
964.2415, 281.0375
964.7236, 279.1366
965.2057, 276.1204
965.6878, 268.8280
966.1699, 263.6747
966.6520, 266.8856
967.1342, 274.7592
967.6163, 278.5534
968.0984, 276.6747
968.5805, 276.3282
969.0626, 279.9256
969.5447, 282.3278
970.0269, 282.1093
970.5090, 280.3644
970.9911, 277.1417
971.4732, 273.1763
971.9553, 270.0562
972.4374, 267.4627
972.9196, 267.3851
973.4017, 272.1790
973.8838, 276.8628
974.3659, 281.1455
974.8480, 283.3535
975.3301, 279.6236
975.8123, 272.7186
976.2944, 271.6642
976.7765, 280.3111
977.2586, 286.6408
977.7407, 286.6189
978.2228, 285.3850
978.7050, 283.7913
979.1871, 283.1284
979.6692, 285.3999
980.1513, 289.6577
980.6334, 292.4814
981.1155, 292.9284
981.5977, 292.5571
982.0798, 290.0583
982.5619, 288.9248
983.0440, 292.5471
983.5261, 297.3022
984.0082, 299.8640
984.4904, 299.8260
984.9725, 296.6775
985.4546, 287.6617
985.9367, 283.4005
986.4188, 291.2730
986.9009, 300.9475
987.3831, 307.8326
987.8652, 312.1655
988.3473, 313.6136
988.8294, 312.9821
989.3115, 313.0397
989.7936, 314.9274
990.2758, 316.6433
990.7579, 315.9206
991.2400, 316.3415
991.7221, 321.2349
992.2042, 327.9182
992.6863, 333.2132
993.1685, 336.9809
993.6506, 340.8902
994.1327, 346.0119
994.6148, 349.7354
995.0969, 349.1518
995.5790, 348.6523
996.0612, 351.1202
996.5433, 355.5027
997.0254, 361.0502
997.5075, 367.1070
997.9896, 372.0005
998.4717, 375.2088
998.9539, 377.0543
999.4360, 375.3035
999.9181, 374.8055
1000.400, 379.7242
1000.882, 387.3990
1001.364, 394.9475
1001.847, 401.7815
1002.329, 407.5663
1002.811, 411.7612
1003.293, 416.2744
1003.775, 422.4874
1004.257, 428.8373
1004.739, 435.5147
1005.221, 440.8129
1005.703, 441.5089
1006.186, 438.6808
1006.668, 436.9866
1007.150, 437.1074
1007.632, 441.5154
1008.114, 454.6590
1008.596, 468.7667
1009.078, 478.9180
1009.560, 487.0412
1010.043, 497.0557
1010.525, 507.7011
1011.007, 512.3829
1011.489, 506.7668
1011.971, 503.8431
1012.453, 509.7408
1012.935, 519.3826
1013.417, 532.6838
1013.899, 545.8228
1014.382, 555.8691
1014.864, 561.8712
1015.346, 561.4584
1015.828, 551.5148
1016.310, 545.8795
1016.792, 560.4275
1017.274, 568.1574
1017.756, 548.2119
1018.239, 518.9653
1018.721, 498.2569
1019.203, 485.5775
1019.685, 474.0333
1020.167, 463.1272
1020.649, 447.7279
1021.131, 419.8862
1021.613, 394.8676
1022.095, 381.1991
1022.578, 372.1625
1023.060, 361.2031
1023.542, 349.5913
1024.024, 343.0470
1024.506, 344.1646
1024.988, 340.2456
1025.470, 320.9304
1025.952, 305.3302
1026.435, 301.6616
1026.917, 303.5570
1027.399, 308.0177
1027.881, 313.3550
1028.363, 317.1988
1028.845, 319.2891
1029.327, 319.3799
1029.809, 315.1509
1030.292, 312.0750
1030.774, 313.4002
1031.256, 314.5450
1031.738, 312.2268
1032.220, 307.6264
1032.702, 302.3474
1033.184, 296.2736
1033.666, 293.0672
1034.148, 293.5253
1034.630, 296.2658
1035.113, 305.6460
1035.595, 312.2869
1036.077, 307.0885
1036.559, 298.0099
1037.041, 298.9726
1037.523, 310.6488
1038.005, 313.3086
1038.487, 296.9377
1038.970, 287.5673
1039.452, 290.7399
1039.934, 295.8656
1040.416, 299.0901
1040.898, 301.2758
1041.380, 303.1898
1041.862, 304.9036
1042.344, 307.4766
1042.826, 313.2337
1043.309, 314.3852
1043.791, 307.4629
1044.273, 301.7750
1044.755, 299.9564
1045.237, 302.0263
1045.719, 309.6625
1046.201, 320.7979
1046.683, 325.6114
1047.166, 322.1609
1047.648, 319.1581
1048.130, 317.2333
1048.612, 313.5479
1049.094, 305.6782
1049.576, 300.1472
1050.058, 303.6397
1050.540, 312.0150
1051.022, 313.3631
1051.505, 306.5511
1051.987, 304.6696
1052.469, 308.8706
1052.951, 310.2556
1053.433, 306.0005
1053.915, 303.0979
1054.397, 306.7990
1054.879, 312.7387
1055.361, 311.7065
1055.844, 304.8568
1056.326, 306.9013
1056.808, 317.8167
1057.290, 327.6200
1057.772, 334.6060
1058.254, 341.4720
1058.736, 349.7316
1059.218, 357.0572
1059.701, 359.0627
1060.183, 358.6841
1060.665, 368.2694
1061.147, 385.1344
1061.629, 392.5533
1062.111, 390.1706
1062.593, 391.2367
1063.075, 400.8671
1063.557, 414.0700
1064.040, 426.4648
1064.522, 438.3612
1065.004, 449.6064
1065.486, 460.9294
1065.968, 474.4009
1066.450, 489.6101
1066.932, 505.1918
1067.414, 520.5281
1067.896, 533.4561
1068.379, 540.7100
1068.861, 551.6191
1069.343, 579.5424
1069.825, 615.4634
1070.307, 643.8675
1070.789, 671.7361
1071.271, 714.5446
1071.753, 772.9627
1072.236, 836.1793
1072.718, 898.5956
1073.200, 973.0972
1073.682, 1062.640
1074.164, 1175.605
1074.646, 1315.919
1075.128, 1486.564
1075.610, 1693.143
1076.093, 1932.714
1076.575, 2198.629
1077.057, 2489.817
1077.539, 2801.934
1078.021, 3133.017
1078.503, 3483.318
1078.985, 3847.919
1079.467, 4236.090
1079.949, 4651.241
1080.432, 5098.652
1080.914, 5573.351
1081.396, 6077.310
1081.878, 6677.737
1082.360, 7430.587
1082.842, 8218.646
1083.324, 9028.038
1083.806, 9861.911
1084.288, 10837.67
1084.771, 11749.45
1085.253, 12457.97
1085.735, 12913.91
1086.217, 12856.28
1086.699, 12161.78
1087.181, 11268.86
1087.663, 10081.63
1088.145, 8887.691
1088.628, 7727.039
1089.110, 6640.020
1089.592, 5641.876
1090.074, 4746.612
1090.556, 3984.500
1091.038, 3358.487
1091.520, 2808.875
1092.002, 2338.266
1092.484, 1952.252
1092.967, 1655.965
1093.449, 1417.985
1093.931, 1222.824
1094.413, 1063.245
1094.895, 930.8478
1095.377, 823.4457
1095.859, 737.4650
1096.341, 671.4199
1096.823, 616.2486
1097.306, 570.9078
1097.788, 533.8652
1098.270, 504.4124
1098.752, 479.6075
1099.234, 457.6106
1099.716, 437.5724
1100.198, 417.3944
1100.680, 398.6548
1101.163, 386.8384
1101.645, 378.6270
1102.127, 362.6381
1102.609, 340.3164
1103.091, 326.6861
1103.573, 329.2357
1104.055, 335.2448
1104.537, 333.9689
1105.020, 331.6946
1105.502, 338.5941
1105.984, 344.4957
1106.466, 332.5449
1106.948, 310.5700
1107.430, 298.2298
1107.912, 299.3793
1108.394, 301.6484
1108.876, 300.0088
1109.359, 298.5767
1109.841, 300.2826
1110.323, 301.0894
1110.805, 297.0779
1111.287, 291.7700
1111.769, 290.0621
1112.251, 291.3038
1112.733, 290.6602
1113.215, 286.8081
1113.698, 283.2986
1114.180, 278.5736
1114.662, 277.0374
1115.144, 282.9063
1115.626, 287.5800
1116.108, 284.7475
1116.590, 277.4160
1117.072, 270.3349
1117.555, 263.4781
1118.037, 263.7127
1118.519, 273.0523
1119.001, 277.8246
1119.483, 275.9051
1119.965, 272.4192
1120.447, 269.1024
1120.929, 267.9573
1121.411, 271.3695
1121.894, 277.6761
1122.376, 284.7067
1122.858, 290.8651
1123.340, 284.9039
1123.822, 269.3533
1124.304, 260.1262
1124.786, 260.3255
1125.268, 261.9424
1125.750, 260.2992
1126.233, 260.3847
1126.715, 271.9695
1127.197, 285.0262
1127.679, 283.6047
1128.161, 275.2743
1128.643, 271.3716
1129.125, 271.9141
1129.607, 272.9660
1130.090, 273.4774
1130.572, 274.7933
1131.054, 279.0182
1131.536, 281.6597
1132.018, 278.8321
1132.500, 275.3591
1132.982, 274.5677
1133.464, 274.9995
1133.947, 275.4271
1134.429, 275.3029
1134.911, 273.0288
1135.393, 267.3720
1135.875, 263.1769
1136.357, 260.9803
1136.839, 260.1049
1137.321, 260.3844
1137.803, 262.1436
1138.286, 266.3885
1138.768, 271.2911
1139.250, 274.3127
1139.732, 275.4841
1140.214, 275.1351
1140.696, 273.2105
1141.178, 269.4416
1141.660, 263.3914
1142.142, 260.3762
1142.625, 262.1962
1143.107, 266.3989
1143.589, 271.7191
1144.071, 274.9954
1144.553, 267.6643
1145.035, 254.8475
1145.517, 254.2111
1145.999, 261.3495
1146.482, 261.3246
1146.964, 254.1247
1147.446, 249.3782
1147.928, 250.6181
1148.410, 253.2848
1148.892, 254.3671
1149.374, 254.8994
1149.856, 255.1873
1150.339, 255.9279
1150.821, 258.0442
1151.303, 260.9449
1151.785, 264.6364
1152.267, 268.2823
1152.749, 268.9382
1153.231, 265.0822
1153.713, 261.4617
1154.195, 258.9924
1154.677, 257.1005
1155.160, 255.5046
1155.642, 254.5809
1156.124, 254.9392
1156.606, 255.8074
1157.088, 256.4269
1157.570, 256.6344
1158.052, 253.7861
1158.534, 246.0248
1159.017, 244.5038
1159.499, 251.0361
1159.981, 256.3056
1160.463, 257.5189
1160.945, 257.0279
1161.427, 256.4435
1161.909, 255.7027
1162.391, 254.2873
1162.874, 252.7762
1163.356, 253.6358
1163.838, 255.9895
1164.320, 256.8849
1164.802, 256.3616
1165.284, 256.2739
1165.766, 257.1147
1166.248, 257.5102
1166.730, 256.6390
1167.213, 254.7846
1167.695, 251.0958
1168.177, 247.6552
1168.659, 246.3083
1169.141, 246.3590
1169.623, 247.6640
1170.105, 249.3289
1170.587, 248.6686
1171.069, 244.5874
1171.552, 243.5475
1172.034, 251.9962
1172.516, 255.1510
1172.998, 244.8141
1173.480, 237.6226
1173.962, 243.1480
1174.444, 251.3359
1174.926, 251.4421
1175.409, 245.9397
1175.891, 242.8910
1176.373, 242.2296
1176.855, 246.5701
1177.337, 256.1635
1177.819, 258.4472
1178.301, 251.3294
1178.783, 247.0513
1179.266, 251.5918
1179.748, 257.0567
1180.230, 254.8490
1180.712, 249.0204
1181.194, 245.9112
1181.676, 243.9171
1182.158, 238.7829
1182.640, 233.2302
1183.122, 234.4366
1183.604, 241.6066
1184.087, 247.0858
1184.569, 248.1476
1185.051, 246.8312
1185.533, 238.1854
1186.015, 235.3899
1186.497, 252.9145
1186.979, 268.7020
1187.461, 263.4318
1187.944, 249.6682
1188.426, 246.6897
1188.908, 252.3031
1189.390, 252.0267
1189.872, 243.2457
1190.354, 237.9530
1190.836, 236.8008
1191.318, 236.2747
1191.801, 235.6659
1192.283, 235.2789
1192.765, 235.2929
1193.247, 235.5349
1193.729, 235.6297
1194.211, 236.0401
1194.693, 238.7779
1195.175, 242.4367
1195.657, 242.7775
1196.140, 240.7443
1196.622, 239.1888
1197.104, 239.0201
1197.586, 241.4478
1198.068, 247.4614
1198.550, 251.2600
1199.032, 247.4277
1199.514, 242.6527
1199.996, 239.5669
1200.479, 238.2512
1200.961, 240.2291
1201.443, 243.0537
1201.925, 242.8360
1202.407, 239.9073
1202.889, 238.2447
1203.371, 237.7413
1203.853, 239.2748
1204.336, 244.2808
1204.818, 246.4623
1205.300, 244.1293
1205.782, 240.4281
1206.264, 236.6452
1206.746, 235.0343
1207.228, 239.2933
1207.710, 245.6920
1208.193, 243.1399
1208.675, 235.6321
1209.157, 235.4054
1209.639, 240.5099
1210.121, 244.0882
1210.603, 244.8827
1211.085, 244.2725
1211.567, 242.8042
1212.049, 240.0808
1212.531, 233.8378
1213.014, 229.0049
1213.496, 228.2765
1213.978, 229.7636
1214.460, 233.3614
1214.942, 237.5447
1215.424, 241.8131
1215.906, 244.9837
1216.388, 241.9706
1216.871, 230.0384
1217.353, 230.5188
1217.835, 248.3370
1218.317, 257.0198
1218.799, 251.8774
1219.281, 244.0056
1219.763, 237.6151
1220.245, 235.2491
1220.728, 240.1528
1221.210, 246.5648
1221.692, 243.0937
1222.174, 234.4746
1222.656, 228.8629
1223.138, 226.6115
1223.620, 229.9176
1224.102, 236.3240
1224.584, 239.0640
1225.067, 236.5690
1225.549, 233.0280
1226.031, 228.3917
1226.513, 226.6105
1226.995, 230.6510
1227.477, 235.6907
1227.959, 240.7997
1228.441, 244.9504
1228.923, 248.3670
1229.406, 249.4700
1229.888, 244.3941
1230.370, 234.2041
1230.852, 231.7931
1231.334, 237.5557
1231.816, 241.4534
1232.298, 242.8604
1232.780, 241.8024
1233.263, 238.5251
1233.745, 235.4542
1234.227, 233.9385
1234.709, 233.5859
1235.191, 233.9954
1235.673, 235.3425
1236.155, 239.4567
1236.637, 243.1509
1237.120, 242.3987
1237.602, 238.9070
1238.084, 234.6156
1238.566, 230.5240
1239.048, 229.2776
1239.530, 232.3714
1240.012, 233.6953
##END=



