##NAMES=Calcite
##RRUFFID=R150075
##IDEAL CHEMISTRY=CaCO_3_
##LOCALITY=Montana, USA
##OWNER=RRUFF
##SOURCE=Michael Scott
##DESCRIPTION=Colorless cleavage rhomb
##STATUS=The identification of this mineral has been determined only by Raman spectroscopy
##URL=rruff.info/R150075
8.930109e+001, 0.000000e+000
8.978320e+001, 3.524270e+003
9.026532e+001, 3.521740e+003
9.074744e+001, 3.524468e+003
9.122955e+001, 3.533714e+003
9.171167e+001, 3.551098e+003
9.219379e+001, 3.581988e+003
9.267590e+001, 3.625324e+003
9.315802e+001, 3.658275e+003
9.364014e+001, 3.655081e+003
9.412225e+001, 3.627779e+003
9.460437e+001, 3.609488e+003
9.508649e+001, 3.614808e+003
9.556860e+001, 3.629677e+003
9.605072e+001, 3.621126e+003
9.653284e+001, 3.590794e+003
9.701495e+001, 3.558157e+003
9.749707e+001, 3.539530e+003
9.797919e+001, 3.534167e+003
9.846130e+001, 3.537521e+003
9.894342e+001, 3.549257e+003
9.942554e+001, 3.568829e+003
9.990765e+001, 3.591096e+003
1.003898e+002, 3.617443e+003
1.008719e+002, 3.644094e+003
1.013540e+002, 3.665212e+003
1.018361e+002, 3.679885e+003
1.023182e+002, 3.693563e+003
1.028004e+002, 3.706918e+003
1.032825e+002, 3.717350e+003
1.037646e+002, 3.738210e+003
1.042467e+002, 3.772044e+003
1.047288e+002, 3.814561e+003
1.052109e+002, 3.854641e+003
1.056931e+002, 3.885988e+003
1.061752e+002, 3.924542e+003
1.066573e+002, 3.978839e+003
1.071394e+002, 4.061998e+003
1.076215e+002, 4.138122e+003
1.081036e+002, 4.209689e+003
1.085858e+002, 4.275378e+003
1.090679e+002, 4.325110e+003
1.095500e+002, 4.344628e+003
1.100321e+002, 4.359581e+003
1.105142e+002, 4.383458e+003
1.109963e+002, 4.423031e+003
1.114785e+002, 4.463911e+003
1.119606e+002, 4.505673e+003
1.124427e+002, 4.548256e+003
1.129248e+002, 4.588236e+003
1.134069e+002, 4.620140e+003
1.138890e+002, 4.651702e+003
1.143712e+002, 4.689551e+003
1.148533e+002, 4.742405e+003
1.153354e+002, 4.794637e+003
1.158175e+002, 4.842390e+003
1.162996e+002, 4.886325e+003
1.167817e+002, 4.923763e+003
1.172639e+002, 4.948644e+003
1.177460e+002, 4.968299e+003
1.182281e+002, 4.992011e+003
1.187102e+002, 5.031907e+003
1.191923e+002, 5.070842e+003
1.196744e+002, 5.095339e+003
1.201566e+002, 5.100524e+003
1.206387e+002, 5.107462e+003
1.211208e+002, 5.129972e+003
1.216029e+002, 5.163471e+003
1.220850e+002, 5.198704e+003
1.225671e+002, 5.229130e+003
1.230493e+002, 5.259546e+003
1.235314e+002, 5.297354e+003
1.240135e+002, 5.348232e+003
1.244956e+002, 5.395119e+003
1.249777e+002, 5.414732e+003
1.254598e+002, 5.413440e+003
1.259420e+002, 5.415269e+003
1.264241e+002, 5.437635e+003
1.269062e+002, 5.473433e+003
1.273883e+002, 5.509187e+003
1.278704e+002, 5.539968e+003
1.283525e+002, 5.572209e+003
1.288347e+002, 5.617057e+003
1.293168e+002, 5.674248e+003
1.297989e+002, 5.734887e+003
1.302810e+002, 5.791562e+003
1.307631e+002, 5.845585e+003
1.312452e+002, 5.904258e+003
1.317274e+002, 5.968109e+003
1.322095e+002, 6.038423e+003
1.326916e+002, 6.117174e+003
1.331737e+002, 6.204710e+003
1.336558e+002, 6.303864e+003
1.341379e+002, 6.419774e+003
1.346201e+002, 6.552451e+003
1.351022e+002, 6.699354e+003
1.355843e+002, 6.856900e+003
1.360664e+002, 7.026745e+003
1.365485e+002, 7.219970e+003
1.370306e+002, 7.443223e+003
1.375128e+002, 7.676789e+003
1.379949e+002, 7.907231e+003
1.384770e+002, 8.137592e+003
1.389591e+002, 8.353329e+003
1.394412e+002, 8.552057e+003
1.399233e+002, 8.731732e+003
1.404055e+002, 8.894849e+003
1.408876e+002, 9.034853e+003
1.413697e+002, 9.165318e+003
1.418518e+002, 9.308403e+003
1.423339e+002, 9.463404e+003
1.428160e+002, 9.630518e+003
1.432982e+002, 9.808937e+003
1.437803e+002, 9.993362e+003
1.442624e+002, 1.020001e+004
1.447445e+002, 1.042159e+004
1.452266e+002, 1.066862e+004
1.457087e+002, 1.095191e+004
1.461909e+002, 1.126886e+004
1.466730e+002, 1.163073e+004
1.471551e+002, 1.204491e+004
1.476372e+002, 1.249764e+004
1.481193e+002, 1.301858e+004
1.486014e+002, 1.359427e+004
1.490836e+002, 1.423505e+004
1.495657e+002, 1.500395e+004
1.500478e+002, 1.585520e+004
1.505299e+002, 1.685267e+004
1.510120e+002, 1.803444e+004
1.514941e+002, 1.934762e+004
1.519763e+002, 2.088876e+004
1.524584e+002, 2.269063e+004
1.529405e+002, 2.473596e+004
1.534226e+002, 2.696771e+004
1.539047e+002, 2.964926e+004
1.543868e+002, 3.234237e+004
1.548690e+002, 3.480830e+004
1.553511e+002, 3.754760e+004
1.558332e+002, 3.949642e+004
1.563153e+002, 4.051725e+004
1.567974e+002, 4.060788e+004
1.572795e+002, 3.976730e+004
1.577617e+002, 3.749418e+004
1.582438e+002, 3.455518e+004
1.587259e+002, 3.150413e+004
1.592080e+002, 2.812317e+004
1.596901e+002, 2.497363e+004
1.601722e+002, 2.220605e+004
1.606544e+002, 1.982059e+004
1.611365e+002, 1.775150e+004
1.616186e+002, 1.603304e+004
1.621007e+002, 1.460795e+004
1.625828e+002, 1.338207e+004
1.630649e+002, 1.240635e+004
1.635471e+002, 1.157584e+004
1.640292e+002, 1.085922e+004
1.645113e+002, 1.025512e+004
1.649934e+002, 9.729734e+003
1.654755e+002, 9.283372e+003
1.659576e+002, 8.900098e+003
1.664398e+002, 8.565719e+003
1.669219e+002, 8.286858e+003
1.674040e+002, 8.041178e+003
1.678861e+002, 7.819041e+003
1.683682e+002, 7.618842e+003
1.688503e+002, 7.439302e+003
1.693325e+002, 7.283428e+003
1.698146e+002, 7.146762e+003
1.702967e+002, 7.024233e+003
1.707788e+002, 6.915775e+003
1.712609e+002, 6.817459e+003
1.717430e+002, 6.728927e+003
1.722252e+002, 6.650374e+003
1.727073e+002, 6.575072e+003
1.731894e+002, 6.493412e+003
1.736715e+002, 6.410029e+003
1.741536e+002, 6.337988e+003
1.746357e+002, 6.288279e+003
1.751179e+002, 6.249811e+003
1.756000e+002, 6.208930e+003
1.760821e+002, 6.164362e+003
1.765642e+002, 6.120610e+003
1.770463e+002, 6.080109e+003
1.775284e+002, 6.043527e+003
1.780106e+002, 6.013540e+003
1.784927e+002, 5.998825e+003
1.789748e+002, 5.989877e+003
1.794569e+002, 5.969063e+003
1.799390e+002, 5.932224e+003
1.804211e+002, 5.892542e+003
1.809033e+002, 5.865036e+003
1.813854e+002, 5.847998e+003
1.818675e+002, 5.833833e+003
1.823496e+002, 5.817323e+003
1.828317e+002, 5.800508e+003
1.833138e+002, 5.788173e+003
1.837960e+002, 5.781967e+003
1.842781e+002, 5.777373e+003
1.847602e+002, 5.767791e+003
1.852423e+002, 5.753603e+003
1.857244e+002, 5.738981e+003
1.862065e+002, 5.722589e+003
1.866887e+002, 5.706901e+003
1.871708e+002, 5.703694e+003
1.876529e+002, 5.718245e+003
1.881350e+002, 5.737056e+003
1.886171e+002, 5.733875e+003
1.890992e+002, 5.709206e+003
1.895814e+002, 5.683919e+003
1.900635e+002, 5.672380e+003
1.905456e+002, 5.672590e+003
1.910277e+002, 5.672493e+003
1.915098e+002, 5.671714e+003
1.919919e+002, 5.668533e+003
1.924741e+002, 5.655953e+003
1.929562e+002, 5.633390e+003
1.934383e+002, 5.615114e+003
1.939204e+002, 5.612589e+003
1.944025e+002, 5.625006e+003
1.948846e+002, 5.639484e+003
1.953668e+002, 5.656275e+003
1.958489e+002, 5.672350e+003
1.963310e+002, 5.680211e+003
1.968131e+002, 5.679399e+003
1.972952e+002, 5.673755e+003
1.977773e+002, 5.663569e+003
1.982595e+002, 5.648654e+003
1.987416e+002, 5.637208e+003
1.992237e+002, 5.629255e+003
1.997058e+002, 5.626250e+003
2.001879e+002, 5.635849e+003
2.006700e+002, 5.661494e+003
2.011522e+002, 5.684850e+003
2.016343e+002, 5.690765e+003
2.021164e+002, 5.677102e+003
2.025985e+002, 5.668604e+003
2.030806e+002, 5.669577e+003
2.035627e+002, 5.676952e+003
2.040449e+002, 5.680257e+003
2.045270e+002, 5.677941e+003
2.050091e+002, 5.676529e+003
2.054912e+002, 5.682120e+003
2.059733e+002, 5.696659e+003
2.064554e+002, 5.705662e+003
2.069376e+002, 5.705105e+003
2.074197e+002, 5.698489e+003
2.079018e+002, 5.700000e+003
2.083839e+002, 5.712173e+003
2.088660e+002, 5.726158e+003
2.093481e+002, 5.735449e+003
2.098303e+002, 5.738881e+003
2.103124e+002, 5.743267e+003
2.107945e+002, 5.748951e+003
2.112766e+002, 5.756285e+003
2.117587e+002, 5.768244e+003
2.122408e+002, 5.788330e+003
2.127230e+002, 5.805785e+003
2.132051e+002, 5.811134e+003
2.136872e+002, 5.798248e+003
2.141693e+002, 5.794675e+003
2.146514e+002, 5.805608e+003
2.151335e+002, 5.827964e+003
2.156157e+002, 5.847822e+003
2.160978e+002, 5.865979e+003
2.165799e+002, 5.880125e+003
2.170620e+002, 5.887935e+003
2.175441e+002, 5.886611e+003
2.180262e+002, 5.886712e+003
2.185084e+002, 5.888856e+003
2.189905e+002, 5.893205e+003
2.194726e+002, 5.900987e+003
2.199547e+002, 5.914809e+003
2.204368e+002, 5.927980e+003
2.209189e+002, 5.934886e+003
2.214011e+002, 5.930787e+003
2.218832e+002, 5.934008e+003
2.223653e+002, 5.949705e+003
2.228474e+002, 5.974047e+003
2.233295e+002, 5.989130e+003
2.238116e+002, 5.988819e+003
2.242938e+002, 5.988521e+003
2.247759e+002, 5.998590e+003
2.252580e+002, 6.025274e+003
2.257401e+002, 6.046406e+003
2.262222e+002, 6.057282e+003
2.267043e+002, 6.061329e+003
2.271865e+002, 6.074687e+003
2.276686e+002, 6.103009e+003
2.281507e+002, 6.131721e+003
2.286328e+002, 6.151419e+003
2.291149e+002, 6.156527e+003
2.295970e+002, 6.165731e+003
2.300792e+002, 6.181265e+003
2.305613e+002, 6.201751e+003
2.310434e+002, 6.220992e+003
2.315255e+002, 6.237042e+003
2.320076e+002, 6.254552e+003
2.324897e+002, 6.276146e+003
2.329719e+002, 6.303836e+003
2.334540e+002, 6.331362e+003
2.339361e+002, 6.359229e+003
2.344182e+002, 6.386954e+003
2.349003e+002, 6.412596e+003
2.353824e+002, 6.433122e+003
2.358646e+002, 6.455928e+003
2.363467e+002, 6.485107e+003
2.368288e+002, 6.523968e+003
2.373109e+002, 6.561599e+003
2.377930e+002, 6.596722e+003
2.382751e+002, 6.630573e+003
2.387573e+002, 6.665866e+003
2.392394e+002, 6.702541e+003
2.397215e+002, 6.740520e+003
2.402036e+002, 6.779751e+003
2.406857e+002, 6.819004e+003
2.411678e+002, 6.862190e+003
2.416500e+002, 6.910488e+003
2.421321e+002, 6.962081e+003
2.426142e+002, 7.012995e+003
2.430963e+002, 7.060376e+003
2.435784e+002, 7.110987e+003
2.440605e+002, 7.167432e+003
2.445427e+002, 7.231919e+003
2.450248e+002, 7.297736e+003
2.455069e+002, 7.366595e+003
2.459890e+002, 7.436466e+003
2.464711e+002, 7.501112e+003
2.469532e+002, 7.557380e+003
2.474354e+002, 7.614776e+003
2.479175e+002, 7.675159e+003
2.483996e+002, 7.736467e+003
2.488817e+002, 7.809025e+003
2.493638e+002, 7.895276e+003
2.498459e+002, 7.991565e+003
2.503281e+002, 8.091077e+003
2.508102e+002, 8.193080e+003
2.512923e+002, 8.300178e+003
2.517744e+002, 8.414243e+003
2.522565e+002, 8.534057e+003
2.527386e+002, 8.661317e+003
2.532208e+002, 8.795003e+003
2.537029e+002, 8.936842e+003
2.541850e+002, 9.091813e+003
2.546671e+002, 9.260284e+003
2.551492e+002, 9.441644e+003
2.556313e+002, 9.632559e+003
2.561135e+002, 9.829709e+003
2.565956e+002, 1.005258e+004
2.570777e+002, 1.030042e+004
2.575598e+002, 1.057144e+004
2.580419e+002, 1.086333e+004
2.585240e+002, 1.117295e+004
2.590062e+002, 1.150223e+004
2.594883e+002, 1.184808e+004
2.599704e+002, 1.220174e+004
2.604525e+002, 1.261218e+004
2.609346e+002, 1.308071e+004
2.614167e+002, 1.359787e+004
2.618989e+002, 1.415475e+004
2.623810e+002, 1.474810e+004
2.628631e+002, 1.537825e+004
2.633452e+002, 1.604325e+004
2.638273e+002, 1.675190e+004
2.643094e+002, 1.747074e+004
2.647916e+002, 1.822259e+004
2.652737e+002, 1.896708e+004
2.657558e+002, 1.968124e+004
2.662379e+002, 2.036501e+004
2.667200e+002, 2.100482e+004
2.672021e+002, 2.160862e+004
2.676843e+002, 2.217129e+004
2.681664e+002, 2.266405e+004
2.686485e+002, 2.307287e+004
2.691306e+002, 2.343896e+004
2.696127e+002, 2.378148e+004
2.700948e+002, 2.408863e+004
2.705770e+002, 2.441836e+004
2.710591e+002, 2.477780e+004
2.715412e+002, 2.516313e+004
2.720233e+002, 2.556311e+004
2.725054e+002, 2.596054e+004
2.729875e+002, 2.640166e+004
2.734697e+002, 2.691298e+004
2.739518e+002, 2.749928e+004
2.744339e+002, 2.815317e+004
2.749160e+002, 2.886739e+004
2.753981e+002, 2.964909e+004
2.758802e+002, 3.053719e+004
2.763624e+002, 3.151765e+004
2.768445e+002, 3.261053e+004
2.773266e+002, 3.383281e+004
2.778087e+002, 3.518736e+004
2.782908e+002, 3.664073e+004
2.787729e+002, 3.820379e+004
2.792551e+002, 3.984763e+004
2.797372e+002, 4.151441e+004
2.802193e+002, 4.323393e+004
2.807014e+002, 4.481779e+004
2.811835e+002, 4.626744e+004
2.816656e+002, 4.757801e+004
2.821478e+002, 4.842128e+004
2.826299e+002, 4.879793e+004
2.831120e+002, 4.867520e+004
2.835941e+002, 4.796197e+004
2.840762e+002, 4.664343e+004
2.845583e+002, 4.490733e+004
2.850405e+002, 4.271118e+004
2.855226e+002, 4.009944e+004
2.860047e+002, 3.744992e+004
2.864868e+002, 3.474084e+004
2.869689e+002, 3.207341e+004
2.874510e+002, 2.954390e+004
2.879332e+002, 2.715577e+004
2.884153e+002, 2.496417e+004
2.888974e+002, 2.305110e+004
2.893795e+002, 2.137554e+004
2.898616e+002, 1.986164e+004
2.903438e+002, 1.851145e+004
2.908259e+002, 1.730949e+004
2.913080e+002, 1.625224e+004
2.917901e+002, 1.534113e+004
2.922722e+002, 1.452509e+004
2.927543e+002, 1.380823e+004
2.932365e+002, 1.317564e+004
2.937186e+002, 1.260453e+004
2.942007e+002, 1.209996e+004
2.946828e+002, 1.164624e+004
2.951649e+002, 1.123536e+004
2.956470e+002, 1.086859e+004
2.961292e+002, 1.053728e+004
2.966113e+002, 1.024796e+004
2.970934e+002, 9.989065e+003
2.975755e+002, 9.739010e+003
2.980576e+002, 9.497673e+003
2.985397e+002, 9.275584e+003
2.990219e+002, 9.080674e+003
2.995040e+002, 8.907690e+003
2.999861e+002, 8.748197e+003
3.004682e+002, 8.601114e+003
3.009503e+002, 8.466252e+003
3.014324e+002, 8.344329e+003
3.019146e+002, 8.234840e+003
3.023967e+002, 8.130197e+003
3.028788e+002, 8.025864e+003
3.033609e+002, 7.924324e+003
3.038430e+002, 7.831749e+003
3.043251e+002, 7.750054e+003
3.048073e+002, 7.673242e+003
3.052894e+002, 7.590626e+003
3.057715e+002, 7.507827e+003
3.062536e+002, 7.436266e+003
3.067357e+002, 7.392741e+003
3.072178e+002, 7.358271e+003
3.077000e+002, 7.313344e+003
3.081821e+002, 7.255461e+003
3.086642e+002, 7.195712e+003
3.091463e+002, 7.140663e+003
3.096284e+002, 7.089479e+003
3.101105e+002, 7.040120e+003
3.105927e+002, 6.988316e+003
3.110748e+002, 6.941229e+003
3.115569e+002, 6.905952e+003
3.120390e+002, 6.882534e+003
3.125211e+002, 6.859323e+003
3.130032e+002, 6.827595e+003
3.134854e+002, 6.793199e+003
3.139675e+002, 6.762773e+003
3.144496e+002, 6.743354e+003
3.149317e+002, 6.724309e+003
3.154138e+002, 6.699440e+003
3.158959e+002, 6.669906e+003
3.163781e+002, 6.641745e+003
3.168602e+002, 6.622217e+003
3.173423e+002, 6.602795e+003
3.178244e+002, 6.576538e+003
3.183065e+002, 6.532950e+003
3.187886e+002, 6.495267e+003
3.192708e+002, 6.473417e+003
3.197529e+002, 6.463788e+003
3.202350e+002, 6.456200e+003
3.207171e+002, 6.452504e+003
3.211992e+002, 6.446454e+003
3.216813e+002, 6.434075e+003
3.221635e+002, 6.411079e+003
3.226456e+002, 6.390188e+003
3.231277e+002, 6.374477e+003
3.236098e+002, 6.362168e+003
3.240919e+002, 6.350282e+003
3.245740e+002, 6.337684e+003
3.250562e+002, 6.326132e+003
3.255383e+002, 6.316271e+003
3.260204e+002, 6.308378e+003
3.265025e+002, 6.301211e+003
3.269846e+002, 6.296289e+003
3.274667e+002, 6.291521e+003
3.279489e+002, 6.284619e+003
3.284310e+002, 6.273837e+003
3.289131e+002, 6.263052e+003
3.293952e+002, 6.252816e+003
3.298773e+002, 6.243186e+003
3.303594e+002, 6.233590e+003
3.308416e+002, 6.222788e+003
3.313237e+002, 6.213221e+003
3.318058e+002, 6.206942e+003
3.322879e+002, 6.207148e+003
3.327700e+002, 6.204959e+003
3.332521e+002, 6.198165e+003
3.337343e+002, 6.188087e+003
3.342164e+002, 6.181386e+003
3.346985e+002, 6.179482e+003
3.351806e+002, 6.178697e+003
3.356627e+002, 6.177013e+003
3.361448e+002, 6.173844e+003
3.366270e+002, 6.171567e+003
3.371091e+002, 6.170674e+003
3.375912e+002, 6.170389e+003
3.380733e+002, 6.169488e+003
3.385554e+002, 6.168488e+003
3.390375e+002, 6.165313e+003
3.395197e+002, 6.158333e+003
3.400018e+002, 6.147337e+003
3.404839e+002, 6.137121e+003
3.409660e+002, 6.126646e+003
3.414481e+002, 6.119617e+003
3.419302e+002, 6.124649e+003
3.424124e+002, 6.143163e+003
3.428945e+002, 6.153987e+003
3.433766e+002, 6.147838e+003
3.438587e+002, 6.129083e+003
3.443408e+002, 6.117801e+003
3.448229e+002, 6.114721e+003
3.453051e+002, 6.114501e+003
3.457872e+002, 6.112606e+003
3.462693e+002, 6.109329e+003
3.467514e+002, 6.106356e+003
3.472335e+002, 6.103676e+003
3.477156e+002, 6.102063e+003
3.481978e+002, 6.104834e+003
3.486799e+002, 6.111542e+003
3.491620e+002, 6.115940e+003
3.496441e+002, 6.110822e+003
3.501262e+002, 6.100552e+003
3.506083e+002, 6.095872e+003
3.510905e+002, 6.098818e+003
3.515726e+002, 6.104673e+003
3.520547e+002, 6.108642e+003
3.525368e+002, 6.111079e+003
3.530189e+002, 6.113071e+003
3.535010e+002, 6.116038e+003
3.539832e+002, 6.118406e+003
3.544653e+002, 6.117657e+003
3.549474e+002, 6.113556e+003
3.554295e+002, 6.109181e+003
3.559116e+002, 6.105717e+003
3.563937e+002, 6.103743e+003
3.568759e+002, 6.104192e+003
3.573580e+002, 6.110466e+003
3.578401e+002, 6.116689e+003
3.583222e+002, 6.118633e+003
3.588043e+002, 6.116794e+003
3.592864e+002, 6.113972e+003
3.597686e+002, 6.108482e+003
3.602507e+002, 6.104321e+003
3.607328e+002, 6.105506e+003
3.612149e+002, 6.116772e+003
3.616970e+002, 6.126884e+003
3.621791e+002, 6.129200e+003
3.626613e+002, 6.126918e+003
3.631434e+002, 6.127471e+003
3.636255e+002, 6.137639e+003
3.641076e+002, 6.147517e+003
3.645897e+002, 6.152623e+003
3.650718e+002, 6.151780e+003
3.655540e+002, 6.148020e+003
3.660361e+002, 6.138025e+003
3.665182e+002, 6.126683e+003
3.670003e+002, 6.119859e+003
3.674824e+002, 6.122101e+003
3.679645e+002, 6.125045e+003
3.684467e+002, 6.126785e+003
3.689288e+002, 6.127230e+003
3.694109e+002, 6.129507e+003
3.698930e+002, 6.137704e+003
3.703751e+002, 6.144788e+003
3.708572e+002, 6.145567e+003
3.713394e+002, 6.133623e+003
3.718215e+002, 6.126547e+003
3.723036e+002, 6.127833e+003
3.727857e+002, 6.134821e+003
3.732678e+002, 6.137507e+003
3.737499e+002, 6.132721e+003
3.742321e+002, 6.129133e+003
3.747142e+002, 6.131908e+003
3.751963e+002, 6.143805e+003
3.756784e+002, 6.149324e+003
3.761605e+002, 6.145783e+003
3.766426e+002, 6.139100e+003
3.771248e+002, 6.138830e+003
3.776069e+002, 6.145842e+003
3.780890e+002, 6.153889e+003
3.785711e+002, 6.161971e+003
3.790532e+002, 6.169646e+003
3.795353e+002, 6.172667e+003
3.800175e+002, 6.170614e+003
3.804996e+002, 6.166246e+003
3.809817e+002, 6.160717e+003
3.814638e+002, 6.154502e+003
3.819459e+002, 6.151632e+003
3.824280e+002, 6.153726e+003
3.829102e+002, 6.158528e+003
3.833923e+002, 6.161704e+003
3.838744e+002, 6.163404e+003
3.843565e+002, 6.165310e+003
3.848386e+002, 6.169803e+003
3.853207e+002, 6.175022e+003
3.858029e+002, 6.176547e+003
3.862850e+002, 6.173477e+003
3.867671e+002, 6.169194e+003
3.872492e+002, 6.168368e+003
3.877313e+002, 6.169039e+003
3.882134e+002, 6.166745e+003
3.886956e+002, 6.154938e+003
3.891777e+002, 6.142344e+003
3.896598e+002, 6.137065e+003
3.901419e+002, 6.139073e+003
3.906240e+002, 6.143902e+003
3.911061e+002, 6.154410e+003
3.915883e+002, 6.164129e+003
3.920704e+002, 6.165889e+003
3.925525e+002, 6.152457e+003
3.930346e+002, 6.138206e+003
3.935167e+002, 6.127763e+003
3.939988e+002, 6.121315e+003
3.944810e+002, 6.119126e+003
3.949631e+002, 6.124784e+003
3.954452e+002, 6.132012e+003
3.959273e+002, 6.137484e+003
3.964094e+002, 6.139918e+003
3.968915e+002, 6.143419e+003
3.973737e+002, 6.150251e+003
3.978558e+002, 6.157962e+003
3.983379e+002, 6.163534e+003
3.988200e+002, 6.164861e+003
3.993021e+002, 6.165730e+003
3.997842e+002, 6.165935e+003
4.002664e+002, 6.165427e+003
4.007485e+002, 6.167759e+003
4.012306e+002, 6.175378e+003
4.017127e+002, 6.183263e+003
4.021948e+002, 6.188674e+003
4.026769e+002, 6.193048e+003
4.031591e+002, 6.190818e+003
4.036412e+002, 6.177125e+003
4.041233e+002, 6.158674e+003
4.046054e+002, 6.153230e+003
4.050875e+002, 6.164986e+003
4.055696e+002, 6.177636e+003
4.060518e+002, 6.184799e+003
4.065339e+002, 6.186405e+003
4.070160e+002, 6.186901e+003
4.074981e+002, 6.186424e+003
4.079802e+002, 6.184788e+003
4.084623e+002, 6.181513e+003
4.089445e+002, 6.176675e+003
4.094266e+002, 6.171031e+003
4.099087e+002, 6.162846e+003
4.103908e+002, 6.155708e+003
4.108729e+002, 6.160968e+003
4.113550e+002, 6.178308e+003
4.118372e+002, 6.194903e+003
4.123193e+002, 6.200818e+003
4.128014e+002, 6.199348e+003
4.132835e+002, 6.197458e+003
4.137656e+002, 6.195403e+003
4.142477e+002, 6.195424e+003
4.147299e+002, 6.201456e+003
4.152120e+002, 6.211458e+003
4.156941e+002, 6.220459e+003
4.161762e+002, 6.225009e+003
4.166583e+002, 6.228116e+003
4.171404e+002, 6.232211e+003
4.176226e+002, 6.237282e+003
4.181047e+002, 6.242760e+003
4.185868e+002, 6.248140e+003
4.190689e+002, 6.253739e+003
4.195510e+002, 6.260233e+003
4.200331e+002, 6.270979e+003
4.205153e+002, 6.278205e+003
4.209974e+002, 6.277479e+003
4.214795e+002, 6.270899e+003
4.219616e+002, 6.263704e+003
4.224437e+002, 6.254710e+003
4.229258e+002, 6.247654e+003
4.234080e+002, 6.245585e+003
4.238901e+002, 6.251672e+003
4.243722e+002, 6.252266e+003
4.248543e+002, 6.237291e+003
4.253364e+002, 6.220919e+003
4.258185e+002, 6.217439e+003
4.263007e+002, 6.238145e+003
4.267828e+002, 6.255588e+003
4.272649e+002, 6.267034e+003
4.277470e+002, 6.272369e+003
4.282291e+002, 6.269302e+003
4.287112e+002, 6.251787e+003
4.291934e+002, 6.236312e+003
4.296755e+002, 6.233375e+003
4.301576e+002, 6.246405e+003
4.306397e+002, 6.253707e+003
4.311218e+002, 6.252996e+003
4.316039e+002, 6.249027e+003
4.320861e+002, 6.249970e+003
4.325682e+002, 6.256242e+003
4.330503e+002, 6.261088e+003
4.335324e+002, 6.262333e+003
4.340145e+002, 6.260418e+003
4.344966e+002, 6.254200e+003
4.349788e+002, 6.243433e+003
4.354609e+002, 6.237510e+003
4.359430e+002, 6.248708e+003
4.364251e+002, 6.271252e+003
4.369072e+002, 6.289389e+003
4.373893e+002, 6.300934e+003
4.378715e+002, 6.306104e+003
4.383536e+002, 6.300278e+003
4.388357e+002, 6.287534e+003
4.393178e+002, 6.279249e+003
4.397999e+002, 6.285024e+003
4.402820e+002, 6.295460e+003
4.407642e+002, 6.303029e+003
4.412463e+002, 6.307278e+003
4.417284e+002, 6.307936e+003
4.422105e+002, 6.301194e+003
4.426926e+002, 6.292376e+003
4.431747e+002, 6.286380e+003
4.436569e+002, 6.279384e+003
4.441390e+002, 6.281450e+003
4.446211e+002, 6.308003e+003
4.451032e+002, 6.347622e+003
4.455853e+002, 6.366403e+003
4.460674e+002, 6.331534e+003
4.465496e+002, 6.298541e+003
4.470317e+002, 6.291700e+003
4.475138e+002, 6.324519e+003
4.479959e+002, 6.341396e+003
4.484780e+002, 6.331764e+003
4.489601e+002, 6.313952e+003
4.494423e+002, 6.305763e+003
4.499244e+002, 6.311401e+003
4.504065e+002, 6.318590e+003
4.508886e+002, 6.326800e+003
4.513707e+002, 6.335110e+003
4.518528e+002, 6.338830e+003
4.523350e+002, 6.335992e+003
4.528171e+002, 6.334378e+003
4.532992e+002, 6.339067e+003
4.537813e+002, 6.350107e+003
4.542634e+002, 6.359663e+003
4.547455e+002, 6.368036e+003
4.552277e+002, 6.373150e+003
4.557098e+002, 6.368728e+003
4.561919e+002, 6.356757e+003
4.566740e+002, 6.351425e+003
4.571561e+002, 6.360365e+003
4.576382e+002, 6.376169e+003
4.581204e+002, 6.386819e+003
4.586025e+002, 6.392762e+003
4.590846e+002, 6.396342e+003
4.595667e+002, 6.397904e+003
4.600488e+002, 6.398725e+003
4.605309e+002, 6.400661e+003
4.610131e+002, 6.404271e+003
4.614952e+002, 6.407858e+003
4.619773e+002, 6.408909e+003
4.624594e+002, 6.409458e+003
4.629415e+002, 6.412493e+003
4.634236e+002, 6.424919e+003
4.639058e+002, 6.434603e+003
4.643879e+002, 6.433890e+003
4.648700e+002, 6.423984e+003
4.653521e+002, 6.417143e+003
4.658342e+002, 6.417429e+003
4.663163e+002, 6.420695e+003
4.667985e+002, 6.424706e+003
4.672806e+002, 6.429160e+003
4.677627e+002, 6.434481e+003
4.682448e+002, 6.439613e+003
4.687269e+002, 6.445983e+003
4.692090e+002, 6.456868e+003
4.696912e+002, 6.480200e+003
4.701733e+002, 6.493141e+003
4.706554e+002, 6.486377e+003
4.711375e+002, 6.462802e+003
4.716196e+002, 6.451641e+003
4.721017e+002, 6.456055e+003
4.725839e+002, 6.463927e+003
4.730660e+002, 6.466975e+003
4.735481e+002, 6.465142e+003
4.740302e+002, 6.465308e+003
4.745123e+002, 6.468806e+003
4.749944e+002, 6.472468e+003
4.754766e+002, 6.469806e+003
4.759587e+002, 6.462185e+003
4.764408e+002, 6.458083e+003
4.769229e+002, 6.463592e+003
4.774050e+002, 6.473214e+003
4.778871e+002, 6.476785e+003
4.783693e+002, 6.475111e+003
4.788514e+002, 6.475017e+003
4.793335e+002, 6.483907e+003
4.798156e+002, 6.496035e+003
4.802977e+002, 6.504312e+003
4.807798e+002, 6.506767e+003
4.812620e+002, 6.507596e+003
4.817441e+002, 6.508069e+003
4.822262e+002, 6.508584e+003
4.827083e+002, 6.509753e+003
4.831904e+002, 6.506407e+003
4.836725e+002, 6.508770e+003
4.841547e+002, 6.527178e+003
4.846368e+002, 6.559431e+003
4.851189e+002, 6.577256e+003
4.856010e+002, 6.559962e+003
4.860831e+002, 6.540272e+003
4.865652e+002, 6.534822e+003
4.870474e+002, 6.550104e+003
4.875295e+002, 6.566191e+003
4.880116e+002, 6.586258e+003
4.884937e+002, 6.604583e+003
4.889758e+002, 6.612335e+003
4.894579e+002, 6.606318e+003
4.899401e+002, 6.599282e+003
4.904222e+002, 6.593534e+003
4.909043e+002, 6.589229e+003
4.913864e+002, 6.587351e+003
4.918685e+002, 6.588219e+003
4.923506e+002, 6.589306e+003
4.928328e+002, 6.587544e+003
4.933149e+002, 6.584201e+003
4.937970e+002, 6.586339e+003
4.942791e+002, 6.595553e+003
4.947612e+002, 6.605043e+003
4.952433e+002, 6.606678e+003
4.957255e+002, 6.602578e+003
4.962076e+002, 6.598003e+003
4.966897e+002, 6.593490e+003
4.971718e+002, 6.590781e+003
4.976539e+002, 6.592147e+003
4.981360e+002, 6.596995e+003
4.986182e+002, 6.603001e+003
4.991003e+002, 6.611051e+003
4.995824e+002, 6.618388e+003
5.000645e+002, 6.623423e+003
5.005466e+002, 6.626449e+003
5.010287e+002, 6.625213e+003
5.015109e+002, 6.610756e+003
5.019930e+002, 6.595347e+003
5.024751e+002, 6.591440e+003
5.029572e+002, 6.612480e+003
5.034393e+002, 6.630926e+003
5.039214e+002, 6.644315e+003
5.044036e+002, 6.652855e+003
5.048857e+002, 6.657423e+003
5.053678e+002, 6.656760e+003
5.058499e+002, 6.654241e+003
5.063320e+002, 6.649516e+003
5.068141e+002, 6.641910e+003
5.072963e+002, 6.643763e+003
5.077784e+002, 6.657285e+003
5.082605e+002, 6.674617e+003
5.087426e+002, 6.689560e+003
5.092247e+002, 6.701966e+003
5.097068e+002, 6.708959e+003
5.101890e+002, 6.708580e+003
5.106711e+002, 6.705172e+003
5.111532e+002, 6.706899e+003
5.116353e+002, 6.712456e+003
5.121174e+002, 6.715715e+003
5.125995e+002, 6.710252e+003
5.130817e+002, 6.702449e+003
5.135638e+002, 6.700987e+003
5.140459e+002, 6.705732e+003
5.145280e+002, 6.709896e+003
5.150101e+002, 6.706978e+003
5.154922e+002, 6.702644e+003
5.159744e+002, 6.702293e+003
5.164565e+002, 6.708192e+003
5.169386e+002, 6.716015e+003
5.174207e+002, 6.727383e+003
5.179028e+002, 6.739280e+003
5.183849e+002, 6.746723e+003
5.188671e+002, 6.745516e+003
5.193492e+002, 6.743384e+003
5.198313e+002, 6.741704e+003
5.203134e+002, 6.740459e+003
5.207955e+002, 6.739470e+003
5.212776e+002, 6.738516e+003
5.217598e+002, 6.738001e+003
5.222419e+002, 6.738138e+003
5.227240e+002, 6.738916e+003
5.232061e+002, 6.740176e+003
5.236882e+002, 6.742057e+003
5.241703e+002, 6.744075e+003
5.246525e+002, 6.744462e+003
5.251346e+002, 6.743544e+003
5.256167e+002, 6.747152e+003
5.260988e+002, 6.759744e+003
5.265809e+002, 6.774457e+003
5.270630e+002, 6.777677e+003
5.275452e+002, 6.770913e+003
5.280273e+002, 6.762760e+003
5.285094e+002, 6.754466e+003
5.289915e+002, 6.749603e+003
5.294736e+002, 6.754255e+003
5.299557e+002, 6.769206e+003
5.304379e+002, 6.783307e+003
5.309200e+002, 6.787342e+003
5.314021e+002, 6.788473e+003
5.318842e+002, 6.794152e+003
5.323663e+002, 6.812717e+003
5.328484e+002, 6.826346e+003
5.333306e+002, 6.828142e+003
5.338127e+002, 6.822042e+003
5.342948e+002, 6.816222e+003
5.347769e+002, 6.805862e+003
5.352590e+002, 6.802489e+003
5.357411e+002, 6.813974e+003
5.362233e+002, 6.839443e+003
5.367054e+002, 6.844366e+003
5.371875e+002, 6.817888e+003
5.376696e+002, 6.792079e+003
5.381517e+002, 6.791345e+003
5.386339e+002, 6.818427e+003
5.391160e+002, 6.833757e+003
5.395981e+002, 6.833458e+003
5.400802e+002, 6.826232e+003
5.405623e+002, 6.820907e+003
5.410444e+002, 6.817952e+003
5.415266e+002, 6.820245e+003
5.420087e+002, 6.831071e+003
5.424908e+002, 6.844712e+003
5.429729e+002, 6.852171e+003
5.434550e+002, 6.854805e+003
5.439371e+002, 6.858444e+003
5.444193e+002, 6.870588e+003
5.449014e+002, 6.882281e+003
5.453835e+002, 6.883511e+003
5.458656e+002, 6.872718e+003
5.463477e+002, 6.866370e+003
5.468298e+002, 6.877941e+003
5.473120e+002, 6.892959e+003
5.477941e+002, 6.899176e+003
5.482762e+002, 6.880168e+003
5.487583e+002, 6.872315e+003
5.492404e+002, 6.889063e+003
5.497225e+002, 6.915258e+003
5.502047e+002, 6.923741e+003
5.506868e+002, 6.902144e+003
5.511689e+002, 6.887142e+003
5.516510e+002, 6.891060e+003
5.521331e+002, 6.909894e+003
5.526152e+002, 6.915594e+003
5.530974e+002, 6.905752e+003
5.535795e+002, 6.895182e+003
5.540616e+002, 6.894375e+003
5.545437e+002, 6.901788e+003
5.550258e+002, 6.908699e+003
5.555079e+002, 6.914973e+003
5.559901e+002, 6.919403e+003
5.564722e+002, 6.918501e+003
5.569543e+002, 6.915151e+003
5.574364e+002, 6.915466e+003
5.579185e+002, 6.922438e+003
5.584006e+002, 6.931574e+003
5.588828e+002, 6.940941e+003
5.593649e+002, 6.949636e+003
5.598470e+002, 6.955870e+003
5.603291e+002, 6.956349e+003
5.608112e+002, 6.956207e+003
5.612933e+002, 6.957083e+003
5.617755e+002, 6.958966e+003
5.622576e+002, 6.962635e+003
5.627397e+002, 6.971216e+003
5.632218e+002, 6.978892e+003
5.637039e+002, 6.982060e+003
5.641860e+002, 6.976384e+003
5.646682e+002, 6.978790e+003
5.651503e+002, 6.994572e+003
5.656324e+002, 7.012069e+003
5.661145e+002, 7.012995e+003
5.665966e+002, 6.994827e+003
5.670787e+002, 6.986368e+003
5.675609e+002, 6.997271e+003
5.680430e+002, 7.017311e+003
5.685251e+002, 7.023287e+003
5.690072e+002, 7.016848e+003
5.694893e+002, 7.010212e+003
5.699714e+002, 7.009952e+003
5.704536e+002, 7.013522e+003
5.709357e+002, 7.017688e+003
5.714178e+002, 7.022302e+003
5.718999e+002, 7.027199e+003
5.723820e+002, 7.034528e+003
5.728641e+002, 7.040669e+003
5.733463e+002, 7.041435e+003
5.738284e+002, 7.033258e+003
5.743105e+002, 7.027260e+003
5.747926e+002, 7.025888e+003
5.752747e+002, 7.028733e+003
5.757568e+002, 7.035448e+003
5.762390e+002, 7.052744e+003
5.767211e+002, 7.064696e+003
5.772032e+002, 7.067037e+003
5.776853e+002, 7.062978e+003
5.781674e+002, 7.064185e+003
5.786495e+002, 7.073151e+003
5.791317e+002, 7.079994e+003
5.796138e+002, 7.078466e+003
5.800959e+002, 7.070384e+003
5.805780e+002, 7.072153e+003
5.810601e+002, 7.084595e+003
5.815422e+002, 7.098479e+003
5.820244e+002, 7.108803e+003
5.825065e+002, 7.114488e+003
5.829886e+002, 7.110038e+003
5.834707e+002, 7.092509e+003
5.839528e+002, 7.077131e+003
5.844349e+002, 7.078478e+003
5.849171e+002, 7.090525e+003
5.853992e+002, 7.104444e+003
5.858813e+002, 7.124026e+003
5.863634e+002, 7.137344e+003
5.868455e+002, 7.133873e+003
5.873276e+002, 7.119782e+003
5.878098e+002, 7.112125e+003
5.882919e+002, 7.117814e+003
5.887740e+002, 7.126723e+003
5.892561e+002, 7.138308e+003
5.897382e+002, 7.152734e+003
5.902203e+002, 7.156771e+003
5.907025e+002, 7.145024e+003
5.911846e+002, 7.132464e+003
5.916667e+002, 7.130783e+003
5.921488e+002, 7.141277e+003
5.926309e+002, 7.141521e+003
5.931130e+002, 7.127888e+003
5.935952e+002, 7.114896e+003
5.940773e+002, 7.125514e+003
5.945594e+002, 7.153141e+003
5.950415e+002, 7.171514e+003
5.955236e+002, 7.172603e+003
5.960057e+002, 7.165032e+003
5.964879e+002, 7.150552e+003
5.969700e+002, 7.134716e+003
5.974521e+002, 7.130753e+003
5.979342e+002, 7.162435e+003
5.984163e+002, 7.192094e+003
5.988984e+002, 7.192556e+003
5.993806e+002, 7.167381e+003
5.998627e+002, 7.153749e+003
6.003448e+002, 7.171381e+003
6.008269e+002, 7.192832e+003
6.013090e+002, 7.205336e+003
6.017911e+002, 7.206754e+003
6.022733e+002, 7.207067e+003
6.027554e+002, 7.205994e+003
6.032375e+002, 7.204178e+003
6.037196e+002, 7.200334e+003
6.042017e+002, 7.193406e+003
6.046838e+002, 7.196889e+003
6.051660e+002, 7.215151e+003
6.056481e+002, 7.238103e+003
6.061302e+002, 7.249409e+003
6.066123e+002, 7.250798e+003
6.070944e+002, 7.250081e+003
6.075765e+002, 7.248957e+003
6.080587e+002, 7.248350e+003
6.085408e+002, 7.249237e+003
6.090229e+002, 7.251495e+003
6.095050e+002, 7.254806e+003
6.099871e+002, 7.262279e+003
6.104692e+002, 7.267980e+003
6.109514e+002, 7.266544e+003
6.114335e+002, 7.257081e+003
6.119156e+002, 7.251062e+003
6.123977e+002, 7.253827e+003
6.128798e+002, 7.258349e+003
6.133619e+002, 7.259983e+003
6.138441e+002, 7.254846e+003
6.143262e+002, 7.257541e+003
6.148083e+002, 7.273048e+003
6.152904e+002, 7.289784e+003
6.157725e+002, 7.289344e+003
6.162546e+002, 7.270212e+003
6.167368e+002, 7.262581e+003
6.172189e+002, 7.275409e+003
6.177010e+002, 7.297087e+003
6.181831e+002, 7.308636e+003
6.186652e+002, 7.311063e+003
6.191473e+002, 7.308069e+003
6.196295e+002, 7.293301e+003
6.201116e+002, 7.279521e+003
6.205937e+002, 7.283228e+003
6.210758e+002, 7.300994e+003
6.215579e+002, 7.315852e+003
6.220400e+002, 7.315255e+003
6.225222e+002, 7.312316e+003
6.230043e+002, 7.315016e+003
6.234864e+002, 7.325393e+003
6.239685e+002, 7.333689e+003
6.244506e+002, 7.336762e+003
6.249327e+002, 7.339250e+003
6.254149e+002, 7.344736e+003
6.258970e+002, 7.355577e+003
6.263791e+002, 7.361828e+003
6.268612e+002, 7.362233e+003
6.273433e+002, 7.359537e+003
6.278254e+002, 7.357550e+003
6.283076e+002, 7.356185e+003
6.287897e+002, 7.353362e+003
6.292718e+002, 7.347803e+003
6.297539e+002, 7.341798e+003
6.302360e+002, 7.338970e+003
6.307181e+002, 7.338823e+003
6.312003e+002, 7.339824e+003
6.316824e+002, 7.338579e+003
6.321645e+002, 7.340337e+003
6.326466e+002, 7.352499e+003
6.331287e+002, 7.373105e+003
6.336108e+002, 7.388511e+003
6.340930e+002, 7.388804e+003
6.345751e+002, 7.387288e+003
6.350572e+002, 7.392283e+003
6.355393e+002, 7.407237e+003
6.360214e+002, 7.411535e+003
6.365035e+002, 7.397784e+003
6.369857e+002, 7.382318e+003
6.374678e+002, 7.377568e+003
6.379499e+002, 7.384599e+003
6.384320e+002, 7.394557e+003
6.389141e+002, 7.406928e+003
6.393962e+002, 7.421727e+003
6.398784e+002, 7.444210e+003
6.403605e+002, 7.470454e+003
6.408426e+002, 7.483146e+003
6.413247e+002, 7.473139e+003
6.418068e+002, 7.455543e+003
6.422889e+002, 7.443970e+003
6.427711e+002, 7.437499e+003
6.432532e+002, 7.433698e+003
6.437353e+002, 7.434655e+003
6.442174e+002, 7.435201e+003
6.446995e+002, 7.430866e+003
6.451816e+002, 7.422955e+003
6.456638e+002, 7.420261e+003
6.461459e+002, 7.426329e+003
6.466280e+002, 7.435771e+003
6.471101e+002, 7.449341e+003
6.475922e+002, 7.467711e+003
6.480743e+002, 7.473857e+003
6.485565e+002, 7.463591e+003
6.490386e+002, 7.451531e+003
6.495207e+002, 7.448225e+003
6.500028e+002, 7.453079e+003
6.504849e+002, 7.464125e+003
6.509670e+002, 7.482249e+003
6.514492e+002, 7.498505e+003
6.519313e+002, 7.499585e+003
6.524134e+002, 7.492488e+003
6.528955e+002, 7.491246e+003
6.533776e+002, 7.502834e+003
6.538597e+002, 7.513180e+003
6.543419e+002, 7.512253e+003
6.548240e+002, 7.504771e+003
6.553061e+002, 7.497929e+003
6.557882e+002, 7.492287e+003
6.562703e+002, 7.489273e+003
6.567524e+002, 7.489776e+003
6.572346e+002, 7.493299e+003
6.577167e+002, 7.499146e+003
6.581988e+002, 7.509999e+003
6.586809e+002, 7.516927e+003
6.591630e+002, 7.514291e+003
6.596451e+002, 7.504988e+003
6.601273e+002, 7.507289e+003
6.606094e+002, 7.521656e+003
6.610915e+002, 7.538437e+003
6.615736e+002, 7.554548e+003
6.620557e+002, 7.567583e+003
6.625378e+002, 7.569985e+003
6.630200e+002, 7.561406e+003
6.635021e+002, 7.554921e+003
6.639842e+002, 7.561176e+003
6.644663e+002, 7.573024e+003
6.649484e+002, 7.584595e+003
6.654305e+002, 7.596427e+003
6.659127e+002, 7.603573e+003
6.663948e+002, 7.598834e+003
6.668769e+002, 7.592163e+003
6.673590e+002, 7.593935e+003
6.678411e+002, 7.609407e+003
6.683232e+002, 7.623074e+003
6.688054e+002, 7.635180e+003
6.692875e+002, 7.643405e+003
6.697696e+002, 7.641206e+003
6.702517e+002, 7.628322e+003
6.707338e+002, 7.617359e+003
6.712159e+002, 7.610167e+003
6.716981e+002, 7.609366e+003
6.721802e+002, 7.625669e+003
6.726623e+002, 7.653797e+003
6.731444e+002, 7.675457e+003
6.736265e+002, 7.679079e+003
6.741086e+002, 7.674081e+003
6.745908e+002, 7.663579e+003
6.750729e+002, 7.649198e+003
6.755550e+002, 7.639119e+003
6.760371e+002, 7.632771e+003
6.765192e+002, 7.634475e+003
6.770013e+002, 7.650427e+003
6.774835e+002, 7.683227e+003
6.779656e+002, 7.700395e+003
6.784477e+002, 7.695607e+003
6.789298e+002, 7.686920e+003
6.794119e+002, 7.686924e+003
6.798940e+002, 7.695670e+003
6.803762e+002, 7.703345e+003
6.808583e+002, 7.709605e+003
6.813404e+002, 7.715053e+003
6.818225e+002, 7.720702e+003
6.823046e+002, 7.725947e+003
6.827867e+002, 7.729791e+003
6.832689e+002, 7.732055e+003
6.837510e+002, 7.732600e+003
6.842331e+002, 7.726995e+003
6.847152e+002, 7.721114e+003
6.851973e+002, 7.722587e+003
6.856794e+002, 7.741437e+003
6.861616e+002, 7.758367e+003
6.866437e+002, 7.770178e+003
6.871258e+002, 7.778031e+003
6.876079e+002, 7.782033e+003
6.880900e+002, 7.777275e+003
6.885721e+002, 7.782152e+003
6.890543e+002, 7.804641e+003
6.895364e+002, 7.837142e+003
6.900185e+002, 7.857241e+003
6.905006e+002, 7.865099e+003
6.909827e+002, 7.870383e+003
6.914648e+002, 7.874896e+003
6.919470e+002, 7.881383e+003
6.924291e+002, 7.892690e+003
6.929112e+002, 7.909342e+003
6.933933e+002, 7.934201e+003
6.938754e+002, 7.970315e+003
6.943575e+002, 8.014411e+003
6.948397e+002, 8.060103e+003
6.953218e+002, 8.105712e+003
6.958039e+002, 8.176646e+003
6.962860e+002, 8.270978e+003
6.967681e+002, 8.396584e+003
6.972502e+002, 8.554322e+003
6.977324e+002, 8.735998e+003
6.982145e+002, 8.998548e+003
6.986966e+002, 9.359535e+003
6.991787e+002, 9.752246e+003
6.996608e+002, 1.015189e+004
7.001429e+002, 1.053502e+004
7.006251e+002, 1.079847e+004
7.011072e+002, 1.092365e+004
7.015893e+002, 1.095589e+004
7.020714e+002, 1.090413e+004
7.025535e+002, 1.079913e+004
7.030356e+002, 1.068385e+004
7.035178e+002, 1.056437e+004
7.039999e+002, 1.044898e+004
7.044820e+002, 1.033066e+004
7.049641e+002, 1.022166e+004
7.054462e+002, 1.013974e+004
7.059283e+002, 1.008538e+004
7.064105e+002, 1.005724e+004
7.068926e+002, 1.005814e+004
7.073747e+002, 1.008374e+004
7.078568e+002, 1.012480e+004
7.083389e+002, 1.018176e+004
7.088210e+002, 1.025054e+004
7.093032e+002, 1.033035e+004
7.097853e+002, 1.042111e+004
7.102674e+002, 1.051645e+004
7.107495e+002, 1.062049e+004
7.112316e+002, 1.074678e+004
7.117137e+002, 1.092421e+004
7.121959e+002, 1.110861e+004
7.126780e+002, 1.132629e+004
7.131601e+002, 1.154997e+004
7.136422e+002, 1.159582e+004
7.141243e+002, 1.133594e+004
7.146064e+002, 1.095527e+004
7.150886e+002, 1.049881e+004
7.155707e+002, 9.958926e+003
7.160528e+002, 9.508646e+003
7.165349e+002, 9.148636e+003
7.170170e+002, 8.867418e+003
7.174991e+002, 8.668174e+003
7.179813e+002, 8.545402e+003
7.184634e+002, 8.445443e+003
7.189455e+002, 8.368147e+003
7.194276e+002, 8.306673e+003
7.199097e+002, 8.259533e+003
7.203918e+002, 8.222610e+003
7.208740e+002, 8.191274e+003
7.213561e+002, 8.164321e+003
7.218382e+002, 8.144050e+003
7.223203e+002, 8.135236e+003
7.228024e+002, 8.131095e+003
7.232845e+002, 8.125444e+003
7.237667e+002, 8.114981e+003
7.242488e+002, 8.107212e+003
7.247309e+002, 8.101044e+003
7.252130e+002, 8.098563e+003
7.256951e+002, 8.105547e+003
7.261772e+002, 8.123328e+003
7.266594e+002, 8.128063e+003
7.271415e+002, 8.112858e+003
7.276236e+002, 8.092918e+003
7.281057e+002, 8.089712e+003
7.285878e+002, 8.098545e+003
7.290699e+002, 8.107638e+003
7.295521e+002, 8.115929e+003
7.300342e+002, 8.118949e+003
7.305163e+002, 8.108221e+003
7.309984e+002, 8.091166e+003
7.314805e+002, 8.080997e+003
7.319626e+002, 8.085425e+003
7.324448e+002, 8.092036e+003
7.329269e+002, 8.100552e+003
7.334090e+002, 8.109249e+003
7.338911e+002, 8.112539e+003
7.343732e+002, 8.109000e+003
7.348553e+002, 8.105771e+003
7.353375e+002, 8.104908e+003
7.358196e+002, 8.105960e+003
7.363017e+002, 8.108172e+003
7.367838e+002, 8.111394e+003
7.372659e+002, 8.114722e+003
7.377480e+002, 8.118181e+003
7.382302e+002, 8.121101e+003
7.387123e+002, 8.122862e+003
7.391944e+002, 8.123509e+003
7.396765e+002, 8.123376e+003
7.401586e+002, 8.120621e+003
7.406407e+002, 8.118927e+003
7.411229e+002, 8.119833e+003
7.416050e+002, 8.123261e+003
7.420871e+002, 8.129229e+003
7.425692e+002, 8.139516e+003
7.430513e+002, 8.148245e+003
7.435334e+002, 8.150441e+003
7.440156e+002, 8.147578e+003
7.444977e+002, 8.153617e+003
7.449798e+002, 8.168584e+003
7.454619e+002, 8.182167e+003
7.459440e+002, 8.184979e+003
7.464261e+002, 8.182374e+003
7.469083e+002, 8.181261e+003
7.473904e+002, 8.182272e+003
7.478725e+002, 8.181303e+003
7.483546e+002, 8.169281e+003
7.488367e+002, 8.159712e+003
7.493188e+002, 8.163413e+003
7.498010e+002, 8.185880e+003
7.502831e+002, 8.202811e+003
7.507652e+002, 8.213154e+003
7.512473e+002, 8.219362e+003
7.517294e+002, 8.223869e+003
7.522115e+002, 8.226598e+003
7.526937e+002, 8.221545e+003
7.531758e+002, 8.206690e+003
7.536579e+002, 8.195737e+003
7.541400e+002, 8.211073e+003
7.546221e+002, 8.237288e+003
7.551042e+002, 8.246864e+003
7.555864e+002, 8.230038e+003
7.560685e+002, 8.215114e+003
7.565506e+002, 8.220376e+003
7.570327e+002, 8.233561e+003
7.575148e+002, 8.242365e+003
7.579969e+002, 8.246107e+003
7.584791e+002, 8.243236e+003
7.589612e+002, 8.228040e+003
7.594433e+002, 8.212457e+003
7.599254e+002, 8.212896e+003
7.604075e+002, 8.230055e+003
7.608896e+002, 8.246390e+003
7.613718e+002, 8.260231e+003
7.618539e+002, 8.268896e+003
7.623360e+002, 8.264897e+003
7.628181e+002, 8.253521e+003
7.633002e+002, 8.245876e+003
7.637823e+002, 8.245888e+003
7.642645e+002, 8.249115e+003
7.647466e+002, 8.256400e+003
7.652287e+002, 8.264404e+003
7.657108e+002, 8.268219e+003
7.661929e+002, 8.264725e+003
7.666750e+002, 8.260035e+003
7.671572e+002, 8.252795e+003
7.676393e+002, 8.246123e+003
7.681214e+002, 8.246571e+003
7.686035e+002, 8.254639e+003
7.690856e+002, 8.263158e+003
7.695677e+002, 8.270269e+003
7.700499e+002, 8.277053e+003
7.705320e+002, 8.284129e+003
7.710141e+002, 8.292150e+003
7.714962e+002, 8.303014e+003
7.719783e+002, 8.330351e+003
7.724604e+002, 8.347074e+003
7.729426e+002, 8.327432e+003
7.734247e+002, 8.287359e+003
7.739068e+002, 8.264424e+003
7.743889e+002, 8.275703e+003
7.748710e+002, 8.286451e+003
7.753531e+002, 8.291183e+003
7.758353e+002, 8.291478e+003
7.763174e+002, 8.292021e+003
7.767995e+002, 8.292991e+003
7.772816e+002, 8.291314e+003
7.777637e+002, 8.283180e+003
7.782458e+002, 8.274877e+003
7.787280e+002, 8.279688e+003
7.792101e+002, 8.293832e+003
7.796922e+002, 8.304947e+003
7.801743e+002, 8.304139e+003
7.806564e+002, 8.301795e+003
7.811385e+002, 8.302298e+003
7.816207e+002, 8.305596e+003
7.821028e+002, 8.311221e+003
7.825849e+002, 8.322392e+003
7.830670e+002, 8.330232e+003
7.835491e+002, 8.330671e+003
7.840313e+002, 8.326329e+003
7.845134e+002, 8.329580e+003
7.849955e+002, 8.340546e+003
7.854776e+002, 8.347541e+003
7.859597e+002, 8.342654e+003
7.864418e+002, 8.332224e+003
7.869240e+002, 8.323514e+003
7.874061e+002, 8.317416e+003
7.878882e+002, 8.317551e+003
7.883703e+002, 8.334713e+003
7.888524e+002, 8.349996e+003
7.893345e+002, 8.350568e+003
7.898167e+002, 8.338911e+003
7.902988e+002, 8.336823e+003
7.907809e+002, 8.350897e+003
7.912630e+002, 8.362972e+003
7.917451e+002, 8.364852e+003
7.922272e+002, 8.360373e+003
7.927094e+002, 8.370800e+003
7.931915e+002, 8.395236e+003
7.936736e+002, 8.412213e+003
7.941557e+002, 8.401871e+003
7.946378e+002, 8.381709e+003
7.951199e+002, 8.372545e+003
7.956021e+002, 8.373317e+003
7.960842e+002, 8.377818e+003
7.965663e+002, 8.389611e+003
7.970484e+002, 8.398546e+003
7.975305e+002, 8.396617e+003
7.980126e+002, 8.385791e+003
7.984948e+002, 8.383877e+003
7.989769e+002, 8.393924e+003
7.994590e+002, 8.405748e+003
7.999411e+002, 8.416245e+003
8.004232e+002, 8.424972e+003
8.009053e+002, 8.428079e+003
8.013875e+002, 8.426186e+003
8.018696e+002, 8.425161e+003
8.023517e+002, 8.430468e+003
8.028338e+002, 8.436993e+003
8.033159e+002, 8.437428e+003
8.037980e+002, 8.433423e+003
8.042802e+002, 8.435221e+003
8.047623e+002, 8.451486e+003
8.052444e+002, 8.468537e+003
8.057265e+002, 8.482955e+003
8.062086e+002, 8.494211e+003
8.066907e+002, 8.496701e+003
8.071729e+002, 8.487998e+003
8.076550e+002, 8.480294e+003
8.081371e+002, 8.478928e+003
8.086192e+002, 8.482783e+003
8.091013e+002, 8.492027e+003
8.095834e+002, 8.505170e+003
8.100656e+002, 8.513616e+003
8.105477e+002, 8.507857e+003
8.110298e+002, 8.499576e+003
8.115119e+002, 8.495561e+003
8.119940e+002, 8.496124e+003
8.124761e+002, 8.500845e+003
8.129583e+002, 8.518288e+003
8.134404e+002, 8.528707e+003
8.139225e+002, 8.522495e+003
8.144046e+002, 8.503939e+003
8.148867e+002, 8.501103e+003
8.153688e+002, 8.514953e+003
8.158510e+002, 8.525585e+003
8.163331e+002, 8.518226e+003
8.168152e+002, 8.503697e+003
8.172973e+002, 8.497101e+003
8.177794e+002, 8.498560e+003
8.182615e+002, 8.509225e+003
8.187437e+002, 8.542425e+003
8.192258e+002, 8.572174e+003
8.197079e+002, 8.582674e+003
8.201900e+002, 8.576782e+003
8.206721e+002, 8.579886e+003
8.211542e+002, 8.598347e+003
8.216364e+002, 8.611563e+003
8.221185e+002, 8.611791e+003
8.226006e+002, 8.602327e+003
8.230827e+002, 8.591603e+003
8.235648e+002, 8.580350e+003
8.240469e+002, 8.573412e+003
8.245291e+002, 8.579344e+003
8.250112e+002, 8.586268e+003
8.254933e+002, 8.580357e+003
8.259754e+002, 8.565752e+003
8.264575e+002, 8.555392e+003
8.269396e+002, 8.555218e+003
8.274218e+002, 8.558168e+003
8.279039e+002, 8.564487e+003
8.283860e+002, 8.572167e+003
8.288681e+002, 8.573159e+003
8.293502e+002, 8.565960e+003
8.298323e+002, 8.560932e+003
8.303145e+002, 8.562152e+003
8.307966e+002, 8.566746e+003
8.312787e+002, 8.569124e+003
8.317608e+002, 8.570151e+003
8.322429e+002, 8.572509e+003
8.327250e+002, 8.580189e+003
8.332072e+002, 8.586721e+003
8.336893e+002, 8.586830e+003
8.341714e+002, 8.583231e+003
8.346535e+002, 8.583526e+003
8.351356e+002, 8.592998e+003
8.356177e+002, 8.597218e+003
8.360999e+002, 8.590942e+003
8.365820e+002, 8.580619e+003
8.370641e+002, 8.583343e+003
8.375462e+002, 8.597627e+003
8.380283e+002, 8.605681e+003
8.385104e+002, 8.598568e+003
8.389926e+002, 8.588841e+003
8.394747e+002, 8.589250e+003
8.399568e+002, 8.597053e+003
8.404389e+002, 8.607557e+003
8.409210e+002, 8.628941e+003
8.414031e+002, 8.640564e+003
8.418853e+002, 8.628229e+003
8.423674e+002, 8.608293e+003
8.428495e+002, 8.604764e+003
8.433316e+002, 8.621209e+003
8.438137e+002, 8.636704e+003
8.442958e+002, 8.649094e+003
8.447780e+002, 8.656269e+003
8.452601e+002, 8.650174e+003
8.457422e+002, 8.636793e+003
8.462243e+002, 8.631808e+003
8.467064e+002, 8.644116e+003
8.471885e+002, 8.653622e+003
8.476707e+002, 8.644225e+003
8.481528e+002, 8.627851e+003
8.486349e+002, 8.618901e+003
8.491170e+002, 8.628229e+003
8.495991e+002, 8.626868e+003
8.500812e+002, 8.609088e+003
8.505634e+002, 8.589248e+003
8.510455e+002, 8.584377e+003
8.515276e+002, 8.592834e+003
8.520097e+002, 8.602301e+003
8.524918e+002, 8.611682e+003
8.529739e+002, 8.619101e+003
8.534561e+002, 8.621354e+003
8.539382e+002, 8.621502e+003
8.544203e+002, 8.623216e+003
8.549024e+002, 8.628138e+003
8.553845e+002, 8.630958e+003
8.558666e+002, 8.625595e+003
8.563488e+002, 8.622197e+003
8.568309e+002, 8.629416e+003
8.573130e+002, 8.649814e+003
8.577951e+002, 8.658738e+003
8.582772e+002, 8.654584e+003
8.587593e+002, 8.648032e+003
8.592415e+002, 8.649804e+003
8.597236e+002, 8.654825e+003
8.602057e+002, 8.653485e+003
8.606878e+002, 8.645032e+003
8.611699e+002, 8.638104e+003
8.616520e+002, 8.638097e+003
8.621342e+002, 8.639955e+003
8.626163e+002, 8.641734e+003
8.630984e+002, 8.643644e+003
8.635805e+002, 8.639844e+003
8.640626e+002, 8.627241e+003
8.645447e+002, 8.618779e+003
8.650269e+002, 8.626327e+003
8.655090e+002, 8.643437e+003
8.659911e+002, 8.645628e+003
8.664732e+002, 8.634795e+003
8.669553e+002, 8.623385e+003
8.674374e+002, 8.617146e+003
8.679196e+002, 8.614770e+003
8.684017e+002, 8.617465e+003
8.688838e+002, 8.624119e+003
8.693659e+002, 8.627264e+003
8.698480e+002, 8.622358e+003
8.703301e+002, 8.620163e+003
8.708123e+002, 8.624087e+003
8.712944e+002, 8.632549e+003
8.717765e+002, 8.642677e+003
8.722586e+002, 8.653632e+003
8.727407e+002, 8.658313e+003
8.732228e+002, 8.650473e+003
8.737050e+002, 8.638225e+003
8.741871e+002, 8.628854e+003
8.746692e+002, 8.621657e+003
8.751513e+002, 8.614978e+003
8.756334e+002, 8.604374e+003
8.761155e+002, 8.600069e+003
8.765977e+002, 8.607486e+003
8.770798e+002, 8.619652e+003
8.775619e+002, 8.622619e+003
8.780440e+002, 8.615543e+003
8.785261e+002, 8.612926e+003
8.790082e+002, 8.619014e+003
8.794904e+002, 8.626939e+003
8.799725e+002, 8.627443e+003
8.804546e+002, 8.623517e+003
8.809367e+002, 8.620526e+003
8.814188e+002, 8.620960e+003
8.819009e+002, 8.620102e+003
8.823831e+002, 8.613972e+003
8.828652e+002, 8.607111e+003
8.833473e+002, 8.604076e+003
8.838294e+002, 8.605324e+003
8.843115e+002, 8.609155e+003
8.847936e+002, 8.616328e+003
8.852758e+002, 8.623418e+003
8.857579e+002, 8.628075e+003
8.862400e+002, 8.629873e+003
8.867221e+002, 8.625462e+003
8.872042e+002, 8.613970e+003
8.876863e+002, 8.607161e+003
8.881685e+002, 8.618046e+003
8.886506e+002, 8.631141e+003
8.891327e+002, 8.634764e+003
8.896148e+002, 8.626998e+003
8.900969e+002, 8.619402e+003
8.905790e+002, 8.610246e+003
8.910612e+002, 8.605046e+003
8.915433e+002, 8.607170e+003
8.920254e+002, 8.615619e+003
8.925075e+002, 8.630206e+003
8.929896e+002, 8.649656e+003
8.934717e+002, 8.664109e+003
8.939539e+002, 8.665201e+003
8.944360e+002, 8.661474e+003
8.949181e+002, 8.659367e+003
8.954002e+002, 8.658079e+003
8.958823e+002, 8.650300e+003
8.963644e+002, 8.629303e+003
8.968466e+002, 8.614347e+003
8.973287e+002, 8.610681e+003
8.978108e+002, 8.616498e+003
8.982929e+002, 8.632132e+003
8.987750e+002, 8.654974e+003
8.992571e+002, 8.667679e+003
8.997393e+002, 8.659177e+003
9.002214e+002, 8.644980e+003
9.007035e+002, 8.634929e+003
9.011856e+002, 8.628802e+003
9.016677e+002, 8.626435e+003
9.021498e+002, 8.628089e+003
9.026320e+002, 8.633740e+003
9.031141e+002, 8.646834e+003
9.035962e+002, 8.659484e+003
9.040783e+002, 8.658967e+003
9.045604e+002, 8.646334e+003
9.050425e+002, 8.636380e+003
9.055247e+002, 8.631314e+003
9.060068e+002, 8.628656e+003
9.064889e+002, 8.625987e+003
9.069710e+002, 8.624552e+003
9.074531e+002, 8.626295e+003
9.079352e+002, 8.632860e+003
9.084174e+002, 8.638116e+003
9.088995e+002, 8.643901e+003
9.093816e+002, 8.645182e+003
9.098637e+002, 8.635626e+003
9.103458e+002, 8.615186e+003
9.108279e+002, 8.610264e+003
9.113101e+002, 8.621095e+003
9.117922e+002, 8.633963e+003
9.122743e+002, 8.641152e+003
9.127564e+002, 8.643484e+003
9.132385e+002, 8.639316e+003
9.137206e+002, 8.629874e+003
9.142028e+002, 8.623731e+003
9.146849e+002, 8.628193e+003
9.151670e+002, 8.630697e+003
9.156491e+002, 8.626272e+003
9.161312e+002, 8.617436e+003
9.166133e+002, 8.613670e+003
9.170955e+002, 8.615098e+003
9.175776e+002, 8.619761e+003
9.180597e+002, 8.629422e+003
9.185418e+002, 8.638385e+003
9.190239e+002, 8.636312e+003
9.195060e+002, 8.628831e+003
9.199882e+002, 8.626806e+003
9.204703e+002, 8.638617e+003
9.209524e+002, 8.649874e+003
9.214345e+002, 8.659572e+003
9.219166e+002, 8.666257e+003
9.223987e+002, 8.666902e+003
9.228809e+002, 8.660901e+003
9.233630e+002, 8.656309e+003
9.238451e+002, 8.653857e+003
9.243272e+002, 8.653184e+003
9.248093e+002, 8.655033e+003
9.252914e+002, 8.657933e+003
9.257736e+002, 8.659674e+003
9.262557e+002, 8.659652e+003
9.267378e+002, 8.660838e+003
9.272199e+002, 8.668518e+003
9.277020e+002, 8.673482e+003
9.281841e+002, 8.669925e+003
9.286663e+002, 8.657943e+003
9.291484e+002, 8.649082e+003
9.296305e+002, 8.643264e+003
9.301126e+002, 8.641419e+003
9.305947e+002, 8.646438e+003
9.310768e+002, 8.654202e+003
9.315590e+002, 8.660282e+003
9.320411e+002, 8.664564e+003
9.325232e+002, 8.666760e+003
9.330053e+002, 8.666842e+003
9.334874e+002, 8.664360e+003
9.339695e+002, 8.656397e+003
9.344517e+002, 8.647298e+003
9.349338e+002, 8.650920e+003
9.354159e+002, 8.667710e+003
9.358980e+002, 8.674166e+003
9.363801e+002, 8.660706e+003
9.368622e+002, 8.643159e+003
9.373444e+002, 8.640491e+003
9.378265e+002, 8.646186e+003
9.383086e+002, 8.650906e+003
9.387907e+002, 8.653565e+003
9.392728e+002, 8.651927e+003
9.397549e+002, 8.638031e+003
9.402371e+002, 8.627300e+003
9.407192e+002, 8.635795e+003
9.412013e+002, 8.664323e+003
9.416834e+002, 8.679369e+003
9.421655e+002, 8.679184e+003
9.426476e+002, 8.676844e+003
9.431298e+002, 8.686663e+003
9.436119e+002, 8.697785e+003
9.440940e+002, 8.696689e+003
9.445761e+002, 8.683062e+003
9.450582e+002, 8.672166e+003
9.455403e+002, 8.666177e+003
9.460225e+002, 8.665795e+003
9.465046e+002, 8.674193e+003
9.469867e+002, 8.687791e+003
9.474688e+002, 8.689158e+003
9.479509e+002, 8.679336e+003
9.484330e+002, 8.675093e+003
9.489152e+002, 8.689665e+003
9.493973e+002, 8.704345e+003
9.498794e+002, 8.695895e+003
9.503615e+002, 8.675907e+003
9.508436e+002, 8.664908e+003
9.513257e+002, 8.676130e+003
9.518079e+002, 8.685586e+003
9.522900e+002, 8.692235e+003
9.527721e+002, 8.696455e+003
9.532542e+002, 8.699240e+003
9.537363e+002, 8.700275e+003
9.542184e+002, 8.694854e+003
9.547006e+002, 8.681683e+003
9.551827e+002, 8.672163e+003
9.556648e+002, 8.681300e+003
9.561469e+002, 8.694207e+003
9.566290e+002, 8.697090e+003
9.571111e+002, 8.687268e+003
9.575933e+002, 8.679010e+003
9.580754e+002, 8.671868e+003
9.585575e+002, 8.668572e+003
9.590396e+002, 8.672117e+003
9.595217e+002, 8.679908e+003
9.600038e+002, 8.682140e+003
9.604860e+002, 8.679918e+003
9.609681e+002, 8.679006e+003
9.614502e+002, 8.683602e+003
9.619323e+002, 8.689193e+003
9.624144e+002, 8.693080e+003
9.628965e+002, 8.695967e+003
9.633787e+002, 8.699511e+003
9.638608e+002, 8.704385e+003
9.643429e+002, 8.707680e+003
9.648250e+002, 8.708066e+003
9.653071e+002, 8.709053e+003
9.657892e+002, 8.718546e+003
9.662714e+002, 8.731982e+003
9.667535e+002, 8.736789e+003
9.672356e+002, 8.729589e+003
9.677177e+002, 8.722962e+003
9.681998e+002, 8.723760e+003
9.686819e+002, 8.727779e+003
9.691641e+002, 8.733730e+003
9.696462e+002, 8.742256e+003
9.701283e+002, 8.740145e+003
9.706104e+002, 8.724896e+003
9.710925e+002, 8.712837e+003
9.715746e+002, 8.715944e+003
9.720568e+002, 8.726912e+003
9.725389e+002, 8.736243e+003
9.730210e+002, 8.742395e+003
9.735031e+002, 8.740038e+003
9.739852e+002, 8.709110e+003
9.744673e+002, 8.691317e+003
9.749495e+002, 8.708391e+003
9.754316e+002, 8.740006e+003
9.759137e+002, 8.748956e+003
9.763958e+002, 8.733543e+003
9.768779e+002, 8.730065e+003
9.773600e+002, 8.747779e+003
9.778422e+002, 8.765229e+003
9.783243e+002, 8.755548e+003
9.788064e+002, 8.733962e+003
9.792885e+002, 8.719178e+003
9.797706e+002, 8.715084e+003
9.802527e+002, 8.714522e+003
9.807349e+002, 8.717327e+003
9.812170e+002, 8.721709e+003
9.816991e+002, 8.726004e+003
9.821812e+002, 8.730728e+003
9.826633e+002, 8.742243e+003
9.831454e+002, 8.759666e+003
9.836276e+002, 8.774011e+003
9.841097e+002, 8.777406e+003
9.845918e+002, 8.777842e+003
9.850739e+002, 8.782301e+003
9.855560e+002, 8.788417e+003
9.860381e+002, 8.789104e+003
9.865203e+002, 8.778760e+003
9.870024e+002, 8.774504e+003
9.874845e+002, 8.780131e+003
9.879666e+002, 8.789544e+003
9.884487e+002, 8.795073e+003
9.889308e+002, 8.797145e+003
9.894130e+002, 8.795628e+003
9.898951e+002, 8.789712e+003
9.903772e+002, 8.787307e+003
9.908593e+002, 8.793233e+003
9.913414e+002, 8.804451e+003
9.918235e+002, 8.822292e+003
9.923057e+002, 8.847650e+003
9.927878e+002, 8.854788e+003
9.932699e+002, 8.840697e+003
9.937520e+002, 8.827436e+003
9.942341e+002, 8.828287e+003
9.947162e+002, 8.836252e+003
9.951984e+002, 8.840015e+003
9.956805e+002, 8.840891e+003
9.961626e+002, 8.842428e+003
9.966447e+002, 8.846102e+003
9.971268e+002, 8.850400e+003
9.976089e+002, 8.854172e+003
9.980911e+002, 8.859029e+003
9.985732e+002, 8.868116e+003
9.990553e+002, 8.881392e+003
9.995374e+002, 8.892334e+003
1.000020e+003, 8.899884e+003
1.000502e+003, 8.905642e+003
1.000984e+003, 8.908854e+003
1.001466e+003, 8.912247e+003
1.001948e+003, 8.920083e+003
1.002430e+003, 8.933488e+003
1.002912e+003, 8.939467e+003
1.003394e+003, 8.931379e+003
1.003876e+003, 8.927771e+003
1.004359e+003, 8.938803e+003
1.004841e+003, 8.958352e+003
1.005323e+003, 8.967975e+003
1.005805e+003, 8.969217e+003
1.006287e+003, 8.967643e+003
1.006769e+003, 8.962759e+003
1.007251e+003, 8.959711e+003
1.007733e+003, 8.960100e+003
1.008216e+003, 8.964673e+003
1.008698e+003, 8.975015e+003
1.009180e+003, 8.994492e+003
1.009662e+003, 9.006489e+003
1.010144e+003, 9.009264e+003
1.010626e+003, 9.008748e+003
1.011108e+003, 9.007557e+003
1.011590e+003, 9.008296e+003
1.012072e+003, 9.015374e+003
1.012555e+003, 9.028905e+003
1.013037e+003, 9.044900e+003
1.013519e+003, 9.071967e+003
1.014001e+003, 9.088629e+003
1.014483e+003, 9.083817e+003
1.014965e+003, 9.065384e+003
1.015447e+003, 9.060419e+003
1.015929e+003, 9.067822e+003
1.016411e+003, 9.076907e+003
1.016894e+003, 9.085813e+003
1.017376e+003, 9.091459e+003
1.017858e+003, 9.085642e+003
1.018340e+003, 9.077486e+003
1.018822e+003, 9.079256e+003
1.019304e+003, 9.098796e+003
1.019786e+003, 9.112991e+003
1.020268e+003, 9.122885e+003
1.020751e+003, 9.124965e+003
1.021233e+003, 9.111926e+003
1.021715e+003, 9.090036e+003
1.022197e+003, 9.074977e+003
1.022679e+003, 9.066679e+003
1.023161e+003, 9.063053e+003
1.023643e+003, 9.065742e+003
1.024125e+003, 9.069898e+003
1.024607e+003, 9.074379e+003
1.025090e+003, 9.078576e+003
1.025572e+003, 9.081629e+003
1.026054e+003, 9.083540e+003
1.026536e+003, 9.082428e+003
1.027018e+003, 9.077400e+003
1.027500e+003, 9.071396e+003
1.027982e+003, 9.066269e+003
1.028464e+003, 9.062598e+003
1.028947e+003, 9.061913e+003
1.029429e+003, 9.065648e+003
1.029911e+003, 9.065442e+003
1.030393e+003, 9.057188e+003
1.030875e+003, 9.052268e+003
1.031357e+003, 9.057865e+003
1.031839e+003, 9.070847e+003
1.032321e+003, 9.083599e+003
1.032803e+003, 9.094580e+003
1.033286e+003, 9.097381e+003
1.033768e+003, 9.080486e+003
1.034250e+003, 9.064268e+003
1.034732e+003, 9.054127e+003
1.035214e+003, 9.051886e+003
1.035696e+003, 9.062182e+003
1.036178e+003, 9.089650e+003
1.036660e+003, 9.101674e+003
1.037143e+003, 9.094102e+003
1.037625e+003, 9.083670e+003
1.038107e+003, 9.084890e+003
1.038589e+003, 9.092664e+003
1.039071e+003, 9.102969e+003
1.039553e+003, 9.114933e+003
1.040035e+003, 9.121428e+003
1.040517e+003, 9.116537e+003
1.041000e+003, 9.112908e+003
1.041482e+003, 9.114581e+003
1.041964e+003, 9.119208e+003
1.042446e+003, 9.121576e+003
1.042928e+003, 9.122021e+003
1.043410e+003, 9.121606e+003
1.043892e+003, 9.120776e+003
1.044374e+003, 9.119076e+003
1.044856e+003, 9.115314e+003
1.045339e+003, 9.111391e+003
1.045821e+003, 9.108935e+003
1.046303e+003, 9.108084e+003
1.046785e+003, 9.107385e+003
1.047267e+003, 9.106381e+003
1.047749e+003, 9.109574e+003
1.048231e+003, 9.123030e+003
1.048713e+003, 9.140108e+003
1.049195e+003, 9.154041e+003
1.049677e+003, 9.164463e+003
1.050160e+003, 9.170258e+003
1.050642e+003, 9.165669e+003
1.051124e+003, 9.163681e+003
1.051606e+003, 9.165448e+003
1.052088e+003, 9.170521e+003
1.052570e+003, 9.180938e+003
1.053052e+003, 9.194339e+003
1.053534e+003, 9.197656e+003
1.054017e+003, 9.188832e+003
1.054499e+003, 9.187865e+003
1.054981e+003, 9.218140e+003
1.055463e+003, 9.250301e+003
1.055945e+003, 9.262436e+003
1.056427e+003, 9.259136e+003
1.056909e+003, 9.269368e+003
1.057391e+003, 9.294920e+003
1.057874e+003, 9.314079e+003
1.058356e+003, 9.318017e+003
1.058838e+003, 9.315629e+003
1.059320e+003, 9.314086e+003
1.059802e+003, 9.314800e+003
1.060284e+003, 9.319635e+003
1.060766e+003, 9.329248e+003
1.061248e+003, 9.343291e+003
1.061730e+003, 9.362049e+003
1.062213e+003, 9.384358e+003
1.062695e+003, 9.407588e+003
1.063177e+003, 9.433807e+003
1.063659e+003, 9.467271e+003
1.064141e+003, 9.509773e+003
1.064623e+003, 9.569670e+003
1.065105e+003, 9.646028e+003
1.065587e+003, 9.746398e+003
1.066070e+003, 9.869962e+003
1.066552e+003, 1.002311e+004
1.067034e+003, 1.025388e+004
1.067516e+003, 1.056892e+004
1.067998e+003, 1.071638e+004
1.068480e+003, 1.065807e+004
1.068962e+003, 1.051049e+004
1.069444e+003, 1.030327e+004
1.069927e+003, 1.011089e+004
1.070409e+003, 9.999636e+003
1.070891e+003, 9.979593e+003
1.071373e+003, 9.997470e+003
1.071855e+003, 1.005390e+004
1.072337e+003, 1.013617e+004
1.072819e+003, 1.023121e+004
1.073301e+003, 1.036621e+004
1.073783e+003, 1.055802e+004
1.074266e+003, 1.083622e+004
1.074748e+003, 1.126187e+004
1.075230e+003, 1.185069e+004
1.075712e+003, 1.259246e+004
1.076194e+003, 1.361752e+004
1.076676e+003, 1.465673e+004
1.077158e+003, 1.557392e+004
1.077640e+003, 1.637027e+004
1.078122e+003, 1.706314e+004
1.078604e+003, 1.766688e+004
1.079087e+003, 1.830367e+004
1.079569e+003, 1.897852e+004
1.080051e+003, 1.977446e+004
1.080533e+003, 2.063602e+004
1.081015e+003, 2.169342e+004
1.081497e+003, 2.309486e+004
1.081979e+003, 2.473230e+004
1.082461e+003, 2.701630e+004
1.082944e+003, 2.988971e+004
1.083426e+003, 3.390907e+004
1.083908e+003, 3.904335e+004
1.084390e+003, 4.594213e+004
1.084872e+003, 5.408949e+004
1.085354e+003, 6.402707e+004
1.085836e+003, 8.136156e+004
1.086318e+003, 1.114908e+005
1.086801e+003, 1.419875e+005
1.087283e+003, 1.750162e+005
1.087765e+003, 1.989423e+005
1.088247e+003, 1.859240e+005
1.088729e+003, 1.470496e+005
1.089211e+003, 1.098948e+005
1.089693e+003, 7.915503e+004
1.090175e+003, 5.530255e+004
1.090657e+003, 4.115175e+004
1.091140e+003, 3.184876e+004
1.091622e+003, 2.527096e+004
1.092104e+003, 2.120222e+004
1.092586e+003, 1.809680e+004
1.093068e+003, 1.591498e+004
1.093550e+003, 1.431206e+004
1.094032e+003, 1.326615e+004
1.094514e+003, 1.251241e+004
1.094997e+003, 1.194250e+004
1.095479e+003, 1.151602e+004
1.095961e+003, 1.117135e+004
1.096443e+003, 1.091472e+004
1.096925e+003, 1.069256e+004
1.097407e+003, 1.050462e+004
1.097889e+003, 1.034301e+004
1.098371e+003, 1.020622e+004
1.098854e+003, 1.009107e+004
1.099336e+003, 1.000035e+004
1.099818e+003, 9.928978e+003
1.100300e+003, 9.860176e+003
1.100782e+003, 9.787256e+003
1.101264e+003, 9.721782e+003
1.101746e+003, 9.666341e+003
1.102228e+003, 9.617864e+003
1.102710e+003, 9.572813e+003
1.103193e+003, 9.531939e+003
1.103675e+003, 9.494810e+003
1.104157e+003, 9.461662e+003
1.104639e+003, 9.437425e+003
1.105121e+003, 9.434664e+003
1.105603e+003, 9.429049e+003
1.106085e+003, 9.409665e+003
1.106567e+003, 9.381552e+003
1.107049e+003, 9.359620e+003
1.107531e+003, 9.343315e+003
1.108014e+003, 9.331790e+003
1.108496e+003, 9.326900e+003
1.108978e+003, 9.318021e+003
1.109460e+003, 9.285598e+003
1.109942e+003, 9.254822e+003
1.110424e+003, 9.252677e+003
1.110906e+003, 9.280760e+003
1.111388e+003, 9.286430e+003
1.111871e+003, 9.267943e+003
1.112353e+003, 9.252057e+003
1.112835e+003, 9.255510e+003
1.113317e+003, 9.263927e+003
1.113799e+003, 9.264447e+003
1.114281e+003, 9.258353e+003
1.114763e+003, 9.247120e+003
1.115245e+003, 9.226664e+003
1.115728e+003, 9.211838e+003
1.116210e+003, 9.204597e+003
1.116692e+003, 9.197127e+003
1.117174e+003, 9.179096e+003
1.117656e+003, 9.158510e+003
1.118138e+003, 9.152308e+003
1.118620e+003, 9.157366e+003
1.119102e+003, 9.159533e+003
1.119584e+003, 9.152098e+003
1.120067e+003, 9.143025e+003
1.120549e+003, 9.131812e+003
1.121031e+003, 9.121736e+003
1.121513e+003, 9.119517e+003
1.121995e+003, 9.122020e+003
1.122477e+003, 9.117629e+003
1.122959e+003, 9.105301e+003
1.123441e+003, 9.094161e+003
1.123924e+003, 9.088850e+003
1.124406e+003, 9.086229e+003
1.124888e+003, 9.086533e+003
1.125370e+003, 9.087636e+003
1.125852e+003, 9.081910e+003
1.126334e+003, 9.070341e+003
1.126816e+003, 9.064389e+003
1.127298e+003, 9.068254e+003
1.127781e+003, 9.071105e+003
1.128263e+003, 9.062186e+003
1.128745e+003, 9.051198e+003
1.129227e+003, 9.046448e+003
1.129709e+003, 9.047772e+003
1.130191e+003, 9.049737e+003
1.130673e+003, 9.052707e+003
1.131155e+003, 9.049870e+003
1.131637e+003, 9.034795e+003
1.132120e+003, 9.019259e+003
1.132602e+003, 9.015585e+003
1.133084e+003, 9.019253e+003
1.133566e+003, 9.024514e+003
1.134048e+003, 9.031342e+003
1.134530e+003, 9.036291e+003
1.135012e+003, 9.038614e+003
1.135494e+003, 9.041857e+003
1.135976e+003, 9.051953e+003
1.136458e+003, 9.062073e+003
1.136941e+003, 9.059489e+003
1.137423e+003, 9.048126e+003
1.137905e+003, 9.037545e+003
1.138387e+003, 9.028692e+003
1.138869e+003, 9.023775e+003
1.139351e+003, 9.023884e+003
1.139833e+003, 9.025840e+003
1.140315e+003, 9.026978e+003
1.140798e+003, 9.027432e+003
1.141280e+003, 9.025852e+003
1.141762e+003, 9.023162e+003
1.142244e+003, 9.025274e+003
1.142726e+003, 9.046880e+003
1.143208e+003, 9.055833e+003
1.143690e+003, 9.038458e+003
1.144172e+003, 9.013945e+003
1.144655e+003, 9.016604e+003
1.145137e+003, 9.038101e+003
1.145619e+003, 9.041564e+003
1.146101e+003, 9.022295e+003
1.146583e+003, 9.007310e+003
1.147065e+003, 9.017588e+003
1.147547e+003, 9.029256e+003
1.148029e+003, 9.031212e+003
1.148511e+003, 9.026534e+003
1.148994e+003, 9.022695e+003
1.149476e+003, 9.019947e+003
1.149958e+003, 9.020415e+003
1.150440e+003, 9.024757e+003
1.150922e+003, 9.031452e+003
1.151404e+003, 9.046658e+003
1.151886e+003, 9.057155e+003
1.152368e+003, 9.046877e+003
1.152851e+003, 9.019896e+003
1.153333e+003, 9.021022e+003
1.153815e+003, 9.050314e+003
1.154297e+003, 9.070195e+003
1.154779e+003, 9.062083e+003
1.155261e+003, 9.049486e+003
1.155743e+003, 9.055287e+003
1.156225e+003, 9.067725e+003
1.156708e+003, 9.073264e+003
1.157190e+003, 9.070826e+003
1.157672e+003, 9.065358e+003
1.158154e+003, 9.056392e+003
1.158636e+003, 9.049054e+003
1.159118e+003, 9.047590e+003
1.159600e+003, 9.048013e+003
1.160082e+003, 9.046330e+003
1.160564e+003, 9.043451e+003
1.161047e+003, 9.041016e+003
1.161529e+003, 9.041033e+003
1.162011e+003, 9.037234e+003
1.162493e+003, 9.028717e+003
1.162975e+003, 9.020372e+003
1.163457e+003, 9.015383e+003
1.163939e+003, 9.013166e+003
1.164421e+003, 9.011903e+003
1.164903e+003, 9.012662e+003
1.165385e+003, 9.019251e+003
1.165868e+003, 9.041100e+003
1.166350e+003, 9.050684e+003
1.166832e+003, 9.042080e+003
1.167314e+003, 9.031074e+003
1.167796e+003, 9.038262e+003
1.168278e+003, 9.052464e+003
1.168760e+003, 9.050426e+003
1.169242e+003, 9.034387e+003
1.169725e+003, 9.026791e+003
1.170207e+003, 9.044866e+003
1.170689e+003, 9.056081e+003
1.171171e+003, 9.053352e+003
1.171653e+003, 9.046343e+003
1.172135e+003, 9.050196e+003
1.172617e+003, 9.059878e+003
1.173099e+003, 9.063381e+003
1.173582e+003, 9.059480e+003
1.174064e+003, 9.056432e+003
1.174546e+003, 9.058504e+003
1.175028e+003, 9.060002e+003
1.175510e+003, 9.058813e+003
1.175992e+003, 9.056951e+003
1.176474e+003, 9.059463e+003
1.176956e+003, 9.064549e+003
1.177438e+003, 9.065786e+003
1.177921e+003, 9.061030e+003
1.178403e+003, 9.060998e+003
1.178885e+003, 9.079301e+003
1.179367e+003, 9.092103e+003
1.179849e+003, 9.086676e+003
1.180331e+003, 9.071392e+003
1.180813e+003, 9.073877e+003
1.181295e+003, 9.089544e+003
1.181778e+003, 9.100717e+003
1.182260e+003, 9.101369e+003
1.182742e+003, 9.101471e+003
1.183224e+003, 9.103879e+003
1.183706e+003, 9.108979e+003
1.184188e+003, 9.117943e+003
1.184670e+003, 9.129624e+003
1.185152e+003, 9.137825e+003
1.185635e+003, 9.142656e+003
1.186117e+003, 9.144869e+003
1.186599e+003, 9.142646e+003
1.187081e+003, 9.142087e+003
1.187563e+003, 9.153255e+003
1.188045e+003, 9.160579e+003
1.188527e+003, 9.148007e+003
1.189009e+003, 9.118526e+003
1.189491e+003, 9.114443e+003
1.189974e+003, 9.132186e+003
1.190456e+003, 9.145339e+003
1.190938e+003, 9.132498e+003
1.191420e+003, 9.123184e+003
1.191902e+003, 9.141938e+003
1.192384e+003, 9.163918e+003
1.192866e+003, 9.162049e+003
1.193348e+003, 9.135597e+003
1.193830e+003, 9.122795e+003
1.194313e+003, 9.122677e+003
1.194795e+003, 9.122610e+003
1.195277e+003, 9.114319e+003
1.195759e+003, 9.104768e+003
1.196241e+003, 9.096100e+003
1.196723e+003, 9.089463e+003
1.197205e+003, 9.087331e+003
1.197687e+003, 9.089960e+003
1.198169e+003, 9.087401e+003
1.198652e+003, 9.079637e+003
1.199134e+003, 9.076271e+003
1.199616e+003, 9.090345e+003
1.200098e+003, 9.104023e+003
1.200580e+003, 9.107666e+003
1.201062e+003, 9.103348e+003
1.201544e+003, 9.091485e+003
1.202026e+003, 9.071570e+003
1.202509e+003, 9.066699e+003
1.202991e+003, 9.079014e+003
1.203473e+003, 9.093025e+003
1.203955e+003, 9.097811e+003
1.204437e+003, 9.100177e+003
1.204919e+003, 9.104942e+003
1.205401e+003, 9.110270e+003
1.205883e+003, 9.111553e+003
1.206365e+003, 9.108622e+003
1.206848e+003, 9.104651e+003
1.207330e+003, 9.099703e+003
1.207812e+003, 9.098854e+003
1.208294e+003, 9.112542e+003
1.208776e+003, 9.125589e+003
1.209258e+003, 9.125361e+003
1.209740e+003, 9.116201e+003
1.210222e+003, 9.109827e+003
1.210705e+003, 9.106272e+003
1.211187e+003, 9.100702e+003
1.211669e+003, 9.091631e+003
1.212151e+003, 9.086967e+003
1.212633e+003, 9.099662e+003
1.213115e+003, 9.113525e+003
1.213597e+003, 9.115947e+003
1.214079e+003, 9.109521e+003
1.214562e+003, 9.100021e+003
1.215044e+003, 9.087771e+003
1.215526e+003, 9.088666e+003
1.216008e+003, 9.109068e+003
1.216490e+003, 9.127881e+003
1.216972e+003, 9.126316e+003
1.217454e+003, 9.118266e+003
1.217936e+003, 9.112598e+003
1.218418e+003, 9.109596e+003
1.218901e+003, 9.111174e+003
1.219383e+003, 9.116990e+003
1.219865e+003, 9.121684e+003
1.220347e+003, 9.123588e+003
1.220829e+003, 9.124240e+003
1.221311e+003, 9.120393e+003
1.221793e+003, 9.119916e+003
1.222275e+003, 9.132616e+003
1.222757e+003, 9.154812e+003
1.223240e+003, 9.156314e+003
1.223722e+003, 9.138963e+003
1.224204e+003, 9.125631e+003
1.224686e+003, 9.125351e+003
1.225168e+003, 9.127147e+003
1.225650e+003, 9.122326e+003
1.226132e+003, 9.118256e+003
1.226614e+003, 9.122157e+003
1.227096e+003, 9.132454e+003
1.227579e+003, 9.133021e+003
1.228061e+003, 9.124947e+003
1.228543e+003, 9.116766e+003
1.229025e+003, 9.108785e+003
1.229507e+003, 9.108377e+003
1.229989e+003, 9.129377e+003
1.230471e+003, 9.151162e+003
1.230953e+003, 9.156677e+003
1.231436e+003, 9.147917e+003
1.231918e+003, 9.141889e+003
1.232400e+003, 9.138955e+003
1.232882e+003, 9.142891e+003
1.233364e+003, 9.162380e+003
1.233846e+003, 9.175438e+003
1.234328e+003, 9.163005e+003
1.234810e+003, 9.147779e+003
1.235292e+003, 9.147208e+003
1.235775e+003, 9.159141e+003
1.236257e+003, 9.168449e+003
1.236739e+003, 9.174195e+003
1.237221e+003, 9.170835e+003
1.237703e+003, 9.144228e+003
1.238185e+003, 9.127257e+003
1.238667e+003, 9.144033e+003
1.239149e+003, 9.163476e+003
1.239632e+003, 9.160107e+003
1.240114e+003, 9.139680e+003
1.240596e+003, 9.138361e+003
1.241078e+003, 9.152072e+003
1.241560e+003, 9.163567e+003
1.242042e+003, 9.161263e+003
1.242524e+003, 9.161305e+003
1.243006e+003, 9.169290e+003
1.243489e+003, 9.178346e+003
1.243971e+003, 9.184885e+003
1.244453e+003, 9.187924e+003
1.244935e+003, 9.179100e+003
1.245417e+003, 9.162260e+003
1.245899e+003, 9.152026e+003
1.246381e+003, 9.162592e+003
1.246863e+003, 9.167971e+003
1.247345e+003, 9.162148e+003
1.247828e+003, 9.154923e+003
1.248310e+003, 9.156869e+003
1.248792e+003, 9.163252e+003
1.249274e+003, 9.158294e+003
1.249756e+003, 9.146095e+003
1.250238e+003, 9.140918e+003
1.250720e+003, 9.153517e+003
1.251202e+003, 9.166119e+003
1.251684e+003, 9.179515e+003
1.252167e+003, 9.187330e+003
1.252649e+003, 9.179646e+003
1.253131e+003, 9.164619e+003
1.253613e+003, 9.156018e+003
1.254095e+003, 9.153914e+003
1.254577e+003, 9.157854e+003
1.255059e+003, 9.171481e+003
1.255541e+003, 9.184608e+003
1.256023e+003, 9.197772e+003
1.256506e+003, 9.206316e+003
1.256988e+003, 9.201088e+003
1.257470e+003, 9.192314e+003
1.257952e+003, 9.200953e+003
1.258434e+003, 9.218269e+003
1.258916e+003, 9.214542e+003
1.259398e+003, 9.173819e+003
1.259880e+003, 9.152779e+003
1.260363e+003, 9.157135e+003
1.260845e+003, 9.166689e+003
1.261327e+003, 9.167990e+003
1.261809e+003, 9.162872e+003
1.262291e+003, 9.147551e+003
1.262773e+003, 9.128275e+003
1.263255e+003, 9.121971e+003
1.263737e+003, 9.132990e+003
1.264219e+003, 9.136334e+003
1.264702e+003, 9.129754e+003
1.265184e+003, 9.124001e+003
1.265666e+003, 9.126382e+003
1.266148e+003, 9.133850e+003
1.266630e+003, 9.149657e+003
1.267112e+003, 9.166882e+003
1.267594e+003, 9.171201e+003
1.268076e+003, 9.161821e+003
1.268559e+003, 9.152123e+003
1.269041e+003, 9.143080e+003
1.269523e+003, 9.137768e+003
1.270005e+003, 9.141569e+003
1.270487e+003, 9.146099e+003
1.270969e+003, 9.146856e+003
1.271451e+003, 9.145024e+003
1.271933e+003, 9.140191e+003
1.272416e+003, 9.133055e+003
1.272898e+003, 9.134377e+003
1.273380e+003, 9.144102e+003
1.273862e+003, 9.153862e+003
1.274344e+003, 9.162324e+003
1.274826e+003, 9.164958e+003
1.275308e+003, 9.157162e+003
1.275790e+003, 9.146910e+003
1.276272e+003, 9.145764e+003
1.276755e+003, 9.150659e+003
1.277237e+003, 9.147916e+003
1.277719e+003, 9.138422e+003
1.278201e+003, 9.133611e+003
1.278683e+003, 9.141706e+003
1.279165e+003, 9.151552e+003
1.279647e+003, 9.163328e+003
1.280129e+003, 9.171858e+003
1.280611e+003, 9.166796e+003
1.281094e+003, 9.156293e+003
1.281576e+003, 9.160497e+003
1.282058e+003, 9.176658e+003
1.282540e+003, 9.186361e+003
1.283022e+003, 9.180908e+003
1.283504e+003, 9.175873e+003
1.283986e+003, 9.172794e+003
1.284468e+003, 9.170031e+003
1.284950e+003, 9.163474e+003
1.285433e+003, 9.157968e+003
1.285915e+003, 9.161900e+003
1.286397e+003, 9.172873e+003
1.286879e+003, 9.181004e+003
1.287361e+003, 9.185783e+003
1.287843e+003, 9.186338e+003
1.288325e+003, 9.182114e+003
1.288807e+003, 9.177946e+003
1.289290e+003, 9.178475e+003
1.289772e+003, 9.180482e+003
1.290254e+003, 9.184330e+003
1.290736e+003, 9.186327e+003
1.291218e+003, 9.175929e+003
1.291700e+003, 9.150877e+003
1.292182e+003, 9.147510e+003
1.292664e+003, 9.168047e+003
1.293146e+003, 9.186487e+003
1.293629e+003, 9.180510e+003
1.294111e+003, 9.171633e+003
1.294593e+003, 9.172377e+003
1.295075e+003, 9.177053e+003
1.295557e+003, 9.179831e+003
1.296039e+003, 9.180533e+003
1.296521e+003, 9.176014e+003
1.297003e+003, 9.166756e+003
1.297486e+003, 9.159490e+003
1.297968e+003, 9.159677e+003
1.298450e+003, 9.162252e+003
1.298932e+003, 9.169058e+003
1.299414e+003, 9.173232e+003
1.299896e+003, 9.161115e+003
1.300378e+003, 9.142139e+003
1.300860e+003, 9.146253e+003
1.301343e+003, 9.169640e+003
1.301825e+003, 9.189631e+003
##END=



