##NAMES=Calcite
##RRUFFID=R050127
##IDEAL CHEMISTRY=CaCO_3_
##LOCALITY=Rodeo, Durango, Mexico
##OWNER=RRUFF
##SOURCE=Dave Bunk Minerals
##DESCRIPTION=Group of colorless crystals
##STATUS=The identification of this mineral has been confirmed by X-ray diffraction and chemical analysis
##URL=rruff.info/R050127
##MEASURED CHEMISTRY=Ca_1.00_CO_3_
94.30859, 35.58636
94.79071, 35.43562
95.27283, 35.33817
95.75494, 35.23195
96.23706, 35.35597
96.71918, 36.25129
97.20129, 37.86938
97.68341, 39.47354
98.16553, 40.17168
98.64764, 40.12882
99.12976, 41.56779
99.61188, 45.29441
100.0940, 50.21062
100.5761, 53.05978
101.0582, 53.33885
101.5403, 53.35133
102.0225, 54.72297
102.5046, 57.50791
102.9867, 61.37130
103.4688, 66.59710
103.9509, 73.02188
104.4330, 79.14308
104.9152, 85.28233
105.3973, 90.56490
105.8794, 93.67366
106.3615, 92.85964
106.8436, 93.01971
107.3257, 95.43169
107.8079, 100.5646
108.2900, 105.5976
108.7721, 111.0512
109.2542, 116.1464
109.7363, 119.8943
110.2184, 119.5127
110.7006, 120.3688
111.1827, 124.0501
111.6648, 131.9182
112.1469, 139.7802
112.6290, 147.8236
113.1111, 155.6370
113.5933, 162.6925
114.0754, 166.8794
114.5575, 171.7005
115.0396, 178.9011
115.5217, 191.5873
116.0038, 202.7917
116.4860, 209.5642
116.9681, 213.1499
117.4502, 217.9957
117.9323, 227.3700
118.4144, 237.6773
118.8965, 246.2950
119.3786, 251.4102
119.8608, 255.7038
120.3429, 259.8796
120.8250, 264.0494
121.3071, 268.9849
121.7892, 275.2460
122.2713, 282.5155
122.7535, 290.4129
123.2356, 299.8755
123.7177, 309.2403
124.1998, 316.8722
124.6819, 322.8074
125.1640, 328.3252
125.6462, 333.5769
126.1283, 339.2088
126.6104, 346.5803
127.0925, 355.8621
127.5746, 367.4493
128.0567, 382.1059
128.5389, 400.1325
129.0210, 420.1344
129.5031, 439.5324
129.9852, 459.0110
130.4673, 481.3533
130.9494, 508.3210
131.4316, 539.1953
131.9137, 569.4196
132.3958, 597.5031
132.8779, 628.4370
133.3600, 666.3063
133.8421, 710.6431
134.3243, 760.3799
134.8064, 817.3711
135.2885, 880.4097
135.7706, 941.2179
136.2527, 999.0604
136.7348, 1054.340
137.2170, 1106.826
137.6991, 1156.999
138.1812, 1204.854
138.6633, 1251.094
139.1454, 1296.437
139.6275, 1336.519
140.1097, 1368.990
140.5918, 1395.406
141.0739, 1423.609
141.5560, 1453.029
142.0381, 1484.692
142.5202, 1520.187
143.0023, 1560.031
143.4845, 1601.237
143.9666, 1642.760
144.4487, 1684.949
144.9308, 1728.504
145.4129, 1773.656
145.8951, 1820.296
146.3772, 1869.374
146.8593, 1918.222
147.3414, 1972.978
147.8235, 2033.578
148.3056, 2099.719
148.7878, 2175.426
149.2699, 2261.326
149.7520, 2357.439
150.2341, 2462.107
150.7162, 2569.529
151.1983, 2692.846
151.6805, 2837.683
152.1626, 3007.269
152.6447, 3186.240
153.1268, 3387.331
153.6089, 3597.499
154.0910, 3793.760
154.5732, 4015.352
155.0553, 4191.147
155.5374, 4300.716
156.0195, 4356.001
156.5016, 4319.871
156.9837, 4161.659
157.4659, 3909.251
157.9480, 3619.636
158.4301, 3266.117
158.9122, 2909.277
159.3943, 2578.776
159.8764, 2273.382
160.3586, 2003.309
160.8407, 1774.642
161.3228, 1583.496
161.8049, 1419.452
162.2870, 1286.005
162.7691, 1173.939
163.2513, 1077.857
163.7334, 1000.684
164.2155, 933.5184
164.6976, 874.3964
165.1797, 822.7017
165.6618, 775.9319
166.1440, 733.6971
166.6261, 695.9193
167.1082, 662.7291
167.5903, 634.4035
168.0724, 610.3644
168.5545, 591.6732
169.0367, 577.7087
169.5188, 564.6575
170.0009, 549.8337
170.4830, 534.8962
170.9651, 521.3470
171.4472, 510.1164
171.9293, 500.1342
172.4115, 490.8080
172.8936, 482.1051
173.3757, 473.5875
173.8578, 464.7618
174.3399, 456.0423
174.8220, 447.9651
175.3042, 440.6522
175.7863, 434.1369
176.2684, 428.3227
176.7505, 423.2046
177.2326, 418.8695
177.7147, 414.9969
178.1969, 411.9545
178.6790, 410.6427
179.1611, 413.9333
179.6432, 418.2576
180.1253, 417.3718
180.6074, 411.0151
181.0896, 403.9763
181.5717, 401.5444
182.0538, 402.4708
182.5359, 402.7133
183.0180, 399.8685
183.5001, 395.2702
183.9823, 391.4759
184.4644, 388.5136
184.9465, 386.5059
185.4286, 386.6450
185.9107, 388.3709
186.3928, 388.7422
186.8750, 385.1467
187.3571, 379.1029
187.8392, 375.3343
188.3213, 374.1355
188.8034, 374.3376
189.2855, 374.8951
189.7677, 375.7436
190.2498, 376.2276
190.7319, 375.9035
191.2140, 374.9034
191.6961, 373.8540
192.1782, 372.7278
192.6604, 371.6932
193.1425, 371.0171
193.6246, 370.7009
194.1067, 370.6118
194.5888, 370.8712
195.0709, 371.4170
195.5531, 371.4088
196.0352, 370.5931
196.5173, 369.7238
196.9994, 370.5485
197.4815, 373.2632
197.9636, 375.1618
198.4458, 374.0184
198.9279, 369.7935
199.4100, 368.3678
199.8921, 370.5081
200.3742, 374.4722
200.8563, 377.1367
201.3385, 378.3907
201.8206, 379.1398
202.3027, 379.6992
202.7848, 380.0434
203.2669, 380.5971
203.7490, 381.4758
204.2311, 382.4533
204.7133, 383.0023
205.1954, 383.0218
205.6775, 383.0500
206.1596, 383.3440
206.6417, 383.9305
207.1238, 384.6331
207.6060, 385.4471
208.0881, 386.3815
208.5702, 387.3826
209.0523, 388.3381
209.5344, 389.6983
210.0165, 392.0188
210.4987, 395.7979
210.9808, 398.0861
211.4629, 398.3779
211.9450, 397.4648
212.4271, 396.9469
212.9092, 396.5710
213.3914, 397.2026
213.8735, 399.8444
214.3556, 405.6015
214.8377, 408.9041
215.3198, 408.8989
215.8019, 406.7746
216.2841, 405.1120
216.7662, 403.4089
217.2483, 403.2118
217.7304, 405.7587
218.2125, 412.3746
218.6946, 417.3586
219.1768, 420.1250
219.6589, 421.4144
220.1410, 423.0975
220.6231, 425.1529
221.1052, 427.6533
221.5873, 430.8705
222.0695, 435.4144
222.5516, 438.7890
223.0337, 440.5169
223.5158, 441.2265
223.9979, 442.5203
224.4800, 444.4854
224.9622, 446.8549
225.4443, 449.4898
225.9264, 452.4030
226.4085, 455.5884
226.8906, 459.0274
227.3727, 462.7440
227.8549, 467.0500
228.3370, 472.2289
228.8191, 477.4673
229.3012, 482.5326
229.7833, 487.4611
230.2654, 491.9275
230.7476, 495.3714
231.2297, 498.5481
231.7118, 503.1911
232.1939, 509.7223
232.6760, 517.0190
233.1581, 524.8628
233.6402, 533.6080
234.1224, 541.7629
234.6045, 549.2892
235.0866, 556.3218
235.5687, 562.8094
236.0508, 567.3147
236.5329, 573.6212
237.0151, 583.6246
237.4972, 599.2438
237.9793, 612.6602
238.4614, 622.8206
238.9435, 631.3504
239.4256, 641.5223
239.9078, 653.5614
240.3899, 666.7136
240.8720, 681.1230
241.3541, 697.7352
241.8362, 712.0935
242.3183, 722.6553
242.8005, 731.9422
243.2826, 744.5491
243.7647, 761.5140
244.2468, 779.8731
244.7289, 798.8712
245.2110, 818.6879
245.6932, 838.2612
246.1753, 856.5006
246.6574, 875.1951
247.1395, 897.3989
247.6216, 924.3351
248.1037, 952.1730
248.5859, 979.4700
249.0680, 1005.255
249.5501, 1034.433
250.0322, 1067.748
250.5143, 1103.846
250.9964, 1140.823
251.4786, 1178.120
251.9607, 1217.394
252.4428, 1259.130
252.9249, 1302.729
253.4070, 1350.611
253.8891, 1403.004
254.3713, 1459.465
254.8534, 1519.475
255.3355, 1581.648
255.8176, 1649.127
256.2997, 1722.966
256.7818, 1802.451
257.2639, 1889.122
257.7461, 1982.473
258.2282, 2084.021
258.7103, 2193.741
259.1924, 2311.422
259.6745, 2440.191
260.1566, 2577.954
260.6388, 2726.449
261.1209, 2885.394
261.6030, 3055.651
262.0851, 3237.378
262.5672, 3430.484
263.0493, 3642.130
263.5315, 3851.333
264.0136, 4055.161
264.4957, 4252.938
264.9778, 4447.098
265.4599, 4635.146
265.9420, 4821.216
266.4242, 5006.720
266.9063, 5195.583
267.3884, 5376.409
267.8705, 5544.688
268.3526, 5703.062
268.8347, 5870.613
269.3169, 6049.413
269.7990, 6229.860
270.2811, 6406.023
270.7632, 6574.257
271.2453, 6748.588
271.7274, 6932.336
272.2096, 7123.259
272.6917, 7320.694
273.1738, 7524.793
273.6559, 7740.452
274.1380, 7971.138
274.6201, 8220.178
275.1023, 8475.834
275.5844, 8736.348
276.0665, 9002.701
276.5486, 9290.242
277.0307, 9600.272
277.5128, 9920.519
277.9950, 10249.57
278.4771, 10589.10
278.9592, 10919.55
279.4413, 11252.11
279.9234, 11565.11
280.4055, 11829.35
280.8877, 12051.81
281.3698, 12187.04
281.8519, 12220.95
282.3340, 12153.47
282.8161, 11965.19
283.2982, 11651.25
283.7804, 11225.46
284.2625, 10695.14
284.7446, 10056.04
285.2267, 9378.824
285.7088, 8670.643
286.1909, 7940.788
286.6731, 7251.062
287.1552, 6599.853
287.6373, 5992.980
288.1194, 5446.258
288.6015, 4956.530
289.0836, 4515.154
289.5658, 4123.049
290.0479, 3776.710
290.5300, 3464.917
291.0121, 3190.934
291.4942, 2946.686
291.9763, 2728.267
292.4585, 2536.243
292.9406, 2361.770
293.4227, 2205.611
293.9048, 2065.607
294.3869, 1940.121
294.8690, 1828.675
295.3512, 1728.436
295.8333, 1637.383
296.3154, 1555.244
296.7975, 1477.649
297.2796, 1403.779
297.7617, 1335.476
298.2439, 1277.613
298.7260, 1229.888
299.2081, 1185.752
299.6902, 1140.104
300.1723, 1095.381
300.6544, 1055.009
301.1366, 1020.682
301.6187, 989.0118
302.1008, 954.8597
302.5829, 919.7987
303.0650, 888.3912
303.5471, 866.0836
304.0293, 848.4647
304.5114, 829.0542
304.9935, 806.7311
305.4756, 784.2723
305.9577, 763.4207
306.4398, 744.1644
306.9220, 726.3386
307.4041, 710.5848
307.8862, 695.7169
308.3683, 679.4040
308.8504, 661.5700
309.3326, 645.1815
309.8147, 634.0340
310.2968, 625.6787
310.7789, 616.3148
311.2610, 603.0473
311.7431, 589.3275
312.2252, 577.6674
312.7073, 568.0057
313.1895, 559.0956
313.6716, 550.6819
314.1537, 542.4502
314.6358, 534.1622
315.1179, 525.2016
315.6000, 516.7465
316.0822, 509.7337
316.5643, 503.8599
317.0464, 497.8714
317.5285, 490.9258
318.0106, 483.8353
318.4927, 477.1709
318.9749, 470.9085
319.4570, 465.1764
319.9391, 460.2293
320.4212, 455.8638
320.9033, 451.4883
321.3854, 446.9923
321.8676, 442.3891
322.3497, 437.7802
322.8318, 433.3944
323.3139, 428.3522
323.7960, 421.2660
324.2781, 413.7112
324.7603, 407.8442
325.2424, 405.9316
325.7245, 403.9693
326.2066, 400.8102
326.6887, 396.2659
327.1708, 391.3819
327.6530, 384.4674
328.1351, 378.1074
328.6172, 374.5879
329.0993, 378.4924
329.5814, 380.2839
330.0635, 377.6602
330.5457, 370.8117
331.0278, 365.8688
331.5099, 363.8971
331.9920, 362.9437
332.4741, 361.8434
332.9562, 360.6166
333.4384, 359.1826
333.9205, 357.5386
334.4026, 355.6860
334.8847, 353.5110
335.3668, 350.6422
335.8489, 347.9748
336.3311, 346.1675
336.8132, 346.0480
337.2953, 344.1177
337.7774, 339.3870
338.2595, 333.6270
338.7416, 330.4373
339.2238, 330.5291
339.7059, 331.0048
340.1880, 330.8058
340.6701, 329.8994
341.1522, 329.4840
341.6343, 329.8469
342.1165, 330.0818
342.5986, 329.0391
343.0807, 326.6144
343.5628, 323.8280
344.0449, 320.6738
344.5270, 317.4015
345.0092, 314.8851
345.4913, 313.1186
345.9734, 312.0002
346.4555, 311.7232
346.9376, 312.1696
347.4197, 312.2678
347.9019, 311.7372
348.3840, 310.8811
348.8661, 310.0487
349.3482, 309.2727
349.8303, 308.9629
350.3124, 310.3371
350.7946, 312.3556
351.2767, 311.8837
351.7588, 308.1562
352.2409, 303.7967
352.7230, 301.5728
353.2051, 301.1551
353.6873, 301.5522
354.1694, 304.0714
354.6515, 306.3539
355.1336, 304.1816
355.6157, 297.3290
356.0978, 291.2432
356.5800, 291.2515
357.0621, 294.5071
357.5442, 296.7752
358.0263, 296.0440
358.5084, 294.3490
358.9905, 292.8963
359.4727, 291.6933
359.9548, 290.7349
360.4369, 290.1167
360.9190, 289.6967
361.4011, 289.4424
361.8832, 289.6695
362.3654, 289.4294
362.8475, 287.6772
363.3296, 285.1653
363.8117, 283.4667
364.2938, 283.7399
364.7759, 284.4644
365.2581, 285.1864
365.7402, 286.0852
366.2223, 285.9703
366.7044, 283.5392
367.1865, 280.3458
367.6686, 278.1019
368.1508, 277.6583
368.6329, 277.5819
369.1150, 277.8168
369.5971, 278.3668
370.0792, 278.4415
370.5613, 278.0584
371.0435, 277.1850
371.5256, 275.7098
372.0077, 272.2269
372.4898, 270.3651
372.9719, 270.8727
373.4540, 273.0483
373.9361, 274.7476
374.4182, 275.9939
374.9004, 276.6989
375.3825, 276.7209
375.8646, 275.8720
376.3467, 275.2295
376.8288, 275.0721
377.3109, 274.7610
377.7931, 273.0804
378.2752, 269.5935
378.7573, 266.7250
379.2394, 265.3642
379.7215, 265.2834
380.2036, 264.6964
380.6858, 263.5220
381.1679, 262.2758
381.6500, 261.6574
382.1321, 261.5706
382.6142, 260.7552
383.0963, 258.7181
383.5785, 256.2192
384.0606, 254.5949
384.5427, 253.8437
385.0248, 253.6102
385.5069, 254.1164
385.9890, 254.9536
386.4712, 255.0197
386.9533, 254.1239
387.4354, 253.0962
387.9175, 253.3337
388.3996, 254.1504
388.8817, 253.9885
389.3639, 251.1328
389.8460, 247.6120
390.3281, 245.1428
390.8102, 243.7599
391.2923, 243.4873
391.7744, 245.2834
392.2566, 247.8000
392.7387, 249.6875
393.2208, 250.9160
393.7029, 250.9660
394.1850, 248.6014
394.6671, 244.7553
395.1493, 241.8699
395.6314, 241.5338
396.1135, 241.8886
396.5956, 241.9279
397.0777, 241.3681
397.5598, 241.1824
398.0420, 242.3957
398.5241, 243.8074
399.0062, 244.0360
399.4883, 240.7837
399.9704, 238.5433
400.4525, 239.0874
400.9347, 242.2998
401.4168, 243.5205
401.8989, 240.7571
402.3810, 237.7867
402.8631, 236.9804
403.3452, 240.0986
403.8274, 241.8939
404.3095, 241.7624
404.7916, 240.3638
405.2737, 239.0618
405.7558, 237.6419
406.2379, 236.8742
406.7201, 237.3363
407.2022, 239.1152
407.6843, 239.9587
408.1664, 239.7338
408.6485, 238.9010
409.1306, 237.6659
409.6128, 236.0190
410.0949, 235.1859
410.5770, 235.7291
411.0591, 237.0716
411.5412, 237.8135
412.0233, 237.9640
412.5055, 237.6663
412.9876, 236.9117
413.4697, 235.7924
413.9518, 234.4534
414.4339, 232.8467
414.9160, 231.3519
415.3982, 229.8915
415.8803, 228.8514
416.3624, 229.1298
416.8445, 233.4391
417.3266, 237.8364
417.8087, 237.8711
418.2909, 233.7051
418.7730, 229.3644
419.2551, 226.3269
419.7372, 224.8543
420.2193, 225.5263
420.7014, 230.5409
421.1836, 234.5571
421.6657, 234.4281
422.1478, 231.5422
422.6299, 229.2130
423.1120, 229.3341
423.5941, 229.4797
424.0763, 228.2481
424.5584, 224.8762
425.0405, 222.9792
425.5226, 224.0630
426.0047, 226.2863
426.4868, 227.8719
426.9690, 228.6949
427.4511, 229.0101
427.9332, 228.6649
428.4153, 227.7828
428.8974, 226.9915
429.3795, 226.1187
429.8617, 225.6192
430.3438, 225.8496
430.8259, 227.0838
431.3080, 227.9829
431.7901, 228.5628
432.2722, 228.7660
432.7544, 228.5944
433.2365, 228.0820
433.7186, 226.7776
434.2007, 224.1184
434.6828, 220.6291
435.1649, 218.2140
435.6470, 216.8761
436.1292, 216.5254
436.6113, 217.4319
437.0934, 219.2982
437.5755, 221.3543
438.0576, 223.6798
438.5397, 225.5863
439.0219, 226.0184
439.5040, 225.2959
439.9861, 224.3803
440.4682, 223.6931
440.9503, 223.0758
441.4324, 222.3518
441.9146, 221.5177
442.3967, 220.7382
442.8788, 219.9526
443.3609, 219.3421
443.8430, 219.1372
444.3251, 219.8981
444.8073, 220.3978
445.2894, 219.8461
445.7715, 218.6822
446.2536, 218.0453
446.7357, 219.0149
447.2178, 219.8518
447.7000, 219.7295
448.1821, 218.2449
448.6642, 217.2099
449.1463, 216.9680
449.6284, 216.9945
450.1105, 216.7501
450.5927, 215.6674
451.0748, 215.3962
451.5569, 216.5887
452.0390, 218.7138
452.5211, 219.5927
453.0032, 218.8909
453.4854, 217.8402
453.9675, 217.2073
454.4496, 217.0618
454.9317, 215.8584
455.4138, 213.2534
455.8959, 210.5914
456.3781, 209.4727
456.8602, 209.8217
457.3423, 211.2099
457.8244, 214.1989
458.3065, 217.5206
458.7886, 218.4836
459.2708, 217.2761
459.7529, 215.4680
460.2350, 213.4227
460.7171, 211.6553
461.1992, 211.0393
461.6813, 211.8552
462.1635, 212.9273
462.6456, 213.4600
463.1277, 213.6526
463.6098, 213.8169
464.0919, 214.2561
464.5740, 214.5221
465.0562, 214.3136
465.5383, 213.6951
466.0204, 213.0944
466.5025, 212.6804
466.9846, 212.2829
467.4667, 211.7882
467.9489, 211.0384
468.4310, 210.4940
468.9131, 210.0066
469.3952, 209.8126
469.8773, 210.2791
470.3594, 212.0413
470.8416, 213.4888
471.3237, 214.4647
471.8058, 214.9148
472.2879, 214.1174
472.7700, 211.4529
473.2521, 209.0797
473.7343, 208.8833
474.2164, 211.0823
474.6985, 211.4909
475.1806, 209.4176
475.6627, 206.6901
476.1448, 205.7528
476.6270, 206.5050
477.1091, 208.2315
477.5912, 211.6988
478.0733, 215.2952
478.5554, 215.3349
479.0375, 212.1581
479.5197, 209.0717
480.0018, 208.5026
480.4839, 209.3115
480.9660, 210.1142
481.4481, 210.6975
481.9302, 211.2425
482.4124, 211.6832
482.8945, 212.2072
483.3766, 213.0892
483.8587, 215.1540
484.3408, 216.8933
484.8229, 217.8832
485.3051, 218.0927
485.7872, 217.3946
486.2693, 214.3872
486.7514, 211.5266
487.2335, 210.2706
487.7156, 211.8722
488.1978, 212.1601
488.6799, 210.0883
489.1620, 207.3934
489.6441, 206.4920
490.1262, 208.1405
490.6083, 209.6158
491.0905, 210.3049
491.5726, 210.3754
492.0547, 210.8366
492.5368, 211.9056
493.0189, 212.1553
493.5010, 209.6825
493.9832, 205.1553
494.4653, 203.4345
494.9474, 205.1106
495.4295, 207.8229
495.9116, 209.0070
496.3937, 209.0719
496.8758, 209.1307
497.3579, 209.6492
497.8401, 210.2073
498.3222, 210.1176
498.8043, 209.6082
499.2864, 209.5406
499.7685, 210.7648
500.2506, 212.3394
500.7328, 213.7169
501.2149, 214.8955
501.6970, 215.4092
502.1791, 214.2627
502.6612, 212.7523
503.1433, 212.1034
503.6255, 213.8489
504.1076, 214.8913
504.5897, 214.5541
505.0718, 213.2494
505.5539, 212.1606
506.0360, 211.3857
506.5182, 210.6598
507.0003, 209.7911
507.4824, 208.7304
507.9645, 208.4600
508.4466, 209.2394
508.9287, 210.2072
509.4109, 210.3361
509.8930, 209.6386
510.3751, 209.8469
510.8572, 211.5377
511.3393, 213.6110
511.8214, 213.9969
512.3036, 212.9950
512.7857, 212.2089
513.2678, 213.0820
513.7499, 214.3107
514.2321, 213.7106
514.7142, 211.4348
515.1963, 209.4091
515.6784, 208.9097
516.1605, 209.2719
516.6426, 210.0146
517.1248, 211.3887
517.6069, 212.2318
518.0890, 211.4562
518.5711, 210.0298
519.0532, 209.3522
519.5353, 210.6691
520.0175, 211.7247
520.4996, 211.9103
520.9817, 211.3285
521.4638, 210.7401
521.9459, 210.0005
522.4280, 209.4398
522.9102, 209.1684
523.3923, 209.1262
523.8744, 209.7987
524.3565, 211.5156
524.8386, 213.2890
525.3207, 214.0255
525.8029, 213.7207
526.2849, 212.2758
526.7670, 208.9283
527.2491, 205.4634
527.7313, 206.2074
528.2134, 210.4556
528.6955, 214.1293
529.1776, 213.6547
529.6597, 211.8062
530.1418, 212.8596
530.6240, 216.9217
531.1061, 220.0382
531.5882, 219.1800
532.0703, 216.3134
532.5524, 213.0561
533.0345, 208.6687
533.5167, 206.0127
533.9988, 207.3810
534.4809, 210.8727
534.9630, 213.2398
535.4451, 214.0397
535.9272, 213.6311
536.4094, 211.2030
536.8915, 207.0782
537.3736, 205.6282
537.8557, 208.3212
538.3378, 211.2231
538.8199, 211.9242
539.3021, 210.0003
539.7842, 209.2460
540.2663, 209.9848
540.7484, 211.0605
541.2305, 210.7231
541.7126, 209.2130
542.1948, 208.5392
542.6769, 209.3975
543.1590, 211.0565
543.6411, 213.0008
544.1232, 214.9445
544.6053, 215.8118
545.0875, 213.9805
545.5696, 211.4773
546.0517, 210.1169
546.5338, 209.9680
547.0159, 210.4085
547.4980, 211.8731
547.9802, 213.3703
548.4623, 214.0986
548.9444, 213.4316
549.4265, 212.8639
549.9086, 212.5777
550.3907, 212.5242
550.8729, 212.6867
551.3550, 213.5995
551.8371, 213.7586
552.3192, 212.4505
552.8013, 210.1087
553.2834, 209.1771
553.7656, 209.9437
554.2477, 211.0548
554.7298, 211.8228
555.2119, 212.2838
555.6940, 212.9950
556.1761, 214.0612
556.6583, 214.5549
557.1404, 212.5720
557.6225, 209.3471
558.1046, 208.1336
558.5867, 210.4576
559.0688, 213.0619
559.5510, 212.4509
560.0331, 210.0126
560.5152, 208.4794
560.9973, 209.6246
561.4794, 211.3582
561.9615, 213.0634
562.4437, 214.6204
562.9258, 215.3253
563.4079, 214.3504
563.8900, 213.0544
564.3721, 211.9877
564.8542, 210.9925
565.3364, 210.8481
565.8185, 212.1717
566.3006, 213.6035
566.7827, 213.3965
567.2648, 211.0852
567.7469, 210.2063
568.2291, 211.7626
568.7112, 214.3468
569.1933, 215.2785
569.6754, 214.6342
570.1575, 213.2829
570.6396, 210.7492
571.1218, 208.1996
571.6039, 207.8515
572.0860, 209.4928
572.5681, 211.4465
573.0502, 212.9828
573.5323, 214.0695
574.0145, 214.5826
574.4966, 214.3605
574.9787, 214.2440
575.4608, 214.7683
575.9429, 215.4435
576.4250, 215.7854
576.9072, 215.5275
577.3893, 215.1392
577.8714, 214.3457
578.3535, 213.5208
578.8356, 213.6729
579.3177, 215.3354
579.7999, 216.6739
580.2820, 217.1862
580.7641, 216.9089
581.2462, 215.8012
581.7283, 213.7418
582.2104, 212.0575
582.6926, 211.9220
583.1747, 212.9064
583.6568, 213.8639
584.1389, 214.7448
584.6210, 215.3504
585.1031, 215.1609
585.5853, 214.6772
586.0674, 214.6669
586.5495, 215.6694
587.0316, 216.6320
587.5137, 216.8995
587.9958, 216.7747
588.4780, 216.8477
588.9601, 217.6242
589.4422, 218.2428
589.9243, 218.4408
590.4064, 218.2551
590.8885, 217.9986
591.3707, 217.8165
591.8528, 217.3228
592.3349, 216.0158
592.8170, 213.6845
593.2991, 213.2591
593.7813, 215.2424
594.2634, 217.2267
594.7455, 216.0406
595.2276, 212.4988
595.7097, 210.4652
596.1918, 210.8040
596.6740, 212.2558
597.1561, 213.7557
597.6382, 215.2254
598.1203, 216.4615
598.6024, 217.2095
599.0845, 217.8685
599.5667, 218.9953
600.0488, 220.3152
600.5309, 220.7612
601.0130, 218.8323
601.4951, 217.0398
601.9772, 216.6098
602.4594, 217.7328
602.9415, 218.4988
603.4236, 218.9486
603.9057, 218.9928
604.3878, 218.2930
604.8699, 216.5620
605.3521, 216.1733
605.8342, 217.5439
606.3163, 219.4824
606.7984, 220.3881
607.2805, 220.4283
607.7626, 220.6732
608.2448, 221.6528
608.7269, 222.5590
609.2090, 222.2588
609.6911, 221.0480
610.1732, 219.7325
610.6553, 218.5120
611.1375, 217.4885
611.6196, 215.8320
612.1017, 213.8975
612.5838, 214.8830
613.0659, 224.4447
613.5480, 233.1726
614.0302, 235.7085
614.5123, 230.3744
614.9944, 226.0583
615.4765, 222.6696
615.9586, 220.4719
616.4407, 220.1136
616.9229, 221.9369
617.4050, 222.7114
617.8871, 221.8830
618.3692, 220.4486
618.8513, 219.7476
619.3334, 219.7347
619.8156, 220.2628
620.2977, 221.6078
620.7798, 223.0616
621.2619, 224.0232
621.7440, 224.4446
622.2261, 224.1869
622.7083, 222.3708
623.1904, 220.5440
623.6725, 219.6281
624.1546, 219.6665
624.6367, 219.8300
625.1188, 220.1000
625.6010, 220.3501
626.0831, 220.5379
626.5652, 220.6929
627.0473, 220.6392
627.5294, 220.2597
628.0115, 219.8579
628.4937, 219.8140
628.9758, 220.1318
629.4579, 220.3040
629.9400, 220.3261
630.4221, 219.9941
630.9042, 218.6023
631.3864, 216.5503
631.8685, 215.1102
632.3506, 214.9284
632.8327, 215.3403
633.3148, 216.2134
633.7969, 217.2732
634.2791, 217.6986
634.7612, 216.3191
635.2433, 215.0383
635.7254, 214.7400
636.2075, 215.4915
636.6896, 216.3065
637.1718, 217.6907
637.6539, 218.4781
638.1360, 217.7026
638.6181, 214.8632
639.1002, 214.1752
639.5823, 216.2170
640.0645, 218.7266
640.5466, 219.5374
641.0287, 218.8327
641.5108, 217.1550
641.9929, 214.1876
642.4750, 211.8633
642.9572, 213.5229
643.4393, 217.2392
643.9214, 219.4569
644.4035, 217.7822
644.8856, 215.5656
645.3677, 214.0911
645.8499, 213.3746
646.3320, 213.4980
646.8141, 215.4919
647.2962, 217.2364
647.7783, 218.2445
648.2604, 218.5462
648.7426, 218.2594
649.2247, 217.0290
649.7068, 216.0589
650.1888, 216.0843
650.6710, 217.0177
651.1531, 217.5607
651.6352, 217.6697
652.1173, 217.8362
652.5994, 219.0381
653.0815, 220.4746
653.5637, 220.2599
654.0458, 217.8785
654.5279, 215.6078
655.0100, 215.2912
655.4921, 215.9245
655.9742, 216.3501
656.4564, 215.6096
656.9385, 215.6033
657.4206, 217.2989
657.9027, 219.8196
658.3848, 221.7801
658.8669, 223.4783
659.3491, 223.8988
659.8312, 222.2925
660.3133, 219.6154
660.7954, 219.0093
661.2775, 220.6366
661.7596, 221.7496
662.2418, 220.6861
662.7239, 218.4440
663.2060, 217.0703
663.6881, 216.5422
664.1702, 216.7696
664.6523, 218.3806
665.1345, 220.2670
665.6166, 221.5163
666.0987, 222.0388
666.5808, 222.1283
667.0629, 221.7026
667.5450, 221.0113
668.0272, 220.1340
668.5093, 218.7348
668.9914, 218.0555
669.4735, 218.2751
669.9556, 218.9940
670.4377, 219.9908
670.9199, 221.3111
671.4020, 221.9189
671.8841, 221.4440
672.3662, 220.8296
672.8483, 221.8510
673.3304, 223.9358
673.8126, 225.2966
674.2947, 225.0052
674.7768, 224.1604
675.2589, 222.9524
675.7410, 221.9043
676.2231, 222.2232
676.7053, 226.5307
677.1874, 230.0412
677.6695, 230.5200
678.1516, 228.3774
678.6337, 227.1015
679.1158, 226.5810
679.5980, 227.1577
680.0801, 229.5255
680.5622, 233.4269
681.0443, 235.1530
681.5264, 234.5032
682.0085, 233.4506
682.4907, 233.5166
682.9728, 234.2554
683.4549, 234.4254
683.9370, 233.9206
684.4191, 234.0130
684.9012, 236.2742
685.3834, 239.2908
685.8655, 241.4718
686.3476, 241.8560
686.8297, 243.1405
687.3118, 247.2788
687.7939, 251.9523
688.2761, 254.5789
688.7582, 253.3902
689.2403, 254.0362
689.7224, 257.3622
690.2045, 262.1515
690.6866, 266.3807
691.1688, 270.0561
691.6509, 274.7203
692.1330, 280.5584
692.6151, 287.9348
693.0972, 296.8737
693.5793, 307.7320
694.0615, 321.2590
694.5436, 335.5073
695.0257, 354.9299
695.5078, 381.0667
695.9899, 414.4476
696.4720, 457.0126
696.9542, 512.9093
697.4363, 575.0145
697.9184, 643.9366
698.4005, 718.9093
698.8826, 780.0139
699.3647, 825.5475
699.8469, 862.0707
700.3290, 890.2222
700.8111, 911.4767
701.2932, 936.1631
701.7753, 964.0758
702.2574, 995.2171
702.7396, 1029.038
703.2217, 1066.246
703.7038, 1107.009
704.1859, 1151.002
704.6680, 1201.999
705.1501, 1257.309
705.6323, 1323.154
706.1144, 1404.937
706.5965, 1497.858
707.0786, 1617.494
707.5607, 1769.696
708.0428, 1942.924
708.5250, 2127.652
709.0071, 2327.404
709.4892, 2522.102
709.9713, 2709.006
710.4534, 2897.336
710.9355, 3101.801
711.4177, 3320.221
711.8998, 3551.240
712.3819, 3845.433
712.8640, 4071.604
713.3461, 4145.503
713.8282, 4064.983
714.3104, 3819.979
714.7925, 3270.215
715.2746, 2709.729
715.7567, 2180.283
716.2388, 1702.299
716.7209, 1326.373
717.2031, 1077.104
717.6852, 887.8192
718.1673, 746.7988
718.6494, 648.7626
719.1315, 572.8989
719.6136, 519.4305
720.0958, 477.7812
720.5779, 446.7618
721.0600, 422.2814
721.5421, 399.9368
722.0242, 379.5311
722.5063, 361.7815
722.9885, 347.4551
723.4706, 335.5008
723.9527, 325.9278
724.4348, 318.8406
724.9169, 311.8614
725.3990, 304.1679
725.8812, 297.3473
726.3633, 292.6522
726.8454, 290.3445
727.3275, 287.0463
727.8096, 282.5826
728.2917, 278.1219
728.7739, 274.9604
729.2560, 272.5948
729.7381, 269.5357
730.2202, 265.4985
730.7023, 261.9974
731.1844, 260.6353
731.6666, 260.1077
732.1487, 259.0219
732.6308, 256.7714
733.1129, 254.6902
733.5950, 252.7515
734.0771, 251.2206
734.5593, 250.3763
735.0414, 250.3286
735.5235, 250.8031
736.0056, 252.1998
736.4877, 253.2495
736.9698, 251.5542
737.4520, 247.6926
737.9341, 244.5985
738.4162, 243.1242
738.8983, 242.3751
739.3804, 241.5025
739.8625, 240.7129
740.3447, 240.3370
740.8268, 240.3925
741.3089, 240.9948
741.7910, 243.3539
742.2731, 246.1057
742.7552, 245.9853
743.2374, 240.7663
743.7195, 237.6600
744.2016, 238.9698
744.6837, 242.6800
745.1658, 243.3165
745.6479, 241.0298
746.1301, 238.7425
746.6122, 237.6806
747.0943, 237.2334
747.5764, 236.4694
748.0585, 235.6093
748.5406, 235.3166
749.0228, 236.7956
749.5049, 238.0512
749.9870, 238.0027
750.4691, 236.7849
750.9512, 235.6178
751.4333, 234.3983
751.9155, 233.4846
752.3976, 232.9655
752.8797, 232.8460
753.3618, 233.2817
753.8439, 234.2914
754.3260, 235.2620
754.8082, 235.9382
755.2903, 236.2746
755.7724, 235.8658
756.2545, 234.8638
756.7366, 234.4073
757.2188, 235.9349
757.7009, 237.5429
758.1830, 238.1281
758.6651, 237.5584
759.1472, 236.3070
759.6293, 233.4854
760.1115, 231.2822
760.5936, 230.9148
761.0757, 232.3961
761.5578, 234.0417
762.0399, 235.8971
762.5220, 237.4584
763.0042, 238.1065
763.4863, 238.2546
763.9684, 238.8463
764.4505, 239.9464
764.9326, 240.7811
765.4147, 240.8506
765.8969, 240.4736
766.3790, 239.7519
766.8611, 238.4984
767.3432, 237.8040
767.8253, 237.9873
768.3074, 238.4192
768.7896, 238.7467
769.2717, 238.9905
769.7538, 238.8730
770.2359, 238.3290
770.7180, 237.7669
771.2001, 237.1528
771.6823, 236.9084
772.1644, 238.3403
772.6465, 241.8781
773.1285, 244.8009
773.6107, 245.0061
774.0928, 243.9754
774.5749, 243.0289
775.0570, 242.5144
775.5391, 241.6914
776.0212, 240.1493
776.5034, 238.7038
776.9855, 238.1868
777.4676, 238.6965
777.9497, 238.7948
778.4318, 238.1611
778.9139, 238.1680
779.3961, 241.9154
779.8782, 247.1145
780.3603, 248.7235
780.8424, 244.9402
781.3245, 240.7850
781.8066, 239.2187
782.2888, 238.7991
782.7709, 238.0133
783.2530, 234.9242
783.7351, 234.4954
784.2172, 238.4676
784.6993, 243.1750
785.1815, 244.1526
785.6636, 241.2605
786.1457, 239.0307
786.6278, 238.0118
787.1099, 237.6838
787.5920, 237.2263
788.0742, 237.0557
788.5563, 238.2437
789.0384, 241.9642
789.5205, 244.6207
790.0026, 243.5807
790.4847, 240.9027
790.9669, 238.8525
791.4490, 237.3468
791.9311, 237.0445
792.4132, 238.4633
792.8953, 240.4363
793.3774, 241.4743
793.8596, 241.6008
794.3417, 241.6322
794.8238, 241.7028
795.3059, 241.6931
795.7880, 241.1288
796.2701, 240.4932
796.7523, 240.6410
797.2344, 242.3359
797.7165, 243.7407
798.1986, 244.1915
798.6807, 244.0051
799.1628, 243.6720
799.6450, 243.6383
800.1271, 242.1536
800.6092, 238.3329
801.0913, 234.4245
801.5734, 234.1650
802.0555, 236.9015
802.5377, 239.0395
803.0198, 239.9244
803.5019, 239.9500
803.9840, 238.6231
804.4661, 237.0031
804.9482, 236.6151
805.4304, 238.6944
805.9125, 240.5509
806.3946, 241.8710
806.8767, 242.5213
807.3588, 242.1687
807.8409, 240.4340
808.3231, 239.1756
808.8052, 238.5761
809.2873, 238.4370
809.7694, 238.7676
810.2515, 239.3377
810.7336, 239.3820
811.2158, 238.5643
811.6979, 237.8326
812.1800, 238.2837
812.6621, 239.0125
813.1442, 238.9691
813.6263, 236.8066
814.1085, 235.7535
814.5906, 235.9069
815.0727, 237.2333
815.5548, 240.4964
816.0369, 245.9706
816.5190, 248.3718
817.0012, 246.8709
817.4833, 243.8409
817.9654, 241.2388
818.4475, 239.1858
818.9296, 238.0922
819.4117, 238.3241
819.8939, 238.3935
820.3760, 236.6697
820.8581, 234.9751
821.3402, 235.2384
821.8223, 239.0993
822.3044, 240.9434
822.7866, 239.8611
823.2687, 238.5069
823.7508, 240.4834
824.2329, 244.9605
824.7150, 246.2413
825.1971, 243.4811
825.6793, 240.3314
826.1614, 240.1560
826.6435, 241.3239
827.1256, 242.1700
827.6077, 242.4270
828.0898, 242.2424
828.5720, 241.3025
829.0541, 240.2033
829.5362, 239.1636
830.0183, 237.9727
830.5004, 238.0952
830.9825, 239.7213
831.4647, 241.7178
831.9468, 243.5674
832.4289, 244.8886
832.9110, 244.3840
833.3931, 241.9528
833.8752, 239.7215
834.3574, 238.5670
834.8395, 238.4459
835.3216, 239.8489
835.8037, 243.4849
836.2858, 244.7173
836.7679, 242.2885
837.2501, 239.6497
837.7322, 238.9801
838.2143, 240.0726
838.6964, 240.6490
839.1785, 240.7088
839.6606, 240.6587
840.1428, 240.6545
840.6249, 240.7822
841.1070, 241.1160
841.5891, 241.6609
842.0712, 242.4327
842.5533, 243.9840
843.0355, 245.1861
843.5176, 245.5158
843.9997, 245.0349
844.4818, 244.5975
844.9639, 244.1886
845.4460, 243.9034
845.9282, 243.8584
846.4103, 243.9419
846.8924, 244.0220
847.3745, 244.0468
847.8566, 243.7775
848.3387, 241.9997
848.8209, 240.9452
849.3030, 242.7705
849.7851, 246.6857
850.2672, 248.1947
850.7493, 246.0673
851.2314, 243.8761
851.7136, 242.5443
852.1957, 241.8524
852.6778, 241.1173
853.1599, 240.4069
853.6420, 240.2224
854.1241, 240.8842
854.6063, 242.0345
855.0884, 244.0418
855.5705, 246.2041
856.0526, 247.0670
856.5347, 244.1069
857.0168, 242.5973
857.4990, 244.4209
857.9811, 247.4649
858.4632, 247.1053
858.9453, 243.0227
859.4274, 241.1543
859.9095, 243.2517
860.3917, 246.7339
860.8738, 249.1841
861.3559, 250.3178
861.8380, 249.3742
862.3201, 244.6274
862.8022, 240.7897
863.2844, 239.9843
863.7665, 240.8703
864.2486, 241.9339
864.7307, 243.4198
865.2128, 244.1651
865.6949, 243.7382
866.1771, 243.6174
866.6592, 246.4923
867.1413, 250.9656
867.6234, 252.8123
868.1055, 251.2152
868.5876, 249.0346
869.0698, 247.4043
869.5519, 246.5752
870.0340, 247.0600
870.5161, 249.7448
870.9982, 250.5210
871.4803, 248.5714
871.9625, 246.1136
872.4446, 244.4763
872.9267, 243.6336
873.4088, 243.5157
873.8909, 244.1031
874.3730, 244.7361
874.8552, 245.0356
875.3373, 245.0829
875.8194, 244.7982
876.3015, 244.2248
876.7836, 243.9644
877.2657, 244.3309
877.7479, 244.8542
878.2300, 245.3702
878.7121, 245.9281
879.1942, 246.9435
879.6763, 248.4397
880.1584, 249.5764
880.6406, 249.9004
881.1227, 249.6817
881.6048, 249.1223
882.0869, 248.3078
882.5690, 247.4676
883.0511, 246.3824
883.5333, 245.6385
884.0154, 245.3696
884.4975, 245.5649
884.9796, 246.4190
885.4617, 248.1536
885.9438, 249.1969
886.4260, 249.0378
886.9081, 248.5669
887.3902, 249.4108
887.8723, 250.9095
888.3544, 251.5335
888.8365, 250.4088
889.3187, 249.3936
889.8008, 249.2210
890.2829, 249.6312
890.7650, 250.3888
891.2471, 251.7677
891.7292, 252.8197
892.2114, 253.6729
892.6935, 253.7717
893.1756, 251.7142
893.6577, 248.5394
894.1398, 247.4622
894.6219, 248.8502
895.1041, 250.1470
895.5862, 249.3330
896.0683, 248.0950
896.5504, 247.5705
897.0325, 247.9078
897.5146, 248.7064
897.9967, 250.3069
898.4788, 251.5956
898.9609, 251.7436
899.4431, 251.1597
899.9252, 251.7132
900.4073, 253.2123
900.8894, 254.4462
901.3715, 254.6176
901.8536, 254.3376
902.3358, 253.9395
902.8179, 253.4328
903.3000, 252.8186
903.7821, 252.1965
904.2642, 251.1903
904.7463, 249.2115
905.2285, 247.3582
905.7106, 248.8608
906.1927, 253.0542
906.6748, 255.5202
907.1569, 254.4238
907.6390, 252.4465
908.1212, 251.5439
908.6033, 251.3237
909.0854, 251.2679
909.5675, 250.4581
910.0496, 251.3359
910.5317, 255.0361
911.0139, 258.9681
911.4960, 260.6408
911.9781, 260.1502
912.4602, 258.1140
912.9423, 254.4755
913.4244, 251.4969
913.9066, 251.6701
914.3887, 253.0318
914.8708, 253.6551
915.3529, 253.2937
915.8350, 252.9269
916.3171, 252.3629
916.7993, 252.3108
917.2814, 253.3920
917.7635, 255.2933
918.2456, 255.6678
918.7277, 254.5936
919.2098, 253.6263
919.6920, 253.8556
920.1741, 254.4195
920.6562, 254.1317
921.1383, 253.4893
921.6204, 253.8331
922.1025, 257.1903
922.5847, 259.3098
923.0668, 258.9238
923.5489, 257.5470
924.0310, 258.5826
924.5131, 261.8459
924.9952, 262.7936
925.4774, 260.0490
925.9595, 256.5048
926.4416, 254.6270
926.9237, 253.8840
927.4058, 253.5430
927.8879, 253.2168
928.3701, 254.0992
928.8522, 257.5813
929.3343, 260.6917
929.8164, 261.0034
930.2985, 258.5710
930.7806, 256.4402
931.2628, 254.6122
931.7449, 254.0850
932.2270, 257.0439
932.7091, 260.6033
933.1912, 261.7420
933.6733, 260.5634
934.1555, 259.5029
934.6376, 259.2918
935.1197, 258.9618
935.6018, 258.0557
936.0839, 256.9571
936.5660, 256.9455
937.0482, 257.9656
937.5303, 259.1980
938.0124, 260.4356
938.4945, 261.6681
938.9766, 263.2426
939.4587, 264.7076
939.9409, 265.3893
940.4230, 264.5037
940.9051, 263.6862
941.3872, 262.9837
941.8693, 262.4135
942.3514, 261.7869
942.8336, 261.2094
943.3157, 262.1016
943.7978, 264.6493
944.2799, 266.6976
944.7620, 266.2519
945.2441, 264.6714
945.7263, 262.7574
946.2084, 260.5662
946.6905, 259.4880
947.1726, 260.0051
947.6547, 260.8658
948.1368, 261.6706
948.6190, 262.3974
949.1011, 262.9514
949.5832, 263.3603
950.0653, 263.7892
950.5474, 264.3570
951.0295, 264.9255
951.5117, 265.8673
951.9938, 266.6432
952.4759, 266.0841
952.9580, 262.9968
953.4401, 260.8586
953.9222, 259.8844
954.4044, 260.0405
954.8865, 262.1464
955.3686, 265.3984
955.8507, 266.6825
956.3328, 265.5020
956.8149, 263.9820
957.2971, 263.1743
957.7792, 262.8419
958.2613, 262.8832
958.7434, 263.3008
959.2255, 263.7661
959.7076, 264.1800
960.1898, 264.9823
960.6719, 266.7373
961.1540, 268.8264
961.6361, 270.0838
962.1182, 270.4373
962.6003, 269.6318
963.0825, 265.7071
963.5646, 262.6663
964.0467, 262.9099
964.5288, 264.8095
965.0109, 265.4455
965.4930, 264.2607
965.9752, 264.6882
966.4573, 267.6227
966.9394, 270.4373
967.4215, 269.0389
967.9036, 265.6296
968.3857, 263.9680
968.8679, 264.7911
969.3500, 265.8507
969.8321, 266.4417
970.3142, 266.9380
970.7963, 267.6740
971.2784, 268.5861
971.7606, 268.3995
972.2427, 267.0613
972.7248, 266.2955
973.2069, 267.3214
973.6890, 269.1739
974.1711, 271.2157
974.6533, 273.0984
975.1354, 274.0754
975.6175, 272.3260
976.0996, 271.9240
976.5817, 274.3494
977.0638, 277.2867
977.5460, 276.7655
978.0281, 273.2523
978.5102, 272.1121
978.9923, 274.2498
979.4744, 277.0761
979.9565, 278.7487
980.4387, 279.8259
980.9208, 280.7061
981.4029, 281.3903
981.8850, 282.3186
982.3671, 283.6114
982.8492, 284.8749
983.3314, 285.8616
983.8135, 286.7214
984.2956, 287.8112
984.7777, 289.1636
985.2598, 290.9115
985.7419, 293.8170
986.2241, 296.3560
986.7062, 297.3561
987.1883, 297.6735
987.6704, 298.8411
988.1525, 301.3447
988.6346, 302.9312
989.1168, 303.2769
989.5989, 303.2426
990.0810, 303.5809
990.5631, 304.2618
991.0452, 305.4185
991.5273, 307.0661
992.0095, 308.3500
992.4916, 308.5432
992.9737, 308.6592
993.4558, 308.7882
993.9379, 309.1929
994.4200, 311.7703
994.9022, 316.5084
995.3843, 320.7982
995.8664, 323.6417
996.3485, 325.4993
996.8306, 326.3263
997.3127, 326.6559
997.7949, 327.3504
998.2770, 328.3715
998.7591, 330.2986
999.2412, 333.6966
999.7233, 337.1132
1000.205, 338.8470
1000.688, 339.2850
1001.170, 340.4827
1001.652, 342.5029
1002.134, 344.3410
1002.616, 345.1146
1003.098, 345.6508
1003.580, 346.3383
1004.062, 347.2407
1004.544, 348.4780
1005.027, 350.1273
1005.509, 351.7935
1005.991, 353.2009
1006.473, 354.9608
1006.955, 358.4637
1007.437, 362.9735
1007.919, 367.3649
1008.401, 371.9218
1008.884, 374.5423
1009.366, 372.4435
1009.848, 369.9413
1010.330, 369.7170
1010.812, 371.8212
1011.294, 375.0768
1011.776, 379.5339
1012.258, 383.2817
1012.740, 384.3546
1013.223, 384.7904
1013.705, 387.1077
1014.187, 390.4224
1014.669, 391.5366
1015.151, 387.6977
1015.633, 386.0559
1016.115, 388.3591
1016.597, 391.9012
1017.080, 392.5811
1017.562, 391.1328
1018.044, 389.7073
1018.526, 388.6168
1019.008, 387.9742
1019.490, 388.6939
1019.972, 389.1365
1020.454, 387.6036
1020.936, 384.2889
1021.419, 384.1277
1021.901, 387.5740
1022.383, 390.0793
1022.865, 389.0508
1023.347, 386.5901
1023.829, 385.1522
1024.311, 384.5089
1024.793, 384.2169
1025.276, 384.3946
1025.758, 384.5960
1026.240, 384.8423
1026.722, 385.0280
1027.204, 385.0517
1027.686, 384.9184
1028.168, 384.8283
1028.650, 384.7589
1029.132, 384.0191
1029.615, 381.1873
1030.097, 378.3696
1030.579, 376.6295
1031.061, 376.1438
1031.543, 377.5352
1032.025, 381.5290
1032.507, 384.3989
1032.989, 385.1347
1033.471, 384.5270
1033.954, 382.5665
1034.436, 380.4472
1034.918, 380.4587
1035.400, 383.8972
1035.882, 386.3694
1036.364, 386.3631
1036.846, 385.6742
1037.328, 385.1699
1037.811, 384.8085
1038.293, 384.0015
1038.775, 382.8388
1039.257, 382.1771
1039.739, 382.7185
1040.221, 383.6815
1040.703, 385.2059
1041.185, 386.6019
1041.667, 386.3735
1042.150, 383.5046
1042.632, 382.1532
1043.114, 382.8369
1043.596, 384.2828
1044.078, 385.0886
1044.560, 386.8398
1045.042, 387.6569
1045.524, 390.6084
1046.006, 393.3083
1046.489, 395.5984
1046.971, 397.1314
1047.453, 397.5993
1047.935, 397.3895
1048.417, 397.4077
1048.899, 397.6875
1049.381, 398.3777
1049.863, 399.3459
1050.346, 401.3035
1050.828, 405.6047
1051.310, 410.6542
1051.792, 414.6864
1052.274, 417.3250
1052.756, 420.8073
1053.238, 425.0845
1053.720, 430.4614
1054.203, 437.6605
1054.685, 445.6965
1055.167, 452.9458
1055.649, 459.6485
1056.131, 466.4653
1056.613, 474.1801
1057.095, 481.0527
1057.577, 486.3909
1058.059, 491.4387
1058.542, 497.9224
1059.024, 505.5146
1059.506, 511.3622
1059.988, 515.2875
1060.470, 521.0471
1060.952, 531.1802
1061.434, 543.9843
1061.916, 558.3251
1062.398, 574.3997
1062.881, 592.6413
1063.363, 612.6750
1063.845, 637.3574
1064.327, 667.3605
1064.809, 701.8214
1065.291, 739.1351
1065.773, 780.8290
1066.255, 831.5731
1066.738, 896.1051
1067.220, 950.7966
1067.702, 1000.443
1068.184, 1026.691
1068.666, 1008.783
1069.148, 965.2995
1069.630, 946.3005
1070.112, 954.5635
1070.594, 999.1829
1071.077, 1065.461
1071.559, 1193.928
1072.041, 1374.598
1072.523, 1648.113
1073.005, 2062.947
1073.487, 2619.917
1073.969, 3307.346
1074.451, 4128.040
1074.933, 4892.358
1075.416, 5456.888
1075.898, 5902.840
1076.380, 6250.379
1076.862, 6529.612
1077.344, 6838.267
1077.826, 7178.715
1078.308, 7563.792
1078.790, 7987.878
1079.273, 8465.149
1079.755, 8996.179
1080.237, 9589.144
1080.719, 10237.71
1081.201, 10930.16
1081.683, 11825.28
1082.165, 12847.10
1082.647, 14261.24
1083.129, 16103.02
1083.612, 18440.86
1084.094, 21577.50
1084.576, 25471.29
1085.058, 29964.46
1085.540, 35075.70
1086.022, 40604.20
1086.504, 49054.79
1086.986, 56031.55
1087.469, 57655.47
1087.951, 53686.31
1088.433, 46095.54
1088.915, 34593.99
1089.397, 23706.27
1089.879, 16090.78
1090.361, 10755.23
1090.843, 7255.251
1091.325, 5190.402
1091.807, 3748.928
1092.290, 3005.425
1092.772, 2438.711
1093.254, 2045.279
1093.736, 1762.382
1094.218, 1545.854
1094.700, 1382.153
1095.182, 1250.128
1095.664, 1146.399
1096.147, 1057.437
1096.629, 981.5844
1097.111, 915.9440
1097.593, 860.2084
1098.075, 812.7375
1098.557, 771.7456
1099.039, 736.8364
1099.521, 705.9921
1100.004, 679.2217
1100.486, 655.4745
1100.968, 635.8380
1101.450, 617.8082
1101.932, 599.8947
1102.414, 582.1296
1102.896, 565.4999
1103.378, 550.1100
1103.860, 536.7096
1104.343, 526.2749
1104.825, 516.6670
1105.307, 505.1811
1105.789, 493.4036
1106.271, 483.2351
1106.753, 475.3867
1107.235, 467.5141
1107.717, 459.4953
1108.199, 451.6292
1108.682, 443.6357
1109.164, 436.2507
1109.646, 430.7712
1110.128, 426.9051
1110.610, 423.8096
1111.092, 422.7647
1111.574, 420.0645
1112.056, 414.7070
1112.539, 408.9281
1113.021, 404.9428
1113.503, 402.2768
1113.985, 399.0132
1114.467, 395.1584
1114.949, 391.2565
1115.431, 386.9738
1115.913, 383.4836
1116.396, 381.6498
1116.878, 380.5365
1117.360, 378.3170
1117.842, 375.1359
1118.324, 374.0203
1118.806, 375.5036
1119.288, 375.9203
1119.770, 370.8325
1120.252, 365.0846
1120.734, 362.4582
1121.217, 362.3707
1121.699, 361.5346
1122.181, 359.9095
1122.663, 357.6774
1123.145, 354.5854
1123.627, 352.0596
1124.109, 352.6092
1124.591, 354.0663
1125.074, 353.8777
1125.556, 351.3814
1126.038, 349.3269
1126.520, 347.7659
1127.002, 346.6633
1127.484, 346.2982
1127.966, 345.9585
1128.448, 343.5073
1128.931, 340.4091
1129.413, 339.6647
1129.895, 344.0963
1130.377, 345.9372
1130.859, 343.7480
1131.341, 340.4549
1131.823, 337.6193
1132.305, 335.2388
1132.787, 333.2809
1133.270, 331.7734
1133.752, 330.7917
1134.234, 331.1551
1134.716, 330.9430
1135.198, 329.2399
1135.680, 327.2889
1136.162, 326.5588
1136.644, 326.8004
1137.126, 325.3122
1137.609, 322.2442
1138.091, 320.0115
1138.573, 321.2384
1139.055, 322.3344
1139.537, 320.9948
1140.019, 318.6254
1140.501, 317.4006
1140.983, 317.3543
1141.466, 317.0269
1141.948, 316.2556
1142.430, 315.6570
1142.912, 316.2624
1143.394, 316.7522
1143.876, 315.8785
1144.358, 313.9726
1144.840, 312.6447
1145.323, 311.9518
1145.805, 311.4005
1146.287, 310.8486
1146.769, 310.6746
1147.251, 312.7593
1147.733, 314.4445
1148.215, 311.6884
1148.697, 304.0912
1149.179, 301.4621
1149.661, 305.3745
1150.144, 308.9907
1150.626, 310.3513
1151.108, 310.0297
1151.590, 307.5987
1152.072, 304.5631
1152.554, 303.2458
1153.036, 304.5073
1153.518, 305.2057
1154.001, 304.8943
1154.483, 304.5964
1154.965, 304.8203
1155.447, 305.3041
1155.929, 305.5782
1156.411, 305.6740
1156.893, 305.6891
1157.375, 305.8663
1157.858, 305.3801
1158.340, 303.8937
1158.822, 302.2436
1159.304, 300.6040
1159.786, 299.3499
1160.268, 300.2175
1160.750, 302.5179
1161.232, 304.0279
1161.714, 303.0423
1162.197, 302.3054
1162.679, 302.5330
1163.161, 302.9900
1163.643, 303.2364
1164.125, 303.1990
1164.607, 302.3373
1165.089, 300.7357
1165.571, 298.8950
1166.053, 295.3171
1166.536, 293.8055
1167.018, 297.2593
1167.500, 302.0294
1167.982, 304.3468
1168.464, 304.3146
1168.946, 302.1660
1169.428, 298.1490
1169.910, 295.2896
1170.393, 296.5968
1170.875, 298.3610
1171.357, 298.4402
1171.839, 297.9635
1172.321, 299.1319
1172.803, 301.8379
1173.285, 302.8378
1173.767, 301.7284
1174.250, 300.4846
1174.732, 300.6930
1175.214, 301.0806
1175.696, 300.8589
1176.178, 300.1594
1176.660, 299.2370
1177.142, 298.0900
1177.624, 297.0137
1178.106, 296.0189
1178.589, 295.6078
1179.071, 297.0810
1179.553, 298.5825
1180.035, 298.3339
1180.517, 296.7283
1180.999, 296.0102
1181.481, 296.2715
1181.963, 296.0431
1182.445, 294.7890
1182.928, 293.7227
1183.410, 294.4935
1183.892, 295.6464
1184.374, 295.3273
1184.856, 296.7091
1185.338, 294.4924
1185.820, 298.2336
1186.302, 300.8537
1186.785, 300.7623
1187.267, 299.8893
1187.749, 300.0924
1188.231, 300.7220
1188.713, 301.1076
1189.195, 301.1992
1189.677, 300.8022
1190.159, 299.8458
1190.641, 298.9267
1191.124, 298.3127
1191.606, 297.7744
1192.088, 296.4829
1192.570, 295.3896
1193.052, 296.1678
1193.534, 299.7636
1194.016, 300.5021
1194.498, 297.9222
1194.980, 295.2957
1195.463, 294.2263
1195.945, 294.0577
1196.427, 294.4034
1196.909, 294.9318
1197.391, 295.0077
1197.873, 294.0522
1198.355, 294.7389
1198.837, 297.4720
1199.320, 299.6109
1199.802, 298.8606
1200.284, 297.3190
1200.766, 298.0202
1201.248, 299.6315
1201.730, 299.6290
1202.212, 296.5722
1202.694, 294.6164
1203.177, 293.7458
1203.659, 293.9675
1204.141, 296.1081
1204.623, 298.6765
1205.105, 299.9878
1205.587, 300.2903
1206.069, 300.0643
1206.551, 299.1613
1207.033, 298.4463
1207.516, 298.0229
1207.998, 297.3304
1208.480, 295.3350
1208.962, 293.2792
1209.444, 292.7805
1209.926, 293.4702
1210.408, 294.4333
1210.890, 295.9928
1211.372, 296.3836
1211.854, 295.3123
1212.337, 294.1130
1212.819, 293.7850
1213.301, 294.0602
1213.783, 294.9676
1214.265, 296.2108
1214.747, 296.8938
1215.229, 296.9684
1215.711, 296.4144
1216.194, 295.1040
1216.676, 293.9581
1217.158, 294.1874
1217.640, 294.7820
1218.122, 294.3664
1218.604, 294.7704
1219.086, 295.1453
1219.568, 294.8909
1220.051, 295.7602
1220.533, 295.5931
1221.015, 295.2740
1221.497, 295.6175
1221.979, 296.2512
1222.461, 296.8680
1222.943, 297.4433
1223.425, 298.0797
1223.907, 298.9713
1224.390, 299.0460
1224.872, 298.1232
1225.354, 296.6060
1225.836, 293.7834
1226.318, 291.4311
1226.800, 291.7720
1227.282, 294.2699
1227.764, 295.4469
1228.246, 294.8817
1228.729, 295.6759
1229.211, 298.4933
1229.693, 301.1297
1230.175, 301.7751
1230.657, 301.1310
1231.139, 298.9595
1231.621, 295.9573
1232.103, 295.0626
1232.586, 296.4988
1233.068, 298.1458
1233.550, 299.7850
1234.032, 300.5739
1234.514, 298.7918
1234.996, 296.7028
1235.478, 296.2198
1235.960, 297.0065
1236.443, 297.9759
1236.925, 299.1665
1237.407, 298.9218
1237.889, 296.7918
1238.371, 294.8234
1238.853, 295.0476
1239.335, 295.7045
1239.817, 295.6310
1240.299, 294.9708
1240.781, 293.6793
1241.264, 291.8882
1241.746, 292.1913
1242.228, 295.2859
1242.710, 298.1649
1243.192, 298.4963
1243.674, 298.1768
1244.156, 298.3790
1244.638, 297.9166
1245.121, 298.2444
1245.603, 296.9550
1246.085, 295.9916
1246.567, 295.5727
1247.049, 295.3849
1247.531, 295.3577
1248.013, 295.3688
1248.495, 295.2313
1248.978, 295.1775
1249.460, 295.9912
1249.942, 297.4245
1250.424, 298.5166
1250.906, 299.1197
1251.388, 299.0694
1251.870, 296.8699
1252.352, 295.9100
1252.834, 297.9696
1253.317, 301.1858
1253.799, 301.2948
1254.281, 299.3350
1254.763, 297.9786
1255.245, 297.6896
1255.727, 297.6534
1256.209, 297.6170
1256.691, 297.8818
1257.173, 298.7617
1257.656, 299.6012
1258.138, 298.8705
1258.620, 297.3755
1259.102, 296.4457
1259.584, 296.2662
1260.066, 297.2684
1260.548, 300.4849
1261.030, 302.3932
1261.513, 301.8557
1261.995, 300.0239
1262.477, 297.7486
1262.959, 295.6742
1263.441, 294.7928
1263.923, 295.2539
1264.405, 295.9887
1264.887, 297.0417
1265.370, 297.9594
1265.852, 298.6881
1266.334, 299.0271
1266.816, 298.3992
1267.298, 297.4844
1267.780, 297.0856
1268.262, 297.2048
1268.744, 296.8671
1269.226, 295.9898
1269.708, 295.2393
1270.191, 294.5742
1270.673, 295.1035
1271.155, 300.2962
1271.637, 305.0779
1272.119, 303.6354
1272.601, 298.0055
1273.083, 296.2444
1273.565, 298.2025
1274.048, 299.2414
1274.530, 298.3340
1275.012, 297.1443
1275.494, 296.3429
1275.976, 296.1839
1276.458, 296.9740
1276.940, 298.3043
1277.422, 299.1018
1277.905, 299.5131
1278.387, 300.4831
1278.869, 302.2143
1279.351, 303.5279
1279.833, 303.3846
1280.315, 303.2935
1280.797, 304.0013
1281.279, 304.7388
1281.761, 303.4131
1282.244, 301.1198
1282.726, 301.1187
1283.208, 303.8109
1283.690, 305.1149
1284.172, 302.4696
1284.654, 300.9360
1285.136, 301.9563
1285.618, 303.7234
1286.100, 303.7808
1286.583, 302.8754
1287.065, 302.2247
1287.547, 301.8746
1288.029, 300.6861
1288.511, 297.9471
1288.993, 296.5900
1289.475, 297.3043
1289.957, 298.8320
1290.440, 300.4103
1290.922, 301.6150
1291.404, 302.0094
1291.886, 301.5786
1292.368, 300.3201
1292.850, 297.9672
1293.332, 297.7236
1293.814, 300.2024
1294.297, 302.6497
1294.779, 302.1655
1295.261, 301.5654
1295.743, 303.8133
1296.225, 302.5260
1296.707, 306.0000
1297.189, 301.9014
1297.671, 299.4776
1298.153, 299.1902
1298.635, 300.1465
1299.118, 304.0631
1299.600, 306.0671
1300.082, 303.7173
1300.564, 300.1126
1301.046, 299.7025
1301.528, 301.5411
1302.010, 303.2264
1302.492, 304.4782
1302.975, 304.7489
1303.457, 303.2794
1303.939, 301.4887
1304.421, 299.3245
1304.903, 297.7178
1305.385, 297.5493
##END=



