##NAMES=Calderonite
##RRUFFID=R050538
##IDEAL CHEMISTRY=Pb^2+^_2_Fe^3+^(V^5+^O_4_)_2_(OH)
##LOCALITY=Tres de Mayo, Santa Cruz County, Arizona, USA
##OWNER=RRUFF
##SOURCE=Andy Anderson
##DESCRIPTION=Lathlike brown crystals.
##STATUS=The identification of this mineral is confirmed by single-crystal X-ray diffraction and chemical analysis.
##URL=rruff.info/R050538
##MEASURED CHEMISTRY=Pb_2.00_(Fe^3+^_0.96_Mn^3+^_0.02_Mg_0.02_)_Î£=1_(V_1.00_O_4_)_2_(OH)
9.059570e+001, 5.777831e+002
9.107782e+001, 5.631113e+002
9.155994e+001, 5.579222e+002
9.204205e+001, 5.694945e+002
9.252417e+001, 5.855974e+002
9.300629e+001, 6.021270e+002
9.348840e+001, 6.145358e+002
9.397052e+001, 6.189534e+002
9.445264e+001, 6.140966e+002
9.493475e+001, 6.077529e+002
9.541687e+001, 6.011936e+002
9.589898e+001, 5.948419e+002
9.638110e+001, 5.888012e+002
9.686321e+001, 5.830738e+002
9.734533e+001, 5.772412e+002
9.782745e+001, 5.703496e+002
9.830956e+001, 5.646572e+002
9.879168e+001, 5.615097e+002
9.927380e+001, 5.579031e+002
9.975591e+001, 5.528574e+002
1.002380e+002, 5.466216e+002
1.007201e+002, 5.400115e+002
1.012023e+002, 5.334352e+002
1.016844e+002, 5.267585e+002
1.021665e+002, 5.197581e+002
1.026486e+002, 5.117295e+002
1.031307e+002, 5.037111e+002
1.036128e+002, 4.968947e+002
1.040950e+002, 4.914369e+002
1.045771e+002, 4.859702e+002
1.050592e+002, 4.789123e+002
1.055413e+002, 4.711395e+002
1.060234e+002, 4.640819e+002
1.065055e+002, 4.587906e+002
1.069877e+002, 4.547270e+002
1.074698e+002, 4.496823e+002
1.079519e+002, 4.432415e+002
1.084340e+002, 4.361200e+002
1.089161e+002, 4.283080e+002
1.093982e+002, 4.200414e+002
1.098804e+002, 4.119057e+002
1.103625e+002, 4.044082e+002
1.108446e+002, 3.976727e+002
1.113267e+002, 3.910703e+002
1.118088e+002, 3.840214e+002
1.122909e+002, 3.775129e+002
1.127731e+002, 3.721502e+002
1.132552e+002, 3.679640e+002
1.137373e+002, 3.644234e+002
1.142194e+002, 3.608196e+002
1.147015e+002, 3.568964e+002
1.151836e+002, 3.533534e+002
1.156658e+002, 3.502918e+002
1.161479e+002, 3.475245e+002
1.166300e+002, 3.448286e+002
1.171121e+002, 3.421059e+002
1.175942e+002, 3.395078e+002
1.180763e+002, 3.375429e+002
1.185584e+002, 3.366255e+002
1.190406e+002, 3.353471e+002
1.195227e+002, 3.328400e+002
1.200048e+002, 3.295834e+002
1.204869e+002, 3.268831e+002
1.209690e+002, 3.253734e+002
1.214511e+002, 3.248282e+002
1.219333e+002, 3.245036e+002
1.224154e+002, 3.244489e+002
1.228975e+002, 3.245216e+002
1.233796e+002, 3.245871e+002
1.238617e+002, 3.246294e+002
1.243438e+002, 3.247815e+002
1.248260e+002, 3.253261e+002
1.253081e+002, 3.259335e+002
1.257902e+002, 3.262394e+002
1.262723e+002, 3.259880e+002
1.267544e+002, 3.255226e+002
1.272365e+002, 3.256515e+002
1.277187e+002, 3.267062e+002
1.282008e+002, 3.278501e+002
1.286829e+002, 3.287707e+002
1.291650e+002, 3.296217e+002
1.296471e+002, 3.306206e+002
1.301292e+002, 3.319308e+002
1.306114e+002, 3.335249e+002
1.310935e+002, 3.349806e+002
1.315756e+002, 3.359866e+002
1.320577e+002, 3.371639e+002
1.325398e+002, 3.387326e+002
1.330219e+002, 3.406185e+002
1.335041e+002, 3.425673e+002
1.339862e+002, 3.443208e+002
1.344683e+002, 3.457724e+002
1.349504e+002, 3.479155e+002
1.354325e+002, 3.512810e+002
1.359146e+002, 3.547744e+002
1.363968e+002, 3.577396e+002
1.368789e+002, 3.601243e+002
1.373610e+002, 3.623270e+002
1.378431e+002, 3.648066e+002
1.383252e+002, 3.676912e+002
1.388073e+002, 3.701449e+002
1.392895e+002, 3.720365e+002
1.397716e+002, 3.735142e+002
1.402537e+002, 3.747882e+002
1.407358e+002, 3.759308e+002
1.412179e+002, 3.767321e+002
1.417000e+002, 3.766447e+002
1.421821e+002, 3.757484e+002
1.426643e+002, 3.750858e+002
1.431464e+002, 3.753430e+002
1.436285e+002, 3.762391e+002
1.441106e+002, 3.767613e+002
1.445927e+002, 3.766443e+002
1.450748e+002, 3.760876e+002
1.455570e+002, 3.753384e+002
1.460391e+002, 3.744016e+002
1.465212e+002, 3.732614e+002
1.470033e+002, 3.715632e+002
1.474854e+002, 3.691442e+002
1.479675e+002, 3.677535e+002
1.484497e+002, 3.688649e+002
1.489318e+002, 3.704187e+002
1.494139e+002, 3.713635e+002
1.498960e+002, 3.714693e+002
1.503781e+002, 3.711488e+002
1.508602e+002, 3.709519e+002
1.513424e+002, 3.708031e+002
1.518245e+002, 3.709825e+002
1.523066e+002, 3.718130e+002
1.527887e+002, 3.727479e+002
1.532708e+002, 3.733975e+002
1.537529e+002, 3.736076e+002
1.542351e+002, 3.734499e+002
1.547172e+002, 3.730945e+002
1.551993e+002, 3.724458e+002
1.556814e+002, 3.716801e+002
1.561635e+002, 3.709435e+002
1.566456e+002, 3.700592e+002
1.571278e+002, 3.687628e+002
1.576099e+002, 3.669024e+002
1.580920e+002, 3.646270e+002
1.585741e+002, 3.625680e+002
1.590562e+002, 3.611827e+002
1.595383e+002, 3.594738e+002
1.600205e+002, 3.571142e+002
1.605026e+002, 3.542453e+002
1.609847e+002, 3.511706e+002
1.614668e+002, 3.480488e+002
1.619489e+002, 3.448701e+002
1.624310e+002, 3.416807e+002
1.629131e+002, 3.383833e+002
1.633953e+002, 3.351763e+002
1.638774e+002, 3.321171e+002
1.643595e+002, 3.292145e+002
1.648416e+002, 3.266521e+002
1.653237e+002, 3.247774e+002
1.658058e+002, 3.232814e+002
1.662880e+002, 3.214172e+002
1.667701e+002, 3.187807e+002
1.672522e+002, 3.159924e+002
1.677343e+002, 3.138467e+002
1.682164e+002, 3.124840e+002
1.686985e+002, 3.111138e+002
1.691807e+002, 3.091834e+002
1.696628e+002, 3.069995e+002
1.701449e+002, 3.049103e+002
1.706270e+002, 3.030766e+002
1.711091e+002, 3.014080e+002
1.715912e+002, 2.997171e+002
1.720734e+002, 2.980436e+002
1.725555e+002, 2.962626e+002
1.730376e+002, 2.945941e+002
1.735197e+002, 2.927600e+002
1.740018e+002, 2.902931e+002
1.744839e+002, 2.867997e+002
1.749661e+002, 2.824739e+002
1.754482e+002, 2.785429e+002
1.759303e+002, 2.754182e+002
1.764124e+002, 2.722521e+002
1.768945e+002, 2.688928e+002
1.773766e+002, 2.653327e+002
1.778588e+002, 2.615883e+002
1.783409e+002, 2.576014e+002
1.788230e+002, 2.533593e+002
1.793051e+002, 2.495560e+002
1.797872e+002, 2.465018e+002
1.802693e+002, 2.435685e+002
1.807515e+002, 2.405784e+002
1.812336e+002, 2.375536e+002
1.817157e+002, 2.346421e+002
1.821978e+002, 2.319752e+002
1.826799e+002, 2.295815e+002
1.831620e+002, 2.271681e+002
1.836441e+002, 2.243361e+002
1.841263e+002, 2.218237e+002
1.846084e+002, 2.201058e+002
1.850905e+002, 2.191239e+002
1.855726e+002, 2.184265e+002
1.860547e+002, 2.175997e+002
1.865368e+002, 2.166100e+002
1.870190e+002, 2.159267e+002
1.875011e+002, 2.158403e+002
1.879832e+002, 2.158477e+002
1.884653e+002, 2.156008e+002
1.889474e+002, 2.150622e+002
1.894296e+002, 2.143451e+002
1.899117e+002, 2.134222e+002
1.903938e+002, 2.123240e+002
1.908759e+002, 2.116581e+002
1.913580e+002, 2.115477e+002
1.918401e+002, 2.118798e+002
1.923223e+002, 2.126786e+002
1.928044e+002, 2.140385e+002
1.932865e+002, 2.153923e+002
1.937686e+002, 2.159451e+002
1.942507e+002, 2.159717e+002
1.947328e+002, 2.163628e+002
1.952150e+002, 2.176555e+002
1.956971e+002, 2.194540e+002
1.961792e+002, 2.209584e+002
1.966613e+002, 2.219966e+002
1.971434e+002, 2.229755e+002
1.976255e+002, 2.242273e+002
1.981077e+002, 2.256697e+002
1.985898e+002, 2.270743e+002
1.990719e+002, 2.280631e+002
1.995540e+002, 2.288561e+002
2.000361e+002, 2.304865e+002
2.005182e+002, 2.336300e+002
2.010004e+002, 2.367306e+002
2.014825e+002, 2.386251e+002
2.019646e+002, 2.397724e+002
2.024467e+002, 2.413119e+002
2.029288e+002, 2.443770e+002
2.034109e+002, 2.488338e+002
2.038930e+002, 2.522350e+002
2.043752e+002, 2.535377e+002
2.048573e+002, 2.547755e+002
2.053394e+002, 2.567317e+002
2.058215e+002, 2.592490e+002
2.063036e+002, 2.618270e+002
2.067857e+002, 2.639454e+002
2.072679e+002, 2.655454e+002
2.077500e+002, 2.678467e+002
2.082321e+002, 2.719516e+002
2.087142e+002, 2.757877e+002
2.091963e+002, 2.785985e+002
2.096784e+002, 2.805336e+002
2.101606e+002, 2.821549e+002
2.106427e+002, 2.839374e+002
2.111248e+002, 2.858838e+002
2.116069e+002, 2.878725e+002
2.120890e+002, 2.904617e+002
2.125711e+002, 2.925795e+002
2.130533e+002, 2.937871e+002
2.135354e+002, 2.941202e+002
2.140175e+002, 2.938624e+002
2.144996e+002, 2.932513e+002
2.149817e+002, 2.922762e+002
2.154638e+002, 2.909291e+002
2.159460e+002, 2.888880e+002
2.164281e+002, 2.868460e+002
2.169102e+002, 2.852806e+002
2.173923e+002, 2.841040e+002
2.178744e+002, 2.827984e+002
2.183565e+002, 2.809156e+002
2.188387e+002, 2.783921e+002
2.193208e+002, 2.755352e+002
2.198029e+002, 2.722320e+002
2.202850e+002, 2.687224e+002
2.207671e+002, 2.650758e+002
2.212492e+002, 2.613249e+002
2.217314e+002, 2.575681e+002
2.222135e+002, 2.538781e+002
2.226956e+002, 2.502668e+002
2.231777e+002, 2.467305e+002
2.236598e+002, 2.434931e+002
2.241419e+002, 2.401648e+002
2.246240e+002, 2.363435e+002
2.251062e+002, 2.320322e+002
2.255883e+002, 2.277549e+002
2.260704e+002, 2.238166e+002
2.265525e+002, 2.203031e+002
2.270346e+002, 2.173604e+002
2.275167e+002, 2.156198e+002
2.279989e+002, 2.140768e+002
2.284810e+002, 2.116967e+002
2.289631e+002, 2.084103e+002
2.294452e+002, 2.051635e+002
2.299273e+002, 2.027501e+002
2.304094e+002, 2.009316e+002
2.308916e+002, 1.990172e+002
2.313737e+002, 1.965909e+002
2.318558e+002, 1.941980e+002
2.323379e+002, 1.925878e+002
2.328200e+002, 1.918698e+002
2.333021e+002, 1.911618e+002
2.337843e+002, 1.896345e+002
2.342664e+002, 1.877993e+002
2.347485e+002, 1.864864e+002
2.352306e+002, 1.862097e+002
2.357127e+002, 1.862856e+002
2.361948e+002, 1.856744e+002
2.366770e+002, 1.841682e+002
2.371591e+002, 1.828260e+002
2.376412e+002, 1.823328e+002
2.381233e+002, 1.822630e+002
2.386054e+002, 1.821721e+002
2.390875e+002, 1.818766e+002
2.395697e+002, 1.815717e+002
2.400518e+002, 1.816310e+002
2.405339e+002, 1.821973e+002
2.410160e+002, 1.826704e+002
2.414981e+002, 1.828143e+002
2.419802e+002, 1.827588e+002
2.424624e+002, 1.825116e+002
2.429445e+002, 1.819890e+002
2.434266e+002, 1.815467e+002
2.439087e+002, 1.819142e+002
2.443908e+002, 1.834577e+002
2.448729e+002, 1.848113e+002
2.453550e+002, 1.856521e+002
2.458372e+002, 1.861338e+002
2.463193e+002, 1.863306e+002
2.468014e+002, 1.862600e+002
2.472835e+002, 1.859940e+002
2.477656e+002, 1.856037e+002
2.482477e+002, 1.849562e+002
2.487299e+002, 1.845165e+002
2.492120e+002, 1.845637e+002
2.496941e+002, 1.847073e+002
2.501762e+002, 1.846412e+002
2.506583e+002, 1.842739e+002
2.511404e+002, 1.837469e+002
2.516226e+002, 1.832675e+002
2.521047e+002, 1.827896e+002
2.525868e+002, 1.824877e+002
2.530689e+002, 1.828202e+002
2.535510e+002, 1.830262e+002
2.540331e+002, 1.823648e+002
2.545153e+002, 1.807280e+002
2.549974e+002, 1.788235e+002
2.554795e+002, 1.777923e+002
2.559616e+002, 1.782447e+002
2.564437e+002, 1.782724e+002
2.569258e+002, 1.775992e+002
2.574080e+002, 1.767488e+002
2.578901e+002, 1.758372e+002
2.583722e+002, 1.749966e+002
2.588543e+002, 1.745750e+002
2.593364e+002, 1.751619e+002
2.598185e+002, 1.774624e+002
2.603007e+002, 1.789774e+002
2.607828e+002, 1.793958e+002
2.612649e+002, 1.794623e+002
2.617470e+002, 1.794754e+002
2.622291e+002, 1.795533e+002
2.627112e+002, 1.798132e+002
2.631934e+002, 1.804346e+002
2.636755e+002, 1.816089e+002
2.641576e+002, 1.824332e+002
2.646397e+002, 1.826559e+002
2.651218e+002, 1.828093e+002
2.656039e+002, 1.830295e+002
2.660861e+002, 1.834129e+002
2.665682e+002, 1.841754e+002
2.670503e+002, 1.856210e+002
2.675324e+002, 1.879577e+002
2.680145e+002, 1.895644e+002
2.684966e+002, 1.900997e+002
2.689788e+002, 1.903815e+002
2.694609e+002, 1.908745e+002
2.699430e+002, 1.915025e+002
2.704251e+002, 1.918005e+002
2.709072e+002, 1.912803e+002
2.713893e+002, 1.898874e+002
2.718715e+002, 1.894816e+002
2.723536e+002, 1.908492e+002
2.728357e+002, 1.922062e+002
2.733178e+002, 1.927364e+002
2.737999e+002, 1.926136e+002
2.742820e+002, 1.924252e+002
2.747642e+002, 1.925536e+002
2.752463e+002, 1.929773e+002
2.757284e+002, 1.934466e+002
2.762105e+002, 1.936866e+002
2.766926e+002, 1.942445e+002
2.771747e+002, 1.953574e+002
2.776568e+002, 1.969318e+002
2.781389e+002, 1.987769e+002
2.786211e+002, 2.008215e+002
2.791032e+002, 2.030107e+002
2.795853e+002, 2.051311e+002
2.800674e+002, 2.069389e+002
2.805495e+002, 2.089781e+002
2.810316e+002, 2.114629e+002
2.815138e+002, 2.142630e+002
2.819959e+002, 2.171502e+002
2.824780e+002, 2.200212e+002
2.829601e+002, 2.229376e+002
2.834422e+002, 2.259831e+002
2.839243e+002, 2.289893e+002
2.844065e+002, 2.324102e+002
2.848886e+002, 2.364597e+002
2.853707e+002, 2.409499e+002
2.858528e+002, 2.456826e+002
2.863349e+002, 2.506320e+002
2.868170e+002, 2.556103e+002
2.872992e+002, 2.602324e+002
2.877813e+002, 2.641545e+002
2.882634e+002, 2.688195e+002
2.887455e+002, 2.748219e+002
2.892276e+002, 2.815174e+002
2.897097e+002, 2.882210e+002
2.901919e+002, 2.947941e+002
2.906740e+002, 3.010695e+002
2.911561e+002, 3.067081e+002
2.916382e+002, 3.115197e+002
2.921203e+002, 3.171225e+002
2.926024e+002, 3.242383e+002
2.930846e+002, 3.318997e+002
2.935667e+002, 3.390984e+002
2.940488e+002, 3.457409e+002
2.945309e+002, 3.524374e+002
2.950130e+002, 3.598549e+002
2.954951e+002, 3.680073e+002
2.959773e+002, 3.757650e+002
2.964594e+002, 3.834565e+002
2.969415e+002, 3.904720e+002
2.974236e+002, 3.962625e+002
2.979057e+002, 4.008263e+002
2.983878e+002, 4.046305e+002
2.988700e+002, 4.077962e+002
2.993521e+002, 4.104128e+002
2.998342e+002, 4.132519e+002
3.003163e+002, 4.168737e+002
3.007984e+002, 4.201835e+002
3.012805e+002, 4.225256e+002
3.017627e+002, 4.239937e+002
3.022448e+002, 4.251098e+002
3.027269e+002, 4.261909e+002
3.032090e+002, 4.270453e+002
3.036911e+002, 4.271375e+002
3.041732e+002, 4.259114e+002
3.046554e+002, 4.249056e+002
3.051375e+002, 4.247428e+002
3.056196e+002, 4.253198e+002
3.061017e+002, 4.264003e+002
3.065838e+002, 4.279355e+002
3.070659e+002, 4.298712e+002
3.075481e+002, 4.320546e+002
3.080302e+002, 4.343396e+002
3.085123e+002, 4.372164e+002
3.089944e+002, 4.409863e+002
3.094765e+002, 4.454167e+002
3.099586e+002, 4.499071e+002
3.104408e+002, 4.541568e+002
3.109229e+002, 4.590092e+002
3.114050e+002, 4.658072e+002
3.118871e+002, 4.745488e+002
3.123692e+002, 4.836295e+002
3.128513e+002, 4.927769e+002
3.133335e+002, 5.020763e+002
3.138156e+002, 5.115675e+002
3.142977e+002, 5.212140e+002
3.147798e+002, 5.314553e+002
3.152619e+002, 5.429504e+002
3.157440e+002, 5.556667e+002
3.162262e+002, 5.682151e+002
3.167083e+002, 5.793460e+002
3.171904e+002, 5.910761e+002
3.176725e+002, 6.053715e+002
3.181546e+002, 6.222056e+002
3.186367e+002, 6.396302e+002
3.191188e+002, 6.564058e+002
3.196010e+002, 6.727314e+002
3.200831e+002, 6.898321e+002
3.205652e+002, 7.078597e+002
3.210473e+002, 7.265553e+002
3.215294e+002, 7.463115e+002
3.220115e+002, 7.667194e+002
3.224937e+002, 7.865902e+002
3.229758e+002, 8.050585e+002
3.234579e+002, 8.228558e+002
3.239400e+002, 8.415471e+002
3.244221e+002, 8.619640e+002
3.249042e+002, 8.815010e+002
3.253864e+002, 8.993848e+002
3.258685e+002, 9.157858e+002
3.263506e+002, 9.312929e+002
3.268327e+002, 9.461915e+002
3.273148e+002, 9.599268e+002
3.277969e+002, 9.715124e+002
3.282791e+002, 9.809981e+002
3.287612e+002, 9.889729e+002
3.292433e+002, 9.956963e+002
3.297254e+002, 1.000850e+003
3.302075e+002, 1.003521e+003
3.306896e+002, 1.003553e+003
3.311718e+002, 1.002992e+003
3.316539e+002, 1.004360e+003
3.321360e+002, 1.007826e+003
3.326181e+002, 1.008138e+003
3.331002e+002, 1.002583e+003
3.335823e+002, 9.957617e+002
3.340645e+002, 9.910632e+002
3.345466e+002, 9.884535e+002
3.350287e+002, 9.858865e+002
3.355108e+002, 9.819729e+002
3.359929e+002, 9.768634e+002
3.364750e+002, 9.720334e+002
3.369572e+002, 9.681713e+002
3.374393e+002, 9.637857e+002
3.379214e+002, 9.579387e+002
3.384035e+002, 9.510584e+002
3.388856e+002, 9.444208e+002
3.393677e+002, 9.387958e+002
3.398499e+002, 9.333707e+002
3.403320e+002, 9.258176e+002
3.408141e+002, 9.156024e+002
3.412962e+002, 9.046735e+002
3.417783e+002, 8.939443e+002
3.422604e+002, 8.824911e+002
3.427426e+002, 8.691150e+002
3.432247e+002, 8.535295e+002
3.437068e+002, 8.362732e+002
3.441889e+002, 8.180690e+002
3.446710e+002, 7.987501e+002
3.451531e+002, 7.786290e+002
3.456353e+002, 7.578585e+002
3.461174e+002, 7.363418e+002
3.465995e+002, 7.137325e+002
3.470816e+002, 6.902737e+002
3.475637e+002, 6.663897e+002
3.480458e+002, 6.425707e+002
3.485280e+002, 6.186992e+002
3.490101e+002, 5.964197e+002
3.494922e+002, 5.759541e+002
3.499743e+002, 5.565529e+002
3.504564e+002, 5.381371e+002
3.509385e+002, 5.207062e+002
3.514207e+002, 5.040985e+002
3.519028e+002, 4.882485e+002
3.523849e+002, 4.733383e+002
3.528670e+002, 4.600716e+002
3.533491e+002, 4.491465e+002
3.538312e+002, 4.390180e+002
3.543134e+002, 4.297029e+002
3.547955e+002, 4.210330e+002
3.552776e+002, 4.127085e+002
3.557597e+002, 4.046501e+002
3.562418e+002, 3.971281e+002
3.567239e+002, 3.905865e+002
3.572061e+002, 3.856621e+002
3.576882e+002, 3.804835e+002
3.581703e+002, 3.739681e+002
3.586524e+002, 3.680075e+002
3.591345e+002, 3.644362e+002
3.596166e+002, 3.630388e+002
3.600987e+002, 3.618429e+002
3.605808e+002, 3.587623e+002
3.610630e+002, 3.534490e+002
3.615451e+002, 3.496357e+002
3.620272e+002, 3.481149e+002
3.625093e+002, 3.471602e+002
3.629914e+002, 3.465510e+002
3.634735e+002, 3.460599e+002
3.639557e+002, 3.454165e+002
3.644378e+002, 3.444543e+002
3.649199e+002, 3.432188e+002
3.654020e+002, 3.419049e+002
3.658841e+002, 3.405936e+002
3.663662e+002, 3.390723e+002
3.668484e+002, 3.372521e+002
3.673305e+002, 3.352653e+002
3.678126e+002, 3.332044e+002
3.682947e+002, 3.311172e+002
3.687768e+002, 3.290397e+002
3.692589e+002, 3.270612e+002
3.697411e+002, 3.253173e+002
3.702232e+002, 3.232965e+002
3.707053e+002, 3.211513e+002
3.711874e+002, 3.186039e+002
3.716695e+002, 3.151408e+002
3.721516e+002, 3.110015e+002
3.726338e+002, 3.070125e+002
3.731159e+002, 3.038936e+002
3.735980e+002, 3.016342e+002
3.740801e+002, 2.997760e+002
3.745622e+002, 2.986325e+002
3.750443e+002, 2.975250e+002
3.755265e+002, 2.960787e+002
3.760086e+002, 2.945460e+002
3.764907e+002, 2.933203e+002
3.769728e+002, 2.925812e+002
3.774549e+002, 2.922634e+002
3.779370e+002, 2.922877e+002
3.784192e+002, 2.927990e+002
3.789013e+002, 2.932430e+002
3.793834e+002, 2.934706e+002
3.798655e+002, 2.935717e+002
3.803476e+002, 2.936918e+002
3.808297e+002, 2.938534e+002
3.813119e+002, 2.937332e+002
3.817940e+002, 2.928851e+002
3.822761e+002, 2.913244e+002
3.827582e+002, 2.898777e+002
3.832403e+002, 2.889327e+002
3.837224e+002, 2.877606e+002
3.842046e+002, 2.859160e+002
3.846867e+002, 2.834780e+002
3.851688e+002, 2.806919e+002
3.856509e+002, 2.776925e+002
3.861330e+002, 2.744585e+002
3.866151e+002, 2.709510e+002
3.870973e+002, 2.672194e+002
3.875794e+002, 2.630644e+002
3.880615e+002, 2.581709e+002
3.885436e+002, 2.527969e+002
3.890257e+002, 2.472560e+002
3.895078e+002, 2.416047e+002
3.899900e+002, 2.357967e+002
3.904721e+002, 2.297462e+002
3.909542e+002, 2.234580e+002
3.914363e+002, 2.170880e+002
3.919184e+002, 2.104320e+002
3.924005e+002, 2.040520e+002
3.928827e+002, 1.988237e+002
3.933648e+002, 1.948128e+002
3.938469e+002, 1.907781e+002
3.943290e+002, 1.862830e+002
3.948111e+002, 1.814607e+002
3.952932e+002, 1.764252e+002
3.957754e+002, 1.711046e+002
3.962575e+002, 1.660672e+002
3.967396e+002, 1.618691e+002
3.972217e+002, 1.584682e+002
3.977038e+002, 1.549944e+002
3.981859e+002, 1.511483e+002
3.986681e+002, 1.474119e+002
3.991501e+002, 1.440502e+002
3.996323e+002, 1.410508e+002
4.001144e+002, 1.384153e+002
4.005965e+002, 1.362456e+002
4.010786e+002, 1.342796e+002
4.015607e+002, 1.317224e+002
4.020428e+002, 1.279689e+002
4.025250e+002, 1.247656e+002
4.030071e+002, 1.224104e+002
4.034892e+002, 1.207595e+002
4.039713e+002, 1.200105e+002
4.044534e+002, 1.201171e+002
4.049355e+002, 1.201041e+002
4.054177e+002, 1.187353e+002
4.058998e+002, 1.156177e+002
4.063819e+002, 1.131246e+002
4.068640e+002, 1.113163e+002
4.073461e+002, 1.099903e+002
4.078282e+002, 1.092930e+002
4.083104e+002, 1.089999e+002
4.087925e+002, 1.086178e+002
4.092746e+002, 1.078207e+002
4.097567e+002, 1.067206e+002
4.102388e+002, 1.058139e+002
4.107209e+002, 1.049841e+002
4.112031e+002, 1.045450e+002
4.116852e+002, 1.048561e+002
4.121673e+002, 1.053775e+002
4.126494e+002, 1.055851e+002
4.131315e+002, 1.053507e+002
4.136136e+002, 1.049268e+002
4.140958e+002, 1.045862e+002
4.145779e+002, 1.042537e+002
4.150600e+002, 1.043095e+002
4.155421e+002, 1.051181e+002
4.160242e+002, 1.059869e+002
4.165063e+002, 1.067731e+002
4.169885e+002, 1.074084e+002
4.174706e+002, 1.077729e+002
4.179527e+002, 1.077358e+002
4.184348e+002, 1.074285e+002
4.189169e+002, 1.072945e+002
4.193990e+002, 1.073655e+002
4.198812e+002, 1.075491e+002
4.203633e+002, 1.077240e+002
4.208454e+002, 1.080367e+002
4.213275e+002, 1.087483e+002
4.218096e+002, 1.099363e+002
4.222917e+002, 1.110722e+002
4.227739e+002, 1.114274e+002
4.232560e+002, 1.110576e+002
4.237381e+002, 1.112260e+002
4.242202e+002, 1.125381e+002
4.247023e+002, 1.138439e+002
4.251844e+002, 1.142295e+002
4.256666e+002, 1.138758e+002
4.261487e+002, 1.134267e+002
4.266308e+002, 1.128474e+002
4.271129e+002, 1.124643e+002
4.275950e+002, 1.129979e+002
4.280771e+002, 1.145206e+002
4.285593e+002, 1.157607e+002
4.290414e+002, 1.158559e+002
4.295235e+002, 1.153169e+002
4.300056e+002, 1.153606e+002
4.304877e+002, 1.162761e+002
4.309698e+002, 1.171257e+002
4.314520e+002, 1.172871e+002
4.319341e+002, 1.170784e+002
4.324162e+002, 1.172565e+002
4.328983e+002, 1.180707e+002
4.333804e+002, 1.188174e+002
4.338625e+002, 1.184913e+002
4.343447e+002, 1.168682e+002
4.348268e+002, 1.161598e+002
4.353089e+002, 1.174100e+002
4.357910e+002, 1.187677e+002
4.362731e+002, 1.188659e+002
4.367552e+002, 1.179593e+002
4.372374e+002, 1.171477e+002
4.377195e+002, 1.170881e+002
4.382016e+002, 1.175649e+002
4.386837e+002, 1.177592e+002
4.391658e+002, 1.172713e+002
4.396479e+002, 1.170119e+002
4.401301e+002, 1.172952e+002
4.406122e+002, 1.176900e+002
4.410943e+002, 1.176872e+002
4.415764e+002, 1.172405e+002
4.420585e+002, 1.168223e+002
4.425406e+002, 1.170344e+002
4.430227e+002, 1.180223e+002
4.435049e+002, 1.185824e+002
4.439870e+002, 1.183097e+002
4.444691e+002, 1.180222e+002
4.449512e+002, 1.178887e+002
4.454333e+002, 1.179246e+002
4.459154e+002, 1.181184e+002
4.463976e+002, 1.184659e+002
4.468797e+002, 1.189607e+002
4.473618e+002, 1.196225e+002
4.478439e+002, 1.205301e+002
4.483260e+002, 1.213671e+002
4.488081e+002, 1.220431e+002
4.492903e+002, 1.226571e+002
4.497724e+002, 1.232473e+002
4.502545e+002, 1.238258e+002
4.507366e+002, 1.244212e+002
4.512187e+002, 1.252708e+002
4.517008e+002, 1.261983e+002
4.521830e+002, 1.262366e+002
4.526651e+002, 1.249104e+002
4.531472e+002, 1.238432e+002
4.536293e+002, 1.242585e+002
4.541114e+002, 1.254781e+002
4.545935e+002, 1.266702e+002
4.550757e+002, 1.278320e+002
4.555578e+002, 1.285889e+002
4.560399e+002, 1.284335e+002
4.565220e+002, 1.275513e+002
4.570041e+002, 1.267837e+002
4.574862e+002, 1.264354e+002
4.579684e+002, 1.261341e+002
4.584505e+002, 1.253711e+002
4.589326e+002, 1.241678e+002
4.594147e+002, 1.228357e+002
4.598968e+002, 1.214924e+002
4.603789e+002, 1.200016e+002
4.608611e+002, 1.180905e+002
4.613432e+002, 1.158528e+002
4.618253e+002, 1.138249e+002
4.623074e+002, 1.123711e+002
4.627895e+002, 1.113283e+002
4.632716e+002, 1.099771e+002
4.637538e+002, 1.080948e+002
4.642359e+002, 1.062197e+002
4.647180e+002, 1.043486e+002
4.652001e+002, 1.025296e+002
4.656822e+002, 1.008543e+002
4.661643e+002, 9.931379e+001
4.666465e+002, 9.778214e+001
4.671286e+002, 9.610560e+001
4.676107e+002, 9.423803e+001
4.680928e+002, 9.254208e+001
4.685749e+002, 9.096938e+001
4.690570e+002, 8.962641e+001
4.695392e+002, 8.872337e+001
4.700213e+002, 8.802579e+001
4.705034e+002, 8.718626e+001
4.709855e+002, 8.604594e+001
4.714676e+002, 8.478728e+001
4.719497e+002, 8.374988e+001
4.724319e+002, 8.299687e+001
4.729140e+002, 8.219349e+001
4.733961e+002, 8.121655e+001
4.738782e+002, 8.024739e+001
4.743603e+002, 7.941698e+001
4.748424e+002, 7.870086e+001
4.753246e+002, 7.795149e+001
4.758067e+002, 7.700289e+001
4.762888e+002, 7.599628e+001
4.767709e+002, 7.523957e+001
4.772530e+002, 7.475783e+001
4.777351e+002, 7.438567e+001
4.782173e+002, 7.403393e+001
4.786994e+002, 7.376534e+001
4.791815e+002, 7.371561e+001
4.796636e+002, 7.398360e+001
4.801457e+002, 7.412655e+001
4.806278e+002, 7.381625e+001
4.811100e+002, 7.325729e+001
4.815920e+002, 7.279061e+001
4.820742e+002, 7.247301e+001
4.825563e+002, 7.231138e+001
4.830384e+002, 7.240210e+001
4.835205e+002, 7.272274e+001
4.840026e+002, 7.262357e+001
4.844847e+002, 7.167930e+001
4.849669e+002, 7.080383e+001
4.854490e+002, 7.031255e+001
4.859311e+002, 7.015211e+001
4.864132e+002, 7.026464e+001
4.868953e+002, 7.062455e+001
4.873774e+002, 7.108824e+001
4.878596e+002, 7.143269e+001
4.883417e+002, 7.169389e+001
4.888238e+002, 7.172459e+001
4.893059e+002, 7.138033e+001
4.897880e+002, 7.098511e+001
4.902701e+002, 7.070409e+001
4.907523e+002, 7.050082e+001
4.912344e+002, 7.023572e+001
4.917165e+002, 6.980230e+001
4.921986e+002, 6.932034e+001
4.926807e+002, 6.917956e+001
4.931628e+002, 6.958774e+001
4.936450e+002, 6.976329e+001
4.941271e+002, 6.937417e+001
4.946092e+002, 6.881715e+001
4.950913e+002, 6.834073e+001
4.955734e+002, 6.795919e+001
4.960555e+002, 6.754089e+001
4.965377e+002, 6.682567e+001
4.970198e+002, 6.602132e+001
4.975019e+002, 6.580555e+001
4.979840e+002, 6.632368e+001
4.984661e+002, 6.680722e+001
4.989482e+002, 6.686047e+001
4.994304e+002, 6.659116e+001
4.999125e+002, 6.620815e+001
5.003946e+002, 6.565720e+001
5.008767e+002, 6.514936e+001
5.013588e+002, 6.484702e+001
5.018409e+002, 6.464030e+001
5.023231e+002, 6.435869e+001
5.028052e+002, 6.396951e+001
5.032873e+002, 6.341782e+001
5.037694e+002, 6.259710e+001
5.042515e+002, 6.148860e+001
5.047336e+002, 6.066447e+001
5.052158e+002, 6.039906e+001
5.056979e+002, 6.007819e+001
5.061800e+002, 5.940381e+001
5.066621e+002, 5.855666e+001
5.071442e+002, 5.782307e+001
5.076263e+002, 5.730532e+001
5.081085e+002, 5.690892e+001
5.085906e+002, 5.653273e+001
5.090727e+002, 5.627187e+001
5.095548e+002, 5.568281e+001
5.100369e+002, 5.431856e+001
5.105190e+002, 5.307398e+001
5.110012e+002, 5.224889e+001
5.114833e+002, 5.179729e+001
5.119654e+002, 5.164501e+001
5.124475e+002, 5.182220e+001
5.129296e+002, 5.205835e+001
5.134117e+002, 5.185663e+001
5.138939e+002, 5.117831e+001
5.143760e+002, 5.032674e+001
5.148581e+002, 4.909569e+001
5.153402e+002, 4.798830e+001
5.158223e+002, 4.750282e+001
5.163044e+002, 4.755402e+001
5.167866e+002, 4.755669e+001
5.172687e+002, 4.739356e+001
5.177508e+002, 4.697504e+001
5.182329e+002, 4.596556e+001
5.187150e+002, 4.443152e+001
5.191971e+002, 4.327306e+001
5.196793e+002, 4.300931e+001
5.201614e+002, 4.326104e+001
5.206435e+002, 4.314764e+001
5.211256e+002, 4.247554e+001
5.216077e+002, 4.207418e+001
5.220898e+002, 4.239344e+001
5.225720e+002, 4.282278e+001
5.230541e+002, 4.281815e+001
5.235362e+002, 4.237585e+001
5.240183e+002, 4.176247e+001
5.245004e+002, 4.113552e+001
5.249825e+002, 4.054716e+001
5.254647e+002, 4.027461e+001
5.259468e+002, 4.068591e+001
5.264289e+002, 4.089452e+001
5.269110e+002, 4.062597e+001
5.273931e+002, 4.027257e+001
5.278752e+002, 4.021451e+001
5.283574e+002, 4.045219e+001
5.288395e+002, 4.064198e+001
5.293216e+002, 4.041088e+001
5.298037e+002, 3.985804e+001
5.302858e+002, 3.962552e+001
5.307679e+002, 3.986806e+001
5.312501e+002, 4.007375e+001
5.317322e+002, 4.012849e+001
5.322143e+002, 3.998088e+001
5.326964e+002, 3.945889e+001
5.331785e+002, 3.846849e+001
5.336606e+002, 3.758779e+001
5.341428e+002, 3.721404e+001
5.346249e+002, 3.721280e+001
5.351070e+002, 3.739449e+001
5.355891e+002, 3.776217e+001
5.360712e+002, 3.792631e+001
5.365533e+002, 3.746322e+001
5.370355e+002, 3.653159e+001
5.375176e+002, 3.612714e+001
5.379997e+002, 3.667023e+001
5.384818e+002, 3.717348e+001
5.389639e+002, 3.746100e+001
5.394460e+002, 3.750980e+001
5.399282e+002, 3.717012e+001
5.404103e+002, 3.646964e+001
5.408924e+002, 3.578229e+001
5.413745e+002, 3.551327e+001
5.418566e+002, 3.567477e+001
5.423387e+002, 3.583262e+001
5.428209e+002, 3.606884e+001
5.433029e+002, 3.619593e+001
5.437850e+002, 3.621618e+001
5.442672e+002, 3.608908e+001
5.447493e+002, 3.566107e+001
5.452314e+002, 3.491846e+001
5.457135e+002, 3.426281e+001
5.461956e+002, 3.431804e+001
5.466777e+002, 3.499095e+001
5.471599e+002, 3.507333e+001
5.476420e+002, 3.416754e+001
5.481241e+002, 3.338139e+001
5.486062e+002, 3.369252e+001
5.490883e+002, 3.452039e+001
5.495704e+002, 3.495530e+001
5.500526e+002, 3.482245e+001
5.505347e+002, 3.433152e+001
5.510168e+002, 3.324110e+001
5.514989e+002, 3.195125e+001
5.519810e+002, 3.139037e+001
5.524631e+002, 3.176420e+001
5.529453e+002, 3.240034e+001
5.534274e+002, 3.268603e+001
5.539095e+002, 3.261948e+001
5.543916e+002, 3.262657e+001
5.548737e+002, 3.268620e+001
5.553558e+002, 3.283142e+001
5.558380e+002, 3.327818e+001
5.563201e+002, 3.372284e+001
5.568022e+002, 3.362503e+001
5.572843e+002, 3.292627e+001
5.577664e+002, 3.231590e+001
5.582485e+002, 3.276754e+001
5.587307e+002, 3.435016e+001
5.592128e+002, 3.492452e+001
5.596949e+002, 3.362762e+001
5.601770e+002, 3.253952e+001
5.606591e+002, 3.242681e+001
5.611412e+002, 3.285387e+001
5.616234e+002, 3.336098e+001
5.621055e+002, 3.385009e+001
5.625876e+002, 3.422115e+001
5.630697e+002, 3.439565e+001
5.635518e+002, 3.438236e+001
5.640339e+002, 3.416357e+001
5.645161e+002, 3.369544e+001
5.649982e+002, 3.322622e+001
5.654803e+002, 3.289592e+001
5.659624e+002, 3.271917e+001
5.664445e+002, 3.270267e+001
5.669266e+002, 3.302692e+001
5.674088e+002, 3.325383e+001
5.678909e+002, 3.316052e+001
5.683730e+002, 3.292234e+001
5.688551e+002, 3.275121e+001
5.693372e+002, 3.268691e+001
5.698193e+002, 3.265934e+001
5.703015e+002, 3.261065e+001
5.707836e+002, 3.253962e+001
5.712657e+002, 3.241756e+001
5.717478e+002, 3.197104e+001
5.722299e+002, 3.185816e+001
5.727120e+002, 3.257520e+001
5.731942e+002, 3.340900e+001
5.736763e+002, 3.362237e+001
5.741584e+002, 3.314639e+001
5.746405e+002, 3.257043e+001
5.751226e+002, 3.238920e+001
5.756047e+002, 3.253211e+001
5.760869e+002, 3.272424e+001
5.765690e+002, 3.297638e+001
5.770511e+002, 3.323920e+001
5.775332e+002, 3.357489e+001
5.780153e+002, 3.384897e+001
5.784974e+002, 3.381398e+001
5.789796e+002, 3.337710e+001
5.794617e+002, 3.303526e+001
5.799438e+002, 3.308970e+001
5.804259e+002, 3.326947e+001
5.809080e+002, 3.323045e+001
5.813901e+002, 3.298077e+001
5.818723e+002, 3.278626e+001
5.823544e+002, 3.283249e+001
5.828365e+002, 3.302296e+001
5.833186e+002, 3.302201e+001
5.838007e+002, 3.255098e+001
5.842828e+002, 3.231700e+001
5.847650e+002, 3.251223e+001
5.852471e+002, 3.278080e+001
5.857292e+002, 3.289242e+001
5.862113e+002, 3.286254e+001
5.866934e+002, 3.282209e+001
5.871755e+002, 3.284865e+001
5.876577e+002, 3.292364e+001
5.881398e+002, 3.303460e+001
5.886219e+002, 3.320412e+001
5.891040e+002, 3.324728e+001
5.895861e+002, 3.306099e+001
5.900682e+002, 3.279428e+001
5.905504e+002, 3.249416e+001
5.910325e+002, 3.219762e+001
5.915146e+002, 3.217219e+001
5.919967e+002, 3.288082e+001
5.924788e+002, 3.357073e+001
5.929609e+002, 3.343493e+001
5.934431e+002, 3.273468e+001
5.939252e+002, 3.227653e+001
5.944073e+002, 3.236031e+001
5.948894e+002, 3.270397e+001
5.953715e+002, 3.291730e+001
5.958536e+002, 3.295367e+001
5.963358e+002, 3.307341e+001
5.968179e+002, 3.337148e+001
5.973000e+002, 3.363489e+001
5.977821e+002, 3.383508e+001
5.982642e+002, 3.393758e+001
5.987463e+002, 3.385064e+001
5.992285e+002, 3.355243e+001
5.997106e+002, 3.325151e+001
6.001927e+002, 3.328088e+001
6.006748e+002, 3.362012e+001
6.011569e+002, 3.362878e+001
6.016390e+002, 3.304464e+001
6.021212e+002, 3.263194e+001
6.026033e+002, 3.307837e+001
6.030854e+002, 3.390124e+001
6.035675e+002, 3.436935e+001
6.040496e+002, 3.434304e+001
6.045317e+002, 3.412852e+001
6.050139e+002, 3.372393e+001
6.054960e+002, 3.329494e+001
6.059781e+002, 3.313788e+001
6.064602e+002, 3.326038e+001
6.069423e+002, 3.334757e+001
6.074244e+002, 3.312458e+001
6.079066e+002, 3.273706e+001
6.083887e+002, 3.286550e+001
6.088708e+002, 3.441198e+001
6.093529e+002, 3.516686e+001
6.098350e+002, 3.436407e+001
6.103171e+002, 3.332739e+001
6.107993e+002, 3.304382e+001
6.112814e+002, 3.341178e+001
6.117635e+002, 3.370609e+001
6.122456e+002, 3.341990e+001
6.127277e+002, 3.286218e+001
6.132098e+002, 3.270700e+001
6.136920e+002, 3.298929e+001
6.141741e+002, 3.325933e+001
6.146562e+002, 3.341523e+001
6.151383e+002, 3.351502e+001
6.156204e+002, 3.357990e+001
6.161025e+002, 3.362458e+001
6.165847e+002, 3.375685e+001
6.170668e+002, 3.413832e+001
6.175489e+002, 3.447528e+001
6.180310e+002, 3.461378e+001
6.185131e+002, 3.456445e+001
6.189952e+002, 3.431183e+001
6.194774e+002, 3.385957e+001
6.199595e+002, 3.333987e+001
6.204416e+002, 3.286642e+001
6.209237e+002, 3.241330e+001
6.214058e+002, 3.238668e+001
6.218879e+002, 3.324871e+001
6.223701e+002, 3.398159e+001
6.228522e+002, 3.441391e+001
6.233343e+002, 3.459546e+001
6.238164e+002, 3.449929e+001
6.242985e+002, 3.415096e+001
6.247806e+002, 3.380956e+001
6.252628e+002, 3.366209e+001
6.257448e+002, 3.368547e+001
6.262269e+002, 3.385374e+001
6.267090e+002, 3.417871e+001
6.271912e+002, 3.450151e+001
6.276733e+002, 3.474940e+001
6.281554e+002, 3.495518e+001
6.286375e+002, 3.524488e+001
6.291196e+002, 3.572221e+001
6.296017e+002, 3.582220e+001
6.300839e+002, 3.499247e+001
6.305660e+002, 3.417809e+001
6.310481e+002, 3.407523e+001
6.315302e+002, 3.452096e+001
6.320123e+002, 3.509723e+001
6.324944e+002, 3.561123e+001
6.329766e+002, 3.595595e+001
6.334587e+002, 3.583405e+001
6.339408e+002, 3.506081e+001
6.344229e+002, 3.480078e+001
6.349050e+002, 3.555734e+001
6.353871e+002, 3.619157e+001
6.358693e+002, 3.595230e+001
6.363514e+002, 3.536993e+001
6.368335e+002, 3.531744e+001
6.373156e+002, 3.610620e+001
6.377977e+002, 3.694743e+001
6.382798e+002, 3.739407e+001
6.387620e+002, 3.746972e+001
6.392441e+002, 3.698409e+001
6.397262e+002, 3.596101e+001
6.402083e+002, 3.534735e+001
6.406904e+002, 3.585028e+001
6.411725e+002, 3.711181e+001
6.416547e+002, 3.794043e+001
6.421368e+002, 3.803444e+001
6.426189e+002, 3.810900e+001
6.431010e+002, 3.824821e+001
6.435831e+002, 3.829375e+001
6.440652e+002, 3.807886e+001
6.445474e+002, 3.768756e+001
6.450295e+002, 3.728956e+001
6.455116e+002, 3.693927e+001
6.459937e+002, 3.679324e+001
6.464758e+002, 3.726954e+001
6.469579e+002, 3.836029e+001
6.474401e+002, 3.907095e+001
6.479222e+002, 3.916381e+001
6.484043e+002, 3.904531e+001
6.488864e+002, 3.901394e+001
6.493685e+002, 3.901377e+001
6.498506e+002, 3.884884e+001
6.503328e+002, 3.821416e+001
6.508149e+002, 3.786340e+001
6.512970e+002, 3.842310e+001
6.517791e+002, 3.924640e+001
6.522612e+002, 3.944833e+001
6.527433e+002, 3.902180e+001
6.532255e+002, 3.866474e+001
6.537076e+002, 3.890405e+001
6.541897e+002, 3.958985e+001
6.546718e+002, 4.018669e+001
6.551539e+002, 4.070655e+001
6.556360e+002, 4.110289e+001
6.561182e+002, 4.121275e+001
6.566003e+002, 4.132938e+001
6.570824e+002, 4.161853e+001
6.575645e+002, 4.205050e+001
6.580466e+002, 4.251162e+001
6.585287e+002, 4.297541e+001
6.590109e+002, 4.342855e+001
6.594930e+002, 4.388255e+001
6.599751e+002, 4.431425e+001
6.604572e+002, 4.464223e+001
6.609393e+002, 4.484496e+001
6.614214e+002, 4.504185e+001
6.619036e+002, 4.534676e+001
6.623857e+002, 4.574559e+001
6.628678e+002, 4.607759e+001
6.633499e+002, 4.617342e+001
6.638320e+002, 4.642981e+001
6.643141e+002, 4.700608e+001
6.647963e+002, 4.766150e+001
6.652784e+002, 4.822820e+001
6.657605e+002, 4.869322e+001
6.662426e+002, 4.909481e+001
6.667247e+002, 4.941270e+001
6.672068e+002, 4.976080e+001
6.676890e+002, 5.043025e+001
6.681711e+002, 5.140730e+001
6.686532e+002, 5.220299e+001
6.691353e+002, 5.268622e+001
6.696174e+002, 5.300455e+001
6.700995e+002, 5.321273e+001
6.705817e+002, 5.334142e+001
6.710638e+002, 5.365617e+001
6.715459e+002, 5.431230e+001
6.720280e+002, 5.496748e+001
6.725101e+002, 5.552423e+001
6.729922e+002, 5.601387e+001
6.734744e+002, 5.640506e+001
6.739565e+002, 5.674418e+001
6.744386e+002, 5.723922e+001
6.749207e+002, 5.809929e+001
6.754028e+002, 5.915381e+001
6.758849e+002, 5.976450e+001
6.763671e+002, 5.975735e+001
6.768492e+002, 6.010321e+001
6.773313e+002, 6.130180e+001
6.778134e+002, 6.256202e+001
6.782955e+002, 6.309564e+001
6.787776e+002, 6.314223e+001
6.792598e+002, 6.357445e+001
6.797419e+002, 6.490236e+001
6.802240e+002, 6.626218e+001
6.807061e+002, 6.708891e+001
6.811882e+002, 6.764047e+001
6.816703e+002, 6.832813e+001
6.821525e+002, 6.921635e+001
6.826346e+002, 7.014939e+001
6.831167e+002, 7.100919e+001
6.835988e+002, 7.179640e+001
6.840809e+002, 7.254659e+001
6.845630e+002, 7.339137e+001
6.850452e+002, 7.390758e+001
6.855273e+002, 7.349095e+001
6.860094e+002, 7.321074e+001
6.864915e+002, 7.385717e+001
6.869736e+002, 7.516708e+001
6.874557e+002, 7.629801e+001
6.879379e+002, 7.690882e+001
6.884200e+002, 7.728183e+001
6.889021e+002, 7.752147e+001
6.893842e+002, 7.773437e+001
6.898663e+002, 7.828423e+001
6.903484e+002, 7.922408e+001
6.908306e+002, 7.999142e+001
6.913127e+002, 8.013272e+001
6.917948e+002, 7.975137e+001
6.922769e+002, 7.935192e+001
6.927590e+002, 7.866508e+001
6.932411e+002, 7.841074e+001
6.937233e+002, 7.900689e+001
6.942054e+002, 7.966413e+001
6.946875e+002, 7.985191e+001
6.951696e+002, 7.970774e+001
6.956517e+002, 7.967711e+001
6.961339e+002, 7.998177e+001
6.966160e+002, 8.038306e+001
6.970981e+002, 8.075234e+001
6.975802e+002, 8.100668e+001
6.980623e+002, 8.078133e+001
6.985444e+002, 7.999769e+001
6.990266e+002, 7.906546e+001
6.995087e+002, 7.818372e+001
6.999908e+002, 7.742787e+001
7.004729e+002, 7.711024e+001
7.009550e+002, 7.783829e+001
7.014371e+002, 7.807076e+001
7.019193e+002, 7.733262e+001
7.024014e+002, 7.651555e+001
7.028835e+002, 7.616904e+001
7.033656e+002, 7.617512e+001
7.038477e+002, 7.619969e+001
7.043298e+002, 7.610841e+001
7.048120e+002, 7.592313e+001
7.052941e+002, 7.555295e+001
7.057762e+002, 7.508649e+001
7.062583e+002, 7.504888e+001
7.067404e+002, 7.556356e+001
7.072225e+002, 7.598625e+001
7.077046e+002, 7.593656e+001
7.081867e+002, 7.554816e+001
7.086688e+002, 7.511228e+001
7.091509e+002, 7.445512e+001
7.096331e+002, 7.419200e+001
7.101152e+002, 7.463619e+001
7.105973e+002, 7.521784e+001
7.110794e+002, 7.571970e+001
7.115615e+002, 7.608284e+001
7.120436e+002, 7.618063e+001
7.125258e+002, 7.597875e+001
7.130079e+002, 7.581510e+001
7.134900e+002, 7.620296e+001
7.139721e+002, 7.700561e+001
7.144542e+002, 7.738089e+001
7.149363e+002, 7.720602e+001
7.154185e+002, 7.726216e+001
7.159006e+002, 7.808916e+001
7.163827e+002, 7.914919e+001
7.168648e+002, 7.942224e+001
7.173469e+002, 7.872243e+001
7.178290e+002, 7.843881e+001
7.183112e+002, 7.899290e+001
7.187933e+002, 7.966123e+001
7.192754e+002, 8.014875e+001
7.197575e+002, 8.049569e+001
7.202396e+002, 8.079768e+001
7.207217e+002, 8.107633e+001
7.212039e+002, 8.128065e+001
7.216860e+002, 8.134200e+001
7.221681e+002, 8.129285e+001
7.226502e+002, 8.124956e+001
7.231323e+002, 8.120837e+001
7.236144e+002, 8.119958e+001
7.240966e+002, 8.122104e+001
7.245787e+002, 8.129699e+001
7.250608e+002, 8.147393e+001
7.255429e+002, 8.175149e+001
7.260250e+002, 8.201365e+001
7.265071e+002, 8.233378e+001
7.269893e+002, 8.254514e+001
7.274714e+002, 8.233221e+001
7.279535e+002, 8.213039e+001
7.284356e+002, 8.261008e+001
7.289177e+002, 8.369993e+001
7.293998e+002, 8.460262e+001
7.298820e+002, 8.470419e+001
7.303641e+002, 8.429513e+001
7.308462e+002, 8.397233e+001
7.313283e+002, 8.373325e+001
7.318104e+002, 8.365553e+001
7.322925e+002, 8.370509e+001
7.327747e+002, 8.405080e+001
7.332568e+002, 8.506912e+001
7.337389e+002, 8.653750e+001
7.342210e+002, 8.730720e+001
7.347031e+002, 8.693836e+001
7.351852e+002, 8.655120e+001
7.356674e+002, 8.621043e+001
7.361495e+002, 8.606483e+001
7.366316e+002, 8.633846e+001
7.371137e+002, 8.691297e+001
7.375958e+002, 8.745106e+001
7.380779e+002, 8.778553e+001
7.385601e+002, 8.806001e+001
7.390422e+002, 8.848945e+001
7.395243e+002, 8.905981e+001
7.400064e+002, 8.969306e+001
7.404885e+002, 9.043698e+001
7.409706e+002, 9.096485e+001
7.414528e+002, 9.096528e+001
7.419349e+002, 9.072364e+001
7.424170e+002, 9.090314e+001
7.428991e+002, 9.163982e+001
7.433812e+002, 9.228550e+001
7.438633e+002, 9.280235e+001
7.443455e+002, 9.320322e+001
7.448276e+002, 9.342490e+001
7.453097e+002, 9.356253e+001
7.457918e+002, 9.372929e+001
7.462739e+002, 9.396571e+001
7.467560e+002, 9.430040e+001
7.472382e+002, 9.471143e+001
7.477203e+002, 9.524908e+001
7.482024e+002, 9.616492e+001
7.486845e+002, 9.747371e+001
7.491666e+002, 9.864101e+001
7.496487e+002, 9.951887e+001
7.501309e+002, 1.001054e+002
7.506130e+002, 1.003132e+002
7.510951e+002, 1.001055e+002
7.515772e+002, 1.002133e+002
7.520593e+002, 1.007397e+002
7.525414e+002, 1.014160e+002
7.530236e+002, 1.024054e+002
7.535057e+002, 1.033603e+002
7.539878e+002, 1.039823e+002
7.544699e+002, 1.042611e+002
7.549520e+002, 1.043132e+002
7.554341e+002, 1.041049e+002
7.559163e+002, 1.039110e+002
7.563984e+002, 1.042356e+002
7.568805e+002, 1.049329e+002
7.573626e+002, 1.053143e+002
7.578447e+002, 1.052514e+002
7.583268e+002, 1.051347e+002
7.588090e+002, 1.051767e+002
7.592911e+002, 1.054364e+002
7.597732e+002, 1.061384e+002
7.602553e+002, 1.078616e+002
7.607374e+002, 1.089722e+002
7.612195e+002, 1.090692e+002
7.617017e+002, 1.090230e+002
7.621838e+002, 1.091559e+002
7.626659e+002, 1.094507e+002
7.631480e+002, 1.097953e+002
7.636301e+002, 1.101510e+002
7.641122e+002, 1.107526e+002
7.645944e+002, 1.120629e+002
7.650765e+002, 1.135787e+002
7.655586e+002, 1.144133e+002
7.660407e+002, 1.146577e+002
7.665228e+002, 1.149020e+002
7.670049e+002, 1.153561e+002
7.674871e+002, 1.161491e+002
7.679692e+002, 1.175469e+002
7.684513e+002, 1.196079e+002
7.689334e+002, 1.209399e+002
7.694155e+002, 1.207934e+002
7.698976e+002, 1.211510e+002
7.703798e+002, 1.228207e+002
7.708619e+002, 1.248376e+002
7.713440e+002, 1.264717e+002
7.718261e+002, 1.277488e+002
7.723082e+002, 1.290622e+002
7.727903e+002, 1.306265e+002
7.732725e+002, 1.321613e+002
7.737546e+002, 1.332841e+002
7.742367e+002, 1.343261e+002
7.747188e+002, 1.357442e+002
7.752009e+002, 1.376242e+002
7.756830e+002, 1.400186e+002
7.761652e+002, 1.430399e+002
7.766473e+002, 1.462884e+002
7.771294e+002, 1.486407e+002
7.776115e+002, 1.498564e+002
7.780936e+002, 1.518639e+002
7.785757e+002, 1.550912e+002
7.790579e+002, 1.585650e+002
7.795400e+002, 1.619271e+002
7.800221e+002, 1.651293e+002
7.805042e+002, 1.679856e+002
7.809863e+002, 1.704060e+002
7.814684e+002, 1.730242e+002
7.819506e+002, 1.760688e+002
7.824327e+002, 1.792793e+002
7.829148e+002, 1.824681e+002
7.833969e+002, 1.857307e+002
7.838790e+002, 1.894931e+002
7.843611e+002, 1.937215e+002
7.848433e+002, 1.973712e+002
7.853254e+002, 1.991755e+002
7.858075e+002, 1.998582e+002
7.862896e+002, 2.015727e+002
7.867717e+002, 2.043238e+002
7.872538e+002, 2.074125e+002
7.877360e+002, 2.108036e+002
7.882181e+002, 2.140723e+002
7.887002e+002, 2.168074e+002
7.891823e+002, 2.190502e+002
7.896644e+002, 2.210530e+002
7.901465e+002, 2.227269e+002
7.906286e+002, 2.243128e+002
7.911107e+002, 2.260799e+002
7.915928e+002, 2.275313e+002
7.920750e+002, 2.280676e+002
7.925571e+002, 2.280965e+002
7.930392e+002, 2.285367e+002
7.935213e+002, 2.297545e+002
7.940034e+002, 2.310805e+002
7.944855e+002, 2.321019e+002
7.949677e+002, 2.327618e+002
7.954498e+002, 2.326664e+002
7.959319e+002, 2.319704e+002
7.964140e+002, 2.318501e+002
7.968961e+002, 2.328379e+002
7.973782e+002, 2.340972e+002
7.978604e+002, 2.344250e+002
7.983425e+002, 2.337670e+002
7.988246e+002, 2.335237e+002
7.993067e+002, 2.340393e+002
7.997888e+002, 2.343418e+002
8.002709e+002, 2.339071e+002
8.007531e+002, 2.333954e+002
8.012352e+002, 2.335064e+002
8.017173e+002, 2.340417e+002
8.021994e+002, 2.339373e+002
8.026815e+002, 2.319395e+002
8.031636e+002, 2.306726e+002
8.036458e+002, 2.320928e+002
8.041279e+002, 2.346254e+002
8.046100e+002, 2.366396e+002
8.050921e+002, 2.379387e+002
8.055742e+002, 2.387970e+002
8.060563e+002, 2.393382e+002
8.065385e+002, 2.396918e+002
8.070206e+002, 2.399330e+002
8.075027e+002, 2.401005e+002
8.079848e+002, 2.407020e+002
8.084669e+002, 2.417516e+002
8.089490e+002, 2.433671e+002
8.094312e+002, 2.458905e+002
8.099133e+002, 2.486044e+002
8.103954e+002, 2.503958e+002
8.108775e+002, 2.511069e+002
8.113596e+002, 2.518631e+002
8.118417e+002, 2.526297e+002
8.123239e+002, 2.534814e+002
8.128060e+002, 2.540124e+002
8.132881e+002, 2.549416e+002
8.137702e+002, 2.572183e+002
8.142523e+002, 2.606065e+002
8.147344e+002, 2.638726e+002
8.152166e+002, 2.664047e+002
8.156987e+002, 2.685671e+002
8.161808e+002, 2.705256e+002
8.166629e+002, 2.724218e+002
8.171450e+002, 2.745688e+002
8.176271e+002, 2.769961e+002
8.181093e+002, 2.795771e+002
8.185914e+002, 2.822374e+002
8.190735e+002, 2.850174e+002
8.195556e+002, 2.879803e+002
8.200377e+002, 2.911130e+002
8.205198e+002, 2.945274e+002
8.210020e+002, 2.982827e+002
8.214841e+002, 3.022574e+002
8.219662e+002, 3.065086e+002
8.224483e+002, 3.108771e+002
8.229304e+002, 3.150027e+002
8.234125e+002, 3.189199e+002
8.238947e+002, 3.234453e+002
8.243768e+002, 3.292265e+002
8.248589e+002, 3.350394e+002
8.253410e+002, 3.402852e+002
8.258231e+002, 3.453622e+002
8.263052e+002, 3.504050e+002
8.267874e+002, 3.556786e+002
8.272695e+002, 3.618739e+002
8.277516e+002, 3.695073e+002
8.282337e+002, 3.777639e+002
8.287158e+002, 3.856365e+002
8.291979e+002, 3.931636e+002
8.296801e+002, 4.002402e+002
8.301622e+002, 4.068112e+002
8.306443e+002, 4.143300e+002
8.311264e+002, 4.236766e+002
8.316085e+002, 4.337792e+002
8.320906e+002, 4.428848e+002
8.325728e+002, 4.506918e+002
8.330549e+002, 4.593731e+002
8.335370e+002, 4.699530e+002
8.340191e+002, 4.798289e+002
8.345012e+002, 4.877376e+002
8.349833e+002, 4.952247e+002
8.354655e+002, 5.038422e+002
8.359476e+002, 5.133239e+002
8.364297e+002, 5.221307e+002
8.369118e+002, 5.292362e+002
8.373939e+002, 5.364680e+002
8.378760e+002, 5.456185e+002
8.383582e+002, 5.549474e+002
8.388403e+002, 5.621672e+002
8.393224e+002, 5.676299e+002
8.398045e+002, 5.732645e+002
8.402866e+002, 5.799756e+002
8.407687e+002, 5.867676e+002
8.412509e+002, 5.923237e+002
8.417330e+002, 5.967189e+002
8.422151e+002, 6.000089e+002
8.426972e+002, 6.020815e+002
8.431793e+002, 6.047319e+002
8.436614e+002, 6.087698e+002
8.441436e+002, 6.130790e+002
8.446257e+002, 6.163702e+002
8.451078e+002, 6.186630e+002
8.455899e+002, 6.206944e+002
8.460720e+002, 6.219857e+002
8.465541e+002, 6.236973e+002
8.470363e+002, 6.264281e+002
8.475184e+002, 6.291212e+002
8.480005e+002, 6.311296e+002
8.484826e+002, 6.325922e+002
8.489647e+002, 6.337582e+002
8.494468e+002, 6.344711e+002
8.499290e+002, 6.358802e+002
8.504111e+002, 6.392957e+002
8.508932e+002, 6.431718e+002
8.513753e+002, 6.457369e+002
8.518574e+002, 6.475164e+002
8.523395e+002, 6.499786e+002
8.528217e+002, 6.535259e+002
8.533038e+002, 6.574106e+002
8.537859e+002, 6.607466e+002
8.542680e+002, 6.639414e+002
8.547501e+002, 6.685897e+002
8.552322e+002, 6.747000e+002
8.557144e+002, 6.795231e+002
8.561965e+002, 6.821845e+002
8.566786e+002, 6.848714e+002
8.571607e+002, 6.892678e+002
8.576428e+002, 6.948523e+002
8.581249e+002, 7.000159e+002
8.586071e+002, 7.047042e+002
8.590892e+002, 7.090370e+002
8.595713e+002, 7.131528e+002
8.600534e+002, 7.167529e+002
8.605355e+002, 7.196471e+002
8.610176e+002, 7.220242e+002
8.614998e+002, 7.240980e+002
8.619819e+002, 7.258987e+002
8.624640e+002, 7.273820e+002
8.629461e+002, 7.296226e+002
8.634282e+002, 7.303867e+002
8.639103e+002, 7.273745e+002
8.643925e+002, 7.223489e+002
8.648746e+002, 7.179743e+002
8.653567e+002, 7.142514e+002
8.658388e+002, 7.094838e+002
8.663209e+002, 7.026819e+002
8.668030e+002, 6.944266e+002
8.672852e+002, 6.853130e+002
8.677673e+002, 6.755286e+002
8.682494e+002, 6.660745e+002
8.687315e+002, 6.570511e+002
8.692136e+002, 6.475426e+002
8.696957e+002, 6.371474e+002
8.701779e+002, 6.260269e+002
8.706600e+002, 6.144427e+002
8.711421e+002, 6.023712e+002
8.716242e+002, 5.902040e+002
8.721063e+002, 5.772242e+002
8.725884e+002, 5.654094e+002
8.730705e+002, 5.562394e+002
8.735526e+002, 5.473547e+002
8.740347e+002, 5.377736e+002
8.745168e+002, 5.273779e+002
8.749990e+002, 5.154876e+002
8.754811e+002, 5.011723e+002
8.759632e+002, 4.881430e+002
8.764453e+002, 4.786024e+002
8.769274e+002, 4.700169e+002
8.774095e+002, 4.604547e+002
8.778917e+002, 4.505520e+002
8.783738e+002, 4.414921e+002
8.788559e+002, 4.335848e+002
8.793380e+002, 4.265009e+002
8.798201e+002, 4.203933e+002
8.803022e+002, 4.144854e+002
8.807844e+002, 4.073874e+002
8.812665e+002, 3.993497e+002
8.817486e+002, 3.910385e+002
8.822307e+002, 3.826383e+002
8.827128e+002, 3.753301e+002
8.831949e+002, 3.700179e+002
8.836771e+002, 3.657191e+002
8.841592e+002, 3.603494e+002
8.846413e+002, 3.536786e+002
8.851234e+002, 3.476772e+002
8.856055e+002, 3.428040e+002
8.860876e+002, 3.373813e+002
8.865698e+002, 3.301607e+002
8.870519e+002, 3.228073e+002
8.875340e+002, 3.173748e+002
8.880161e+002, 3.137248e+002
8.884982e+002, 3.094128e+002
8.889803e+002, 3.036866e+002
8.894625e+002, 2.982725e+002
8.899446e+002, 2.933603e+002
8.904267e+002, 2.889252e+002
8.909088e+002, 2.855180e+002
8.913909e+002, 2.824246e+002
8.918730e+002, 2.781111e+002
8.923552e+002, 2.720653e+002
8.928373e+002, 2.663838e+002
8.933194e+002, 2.630339e+002
8.938015e+002, 2.601736e+002
8.942836e+002, 2.556677e+002
8.947657e+002, 2.501808e+002
8.952479e+002, 2.452393e+002
8.957300e+002, 2.411621e+002
8.962121e+002, 2.373861e+002
8.966942e+002, 2.335844e+002
8.971763e+002, 2.296133e+002
8.976584e+002, 2.249060e+002
8.981406e+002, 2.196268e+002
8.986227e+002, 2.155205e+002
8.991048e+002, 2.128796e+002
8.995869e+002, 2.096832e+002
9.000690e+002, 2.047161e+002
9.005511e+002, 1.994322e+002
9.010333e+002, 1.961778e+002
9.015154e+002, 1.951064e+002
9.019975e+002, 1.925401e+002
9.024796e+002, 1.875018e+002
9.029617e+002, 1.827536e+002
9.034438e+002, 1.787575e+002
9.039260e+002, 1.752534e+002
9.044081e+002, 1.722473e+002
9.048902e+002, 1.695767e+002
9.053723e+002, 1.669064e+002
9.058544e+002, 1.642968e+002
9.063365e+002, 1.614432e+002
9.068187e+002, 1.578661e+002
9.073008e+002, 1.544675e+002
9.077829e+002, 1.520867e+002
9.082650e+002, 1.500992e+002
9.087471e+002, 1.475740e+002
9.092292e+002, 1.444199e+002
9.097114e+002, 1.412069e+002
9.101935e+002, 1.381900e+002
9.106756e+002, 1.354127e+002
9.111577e+002, 1.329309e+002
9.116398e+002, 1.306988e+002
9.121219e+002, 1.286737e+002
9.126041e+002, 1.268349e+002
9.130862e+002, 1.251972e+002
9.135683e+002, 1.237705e+002
9.140504e+002, 1.221700e+002
9.145325e+002, 1.196462e+002
9.150146e+002, 1.164731e+002
9.154968e+002, 1.143237e+002
9.159789e+002, 1.132413e+002
9.164610e+002, 1.117567e+002
9.169431e+002, 1.093870e+002
9.174252e+002, 1.070187e+002
9.179073e+002, 1.054227e+002
9.183895e+002, 1.043505e+002
9.188716e+002, 1.028803e+002
9.193537e+002, 1.008367e+002
9.198358e+002, 9.878684e+001
9.203179e+002, 9.648566e+001
9.208000e+002, 9.453369e+001
9.212822e+002, 9.351975e+001
9.217643e+002, 9.274464e+001
9.222464e+002, 9.133727e+001
9.227285e+002, 8.932875e+001
9.232106e+002, 8.774336e+001
9.236927e+002, 8.726888e+001
9.241749e+002, 8.649330e+001
9.246570e+002, 8.485609e+001
9.251391e+002, 8.292258e+001
9.256212e+002, 8.091408e+001
9.261033e+002, 7.903019e+001
9.265854e+002, 7.771585e+001
9.270676e+002, 7.712391e+001
9.275497e+002, 7.627263e+001
9.280318e+002, 7.412746e+001
9.285139e+002, 7.176858e+001
9.289960e+002, 7.028395e+001
9.294781e+002, 6.939749e+001
9.299603e+002, 6.868032e+001
9.304424e+002, 6.794639e+001
9.309245e+002, 6.685709e+001
9.314066e+002, 6.515514e+001
9.318887e+002, 6.323854e+001
9.323708e+002, 6.169132e+001
9.328530e+002, 6.047852e+001
9.333351e+002, 5.959007e+001
9.338172e+002, 5.898982e+001
9.342993e+002, 5.796512e+001
9.347814e+002, 5.619956e+001
9.352635e+002, 5.458911e+001
9.357457e+002, 5.422506e+001
9.362278e+002, 5.480532e+001
9.367099e+002, 5.449334e+001
9.371920e+002, 5.307009e+001
9.376741e+002, 5.168052e+001
9.381563e+002, 5.039075e+001
9.386384e+002, 4.927159e+001
9.391205e+002, 4.831812e+001
9.396026e+002, 4.758502e+001
9.400847e+002, 4.723995e+001
9.405668e+002, 4.740937e+001
9.410490e+002, 4.722280e+001
9.415311e+002, 4.629276e+001
9.420132e+002, 4.555067e+001
9.424953e+002, 4.530896e+001
9.429774e+002, 4.518927e+001
9.434595e+002, 4.500240e+001
9.439417e+002, 4.470066e+001
9.444238e+002, 4.418457e+001
9.449059e+002, 4.336720e+001
9.453880e+002, 4.259457e+001
9.458701e+002, 4.195091e+001
9.463522e+002, 4.142706e+001
9.468344e+002, 4.113651e+001
9.473165e+002, 4.090187e+001
9.477986e+002, 4.036257e+001
9.482807e+002, 3.959190e+001
9.487628e+002, 3.919220e+001
9.492449e+002, 3.965271e+001
9.497271e+002, 4.015822e+001
9.502092e+002, 3.984419e+001
9.506913e+002, 3.912176e+001
9.511734e+002, 3.865141e+001
9.516555e+002, 3.836957e+001
9.521376e+002, 3.779106e+001
9.526198e+002, 3.679065e+001
9.531019e+002, 3.591515e+001
9.535840e+002, 3.571142e+001
9.540661e+002, 3.597165e+001
9.545482e+002, 3.632225e+001
9.550303e+002, 3.670821e+001
9.555124e+002, 3.672341e+001
9.559945e+002, 3.631106e+001
9.564766e+002, 3.577961e+001
9.569587e+002, 3.528398e+001
9.574409e+002, 3.479292e+001
9.579230e+002, 3.417411e+001
9.584051e+002, 3.343896e+001
9.588872e+002, 3.361668e+001
9.593693e+002, 3.506792e+001
9.598514e+002, 3.584772e+001
9.603336e+002, 3.536536e+001
9.608157e+002, 3.450055e+001
9.612978e+002, 3.378283e+001
9.617799e+002, 3.324841e+001
9.622620e+002, 3.304274e+001
9.627441e+002, 3.339620e+001
9.632263e+002, 3.336111e+001
9.637084e+002, 3.249781e+001
9.641905e+002, 3.184359e+001
9.646726e+002, 3.174677e+001
9.651547e+002, 3.190460e+001
9.656368e+002, 3.205492e+001
9.661190e+002, 3.222905e+001
9.666011e+002, 3.264422e+001
9.670832e+002, 3.375903e+001
9.675653e+002, 3.423797e+001
9.680474e+002, 3.320203e+001
9.685295e+002, 3.209825e+001
9.690117e+002, 3.176445e+001
9.694938e+002, 3.186063e+001
9.699759e+002, 3.194134e+001
9.704580e+002, 3.192611e+001
9.709401e+002, 3.186285e+001
9.714222e+002, 3.178799e+001
9.719044e+002, 3.164519e+001
9.723865e+002, 3.144315e+001
9.728686e+002, 3.112082e+001
9.733507e+002, 3.041837e+001
9.738328e+002, 2.958735e+001
9.743149e+002, 2.922827e+001
9.747971e+002, 2.948793e+001
9.752792e+002, 2.986470e+001
9.757613e+002, 2.995973e+001
9.762434e+002, 2.995831e+001
9.767255e+002, 3.025500e+001
9.772076e+002, 3.059606e+001
9.776898e+002, 3.025528e+001
9.781719e+002, 2.932959e+001
9.786540e+002, 2.876332e+001
9.791361e+002, 2.900046e+001
9.796182e+002, 2.942125e+001
9.801003e+002, 2.918713e+001
9.805825e+002, 2.853952e+001
9.810646e+002, 2.835312e+001
9.815467e+002, 2.855911e+001
9.820288e+002, 2.856756e+001
9.825109e+002, 2.826279e+001
9.829930e+002, 2.796810e+001
9.834752e+002, 2.791093e+001
9.839573e+002, 2.790939e+001
9.844394e+002, 2.757540e+001
9.849215e+002, 2.690615e+001
9.854036e+002, 2.639014e+001
9.858857e+002, 2.600294e+001
9.863679e+002, 2.599497e+001
9.868500e+002, 2.657372e+001
9.873321e+002, 2.707712e+001
9.878142e+002, 2.689933e+001
9.882963e+002, 2.629771e+001
9.887784e+002, 2.609875e+001
9.892606e+002, 2.644499e+001
9.897427e+002, 2.671784e+001
9.902248e+002, 2.708123e+001
9.907069e+002, 2.702551e+001
9.911890e+002, 2.602585e+001
9.916711e+002, 2.494631e+001
9.921533e+002, 2.468447e+001
9.926354e+002, 2.509380e+001
9.931175e+002, 2.531258e+001
9.935996e+002, 2.537593e+001
9.940817e+002, 2.518684e+001
9.945638e+002, 2.429001e+001
9.950460e+002, 2.368269e+001
9.955281e+002, 2.400591e+001
9.960102e+002, 2.463188e+001
9.964923e+002, 2.483677e+001
9.969744e+002, 2.466281e+001
9.974565e+002, 2.471449e+001
9.979387e+002, 2.554421e+001
9.984208e+002, 2.587205e+001
9.989029e+002, 2.474835e+001
9.993850e+002, 2.368367e+001
9.998671e+002, 2.382760e+001
1.000349e+003, 2.452946e+001
1.000831e+003, 2.478953e+001
1.001313e+003, 2.450532e+001
1.001796e+003, 2.427135e+001
1.002278e+003, 2.437615e+001
1.002760e+003, 2.451999e+001
1.003242e+003, 2.475956e+001
1.003724e+003, 2.477423e+001
1.004206e+003, 2.398189e+001
1.004688e+003, 2.282243e+001
1.005170e+003, 2.213494e+001
1.005653e+003, 2.212098e+001
1.006135e+003, 2.244459e+001
1.006617e+003, 2.322174e+001
1.007099e+003, 2.380850e+001
1.007581e+003, 2.322844e+001
1.008063e+003, 2.231096e+001
1.008545e+003, 2.239434e+001
1.009027e+003, 2.322465e+001
1.009509e+003, 2.368434e+001
1.009992e+003, 2.340248e+001
1.010474e+003, 2.301029e+001
1.010956e+003, 2.310216e+001
1.011438e+003, 2.336003e+001
1.011920e+003, 2.330892e+001
1.012402e+003, 2.304687e+001
1.012884e+003, 2.274993e+001
1.013366e+003, 2.247039e+001
1.013849e+003, 2.229962e+001
1.014331e+003, 2.227605e+001
1.014813e+003, 2.234897e+001
1.015295e+003, 2.255738e+001
1.015777e+003, 2.274444e+001
1.016259e+003, 2.238607e+001
1.016741e+003, 2.162770e+001
1.017223e+003, 2.119712e+001
1.017705e+003, 2.117620e+001
1.018188e+003, 2.112290e+001
1.018670e+003, 2.080261e+001
1.019152e+003, 2.049258e+001
1.019634e+003, 2.063565e+001
1.020116e+003, 2.110185e+001
1.020598e+003, 2.118266e+001
1.021080e+003, 2.090026e+001
1.021562e+003, 2.092782e+001
1.022044e+003, 2.140319e+001
1.022527e+003, 2.177094e+001
1.023009e+003, 2.169834e+001
1.023491e+003, 2.140150e+001
1.023973e+003, 2.118618e+001
1.024455e+003, 2.106212e+001
1.024937e+003, 2.131372e+001
1.025419e+003, 2.204670e+001
1.025901e+003, 2.217526e+001
1.026384e+003, 2.137087e+001
1.026866e+003, 2.050744e+001
1.027348e+003, 2.010073e+001
1.027830e+003, 2.002610e+001
1.028312e+003, 2.006297e+001
1.028794e+003, 2.021116e+001
1.029276e+003, 2.051880e+001
1.029758e+003, 2.106692e+001
1.030240e+003, 2.151189e+001
1.030723e+003, 2.184815e+001
1.031205e+003, 2.191443e+001
1.031687e+003, 2.149582e+001
1.032169e+003, 2.085267e+001
1.032651e+003, 2.049293e+001
1.033133e+003, 2.042048e+001
1.033615e+003, 2.064402e+001
1.034097e+003, 2.151066e+001
1.034579e+003, 2.189626e+001
1.035062e+003, 2.138693e+001
1.035544e+003, 2.064093e+001
1.036026e+003, 1.989997e+001
1.036508e+003, 1.933596e+001
1.036990e+003, 1.939779e+001
1.037472e+003, 2.026584e+001
1.037954e+003, 2.074546e+001
1.038436e+003, 2.068494e+001
1.038919e+003, 2.046530e+001
1.039401e+003, 1.981854e+001
1.039883e+003, 1.939519e+001
1.040365e+003, 1.977115e+001
1.040847e+003, 2.061684e+001
1.041329e+003, 2.129275e+001
1.041811e+003, 2.183969e+001
1.042293e+003, 2.201738e+001
1.042776e+003, 2.163914e+001
1.043258e+003, 2.115015e+001
1.043740e+003, 2.035675e+001
1.044222e+003, 1.975113e+001
1.044704e+003, 1.981229e+001
1.045186e+003, 2.023336e+001
1.045668e+003, 2.035970e+001
1.046150e+003, 2.006516e+001
1.046632e+003, 2.008986e+001
1.047115e+003, 2.105961e+001
1.047597e+003, 2.160045e+001
1.048079e+003, 2.093603e+001
1.048561e+003, 2.016430e+001
1.049043e+003, 2.007313e+001
1.049525e+003, 2.040559e+001
1.050007e+003, 2.063692e+001
1.050489e+003, 2.070356e+001
1.050971e+003, 2.073148e+001
1.051454e+003, 2.073746e+001
1.051936e+003, 2.071720e+001
1.052418e+003, 2.059507e+001
1.052900e+003, 2.051812e+001
1.053382e+003, 2.069503e+001
1.053864e+003, 2.095343e+001
1.054346e+003, 2.097631e+001
1.054828e+003, 2.071600e+001
1.055311e+003, 2.035962e+001
1.055793e+003, 1.973267e+001
1.056275e+003, 1.932069e+001
1.056757e+003, 1.944569e+001
1.057239e+003, 1.969435e+001
1.057721e+003, 1.986946e+001
1.058203e+003, 1.989905e+001
1.058685e+003, 1.960006e+001
1.059167e+003, 1.896314e+001
1.059650e+003, 1.861497e+001
1.060132e+003, 1.894152e+001
1.060614e+003, 1.934586e+001
1.061096e+003, 1.963082e+001
1.061578e+003, 1.988083e+001
1.062060e+003, 2.028155e+001
1.062542e+003, 2.064055e+001
1.063024e+003, 2.055710e+001
1.063506e+003, 2.001045e+001
1.063989e+003, 1.957864e+001
1.064471e+003, 1.949338e+001
1.064953e+003, 1.952682e+001
1.065435e+003, 1.974269e+001
1.065917e+003, 1.988594e+001
1.066399e+003, 1.958373e+001
1.066881e+003, 1.916629e+001
1.067363e+003, 1.926084e+001
1.067846e+003, 1.987442e+001
1.068328e+003, 2.024552e+001
1.068810e+003, 1.998411e+001
1.069292e+003, 1.961801e+001
1.069774e+003, 1.917037e+001
1.070256e+003, 1.892256e+001
1.070738e+003, 1.919094e+001
1.071220e+003, 1.973283e+001
1.071703e+003, 2.028942e+001
1.072185e+003, 2.077085e+001
1.072667e+003, 2.102175e+001
1.073149e+003, 2.094052e+001
1.073631e+003, 2.072510e+001
1.074113e+003, 2.039045e+001
1.074595e+003, 2.003441e+001
1.075077e+003, 1.962616e+001
1.075559e+003, 1.930323e+001
1.076042e+003, 1.934408e+001
1.076524e+003, 1.966192e+001
1.077006e+003, 1.974459e+001
1.077488e+003, 1.931315e+001
1.077970e+003, 1.896995e+001
1.078452e+003, 1.923012e+001
1.078934e+003, 1.941414e+001
1.079416e+003, 1.884038e+001
1.079898e+003, 1.808273e+001
1.080380e+003, 1.791556e+001
1.080863e+003, 1.823692e+001
1.081345e+003, 1.836592e+001
1.081827e+003, 1.802135e+001
1.082309e+003, 1.784476e+001
1.082791e+003, 1.821539e+001
1.083273e+003, 1.873498e+001
1.083755e+003, 1.948540e+001
1.084237e+003, 2.000561e+001
1.084720e+003, 1.953072e+001
1.085202e+003, 1.845346e+001
1.085684e+003, 1.791070e+001
1.086166e+003, 1.824075e+001
1.086648e+003, 1.868697e+001
1.087130e+003, 1.911468e+001
1.087612e+003, 1.934838e+001
1.088094e+003, 1.927783e+001
1.088577e+003, 1.899103e+001
1.089059e+003, 1.831019e+001
1.089541e+003, 1.756352e+001
1.090023e+003, 1.754763e+001
1.090505e+003, 1.842789e+001
1.090987e+003, 1.890384e+001
1.091469e+003, 1.795034e+001
1.091951e+003, 1.721387e+001
1.092433e+003, 1.769545e+001
1.092916e+003, 1.837832e+001
1.093398e+003, 1.846954e+001
1.093880e+003, 1.818511e+001
1.094362e+003, 1.795237e+001
1.094844e+003, 1.783862e+001
1.095326e+003, 1.774813e+001
1.095808e+003, 1.765652e+001
1.096290e+003, 1.757660e+001
1.096772e+003, 1.743765e+001
1.097255e+003, 1.739228e+001
1.097737e+003, 1.766642e+001
1.098219e+003, 1.801382e+001
1.098701e+003, 1.809126e+001
1.099183e+003, 1.789991e+001
1.099665e+003, 1.769625e+001
1.100147e+003, 1.750026e+001
1.100629e+003, 1.737641e+001
1.101112e+003, 1.717721e+001
1.101594e+003, 1.724970e+001
1.102076e+003, 1.824151e+001
1.102558e+003, 1.922823e+001
1.103040e+003, 1.912018e+001
1.103522e+003, 1.812437e+001
1.104004e+003, 1.720365e+001
1.104486e+003, 1.637252e+001
1.104969e+003, 1.601453e+001
1.105451e+003, 1.658409e+001
1.105933e+003, 1.713743e+001
1.106415e+003, 1.737182e+001
1.106897e+003, 1.744061e+001
1.107379e+003, 1.745914e+001
1.107861e+003, 1.741870e+001
1.108343e+003, 1.727789e+001
1.108825e+003, 1.702319e+001
1.109307e+003, 1.672922e+001
1.109790e+003, 1.614348e+001
1.110272e+003, 1.588817e+001
1.110754e+003, 1.643664e+001
1.111236e+003, 1.698217e+001
1.111718e+003, 1.689880e+001
1.112200e+003, 1.656940e+001
1.112682e+003, 1.669931e+001
1.113164e+003, 1.733158e+001
1.113647e+003, 1.764229e+001
1.114129e+003, 1.736513e+001
1.114611e+003, 1.721282e+001
1.115093e+003, 1.746326e+001
1.115575e+003, 1.752048e+001
1.116057e+003, 1.689429e+001
1.116539e+003, 1.617001e+001
1.117021e+003, 1.606112e+001
1.117504e+003, 1.648218e+001
1.117986e+003, 1.680764e+001
1.118468e+003, 1.705332e+001
1.118950e+003, 1.715925e+001
1.119432e+003, 1.709122e+001
1.119914e+003, 1.694603e+001
1.120396e+003, 1.673269e+001
1.120878e+003, 1.647426e+001
1.121360e+003, 1.612322e+001
1.121843e+003, 1.578922e+001
1.122325e+003, 1.582754e+001
1.122807e+003, 1.632336e+001
1.123289e+003, 1.666416e+001
1.123771e+003, 1.679790e+001
1.124253e+003, 1.699554e+001
1.124735e+003, 1.741615e+001
1.125217e+003, 1.755871e+001
1.125699e+003, 1.699067e+001
1.126182e+003, 1.621715e+001
1.126664e+003, 1.619777e+001
1.127146e+003, 1.685756e+001
1.127628e+003, 1.665143e+001
1.128110e+003, 1.540367e+001
1.128592e+003, 1.498905e+001
1.129074e+003, 1.576623e+001
1.129556e+003, 1.652363e+001
1.130039e+003, 1.672602e+001
1.130521e+003, 1.657995e+001
1.131003e+003, 1.625237e+001
1.131485e+003, 1.586810e+001
1.131967e+003, 1.596332e+001
1.132449e+003, 1.649611e+001
1.132931e+003, 1.667491e+001
1.133413e+003, 1.646479e+001
1.133896e+003, 1.632681e+001
1.134378e+003, 1.640168e+001
1.134860e+003, 1.638835e+001
1.135342e+003, 1.602945e+001
1.135824e+003, 1.556890e+001
1.136306e+003, 1.553150e+001
1.136788e+003, 1.576186e+001
1.137270e+003, 1.553359e+001
1.137752e+003, 1.498942e+001
1.138234e+003, 1.493665e+001
1.138717e+003, 1.545261e+001
1.139199e+003, 1.594458e+001
1.139681e+003, 1.611100e+001
1.140163e+003, 1.604893e+001
1.140645e+003, 1.572570e+001
1.141127e+003, 1.538168e+001
1.141609e+003, 1.554156e+001
1.142091e+003, 1.598788e+001
1.142574e+003, 1.630024e+001
1.143056e+003, 1.642791e+001
1.143538e+003, 1.638178e+001
1.144020e+003, 1.618332e+001
1.144502e+003, 1.593992e+001
1.144984e+003, 1.567772e+001
1.145466e+003, 1.552012e+001
1.145948e+003, 1.578324e+001
1.146431e+003, 1.607388e+001
1.146913e+003, 1.572840e+001
1.147395e+003, 1.510579e+001
1.147877e+003, 1.497771e+001
1.148359e+003, 1.533951e+001
1.148841e+003, 1.552415e+001
1.149323e+003, 1.520563e+001
1.149805e+003, 1.496306e+001
1.150287e+003, 1.543698e+001
1.150770e+003, 1.580357e+001
1.151252e+003, 1.534345e+001
1.151734e+003, 1.456285e+001
1.152216e+003, 1.379196e+001
1.152698e+003, 1.324133e+001
1.153180e+003, 1.327089e+001
1.153662e+003, 1.395277e+001
1.154144e+003, 1.472427e+001
1.154626e+003, 1.581115e+001
1.155109e+003, 1.637249e+001
1.155591e+003, 1.559242e+001
1.156073e+003, 1.479631e+001
1.156555e+003, 1.486802e+001
1.157037e+003, 1.536927e+001
1.157519e+003, 1.579824e+001
1.158001e+003, 1.609141e+001
1.158483e+003, 1.610327e+001
1.158966e+003, 1.552481e+001
1.159448e+003, 1.530153e+001
1.159930e+003, 1.591035e+001
1.160412e+003, 1.630396e+001
1.160894e+003, 1.610306e+001
1.161376e+003, 1.570523e+001
1.161858e+003, 1.527127e+001
1.162340e+003, 1.492209e+001
1.162822e+003, 1.496628e+001
1.163305e+003, 1.545837e+001
1.163787e+003, 1.575866e+001
1.164269e+003, 1.583788e+001
1.164751e+003, 1.577530e+001
1.165233e+003, 1.547918e+001
1.165715e+003, 1.537845e+001
1.166197e+003, 1.577903e+001
1.166679e+003, 1.617510e+001
1.167161e+003, 1.590124e+001
1.167644e+003, 1.519273e+001
1.168126e+003, 1.511304e+001
1.168608e+003, 1.569667e+001
1.169090e+003, 1.570994e+001
1.169572e+003, 1.507536e+001
1.170054e+003, 1.493333e+001
1.170536e+003, 1.560609e+001
1.171018e+003, 1.627063e+001
1.171500e+003, 1.635418e+001
1.171983e+003, 1.615828e+001
1.172465e+003, 1.610971e+001
1.172947e+003, 1.619930e+001
1.173429e+003, 1.657759e+001
1.173911e+003, 1.706046e+001
1.174393e+003, 1.685801e+001
1.174875e+003, 1.599334e+001
1.175357e+003, 1.499558e+001
1.175840e+003, 1.410737e+001
1.176322e+003, 1.372350e+001
1.176804e+003, 1.436494e+001
1.177286e+003, 1.521145e+001
1.177768e+003, 1.510921e+001
1.178250e+003, 1.466096e+001
1.178732e+003, 1.486576e+001
1.179214e+003, 1.536953e+001
1.179697e+003, 1.531050e+001
1.180179e+003, 1.467700e+001
1.180661e+003, 1.406701e+001
1.181143e+003, 1.370074e+001
1.181625e+003, 1.359887e+001
1.182107e+003, 1.387940e+001
1.182589e+003, 1.430387e+001
1.183071e+003, 1.491377e+001
1.183553e+003, 1.541585e+001
1.184036e+003, 1.541727e+001
1.184518e+003, 1.515443e+001
1.185000e+003, 1.507335e+001
1.185482e+003, 1.523736e+001
1.185964e+003, 1.549105e+001
1.186446e+003, 1.601348e+001
1.186928e+003, 1.627738e+001
1.187410e+003, 1.607802e+001
1.187892e+003, 1.575000e+001
1.188375e+003, 1.518662e+001
1.188857e+003, 1.478008e+001
1.189339e+003, 1.510568e+001
1.189821e+003, 1.580709e+001
1.190303e+003, 1.579266e+001
1.190785e+003, 1.487805e+001
1.191267e+003, 1.434766e+001
1.191749e+003, 1.431876e+001
1.192232e+003, 1.435789e+001
1.192714e+003, 1.441673e+001
1.193196e+003, 1.447275e+001
1.193678e+003, 1.449558e+001
1.194160e+003, 1.458055e+001
1.194642e+003, 1.489028e+001
1.195124e+003, 1.530298e+001
1.195606e+003, 1.521617e+001
1.196089e+003, 1.466531e+001
1.196571e+003, 1.478461e+001
1.197053e+003, 1.557226e+001
1.197535e+003, 1.585426e+001
1.198017e+003, 1.536193e+001
1.198499e+003, 1.482066e+001
1.198981e+003, 1.467871e+001
1.199463e+003, 1.472081e+001
1.199945e+003, 1.467673e+001
1.200427e+003, 1.460524e+001
1.200910e+003, 1.460502e+001
1.201392e+003, 1.467802e+001
1.201874e+003, 1.494518e+001
1.202356e+003, 1.527403e+001
1.202838e+003, 1.520247e+001
1.203320e+003, 1.467145e+001
1.203802e+003, 1.421374e+001
1.204284e+003, 1.413449e+001
1.204767e+003, 1.423315e+001
1.205249e+003, 1.449193e+001
1.205731e+003, 1.472243e+001
1.206213e+003, 1.469021e+001
1.206695e+003, 1.459494e+001
1.207177e+003, 1.474092e+001
1.207659e+003, 1.502744e+001
1.208141e+003, 1.505802e+001
1.208624e+003, 1.472280e+001
1.209106e+003, 1.471941e+001
1.209588e+003, 1.582572e+001
1.210070e+003, 1.636121e+001
1.210552e+003, 1.545092e+001
1.211034e+003, 1.451789e+001
1.211516e+003, 1.418029e+001
1.211998e+003, 1.424787e+001
1.212480e+003, 1.474103e+001
1.212963e+003, 1.544172e+001
1.213445e+003, 1.547231e+001
1.213927e+003, 1.465876e+001
1.214409e+003, 1.400548e+001
1.214891e+003, 1.343608e+001
1.215373e+003, 1.341335e+001
1.215855e+003, 1.415529e+001
1.216337e+003, 1.479893e+001
1.216819e+003, 1.486658e+001
1.217302e+003, 1.474144e+001
1.217784e+003, 1.491826e+001
1.218266e+003, 1.522803e+001
1.218748e+003, 1.506092e+001
1.219230e+003, 1.454464e+001
1.219712e+003, 1.433713e+001
1.220194e+003, 1.442067e+001
1.220676e+003, 1.452325e+001
1.221159e+003, 1.457134e+001
1.221641e+003, 1.454492e+001
1.222123e+003, 1.442777e+001
1.222605e+003, 1.437325e+001
1.223087e+003, 1.461925e+001
1.223569e+003, 1.492460e+001
1.224051e+003, 1.494438e+001
1.224533e+003, 1.490793e+001
1.225016e+003, 1.531751e+001
1.225498e+003, 1.582603e+001
1.225980e+003, 1.555820e+001
1.226462e+003, 1.454318e+001
1.226944e+003, 1.386413e+001
1.227426e+003, 1.393112e+001
1.227908e+003, 1.426632e+001
1.228390e+003, 1.505522e+001
1.228872e+003, 1.562130e+001
1.229354e+003, 1.563091e+001
1.229837e+003, 1.535522e+001
1.230319e+003, 1.483191e+001
1.230801e+003, 1.426033e+001
1.231283e+003, 1.396632e+001
1.231765e+003, 1.394503e+001
1.232247e+003, 1.406334e+001
1.232729e+003, 1.437888e+001
1.233211e+003, 1.466859e+001
1.233694e+003, 1.494823e+001
1.234176e+003, 1.509643e+001
1.234658e+003, 1.504421e+001
1.235140e+003, 1.502151e+001
1.235622e+003, 1.522473e+001
1.236104e+003, 1.543081e+001
1.236586e+003, 1.523639e+001
1.237068e+003, 1.472809e+001
1.237551e+003, 1.409760e+001
1.238033e+003, 1.348018e+001
1.238515e+003, 1.372571e+001
1.238997e+003, 1.464129e+001
1.239479e+003, 1.481205e+001
1.239961e+003, 1.395257e+001
1.240443e+003, 1.329934e+001
1.240925e+003, 1.369002e+001
1.241407e+003, 1.425236e+001
1.241890e+003, 1.400649e+001
1.242372e+003, 1.367396e+001
1.242854e+003, 1.412831e+001
1.243336e+003, 1.478828e+001
1.243818e+003, 1.493672e+001
1.244300e+003, 1.468056e+001
1.244782e+003, 1.430764e+001
1.245264e+003, 1.390373e+001
1.245746e+003, 1.379560e+001
1.246229e+003, 1.433077e+001
1.246711e+003, 1.468034e+001
1.247193e+003, 1.484112e+001
1.247675e+003, 1.459638e+001
1.248157e+003, 1.330363e+001
1.248639e+003, 1.229645e+001
1.249121e+003, 1.277325e+001
1.249603e+003, 1.387957e+001
1.250085e+003, 1.403590e+001
1.250568e+003, 1.330820e+001
1.251050e+003, 1.283951e+001
1.251532e+003, 1.263474e+001
1.252014e+003, 1.272592e+001
1.252496e+003, 1.313501e+001
1.252978e+003, 1.321891e+001
1.253460e+003, 1.278646e+001
1.253942e+003, 1.229619e+001
1.254425e+003, 1.204972e+001
1.254907e+003, 1.206546e+001
1.255389e+003, 1.250682e+001
1.255871e+003, 1.312810e+001
1.256353e+003, 1.345271e+001
1.256835e+003, 1.361823e+001
1.257317e+003, 1.383802e+001
1.257799e+003, 1.413352e+001
1.258281e+003, 1.457791e+001
1.258764e+003, 1.510661e+001
1.259246e+003, 1.535764e+001
1.259728e+003, 1.517532e+001
1.260210e+003, 1.470191e+001
1.260692e+003, 1.344180e+001
1.261174e+003, 1.264629e+001
1.261656e+003, 1.337910e+001
1.262138e+003, 1.432231e+001
1.262620e+003, 1.430667e+001
1.263103e+003, 1.392645e+001
1.263585e+003, 1.437651e+001
1.264067e+003, 1.547724e+001
1.264549e+003, 1.556104e+001
1.265031e+003, 1.408649e+001
1.265513e+003, 1.352289e+001
1.265995e+003, 1.415225e+001
1.266477e+003, 1.446762e+001
1.266960e+003, 1.410007e+001
1.267442e+003, 1.359191e+001
1.267924e+003, 1.322772e+001
1.268406e+003, 1.302318e+001
1.268888e+003, 1.302503e+001
1.269370e+003, 1.314161e+001
1.269852e+003, 1.310690e+001
1.270334e+003, 1.303899e+001
1.270817e+003, 1.330337e+001
1.271299e+003, 1.378245e+001
1.271781e+003, 1.417701e+001
1.272263e+003, 1.440316e+001
1.272745e+003, 1.437408e+001
1.273227e+003, 1.405533e+001
1.273709e+003, 1.379717e+001
1.274191e+003, 1.382380e+001
1.274673e+003, 1.394079e+001
1.275156e+003, 1.417279e+001
1.275638e+003, 1.432409e+001
1.276120e+003, 1.433902e+001
1.276602e+003, 1.414502e+001
1.277084e+003, 1.332479e+001
1.277566e+003, 1.228886e+001
1.278048e+003, 1.247262e+001
1.278530e+003, 1.411172e+001
1.279012e+003, 1.475224e+001
1.279495e+003, 1.408663e+001
1.279977e+003, 1.349858e+001
1.280459e+003, 1.310384e+001
1.280941e+003, 1.297652e+001
1.281423e+003, 1.316833e+001
1.281905e+003, 1.343025e+001
1.282387e+003, 1.358490e+001
1.282869e+003, 1.358803e+001
1.283352e+003, 1.319521e+001
1.283834e+003, 1.268490e+001
1.284316e+003, 1.265385e+001
1.284798e+003, 1.310293e+001
##END=



