##NAMES=Callaghanite
##RRUFFID=R050598
##IDEAL CHEMISTRY=Cu^2+^_2_Mg_2_CO_3_(OH)_6_&#183;2H_2_O
##LOCALITY=Basic Refractories mine, Gabbs District, Nye County, Nevada, USA
##OWNER=RRUFF
##SOURCE=Marcus Origlieri
##DESCRIPTION=Druse of blue pseudo-octahedral crystals
##STATUS=The identification of this mineral is confirmed by single-crystal X-ray diffraction and chemical analysis.
##URL=rruff.info/R050598
##MEASURED CHEMISTRY=Cu_2.00_(Mg_1.97_Fe_0.03_)_Σ=2_CO_3_(OH)_6_·2H_2_O ; C and H not measured but estimated by stoichiometry
93.78320, 45.88045
94.26532, 45.96615
94.74744, 46.17272
95.22955, 46.38471
95.71167, 46.58443
96.19379, 46.42664
96.67590, 45.81295
97.15803, 45.51826
97.64014, 45.64680
98.12226, 46.13722
98.60438, 47.11120
99.08649, 49.05090
99.56861, 50.81700
100.0507, 50.89727
100.5328, 49.23625
101.0150, 46.45716
101.4971, 42.47424
101.9792, 37.17436
102.4613, 32.63079
102.9434, 29.93155
103.4255, 28.15616
103.9077, 26.75536
104.3898, 25.55937
104.8719, 24.65797
105.3540, 24.27627
105.8361, 24.67691
106.3182, 25.17590
106.8004, 25.74624
107.2825, 26.27341
107.7646, 26.65562
108.2467, 26.84699
108.7288, 26.83448
109.2109, 26.39743
109.6931, 25.00558
110.1752, 23.72093
110.6573, 22.76446
111.1394, 22.14480
111.6215, 21.80416
112.1037, 21.71721
112.5858, 21.92614
113.0679, 22.13866
113.5500, 22.32020
114.0321, 22.52588
114.5142, 22.81424
114.9964, 23.19417
115.4785, 23.59153
115.9606, 23.92557
116.4427, 24.20050
116.9248, 24.42842
117.4069, 24.57154
117.8891, 24.67102
118.3712, 24.80250
118.8533, 24.95410
119.3354, 25.19239
119.8175, 25.58533
120.2996, 26.12182
120.7818, 26.68567
121.2639, 27.23267
121.7460, 27.76666
122.2281, 28.17466
122.7102, 28.15413
123.1923, 28.19106
123.6745, 28.42510
124.1566, 28.91448
124.6387, 29.81440
125.1208, 31.37524
125.6029, 33.75499
126.0850, 36.55503
126.5672, 41.25726
127.0493, 45.50854
127.5314, 47.33057
128.0135, 45.95854
128.4956, 42.10548
128.9778, 37.68007
129.4599, 31.19491
129.9420, 25.84875
130.4241, 22.09382
130.9062, 19.57477
131.3883, 17.81349
131.8705, 16.58945
132.3526, 15.86055
132.8347, 15.35984
133.3168, 15.11157
133.7989, 15.00067
134.2810, 15.01679
134.7632, 15.14561
135.2453, 15.32333
135.7274, 15.53810
136.2095, 15.76655
136.6916, 15.93418
137.1737, 15.95312
137.6559, 15.96104
138.1380, 16.11836
138.6201, 16.45310
139.1022, 16.80729
139.5843, 17.10056
140.0664, 17.34672
140.5486, 17.55600
141.0307, 17.78039
141.5128, 17.96559
141.9949, 17.90183
142.4770, 17.32336
142.9591, 16.89920
143.4413, 16.92255
143.9234, 17.27892
144.4055, 17.76740
144.8876, 18.28905
145.3697, 18.84433
145.8518, 19.24739
146.3340, 19.52470
146.8161, 19.60535
147.2982, 19.44680
147.7803, 19.06005
148.2624, 18.47485
148.7445, 17.68912
149.2267, 16.63213
149.7088, 15.69269
150.1909, 14.86070
150.6730, 14.12151
151.1551, 13.44623
151.6372, 12.83961
152.1194, 12.36003
152.6015, 12.09296
153.0836, 12.16076
153.5657, 12.13239
154.0478, 11.86285
154.5300, 11.56559
155.0121, 11.48414
155.4942, 11.68951
155.9763, 12.00478
156.4584, 12.15010
156.9405, 12.10968
157.4227, 12.11529
157.9048, 12.27170
158.3869, 12.51588
158.8690, 12.72499
159.3511, 12.88634
159.8332, 12.96524
160.3154, 12.94138
160.7975, 12.82012
161.2796, 12.60705
161.7617, 12.24706
162.2438, 11.75428
162.7259, 11.34543
163.2081, 11.11769
163.6902, 10.95851
164.1723, 10.79551
164.6544, 10.61966
165.1365, 10.43367
165.6186, 10.22583
166.1008, 9.981921
166.5829, 9.786119
167.0650, 9.729479
167.5471, 9.675138
168.0292, 9.516157
168.5113, 9.231272
168.9935, 8.911979
169.4756, 8.720135
169.9577, 8.749372
170.4398, 8.729752
170.9219, 8.587412
171.4040, 8.424341
171.8862, 8.324856
172.3683, 8.320117
172.8504, 8.381837
173.3325, 8.443930
173.8146, 8.510816
174.2967, 8.571475
174.7789, 8.619480
175.2610, 8.663187
175.7431, 8.707403
176.2252, 8.753778
176.7073, 8.809411
177.1894, 8.900038
177.6716, 9.087927
178.1537, 9.232040
178.6358, 9.292809
179.1179, 9.292416
179.6000, 9.272236
180.0822, 9.250164
180.5643, 9.223577
181.0464, 9.180530
181.5285, 9.078690
182.0106, 9.021066
182.4927, 9.144261
182.9749, 9.388777
183.4570, 9.462707
183.9391, 9.126405
184.4212, 8.587724
184.9033, 8.305316
185.3854, 8.377471
185.8676, 8.554276
186.3497, 8.652585
186.8318, 8.670994
187.3139, 8.657718
187.7960, 8.570218
188.2781, 8.493200
188.7603, 8.533230
189.2424, 8.737853
189.7245, 9.004009
190.2066, 9.195868
190.6887, 9.292394
191.1708, 9.391466
191.6530, 9.542523
192.1351, 9.705211
192.6172, 9.851996
193.0993, 9.976188
193.5814, 10.06594
194.0635, 10.09576
194.5457, 10.05829
195.0278, 9.967066
195.5099, 9.824965
195.9920, 9.643400
196.4741, 9.419471
196.9562, 9.148873
197.4384, 8.861330
197.9205, 8.642175
198.4026, 8.537578
198.8847, 8.447939
199.3668, 8.342525
199.8489, 8.249287
200.3311, 8.208768
200.8132, 8.242891
201.2953, 8.328710
201.7774, 8.374944
202.2595, 8.310211
202.7417, 8.284194
203.2238, 8.317742
203.7059, 8.397691
204.1880, 8.505836
204.6701, 8.632667
205.1522, 8.778780
205.6344, 8.948462
206.1165, 9.139398
206.5986, 9.355239
207.0807, 9.640122
207.5628, 9.948636
208.0449, 10.20078
208.5271, 10.35618
209.0092, 10.42192
209.4913, 10.42158
209.9734, 10.35476
210.4555, 10.24151
210.9376, 10.10362
211.4198, 9.927826
211.9019, 9.661139
212.3840, 9.250724
212.8661, 8.756683
213.3482, 8.349258
213.8303, 8.052218
214.3125, 7.795697
214.7946, 7.552407
215.2767, 7.321588
215.7588, 7.104514
216.2409, 6.897818
216.7230, 6.710202
217.2052, 6.548977
217.6873, 6.424399
218.1694, 6.306760
218.6515, 6.171519
219.1336, 6.019025
219.6157, 5.872326
220.0979, 5.732651
220.5800, 5.608812
221.0621, 5.512749
221.5442, 5.450413
222.0263, 5.397132
222.5084, 5.329429
222.9906, 5.245810
223.4727, 5.160821
223.9548, 5.079668
224.4369, 4.998585
224.9190, 4.901370
225.4011, 4.782137
225.8833, 4.689871
226.3654, 4.698258
226.8475, 4.832565
227.3296, 4.945529
227.8117, 5.028532
228.2939, 5.065904
228.7760, 5.013679
229.2581, 4.869474
229.7402, 4.719417
230.2223, 4.694324
230.7044, 4.849865
231.1866, 4.952330
231.6687, 4.957792
232.1508, 4.921407
232.6329, 4.857046
233.1150, 4.774655
233.5971, 4.701307
234.0793, 4.681113
234.5614, 4.746294
235.0435, 4.785318
235.5256, 4.785272
236.0077, 4.770406
236.4898, 4.740064
236.9720, 4.701864
237.4541, 4.682772
237.9362, 4.726068
238.4183, 4.872938
238.9004, 4.981595
239.3825, 5.065155
239.8647, 5.109066
240.3468, 5.085821
240.8289, 5.001029
241.3110, 4.897851
241.7931, 4.824227
242.2752, 4.772302
242.7574, 4.788220
243.2395, 4.951685
243.7216, 5.113113
244.2037, 5.155559
244.6858, 5.076890
245.1679, 4.981144
245.6501, 4.992184
246.1322, 5.158453
246.6143, 5.227988
247.0964, 5.081784
247.5785, 4.938701
248.0606, 4.981437
248.5428, 5.205440
249.0249, 5.436411
249.5070, 5.499525
249.9891, 5.361229
250.4712, 5.269369
250.9533, 5.255076
251.4355, 5.259597
251.9176, 5.240441
252.3997, 5.197404
252.8818, 5.160008
253.3639, 5.151810
253.8461, 5.175709
254.3282, 5.212953
254.8103, 5.262970
255.2924, 5.326154
255.7745, 5.417671
256.2566, 5.532198
256.7387, 5.622211
257.2209, 5.640351
257.7030, 5.601396
258.1851, 5.611910
258.6672, 5.694324
259.1493, 5.807643
259.6314, 5.944438
260.1136, 6.098934
260.5957, 6.217344
261.0778, 6.236161
261.5599, 6.206901
262.0420, 6.288714
262.5241, 6.598330
263.0063, 6.882560
263.4884, 6.921673
263.9705, 6.744191
264.4526, 6.603612
264.9348, 6.641978
265.4169, 6.776042
265.8990, 6.840803
266.3811, 6.823786
266.8632, 6.761246
267.3453, 6.661223
267.8275, 6.529320
268.3096, 6.402664
268.7917, 6.271083
269.2738, 6.177825
269.7559, 6.178493
270.2380, 6.287955
270.7202, 6.414805
271.2023, 6.525124
271.6844, 6.611345
272.1665, 6.612073
272.6486, 6.461375
273.1307, 6.270452
273.6129, 6.144266
274.0950, 6.082290
274.5771, 6.056104
275.0592, 6.060457
275.5413, 6.089715
276.0234, 6.111563
276.5056, 6.121981
276.9877, 6.121939
277.4698, 6.119019
277.9519, 6.110625
278.4340, 6.083864
278.9161, 6.030477
279.3983, 5.952222
279.8804, 5.851151
280.3625, 5.708913
280.8446, 5.573562
281.3267, 5.473636
281.8088, 5.401749
282.2910, 5.339808
282.7731, 5.268440
283.2552, 5.200303
283.7373, 5.192413
284.2194, 5.301927
284.7015, 5.361318
285.1837, 5.258605
285.6658, 5.068953
286.1479, 4.902315
286.6300, 4.812928
287.1121, 4.773181
287.5942, 4.726253
288.0764, 4.677394
288.5585, 4.607317
289.0406, 4.491702
289.5227, 4.360449
290.0048, 4.235768
290.4869, 4.117035
290.9691, 4.033539
291.4512, 4.061463
291.9333, 4.259235
292.4154, 4.380501
292.8975, 4.288801
293.3796, 4.139576
293.8618, 4.050692
294.3439, 4.052128
294.8260, 4.084707
295.3081, 4.071649
295.7902, 4.003331
296.2723, 3.935325
296.7545, 3.855245
297.2366, 3.793584
297.7187, 3.791893
298.2008, 3.843739
298.6829, 3.880288
299.1650, 3.793324
299.6472, 3.556050
300.1293, 3.449281
300.6114, 3.666959
301.0935, 3.863296
301.5756, 3.850818
302.0577, 3.670851
302.5399, 3.494534
303.0220, 3.468048
303.5041, 3.583865
303.9862, 3.673578
304.4683, 3.733681
304.9504, 3.767558
305.4326, 3.771335
305.9147, 3.752140
306.3968, 3.720615
306.8789, 3.679996
307.3610, 3.633907
307.8431, 3.597342
308.3253, 3.564310
308.8074, 3.552967
309.2895, 3.593879
309.7716, 3.647149
310.2537, 3.653790
310.7358, 3.581423
311.2180, 3.481447
311.7001, 3.480962
312.1822, 3.648969
312.6643, 3.762845
313.1465, 3.757868
313.6286, 3.702378
314.1107, 3.628338
314.5928, 3.548322
315.0749, 3.501624
315.5570, 3.566042
316.0392, 3.788838
316.5213, 3.949192
317.0034, 3.975863
317.4855, 3.972732
317.9676, 3.992106
318.4497, 4.038820
318.9319, 4.088317
319.4140, 4.109438
319.8961, 4.096491
320.3782, 4.111619
320.8603, 4.191338
321.3424, 4.266026
321.8246, 4.315233
322.3067, 4.338206
322.7888, 4.338137
323.2709, 4.312926
323.7530, 4.265831
324.2351, 4.221393
324.7173, 4.178849
325.1994, 4.140397
325.6815, 4.115200
326.1636, 4.091675
326.6457, 4.048505
327.1278, 3.970274
327.6100, 3.880164
328.0921, 3.838928
328.5742, 3.873411
329.0563, 3.899581
329.5384, 3.889298
330.0205, 3.867872
330.5027, 3.857516
330.9848, 3.864546
331.4669, 3.877801
331.9490, 3.879874
332.4311, 3.866279
332.9132, 3.861311
333.3954, 3.910665
333.8775, 3.937809
334.3596, 3.876317
334.8417, 3.734592
335.3238, 3.596532
335.8059, 3.547029
336.2881, 3.587222
336.7702, 3.619418
337.2523, 3.627981
337.7344, 3.644434
338.2165, 3.692415
338.6986, 3.759306
339.1808, 3.817066
339.6629, 3.852641
340.1450, 3.864806
340.6271, 3.841585
341.1092, 3.571737
341.5913, 3.790263
342.0735, 3.911340
342.5556, 3.940203
343.0377, 3.600663
343.5198, 3.736840
344.0019, 3.682371
344.4840, 3.620084
344.9662, 3.823215
345.4483, 3.537259
345.9304, 3.736181
346.4125, 3.741549
346.8946, 3.835501
347.3767, 3.737631
347.8589, 3.699009
348.3410, 3.852271
348.8231, 3.899285
349.3052, 3.779333
349.7873, 3.878917
350.2694, 3.586260
350.7516, 3.637799
351.2337, 3.652905
351.7158, 3.643267
352.1979, 3.611454
352.6800, 3.570729
353.1621, 3.574441
353.6443, 3.649434
354.1264, 3.708884
354.6085, 3.684375
355.0906, 3.614882
355.5727, 3.561559
356.0548, 3.557218
356.5370, 3.562258
357.0191, 3.514279
357.5012, 3.407582
357.9833, 3.132031
358.4654, 3.335992
358.9475, 3.442502
359.4297, 3.456797
359.9118, 3.102691
360.3939, 3.224302
360.8760, 3.155267
361.3581, 3.078415
361.8402, 3.266979
362.3224, 2.966455
362.8045, 3.150810
363.2866, 3.141613
363.7687, 3.220999
364.2509, 3.108560
364.7330, 3.055371
365.2151, 3.194068
365.6972, 3.226516
366.1793, 2.999312
366.6614, 3.070065
367.1436, 3.099448
367.6257, 3.093603
368.1078, 3.071583
368.5899, 3.007254
369.0720, 2.951039
369.5541, 2.943287
370.0363, 2.980796
370.5184, 3.053452
371.0005, 3.186104
371.4826, 3.322619
371.9647, 3.329857
372.4468, 3.154763
372.9290, 3.000947
373.4111, 2.968014
373.8932, 3.005779
374.3753, 3.018879
374.8574, 2.978864
375.3395, 2.934457
375.8217, 2.962750
376.3038, 3.078546
376.7859, 3.127900
377.2680, 3.040707
377.7501, 2.918997
378.2322, 2.833554
378.7144, 2.793771
379.1965, 2.806646
379.6786, 2.891262
380.1607, 3.037463
380.6428, 3.129089
381.1249, 3.140478
381.6071, 3.134206
382.0892, 3.129617
382.5713, 3.123194
383.0534, 3.105835
383.5355, 3.073078
384.0176, 3.030620
384.4998, 2.989268
384.9819, 2.931035
385.4640, 2.906226
385.9461, 2.930453
386.4282, 2.979668
386.9103, 3.047591
387.3925, 3.125770
387.8746, 3.189048
388.3567, 3.211510
388.8388, 3.193169
389.3209, 3.129515
389.8030, 2.945436
390.2852, 2.799263
390.7673, 2.769400
391.2494, 2.822567
391.7315, 2.883642
392.2136, 2.907288
392.6957, 2.911031
393.1779, 2.965382
393.6600, 3.148800
394.1421, 3.270099
394.6242, 3.297186
395.1063, 3.268673
395.5884, 3.202888
396.0706, 3.110966
396.5527, 3.021199
397.0348, 2.977443
397.5169, 2.998890
397.9990, 2.990531
398.4811, 2.874813
398.9633, 2.800336
399.4454, 2.875519
399.9275, 3.046049
400.4096, 3.165850
400.8917, 3.115894
401.3738, 2.946699
401.8560, 2.886306
402.3381, 3.008717
402.8202, 3.099921
403.3023, 3.057446
403.7844, 2.973069
404.2665, 2.947026
404.7487, 3.011657
405.2308, 3.101933
405.7129, 3.135851
406.1950, 3.110333
406.6771, 3.089732
407.1592, 3.080190
407.6414, 3.084968
408.1235, 3.119753
408.6056, 3.175903
409.0877, 3.208801
409.5698, 3.181062
410.0519, 3.113679
410.5341, 3.052652
411.0162, 2.998243
411.4983, 2.953786
411.9804, 2.914100
412.4626, 2.888475
412.9447, 2.896420
413.4268, 2.950517
413.9089, 3.022690
414.3910, 3.104648
414.8731, 3.190051
415.3553, 3.243923
415.8374, 3.245360
416.3195, 3.226789
416.8016, 3.234288
417.2837, 3.266891
417.7658, 3.310015
418.2480, 3.389492
418.7301, 3.461848
419.2122, 3.461479
419.6943, 3.385239
420.1764, 3.307600
420.6585, 3.282910
421.1407, 3.310715
421.6228, 3.360888
422.1049, 3.457007
422.5870, 3.547893
423.0691, 3.628567
423.5512, 3.687739
424.0334, 3.697879
424.5155, 3.646168
424.9976, 3.564535
425.4797, 3.511970
425.9618, 3.499114
426.4439, 3.498448
426.9261, 3.532503
427.4082, 3.561087
427.8903, 3.536006
428.3724, 3.470383
428.8545, 3.432400
429.3366, 3.483862
429.8188, 3.619543
430.3009, 3.715400
430.7830, 3.724396
431.2651, 3.744108
431.7472, 3.815335
432.2293, 3.895533
432.7115, 3.923510
433.1936, 3.878129
433.6757, 3.805811
434.1578, 3.779666
434.6399, 3.804427
435.1220, 3.858436
435.6042, 3.980278
436.0863, 4.097343
436.5684, 4.153241
437.0505, 4.168768
437.5326, 4.222047
438.0147, 4.399249
438.4969, 4.645330
438.9790, 4.742441
439.4611, 4.616153
439.9432, 4.529008
440.4253, 4.621865
440.9074, 4.795482
441.3896, 4.969579
441.8717, 5.138280
442.3538, 5.248765
442.8359, 5.194117
443.3180, 5.014311
443.8001, 4.968073
444.2823, 5.157133
444.7644, 5.394341
445.2465, 5.491652
445.7286, 5.478099
446.2107, 5.464179
446.6928, 5.527045
447.1750, 5.571785
447.6571, 5.449824
448.1392, 5.184249
448.6213, 5.006631
449.1034, 5.069514
449.5855, 5.275380
450.0677, 5.339818
450.5498, 5.177659
451.0319, 5.080153
451.5140, 5.200370
451.9961, 5.388761
452.4782, 5.451807
452.9604, 5.357215
453.4425, 5.213391
453.9246, 5.127138
454.4067, 5.103102
454.8888, 5.092320
455.3709, 5.074718
455.8531, 5.088870
456.3352, 5.186213
456.8173, 5.317024
457.2994, 5.391368
457.7815, 5.366865
458.2636, 5.295805
458.7458, 5.294988
459.2279, 5.427046
459.7100, 5.497404
460.1921, 5.459788
460.6742, 5.401835
461.1564, 5.384026
461.6385, 5.396615
462.1206, 5.381719
462.6027, 5.279233
463.0848, 5.115345
463.5670, 5.030921
464.0491, 5.057567
464.5312, 5.102005
465.0133, 5.136162
465.4954, 5.169205
465.9775, 5.220225
466.4597, 5.296732
466.9418, 5.351662
467.4239, 5.311466
467.9060, 5.197009
468.3881, 5.150875
468.8702, 5.204475
469.3524, 5.308673
469.8345, 5.464621
470.3166, 5.644280
470.7987, 5.754087
471.2808, 5.700441
471.7629, 5.622516
472.2451, 5.648800
472.7272, 5.763853
473.2093, 5.889417
473.6914, 5.994473
474.1735, 6.090291
474.6556, 6.204559
475.1378, 6.352255
475.6199, 6.466389
476.1020, 6.511540
476.5841, 6.536628
477.0662, 6.587158
477.5483, 6.663626
478.0305, 6.733320
478.5126, 6.764212
478.9947, 6.767846
479.4768, 6.845261
479.9589, 7.082520
480.4410, 7.290567
480.9232, 7.460844
481.4053, 7.582441
481.8874, 7.629708
482.3695, 7.603734
482.8516, 7.549243
483.3337, 7.507176
483.8159, 7.469868
484.2980, 7.514332
484.7801, 7.743556
485.2622, 7.939078
485.7443, 7.960875
486.2264, 7.914799
486.7086, 7.992086
487.1907, 8.298171
487.6728, 8.664148
488.1549, 8.826674
488.6370, 8.771093
489.1191, 8.750522
489.6013, 8.845234
490.0834, 8.964735
490.5655, 9.002973
491.0476, 8.978359
491.5297, 9.018428
492.0118, 9.210211
492.4940, 9.474256
492.9761, 9.698749
493.4582, 9.886275
493.9403, 10.13500
494.4224, 10.54201
494.9045, 10.99990
495.3867, 11.21288
495.8688, 11.10336
496.3509, 10.99936
496.8330, 11.04470
497.3151, 11.09359
497.7972, 10.96002
498.2794, 10.64155
498.7615, 10.30536
499.2436, 10.10426
499.7257, 10.02626
500.2078, 9.835912
500.6899, 9.394399
501.1721, 9.007895
501.6542, 8.772810
502.1363, 8.593534
502.6184, 8.373249
503.1005, 8.083099
503.5826, 7.739909
504.0648, 7.339574
504.5469, 6.865953
505.0290, 6.502844
505.5111, 6.333604
505.9932, 6.174020
506.4753, 5.938443
506.9575, 5.668480
507.4396, 5.434454
507.9217, 5.267345
508.4038, 5.126863
508.8859, 4.965966
509.3680, 4.785672
509.8502, 4.606086
510.3323, 4.415932
510.8144, 4.252272
511.2965, 4.173645
511.7787, 4.162866
512.2607, 4.122390
512.7429, 4.001925
513.2250, 3.863215
513.7071, 3.747527
514.1892, 3.657286
514.6713, 3.600531
515.1534, 3.587177
515.6356, 3.589279
516.1177, 3.546398
516.5998, 3.407313
517.0819, 3.340970
517.5640, 3.431668
518.0461, 3.530936
518.5283, 3.531565
519.0104, 3.446175
519.4925, 3.350750
519.9746, 3.297827
520.4567, 3.265502
520.9388, 3.159238
521.4210, 2.874320
521.9031, 2.715976
522.3852, 2.825592
522.8673, 2.976463
523.3494, 2.993072
523.8315, 2.879587
524.3137, 2.771497
524.7958, 2.793686
525.2779, 2.900519
525.7600, 2.921897
526.2421, 2.833385
526.7242, 2.751603
527.2064, 2.738616
527.6885, 2.754771
528.1706, 2.751083
528.6527, 2.722589
529.1348, 2.683468
529.6169, 2.617602
530.0991, 2.553869
530.5812, 2.554528
531.0633, 2.625786
531.5454, 2.690531
532.0275, 2.688297
532.5096, 2.630643
532.9918, 2.598096
533.4739, 2.604115
533.9560, 2.613640
534.4381, 2.632455
534.9202, 2.644386
535.4024, 2.627513
535.8845, 2.580479
536.3666, 2.522462
536.8488, 2.470250
537.3309, 2.423743
537.8130, 2.397374
538.2951, 2.390581
538.7772, 2.407311
539.2593, 2.458217
539.7415, 2.526337
540.2236, 2.608584
540.7057, 2.701522
541.1878, 2.760312
541.6699, 2.716354
542.1520, 2.587436
542.6342, 2.501065
543.1163, 2.478955
543.5984, 2.467636
544.0805, 2.416234
544.5626, 2.355656
545.0447, 2.351236
545.5269, 2.443824
546.0090, 2.531817
546.4911, 2.555150
546.9732, 2.533259
547.4553, 2.501362
547.9374, 2.466805
548.4196, 2.424346
548.9017, 2.366585
549.3838, 2.292770
549.8659, 2.231010
550.3480, 2.154666
550.8301, 2.118931
551.3123, 2.169585
551.7944, 2.255730
552.2765, 2.317193
552.7586, 2.337389
553.2407, 2.337682
553.7228, 2.342826
554.2050, 2.353532
554.6871, 2.354810
555.1692, 2.333743
555.6513, 2.321904
556.1334, 2.337597
556.6155, 2.365134
557.0977, 2.384983
557.5798, 2.391864
558.0619, 2.391715
558.5440, 2.390908
559.0261, 2.387651
559.5082, 2.368315
559.9904, 2.324001
560.4725, 2.297719
560.9546, 2.344528
561.4367, 2.439822
561.9188, 2.461957
562.4009, 2.335139
562.8831, 2.228940
563.3652, 2.234660
563.8473, 2.286724
564.3294, 2.287370
564.8115, 2.219457
565.2936, 2.142072
565.7758, 2.113785
566.2579, 2.134655
566.7400, 2.162773
567.2221, 2.235445
567.7042, 2.268485
568.1863, 2.231355
568.6685, 2.157295
569.1506, 2.047498
569.6327, 1.916171
570.1148, 1.850901
570.5969, 2.003054
571.0790, 2.321043
571.5612, 2.455868
572.0433, 2.344570
572.5254, 2.219309
573.0075, 2.198907
573.4896, 2.236578
573.9717, 2.268983
574.4539, 2.298142
574.9360, 2.297890
575.4181, 2.229840
575.9002, 2.136972
576.3823, 2.080882
576.8644, 2.066797
577.3466, 2.063869
577.8287, 2.049304
578.3108, 2.028554
578.7929, 2.028583
579.2750, 2.056539
579.7571, 2.097332
580.2393, 2.182640
580.7214, 2.256521
581.2035, 2.261876
581.6856, 2.207530
582.1677, 2.154209
582.6498, 2.149936
583.1320, 2.178841
583.6141, 2.183345
584.0962, 2.153332
584.5783, 2.133907
585.0604, 2.147304
585.5425, 2.168519
586.0247, 2.165515
586.5068, 2.142064
586.9889, 2.150551
587.4710, 2.277169
587.9531, 2.405919
588.4352, 2.358371
588.9174, 2.168352
589.3995, 2.050314
589.8816, 2.106925
590.3637, 2.252773
590.8458, 2.347293
591.3279, 2.389057
591.8101, 2.370833
592.2922, 2.203365
592.7743, 2.064418
593.2564, 2.075179
593.7385, 2.180459
594.2206, 2.275286
594.7028, 2.311937
595.1849, 2.294473
595.6670, 2.199715
596.1491, 2.002727
596.6312, 1.920746
597.1133, 2.044166
597.5955, 2.186410
598.0776, 2.255494
598.5597, 2.269248
599.0418, 2.256068
599.5239, 2.209825
600.0060, 2.169641
600.4882, 2.173367
600.9703, 2.206092
601.4524, 2.236379
601.9345, 2.258909
602.4166, 2.261271
602.8987, 2.224470
603.3809, 2.153327
603.8630, 2.122352
604.3451, 2.187086
604.8272, 2.214830
605.3093, 2.109629
605.7914, 2.000297
606.2736, 2.036665
606.7557, 2.219578
607.2378, 2.417892
607.7199, 2.526145
608.2020, 2.554948
608.6841, 2.555069
609.1663, 2.527382
609.6484, 2.467345
610.1305, 2.319245
610.6126, 2.177707
611.0947, 2.137670
611.5768, 2.197567
612.0590, 2.254132
612.5411, 2.266418
613.0232, 2.251200
613.5053, 2.207222
613.9874, 2.147080
614.4695, 2.131620
614.9517, 2.192254
615.4338, 2.282398
615.9159, 2.326466
616.3980, 2.310879
616.8801, 2.292493
617.3622, 2.278566
617.8444, 2.254312
618.3265, 2.181829
618.8086, 2.104714
619.2907, 2.104576
619.7728, 2.209346
620.2549, 2.334653
620.7371, 2.364862
621.2192, 2.304218
621.7013, 2.263616
622.1834, 2.255273
622.6655, 2.251200
623.1476, 2.229931
623.6298, 2.204571
624.1119, 2.196700
624.5940, 2.209767
625.0761, 2.235255
625.5582, 2.288971
626.0403, 2.342247
626.5225, 2.343678
627.0046, 2.299391
627.4867, 2.278089
627.9688, 2.328957
628.4509, 2.422881
628.9330, 2.463935
629.4152, 2.418293
629.8973, 2.379819
630.3794, 2.358713
630.8615, 2.337672
631.3436, 2.302460
631.8257, 2.259289
632.3079, 2.225919
632.7900, 2.213313
633.2721, 2.207085
633.7542, 2.178756
634.2364, 2.133207
634.7185, 2.115345
635.2006, 2.133462
635.6827, 2.183063
636.1649, 2.279361
636.6470, 2.410579
637.1291, 2.488363
637.6112, 2.462613
638.0933, 2.443063
638.5754, 2.493850
639.0576, 2.553208
639.5397, 2.530729
640.0218, 2.428076
640.5039, 2.340035
640.9860, 2.350194
641.4681, 2.433244
641.9503, 2.461665
642.4324, 2.414576
642.9145, 2.364886
643.3966, 2.294565
643.8787, 2.254039
644.3608, 2.293972
644.8430, 2.401157
645.3251, 2.505682
645.8072, 2.607280
646.2893, 2.667824
646.7714, 2.609135
647.2535, 2.473454
647.7357, 2.404455
648.2178, 2.446404
648.6999, 2.530686
649.1820, 2.580700
649.6641, 2.593915
650.1462, 2.630397
650.6284, 2.761527
651.1105, 2.826065
651.5926, 2.714511
652.0747, 2.567810
652.5568, 2.539841
653.0389, 2.641831
653.5211, 2.756827
654.0032, 2.774014
654.4853, 2.741505
654.9674, 2.823789
655.4495, 3.038116
655.9316, 3.164711
656.4138, 3.095670
656.8959, 2.948868
657.3780, 2.871603
657.8601, 2.860819
658.3422, 2.860116
658.8243, 2.842003
659.3065, 2.853225
659.7886, 2.962925
660.2707, 3.105314
660.7528, 3.168606
661.2349, 3.122999
661.7170, 3.030007
662.1992, 2.948191
662.6813, 2.879272
663.1634, 2.871942
663.6455, 2.967584
664.1276, 3.043190
664.6097, 3.026706
665.0919, 2.994157
665.5740, 3.030439
666.0561, 3.136095
666.5382, 3.196439
667.0203, 3.122372
667.5024, 3.005686
667.9846, 2.937371
668.4667, 2.911448
668.9488, 2.897168
669.4309, 2.883711
669.9130, 2.876434
670.3951, 2.884724
670.8773, 2.912419
671.3594, 2.924470
671.8415, 2.889132
672.3236, 2.875905
672.8057, 2.938732
673.2878, 3.008138
673.7700, 2.992261
674.2521, 2.885885
674.7342, 2.795394
675.2163, 2.831669
675.6984, 2.928181
676.1805, 2.930073
676.6627, 2.841808
677.1448, 2.805532
677.6269, 2.893609
678.1090, 3.009542
678.5911, 3.010041
679.0732, 2.863501
679.5554, 2.780337
680.0375, 2.809922
680.5196, 2.843872
681.0017, 2.830239
681.4838, 2.803211
681.9659, 2.820423
682.4481, 2.887635
682.9302, 2.941650
683.4123, 2.911934
683.8944, 2.822815
684.3765, 2.773399
684.8586, 2.769844
685.3408, 2.771548
685.8229, 2.766241
686.3050, 2.758602
686.7871, 2.753263
687.2692, 2.750076
687.7513, 2.752198
688.2335, 2.767344
688.7156, 2.780228
689.1977, 2.778716
689.6798, 2.771005
690.1619, 2.774017
690.6440, 2.789694
691.1262, 2.798770
691.6083, 2.778988
692.0904, 2.735767
692.5725, 2.714522
693.0546, 2.736400
693.5367, 2.716022
694.0189, 2.571878
694.5010, 2.426676
694.9831, 2.406891
695.4652, 2.497337
695.9473, 2.566383
696.4294, 2.549194
696.9116, 2.525208
697.3937, 2.572095
697.8758, 2.644352
698.3579, 2.638676
698.8400, 2.540045
699.3221, 2.452593
699.8043, 2.486408
700.2864, 2.616301
700.7685, 2.640034
701.2506, 2.482405
701.7327, 2.378493
702.2148, 2.424475
702.6970, 2.497145
703.1791, 2.516895
703.6612, 2.493320
704.1433, 2.301678
704.6254, 2.527614
705.1075, 2.656100
705.5897, 2.692373
706.0718, 2.360242
706.5539, 2.503828
707.0360, 2.456768
707.5181, 2.401891
708.0002, 2.612431
708.4824, 2.333885
708.9645, 2.540216
709.4466, 2.552993
709.9287, 2.654355
710.4108, 2.563895
710.8929, 2.532681
711.3751, 2.693354
711.8572, 2.747777
712.3393, 2.635234
712.8214, 2.742227
713.3035, 2.456980
713.7856, 2.515928
714.2678, 2.723383
714.7499, 2.620485
715.2320, 2.730986
715.7141, 2.760212
716.1962, 2.420083
716.6783, 2.722300
717.1605, 2.746724
717.6426, 2.485914
718.1247, 2.766122
718.6068, 2.544635
719.0889, 2.502222
719.5710, 2.594573
720.0532, 2.546439
720.5353, 2.719798
721.0174, 2.679775
721.4995, 2.620688
721.9816, 2.644800
722.4637, 2.433150
722.9459, 2.658886
723.4280, 2.585850
723.9101, 2.661328
724.3922, 2.770467
724.8743, 2.621855
725.3564, 2.746119
725.8386, 2.447217
726.3207, 2.502393
726.8028, 2.519442
727.2849, 2.762810
727.7670, 2.465970
728.2491, 2.511308
728.7313, 2.702343
729.2134, 2.689515
729.6955, 2.761923
730.1776, 2.582000
730.6597, 2.639123
731.1418, 2.630906
731.6240, 2.848474
732.1061, 2.887794
732.5882, 2.712153
733.0704, 2.537422
733.5525, 2.705614
734.0346, 2.822045
734.5167, 2.870544
734.9988, 2.799376
735.4810, 2.725185
735.9631, 2.636602
736.4452, 2.573594
736.9273, 2.580588
737.4094, 2.648678
737.8915, 2.721154
738.3737, 2.764037
738.8558, 2.804528
739.3379, 2.911230
739.8200, 3.040684
740.3021, 3.025162
740.7842, 2.832655
741.2664, 2.665707
741.7485, 2.692886
742.2306, 2.874522
742.7127, 3.020700
743.1948, 3.153062
743.6769, 3.207749
744.1591, 3.097961
744.6412, 2.996474
745.1233, 3.014037
745.6054, 3.103695
746.0875, 3.157644
746.5696, 3.134492
747.0518, 3.103962
747.5339, 3.134639
748.0160, 3.186550
748.4981, 3.171790
748.9802, 3.098525
749.4623, 3.078281
749.9445, 3.175719
750.4266, 3.311043
750.9087, 3.331609
751.3908, 3.208154
751.8729, 3.109220
752.3550, 3.057204
752.8372, 2.999096
753.3193, 2.871142
753.8014, 2.756042
754.2835, 2.760430
754.7656, 2.893584
755.2477, 3.033371
755.7299, 3.167557
756.2120, 3.244835
756.6941, 3.172969
757.1762, 3.010567
757.6583, 2.893902
758.1404, 2.861070
758.6226, 2.879152
759.1047, 2.923405
759.5868, 2.985952
760.0689, 3.011899
760.5510, 2.989105
761.0331, 2.959329
761.5153, 2.889363
761.9974, 2.857507
762.4795, 2.975018
762.9616, 3.177960
763.4437, 3.254265
763.9258, 3.092163
764.4080, 2.920262
764.8901, 2.846143
765.3722, 2.822002
765.8543, 2.801982
766.3364, 2.778913
766.8185, 2.756756
767.3007, 2.737866
767.7828, 2.718152
768.2649, 2.683135
768.7470, 2.631166
769.2291, 2.616308
769.7112, 2.653526
770.1934, 2.693843
770.6755, 2.711958
771.1576, 2.720628
771.6397, 2.749776
772.1218, 2.808757
772.6039, 2.823531
773.0861, 2.722042
773.5682, 2.638458
774.0503, 2.672213
774.5324, 2.755064
775.0145, 2.777452
775.4966, 2.724766
775.9788, 2.683725
776.4609, 2.747519
776.9430, 2.853061
777.4251, 2.817321
777.9072, 2.645667
778.3893, 2.565113
778.8715, 2.640609
779.3536, 2.772227
779.8357, 2.893901
780.3178, 2.997886
780.7999, 3.029571
781.2820, 2.923727
781.7642, 2.841155
782.2463, 2.776645
782.7284, 2.749373
783.2105, 2.706520
783.6926, 2.839285
784.1747, 2.913581
784.6569, 2.932549
785.1390, 2.730475
785.6211, 2.813831
786.1032, 2.782799
786.5853, 2.747077
787.0674, 2.870606
787.5496, 2.700682
788.0317, 2.821685
788.5138, 2.826556
788.9959, 2.884577
789.4780, 2.827505
789.9601, 2.805982
790.4423, 2.899589
790.9244, 2.929447
791.4065, 2.859126
791.8886, 2.920526
792.3707, 2.746582
792.8528, 2.779155
793.3350, 2.900832
793.8171, 2.836298
794.2992, 2.899802
794.7813, 2.914542
795.2634, 2.707669
795.7455, 2.886204
796.2277, 2.898062
796.7098, 2.738781
797.1919, 2.904109
797.6740, 2.768421
798.1561, 2.740178
798.6382, 2.792794
799.1204, 2.761116
799.6025, 2.862336
800.0846, 2.835527
800.5667, 2.797279
801.0488, 2.808950
801.5309, 2.679165
802.0131, 2.811810
802.4952, 2.765194
802.9773, 2.807684
803.4594, 2.870372
803.9415, 2.778409
804.4236, 2.850172
804.9058, 2.668034
805.3879, 2.698344
805.8700, 2.705778
806.3521, 2.849003
806.8342, 2.668103
807.3163, 2.692511
807.7985, 2.723553
808.2806, 2.721752
808.7627, 2.784839
809.2448, 2.856107
809.7269, 2.896971
810.2090, 2.914293
810.6912, 2.933035
811.1733, 2.980302
811.6554, 2.963376
812.1375, 2.774178
812.6196, 2.646079
813.1017, 2.720088
813.5839, 2.879489
814.0660, 2.981083
814.5481, 3.005664
815.0302, 2.970186
815.5123, 2.793884
815.9944, 2.643485
816.4766, 2.692038
816.9587, 2.850069
817.4408, 2.958819
817.9229, 2.980466
818.4050, 2.953193
818.8871, 2.899149
819.3693, 2.836383
819.8514, 2.816929
820.3335, 2.842677
820.8156, 2.867277
821.2977, 2.881354
821.7798, 2.902193
822.2620, 2.950628
822.7441, 3.010392
823.2262, 3.031559
823.7083, 2.991677
824.1904, 2.965619
824.6725, 2.969357
825.1547, 2.971727
825.6368, 2.950203
826.1189, 2.923143
826.6010, 2.822644
827.0831, 2.957467
827.5652, 3.033820
828.0474, 3.054845
828.5295, 2.854828
829.0116, 2.940241
829.4937, 2.911267
829.9758, 2.877602
830.4579, 3.003188
830.9401, 2.835322
831.4222, 2.958382
831.9044, 2.965310
832.3865, 3.025389
832.8686, 2.970374
833.3507, 2.950908
833.8328, 3.046572
834.3149, 3.078488
834.7971, 3.010224
835.2792, 3.073681
835.7613, 2.901794
836.2434, 3.097345
836.7255, 3.186602
837.2076, 3.186866
837.6898, 3.152425
838.1719, 3.064853
838.6540, 2.983067
839.1361, 3.003014
839.6182, 3.114797
840.1003, 3.188710
840.5825, 3.125031
841.0646, 3.011788
841.5467, 2.962548
842.0288, 2.964315
842.5109, 2.977639
842.9930, 2.996812
843.4752, 3.034148
843.9573, 3.100291
844.4394, 3.175899
844.9215, 3.217605
845.4036, 3.219396
845.8857, 3.215030
846.3679, 3.181479
846.8500, 3.183830
847.3321, 3.313222
847.8142, 3.441739
848.2963, 3.397591
848.7784, 3.191999
849.2606, 3.078285
849.7427, 3.172681
850.2248, 3.281378
850.7069, 3.369385
851.1890, 3.405251
851.6711, 3.311746
852.1533, 3.136571
852.6354, 3.030497
853.1175, 3.071383
853.5996, 3.166701
854.0817, 3.237827
854.5638, 3.275535
855.0460, 3.213977
855.5281, 3.068414
856.0102, 3.035831
856.4923, 3.205552
856.9744, 3.421442
857.4565, 3.479837
857.9387, 3.387017
858.4208, 3.309841
858.9029, 3.228306
859.3850, 3.214319
859.8671, 3.345096
860.3492, 3.478172
860.8314, 3.484372
861.3135, 3.412674
861.7956, 3.404334
862.2777, 3.524090
862.7598, 3.586040
863.2419, 3.494232
863.7241, 3.376664
864.2062, 3.303691
864.6883, 3.272144
865.1704, 3.269279
865.6525, 3.289378
866.1346, 3.318189
866.6168, 3.347571
867.0989, 3.376705
867.5810, 3.412300
868.0631, 3.446765
868.5452, 3.442521
869.0273, 3.395075
869.5095, 3.361662
869.9916, 3.385872
870.4737, 3.446649
870.9558, 3.494575
871.4379, 3.533421
871.9200, 3.540045
872.4022, 3.518586
872.8843, 3.449035
873.3664, 3.267105
873.8485, 3.074081
874.3306, 3.041676
874.8127, 3.174857
875.2949, 3.266664
875.7770, 3.291072
876.2591, 3.289095
876.7412, 3.256209
877.2233, 3.214195
877.7054, 3.167439
878.1876, 3.129011
878.6697, 3.135544
879.1518, 3.215318
879.6339, 3.279121
880.1160, 3.234747
880.5981, 3.144597
881.0803, 3.093829
881.5624, 3.077618
882.0445, 3.060098
882.5266, 3.028620
883.0087, 2.988259
883.4908, 2.942116
883.9730, 2.893214
884.4551, 2.855983
884.9372, 2.831386
885.4193, 2.801076
885.9014, 2.756869
886.3835, 2.722394
886.8657, 2.708174
887.3478, 2.720838
887.8299, 2.787567
888.3120, 2.966452
888.7941, 3.042543
889.2762, 2.938428
889.7584, 2.826553
890.2405, 2.738473
890.7226, 2.680457
891.2047, 2.670055
891.6868, 2.700696
892.1689, 2.718822
892.6511, 2.697010
893.1332, 2.672680
893.6153, 2.651605
894.0974, 2.647078
894.5795, 2.698781
895.0616, 2.778342
895.5438, 2.804083
896.0259, 2.742579
896.5080, 2.649737
896.9901, 2.562217
897.4722, 2.496138
897.9543, 2.504186
898.4365, 2.574506
898.9186, 2.647233
899.4007, 2.705679
899.8828, 2.723102
900.3649, 2.667912
900.8470, 2.566925
901.3292, 2.516104
901.8113, 2.521102
902.2934, 2.555877
902.7755, 2.644383
903.2576, 2.703309
903.7397, 2.668721
904.2219, 2.597499
904.7040, 2.594144
905.1861, 2.676837
905.6682, 2.687020
906.1503, 2.527024
906.6324, 2.420329
907.1146, 2.474822
907.5967, 2.447093
908.0788, 2.578393
908.5609, 2.651223
909.0430, 2.668725
909.5251, 2.465185
910.0073, 2.547075
910.4894, 2.514577
910.9715, 2.477389
911.4536, 2.599452
911.9357, 2.428062
912.4178, 2.547599
912.9000, 2.551003
913.3821, 2.607558
913.8642, 2.549020
914.3463, 2.526031
914.8284, 2.618171
915.3105, 2.646564
915.7927, 2.574776
916.2748, 2.634710
916.7569, 2.459300
917.2390, 2.490407
917.7211, 2.610618
918.2032, 2.544617
918.6854, 2.606655
919.1675, 2.619929
919.6496, 2.411590
920.1317, 2.588658
920.6138, 2.581329
921.0959, 2.681565
921.5781, 2.746174
922.0602, 2.774441
922.5423, 2.758538
923.0244, 2.639428
923.5065, 2.587712
923.9886, 2.666258
924.4708, 2.749604
924.9529, 2.786843
925.4350, 2.795017
925.9171, 2.781973
926.3992, 2.755700
926.8813, 2.770889
927.3635, 2.909112
927.8456, 3.022653
928.3277, 3.004204
928.8098, 2.932853
929.2919, 2.874301
929.7740, 2.846485
930.2562, 2.864717
930.7383, 2.935350
931.2205, 3.036998
931.7026, 3.192998
932.1847, 3.342458
932.6668, 3.346391
933.1489, 3.239445
933.6310, 3.135690
934.1132, 3.067073
934.5953, 3.074637
935.0774, 3.199455
935.5595, 3.378646
936.0416, 3.460757
936.5237, 3.445241
937.0059, 3.422116
937.4880, 3.388655
937.9701, 3.394148
938.4522, 3.476586
938.9343, 3.559592
939.4164, 3.537452
939.8986, 3.421143
940.3807, 3.410219
940.8628, 3.589577
941.3449, 3.706115
941.8270, 3.685447
942.3091, 3.657476
942.7913, 3.709000
943.2734, 3.788755
943.7555, 3.817783
944.2376, 3.790214
944.7197, 3.728441
945.2018, 3.546590
945.6840, 3.443561
946.1661, 3.573596
946.6482, 3.751518
947.1303, 3.780550
947.6124, 3.706309
948.0945, 3.725166
948.5767, 3.928388
949.0588, 4.102017
949.5409, 4.110330
950.0230, 4.029055
950.5051, 3.847242
950.9872, 3.664579
951.4694, 3.706475
951.9515, 3.973518
952.4336, 4.194297
952.9157, 4.179387
953.3978, 4.034447
953.8799, 3.850292
954.3621, 3.670799
954.8442, 3.644246
955.3263, 3.757544
955.8084, 3.849533
956.2905, 3.856254
956.7726, 3.818471
957.2548, 3.776400
957.7369, 3.733254
958.2190, 3.698446
958.7011, 3.671065
959.1832, 3.679770
959.6653, 3.739669
960.1475, 3.778473
960.6296, 3.748307
961.1117, 3.684019
961.5938, 3.653104
962.0759, 3.662987
962.5580, 3.625996
963.0402, 3.484710
963.5223, 3.420407
964.0044, 3.514842
964.4865, 3.646466
964.9686, 3.754792
965.4507, 3.824555
965.9329, 3.802372
966.4150, 3.637642
966.8971, 3.518419
967.3792, 3.485518
967.8613, 3.465447
968.3434, 3.435178
968.8256, 3.401982
969.3077, 3.371408
969.7898, 3.345334
970.2719, 3.331178
970.7540, 3.348734
971.2361, 3.339236
971.7183, 3.222507
972.2004, 3.123069
972.6825, 3.160794
973.1646, 3.273864
973.6467, 3.383823
974.1288, 3.458970
974.6110, 3.438233
975.0931, 3.218145
975.5752, 3.001758
976.0573, 3.009136
976.5394, 3.121859
977.0215, 3.181381
977.5037, 3.177933
977.9858, 3.137802
978.4679, 3.073560
978.9500, 3.009347
979.4321, 2.957208
979.9142, 2.932237
980.3964, 2.994942
980.8785, 3.111798
981.3606, 3.139687
981.8427, 3.069913
982.3248, 3.047054
982.8069, 3.152253
983.2891, 3.283805
983.7712, 3.285779
984.2533, 3.177639
984.7354, 3.097538
985.2175, 3.045537
985.6996, 3.024425
986.1818, 3.038441
986.6639, 3.058070
987.1460, 3.061081
987.6281, 3.059337
988.1102, 3.084220
988.5923, 3.143888
989.0745, 3.164524
989.5566, 3.125787
990.0387, 3.110569
990.5208, 3.153988
991.0029, 3.206271
991.4850, 3.222091
991.9672, 3.211763
992.4493, 3.215780
992.9314, 3.242851
993.4135, 3.263419
993.8956, 3.278334
994.3777, 3.285411
994.8599, 3.268386
995.3420, 3.255250
995.8241, 3.273704
996.3062, 3.320309
996.7883, 3.373753
997.2704, 3.446342
997.7526, 3.500585
998.2347, 3.521516
998.7168, 3.534452
999.1989, 3.569412
999.6810, 3.592939
1000.163, 3.540226
1000.645, 3.422011
1001.127, 3.360379
1001.609, 3.433221
1002.092, 3.501044
1002.574, 3.497324
1003.056, 3.477555
1003.538, 3.503234
1004.020, 3.535767
1004.502, 3.473164
1004.984, 3.316401
1005.466, 3.247349
1005.949, 3.438577
1006.431, 3.640790
1006.913, 3.648753
1007.395, 3.583364
1007.877, 3.579323
1008.359, 3.627244
1008.841, 3.674474
1009.323, 3.702437
1009.805, 3.707049
1010.288, 3.676968
1010.770, 3.631340
1011.252, 3.572407
1011.734, 3.524299
1012.216, 3.549796
1012.698, 3.632504
1013.180, 3.700122
1013.662, 3.721290
1014.145, 3.691514
1014.627, 3.561443
1015.109, 3.416164
1015.591, 3.485844
1016.073, 3.683530
1016.555, 3.685631
1017.037, 3.482325
1017.519, 3.360535
1018.001, 3.466609
1018.484, 3.609229
1018.966, 3.489652
1019.448, 3.223454
1019.930, 3.305076
1020.412, 3.679456
1020.894, 3.807393
1021.376, 3.599386
1021.858, 3.379224
1022.341, 3.330901
1022.823, 3.381438
1023.305, 3.433625
1023.787, 3.480409
1024.269, 3.440001
1024.751, 3.306920
1025.233, 3.181131
1025.715, 3.074835
1026.198, 3.041801
1026.680, 3.134205
1027.162, 3.266496
1027.644, 3.264515
1028.126, 3.123637
1028.608, 3.072687
1029.090, 3.139106
1029.572, 3.157932
1030.054, 3.073485
1030.536, 3.000306
1031.019, 3.029012
1031.501, 3.103755
1031.983, 3.103185
1032.465, 3.018028
1032.947, 2.921059
1033.429, 2.779987
1033.911, 2.720385
1034.393, 2.829873
1034.876, 2.913524
1035.358, 2.784025
1035.840, 2.564279
1036.322, 2.564266
1036.804, 2.853106
1037.286, 3.030854
1037.768, 3.078284
1038.250, 3.044868
1038.733, 2.867933
1039.215, 2.701310
1039.697, 2.667668
1040.179, 2.722504
1040.661, 2.755639
1041.143, 2.763626
1041.625, 2.763111
1042.107, 2.746004
1042.589, 2.731526
1043.072, 2.735482
1043.554, 2.731822
1044.036, 2.713737
1044.518, 2.672227
1045.000, 2.568867
1045.482, 2.361850
1045.964, 2.259498
1046.446, 2.354749
1046.928, 2.449864
1047.411, 2.485796
1047.893, 2.512656
1048.375, 2.595816
1048.857, 2.693285
1049.339, 2.690110
1049.821, 2.546852
1050.303, 2.453161
1050.785, 2.453961
1051.268, 2.487031
1051.750, 2.583210
1052.232, 2.658245
1052.714, 2.623646
1053.196, 2.522265
1053.678, 2.453438
1054.160, 2.433885
1054.642, 2.431002
1055.125, 2.439942
1055.607, 2.460722
1056.089, 2.527022
1056.571, 2.574735
1057.053, 2.511296
1057.535, 2.400043
1058.017, 2.399771
1058.499, 2.554016
1058.981, 2.641123
1059.464, 2.538499
1059.946, 2.427975
1060.428, 2.363574
1060.910, 2.339462
1061.392, 2.370042
1061.874, 2.428268
1062.356, 2.456496
1062.838, 2.441636
1063.320, 2.454553
1063.803, 2.564960
1064.285, 2.650860
1064.767, 2.633407
1065.249, 2.590735
1065.731, 2.578927
1066.213, 2.597508
1066.695, 2.651444
1067.177, 2.739362
1067.660, 2.768297
1068.142, 2.603253
1068.624, 2.498284
1069.106, 2.663146
1069.588, 2.852789
1070.070, 2.829295
1070.552, 2.690386
1071.034, 2.646796
1071.516, 2.732682
1071.999, 2.802361
1072.481, 2.765471
1072.963, 2.738796
1073.445, 2.776370
1073.927, 2.846236
1074.409, 2.925231
1074.891, 3.016100
1075.373, 3.133535
1075.855, 3.275928
1076.338, 3.411865
1076.820, 3.539267
1077.302, 3.641477
1077.784, 3.692954
1078.266, 3.733085
1078.748, 3.775038
1079.230, 3.835746
1079.713, 3.943784
1080.195, 4.095703
1080.677, 4.247082
1081.159, 4.379176
1081.641, 4.511076
1082.123, 4.639452
1082.605, 4.782105
1083.087, 4.949781
1083.569, 5.140051
1084.052, 5.343189
1084.534, 5.564282
1085.016, 5.838020
1085.498, 6.216009
1085.980, 6.528899
1086.462, 6.739935
1086.944, 6.821514
1087.426, 6.689754
1087.908, 6.464728
1088.391, 6.317513
1088.873, 6.211969
1089.355, 5.959511
1089.837, 5.478556
1090.319, 4.970395
1090.801, 4.460001
1091.283, 4.008711
1091.765, 3.658031
1092.248, 3.377818
1092.730, 3.157781
1093.212, 2.975081
1093.694, 2.769353
1094.176, 2.516847
1094.658, 2.330716
1095.140, 2.286577
1095.622, 2.273269
1096.104, 2.255717
1096.587, 2.233669
1097.069, 2.166208
1097.551, 2.220949
1098.033, 2.243213
1098.515, 2.234734
1098.997, 2.103458
1099.479, 2.130750
1099.961, 2.094494
1100.443, 2.055636
1100.926, 2.105207
1101.408, 1.991793
1101.890, 2.040000
1102.372, 1.988585
1102.854, 1.908540
1103.336, 1.870208
1103.818, 1.940796
1104.300, 1.988234
1104.783, 1.963656
1105.265, 1.931646
1105.747, 1.922404
1106.229, 1.928714
1106.711, 1.947458
1107.193, 1.973959
1107.675, 1.980856
1108.157, 1.952570
1108.640, 1.928148
1109.122, 1.909676
1109.604, 1.899338
1110.086, 1.907652
1110.568, 1.916551
1111.050, 1.898401
1111.532, 1.865482
1112.014, 1.870402
1112.496, 1.945984
1112.979, 1.975328
1113.461, 1.899091
1113.943, 1.851278
1114.425, 1.914603
1114.907, 1.783146
1115.389, 1.996151
1115.871, 2.111708
1116.353, 2.135050
1116.835, 1.789990
1117.318, 1.920625
1117.800, 1.860634
1118.282, 1.792828
1118.764, 1.990438
1119.246, 1.698962
1119.728, 1.892362
1120.210, 1.892210
1120.692, 1.980641
1121.175, 1.877229
1121.657, 1.833087
1122.139, 1.980827
1122.621, 2.022322
1123.103, 1.896847
1123.585, 1.990911
1124.067, 1.692732
1124.549, 1.738752
1125.031, 1.933274
1125.514, 1.817425
1125.996, 1.914996
1126.478, 1.931291
1126.960, 1.578233
1127.442, 1.867518
1127.924, 1.879012
1128.406, 1.694805
1128.888, 1.732708
1129.370, 1.848700
1129.853, 1.978993
1130.335, 1.949608
1130.817, 1.761112
1131.299, 1.718903
1131.781, 1.831010
1132.263, 1.912997
1132.745, 1.928496
1133.227, 1.902032
1133.710, 1.843002
1134.192, 1.785599
1134.674, 1.780443
1135.156, 1.818134
1135.638, 1.875250
1136.120, 1.943971
1136.602, 1.954580
1137.084, 1.904770
1137.567, 1.858634
1138.049, 1.841565
1138.531, 1.835261
1139.013, 1.817521
1139.495, 1.811248
1139.977, 1.891120
1140.459, 2.010786
1140.941, 2.027472
1141.423, 1.958067
1141.906, 1.890786
1142.388, 1.852141
1142.870, 1.844358
1143.352, 1.871584
1143.834, 1.910164
1144.316, 1.939725
1144.798, 1.957156
1145.280, 1.940162
1145.762, 1.915050
1146.245, 1.964587
1146.727, 2.059987
1147.209, 2.042239
1147.691, 1.851771
1148.173, 1.715195
1148.655, 1.888922
1149.137, 2.094521
1149.619, 2.059471
1150.102, 1.944477
1150.584, 1.942209
1151.066, 2.007370
1151.548, 2.001960
1152.030, 1.909752
1152.512, 1.851685
1152.994, 1.908215
1153.476, 1.951846
1153.958, 1.889837
1154.441, 1.827845
1154.923, 1.837878
1155.405, 1.887995
1155.887, 1.960778
1156.369, 2.033823
1156.851, 2.040563
1157.333, 1.946079
1157.815, 1.874108
1158.297, 1.849371
1158.780, 1.853613
1159.262, 1.921949
1159.744, 1.976677
1160.226, 1.936654
1160.708, 1.855144
1161.190, 1.836567
1161.672, 1.886885
1162.154, 1.931124
1162.637, 1.994992
1163.119, 2.002515
1163.601, 1.923021
1164.083, 1.825986
1164.565, 1.702959
1165.047, 1.630699
1165.529, 1.712947
1166.011, 1.901683
1166.494, 2.001454
1166.976, 1.998883
1167.458, 1.973336
1167.940, 1.922404
1168.422, 1.846649
1168.904, 1.729574
1169.386, 1.689158
1169.868, 1.821687
1170.350, 2.002506
1170.833, 2.005941
1171.315, 1.877005
1171.797, 1.907289
1172.279, 2.075907
1172.761, 2.133227
1173.243, 2.058796
1173.725, 1.990868
1174.207, 1.983074
1174.689, 1.999081
1175.172, 2.012744
1175.654, 2.009497
1176.136, 1.932915
1176.618, 1.834474
1177.100, 1.845043
1177.582, 1.936256
1178.064, 2.026787
1178.547, 2.092728
1179.029, 2.119756
1179.511, 2.099182
1179.993, 2.071047
1180.475, 2.083046
1180.957, 2.089950
1181.439, 2.048607
1181.921, 1.974373
1182.403, 1.852201
1182.885, 1.726095
1183.368, 1.690100
1183.850, 1.757136
1184.332, 1.831818
1184.814, 1.884111
1185.296, 1.920328
1185.778, 1.951372
1186.260, 1.957135
1186.742, 1.877030
1187.225, 1.802927
1187.707, 1.867746
1188.189, 2.025356
1188.671, 2.092832
1189.153, 2.029106
1189.635, 1.969539
1190.117, 1.896423
1190.599, 1.869103
1191.082, 1.948632
1191.564, 1.997094
1192.046, 1.894311
1192.528, 1.776875
1193.010, 1.860793
1193.492, 2.106865
1193.974, 2.168799
1194.456, 1.998186
1194.938, 1.896071
1195.421, 1.879529
1195.903, 1.927969
1196.385, 2.048171
1196.867, 2.133053
1197.349, 2.094240
1197.831, 2.010677
1198.313, 2.050345
1198.795, 2.168282
1199.277, 2.113382
1199.760, 1.928789
1200.242, 1.849128
1200.724, 1.889171
1201.206, 1.922742
1201.688, 1.904718
1202.170, 1.913357
1202.652, 2.032274
1203.134, 2.159618
1203.617, 2.165577
1204.099, 2.100307
1204.581, 1.995182
1205.063, 1.893287
1205.545, 1.867168
1206.027, 1.914714
1206.509, 1.993845
1206.991, 2.094342
1207.474, 2.161541
1207.956, 2.147619
1208.438, 2.117318
1208.920, 2.084030
1209.402, 2.067648
1209.884, 2.094510
1210.366, 2.142101
1210.848, 2.185754
1211.330, 2.219604
1211.813, 2.215437
1212.295, 2.146378
1212.777, 2.086542
1213.259, 2.017105
1213.741, 1.993207
1214.223, 2.061210
1214.705, 2.127604
1215.187, 2.130575
1215.669, 2.086555
1216.152, 2.015760
1216.634, 1.922927
1217.116, 1.910097
1217.598, 1.990911
1218.080, 1.958806
1218.562, 1.785150
1219.044, 1.688889
1219.526, 1.747403
1220.009, 1.864283
1220.491, 1.966540
1220.973, 2.054314
1221.455, 2.144660
1221.937, 2.212757
1222.419, 2.163552
1222.901, 2.046464
1223.383, 2.000096
1223.865, 2.024396
1224.348, 2.049472
1224.830, 2.046892
1225.312, 1.991144
1225.794, 1.803947
1226.276, 1.673241
1226.758, 1.798279
1227.240, 1.985996
1227.722, 2.101522
1228.204, 2.147666
1228.687, 2.101190
1229.169, 2.005639
1229.651, 1.999828
1230.133, 2.133376
1230.615, 2.212669
1231.097, 2.167722
1231.579, 2.118773
1232.061, 2.075343
1232.544, 2.050366
1233.026, 2.056007
1233.508, 2.076738
1233.990, 2.102043
1234.472, 2.124850
1234.954, 2.110444
1235.436, 2.050233
1235.918, 2.009494
1236.401, 1.987466
1236.883, 2.001975
1237.365, 2.059192
1237.847, 2.087028
1238.329, 2.045259
1238.811, 1.997448
1239.293, 2.019435
1239.775, 2.080632
1240.257, 2.130708
1240.740, 2.164277
1241.222, 2.153281
1241.704, 2.118895
1242.186, 2.134424
1242.668, 2.193724
1243.150, 2.198280
1243.632, 2.100308
1244.114, 2.012930
1244.596, 2.037119
1245.079, 2.063188
1245.561, 1.990663
1246.043, 1.921111
1246.525, 1.961396
1247.007, 2.050595
1247.489, 2.086570
1247.971, 2.071599
1248.453, 2.087779
1248.936, 2.179153
1249.418, 2.208079
1249.900, 2.121852
1250.382, 2.078070
1250.864, 2.139740
1251.346, 2.175840
1251.828, 2.095626
1252.310, 1.996685
1252.792, 2.023683
1253.275, 2.125552
1253.757, 2.055365
1254.239, 1.836531
1254.721, 1.774478
1255.203, 1.867954
1255.685, 2.013613
1256.167, 2.170788
1256.649, 2.222423
1257.131, 2.107058
1257.614, 1.973070
1258.096, 1.990139
1258.578, 2.036750
1259.060, 1.939953
1259.542, 1.815360
1260.024, 1.814826
1260.506, 1.889855
1260.988, 1.945809
1261.471, 1.972636
1261.953, 2.003763
1262.435, 2.049683
1262.917, 2.091187
1263.399, 2.125195
1263.881, 2.151713
1264.363, 2.192575
1264.845, 2.196533
1265.328, 2.101506
1265.810, 1.998917
1266.292, 1.996634
1266.774, 2.071710
1267.256, 2.139821
1267.738, 2.204503
1268.220, 2.209946
1268.702, 2.153130
1269.184, 2.144793
1269.667, 2.202908
1270.149, 2.243842
1270.631, 2.229070
1271.113, 2.162875
1271.595, 2.023761
1272.077, 1.900849
1272.559, 1.968796
1273.041, 2.105961
1273.523, 2.121697
1274.006, 2.074099
1274.488, 2.088087
1274.970, 2.153062
1275.452, 2.166957
1275.934, 2.102421
1276.416, 2.095199
1276.898, 2.285926
1277.380, 2.403800
1277.863, 2.292652
1278.345, 2.196190
1278.827, 2.269284
1279.309, 2.365043
1279.791, 2.358654
1280.273, 2.293147
1280.755, 2.258919
1281.237, 2.256061
##END=



