##NAMES=Calomel
##RRUFFID=R070370
##IDEAL CHEMISTRY=HgCl
##LOCALITY=Lake County, California, USA
##OWNER=RRUFF
##SOURCE=Michael Scott
##DESCRIPTION=Colorless rounded or poorly formed crystals
##STATUS=The identification of this mineral has been confirmed only by single crystal X-ray diffraction.
##URL=rruff.info/R070370
133.5544, 498.7798
134.0366, 509.7684
134.5187, 515.5809
135.0008, 519.7426
135.4829, 524.4927
135.9650, 529.8052
136.4471, 535.1960
136.9293, 539.9050
137.4114, 545.4264
137.8935, 553.0380
138.3756, 561.9220
138.8577, 569.8914
139.3398, 574.8715
139.8220, 576.8078
140.3041, 584.3920
140.7862, 599.5624
141.2683, 617.0486
141.7504, 635.1221
142.2325, 653.5634
142.7147, 672.0198
143.1968, 689.6635
143.6789, 706.5957
144.1610, 730.0229
144.6431, 760.8466
145.1252, 796.3696
145.6074, 833.7221
146.0895, 873.5391
146.5716, 918.7746
147.0537, 967.7197
147.5358, 1023.343
148.0179, 1111.482
148.5001, 1227.755
148.9822, 1378.292
149.4643, 1570.109
149.9464, 1804.282
150.4285, 2072.101
150.9106, 2384.594
151.3928, 2734.259
151.8749, 3048.735
152.3570, 3324.978
152.8391, 3563.370
153.3212, 3753.580
153.8033, 3892.969
154.2855, 4024.540
154.7676, 4179.219
155.2497, 4355.127
155.7318, 4541.608
156.2139, 4735.942
156.6960, 4940.795
157.1782, 5154.777
157.6603, 5375.110
158.1424, 5619.628
158.6245, 5894.242
159.1066, 6202.520
159.5887, 6565.208
160.0709, 6966.715
160.5530, 7432.555
161.0351, 7980.864
161.5172, 8595.319
161.9993, 9347.491
162.4814, 10221.65
162.9636, 11260.24
163.4457, 12636.47
163.9278, 14444.94
164.4099, 16613.20
164.8920, 19188.63
165.3741, 22470.53
165.8563, 25287.02
166.3384, 27330.74
166.8205, 28432.72
167.3026, 28051.74
167.7847, 25447.24
168.2668, 21382.64
168.7490, 17349.75
169.2311, 13109.35
169.7132, 9446.301
170.1953, 6788.266
170.6774, 4901.611
171.1595, 3510.677
171.6417, 2594.515
172.1238, 2050.475
172.6059, 1643.685
173.0880, 1410.905
173.5701, 1250.892
174.0522, 1131.795
174.5344, 1042.155
175.0165, 969.6152
175.4986, 910.2064
175.9807, 862.1619
176.4628, 820.8458
176.9449, 789.3638
177.4271, 759.2037
177.9092, 725.7191
178.3913, 691.6765
178.8734, 660.6672
179.3555, 633.6650
179.8376, 611.1314
180.3197, 594.5543
180.8019, 586.5308
181.2840, 580.3145
181.7661, 575.2963
182.2482, 570.0312
182.7303, 562.4694
183.2124, 551.1991
183.6946, 537.6663
184.1767, 525.8748
184.6588, 516.0607
185.1409, 507.9550
185.6230, 499.9137
186.1051, 493.7350
186.5873, 492.6016
187.0694, 498.9405
187.5515, 508.4905
188.0336, 509.1096
188.5157, 493.5132
188.9978, 481.4030
189.4800, 479.1960
189.9621, 481.2095
190.4442, 481.9439
190.9263, 479.0656
191.4084, 473.1747
191.8905, 464.7562
192.3727, 448.4960
192.8548, 439.7080
193.3369, 444.8587
193.8190, 455.4778
194.3011, 463.9931
194.7832, 467.4238
195.2654, 467.0070
195.7475, 464.9845
196.2296, 459.6125
196.7117, 455.9437
197.1938, 452.8934
197.6759, 452.3594
198.1581, 457.3199
198.6402, 468.5878
199.1223, 482.1317
199.6044, 490.1354
200.0865, 489.1442
200.5686, 489.3131
201.0508, 493.6015
201.5329, 497.9645
202.0150, 498.8844
202.4971, 495.5222
202.9792, 490.1511
203.4613, 486.4622
203.9435, 485.5032
204.4256, 483.9124
204.9077, 481.9419
205.3898, 479.1324
205.8719, 474.3311
206.3540, 467.6795
206.8362, 461.2865
207.3183, 458.5447
207.8004, 461.9861
208.2825, 462.6213
208.7646, 459.3800
209.2467, 454.5123
209.7289, 448.6185
210.2110, 442.1487
210.6931, 435.8533
211.1752, 430.2834
211.6573, 424.8458
212.1395, 422.6102
212.6216, 425.3365
213.1037, 429.4965
213.5858, 435.6330
214.0679, 442.3100
214.5500, 445.5980
215.0322, 440.4929
215.5143, 425.0506
215.9964, 414.2795
216.4785, 409.9577
216.9606, 408.5162
217.4427, 409.7459
217.9249, 412.9237
218.4070, 416.8796
218.8891, 420.9360
219.3712, 425.1498
219.8533, 427.3559
220.3354, 426.4666
220.8176, 424.4727
221.2997, 420.4291
221.7818, 415.6768
222.2639, 412.7468
222.7460, 413.7030
223.2281, 418.0918
223.7103, 420.9402
224.1924, 421.1151
224.6745, 420.8294
225.1566, 419.3372
225.6387, 417.9048
226.1208, 418.6004
226.6030, 422.8542
227.0851, 429.5753
227.5672, 434.1261
228.0493, 434.7784
228.5314, 435.4472
229.0135, 436.8894
229.4957, 438.6719
229.9778, 440.1907
230.4599, 441.1579
230.9420, 441.9284
231.4241, 443.4954
231.9062, 446.7750
232.3884, 449.2366
232.8705, 450.3580
233.3526, 450.7662
233.8347, 450.4540
234.3168, 449.5163
234.7989, 449.2345
235.2811, 452.5776
235.7632, 462.8780
236.2453, 468.7443
236.7274, 465.8717
237.2095, 461.2092
237.6916, 459.3182
238.1738, 461.0643
238.6559, 464.2979
239.1380, 465.9676
239.6201, 464.9196
240.1022, 466.6907
240.5843, 475.2599
241.0665, 483.5847
241.5486, 487.0266
242.0307, 486.2735
242.5128, 486.2657
242.9949, 493.0576
243.4770, 507.6434
243.9592, 517.0702
244.4413, 515.4457
244.9234, 514.0280
245.4055, 517.6116
245.8876, 524.9578
246.3697, 531.9792
246.8519, 534.8784
247.3340, 534.5622
247.8161, 539.0932
248.2982, 550.8637
248.7803, 564.7886
249.2624, 580.1135
249.7446, 596.0436
250.2267, 610.8991
250.7088, 623.0086
251.1909, 634.4512
251.6730, 652.1328
252.1551, 680.2259
252.6373, 706.2170
253.1194, 721.5223
253.6015, 734.6453
254.0836, 754.6617
254.5657, 784.9707
255.0478, 822.7373
255.5300, 863.7137
256.0121, 907.3190
256.4942, 956.0933
256.9763, 1013.795
257.4584, 1075.276
257.9406, 1136.693
258.4227, 1197.049
258.9048, 1261.279
259.3869, 1334.841
259.8690, 1418.052
260.3511, 1507.281
260.8333, 1607.911
261.3154, 1710.247
261.7975, 1805.541
262.2796, 1894.143
262.7617, 1987.250
263.2438, 2094.752
263.7260, 2214.869
264.2081, 2334.481
264.6902, 2446.929
265.1723, 2567.734
265.6544, 2707.563
266.1365, 2864.078
266.6187, 3029.021
267.1008, 3189.283
267.5829, 3357.090
268.0650, 3562.321
268.5471, 3812.344
269.0292, 4076.811
269.5114, 4335.934
269.9935, 4593.999
270.4756, 4862.222
270.9577, 5147.348
271.4398, 5440.491
271.9219, 5752.524
272.4041, 6086.136
272.8862, 6360.863
273.3683, 6532.751
273.8504, 6615.289
274.3325, 6650.953
274.8146, 6642.879
275.2968, 6584.841
275.7789, 6472.507
276.2610, 6307.075
276.7431, 6084.635
277.2252, 5786.832
277.7073, 5452.554
278.1895, 5142.200
278.6716, 4855.745
279.1537, 4585.829
279.6358, 4326.887
280.1179, 4084.085
280.6000, 3868.575
281.0822, 3682.649
281.5643, 3520.943
282.0464, 3379.358
282.5285, 3259.244
283.0106, 3151.374
283.4927, 3055.586
283.9749, 2971.310
284.4570, 2898.166
284.9391, 2835.925
285.4212, 2783.469
285.9033, 2741.679
286.3854, 2710.706
286.8676, 2678.397
287.3497, 2642.872
287.8318, 2607.918
288.3139, 2577.569
288.7960, 2549.423
289.2781, 2518.149
289.7603, 2481.299
290.2424, 2438.270
290.7245, 2386.683
291.2066, 2315.108
291.6887, 2249.605
292.1708, 2201.603
292.6530, 2159.112
293.1351, 2107.013
293.6172, 2040.037
294.0993, 1963.572
294.5814, 1887.741
295.0635, 1815.983
295.5457, 1737.294
296.0278, 1641.998
296.5099, 1547.730
296.9920, 1468.572
297.4741, 1404.901
297.9562, 1347.758
298.4384, 1287.151
298.9205, 1221.445
299.4026, 1163.211
299.8847, 1113.776
300.3668, 1070.221
300.8489, 1032.793
301.3310, 1000.367
301.8131, 971.6660
302.2953, 946.3179
302.7774, 923.4247
303.2595, 898.1285
303.7416, 867.1442
304.2237, 838.7009
304.7058, 815.9174
305.1880, 795.6353
305.6701, 773.7198
306.1522, 748.5187
306.6343, 723.7061
307.1164, 705.8990
307.5985, 696.9945
308.0807, 688.3029
308.5628, 678.8291
309.0449, 668.7819
309.5270, 657.5301
310.0091, 645.2860
310.4912, 634.3959
310.9734, 628.3544
311.4555, 626.4649
311.9376, 620.7896
312.4197, 608.6380
312.9018, 595.6826
313.3839, 583.5275
313.8661, 573.1456
314.3482, 567.5294
314.8303, 571.1710
315.3124, 579.0140
315.7945, 582.1656
316.2766, 580.1326
316.7588, 576.2398
317.2409, 571.2818
317.7230, 565.8705
318.2051, 561.2166
318.6872, 558.3340
319.1693, 554.7347
319.6515, 547.2401
320.1336, 537.0266
320.6157, 529.2569
321.0978, 525.8395
321.5799, 525.4573
322.0620, 527.1741
322.5442, 531.9000
323.0263, 533.3672
323.5084, 527.1667
323.9905, 517.8411
324.4726, 511.7260
324.9547, 509.8445
325.4369, 508.1911
325.9190, 502.4780
326.4011, 492.1687
326.8832, 484.9710
327.3653, 483.9820
327.8474, 483.1065
328.3296, 478.2966
328.8117, 470.5948
329.2938, 463.3649
329.7759, 458.3963
330.2580, 455.6570
330.7401, 455.1852
331.2223, 462.0175
331.7044, 464.8538
332.1865, 460.1065
332.6686, 451.9019
333.1507, 444.1500
333.6328, 438.2013
334.1150, 433.7807
334.5971, 430.7963
335.0792, 430.6147
335.5613, 428.1063
336.0434, 420.0800
336.5255, 412.8210
337.0077, 410.5945
337.4898, 412.3240
337.9719, 413.6908
338.4540, 411.0356
338.9361, 404.9223
339.4182, 400.4842
339.9004, 398.8453
340.3825, 397.3407
340.8646, 394.9438
341.3467, 392.2816
341.8288, 390.0018
342.3109, 388.2442
342.7931, 387.3892
343.2752, 388.9361
343.7573, 393.6053
344.2394, 395.4094
344.7215, 390.4413
345.2036, 383.9883
345.6858, 379.8051
346.1679, 378.1171
346.6500, 378.2494
347.1321, 381.4778
347.6142, 386.1802
348.0963, 387.2827
348.5785, 383.2718
349.0606, 378.8360
349.5427, 378.3811
350.0248, 380.5504
350.5069, 381.3254
350.9890, 378.6145
351.4712, 375.3586
351.9533, 374.2535
352.4354, 374.8825
352.9175, 374.7834
353.3996, 372.3510
353.8817, 368.9921
354.3639, 368.6920
354.8460, 372.5956
355.3281, 376.3637
355.8102, 379.6773
356.2923, 382.0659
356.7744, 381.8000
357.2566, 378.8180
357.7387, 376.9839
358.2208, 381.3981
358.7029, 394.3590
359.1850, 400.4050
359.6671, 393.8607
360.1493, 387.1148
360.6314, 386.1158
361.1135, 389.2585
361.5956, 392.3709
362.0777, 393.0771
362.5598, 391.6944
363.0420, 389.2070
363.5241, 383.8969
364.0062, 380.3235
364.4883, 380.7513
364.9704, 381.8585
365.4525, 380.4156
365.9347, 375.9392
366.4168, 371.0471
366.8989, 368.3492
367.3810, 367.8391
367.8631, 369.6932
368.3452, 377.5084
368.8274, 383.2949
369.3095, 381.1254
369.7916, 373.9750
370.2737, 369.1972
370.7558, 371.8311
371.2379, 377.4825
371.7201, 378.2537
372.2022, 373.6090
372.6843, 369.2829
373.1664, 368.0988
373.6485, 368.3627
374.1306, 367.0743
374.6128, 363.3469
375.0949, 360.9577
375.5770, 362.4026
376.0591, 366.4902
376.5412, 371.6398
377.0233, 377.8508
377.5055, 382.5343
377.9876, 382.1926
378.4697, 376.1328
378.9518, 373.2595
379.4339, 376.1427
379.9160, 380.0246
380.3982, 382.4445
380.8803, 383.5346
381.3624, 384.3370
381.8445, 385.5358
382.3266, 386.4277
382.8087, 384.8042
383.2909, 376.8802
383.7730, 371.3981
384.2551, 370.1501
384.7372, 370.3392
385.2193, 369.1391
385.7014, 366.4438
386.1836, 364.9107
386.6657, 368.2643
387.1478, 376.9946
387.6299, 380.7627
388.1120, 374.2432
388.5941, 368.7810
389.0763, 369.2546
389.5584, 372.8911
390.0405, 375.0002
390.5226, 373.2399
391.0047, 370.1652
391.4868, 370.6960
391.9690, 375.5064
392.4511, 377.0923
392.9332, 369.4953
393.4153, 361.5942
393.8974, 363.7831
394.3795, 375.9751
394.8617, 384.6039
395.3438, 378.8275
395.8259, 366.6969
396.3080, 362.5757
396.7901, 368.0981
397.2722, 374.2604
397.7544, 374.6552
398.2365, 370.3725
398.7186, 368.0232
399.2007, 367.8418
399.6828, 369.2742
400.1649, 374.2724
400.6471, 380.2486
401.1292, 382.5751
401.6113, 379.7178
402.0934, 374.1486
402.5755, 369.1182
403.0576, 363.6983
403.5398, 362.1164
404.0219, 368.3903
404.5040, 374.2125
404.9861, 374.2600
405.4682, 370.2204
405.9503, 367.1849
406.4325, 368.5948
406.9146, 372.8871
407.3967, 374.2975
407.8788, 371.0219
408.3609, 368.5493
408.8430, 369.1984
409.3252, 370.1663
409.8073, 368.7224
410.2894, 364.6284
410.7715, 360.7985
411.2536, 359.8723
411.7357, 361.4108
412.2179, 363.3168
412.7000, 365.5911
413.1821, 367.8980
413.6642, 370.4958
414.1463, 372.9265
414.6284, 374.0844
415.1106, 373.8089
415.5927, 372.1624
416.0748, 367.2570
416.5569, 360.7744
417.0390, 358.9594
417.5211, 364.8326
418.0033, 372.8203
418.4854, 374.3826
418.9675, 367.2091
419.4496, 361.0863
419.9317, 355.1975
420.4138, 351.4186
420.8960, 351.6800
421.3781, 355.2790
421.8602, 360.5000
422.3423, 366.7364
422.8244, 372.6743
423.3065, 372.3155
423.7887, 359.3119
424.2708, 349.8406
424.7529, 345.2249
425.2350, 344.6477
425.7171, 349.6981
426.1992, 359.4351
426.6814, 367.7758
427.1635, 367.0083
427.6456, 358.2304
428.1277, 355.4936
428.6098, 362.6029
429.0919, 368.4389
429.5741, 364.2270
430.0562, 355.9267
430.5383, 352.8880
431.0204, 359.2559
431.5025, 367.0666
431.9846, 370.4739
432.4668, 369.9743
432.9489, 366.3186
433.4310, 358.6183
433.9131, 351.5109
434.3952, 350.8916
434.8773, 357.4532
435.3595, 364.0918
435.8416, 373.4476
436.3237, 380.0652
436.8058, 378.4565
437.2879, 371.3296
437.7701, 365.7788
438.2522, 365.5077
438.7343, 368.5435
439.2164, 369.9318
439.6985, 368.9347
440.1806, 367.4997
440.6628, 365.1585
441.1449, 362.8646
441.6270, 360.4718
442.1091, 358.5354
442.5912, 358.7204
443.0733, 363.1532
443.5555, 370.3505
444.0376, 374.2792
444.5197, 373.8246
445.0018, 373.2314
445.4839, 374.8690
445.9660, 376.7517
446.4482, 376.8768
446.9303, 374.8946
447.4124, 371.9902
447.8945, 368.3569
448.3766, 364.4109
448.8587, 360.9470
449.3409, 358.0399
449.8230, 355.7988
450.3051, 354.2108
450.7872, 353.3737
451.2693, 353.7233
451.7514, 355.6608
452.2336, 358.2082
452.7157, 362.7522
453.1978, 367.0975
453.6799, 367.8345
454.1620, 364.1054
454.6441, 358.0811
455.1263, 351.9394
455.6084, 344.8612
456.0905, 342.3450
456.5726, 349.0872
457.0547, 355.7884
457.5368, 359.9436
458.0190, 362.1415
458.5011, 363.6026
458.9832, 364.8416
459.4653, 365.5174
459.9474, 364.6580
460.4295, 362.2273
460.9117, 361.2304
461.3938, 363.6646
461.8759, 365.7142
462.3580, 363.1004
462.8401, 356.7809
463.3222, 351.7589
463.8044, 348.7509
464.2865, 348.0827
464.7686, 352.0826
465.2507, 359.1830
465.7328, 363.1169
466.2149, 360.8813
466.6971, 355.0458
467.1792, 350.4589
467.6613, 346.8931
468.1434, 345.3424
468.6255, 346.9974
469.1076, 349.5851
469.5898, 352.9392
470.0719, 356.0502
470.5540, 356.1837
471.0361, 350.9500
471.5182, 343.3954
472.0003, 343.2154
472.4825, 353.8266
472.9646, 362.4965
473.4467, 366.7966
473.9288, 367.9628
474.4109, 364.8400
474.8930, 358.1823
475.3752, 353.3280
475.8573, 356.2278
476.3394, 361.7343
476.8215, 359.2605
477.3036, 348.5020
477.7857, 340.7039
478.2679, 342.4188
478.7500, 349.8758
479.2321, 353.8148
479.7142, 352.5341
480.1963, 352.5186
480.6784, 357.7625
481.1606, 362.9403
481.6427, 361.6191
482.1248, 354.6194
482.6069, 348.7863
483.0890, 349.3921
483.5711, 355.2511
484.0533, 360.0499
484.5354, 365.4571
485.0175, 366.7636
485.4996, 360.2661
485.9817, 352.0978
486.4638, 347.2657
486.9460, 346.1681
487.4281, 345.7639
487.9102, 343.5256
488.3923, 340.1574
488.8744, 337.0963
489.3565, 333.8412
489.8387, 334.2654
490.3208, 343.4138
490.8029, 355.8991
491.2850, 360.0858
491.7671, 352.7364
492.2492, 346.6449
492.7314, 346.8518
493.2135, 350.1696
493.6956, 354.0052
494.1777, 357.5974
494.6598, 359.5669
495.1419, 358.6629
495.6241, 355.3580
496.1062, 352.6635
496.5883, 350.5208
497.0704, 349.1703
497.5525, 349.5369
498.0346, 350.0384
498.5168, 348.5786
498.9989, 345.4277
499.4810, 343.6461
499.9631, 346.9139
500.4452, 353.5291
500.9273, 356.8210
501.4095, 356.2114
501.8916, 354.5817
502.3737, 351.8211
502.8558, 349.6071
503.3379, 351.0592
503.8200, 357.4975
504.3022, 362.1931
504.7843, 362.5724
505.2664, 359.9088
505.7485, 353.5539
506.2306, 344.6066
506.7127, 339.4015
507.1949, 342.8970
507.6770, 352.4370
508.1591, 356.3264
508.6412, 349.8379
509.1233, 344.3914
509.6054, 339.5442
510.0876, 336.6966
510.5697, 337.9076
511.0518, 342.4581
511.5339, 347.1214
512.0161, 349.9629
512.4982, 351.0105
512.9803, 349.9013
513.4624, 346.2565
513.9445, 342.6494
514.4266, 339.0028
514.9088, 336.7420
515.3909, 338.8008
515.8730, 345.7940
516.3551, 349.2491
516.8372, 343.0300
517.3193, 334.8071
517.8015, 332.0436
518.2836, 334.0109
518.7657, 335.7637
519.2478, 334.6264
519.7299, 331.9657
520.2120, 331.0647
520.6942, 332.9134
521.1763, 334.6817
521.6584, 337.3023
522.1405, 338.9924
522.6226, 338.1645
523.1047, 335.6120
523.5869, 333.3964
524.0690, 332.6154
524.5511, 332.6510
525.0332, 332.1313
525.5153, 331.0710
525.9974, 332.2353
526.4796, 337.8827
526.9617, 343.3376
527.4438, 341.9558
527.9259, 334.7647
528.4080, 331.1014
528.8901, 336.0357
529.3723, 341.1142
529.8544, 340.0114
530.3365, 335.6917
530.8186, 334.9550
531.3007, 339.9902
531.7828, 345.7312
532.2650, 344.6505
532.7471, 335.1447
533.2292, 328.7556
533.7113, 326.4260
534.1934, 326.3530
534.6755, 329.8305
535.1577, 334.4857
535.6398, 336.9371
536.1219, 336.0485
536.6040, 334.6053
537.0861, 335.4640
537.5682, 337.8625
538.0504, 339.7532
538.5325, 341.0948
539.0146, 340.1439
539.4967, 334.2991
539.9788, 325.2120
540.4609, 321.1744
540.9431, 325.9699
541.4252, 329.9721
541.9073, 330.6775
542.3894, 330.0922
542.8715, 330.9474
543.3536, 332.8776
543.8358, 332.0014
544.3179, 323.9524
544.8000, 311.8474
545.2821, 311.0507
545.7642, 327.6235
546.2463, 338.8518
546.7285, 334.7126
547.2106, 326.1395
547.6926, 319.9150
548.1747, 316.5923
548.6569, 316.9405
549.1390, 324.7836
549.6211, 334.0407
550.1032, 337.1770
550.5853, 335.4712
551.0674, 335.4225
551.5496, 339.9945
552.0317, 345.4465
552.5138, 345.3866
552.9959, 337.2304
553.4780, 332.2991
553.9601, 333.5168
554.4423, 334.3271
554.9244, 329.5719
555.4065, 323.4507
555.8886, 324.0482
556.3707, 334.5524
556.8528, 345.9541
557.3350, 346.4694
557.8171, 337.4319
558.2992, 329.1872
558.7813, 322.0210
559.2634, 317.8437
559.7455, 319.6044
560.2277, 325.2024
560.7098, 327.6257
561.1919, 324.9273
561.6740, 322.3892
562.1561, 321.2066
562.6382, 321.2733
563.1204, 323.4079
563.6025, 327.0110
564.0846, 329.2757
564.5667, 327.8728
565.0488, 324.0699
565.5309, 323.3364
566.0131, 327.9984
566.4952, 329.8411
566.9773, 324.3200
567.4594, 318.0357
567.9415, 314.1501
568.4236, 312.9908
568.9058, 314.9284
569.3879, 323.8365
569.8700, 332.5806
570.3521, 333.4496
570.8342, 328.0243
571.3163, 320.8617
571.7985, 313.1019
572.2806, 306.3615
572.7627, 302.3365
573.2448, 300.8651
573.7269, 303.7096
574.2090, 316.7100
574.6912, 326.8752
575.1733, 329.7037
575.6554, 328.6745
576.1375, 327.3301
576.6196, 326.6176
577.1017, 326.2664
577.5839, 326.7489
578.0660, 327.3892
578.5481, 324.8866
579.0302, 318.5718
579.5123, 314.9304
579.9944, 318.0746
580.4766, 324.6104
580.9587, 328.0156
581.4408, 327.8943
581.9229, 327.1999
582.4050, 325.5971
582.8871, 324.1955
583.3693, 323.9301
583.8514, 324.4329
584.3335, 325.1268
584.8156, 325.7598
585.2977, 325.4884
585.7798, 321.9235
586.2620, 314.4651
586.7441, 311.1666
587.2262, 314.2350
587.7083, 318.4683
588.1904, 322.0412
588.6725, 324.5308
589.1547, 324.6477
589.6368, 320.8396
590.1189, 318.3470
590.6010, 321.2323
591.0831, 326.0170
591.5652, 328.4833
592.0474, 328.2907
592.5295, 326.8211
593.0116, 324.9448
593.4937, 322.5440
593.9758, 318.7771
594.4579, 311.5290
594.9401, 307.9954
595.4222, 312.5710
595.9043, 317.5943
596.3864, 319.4306
596.8685, 318.6617
597.3506, 316.9798
597.8328, 314.0563
598.3149, 312.2893
598.7970, 315.8784
599.2791, 322.1454
599.7612, 322.6411
600.2433, 315.7138
600.7255, 310.4908
601.2076, 315.7249
601.6897, 329.4968
602.1718, 336.0626
602.6539, 328.0030
603.1360, 322.6799
603.6182, 323.2079
604.1003, 325.4487
604.5824, 326.7875
605.0645, 326.9294
605.5466, 326.4807
606.0287, 326.0605
606.5109, 324.8730
606.9930, 319.9833
607.4751, 312.3133
607.9572, 310.0911
608.4393, 316.4008
608.9214, 324.6205
609.4036, 328.6475
609.8857, 328.4411
610.3678, 325.5135
610.8499, 314.6035
611.3320, 307.8894
611.8141, 311.6335
612.2963, 318.7463
612.7784, 323.0488
613.2605, 323.3009
613.7426, 320.1371
614.2247, 312.0271
614.7068, 302.5000
615.1890, 301.5612
615.6711, 309.6478
616.1532, 316.6010
616.6353, 319.6989
617.1174, 320.2251
617.5995, 318.5865
618.0817, 314.7268
618.5638, 313.5111
619.0459, 319.7548
619.5280, 323.3253
620.0101, 317.1734
620.4922, 307.7002
620.9744, 303.1622
621.4565, 304.9163
621.9386, 308.4452
622.4207, 309.6516
622.9028, 309.4010
623.3849, 311.6164
623.8671, 317.0153
624.3492, 320.6539
624.8313, 320.7195
625.3134, 318.7625
625.7955, 316.7136
626.2776, 314.5642
626.7598, 310.6224
627.2419, 299.4229
627.7240, 292.0436
628.2061, 297.8207
628.6882, 309.4975
629.1703, 316.9590
629.6525, 317.6452
630.1346, 314.1405
630.6167, 307.4612
631.0988, 298.9938
631.5809, 297.2091
632.0630, 303.8984
632.5452, 310.3625
633.0273, 314.6397
633.5094, 316.9517
633.9915, 317.5049
634.4736, 316.3625
634.9557, 314.0536
635.4379, 308.7242
635.9200, 304.3221
636.4021, 303.3419
636.8842, 304.6429
637.3663, 306.4792
637.8484, 308.3876
638.3306, 310.9932
638.8127, 315.6464
639.2948, 321.4069
639.7769, 321.6487
640.2590, 314.4732
640.7411, 308.5988
641.2233, 307.6070
641.7054, 307.8893
642.1875, 304.9959
642.6696, 299.3134
643.1517, 295.9318
643.6339, 296.3938
644.1160, 298.8821
644.5981, 305.8620
645.0802, 312.8586
645.5623, 310.8584
646.0444, 299.3080
646.5266, 288.8568
647.0087, 290.0713
647.4908, 300.2663
647.9729, 307.0691
648.4550, 310.0968
648.9371, 310.9631
649.4193, 309.1826
649.9014, 306.3052
650.3835, 302.8689
650.8656, 299.2347
651.3477, 298.2022
651.8298, 303.2915
652.3120, 307.6040
652.7941, 307.4109
653.2762, 304.7644
653.7583, 301.6872
654.2404, 298.9638
654.7225, 297.8856
655.2047, 300.1432
655.6868, 303.9653
656.1689, 302.5384
656.6510, 294.5862
657.1331, 289.2355
657.6152, 288.5669
658.0974, 290.7642
658.5795, 295.9545
659.0616, 303.1127
659.5437, 307.3680
660.0258, 305.6135
660.5079, 304.2408
660.9901, 307.5422
661.4722, 310.9399
661.9543, 307.9840
662.4364, 299.7044
662.9185, 293.4718
663.4006, 294.6469
663.8828, 299.5213
664.3649, 299.5477
664.8470, 294.5167
665.3291, 291.5978
665.8112, 292.2163
666.2933, 294.3040
666.7755, 296.4201
667.2576, 298.7753
667.7397, 302.2783
668.2218, 308.7391
668.7039, 313.3899
669.1860, 316.4994
669.6682, 316.4936
670.1503, 309.3018
670.6324, 297.9663
671.1145, 290.3618
671.5966, 290.4568
672.0787, 295.0463
672.5609, 301.9951
673.0430, 310.2730
673.5251, 310.7608
674.0072, 300.9678
674.4893, 293.2266
674.9714, 295.6614
675.4536, 304.4769
675.9357, 309.9734
676.4178, 311.6144
676.8999, 311.0284
677.3820, 307.0512
677.8641, 302.0688
678.3463, 295.1572
678.8284, 288.8416
679.3105, 287.9100
679.7926, 293.8736
680.2747, 300.5060
680.7568, 302.8622
681.2390, 301.3057
681.7211, 294.1275
682.2032, 281.9077
682.6853, 275.6374
683.1674, 280.8976
683.6495, 291.6596
684.1317, 298.6900
684.6138, 301.1644
685.0959, 304.1538
685.5780, 310.4177
686.0601, 313.8841
686.5422, 311.2278
687.0244, 306.1883
687.5065, 302.1380
687.9886, 299.6685
688.4707, 298.6481
688.9528, 300.6960
689.4349, 302.8572
689.9171, 301.0246
690.3992, 296.4987
690.8813, 293.3129
691.3634, 292.5425
691.8455, 292.1476
692.3276, 290.0080
692.8098, 286.3905
693.2919, 283.6072
693.7740, 281.4734
694.2561, 280.5869
694.7382, 281.2353
695.2203, 283.0591
695.7025, 286.6239
696.1846, 291.2737
696.6667, 294.6027
697.1488, 295.5055
697.6309, 295.7396
698.1130, 296.1119
698.5952, 296.4055
699.0773, 296.0907
699.5594, 295.3453
700.0415, 295.0310
700.5236, 295.6676
701.0057, 297.1114
701.4879, 299.6925
701.9700, 303.5934
702.4521, 304.8307
702.9342, 302.6509
703.4163, 298.6470
703.8984, 291.9163
704.3806, 284.7403
704.8627, 282.9582
705.3448, 288.9087
705.8269, 293.1189
706.3090, 293.1559
706.7911, 292.2650
707.2733, 291.8143
707.7554, 291.9788
708.2375, 293.3098
708.7196, 295.8352
709.2017, 297.3771
709.6838, 294.7564
710.1660, 289.8572
710.6481, 287.6201
711.1302, 287.9817
711.6123, 288.9337
712.0944, 290.0361
712.5765, 290.2115
713.0587, 287.5982
713.5408, 281.9081
714.0229, 279.6303
714.5050, 283.7096
714.9871, 287.2528
715.4692, 288.2558
715.9514, 289.0557
716.4335, 292.7318
716.9156, 298.2846
717.3977, 300.7231
717.8798, 296.6918
718.3619, 290.8095
718.8441, 285.7477
719.3262, 281.7213
719.8083, 278.7538
720.2904, 277.0615
720.7725, 278.1911
721.2546, 283.6320
721.7368, 290.6764
722.2189, 291.8891
722.7010, 285.9263
723.1831, 284.0870
723.6652, 290.5003
724.1473, 294.4381
724.6295, 286.2435
725.1116, 272.9864
725.5937, 269.8908
726.0758, 280.7829
726.5579, 288.6449
727.0400, 287.9970
727.5222, 285.9485
728.0043, 286.9717
728.4864, 289.4011
728.9685, 289.3275
729.4506, 286.0780
729.9327, 284.2225
730.4149, 290.9654
730.8970, 300.7905
731.3791, 299.1550
731.8612, 287.4299
732.3433, 278.1636
732.8254, 274.7251
733.3076, 276.8522
733.7897, 285.9645
734.2718, 300.9154
734.7539, 306.5860
735.2360, 296.4854
735.7181, 287.9035
736.2003, 283.2050
736.6824, 280.1190
737.1645, 277.3396
737.6466, 275.0134
738.1287, 273.7785
738.6108, 273.9078
739.0930, 274.8788
739.5751, 277.5616
740.0572, 280.1534
740.5393, 280.3749
741.0214, 278.5005
741.5035, 275.9765
741.9857, 273.4918
742.4678, 270.9513
742.9499, 266.6781
743.4320, 261.2596
743.9141, 264.7449
744.3962, 279.6900
744.8784, 289.6893
745.3605, 286.5893
745.8426, 278.3775
746.3247, 275.9047
746.8068, 279.9799
747.2889, 282.2868
747.7711, 282.4028
748.2532, 281.4372
748.7353, 277.2515
749.2174, 273.8773
749.6995, 277.2478
750.1816, 285.3298
750.6638, 288.3934
751.1459, 279.1667
751.6280, 268.4386
752.1101, 266.7150
752.5922, 270.3623
753.0743, 272.9972
753.5565, 273.8147
754.0386, 273.9101
754.5207, 273.7861
755.0028, 274.2555
755.4849, 277.8798
755.9670, 285.4572
756.4492, 288.1786
756.9313, 284.2690
757.4134, 279.5056
757.8955, 275.5875
758.3776, 272.7493
758.8597, 271.7795
759.3419, 272.9282
759.8240, 273.0527
760.3061, 268.2381
760.7882, 266.7504
761.2703, 276.9329
761.7524, 288.5721
762.2346, 289.2472
762.7167, 279.5172
763.1988, 270.4994
763.6809, 268.6360
764.1630, 269.9588
764.6451, 270.9628
765.1273, 271.3807
765.6094, 268.9045
766.0915, 263.9863
766.5736, 264.3805
767.0557, 275.8012
767.5378, 291.1593
768.0200, 293.7469
768.5021, 280.6668
768.9842, 272.4028
769.4663, 270.7008
769.9484, 270.7597
770.4305, 271.0567
770.9127, 271.6541
771.3948, 272.9980
771.8769, 275.2592
772.3590, 276.0493
772.8411, 273.6259
773.3232, 271.4377
773.8054, 270.3385
774.2875, 270.4547
774.7696, 273.5009
775.2517, 278.2176
775.7338, 278.8882
776.2159, 269.9385
776.6981, 260.8809
777.1802, 265.3293
777.6623, 277.1000
778.1444, 281.4001
778.6265, 277.1601
779.1086, 272.1391
779.5908, 270.7516
780.0729, 270.5564
780.5550, 265.8449
781.0371, 255.4869
781.5192, 253.0381
782.0013, 261.9677
782.4835, 269.5974
782.9656, 270.9943
783.4477, 268.9015
783.9298, 266.2789
784.4119, 263.1109
784.8940, 260.2821
785.3762, 255.9437
785.8583, 254.4100
786.3404, 258.4958
786.8225, 264.5464
787.3046, 270.6796
787.7867, 275.9162
788.2689, 278.4731
788.7510, 277.1028
789.2331, 274.5815
789.7152, 272.2358
790.1973, 270.7758
790.6794, 272.2612
791.1616, 275.9030
791.6437, 277.7966
792.1258, 276.2679
792.6079, 274.1030
793.0900, 276.2648
793.5721, 281.7227
794.0543, 278.0519
794.5364, 262.7346
795.0185, 254.9448
795.5006, 262.9348
795.9827, 274.3710
796.4648, 277.7686
796.9470, 273.6663
797.4291, 267.7863
797.9112, 254.5341
798.3933, 247.6755
798.8754, 253.1423
799.3575, 259.8689
799.8397, 260.7582
800.3218, 258.5483
800.8039, 259.6683
801.2860, 266.2856
801.7681, 271.1024
802.2502, 269.1617
802.7324, 264.9588
803.2145, 261.4310
803.6966, 259.0820
804.1787, 257.7458
804.6608, 257.7310
805.1429, 261.5614
805.6251, 273.7820
806.1072, 287.9522
806.5893, 288.0800
807.0714, 276.2047
807.5535, 267.6444
808.0356, 265.0464
808.5178, 265.0060
808.9999, 265.6427
809.4820, 266.4848
809.9641, 266.2822
810.4462, 264.7191
810.9283, 263.3928
811.4105, 263.6174
811.8926, 261.8588
812.3747, 252.7010
812.8568, 243.5820
813.3389, 245.1476
813.8210, 257.3656
814.3032, 264.1985
814.7853, 258.1154
815.2674, 252.9081
815.7495, 255.3463
816.2316, 259.0778
816.7137, 257.2823
817.1959, 251.4073
817.6780, 247.3421
818.1601, 247.3958
818.6422, 250.5529
819.1243, 259.0522
819.6064, 268.3697
820.0886, 270.6782
820.5707, 267.1978
821.0528, 263.2310
821.5349, 260.7699
822.0170, 260.2232
822.4991, 262.5162
822.9813, 266.8231
823.4634, 269.9355
823.9455, 271.9097
824.4276, 271.5209
824.9097, 267.9449
825.3918, 264.1359
825.8740, 262.0038
826.3561, 261.5794
826.8382, 263.2757
827.3203, 269.4917
827.8024, 272.2396
828.2845, 268.1960
828.7667, 264.7437
829.2488, 266.2577
829.7309, 268.7619
830.2130, 266.5731
830.6951, 259.4318
831.1772, 254.9236
831.6594, 257.4247
832.1415, 259.7702
832.6236, 258.9898
833.1057, 256.4522
833.5878, 251.8341
834.0699, 246.8198
834.5521, 246.3091
835.0342, 253.3241
835.5163, 260.5445
835.9984, 259.7665
836.4805, 255.5621
836.9626, 255.3688
837.4448, 258.7795
837.9269, 263.6703
838.4090, 269.0196
838.8911, 271.0559
839.3732, 264.7142
839.8553, 252.7838
840.3375, 244.8868
840.8196, 241.0280
841.3017, 241.7336
841.7838, 247.9414
842.2659, 254.8888
842.7480, 260.1072
843.2302, 262.8720
843.7123, 260.6713
844.1944, 250.2267
844.6765, 246.0102
845.1586, 252.5928
845.6407, 258.5877
846.1229, 260.1841
846.6050, 259.4477
847.0871, 258.1845
847.5692, 256.4036
848.0513, 253.7046
848.5334, 247.3586
849.0156, 243.6949
849.4977, 246.6517
849.9798, 250.9371
850.4619, 252.5909
850.9440, 252.2572
851.4261, 252.0476
851.9083, 252.6152
852.3904, 253.2387
852.8725, 254.2740
853.3546, 254.4330
853.8367, 250.2826
854.3188, 244.8241
854.8010, 245.2767
855.2831, 252.1249
855.7652, 258.2883
856.2473, 258.2084
856.7294, 255.5775
857.2115, 257.4020
857.6937, 262.4710
858.1758, 265.9409
858.6579, 267.2568
859.1400, 264.7953
859.6221, 257.3225
860.1042, 249.1392
860.5864, 246.7271
861.0685, 249.8322
861.5506, 250.8618
862.0327, 249.2979
862.5148, 247.4451
862.9969, 244.8770
863.4791, 244.0029
863.9612, 247.6191
864.4433, 254.2048
864.9254, 258.3149
865.4075, 260.3980
865.8896, 259.0272
866.3718, 249.1982
866.8539, 242.0197
867.3360, 243.0623
867.8181, 247.6705
868.3002, 251.1567
868.7823, 253.1177
869.2645, 254.0337
869.7466, 254.0800
870.2287, 253.0263
870.7108, 250.2139
871.1929, 246.7297
871.6750, 242.0620
872.1572, 237.8391
872.6393, 238.0594
873.1214, 244.2434
873.6035, 250.2755
874.0856, 251.7675
874.5677, 250.7982
875.0499, 249.0145
875.5320, 246.8147
876.0141, 244.7574
876.4962, 242.9914
876.9783, 241.2942
877.4604, 239.2537
877.9426, 238.2810
878.4247, 242.1894
878.9068, 249.1096
879.3889, 251.9019
879.8710, 250.2600
880.3531, 246.2513
880.8353, 240.4992
881.3174, 236.2678
881.7995, 238.0980
882.2816, 244.6569
882.7637, 247.6763
883.2458, 247.0267
883.7280, 242.7856
884.2101, 233.0769
884.6922, 226.2375
885.1743, 228.6142
885.6564, 236.3443
886.1385, 241.1613
886.6207, 242.6613
887.1028, 242.9066
887.5849, 240.7186
888.0670, 239.1919
888.5491, 239.9473
889.0313, 240.9651
889.5134, 239.1603
889.9955, 235.8338
890.4776, 237.1785
890.9597, 248.2934
891.4418, 255.5647
891.9240, 257.9035
892.4061, 255.1690
892.8882, 241.2301
893.3703, 225.4414
893.8524, 221.7335
894.3345, 231.0292
894.8167, 239.3847
895.2988, 241.4426
895.7809, 240.8980
896.2630, 237.9166
896.7451, 234.7023
897.2272, 233.4520
897.7094, 234.0146
898.1915, 235.9294
898.6736, 239.0564
899.1557, 240.7312
899.6378, 235.2946
900.1199, 230.0275
900.6021, 237.0886
901.0842, 250.3802
901.5663, 256.4733
902.0484, 253.7482
902.5305, 248.6745
903.0126, 244.9043
903.4948, 243.1317
903.9769, 246.0793
904.4590, 251.6290
904.9411, 252.8523
905.4232, 249.8552
905.9053, 245.4373
906.3875, 240.5486
906.8696, 236.5352
907.3517, 234.6867
907.8338, 234.7421
908.3159, 236.4671
908.7980, 239.8850
909.2802, 241.0747
909.7623, 239.3146
910.2444, 237.8080
910.7265, 238.2740
911.2086, 239.1599
911.6907, 237.7839
912.1729, 234.2274
912.6550, 235.1589
913.1371, 243.1793
913.6192, 247.0912
914.1013, 242.8196
914.5834, 238.3335
915.0656, 240.1059
915.5477, 244.4550
916.0298, 242.0142
916.5119, 228.9165
916.9940, 223.6422
917.4761, 232.2116
917.9583, 240.0887
918.4404, 245.7473
918.9225, 247.9297
919.4046, 243.4056
919.8867, 234.3956
920.3688, 229.1257
920.8510, 229.8545
921.3331, 230.6188
921.8152, 231.0422
922.2973, 230.7814
922.7794, 228.9156
923.2615, 226.7731
923.7437, 225.3135
924.2258, 224.9184
924.7079, 227.0693
925.1900, 235.3114
925.6721, 241.0470
926.1542, 238.4877
926.6364, 234.1845
927.1185, 233.7199
927.6006, 235.1605
928.0827, 233.9097
928.5648, 229.2907
929.0469, 226.0516
929.5291, 228.4510
930.0112, 231.3247
930.4933, 230.0883
930.9754, 227.5954
931.4575, 227.0442
931.9396, 228.5730
932.4218, 232.0970
932.9039, 237.5034
933.3860, 241.0258
933.8681, 237.9666
934.3502, 232.3736
934.8323, 228.3320
935.3145, 226.1656
935.7966, 227.5070
936.2787, 231.6572
936.7608, 235.2106
937.2429, 236.4181
937.7250, 235.3456
938.2072, 229.3839
938.6893, 222.2800
939.1714, 224.1518
939.6535, 232.8852
940.1356, 240.1482
940.6177, 243.9129
941.0999, 245.2429
941.5820, 245.0042
942.0641, 242.1941
942.5462, 231.7998
943.0283, 216.7416
943.5104, 213.8657
943.9926, 222.9727
944.4747, 232.6631
944.9568, 239.5009
945.4389, 243.5375
945.9210, 244.7682
946.4031, 243.2991
946.8853, 237.6926
947.3674, 227.9997
947.8495, 226.6948
948.3316, 235.5632
948.8137, 240.3132
949.2958, 234.5159
949.7780, 227.4672
950.2601, 230.3956
950.7422, 240.5028
951.2243, 241.9442
951.7064, 232.9290
952.1885, 226.6981
952.6707, 224.4359
953.1528, 225.8442
953.6349, 232.4493
954.1170, 239.1179
954.5991, 238.4396
955.0812, 230.8276
955.5634, 225.2374
956.0455, 221.6502
956.5276, 220.4018
957.0097, 222.5418
957.4918, 224.9204
957.9739, 225.7674
958.4561, 225.9336
958.9382, 226.7606
959.4203, 228.2771
959.9024, 230.2762
960.3845, 234.5480
960.8666, 235.5137
961.3488, 229.3658
961.8309, 223.8735
962.3130, 224.7094
962.7951, 228.9051
963.2772, 230.5045
963.7593, 228.8102
964.2415, 228.2470
964.7236, 229.1185
965.2057, 230.6819
965.6878, 233.6512
966.1699, 236.4691
966.6520, 239.5954
967.1342, 241.5277
967.6163, 237.6448
968.0984, 224.8172
968.5805, 218.4285
969.0626, 224.9679
969.5447, 230.2858
970.0269, 229.5277
970.5090, 227.4753
970.9911, 228.4930
971.4732, 231.0591
971.9553, 230.1819
972.4374, 223.2074
972.9196, 220.6978
973.4017, 229.8969
973.8838, 236.3581
974.3659, 232.5747
974.8480, 225.9463
975.3301, 223.7270
975.8123, 224.2865
976.2944, 220.4681
976.7765, 207.6725
977.2586, 202.1667
977.7407, 215.1505
978.2228, 226.9522
978.7050, 226.6746
979.1871, 222.8652
979.6692, 225.1492
980.1513, 231.8320
980.6334, 234.0485
981.1155, 227.7202
981.5977, 223.7440
982.0798, 227.5409
982.5619, 231.9104
983.0440, 234.4895
983.5261, 234.7684
984.0082, 231.6194
984.4904, 225.8114
984.9725, 219.8649
985.4546, 213.5575
985.9367, 209.7925
986.4188, 210.6483
986.9009, 213.1483
987.3831, 215.3185
987.8652, 218.3177
988.3473, 225.7773
988.8294, 235.7282
989.3115, 239.0880
989.7936, 229.8997
990.2758, 223.5299
990.7579, 232.5977
991.2400, 239.6033
991.7221, 229.2429
992.2042, 213.0023
992.6863, 204.6135
993.1685, 204.7428
993.6506, 207.3790
994.1327, 211.1023
994.6148, 215.4799
995.0969, 223.2658
995.5790, 228.4782
996.0612, 224.6143
996.5433, 217.3106
997.0254, 213.0142
997.5075, 212.4511
997.9896, 214.4360
998.4717, 220.0614
998.9539, 223.6160
999.4360, 220.5830
999.9181, 216.5854
1000.400, 214.9134
1000.882, 215.0313
1001.364, 216.9938
1001.847, 219.9148
1002.329, 220.5860
1002.811, 216.7258
1003.293, 214.2337
1003.775, 217.8220
1004.257, 221.6166
1004.739, 220.4394
1005.221, 217.8116
1005.703, 218.4917
1006.186, 222.3168
1006.668, 226.7182
1007.150, 232.3129
1007.632, 233.2878
1008.114, 222.0548
1008.596, 210.8015
1009.078, 206.7827
1009.560, 207.7623
1010.043, 212.9658
1010.525, 220.1759
1011.007, 223.0762
1011.489, 218.6295
1011.971, 213.9311
1012.453, 210.3285
1012.935, 209.3128
1013.417, 214.0013
1013.899, 220.1645
1014.382, 223.6109
1014.864, 224.0946
1015.346, 222.3223
1015.828, 217.4978
1016.310, 214.7517
1016.792, 219.2850
1017.274, 222.5872
1017.756, 217.2618
1018.239, 210.5586
1018.721, 211.3315
1019.203, 217.3483
1019.685, 219.6132
1020.167, 215.0600
1020.649, 211.8510
1021.131, 213.5767
1021.613, 216.0637
1022.095, 218.2242
1022.578, 219.5542
1023.060, 219.7869
1023.542, 218.8445
1024.024, 216.0912
1024.506, 210.8272
1024.988, 207.6657
1025.470, 209.7773
1025.952, 211.6188
1026.435, 210.3280
1026.917, 208.7103
1027.399, 208.7956
1027.881, 210.3960
1028.363, 213.3640
1028.845, 218.1010
1029.327, 220.4324
1029.809, 216.5912
1030.292, 214.4330
1030.774, 217.5210
1031.256, 221.4931
1031.738, 223.9304
1032.220, 224.9493
1032.702, 224.9045
1033.184, 223.7890
1033.666, 222.1055
1034.148, 217.4036
1034.630, 215.8074
1035.113, 221.2850
1035.595, 226.8765
1036.077, 228.5117
1036.559, 228.0134
1037.041, 228.7600
1037.523, 230.9314
1038.005, 229.0979
1038.487, 217.4267
1038.970, 211.1891
1039.452, 214.6341
1039.934, 219.2798
1040.416, 222.4547
1040.898, 224.1085
1041.380, 224.4328
1041.862, 223.3041
1042.344, 218.9365
1042.826, 207.6704
1043.309, 201.4504
1043.791, 202.7882
1044.273, 205.4338
1044.755, 208.4631
1045.237, 209.8199
1045.719, 206.2839
1046.201, 199.5804
1046.683, 197.8574
1047.166, 202.4903
1047.648, 207.7079
1048.130, 214.2820
1048.612, 219.0113
1049.094, 220.8238
1049.576, 220.7557
1050.058, 219.5078
1050.540, 217.2239
1051.022, 214.1469
1051.505, 210.1565
1051.987, 206.2469
1052.469, 202.0325
1052.951, 201.1167
1053.433, 205.1050
1053.915, 208.0701
1054.397, 205.6220
1054.879, 201.1401
1055.361, 200.9863
1055.844, 204.7709
1056.326, 207.9678
1056.808, 210.5987
1057.290, 213.0133
1057.772, 215.2812
1058.254, 216.4659
1058.736, 216.0246
1059.218, 214.7426
1059.701, 212.8681
1060.183, 211.6419
1060.665, 218.0411
1061.147, 229.5086
1061.629, 230.0415
1062.111, 219.3533
1062.593, 209.8557
1063.075, 206.4956
1063.557, 208.3326
1064.040, 216.3181
1064.522, 225.1729
1065.004, 223.6648
1065.486, 215.9419
1065.968, 211.5255
1066.450, 210.5862
1066.932, 211.0439
1067.414, 212.0706
1067.896, 212.8076
1068.379, 212.6951
1068.861, 211.9519
1069.343, 210.0902
1069.825, 208.3081
1070.307, 208.4855
1070.789, 209.9714
1071.271, 212.1031
1071.753, 214.1049
1072.236, 213.3993
1072.718, 208.2076
1073.200, 204.6545
1073.682, 209.2374
1074.164, 215.0943
1074.646, 217.9539
1075.128, 217.6688
1075.610, 212.0590
1076.093, 203.7957
1076.575, 199.1351
1077.057, 199.7351
1077.539, 203.2155
1078.021, 211.4058
1078.503, 218.4726
1078.985, 222.5705
1079.467, 223.7468
1079.949, 221.0165
1080.432, 215.9371
1080.914, 209.9137
1081.396, 203.3977
1081.878, 200.2923
1082.360, 204.3712
1082.842, 207.1643
1083.324, 205.8434
1083.806, 204.8483
1084.288, 207.4943
1084.771, 210.4687
1085.253, 209.0914
1085.735, 204.6709
1086.217, 203.8048
1086.699, 208.1758
1087.181, 211.8308
1087.663, 216.2533
1088.145, 216.4505
1088.628, 208.2013
1089.110, 200.9676
1089.592, 202.4279
1090.074, 208.6826
1090.556, 211.1060
1091.038, 209.4920
1091.520, 210.2448
1092.002, 213.9817
1092.484, 216.0079
1092.967, 215.4337
1093.449, 214.1775
1093.931, 213.3413
1094.413, 211.2236
1094.895, 204.6831
1095.377, 196.2359
1095.859, 196.9944
1096.341, 205.2963
1096.823, 207.4103
1097.306, 202.9377
1097.788, 199.5887
1098.270, 199.8795
1098.752, 201.9949
1099.234, 204.6808
1099.716, 207.6361
1100.198, 210.8118
1100.680, 213.6989
1101.163, 214.8891
1101.645, 214.9955
1102.127, 216.7997
1102.609, 219.5489
1103.091, 216.9480
1103.573, 205.6140
1104.055, 196.8067
1104.537, 203.1461
1105.020, 212.7031
1105.502, 216.2034
1105.984, 215.2414
1106.466, 209.4531
1106.948, 201.8658
1107.430, 198.6480
1107.912, 200.8657
1108.394, 202.8548
1108.876, 203.5894
1109.359, 201.7407
1109.841, 193.2403
1110.323, 186.0219
1110.805, 186.4654
1111.287, 189.9152
1111.769, 189.5466
1112.251, 186.4234
1112.733, 188.2876
1113.215, 199.0868
1113.698, 206.7097
1114.180, 210.2379
1114.662, 211.4061
1115.144, 209.5781
1115.626, 206.8979
1116.108, 204.5228
1116.590, 202.4838
1117.072, 200.6463
1117.555, 199.0030
1118.037, 199.8033
1118.519, 203.7251
1119.001, 206.3969
1119.483, 207.3783
1119.965, 206.3080
1120.447, 202.7336
1120.929, 199.0403
1121.411, 197.6379
1121.894, 198.0674
1122.376, 199.5388
1122.858, 201.8194
1123.340, 204.0934
1123.822, 206.0835
1124.304, 206.6927
1124.786, 205.6712
1125.268, 202.9700
1125.750, 198.4463
1126.233, 194.3168
1126.715, 193.0611
1127.197, 193.7551
1127.679, 197.1132
1128.161, 200.3064
1128.643, 196.2070
1129.125, 188.4588
1129.607, 188.8787
1130.090, 199.5764
1130.572, 208.0755
1131.054, 207.0181
1131.536, 204.2756
1132.018, 204.4481
1132.500, 203.7888
1132.982, 196.6222
1133.464, 189.4042
1133.947, 191.3955
1134.429, 200.5739
1134.911, 206.9139
1135.393, 209.4466
1135.875, 208.3514
1136.357, 198.6966
1136.839, 192.7665
1137.321, 193.8655
1137.803, 197.5280
1138.286, 202.8175
1138.768, 207.3387
1139.250, 207.3989
1139.732, 203.3689
1140.214, 197.9776
1140.696, 190.4201
1141.178, 188.4430
1141.660, 193.1382
1142.142, 196.6451
1142.625, 196.4326
1143.107, 194.4276
1143.589, 191.7112
1144.071, 190.2236
1144.553, 194.2434
1145.035, 201.9213
1145.517, 209.1268
1145.999, 214.8126
1146.482, 214.7700
1146.964, 209.9605
1147.446, 206.9623
1147.928, 207.9571
1148.410, 206.6149
1148.892, 195.3701
1149.374, 184.8461
1149.856, 185.2949
1150.339, 190.3386
1150.821, 196.3467
1151.303, 200.9759
1151.785, 199.4413
1152.267, 193.7388
1152.749, 194.3330
1153.231, 206.4104
1153.713, 214.1191
1154.195, 212.6811
1154.677, 208.0782
1155.160, 198.2368
1155.642, 190.0155
1156.124, 187.5486
1156.606, 189.1992
1157.088, 193.8460
1157.570, 200.8578
1158.052, 202.0870
1158.534, 195.4873
1159.017, 192.8155
1159.499, 195.3373
1159.981, 197.7528
1160.463, 198.5306
1160.945, 198.5678
1161.427, 198.5398
1161.909, 198.0381
1162.391, 195.8319
1162.874, 192.7879
1163.356, 191.5107
1163.838, 191.9588
1164.320, 196.0865
1164.802, 201.9600
1165.284, 199.7323
1165.766, 187.7496
1166.248, 181.4230
1166.730, 194.0314
1167.213, 207.8009
1167.695, 207.5403
1168.177, 202.4813
1168.659, 199.0705
1169.141, 197.0925
1169.623, 196.8366
1170.105, 196.9989
1170.587, 193.4243
1171.069, 184.4165
1171.552, 179.9457
1172.034, 185.0469
1172.516, 189.6161
1172.998, 191.9372
1173.480, 193.7016
1173.962, 195.2688
1174.444, 197.2354
1174.926, 201.1535
1175.409, 205.2478
1175.891, 202.0226
1176.373, 190.4928
1176.855, 186.4534
1177.337, 190.0689
1177.819, 193.4224
1178.301, 195.0260
1178.783, 196.3097
1179.266, 197.9819
1179.748, 198.5733
1180.230, 196.2164
1180.712, 192.4259
1181.194, 188.6084
1181.676, 185.7726
1182.158, 185.9536
1182.640, 188.4642
1183.122, 192.7178
1183.604, 197.6421
1184.087, 200.1757
1184.569, 198.9834
1185.051, 197.0113
1185.533, 194.1328
1186.015, 192.7699
1186.497, 195.0609
1186.979, 198.0240
1187.461, 201.1707
1187.944, 202.6650
1188.426, 198.8822
1188.908, 191.0549
1189.390, 186.8497
1189.872, 187.1622
1190.354, 188.3829
1190.836, 191.4743
1191.318, 190.3200
1191.801, 182.6431
1192.283, 177.3798
1192.765, 179.8177
1193.247, 185.5708
1193.729, 189.7943
1194.211, 192.2879
1194.693, 191.6657
1195.175, 189.2860
1195.657, 188.8322
1196.140, 189.9063
1196.622, 190.9697
1197.104, 191.4723
1197.586, 190.3799
1198.068, 186.8880
1198.550, 185.4746
1199.032, 190.6169
1199.514, 196.4717
1199.996, 201.7713
1200.479, 204.3635
1200.961, 200.2256
1201.443, 193.7877
1201.925, 193.0441
1202.407, 196.8215
1202.889, 193.0158
1203.371, 175.4215
1203.853, 171.3319
1204.336, 186.5905
1204.818, 195.9200
1205.300, 193.1229
1205.782, 189.1997
1206.264, 189.8850
1206.746, 193.1242
1207.228, 197.2045
1207.710, 200.6173
1208.193, 197.6179
1208.675, 191.5130
1209.157, 193.6389
1209.639, 200.9177
1210.121, 203.1450
1210.603, 199.2518
1211.085, 192.8546
1211.567, 185.2512
1212.049, 181.4772
1212.531, 188.5707
1213.014, 194.9233
1213.496, 193.3915
1213.978, 190.0865
1214.460, 187.9827
1214.942, 187.4968
1215.424, 190.0248
1215.906, 194.2694
1216.388, 195.1348
1216.871, 191.3591
1217.353, 192.7360
1217.835, 201.4815
1218.317, 205.7783
1218.799, 203.6121
1219.281, 199.2373
1219.763, 194.2149
1220.245, 189.8899
1220.728, 187.3836
1221.210, 186.6365
1221.692, 189.2060
1222.174, 192.4471
1222.656, 190.1444
1223.138, 184.5727
1223.620, 179.0287
1224.102, 175.1799
1224.584, 176.4113
1225.067, 183.0699
1225.549, 188.8811
1226.031, 191.8650
1226.513, 192.1787
1226.995, 187.6298
1227.477, 183.3186
1227.959, 180.6012
1228.441, 179.9280
1228.923, 181.9249
1229.406, 185.8201
1229.888, 190.8032
1230.370, 196.5383
1230.852, 198.9167
1231.334, 197.8685
1231.816, 194.9000
1232.298, 190.1814
1232.780, 184.5045
1233.263, 178.3265
1233.745, 173.9387
1234.227, 172.6187
1234.709, 173.7726
1235.191, 179.0821
1235.673, 183.8588
1236.155, 180.9807
1236.637, 176.5047
1237.120, 178.0886
1237.602, 182.4181
1238.084, 183.2948
1238.566, 181.0640
1239.048, 180.5522
1239.530, 183.2567
1240.012, 184.4419
1240.494, 181.6315
1240.976, 181.9737
1241.458, 187.8522
1241.941, 193.2061
1242.423, 195.9222
1242.905, 195.9176
##END=



