##NAMES=Camaronesite
##RRUFFID=R150145
##IDEAL CHEMISTRY=Fe^3+^_2_(PO_3_OH)_2_(S^6+^O_4_)(H_2_O)_4_&#183;1-2H_2_O
##LOCALITY=Camarones Valley, Arica Province, Chile
##OWNER=RRUFF
##SOURCE=Robert Jenkins
##DESCRIPTION=Massive pale pink or mauve
##STATUS=The identification of this mineral has been confirmed by single-crystal X-ray diffraction.
##URL=rruff.info/R150145
8.930109e+001, 0.000000e+000
8.978320e+001, 8.515656e+002
9.026532e+001, 8.488624e+002
9.074744e+001, 8.491614e+002
9.122955e+001, 8.532844e+002
9.171167e+001, 8.603483e+002
9.219379e+001, 8.698953e+002
9.267590e+001, 8.818557e+002
9.315802e+001, 8.920239e+002
9.364014e+001, 8.967412e+002
9.412225e+001, 8.973249e+002
9.460437e+001, 8.967014e+002
9.508649e+001, 8.949407e+002
9.556860e+001, 8.926075e+002
9.605072e+001, 8.923279e+002
9.653284e+001, 8.950486e+002
9.701495e+001, 8.980901e+002
9.749707e+001, 8.981484e+002
9.797919e+001, 8.952884e+002
9.846130e+001, 8.929872e+002
9.894342e+001, 8.919305e+002
9.942554e+001, 8.921133e+002
9.990765e+001, 8.943989e+002
1.003898e+002, 8.991399e+002
1.008719e+002, 9.051078e+002
1.013540e+002, 9.107513e+002
1.018361e+002, 9.162385e+002
1.023182e+002, 9.210466e+002
1.028004e+002, 9.248527e+002
1.032825e+002, 9.272389e+002
1.037646e+002, 9.304750e+002
1.042467e+002, 9.344774e+002
1.047288e+002, 9.393432e+002
1.052109e+002, 9.452009e+002
1.056931e+002, 9.516805e+002
1.061752e+002, 9.596991e+002
1.066573e+002, 9.698640e+002
1.071394e+002, 9.833515e+002
1.076215e+002, 9.968913e+002
1.081036e+002, 1.011003e+003
1.085858e+002, 1.025381e+003
1.090679e+002, 1.038047e+003
1.095500e+002, 1.050088e+003
1.100321e+002, 1.059931e+003
1.105142e+002, 1.066699e+003
1.109963e+002, 1.067024e+003
1.114785e+002, 1.068226e+003
1.119606e+002, 1.071432e+003
1.124427e+002, 1.076572e+003
1.129248e+002, 1.081504e+003
1.134069e+002, 1.086085e+003
1.138890e+002, 1.090279e+003
1.143712e+002, 1.094109e+003
1.148533e+002, 1.097197e+003
1.153354e+002, 1.100249e+003
1.158175e+002, 1.103598e+003
1.162996e+002, 1.107354e+003
1.167817e+002, 1.110777e+003
1.172639e+002, 1.114298e+003
1.177460e+002, 1.117223e+003
1.182281e+002, 1.118662e+003
1.187102e+002, 1.117805e+003
1.191923e+002, 1.115716e+003
1.196744e+002, 1.112671e+003
1.201566e+002, 1.108409e+003
1.206387e+002, 1.104451e+003
1.211208e+002, 1.101693e+003
1.216029e+002, 1.099898e+003
1.220850e+002, 1.098644e+003
1.225671e+002, 1.097953e+003
1.230493e+002, 1.097543e+003
1.235314e+002, 1.096926e+003
1.240135e+002, 1.095639e+003
1.244956e+002, 1.094981e+003
1.249777e+002, 1.097336e+003
1.254598e+002, 1.101788e+003
1.259420e+002, 1.104888e+003
1.264241e+002, 1.102912e+003
1.269062e+002, 1.098195e+003
1.273883e+002, 1.095044e+003
1.278704e+002, 1.094581e+003
1.283525e+002, 1.095737e+003
1.288347e+002, 1.096807e+003
1.293168e+002, 1.097850e+003
1.297989e+002, 1.099839e+003
1.302810e+002, 1.104091e+003
1.307631e+002, 1.110105e+003
1.312452e+002, 1.115920e+003
1.317274e+002, 1.120714e+003
1.322095e+002, 1.125156e+003
1.326916e+002, 1.131381e+003
1.331737e+002, 1.139686e+003
1.336558e+002, 1.148144e+003
1.341379e+002, 1.154797e+003
1.346201e+002, 1.159685e+003
1.351022e+002, 1.164934e+003
1.355843e+002, 1.170980e+003
1.360664e+002, 1.177856e+003
1.365485e+002, 1.185637e+003
1.370306e+002, 1.194449e+003
1.375128e+002, 1.203984e+003
1.379949e+002, 1.214298e+003
1.384770e+002, 1.225585e+003
1.389591e+002, 1.236827e+003
1.394412e+002, 1.247540e+003
1.399233e+002, 1.257481e+003
1.404055e+002, 1.269156e+003
1.408876e+002, 1.283803e+003
1.413697e+002, 1.298913e+003
1.418518e+002, 1.310214e+003
1.423339e+002, 1.316366e+003
1.428160e+002, 1.321598e+003
1.432982e+002, 1.327387e+003
1.437803e+002, 1.333924e+003
1.442624e+002, 1.340209e+003
1.447445e+002, 1.346015e+003
1.452266e+002, 1.351655e+003
1.457087e+002, 1.357620e+003
1.461909e+002, 1.364508e+003
1.466730e+002, 1.371111e+003
1.471551e+002, 1.376993e+003
1.476372e+002, 1.381557e+003
1.481193e+002, 1.386388e+003
1.486014e+002, 1.392269e+003
1.490836e+002, 1.398543e+003
1.495657e+002, 1.403096e+003
1.500478e+002, 1.404165e+003
1.505299e+002, 1.404842e+003
1.510120e+002, 1.406477e+003
1.514941e+002, 1.410705e+003
1.519763e+002, 1.413916e+003
1.524584e+002, 1.416032e+003
1.529405e+002, 1.417054e+003
1.534226e+002, 1.417119e+003
1.539047e+002, 1.416242e+003
1.543868e+002, 1.414388e+003
1.548690e+002, 1.411535e+003
1.553511e+002, 1.405864e+003
1.558332e+002, 1.401120e+003
1.563153e+002, 1.399024e+003
1.567974e+002, 1.399070e+003
1.572795e+002, 1.397143e+003
1.577617e+002, 1.391274e+003
1.582438e+002, 1.383709e+003
1.587259e+002, 1.376075e+003
1.592080e+002, 1.368653e+003
1.596901e+002, 1.361323e+003
1.601722e+002, 1.354127e+003
1.606544e+002, 1.347062e+003
1.611365e+002, 1.339908e+003
1.616186e+002, 1.332406e+003
1.621007e+002, 1.324900e+003
1.625828e+002, 1.317519e+003
1.630649e+002, 1.310066e+003
1.635471e+002, 1.303012e+003
1.640292e+002, 1.296944e+003
1.645113e+002, 1.291868e+003
1.649934e+002, 1.286206e+003
1.654755e+002, 1.278363e+003
1.659576e+002, 1.269640e+003
1.664398e+002, 1.261752e+003
1.669219e+002, 1.255824e+003
1.674040e+002, 1.250490e+003
1.678861e+002, 1.244909e+003
1.683682e+002, 1.238991e+003
1.688503e+002, 1.233226e+003
1.693325e+002, 1.227814e+003
1.698146e+002, 1.222763e+003
1.702967e+002, 1.218162e+003
1.707788e+002, 1.213865e+003
1.712609e+002, 1.210088e+003
1.717430e+002, 1.207297e+003
1.722252e+002, 1.205604e+003
1.727073e+002, 1.204018e+003
1.731894e+002, 1.201572e+003
1.736715e+002, 1.198606e+003
1.741536e+002, 1.195962e+003
1.746357e+002, 1.194172e+003
1.751179e+002, 1.192823e+003
1.756000e+002, 1.191372e+003
1.760821e+002, 1.189742e+003
1.765642e+002, 1.188265e+003
1.770463e+002, 1.187724e+003
1.775284e+002, 1.187714e+003
1.780106e+002, 1.187005e+003
1.784927e+002, 1.184006e+003
1.789748e+002, 1.180090e+003
1.794569e+002, 1.177830e+003
1.799390e+002, 1.177716e+003
1.804211e+002, 1.178268e+003
1.809033e+002, 1.178360e+003
1.813854e+002, 1.177836e+003
1.818675e+002, 1.175988e+003
1.823496e+002, 1.171354e+003
1.828317e+002, 1.165157e+003
1.833138e+002, 1.160079e+003
1.837960e+002, 1.156541e+003
1.842781e+002, 1.153896e+003
1.847602e+002, 1.151682e+003
1.852423e+002, 1.149791e+003
1.857244e+002, 1.147538e+003
1.862065e+002, 1.144334e+003
1.866887e+002, 1.140365e+003
1.871708e+002, 1.136302e+003
1.876529e+002, 1.132245e+003
1.881350e+002, 1.128058e+003
1.886171e+002, 1.123547e+003
1.890992e+002, 1.118675e+003
1.895814e+002, 1.113769e+003
1.900635e+002, 1.109057e+003
1.905456e+002, 1.104454e+003
1.910277e+002, 1.099834e+003
1.915098e+002, 1.095156e+003
1.919919e+002, 1.090454e+003
1.924741e+002, 1.085809e+003
1.929562e+002, 1.081227e+003
1.934383e+002, 1.076954e+003
1.939204e+002, 1.073170e+003
1.944025e+002, 1.069872e+003
1.948846e+002, 1.067039e+003
1.953668e+002, 1.064682e+003
1.958489e+002, 1.062770e+003
1.963310e+002, 1.061310e+003
1.968131e+002, 1.060334e+003
1.972952e+002, 1.059541e+003
1.977773e+002, 1.058694e+003
1.982595e+002, 1.057789e+003
1.987416e+002, 1.057055e+003
1.992237e+002, 1.056445e+003
1.997058e+002, 1.056097e+003
2.001879e+002, 1.056454e+003
2.006700e+002, 1.057594e+003
2.011522e+002, 1.059148e+003
2.016343e+002, 1.060959e+003
2.021164e+002, 1.063061e+003
2.025985e+002, 1.065108e+003
2.030806e+002, 1.066919e+003
2.035627e+002, 1.068706e+003
2.040449e+002, 1.071106e+003
2.045270e+002, 1.074143e+003
2.050091e+002, 1.077694e+003
2.054912e+002, 1.081888e+003
2.059733e+002, 1.086910e+003
2.064554e+002, 1.091358e+003
2.069376e+002, 1.094816e+003
2.074197e+002, 1.097646e+003
2.079018e+002, 1.101496e+003
2.083839e+002, 1.106712e+003
2.088660e+002, 1.112097e+003
2.093481e+002, 1.116636e+003
2.098303e+002, 1.120058e+003
2.103124e+002, 1.124026e+003
2.107945e+002, 1.128789e+003
2.112766e+002, 1.134227e+003
2.117587e+002, 1.140176e+003
2.122408e+002, 1.147041e+003
2.127230e+002, 1.153611e+003
2.132051e+002, 1.158956e+003
2.136872e+002, 1.162557e+003
2.141693e+002, 1.166750e+003
2.146514e+002, 1.171982e+003
2.151335e+002, 1.177960e+003
2.156157e+002, 1.183155e+003
2.160978e+002, 1.187510e+003
2.165799e+002, 1.191191e+003
2.170620e+002, 1.194307e+003
2.175441e+002, 1.196798e+003
2.180262e+002, 1.198845e+003
2.185084e+002, 1.200385e+003
2.189905e+002, 1.201504e+003
2.194726e+002, 1.202645e+003
2.199547e+002, 1.204123e+003
2.204368e+002, 1.205157e+003
2.209189e+002, 1.205227e+003
2.214011e+002, 1.204161e+003
2.218832e+002, 1.202606e+003
2.223653e+002, 1.200385e+003
2.228474e+002, 1.197733e+003
2.233295e+002, 1.195722e+003
2.238116e+002, 1.195129e+003
2.242938e+002, 1.194049e+003
2.247759e+002, 1.191096e+003
2.252580e+002, 1.185167e+003
2.257401e+002, 1.180104e+003
2.262222e+002, 1.176382e+003
2.267043e+002, 1.173712e+003
2.271865e+002, 1.170705e+003
2.276686e+002, 1.167193e+003
2.281507e+002, 1.163665e+003
2.286328e+002, 1.160554e+003
2.291149e+002, 1.158416e+003
2.295970e+002, 1.155370e+003
2.300792e+002, 1.151053e+003
2.305613e+002, 1.145756e+003
2.310434e+002, 1.140588e+003
2.315255e+002, 1.135006e+003
2.320076e+002, 1.130473e+003
2.324897e+002, 1.128083e+003
2.329719e+002, 1.129173e+003
2.334540e+002, 1.129424e+003
2.339361e+002, 1.128384e+003
2.344182e+002, 1.126425e+003
2.349003e+002, 1.124767e+003
2.353824e+002, 1.123337e+003
2.358646e+002, 1.122316e+003
2.363467e+002, 1.121813e+003
2.368288e+002, 1.121949e+003
2.373109e+002, 1.122299e+003
2.377930e+002, 1.122823e+003
2.382751e+002, 1.123534e+003
2.387573e+002, 1.124466e+003
2.392394e+002, 1.125534e+003
2.397215e+002, 1.126899e+003
2.402036e+002, 1.128664e+003
2.406857e+002, 1.130970e+003
2.411678e+002, 1.133314e+003
2.416500e+002, 1.135701e+003
2.421321e+002, 1.138098e+003
2.426142e+002, 1.140442e+003
2.430963e+002, 1.142506e+003
2.435784e+002, 1.144840e+003
2.440605e+002, 1.147720e+003
2.445427e+002, 1.151493e+003
2.450248e+002, 1.154950e+003
2.455069e+002, 1.157893e+003
2.459890e+002, 1.160627e+003
2.464711e+002, 1.163826e+003
2.469532e+002, 1.167942e+003
2.474354e+002, 1.171859e+003
2.479175e+002, 1.175068e+003
2.483996e+002, 1.177341e+003
2.488817e+002, 1.179797e+003
2.493638e+002, 1.182620e+003
2.498459e+002, 1.185553e+003
2.503281e+002, 1.188088e+003
2.508102e+002, 1.190056e+003
2.512923e+002, 1.191974e+003
2.517744e+002, 1.194137e+003
2.522565e+002, 1.196740e+003
2.527386e+002, 1.198695e+003
2.532208e+002, 1.199772e+003
2.537029e+002, 1.200373e+003
2.541850e+002, 1.201299e+003
2.546671e+002, 1.203242e+003
2.551492e+002, 1.204091e+003
2.556313e+002, 1.202805e+003
2.561135e+002, 1.198891e+003
2.565956e+002, 1.196200e+003
2.570777e+002, 1.195448e+003
2.575598e+002, 1.195214e+003
2.580419e+002, 1.193581e+003
2.585240e+002, 1.190197e+003
2.590062e+002, 1.186216e+003
2.594883e+002, 1.182006e+003
2.599704e+002, 1.177702e+003
2.604525e+002, 1.172102e+003
2.609346e+002, 1.164783e+003
2.614167e+002, 1.156787e+003
2.618989e+002, 1.149479e+003
2.623810e+002, 1.143554e+003
2.628631e+002, 1.136632e+003
2.633452e+002, 1.127914e+003
2.638273e+002, 1.117317e+003
2.643094e+002, 1.107859e+003
2.647916e+002, 1.099798e+003
2.652737e+002, 1.092273e+003
2.657558e+002, 1.084365e+003
2.662379e+002, 1.076084e+003
2.667200e+002, 1.067590e+003
2.672021e+002, 1.058801e+003
2.676843e+002, 1.049768e+003
2.681664e+002, 1.040616e+003
2.686485e+002, 1.031315e+003
2.691306e+002, 1.021968e+003
2.696127e+002, 1.012555e+003
2.700948e+002, 1.002845e+003
2.705770e+002, 9.941420e+002
2.710591e+002, 9.866866e+002
2.715412e+002, 9.804539e+002
2.720233e+002, 9.755718e+002
2.725054e+002, 9.726904e+002
2.729875e+002, 9.695486e+002
2.734697e+002, 9.642123e+002
2.739518e+002, 9.561866e+002
2.744339e+002, 9.488427e+002
2.749160e+002, 9.425445e+002
2.753981e+002, 9.372243e+002
2.758802e+002, 9.325609e+002
2.763624e+002, 9.286224e+002
2.768445e+002, 9.253918e+002
2.773266e+002, 9.230969e+002
2.778087e+002, 9.218195e+002
2.782908e+002, 9.202321e+002
2.787729e+002, 9.179926e+002
2.792551e+002, 9.156769e+002
2.797372e+002, 9.147330e+002
2.802193e+002, 9.153002e+002
2.807014e+002, 9.163644e+002
2.811835e+002, 9.174637e+002
2.816656e+002, 9.185999e+002
2.821478e+002, 9.197130e+002
2.826299e+002, 9.206502e+002
2.831120e+002, 9.218675e+002
2.835941e+002, 9.240551e+002
2.840762e+002, 9.272315e+002
2.845583e+002, 9.313121e+002
2.850405e+002, 9.364426e+002
2.855226e+002, 9.425558e+002
2.860047e+002, 9.491217e+002
2.864868e+002, 9.562119e+002
2.869689e+002, 9.635002e+002
2.874510e+002, 9.703408e+002
2.879332e+002, 9.767790e+002
2.884153e+002, 9.838718e+002
2.888974e+002, 9.920345e+002
2.893795e+002, 1.001100e+003
2.898616e+002, 1.010259e+003
2.903438e+002, 1.019508e+003
2.908259e+002, 1.028852e+003
2.913080e+002, 1.038134e+003
2.917901e+002, 1.047379e+003
2.922722e+002, 1.057333e+003
2.927543e+002, 1.068352e+003
2.932365e+002, 1.080072e+003
2.937186e+002, 1.091645e+003
2.942007e+002, 1.102970e+003
2.946828e+002, 1.114203e+003
2.951649e+002, 1.125407e+003
2.956470e+002, 1.136535e+003
2.961292e+002, 1.147840e+003
2.966113e+002, 1.159373e+003
2.970934e+002, 1.170952e+003
2.975755e+002, 1.182611e+003
2.980576e+002, 1.194353e+003
2.985397e+002, 1.205569e+003
2.990219e+002, 1.215924e+003
2.995040e+002, 1.225583e+003
2.999861e+002, 1.234802e+003
3.004682e+002, 1.243735e+003
3.009503e+002, 1.252053e+003
3.014324e+002, 1.259580e+003
3.019146e+002, 1.266238e+003
3.023967e+002, 1.271993e+003
3.028788e+002, 1.276831e+003
3.033609e+002, 1.280705e+003
3.038430e+002, 1.283410e+003
3.043251e+002, 1.284863e+003
3.048073e+002, 1.285358e+003
3.052894e+002, 1.285676e+003
3.057715e+002, 1.285287e+003
3.062536e+002, 1.282910e+003
3.067357e+002, 1.277089e+003
3.072178e+002, 1.269326e+003
3.077000e+002, 1.261237e+003
3.081821e+002, 1.252983e+003
3.086642e+002, 1.243809e+003
3.091463e+002, 1.233193e+003
3.096284e+002, 1.221318e+003
3.101105e+002, 1.208302e+003
3.105927e+002, 1.194142e+003
3.110748e+002, 1.179080e+003
3.115569e+002, 1.162807e+003
3.120390e+002, 1.145340e+003
3.125211e+002, 1.127905e+003
3.130032e+002, 1.111281e+003
3.134854e+002, 1.094824e+003
3.139675e+002, 1.078067e+003
3.144496e+002, 1.060324e+003
3.149317e+002, 1.042799e+003
3.154138e+002, 1.025800e+003
3.158959e+002, 1.009402e+003
3.163781e+002, 9.934800e+002
3.168602e+002, 9.783870e+002
3.173423e+002, 9.637029e+002
3.178244e+002, 9.491397e+002
3.183065e+002, 9.343437e+002
3.187886e+002, 9.201028e+002
3.192708e+002, 9.069924e+002
3.197529e+002, 8.947525e+002
3.202350e+002, 8.826054e+002
3.207171e+002, 8.701732e+002
3.211992e+002, 8.580157e+002
3.216813e+002, 8.464202e+002
3.221635e+002, 8.354439e+002
3.226456e+002, 8.249506e+002
3.231277e+002, 8.148826e+002
3.236098e+002, 8.052747e+002
3.240919e+002, 7.961512e+002
3.245740e+002, 7.876796e+002
3.250562e+002, 7.796525e+002
3.255383e+002, 7.720013e+002
3.260204e+002, 7.646872e+002
3.265025e+002, 7.579056e+002
3.269846e+002, 7.519224e+002
3.274667e+002, 7.464041e+002
3.279489e+002, 7.409173e+002
3.284310e+002, 7.350276e+002
3.289131e+002, 7.296603e+002
3.293952e+002, 7.249289e+002
3.298773e+002, 7.208425e+002
3.303594e+002, 7.172678e+002
3.308416e+002, 7.145643e+002
3.313237e+002, 7.121116e+002
3.318058e+002, 7.095144e+002
3.322879e+002, 7.068970e+002
3.327700e+002, 7.038444e+002
3.332521e+002, 6.998991e+002
3.337343e+002, 6.953945e+002
3.342164e+002, 6.920027e+002
3.346985e+002, 6.901464e+002
3.351806e+002, 6.887813e+002
3.356627e+002, 6.873435e+002
3.361448e+002, 6.856932e+002
3.366270e+002, 6.844184e+002
3.371091e+002, 6.835558e+002
3.375912e+002, 6.830723e+002
3.380733e+002, 6.828753e+002
3.385554e+002, 6.829286e+002
3.390375e+002, 6.834131e+002
3.395197e+002, 6.846487e+002
3.400018e+002, 6.867086e+002
3.404839e+002, 6.878929e+002
3.409660e+002, 6.879437e+002
3.414481e+002, 6.876349e+002
3.419302e+002, 6.878672e+002
3.424124e+002, 6.886492e+002
3.428945e+002, 6.898990e+002
3.433766e+002, 6.919200e+002
3.438587e+002, 6.943746e+002
3.443408e+002, 6.954005e+002
3.448229e+002, 6.947380e+002
3.453051e+002, 6.943834e+002
3.457872e+002, 6.967050e+002
3.462693e+002, 7.012380e+002
3.467514e+002, 7.049062e+002
3.472335e+002, 7.068099e+002
3.477156e+002, 7.078418e+002
3.481978e+002, 7.096747e+002
3.486799e+002, 7.122608e+002
3.491620e+002, 7.149337e+002
3.496441e+002, 7.173051e+002
3.501262e+002, 7.194391e+002
3.506083e+002, 7.214260e+002
3.510905e+002, 7.232581e+002
3.515726e+002, 7.251048e+002
3.520547e+002, 7.272191e+002
3.525368e+002, 7.295256e+002
3.530189e+002, 7.317972e+002
3.535010e+002, 7.338768e+002
3.539832e+002, 7.358737e+002
3.544653e+002, 7.378943e+002
3.549474e+002, 7.399576e+002
3.554295e+002, 7.420689e+002
3.559116e+002, 7.442650e+002
3.563937e+002, 7.465165e+002
3.568759e+002, 7.487493e+002
3.573580e+002, 7.509991e+002
3.578401e+002, 7.531915e+002
3.583222e+002, 7.551432e+002
3.588043e+002, 7.569373e+002
3.592864e+002, 7.589628e+002
3.597686e+002, 7.615215e+002
3.602507e+002, 7.643668e+002
3.607328e+002, 7.672041e+002
3.612149e+002, 7.696475e+002
3.616970e+002, 7.726469e+002
3.621791e+002, 7.772294e+002
3.626613e+002, 7.826567e+002
3.631434e+002, 7.872379e+002
3.636255e+002, 7.893170e+002
3.641076e+002, 7.913078e+002
3.645897e+002, 7.944008e+002
3.650718e+002, 7.989283e+002
3.655540e+002, 8.036274e+002
3.660361e+002, 8.078365e+002
3.665182e+002, 8.122443e+002
3.670003e+002, 8.176788e+002
3.674824e+002, 8.261853e+002
3.679645e+002, 8.337327e+002
3.684467e+002, 8.391315e+002
3.689288e+002, 8.421833e+002
3.694109e+002, 8.457382e+002
3.698930e+002, 8.497770e+002
3.703751e+002, 8.543610e+002
3.708572e+002, 8.595798e+002
3.713394e+002, 8.656233e+002
3.718215e+002, 8.719141e+002
3.723036e+002, 8.784849e+002
3.727857e+002, 8.852751e+002
3.732678e+002, 8.921241e+002
3.737499e+002, 8.989945e+002
3.742321e+002, 9.060780e+002
3.747142e+002, 9.133606e+002
3.751963e+002, 9.208348e+002
3.756784e+002, 9.287539e+002
3.761605e+002, 9.372147e+002
3.766426e+002, 9.459267e+002
3.771248e+002, 9.539905e+002
3.776069e+002, 9.612980e+002
3.780890e+002, 9.691125e+002
3.785711e+002, 9.779730e+002
3.790532e+002, 9.877564e+002
3.795353e+002, 9.968737e+002
3.800175e+002, 1.005309e+003
3.804996e+002, 1.013597e+003
3.809817e+002, 1.022463e+003
3.814638e+002, 1.031755e+003
3.819459e+002, 1.040507e+003
3.824280e+002, 1.048319e+003
3.829102e+002, 1.055626e+003
3.833923e+002, 1.062830e+003
3.838744e+002, 1.070029e+003
3.843565e+002, 1.077657e+003
3.848386e+002, 1.086206e+003
3.853207e+002, 1.095326e+003
3.858029e+002, 1.104213e+003
3.862850e+002, 1.112973e+003
3.867671e+002, 1.120938e+003
3.872492e+002, 1.126963e+003
3.877313e+002, 1.131709e+003
3.882134e+002, 1.136564e+003
3.886956e+002, 1.142446e+003
3.891777e+002, 1.148476e+003
3.896598e+002, 1.153797e+003
3.901419e+002, 1.158426e+003
3.906240e+002, 1.163111e+003
3.911061e+002, 1.168609e+003
3.915883e+002, 1.174343e+003
3.920704e+002, 1.179774e+003
3.925525e+002, 1.185065e+003
3.930346e+002, 1.189613e+003
3.935167e+002, 1.192857e+003
3.939988e+002, 1.195166e+003
3.944810e+002, 1.197621e+003
3.949631e+002, 1.201051e+003
3.954452e+002, 1.204369e+003
3.959273e+002, 1.206956e+003
3.964094e+002, 1.208504e+003
3.968915e+002, 1.210082e+003
3.973737e+002, 1.211703e+003
3.978558e+002, 1.213500e+003
3.983379e+002, 1.215640e+003
3.988200e+002, 1.218012e+003
3.993021e+002, 1.220836e+003
3.997842e+002, 1.224830e+003
4.002664e+002, 1.229969e+003
4.007485e+002, 1.232842e+003
4.012306e+002, 1.232194e+003
4.017127e+002, 1.230439e+003
4.021948e+002, 1.229046e+003
4.026769e+002, 1.228169e+003
4.031591e+002, 1.227275e+003
4.036412e+002, 1.226236e+003
4.041233e+002, 1.225200e+003
4.046054e+002, 1.224606e+003
4.050875e+002, 1.224663e+003
4.055696e+002, 1.224578e+003
4.060518e+002, 1.224111e+003
4.065339e+002, 1.223279e+003
4.070160e+002, 1.221847e+003
4.074981e+002, 1.219797e+003
4.079802e+002, 1.217314e+003
4.084623e+002, 1.214316e+003
4.089445e+002, 1.210831e+003
4.094266e+002, 1.208135e+003
4.099087e+002, 1.206918e+003
4.103908e+002, 1.206443e+003
4.108729e+002, 1.204876e+003
4.113550e+002, 1.202250e+003
4.118372e+002, 1.199531e+003
4.123193e+002, 1.197627e+003
4.128014e+002, 1.196104e+003
4.132835e+002, 1.193823e+003
4.137656e+002, 1.190479e+003
4.142477e+002, 1.186896e+003
4.147299e+002, 1.184306e+003
4.152120e+002, 1.182182e+003
4.156941e+002, 1.179355e+003
4.161762e+002, 1.174620e+003
4.166583e+002, 1.169278e+003
4.171404e+002, 1.164360e+003
4.176226e+002, 1.159836e+003
4.181047e+002, 1.155667e+003
4.185868e+002, 1.152228e+003
4.190689e+002, 1.148883e+003
4.195510e+002, 1.144929e+003
4.200331e+002, 1.139602e+003
4.205153e+002, 1.134445e+003
4.209974e+002, 1.130490e+003
4.214795e+002, 1.127226e+003
4.219616e+002, 1.123508e+003
4.224437e+002, 1.118416e+003
4.229258e+002, 1.113332e+003
4.234080e+002, 1.108904e+003
4.238901e+002, 1.105345e+003
4.243722e+002, 1.101753e+003
4.248543e+002, 1.098263e+003
4.253364e+002, 1.094642e+003
4.258185e+002, 1.090653e+003
4.263007e+002, 1.085762e+003
4.267828e+002, 1.081238e+003
4.272649e+002, 1.077369e+003
4.277470e+002, 1.074063e+003
4.282291e+002, 1.070598e+003
4.287112e+002, 1.066880e+003
4.291934e+002, 1.063182e+003
4.296755e+002, 1.059611e+003
4.301576e+002, 1.056236e+003
4.306397e+002, 1.052637e+003
4.311218e+002, 1.048739e+003
4.316039e+002, 1.044710e+003
4.320861e+002, 1.040749e+003
4.325682e+002, 1.036857e+003
4.330503e+002, 1.033045e+003
4.335324e+002, 1.029422e+003
4.340145e+002, 1.025841e+003
4.344966e+002, 1.021794e+003
4.349788e+002, 1.017288e+003
4.354609e+002, 1.012433e+003
4.359430e+002, 1.006959e+003
4.364251e+002, 1.001150e+003
4.369072e+002, 9.959005e+002
4.373893e+002, 9.914779e+002
4.378715e+002, 9.872860e+002
4.383536e+002, 9.826835e+002
4.388357e+002, 9.777596e+002
4.393178e+002, 9.727645e+002
4.397999e+002, 9.678929e+002
4.402820e+002, 9.629266e+002
4.407642e+002, 9.578249e+002
4.412463e+002, 9.525285e+002
4.417284e+002, 9.467550e+002
4.422105e+002, 9.391790e+002
4.426926e+002, 9.315126e+002
4.431747e+002, 9.254483e+002
4.436569e+002, 9.230222e+002
4.441390e+002, 9.203159e+002
4.446211e+002, 9.158224e+002
4.451032e+002, 9.100848e+002
4.455853e+002, 9.048239e+002
4.460674e+002, 9.009363e+002
4.465496e+002, 8.970446e+002
4.470317e+002, 8.926747e+002
4.475138e+002, 8.877458e+002
4.479959e+002, 8.825193e+002
4.484780e+002, 8.766515e+002
4.489601e+002, 8.707343e+002
4.494423e+002, 8.652804e+002
4.499244e+002, 8.606049e+002
4.504065e+002, 8.558514e+002
4.508886e+002, 8.506674e+002
4.513707e+002, 8.453494e+002
4.518528e+002, 8.412001e+002
4.523350e+002, 8.386620e+002
4.528171e+002, 8.358435e+002
4.532992e+002, 8.311589e+002
4.537813e+002, 8.245347e+002
4.542634e+002, 8.196302e+002
4.547455e+002, 8.166920e+002
4.552277e+002, 8.147318e+002
4.557098e+002, 8.124938e+002
4.561919e+002, 8.100564e+002
4.566740e+002, 8.078434e+002
4.571561e+002, 8.059781e+002
4.576382e+002, 8.044828e+002
4.581204e+002, 8.036271e+002
4.586025e+002, 8.033317e+002
4.590846e+002, 8.030525e+002
4.595667e+002, 8.021400e+002
4.600488e+002, 8.011449e+002
4.605309e+002, 8.006547e+002
4.610131e+002, 8.006682e+002
4.614952e+002, 8.016215e+002
4.619773e+002, 8.045349e+002
4.624594e+002, 8.084155e+002
4.629415e+002, 8.118520e+002
4.634236e+002, 8.133297e+002
4.639058e+002, 8.151201e+002
4.643879e+002, 8.185755e+002
4.648700e+002, 8.234717e+002
4.653521e+002, 8.279387e+002
4.658342e+002, 8.316398e+002
4.663163e+002, 8.347311e+002
4.667985e+002, 8.372332e+002
4.672806e+002, 8.385625e+002
4.677627e+002, 8.403776e+002
4.682448e+002, 8.431403e+002
4.687269e+002, 8.461942e+002
4.692090e+002, 8.486788e+002
4.696912e+002, 8.506355e+002
4.701733e+002, 8.519783e+002
4.706554e+002, 8.526494e+002
4.711375e+002, 8.526717e+002
4.716196e+002, 8.522468e+002
4.721017e+002, 8.513204e+002
4.725839e+002, 8.500879e+002
4.730660e+002, 8.488203e+002
4.735481e+002, 8.475297e+002
4.740302e+002, 8.452549e+002
4.745123e+002, 8.418452e+002
4.749944e+002, 8.376758e+002
4.754766e+002, 8.331093e+002
4.759587e+002, 8.282065e+002
4.764408e+002, 8.233094e+002
4.769229e+002, 8.189739e+002
4.774050e+002, 8.145479e+002
4.778871e+002, 8.087112e+002
4.783693e+002, 8.016065e+002
4.788514e+002, 7.944749e+002
4.793335e+002, 7.886105e+002
4.798156e+002, 7.830073e+002
4.802977e+002, 7.763601e+002
4.807798e+002, 7.681329e+002
4.812620e+002, 7.599747e+002
4.817441e+002, 7.528330e+002
4.822262e+002, 7.463707e+002
4.827083e+002, 7.400940e+002
4.831904e+002, 7.340092e+002
4.836725e+002, 7.278690e+002
4.841547e+002, 7.215927e+002
4.846368e+002, 7.152078e+002
4.851189e+002, 7.088216e+002
4.856010e+002, 7.026630e+002
4.860831e+002, 6.963041e+002
4.865652e+002, 6.895297e+002
4.870474e+002, 6.818197e+002
4.875295e+002, 6.746902e+002
4.880116e+002, 6.681977e+002
4.884937e+002, 6.623246e+002
4.889758e+002, 6.570042e+002
4.894579e+002, 6.522513e+002
4.899401e+002, 6.479834e+002
4.904222e+002, 6.441654e+002
4.909043e+002, 6.408043e+002
4.913864e+002, 6.377896e+002
4.918685e+002, 6.351199e+002
4.923506e+002, 6.327424e+002
4.928328e+002, 6.306521e+002
4.933149e+002, 6.288356e+002
4.937970e+002, 6.271415e+002
4.942791e+002, 6.255239e+002
4.947612e+002, 6.242103e+002
4.952433e+002, 6.234127e+002
4.957255e+002, 6.231125e+002
4.962076e+002, 6.232415e+002
4.966897e+002, 6.237854e+002
4.971718e+002, 6.247467e+002
4.976539e+002, 6.262169e+002
4.981360e+002, 6.281262e+002
4.986182e+002, 6.302380e+002
4.991003e+002, 6.323378e+002
4.995824e+002, 6.346530e+002
5.000645e+002, 6.372233e+002
5.005466e+002, 6.400263e+002
5.010287e+002, 6.433810e+002
5.015109e+002, 6.477164e+002
5.019930e+002, 6.524992e+002
5.024751e+002, 6.571443e+002
5.029572e+002, 6.607188e+002
5.034393e+002, 6.651832e+002
5.039214e+002, 6.710134e+002
5.044036e+002, 6.778476e+002
5.048857e+002, 6.845687e+002
5.053678e+002, 6.909811e+002
5.058499e+002, 6.977399e+002
5.063320e+002, 7.050498e+002
5.068141e+002, 7.128975e+002
5.072963e+002, 7.216032e+002
5.077784e+002, 7.314407e+002
5.082605e+002, 7.417166e+002
5.087426e+002, 7.519399e+002
5.092247e+002, 7.621177e+002
5.097068e+002, 7.722987e+002
5.101890e+002, 7.823331e+002
5.106711e+002, 7.926270e+002
5.111532e+002, 8.037098e+002
5.116353e+002, 8.155523e+002
5.121174e+002, 8.277045e+002
5.125995e+002, 8.395483e+002
5.130817e+002, 8.518954e+002
5.135638e+002, 8.663674e+002
5.140459e+002, 8.828528e+002
5.145280e+002, 8.986489e+002
5.150101e+002, 9.113561e+002
5.154922e+002, 9.229844e+002
5.159744e+002, 9.352550e+002
5.164565e+002, 9.488446e+002
5.169386e+002, 9.626956e+002
5.174207e+002, 9.766797e+002
5.179028e+002, 9.906774e+002
5.183849e+002, 1.004487e+003
5.188671e+002, 1.018868e+003
5.193492e+002, 1.032184e+003
5.198313e+002, 1.043987e+003
5.203134e+002, 1.054274e+003
5.207955e+002, 1.064660e+003
5.212776e+002, 1.075566e+003
5.217598e+002, 1.085963e+003
5.222419e+002, 1.095266e+003
5.227240e+002, 1.103568e+003
5.232061e+002, 1.110407e+003
5.236882e+002, 1.115593e+003
5.241703e+002, 1.119735e+003
5.246525e+002, 1.123916e+003
5.251346e+002, 1.128071e+003
5.256167e+002, 1.130782e+003
5.260988e+002, 1.131762e+003
5.265809e+002, 1.130967e+003
5.270630e+002, 1.128083e+003
5.275452e+002, 1.123228e+003
5.280273e+002, 1.117043e+003
5.285094e+002, 1.109429e+003
5.289915e+002, 1.100918e+003
5.294736e+002, 1.092062e+003
5.299557e+002, 1.082871e+003
5.304379e+002, 1.072970e+003
5.309200e+002, 1.061728e+003
5.314021e+002, 1.049714e+003
5.318842e+002, 1.037477e+003
5.323663e+002, 1.025733e+003
5.328484e+002, 1.012930e+003
5.333306e+002, 9.983475e+002
5.338127e+002, 9.824749e+002
5.342948e+002, 9.667280e+002
5.347769e+002, 9.511495e+002
5.352590e+002, 9.355500e+002
5.357411e+002, 9.199338e+002
5.362233e+002, 9.043672e+002
5.367054e+002, 8.883308e+002
5.371875e+002, 8.714404e+002
5.376696e+002, 8.551210e+002
5.381517e+002, 8.401855e+002
5.386339e+002, 8.268317e+002
5.391160e+002, 8.141191e+002
5.395981e+002, 8.022409e+002
5.400802e+002, 7.905118e+002
5.405623e+002, 7.770578e+002
5.410444e+002, 7.623931e+002
5.415266e+002, 7.492089e+002
5.420087e+002, 7.389504e+002
5.424908e+002, 7.298768e+002
5.429729e+002, 7.195491e+002
5.434550e+002, 7.083824e+002
5.439371e+002, 6.977133e+002
5.444193e+002, 6.881436e+002
5.449014e+002, 6.793879e+002
5.453835e+002, 6.711058e+002
5.458656e+002, 6.632474e+002
5.463477e+002, 6.563021e+002
5.468298e+002, 6.512435e+002
5.473120e+002, 6.466497e+002
5.477941e+002, 6.413754e+002
5.482762e+002, 6.340984e+002
5.487583e+002, 6.276338e+002
5.492404e+002, 6.223599e+002
5.497225e+002, 6.179541e+002
5.502047e+002, 6.139366e+002
5.506868e+002, 6.105046e+002
5.511689e+002, 6.070443e+002
5.516510e+002, 6.033084e+002
5.521331e+002, 5.994135e+002
5.526152e+002, 5.962050e+002
5.530974e+002, 5.937072e+002
5.535795e+002, 5.918127e+002
5.540616e+002, 5.907719e+002
5.545437e+002, 5.903948e+002
5.550258e+002, 5.893237e+002
5.555079e+002, 5.873550e+002
5.559901e+002, 5.856708e+002
5.564722e+002, 5.857806e+002
5.569543e+002, 5.870517e+002
5.574364e+002, 5.881589e+002
5.579185e+002, 5.886368e+002
5.584006e+002, 5.889666e+002
5.588828e+002, 5.891201e+002
5.593649e+002, 5.894080e+002
5.598470e+002, 5.905573e+002
5.603291e+002, 5.938576e+002
5.608112e+002, 5.971519e+002
5.612933e+002, 5.992023e+002
5.617755e+002, 5.999404e+002
5.622576e+002, 6.014536e+002
5.627397e+002, 6.048029e+002
5.632218e+002, 6.083328e+002
5.637039e+002, 6.112255e+002
5.641860e+002, 6.131319e+002
5.646682e+002, 6.153932e+002
5.651503e+002, 6.183236e+002
5.656324e+002, 6.212642e+002
5.661145e+002, 6.232273e+002
5.665966e+002, 6.241292e+002
5.670787e+002, 6.251516e+002
5.675609e+002, 6.266828e+002
5.680430e+002, 6.283407e+002
5.685251e+002, 6.294386e+002
5.690072e+002, 6.299625e+002
5.694893e+002, 6.296791e+002
5.699714e+002, 6.283358e+002
5.704536e+002, 6.261651e+002
5.709357e+002, 6.233088e+002
5.714178e+002, 6.198212e+002
5.718999e+002, 6.162044e+002
5.723820e+002, 6.127317e+002
5.728641e+002, 6.093276e+002
5.733463e+002, 6.060714e+002
5.738284e+002, 6.031837e+002
5.743105e+002, 5.997468e+002
5.747926e+002, 5.947495e+002
5.752747e+002, 5.893049e+002
5.757568e+002, 5.848466e+002
5.762390e+002, 5.821980e+002
5.767211e+002, 5.794908e+002
5.772032e+002, 5.763207e+002
5.776853e+002, 5.729466e+002
5.781674e+002, 5.704222e+002
5.786495e+002, 5.689749e+002
5.791317e+002, 5.677273e+002
5.796138e+002, 5.663764e+002
5.800959e+002, 5.649266e+002
5.805780e+002, 5.632452e+002
5.810601e+002, 5.612658e+002
5.815422e+002, 5.596664e+002
5.820244e+002, 5.594435e+002
5.825065e+002, 5.600038e+002
5.829886e+002, 5.595699e+002
5.834707e+002, 5.576244e+002
5.839528e+002, 5.562110e+002
5.844349e+002, 5.576983e+002
5.849171e+002, 5.607616e+002
5.853992e+002, 5.634344e+002
5.858813e+002, 5.648394e+002
5.863634e+002, 5.659230e+002
5.868455e+002, 5.668843e+002
5.873276e+002, 5.677990e+002
5.878098e+002, 5.688478e+002
5.882919e+002, 5.698727e+002
5.887740e+002, 5.712268e+002
5.892561e+002, 5.728840e+002
5.897382e+002, 5.748327e+002
5.902203e+002, 5.779415e+002
5.907025e+002, 5.833363e+002
5.911846e+002, 5.878106e+002
5.916667e+002, 5.886565e+002
5.921488e+002, 5.855203e+002
5.926309e+002, 5.839771e+002
5.931130e+002, 5.843652e+002
5.935952e+002, 5.857760e+002
5.940773e+002, 5.876369e+002
5.945594e+002, 5.897036e+002
5.950415e+002, 5.908878e+002
5.955236e+002, 5.906268e+002
5.960057e+002, 5.899788e+002
5.964879e+002, 5.899863e+002
5.969700e+002, 5.905219e+002
5.974521e+002, 5.912885e+002
5.979342e+002, 5.922551e+002
5.984163e+002, 5.933239e+002
5.988984e+002, 5.945073e+002
5.993806e+002, 5.957825e+002
5.998627e+002, 5.969301e+002
6.003448e+002, 5.976017e+002
6.008269e+002, 5.983853e+002
6.013090e+002, 5.996393e+002
6.017911e+002, 6.015891e+002
6.022733e+002, 6.030984e+002
6.027554e+002, 6.040020e+002
6.032375e+002, 6.046924e+002
6.037196e+002, 6.055145e+002
6.042017e+002, 6.064913e+002
6.046838e+002, 6.074014e+002
6.051660e+002, 6.081569e+002
6.056481e+002, 6.090037e+002
6.061302e+002, 6.106106e+002
6.066123e+002, 6.127491e+002
6.070944e+002, 6.143149e+002
6.075765e+002, 6.145487e+002
6.080587e+002, 6.143719e+002
6.085408e+002, 6.149435e+002
6.090229e+002, 6.160479e+002
6.095050e+002, 6.169398e+002
6.099871e+002, 6.170928e+002
6.104692e+002, 6.170100e+002
6.109514e+002, 6.170651e+002
6.114335e+002, 6.173041e+002
6.119156e+002, 6.171349e+002
6.123977e+002, 6.155635e+002
6.128798e+002, 6.142184e+002
6.133619e+002, 6.141238e+002
6.138441e+002, 6.159936e+002
6.143262e+002, 6.174465e+002
6.148083e+002, 6.185051e+002
6.152904e+002, 6.191453e+002
6.157725e+002, 6.189788e+002
6.162546e+002, 6.179056e+002
6.167368e+002, 6.180042e+002
6.172189e+002, 6.200309e+002
6.177010e+002, 6.228238e+002
6.181831e+002, 6.242006e+002
6.186652e+002, 6.244572e+002
6.191473e+002, 6.247723e+002
6.196295e+002, 6.257811e+002
6.201116e+002, 6.270759e+002
6.205937e+002, 6.284155e+002
6.210758e+002, 6.297303e+002
6.215579e+002, 6.307171e+002
6.220400e+002, 6.305722e+002
6.225222e+002, 6.305452e+002
6.230043e+002, 6.315660e+002
6.234864e+002, 6.340146e+002
6.239685e+002, 6.357684e+002
6.244506e+002, 6.364155e+002
6.249327e+002, 6.364786e+002
6.254149e+002, 6.362094e+002
6.258970e+002, 6.354176e+002
6.263791e+002, 6.349387e+002
6.268612e+002, 6.349828e+002
6.273433e+002, 6.350368e+002
6.278254e+002, 6.342800e+002
6.283076e+002, 6.327498e+002
6.287897e+002, 6.312567e+002
6.292718e+002, 6.300189e+002
6.297539e+002, 6.288859e+002
6.302360e+002, 6.278459e+002
6.307181e+002, 6.267617e+002
6.312003e+002, 6.252009e+002
6.316824e+002, 6.227636e+002
6.321645e+002, 6.199034e+002
6.326466e+002, 6.167961e+002
6.331287e+002, 6.135000e+002
6.336108e+002, 6.104981e+002
6.340930e+002, 6.084329e+002
6.345751e+002, 6.062602e+002
6.350572e+002, 6.034408e+002
6.355393e+002, 5.998202e+002
6.360214e+002, 5.961215e+002
6.365035e+002, 5.921683e+002
6.369857e+002, 5.883323e+002
6.374678e+002, 5.849590e+002
6.379499e+002, 5.821198e+002
6.384320e+002, 5.793248e+002
6.389141e+002, 5.766067e+002
6.393962e+002, 5.738264e+002
6.398784e+002, 5.707072e+002
6.403605e+002, 5.673637e+002
6.408426e+002, 5.641700e+002
6.413247e+002, 5.613002e+002
6.418068e+002, 5.585621e+002
6.422889e+002, 5.554848e+002
6.427711e+002, 5.523756e+002
6.432532e+002, 5.498473e+002
6.437353e+002, 5.486035e+002
6.442174e+002, 5.476369e+002
6.446995e+002, 5.467089e+002
6.451816e+002, 5.457369e+002
6.456638e+002, 5.442601e+002
6.461459e+002, 5.414545e+002
6.466280e+002, 5.389121e+002
6.471101e+002, 5.372320e+002
6.475922e+002, 5.364850e+002
6.480743e+002, 5.355432e+002
6.485565e+002, 5.344138e+002
6.490386e+002, 5.330641e+002
6.495207e+002, 5.312445e+002
6.500028e+002, 5.290705e+002
6.504849e+002, 5.277276e+002
6.509670e+002, 5.273912e+002
6.514492e+002, 5.272957e+002
6.519313e+002, 5.267648e+002
6.524134e+002, 5.258714e+002
6.528955e+002, 5.247485e+002
6.533776e+002, 5.233472e+002
6.538597e+002, 5.218753e+002
6.543419e+002, 5.203924e+002
6.548240e+002, 5.189404e+002
6.553061e+002, 5.176071e+002
6.557882e+002, 5.166417e+002
6.562703e+002, 5.155577e+002
6.567524e+002, 5.143153e+002
6.572346e+002, 5.128908e+002
6.577167e+002, 5.110932e+002
6.581988e+002, 5.085935e+002
6.586809e+002, 5.065012e+002
6.591630e+002, 5.053261e+002
6.596451e+002, 5.048798e+002
6.601273e+002, 5.040884e+002
6.606094e+002, 5.029277e+002
6.610915e+002, 5.015708e+002
6.615736e+002, 5.001207e+002
6.620557e+002, 4.985348e+002
6.625378e+002, 4.967359e+002
6.630200e+002, 4.947150e+002
6.635021e+002, 4.924902e+002
6.639842e+002, 4.895697e+002
6.644663e+002, 4.867226e+002
6.649484e+002, 4.848702e+002
6.654305e+002, 4.846798e+002
6.659127e+002, 4.839292e+002
6.663948e+002, 4.816870e+002
6.668769e+002, 4.788412e+002
6.673590e+002, 4.762910e+002
6.678411e+002, 4.742038e+002
6.683232e+002, 4.721254e+002
6.688054e+002, 4.700377e+002
6.692875e+002, 4.679620e+002
6.697696e+002, 4.659169e+002
6.702517e+002, 4.638990e+002
6.707338e+002, 4.620437e+002
6.712159e+002, 4.604641e+002
6.716981e+002, 4.589959e+002
6.721802e+002, 4.573609e+002
6.726623e+002, 4.556058e+002
6.731444e+002, 4.538410e+002
6.736265e+002, 4.521636e+002
6.741086e+002, 4.504946e+002
6.745908e+002, 4.487650e+002
6.750729e+002, 4.470004e+002
6.755550e+002, 4.452625e+002
6.760371e+002, 4.434218e+002
6.765192e+002, 4.417628e+002
6.770013e+002, 4.403661e+002
6.774835e+002, 4.392239e+002
6.779656e+002, 4.384185e+002
6.784477e+002, 4.381096e+002
6.789298e+002, 4.378381e+002
6.794119e+002, 4.373893e+002
6.798940e+002, 4.367545e+002
6.803762e+002, 4.354467e+002
6.808583e+002, 4.333158e+002
6.813404e+002, 4.312393e+002
6.818225e+002, 4.302147e+002
6.823046e+002, 4.298818e+002
6.827867e+002, 4.295008e+002
6.832689e+002, 4.289449e+002
6.837510e+002, 4.282440e+002
6.842331e+002, 4.274517e+002
6.847152e+002, 4.265288e+002
6.851973e+002, 4.254431e+002
6.856794e+002, 4.234016e+002
6.861616e+002, 4.221279e+002
6.866437e+002, 4.223716e+002
6.871258e+002, 4.234612e+002
6.876079e+002, 4.242965e+002
6.880900e+002, 4.249485e+002
6.885721e+002, 4.250977e+002
6.890543e+002, 4.244892e+002
6.895364e+002, 4.234354e+002
6.900185e+002, 4.228590e+002
6.905006e+002, 4.227480e+002
6.909827e+002, 4.227402e+002
6.914648e+002, 4.225988e+002
6.919470e+002, 4.224705e+002
6.924291e+002, 4.226560e+002
6.929112e+002, 4.230966e+002
6.933933e+002, 4.234690e+002
6.938754e+002, 4.236903e+002
6.943575e+002, 4.237155e+002
6.948397e+002, 4.233575e+002
6.953218e+002, 4.225506e+002
6.958039e+002, 4.222263e+002
6.962860e+002, 4.228700e+002
6.967681e+002, 4.236899e+002
6.972502e+002, 4.243576e+002
6.977324e+002, 4.249064e+002
6.982145e+002, 4.251088e+002
6.986966e+002, 4.249106e+002
6.991787e+002, 4.245257e+002
6.996608e+002, 4.240239e+002
7.001429e+002, 4.234816e+002
7.006251e+002, 4.232179e+002
7.011072e+002, 4.232492e+002
7.015893e+002, 4.236915e+002
7.020714e+002, 4.251485e+002
7.025535e+002, 4.269355e+002
7.030356e+002, 4.279753e+002
7.035178e+002, 4.273057e+002
7.039999e+002, 4.269668e+002
7.044820e+002, 4.282366e+002
7.049641e+002, 4.301684e+002
7.054462e+002, 4.312692e+002
7.059283e+002, 4.307658e+002
7.064105e+002, 4.305767e+002
7.068926e+002, 4.311407e+002
7.073747e+002, 4.320404e+002
7.078568e+002, 4.321530e+002
7.083389e+002, 4.314038e+002
7.088210e+002, 4.309563e+002
7.093032e+002, 4.314422e+002
7.097853e+002, 4.322500e+002
7.102674e+002, 4.318473e+002
7.107495e+002, 4.305588e+002
7.112316e+002, 4.297599e+002
7.117137e+002, 4.307123e+002
7.121959e+002, 4.320084e+002
7.126780e+002, 4.325719e+002
7.131601e+002, 4.324872e+002
7.136422e+002, 4.325667e+002
7.141243e+002, 4.332318e+002
7.146064e+002, 4.339206e+002
7.150886e+002, 4.343903e+002
7.155707e+002, 4.346360e+002
7.160528e+002, 4.350262e+002
7.165349e+002, 4.357478e+002
7.170170e+002, 4.361495e+002
7.174991e+002, 4.355294e+002
7.179813e+002, 4.340880e+002
7.184634e+002, 4.334863e+002
7.189455e+002, 4.337950e+002
7.194276e+002, 4.342596e+002
7.199097e+002, 4.341953e+002
7.203918e+002, 4.339097e+002
7.208740e+002, 4.338128e+002
7.213561e+002, 4.339802e+002
7.218382e+002, 4.342267e+002
7.223203e+002, 4.345437e+002
7.228024e+002, 4.348507e+002
7.232845e+002, 4.350791e+002
7.237667e+002, 4.352052e+002
7.242488e+002, 4.352706e+002
7.247309e+002, 4.352540e+002
7.252130e+002, 4.351943e+002
7.256951e+002, 4.351338e+002
7.261772e+002, 4.350727e+002
7.266594e+002, 4.350254e+002
7.271415e+002, 4.350190e+002
7.276236e+002, 4.349635e+002
7.281057e+002, 4.346141e+002
7.285878e+002, 4.341162e+002
7.290699e+002, 4.338642e+002
7.295521e+002, 4.341599e+002
7.300342e+002, 4.344670e+002
7.305163e+002, 4.343220e+002
7.309984e+002, 4.339594e+002
7.314805e+002, 4.337962e+002
7.319626e+002, 4.345919e+002
7.324448e+002, 4.347683e+002
7.329269e+002, 4.335700e+002
7.334090e+002, 4.316855e+002
7.338911e+002, 4.311575e+002
7.343732e+002, 4.323496e+002
7.348553e+002, 4.334426e+002
7.353375e+002, 4.339186e+002
7.358196e+002, 4.338807e+002
7.363017e+002, 4.334058e+002
7.367838e+002, 4.325772e+002
7.372659e+002, 4.319022e+002
7.377480e+002, 4.315722e+002
7.382302e+002, 4.315859e+002
7.387123e+002, 4.322238e+002
7.391944e+002, 4.332991e+002
7.396765e+002, 4.339229e+002
7.401586e+002, 4.335141e+002
7.406407e+002, 4.328207e+002
7.411229e+002, 4.320492e+002
7.416050e+002, 4.312144e+002
7.420871e+002, 4.306449e+002
7.425692e+002, 4.303065e+002
7.430513e+002, 4.303135e+002
7.435334e+002, 4.309566e+002
7.440156e+002, 4.320973e+002
7.444977e+002, 4.325114e+002
7.449798e+002, 4.322041e+002
7.454619e+002, 4.315554e+002
7.459440e+002, 4.304141e+002
7.464261e+002, 4.293378e+002
7.469083e+002, 4.292042e+002
7.473904e+002, 4.301030e+002
7.478725e+002, 4.308490e+002
7.483546e+002, 4.306977e+002
7.488367e+002, 4.303269e+002
7.493188e+002, 4.301589e+002
7.498010e+002, 4.302260e+002
7.502831e+002, 4.305259e+002
7.507652e+002, 4.312926e+002
7.512473e+002, 4.319222e+002
7.517294e+002, 4.319108e+002
7.522115e+002, 4.312652e+002
7.526937e+002, 4.303460e+002
7.531758e+002, 4.291037e+002
7.536579e+002, 4.280633e+002
7.541400e+002, 4.280277e+002
7.546221e+002, 4.284784e+002
7.551042e+002, 4.284932e+002
7.555864e+002, 4.277641e+002
7.560685e+002, 4.271642e+002
7.565506e+002, 4.274756e+002
7.570327e+002, 4.279957e+002
7.575148e+002, 4.280047e+002
7.579969e+002, 4.266794e+002
7.584791e+002, 4.260300e+002
7.589612e+002, 4.264265e+002
7.594433e+002, 4.270853e+002
7.599254e+002, 4.269637e+002
7.604075e+002, 4.260139e+002
7.608896e+002, 4.252985e+002
7.613718e+002, 4.250236e+002
7.618539e+002, 4.248671e+002
7.623360e+002, 4.241284e+002
7.628181e+002, 4.232224e+002
7.633002e+002, 4.231260e+002
7.637823e+002, 4.247556e+002
7.642645e+002, 4.261007e+002
7.647466e+002, 4.255557e+002
7.652287e+002, 4.241801e+002
7.657108e+002, 4.235728e+002
7.661929e+002, 4.250818e+002
7.666750e+002, 4.258028e+002
7.671572e+002, 4.252206e+002
7.676393e+002, 4.239430e+002
7.681214e+002, 4.230233e+002
7.686035e+002, 4.224742e+002
7.690856e+002, 4.221956e+002
7.695677e+002, 4.222418e+002
7.700499e+002, 4.223816e+002
7.705320e+002, 4.223096e+002
7.710141e+002, 4.220390e+002
7.714962e+002, 4.216049e+002
7.719783e+002, 4.206291e+002
7.724604e+002, 4.199006e+002
7.729426e+002, 4.201235e+002
7.734247e+002, 4.208800e+002
7.739068e+002, 4.211967e+002
7.743889e+002, 4.207621e+002
7.748710e+002, 4.201516e+002
7.753531e+002, 4.194202e+002
7.758353e+002, 4.185970e+002
7.763174e+002, 4.176546e+002
7.767995e+002, 4.165811e+002
7.772816e+002, 4.159274e+002
7.777637e+002, 4.161562e+002
7.782458e+002, 4.166419e+002
7.787280e+002, 4.162012e+002
7.792101e+002, 4.150973e+002
7.796922e+002, 4.141781e+002
7.801743e+002, 4.139125e+002
7.806564e+002, 4.138705e+002
7.811385e+002, 4.139145e+002
7.816207e+002, 4.140113e+002
7.821028e+002, 4.140455e+002
7.825849e+002, 4.140579e+002
7.830670e+002, 4.139319e+002
7.835491e+002, 4.136233e+002
7.840313e+002, 4.131482e+002
7.845134e+002, 4.125565e+002
7.849955e+002, 4.118380e+002
7.854776e+002, 4.110752e+002
7.859597e+002, 4.101898e+002
7.864418e+002, 4.093501e+002
7.869240e+002, 4.090178e+002
7.874061e+002, 4.090164e+002
7.878882e+002, 4.086983e+002
7.883703e+002, 4.070565e+002
7.888524e+002, 4.056830e+002
7.893345e+002, 4.057562e+002
7.898167e+002, 4.070264e+002
7.902988e+002, 4.073128e+002
7.907809e+002, 4.060670e+002
7.912630e+002, 4.048002e+002
7.917451e+002, 4.040348e+002
7.922272e+002, 4.036553e+002
7.927094e+002, 4.030918e+002
7.931915e+002, 4.023545e+002
7.936736e+002, 4.015498e+002
7.941557e+002, 4.005845e+002
7.946378e+002, 3.996871e+002
7.951199e+002, 3.993088e+002
7.956021e+002, 3.993241e+002
7.960842e+002, 3.991321e+002
7.965663e+002, 3.983115e+002
7.970484e+002, 3.973830e+002
7.975305e+002, 3.964717e+002
7.980126e+002, 3.956160e+002
7.984948e+002, 3.951756e+002
7.989769e+002, 3.954352e+002
7.994590e+002, 3.953964e+002
7.999411e+002, 3.944997e+002
8.004232e+002, 3.930170e+002
8.009053e+002, 3.920639e+002
8.013875e+002, 3.915992e+002
8.018696e+002, 3.912027e+002
8.023517e+002, 3.905054e+002
8.028338e+002, 3.898305e+002
8.033159e+002, 3.896295e+002
8.037980e+002, 3.898003e+002
8.042802e+002, 3.897256e+002
8.047623e+002, 3.889864e+002
8.052444e+002, 3.881800e+002
8.057265e+002, 3.873931e+002
8.062086e+002, 3.866744e+002
8.066907e+002, 3.866242e+002
8.071729e+002, 3.874536e+002
8.076550e+002, 3.880146e+002
8.081371e+002, 3.876595e+002
8.086192e+002, 3.866857e+002
8.091013e+002, 3.858730e+002
8.095834e+002, 3.851814e+002
8.100656e+002, 3.843783e+002
8.105477e+002, 3.831313e+002
8.110298e+002, 3.818995e+002
8.115119e+002, 3.810446e+002
8.119940e+002, 3.805273e+002
8.124761e+002, 3.799374e+002
8.129583e+002, 3.791920e+002
8.134404e+002, 3.783873e+002
8.139225e+002, 3.774203e+002
8.144046e+002, 3.764099e+002
8.148867e+002, 3.762677e+002
8.153688e+002, 3.770604e+002
8.158510e+002, 3.774003e+002
8.163331e+002, 3.760521e+002
8.168152e+002, 3.740957e+002
8.172973e+002, 3.735079e+002
8.177794e+002, 3.739704e+002
8.182615e+002, 3.742418e+002
8.187437e+002, 3.732437e+002
8.192258e+002, 3.723475e+002
8.197079e+002, 3.725809e+002
8.201900e+002, 3.736578e+002
8.206721e+002, 3.733911e+002
8.211542e+002, 3.709257e+002
8.216364e+002, 3.690351e+002
8.221185e+002, 3.689213e+002
8.226006e+002, 3.699053e+002
8.230827e+002, 3.696624e+002
8.235648e+002, 3.683174e+002
8.240469e+002, 3.668506e+002
8.245291e+002, 3.657176e+002
8.250112e+002, 3.647525e+002
8.254933e+002, 3.636298e+002
8.259754e+002, 3.625170e+002
8.264575e+002, 3.619178e+002
8.269396e+002, 3.627705e+002
8.274218e+002, 3.632603e+002
8.279039e+002, 3.627937e+002
8.283860e+002, 3.616381e+002
8.288681e+002, 3.606724e+002
8.293502e+002, 3.599015e+002
8.298323e+002, 3.592421e+002
8.303145e+002, 3.586784e+002
8.307966e+002, 3.581891e+002
8.312787e+002, 3.576961e+002
8.317608e+002, 3.572343e+002
8.322429e+002, 3.569322e+002
8.327250e+002, 3.569554e+002
8.332072e+002, 3.570386e+002
8.336893e+002, 3.571794e+002
8.341714e+002, 3.572719e+002
8.346535e+002, 3.570089e+002
8.351356e+002, 3.561791e+002
8.356177e+002, 3.553760e+002
8.360999e+002, 3.546800e+002
8.365820e+002, 3.540828e+002
8.370641e+002, 3.535559e+002
8.375462e+002, 3.531007e+002
8.380283e+002, 3.527329e+002
8.385104e+002, 3.524653e+002
8.389926e+002, 3.522703e+002
8.394747e+002, 3.521465e+002
8.399568e+002, 3.520663e+002
8.404389e+002, 3.519811e+002
8.409210e+002, 3.518969e+002
8.414031e+002, 3.517726e+002
8.418853e+002, 3.515732e+002
8.423674e+002, 3.513370e+002
8.428495e+002, 3.511064e+002
8.433316e+002, 3.508657e+002
8.438137e+002, 3.506945e+002
8.442958e+002, 3.506078e+002
8.447780e+002, 3.505841e+002
8.452601e+002, 3.506686e+002
8.457422e+002, 3.507851e+002
8.462243e+002, 3.507481e+002
8.467064e+002, 3.504877e+002
8.471885e+002, 3.501180e+002
8.476707e+002, 3.495016e+002
8.481528e+002, 3.489073e+002
8.486349e+002, 3.486758e+002
8.491170e+002, 3.492155e+002
8.495991e+002, 3.494191e+002
8.500812e+002, 3.491823e+002
8.505634e+002, 3.487581e+002
8.510455e+002, 3.484267e+002
8.515276e+002, 3.481723e+002
8.520097e+002, 3.477557e+002
8.524918e+002, 3.470892e+002
8.529739e+002, 3.466919e+002
8.534561e+002, 3.472754e+002
8.539382e+002, 3.482643e+002
8.544203e+002, 3.490547e+002
8.549024e+002, 3.495617e+002
8.553845e+002, 3.497645e+002
8.558666e+002, 3.491732e+002
8.563488e+002, 3.487131e+002
8.568309e+002, 3.491394e+002
8.573130e+002, 3.506529e+002
8.577951e+002, 3.513336e+002
8.582772e+002, 3.510482e+002
8.587593e+002, 3.507356e+002
8.592415e+002, 3.512611e+002
8.597236e+002, 3.522900e+002
8.602057e+002, 3.533714e+002
8.606878e+002, 3.544562e+002
8.611699e+002, 3.553373e+002
8.616520e+002, 3.557571e+002
8.621342e+002, 3.560846e+002
8.626163e+002, 3.565082e+002
8.630984e+002, 3.570239e+002
8.635805e+002, 3.577996e+002
8.640626e+002, 3.589070e+002
8.645447e+002, 3.600801e+002
8.650269e+002, 3.612460e+002
8.655090e+002, 3.623631e+002
8.659911e+002, 3.632565e+002
8.664732e+002, 3.639275e+002
8.669553e+002, 3.643780e+002
8.674374e+002, 3.641917e+002
8.679196e+002, 3.641387e+002
8.684017e+002, 3.648585e+002
8.688838e+002, 3.662578e+002
8.693659e+002, 3.675776e+002
8.698480e+002, 3.688675e+002
8.703301e+002, 3.698315e+002
8.708123e+002, 3.702634e+002
8.712944e+002, 3.703607e+002
8.717765e+002, 3.708628e+002
8.722586e+002, 3.717220e+002
8.727407e+002, 3.725341e+002
8.732228e+002, 3.729673e+002
8.737050e+002, 3.734325e+002
8.741871e+002, 3.746239e+002
8.746692e+002, 3.761462e+002
8.751513e+002, 3.771543e+002
8.756334e+002, 3.766307e+002
8.761155e+002, 3.765443e+002
8.765977e+002, 3.776566e+002
8.770798e+002, 3.791371e+002
8.775619e+002, 3.794124e+002
8.780440e+002, 3.784117e+002
8.785261e+002, 3.771940e+002
8.790082e+002, 3.758418e+002
8.794904e+002, 3.746918e+002
8.799725e+002, 3.743914e+002
8.804546e+002, 3.745252e+002
8.809367e+002, 3.743426e+002
8.814188e+002, 3.734761e+002
8.819009e+002, 3.726277e+002
8.823831e+002, 3.721847e+002
8.828652e+002, 3.717766e+002
8.833473e+002, 3.710335e+002
8.838294e+002, 3.698438e+002
8.843115e+002, 3.687592e+002
8.847936e+002, 3.678408e+002
8.852758e+002, 3.668832e+002
8.857579e+002, 3.655426e+002
8.862400e+002, 3.640340e+002
8.867221e+002, 3.629352e+002
8.872042e+002, 3.623504e+002
8.876863e+002, 3.616095e+002
8.881685e+002, 3.600182e+002
8.886506e+002, 3.583604e+002
8.891327e+002, 3.572904e+002
8.896148e+002, 3.569476e+002
8.900969e+002, 3.561635e+002
8.905790e+002, 3.547597e+002
8.910612e+002, 3.533307e+002
8.915433e+002, 3.522014e+002
8.920254e+002, 3.513221e+002
8.925075e+002, 3.506340e+002
8.929896e+002, 3.500956e+002
8.934717e+002, 3.494339e+002
8.939539e+002, 3.482631e+002
8.944360e+002, 3.470932e+002
8.949181e+002, 3.463601e+002
8.954002e+002, 3.459804e+002
8.958823e+002, 3.453567e+002
8.963644e+002, 3.442541e+002
8.968466e+002, 3.433022e+002
8.973287e+002, 3.426925e+002
8.978108e+002, 3.423274e+002
8.982929e+002, 3.419572e+002
8.987750e+002, 3.415859e+002
8.992571e+002, 3.411904e+002
8.997393e+002, 3.406661e+002
9.002214e+002, 3.402652e+002
9.007035e+002, 3.403857e+002
9.011856e+002, 3.407308e+002
9.016677e+002, 3.407997e+002
9.021498e+002, 3.398791e+002
9.026320e+002, 3.395389e+002
9.031141e+002, 3.400331e+002
9.035962e+002, 3.409322e+002
9.040783e+002, 3.416537e+002
9.045604e+002, 3.422229e+002
9.050425e+002, 3.429812e+002
9.055247e+002, 3.440194e+002
9.060068e+002, 3.449881e+002
9.064889e+002, 3.451614e+002
9.069710e+002, 3.452970e+002
9.074531e+002, 3.463717e+002
9.079352e+002, 3.489113e+002
9.084174e+002, 3.510232e+002
9.088995e+002, 3.523457e+002
9.093816e+002, 3.533068e+002
9.098637e+002, 3.539160e+002
9.103458e+002, 3.541833e+002
9.108279e+002, 3.555929e+002
9.113101e+002, 3.581622e+002
9.117922e+002, 3.609079e+002
9.122743e+002, 3.631000e+002
9.127564e+002, 3.650966e+002
9.132385e+002, 3.671488e+002
9.137206e+002, 3.693157e+002
9.142028e+002, 3.718925e+002
9.146849e+002, 3.754728e+002
9.151670e+002, 3.788656e+002
9.156491e+002, 3.814312e+002
9.161312e+002, 3.836001e+002
9.166133e+002, 3.873348e+002
9.170955e+002, 3.926862e+002
9.175776e+002, 3.975267e+002
9.180597e+002, 4.007337e+002
9.185418e+002, 4.036458e+002
9.190239e+002, 4.077784e+002
9.195060e+002, 4.128912e+002
9.199882e+002, 4.184424e+002
9.204703e+002, 4.246454e+002
9.209524e+002, 4.308306e+002
9.214345e+002, 4.365409e+002
9.219166e+002, 4.423824e+002
9.223987e+002, 4.492325e+002
9.228809e+002, 4.571942e+002
9.233630e+002, 4.647756e+002
9.238451e+002, 4.717926e+002
9.243272e+002, 4.787454e+002
9.248093e+002, 4.860150e+002
9.252914e+002, 4.935573e+002
9.257736e+002, 5.010867e+002
9.262557e+002, 5.085102e+002
9.267378e+002, 5.165925e+002
9.272199e+002, 5.259788e+002
9.277020e+002, 5.356086e+002
9.281841e+002, 5.449942e+002
9.286663e+002, 5.541029e+002
9.291484e+002, 5.632283e+002
9.296305e+002, 5.724513e+002
9.301126e+002, 5.815587e+002
9.305947e+002, 5.905253e+002
9.310768e+002, 5.993772e+002
9.315590e+002, 6.078972e+002
9.320411e+002, 6.162899e+002
9.325232e+002, 6.248417e+002
9.330053e+002, 6.345889e+002
9.334874e+002, 6.435502e+002
9.339695e+002, 6.511744e+002
9.344517e+002, 6.578033e+002
9.349338e+002, 6.644118e+002
9.354159e+002, 6.709518e+002
9.358980e+002, 6.774614e+002
9.363801e+002, 6.838388e+002
9.368622e+002, 6.901478e+002
9.373444e+002, 6.967941e+002
9.378265e+002, 7.031629e+002
9.383086e+002, 7.083401e+002
9.387907e+002, 7.112789e+002
9.392728e+002, 7.144988e+002
9.397549e+002, 7.186367e+002
9.402371e+002, 7.229143e+002
9.407192e+002, 7.269415e+002
9.412013e+002, 7.307108e+002
9.416834e+002, 7.333240e+002
9.421655e+002, 7.346711e+002
9.426476e+002, 7.361991e+002
9.431298e+002, 7.393395e+002
9.436119e+002, 7.431251e+002
9.440940e+002, 7.465984e+002
9.445761e+002, 7.497209e+002
9.450582e+002, 7.527864e+002
9.455403e+002, 7.561635e+002
9.460225e+002, 7.591041e+002
9.465046e+002, 7.612037e+002
9.469867e+002, 7.627181e+002
9.474688e+002, 7.647188e+002
9.479509e+002, 7.671711e+002
9.484330e+002, 7.699247e+002
9.489152e+002, 7.733063e+002
9.493973e+002, 7.764205e+002
9.498794e+002, 7.788753e+002
9.503615e+002, 7.803419e+002
9.508436e+002, 7.802360e+002
9.513257e+002, 7.778319e+002
9.518079e+002, 7.745761e+002
9.522900e+002, 7.706493e+002
9.527721e+002, 7.657858e+002
9.532542e+002, 7.595914e+002
9.537363e+002, 7.521339e+002
9.542184e+002, 7.439158e+002
9.547006e+002, 7.349660e+002
9.551827e+002, 7.252211e+002
9.556648e+002, 7.146422e+002
9.561469e+002, 7.030765e+002
9.566290e+002, 6.903286e+002
9.571111e+002, 6.761901e+002
9.575933e+002, 6.620300e+002
9.580754e+002, 6.477659e+002
9.585575e+002, 6.337639e+002
9.590396e+002, 6.205667e+002
9.595217e+002, 6.077867e+002
9.600038e+002, 5.932895e+002
9.604860e+002, 5.775178e+002
9.609681e+002, 5.627262e+002
9.614502e+002, 5.504821e+002
9.619323e+002, 5.393518e+002
9.624144e+002, 5.288915e+002
9.628965e+002, 5.189705e+002
9.633787e+002, 5.095083e+002
9.638608e+002, 5.002794e+002
9.643429e+002, 4.918097e+002
9.648250e+002, 4.841152e+002
9.653071e+002, 4.771286e+002
9.657892e+002, 4.708495e+002
9.662714e+002, 4.652838e+002
9.667535e+002, 4.603922e+002
9.672356e+002, 4.562433e+002
9.677177e+002, 4.525534e+002
9.681998e+002, 4.490616e+002
9.686819e+002, 4.461266e+002
9.691641e+002, 4.441299e+002
9.696462e+002, 4.430863e+002
9.701283e+002, 4.421015e+002
9.706104e+002, 4.411101e+002
9.710925e+002, 4.404683e+002
9.715746e+002, 4.406479e+002
9.720568e+002, 4.411520e+002
9.725389e+002, 4.407773e+002
9.730210e+002, 4.398964e+002
9.735031e+002, 4.397559e+002
9.739852e+002, 4.415030e+002
9.744673e+002, 4.433115e+002
9.749495e+002, 4.442904e+002
9.754316e+002, 4.452160e+002
9.759137e+002, 4.476876e+002
9.763958e+002, 4.518223e+002
9.768779e+002, 4.550305e+002
9.773600e+002, 4.566147e+002
9.778422e+002, 4.583292e+002
9.783243e+002, 4.624075e+002
9.788064e+002, 4.676127e+002
9.792885e+002, 4.721949e+002
9.797706e+002, 4.755617e+002
9.802527e+002, 4.799225e+002
9.807349e+002, 4.860636e+002
9.812170e+002, 4.926506e+002
9.816991e+002, 4.987294e+002
9.821812e+002, 5.045086e+002
9.826633e+002, 5.115070e+002
9.831454e+002, 5.196635e+002
9.836276e+002, 5.283381e+002
9.841097e+002, 5.370225e+002
9.845918e+002, 5.462250e+002
9.850739e+002, 5.562057e+002
9.855560e+002, 5.669420e+002
9.860381e+002, 5.783022e+002
9.865203e+002, 5.900692e+002
9.870024e+002, 6.027211e+002
9.874845e+002, 6.162081e+002
9.879666e+002, 6.308207e+002
9.884487e+002, 6.473384e+002
9.889308e+002, 6.652597e+002
9.894130e+002, 6.833726e+002
9.898951e+002, 7.013298e+002
9.903772e+002, 7.205896e+002
9.908593e+002, 7.422178e+002
9.913414e+002, 7.653181e+002
9.918235e+002, 7.893271e+002
9.923057e+002, 8.143557e+002
9.927878e+002, 8.402088e+002
9.932699e+002, 8.670602e+002
9.937520e+002, 8.950352e+002
9.942341e+002, 9.239650e+002
9.947162e+002, 9.543558e+002
9.951984e+002, 9.868786e+002
9.956805e+002, 1.021429e+003
9.961626e+002, 1.056774e+003
9.966447e+002, 1.092696e+003
9.971268e+002, 1.129536e+003
9.976089e+002, 1.167259e+003
9.980911e+002, 1.206453e+003
9.985732e+002, 1.247801e+003
9.990553e+002, 1.291436e+003
9.995374e+002, 1.335506e+003
1.000020e+003, 1.379074e+003
1.000502e+003, 1.422740e+003
1.000984e+003, 1.466319e+003
1.001466e+003, 1.509808e+003
1.001948e+003, 1.553238e+003
1.002430e+003, 1.596227e+003
1.002912e+003, 1.639081e+003
1.003394e+003, 1.681735e+003
1.003876e+003, 1.723829e+003
1.004359e+003, 1.764875e+003
1.004841e+003, 1.805536e+003
1.005323e+003, 1.847159e+003
1.005805e+003, 1.889496e+003
1.006287e+003, 1.929854e+003
1.006769e+003, 1.967033e+003
1.007251e+003, 2.002934e+003
1.007733e+003, 2.037396e+003
1.008216e+003, 2.071473e+003
1.008698e+003, 2.106088e+003
1.009180e+003, 2.142250e+003
1.009662e+003, 2.176055e+003
1.010144e+003, 2.206966e+003
1.010626e+003, 2.236833e+003
1.011108e+003, 2.267311e+003
1.011590e+003, 2.297169e+003
1.012072e+003, 2.324623e+003
1.012555e+003, 2.349694e+003
1.013037e+003, 2.371704e+003
1.013519e+003, 2.390675e+003
1.014001e+003, 2.406034e+003
1.014483e+003, 2.418479e+003
1.014965e+003, 2.427048e+003
1.015447e+003, 2.428989e+003
1.015929e+003, 2.424317e+003
1.016411e+003, 2.412555e+003
1.016894e+003, 2.393210e+003
1.017376e+003, 2.367696e+003
1.017858e+003, 2.336966e+003
1.018340e+003, 2.301019e+003
1.018822e+003, 2.260043e+003
1.019304e+003, 2.213161e+003
1.019786e+003, 2.162545e+003
1.020268e+003, 2.107063e+003
1.020751e+003, 2.050917e+003
1.021233e+003, 1.996225e+003
1.021715e+003, 1.943407e+003
1.022197e+003, 1.894735e+003
1.022679e+003, 1.849797e+003
1.023161e+003, 1.807221e+003
1.023643e+003, 1.764310e+003
1.024125e+003, 1.725954e+003
1.024607e+003, 1.695095e+003
1.025090e+003, 1.669613e+003
1.025572e+003, 1.645345e+003
1.026054e+003, 1.621943e+003
1.026536e+003, 1.602941e+003
1.027018e+003, 1.589125e+003
1.027500e+003, 1.577901e+003
1.027982e+003, 1.566931e+003
1.028464e+003, 1.556761e+003
1.028947e+003, 1.547944e+003
1.029429e+003, 1.540630e+003
1.029911e+003, 1.535052e+003
1.030393e+003, 1.531605e+003
1.030875e+003, 1.528901e+003
1.031357e+003, 1.526138e+003
1.031839e+003, 1.523683e+003
1.032321e+003, 1.522809e+003
1.032803e+003, 1.523424e+003
1.033286e+003, 1.525051e+003
1.033768e+003, 1.527924e+003
1.034250e+003, 1.531219e+003
1.034732e+003, 1.534918e+003
1.035214e+003, 1.538694e+003
1.035696e+003, 1.541900e+003
1.036178e+003, 1.544298e+003
1.036660e+003, 1.547656e+003
1.037143e+003, 1.552277e+003
1.037625e+003, 1.556718e+003
1.038107e+003, 1.559675e+003
1.038589e+003, 1.561751e+003
1.039071e+003, 1.563315e+003
1.039553e+003, 1.564490e+003
1.040035e+003, 1.566465e+003
1.040517e+003, 1.570840e+003
1.041000e+003, 1.573833e+003
1.041482e+003, 1.573742e+003
1.041964e+003, 1.572245e+003
1.042446e+003, 1.574066e+003
1.042928e+003, 1.578186e+003
1.043410e+003, 1.580102e+003
1.043892e+003, 1.577747e+003
1.044374e+003, 1.575273e+003
1.044856e+003, 1.575264e+003
1.045339e+003, 1.576292e+003
1.045821e+003, 1.577010e+003
1.046303e+003, 1.577252e+003
1.046785e+003, 1.578485e+003
1.047267e+003, 1.580869e+003
1.047749e+003, 1.582832e+003
1.048231e+003, 1.582148e+003
1.048713e+003, 1.581231e+003
1.049195e+003, 1.583843e+003
1.049677e+003, 1.588840e+003
1.050160e+003, 1.592847e+003
1.050642e+003, 1.593414e+003
1.051124e+003, 1.594957e+003
1.051606e+003, 1.597902e+003
1.052088e+003, 1.602038e+003
1.052570e+003, 1.607161e+003
1.053052e+003, 1.613219e+003
1.053534e+003, 1.619821e+003
1.054017e+003, 1.626921e+003
1.054499e+003, 1.634494e+003
1.054981e+003, 1.642254e+003
1.055463e+003, 1.650778e+003
1.055945e+003, 1.660788e+003
1.056427e+003, 1.671941e+003
1.056909e+003, 1.681945e+003
1.057391e+003, 1.690651e+003
1.057874e+003, 1.700085e+003
1.058356e+003, 1.710914e+003
1.058838e+003, 1.722875e+003
1.059320e+003, 1.735430e+003
1.059802e+003, 1.748966e+003
1.060284e+003, 1.764505e+003
1.060766e+003, 1.783110e+003
1.061248e+003, 1.801858e+003
1.061730e+003, 1.820527e+003
1.062213e+003, 1.839501e+003
1.062695e+003, 1.858892e+003
1.063177e+003, 1.878819e+003
1.063659e+003, 1.899922e+003
1.064141e+003, 1.922202e+003
1.064623e+003, 1.945357e+003
1.065105e+003, 1.969392e+003
1.065587e+003, 1.994051e+003
1.066070e+003, 2.019599e+003
1.066552e+003, 2.045835e+003
1.067034e+003, 2.072227e+003
1.067516e+003, 2.098636e+003
1.067998e+003, 2.126055e+003
1.068480e+003, 2.154435e+003
1.068962e+003, 2.182909e+003
1.069444e+003, 2.211054e+003
1.069927e+003, 2.238531e+003
1.070409e+003, 2.265453e+003
1.070891e+003, 2.291385e+003
1.071373e+003, 2.317083e+003
1.071855e+003, 2.342310e+003
1.072337e+003, 2.368333e+003
1.072819e+003, 2.396121e+003
1.073301e+003, 2.424487e+003
1.073783e+003, 2.452477e+003
1.074266e+003, 2.479691e+003
1.074748e+003, 2.505353e+003
1.075230e+003, 2.528625e+003
1.075712e+003, 2.552010e+003
1.076194e+003, 2.576887e+003
1.076676e+003, 2.601545e+003
1.077158e+003, 2.625693e+003
1.077640e+003, 2.649050e+003
1.078122e+003, 2.669214e+003
1.078604e+003, 2.686487e+003
1.079087e+003, 2.703472e+003
1.079569e+003, 2.723832e+003
1.080051e+003, 2.742011e+003
1.080533e+003, 2.753379e+003
1.081015e+003, 2.760429e+003
1.081497e+003, 2.768468e+003
1.081979e+003, 2.778148e+003
1.082461e+003, 2.785464e+003
1.082944e+003, 2.790172e+003
1.083426e+003, 2.792054e+003
1.083908e+003, 2.790510e+003
1.084390e+003, 2.786206e+003
1.084872e+003, 2.779911e+003
1.085354e+003, 2.771629e+003
1.085836e+003, 2.760987e+003
1.086318e+003, 2.747725e+003
1.086801e+003, 2.732446e+003
1.087283e+003, 2.715094e+003
1.087765e+003, 2.696097e+003
1.088247e+003, 2.676517e+003
1.088729e+003, 2.655813e+003
1.089211e+003, 2.632856e+003
1.089693e+003, 2.607122e+003
1.090175e+003, 2.579934e+003
1.090657e+003, 2.551555e+003
1.091140e+003, 2.522026e+003
1.091622e+003, 2.491255e+003
1.092104e+003, 2.459360e+003
1.092586e+003, 2.427681e+003
1.093068e+003, 2.395960e+003
1.093550e+003, 2.362853e+003
1.094032e+003, 2.326965e+003
1.094514e+003, 2.290176e+003
1.094997e+003, 2.252286e+003
1.095479e+003, 2.215186e+003
1.095961e+003, 2.181255e+003
1.096443e+003, 2.152365e+003
1.096925e+003, 2.119417e+003
1.097407e+003, 2.081644e+003
1.097889e+003, 2.043483e+003
1.098371e+003, 2.007746e+003
1.098854e+003, 1.974529e+003
1.099336e+003, 1.945886e+003
1.099818e+003, 1.920200e+003
1.100300e+003, 1.891840e+003
1.100782e+003, 1.856922e+003
1.101264e+003, 1.823733e+003
1.101746e+003, 1.793609e+003
1.102228e+003, 1.765554e+003
1.102710e+003, 1.738817e+003
1.103193e+003, 1.713253e+003
1.103675e+003, 1.687677e+003
1.104157e+003, 1.662086e+003
1.104639e+003, 1.637430e+003
1.105121e+003, 1.614575e+003
1.105603e+003, 1.591965e+003
1.106085e+003, 1.568623e+003
1.106567e+003, 1.544984e+003
1.107049e+003, 1.522675e+003
1.107531e+003, 1.501435e+003
1.108014e+003, 1.481620e+003
1.108496e+003, 1.463120e+003
1.108978e+003, 1.445409e+003
1.109460e+003, 1.428208e+003
1.109942e+003, 1.411473e+003
1.110424e+003, 1.395332e+003
1.110906e+003, 1.379617e+003
1.111388e+003, 1.364798e+003
1.111871e+003, 1.350901e+003
1.112353e+003, 1.337528e+003
1.112835e+003, 1.324902e+003
1.113317e+003, 1.312204e+003
1.113799e+003, 1.298406e+003
1.114281e+003, 1.284203e+003
1.114763e+003, 1.270484e+003
1.115245e+003, 1.257264e+003
1.115728e+003, 1.245536e+003
1.116210e+003, 1.235782e+003
1.116692e+003, 1.226086e+003
1.117174e+003, 1.214375e+003
1.117656e+003, 1.202026e+003
1.118138e+003, 1.191989e+003
1.118620e+003, 1.183702e+003
1.119102e+003, 1.174617e+003
1.119584e+003, 1.162515e+003
1.120067e+003, 1.151422e+003
1.120549e+003, 1.142155e+003
1.121031e+003, 1.133751e+003
1.121513e+003, 1.125375e+003
1.121995e+003, 1.116725e+003
1.122477e+003, 1.106711e+003
1.122959e+003, 1.095144e+003
1.123441e+003, 1.083808e+003
1.123924e+003, 1.073859e+003
1.124406e+003, 1.064070e+003
1.124888e+003, 1.053556e+003
1.125370e+003, 1.042960e+003
1.125852e+003, 1.034652e+003
1.126334e+003, 1.028305e+003
1.126816e+003, 1.020312e+003
1.127298e+003, 1.009629e+003
1.127781e+003, 9.984647e+002
1.128263e+003, 9.873527e+002
1.128745e+003, 9.773798e+002
1.129227e+003, 9.702239e+002
1.129709e+003, 9.656163e+002
1.130191e+003, 9.583837e+002
1.130673e+003, 9.483113e+002
1.131155e+003, 9.379866e+002
1.131637e+003, 9.280585e+002
1.132120e+003, 9.188715e+002
1.132602e+003, 9.114354e+002
1.133084e+003, 9.046148e+002
1.133566e+003, 8.969564e+002
1.134048e+003, 8.878293e+002
1.134530e+003, 8.788986e+002
1.135012e+003, 8.699194e+002
1.135494e+003, 8.620179e+002
1.135976e+003, 8.566281e+002
1.136458e+003, 8.521773e+002
1.136941e+003, 8.464570e+002
1.137423e+003, 8.396575e+002
1.137905e+003, 8.322678e+002
1.138387e+003, 8.241524e+002
1.138869e+003, 8.155626e+002
1.139351e+003, 8.061694e+002
1.139833e+003, 7.971999e+002
1.140315e+003, 7.902310e+002
1.140798e+003, 7.846047e+002
1.141280e+003, 7.789869e+002
1.141762e+003, 7.732314e+002
1.142244e+003, 7.672352e+002
1.142726e+003, 7.605804e+002
1.143208e+003, 7.540731e+002
1.143690e+003, 7.478007e+002
1.144172e+003, 7.417956e+002
1.144655e+003, 7.358868e+002
1.145137e+003, 7.302449e+002
1.145619e+003, 7.253939e+002
1.146101e+003, 7.214441e+002
1.146583e+003, 7.169486e+002
1.147065e+003, 7.106270e+002
1.147547e+003, 7.039972e+002
1.148029e+003, 6.974539e+002
1.148511e+003, 6.912741e+002
1.148994e+003, 6.865377e+002
1.149476e+003, 6.830639e+002
1.149958e+003, 6.791908e+002
1.150440e+003, 6.744406e+002
1.150922e+003, 6.695254e+002
1.151404e+003, 6.645790e+002
1.151886e+003, 6.599799e+002
1.152368e+003, 6.562193e+002
1.152851e+003, 6.531373e+002
1.153333e+003, 6.492979e+002
1.153815e+003, 6.446894e+002
1.154297e+003, 6.398121e+002
1.154779e+003, 6.345219e+002
1.155261e+003, 6.297559e+002
1.155743e+003, 6.272669e+002
1.156225e+003, 6.253887e+002
1.156708e+003, 6.220240e+002
1.157190e+003, 6.168347e+002
1.157672e+003, 6.124077e+002
1.158154e+003, 6.088581e+002
1.158636e+003, 6.050733e+002
1.159118e+003, 5.999274e+002
1.159600e+003, 5.948766e+002
1.160082e+003, 5.919622e+002
1.160564e+003, 5.901943e+002
1.161047e+003, 5.878396e+002
1.161529e+003, 5.844776e+002
1.162011e+003, 5.810339e+002
1.162493e+003, 5.775577e+002
1.162975e+003, 5.737682e+002
1.163457e+003, 5.689255e+002
1.163939e+003, 5.639874e+002
1.164421e+003, 5.605890e+002
1.164903e+003, 5.582623e+002
1.165385e+003, 5.555344e+002
1.165868e+003, 5.516794e+002
1.166350e+003, 5.482004e+002
1.166832e+003, 5.453116e+002
1.167314e+003, 5.425754e+002
1.167796e+003, 5.396333e+002
1.168278e+003, 5.365320e+002
1.168760e+003, 5.331689e+002
1.169242e+003, 5.296517e+002
1.169725e+003, 5.267357e+002
1.170207e+003, 5.253140e+002
1.170689e+003, 5.234858e+002
1.171171e+003, 5.209263e+002
1.171653e+003, 5.179545e+002
1.172135e+003, 5.148323e+002
1.172617e+003, 5.117168e+002
1.173099e+003, 5.088719e+002
1.173582e+003, 5.063420e+002
1.174064e+003, 5.040451e+002
1.174546e+003, 5.020084e+002
1.175028e+003, 5.002002e+002
1.175510e+003, 4.988530e+002
1.175992e+003, 4.974527e+002
1.176474e+003, 4.947187e+002
1.176956e+003, 4.911142e+002
1.177438e+003, 4.880533e+002
1.177921e+003, 4.858315e+002
1.178403e+003, 4.838485e+002
1.178885e+003, 4.820697e+002
1.179367e+003, 4.802072e+002
1.179849e+003, 4.781278e+002
1.180331e+003, 4.758990e+002
1.180813e+003, 4.737256e+002
1.181295e+003, 4.716307e+002
1.181778e+003, 4.697133e+002
1.182260e+003, 4.680436e+002
1.182742e+003, 4.664052e+002
1.183224e+003, 4.647101e+002
1.183706e+003, 4.629735e+002
1.184188e+003, 4.611227e+002
1.184670e+003, 4.592325e+002
1.185152e+003, 4.579936e+002
1.185635e+003, 4.572449e+002
1.186117e+003, 4.560754e+002
1.186599e+003, 4.538723e+002
1.187081e+003, 4.517520e+002
1.187563e+003, 4.505555e+002
1.188045e+003, 4.494065e+002
1.188527e+003, 4.474036e+002
1.189009e+003, 4.447177e+002
1.189491e+003, 4.438150e+002
1.189974e+003, 4.444031e+002
1.190456e+003, 4.443234e+002
1.190938e+003, 4.418329e+002
1.191420e+003, 4.393350e+002
1.191902e+003, 4.381931e+002
1.192384e+003, 4.374767e+002
1.192866e+003, 4.362472e+002
1.193348e+003, 4.344878e+002
1.193830e+003, 4.326518e+002
1.194313e+003, 4.307635e+002
1.194795e+003, 4.291737e+002
1.195277e+003, 4.282339e+002
1.195759e+003, 4.274839e+002
1.196241e+003, 4.270609e+002
1.196723e+003, 4.264520e+002
1.197205e+003, 4.248103e+002
1.197687e+003, 4.220903e+002
1.198169e+003, 4.202725e+002
1.198652e+003, 4.194353e+002
1.199134e+003, 4.188571e+002
1.199616e+003, 4.182126e+002
1.200098e+003, 4.175332e+002
1.200580e+003, 4.169564e+002
1.201062e+003, 4.163019e+002
1.201544e+003, 4.151882e+002
1.202026e+003, 4.135988e+002
1.202509e+003, 4.121951e+002
1.202991e+003, 4.110384e+002
1.203473e+003, 4.100723e+002
1.203955e+003, 4.094563e+002
1.204437e+003, 4.087980e+002
1.204919e+003, 4.077682e+002
1.205401e+003, 4.065069e+002
1.205883e+003, 4.052628e+002
1.206365e+003, 4.040146e+002
1.206848e+003, 4.034068e+002
1.207330e+003, 4.035891e+002
1.207812e+003, 4.032242e+002
1.208294e+003, 4.001979e+002
1.208776e+003, 3.972592e+002
1.209258e+003, 3.969865e+002
1.209740e+003, 3.982580e+002
1.210222e+003, 3.978099e+002
1.210705e+003, 3.956162e+002
1.211187e+003, 3.940763e+002
1.211669e+003, 3.936926e+002
1.212151e+003, 3.933036e+002
1.212633e+003, 3.918657e+002
1.213115e+003, 3.901952e+002
1.213597e+003, 3.889095e+002
1.214079e+003, 3.879141e+002
1.214562e+003, 3.867575e+002
1.215044e+003, 3.854521e+002
1.215526e+003, 3.846189e+002
1.216008e+003, 3.845138e+002
1.216490e+003, 3.842150e+002
1.216972e+003, 3.828702e+002
1.217454e+003, 3.811277e+002
1.217936e+003, 3.792415e+002
1.218418e+003, 3.773869e+002
1.218901e+003, 3.767654e+002
1.219383e+003, 3.772912e+002
1.219865e+003, 3.771943e+002
1.220347e+003, 3.758264e+002
1.220829e+003, 3.743005e+002
1.221311e+003, 3.734943e+002
1.221793e+003, 3.728183e+002
1.222275e+003, 3.718267e+002
1.222757e+003, 3.705482e+002
1.223240e+003, 3.691330e+002
1.223722e+003, 3.675954e+002
1.224204e+003, 3.660352e+002
1.224686e+003, 3.643800e+002
1.225168e+003, 3.630364e+002
1.225650e+003, 3.625873e+002
1.226132e+003, 3.622775e+002
1.226614e+003, 3.614837e+002
1.227096e+003, 3.602805e+002
1.227579e+003, 3.594337e+002
1.228061e+003, 3.588709e+002
1.228543e+003, 3.578742e+002
1.229025e+003, 3.558619e+002
1.229507e+003, 3.541097e+002
1.229989e+003, 3.536766e+002
1.230471e+003, 3.535365e+002
1.230953e+003, 3.529159e+002
1.231436e+003, 3.518536e+002
1.231918e+003, 3.507201e+002
1.232400e+003, 3.495139e+002
1.232882e+003, 3.482851e+002
1.233364e+003, 3.470694e+002
1.233846e+003, 3.457805e+002
1.234328e+003, 3.441084e+002
1.234810e+003, 3.425971e+002
1.235292e+003, 3.418069e+002
1.235775e+003, 3.415854e+002
1.236257e+003, 3.405025e+002
1.236739e+003, 3.387108e+002
1.237221e+003, 3.369952e+002
1.237703e+003, 3.356441e+002
1.238185e+003, 3.344964e+002
1.238667e+003, 3.336281e+002
1.239149e+003, 3.328252e+002
1.239632e+003, 3.319171e+002
1.240114e+003, 3.309496e+002
1.240596e+003, 3.302181e+002
1.241078e+003, 3.296270e+002
1.241560e+003, 3.287417e+002
1.242042e+003, 3.270580e+002
1.242524e+003, 3.255185e+002
1.243006e+003, 3.243904e+002
1.243489e+003, 3.234259e+002
1.243971e+003, 3.224253e+002
1.244453e+003, 3.214253e+002
1.244935e+003, 3.207821e+002
1.245417e+003, 3.203342e+002
1.245899e+003, 3.195053e+002
1.246381e+003, 3.174565e+002
1.246863e+003, 3.158916e+002
1.247345e+003, 3.151937e+002
1.247828e+003, 3.147498e+002
1.248310e+003, 3.142217e+002
1.248792e+003, 3.135104e+002
1.249274e+003, 3.121283e+002
1.249756e+003, 3.102932e+002
1.250238e+003, 3.087360e+002
1.250720e+003, 3.078513e+002
1.251202e+003, 3.071202e+002
1.251684e+003, 3.065988e+002
1.252167e+003, 3.059795e+002
1.252649e+003, 3.047588e+002
1.253131e+003, 3.033580e+002
1.253613e+003, 3.026655e+002
1.254095e+003, 3.025072e+002
1.254577e+003, 3.023113e+002
1.255059e+003, 3.023696e+002
1.255541e+003, 3.014043e+002
1.256023e+003, 2.990943e+002
1.256506e+003, 2.966405e+002
1.256988e+003, 2.949547e+002
1.257470e+003, 2.938617e+002
1.257952e+003, 2.934962e+002
1.258434e+003, 2.935170e+002
1.258916e+003, 2.928766e+002
1.259398e+003, 2.911373e+002
1.259880e+003, 2.897110e+002
1.260363e+003, 2.886737e+002
1.260845e+003, 2.879929e+002
1.261327e+003, 2.881480e+002
1.261809e+003, 2.882190e+002
1.262291e+003, 2.868456e+002
1.262773e+003, 2.846786e+002
1.263255e+003, 2.835877e+002
1.263737e+003, 2.840039e+002
1.264219e+003, 2.835654e+002
1.264702e+003, 2.820609e+002
1.265184e+003, 2.805807e+002
1.265666e+003, 2.803456e+002
1.266148e+003, 2.800898e+002
1.266630e+003, 2.784395e+002
1.267112e+003, 2.761894e+002
1.267594e+003, 2.751555e+002
1.268076e+003, 2.754505e+002
1.268559e+003, 2.750112e+002
1.269041e+003, 2.737159e+002
1.269523e+003, 2.725770e+002
1.270005e+003, 2.727552e+002
1.270487e+003, 2.727778e+002
1.270969e+003, 2.715780e+002
1.271451e+003, 2.698177e+002
1.271933e+003, 2.682274e+002
1.272416e+003, 2.668358e+002
1.272898e+003, 2.660672e+002
1.273380e+003, 2.658960e+002
1.273862e+003, 2.656857e+002
1.274344e+003, 2.642231e+002
1.274826e+003, 2.638619e+002
1.275308e+003, 2.665049e+002
1.275790e+003, 2.693250e+002
1.276272e+003, 2.681118e+002
1.276755e+003, 2.640681e+002
1.277237e+003, 2.617185e+002
1.277719e+003, 2.611514e+002
1.278201e+003, 2.607830e+002
1.278683e+003, 2.600186e+002
1.279165e+003, 2.592811e+002
1.279647e+003, 2.586848e+002
1.280129e+003, 2.580627e+002
1.280611e+003, 2.569737e+002
1.281094e+003, 2.558023e+002
1.281576e+003, 2.555343e+002
1.282058e+003, 2.560063e+002
1.282540e+003, 2.562048e+002
1.283022e+003, 2.556363e+002
1.283504e+003, 2.552607e+002
1.283986e+003, 2.552646e+002
1.284468e+003, 2.551427e+002
1.284950e+003, 2.542123e+002
1.285433e+003, 2.529779e+002
1.285915e+003, 2.519952e+002
1.286397e+003, 2.513084e+002
1.286879e+003, 2.509920e+002
1.287361e+003, 2.511286e+002
1.287843e+003, 2.512541e+002
1.288325e+003, 2.513318e+002
1.288807e+003, 2.513773e+002
1.289290e+003, 2.515484e+002
1.289772e+003, 2.515615e+002
1.290254e+003, 2.510928e+002
1.290736e+003, 2.502811e+002
1.291218e+003, 2.494947e+002
1.291700e+003, 2.487377e+002
1.292182e+003, 2.478444e+002
1.292664e+003, 2.468046e+002
1.293146e+003, 2.460693e+002
1.293629e+003, 2.460325e+002
1.294111e+003, 2.463058e+002
1.294593e+003, 2.470458e+002
1.295075e+003, 2.477087e+002
1.295557e+003, 2.474825e+002
1.296039e+003, 2.464925e+002
1.296521e+003, 2.456702e+002
1.297003e+003, 2.450800e+002
1.297486e+003, 2.448248e+002
1.297968e+003, 2.454141e+002
1.298450e+003, 2.457782e+002
1.298932e+003, 2.456700e+002
1.299414e+003, 2.452592e+002
1.299896e+003, 2.446180e+002
1.300378e+003, 2.438574e+002
1.300860e+003, 2.432349e+002
1.301343e+003, 2.427900e+002
1.301825e+003, 2.425632e+002
##END=



