##NAMES=Carlosturanite
##RRUFFID=R060259
##IDEAL CHEMISTRY=(Mg,Fe^2+^,Ti^4+^)_21_(Si,Al)_12_O_28_(OH)_34_&#183;H_2_O
##LOCALITY=Val Varaita, near Sempeyre, Piedmont, Italy
##OWNER=RRUFF
##SOURCE=Michael Scott
##DESCRIPTION=Pale green fibrous bundle
##STATUS=The identification of this mineral has been made only by X-ray diffraction.
##URL=rruff.info/R060259
9.001007e+001, 0.000000e+000
9.049219e+001, 9.773067e+001
9.097430e+001, 9.701611e+001
9.145642e+001, 9.676527e+001
9.193854e+001, 9.787990e+001
9.242065e+001, 9.919070e+001
9.290277e+001, 9.860455e+001
9.338489e+001, 9.564498e+001
9.386700e+001, 9.234872e+001
9.434912e+001, 9.152225e+001
9.483124e+001, 9.278408e+001
9.531335e+001, 9.397189e+001
9.579547e+001, 9.328663e+001
9.627759e+001, 9.129434e+001
9.675970e+001, 9.044151e+001
9.724182e+001, 9.139067e+001
9.772394e+001, 9.323647e+001
9.820605e+001, 9.399416e+001
9.868817e+001, 9.357027e+001
9.917029e+001, 9.282001e+001
9.965240e+001, 9.243656e+001
1.001345e+002, 9.245537e+001
1.006166e+002, 9.225780e+001
1.010988e+002, 9.158267e+001
1.015809e+002, 9.053796e+001
1.020630e+002, 9.006143e+001
1.025451e+002, 9.030357e+001
1.030272e+002, 9.083813e+001
1.035093e+002, 9.111962e+001
1.039915e+002, 9.088645e+001
1.044736e+002, 9.111954e+001
1.049557e+002, 9.252370e+001
1.054378e+002, 9.570251e+001
1.059199e+002, 9.643023e+001
1.064020e+002, 9.294959e+001
1.068842e+002, 8.788205e+001
1.073663e+002, 8.589152e+001
1.078484e+002, 8.971567e+001
1.083305e+002, 9.347071e+001
1.088126e+002, 9.508806e+001
1.092947e+002, 9.300941e+001
1.097769e+002, 9.137633e+001
1.102590e+002, 8.976215e+001
1.107411e+002, 8.851644e+001
1.112232e+002, 8.876667e+001
1.117053e+002, 9.267148e+001
1.121874e+002, 9.657295e+001
1.126696e+002, 9.879851e+001
1.131517e+002, 9.716465e+001
1.136338e+002, 9.602921e+001
1.141159e+002, 9.655277e+001
1.145980e+002, 9.841344e+001
1.150801e+002, 9.929191e+001
1.155623e+002, 9.708180e+001
1.160444e+002, 9.442797e+001
1.165265e+002, 9.337859e+001
1.170086e+002, 9.696413e+001
1.174907e+002, 1.000454e+002
1.179728e+002, 1.000391e+002
1.184550e+002, 9.677557e+001
1.189371e+002, 9.415794e+001
1.194192e+002, 9.445818e+001
1.199013e+002, 9.628470e+001
1.203834e+002, 9.786165e+001
1.208655e+002, 9.746236e+001
1.213477e+002, 9.719579e+001
1.218298e+002, 9.859669e+001
1.223119e+002, 1.019146e+002
1.227940e+002, 1.062032e+002
1.232761e+002, 1.112984e+002
1.237582e+002, 1.169070e+002
1.242404e+002, 1.223756e+002
1.247225e+002, 1.262808e+002
1.252046e+002, 1.302480e+002
1.256867e+002, 1.363825e+002
1.261688e+002, 1.454007e+002
1.266509e+002, 1.557080e+002
1.271331e+002, 1.649490e+002
1.276152e+002, 1.736246e+002
1.280973e+002, 1.842235e+002
1.285794e+002, 1.989000e+002
1.290615e+002, 2.167785e+002
1.295436e+002, 2.357136e+002
1.300258e+002, 2.550738e+002
1.305079e+002, 2.754792e+002
1.309900e+002, 2.979046e+002
1.314721e+002, 3.221578e+002
1.319542e+002, 3.497150e+002
1.324363e+002, 3.817108e+002
1.329185e+002, 4.180644e+002
1.334006e+002, 4.582917e+002
1.338827e+002, 5.030646e+002
1.343648e+002, 5.511824e+002
1.348469e+002, 6.025712e+002
1.353290e+002, 6.579560e+002
1.358112e+002, 7.136596e+002
1.362933e+002, 7.647121e+002
1.367754e+002, 8.111648e+002
1.372575e+002, 8.561277e+002
1.377396e+002, 9.018741e+002
1.382217e+002, 9.474853e+002
1.387039e+002, 9.870715e+002
1.391860e+002, 1.019333e+003
1.396681e+002, 1.047689e+003
1.401502e+002, 1.077155e+003
1.406323e+002, 1.106779e+003
1.411144e+002, 1.139687e+003
1.415966e+002, 1.177415e+003
1.420787e+002, 1.220344e+003
1.425608e+002, 1.265486e+003
1.430429e+002, 1.312139e+003
1.435250e+002, 1.361251e+003
1.440071e+002, 1.414635e+003
1.444893e+002, 1.471415e+003
1.449714e+002, 1.533165e+003
1.454535e+002, 1.600524e+003
1.459356e+002, 1.678543e+003
1.464177e+002, 1.753551e+003
1.468998e+002, 1.825881e+003
1.473820e+002, 1.895344e+003
1.478641e+002, 1.964444e+003
1.483462e+002, 2.034665e+003
1.488283e+002, 2.102260e+003
1.493104e+002, 2.165912e+003
1.497925e+002, 2.223190e+003
1.502747e+002, 2.279219e+003
1.507568e+002, 2.334506e+003
1.512389e+002, 2.388789e+003
1.517210e+002, 2.438363e+003
1.522031e+002, 2.480128e+003
1.526852e+002, 2.518604e+003
1.531674e+002, 2.557052e+003
1.536495e+002, 2.594790e+003
1.541316e+002, 2.632982e+003
1.546137e+002, 2.672097e+003
1.550958e+002, 2.712159e+003
1.555779e+002, 2.751683e+003
1.560601e+002, 2.789538e+003
1.565422e+002, 2.827302e+003
1.570243e+002, 2.865883e+003
1.575064e+002, 2.902077e+003
1.579885e+002, 2.942256e+003
1.584706e+002, 2.989551e+003
1.589528e+002, 3.044906e+003
1.594349e+002, 3.100028e+003
1.599170e+002, 3.151400e+003
1.603991e+002, 3.201830e+003
1.608812e+002, 3.254563e+003
1.613633e+002, 3.311180e+003
1.618455e+002, 3.369776e+003
1.623276e+002, 3.430439e+003
1.628097e+002, 3.492897e+003
1.632918e+002, 3.554727e+003
1.637739e+002, 3.614967e+003
1.642560e+002, 3.669476e+003
1.647382e+002, 3.695028e+003
1.652203e+002, 3.709961e+003
1.657024e+002, 3.723772e+003
1.661845e+002, 3.737908e+003
1.666666e+002, 3.753718e+003
1.671487e+002, 3.766468e+003
1.676309e+002, 3.772396e+003
1.681130e+002, 3.773590e+003
1.685951e+002, 3.774311e+003
1.690772e+002, 3.775577e+003
1.695593e+002, 3.777778e+003
1.700414e+002, 3.781577e+003
1.705236e+002, 3.787864e+003
1.710057e+002, 3.793862e+003
1.714878e+002, 3.796930e+003
1.719699e+002, 3.797945e+003
1.724520e+002, 3.799536e+003
1.729341e+002, 3.802946e+003
1.734163e+002, 3.807789e+003
1.738984e+002, 3.813654e+003
1.743805e+002, 3.820532e+003
1.748626e+002, 3.828161e+003
1.753447e+002, 3.836798e+003
1.758268e+002, 3.846223e+003
1.763090e+002, 3.855584e+003
1.767911e+002, 3.863778e+003
1.772732e+002, 3.871503e+003
1.777553e+002, 3.879916e+003
1.782374e+002, 3.889716e+003
1.787195e+002, 3.899833e+003
1.792017e+002, 3.909142e+003
1.796838e+002, 3.917705e+003
1.801659e+002, 3.925384e+003
1.806480e+002, 3.932162e+003
1.811301e+002, 3.938032e+003
1.816122e+002, 3.942954e+003
1.820944e+002, 3.945816e+003
1.825765e+002, 3.948507e+003
1.830586e+002, 3.955235e+003
1.835407e+002, 3.965835e+003
1.840228e+002, 3.976473e+003
1.845049e+002, 3.984259e+003
1.849871e+002, 3.989340e+003
1.854692e+002, 3.991741e+003
1.859513e+002, 3.990290e+003
1.864334e+002, 3.986658e+003
1.869155e+002, 3.984514e+003
1.873976e+002, 3.983883e+003
1.878798e+002, 3.984522e+003
1.883619e+002, 3.986216e+003
1.888440e+002, 3.988978e+003
1.893261e+002, 3.992820e+003
1.898082e+002, 3.998207e+003
1.902903e+002, 4.004686e+003
1.907725e+002, 4.010935e+003
1.912546e+002, 4.017137e+003
1.917367e+002, 4.022571e+003
1.922188e+002, 4.026091e+003
1.927009e+002, 4.027820e+003
1.931830e+002, 4.029667e+003
1.936652e+002, 4.032404e+003
1.941473e+002, 4.035889e+003
1.946294e+002, 4.039043e+003
1.951115e+002, 4.041735e+003
1.955936e+002, 4.044508e+003
1.960757e+002, 4.047903e+003
1.965579e+002, 4.051905e+003
1.970400e+002, 4.056891e+003
1.975221e+002, 4.063772e+003
1.980042e+002, 4.072298e+003
1.984863e+002, 4.078656e+003
1.989684e+002, 4.082388e+003
1.994506e+002, 4.084969e+003
1.999327e+002, 4.088583e+003
2.004148e+002, 4.093384e+003
2.008969e+002, 4.097962e+003
2.013790e+002, 4.101913e+003
2.018611e+002, 4.105203e+003
2.023433e+002, 4.107555e+003
2.028254e+002, 4.108827e+003
2.033075e+002, 4.109266e+003
2.037896e+002, 4.109001e+003
2.042717e+002, 4.107744e+003
2.047538e+002, 4.106869e+003
2.052360e+002, 4.107149e+003
2.057181e+002, 4.108734e+003
2.062002e+002, 4.109561e+003
2.066823e+002, 4.109267e+003
2.071644e+002, 4.108611e+003
2.076465e+002, 4.109022e+003
2.081287e+002, 4.110663e+003
2.086108e+002, 4.112882e+003
2.090929e+002, 4.115671e+003
2.095750e+002, 4.119347e+003
2.100571e+002, 4.122350e+003
2.105392e+002, 4.124762e+003
2.110214e+002, 4.126643e+003
2.115035e+002, 4.127601e+003
2.119856e+002, 4.126863e+003
2.124677e+002, 4.127546e+003
2.129498e+002, 4.131430e+003
2.134319e+002, 4.139307e+003
2.139140e+002, 4.146934e+003
2.143962e+002, 4.153978e+003
2.148783e+002, 4.160937e+003
2.153604e+002, 4.168913e+003
2.158425e+002, 4.178237e+003
2.163246e+002, 4.187792e+003
2.168067e+002, 4.197509e+003
2.172889e+002, 4.207943e+003
2.177710e+002, 4.215671e+003
2.182531e+002, 4.218992e+003
2.187352e+002, 4.220281e+003
2.192173e+002, 4.225667e+003
2.196994e+002, 4.236679e+003
2.201816e+002, 4.248793e+003
2.206637e+002, 4.260201e+003
2.211458e+002, 4.270658e+003
2.216279e+002, 4.281333e+003
2.221100e+002, 4.292890e+003
2.225921e+002, 4.304557e+003
2.230743e+002, 4.314269e+003
2.235564e+002, 4.320566e+003
2.240385e+002, 4.327605e+003
2.245206e+002, 4.337373e+003
2.250027e+002, 4.351234e+003
2.254848e+002, 4.364800e+003
2.259670e+002, 4.378111e+003
2.264491e+002, 4.391016e+003
2.269312e+002, 4.403273e+003
2.274133e+002, 4.414662e+003
2.278954e+002, 4.425634e+003
2.283775e+002, 4.436269e+003
2.288597e+002, 4.447261e+003
2.293418e+002, 4.456305e+003
2.298239e+002, 4.462769e+003
2.303060e+002, 4.467254e+003
2.307881e+002, 4.471215e+003
2.312702e+002, 4.473944e+003
2.317524e+002, 4.476986e+003
2.322345e+002, 4.481244e+003
2.327166e+002, 4.488204e+003
2.331987e+002, 4.492892e+003
2.336808e+002, 4.495270e+003
2.341629e+002, 4.495380e+003
2.346451e+002, 4.493139e+003
2.351272e+002, 4.487778e+003
2.356093e+002, 4.481446e+003
2.360914e+002, 4.475166e+003
2.365735e+002, 4.469456e+003
2.370556e+002, 4.463057e+003
2.375378e+002, 4.456224e+003
2.380199e+002, 4.448833e+003
2.385020e+002, 4.440419e+003
2.389841e+002, 4.430704e+003
2.394662e+002, 4.420413e+003
2.399483e+002, 4.409907e+003
2.404305e+002, 4.399874e+003
2.409126e+002, 4.388087e+003
2.413947e+002, 4.373534e+003
2.418768e+002, 4.357445e+003
2.423589e+002, 4.342873e+003
2.428410e+002, 4.330106e+003
2.433232e+002, 4.318217e+003
2.438053e+002, 4.306844e+003
2.442874e+002, 4.295626e+003
2.447695e+002, 4.285552e+003
2.452516e+002, 4.276433e+003
2.457337e+002, 4.268440e+003
2.462159e+002, 4.262205e+003
2.466980e+002, 4.259029e+003
2.471801e+002, 4.255625e+003
2.476622e+002, 4.250393e+003
2.481443e+002, 4.241927e+003
2.486264e+002, 4.235575e+003
2.491086e+002, 4.230928e+003
2.495907e+002, 4.228590e+003
2.500728e+002, 4.230218e+003
2.505549e+002, 4.238022e+003
2.510370e+002, 4.246077e+003
2.515191e+002, 4.252391e+003
2.520013e+002, 4.256952e+003
2.524834e+002, 4.259256e+003
2.529655e+002, 4.258230e+003
2.534476e+002, 4.255466e+003
2.539297e+002, 4.253836e+003
2.544118e+002, 4.253430e+003
2.548940e+002, 4.253917e+003
2.553761e+002, 4.255666e+003
2.558582e+002, 4.259624e+003
2.563403e+002, 4.260782e+003
2.568224e+002, 4.257831e+003
2.573046e+002, 4.253140e+003
2.577867e+002, 4.250613e+003
2.582688e+002, 4.250577e+003
2.587509e+002, 4.252217e+003
2.592330e+002, 4.256356e+003
2.597151e+002, 4.264351e+003
2.601973e+002, 4.266877e+003
2.606794e+002, 4.261426e+003
2.611615e+002, 4.253043e+003
2.616436e+002, 4.249239e+003
2.621257e+002, 4.251267e+003
2.626078e+002, 4.254801e+003
2.630900e+002, 4.259114e+003
2.635721e+002, 4.264521e+003
2.640542e+002, 4.267208e+003
2.645363e+002, 4.265479e+003
2.650184e+002, 4.262965e+003
2.655005e+002, 4.265200e+003
2.659827e+002, 4.274620e+003
2.664648e+002, 4.281305e+003
2.669469e+002, 4.281150e+003
2.674290e+002, 4.273892e+003
2.679111e+002, 4.271228e+003
2.683932e+002, 4.274932e+003
2.688754e+002, 4.280459e+003
2.693575e+002, 4.282532e+003
2.698396e+002, 4.280315e+003
2.703217e+002, 4.277826e+003
2.708038e+002, 4.276029e+003
2.712859e+002, 4.274896e+003
2.717681e+002, 4.273561e+003
2.722502e+002, 4.271755e+003
2.727323e+002, 4.270369e+003
2.732144e+002, 4.269850e+003
2.736965e+002, 4.269792e+003
2.741786e+002, 4.273158e+003
2.746608e+002, 4.282637e+003
2.751429e+002, 4.296586e+003
2.756250e+002, 4.302182e+003
2.761071e+002, 4.297293e+003
2.765892e+002, 4.290232e+003
2.770714e+002, 4.289083e+003
2.775535e+002, 4.294586e+003
2.780356e+002, 4.299265e+003
2.785177e+002, 4.301907e+003
2.789998e+002, 4.302689e+003
2.794819e+002, 4.301848e+003
2.799641e+002, 4.299040e+003
2.804462e+002, 4.296196e+003
2.809283e+002, 4.295266e+003
2.814104e+002, 4.296378e+003
2.818925e+002, 4.296134e+003
2.823746e+002, 4.293146e+003
2.828568e+002, 4.289147e+003
2.833389e+002, 4.289452e+003
2.838210e+002, 4.294429e+003
2.843031e+002, 4.300640e+003
2.847852e+002, 4.305770e+003
2.852673e+002, 4.309795e+003
2.857495e+002, 4.313908e+003
2.862316e+002, 4.318026e+003
2.867137e+002, 4.322416e+003
2.871958e+002, 4.328404e+003
2.876779e+002, 4.336026e+003
2.881600e+002, 4.342309e+003
2.886422e+002, 4.344456e+003
2.891243e+002, 4.343109e+003
2.896064e+002, 4.342761e+003
2.900885e+002, 4.343604e+003
2.905706e+002, 4.345982e+003
2.910527e+002, 4.351919e+003
2.915349e+002, 4.361106e+003
2.920170e+002, 4.368495e+003
2.924991e+002, 4.370163e+003
2.929812e+002, 4.367665e+003
2.934633e+002, 4.366266e+003
2.939454e+002, 4.366263e+003
2.944276e+002, 4.367431e+003
2.949097e+002, 4.370234e+003
2.953918e+002, 4.374298e+003
2.958739e+002, 4.377538e+003
2.963560e+002, 4.377376e+003
2.968381e+002, 4.375778e+003
2.973203e+002, 4.378089e+003
2.978024e+002, 4.384730e+003
2.982845e+002, 4.391856e+003
2.987666e+002, 4.395656e+003
2.992487e+002, 4.396606e+003
2.997308e+002, 4.396313e+003
3.002130e+002, 4.393808e+003
3.006951e+002, 4.391061e+003
3.011772e+002, 4.391891e+003
3.016593e+002, 4.396306e+003
3.021414e+002, 4.401227e+003
3.026235e+002, 4.403765e+003
3.031057e+002, 4.404912e+003
3.035878e+002, 4.406625e+003
3.040699e+002, 4.410696e+003
3.045520e+002, 4.414861e+003
3.050341e+002, 4.416611e+003
3.055162e+002, 4.416064e+003
3.059984e+002, 4.414065e+003
3.064805e+002, 4.408347e+003
3.069626e+002, 4.402267e+003
3.074447e+002, 4.400896e+003
3.079268e+002, 4.407580e+003
3.084089e+002, 4.416587e+003
3.088911e+002, 4.423612e+003
3.093732e+002, 4.428807e+003
3.098553e+002, 4.432931e+003
3.103374e+002, 4.435236e+003
3.108195e+002, 4.437197e+003
3.113016e+002, 4.440386e+003
3.117838e+002, 4.445618e+003
3.122659e+002, 4.451096e+003
3.127480e+002, 4.456276e+003
3.132301e+002, 4.460869e+003
3.137122e+002, 4.464216e+003
3.141943e+002, 4.464755e+003
3.146765e+002, 4.464875e+003
3.151586e+002, 4.466308e+003
3.156407e+002, 4.469519e+003
3.161228e+002, 4.473375e+003
3.166049e+002, 4.477151e+003
3.170870e+002, 4.481245e+003
3.175692e+002, 4.486222e+003
3.180513e+002, 4.492736e+003
3.185334e+002, 4.499759e+003
3.190155e+002, 4.507414e+003
3.194976e+002, 4.516115e+003
3.199797e+002, 4.522347e+003
3.204619e+002, 4.522759e+003
3.209440e+002, 4.520753e+003
3.214261e+002, 4.520151e+003
3.219082e+002, 4.523078e+003
3.223903e+002, 4.526281e+003
3.228724e+002, 4.529678e+003
3.233546e+002, 4.533292e+003
3.238367e+002, 4.534012e+003
3.243188e+002, 4.527308e+003
3.248009e+002, 4.519735e+003
3.252830e+002, 4.516383e+003
3.257651e+002, 4.524593e+003
3.262473e+002, 4.529750e+003
3.267294e+002, 4.528556e+003
3.272115e+002, 4.521871e+003
3.276936e+002, 4.516220e+003
3.281757e+002, 4.510908e+003
3.286578e+002, 4.507634e+003
3.291400e+002, 4.507329e+003
3.296221e+002, 4.514895e+003
3.301042e+002, 4.518715e+003
3.305863e+002, 4.516292e+003
3.310684e+002, 4.509928e+003
3.315505e+002, 4.506482e+003
3.320327e+002, 4.507042e+003
3.325148e+002, 4.509036e+003
3.329969e+002, 4.511430e+003
3.334790e+002, 4.513750e+003
3.339611e+002, 4.517514e+003
3.344432e+002, 4.523408e+003
3.349254e+002, 4.530314e+003
3.354075e+002, 4.536375e+003
3.358896e+002, 4.541790e+003
3.363717e+002, 4.546079e+003
3.368538e+002, 4.548763e+003
3.373359e+002, 4.549673e+003
3.378180e+002, 4.551382e+003
3.383001e+002, 4.553975e+003
3.387823e+002, 4.557322e+003
3.392644e+002, 4.561378e+003
3.397465e+002, 4.566365e+003
3.402286e+002, 4.571284e+003
3.407107e+002, 4.575850e+003
3.411928e+002, 4.580148e+003
3.416750e+002, 4.584111e+003
3.421571e+002, 4.587471e+003
3.426392e+002, 4.591529e+003
3.431213e+002, 4.598141e+003
3.436034e+002, 4.607268e+003
3.440855e+002, 4.614871e+003
3.445677e+002, 4.620201e+003
3.450498e+002, 4.623541e+003
3.455319e+002, 4.625008e+003
3.460140e+002, 4.624549e+003
3.464961e+002, 4.623819e+003
3.469782e+002, 4.624625e+003
3.474604e+002, 4.626368e+003
3.479425e+002, 4.625400e+003
3.484246e+002, 4.620735e+003
3.489067e+002, 4.615479e+003
3.493888e+002, 4.614607e+003
3.498709e+002, 4.617478e+003
3.503531e+002, 4.620279e+003
3.508352e+002, 4.621373e+003
3.513173e+002, 4.621096e+003
3.517994e+002, 4.619813e+003
3.522815e+002, 4.617487e+003
3.527636e+002, 4.614900e+003
3.532458e+002, 4.611573e+003
3.537279e+002, 4.608523e+003
3.542100e+002, 4.607997e+003
3.546921e+002, 4.612170e+003
3.551742e+002, 4.618274e+003
3.556563e+002, 4.624250e+003
3.561385e+002, 4.629907e+003
3.566206e+002, 4.633976e+003
3.571027e+002, 4.633306e+003
3.575848e+002, 4.631344e+003
3.580669e+002, 4.632340e+003
3.585490e+002, 4.638974e+003
3.590312e+002, 4.646406e+003
3.595133e+002, 4.651920e+003
3.599954e+002, 4.655792e+003
3.604775e+002, 4.659023e+003
3.609596e+002, 4.661284e+003
3.614417e+002, 4.663554e+003
3.619239e+002, 4.666483e+003
3.624060e+002, 4.670193e+003
3.628881e+002, 4.674463e+003
3.633702e+002, 4.679195e+003
3.638523e+002, 4.684426e+003
3.643344e+002, 4.690221e+003
3.648166e+002, 4.699176e+003
3.652987e+002, 4.706476e+003
3.657808e+002, 4.709029e+003
3.662629e+002, 4.705971e+003
3.667450e+002, 4.705340e+003
3.672271e+002, 4.709742e+003
3.677093e+002, 4.716533e+003
3.681914e+002, 4.723382e+003
3.686735e+002, 4.730834e+003
3.691556e+002, 4.737657e+003
3.696377e+002, 4.742875e+003
3.701198e+002, 4.746867e+003
3.706020e+002, 4.752636e+003
3.710841e+002, 4.762451e+003
3.715662e+002, 4.771972e+003
3.720483e+002, 4.778536e+003
3.725304e+002, 4.779242e+003
3.730125e+002, 4.782515e+003
3.734947e+002, 4.788858e+003
3.739768e+002, 4.797670e+003
3.744589e+002, 4.808072e+003
3.749410e+002, 4.821326e+003
3.754231e+002, 4.833528e+003
3.759052e+002, 4.842227e+003
3.763874e+002, 4.846392e+003
3.768695e+002, 4.856231e+003
3.773516e+002, 4.873754e+003
3.778337e+002, 4.893788e+003
3.783158e+002, 4.910093e+003
3.787979e+002, 4.922205e+003
3.792801e+002, 4.934764e+003
3.797622e+002, 4.949921e+003
3.802443e+002, 4.966460e+003
3.807264e+002, 4.978406e+003
3.812085e+002, 4.984927e+003
3.816906e+002, 4.992152e+003
3.821728e+002, 5.006609e+003
3.826549e+002, 5.027095e+003
3.831370e+002, 5.044943e+003
3.836191e+002, 5.058202e+003
3.841012e+002, 5.069304e+003
3.845833e+002, 5.082729e+003
3.850655e+002, 5.098177e+003
3.855476e+002, 5.113226e+003
3.860297e+002, 5.126961e+003
3.865118e+002, 5.139458e+003
3.869939e+002, 5.150512e+003
3.874760e+002, 5.159718e+003
3.879582e+002, 5.169811e+003
3.884403e+002, 5.187028e+003
3.889224e+002, 5.207091e+003
3.894045e+002, 5.221052e+003
3.898866e+002, 5.222469e+003
3.903687e+002, 5.218324e+003
3.908509e+002, 5.214724e+003
3.913330e+002, 5.211405e+003
3.918151e+002, 5.204624e+003
3.922972e+002, 5.193038e+003
3.927793e+002, 5.176522e+003
3.932614e+002, 5.154464e+003
3.937436e+002, 5.123378e+003
3.942257e+002, 5.091939e+003
3.947078e+002, 5.064760e+003
3.951899e+002, 5.040325e+003
3.956720e+002, 5.014642e+003
3.961541e+002, 4.982657e+003
3.966363e+002, 4.952233e+003
3.971184e+002, 4.927352e+003
3.976005e+002, 4.909641e+003
3.980826e+002, 4.893755e+003
3.985647e+002, 4.878421e+003
3.990468e+002, 4.864684e+003
3.995290e+002, 4.853807e+003
4.000111e+002, 4.849969e+003
4.004932e+002, 4.844573e+003
4.009753e+002, 4.834779e+003
4.014574e+002, 4.820575e+003
4.019395e+002, 4.810675e+003
4.024217e+002, 4.807558e+003
4.029038e+002, 4.805957e+003
4.033859e+002, 4.802175e+003
4.038680e+002, 4.794546e+003
4.043501e+002, 4.788453e+003
4.048322e+002, 4.783908e+003
4.053144e+002, 4.781267e+003
4.057965e+002, 4.782571e+003
4.062786e+002, 4.789462e+003
4.067607e+002, 4.794838e+003
4.072428e+002, 4.794520e+003
4.077249e+002, 4.788245e+003
4.082071e+002, 4.784951e+003
4.086892e+002, 4.785159e+003
4.091713e+002, 4.786679e+003
4.096534e+002, 4.786655e+003
4.101355e+002, 4.785194e+003
4.106176e+002, 4.784367e+003
4.110998e+002, 4.785047e+003
4.115819e+002, 4.786596e+003
4.120640e+002, 4.787260e+003
4.125461e+002, 4.787088e+003
4.130282e+002, 4.787325e+003
4.135103e+002, 4.789854e+003
4.139925e+002, 4.793363e+003
4.144746e+002, 4.794856e+003
4.149567e+002, 4.793321e+003
4.154388e+002, 4.791226e+003
4.159209e+002, 4.791334e+003
4.164030e+002, 4.792908e+003
4.168852e+002, 4.794112e+003
4.173673e+002, 4.793971e+003
4.178494e+002, 4.793098e+003
4.183315e+002, 4.791747e+003
4.188136e+002, 4.789925e+003
4.192957e+002, 4.788342e+003
4.197779e+002, 4.787417e+003
4.202600e+002, 4.786937e+003
4.207421e+002, 4.786713e+003
4.212242e+002, 4.787126e+003
4.217063e+002, 4.787385e+003
4.221884e+002, 4.787247e+003
4.226706e+002, 4.786794e+003
4.231527e+002, 4.786266e+003
4.236348e+002, 4.784979e+003
4.241169e+002, 4.784308e+003
4.245990e+002, 4.785172e+003
4.250811e+002, 4.789030e+003
4.255633e+002, 4.791307e+003
4.260454e+002, 4.790201e+003
4.265275e+002, 4.788171e+003
4.270096e+002, 4.788410e+003
4.274917e+002, 4.792591e+003
4.279738e+002, 4.796504e+003
4.284560e+002, 4.798992e+003
4.289381e+002, 4.800174e+003
4.294202e+002, 4.802596e+003
4.299023e+002, 4.806531e+003
4.303844e+002, 4.811046e+003
4.308665e+002, 4.815360e+003
4.313487e+002, 4.819323e+003
4.318308e+002, 4.824135e+003
4.323129e+002, 4.830619e+003
4.327950e+002, 4.836943e+003
4.332771e+002, 4.838524e+003
4.337592e+002, 4.835135e+003
4.342414e+002, 4.831501e+003
4.347235e+002, 4.829538e+003
4.352056e+002, 4.829026e+003
4.356877e+002, 4.829102e+003
4.361698e+002, 4.829698e+003
4.366519e+002, 4.831289e+003
4.371341e+002, 4.835597e+003
4.376162e+002, 4.841300e+003
4.380983e+002, 4.844977e+003
4.385804e+002, 4.845228e+003
4.390625e+002, 4.843799e+003
4.395446e+002, 4.841906e+003
4.400268e+002, 4.839870e+003
4.405089e+002, 4.838776e+003
4.409910e+002, 4.840819e+003
4.414731e+002, 4.843249e+003
4.419552e+002, 4.843206e+003
4.424373e+002, 4.839882e+003
4.429195e+002, 4.837056e+003
4.434016e+002, 4.837439e+003
4.438837e+002, 4.839178e+003
4.443658e+002, 4.840016e+003
4.448479e+002, 4.838908e+003
4.453300e+002, 4.837200e+003
4.458122e+002, 4.834521e+003
4.462943e+002, 4.831182e+003
4.467764e+002, 4.829573e+003
4.472585e+002, 4.829769e+003
4.477406e+002, 4.831954e+003
4.482227e+002, 4.836557e+003
4.487049e+002, 4.845793e+003
4.491870e+002, 4.853039e+003
4.496691e+002, 4.857955e+003
4.501512e+002, 4.861013e+003
4.506333e+002, 4.862564e+003
4.511154e+002, 4.861484e+003
4.515976e+002, 4.861333e+003
4.520797e+002, 4.863194e+003
4.525618e+002, 4.866932e+003
4.530439e+002, 4.871157e+003
4.535260e+002, 4.876461e+003
4.540081e+002, 4.880151e+003
4.544903e+002, 4.878716e+003
4.549724e+002, 4.872276e+003
4.554545e+002, 4.868600e+003
4.559366e+002, 4.868830e+003
4.564187e+002, 4.871843e+003
4.569008e+002, 4.876892e+003
4.573830e+002, 4.883660e+003
4.578651e+002, 4.889158e+003
4.583472e+002, 4.890646e+003
4.588293e+002, 4.890438e+003
4.593114e+002, 4.893451e+003
4.597935e+002, 4.899665e+003
4.602757e+002, 4.905380e+003
4.607578e+002, 4.906227e+003
4.612399e+002, 4.905098e+003
4.617220e+002, 4.906279e+003
4.622041e+002, 4.912512e+003
4.626862e+002, 4.918487e+003
4.631684e+002, 4.919394e+003
4.636505e+002, 4.917357e+003
4.641326e+002, 4.917300e+003
4.646147e+002, 4.924307e+003
4.650968e+002, 4.931193e+003
4.655789e+002, 4.933636e+003
4.660611e+002, 4.930666e+003
4.665432e+002, 4.928396e+003
4.670253e+002, 4.928275e+003
4.675074e+002, 4.929163e+003
4.679895e+002, 4.930106e+003
4.684716e+002, 4.931959e+003
4.689538e+002, 4.932710e+003
4.694359e+002, 4.932665e+003
4.699180e+002, 4.931484e+003
4.704001e+002, 4.927488e+003
4.708822e+002, 4.918470e+003
4.713643e+002, 4.910815e+003
4.718465e+002, 4.907777e+003
4.723286e+002, 4.910046e+003
4.728107e+002, 4.909854e+003
4.732928e+002, 4.906216e+003
4.737749e+002, 4.902773e+003
4.742570e+002, 4.905159e+003
4.747392e+002, 4.913340e+003
4.752213e+002, 4.917532e+003
4.757034e+002, 4.914313e+003
4.761855e+002, 4.907500e+003
4.766676e+002, 4.904894e+003
4.771497e+002, 4.906151e+003
4.776319e+002, 4.908197e+003
4.781140e+002, 4.909437e+003
4.785961e+002, 4.910111e+003
4.790782e+002, 4.910225e+003
4.795603e+002, 4.909632e+003
4.800424e+002, 4.909929e+003
4.805246e+002, 4.913711e+003
4.810067e+002, 4.918816e+003
4.814888e+002, 4.922125e+003
4.819709e+002, 4.920682e+003
4.824530e+002, 4.919451e+003
4.829352e+002, 4.922109e+003
4.834173e+002, 4.927241e+003
4.838994e+002, 4.930380e+003
4.843815e+002, 4.929032e+003
4.848636e+002, 4.926133e+003
4.853457e+002, 4.922419e+003
4.858279e+002, 4.916984e+003
4.863100e+002, 4.914405e+003
4.867921e+002, 4.917721e+003
4.872742e+002, 4.922632e+003
4.877563e+002, 4.925336e+003
4.882384e+002, 4.923984e+003
4.887206e+002, 4.923761e+003
4.892027e+002, 4.926012e+003
4.896848e+002, 4.929718e+003
4.901669e+002, 4.930872e+003
4.906490e+002, 4.928642e+003
4.911311e+002, 4.926480e+003
4.916133e+002, 4.926288e+003
4.920954e+002, 4.928048e+003
4.925775e+002, 4.929077e+003
4.930596e+002, 4.929221e+003
4.935417e+002, 4.929392e+003
4.940238e+002, 4.930826e+003
4.945060e+002, 4.933242e+003
4.949881e+002, 4.935275e+003
4.954702e+002, 4.936553e+003
4.959523e+002, 4.937313e+003
4.964344e+002, 4.937673e+003
4.969165e+002, 4.937721e+003
4.973987e+002, 4.937820e+003
4.978808e+002, 4.936514e+003
4.983629e+002, 4.936312e+003
4.988450e+002, 4.940559e+003
4.993271e+002, 4.949709e+003
4.998092e+002, 4.958131e+003
5.002914e+002, 4.962597e+003
5.007735e+002, 4.964976e+003
5.012556e+002, 4.967162e+003
5.017377e+002, 4.969638e+003
5.022198e+002, 4.971799e+003
5.027019e+002, 4.973534e+003
5.031841e+002, 4.974837e+003
5.036662e+002, 4.975753e+003
5.041483e+002, 4.974466e+003
5.046304e+002, 4.974806e+003
5.051125e+002, 4.978514e+003
5.055946e+002, 4.986023e+003
5.060768e+002, 4.991953e+003
5.065589e+002, 4.996936e+003
5.070410e+002, 4.999450e+003
5.075231e+002, 4.997058e+003
5.080052e+002, 4.988588e+003
5.084873e+002, 4.983579e+003
5.089695e+002, 4.983768e+003
5.094516e+002, 4.986974e+003
5.099337e+002, 4.989725e+003
5.104158e+002, 4.992000e+003
5.108979e+002, 4.993358e+003
5.113800e+002, 4.992448e+003
5.118622e+002, 4.990806e+003
5.123443e+002, 4.992744e+003
5.128264e+002, 4.998005e+003
5.133085e+002, 5.002657e+003
5.137906e+002, 5.003057e+003
5.142728e+002, 5.001279e+003
5.147549e+002, 4.999992e+003
5.152370e+002, 4.999777e+003
5.157191e+002, 4.999884e+003
5.162012e+002, 5.000110e+003
5.166833e+002, 5.000329e+003
5.171655e+002, 5.000338e+003
5.176476e+002, 4.998604e+003
5.181297e+002, 4.998187e+003
5.186118e+002, 5.001755e+003
5.190939e+002, 5.008737e+003
5.195760e+002, 5.012313e+003
5.200582e+002, 5.007898e+003
5.205403e+002, 5.003140e+003
5.210224e+002, 5.001354e+003
5.215045e+002, 5.003606e+003
5.219866e+002, 5.005613e+003
5.224688e+002, 5.007265e+003
5.229509e+002, 5.008708e+003
5.234330e+002, 5.010018e+003
5.239151e+002, 5.011053e+003
5.243972e+002, 5.012619e+003
5.248793e+002, 5.014988e+003
5.253615e+002, 5.017857e+003
5.258436e+002, 5.020956e+003
5.263257e+002, 5.024264e+003
5.268078e+002, 5.026310e+003
5.272899e+002, 5.025218e+003
5.277720e+002, 5.022464e+003
5.282542e+002, 5.021981e+003
5.287363e+002, 5.024065e+003
5.292184e+002, 5.025438e+003
5.297005e+002, 5.021787e+003
5.301826e+002, 5.016242e+003
5.306647e+002, 5.013222e+003
5.311469e+002, 5.015372e+003
5.316290e+002, 5.017978e+003
5.321111e+002, 5.018178e+003
5.325932e+002, 5.016953e+003
5.330753e+002, 5.016310e+003
5.335574e+002, 5.017828e+003
5.340396e+002, 5.019004e+003
5.345217e+002, 5.018366e+003
5.350038e+002, 5.015666e+003
5.354859e+002, 5.014844e+003
5.359680e+002, 5.017280e+003
5.364501e+002, 5.020234e+003
5.369323e+002, 5.022147e+003
5.374144e+002, 5.022705e+003
5.378965e+002, 5.022983e+003
5.383786e+002, 5.022708e+003
5.388607e+002, 5.022587e+003
5.393428e+002, 5.024337e+003
5.398250e+002, 5.028277e+003
5.403071e+002, 5.030317e+003
5.407892e+002, 5.028850e+003
5.412713e+002, 5.025184e+003
5.417534e+002, 5.021731e+003
5.422355e+002, 5.018643e+003
5.427177e+002, 5.017275e+003
5.431998e+002, 5.020338e+003
5.436819e+002, 5.025003e+003
5.441640e+002, 5.026540e+003
5.446461e+002, 5.024484e+003
5.451282e+002, 5.022007e+003
5.456104e+002, 5.020995e+003
5.460925e+002, 5.020906e+003
5.465746e+002, 5.021093e+003
5.470567e+002, 5.020751e+003
5.475388e+002, 5.021465e+003
5.480209e+002, 5.025090e+003
5.485031e+002, 5.030046e+003
5.489852e+002, 5.032935e+003
5.494673e+002, 5.030916e+003
5.499494e+002, 5.029220e+003
5.504315e+002, 5.029300e+003
5.509136e+002, 5.031154e+003
5.513958e+002, 5.032690e+003
5.518779e+002, 5.034073e+003
5.523600e+002, 5.034905e+003
5.528421e+002, 5.034772e+003
5.533242e+002, 5.033543e+003
5.538063e+002, 5.032480e+003
5.542885e+002, 5.031464e+003
5.547706e+002, 5.031103e+003
5.552527e+002, 5.033272e+003
5.557348e+002, 5.037327e+003
5.562169e+002, 5.038906e+003
5.566990e+002, 5.035187e+003
5.571812e+002, 5.030306e+003
5.576633e+002, 5.030542e+003
5.581454e+002, 5.034860e+003
5.586275e+002, 5.039389e+003
5.591096e+002, 5.042302e+003
5.595917e+002, 5.044236e+003
5.600739e+002, 5.045664e+003
5.605560e+002, 5.046644e+003
5.610381e+002, 5.046960e+003
5.615202e+002, 5.046272e+003
5.620023e+002, 5.045052e+003
5.624844e+002, 5.043545e+003
5.629666e+002, 5.040048e+003
5.634487e+002, 5.038940e+003
5.639308e+002, 5.041856e+003
5.644129e+002, 5.046560e+003
5.648950e+002, 5.049655e+003
5.653771e+002, 5.050440e+003
5.658593e+002, 5.050946e+003
5.663414e+002, 5.051359e+003
5.668235e+002, 5.051804e+003
5.673056e+002, 5.053394e+003
5.677877e+002, 5.056358e+003
5.682698e+002, 5.058463e+003
5.687520e+002, 5.058279e+003
5.692341e+002, 5.056132e+003
5.697162e+002, 5.052366e+003
5.701983e+002, 5.046841e+003
5.706804e+002, 5.042940e+003
5.711625e+002, 5.046650e+003
5.716447e+002, 5.053475e+003
5.721268e+002, 5.055649e+003
5.726089e+002, 5.049326e+003
5.730910e+002, 5.042510e+003
5.735731e+002, 5.040377e+003
5.740552e+002, 5.041304e+003
5.745374e+002, 5.042378e+003
5.750195e+002, 5.042953e+003
5.755016e+002, 5.043348e+003
5.759837e+002, 5.043884e+003
5.764658e+002, 5.044525e+003
5.769479e+002, 5.044457e+003
5.774301e+002, 5.043240e+003
5.779122e+002, 5.041880e+003
5.783943e+002, 5.040277e+003
5.788764e+002, 5.037794e+003
5.793585e+002, 5.039361e+003
5.798406e+002, 5.046235e+003
5.803228e+002, 5.054336e+003
5.808049e+002, 5.059581e+003
5.812870e+002, 5.062030e+003
5.817691e+002, 5.063163e+003
5.822512e+002, 5.062619e+003
5.827333e+002, 5.062062e+003
5.832155e+002, 5.063786e+003
5.836975e+002, 5.067465e+003
5.841796e+002, 5.072347e+003
5.846617e+002, 5.080164e+003
5.851439e+002, 5.087337e+003
5.856260e+002, 5.089890e+003
5.861081e+002, 5.088547e+003
5.865902e+002, 5.087164e+003
5.870723e+002, 5.087521e+003
5.875544e+002, 5.088360e+003
5.880366e+002, 5.088953e+003
5.885187e+002, 5.089106e+003
5.890008e+002, 5.089643e+003
5.894829e+002, 5.091487e+003
5.899650e+002, 5.093282e+003
5.904471e+002, 5.093956e+003
5.909293e+002, 5.092933e+003
5.914114e+002, 5.092308e+003
5.918935e+002, 5.092388e+003
5.923756e+002, 5.092826e+003
5.928577e+002, 5.092860e+003
5.933398e+002, 5.092451e+003
5.938220e+002, 5.092574e+003
5.943041e+002, 5.093916e+003
5.947862e+002, 5.095700e+003
5.952683e+002, 5.095474e+003
5.957504e+002, 5.093610e+003
5.962325e+002, 5.092839e+003
5.967147e+002, 5.096359e+003
5.971968e+002, 5.101130e+003
5.976789e+002, 5.103341e+003
5.981610e+002, 5.102699e+003
5.986431e+002, 5.102388e+003
5.991252e+002, 5.104824e+003
5.996074e+002, 5.108037e+003
6.000895e+002, 5.110432e+003
6.005716e+002, 5.111417e+003
6.010537e+002, 5.112182e+003
6.015358e+002, 5.113008e+003
6.020179e+002, 5.113680e+003
6.025001e+002, 5.113731e+003
6.029822e+002, 5.112091e+003
6.034643e+002, 5.112041e+003
6.039464e+002, 5.114701e+003
6.044285e+002, 5.118999e+003
6.049106e+002, 5.121040e+003
6.053928e+002, 5.120369e+003
6.058749e+002, 5.120854e+003
6.063570e+002, 5.125172e+003
6.068391e+002, 5.132002e+003
6.073212e+002, 5.137192e+003
6.078033e+002, 5.140739e+003
6.082855e+002, 5.143694e+003
6.087676e+002, 5.146649e+003
6.092497e+002, 5.149542e+003
6.097318e+002, 5.152094e+003
6.102139e+002, 5.154133e+003
6.106960e+002, 5.156664e+003
6.111782e+002, 5.160892e+003
6.116603e+002, 5.165614e+003
6.121424e+002, 5.169601e+003
6.126245e+002, 5.173203e+003
6.131066e+002, 5.175268e+003
6.135887e+002, 5.175385e+003
6.140709e+002, 5.173979e+003
6.145530e+002, 5.171423e+003
6.150351e+002, 5.166188e+003
6.155172e+002, 5.163290e+003
6.159993e+002, 5.164582e+003
6.164814e+002, 5.169343e+003
6.169636e+002, 5.174084e+003
6.174457e+002, 5.178929e+003
6.179278e+002, 5.182614e+003
6.184099e+002, 5.183816e+003
6.188920e+002, 5.183282e+003
6.193741e+002, 5.182870e+003
6.198563e+002, 5.182646e+003
6.203384e+002, 5.182741e+003
6.208205e+002, 5.182872e+003
6.213026e+002, 5.183511e+003
6.217847e+002, 5.185374e+003
6.222668e+002, 5.189021e+003
6.227490e+002, 5.192719e+003
6.232311e+002, 5.196406e+003
6.237132e+002, 5.199459e+003
6.241953e+002, 5.201087e+003
6.246774e+002, 5.199452e+003
6.251595e+002, 5.198442e+003
6.256417e+002, 5.198530e+003
6.261238e+002, 5.199565e+003
6.266059e+002, 5.201403e+003
6.270880e+002, 5.204757e+003
6.275701e+002, 5.206857e+003
6.280522e+002, 5.206151e+003
6.285344e+002, 5.203450e+003
6.290165e+002, 5.202844e+003
6.294986e+002, 5.204376e+003
6.299807e+002, 5.206532e+003
6.304628e+002, 5.208466e+003
6.309449e+002, 5.210178e+003
6.314271e+002, 5.211545e+003
6.319092e+002, 5.212507e+003
6.323913e+002, 5.213702e+003
6.328734e+002, 5.216149e+003
6.333555e+002, 5.218724e+003
6.338376e+002, 5.220165e+003
6.343198e+002, 5.219298e+003
6.348019e+002, 5.218908e+003
6.352840e+002, 5.220805e+003
6.357661e+002, 5.223139e+003
6.362482e+002, 5.223372e+003
6.367303e+002, 5.220813e+003
6.372125e+002, 5.216997e+003
6.376946e+002, 5.210840e+003
6.381767e+002, 5.204119e+003
6.386588e+002, 5.202969e+003
6.391409e+002, 5.208537e+003
6.396230e+002, 5.211816e+003
6.401052e+002, 5.207774e+003
6.405873e+002, 5.199452e+003
6.410694e+002, 5.196308e+003
6.415515e+002, 5.198016e+003
6.420336e+002, 5.200384e+003
6.425157e+002, 5.201119e+003
6.429979e+002, 5.200769e+003
6.434800e+002, 5.199138e+003
6.439621e+002, 5.196122e+003
6.444442e+002, 5.195213e+003
6.449263e+002, 5.199253e+003
6.454084e+002, 5.205432e+003
6.458906e+002, 5.211615e+003
6.463727e+002, 5.218417e+003
6.468548e+002, 5.223107e+003
6.473369e+002, 5.223397e+003
6.478190e+002, 5.222806e+003
6.483011e+002, 5.225873e+003
6.487833e+002, 5.234119e+003
6.492654e+002, 5.240447e+003
6.497475e+002, 5.243345e+003
6.502296e+002, 5.244200e+003
6.507117e+002, 5.245726e+003
6.511938e+002, 5.247908e+003
6.516760e+002, 5.250702e+003
6.521581e+002, 5.254616e+003
6.526402e+002, 5.258799e+003
6.531223e+002, 5.261451e+003
6.536044e+002, 5.263088e+003
6.540865e+002, 5.265931e+003
6.545687e+002, 5.274285e+003
6.550508e+002, 5.281900e+003
6.555329e+002, 5.283631e+003
6.560150e+002, 5.278927e+003
6.564971e+002, 5.276195e+003
6.569792e+002, 5.277837e+003
6.574614e+002, 5.281588e+003
6.579435e+002, 5.286388e+003
6.584256e+002, 5.292636e+003
6.589077e+002, 5.298325e+003
6.593898e+002, 5.303219e+003
6.598719e+002, 5.307859e+003
6.603541e+002, 5.312936e+003
6.608362e+002, 5.318375e+003
6.613183e+002, 5.323089e+003
6.618004e+002, 5.326642e+003
6.622825e+002, 5.330039e+003
6.627646e+002, 5.334709e+003
6.632468e+002, 5.340272e+003
6.637289e+002, 5.345802e+003
6.642110e+002, 5.351076e+003
6.646931e+002, 5.356174e+003
6.651752e+002, 5.362157e+003
6.656573e+002, 5.368058e+003
6.661395e+002, 5.371643e+003
6.666216e+002, 5.370228e+003
6.671037e+002, 5.368559e+003
6.675858e+002, 5.367367e+003
6.680679e+002, 5.366927e+003
6.685500e+002, 5.369538e+003
6.690322e+002, 5.376752e+003
6.695143e+002, 5.384022e+003
6.699964e+002, 5.390058e+003
6.704785e+002, 5.394681e+003
6.709606e+002, 5.394332e+003
6.714427e+002, 5.388421e+003
6.719249e+002, 5.382792e+003
6.724070e+002, 5.381732e+003
6.728891e+002, 5.384374e+003
6.733712e+002, 5.389140e+003
6.738533e+002, 5.395935e+003
6.743354e+002, 5.404080e+003
6.748176e+002, 5.415813e+003
6.752997e+002, 5.427442e+003
6.757818e+002, 5.434345e+003
6.762639e+002, 5.430765e+003
6.767460e+002, 5.431647e+003
6.772281e+002, 5.444831e+003
6.777103e+002, 5.462375e+003
6.781924e+002, 5.474158e+003
6.786745e+002, 5.475837e+003
6.791566e+002, 5.481280e+003
6.796387e+002, 5.493084e+003
6.801208e+002, 5.508859e+003
6.806030e+002, 5.524104e+003
6.810851e+002, 5.538556e+003
6.815672e+002, 5.552789e+003
6.820493e+002, 5.566531e+003
6.825314e+002, 5.580333e+003
6.830135e+002, 5.595700e+003
6.834957e+002, 5.612019e+003
6.839778e+002, 5.626389e+003
6.844599e+002, 5.634627e+003
6.849420e+002, 5.642582e+003
6.854241e+002, 5.655403e+003
6.859063e+002, 5.672710e+003
6.863884e+002, 5.688565e+003
6.868705e+002, 5.701218e+003
6.873526e+002, 5.712140e+003
6.878347e+002, 5.722042e+003
6.883168e+002, 5.730881e+003
6.887990e+002, 5.739837e+003
6.892811e+002, 5.749945e+003
6.897632e+002, 5.758434e+003
6.902453e+002, 5.763479e+003
6.907274e+002, 5.765130e+003
6.912095e+002, 5.763384e+003
6.916917e+002, 5.758286e+003
6.921738e+002, 5.749568e+003
6.926559e+002, 5.735408e+003
6.931380e+002, 5.717931e+003
6.936201e+002, 5.700677e+003
6.941022e+002, 5.684317e+003
6.945844e+002, 5.668551e+003
6.950665e+002, 5.653669e+003
6.955486e+002, 5.639185e+003
6.960307e+002, 5.624434e+003
6.965128e+002, 5.608904e+003
6.969949e+002, 5.593731e+003
6.974771e+002, 5.578985e+003
6.979592e+002, 5.564662e+003
6.984413e+002, 5.550887e+003
6.989234e+002, 5.537416e+003
6.994055e+002, 5.525866e+003
6.998876e+002, 5.517607e+003
7.003698e+002, 5.510695e+003
7.008519e+002, 5.499494e+003
7.013340e+002, 5.484722e+003
7.018161e+002, 5.471240e+003
7.022982e+002, 5.463648e+003
7.027803e+002, 5.457362e+003
7.032625e+002, 5.445932e+003
7.037446e+002, 5.430697e+003
7.042267e+002, 5.418695e+003
7.047088e+002, 5.414279e+003
7.051909e+002, 5.412689e+003
7.056730e+002, 5.411983e+003
7.061552e+002, 5.412093e+003
7.066373e+002, 5.412570e+003
7.071194e+002, 5.414086e+003
7.076015e+002, 5.414927e+003
7.080836e+002, 5.413697e+003
7.085657e+002, 5.410157e+003
7.090479e+002, 5.408271e+003
7.095300e+002, 5.408235e+003
7.100121e+002, 5.407898e+003
7.104942e+002, 5.404501e+003
7.109763e+002, 5.399318e+003
7.114584e+002, 5.395109e+003
7.119406e+002, 5.392128e+003
7.124227e+002, 5.390705e+003
7.129048e+002, 5.393492e+003
7.133869e+002, 5.396760e+003
7.138690e+002, 5.396444e+003
7.143511e+002, 5.389638e+003
7.148333e+002, 5.383043e+003
7.153154e+002, 5.377089e+003
7.157975e+002, 5.372670e+003
7.162796e+002, 5.371595e+003
7.167617e+002, 5.376796e+003
7.172438e+002, 5.376743e+003
7.177260e+002, 5.368588e+003
7.182081e+002, 5.357235e+003
7.186902e+002, 5.351146e+003
7.191723e+002, 5.349863e+003
7.196544e+002, 5.350280e+003
7.201365e+002, 5.352483e+003
7.206187e+002, 5.354221e+003
7.211008e+002, 5.351094e+003
7.215829e+002, 5.345377e+003
7.220650e+002, 5.342381e+003
7.225471e+002, 5.346292e+003
7.230292e+002, 5.351353e+003
7.235114e+002, 5.356046e+003
7.239935e+002, 5.359875e+003
7.244756e+002, 5.361098e+003
7.249577e+002, 5.357737e+003
7.254398e+002, 5.354695e+003
7.259219e+002, 5.353317e+003
7.264041e+002, 5.353431e+003
7.268862e+002, 5.354032e+003
7.273683e+002, 5.355136e+003
7.278504e+002, 5.357043e+003
7.283325e+002, 5.361425e+003
7.288146e+002, 5.366380e+003
7.292968e+002, 5.367372e+003
7.297789e+002, 5.364728e+003
7.302610e+002, 5.361284e+003
7.307431e+002, 5.356895e+003
7.312252e+002, 5.353862e+003
7.317073e+002, 5.354792e+003
7.321895e+002, 5.360297e+003
7.326716e+002, 5.363960e+003
7.331537e+002, 5.362569e+003
7.336358e+002, 5.360793e+003
7.341179e+002, 5.361222e+003
7.346000e+002, 5.364586e+003
7.350822e+002, 5.364878e+003
7.355643e+002, 5.361182e+003
7.360464e+002, 5.357346e+003
7.365285e+002, 5.357584e+003
7.370106e+002, 5.360698e+003
7.374927e+002, 5.361567e+003
7.379749e+002, 5.359416e+003
7.384570e+002, 5.358189e+003
7.389391e+002, 5.363378e+003
7.394212e+002, 5.370600e+003
7.399033e+002, 5.374924e+003
7.403854e+002, 5.375092e+003
7.408676e+002, 5.373234e+003
7.413497e+002, 5.366979e+003
7.418318e+002, 5.360784e+003
7.423139e+002, 5.359530e+003
7.427960e+002, 5.366642e+003
7.432781e+002, 5.369373e+003
7.437603e+002, 5.364757e+003
7.442424e+002, 5.358938e+003
7.447245e+002, 5.362654e+003
7.452066e+002, 5.374360e+003
7.456887e+002, 5.381518e+003
7.461708e+002, 5.379812e+003
7.466530e+002, 5.375800e+003
7.471351e+002, 5.376518e+003
7.476172e+002, 5.380311e+003
7.480993e+002, 5.384394e+003
7.485814e+002, 5.389702e+003
7.490635e+002, 5.392820e+003
7.495457e+002, 5.390178e+003
7.500278e+002, 5.385000e+003
7.505099e+002, 5.384398e+003
7.509920e+002, 5.392021e+003
7.514741e+002, 5.397742e+003
7.519562e+002, 5.399752e+003
7.524384e+002, 5.398893e+003
7.529205e+002, 5.396621e+003
7.534026e+002, 5.393015e+003
7.538847e+002, 5.389590e+003
7.543668e+002, 5.386420e+003
7.548489e+002, 5.384405e+003
7.553311e+002, 5.385603e+003
7.558132e+002, 5.389124e+003
7.562953e+002, 5.392308e+003
7.567774e+002, 5.394415e+003
7.572595e+002, 5.395408e+003
7.577416e+002, 5.394637e+003
7.582238e+002, 5.392509e+003
7.587059e+002, 5.391095e+003
7.591880e+002, 5.389336e+003
7.596701e+002, 5.390302e+003
7.601522e+002, 5.396425e+003
7.606343e+002, 5.405993e+003
7.611165e+002, 5.408741e+003
7.615986e+002, 5.404251e+003
7.620807e+002, 5.401228e+003
7.625628e+002, 5.406911e+003
7.630449e+002, 5.416042e+003
7.635270e+002, 5.418873e+003
7.640092e+002, 5.416396e+003
7.644913e+002, 5.414148e+003
7.649734e+002, 5.415245e+003
7.654555e+002, 5.417458e+003
7.659376e+002, 5.419515e+003
7.664197e+002, 5.421378e+003
7.669019e+002, 5.424021e+003
7.673840e+002, 5.429479e+003
7.678661e+002, 5.432888e+003
7.683482e+002, 5.431120e+003
7.688303e+002, 5.424525e+003
7.693124e+002, 5.422333e+003
7.697946e+002, 5.424874e+003
7.702767e+002, 5.428144e+003
7.707588e+002, 5.429118e+003
7.712409e+002, 5.428985e+003
7.717230e+002, 5.429331e+003
7.722051e+002, 5.430298e+003
7.726873e+002, 5.433075e+003
7.731694e+002, 5.441234e+003
7.736515e+002, 5.449167e+003
7.741336e+002, 5.452790e+003
7.746157e+002, 5.450896e+003
7.750978e+002, 5.449275e+003
7.755800e+002, 5.447992e+003
7.760621e+002, 5.447167e+003
7.765442e+002, 5.446689e+003
7.770263e+002, 5.446491e+003
7.775084e+002, 5.448625e+003
7.779905e+002, 5.453506e+003
7.784727e+002, 5.456689e+003
7.789548e+002, 5.451561e+003
7.794369e+002, 5.443108e+003
7.799190e+002, 5.441342e+003
7.804011e+002, 5.447648e+003
7.808832e+002, 5.452193e+003
7.813654e+002, 5.447502e+003
7.818475e+002, 5.440279e+003
7.823296e+002, 5.435402e+003
7.828117e+002, 5.434270e+003
7.832938e+002, 5.433406e+003
7.837759e+002, 5.432728e+003
7.842581e+002, 5.432592e+003
7.847402e+002, 5.433454e+003
7.852223e+002, 5.435341e+003
7.857044e+002, 5.437541e+003
7.861865e+002, 5.440215e+003
7.866686e+002, 5.441260e+003
7.871508e+002, 5.435898e+003
7.876329e+002, 5.428531e+003
7.881150e+002, 5.426719e+003
7.885971e+002, 5.432406e+003
7.890792e+002, 5.437534e+003
7.895613e+002, 5.436891e+003
7.900435e+002, 5.434817e+003
7.905256e+002, 5.434866e+003
7.910077e+002, 5.437937e+003
7.914898e+002, 5.441196e+003
7.919719e+002, 5.445166e+003
7.924540e+002, 5.448320e+003
7.929362e+002, 5.448681e+003
7.934183e+002, 5.446548e+003
7.939004e+002, 5.445661e+003
7.943825e+002, 5.446539e+003
7.948646e+002, 5.446983e+003
7.953467e+002, 5.444865e+003
7.958289e+002, 5.441103e+003
7.963110e+002, 5.436695e+003
7.967931e+002, 5.431490e+003
7.972752e+002, 5.427166e+003
7.977573e+002, 5.423734e+003
7.982394e+002, 5.421925e+003
7.987216e+002, 5.422659e+003
7.992037e+002, 5.428266e+003
7.996858e+002, 5.429712e+003
8.001679e+002, 5.425538e+003
8.006500e+002, 5.420440e+003
8.011321e+002, 5.419271e+003
8.016143e+002, 5.421274e+003
8.020964e+002, 5.422849e+003
8.025785e+002, 5.423526e+003
8.030606e+002, 5.423822e+003
8.035427e+002, 5.422877e+003
8.040248e+002, 5.422403e+003
8.045070e+002, 5.424964e+003
8.049891e+002, 5.432950e+003
8.054712e+002, 5.437959e+003
8.059533e+002, 5.436475e+003
8.064354e+002, 5.432688e+003
8.069175e+002, 5.429261e+003
8.073997e+002, 5.426042e+003
8.078818e+002, 5.424300e+003
8.083639e+002, 5.424364e+003
8.088460e+002, 5.425143e+003
8.093281e+002, 5.427065e+003
8.098102e+002, 5.428706e+003
8.102924e+002, 5.424880e+003
8.107745e+002, 5.414126e+003
8.112566e+002, 5.405404e+003
8.117387e+002, 5.406558e+003
8.122208e+002, 5.411754e+003
8.127029e+002, 5.415852e+003
8.131851e+002, 5.417399e+003
8.136672e+002, 5.419543e+003
8.141493e+002, 5.422385e+003
8.146314e+002, 5.425795e+003
8.151135e+002, 5.430377e+003
8.155956e+002, 5.436318e+003
8.160778e+002, 5.437920e+003
8.165599e+002, 5.434438e+003
8.170420e+002, 5.430753e+003
8.175241e+002, 5.432771e+003
8.180062e+002, 5.437193e+003
8.184883e+002, 5.438346e+003
8.189705e+002, 5.434968e+003
8.194526e+002, 5.432757e+003
8.199347e+002, 5.434981e+003
8.204168e+002, 5.438952e+003
8.208989e+002, 5.443568e+003
8.213810e+002, 5.450236e+003
8.218632e+002, 5.450579e+003
8.223453e+002, 5.441786e+003
8.228274e+002, 5.432839e+003
8.233095e+002, 5.432657e+003
8.237916e+002, 5.439208e+003
8.242737e+002, 5.440444e+003
8.247559e+002, 5.435759e+003
8.252380e+002, 5.431874e+003
8.257201e+002, 5.436000e+003
8.262022e+002, 5.442564e+003
8.266843e+002, 5.446023e+003
8.271664e+002, 5.445463e+003
8.276486e+002, 5.444484e+003
8.281307e+002, 5.442829e+003
8.286128e+002, 5.442010e+003
8.290949e+002, 5.442971e+003
8.295770e+002, 5.445845e+003
8.300591e+002, 5.448483e+003
8.305413e+002, 5.450896e+003
8.310234e+002, 5.452930e+003
8.315055e+002, 5.454109e+003
8.319876e+002, 5.454917e+003
8.324697e+002, 5.456522e+003
8.329518e+002, 5.458851e+003
8.334340e+002, 5.460825e+003
8.339161e+002, 5.461336e+003
8.343982e+002, 5.461583e+003
8.348803e+002, 5.462921e+003
8.353624e+002, 5.465534e+003
8.358445e+002, 5.464581e+003
8.363267e+002, 5.457006e+003
8.368088e+002, 5.452004e+003
8.372909e+002, 5.455735e+003
8.377730e+002, 5.466121e+003
8.382551e+002, 5.470122e+003
8.387372e+002, 5.468138e+003
8.392194e+002, 5.465716e+003
8.397015e+002, 5.466997e+003
8.401836e+002, 5.469269e+003
8.406657e+002, 5.468926e+003
8.411478e+002, 5.466714e+003
8.416299e+002, 5.467342e+003
8.421121e+002, 5.476226e+003
8.425942e+002, 5.483924e+003
8.430763e+002, 5.486790e+003
8.435584e+002, 5.485740e+003
8.440405e+002, 5.485761e+003
8.445226e+002, 5.486693e+003
8.450048e+002, 5.489314e+003
8.454869e+002, 5.494874e+003
8.459690e+002, 5.501444e+003
8.464511e+002, 5.506134e+003
8.469332e+002, 5.508686e+003
8.474153e+002, 5.508269e+003
8.478975e+002, 5.500939e+003
8.483796e+002, 5.494101e+003
8.488617e+002, 5.492124e+003
8.493438e+002, 5.493599e+003
8.498259e+002, 5.493419e+003
8.503080e+002, 5.490389e+003
8.507902e+002, 5.488300e+003
8.512723e+002, 5.488216e+003
8.517544e+002, 5.489481e+003
8.522365e+002, 5.491262e+003
8.527186e+002, 5.493323e+003
8.532007e+002, 5.493891e+003
8.536829e+002, 5.491732e+003
8.541650e+002, 5.488904e+003
8.546471e+002, 5.487007e+003
8.551292e+002, 5.485724e+003
8.556113e+002, 5.484499e+003
8.560934e+002, 5.483219e+003
8.565756e+002, 5.481793e+003
8.570577e+002, 5.478849e+003
8.575398e+002, 5.476743e+003
8.580219e+002, 5.480165e+003
8.585040e+002, 5.489596e+003
8.589861e+002, 5.494496e+003
8.594683e+002, 5.492176e+003
8.599504e+002, 5.488281e+003
8.604325e+002, 5.490297e+003
8.609146e+002, 5.495438e+003
8.613967e+002, 5.498909e+003
8.618788e+002, 5.498882e+003
8.623610e+002, 5.498798e+003
8.628431e+002, 5.500045e+003
8.633252e+002, 5.501745e+003
8.638073e+002, 5.503429e+003
8.642894e+002, 5.506335e+003
8.647715e+002, 5.504750e+003
8.652537e+002, 5.497337e+003
8.657358e+002, 5.489640e+003
8.662179e+002, 5.487852e+003
8.667000e+002, 5.490124e+003
8.671821e+002, 5.491458e+003
8.676642e+002, 5.491401e+003
8.681464e+002, 5.490746e+003
8.686285e+002, 5.489141e+003
8.691106e+002, 5.487876e+003
8.695927e+002, 5.487824e+003
8.700748e+002, 5.489143e+003
8.705569e+002, 5.491807e+003
8.710391e+002, 5.496072e+003
8.715212e+002, 5.501071e+003
8.720033e+002, 5.506939e+003
8.724854e+002, 5.513201e+003
8.729675e+002, 5.515998e+003
8.734496e+002, 5.515479e+003
8.739318e+002, 5.514572e+003
8.744139e+002, 5.515683e+003
8.748960e+002, 5.516833e+003
8.753781e+002, 5.515381e+003
8.758602e+002, 5.511763e+003
8.763423e+002, 5.510255e+003
8.768245e+002, 5.513360e+003
8.773066e+002, 5.517175e+003
8.777887e+002, 5.521813e+003
8.782708e+002, 5.526255e+003
8.787529e+002, 5.524727e+003
8.792350e+002, 5.517291e+003
8.797172e+002, 5.512159e+003
8.801993e+002, 5.514250e+003
8.806814e+002, 5.519112e+003
8.811635e+002, 5.522458e+003
8.816456e+002, 5.523982e+003
8.821277e+002, 5.522905e+003
8.826099e+002, 5.515000e+003
8.830920e+002, 5.509243e+003
8.835741e+002, 5.510167e+003
8.840562e+002, 5.513751e+003
8.845383e+002, 5.512865e+003
8.850204e+002, 5.506313e+003
8.855026e+002, 5.503187e+003
8.859847e+002, 5.505718e+003
8.864668e+002, 5.510287e+003
8.869489e+002, 5.511000e+003
8.874310e+002, 5.510200e+003
8.879131e+002, 5.513222e+003
8.883953e+002, 5.523135e+003
8.888774e+002, 5.531814e+003
8.893595e+002, 5.535853e+003
8.898416e+002, 5.536749e+003
8.903237e+002, 5.535514e+003
8.908058e+002, 5.530022e+003
8.912880e+002, 5.529337e+003
8.917701e+002, 5.534703e+003
8.922522e+002, 5.540922e+003
8.927343e+002, 5.542971e+003
8.932164e+002, 5.542221e+003
8.936985e+002, 5.542166e+003
8.941807e+002, 5.543084e+003
8.946628e+002, 5.544654e+003
8.951449e+002, 5.548641e+003
8.956270e+002, 5.551582e+003
8.961091e+002, 5.549978e+003
8.965912e+002, 5.543170e+003
8.970734e+002, 5.540310e+003
8.975555e+002, 5.542008e+003
8.980376e+002, 5.546316e+003
8.985197e+002, 5.553489e+003
8.990018e+002, 5.562179e+003
8.994839e+002, 5.567338e+003
8.999661e+002, 5.569319e+003
9.004482e+002, 5.570131e+003
9.009303e+002, 5.570529e+003
9.014124e+002, 5.570554e+003
9.018945e+002, 5.571282e+003
9.023766e+002, 5.571815e+003
9.028588e+002, 5.568759e+003
9.033409e+002, 5.558415e+003
9.038230e+002, 5.551193e+003
9.043051e+002, 5.549311e+003
9.047872e+002, 5.551060e+003
9.052693e+002, 5.553644e+003
9.057515e+002, 5.556908e+003
9.062336e+002, 5.560243e+003
9.067157e+002, 5.563960e+003
9.071978e+002, 5.566209e+003
9.076799e+002, 5.562397e+003
9.081620e+002, 5.557470e+003
9.086442e+002, 5.557738e+003
9.091263e+002, 5.570549e+003
9.096084e+002, 5.577595e+003
9.100905e+002, 5.576460e+003
9.105726e+002, 5.572261e+003
9.110547e+002, 5.568784e+003
9.115369e+002, 5.566196e+003
9.120190e+002, 5.566372e+003
9.125011e+002, 5.569571e+003
9.129832e+002, 5.572506e+003
9.134653e+002, 5.571034e+003
9.139474e+002, 5.569025e+003
9.144296e+002, 5.570434e+003
9.149117e+002, 5.575750e+003
9.153938e+002, 5.581079e+003
9.158759e+002, 5.587558e+003
9.163580e+002, 5.591241e+003
9.168401e+002, 5.588903e+003
9.173223e+002, 5.582239e+003
9.178044e+002, 5.582495e+003
9.182865e+002, 5.589188e+003
9.187686e+002, 5.595235e+003
9.192507e+002, 5.595836e+003
9.197328e+002, 5.594907e+003
9.202150e+002, 5.596817e+003
9.206971e+002, 5.600229e+003
9.211792e+002, 5.601864e+003
9.216613e+002, 5.599044e+003
9.221434e+002, 5.596889e+003
9.226255e+002, 5.596288e+003
9.231077e+002, 5.596677e+003
9.235898e+002, 5.596797e+003
9.240719e+002, 5.596760e+003
9.245540e+002, 5.598716e+003
9.250361e+002, 5.603666e+003
9.255182e+002, 5.608271e+003
9.260004e+002, 5.608714e+003
9.264825e+002, 5.607045e+003
9.269646e+002, 5.605482e+003
9.274467e+002, 5.603774e+003
9.279288e+002, 5.604086e+003
9.284109e+002, 5.608026e+003
9.288931e+002, 5.612051e+003
9.293752e+002, 5.614065e+003
9.298573e+002, 5.614076e+003
9.303394e+002, 5.610839e+003
9.308215e+002, 5.604419e+003
9.313036e+002, 5.599362e+003
9.317858e+002, 5.600702e+003
9.322679e+002, 5.603956e+003
9.327500e+002, 5.604538e+003
9.332321e+002, 5.602757e+003
9.337142e+002, 5.602162e+003
9.341964e+002, 5.606517e+003
9.346785e+002, 5.608011e+003
9.351606e+002, 5.602927e+003
9.356427e+002, 5.594640e+003
9.361248e+002, 5.594475e+003
9.366069e+002, 5.601695e+003
9.370891e+002, 5.607234e+003
9.375712e+002, 5.607021e+003
9.380533e+002, 5.605924e+003
9.385354e+002, 5.608933e+003
9.390175e+002, 5.613987e+003
9.394996e+002, 5.618042e+003
9.399818e+002, 5.620266e+003
9.404639e+002, 5.621326e+003
9.409460e+002, 5.620525e+003
9.414281e+002, 5.619547e+003
9.419102e+002, 5.620527e+003
9.423923e+002, 5.623155e+003
9.428745e+002, 5.624310e+003
9.433566e+002, 5.623751e+003
9.438387e+002, 5.622974e+003
9.443208e+002, 5.622039e+003
9.448029e+002, 5.622315e+003
9.452850e+002, 5.625209e+003
9.457672e+002, 5.630908e+003
9.462493e+002, 5.637893e+003
9.467314e+002, 5.649208e+003
9.472135e+002, 5.655752e+003
9.476956e+002, 5.652138e+003
9.481777e+002, 5.641943e+003
9.486599e+002, 5.638021e+003
9.491420e+002, 5.639671e+003
9.496241e+002, 5.643182e+003
9.501062e+002, 5.648339e+003
9.505883e+002, 5.652968e+003
9.510704e+002, 5.654497e+003
9.515526e+002, 5.654693e+003
9.520347e+002, 5.657101e+003
9.525168e+002, 5.664386e+003
9.529989e+002, 5.668972e+003
9.534810e+002, 5.670031e+003
9.539631e+002, 5.668766e+003
9.544453e+002, 5.665158e+003
9.549274e+002, 5.660416e+003
9.554095e+002, 5.659284e+003
9.558916e+002, 5.662611e+003
9.563737e+002, 5.666329e+003
9.568558e+002, 5.667616e+003
9.573380e+002, 5.668307e+003
9.578201e+002, 5.670223e+003
9.583022e+002, 5.673604e+003
9.587843e+002, 5.673766e+003
9.592664e+002, 5.669060e+003
9.597485e+002, 5.666358e+003
9.602307e+002, 5.671109e+003
9.607128e+002, 5.678791e+003
9.611949e+002, 5.677361e+003
9.616770e+002, 5.669202e+003
9.621591e+002, 5.662738e+003
9.626412e+002, 5.663511e+003
9.631234e+002, 5.665009e+003
9.636055e+002, 5.664181e+003
9.640876e+002, 5.662741e+003
9.645697e+002, 5.664333e+003
9.650518e+002, 5.670750e+003
9.655339e+002, 5.671662e+003
9.660161e+002, 5.664938e+003
9.664982e+002, 5.655946e+003
9.669803e+002, 5.647547e+003
9.674624e+002, 5.642512e+003
9.679445e+002, 5.648527e+003
9.684266e+002, 5.668726e+003
9.689088e+002, 5.682232e+003
9.693909e+002, 5.674286e+003
9.698730e+002, 5.664051e+003
9.703551e+002, 5.661174e+003
9.708372e+002, 5.665273e+003
9.713193e+002, 5.670547e+003
9.718015e+002, 5.676953e+003
9.722836e+002, 5.682542e+003
9.727657e+002, 5.685915e+003
9.732478e+002, 5.688032e+003
9.737299e+002, 5.689788e+003
9.742120e+002, 5.691242e+003
9.746942e+002, 5.692581e+003
9.751763e+002, 5.692964e+003
9.756584e+002, 5.694575e+003
9.761405e+002, 5.698001e+003
9.766226e+002, 5.702488e+003
9.771047e+002, 5.707487e+003
9.775869e+002, 5.712877e+003
9.780690e+002, 5.716285e+003
9.785511e+002, 5.717173e+003
9.790332e+002, 5.717961e+003
9.795153e+002, 5.721786e+003
9.799974e+002, 5.725758e+003
9.804796e+002, 5.726933e+003
9.809617e+002, 5.724571e+003
9.814438e+002, 5.722848e+003
9.819259e+002, 5.721817e+003
9.824080e+002, 5.721638e+003
9.828901e+002, 5.722519e+003
9.833723e+002, 5.724227e+003
9.838544e+002, 5.725902e+003
9.843365e+002, 5.727686e+003
9.848186e+002, 5.730201e+003
9.853007e+002, 5.735163e+003
9.857828e+002, 5.739284e+003
9.862650e+002, 5.740227e+003
9.867471e+002, 5.739502e+003
9.872292e+002, 5.739831e+003
9.877113e+002, 5.741650e+003
9.881934e+002, 5.742494e+003
9.886755e+002, 5.741833e+003
9.891577e+002, 5.741214e+003
9.896398e+002, 5.743014e+003
9.901219e+002, 5.745775e+003
9.906040e+002, 5.747131e+003
9.910861e+002, 5.746819e+003
9.915682e+002, 5.745492e+003
9.920504e+002, 5.743385e+003
9.925325e+002, 5.740365e+003
9.930146e+002, 5.735796e+003
9.934967e+002, 5.730426e+003
9.939788e+002, 5.728503e+003
9.944609e+002, 5.730095e+003
9.949431e+002, 5.730197e+003
9.954252e+002, 5.725554e+003
9.959073e+002, 5.720521e+003
9.963894e+002, 5.719451e+003
9.968715e+002, 5.721394e+003
9.973536e+002, 5.724733e+003
9.978358e+002, 5.731107e+003
9.983179e+002, 5.735475e+003
9.988000e+002, 5.735897e+003
9.992821e+002, 5.737043e+003
9.997642e+002, 5.745133e+003
1.000246e+003, 5.758356e+003
1.000728e+003, 5.766155e+003
1.001211e+003, 5.768179e+003
1.001693e+003, 5.769278e+003
1.002175e+003, 5.771260e+003
1.002657e+003, 5.774572e+003
1.003139e+003, 5.779972e+003
1.003621e+003, 5.787158e+003
1.004103e+003, 5.794173e+003
1.004585e+003, 5.801721e+003
1.005068e+003, 5.805833e+003
1.005550e+003, 5.804082e+003
1.006032e+003, 5.801140e+003
1.006514e+003, 5.805183e+003
1.006996e+003, 5.813608e+003
1.007478e+003, 5.821182e+003
1.007960e+003, 5.825864e+003
1.008442e+003, 5.831146e+003
1.008924e+003, 5.837870e+003
1.009407e+003, 5.846022e+003
1.009889e+003, 5.856789e+003
1.010371e+003, 5.870378e+003
1.010853e+003, 5.878347e+003
1.011335e+003, 5.880730e+003
1.011817e+003, 5.881104e+003
1.012299e+003, 5.879575e+003
1.012781e+003, 5.879121e+003
1.013263e+003, 5.886086e+003
1.013746e+003, 5.896846e+003
1.014228e+003, 5.898317e+003
1.014710e+003, 5.882735e+003
1.015192e+003, 5.869152e+003
1.015674e+003, 5.861026e+003
1.016156e+003, 5.854929e+003
1.016638e+003, 5.844620e+003
1.017120e+003, 5.831891e+003
1.017603e+003, 5.822601e+003
1.018085e+003, 5.817917e+003
1.018567e+003, 5.814292e+003
1.019049e+003, 5.810012e+003
1.019531e+003, 5.805635e+003
1.020013e+003, 5.801020e+003
1.020495e+003, 5.796216e+003
1.020977e+003, 5.794304e+003
1.021459e+003, 5.795666e+003
1.021942e+003, 5.796283e+003
1.022424e+003, 5.793441e+003
1.022906e+003, 5.789857e+003
1.023388e+003, 5.790047e+003
1.023870e+003, 5.792187e+003
1.024352e+003, 5.792663e+003
1.024834e+003, 5.788695e+003
1.025316e+003, 5.785589e+003
1.025799e+003, 5.784326e+003
1.026281e+003, 5.783538e+003
1.026763e+003, 5.780448e+003
1.027245e+003, 5.776177e+003
1.027727e+003, 5.779485e+003
1.028209e+003, 5.790503e+003
1.028691e+003, 5.799504e+003
1.029173e+003, 5.797098e+003
1.029656e+003, 5.792835e+003
1.030138e+003, 5.792548e+003
1.030620e+003, 5.796060e+003
1.031102e+003, 5.801571e+003
1.031584e+003, 5.810642e+003
1.032066e+003, 5.814285e+003
1.032548e+003, 5.808547e+003
1.033030e+003, 5.800546e+003
1.033512e+003, 5.800235e+003
1.033995e+003, 5.805255e+003
1.034477e+003, 5.812603e+003
1.034959e+003, 5.823318e+003
1.035441e+003, 5.829548e+003
1.035923e+003, 5.826491e+003
1.036405e+003, 5.821721e+003
1.036887e+003, 5.818904e+003
1.037369e+003, 5.817946e+003
1.037851e+003, 5.818670e+003
1.038334e+003, 5.820729e+003
1.038816e+003, 5.820493e+003
1.039298e+003, 5.813207e+003
1.039780e+003, 5.805808e+003
1.040262e+003, 5.801987e+003
1.040744e+003, 5.801695e+003
1.041226e+003, 5.805251e+003
1.041708e+003, 5.816001e+003
1.042191e+003, 5.819768e+003
1.042673e+003, 5.814153e+003
1.043155e+003, 5.807117e+003
1.043637e+003, 5.807353e+003
1.044119e+003, 5.811601e+003
1.044601e+003, 5.814080e+003
1.045083e+003, 5.814450e+003
1.045565e+003, 5.815976e+003
1.046047e+003, 5.822378e+003
1.046530e+003, 5.826745e+003
1.047012e+003, 5.825397e+003
1.047494e+003, 5.821412e+003
1.047976e+003, 5.824494e+003
1.048458e+003, 5.833655e+003
1.048940e+003, 5.840646e+003
1.049422e+003, 5.843141e+003
1.049904e+003, 5.843233e+003
1.050386e+003, 5.841030e+003
1.050869e+003, 5.838117e+003
1.051351e+003, 5.835935e+003
1.051833e+003, 5.834403e+003
1.052315e+003, 5.834833e+003
1.052797e+003, 5.837826e+003
1.053279e+003, 5.839879e+003
1.053761e+003, 5.837738e+003
1.054243e+003, 5.834106e+003
1.054726e+003, 5.832810e+003
1.055208e+003, 5.833867e+003
1.055690e+003, 5.837366e+003
1.056172e+003, 5.845461e+003
1.056654e+003, 5.853334e+003
1.057136e+003, 5.861511e+003
1.057618e+003, 5.867844e+003
1.058100e+003, 5.869294e+003
1.058583e+003, 5.866478e+003
1.059065e+003, 5.862687e+003
1.059547e+003, 5.858242e+003
1.060029e+003, 5.854680e+003
1.060511e+003, 5.853612e+003
1.060993e+003, 5.853409e+003
1.061475e+003, 5.853457e+003
1.061957e+003, 5.853617e+003
1.062439e+003, 5.853071e+003
1.062922e+003, 5.851478e+003
1.063404e+003, 5.851809e+003
1.063886e+003, 5.855485e+003
1.064368e+003, 5.859252e+003
1.064850e+003, 5.859125e+003
1.065332e+003, 5.856565e+003
1.065814e+003, 5.852924e+003
1.066296e+003, 5.847548e+003
1.066778e+003, 5.845591e+003
1.067261e+003, 5.848773e+003
1.067743e+003, 5.852791e+003
1.068225e+003, 5.855475e+003
1.068707e+003, 5.857345e+003
1.069189e+003, 5.859801e+003
1.069671e+003, 5.862875e+003
1.070153e+003, 5.866728e+003
1.070635e+003, 5.874446e+003
1.071118e+003, 5.878871e+003
1.071600e+003, 5.872516e+003
1.072082e+003, 5.864464e+003
1.072564e+003, 5.864628e+003
1.073046e+003, 5.873915e+003
1.073528e+003, 5.879288e+003
1.074010e+003, 5.880151e+003
1.074492e+003, 5.881337e+003
1.074974e+003, 5.887725e+003
1.075457e+003, 5.894974e+003
1.075939e+003, 5.898541e+003
1.076421e+003, 5.899420e+003
1.076903e+003, 5.902767e+003
1.077385e+003, 5.910886e+003
1.077867e+003, 5.915439e+003
1.078349e+003, 5.914192e+003
1.078831e+003, 5.911237e+003
1.079313e+003, 5.911880e+003
1.079796e+003, 5.914706e+003
1.080278e+003, 5.916803e+003
1.080760e+003, 5.917663e+003
1.081242e+003, 5.920587e+003
1.081724e+003, 5.929867e+003
1.082206e+003, 5.937657e+003
1.082688e+003, 5.940764e+003
1.083170e+003, 5.940522e+003
1.083652e+003, 5.941136e+003
1.084135e+003, 5.942308e+003
1.084617e+003, 5.942363e+003
1.085099e+003, 5.940455e+003
1.085581e+003, 5.938289e+003
1.086063e+003, 5.937297e+003
1.086545e+003, 5.936393e+003
1.087027e+003, 5.934177e+003
1.087509e+003, 5.930343e+003
1.087992e+003, 5.929297e+003
1.088474e+003, 5.931131e+003
1.088956e+003, 5.935440e+003
1.089438e+003, 5.946026e+003
1.089920e+003, 5.955446e+003
1.090402e+003, 5.951595e+003
1.090884e+003, 5.941378e+003
1.091366e+003, 5.939942e+003
1.091849e+003, 5.956072e+003
1.092331e+003, 5.967523e+003
1.092813e+003, 5.972362e+003
1.093295e+003, 5.974198e+003
1.093777e+003, 5.975927e+003
1.094259e+003, 5.977408e+003
1.094741e+003, 5.978548e+003
1.095223e+003, 5.979307e+003
1.095705e+003, 5.979587e+003
1.096188e+003, 5.979133e+003
1.096670e+003, 5.978717e+003
1.097152e+003, 5.979305e+003
1.097634e+003, 5.979563e+003
1.098116e+003, 5.975995e+003
1.098598e+003, 5.969644e+003
1.099080e+003, 5.965453e+003
1.099562e+003, 5.964159e+003
1.100044e+003, 5.966560e+003
1.100527e+003, 5.977076e+003
1.101009e+003, 5.988116e+003
1.101491e+003, 5.995604e+003
1.101973e+003, 5.999368e+003
1.102455e+003, 5.995507e+003
1.102937e+003, 5.983514e+003
1.103419e+003, 5.977033e+003
1.103901e+003, 5.981833e+003
1.104384e+003, 5.990690e+003
1.104866e+003, 6.000092e+003
1.105348e+003, 6.006972e+003
1.105830e+003, 6.006642e+003
1.106312e+003, 5.995826e+003
1.106794e+003, 5.989088e+003
1.107276e+003, 5.987251e+003
1.107758e+003, 5.986364e+003
1.108240e+003, 5.983853e+003
1.108723e+003, 5.981090e+003
1.109205e+003, 5.980557e+003
1.109687e+003, 5.981665e+003
1.110169e+003, 5.983031e+003
1.110651e+003, 5.985125e+003
1.111133e+003, 5.986462e+003
1.111615e+003, 5.988172e+003
1.112097e+003, 5.987384e+003
1.112579e+003, 5.978800e+003
1.113062e+003, 5.965702e+003
1.113544e+003, 5.961067e+003
1.114026e+003, 5.964154e+003
1.114508e+003, 5.967748e+003
1.114990e+003, 5.968189e+003
1.115472e+003, 5.968435e+003
1.115954e+003, 5.969088e+003
1.116436e+003, 5.970459e+003
1.116919e+003, 5.973583e+003
1.117401e+003, 5.978253e+003
1.117883e+003, 5.981043e+003
1.118365e+003, 5.981489e+003
1.118847e+003, 5.981298e+003
1.119329e+003, 5.980930e+003
1.119811e+003, 5.981022e+003
1.120293e+003, 5.982414e+003
1.120776e+003, 5.984638e+003
1.121258e+003, 5.985867e+003
1.121740e+003, 5.985963e+003
1.122222e+003, 5.986388e+003
1.122704e+003, 5.987961e+003
1.123186e+003, 5.987952e+003
1.123668e+003, 5.981693e+003
1.124150e+003, 5.973434e+003
1.124632e+003, 5.967682e+003
1.125115e+003, 5.965308e+003
1.125597e+003, 5.963773e+003
1.126079e+003, 5.962359e+003
1.126561e+003, 5.964972e+003
1.127043e+003, 5.975925e+003
1.127525e+003, 5.987360e+003
1.128007e+003, 5.983054e+003
1.128489e+003, 5.971089e+003
1.128971e+003, 5.965667e+003
1.129454e+003, 5.972889e+003
1.129936e+003, 5.979466e+003
1.130418e+003, 5.984369e+003
1.130900e+003, 5.987748e+003
1.131382e+003, 5.989417e+003
1.131864e+003, 5.989744e+003
1.132346e+003, 5.989759e+003
1.132828e+003, 5.989415e+003
1.133311e+003, 5.988612e+003
1.133793e+003, 5.984883e+003
1.134275e+003, 5.984192e+003
1.134757e+003, 5.989390e+003
1.135239e+003, 5.996071e+003
1.135721e+003, 6.001351e+003
1.136203e+003, 6.004954e+003
1.136685e+003, 6.003382e+003
1.137167e+003, 5.997367e+003
1.137650e+003, 5.993696e+003
1.138132e+003, 6.000696e+003
1.138614e+003, 6.006014e+003
1.139096e+003, 6.001825e+003
1.139578e+003, 5.993716e+003
1.140060e+003, 5.988378e+003
1.140542e+003, 5.985763e+003
1.141024e+003, 5.988827e+003
1.141506e+003, 5.997922e+003
1.141989e+003, 6.006252e+003
1.142471e+003, 6.008917e+003
1.142953e+003, 6.008897e+003
1.143435e+003, 6.008072e+003
1.143917e+003, 6.006279e+003
1.144399e+003, 6.001947e+003
1.144881e+003, 5.994265e+003
1.145363e+003, 5.991091e+003
1.145846e+003, 5.994315e+003
1.146328e+003, 5.999235e+003
1.146810e+003, 6.001828e+003
1.147292e+003, 6.003292e+003
1.147774e+003, 6.004585e+003
1.148256e+003, 6.005831e+003
1.148738e+003, 6.007417e+003
1.149220e+003, 6.009359e+003
1.149703e+003, 6.011610e+003
1.150185e+003, 6.014220e+003
1.150667e+003, 6.016823e+003
1.151149e+003, 6.018664e+003
1.151631e+003, 6.020330e+003
1.152113e+003, 6.022779e+003
1.152595e+003, 6.026288e+003
1.153077e+003, 6.029210e+003
1.153559e+003, 6.031234e+003
1.154042e+003, 6.032930e+003
1.154524e+003, 6.034150e+003
1.155006e+003, 6.035633e+003
1.155488e+003, 6.040376e+003
1.155970e+003, 6.045999e+003
1.156452e+003, 6.047372e+003
1.156934e+003, 6.041501e+003
1.157416e+003, 6.036696e+003
1.157898e+003, 6.034277e+003
1.158381e+003, 6.032406e+003
1.158863e+003, 6.029866e+003
1.159345e+003, 6.027292e+003
1.159827e+003, 6.026865e+003
1.160309e+003, 6.027990e+003
1.160791e+003, 6.028991e+003
1.161273e+003, 6.029322e+003
1.161755e+003, 6.029716e+003
1.162238e+003, 6.030714e+003
1.162720e+003, 6.031619e+003
1.163202e+003, 6.031831e+003
1.163684e+003, 6.031563e+003
1.164166e+003, 6.031229e+003
1.164648e+003, 6.031117e+003
1.165130e+003, 6.032425e+003
1.165612e+003, 6.036390e+003
1.166094e+003, 6.040953e+003
1.166577e+003, 6.045612e+003
1.167059e+003, 6.050151e+003
1.167541e+003, 6.054733e+003
1.168023e+003, 6.059018e+003
1.168505e+003, 6.060047e+003
1.168987e+003, 6.057972e+003
1.169469e+003, 6.055601e+003
1.169951e+003, 6.051059e+003
1.170433e+003, 6.050514e+003
1.170916e+003, 6.062031e+003
1.171398e+003, 6.075787e+003
1.171880e+003, 6.078193e+003
1.172362e+003, 6.069942e+003
1.172844e+003, 6.062610e+003
1.173326e+003, 6.057241e+003
1.173808e+003, 6.054935e+003
1.174290e+003, 6.059868e+003
1.174773e+003, 6.064845e+003
1.175255e+003, 6.065283e+003
1.175737e+003, 6.063095e+003
1.176219e+003, 6.061667e+003
1.176701e+003, 6.061032e+003
1.177183e+003, 6.060294e+003
1.177665e+003, 6.059365e+003
1.178147e+003, 6.057984e+003
1.178630e+003, 6.054971e+003
1.179112e+003, 6.052317e+003
1.179594e+003, 6.050368e+003
1.180076e+003, 6.050028e+003
1.180558e+003, 6.055710e+003
1.181040e+003, 6.067978e+003
1.181522e+003, 6.074571e+003
1.182004e+003, 6.072617e+003
1.182486e+003, 6.068093e+003
1.182969e+003, 6.063438e+003
1.183451e+003, 6.060702e+003
1.183933e+003, 6.062546e+003
1.184415e+003, 6.068172e+003
1.184897e+003, 6.072566e+003
1.185379e+003, 6.075724e+003
1.185861e+003, 6.077378e+003
1.186343e+003, 6.077110e+003
1.186825e+003, 6.076834e+003
1.187308e+003, 6.080149e+003
1.187790e+003, 6.083238e+003
1.188272e+003, 6.082037e+003
1.188754e+003, 6.076547e+003
1.189236e+003, 6.069808e+003
1.189718e+003, 6.061318e+003
1.190200e+003, 6.058202e+003
1.190682e+003, 6.063897e+003
1.191165e+003, 6.072730e+003
1.191647e+003, 6.081979e+003
1.192129e+003, 6.089008e+003
1.192611e+003, 6.089251e+003
1.193093e+003, 6.081703e+003
1.193575e+003, 6.080549e+003
1.194057e+003, 6.086744e+003
1.194539e+003, 6.091763e+003
1.195021e+003, 6.091713e+003
1.195504e+003, 6.089989e+003
1.195986e+003, 6.088404e+003
1.196468e+003, 6.088409e+003
1.196950e+003, 6.092686e+003
1.197432e+003, 6.102327e+003
1.197914e+003, 6.109277e+003
1.198396e+003, 6.113362e+003
1.198878e+003, 6.115479e+003
1.199360e+003, 6.115169e+003
1.199843e+003, 6.114449e+003
1.200325e+003, 6.116258e+003
1.200807e+003, 6.118979e+003
1.201289e+003, 6.120517e+003
1.201771e+003, 6.121034e+003
1.202253e+003, 6.118310e+003
1.202735e+003, 6.111686e+003
1.203217e+003, 6.106707e+003
1.203700e+003, 6.107485e+003
1.204182e+003, 6.110454e+003
1.204664e+003, 6.111151e+003
1.205146e+003, 6.111389e+003
1.205628e+003, 6.114668e+003
1.206110e+003, 6.123688e+003
1.206592e+003, 6.126539e+003
1.207074e+003, 6.122106e+003
1.207557e+003, 6.118240e+003
1.208039e+003, 6.120170e+003
1.208521e+003, 6.124898e+003
1.209003e+003, 6.130430e+003
1.209485e+003, 6.135931e+003
1.209967e+003, 6.139745e+003
1.210449e+003, 6.141477e+003
1.210931e+003, 6.142440e+003
1.211413e+003, 6.142625e+003
1.211896e+003, 6.142086e+003
1.212378e+003, 6.138859e+003
1.212860e+003, 6.136713e+003
1.213342e+003, 6.142486e+003
1.213824e+003, 6.151736e+003
1.214306e+003, 6.154594e+003
1.214788e+003, 6.147800e+003
1.215270e+003, 6.144641e+003
1.215752e+003, 6.145787e+003
1.216235e+003, 6.147656e+003
1.216717e+003, 6.148332e+003
1.217199e+003, 6.147807e+003
1.217681e+003, 6.144798e+003
1.218163e+003, 6.140911e+003
1.218645e+003, 6.140090e+003
1.219127e+003, 6.143712e+003
1.219609e+003, 6.145088e+003
1.220092e+003, 6.143726e+003
1.220574e+003, 6.142430e+003
1.221056e+003, 6.144070e+003
1.221538e+003, 6.146210e+003
1.222020e+003, 6.146409e+003
1.222502e+003, 6.145359e+003
1.222984e+003, 6.144660e+003
1.223466e+003, 6.144022e+003
1.223948e+003, 6.145619e+003
1.224431e+003, 6.149733e+003
1.224913e+003, 6.153786e+003
1.225395e+003, 6.155619e+003
1.225877e+003, 6.156567e+003
1.226359e+003, 6.158022e+003
1.226841e+003, 6.159351e+003
1.227323e+003, 6.158661e+003
1.227805e+003, 6.155256e+003
1.228287e+003, 6.154962e+003
1.228770e+003, 6.158265e+003
1.229252e+003, 6.163359e+003
1.229734e+003, 6.170595e+003
1.230216e+003, 6.177224e+003
1.230698e+003, 6.181086e+003
1.231180e+003, 6.182682e+003
1.231662e+003, 6.183546e+003
1.232144e+003, 6.183694e+003
1.232627e+003, 6.181609e+003
1.233109e+003, 6.177044e+003
1.233591e+003, 6.173921e+003
1.234073e+003, 6.177567e+003
1.234555e+003, 6.181223e+003
1.235037e+003, 6.180349e+003
1.235519e+003, 6.176438e+003
1.236001e+003, 6.171021e+003
1.236484e+003, 6.164188e+003
1.236966e+003, 6.165128e+003
1.237448e+003, 6.174636e+003
1.237930e+003, 6.181197e+003
1.238412e+003, 6.171704e+003
1.238894e+003, 6.162692e+003
1.239376e+003, 6.164695e+003
1.239858e+003, 6.172624e+003
1.240340e+003, 6.179702e+003
1.240823e+003, 6.185666e+003
1.241305e+003, 6.188525e+003
1.241787e+003, 6.188127e+003
1.242269e+003, 6.186749e+003
1.242751e+003, 6.184459e+003
1.243233e+003, 6.183171e+003
1.243715e+003, 6.183998e+003
1.244197e+003, 6.186081e+003
1.244679e+003, 6.188606e+003
1.245162e+003, 6.191356e+003
1.245644e+003, 6.192003e+003
1.246126e+003, 6.190649e+003
1.246608e+003, 6.191759e+003
1.247090e+003, 6.202283e+003
1.247572e+003, 6.209354e+003
1.248054e+003, 6.206727e+003
1.248536e+003, 6.201781e+003
1.249019e+003, 6.208104e+003
1.249501e+003, 6.221121e+003
1.249983e+003, 6.224490e+003
1.250465e+003, 6.217789e+003
1.250947e+003, 6.214758e+003
1.251429e+003, 6.227466e+003
1.251911e+003, 6.235398e+003
1.252393e+003, 6.232937e+003
1.252875e+003, 6.226584e+003
1.253358e+003, 6.225695e+003
1.253840e+003, 6.227434e+003
1.254322e+003, 6.223672e+003
1.254804e+003, 6.214927e+003
1.255286e+003, 6.211616e+003
1.255768e+003, 6.222065e+003
1.256250e+003, 6.228873e+003
1.256732e+003, 6.228920e+003
1.257214e+003, 6.226098e+003
1.257697e+003, 6.224182e+003
1.258179e+003, 6.223177e+003
1.258661e+003, 6.223321e+003
1.259143e+003, 6.224511e+003
1.259625e+003, 6.225761e+003
1.260107e+003, 6.226528e+003
1.260589e+003, 6.228610e+003
1.261071e+003, 6.232484e+003
1.261554e+003, 6.236873e+003
1.262036e+003, 6.241975e+003
1.262518e+003, 6.245639e+003
1.263000e+003, 6.243204e+003
1.263482e+003, 6.236610e+003
1.263964e+003, 6.236382e+003
1.264446e+003, 6.245131e+003
1.264928e+003, 6.249286e+003
1.265411e+003, 6.246578e+003
1.265893e+003, 6.243267e+003
1.266375e+003, 6.244641e+003
1.266857e+003, 6.248103e+003
1.267339e+003, 6.252216e+003
1.267821e+003, 6.256457e+003
1.268303e+003, 6.259528e+003
1.268785e+003, 6.261306e+003
1.269267e+003, 6.264397e+003
1.269750e+003, 6.269200e+003
1.270232e+003, 6.270851e+003
1.270714e+003, 6.262664e+003
1.271196e+003, 6.253354e+003
1.271678e+003, 6.248274e+003
1.272160e+003, 6.246042e+003
1.272642e+003, 6.244355e+003
1.273124e+003, 6.243392e+003
1.273606e+003, 6.245761e+003
1.274089e+003, 6.251527e+003
1.274571e+003, 6.257904e+003
1.275053e+003, 6.268054e+003
1.275535e+003, 6.272092e+003
1.276017e+003, 6.263302e+003
1.276499e+003, 6.250665e+003
1.276981e+003, 6.245725e+003
1.277463e+003, 6.247116e+003
1.277946e+003, 6.250737e+003
1.278428e+003, 6.255844e+003
1.278910e+003, 6.259849e+003
1.279392e+003, 6.260988e+003
1.279874e+003, 6.261482e+003
1.280356e+003, 6.261462e+003
1.280838e+003, 6.261429e+003
1.281320e+003, 6.263236e+003
1.281802e+003, 6.264820e+003
1.282285e+003, 6.259047e+003
1.282767e+003, 6.248416e+003
1.283249e+003, 6.245276e+003
1.283731e+003, 6.259649e+003
1.284213e+003, 6.267667e+003
1.284695e+003, 6.266278e+003
1.285177e+003, 6.263220e+003
1.285659e+003, 6.266620e+003
1.286141e+003, 6.271765e+003
1.286624e+003, 6.271907e+003
1.287106e+003, 6.268891e+003
1.287588e+003, 6.268675e+003
1.288070e+003, 6.273091e+003
1.288552e+003, 6.273817e+003
1.289034e+003, 6.270048e+003
1.289516e+003, 6.267492e+003
1.289998e+003, 6.271568e+003
1.290481e+003, 6.277529e+003
1.290963e+003, 6.282967e+003
1.291445e+003, 6.286870e+003
1.291927e+003, 6.287275e+003
1.292409e+003, 6.283690e+003
1.292891e+003, 6.284733e+003
1.293373e+003, 6.290377e+003
1.293855e+003, 6.296696e+003
1.294338e+003, 6.302100e+003
1.294820e+003, 6.306627e+003
1.295302e+003, 6.310408e+003
1.295784e+003, 6.313170e+003
1.296266e+003, 6.313596e+003
1.296748e+003, 6.312545e+003
1.297230e+003, 6.315526e+003
1.297712e+003, 6.322413e+003
1.298194e+003, 6.331206e+003
1.298677e+003, 6.342670e+003
1.299159e+003, 6.349714e+003
1.299641e+003, 6.349572e+003
1.300123e+003, 6.348328e+003
1.300605e+003, 6.350765e+003
1.301087e+003, 6.354876e+003
1.301569e+003, 6.355462e+003
1.302051e+003, 6.352442e+003
1.302533e+003, 6.346144e+003
1.303016e+003, 6.331542e+003
##END=



