##NAMES=Carnallite
##RRUFFID=R070291
##IDEAL CHEMISTRY=KMgCl_3_&#183;6H_2_O
##LOCALITY=Leopoldshall, Stassfurt, Stassfurt Deposit, Saxony-Anhalt, Germany
##OWNER=RRUFF
##SOURCE=Michael Scott
##DESCRIPTION=Pink to grey coarse grained, poorly consolidated, melted surface, associated with kainite R100021 and pentahydrite R100022.
##STATUS=The identification of this mineral has been confirmed by single-crystal X-ray diffraction.
##URL=rruff.info/R070291
155.9293, 2158.572
156.4115, 2157.385
156.8936, 2156.689
157.3757, 2156.885
157.8578, 2159.309
158.3399, 2161.361
158.8221, 2167.484
159.3042, 2180.644
159.7863, 2213.659
160.2684, 2241.965
160.7505, 2252.346
161.2326, 2247.644
161.7148, 2249.083
162.1969, 2279.993
162.6790, 2315.915
163.1611, 2332.930
163.6432, 2298.977
164.1253, 2263.610
164.6075, 2254.692
165.0896, 2273.278
165.5717, 2296.928
166.0538, 2315.071
166.5359, 2330.086
167.0180, 2345.429
167.5002, 2367.394
167.9823, 2387.349
168.4644, 2395.004
168.9465, 2387.213
169.4286, 2383.800
169.9107, 2404.711
170.3929, 2440.875
170.8750, 2473.749
171.3571, 2498.158
171.8392, 2512.266
172.3213, 2510.663
172.8034, 2488.684
173.2856, 2464.206
173.7677, 2451.741
174.2498, 2450.114
174.7319, 2455.387
175.2140, 2470.776
175.6961, 2490.240
176.1783, 2503.935
176.6604, 2508.218
177.1425, 2509.300
177.6246, 2514.392
178.1067, 2523.031
178.5888, 2532.565
179.0710, 2544.606
179.5531, 2556.027
180.0352, 2558.148
180.5173, 2543.456
180.9994, 2524.089
181.4815, 2521.984
181.9637, 2536.681
182.4458, 2554.232
182.9279, 2563.874
183.4100, 2566.777
183.8921, 2567.198
184.3742, 2563.872
184.8564, 2559.931
185.3385, 2563.233
185.8206, 2574.107
186.3027, 2588.554
186.7848, 2605.164
187.2669, 2623.147
187.7491, 2637.109
188.2312, 2644.398
188.7133, 2646.159
189.1954, 2646.059
189.6775, 2643.795
190.1596, 2641.021
190.6418, 2639.106
191.1239, 2638.093
191.6060, 2639.091
192.0881, 2643.320
192.5702, 2650.387
193.0524, 2656.770
193.5345, 2662.262
194.0166, 2667.564
194.4987, 2675.918
194.9808, 2687.941
195.4629, 2693.676
195.9451, 2681.849
196.4272, 2652.945
196.9093, 2644.185
197.3914, 2661.498
197.8735, 2691.467
198.3556, 2709.274
198.8378, 2713.645
199.3199, 2713.776
199.8020, 2713.307
200.2841, 2712.084
200.7662, 2712.908
201.2483, 2716.632
201.7305, 2721.857
202.2126, 2724.423
202.6947, 2723.250
203.1768, 2723.450
203.6589, 2729.375
204.1410, 2742.223
204.6232, 2751.718
205.1053, 2756.190
205.5874, 2757.063
206.0695, 2760.148
206.5516, 2767.589
207.0337, 2771.611
207.5159, 2763.876
207.9980, 2740.200
208.4801, 2725.454
208.9622, 2723.641
209.4443, 2733.062
209.9264, 2747.065
210.4086, 2768.806
210.8907, 2788.848
211.3728, 2799.399
211.8549, 2798.675
212.3370, 2794.072
212.8191, 2783.085
213.3013, 2767.872
213.7834, 2766.902
214.2655, 2784.041
214.7476, 2809.313
215.2297, 2836.623
215.7118, 2871.444
216.1940, 2892.941
216.6761, 2892.647
217.1582, 2872.007
217.6403, 2864.665
218.1224, 2877.416
218.6045, 2894.482
219.0867, 2899.279
219.5688, 2884.376
220.0509, 2874.848
220.5330, 2877.367
221.0151, 2892.263
221.4972, 2904.965
221.9794, 2916.542
222.4615, 2924.868
222.9436, 2927.029
223.4257, 2919.587
223.9078, 2912.772
224.3899, 2907.332
224.8721, 2902.561
225.3542, 2908.383
225.8363, 2930.581
226.3184, 2957.927
226.8005, 2977.625
227.2827, 2987.580
227.7648, 2993.377
228.2469, 2994.845
228.7290, 2990.779
229.2111, 2991.891
229.6932, 3000.350
230.1754, 3012.208
230.6575, 3022.937
231.1396, 3033.806
231.6217, 3040.937
232.1038, 3041.107
232.5859, 3031.231
233.0681, 3032.358
233.5502, 3053.077
234.0323, 3078.607
234.5144, 3086.635
234.9965, 3067.521
235.4786, 3046.958
235.9608, 3032.352
236.4429, 3025.016
236.9250, 3018.086
237.4071, 3010.279
237.8892, 3003.740
238.3713, 3002.572
238.8535, 3010.992
239.3356, 3017.774
239.8177, 3019.719
240.2998, 3016.715
240.7819, 3008.349
241.2640, 2989.378
241.7462, 2967.959
242.2283, 2958.138
242.7104, 2963.280
243.1925, 2974.665
243.6746, 2991.998
244.1567, 3020.887
244.6389, 3035.546
245.1210, 3028.866
245.6031, 3012.216
246.0852, 3006.108
246.5673, 3016.045
247.0494, 3027.151
247.5316, 3033.942
248.0137, 3034.490
248.4958, 3037.948
248.9779, 3048.241
249.4600, 3059.200
249.9421, 3057.128
250.4243, 3031.480
250.9064, 3011.717
251.3885, 3010.909
251.8706, 3037.497
252.3527, 3054.428
252.8348, 3057.515
253.3170, 3053.548
253.7991, 3055.049
254.2812, 3062.815
254.7633, 3074.545
255.2454, 3091.458
255.7275, 3117.485
256.2097, 3133.111
256.6918, 3135.379
257.1739, 3129.121
257.6560, 3120.790
258.1381, 3103.943
258.6202, 3098.625
259.1024, 3119.018
259.5845, 3178.262
260.0666, 3205.508
260.5487, 3188.204
261.0308, 3148.340
261.5129, 3126.840
261.9951, 3131.946
262.4772, 3136.027
262.9593, 3123.917
263.4414, 3087.028
263.9235, 3076.968
264.4056, 3103.658
264.8878, 3147.899
265.3699, 3177.283
265.8520, 3189.833
266.3341, 3193.780
266.8162, 3189.602
267.2983, 3174.945
267.7805, 3167.931
268.2626, 3170.416
268.7447, 3178.584
269.2268, 3185.775
269.7089, 3191.182
270.1910, 3198.550
270.6732, 3212.070
271.1553, 3233.424
271.6374, 3241.919
272.1195, 3233.662
272.6016, 3218.252
273.0837, 3210.400
273.5659, 3210.337
274.0480, 3216.367
274.5301, 3231.259
275.0122, 3255.562
275.4943, 3268.695
275.9764, 3267.144
276.4586, 3261.038
276.9407, 3268.474
277.4228, 3291.671
277.9049, 3308.439
278.3870, 3307.366
278.8691, 3289.384
279.3513, 3275.233
279.8334, 3264.621
280.3155, 3258.596
280.7976, 3260.923
281.2798, 3272.028
281.7619, 3281.038
282.2440, 3282.299
282.7261, 3277.194
283.2082, 3276.709
283.6903, 3281.571
284.1725, 3288.373
284.6546, 3293.634
285.1367, 3297.303
285.6188, 3299.006
286.1009, 3296.883
286.5830, 3292.514
287.0652, 3293.814
287.5473, 3301.576
288.0294, 3310.210
288.5115, 3310.875
288.9936, 3305.101
289.4757, 3305.884
289.9579, 3324.070
290.4400, 3350.342
290.9221, 3356.223
291.4042, 3340.373
291.8863, 3320.819
292.3684, 3314.945
292.8506, 3320.774
293.3327, 3329.480
293.8148, 3338.173
294.2969, 3348.127
294.7790, 3365.387
295.2611, 3390.031
295.7433, 3409.834
296.2254, 3412.407
296.7075, 3401.625
297.1896, 3387.561
297.6717, 3367.224
298.1538, 3349.909
298.6360, 3355.691
299.1181, 3382.586
299.6002, 3406.509
300.0823, 3404.635
300.5644, 3387.338
301.0465, 3374.160
301.5287, 3370.746
302.0108, 3372.846
302.4929, 3378.507
302.9750, 3386.842
303.4571, 3392.458
303.9392, 3386.998
304.4214, 3378.083
304.9035, 3376.911
305.3856, 3390.558
305.8677, 3405.532
306.3498, 3406.384
306.8319, 3397.407
307.3141, 3393.824
307.7962, 3413.128
308.2783, 3438.228
308.7604, 3451.612
309.2425, 3445.547
309.7246, 3435.983
310.2068, 3429.940
310.6889, 3427.949
311.1710, 3431.238
311.6531, 3445.782
312.1352, 3462.550
312.6173, 3473.870
313.0995, 3475.891
313.5816, 3479.792
314.0637, 3495.916
314.5458, 3517.292
315.0279, 3530.945
315.5100, 3525.079
315.9922, 3515.323
316.4743, 3509.813
316.9564, 3510.199
317.4385, 3511.882
317.9206, 3511.707
318.4027, 3512.290
318.8849, 3517.287
319.3670, 3535.876
319.8491, 3551.838
320.3312, 3558.267
320.8133, 3553.247
321.2954, 3547.361
321.7776, 3534.134
322.2597, 3524.244
322.7418, 3529.077
323.2239, 3572.557
323.7060, 3608.664
324.1881, 3625.779
324.6703, 3622.433
325.1524, 3614.166
325.6345, 3595.342
326.1166, 3575.593
326.5987, 3562.484
327.0808, 3558.604
327.5630, 3558.446
328.0451, 3564.011
328.5272, 3574.802
329.0093, 3579.066
329.4914, 3563.474
329.9735, 3553.282
330.4557, 3568.147
330.9378, 3640.147
331.4199, 3679.981
331.9020, 3667.549
332.3841, 3615.590
332.8662, 3587.246
333.3484, 3593.490
333.8305, 3607.126
334.3126, 3613.654
334.7947, 3610.698
335.2768, 3606.906
335.7589, 3599.578
336.2411, 3593.380
336.7232, 3602.940
337.2053, 3634.460
337.6874, 3663.418
338.1695, 3674.170
338.6516, 3662.767
339.1338, 3669.866
339.6159, 3702.713
340.0980, 3743.686
340.5801, 3760.881
341.0622, 3752.267
341.5443, 3739.934
342.0265, 3729.910
342.5086, 3722.838
342.9907, 3726.376
343.4728, 3742.642
343.9549, 3761.097
344.4370, 3768.429
344.9192, 3765.466
345.4013, 3759.900
345.8834, 3752.295
346.3655, 3744.630
346.8476, 3744.872
347.3297, 3753.363
347.8119, 3760.071
348.2940, 3751.899
348.7761, 3733.813
349.2582, 3720.858
349.7403, 3717.810
350.2225, 3720.979
350.7046, 3726.977
351.1867, 3735.408
351.6688, 3742.803
352.1509, 3748.058
352.6331, 3750.348
353.1152, 3748.177
353.5973, 3740.376
354.0794, 3729.616
354.5615, 3715.698
355.0436, 3700.226
355.5258, 3688.080
356.0079, 3686.920
356.4900, 3687.499
356.9721, 3680.170
357.4542, 3660.337
357.9363, 3643.180
358.4185, 3641.015
358.9006, 3646.889
359.3827, 3648.776
359.8648, 3644.676
360.3469, 3633.248
360.8290, 3607.908
361.3112, 3564.247
361.7933, 3535.371
362.2754, 3544.741
362.7575, 3569.177
363.2396, 3583.543
363.7217, 3578.870
364.2039, 3566.706
364.6860, 3546.283
365.1681, 3517.550
365.6502, 3494.367
366.1323, 3484.043
366.6144, 3476.099
367.0966, 3463.246
367.5787, 3439.841
368.0608, 3418.162
368.5429, 3394.774
369.0250, 3372.339
369.5071, 3366.169
369.9893, 3392.679
370.4714, 3416.379
370.9535, 3419.682
371.4356, 3395.059
371.9177, 3365.502
372.3998, 3323.593
372.8820, 3280.718
373.3641, 3265.167
373.8462, 3286.023
374.3283, 3310.729
374.8104, 3327.805
375.2925, 3337.276
375.7747, 3338.924
376.2568, 3330.209
376.7389, 3318.734
377.2210, 3313.883
377.7031, 3315.732
378.1852, 3323.744
378.6674, 3342.301
379.1495, 3366.662
379.6316, 3376.367
380.1137, 3370.572
380.5958, 3357.003
381.0779, 3340.771
381.5601, 3322.143
382.0422, 3302.830
382.5243, 3280.164
383.0064, 3260.360
383.4885, 3258.406
383.9706, 3271.740
384.4528, 3281.607
384.9349, 3267.379
385.4170, 3243.370
385.8991, 3234.708
386.3812, 3248.366
386.8633, 3266.809
387.3455, 3277.363
387.8276, 3280.356
388.3097, 3276.595
388.7918, 3257.087
389.2739, 3236.980
389.7560, 3229.476
390.2382, 3236.364
390.7203, 3246.412
391.2024, 3259.601
391.6845, 3270.563
392.1666, 3273.213
392.6487, 3257.454
393.1309, 3240.443
393.6130, 3226.375
394.0951, 3215.731
394.5772, 3212.968
395.0593, 3232.203
395.5414, 3251.464
396.0236, 3256.782
396.5057, 3227.470
396.9878, 3206.400
397.4699, 3201.469
397.9520, 3208.218
398.4341, 3212.632
398.9163, 3213.156
399.3984, 3212.929
399.8805, 3212.708
400.3626, 3211.671
400.8447, 3213.282
401.3268, 3218.988
401.8090, 3226.271
402.2911, 3231.751
402.7732, 3235.101
403.2553, 3237.232
403.7374, 3237.470
404.2195, 3236.098
404.7017, 3239.567
405.1838, 3250.052
405.6659, 3259.514
406.1480, 3260.196
406.6301, 3252.025
407.1122, 3240.599
407.5944, 3223.705
408.0765, 3207.439
408.5586, 3211.527
409.0407, 3235.527
409.5228, 3255.627
410.0049, 3248.253
410.4871, 3224.521
410.9692, 3217.447
411.4513, 3232.856
411.9334, 3254.922
412.4155, 3267.330
412.8976, 3272.105
413.3798, 3274.776
413.8619, 3277.520
414.3440, 3279.768
414.8261, 3280.168
415.3082, 3278.733
415.7903, 3278.631
416.2725, 3282.643
416.7546, 3288.860
417.2367, 3295.264
417.7188, 3301.756
418.2009, 3307.560
418.6830, 3313.504
419.1652, 3318.780
419.6473, 3320.189
420.1294, 3313.648
420.6115, 3305.221
421.0937, 3297.840
421.5758, 3291.620
422.0579, 3287.368
422.5400, 3285.242
423.0221, 3285.112
423.5042, 3286.733
423.9864, 3289.510
424.4685, 3294.687
424.9506, 3303.779
425.4327, 3317.215
425.9148, 3327.940
426.3969, 3337.776
426.8791, 3342.844
427.3612, 3336.696
427.8433, 3311.586
428.3254, 3301.175
428.8075, 3316.677
429.2896, 3347.575
429.7718, 3354.924
430.2539, 3334.491
430.7360, 3313.269
431.2181, 3310.417
431.7002, 3324.164
432.1823, 3327.107
432.6645, 3315.932
433.1466, 3300.458
433.6287, 3292.457
434.1108, 3291.508
434.5929, 3296.135
435.0750, 3313.380
435.5572, 3332.499
436.0393, 3329.836
436.5214, 3306.465
437.0035, 3285.106
437.4856, 3290.399
437.9677, 3306.880
438.4499, 3311.059
438.9320, 3286.805
439.4141, 3266.225
439.8962, 3279.593
440.3783, 3315.154
440.8604, 3342.998
441.3426, 3344.787
441.8247, 3338.665
442.3068, 3333.450
442.7889, 3329.633
443.2710, 3329.122
443.7531, 3338.011
444.2353, 3348.286
444.7174, 3351.233
445.1995, 3334.526
445.6816, 3322.516
446.1637, 3321.106
446.6458, 3329.231
447.1280, 3335.966
447.6101, 3343.549
448.0922, 3347.265
448.5743, 3343.615
449.0564, 3328.506
449.5385, 3316.307
450.0207, 3306.131
450.5028, 3300.165
450.9849, 3306.254
451.4670, 3328.218
451.9491, 3342.117
452.4312, 3332.569
452.9134, 3304.546
453.3955, 3300.229
453.8776, 3322.317
454.3597, 3348.706
454.8418, 3355.047
455.3239, 3346.384
455.8061, 3344.742
456.2882, 3359.635
456.7703, 3376.622
457.2524, 3370.734
457.7345, 3347.334
458.2166, 3328.171
458.6988, 3333.393
459.1809, 3346.146
459.6630, 3347.168
460.1451, 3333.141
460.6272, 3317.530
461.1093, 3303.455
461.5915, 3294.442
462.0736, 3295.260
462.5557, 3319.270
463.0378, 3341.789
463.5199, 3354.227
464.0020, 3357.043
464.4842, 3355.200
464.9663, 3344.010
465.4484, 3332.587
465.9305, 3325.697
466.4126, 3325.182
466.8947, 3326.297
467.3769, 3331.229
467.8590, 3336.833
468.3411, 3336.620
468.8232, 3323.547
469.3053, 3319.224
469.7874, 3332.673
470.2696, 3362.495
470.7517, 3382.737
471.2338, 3392.319
471.7159, 3395.588
472.1980, 3394.777
472.6801, 3389.960
473.1623, 3384.471
473.6444, 3377.927
474.1265, 3372.507
474.6086, 3373.388
475.0907, 3379.612
475.5728, 3384.981
476.0550, 3383.953
476.5371, 3380.777
477.0192, 3384.690
477.5013, 3396.159
477.9834, 3403.738
478.4655, 3394.417
478.9477, 3377.162
479.4298, 3363.394
479.9119, 3352.506
480.3940, 3350.720
480.8761, 3369.507
481.3582, 3401.126
481.8404, 3423.078
482.3225, 3422.338
482.8046, 3414.938
483.2867, 3406.743
483.7688, 3396.569
484.2509, 3391.497
484.7331, 3401.258
485.2152, 3411.651
485.6973, 3408.051
486.1794, 3374.086
486.6615, 3354.637
487.1436, 3360.201
487.6258, 3385.172
488.1079, 3404.199
488.5900, 3417.577
489.0721, 3423.771
489.5542, 3418.365
490.0363, 3401.178
490.5185, 3392.319
491.0006, 3393.025
491.4827, 3399.899
491.9648, 3413.673
492.4470, 3431.871
492.9291, 3439.592
493.4112, 3424.935
493.8933, 3402.822
494.3754, 3397.509
494.8575, 3406.871
495.3397, 3417.849
495.8218, 3424.848
496.3039, 3427.603
496.7860, 3424.615
497.2681, 3413.963
497.7502, 3404.349
498.2324, 3402.198
498.7145, 3403.320
499.1966, 3401.976
499.6787, 3387.951
500.1608, 3379.838
500.6429, 3387.478
501.1251, 3409.592
501.6072, 3424.488
502.0893, 3429.800
502.5714, 3428.542
503.0535, 3420.539
503.5356, 3398.338
504.0178, 3387.829
504.4999, 3393.128
504.9820, 3406.515
505.4641, 3417.430
505.9462, 3426.090
506.4283, 3431.074
506.9105, 3431.934
507.3926, 3428.751
507.8747, 3419.262
508.3568, 3402.914
508.8389, 3390.064
509.3210, 3387.679
509.8032, 3394.578
510.2853, 3410.824
510.7674, 3439.646
511.2495, 3463.940
511.7316, 3461.073
512.2137, 3440.934
512.6959, 3423.754
513.1780, 3418.972
513.6601, 3419.003
514.1422, 3419.290
514.6243, 3420.034
515.1064, 3423.050
515.5886, 3432.069
516.0707, 3441.489
516.5528, 3448.247
517.0349, 3453.449
517.5170, 3452.997
517.9991, 3439.576
518.4813, 3422.977
518.9634, 3415.764
519.4455, 3422.028
519.9276, 3431.123
520.4097, 3443.863
520.8918, 3458.257
521.3740, 3460.282
521.8561, 3446.147
522.3382, 3432.202
522.8203, 3431.209
523.3024, 3442.142
523.7845, 3445.900
524.2667, 3439.950
524.7488, 3432.558
525.2309, 3435.086
525.7130, 3444.935
526.1951, 3453.002
526.6772, 3455.781
527.1594, 3455.667
527.6415, 3454.238
528.1236, 3439.403
528.6057, 3455.997
529.0878, 3465.760
529.5699, 3469.057
530.0521, 3446.526
530.5342, 3457.347
531.0163, 3454.802
531.4984, 3451.709
531.9805, 3467.224
532.4626, 3448.449
532.9448, 3463.670
533.4269, 3465.320
533.9090, 3473.180
534.3911, 3467.592
534.8732, 3466.158
535.3553, 3478.177
535.8375, 3482.747
536.3196, 3475.611
536.8017, 3483.866
537.2838, 3464.622
537.7659, 3471.944
538.2480, 3475.587
538.7302, 3481.795
539.2123, 3489.588
539.6944, 3490.858
540.1765, 3481.301
540.6586, 3469.158
541.1407, 3464.827
541.6229, 3467.487
542.1050, 3474.006
542.5871, 3488.565
543.0692, 3502.410
543.5513, 3505.542
544.0334, 3497.533
544.5156, 3490.872
544.9977, 3495.817
545.4798, 3501.976
545.9619, 3500.688
546.4440, 3481.783
546.9261, 3468.109
547.4083, 3461.862
547.8904, 3463.070
548.3725, 3472.634
548.8546, 3499.229
549.3367, 3519.658
549.8188, 3525.148
550.3010, 3517.708
550.7831, 3523.681
551.2652, 3548.017
551.7473, 3569.281
552.2294, 3567.287
552.7115, 3545.111
553.1937, 3535.364
553.6758, 3542.751
554.1579, 3553.746
554.6400, 3550.114
555.1221, 3536.306
555.6042, 3525.251
556.0864, 3523.615
556.5685, 3524.491
557.0506, 3519.159
557.5327, 3510.095
558.0148, 3506.667
558.4969, 3520.494
558.9791, 3536.070
559.4612, 3542.360
559.9433, 3535.567
560.4254, 3533.355
560.9075, 3545.888
561.3896, 3560.406
561.8718, 3565.474
562.3539, 3552.442
562.8360, 3544.916
563.3181, 3547.012
563.8002, 3554.564
564.2823, 3557.590
564.7645, 3555.407
565.2466, 3551.508
565.7287, 3546.023
566.2108, 3539.861
566.6929, 3538.252
567.1750, 3541.355
567.6572, 3545.747
568.1393, 3550.212
568.6214, 3553.597
569.1035, 3551.511
569.5856, 3540.981
570.0677, 3534.359
570.5499, 3547.903
571.0320, 3570.844
571.5141, 3586.226
571.9962, 3579.797
572.4783, 3572.646
572.9604, 3572.566
573.4426, 3578.849
573.9247, 3587.231
574.4068, 3601.313
574.8889, 3613.372
575.3710, 3619.994
575.8531, 3620.011
576.3353, 3620.821
576.8174, 3624.217
577.2995, 3625.736
577.7816, 3619.359
578.2637, 3603.985
578.7458, 3593.444
579.2280, 3591.090
579.7101, 3591.927
580.1922, 3583.935
580.6743, 3569.583
581.1564, 3562.814
581.6385, 3578.249
582.1207, 3600.547
582.6028, 3608.204
583.0849, 3602.795
583.5670, 3597.214
584.0491, 3602.522
584.5313, 3608.471
585.0134, 3605.552
585.4955, 3588.203
585.9776, 3575.650
586.4597, 3574.511
586.9418, 3580.051
587.4240, 3587.103
587.9061, 3597.105
588.3882, 3606.045
588.8703, 3613.826
589.3524, 3620.184
589.8345, 3624.863
590.3167, 3628.576
590.7988, 3627.564
591.2809, 3616.857
591.7630, 3599.613
592.2451, 3594.345
592.7272, 3601.464
593.2094, 3610.525
593.6915, 3610.482
594.1736, 3606.678
594.6557, 3611.752
595.1378, 3630.659
595.6199, 3645.479
596.1021, 3638.001
596.5842, 3619.161
597.0663, 3604.500
597.5485, 3598.928
598.0306, 3598.859
598.5127, 3607.121
598.9948, 3621.058
599.4769, 3629.049
599.9590, 3619.457
600.4412, 3617.450
600.9233, 3636.243
601.4054, 3678.648
601.8875, 3697.572
602.3696, 3688.236
602.8517, 3666.682
603.3339, 3640.342
603.8160, 3610.410
604.2981, 3600.039
604.7802, 3615.870
605.2623, 3637.598
605.7444, 3634.715
606.2266, 3616.306
606.7087, 3607.193
607.1908, 3625.798
607.6729, 3647.350
608.1550, 3649.950
608.6371, 3638.812
609.1193, 3630.983
609.6014, 3633.136
610.0835, 3640.401
610.5656, 3654.589
611.0477, 3678.477
611.5298, 3686.289
612.0120, 3663.934
612.4941, 3638.687
612.9762, 3629.944
613.4583, 3643.989
613.9404, 3650.681
614.4225, 3645.600
614.9047, 3638.614
615.3868, 3648.521
615.8689, 3673.427
616.3510, 3685.545
616.8331, 3669.543
617.3152, 3646.102
617.7974, 3650.178
618.2795, 3675.613
618.7616, 3698.531
619.2437, 3704.428
619.7258, 3703.766
620.2079, 3703.980
620.6901, 3705.479
621.1722, 3705.376
621.6543, 3701.131
622.1364, 3696.022
622.6185, 3691.735
623.1006, 3685.891
623.5828, 3686.621
624.0649, 3697.027
624.5470, 3711.161
625.0291, 3722.231
625.5112, 3729.966
625.9933, 3736.686
626.4755, 3744.234
626.9576, 3748.970
627.4397, 3739.258
627.9218, 3717.274
628.4039, 3699.621
628.8860, 3692.592
629.3682, 3695.608
629.8503, 3713.495
630.3324, 3743.868
630.8145, 3768.833
631.2966, 3775.483
631.7787, 3774.453
632.2609, 3773.893
632.7430, 3776.860
633.2251, 3772.266
633.7072, 3746.011
634.1893, 3718.766
634.6714, 3708.743
635.1536, 3727.956
635.6357, 3736.926
636.1178, 3728.331
636.5999, 3712.877
637.0820, 3712.141
637.5641, 3726.862
638.0463, 3737.865
638.5284, 3736.051
639.0105, 3729.303
639.4926, 3736.506
639.9747, 3754.926
640.4568, 3768.531
640.9390, 3764.876
641.4211, 3753.842
641.9032, 3741.287
642.3853, 3727.718
642.8674, 3722.717
643.3495, 3742.717
643.8317, 3764.210
644.3138, 3769.275
644.7959, 3735.696
645.2780, 3726.580
645.7601, 3759.810
646.2422, 3801.794
646.7244, 3809.623
647.2065, 3775.094
647.6886, 3748.803
648.1707, 3741.018
648.6528, 3744.051
649.1349, 3741.748
649.6171, 3735.439
650.0992, 3734.377
650.5813, 3747.847
651.0634, 3765.832
651.5455, 3779.762
652.0276, 3788.681
652.5098, 3786.701
652.9919, 3747.758
653.4740, 3714.738
653.9561, 3722.812
654.4382, 3785.966
654.9203, 3824.356
655.4025, 3811.745
655.8846, 3784.939
656.3667, 3767.634
656.8488, 3763.180
657.3309, 3758.254
657.8130, 3752.430
658.2952, 3745.896
658.7773, 3734.417
659.2594, 3719.414
659.7415, 3721.630
660.2236, 3754.657
660.7057, 3793.720
661.1879, 3800.830
661.6700, 3784.434
662.1521, 3767.889
662.6342, 3754.542
663.1163, 3751.561
663.5984, 3774.888
664.0806, 3819.051
664.5627, 3840.711
665.0448, 3804.864
665.5269, 3766.022
666.0090, 3745.285
666.4911, 3743.348
666.9733, 3758.778
667.4554, 3801.249
667.9375, 3841.902
668.4196, 3856.606
668.9017, 3845.898
669.3839, 3823.453
669.8660, 3787.283
670.3481, 3755.091
670.8302, 3751.314
671.3123, 3766.875
671.7944, 3782.700
672.2766, 3794.423
672.7587, 3802.164
673.2408, 3806.436
673.7229, 3806.783
674.2050, 3802.435
674.6871, 3778.186
675.1693, 3765.577
675.6514, 3779.755
676.1335, 3814.485
676.6156, 3837.435
677.0977, 3845.429
677.5798, 3849.045
678.0620, 3855.659
678.5441, 3863.314
679.0262, 3846.617
679.5083, 3803.750
679.9904, 3764.103
680.4725, 3754.597
680.9547, 3763.253
681.4368, 3768.615
681.9189, 3767.578
682.4010, 3769.255
682.8831, 3786.435
683.3652, 3806.167
683.8474, 3814.836
684.3295, 3801.545
684.8116, 3789.569
685.2937, 3781.314
685.7758, 3776.594
686.2579, 3775.188
686.7401, 3776.228
687.2222, 3784.068
687.7043, 3803.286
688.1864, 3826.101
688.6685, 3832.595
689.1506, 3823.527
689.6328, 3811.007
690.1149, 3797.306
690.5970, 3785.256
691.0791, 3780.556
691.5612, 3781.914
692.0433, 3782.855
692.5255, 3774.726
693.0076, 3769.178
693.4897, 3777.722
693.9718, 3803.188
694.4539, 3816.147
694.9360, 3799.497
695.4182, 3781.570
695.9003, 3777.753
696.3824, 3791.706
696.8645, 3806.873
697.3466, 3826.672
697.8287, 3838.712
698.3109, 3822.562
698.7930, 3784.442
699.2751, 3757.349
699.7572, 3747.867
700.2393, 3748.124
700.7214, 3753.238
701.2036, 3761.870
701.6857, 3771.893
702.1678, 3787.336
702.6499, 3798.450
703.1320, 3796.181
703.6141, 3787.013
704.0963, 3787.746
704.5784, 3807.734
705.0605, 3824.447
705.5426, 3832.411
706.0247, 3833.511
706.5068, 3837.986
706.9890, 3847.240
707.4711, 3848.318
707.9532, 3825.564
708.4353, 3791.671
708.9174, 3783.667
709.3995, 3799.143
709.8817, 3815.139
710.3638, 3817.032
710.8459, 3811.617
711.3280, 3802.033
711.8101, 3787.347
712.2922, 3780.355
712.7744, 3786.336
713.2565, 3800.183
713.7386, 3819.729
714.2207, 3852.742
714.7028, 3870.510
715.1849, 3869.608
715.6671, 3859.670
716.1492, 3848.564
716.6313, 3836.891
717.1134, 3832.320
717.5955, 3838.370
718.0776, 3844.858
718.5598, 3834.721
719.0419, 3816.530
719.5240, 3807.090
720.0061, 3818.956
720.4882, 3832.771
720.9703, 3838.246
721.4525, 3839.339
721.9346, 3845.250
722.4167, 3868.912
722.8988, 3882.007
723.3809, 3876.511
723.8630, 3856.803
724.3452, 3838.687
724.8273, 3821.596
725.3094, 3810.501
725.7915, 3809.490
726.2736, 3815.666
726.7557, 3823.588
727.2379, 3832.735
727.7200, 3839.015
728.2021, 3837.439
728.6842, 3833.535
729.1663, 3831.808
729.6484, 3832.706
730.1306, 3833.560
730.6127, 3833.250
731.0948, 3832.988
731.5769, 3833.140
732.0590, 3833.210
732.5411, 3836.004
733.0233, 3842.087
733.5054, 3849.623
733.9875, 3859.652
734.4696, 3870.835
734.9517, 3870.842
735.4338, 3856.647
735.9160, 3841.438
736.3981, 3839.559
736.8802, 3845.021
737.3623, 3849.518
737.8444, 3852.808
738.3266, 3850.988
738.8087, 3837.930
739.2908, 3820.389
739.7729, 3808.057
740.2551, 3799.337
740.7372, 3799.797
741.2193, 3814.143
741.7014, 3834.598
742.1835, 3843.981
742.6656, 3842.126
743.1478, 3840.035
743.6299, 3841.466
744.1120, 3844.302
744.5941, 3846.427
745.0762, 3847.307
745.5583, 3845.343
746.0405, 3830.538
746.5226, 3821.261
747.0047, 3835.583
747.4868, 3867.693
747.9689, 3882.600
748.4510, 3858.842
748.9332, 3839.521
749.4153, 3837.330
749.8974, 3851.534
750.3795, 3879.550
750.8616, 3925.137
751.3438, 3955.073
751.8259, 3937.720
752.3080, 3891.370
752.7901, 3852.252
753.2722, 3822.217
753.7543, 3812.551
754.2365, 3858.844
754.7186, 3909.242
755.2007, 3915.059
755.6828, 3860.661
756.1649, 3824.186
756.6470, 3828.077
757.1292, 3844.879
757.6113, 3860.648
758.0934, 3876.941
758.5755, 3883.752
759.0576, 3879.017
759.5397, 3871.880
760.0219, 3874.847
760.5040, 3883.396
760.9861, 3880.831
761.4682, 3862.316
761.9503, 3845.260
762.4324, 3847.463
762.9146, 3857.132
763.3967, 3859.743
763.8788, 3841.616
764.3609, 3832.988
764.8430, 3847.993
765.3251, 3869.755
765.8073, 3878.760
766.2894, 3871.310
766.7715, 3865.359
767.2536, 3863.084
767.7357, 3863.866
768.2178, 3868.500
768.7000, 3875.750
769.1821, 3879.418
769.6642, 3872.257
770.1463, 3869.392
770.6284, 3893.993
771.1105, 3930.965
771.5927, 3951.124
772.0748, 3930.335
772.5569, 3909.048
773.0390, 3894.357
773.5211, 3886.235
774.0032, 3887.539
774.4854, 3902.863
774.9675, 3909.190
775.4496, 3894.611
775.9317, 3871.035
776.4138, 3872.191
776.8959, 3893.586
777.3781, 3910.870
777.8602, 3906.815
778.3423, 3896.821
778.8244, 3889.947
779.3065, 3887.409
779.7886, 3893.386
780.2708, 3930.833
780.7529, 3953.387
781.2350, 3939.107
781.7171, 3893.570
782.1992, 3870.589
782.6813, 3874.669
783.1635, 3884.217
783.6456, 3889.214
784.1277, 3891.102
784.6098, 3894.625
785.0919, 3899.682
785.5740, 3905.301
786.0562, 3913.392
786.5383, 3920.003
787.0204, 3919.069
787.5025, 3910.439
787.9846, 3908.607
788.4667, 3930.437
788.9489, 3946.615
789.4310, 3942.517
789.9131, 3916.684
790.3952, 3898.604
790.8773, 3888.965
791.3594, 3884.545
791.8416, 3886.164
792.3237, 3890.851
792.8058, 3887.231
793.2879, 3875.015
793.7700, 3870.757
794.2521, 3897.173
794.7343, 3928.833
795.2164, 3943.887
795.6985, 3936.474
796.1806, 3927.202
796.6627, 3910.486
797.1448, 3901.175
797.6270, 3915.036
798.1091, 3958.400
798.5912, 3968.102
799.0733, 3938.271
799.5554, 3904.650
800.0375, 3906.591
800.5197, 3928.381
801.0018, 3941.211
801.4839, 3941.011
801.9660, 3932.475
802.4481, 3904.964
802.9302, 3878.703
803.4124, 3872.474
803.8945, 3903.535
804.3766, 3921.452
804.8587, 3920.106
805.3408, 3913.666
805.8229, 3916.248
806.3051, 3927.759
806.7872, 3932.600
807.2693, 3928.662
807.7514, 3922.854
808.2335, 3921.180
808.7156, 3922.668
809.1978, 3927.115
809.6799, 3936.901
810.1620, 3941.396
810.6441, 3929.027
811.1262, 3913.305
811.6083, 3907.927
812.0905, 3918.670
812.5726, 3927.025
813.0547, 3932.454
813.5368, 3935.668
814.0189, 3935.881
814.5010, 3934.030
814.9832, 3937.568
815.4653, 3949.592
815.9474, 3957.608
816.4295, 3944.211
816.9116, 3922.531
817.3937, 3909.561
817.8759, 3916.212
818.3580, 3918.516
818.8401, 3905.689
819.3222, 3890.348
819.8043, 3883.991
820.2864, 3887.621
820.7686, 3896.874
821.2507, 3912.916
821.7328, 3929.621
822.2149, 3939.897
822.6970, 3944.325
823.1791, 3943.496
823.6613, 3935.914
824.1434, 3928.556
824.6255, 3924.896
825.1076, 3924.560
825.5897, 3927.189
826.0718, 3933.185
826.5540, 3942.750
827.0361, 3961.962
827.5182, 3977.899
828.0003, 3969.974
828.4824, 3938.665
828.9645, 3920.572
829.4467, 3922.178
829.9288, 3933.760
830.4109, 3952.853
830.8930, 3971.813
831.3751, 3976.983
831.8572, 3955.653
832.3394, 3941.300
832.8215, 3949.445
833.3036, 3968.512
833.7857, 3986.666
834.2678, 4007.899
834.7499, 4014.498
835.2321, 4001.819
835.7142, 3982.454
836.1963, 3967.962
836.6784, 3959.609
837.1605, 3966.328
837.6426, 3994.113
838.1248, 4017.040
838.6069, 4010.876
839.0890, 3990.763
839.5711, 3972.868
840.0532, 3957.689
840.5353, 3950.034
841.0175, 3947.775
841.4996, 3955.048
841.9817, 3984.994
842.4638, 4039.983
842.9459, 4056.018
843.4280, 4021.694
843.9102, 3976.214
844.3923, 3960.370
844.8744, 3962.941
845.3565, 3966.526
845.8386, 3967.452
846.3207, 3969.888
846.8029, 3976.405
847.2850, 3984.639
847.7671, 3993.359
848.2492, 4006.539
848.7313, 4006.155
849.2134, 3985.377
849.6956, 3968.498
850.1777, 3990.290
850.6598, 4036.873
851.1419, 4056.674
851.6240, 4041.616
852.1061, 4020.483
852.5883, 4011.964
853.0704, 4009.514
853.5525, 4007.540
854.0346, 4005.953
854.5167, 4002.118
854.9988, 3992.789
855.4810, 3985.244
855.9631, 3988.074
856.4452, 4001.624
856.9273, 3997.002
857.4094, 3972.183
857.8915, 3948.127
858.3737, 3942.746
858.8558, 3949.477
859.3379, 3963.990
859.8200, 3986.644
860.3021, 4001.077
860.7842, 3990.748
861.2664, 3979.115
861.7485, 3979.786
862.2306, 3994.144
862.7127, 4007.517
863.1948, 4020.353
863.6769, 4030.697
864.1591, 4038.196
864.6412, 4042.015
865.1233, 4036.630
865.6054, 4023.060
866.0875, 4016.332
866.5696, 4038.060
867.0518, 4058.857
867.5339, 4056.043
868.0160, 4026.750
868.4981, 4010.939
868.9802, 4013.637
869.4623, 4019.350
869.9445, 4020.801
870.4266, 4019.339
870.9087, 4021.189
871.3908, 4026.210
871.8729, 4032.516
872.3550, 4042.302
872.8372, 4050.248
873.3193, 4050.858
873.8014, 4045.149
874.2835, 4039.322
874.7656, 4031.358
875.2477, 4028.139
875.7299, 4035.183
876.2120, 4047.505
876.6941, 4042.383
877.1762, 4019.899
877.6583, 4001.820
878.1404, 3999.174
878.6226, 4004.487
879.1047, 4009.591
879.5869, 4014.674
880.0690, 4020.332
880.5511, 4028.470
881.0332, 4035.273
881.5153, 4040.275
881.9974, 4043.036
882.4796, 4042.468
882.9617, 4038.388
883.4438, 4030.521
883.9259, 4015.616
884.4080, 4003.531
884.8901, 4016.775
885.3723, 4044.720
885.8544, 4062.442
886.3365, 4058.045
886.8186, 4046.954
887.3007, 4027.049
887.7828, 4008.224
888.2650, 4004.687
888.7471, 4022.288
889.2292, 4040.953
889.7113, 4061.582
890.1934, 4077.216
890.6755, 4074.601
891.1577, 4059.605
891.6398, 4050.812
892.1219, 4052.467
892.6040, 4056.824
893.0861, 4058.143
893.5682, 4059.831
894.0504, 4065.835
894.5325, 4080.738
895.0146, 4088.885
895.4967, 4087.695
895.9788, 4084.513
896.4609, 4089.007
896.9431, 4098.179
897.4252, 4086.624
897.9073, 4052.690
898.3894, 4028.969
898.8715, 4054.479
899.3536, 4090.218
899.8358, 4101.081
900.3179, 4081.372
900.8000, 4066.311
901.2821, 4056.536
901.7642, 4056.676
902.2463, 4073.713
902.7285, 4103.652
903.2106, 4117.259
903.6927, 4114.850
904.1748, 4107.247
904.6569, 4098.437
905.1390, 4089.570
905.6212, 4080.949
906.1033, 4073.130
906.5854, 4067.842
907.0675, 4065.331
907.5496, 4066.234
908.0317, 4072.350
908.5139, 4081.271
908.9960, 4084.843
909.4781, 4083.021
909.9602, 4082.452
910.4423, 4083.894
910.9244, 4090.189
911.4066, 4112.342
911.8887, 4140.400
912.3708, 4156.276
912.8529, 4147.107
913.3350, 4132.819
913.8171, 4109.427
914.2993, 4088.359
914.7814, 4089.846
915.2635, 4116.679
915.7456, 4127.932
916.2277, 4116.318
916.7098, 4094.613
917.1920, 4065.918
917.6741, 4041.392
918.1562, 4042.424
918.6383, 4083.697
919.1204, 4112.600
919.6025, 4101.453
920.0847, 4081.975
920.5668, 4074.973
921.0489, 4082.338
921.5310, 4088.950
922.0131, 4094.663
922.4952, 4100.602
922.9774, 4110.910
923.4595, 4120.422
923.9416, 4118.677
924.4237, 4106.091
924.9058, 4097.370
925.3879, 4099.509
925.8701, 4105.880
926.3522, 4115.416
926.8343, 4127.125
927.3164, 4131.071
927.7985, 4126.041
928.2806, 4125.042
928.7628, 4139.327
929.2449, 4156.044
929.7270, 4151.394
930.2091, 4132.431
930.6912, 4118.135
931.1733, 4122.281
931.6555, 4125.266
932.1376, 4117.152
932.6197, 4106.072
933.1018, 4107.973
933.5839, 4125.671
934.0660, 4133.938
934.5482, 4125.940
935.0303, 4114.475
935.5124, 4118.511
935.9945, 4130.015
936.4766, 4133.859
936.9587, 4122.346
937.4409, 4114.853
937.9230, 4119.018
938.4051, 4128.669
938.8872, 4140.625
939.3693, 4156.777
939.8514, 4163.408
940.3336, 4159.484
940.8157, 4153.178
941.2978, 4152.024
941.7799, 4152.350
942.2620, 4145.741
942.7441, 4132.667
943.2263, 4128.212
943.7084, 4155.654
944.1905, 4173.925
944.6726, 4160.765
945.1547, 4123.598
945.6368, 4109.982
946.1190, 4120.819
946.6011, 4138.824
947.0832, 4159.690
947.5653, 4179.817
948.0474, 4197.042
948.5295, 4209.830
949.0117, 4214.610
949.4938, 4205.097
949.9759, 4193.466
950.4580, 4179.809
950.9401, 4167.017
951.4222, 4159.326
951.9044, 4156.694
952.3865, 4159.588
952.8686, 4169.293
953.3507, 4178.681
953.8328, 4176.578
954.3149, 4171.331
954.7971, 4176.833
955.2792, 4203.212
955.7613, 4209.392
956.2434, 4166.758
956.7255, 4129.982
957.2076, 4139.912
957.6898, 4194.475
958.1719, 4212.912
958.6540, 4195.830
959.1361, 4174.945
959.6182, 4171.775
960.1003, 4174.963
960.5825, 4174.542
961.0646, 4170.883
961.5467, 4168.511
962.0288, 4166.528
962.5109, 4169.210
962.9930, 4180.597
963.4752, 4194.648
963.9573, 4190.140
964.4394, 4171.695
964.9215, 4170.712
965.4036, 4210.781
965.8857, 4244.608
966.3679, 4216.613
966.8500, 4166.925
967.3321, 4149.389
967.8142, 4204.912
968.2963, 4229.226
968.7784, 4210.496
969.2606, 4183.188
969.7427, 4187.993
970.2248, 4213.638
970.7069, 4215.746
971.1890, 4191.265
971.6711, 4168.200
972.1533, 4161.748
972.6354, 4165.732
973.1175, 4179.648
973.5996, 4202.800
974.0817, 4223.521
974.5638, 4246.143
975.0460, 4249.169
975.5281, 4211.937
976.0102, 4160.335
976.4923, 4155.214
976.9744, 4182.683
977.4565, 4201.934
977.9387, 4177.002
978.4208, 4162.092
978.9029, 4191.702
979.3850, 4234.633
979.8671, 4244.851
980.3492, 4213.491
980.8314, 4204.400
981.3135, 4228.688
981.7956, 4257.047
982.2777, 4252.509
982.7598, 4233.814
983.2419, 4231.333
983.7241, 4252.843
984.2062, 4261.820
984.6883, 4228.396
985.1704, 4199.583
985.6525, 4199.030
986.1346, 4223.357
986.6168, 4235.610
987.0989, 4236.195
987.5810, 4237.772
988.0631, 4252.294
988.5452, 4267.238
989.0273, 4271.068
989.5095, 4265.871
989.9916, 4256.613
990.4737, 4236.306
990.9558, 4224.508
991.4379, 4223.901
991.9200, 4232.285
992.4022, 4252.322
992.8843, 4279.421
993.3664, 4293.988
993.8485, 4291.557
994.3306, 4280.997
994.8127, 4256.238
995.2949, 4234.277
995.7770, 4233.896
996.2591, 4259.964
996.7412, 4273.278
997.2233, 4270.406
997.7054, 4266.885
998.1876, 4273.563
998.6697, 4285.595
999.1518, 4295.197
999.6339, 4301.202
1000.116, 4299.265
1000.598, 4273.295
1001.080, 4255.534
1001.562, 4262.790
1002.044, 4282.406
1002.527, 4292.458
1003.009, 4292.280
1003.491, 4290.127
1003.973, 4286.559
1004.455, 4285.340
1004.937, 4292.668
1005.419, 4303.891
1005.901, 4314.536
1006.384, 4325.913
1006.866, 4326.327
1007.348, 4305.875
1007.830, 4288.161
1008.312, 4289.450
1008.794, 4305.332
1009.276, 4308.472
1009.758, 4300.251
1010.240, 4292.413
1010.723, 4284.576
1011.205, 4286.417
1011.687, 4316.176
1012.169, 4359.188
1012.651, 4375.895
1013.133, 4357.426
1013.615, 4335.375
1014.097, 4311.455
1014.580, 4293.267
1015.062, 4292.101
1015.544, 4304.172
1016.026, 4328.132
1016.508, 4368.814
1016.990, 4389.545
1017.472, 4348.359
1017.954, 4308.701
1018.436, 4313.138
1018.919, 4358.351
1019.401, 4363.584
1019.883, 4328.704
1020.365, 4303.958
1020.847, 4335.608
1021.329, 4376.833
1021.811, 4376.598
1022.293, 4349.522
1022.776, 4331.688
1023.258, 4332.339
1023.740, 4340.113
1024.222, 4358.067
1024.704, 4375.890
1025.186, 4375.425
1025.668, 4362.704
1026.150, 4360.435
1026.632, 4372.761
1027.115, 4381.571
1027.597, 4369.142
1028.079, 4355.182
1028.561, 4352.929
1029.043, 4362.032
1029.525, 4376.476
1030.007, 4397.262
1030.489, 4412.439
1030.972, 4409.308
1031.454, 4405.614
1031.936, 4437.209
1032.418, 4486.104
1032.900, 4513.352
1033.382, 4486.931
1033.864, 4465.638
1034.346, 4456.001
1034.828, 4453.009
1035.311, 4452.148
1035.793, 4453.261
1036.275, 4454.432
1036.757, 4455.498
1037.239, 4460.817
1037.721, 4479.469
1038.203, 4498.334
1038.685, 4508.860
1039.167, 4510.804
1039.650, 4504.202
1040.132, 4484.504
1040.614, 4478.424
1041.096, 4502.301
1041.578, 4531.961
1042.060, 4528.321
1042.542, 4501.976
1043.024, 4470.868
1043.507, 4428.908
1043.989, 4406.830
1044.471, 4421.842
1044.953, 4443.863
1045.435, 4448.794
1045.917, 4438.224
1046.399, 4434.616
1046.881, 4437.926
1047.364, 4438.362
1047.846, 4427.413
1048.328, 4413.075
1048.810, 4397.640
1049.292, 4383.310
1049.774, 4377.379
1050.256, 4381.839
1050.738, 4388.598
1051.220, 4397.498
1051.703, 4404.141
1052.185, 4394.057
1052.667, 4379.940
1053.149, 4388.680
1053.631, 4434.450
1054.113, 4459.773
1054.595, 4430.732
1055.077, 4398.950
1055.559, 4391.144
1056.042, 4403.497
1056.524, 4410.458
1057.006, 4412.393
1057.488, 4412.293
1057.970, 4411.331
1058.452, 4409.315
1058.934, 4401.918
1059.416, 4394.777
1059.899, 4398.926
1060.381, 4418.360
1060.863, 4436.069
1061.345, 4451.605
1061.827, 4461.500
1062.309, 4457.652
1062.791, 4448.298
1063.273, 4448.403
1063.755, 4458.765
1064.238, 4460.313
1064.720, 4438.032
1065.202, 4418.241
1065.684, 4406.227
1066.166, 4403.708
1066.648, 4423.322
1067.130, 4458.829
1067.612, 4481.634
1068.094, 4477.311
1068.577, 4471.046
1069.059, 4484.498
1069.541, 4498.767
1070.023, 4494.296
1070.505, 4466.510
1070.987, 4445.017
1071.469, 4429.619
1071.951, 4419.667
1072.434, 4410.376
1072.916, 4409.232
1073.398, 4433.412
1073.880, 4474.342
1074.362, 4502.049
1074.844, 4513.476
1075.326, 4503.343
1075.808, 4460.439
1076.291, 4414.139
1076.773, 4409.571
1077.255, 4434.654
1077.737, 4457.496
1078.219, 4473.552
1078.701, 4483.250
1079.183, 4486.358
1079.665, 4482.409
1080.147, 4466.420
1080.630, 4443.266
1081.112, 4445.525
1081.594, 4472.273
1082.076, 4495.482
1082.558, 4505.386
1083.040, 4506.291
1083.522, 4497.302
1084.004, 4483.773
1084.486, 4472.814
1084.969, 4465.235
1085.451, 4458.686
1085.933, 4451.873
1086.415, 4451.140
1086.897, 4471.882
1087.379, 4496.688
1087.861, 4484.218
1088.343, 4445.304
1088.826, 4427.946
1089.308, 4479.891
1089.790, 4512.615
1090.272, 4499.639
1090.754, 4473.646
1091.236, 4498.550
1091.718, 4558.102
1092.200, 4568.849
1092.682, 4514.664
1093.165, 4466.224
1093.647, 4473.023
1094.129, 4495.369
1094.611, 4509.206
1095.093, 4515.602
1095.575, 4529.964
1096.057, 4553.291
1096.539, 4557.124
1097.022, 4520.474
1097.504, 4480.991
1097.986, 4480.031
1098.468, 4499.449
1098.950, 4514.457
1099.432, 4518.516
1099.914, 4526.248
1100.396, 4538.829
1100.879, 4550.827
1101.361, 4556.025
1101.843, 4558.922
1102.325, 4574.088
1102.807, 4595.945
1103.289, 4603.349
1103.771, 4574.775
1104.253, 4549.146
1104.735, 4533.575
1105.218, 4522.989
1105.700, 4506.759
1106.182, 4488.649
1106.664, 4490.757
1107.146, 4515.822
1107.628, 4540.896
1108.110, 4555.360
1108.592, 4562.479
1109.074, 4561.540
1109.557, 4555.032
1110.039, 4552.152
1110.521, 4552.924
1111.003, 4554.132
1111.485, 4555.750
1111.967, 4554.736
1112.449, 4539.974
1112.931, 4525.808
1113.414, 4531.310
1113.896, 4564.570
1114.378, 4581.899
1114.860, 4580.201
1115.342, 4576.160
1115.824, 4581.216
1116.306, 4587.871
1116.788, 4583.662
1117.271, 4571.762
1117.753, 4559.134
1118.235, 4541.386
1118.717, 4533.334
1119.199, 4536.508
1119.681, 4547.763
1120.163, 4572.738
1120.645, 4602.010
1121.127, 4600.786
1121.609, 4571.521
1122.092, 4550.805
1122.574, 4562.742
1123.056, 4580.074
1123.538, 4596.541
1124.020, 4610.171
1124.502, 4617.857
1124.984, 4619.415
1125.466, 4612.161
1125.949, 4595.105
1126.431, 4574.797
1126.913, 4540.416
1127.395, 4517.990
1127.877, 4536.238
1128.359, 4587.577
1128.841, 4611.904
1129.323, 4607.912
1129.806, 4600.131
1130.288, 4595.480
1130.770, 4594.976
1131.252, 4602.906
1131.734, 4614.116
1132.216, 4622.564
1132.698, 4629.482
1133.180, 4624.004
1133.662, 4602.075
1134.145, 4585.060
1134.627, 4590.734
1135.109, 4606.834
1135.591, 4616.226
1136.073, 4620.169
1136.555, 4621.605
1137.037, 4620.783
1137.519, 4618.188
1138.001, 4614.004
1138.484, 4607.774
1138.966, 4594.086
1139.448, 4579.318
1139.930, 4582.093
1140.412, 4601.569
1140.894, 4620.475
1141.376, 4635.210
1141.858, 4643.439
1142.341, 4641.650
1142.823, 4636.760
1143.305, 4644.162
1143.787, 4660.225
1144.269, 4669.112
1144.751, 4668.116
1145.233, 4660.573
1145.715, 4642.038
1146.198, 4623.458
1146.680, 4607.481
1147.162, 4596.491
1147.644, 4607.083
1148.126, 4637.430
1148.608, 4661.920
1149.090, 4671.942
1149.572, 4676.203
1150.054, 4681.441
1150.536, 4683.830
1151.019, 4678.834
1151.501, 4665.869
1151.983, 4653.238
1152.465, 4640.555
1152.947, 4636.046
1153.429, 4650.362
1153.911, 4667.823
1154.393, 4667.107
1154.876, 4661.068
1155.358, 4675.690
1155.840, 4728.369
1156.322, 4749.638
1156.804, 4734.405
1157.286, 4708.796
1157.768, 4684.906
1158.250, 4669.008
1158.733, 4674.984
1159.215, 4696.700
1159.697, 4710.705
1160.179, 4712.766
1160.661, 4706.523
1161.143, 4687.706
1161.625, 4674.025
1162.107, 4698.690
1162.589, 4736.459
1163.072, 4742.157
1163.554, 4714.069
1164.036, 4684.468
1164.518, 4652.204
1165.000, 4635.017
1165.482, 4639.045
1165.964, 4657.487
1166.446, 4685.699
1166.928, 4716.837
1167.411, 4736.226
1167.893, 4740.915
1168.375, 4735.152
1168.857, 4706.804
1169.339, 4685.520
1169.821, 4685.292
1170.303, 4698.265
1170.785, 4704.729
1171.268, 4704.736
1171.750, 4696.382
1172.232, 4670.938
1172.714, 4658.582
1173.196, 4683.458
1173.678, 4714.161
1174.160, 4731.761
1174.642, 4738.695
1175.125, 4753.734
1175.607, 4773.448
1176.089, 4777.914
1176.571, 4739.913
1177.053, 4708.357
1177.535, 4715.869
1178.017, 4731.464
1178.499, 4722.170
1178.981, 4688.484
1179.464, 4683.123
1179.946, 4705.180
1180.428, 4730.006
1180.910, 4746.532
1181.392, 4756.792
1181.874, 4760.228
1182.356, 4758.940
1182.838, 4755.642
1183.320, 4750.261
1183.803, 4742.500
1184.285, 4732.107
1184.767, 4727.240
1185.249, 4738.910
1185.731, 4753.450
1186.213, 4760.386
1186.695, 4762.820
1187.177, 4771.507
1187.660, 4787.290
1188.142, 4795.689
1188.624, 4793.764
1189.106, 4788.614
1189.588, 4784.761
1190.070, 4781.703
1190.552, 4774.926
1191.034, 4767.308
1191.516, 4783.577
1191.999, 4828.531
1192.481, 4848.121
1192.963, 4822.599
1193.445, 4792.009
1193.927, 4800.061
1194.409, 4820.759
1194.891, 4828.069
1195.373, 4819.859
1195.855, 4809.209
1196.338, 4795.035
1196.820, 4787.920
1197.302, 4794.766
1197.784, 4804.666
1198.266, 4800.574
1198.748, 4795.154
1199.230, 4809.402
1199.712, 4852.104
1200.195, 4864.510
1200.677, 4842.779
1201.159, 4817.398
1201.641, 4803.418
1202.123, 4795.705
1202.605, 4783.197
1203.087, 4774.965
1203.569, 4789.890
1204.052, 4850.448
1204.534, 4864.776
1205.016, 4825.537
1205.498, 4784.655
1205.980, 4776.978
1206.462, 4787.543
1206.944, 4810.236
1207.426, 4835.815
1207.908, 4839.520
1208.391, 4803.027
1208.873, 4796.323
1209.355, 4826.757
1209.837, 4862.794
1210.319, 4889.046
1210.801, 4897.423
1211.283, 4856.870
1211.765, 4788.683
1212.247, 4773.604
1212.730, 4841.478
1213.212, 4879.330
1213.694, 4871.980
1214.176, 4850.293
1214.658, 4838.967
1215.140, 4833.552
1215.622, 4829.480
1216.104, 4826.603
1216.587, 4825.837
1217.069, 4827.051
1217.551, 4830.277
1218.033, 4835.259
1218.515, 4843.408
1218.997, 4862.098
1219.479, 4880.895
1219.961, 4886.127
1220.443, 4877.664
1220.926, 4871.738
1221.408, 4868.361
1221.890, 4871.137
1222.372, 4882.526
1222.854, 4894.641
1223.336, 4902.060
1223.818, 4902.351
1224.300, 4886.603
1224.782, 4853.527
1225.265, 4847.013
1225.747, 4873.929
1226.229, 4893.865
1226.711, 4892.214
1227.193, 4884.808
1227.675, 4890.478
1228.157, 4901.577
1228.639, 4908.298
1229.122, 4908.940
1229.604, 4917.500
1230.086, 4937.150
1230.568, 4942.018
1231.050, 4914.337
1231.532, 4884.115
1232.014, 4892.045
1232.496, 4914.229
1232.979, 4918.911
1233.461, 4900.823
1233.943, 4893.536
1234.425, 4897.613
1234.907, 4907.916
1235.389, 4925.767
1235.871, 4942.821
1236.353, 4949.825
1236.835, 4952.000
1237.318, 4957.189
1237.800, 4967.496
1238.282, 4966.149
1238.764, 4952.526
1239.246, 4940.347
1239.728, 4939.135
1240.210, 4940.283
1240.692, 4935.355
1241.175, 4929.224
1241.657, 4929.858
1242.139, 4939.981
1242.621, 4933.297
1243.103, 4909.504
1243.585, 4902.741
1244.067, 4959.378
1244.549, 5012.579
1245.031, 5009.527
1245.514, 4979.160
1245.996, 4962.302
1246.478, 4959.451
1246.960, 4965.882
1247.442, 4980.836
1247.924, 4991.067
1248.406, 4979.075
1248.888, 4969.768
1249.370, 4984.640
1249.853, 5005.792
1250.335, 5006.746
1250.817, 4988.536
1251.299, 4985.116
1251.781, 4997.216
1252.263, 5012.654
1252.745, 5034.127
1253.227, 5044.820
1253.710, 5026.652
1254.192, 5002.244
1254.674, 5001.219
1255.156, 5020.399
1255.638, 5043.000
1256.120, 5066.156
1256.602, 5071.400
1257.084, 5023.019
1257.567, 4987.835
1258.049, 4988.390
1258.531, 5009.375
1259.013, 5038.040
1259.495, 5069.072
1259.977, 5082.049
1260.459, 5076.276
1260.941, 5062.807
1261.423, 5031.583
1261.906, 5014.981
1262.388, 5023.313
1262.870, 5043.300
1263.352, 5059.846
1263.834, 5071.956
1264.316, 5076.645
1264.798, 5073.855
1265.280, 5066.596
1265.762, 5047.576
1266.245, 5038.519
1266.727, 5045.856
1267.209, 5058.461
1267.691, 5063.417
1268.173, 5062.079
1268.655, 5051.834
1269.137, 5033.956
1269.619, 5033.874
1270.102, 5063.499
1270.584, 5082.646
1271.066, 5080.655
1271.548, 5073.311
1272.030, 5081.327
1272.512, 5094.636
1272.994, 5102.188
1273.476, 5102.783
1273.958, 5099.392
1274.441, 5090.715
1274.923, 5085.896
1275.405, 5087.696
1275.887, 5090.486
1276.369, 5090.657
1276.851, 5087.227
1277.333, 5074.483
1277.815, 5056.050
1278.297, 5056.073
1278.780, 5075.743
1279.262, 5088.723
1279.744, 5089.052
1280.226, 5081.128
1280.708, 5052.816
1281.190, 5032.455
1281.672, 5046.669
1282.154, 5084.133
1282.637, 5106.326
1283.119, 5114.316
1283.601, 5116.778
1284.083, 5115.058
1284.565, 5112.628
1285.047, 5115.429
1285.529, 5112.562
1286.011, 5092.958
1286.494, 5068.790
1286.976, 5082.144
1287.458, 5120.821
1287.940, 5143.860
1288.422, 5142.033
1288.904, 5131.495
1289.386, 5102.442
1289.868, 5088.940
##END=



