##NAMES=Carpathite
##RRUFFID=R060660
##IDEAL CHEMISTRY=C_24_H_12_
##LOCALITY=Prospect 500 meters north of Picachos mine, south of New Idria, San Benito County, California, USA
##OWNER=RRUFF
##SOURCE=Michael Scott
##DESCRIPTION=Aggregate of light tan colored platy crystals
##STATUS=The identification of this mineral has been confirmed by single-crystal X-ray diffraction.
##URL=rruff.info/R060660
8.930109e+001, 0.000000e+000
8.978320e+001, 9.158970e+006
9.026532e+001, 9.399738e+006
9.074744e+001, 9.458206e+006
9.122955e+001, 9.299930e+006
9.171167e+001, 9.020000e+006
9.219379e+001, 8.694588e+006
9.267590e+001, 8.333927e+006
9.315802e+001, 7.962709e+006
9.364014e+001, 7.593461e+006
9.412225e+001, 7.231496e+006
9.460437e+001, 6.891361e+006
9.508649e+001, 6.574209e+006
9.556860e+001, 6.280843e+006
9.605072e+001, 6.010678e+006
9.653284e+001, 5.769735e+006
9.701495e+001, 5.555320e+006
9.749707e+001, 5.362479e+006
9.797919e+001, 5.189464e+006
9.846130e+001, 5.035224e+006
9.894342e+001, 4.898641e+006
9.942554e+001, 4.778420e+006
9.990765e+001, 4.671578e+006
1.003898e+002, 4.577271e+006
1.008719e+002, 4.494127e+006
1.013540e+002, 4.420567e+006
1.018361e+002, 4.356298e+006
1.023182e+002, 4.298640e+006
1.028004e+002, 4.245726e+006
1.032825e+002, 4.197421e+006
1.037646e+002, 4.156039e+006
1.042467e+002, 4.122196e+006
1.047288e+002, 4.095016e+006
1.052109e+002, 4.072844e+006
1.056931e+002, 4.056277e+006
1.061752e+002, 4.043551e+006
1.066573e+002, 4.033773e+006
1.071394e+002, 4.027027e+006
1.076215e+002, 4.023465e+006
1.081036e+002, 4.023930e+006
1.085858e+002, 4.027990e+006
1.090679e+002, 4.033002e+006
1.095500e+002, 4.039058e+006
1.100321e+002, 4.046219e+006
1.105142e+002, 4.054485e+006
1.109963e+002, 4.065929e+006
1.114785e+002, 4.076338e+006
1.119606e+002, 4.085058e+006
1.124427e+002, 4.092189e+006
1.129248e+002, 4.099009e+006
1.134069e+002, 4.106194e+006
1.138890e+002, 4.112936e+006
1.143712e+002, 4.118669e+006
1.148533e+002, 4.124104e+006
1.153354e+002, 4.127757e+006
1.158175e+002, 4.129036e+006
1.162996e+002, 4.127881e+006
1.167817e+002, 4.125312e+006
1.172639e+002, 4.121035e+006
1.177460e+002, 4.115726e+006
1.182281e+002, 4.110237e+006
1.187102e+002, 4.105377e+006
1.191923e+002, 4.100005e+006
1.196744e+002, 4.093090e+006
1.201566e+002, 4.084069e+006
1.206387e+002, 4.075217e+006
1.211208e+002, 4.067907e+006
1.216029e+002, 4.061703e+006
1.220850e+002, 4.055886e+006
1.225671e+002, 4.049949e+006
1.230493e+002, 4.044086e+006
1.235314e+002, 4.038574e+006
1.240135e+002, 4.033512e+006
1.244956e+002, 4.028242e+006
1.249777e+002, 4.021738e+006
1.254598e+002, 4.014240e+006
1.259420e+002, 4.007062e+006
1.264241e+002, 4.001213e+006
1.269062e+002, 3.996143e+006
1.273883e+002, 3.990937e+006
1.278704e+002, 3.985381e+006
1.283525e+002, 3.979541e+006
1.288347e+002, 3.973420e+006
1.293168e+002, 3.966995e+006
1.297989e+002, 3.960615e+006
1.302810e+002, 3.954420e+006
1.307631e+002, 3.948456e+006
1.312452e+002, 3.942708e+006
1.317274e+002, 3.937326e+006
1.322095e+002, 3.932146e+006
1.326916e+002, 3.926557e+006
1.331737e+002, 3.920465e+006
1.336558e+002, 3.914658e+006
1.341379e+002, 3.910044e+006
1.346201e+002, 3.906631e+006
1.351022e+002, 3.902903e+006
1.355843e+002, 3.898172e+006
1.360664e+002, 3.892676e+006
1.365485e+002, 3.888352e+006
1.370306e+002, 3.885339e+006
1.375128e+002, 3.883142e+006
1.379949e+002, 3.881152e+006
1.384770e+002, 3.879378e+006
1.389591e+002, 3.877645e+006
1.394412e+002, 3.875826e+006
1.399233e+002, 3.873884e+006
1.404055e+002, 3.871993e+006
1.408876e+002, 3.870056e+006
1.413697e+002, 3.868110e+006
1.418518e+002, 3.866196e+006
1.423339e+002, 3.864178e+006
1.428160e+002, 3.862375e+006
1.432982e+002, 3.860923e+006
1.437803e+002, 3.859921e+006
1.442624e+002, 3.859021e+006
1.447445e+002, 3.858560e+006
1.452266e+002, 3.858105e+006
1.457087e+002, 3.856654e+006
1.461909e+002, 3.853564e+006
1.466730e+002, 3.850355e+006
1.471551e+002, 3.847611e+006
1.476372e+002, 3.845580e+006
1.481193e+002, 3.843755e+006
1.486014e+002, 3.842353e+006
1.490836e+002, 3.841243e+006
1.495657e+002, 3.839807e+006
1.500478e+002, 3.837529e+006
1.505299e+002, 3.835393e+006
1.510120e+002, 3.833807e+006
1.514941e+002, 3.832683e+006
1.519763e+002, 3.832139e+006
1.524584e+002, 3.832872e+006
1.529405e+002, 3.834414e+006
1.534226e+002, 3.834543e+006
1.539047e+002, 3.831886e+006
1.543868e+002, 3.828513e+006
1.548690e+002, 3.825548e+006
1.553511e+002, 3.823315e+006
1.558332e+002, 3.821261e+006
1.563153e+002, 3.819358e+006
1.567974e+002, 3.817609e+006
1.572795e+002, 3.815949e+006
1.577617e+002, 3.814296e+006
1.582438e+002, 3.812829e+006
1.587259e+002, 3.811690e+006
1.592080e+002, 3.811323e+006
1.596901e+002, 3.810984e+006
1.601722e+002, 3.810310e+006
1.606544e+002, 3.809367e+006
1.611365e+002, 3.808934e+006
1.616186e+002, 3.809569e+006
1.621007e+002, 3.810720e+006
1.625828e+002, 3.811898e+006
1.630649e+002, 3.812807e+006
1.635471e+002, 3.813745e+006
1.640292e+002, 3.814845e+006
1.645113e+002, 3.816077e+006
1.649934e+002, 3.817265e+006
1.654755e+002, 3.818351e+006
1.659576e+002, 3.819272e+006
1.664398e+002, 3.819943e+006
1.669219e+002, 3.820561e+006
1.674040e+002, 3.820710e+006
1.678861e+002, 3.819787e+006
1.683682e+002, 3.817690e+006
1.688503e+002, 3.815877e+006
1.693325e+002, 3.815543e+006
1.698146e+002, 3.816112e+006
1.702967e+002, 3.816654e+006
1.707788e+002, 3.816885e+006
1.712609e+002, 3.816903e+006
1.717430e+002, 3.816874e+006
1.722252e+002, 3.816861e+006
1.727073e+002, 3.816526e+006
1.731894e+002, 3.814992e+006
1.736715e+002, 3.812885e+006
1.741536e+002, 3.811642e+006
1.746357e+002, 3.812533e+006
1.751179e+002, 3.814392e+006
1.756000e+002, 3.815880e+006
1.760821e+002, 3.816858e+006
1.765642e+002, 3.817538e+006
1.770463e+002, 3.818131e+006
1.775284e+002, 3.818589e+006
1.780106e+002, 3.818771e+006
1.784927e+002, 3.818356e+006
1.789748e+002, 3.817689e+006
1.794569e+002, 3.817143e+006
1.799390e+002, 3.816597e+006
1.804211e+002, 3.816853e+006
1.809033e+002, 3.819519e+006
1.813854e+002, 3.824149e+006
1.818675e+002, 3.828477e+006
1.823496e+002, 3.831222e+006
1.828317e+002, 3.832733e+006
1.833138e+002, 3.833995e+006
1.837960e+002, 3.835157e+006
1.842781e+002, 3.835883e+006
1.847602e+002, 3.835604e+006
1.852423e+002, 3.834356e+006
1.857244e+002, 3.832588e+006
1.862065e+002, 3.830090e+006
1.866887e+002, 3.827149e+006
1.871708e+002, 3.824863e+006
1.876529e+002, 3.823359e+006
1.881350e+002, 3.822433e+006
1.886171e+002, 3.821925e+006
1.890992e+002, 3.821810e+006
1.895814e+002, 3.821734e+006
1.900635e+002, 3.821294e+006
1.905456e+002, 3.820606e+006
1.910277e+002, 3.820668e+006
1.915098e+002, 3.821928e+006
1.919919e+002, 3.823491e+006
1.924741e+002, 3.823289e+006
1.929562e+002, 3.821266e+006
1.934383e+002, 3.818939e+006
1.939204e+002, 3.817209e+006
1.944025e+002, 3.816060e+006
1.948846e+002, 3.815288e+006
1.953668e+002, 3.814878e+006
1.958489e+002, 3.814806e+006
1.963310e+002, 3.815244e+006
1.968131e+002, 3.816295e+006
1.972952e+002, 3.817014e+006
1.977773e+002, 3.816499e+006
1.982595e+002, 3.814702e+006
1.987416e+002, 3.813388e+006
1.992237e+002, 3.812877e+006
1.997058e+002, 3.812926e+006
2.001879e+002, 3.812959e+006
2.006700e+002, 3.813054e+006
2.011522e+002, 3.812941e+006
2.016343e+002, 3.812332e+006
2.021164e+002, 3.811187e+006
2.025985e+002, 3.810243e+006
2.030806e+002, 3.809612e+006
2.035627e+002, 3.809236e+006
2.040449e+002, 3.809026e+006
2.045270e+002, 3.809075e+006
2.050091e+002, 3.808896e+006
2.054912e+002, 3.807962e+006
2.059733e+002, 3.806063e+006
2.064554e+002, 3.804578e+006
2.069376e+002, 3.803689e+006
2.074197e+002, 3.803319e+006
2.079018e+002, 3.803254e+006
2.083839e+002, 3.803658e+006
2.088660e+002, 3.804017e+006
2.093481e+002, 3.803921e+006
2.098303e+002, 3.803264e+006
2.103124e+002, 3.802834e+006
2.107945e+002, 3.802710e+006
2.112766e+002, 3.802949e+006
2.117587e+002, 3.803786e+006
2.122408e+002, 3.805499e+006
2.127230e+002, 3.807294e+006
2.132051e+002, 3.808529e+006
2.136872e+002, 3.808856e+006
2.141693e+002, 3.809720e+006
2.146514e+002, 3.811311e+006
2.151335e+002, 3.813457e+006
2.156157e+002, 3.815560e+006
2.160978e+002, 3.817747e+006
2.165799e+002, 3.819455e+006
2.170620e+002, 3.820169e+006
2.175441e+002, 3.819387e+006
2.180262e+002, 3.818883e+006
2.185084e+002, 3.818810e+006
2.189905e+002, 3.819130e+006
2.194726e+002, 3.819634e+006
2.199547e+002, 3.820269e+006
2.204368e+002, 3.821278e+006
2.209189e+002, 3.822966e+006
2.214011e+002, 3.825853e+006
2.218832e+002, 3.828308e+006
2.223653e+002, 3.830274e+006
2.228474e+002, 3.831792e+006
2.233295e+002, 3.832951e+006
2.238116e+002, 3.833587e+006
2.242938e+002, 3.834146e+006
2.247759e+002, 3.834744e+006
2.252580e+002, 3.834961e+006
2.257401e+002, 3.836270e+006
2.262222e+002, 3.839310e+006
2.267043e+002, 3.843472e+006
2.271865e+002, 3.846327e+006
2.276686e+002, 3.847113e+006
2.281507e+002, 3.847562e+006
2.286328e+002, 3.848677e+006
2.291149e+002, 3.850854e+006
2.295970e+002, 3.852700e+006
2.300792e+002, 3.853839e+006
2.305613e+002, 3.854619e+006
2.310434e+002, 3.856243e+006
2.315255e+002, 3.858511e+006
2.320076e+002, 3.862003e+006
2.324897e+002, 3.867144e+006
2.329719e+002, 3.874577e+006
2.334540e+002, 3.882302e+006
2.339361e+002, 3.889922e+006
2.344182e+002, 3.897902e+006
2.349003e+002, 3.908013e+006
2.353824e+002, 3.921091e+006
2.358646e+002, 3.935110e+006
2.363467e+002, 3.949100e+006
2.368288e+002, 3.962957e+006
2.373109e+002, 3.977274e+006
2.377930e+002, 3.994236e+006
2.382751e+002, 4.011287e+006
2.387573e+002, 4.020410e+006
2.392394e+002, 4.020837e+006
2.397215e+002, 4.014207e+006
2.402036e+002, 4.000179e+006
2.406857e+002, 3.974051e+006
2.411678e+002, 3.950876e+006
2.416500e+002, 3.930602e+006
2.421321e+002, 3.913338e+006
2.426142e+002, 3.899208e+006
2.430963e+002, 3.888910e+006
2.435784e+002, 3.880863e+006
2.440605e+002, 3.874719e+006
2.445427e+002, 3.871171e+006
2.450248e+002, 3.867698e+006
2.455069e+002, 3.864238e+006
2.459890e+002, 3.860924e+006
2.464711e+002, 3.858182e+006
2.469532e+002, 3.856624e+006
2.474354e+002, 3.854691e+006
2.479175e+002, 3.851676e+006
2.483996e+002, 3.847040e+006
2.488817e+002, 3.843265e+006
2.493638e+002, 3.840719e+006
2.498459e+002, 3.838921e+006
2.503281e+002, 3.836908e+006
2.508102e+002, 3.834428e+006
2.512923e+002, 3.832299e+006
2.517744e+002, 3.830868e+006
2.522565e+002, 3.830351e+006
2.527386e+002, 3.829757e+006
2.532208e+002, 3.828910e+006
2.537029e+002, 3.828110e+006
2.541850e+002, 3.827841e+006
2.546671e+002, 3.828265e+006
2.551492e+002, 3.828783e+006
2.556313e+002, 3.829167e+006
2.561135e+002, 3.829337e+006
2.565956e+002, 3.829460e+006
2.570777e+002, 3.829362e+006
2.575598e+002, 3.829229e+006
2.580419e+002, 3.829384e+006
2.585240e+002, 3.830002e+006
2.590062e+002, 3.830350e+006
2.594883e+002, 3.830227e+006
2.599704e+002, 3.829611e+006
2.604525e+002, 3.828514e+006
2.609346e+002, 3.826639e+006
2.614167e+002, 3.824688e+006
2.618989e+002, 3.823612e+006
2.623810e+002, 3.823947e+006
2.628631e+002, 3.823915e+006
2.633452e+002, 3.822979e+006
2.638273e+002, 3.821190e+006
2.643094e+002, 3.820336e+006
2.647916e+002, 3.820931e+006
2.652737e+002, 3.821794e+006
2.657558e+002, 3.821527e+006
2.662379e+002, 3.819528e+006
2.667200e+002, 3.818676e+006
2.672021e+002, 3.820224e+006
2.676843e+002, 3.823708e+006
2.681664e+002, 3.824286e+006
2.686485e+002, 3.820813e+006
2.691306e+002, 3.816732e+006
2.696127e+002, 3.815076e+006
2.700948e+002, 3.816303e+006
2.705770e+002, 3.817628e+006
2.710591e+002, 3.818501e+006
2.715412e+002, 3.819027e+006
2.720233e+002, 3.820056e+006
2.725054e+002, 3.821756e+006
2.729875e+002, 3.823270e+006
2.734697e+002, 3.823891e+006
2.739518e+002, 3.823470e+006
2.744339e+002, 3.823010e+006
2.749160e+002, 3.822642e+006
2.753981e+002, 3.822325e+006
2.758802e+002, 3.821936e+006
2.763624e+002, 3.821517e+006
2.768445e+002, 3.821010e+006
2.773266e+002, 3.820422e+006
2.778087e+002, 3.819778e+006
2.782908e+002, 3.818930e+006
2.787729e+002, 3.817805e+006
2.792551e+002, 3.816606e+006
2.797372e+002, 3.816090e+006
2.802193e+002, 3.816473e+006
2.807014e+002, 3.816217e+006
2.811835e+002, 3.814058e+006
2.816656e+002, 3.810037e+006
2.821478e+002, 3.806867e+006
2.826299e+002, 3.804683e+006
2.831120e+002, 3.803339e+006
2.835941e+002, 3.802779e+006
2.840762e+002, 3.803036e+006
2.845583e+002, 3.803408e+006
2.850405e+002, 3.803417e+006
2.855226e+002, 3.803155e+006
2.860047e+002, 3.803659e+006
2.864868e+002, 3.805112e+006
2.869689e+002, 3.806727e+006
2.874510e+002, 3.807352e+006
2.879332e+002, 3.807026e+006
2.884153e+002, 3.806631e+006
2.888974e+002, 3.806478e+006
2.893795e+002, 3.806501e+006
2.898616e+002, 3.806525e+006
2.903438e+002, 3.806537e+006
2.908259e+002, 3.806546e+006
2.913080e+002, 3.806712e+006
2.917901e+002, 3.806949e+006
2.922722e+002, 3.806758e+006
2.927543e+002, 3.805843e+006
2.932365e+002, 3.804455e+006
2.937186e+002, 3.803124e+006
2.942007e+002, 3.801860e+006
2.946828e+002, 3.800675e+006
2.951649e+002, 3.799357e+006
2.956470e+002, 3.798096e+006
2.961292e+002, 3.797519e+006
2.966113e+002, 3.797982e+006
2.970934e+002, 3.799024e+006
2.975755e+002, 3.800134e+006
2.980576e+002, 3.801291e+006
2.985397e+002, 3.802149e+006
2.990219e+002, 3.801852e+006
2.995040e+002, 3.801148e+006
2.999861e+002, 3.801646e+006
3.004682e+002, 3.803780e+006
3.009503e+002, 3.807045e+006
3.014324e+002, 3.811380e+006
3.019146e+002, 3.816545e+006
3.023967e+002, 3.821623e+006
3.028788e+002, 3.826591e+006
3.033609e+002, 3.830951e+006
3.038430e+002, 3.833449e+006
3.043251e+002, 3.833420e+006
3.048073e+002, 3.833407e+006
3.052894e+002, 3.836324e+006
3.057715e+002, 3.841102e+006
3.062536e+002, 3.845245e+006
3.067357e+002, 3.849396e+006
3.072178e+002, 3.851141e+006
3.077000e+002, 3.847058e+006
3.081821e+002, 3.836407e+006
3.086642e+002, 3.824072e+006
3.091463e+002, 3.812081e+006
3.096284e+002, 3.800994e+006
3.101105e+002, 3.791553e+006
3.105927e+002, 3.784508e+006
3.110748e+002, 3.779034e+006
3.115569e+002, 3.774805e+006
3.120390e+002, 3.771807e+006
3.125211e+002, 3.769245e+006
3.130032e+002, 3.766851e+006
3.134854e+002, 3.764608e+006
3.139675e+002, 3.762538e+006
3.144496e+002, 3.760956e+006
3.149317e+002, 3.759375e+006
3.154138e+002, 3.757317e+006
3.158959e+002, 3.754984e+006
3.163781e+002, 3.753313e+006
3.168602e+002, 3.753960e+006
3.173423e+002, 3.754798e+006
3.178244e+002, 3.754215e+006
3.183065e+002, 3.750916e+006
3.187886e+002, 3.747535e+006
3.192708e+002, 3.744442e+006
3.197529e+002, 3.741857e+006
3.202350e+002, 3.740396e+006
3.207171e+002, 3.741194e+006
3.211992e+002, 3.742401e+006
3.216813e+002, 3.743070e+006
3.221635e+002, 3.742777e+006
3.226456e+002, 3.742481e+006
3.231277e+002, 3.742277e+006
3.236098e+002, 3.742138e+006
3.240919e+002, 3.742047e+006
3.245740e+002, 3.741865e+006
3.250562e+002, 3.741807e+006
3.255383e+002, 3.742112e+006
3.260204e+002, 3.743064e+006
3.265025e+002, 3.743266e+006
3.269846e+002, 3.742042e+006
3.274667e+002, 3.740321e+006
3.279489e+002, 3.739085e+006
3.284310e+002, 3.739234e+006
3.289131e+002, 3.738987e+006
3.293952e+002, 3.738034e+006
3.298773e+002, 3.736391e+006
3.303594e+002, 3.734664e+006
3.308416e+002, 3.732596e+006
3.313237e+002, 3.730715e+006
3.318058e+002, 3.729398e+006
3.322879e+002, 3.728736e+006
3.327700e+002, 3.728439e+006
3.332521e+002, 3.728467e+006
3.337343e+002, 3.728796e+006
3.342164e+002, 3.729419e+006
3.346985e+002, 3.730520e+006
3.351806e+002, 3.731533e+006
3.356627e+002, 3.732092e+006
3.361448e+002, 3.731985e+006
3.366270e+002, 3.731970e+006
3.371091e+002, 3.732036e+006
3.375912e+002, 3.732217e+006
3.380733e+002, 3.732685e+006
3.385554e+002, 3.733614e+006
3.390375e+002, 3.734324e+006
3.395197e+002, 3.734537e+006
3.400018e+002, 3.734255e+006
3.404839e+002, 3.733687e+006
3.409660e+002, 3.732680e+006
3.414481e+002, 3.731737e+006
3.419302e+002, 3.731877e+006
3.424124e+002, 3.733228e+006
3.428945e+002, 3.733593e+006
3.433766e+002, 3.731861e+006
3.438587e+002, 3.728613e+006
3.443408e+002, 3.726452e+006
3.448229e+002, 3.725432e+006
3.453051e+002, 3.725152e+006
3.457872e+002, 3.725712e+006
3.462693e+002, 3.726906e+006
3.467514e+002, 3.727232e+006
3.472335e+002, 3.726046e+006
3.477156e+002, 3.724322e+006
3.481978e+002, 3.724100e+006
3.486799e+002, 3.725313e+006
3.491620e+002, 3.726730e+006
3.496441e+002, 3.727491e+006
3.501262e+002, 3.727897e+006
3.506083e+002, 3.728375e+006
3.510905e+002, 3.728783e+006
3.515726e+002, 3.730098e+006
3.520547e+002, 3.733658e+006
3.525368e+002, 3.739086e+006
3.530189e+002, 3.745247e+006
3.535010e+002, 3.752899e+006
3.539832e+002, 3.760316e+006
3.544653e+002, 3.765214e+006
3.549474e+002, 3.767476e+006
3.554295e+002, 3.768528e+006
3.559116e+002, 3.768269e+006
3.563937e+002, 3.767760e+006
3.568759e+002, 3.768612e+006
3.573580e+002, 3.772539e+006
3.578401e+002, 3.777070e+006
3.583222e+002, 3.780242e+006
3.588043e+002, 3.782375e+006
3.592864e+002, 3.785166e+006
3.597686e+002, 3.789214e+006
3.602507e+002, 3.794501e+006
3.607328e+002, 3.800882e+006
3.612149e+002, 3.807980e+006
3.616970e+002, 3.816787e+006
3.621791e+002, 3.827179e+006
3.626613e+002, 3.839501e+006
3.631434e+002, 3.854579e+006
3.636255e+002, 3.869786e+006
3.641076e+002, 3.890046e+006
3.645897e+002, 3.918442e+006
3.650718e+002, 3.956184e+006
3.655540e+002, 3.997014e+006
3.660361e+002, 4.043710e+006
3.665182e+002, 4.091575e+006
3.670003e+002, 4.134995e+006
3.674824e+002, 4.156705e+006
3.679645e+002, 4.191083e+006
3.684467e+002, 4.252976e+006
3.689288e+002, 4.343220e+006
3.694109e+002, 4.421492e+006
3.698930e+002, 4.534161e+006
3.703751e+002, 4.599424e+006
3.708572e+002, 4.555185e+006
3.713394e+002, 4.314571e+006
3.718215e+002, 4.111407e+006
3.723036e+002, 3.963500e+006
3.727857e+002, 3.864802e+006
3.732678e+002, 3.793616e+006
3.737499e+002, 3.756518e+006
3.742321e+002, 3.734043e+006
3.747142e+002, 3.718971e+006
3.751963e+002, 3.712404e+006
3.756784e+002, 3.708218e+006
3.761605e+002, 3.706986e+006
3.766426e+002, 3.707365e+006
3.771248e+002, 3.707487e+006
3.776069e+002, 3.707330e+006
3.780890e+002, 3.706951e+006
3.785711e+002, 3.706315e+006
3.790532e+002, 3.705459e+006
3.795353e+002, 3.704736e+006
3.800175e+002, 3.704198e+006
3.804996e+002, 3.703566e+006
3.809817e+002, 3.702470e+006
3.814638e+002, 3.700985e+006
3.819459e+002, 3.699641e+006
3.824280e+002, 3.698494e+006
3.829102e+002, 3.697595e+006
3.833923e+002, 3.697215e+006
3.838744e+002, 3.697277e+006
3.843565e+002, 3.697250e+006
3.848386e+002, 3.696691e+006
3.853207e+002, 3.695784e+006
3.858029e+002, 3.694978e+006
3.862850e+002, 3.694324e+006
3.867671e+002, 3.693622e+006
3.872492e+002, 3.692740e+006
3.877313e+002, 3.691652e+006
3.882134e+002, 3.690317e+006
3.886956e+002, 3.688663e+006
3.891777e+002, 3.686858e+006
3.896598e+002, 3.685111e+006
3.901419e+002, 3.683447e+006
3.906240e+002, 3.681615e+006
3.911061e+002, 3.679453e+006
3.915883e+002, 3.677104e+006
3.920704e+002, 3.674703e+006
3.925525e+002, 3.672185e+006
3.930346e+002, 3.669849e+006
3.935167e+002, 3.667495e+006
3.939988e+002, 3.665383e+006
3.944810e+002, 3.664150e+006
3.949631e+002, 3.664575e+006
3.954452e+002, 3.665512e+006
3.959273e+002, 3.666482e+006
3.964094e+002, 3.667518e+006
3.968915e+002, 3.668256e+006
3.973737e+002, 3.668190e+006
3.978558e+002, 3.667876e+006
3.983379e+002, 3.667993e+006
3.988200e+002, 3.669189e+006
3.993021e+002, 3.670084e+006
3.997842e+002, 3.670108e+006
4.002664e+002, 3.669228e+006
4.007485e+002, 3.669072e+006
4.012306e+002, 3.670033e+006
4.017127e+002, 3.671249e+006
4.021948e+002, 3.672200e+006
4.026769e+002, 3.672875e+006
4.031591e+002, 3.673228e+006
4.036412e+002, 3.673271e+006
4.041233e+002, 3.672956e+006
4.046054e+002, 3.672151e+006
4.050875e+002, 3.670862e+006
4.055696e+002, 3.669141e+006
4.060518e+002, 3.666912e+006
4.065339e+002, 3.664182e+006
4.070160e+002, 3.661721e+006
4.074981e+002, 3.659638e+006
4.079802e+002, 3.657775e+006
4.084623e+002, 3.655981e+006
4.089445e+002, 3.654294e+006
4.094266e+002, 3.652788e+006
4.099087e+002, 3.651532e+006
4.103908e+002, 3.650524e+006
4.108729e+002, 3.649629e+006
4.113550e+002, 3.648888e+006
4.118372e+002, 3.648622e+006
4.123193e+002, 3.649376e+006
4.128014e+002, 3.650749e+006
4.132835e+002, 3.651643e+006
4.137656e+002, 3.651744e+006
4.142477e+002, 3.651957e+006
4.147299e+002, 3.653430e+006
4.152120e+002, 3.655726e+006
4.156941e+002, 3.657819e+006
4.161762e+002, 3.659189e+006
4.166583e+002, 3.660052e+006
4.171404e+002, 3.660376e+006
4.176226e+002, 3.660135e+006
4.181047e+002, 3.659943e+006
4.185868e+002, 3.660099e+006
4.190689e+002, 3.660416e+006
4.195510e+002, 3.660758e+006
4.200331e+002, 3.661265e+006
4.205153e+002, 3.661511e+006
4.209974e+002, 3.661567e+006
4.214795e+002, 3.661294e+006
4.219616e+002, 3.660301e+006
4.224437e+002, 3.658294e+006
4.229258e+002, 3.655819e+006
4.234080e+002, 3.653048e+006
4.238901e+002, 3.649890e+006
4.243722e+002, 3.647036e+006
4.248543e+002, 3.644738e+006
4.253364e+002, 3.642800e+006
4.258185e+002, 3.641033e+006
4.263007e+002, 3.639223e+006
4.267828e+002, 3.637960e+006
4.272649e+002, 3.637546e+006
4.277470e+002, 3.637819e+006
4.282291e+002, 3.637726e+006
4.287112e+002, 3.637219e+006
4.291934e+002, 3.636360e+006
4.296755e+002, 3.634981e+006
4.301576e+002, 3.632851e+006
4.306397e+002, 3.631177e+006
4.311218e+002, 3.629877e+006
4.316039e+002, 3.629153e+006
4.320861e+002, 3.629483e+006
4.325682e+002, 3.630919e+006
4.330503e+002, 3.632651e+006
4.335324e+002, 3.634541e+006
4.340145e+002, 3.636521e+006
4.344966e+002, 3.638309e+006
4.349788e+002, 3.639933e+006
4.354609e+002, 3.641562e+006
4.359430e+002, 3.643205e+006
4.364251e+002, 3.645024e+006
4.369072e+002, 3.647511e+006
4.373893e+002, 3.651014e+006
4.378715e+002, 3.654645e+006
4.383536e+002, 3.656788e+006
4.388357e+002, 3.658134e+006
4.393178e+002, 3.660608e+006
4.397999e+002, 3.665368e+006
4.402820e+002, 3.671553e+006
4.407642e+002, 3.678646e+006
4.412463e+002, 3.686630e+006
4.417284e+002, 3.694439e+006
4.422105e+002, 3.700362e+006
4.426926e+002, 3.706332e+006
4.431747e+002, 3.714212e+006
4.436569e+002, 3.724945e+006
4.441390e+002, 3.737072e+006
4.446211e+002, 3.749975e+006
4.451032e+002, 3.763903e+006
4.455853e+002, 3.779207e+006
4.460674e+002, 3.797760e+006
4.465496e+002, 3.816299e+006
4.470317e+002, 3.834063e+006
4.475138e+002, 3.851843e+006
4.479959e+002, 3.866515e+006
4.484780e+002, 3.878286e+006
4.489601e+002, 3.887089e+006
4.494423e+002, 3.893357e+006
4.499244e+002, 3.898922e+006
4.504065e+002, 3.898255e+006
4.508886e+002, 3.890479e+006
4.513707e+002, 3.875897e+006
4.518528e+002, 3.854226e+006
4.523350e+002, 3.823240e+006
4.528171e+002, 3.791314e+006
4.532992e+002, 3.761027e+006
4.537813e+002, 3.732180e+006
4.542634e+002, 3.709362e+006
4.547455e+002, 3.692744e+006
4.552277e+002, 3.680995e+006
4.557098e+002, 3.673007e+006
4.561919e+002, 3.668529e+006
4.566740e+002, 3.665597e+006
4.571561e+002, 3.663898e+006
4.576382e+002, 3.663178e+006
4.581204e+002, 3.663376e+006
4.586025e+002, 3.664403e+006
4.590846e+002, 3.665497e+006
4.595667e+002, 3.665765e+006
4.600488e+002, 3.666012e+006
4.605309e+002, 3.667429e+006
4.610131e+002, 3.670383e+006
4.614952e+002, 3.673704e+006
4.619773e+002, 3.676326e+006
4.624594e+002, 3.678821e+006
4.629415e+002, 3.682054e+006
4.634236e+002, 3.686275e+006
4.639058e+002, 3.691308e+006
4.643879e+002, 3.696827e+006
4.648700e+002, 3.702890e+006
4.653521e+002, 3.710612e+006
4.658342e+002, 3.720055e+006
4.663163e+002, 3.731425e+006
4.667985e+002, 3.744840e+006
4.672806e+002, 3.760196e+006
4.677627e+002, 3.777816e+006
4.682448e+002, 3.799630e+006
4.687269e+002, 3.822681e+006
4.692090e+002, 3.843029e+006
4.696912e+002, 3.859814e+006
4.701733e+002, 3.875757e+006
4.706554e+002, 3.891213e+006
4.711375e+002, 3.906257e+006
4.716196e+002, 3.921768e+006
4.721017e+002, 3.937949e+006
4.725839e+002, 3.954028e+006
4.730660e+002, 3.969317e+006
4.735481e+002, 3.983735e+006
4.740302e+002, 3.999656e+006
4.745123e+002, 4.016734e+006
4.749944e+002, 4.036903e+006
4.754766e+002, 4.061993e+006
4.759587e+002, 4.092327e+006
4.764408e+002, 4.129929e+006
4.769229e+002, 4.175072e+006
4.774050e+002, 4.227944e+006
4.778871e+002, 4.288924e+006
4.783693e+002, 4.357945e+006
4.788514e+002, 4.434029e+006
4.793335e+002, 4.513602e+006
4.798156e+002, 4.601514e+006
4.802977e+002, 4.702520e+006
4.807798e+002, 4.816997e+006
4.812620e+002, 4.944660e+006
4.817441e+002, 5.091876e+006
4.822262e+002, 5.250486e+006
4.827083e+002, 5.408472e+006
4.831904e+002, 5.609649e+006
4.836725e+002, 5.763592e+006
4.841547e+002, 5.845684e+006
4.846368e+002, 5.853818e+006
4.851189e+002, 5.778034e+006
4.856010e+002, 5.548050e+006
4.860831e+002, 5.285668e+006
4.865652e+002, 5.053837e+006
4.870474e+002, 4.866048e+006
4.875295e+002, 4.675393e+006
4.880116e+002, 4.473187e+006
4.884937e+002, 4.276742e+006
4.889758e+002, 4.107168e+006
4.894579e+002, 3.963938e+006
4.899401e+002, 3.849228e+006
4.904222e+002, 3.765835e+006
4.909043e+002, 3.710571e+006
4.913864e+002, 3.667007e+006
4.918685e+002, 3.635613e+006
4.923506e+002, 3.611944e+006
4.928328e+002, 3.594813e+006
4.933149e+002, 3.583264e+006
4.937970e+002, 3.572694e+006
4.942791e+002, 3.562746e+006
4.947612e+002, 3.553818e+006
4.952433e+002, 3.546117e+006
4.957255e+002, 3.539713e+006
4.962076e+002, 3.534723e+006
4.966897e+002, 3.532167e+006
4.971718e+002, 3.530137e+006
4.976539e+002, 3.526669e+006
4.981360e+002, 3.522163e+006
4.986182e+002, 3.518015e+006
4.991003e+002, 3.515128e+006
4.995824e+002, 3.512786e+006
5.000645e+002, 3.510577e+006
5.005466e+002, 3.508371e+006
5.010287e+002, 3.506396e+006
5.015109e+002, 3.504862e+006
5.019930e+002, 3.503474e+006
5.024751e+002, 3.501967e+006
5.029572e+002, 3.500115e+006
5.034393e+002, 3.498304e+006
5.039214e+002, 3.496554e+006
5.044036e+002, 3.494877e+006
5.048857e+002, 3.493286e+006
5.053678e+002, 3.491730e+006
5.058499e+002, 3.490330e+006
5.063320e+002, 3.489158e+006
5.068141e+002, 3.488251e+006
5.072963e+002, 3.487322e+006
5.077784e+002, 3.486284e+006
5.082605e+002, 3.485467e+006
5.087426e+002, 3.485456e+006
5.092247e+002, 3.486161e+006
5.097068e+002, 3.486185e+006
5.101890e+002, 3.485086e+006
5.106711e+002, 3.483505e+006
5.111532e+002, 3.482566e+006
5.116353e+002, 3.482115e+006
5.121174e+002, 3.481508e+006
5.125995e+002, 3.479891e+006
5.130817e+002, 3.478171e+006
5.135638e+002, 3.477987e+006
5.140459e+002, 3.479246e+006
5.145280e+002, 3.479547e+006
5.150101e+002, 3.476432e+006
5.154922e+002, 3.472151e+006
5.159744e+002, 3.468885e+006
5.164565e+002, 3.467570e+006
5.169386e+002, 3.466391e+006
5.174207e+002, 3.464891e+006
5.179028e+002, 3.463171e+006
5.183849e+002, 3.461376e+006
5.188671e+002, 3.459314e+006
5.193492e+002, 3.457412e+006
5.198313e+002, 3.455603e+006
5.203134e+002, 3.453926e+006
5.207955e+002, 3.452881e+006
5.212776e+002, 3.452906e+006
5.217598e+002, 3.452853e+006
5.222419e+002, 3.451971e+006
5.227240e+002, 3.450008e+006
5.232061e+002, 3.448412e+006
5.236882e+002, 3.447263e+006
5.241703e+002, 3.446312e+006
5.246525e+002, 3.445240e+006
5.251346e+002, 3.444067e+006
5.256167e+002, 3.443043e+006
5.260988e+002, 3.442539e+006
5.265809e+002, 3.441959e+006
5.270630e+002, 3.440002e+006
5.275452e+002, 3.436887e+006
5.280273e+002, 3.433692e+006
5.285094e+002, 3.430560e+006
5.289915e+002, 3.427964e+006
5.294736e+002, 3.426602e+006
5.299557e+002, 3.426546e+006
5.304379e+002, 3.426660e+006
5.309200e+002, 3.426299e+006
5.314021e+002, 3.425691e+006
5.318842e+002, 3.425055e+006
5.323663e+002, 3.424435e+006
5.328484e+002, 3.423701e+006
5.333306e+002, 3.422838e+006
5.338127e+002, 3.421790e+006
5.342948e+002, 3.420489e+006
5.347769e+002, 3.418693e+006
5.352590e+002, 3.416913e+006
5.357411e+002, 3.415346e+006
5.362233e+002, 3.414004e+006
5.367054e+002, 3.412434e+006
5.371875e+002, 3.410549e+006
5.376696e+002, 3.408766e+006
5.381517e+002, 3.407521e+006
5.386339e+002, 3.406932e+006
5.391160e+002, 3.405755e+006
5.395981e+002, 3.403811e+006
5.400802e+002, 3.401690e+006
5.405623e+002, 3.400067e+006
5.410444e+002, 3.398897e+006
5.415266e+002, 3.397882e+006
5.420087e+002, 3.396893e+006
5.424908e+002, 3.396011e+006
5.429729e+002, 3.395461e+006
5.434550e+002, 3.395145e+006
5.439371e+002, 3.394701e+006
5.444193e+002, 3.393575e+006
5.449014e+002, 3.392425e+006
5.453835e+002, 3.391909e+006
5.458656e+002, 3.392103e+006
5.463477e+002, 3.392124e+006
5.468298e+002, 3.391476e+006
5.473120e+002, 3.390554e+006
5.477941e+002, 3.389710e+006
5.482762e+002, 3.389353e+006
5.487583e+002, 3.388523e+006
5.492404e+002, 3.386973e+006
5.497225e+002, 3.384933e+006
5.502047e+002, 3.382752e+006
5.506868e+002, 3.380245e+006
5.511689e+002, 3.377961e+006
5.516510e+002, 3.376222e+006
5.521331e+002, 3.374885e+006
5.526152e+002, 3.372983e+006
5.530974e+002, 3.370516e+006
5.535795e+002, 3.367713e+006
5.540616e+002, 3.364609e+006
5.545437e+002, 3.361327e+006
5.550258e+002, 3.358268e+006
5.555079e+002, 3.355448e+006
5.559901e+002, 3.353168e+006
5.564722e+002, 3.351926e+006
5.569543e+002, 3.351435e+006
5.574364e+002, 3.351113e+006
5.579185e+002, 3.351029e+006
5.584006e+002, 3.350655e+006
5.588828e+002, 3.348958e+006
5.593649e+002, 3.346580e+006
5.598470e+002, 3.345011e+006
5.603291e+002, 3.345557e+006
5.608112e+002, 3.346250e+006
5.612933e+002, 3.346085e+006
5.617755e+002, 3.344964e+006
5.622576e+002, 3.343899e+006
5.627397e+002, 3.343138e+006
5.632218e+002, 3.342299e+006
5.637039e+002, 3.341250e+006
5.641860e+002, 3.340196e+006
5.646682e+002, 3.338326e+006
5.651503e+002, 3.335327e+006
5.656324e+002, 3.331970e+006
5.661145e+002, 3.329409e+006
5.665966e+002, 3.327791e+006
5.670787e+002, 3.325917e+006
5.675609e+002, 3.323536e+006
5.680430e+002, 3.320906e+006
5.685251e+002, 3.318473e+006
5.690072e+002, 3.316267e+006
5.694893e+002, 3.314492e+006
5.699714e+002, 3.313727e+006
5.704536e+002, 3.313223e+006
5.709357e+002, 3.311553e+006
5.714178e+002, 3.308793e+006
5.718999e+002, 3.306529e+006
5.723820e+002, 3.306355e+006
5.728641e+002, 3.306785e+006
5.733463e+002, 3.306479e+006
5.738284e+002, 3.304923e+006
5.743105e+002, 3.303254e+006
5.747926e+002, 3.301430e+006
5.752747e+002, 3.299765e+006
5.757568e+002, 3.298672e+006
5.762390e+002, 3.299331e+006
5.767211e+002, 3.298909e+006
5.772032e+002, 3.296494e+006
5.776853e+002, 3.292810e+006
5.781674e+002, 3.290530e+006
5.786495e+002, 3.290104e+006
5.791317e+002, 3.289819e+006
5.796138e+002, 3.289099e+006
5.800959e+002, 3.287951e+006
5.805780e+002, 3.286192e+006
5.810601e+002, 3.283764e+006
5.815422e+002, 3.281401e+006
5.820244e+002, 3.280066e+006
5.825065e+002, 3.279260e+006
5.829886e+002, 3.277507e+006
5.834707e+002, 3.274381e+006
5.839528e+002, 3.271526e+006
5.844349e+002, 3.270346e+006
5.849171e+002, 3.270400e+006
5.853992e+002, 3.271048e+006
5.858813e+002, 3.273804e+006
5.863634e+002, 3.275190e+006
5.868455e+002, 3.272254e+006
5.873276e+002, 3.266677e+006
5.878098e+002, 3.263231e+006
5.882919e+002, 3.265101e+006
5.887740e+002, 3.266852e+006
5.892561e+002, 3.266840e+006
5.897382e+002, 3.265021e+006
5.902203e+002, 3.263055e+006
5.907025e+002, 3.260817e+006
5.911846e+002, 3.258656e+006
5.916667e+002, 3.256849e+006
5.921488e+002, 3.255420e+006
5.926309e+002, 3.254036e+006
5.931130e+002, 3.252751e+006
5.935952e+002, 3.251370e+006
5.940773e+002, 3.249569e+006
5.945594e+002, 3.247478e+006
5.950415e+002, 3.245522e+006
5.955236e+002, 3.243764e+006
5.960057e+002, 3.242318e+006
5.964879e+002, 3.241234e+006
5.969700e+002, 3.240582e+006
5.974521e+002, 3.240517e+006
5.979342e+002, 3.241945e+006
5.984163e+002, 3.243246e+006
5.988984e+002, 3.243482e+006
5.993806e+002, 3.242707e+006
5.998627e+002, 3.241679e+006
6.003448e+002, 3.240420e+006
6.008269e+002, 3.239030e+006
6.013090e+002, 3.237468e+006
6.017911e+002, 3.235572e+006
6.022733e+002, 3.234083e+006
6.027554e+002, 3.233241e+006
6.032375e+002, 3.232457e+006
6.037196e+002, 3.231086e+006
6.042017e+002, 3.229022e+006
6.046838e+002, 3.227441e+006
6.051660e+002, 3.226556e+006
6.056481e+002, 3.226034e+006
6.061302e+002, 3.225516e+006
6.066123e+002, 3.224952e+006
6.070944e+002, 3.224023e+006
6.075765e+002, 3.222177e+006
6.080587e+002, 3.220315e+006
6.085408e+002, 3.220028e+006
6.090229e+002, 3.220731e+006
6.095050e+002, 3.220352e+006
6.099871e+002, 3.216651e+006
6.104692e+002, 3.212430e+006
6.109514e+002, 3.209524e+006
6.114335e+002, 3.208092e+006
6.119156e+002, 3.206181e+006
6.123977e+002, 3.203141e+006
6.128798e+002, 3.199658e+006
6.133619e+002, 3.196210e+006
6.138441e+002, 3.192970e+006
6.143262e+002, 3.189255e+006
6.148083e+002, 3.184923e+006
6.152904e+002, 3.180332e+006
6.157725e+002, 3.176020e+006
6.162546e+002, 3.172034e+006
6.167368e+002, 3.167915e+006
6.172189e+002, 3.163481e+006
6.177010e+002, 3.158998e+006
6.181831e+002, 3.154877e+006
6.186652e+002, 3.151128e+006
6.191473e+002, 3.147752e+006
6.196295e+002, 3.144980e+006
6.201116e+002, 3.142470e+006
6.205937e+002, 3.139824e+006
6.210758e+002, 3.137104e+006
6.215579e+002, 3.134576e+006
6.220400e+002, 3.132274e+006
6.225222e+002, 3.130319e+006
6.230043e+002, 3.128873e+006
6.234864e+002, 3.128047e+006
6.239685e+002, 3.127126e+006
6.244506e+002, 3.126075e+006
6.249327e+002, 3.124854e+006
6.254149e+002, 3.123425e+006
6.258970e+002, 3.121780e+006
6.263791e+002, 3.119894e+006
6.268612e+002, 3.117583e+006
6.273433e+002, 3.115323e+006
6.278254e+002, 3.113930e+006
6.283076e+002, 3.113355e+006
6.287897e+002, 3.112697e+006
6.292718e+002, 3.111897e+006
6.297539e+002, 3.110640e+006
6.302360e+002, 3.108025e+006
6.307181e+002, 3.104480e+006
6.312003e+002, 3.101376e+006
6.316824e+002, 3.099754e+006
6.321645e+002, 3.098580e+006
6.326466e+002, 3.097182e+006
6.331287e+002, 3.095560e+006
6.336108e+002, 3.093873e+006
6.340930e+002, 3.091960e+006
6.345751e+002, 3.090158e+006
6.350572e+002, 3.088701e+006
6.355393e+002, 3.087673e+006
6.360214e+002, 3.086465e+006
6.365035e+002, 3.084859e+006
6.369857e+002, 3.083302e+006
6.374678e+002, 3.082279e+006
6.379499e+002, 3.081937e+006
6.384320e+002, 3.080864e+006
6.389141e+002, 3.078780e+006
6.393962e+002, 3.076496e+006
6.398784e+002, 3.075104e+006
6.403605e+002, 3.074484e+006
6.408426e+002, 3.074072e+006
6.413247e+002, 3.073759e+006
6.418068e+002, 3.073566e+006
6.422889e+002, 3.073304e+006
6.427711e+002, 3.073202e+006
6.432532e+002, 3.073760e+006
6.437353e+002, 3.076054e+006
6.442174e+002, 3.078267e+006
6.446995e+002, 3.079592e+006
6.451816e+002, 3.080074e+006
6.456638e+002, 3.080204e+006
6.461459e+002, 3.079444e+006
6.466280e+002, 3.078979e+006
6.471101e+002, 3.079441e+006
6.475922e+002, 3.080921e+006
6.480743e+002, 3.081091e+006
6.485565e+002, 3.079379e+006
6.490386e+002, 3.077730e+006
6.495207e+002, 3.077586e+006
6.500028e+002, 3.078827e+006
6.504849e+002, 3.080804e+006
6.509670e+002, 3.083465e+006
6.514492e+002, 3.086614e+006
6.519313e+002, 3.090083e+006
6.524134e+002, 3.093863e+006
6.528955e+002, 3.097915e+006
6.533776e+002, 3.102421e+006
6.538597e+002, 3.106967e+006
6.543419e+002, 3.110639e+006
6.548240e+002, 3.114406e+006
6.553061e+002, 3.119691e+006
6.557882e+002, 3.124691e+006
6.562703e+002, 3.133908e+006
6.567524e+002, 3.152019e+006
6.572346e+002, 3.175157e+006
6.577167e+002, 3.193107e+006
6.581988e+002, 3.209232e+006
6.586809e+002, 3.212057e+006
6.591630e+002, 3.193930e+006
6.596451e+002, 3.158947e+006
6.601273e+002, 3.129773e+006
6.606094e+002, 3.106036e+006
6.610915e+002, 3.088708e+006
6.615736e+002, 3.079927e+006
6.620557e+002, 3.077212e+006
6.625378e+002, 3.076851e+006
6.630200e+002, 3.078582e+006
6.635021e+002, 3.079573e+006
6.639842e+002, 3.078419e+006
6.644663e+002, 3.075197e+006
6.649484e+002, 3.069745e+006
6.654305e+002, 3.061305e+006
6.659127e+002, 3.052757e+006
6.663948e+002, 3.043951e+006
6.668769e+002, 3.035882e+006
6.673590e+002, 3.029497e+006
6.678411e+002, 3.025414e+006
6.683232e+002, 3.022031e+006
6.688054e+002, 3.019625e+006
6.692875e+002, 3.017519e+006
6.697696e+002, 3.014250e+006
6.702517e+002, 3.009772e+006
6.707338e+002, 3.006059e+006
6.712159e+002, 3.003821e+006
6.716981e+002, 3.002498e+006
6.721802e+002, 3.001405e+006
6.726623e+002, 3.000464e+006
6.731444e+002, 2.999385e+006
6.736265e+002, 2.998040e+006
6.741086e+002, 2.996505e+006
6.745908e+002, 2.994856e+006
6.750729e+002, 2.993111e+006
6.755550e+002, 2.991216e+006
6.760371e+002, 2.988889e+006
6.765192e+002, 2.986723e+006
6.770013e+002, 2.984958e+006
6.774835e+002, 2.983620e+006
6.779656e+002, 2.982546e+006
6.784477e+002, 2.981809e+006
6.789298e+002, 2.981196e+006
6.794119e+002, 2.980508e+006
6.798940e+002, 2.979725e+006
6.803762e+002, 2.979343e+006
6.808583e+002, 2.979443e+006
6.813404e+002, 2.979323e+006
6.818225e+002, 2.978070e+006
6.823046e+002, 2.976073e+006
6.827867e+002, 2.974099e+006
6.832689e+002, 2.972302e+006
6.837510e+002, 2.970603e+006
6.842331e+002, 2.969051e+006
6.847152e+002, 2.967573e+006
6.851973e+002, 2.966115e+006
6.856794e+002, 2.964417e+006
6.861616e+002, 2.963057e+006
6.866437e+002, 2.962256e+006
6.871258e+002, 2.961852e+006
6.876079e+002, 2.961618e+006
6.880900e+002, 2.961671e+006
6.885721e+002, 2.961585e+006
6.890543e+002, 2.961224e+006
6.895364e+002, 2.960647e+006
6.900185e+002, 2.960067e+006
6.905006e+002, 2.959460e+006
6.909827e+002, 2.958595e+006
6.914648e+002, 2.957410e+006
6.919470e+002, 2.955825e+006
6.924291e+002, 2.953410e+006
6.929112e+002, 2.950333e+006
6.933933e+002, 2.947549e+006
6.938754e+002, 2.945842e+006
6.943575e+002, 2.944398e+006
6.948397e+002, 2.942513e+006
6.953218e+002, 2.940065e+006
6.958039e+002, 2.938544e+006
6.962860e+002, 2.939300e+006
6.967681e+002, 2.939991e+006
6.972502e+002, 2.939345e+006
6.977324e+002, 2.937008e+006
6.982145e+002, 2.935317e+006
6.986966e+002, 2.934442e+006
6.991787e+002, 2.933794e+006
6.996608e+002, 2.932745e+006
7.001429e+002, 2.931399e+006
7.006251e+002, 2.930196e+006
7.011072e+002, 2.929163e+006
7.015893e+002, 2.928333e+006
7.020714e+002, 2.927805e+006
7.025535e+002, 2.927446e+006
7.030356e+002, 2.927097e+006
7.035178e+002, 2.926842e+006
7.039999e+002, 2.926298e+006
7.044820e+002, 2.924912e+006
7.049641e+002, 2.923236e+006
7.054462e+002, 2.922154e+006
7.059283e+002, 2.922306e+006
7.064105e+002, 2.922088e+006
7.068926e+002, 2.921191e+006
7.073747e+002, 2.919898e+006
7.078568e+002, 2.918940e+006
7.083389e+002, 2.918376e+006
7.088210e+002, 2.917504e+006
7.093032e+002, 2.915942e+006
7.097853e+002, 2.914092e+006
7.102674e+002, 2.912823e+006
7.107495e+002, 2.912013e+006
7.112316e+002, 2.911168e+006
7.117137e+002, 2.909939e+006
7.121959e+002, 2.908632e+006
7.126780e+002, 2.907465e+006
7.131601e+002, 2.906412e+006
7.136422e+002, 2.905363e+006
7.141243e+002, 2.904198e+006
7.146064e+002, 2.903078e+006
7.150886e+002, 2.902127e+006
7.155707e+002, 2.901355e+006
7.160528e+002, 2.900299e+006
7.165349e+002, 2.898887e+006
7.170170e+002, 2.897398e+006
7.174991e+002, 2.895978e+006
7.179813e+002, 2.894642e+006
7.184634e+002, 2.893383e+006
7.189455e+002, 2.892214e+006
7.194276e+002, 2.891082e+006
7.199097e+002, 2.889851e+006
7.203918e+002, 2.888670e+006
7.208740e+002, 2.887717e+006
7.213561e+002, 2.886988e+006
7.218382e+002, 2.886588e+006
7.223203e+002, 2.887183e+006
7.228024e+002, 2.887721e+006
7.232845e+002, 2.887221e+006
7.237667e+002, 2.884450e+006
7.242488e+002, 2.882620e+006
7.247309e+002, 2.882165e+006
7.252130e+002, 2.882129e+006
7.256951e+002, 2.881228e+006
7.261772e+002, 2.879366e+006
7.266594e+002, 2.878288e+006
7.271415e+002, 2.878551e+006
7.276236e+002, 2.878924e+006
7.281057e+002, 2.877620e+006
7.285878e+002, 2.875070e+006
7.290699e+002, 2.872323e+006
7.295521e+002, 2.869446e+006
7.300342e+002, 2.866957e+006
7.305163e+002, 2.865561e+006
7.309984e+002, 2.864753e+006
7.314805e+002, 2.863631e+006
7.319626e+002, 2.861415e+006
7.324448e+002, 2.859577e+006
7.329269e+002, 2.858613e+006
7.334090e+002, 2.858150e+006
7.338911e+002, 2.857187e+006
7.343732e+002, 2.855675e+006
7.348553e+002, 2.853850e+006
7.353375e+002, 2.851470e+006
7.358196e+002, 2.849074e+006
7.363017e+002, 2.848377e+006
7.367838e+002, 2.849122e+006
7.372659e+002, 2.849751e+006
7.377480e+002, 2.849346e+006
7.382302e+002, 2.848474e+006
7.387123e+002, 2.847880e+006
7.391944e+002, 2.847362e+006
7.396765e+002, 2.845921e+006
7.401586e+002, 2.841673e+006
7.406407e+002, 2.837841e+006
7.411229e+002, 2.836258e+006
7.416050e+002, 2.836778e+006
7.420871e+002, 2.836359e+006
7.425692e+002, 2.834582e+006
7.430513e+002, 2.832865e+006
7.435334e+002, 2.832041e+006
7.440156e+002, 2.831992e+006
7.444977e+002, 2.831809e+006
7.449798e+002, 2.831497e+006
7.454619e+002, 2.830882e+006
7.459440e+002, 2.829488e+006
7.464261e+002, 2.827888e+006
7.469083e+002, 2.826908e+006
7.473904e+002, 2.826621e+006
7.478725e+002, 2.826104e+006
7.483546e+002, 2.824673e+006
7.488367e+002, 2.822995e+006
7.493188e+002, 2.821352e+006
7.498010e+002, 2.819487e+006
7.502831e+002, 2.818838e+006
7.507652e+002, 2.820376e+006
7.512473e+002, 2.821571e+006
7.517294e+002, 2.820004e+006
7.522115e+002, 2.815734e+006
7.526937e+002, 2.812401e+006
7.531758e+002, 2.810287e+006
7.536579e+002, 2.808690e+006
7.541400e+002, 2.807220e+006
7.546221e+002, 2.805714e+006
7.551042e+002, 2.803802e+006
7.555864e+002, 2.801350e+006
7.560685e+002, 2.798990e+006
7.565506e+002, 2.797235e+006
7.570327e+002, 2.795713e+006
7.575148e+002, 2.794090e+006
7.579969e+002, 2.791756e+006
7.584791e+002, 2.790229e+006
7.589612e+002, 2.789842e+006
7.594433e+002, 2.789862e+006
7.599254e+002, 2.789218e+006
7.604075e+002, 2.787813e+006
7.608896e+002, 2.787446e+006
7.613718e+002, 2.788633e+006
7.618539e+002, 2.790023e+006
7.623360e+002, 2.790264e+006
7.628181e+002, 2.789305e+006
7.633002e+002, 2.786924e+006
7.637823e+002, 2.782304e+006
7.642645e+002, 2.777595e+006
7.647466e+002, 2.773945e+006
7.652287e+002, 2.771002e+006
7.657108e+002, 2.768120e+006
7.661929e+002, 2.764881e+006
7.666750e+002, 2.762309e+006
7.671572e+002, 2.760846e+006
7.676393e+002, 2.759874e+006
7.681214e+002, 2.758085e+006
7.686035e+002, 2.755414e+006
7.690856e+002, 2.752988e+006
7.695677e+002, 2.750986e+006
7.700499e+002, 2.749485e+006
7.705320e+002, 2.748812e+006
7.710141e+002, 2.748714e+006
7.714962e+002, 2.748569e+006
7.719783e+002, 2.748266e+006
7.724604e+002, 2.747638e+006
7.729426e+002, 2.746572e+006
7.734247e+002, 2.745106e+006
7.739068e+002, 2.743343e+006
7.743889e+002, 2.741056e+006
7.748710e+002, 2.738815e+006
7.753531e+002, 2.736779e+006
7.758353e+002, 2.734841e+006
7.763174e+002, 2.732573e+006
7.767995e+002, 2.729983e+006
7.772816e+002, 2.727697e+006
7.777637e+002, 2.725963e+006
7.782458e+002, 2.724698e+006
7.787280e+002, 2.724092e+006
7.792101e+002, 2.723896e+006
7.796922e+002, 2.723284e+006
7.801743e+002, 2.721290e+006
7.806564e+002, 2.719348e+006
7.811385e+002, 2.718296e+006
7.816207e+002, 2.717933e+006
7.821028e+002, 2.717364e+006
7.825849e+002, 2.716449e+006
7.830670e+002, 2.715344e+006
7.835491e+002, 2.713803e+006
7.840313e+002, 2.712130e+006
7.845134e+002, 2.712110e+006
7.849955e+002, 2.713759e+006
7.854776e+002, 2.714109e+006
7.859597e+002, 2.710705e+006
7.864418e+002, 2.705891e+006
7.869240e+002, 2.703467e+006
7.874061e+002, 2.702929e+006
7.878882e+002, 2.702477e+006
7.883703e+002, 2.701224e+006
7.888524e+002, 2.699852e+006
7.893345e+002, 2.698897e+006
7.898167e+002, 2.698244e+006
7.902988e+002, 2.696856e+006
7.907809e+002, 2.694147e+006
7.912630e+002, 2.691851e+006
7.917451e+002, 2.690805e+006
7.922272e+002, 2.690617e+006
7.927094e+002, 2.689282e+006
7.931915e+002, 2.686864e+006
7.936736e+002, 2.684351e+006
7.941557e+002, 2.682204e+006
7.946378e+002, 2.680361e+006
7.951199e+002, 2.678822e+006
7.956021e+002, 2.677568e+006
7.960842e+002, 2.676446e+006
7.965663e+002, 2.675623e+006
7.970484e+002, 2.674698e+006
7.975305e+002, 2.673351e+006
7.980126e+002, 2.671666e+006
7.984948e+002, 2.670351e+006
7.989769e+002, 2.669522e+006
7.994590e+002, 2.668821e+006
7.999411e+002, 2.668184e+006
8.004232e+002, 2.667561e+006
8.009053e+002, 2.666815e+006
8.013875e+002, 2.665944e+006
8.018696e+002, 2.664839e+006
8.023517e+002, 2.662982e+006
8.028338e+002, 2.661172e+006
8.033159e+002, 2.660212e+006
8.037980e+002, 2.660027e+006
8.042802e+002, 2.660103e+006
8.047623e+002, 2.660750e+006
8.052444e+002, 2.661069e+006
8.057265e+002, 2.660439e+006
8.062086e+002, 2.659028e+006
8.066907e+002, 2.658760e+006
8.071729e+002, 2.659978e+006
8.076550e+002, 2.660680e+006
8.081371e+002, 2.659759e+006
8.086192e+002, 2.657683e+006
8.091013e+002, 2.655543e+006
8.095834e+002, 2.653367e+006
8.100656e+002, 2.651303e+006
8.105477e+002, 2.649475e+006
8.110298e+002, 2.647803e+006
8.115119e+002, 2.646167e+006
8.119940e+002, 2.644628e+006
8.124761e+002, 2.643510e+006
8.129583e+002, 2.643556e+006
8.134404e+002, 2.643214e+006
8.139225e+002, 2.641823e+006
8.144046e+002, 2.639661e+006
8.148867e+002, 2.638326e+006
8.153688e+002, 2.637873e+006
8.158510e+002, 2.637373e+006
8.163331e+002, 2.636013e+006
8.168152e+002, 2.634462e+006
8.172973e+002, 2.633980e+006
8.177794e+002, 2.634321e+006
8.182615e+002, 2.634602e+006
8.187437e+002, 2.634041e+006
8.192258e+002, 2.633579e+006
8.197079e+002, 2.634018e+006
8.201900e+002, 2.635073e+006
8.206721e+002, 2.634839e+006
8.211542e+002, 2.632807e+006
8.216364e+002, 2.630537e+006
8.221185e+002, 2.628457e+006
8.226006e+002, 2.626569e+006
8.230827e+002, 2.624813e+006
8.235648e+002, 2.623198e+006
8.240469e+002, 2.621483e+006
8.245291e+002, 2.619365e+006
8.250112e+002, 2.617300e+006
8.254933e+002, 2.615967e+006
8.259754e+002, 2.615101e+006
8.264575e+002, 2.613791e+006
8.269396e+002, 2.610925e+006
8.274218e+002, 2.608589e+006
8.279039e+002, 2.607357e+006
8.283860e+002, 2.607051e+006
8.288681e+002, 2.607249e+006
8.293502e+002, 2.608052e+006
8.298323e+002, 2.608694e+006
8.303145e+002, 2.608802e+006
8.307966e+002, 2.608712e+006
8.312787e+002, 2.609249e+006
8.317608e+002, 2.610151e+006
8.322429e+002, 2.610616e+006
8.327250e+002, 2.608754e+006
8.332072e+002, 2.607877e+006
8.336893e+002, 2.610606e+006
8.341714e+002, 2.615646e+006
8.346535e+002, 2.619597e+006
8.351356e+002, 2.622583e+006
8.356177e+002, 2.623961e+006
8.360999e+002, 2.623634e+006
8.365820e+002, 2.621657e+006
8.370641e+002, 2.617243e+006
8.375462e+002, 2.610714e+006
8.380283e+002, 2.605798e+006
8.385104e+002, 2.603960e+006
8.389926e+002, 2.603701e+006
8.394747e+002, 2.603666e+006
8.399568e+002, 2.603957e+006
8.404389e+002, 2.604752e+006
8.409210e+002, 2.607618e+006
8.414031e+002, 2.609107e+006
8.418853e+002, 2.607982e+006
8.423674e+002, 2.605256e+006
8.428495e+002, 2.602056e+006
8.433316e+002, 2.598151e+006
8.438137e+002, 2.594861e+006
8.442958e+002, 2.592469e+006
8.447780e+002, 2.590540e+006
8.452601e+002, 2.588421e+006
8.457422e+002, 2.586269e+006
8.462243e+002, 2.584425e+006
8.467064e+002, 2.583023e+006
8.471885e+002, 2.581861e+006
8.476707e+002, 2.580812e+006
8.481528e+002, 2.579967e+006
8.486349e+002, 2.579424e+006
8.491170e+002, 2.578904e+006
8.495991e+002, 2.579308e+006
8.500812e+002, 2.580771e+006
8.505634e+002, 2.583086e+006
8.510455e+002, 2.586560e+006
8.515276e+002, 2.590957e+006
8.520097e+002, 2.593875e+006
8.524918e+002, 2.594776e+006
8.529739e+002, 2.596099e+006
8.534561e+002, 2.599109e+006
8.539382e+002, 2.604281e+006
8.544203e+002, 2.614096e+006
8.549024e+002, 2.633390e+006
8.553845e+002, 2.641901e+006
8.558666e+002, 2.629695e+006
8.563488e+002, 2.610771e+006
8.568309e+002, 2.592978e+006
8.573130e+002, 2.575594e+006
8.577951e+002, 2.563515e+006
8.582772e+002, 2.557166e+006
8.587593e+002, 2.553669e+006
8.592415e+002, 2.551520e+006
8.597236e+002, 2.550169e+006
8.602057e+002, 2.548702e+006
8.606878e+002, 2.547048e+006
8.611699e+002, 2.545406e+006
8.616520e+002, 2.543986e+006
8.621342e+002, 2.542528e+006
8.626163e+002, 2.540868e+006
8.630984e+002, 2.539044e+006
8.635805e+002, 2.537127e+006
8.640626e+002, 2.535078e+006
8.645447e+002, 2.533253e+006
8.650269e+002, 2.532171e+006
8.655090e+002, 2.531485e+006
8.659911e+002, 2.529683e+006
8.664732e+002, 2.526979e+006
8.669553e+002, 2.524632e+006
8.674374e+002, 2.523287e+006
8.679196e+002, 2.522717e+006
8.684017e+002, 2.523117e+006
8.688838e+002, 2.524300e+006
8.693659e+002, 2.525090e+006
8.698480e+002, 2.525460e+006
8.703301e+002, 2.525181e+006
8.708123e+002, 2.523841e+006
8.712944e+002, 2.521891e+006
8.717765e+002, 2.521174e+006
8.722586e+002, 2.521533e+006
8.727407e+002, 2.521431e+006
8.732228e+002, 2.519965e+006
8.737050e+002, 2.517961e+006
8.741871e+002, 2.516151e+006
8.746692e+002, 2.514484e+006
8.751513e+002, 2.512830e+006
8.756334e+002, 2.510996e+006
8.761155e+002, 2.509485e+006
8.765977e+002, 2.508604e+006
8.770798e+002, 2.507995e+006
8.775619e+002, 2.506972e+006
8.780440e+002, 2.505527e+006
8.785261e+002, 2.504046e+006
8.790082e+002, 2.502535e+006
8.794904e+002, 2.501194e+006
8.799725e+002, 2.500512e+006
8.804546e+002, 2.500088e+006
8.809367e+002, 2.499143e+006
8.814188e+002, 2.497060e+006
8.819009e+002, 2.495302e+006
8.823831e+002, 2.494575e+006
8.828652e+002, 2.494279e+006
8.833473e+002, 2.493926e+006
8.838294e+002, 2.493730e+006
8.843115e+002, 2.492488e+006
8.847936e+002, 2.489888e+006
8.852758e+002, 2.487368e+006
8.857579e+002, 2.486595e+006
8.862400e+002, 2.487005e+006
8.867221e+002, 2.487350e+006
8.872042e+002, 2.487492e+006
8.876863e+002, 2.487627e+006
8.881685e+002, 2.488215e+006
8.886506e+002, 2.488573e+006
8.891327e+002, 2.487937e+006
8.896148e+002, 2.486023e+006
8.900969e+002, 2.485169e+006
8.905790e+002, 2.485691e+006
8.910612e+002, 2.486288e+006
8.915433e+002, 2.486084e+006
8.920254e+002, 2.485269e+006
8.925075e+002, 2.484548e+006
8.929896e+002, 2.483898e+006
8.934717e+002, 2.483412e+006
8.939539e+002, 2.483756e+006
8.944360e+002, 2.483721e+006
8.949181e+002, 2.482193e+006
8.954002e+002, 2.479429e+006
8.958823e+002, 2.477264e+006
8.963644e+002, 2.476150e+006
8.968466e+002, 2.475106e+006
8.973287e+002, 2.474003e+006
8.978108e+002, 2.472766e+006
8.982929e+002, 2.470864e+006
8.987750e+002, 2.468490e+006
8.992571e+002, 2.466674e+006
8.997393e+002, 2.466170e+006
9.002214e+002, 2.465855e+006
9.007035e+002, 2.464814e+006
9.011856e+002, 2.463299e+006
9.016677e+002, 2.461764e+006
9.021498e+002, 2.460149e+006
9.026320e+002, 2.458599e+006
9.031141e+002, 2.456958e+006
9.035962e+002, 2.455479e+006
9.040783e+002, 2.454787e+006
9.045604e+002, 2.454760e+006
9.050425e+002, 2.453955e+006
9.055247e+002, 2.452075e+006
9.060068e+002, 2.449952e+006
9.064889e+002, 2.448140e+006
9.069710e+002, 2.446675e+006
9.074531e+002, 2.445722e+006
9.079352e+002, 2.445553e+006
9.084174e+002, 2.445029e+006
9.088995e+002, 2.444097e+006
9.093816e+002, 2.442715e+006
9.098637e+002, 2.440613e+006
9.103458e+002, 2.437773e+006
9.108279e+002, 2.436029e+006
9.113101e+002, 2.435383e+006
9.117922e+002, 2.435117e+006
9.122743e+002, 2.435083e+006
9.127564e+002, 2.434864e+006
9.132385e+002, 2.433708e+006
9.137206e+002, 2.431764e+006
9.142028e+002, 2.430330e+006
9.146849e+002, 2.430527e+006
9.151670e+002, 2.430423e+006
9.156491e+002, 2.429287e+006
9.161312e+002, 2.427479e+006
9.166133e+002, 2.426485e+006
9.170955e+002, 2.426342e+006
9.175776e+002, 2.425882e+006
9.180597e+002, 2.424384e+006
9.185418e+002, 2.422858e+006
9.190239e+002, 2.422987e+006
9.195060e+002, 2.423944e+006
9.199882e+002, 2.424112e+006
9.204703e+002, 2.422122e+006
9.209524e+002, 2.420329e+006
9.214345e+002, 2.418874e+006
9.219166e+002, 2.417930e+006
9.223987e+002, 2.417996e+006
9.228809e+002, 2.419145e+006
9.233630e+002, 2.419451e+006
9.238451e+002, 2.418578e+006
9.243272e+002, 2.417403e+006
9.248093e+002, 2.416975e+006
9.252914e+002, 2.416771e+006
9.257736e+002, 2.416063e+006
9.262557e+002, 2.414660e+006
9.267378e+002, 2.413383e+006
9.272199e+002, 2.412733e+006
9.277020e+002, 2.412105e+006
9.281841e+002, 2.411243e+006
9.286663e+002, 2.410172e+006
9.291484e+002, 2.408712e+006
9.296305e+002, 2.406827e+006
9.301126e+002, 2.405353e+006
9.305947e+002, 2.405118e+006
9.310768e+002, 2.405379e+006
9.315590e+002, 2.405167e+006
9.320411e+002, 2.404583e+006
9.325232e+002, 2.404149e+006
9.330053e+002, 2.404862e+006
9.334874e+002, 2.404661e+006
9.339695e+002, 2.402597e+006
9.344517e+002, 2.399532e+006
9.349338e+002, 2.397552e+006
9.354159e+002, 2.396697e+006
9.358980e+002, 2.396075e+006
9.363801e+002, 2.395491e+006
9.368622e+002, 2.395050e+006
9.373444e+002, 2.394873e+006
9.378265e+002, 2.394954e+006
9.383086e+002, 2.395306e+006
9.387907e+002, 2.396082e+006
9.392728e+002, 2.396812e+006
9.397549e+002, 2.397199e+006
9.402371e+002, 2.397688e+006
9.407192e+002, 2.398745e+006
9.412013e+002, 2.400373e+006
9.416834e+002, 2.401597e+006
9.421655e+002, 2.402341e+006
9.426476e+002, 2.403164e+006
9.431298e+002, 2.404263e+006
9.436119e+002, 2.405831e+006
9.440940e+002, 2.408408e+006
9.445761e+002, 2.411965e+006
9.450582e+002, 2.414883e+006
9.455403e+002, 2.416261e+006
9.460225e+002, 2.417558e+006
9.465046e+002, 2.419060e+006
9.469867e+002, 2.420872e+006
9.474688e+002, 2.423270e+006
9.479509e+002, 2.426279e+006
9.484330e+002, 2.430708e+006
9.489152e+002, 2.437328e+006
9.493973e+002, 2.444914e+006
9.498794e+002, 2.452741e+006
9.503615e+002, 2.460585e+006
9.508436e+002, 2.468073e+006
9.513257e+002, 2.479912e+006
9.518079e+002, 2.483862e+006
9.522900e+002, 2.477652e+006
9.527721e+002, 2.465656e+006
9.532542e+002, 2.451349e+006
9.537363e+002, 2.435364e+006
9.542184e+002, 2.422535e+006
9.547006e+002, 2.413451e+006
9.551827e+002, 2.406696e+006
9.556648e+002, 2.402283e+006
9.561469e+002, 2.398741e+006
9.566290e+002, 2.394930e+006
9.571111e+002, 2.390699e+006
9.575933e+002, 2.386252e+006
9.580754e+002, 2.381053e+006
9.585575e+002, 2.376766e+006
9.590396e+002, 2.374532e+006
9.595217e+002, 2.373729e+006
9.600038e+002, 2.371962e+006
9.604860e+002, 2.369487e+006
9.609681e+002, 2.367653e+006
9.614502e+002, 2.367602e+006
9.619323e+002, 2.367965e+006
9.624144e+002, 2.367795e+006
9.628965e+002, 2.367475e+006
9.633787e+002, 2.367950e+006
9.638608e+002, 2.369809e+006
9.643429e+002, 2.370911e+006
9.648250e+002, 2.370927e+006
9.653071e+002, 2.370283e+006
9.657892e+002, 2.368799e+006
9.662714e+002, 2.367227e+006
9.667535e+002, 2.367989e+006
9.672356e+002, 2.371921e+006
9.677177e+002, 2.374868e+006
9.681998e+002, 2.373470e+006
9.686819e+002, 2.371085e+006
9.691641e+002, 2.370242e+006
9.696462e+002, 2.371140e+006
9.701283e+002, 2.370954e+006
9.706104e+002, 2.369524e+006
9.710925e+002, 2.367873e+006
9.715746e+002, 2.366508e+006
9.720568e+002, 2.365330e+006
9.725389e+002, 2.364186e+006
9.730210e+002, 2.363059e+006
9.735031e+002, 2.361934e+006
9.739852e+002, 2.360599e+006
9.744673e+002, 2.359514e+006
9.749495e+002, 2.358882e+006
9.754316e+002, 2.358554e+006
9.759137e+002, 2.358350e+006
9.763958e+002, 2.358299e+006
9.768779e+002, 2.358161e+006
9.773600e+002, 2.357866e+006
9.778422e+002, 2.357724e+006
9.783243e+002, 2.358501e+006
9.788064e+002, 2.359434e+006
9.792885e+002, 2.359388e+006
9.797706e+002, 2.357903e+006
9.802527e+002, 2.356901e+006
9.807349e+002, 2.356637e+006
9.812170e+002, 2.356962e+006
9.816991e+002, 2.357951e+006
9.821812e+002, 2.359480e+006
9.826633e+002, 2.360645e+006
9.831454e+002, 2.361456e+006
9.836276e+002, 2.362260e+006
9.841097e+002, 2.363010e+006
9.845918e+002, 2.364018e+006
9.850739e+002, 2.365753e+006
9.855560e+002, 2.367893e+006
9.860381e+002, 2.369576e+006
9.865203e+002, 2.370502e+006
9.870024e+002, 2.371463e+006
9.874845e+002, 2.372512e+006
9.879666e+002, 2.373757e+006
9.884487e+002, 2.375169e+006
9.889308e+002, 2.376933e+006
9.894130e+002, 2.379659e+006
9.898951e+002, 2.383539e+006
9.903772e+002, 2.387865e+006
9.908593e+002, 2.392156e+006
9.913414e+002, 2.396821e+006
9.918235e+002, 2.402133e+006
9.923057e+002, 2.408113e+006
9.927878e+002, 2.415674e+006
9.932699e+002, 2.425675e+006
9.937520e+002, 2.432465e+006
9.942341e+002, 2.431913e+006
9.947162e+002, 2.427040e+006
9.951984e+002, 2.421965e+006
9.956805e+002, 2.416855e+006
9.961626e+002, 2.412335e+006
9.966447e+002, 2.408815e+006
9.971268e+002, 2.405689e+006
9.976089e+002, 2.403639e+006
9.980911e+002, 2.401190e+006
9.985732e+002, 2.395953e+006
9.990553e+002, 2.387937e+006
9.995374e+002, 2.380064e+006
1.000020e+003, 2.372744e+006
1.000502e+003, 2.366259e+006
1.000984e+003, 2.360750e+006
1.001466e+003, 2.356423e+006
1.001948e+003, 2.353762e+006
1.002430e+003, 2.352978e+006
1.002912e+003, 2.352209e+006
1.003394e+003, 2.351461e+006
1.003876e+003, 2.350397e+006
1.004359e+003, 2.348696e+006
1.004841e+003, 2.346708e+006
1.005323e+003, 2.345673e+006
1.005805e+003, 2.345394e+006
1.006287e+003, 2.345048e+006
1.006769e+003, 2.344210e+006
1.007251e+003, 2.343325e+006
1.007733e+003, 2.342377e+006
1.008216e+003, 2.341666e+006
1.008698e+003, 2.341642e+006
1.009180e+003, 2.342574e+006
1.009662e+003, 2.343128e+006
1.010144e+003, 2.343178e+006
1.010626e+003, 2.343066e+006
1.011108e+003, 2.342988e+006
1.011590e+003, 2.343017e+006
1.012072e+003, 2.343006e+006
1.012555e+003, 2.343006e+006
1.013037e+003, 2.344092e+006
1.013519e+003, 2.347093e+006
1.014001e+003, 2.350712e+006
1.014483e+003, 2.354342e+006
1.014965e+003, 2.358369e+006
1.015447e+003, 2.364472e+006
1.015929e+003, 2.372460e+006
1.016411e+003, 2.380069e+006
1.016894e+003, 2.386640e+006
1.017376e+003, 2.392396e+006
1.017858e+003, 2.397039e+006
1.018340e+003, 2.401151e+006
1.018822e+003, 2.405328e+006
1.019304e+003, 2.409367e+006
1.019786e+003, 2.414297e+006
1.020268e+003, 2.420087e+006
1.020751e+003, 2.426932e+006
1.021233e+003, 2.433759e+006
1.021715e+003, 2.442091e+006
1.022197e+003, 2.455018e+006
1.022679e+003, 2.472846e+006
1.023161e+003, 2.496706e+006
1.023643e+003, 2.526454e+006
1.024125e+003, 2.563170e+006
1.024607e+003, 2.605505e+006
1.025090e+003, 2.655627e+006
1.025572e+003, 2.721066e+006
1.026054e+003, 2.803353e+006
1.026536e+003, 2.893365e+006
1.027018e+003, 2.998090e+006
1.027500e+003, 3.075168e+006
1.027982e+003, 3.081329e+006
1.028464e+003, 3.033377e+006
1.028947e+003, 2.940043e+006
1.029429e+003, 2.790553e+006
1.029911e+003, 2.664040e+006
1.030393e+003, 2.565111e+006
1.030875e+003, 2.488945e+006
1.031357e+003, 2.436999e+006
1.031839e+003, 2.405139e+006
1.032321e+003, 2.382620e+006
1.032803e+003, 2.368854e+006
1.033286e+003, 2.360384e+006
1.033768e+003, 2.359235e+006
1.034250e+003, 2.358996e+006
1.034732e+003, 2.356701e+006
1.035214e+003, 2.353701e+006
1.035696e+003, 2.351907e+006
1.036178e+003, 2.351382e+006
1.036660e+003, 2.351576e+006
1.037143e+003, 2.352490e+006
1.037625e+003, 2.353644e+006
1.038107e+003, 2.354518e+006
1.038589e+003, 2.355401e+006
1.039071e+003, 2.356578e+006
1.039553e+003, 2.358071e+006
1.040035e+003, 2.359953e+006
1.040517e+003, 2.362217e+006
1.041000e+003, 2.364883e+006
1.041482e+003, 2.367892e+006
1.041964e+003, 2.371344e+006
1.042446e+003, 2.375840e+006
1.042928e+003, 2.381019e+006
1.043410e+003, 2.385084e+006
1.043892e+003, 2.387221e+006
1.044374e+003, 2.389111e+006
1.044856e+003, 2.393455e+006
1.045339e+003, 2.396723e+006
1.045821e+003, 2.395687e+006
1.046303e+003, 2.389941e+006
1.046785e+003, 2.382825e+006
1.047267e+003, 2.374216e+006
1.047749e+003, 2.365551e+006
1.048231e+003, 2.357593e+006
1.048713e+003, 2.350449e+006
1.049195e+003, 2.344236e+006
1.049677e+003, 2.338944e+006
1.050160e+003, 2.334740e+006
1.050642e+003, 2.331884e+006
1.051124e+003, 2.329924e+006
1.051606e+003, 2.329055e+006
1.052088e+003, 2.328650e+006
1.052570e+003, 2.327942e+006
1.053052e+003, 2.326972e+006
1.053534e+003, 2.325874e+006
1.054017e+003, 2.324642e+006
1.054499e+003, 2.323696e+006
1.054981e+003, 2.323538e+006
1.055463e+003, 2.323544e+006
1.055945e+003, 2.323519e+006
1.056427e+003, 2.323378e+006
1.056909e+003, 2.322410e+006
1.057391e+003, 2.320547e+006
1.057874e+003, 2.318882e+006
1.058356e+003, 2.317885e+006
1.058838e+003, 2.317106e+006
1.059320e+003, 2.315721e+006
1.059802e+003, 2.314336e+006
1.060284e+003, 2.313790e+006
1.060766e+003, 2.314574e+006
1.061248e+003, 2.315614e+006
1.061730e+003, 2.316900e+006
1.062213e+003, 2.318356e+006
1.062695e+003, 2.320261e+006
1.063177e+003, 2.322239e+006
1.063659e+003, 2.322624e+006
1.064141e+003, 2.321738e+006
1.064623e+003, 2.321177e+006
1.065105e+003, 2.321998e+006
1.065587e+003, 2.322950e+006
1.066070e+003, 2.323642e+006
1.066552e+003, 2.324074e+006
1.067034e+003, 2.324037e+006
1.067516e+003, 2.323475e+006
1.067998e+003, 2.323831e+006
1.068480e+003, 2.325337e+006
1.068962e+003, 2.327031e+006
1.069444e+003, 2.328429e+006
1.069927e+003, 2.329342e+006
1.070409e+003, 2.329508e+006
1.070891e+003, 2.328920e+006
1.071373e+003, 2.328260e+006
1.071855e+003, 2.327425e+006
1.072337e+003, 2.326960e+006
1.072819e+003, 2.327123e+006
1.073301e+003, 2.327634e+006
1.073783e+003, 2.328043e+006
1.074266e+003, 2.328409e+006
1.074748e+003, 2.328833e+006
1.075230e+003, 2.329299e+006
1.075712e+003, 2.329946e+006
1.076194e+003, 2.330990e+006
1.076676e+003, 2.332003e+006
1.077158e+003, 2.332604e+006
1.077640e+003, 2.332878e+006
1.078122e+003, 2.333861e+006
1.078604e+003, 2.335492e+006
1.079087e+003, 2.337301e+006
1.079569e+003, 2.338685e+006
1.080051e+003, 2.340511e+006
1.080533e+003, 2.343099e+006
1.081015e+003, 2.346548e+006
1.081497e+003, 2.351248e+006
1.081979e+003, 2.357752e+006
1.082461e+003, 2.362614e+006
1.082944e+003, 2.365555e+006
1.083426e+003, 2.366941e+006
1.083908e+003, 2.366799e+006
1.084390e+003, 2.365471e+006
1.084872e+003, 2.363232e+006
1.085354e+003, 2.360140e+006
1.085836e+003, 2.356449e+006
1.086318e+003, 2.351011e+006
1.086801e+003, 2.347279e+006
1.087283e+003, 2.346518e+006
1.087765e+003, 2.347183e+006
1.088247e+003, 2.346643e+006
1.088729e+003, 2.345197e+006
1.089211e+003, 2.343531e+006
1.089693e+003, 2.341678e+006
1.090175e+003, 2.340142e+006
1.090657e+003, 2.339450e+006
1.091140e+003, 2.338805e+006
1.091622e+003, 2.337803e+006
1.092104e+003, 2.336457e+006
1.092586e+003, 2.334866e+006
1.093068e+003, 2.333048e+006
1.093550e+003, 2.331291e+006
1.094032e+003, 2.329647e+006
1.094514e+003, 2.328198e+006
1.094997e+003, 2.326938e+006
1.095479e+003, 2.325962e+006
1.095961e+003, 2.325391e+006
1.096443e+003, 2.325296e+006
1.096925e+003, 2.325342e+006
1.097407e+003, 2.325538e+006
1.097889e+003, 2.325820e+006
1.098371e+003, 2.326011e+006
1.098854e+003, 2.326342e+006
1.099336e+003, 2.327471e+006
1.099818e+003, 2.329053e+006
1.100300e+003, 2.329733e+006
1.100782e+003, 2.328478e+006
1.101264e+003, 2.327533e+006
1.101746e+003, 2.327191e+006
1.102228e+003, 2.327213e+006
1.102710e+003, 2.327340e+006
1.103193e+003, 2.327590e+006
1.103675e+003, 2.327922e+006
1.104157e+003, 2.328349e+006
1.104639e+003, 2.329228e+006
1.105121e+003, 2.331899e+006
1.105603e+003, 2.333638e+006
1.106085e+003, 2.332947e+006
1.106567e+003, 2.330885e+006
1.107049e+003, 2.330836e+006
1.107531e+003, 2.332566e+006
1.108014e+003, 2.334225e+006
1.108496e+003, 2.335234e+006
1.108978e+003, 2.336347e+006
1.109460e+003, 2.338103e+006
1.109942e+003, 2.340157e+006
1.110424e+003, 2.342453e+006
1.110906e+003, 2.345052e+006
1.111388e+003, 2.345690e+006
1.111871e+003, 2.344222e+006
1.112353e+003, 2.342750e+006
1.112835e+003, 2.342541e+006
1.113317e+003, 2.342594e+006
1.113799e+003, 2.341621e+006
1.114281e+003, 2.340248e+006
1.114763e+003, 2.339549e+006
1.115245e+003, 2.340508e+006
1.115728e+003, 2.340427e+006
1.116210e+003, 2.339035e+006
1.116692e+003, 2.337617e+006
1.117174e+003, 2.337294e+006
1.117656e+003, 2.337670e+006
1.118138e+003, 2.338213e+006
1.118620e+003, 2.338817e+006
1.119102e+003, 2.339152e+006
1.119584e+003, 2.338775e+006
1.120067e+003, 2.338451e+006
1.120549e+003, 2.338105e+006
1.121031e+003, 2.338037e+006
1.121513e+003, 2.339199e+006
1.121995e+003, 2.340949e+006
1.122477e+003, 2.340784e+006
1.122959e+003, 2.338504e+006
1.123441e+003, 2.336506e+006
1.123924e+003, 2.336405e+006
1.124406e+003, 2.336480e+006
1.124888e+003, 2.335898e+006
1.125370e+003, 2.335007e+006
1.125852e+003, 2.334886e+006
1.126334e+003, 2.335476e+006
1.126816e+003, 2.335817e+006
1.127298e+003, 2.335704e+006
1.127781e+003, 2.335407e+006
1.128263e+003, 2.335011e+006
1.128745e+003, 2.334645e+006
1.129227e+003, 2.334442e+006
1.129709e+003, 2.334399e+006
1.130191e+003, 2.334165e+006
1.130673e+003, 2.333685e+006
1.131155e+003, 2.333871e+006
1.131637e+003, 2.335298e+006
1.132120e+003, 2.337137e+006
1.132602e+003, 2.338464e+006
1.133084e+003, 2.339651e+006
1.133566e+003, 2.341243e+006
1.134048e+003, 2.343549e+006
1.134530e+003, 2.345367e+006
1.135012e+003, 2.346672e+006
1.135494e+003, 2.347519e+006
1.135976e+003, 2.347483e+006
1.136458e+003, 2.347333e+006
1.136941e+003, 2.348746e+006
1.137423e+003, 2.351030e+006
1.137905e+003, 2.352477e+006
1.138387e+003, 2.351847e+006
1.138869e+003, 2.351446e+006
1.139351e+003, 2.351243e+006
1.139833e+003, 2.351593e+006
1.140315e+003, 2.353300e+006
1.140798e+003, 2.355676e+006
1.141280e+003, 2.357113e+006
1.141762e+003, 2.357622e+006
1.142244e+003, 2.357724e+006
1.142726e+003, 2.357108e+006
1.143208e+003, 2.356798e+006
1.143690e+003, 2.357140e+006
1.144172e+003, 2.357719e+006
1.144655e+003, 2.357849e+006
1.145137e+003, 2.357677e+006
1.145619e+003, 2.357930e+006
1.146101e+003, 2.358721e+006
1.146583e+003, 2.359209e+006
1.147065e+003, 2.358171e+006
1.147547e+003, 2.357679e+006
1.148029e+003, 2.359063e+006
1.148511e+003, 2.361501e+006
1.148994e+003, 2.362483e+006
1.149476e+003, 2.362186e+006
1.149958e+003, 2.362018e+006
1.150440e+003, 2.362173e+006
1.150922e+003, 2.363140e+006
1.151404e+003, 2.365888e+006
1.151886e+003, 2.369031e+006
1.152368e+003, 2.371452e+006
1.152851e+003, 2.373207e+006
1.153333e+003, 2.375288e+006
1.153815e+003, 2.377663e+006
1.154297e+003, 2.380087e+006
1.154779e+003, 2.382574e+006
1.155261e+003, 2.384734e+006
1.155743e+003, 2.386386e+006
1.156225e+003, 2.387327e+006
1.156708e+003, 2.387166e+006
1.157190e+003, 2.385861e+006
1.157672e+003, 2.384088e+006
1.158154e+003, 2.381768e+006
1.158636e+003, 2.379844e+006
1.159118e+003, 2.379168e+006
1.159600e+003, 2.378890e+006
1.160082e+003, 2.377970e+006
1.160564e+003, 2.376866e+006
1.161047e+003, 2.376398e+006
1.161529e+003, 2.377142e+006
1.162011e+003, 2.377498e+006
1.162493e+003, 2.377383e+006
1.162975e+003, 2.377332e+006
1.163457e+003, 2.377771e+006
1.163939e+003, 2.378500e+006
1.164421e+003, 2.379220e+006
1.164903e+003, 2.379971e+006
1.165385e+003, 2.380922e+006
1.165868e+003, 2.382364e+006
1.166350e+003, 2.383404e+006
1.166832e+003, 2.383884e+006
1.167314e+003, 2.384055e+006
1.167796e+003, 2.384160e+006
1.168278e+003, 2.384127e+006
1.168760e+003, 2.383634e+006
1.169242e+003, 2.382802e+006
1.169725e+003, 2.382451e+006
1.170207e+003, 2.383348e+006
1.170689e+003, 2.384048e+006
1.171171e+003, 2.384379e+006
1.171653e+003, 2.384417e+006
1.172135e+003, 2.383962e+006
1.172617e+003, 2.383383e+006
1.173099e+003, 2.383631e+006
1.173582e+003, 2.384792e+006
1.174064e+003, 2.385816e+006
1.174546e+003, 2.385728e+006
1.175028e+003, 2.386330e+006
1.175510e+003, 2.388525e+006
1.175992e+003, 2.391073e+006
1.176474e+003, 2.390932e+006
1.176956e+003, 2.389088e+006
1.177438e+003, 2.388578e+006
1.177921e+003, 2.390142e+006
1.178403e+003, 2.391466e+006
1.178885e+003, 2.390714e+006
1.179367e+003, 2.390670e+006
1.179849e+003, 2.392801e+006
1.180331e+003, 2.396191e+006
1.180813e+003, 2.398108e+006
1.181295e+003, 2.398734e+006
1.181778e+003, 2.398503e+006
1.182260e+003, 2.397108e+006
1.182742e+003, 2.396467e+006
1.183224e+003, 2.397850e+006
1.183706e+003, 2.399893e+006
1.184188e+003, 2.401987e+006
1.184670e+003, 2.404068e+006
1.185152e+003, 2.405594e+006
1.185635e+003, 2.406671e+006
1.186117e+003, 2.407965e+006
1.186599e+003, 2.409756e+006
1.187081e+003, 2.411688e+006
1.187563e+003, 2.414236e+006
1.188045e+003, 2.416207e+006
1.188527e+003, 2.416354e+006
1.189009e+003, 2.414918e+006
1.189491e+003, 2.415217e+006
1.189974e+003, 2.417040e+006
1.190456e+003, 2.418800e+006
1.190938e+003, 2.419734e+006
1.191420e+003, 2.420386e+006
1.191902e+003, 2.421263e+006
1.192384e+003, 2.421805e+006
1.192866e+003, 2.421354e+006
1.193348e+003, 2.419879e+006
1.193830e+003, 2.418617e+006
1.194313e+003, 2.417595e+006
1.194795e+003, 2.417142e+006
1.195277e+003, 2.418025e+006
1.195759e+003, 2.418879e+006
1.196241e+003, 2.418742e+006
1.196723e+003, 2.418260e+006
1.197205e+003, 2.418343e+006
1.197687e+003, 2.419031e+006
1.198169e+003, 2.419119e+006
1.198652e+003, 2.418594e+006
1.199134e+003, 2.418180e+006
1.199616e+003, 2.418514e+006
1.200098e+003, 2.418983e+006
1.200580e+003, 2.419265e+006
1.201062e+003, 2.419445e+006
1.201544e+003, 2.419610e+006
1.202026e+003, 2.419759e+006
1.202509e+003, 2.420178e+006
1.202991e+003, 2.420885e+006
1.203473e+003, 2.421965e+006
1.203955e+003, 2.423765e+006
1.204437e+003, 2.425636e+006
1.204919e+003, 2.427230e+006
1.205401e+003, 2.428533e+006
1.205883e+003, 2.429418e+006
1.206365e+003, 2.429853e+006
1.206848e+003, 2.430601e+006
1.207330e+003, 2.431753e+006
1.207812e+003, 2.433064e+006
1.208294e+003, 2.434300e+006
1.208776e+003, 2.435675e+006
1.209258e+003, 2.437363e+006
1.209740e+003, 2.439312e+006
1.210222e+003, 2.441356e+006
1.210705e+003, 2.443538e+006
1.211187e+003, 2.445910e+006
1.211669e+003, 2.448491e+006
1.212151e+003, 2.451484e+006
1.212633e+003, 2.455338e+006
1.213115e+003, 2.459419e+006
1.213597e+003, 2.462899e+006
1.214079e+003, 2.466214e+006
1.214562e+003, 2.470980e+006
1.215044e+003, 2.477193e+006
1.215526e+003, 2.484244e+006
1.216008e+003, 2.491950e+006
1.216490e+003, 2.501036e+006
1.216972e+003, 2.511514e+006
1.217454e+003, 2.524210e+006
1.217936e+003, 2.540943e+006
1.218418e+003, 2.560294e+006
1.218901e+003, 2.575248e+006
1.219383e+003, 2.585970e+006
1.219865e+003, 2.594001e+006
1.220347e+003, 2.599177e+006
1.220829e+003, 2.604153e+006
1.221311e+003, 2.609212e+006
1.221793e+003, 2.616462e+006
1.222275e+003, 2.629071e+006
1.222757e+003, 2.645617e+006
1.223240e+003, 2.658854e+006
1.223722e+003, 2.668086e+006
1.224204e+003, 2.662429e+006
1.224686e+003, 2.634111e+006
1.225168e+003, 2.602474e+006
1.225650e+003, 2.577387e+006
1.226132e+003, 2.556870e+006
1.226614e+003, 2.539295e+006
1.227096e+003, 2.524472e+006
1.227579e+003, 2.510377e+006
1.228061e+003, 2.497210e+006
1.228543e+003, 2.486749e+006
1.229025e+003, 2.480077e+006
1.229507e+003, 2.475508e+006
1.229989e+003, 2.473386e+006
1.230471e+003, 2.471841e+006
1.230953e+003, 2.469185e+006
1.231436e+003, 2.465654e+006
1.231918e+003, 2.463945e+006
1.232400e+003, 2.463838e+006
1.232882e+003, 2.463983e+006
1.233364e+003, 2.464013e+006
1.233846e+003, 2.463798e+006
1.234328e+003, 2.463290e+006
1.234810e+003, 2.462494e+006
1.235292e+003, 2.461185e+006
1.235775e+003, 2.459555e+006
1.236257e+003, 2.459340e+006
1.236739e+003, 2.460226e+006
1.237221e+003, 2.460448e+006
1.237703e+003, 2.458469e+006
1.238185e+003, 2.456951e+006
1.238667e+003, 2.457057e+006
1.239149e+003, 2.457868e+006
1.239632e+003, 2.458994e+006
1.240114e+003, 2.460303e+006
1.240596e+003, 2.461004e+006
1.241078e+003, 2.461232e+006
1.241560e+003, 2.461631e+006
1.242042e+003, 2.462579e+006
1.242524e+003, 2.463563e+006
1.243006e+003, 2.464316e+006
1.243489e+003, 2.465215e+006
1.243971e+003, 2.466733e+006
1.244453e+003, 2.468635e+006
1.244935e+003, 2.469801e+006
1.245417e+003, 2.470412e+006
1.245899e+003, 2.471099e+006
1.246381e+003, 2.471989e+006
1.246863e+003, 2.473289e+006
1.247345e+003, 2.475300e+006
1.247828e+003, 2.477175e+006
1.248310e+003, 2.477984e+006
1.248792e+003, 2.478164e+006
1.249274e+003, 2.478599e+006
1.249756e+003, 2.479424e+006
1.250238e+003, 2.481003e+006
1.250720e+003, 2.484998e+006
1.251202e+003, 2.487229e+006
1.251684e+003, 2.486858e+006
1.252167e+003, 2.485984e+006
1.252649e+003, 2.486295e+006
1.253131e+003, 2.487418e+006
1.253613e+003, 2.488917e+006
1.254095e+003, 2.490581e+006
1.254577e+003, 2.491806e+006
1.255059e+003, 2.491803e+006
1.255541e+003, 2.492506e+006
1.256023e+003, 2.494077e+006
1.256506e+003, 2.496081e+006
1.256988e+003, 2.498848e+006
1.257470e+003, 2.501357e+006
1.257952e+003, 2.502209e+006
1.258434e+003, 2.501596e+006
1.258916e+003, 2.499925e+006
1.259398e+003, 2.496640e+006
1.259880e+003, 2.494380e+006
1.260363e+003, 2.493343e+006
1.260845e+003, 2.493218e+006
1.261327e+003, 2.494656e+006
1.261809e+003, 2.496108e+006
1.262291e+003, 2.495532e+006
1.262773e+003, 2.493730e+006
1.263255e+003, 2.493050e+006
1.263737e+003, 2.493993e+006
1.264219e+003, 2.493733e+006
1.264702e+003, 2.491971e+006
1.265184e+003, 2.490483e+006
1.265666e+003, 2.491063e+006
1.266148e+003, 2.492038e+006
1.266630e+003, 2.491731e+006
1.267112e+003, 2.491058e+006
1.267594e+003, 2.492172e+006
1.268076e+003, 2.495291e+006
1.268559e+003, 2.496930e+006
1.269041e+003, 2.496874e+006
1.269523e+003, 2.496390e+006
1.270005e+003, 2.496023e+006
1.270487e+003, 2.495842e+006
1.270969e+003, 2.495873e+006
1.271451e+003, 2.496111e+006
1.271933e+003, 2.496524e+006
1.272416e+003, 2.497112e+006
1.272898e+003, 2.498066e+006
1.273380e+003, 2.499375e+006
1.273862e+003, 2.500936e+006
1.274344e+003, 2.503317e+006
1.274826e+003, 2.505091e+006
1.275308e+003, 2.505570e+006
1.275790e+003, 2.505512e+006
1.276272e+003, 2.505636e+006
1.276755e+003, 2.506051e+006
1.277237e+003, 2.507464e+006
1.277719e+003, 2.509724e+006
1.278201e+003, 2.511590e+006
1.278683e+003, 2.512012e+006
1.279165e+003, 2.512657e+006
1.279647e+003, 2.513759e+006
1.280129e+003, 2.515326e+006
1.280611e+003, 2.517581e+006
1.281094e+003, 2.520250e+006
1.281576e+003, 2.522902e+006
1.282058e+003, 2.525470e+006
1.282540e+003, 2.527640e+006
1.283022e+003, 2.528628e+006
1.283504e+003, 2.530548e+006
1.283986e+003, 2.533677e+006
1.284468e+003, 2.537472e+006
1.284950e+003, 2.541536e+006
1.285433e+003, 2.545841e+006
1.285915e+003, 2.550256e+006
1.286397e+003, 2.554826e+006
1.286879e+003, 2.559785e+006
1.287361e+003, 2.565157e+006
1.287843e+003, 2.570607e+006
1.288325e+003, 2.576092e+006
1.288807e+003, 2.581662e+006
1.289290e+003, 2.587803e+006
1.289772e+003, 2.593654e+006
1.290254e+003, 2.599328e+006
1.290736e+003, 2.603736e+006
1.291218e+003, 2.604847e+006
1.291700e+003, 2.602474e+006
1.292182e+003, 2.599160e+006
1.292664e+003, 2.595056e+006
1.293146e+003, 2.590114e+006
1.293629e+003, 2.583812e+006
1.294111e+003, 2.577155e+006
1.294593e+003, 2.570206e+006
1.295075e+003, 2.563624e+006
1.295557e+003, 2.558226e+006
1.296039e+003, 2.554002e+006
1.296521e+003, 2.551004e+006
1.297003e+003, 2.549103e+006
1.297486e+003, 2.547592e+006
1.297968e+003, 2.546538e+006
1.298450e+003, 2.545761e+006
1.298932e+003, 2.545315e+006
1.299414e+003, 2.545114e+006
1.299896e+003, 2.545119e+006
1.300378e+003, 2.545352e+006
1.300860e+003, 2.545601e+006
1.301343e+003, 2.546154e+006
1.301825e+003, 2.548031e+006
##END=



