##NAMES=Carrollite
##RRUFFID=R130024
##IDEAL CHEMISTRY=Cu^1+^Co^3+^_2_S_4_
##LOCALITY=Kisanfu, Katanga, Democratic Republic of the Congo
##OWNER=RRUFF
##SOURCE=Isabel Fay
##DESCRIPTION=Silver metallic, massive, associated with chalcocite, bornite, digenite and magnesite
##STATUS=The identification of this mineral has been confirmed only by single crystal X-ray diffraction.
##URL=rruff.info/R130024
8.936163e+001, 0.000000e+000
8.984375e+001, 2.589768e+002
9.032587e+001, 2.609793e+002
9.080798e+001, 2.613908e+002
9.129010e+001, 2.596662e+002
9.177222e+001, 2.569798e+002
9.225433e+001, 2.547742e+002
9.273645e+001, 2.529860e+002
9.321857e+001, 2.510140e+002
9.370068e+001, 2.484362e+002
9.418280e+001, 2.452947e+002
9.466492e+001, 2.416806e+002
9.514703e+001, 2.368997e+002
9.562915e+001, 2.318038e+002
9.611127e+001, 2.290903e+002
9.659338e+001, 2.291182e+002
9.707550e+001, 2.298225e+002
9.755762e+001, 2.285898e+002
9.803973e+001, 2.253756e+002
9.852185e+001, 2.221281e+002
9.900397e+001, 2.195377e+002
9.948608e+001, 2.176029e+002
9.996820e+001, 2.162441e+002
1.004503e+002, 2.158267e+002
1.009324e+002, 2.155411e+002
1.014146e+002, 2.134011e+002
1.018967e+002, 2.086989e+002
1.023788e+002, 2.041095e+002
1.028609e+002, 2.011059e+002
1.033430e+002, 2.002464e+002
1.038251e+002, 1.992726e+002
1.043073e+002, 1.980438e+002
1.047894e+002, 1.965909e+002
1.052715e+002, 1.951139e+002
1.057536e+002, 1.938147e+002
1.062357e+002, 1.922567e+002
1.067178e+002, 1.900457e+002
1.072000e+002, 1.864174e+002
1.076821e+002, 1.832762e+002
1.081642e+002, 1.809841e+002
1.086463e+002, 1.795991e+002
1.091284e+002, 1.782612e+002
1.096105e+002, 1.775662e+002
1.100927e+002, 1.766544e+002
1.105748e+002, 1.747363e+002
1.110569e+002, 1.696816e+002
1.115390e+002, 1.656115e+002
1.120211e+002, 1.638653e+002
1.125032e+002, 1.652991e+002
1.129854e+002, 1.660438e+002
1.134675e+002, 1.656503e+002
1.139496e+002, 1.642587e+002
1.144317e+002, 1.620548e+002
1.149138e+002, 1.574493e+002
1.153959e+002, 1.532588e+002
1.158781e+002, 1.510161e+002
1.163602e+002, 1.520217e+002
1.168423e+002, 1.526695e+002
1.173244e+002, 1.513278e+002
1.178065e+002, 1.486228e+002
1.182886e+002, 1.461481e+002
1.187708e+002, 1.444172e+002
1.192529e+002, 1.432589e+002
1.197350e+002, 1.426212e+002
1.202171e+002, 1.429524e+002
1.206992e+002, 1.432399e+002
1.211813e+002, 1.428105e+002
1.216635e+002, 1.417462e+002
1.221456e+002, 1.404976e+002
1.226277e+002, 1.393279e+002
1.231098e+002, 1.381453e+002
1.235919e+002, 1.368293e+002
1.240740e+002, 1.353582e+002
1.245562e+002, 1.337147e+002
1.250383e+002, 1.317811e+002
1.255204e+002, 1.295515e+002
1.260025e+002, 1.274200e+002
1.264846e+002, 1.255738e+002
1.269667e+002, 1.240713e+002
1.274489e+002, 1.230585e+002
1.279310e+002, 1.230386e+002
1.284131e+002, 1.234802e+002
1.288952e+002, 1.233568e+002
1.293773e+002, 1.226094e+002
1.298594e+002, 1.214368e+002
1.303416e+002, 1.198382e+002
1.308237e+002, 1.179009e+002
1.313058e+002, 1.161523e+002
1.317879e+002, 1.149418e+002
1.322700e+002, 1.141844e+002
1.327521e+002, 1.134570e+002
1.332343e+002, 1.127024e+002
1.337164e+002, 1.120089e+002
1.341985e+002, 1.115843e+002
1.346806e+002, 1.114527e+002
1.351627e+002, 1.112694e+002
1.356448e+002, 1.109197e+002
1.361270e+002, 1.104082e+002
1.366091e+002, 1.093526e+002
1.370912e+002, 1.074776e+002
1.375733e+002, 1.051410e+002
1.380554e+002, 1.034552e+002
1.385375e+002, 1.025272e+002
1.390197e+002, 1.019302e+002
1.395018e+002, 1.013067e+002
1.399839e+002, 1.005993e+002
1.404660e+002, 1.001723e+002
1.409481e+002, 1.002374e+002
1.414302e+002, 1.007247e+002
1.419124e+002, 1.006914e+002
1.423945e+002, 9.999429e+001
1.428766e+002, 9.897991e+001
1.433587e+002, 9.796956e+001
1.438408e+002, 9.698547e+001
1.443229e+002, 9.597542e+001
1.448051e+002, 9.491965e+001
1.452872e+002, 9.378666e+001
1.457693e+002, 9.272822e+001
1.462514e+002, 9.156761e+001
1.467335e+002, 9.057555e+001
1.472156e+002, 9.012605e+001
1.476978e+002, 9.084538e+001
1.481799e+002, 9.134105e+001
1.486620e+002, 9.125167e+001
1.491441e+002, 9.042409e+001
1.496262e+002, 8.941834e+001
1.501083e+002, 8.798241e+001
1.505905e+002, 8.642281e+001
1.510726e+002, 8.527440e+001
1.515547e+002, 8.481862e+001
1.520368e+002, 8.453954e+001
1.525189e+002, 8.435250e+001
1.530010e+002, 8.468919e+001
1.534832e+002, 8.435093e+001
1.539653e+002, 8.243150e+001
1.544474e+002, 7.973637e+001
1.549295e+002, 7.819914e+001
1.554116e+002, 7.952292e+001
1.558937e+002, 8.099636e+001
1.563759e+002, 8.133670e+001
1.568580e+002, 7.918848e+001
1.573401e+002, 7.748967e+001
1.578222e+002, 7.705893e+001
1.583043e+002, 7.759324e+001
1.587864e+002, 7.797523e+001
1.592686e+002, 7.772050e+001
1.597507e+002, 7.732472e+001
1.602328e+002, 7.710964e+001
1.607149e+002, 7.773038e+001
1.611970e+002, 7.795834e+001
1.616791e+002, 7.709052e+001
1.621613e+002, 7.531743e+001
1.626434e+002, 7.381468e+001
1.631255e+002, 7.313158e+001
1.636076e+002, 7.291164e+001
1.640897e+002, 7.283731e+001
1.645718e+002, 7.319756e+001
1.650540e+002, 7.335668e+001
1.655361e+002, 7.285752e+001
1.660182e+002, 7.172230e+001
1.665003e+002, 7.062255e+001
1.669824e+002, 7.000505e+001
1.674645e+002, 6.959715e+001
1.679467e+002, 6.907057e+001
1.684288e+002, 6.804118e+001
1.689109e+002, 6.702003e+001
1.693930e+002, 6.639812e+001
1.698751e+002, 6.619765e+001
1.703572e+002, 6.613011e+001
1.708394e+002, 6.600759e+001
1.713215e+002, 6.587999e+001
1.718036e+002, 6.583267e+001
1.722857e+002, 6.617656e+001
1.727678e+002, 6.647680e+001
1.732499e+002, 6.620536e+001
1.737321e+002, 6.526240e+001
1.742142e+002, 6.423380e+001
1.746963e+002, 6.359121e+001
1.751784e+002, 6.322933e+001
1.756605e+002, 6.289727e+001
1.761426e+002, 6.248795e+001
1.766248e+002, 6.202959e+001
1.771069e+002, 6.160567e+001
1.775890e+002, 6.125797e+001
1.780711e+002, 6.078452e+001
1.785532e+002, 5.968776e+001
1.790353e+002, 5.818354e+001
1.795175e+002, 5.708698e+001
1.799996e+002, 5.723119e+001
1.804817e+002, 5.803723e+001
1.809638e+002, 5.833070e+001
1.814459e+002, 5.786970e+001
1.819280e+002, 5.715630e+001
1.824102e+002, 5.685544e+001
1.828923e+002, 5.691840e+001
1.833744e+002, 5.700063e+001
1.838565e+002, 5.692125e+001
1.843386e+002, 5.669573e+001
1.848207e+002, 5.635227e+001
1.853029e+002, 5.585915e+001
1.857850e+002, 5.531029e+001
1.862671e+002, 5.480501e+001
1.867492e+002, 5.434974e+001
1.872313e+002, 5.401976e+001
1.877134e+002, 5.387511e+001
1.881956e+002, 5.390252e+001
1.886777e+002, 5.410399e+001
1.891598e+002, 5.461345e+001
1.896419e+002, 5.514117e+001
1.901240e+002, 5.493784e+001
1.906061e+002, 5.396735e+001
1.910883e+002, 5.295834e+001
1.915704e+002, 5.257839e+001
1.920525e+002, 5.274256e+001
1.925346e+002, 5.261374e+001
1.930167e+002, 5.195701e+001
1.934988e+002, 5.093840e+001
1.939810e+002, 4.991339e+001
1.944631e+002, 4.883477e+001
1.949452e+002, 4.804180e+001
1.954273e+002, 4.778817e+001
1.959094e+002, 4.805403e+001
1.963915e+002, 4.794741e+001
1.968737e+002, 4.717456e+001
1.973558e+002, 4.597141e+001
1.978379e+002, 4.518653e+001
1.983200e+002, 4.488808e+001
1.988021e+002, 4.469203e+001
1.992842e+002, 4.426233e+001
1.997664e+002, 4.358992e+001
2.002485e+002, 4.290990e+001
2.007306e+002, 4.225694e+001
2.012127e+002, 4.163242e+001
2.016948e+002, 4.102505e+001
2.021769e+002, 4.043061e+001
2.026591e+002, 3.986257e+001
2.031412e+002, 3.930465e+001
2.036233e+002, 3.872897e+001
2.041054e+002, 3.832917e+001
2.045875e+002, 3.816065e+001
2.050696e+002, 3.820638e+001
2.055518e+002, 3.841462e+001
2.060339e+002, 3.891372e+001
2.065160e+002, 3.929197e+001
2.069981e+002, 3.902568e+001
2.074802e+002, 3.796296e+001
2.079623e+002, 3.699315e+001
2.084445e+002, 3.633201e+001
2.089266e+002, 3.596444e+001
2.094087e+002, 3.562066e+001
2.098908e+002, 3.527066e+001
2.103729e+002, 3.498886e+001
2.108550e+002, 3.491167e+001
2.113372e+002, 3.514204e+001
2.118193e+002, 3.521306e+001
2.123014e+002, 3.497398e+001
2.127835e+002, 3.442759e+001
2.132656e+002, 3.391162e+001
2.137477e+002, 3.339933e+001
2.142299e+002, 3.295057e+001
2.147120e+002, 3.264201e+001
2.151941e+002, 3.248393e+001
2.156762e+002, 3.243304e+001
2.161583e+002, 3.254809e+001
2.166404e+002, 3.285248e+001
2.171226e+002, 3.285292e+001
2.176047e+002, 3.246267e+001
2.180868e+002, 3.187477e+001
2.185689e+002, 3.127581e+001
2.190510e+002, 3.057723e+001
2.195331e+002, 3.007081e+001
2.200153e+002, 2.984262e+001
2.204974e+002, 2.991181e+001
2.209795e+002, 3.006086e+001
2.214616e+002, 3.037507e+001
2.219437e+002, 3.068333e+001
2.224258e+002, 3.077829e+001
2.229080e+002, 3.062970e+001
2.233901e+002, 3.032373e+001
2.238722e+002, 2.979659e+001
2.243543e+002, 2.897021e+001
2.248364e+002, 2.858136e+001
2.253185e+002, 2.886524e+001
2.258007e+002, 2.936837e+001
2.262828e+002, 2.949153e+001
2.267649e+002, 2.900447e+001
2.272470e+002, 2.859019e+001
2.277291e+002, 2.846476e+001
2.282112e+002, 2.867623e+001
2.286934e+002, 2.878580e+001
2.291755e+002, 2.878132e+001
2.296576e+002, 2.868668e+001
2.301397e+002, 2.853807e+001
2.306218e+002, 2.836011e+001
2.311039e+002, 2.807514e+001
2.315861e+002, 2.762328e+001
2.320682e+002, 2.695014e+001
2.325503e+002, 2.645809e+001
2.330324e+002, 2.621741e+001
2.335145e+002, 2.609913e+001
2.339966e+002, 2.592779e+001
2.344788e+002, 2.561755e+001
2.349609e+002, 2.541475e+001
2.354430e+002, 2.542982e+001
2.359251e+002, 2.571835e+001
2.364072e+002, 2.581850e+001
2.368893e+002, 2.561035e+001
2.373715e+002, 2.531259e+001
2.378536e+002, 2.521757e+001
2.383357e+002, 2.548949e+001
2.388178e+002, 2.566832e+001
2.392999e+002, 2.557725e+001
2.397820e+002, 2.514814e+001
2.402642e+002, 2.498572e+001
2.407463e+002, 2.522569e+001
2.412284e+002, 2.561666e+001
2.417105e+002, 2.585641e+001
2.421926e+002, 2.589705e+001
2.426747e+002, 2.587194e+001
2.431569e+002, 2.580196e+001
2.436390e+002, 2.568157e+001
2.441211e+002, 2.554792e+001
2.446032e+002, 2.534898e+001
2.450853e+002, 2.518106e+001
2.455674e+002, 2.517703e+001
2.460496e+002, 2.546524e+001
2.465317e+002, 2.568508e+001
2.470138e+002, 2.578539e+001
2.474959e+002, 2.577500e+001
2.479780e+002, 2.550667e+001
2.484601e+002, 2.477287e+001
2.489423e+002, 2.398443e+001
2.494244e+002, 2.363281e+001
2.499065e+002, 2.399175e+001
2.503886e+002, 2.424676e+001
2.508707e+002, 2.420611e+001
2.513528e+002, 2.385917e+001
2.518350e+002, 2.346520e+001
2.523171e+002, 2.291632e+001
2.527992e+002, 2.244105e+001
2.532813e+002, 2.230831e+001
2.537634e+002, 2.269119e+001
2.542455e+002, 2.304860e+001
2.547277e+002, 2.331190e+001
2.552098e+002, 2.348297e+001
2.556919e+002, 2.340176e+001
2.561740e+002, 2.294465e+001
2.566561e+002, 2.238978e+001
2.571382e+002, 2.199213e+001
2.576204e+002, 2.175221e+001
2.581025e+002, 2.167137e+001
2.585846e+002, 2.182753e+001
2.590667e+002, 2.220094e+001
2.595488e+002, 2.230802e+001
2.600309e+002, 2.200239e+001
2.605131e+002, 2.164203e+001
2.609952e+002, 2.158669e+001
2.614773e+002, 2.200302e+001
2.619594e+002, 2.224837e+001
2.624415e+002, 2.216214e+001
2.629236e+002, 2.178432e+001
2.634058e+002, 2.154685e+001
2.638879e+002, 2.151538e+001
2.643700e+002, 2.150921e+001
2.648521e+002, 2.134953e+001
2.653342e+002, 2.094805e+001
2.658163e+002, 2.070875e+001
2.662985e+002, 2.075741e+001
2.667806e+002, 2.102416e+001
2.672627e+002, 2.110421e+001
2.677448e+002, 2.095633e+001
2.682269e+002, 2.070592e+001
2.687090e+002, 2.041819e+001
2.691912e+002, 2.006355e+001
2.696733e+002, 1.979839e+001
2.701554e+002, 1.968756e+001
2.706375e+002, 1.966836e+001
2.711196e+002, 1.946301e+001
2.716017e+002, 1.900347e+001
2.720839e+002, 1.854667e+001
2.725660e+002, 1.826737e+001
2.730481e+002, 1.817654e+001
2.735302e+002, 1.819190e+001
2.740123e+002, 1.835039e+001
2.744944e+002, 1.858209e+001
2.749766e+002, 1.866306e+001
2.754587e+002, 1.855582e+001
2.759408e+002, 1.844472e+001
2.764229e+002, 1.848764e+001
2.769050e+002, 1.871036e+001
2.773871e+002, 1.874278e+001
2.778693e+002, 1.849559e+001
2.783514e+002, 1.811722e+001
2.788335e+002, 1.796163e+001
2.793156e+002, 1.806332e+001
2.797977e+002, 1.817491e+001
2.802798e+002, 1.814613e+001
2.807620e+002, 1.797631e+001
2.812441e+002, 1.784414e+001
2.817262e+002, 1.776071e+001
2.822083e+002, 1.771273e+001
2.826904e+002, 1.768925e+001
2.831725e+002, 1.769288e+001
2.836547e+002, 1.768136e+001
2.841368e+002, 1.758480e+001
2.846189e+002, 1.742219e+001
2.851010e+002, 1.746053e+001
2.855831e+002, 1.776183e+001
2.860652e+002, 1.810557e+001
2.865474e+002, 1.813222e+001
2.870295e+002, 1.784826e+001
2.875116e+002, 1.756680e+001
2.879937e+002, 1.745268e+001
2.884758e+002, 1.746803e+001
2.889579e+002, 1.739284e+001
2.894401e+002, 1.721732e+001
2.899222e+002, 1.700179e+001
2.904043e+002, 1.680429e+001
2.908864e+002, 1.662581e+001
2.913685e+002, 1.647135e+001
2.918506e+002, 1.630964e+001
2.923328e+002, 1.617766e+001
2.928149e+002, 1.625421e+001
2.932970e+002, 1.655950e+001
2.937791e+002, 1.683049e+001
2.942612e+002, 1.672353e+001
2.947433e+002, 1.632854e+001
2.952255e+002, 1.600335e+001
2.957076e+002, 1.589116e+001
2.961897e+002, 1.590948e+001
2.966718e+002, 1.592734e+001
2.971539e+002, 1.594394e+001
2.976360e+002, 1.592386e+001
2.981182e+002, 1.577483e+001
2.986003e+002, 1.556325e+001
2.990824e+002, 1.545896e+001
2.995645e+002, 1.554735e+001
3.000466e+002, 1.572165e+001
3.005287e+002, 1.587253e+001
3.010109e+002, 1.599203e+001
3.014930e+002, 1.602445e+001
3.019751e+002, 1.580085e+001
3.024572e+002, 1.548536e+001
3.029393e+002, 1.538768e+001
3.034214e+002, 1.565921e+001
3.039036e+002, 1.600826e+001
3.043857e+002, 1.610668e+001
3.048678e+002, 1.600864e+001
3.053499e+002, 1.591328e+001
3.058320e+002, 1.596980e+001
3.063141e+002, 1.608696e+001
3.067963e+002, 1.616611e+001
3.072784e+002, 1.620392e+001
3.077605e+002, 1.616645e+001
3.082426e+002, 1.591893e+001
3.087247e+002, 1.556464e+001
3.092068e+002, 1.535153e+001
3.096890e+002, 1.552682e+001
3.101711e+002, 1.582847e+001
3.106532e+002, 1.607344e+001
3.111353e+002, 1.626309e+001
3.116174e+002, 1.627282e+001
3.120995e+002, 1.585263e+001
3.125817e+002, 1.522215e+001
3.130638e+002, 1.473074e+001
3.135459e+002, 1.458891e+001
3.140280e+002, 1.457494e+001
3.145101e+002, 1.455995e+001
3.149922e+002, 1.453306e+001
3.154744e+002, 1.454173e+001
3.159565e+002, 1.465588e+001
3.164386e+002, 1.480300e+001
3.169207e+002, 1.489919e+001
3.174028e+002, 1.486465e+001
3.178849e+002, 1.482505e+001
3.183671e+002, 1.486368e+001
3.188492e+002, 1.497417e+001
3.193313e+002, 1.500072e+001
3.198134e+002, 1.478174e+001
3.202955e+002, 1.451409e+001
3.207776e+002, 1.435681e+001
3.212598e+002, 1.454475e+001
3.217419e+002, 1.463132e+001
3.222240e+002, 1.441899e+001
3.227061e+002, 1.397801e+001
3.231882e+002, 1.367803e+001
3.236703e+002, 1.374754e+001
3.241525e+002, 1.386791e+001
3.246346e+002, 1.386249e+001
3.251167e+002, 1.359805e+001
3.255988e+002, 1.336446e+001
3.260809e+002, 1.313515e+001
3.265630e+002, 1.294970e+001
3.270452e+002, 1.291654e+001
3.275273e+002, 1.322401e+001
3.280094e+002, 1.352875e+001
3.284915e+002, 1.372101e+001
3.289736e+002, 1.379964e+001
3.294557e+002, 1.376033e+001
3.299379e+002, 1.347593e+001
3.304200e+002, 1.311322e+001
3.309021e+002, 1.295042e+001
3.313842e+002, 1.315720e+001
3.318663e+002, 1.333599e+001
3.323484e+002, 1.336424e+001
3.328306e+002, 1.320910e+001
3.333127e+002, 1.311619e+001
3.337948e+002, 1.310521e+001
3.342769e+002, 1.313873e+001
3.347590e+002, 1.318381e+001
3.352411e+002, 1.326492e+001
3.357233e+002, 1.330126e+001
3.362054e+002, 1.325879e+001
3.366875e+002, 1.314463e+001
3.371696e+002, 1.308452e+001
3.376517e+002, 1.309945e+001
3.381339e+002, 1.312862e+001
3.386160e+002, 1.311554e+001
3.390981e+002, 1.304642e+001
3.395802e+002, 1.300818e+001
3.400623e+002, 1.302788e+001
3.405444e+002, 1.308018e+001
3.410266e+002, 1.306017e+001
3.415087e+002, 1.294592e+001
3.419908e+002, 1.286208e+001
3.424729e+002, 1.290844e+001
3.429550e+002, 1.308353e+001
3.434371e+002, 1.322604e+001
3.439193e+002, 1.332027e+001
3.444014e+002, 1.337977e+001
3.448835e+002, 1.342428e+001
3.453656e+002, 1.345384e+001
3.458477e+002, 1.346848e+001
3.463298e+002, 1.345533e+001
3.468120e+002, 1.342449e+001
3.472941e+002, 1.341987e+001
3.477762e+002, 1.344359e+001
3.482583e+002, 1.348843e+001
3.487404e+002, 1.355179e+001
3.492225e+002, 1.363092e+001
3.497047e+002, 1.371442e+001
3.501868e+002, 1.381173e+001
3.506689e+002, 1.390432e+001
3.511510e+002, 1.395160e+001
3.516331e+002, 1.395404e+001
3.521152e+002, 1.395172e+001
3.525974e+002, 1.395812e+001
3.530795e+002, 1.398554e+001
3.535616e+002, 1.406916e+001
3.540437e+002, 1.428414e+001
3.545258e+002, 1.447440e+001
3.550079e+002, 1.447025e+001
3.554901e+002, 1.429669e+001
3.559722e+002, 1.406805e+001
3.564543e+002, 1.379070e+001
3.569364e+002, 1.352470e+001
3.574185e+002, 1.334222e+001
3.579006e+002, 1.328928e+001
3.583828e+002, 1.323133e+001
3.588649e+002, 1.307378e+001
3.593470e+002, 1.284989e+001
3.598291e+002, 1.262601e+001
3.603112e+002, 1.242672e+001
3.607933e+002, 1.223953e+001
3.612755e+002, 1.205053e+001
3.617576e+002, 1.185505e+001
3.622397e+002, 1.168318e+001
3.627218e+002, 1.152615e+001
3.632039e+002, 1.140576e+001
3.636860e+002, 1.134633e+001
3.641682e+002, 1.137234e+001
3.646503e+002, 1.144295e+001
3.651324e+002, 1.161659e+001
3.656145e+002, 1.188288e+001
3.660966e+002, 1.196464e+001
3.665787e+002, 1.161636e+001
3.670609e+002, 1.119466e+001
3.675430e+002, 1.092808e+001
3.680251e+002, 1.098106e+001
3.685072e+002, 1.101799e+001
3.689893e+002, 1.102239e+001
3.694714e+002, 1.099579e+001
3.699536e+002, 1.093875e+001
3.704357e+002, 1.080306e+001
3.709178e+002, 1.068774e+001
3.713999e+002, 1.063997e+001
3.718820e+002, 1.070118e+001
3.723641e+002, 1.072427e+001
3.728463e+002, 1.071565e+001
3.733284e+002, 1.066465e+001
3.738105e+002, 1.053502e+001
3.742926e+002, 1.026051e+001
3.747747e+002, 1.005753e+001
3.752568e+002, 1.000341e+001
3.757390e+002, 1.009991e+001
3.762211e+002, 1.017041e+001
3.767032e+002, 1.020375e+001
3.771853e+002, 1.023568e+001
3.776674e+002, 1.032556e+001
3.781495e+002, 1.048937e+001
3.786317e+002, 1.056224e+001
3.791138e+002, 1.048990e+001
3.795959e+002, 1.032060e+001
3.800780e+002, 1.019205e+001
3.805601e+002, 1.010574e+001
3.810422e+002, 1.005257e+001
3.815244e+002, 1.004989e+001
3.820065e+002, 1.008370e+001
3.824886e+002, 1.006400e+001
3.829707e+002, 9.965692e+000
3.834528e+002, 9.859005e+000
3.839349e+002, 9.860623e+000
3.844171e+002, 9.951823e+000
3.848992e+002, 1.002924e+001
3.853813e+002, 1.007805e+001
3.858634e+002, 1.007071e+001
3.863455e+002, 9.897548e+000
3.868276e+002, 9.546417e+000
3.873098e+002, 9.266981e+000
3.877919e+002, 9.386715e+000
3.882740e+002, 9.711782e+000
3.887561e+002, 9.890647e+000
3.892382e+002, 9.697984e+000
3.897203e+002, 9.422420e+000
3.902025e+002, 9.302578e+000
3.906846e+002, 9.313117e+000
3.911667e+002, 9.332402e+000
3.916488e+002, 9.313249e+000
3.921309e+002, 9.262299e+000
3.926130e+002, 9.189013e+000
3.930952e+002, 9.110505e+000
3.935773e+002, 8.978158e+000
3.940594e+002, 8.670467e+000
3.945415e+002, 8.304579e+000
3.950236e+002, 8.097904e+000
3.955057e+002, 8.259771e+000
3.959879e+002, 8.467649e+000
3.964700e+002, 8.593415e+000
3.969521e+002, 8.615391e+000
3.974342e+002, 8.636019e+000
3.979163e+002, 8.653155e+000
3.983984e+002, 8.684543e+000
3.988806e+002, 8.746355e+000
3.993627e+002, 8.951878e+000
3.998448e+002, 9.057828e+000
4.003269e+002, 9.000657e+000
4.008090e+002, 8.802553e+000
4.012911e+002, 8.631929e+000
4.017733e+002, 8.474618e+000
4.022554e+002, 8.359412e+000
4.027375e+002, 8.308325e+000
4.032196e+002, 8.354780e+000
4.037017e+002, 8.384049e+000
4.041838e+002, 8.400349e+000
4.046660e+002, 8.394330e+000
4.051481e+002, 8.316769e+000
4.056302e+002, 8.117588e+000
4.061123e+002, 8.035037e+000
4.065944e+002, 8.225040e+000
4.070765e+002, 8.665776e+000
4.075587e+002, 8.826253e+000
4.080408e+002, 8.651023e+000
4.085229e+002, 8.411769e+000
4.090050e+002, 8.429932e+000
4.094871e+002, 8.682569e+000
4.099692e+002, 8.833222e+000
4.104514e+002, 8.787812e+000
4.109335e+002, 8.623221e+000
4.114156e+002, 8.452548e+000
4.118977e+002, 8.283924e+000
4.123798e+002, 8.195526e+000
4.128619e+002, 8.344125e+000
4.133441e+002, 8.591518e+000
4.138262e+002, 8.646329e+000
4.143083e+002, 8.449270e+000
4.147904e+002, 8.193624e+000
4.152725e+002, 8.042769e+000
4.157546e+002, 7.973114e+000
4.162368e+002, 7.932086e+000
4.167189e+002, 7.922724e+000
4.172010e+002, 7.914907e+000
4.176831e+002, 7.856492e+000
4.181652e+002, 7.754601e+000
4.186473e+002, 7.718267e+000
4.191295e+002, 7.901897e+000
4.196116e+002, 8.130600e+000
4.200937e+002, 8.239079e+000
4.205758e+002, 8.080312e+000
4.210579e+002, 7.954794e+000
4.215400e+002, 8.033033e+000
4.220222e+002, 8.218678e+000
4.225043e+002, 8.276055e+000
4.229864e+002, 7.941328e+000
4.234685e+002, 7.651752e+000
4.239506e+002, 7.610417e+000
4.244327e+002, 7.944098e+000
4.249149e+002, 8.136016e+000
4.253970e+002, 8.072659e+000
4.258791e+002, 7.913201e+000
4.263612e+002, 7.810684e+000
4.268433e+002, 7.779908e+000
4.273254e+002, 7.787896e+000
4.278076e+002, 7.859767e+000
4.282897e+002, 7.976640e+000
4.287718e+002, 7.986710e+000
4.292539e+002, 7.840278e+000
4.297360e+002, 7.687718e+000
4.302181e+002, 7.622741e+000
4.307003e+002, 7.657036e+000
4.311824e+002, 7.709754e+000
4.316645e+002, 7.792572e+000
4.321466e+002, 7.866992e+000
4.326287e+002, 7.832346e+000
4.331108e+002, 7.685568e+000
4.335930e+002, 7.611895e+000
4.340751e+002, 7.754756e+000
4.345572e+002, 8.015606e+000
4.350393e+002, 8.016831e+000
4.355214e+002, 7.752148e+000
4.360035e+002, 7.484545e+000
4.364857e+002, 7.479894e+000
4.369678e+002, 7.652487e+000
4.374499e+002, 7.802793e+000
4.379320e+002, 7.899956e+000
4.384141e+002, 7.933872e+000
4.388962e+002, 7.844223e+000
4.393784e+002, 7.673279e+000
4.398605e+002, 7.545214e+000
4.403426e+002, 7.554598e+000
4.408247e+002, 7.617731e+000
4.413068e+002, 7.670414e+000
4.417889e+002, 7.706524e+000
4.422711e+002, 7.734301e+000
4.427532e+002, 7.788058e+000
4.432353e+002, 7.823127e+000
4.437174e+002, 7.793132e+000
4.441995e+002, 7.554792e+000
4.446816e+002, 7.386807e+000
4.451638e+002, 7.399225e+000
4.456459e+002, 7.557604e+000
4.461280e+002, 7.700978e+000
4.466101e+002, 7.893023e+000
4.470922e+002, 7.993324e+000
4.475743e+002, 7.912417e+000
4.480565e+002, 7.525931e+000
4.485386e+002, 7.275800e+000
4.490207e+002, 7.204990e+000
4.495028e+002, 7.245142e+000
4.499849e+002, 7.327034e+000
4.504670e+002, 7.507744e+000
4.509492e+002, 7.597438e+000
4.514313e+002, 7.517860e+000
4.519134e+002, 7.302378e+000
4.523955e+002, 7.209195e+000
4.528776e+002, 7.269423e+000
4.533597e+002, 7.349709e+000
4.538419e+002, 7.348694e+000
4.543240e+002, 7.269090e+000
4.548061e+002, 7.222060e+000
4.552882e+002, 7.219976e+000
4.557703e+002, 7.245604e+000
4.562524e+002, 7.275403e+000
4.567346e+002, 7.310496e+000
4.572167e+002, 7.355978e+000
4.576988e+002, 7.448186e+000
4.581809e+002, 7.537836e+000
4.586630e+002, 7.529352e+000
4.591451e+002, 7.427009e+000
4.596273e+002, 7.298829e+000
4.601094e+002, 7.166102e+000
4.605915e+002, 7.049932e+000
4.610736e+002, 6.981444e+000
4.615557e+002, 6.979056e+000
4.620378e+002, 6.997900e+000
4.625200e+002, 7.035571e+000
4.630021e+002, 7.072116e+000
4.634842e+002, 7.067682e+000
4.639663e+002, 6.881430e+000
4.644484e+002, 6.759141e+000
4.649305e+002, 6.899375e+000
4.654127e+002, 7.333653e+000
4.658948e+002, 7.577034e+000
4.663769e+002, 7.324525e+000
4.668590e+002, 6.967917e+000
4.673411e+002, 6.790926e+000
4.678232e+002, 6.976423e+000
4.683054e+002, 7.121593e+000
4.687875e+002, 7.213608e+000
4.692696e+002, 7.256344e+000
4.697517e+002, 7.249002e+000
4.702338e+002, 7.150346e+000
4.707159e+002, 7.079749e+000
4.711981e+002, 7.097522e+000
4.716802e+002, 7.209817e+000
4.721623e+002, 7.235600e+000
4.726444e+002, 7.148417e+000
4.731265e+002, 7.046094e+000
4.736086e+002, 7.046958e+000
4.740908e+002, 7.148459e+000
4.745729e+002, 7.188147e+000
4.750550e+002, 7.117464e+000
4.755371e+002, 7.000820e+000
4.760192e+002, 6.960879e+000
4.765013e+002, 6.989975e+000
4.769835e+002, 7.028841e+000
4.774656e+002, 7.045511e+000
4.779477e+002, 7.050714e+000
4.784298e+002, 7.073980e+000
4.789119e+002, 7.117774e+000
4.793940e+002, 7.129211e+000
4.798762e+002, 7.032740e+000
4.803583e+002, 6.889426e+000
4.808404e+002, 6.782077e+000
4.813225e+002, 6.764627e+000
4.818046e+002, 6.746256e+000
4.822867e+002, 6.672757e+000
4.827689e+002, 6.561873e+000
4.832510e+002, 6.459085e+000
4.837331e+002, 6.334964e+000
4.842152e+002, 6.260160e+000
4.846973e+002, 6.276197e+000
4.851794e+002, 6.401892e+000
4.856616e+002, 6.533116e+000
4.861437e+002, 6.744844e+000
4.866258e+002, 6.907112e+000
4.871079e+002, 6.907309e+000
4.875900e+002, 6.590608e+000
4.880721e+002, 6.388489e+000
4.885543e+002, 6.380244e+000
4.890364e+002, 6.497665e+000
4.895185e+002, 6.542347e+000
4.900006e+002, 6.491815e+000
4.904827e+002, 6.438076e+000
4.909648e+002, 6.421320e+000
4.914470e+002, 6.439712e+000
4.919291e+002, 6.467453e+000
4.924112e+002, 6.509625e+000
4.928933e+002, 6.535512e+000
4.933754e+002, 6.475684e+000
4.938575e+002, 6.361294e+000
4.943397e+002, 6.347024e+000
4.948218e+002, 6.504992e+000
4.953039e+002, 6.704296e+000
4.957860e+002, 6.757502e+000
4.962681e+002, 6.695973e+000
4.967502e+002, 6.626810e+000
4.972324e+002, 6.621820e+000
4.977145e+002, 6.626132e+000
4.981966e+002, 6.571938e+000
4.986787e+002, 6.455164e+000
4.991608e+002, 6.370364e+000
4.996429e+002, 6.407371e+000
5.001251e+002, 6.477090e+000
5.006072e+002, 6.500709e+000
5.010893e+002, 6.432631e+000
5.015714e+002, 6.354957e+000
5.020535e+002, 6.257035e+000
5.025356e+002, 6.162385e+000
5.030178e+002, 6.123823e+000
5.034999e+002, 6.165759e+000
5.039820e+002, 6.244128e+000
5.044641e+002, 6.380897e+000
5.049462e+002, 6.584088e+000
5.054283e+002, 6.646475e+000
5.059105e+002, 6.518722e+000
5.063926e+002, 6.325734e+000
5.068747e+002, 6.130851e+000
5.073568e+002, 5.915002e+000
5.078389e+002, 5.855546e+000
5.083210e+002, 6.023839e+000
5.088032e+002, 6.261221e+000
5.092853e+002, 6.248654e+000
5.097674e+002, 6.003572e+000
5.102495e+002, 5.817896e+000
5.107316e+002, 5.839170e+000
5.112137e+002, 5.986657e+000
5.116959e+002, 6.103717e+000
5.121780e+002, 6.189469e+000
5.126601e+002, 6.246486e+000
5.131422e+002, 6.290059e+000
5.136243e+002, 6.300234e+000
5.141064e+002, 6.237183e+000
5.145886e+002, 6.072247e+000
5.150707e+002, 5.914401e+000
5.155528e+002, 5.822375e+000
5.160349e+002, 5.782710e+000
5.165170e+002, 5.774186e+000
5.169991e+002, 5.821519e+000
5.174813e+002, 5.867434e+000
5.179634e+002, 5.869567e+000
5.184455e+002, 5.839980e+000
5.189276e+002, 5.878289e+000
5.194097e+002, 6.154322e+000
5.198918e+002, 6.359500e+000
5.203740e+002, 6.346721e+000
5.208561e+002, 6.022307e+000
5.213382e+002, 5.784495e+000
5.218203e+002, 5.639647e+000
5.223024e+002, 5.573971e+000
5.227845e+002, 5.584227e+000
5.232667e+002, 5.684101e+000
5.237488e+002, 5.786158e+000
5.242309e+002, 5.881346e+000
5.247130e+002, 5.959677e+000
5.251951e+002, 5.984188e+000
5.256772e+002, 5.956165e+000
5.261594e+002, 5.933329e+000
5.266415e+002, 5.931212e+000
5.271236e+002, 5.960907e+000
5.276057e+002, 6.090968e+000
5.280878e+002, 6.325281e+000
5.285699e+002, 6.489704e+000
5.290521e+002, 6.362304e+000
5.295342e+002, 6.103137e+000
5.300163e+002, 5.927198e+000
5.304984e+002, 5.930689e+000
5.309805e+002, 5.956271e+000
5.314626e+002, 5.884058e+000
5.319448e+002, 5.776084e+000
5.324269e+002, 5.752604e+000
5.329090e+002, 6.011549e+000
5.333911e+002, 6.201323e+000
5.338732e+002, 6.151942e+000
5.343553e+002, 5.847943e+000
5.348375e+002, 5.664022e+000
5.353196e+002, 5.696961e+000
5.358017e+002, 5.764924e+000
5.362838e+002, 5.756090e+000
5.367659e+002, 5.601174e+000
5.372480e+002, 5.582655e+000
5.377302e+002, 5.766133e+000
5.382123e+002, 5.999207e+000
5.386944e+002, 6.033225e+000
5.391765e+002, 5.853131e+000
5.396586e+002, 5.688524e+000
5.401407e+002, 5.591388e+000
5.406229e+002, 5.559096e+000
5.411050e+002, 5.623669e+000
5.415871e+002, 5.774084e+000
5.420692e+002, 5.898590e+000
5.425513e+002, 5.933321e+000
5.430334e+002, 5.896515e+000
5.435156e+002, 5.785203e+000
5.439977e+002, 5.595020e+000
5.444798e+002, 5.449347e+000
5.449619e+002, 5.495987e+000
5.454440e+002, 5.609765e+000
5.459261e+002, 5.648811e+000
5.464083e+002, 5.494147e+000
5.468904e+002, 5.376700e+000
5.473725e+002, 5.403884e+000
5.478546e+002, 5.521151e+000
5.483367e+002, 5.612276e+000
5.488188e+002, 5.626163e+000
5.493010e+002, 5.648907e+000
5.497831e+002, 5.719490e+000
5.502652e+002, 5.836249e+000
5.507473e+002, 5.871344e+000
5.512294e+002, 5.782637e+000
5.517115e+002, 5.683478e+000
5.521937e+002, 5.654891e+000
5.526758e+002, 5.709114e+000
5.531579e+002, 5.709375e+000
5.536400e+002, 5.636160e+000
5.541221e+002, 5.547267e+000
5.546042e+002, 5.509178e+000
5.550864e+002, 5.521066e+000
5.555685e+002, 5.588769e+000
5.560506e+002, 5.757347e+000
5.565327e+002, 5.925222e+000
5.570148e+002, 5.905501e+000
5.574969e+002, 5.746341e+000
5.579791e+002, 5.628795e+000
5.584612e+002, 5.714911e+000
5.589433e+002, 5.845638e+000
5.594254e+002, 5.894011e+000
5.599075e+002, 5.850720e+000
5.603896e+002, 5.775517e+000
5.608718e+002, 5.629298e+000
5.613539e+002, 5.500117e+000
5.618360e+002, 5.456688e+000
5.623181e+002, 5.588564e+000
5.628002e+002, 5.686131e+000
5.632823e+002, 5.726245e+000
5.637645e+002, 5.731433e+000
5.642466e+002, 5.743289e+000
5.647287e+002, 5.800379e+000
5.652108e+002, 5.768853e+000
5.656929e+002, 5.571925e+000
5.661750e+002, 5.269052e+000
5.666572e+002, 5.140193e+000
5.671393e+002, 5.206122e+000
5.676214e+002, 5.301630e+000
5.681035e+002, 5.322669e+000
5.685856e+002, 5.291525e+000
5.690677e+002, 5.298418e+000
5.695499e+002, 5.347908e+000
5.700320e+002, 5.408410e+000
5.705141e+002, 5.480340e+000
5.709962e+002, 5.535706e+000
5.714783e+002, 5.522445e+000
5.719604e+002, 5.402074e+000
5.724426e+002, 5.264539e+000
5.729247e+002, 5.104943e+000
5.734068e+002, 4.976694e+000
5.738889e+002, 4.971999e+000
5.743710e+002, 5.335695e+000
5.748531e+002, 5.613255e+000
5.753353e+002, 5.565609e+000
5.758174e+002, 5.223820e+000
5.762995e+002, 5.086012e+000
5.767816e+002, 5.332096e+000
5.772637e+002, 5.585540e+000
5.777458e+002, 5.680293e+000
5.782280e+002, 5.586145e+000
5.787101e+002, 5.478304e+000
5.791922e+002, 5.339627e+000
5.796743e+002, 5.224803e+000
5.801564e+002, 5.206973e+000
5.806385e+002, 5.280502e+000
5.811207e+002, 5.353891e+000
5.816028e+002, 5.426229e+000
5.820849e+002, 5.456322e+000
5.825670e+002, 5.319237e+000
5.830491e+002, 5.076267e+000
5.835313e+002, 4.919799e+000
5.840134e+002, 5.034811e+000
5.844955e+002, 5.212003e+000
5.849776e+002, 5.243555e+000
5.854597e+002, 5.155192e+000
5.859418e+002, 5.097730e+000
5.864240e+002, 5.199354e+000
5.869061e+002, 5.308769e+000
5.873882e+002, 5.334183e+000
5.878703e+002, 5.245776e+000
5.883524e+002, 5.149329e+000
5.888345e+002, 4.996797e+000
5.893167e+002, 4.880959e+000
5.897988e+002, 4.884808e+000
5.902809e+002, 5.078646e+000
5.907630e+002, 5.232125e+000
5.912451e+002, 5.325194e+000
5.917272e+002, 5.375009e+000
5.922094e+002, 5.418829e+000
5.926915e+002, 5.458652e+000
5.931736e+002, 5.452184e+000
5.936557e+002, 5.362064e+000
5.941378e+002, 5.231710e+000
5.946199e+002, 5.164280e+000
5.951021e+002, 5.155854e+000
5.955842e+002, 5.169559e+000
5.960663e+002, 5.199743e+000
5.965484e+002, 5.229540e+000
5.970305e+002, 5.227057e+000
5.975126e+002, 5.187865e+000
5.979948e+002, 5.177129e+000
5.984769e+002, 5.276446e+000
5.989590e+002, 5.394832e+000
5.994411e+002, 5.456240e+000
5.999232e+002, 5.442445e+000
6.004053e+002, 5.377203e+000
6.008875e+002, 5.188375e+000
6.013696e+002, 4.976706e+000
6.018517e+002, 4.891062e+000
6.023338e+002, 5.004083e+000
6.028159e+002, 5.102695e+000
6.032980e+002, 5.152142e+000
6.037802e+002, 5.158363e+000
6.042623e+002, 5.117190e+000
6.047444e+002, 5.015196e+000
6.052265e+002, 4.982862e+000
6.057086e+002, 5.158216e+000
6.061907e+002, 5.457944e+000
6.066729e+002, 5.580819e+000
6.071550e+002, 5.529275e+000
6.076371e+002, 5.429765e+000
6.081192e+002, 5.358424e+000
6.086013e+002, 5.309717e+000
6.090834e+002, 5.285260e+000
6.095656e+002, 5.294003e+000
6.100477e+002, 5.287643e+000
6.105298e+002, 5.252073e+000
6.110119e+002, 5.182455e+000
6.114940e+002, 5.072507e+000
6.119761e+002, 4.770938e+000
6.124583e+002, 4.610026e+000
6.129404e+002, 4.738730e+000
6.134225e+002, 5.024472e+000
6.139046e+002, 5.175462e+000
6.143867e+002, 5.128092e+000
6.148688e+002, 5.075079e+000
6.153510e+002, 5.078795e+000
6.158331e+002, 5.124139e+000
6.163152e+002, 5.103908e+000
6.167973e+002, 5.010993e+000
6.172794e+002, 4.923005e+000
6.177615e+002, 4.874834e+000
6.182437e+002, 4.873593e+000
6.187258e+002, 4.964688e+000
6.192079e+002, 5.155309e+000
6.196900e+002, 5.329657e+000
6.201721e+002, 5.402735e+000
6.206542e+002, 5.397027e+000
6.211364e+002, 5.328142e+000
6.216185e+002, 5.156292e+000
6.221006e+002, 5.019621e+000
6.225827e+002, 5.009339e+000
6.230648e+002, 5.060265e+000
6.235469e+002, 5.081303e+000
6.240291e+002, 5.047979e+000
6.245112e+002, 4.992144e+000
6.249933e+002, 4.884124e+000
6.254754e+002, 4.758574e+000
6.259575e+002, 4.749390e+000
6.264396e+002, 4.903297e+000
6.269218e+002, 5.035272e+000
6.274039e+002, 5.058829e+000
6.278860e+002, 4.997766e+000
6.283681e+002, 5.021894e+000
6.288502e+002, 5.136113e+000
6.293323e+002, 5.205482e+000
6.298145e+002, 5.055804e+000
6.302966e+002, 4.808687e+000
6.307787e+002, 4.711059e+000
6.312608e+002, 4.794752e+000
6.317429e+002, 4.910311e+000
6.322250e+002, 4.955820e+000
6.327072e+002, 4.969861e+000
6.331893e+002, 4.997460e+000
6.336714e+002, 5.076031e+000
6.341535e+002, 5.123032e+000
6.346356e+002, 5.093756e+000
6.351177e+002, 5.025946e+000
6.355999e+002, 4.979184e+000
6.360820e+002, 4.957218e+000
6.365641e+002, 4.953256e+000
6.370462e+002, 4.972551e+000
6.375283e+002, 5.007460e+000
6.380104e+002, 5.041607e+000
6.384926e+002, 5.081324e+000
6.389747e+002, 5.079210e+000
6.394568e+002, 4.970367e+000
6.399389e+002, 4.810071e+000
6.404210e+002, 4.824263e+000
6.409031e+002, 5.001961e+000
6.413853e+002, 5.150914e+000
6.418674e+002, 5.080102e+000
6.423495e+002, 4.927691e+000
6.428316e+002, 4.861714e+000
6.433137e+002, 4.906240e+000
6.437958e+002, 4.971862e+000
6.442780e+002, 5.025617e+000
6.447601e+002, 5.073947e+000
6.452422e+002, 5.121521e+000
6.457243e+002, 5.160176e+000
6.462064e+002, 5.213026e+000
6.466885e+002, 5.295100e+000
6.471707e+002, 5.383088e+000
6.476528e+002, 5.453777e+000
6.481349e+002, 5.525434e+000
6.486170e+002, 5.511754e+000
6.490991e+002, 5.363065e+000
6.495812e+002, 5.153926e+000
6.500634e+002, 5.059769e+000
6.505455e+002, 5.074101e+000
6.510276e+002, 5.115557e+000
6.515097e+002, 5.190531e+000
6.519918e+002, 5.243670e+000
6.524739e+002, 5.139344e+000
6.529561e+002, 4.913894e+000
6.534382e+002, 4.750618e+000
6.539203e+002, 4.804230e+000
6.544024e+002, 4.923637e+000
6.548845e+002, 5.014924e+000
6.553666e+002, 5.067581e+000
6.558488e+002, 5.103590e+000
6.563309e+002, 5.110279e+000
6.568130e+002, 5.115157e+000
6.572951e+002, 5.138891e+000
6.577772e+002, 5.204111e+000
6.582593e+002, 5.222001e+000
6.587415e+002, 5.173162e+000
6.592236e+002, 5.108296e+000
6.597057e+002, 5.098688e+000
6.601878e+002, 5.142456e+000
6.606699e+002, 5.130010e+000
6.611520e+002, 5.016296e+000
6.616342e+002, 4.905362e+000
6.621163e+002, 4.978052e+000
6.625984e+002, 5.174363e+000
6.630805e+002, 5.335059e+000
6.635626e+002, 5.356587e+000
6.640447e+002, 5.360527e+000
6.645269e+002, 5.470403e+000
6.650090e+002, 5.635183e+000
6.654911e+002, 5.708694e+000
6.659732e+002, 5.544886e+000
6.664553e+002, 5.381562e+000
6.669374e+002, 5.304104e+000
6.674196e+002, 5.307927e+000
6.679017e+002, 5.336427e+000
6.683838e+002, 5.413816e+000
6.688659e+002, 5.470763e+000
6.693480e+002, 5.457783e+000
6.698301e+002, 5.376488e+000
6.703123e+002, 5.361312e+000
6.707944e+002, 5.422501e+000
6.712765e+002, 5.471047e+000
6.717586e+002, 5.385393e+000
6.722407e+002, 5.234908e+000
6.727228e+002, 5.198764e+000
6.732050e+002, 5.321011e+000
6.736871e+002, 5.424809e+000
6.741692e+002, 5.355806e+000
6.746513e+002, 5.203385e+000
6.751334e+002, 5.063949e+000
6.756155e+002, 4.859762e+000
6.760977e+002, 4.822944e+000
6.765798e+002, 5.238570e+000
6.770619e+002, 5.774752e+000
6.775440e+002, 5.902702e+000
6.780261e+002, 5.330768e+000
6.785082e+002, 4.982879e+000
6.789904e+002, 5.097056e+000
6.794725e+002, 5.473787e+000
6.799546e+002, 5.586085e+000
6.804367e+002, 5.430246e+000
6.809188e+002, 5.244090e+000
6.814009e+002, 5.096538e+000
6.818831e+002, 5.003619e+000
6.823652e+002, 5.025159e+000
6.828473e+002, 5.142264e+000
6.833294e+002, 5.259589e+000
6.838115e+002, 5.362145e+000
6.842936e+002, 5.413419e+000
6.847758e+002, 5.362821e+000
6.852579e+002, 5.209253e+000
6.857400e+002, 5.084711e+000
6.862221e+002, 4.990746e+000
6.867042e+002, 4.966435e+000
6.871863e+002, 5.056279e+000
6.876685e+002, 5.319079e+000
6.881506e+002, 5.418785e+000
6.886327e+002, 5.292302e+000
6.891148e+002, 5.134034e+000
6.895969e+002, 5.139113e+000
6.900790e+002, 5.294144e+000
6.905612e+002, 5.391077e+000
6.910433e+002, 5.405093e+000
6.915254e+002, 5.378848e+000
6.920075e+002, 5.350599e+000
6.924896e+002, 5.319011e+000
6.929717e+002, 5.279931e+000
6.934539e+002, 5.224298e+000
6.939360e+002, 5.177007e+000
6.944181e+002, 5.164639e+000
6.949002e+002, 5.167262e+000
6.953823e+002, 5.153874e+000
6.958644e+002, 5.038032e+000
6.963466e+002, 5.011039e+000
6.968287e+002, 5.176656e+000
6.973108e+002, 5.428244e+000
6.977929e+002, 5.449784e+000
6.982750e+002, 5.158156e+000
6.987571e+002, 4.951632e+000
6.992393e+002, 4.978398e+000
6.997214e+002, 5.168834e+000
7.002035e+002, 5.350285e+000
7.006856e+002, 5.516487e+000
7.011677e+002, 5.602509e+000
7.016498e+002, 5.516448e+000
7.021320e+002, 5.363029e+000
7.026141e+002, 5.223890e+000
7.030962e+002, 5.111227e+000
7.035783e+002, 5.097695e+000
7.040604e+002, 5.323603e+000
7.045425e+002, 5.570693e+000
7.050247e+002, 5.716834e+000
7.055068e+002, 5.740107e+000
7.059889e+002, 5.722010e+000
7.064710e+002, 5.647375e+000
7.069531e+002, 5.551616e+000
7.074352e+002, 5.445737e+000
7.079174e+002, 5.324473e+000
7.083995e+002, 5.265292e+000
7.088816e+002, 5.278463e+000
7.093637e+002, 5.310609e+000
7.098458e+002, 5.300901e+000
7.103279e+002, 5.267318e+000
7.108101e+002, 5.254578e+000
7.112922e+002, 5.272000e+000
7.117743e+002, 5.305258e+000
7.122564e+002, 5.384847e+000
7.127385e+002, 5.457585e+000
7.132206e+002, 5.456171e+000
7.137028e+002, 5.256787e+000
7.141849e+002, 5.129642e+000
7.146670e+002, 5.190367e+000
7.151491e+002, 5.324718e+000
7.156312e+002, 5.378405e+000
7.161133e+002, 5.320697e+000
7.165955e+002, 5.264544e+000
7.170776e+002, 5.224680e+000
7.175597e+002, 5.201999e+000
7.180418e+002, 5.206944e+000
7.185239e+002, 5.236450e+000
7.190060e+002, 5.258113e+000
7.194882e+002, 5.239327e+000
7.199703e+002, 5.227831e+000
7.204524e+002, 5.303375e+000
7.209345e+002, 5.437913e+000
7.214166e+002, 5.550942e+000
7.218987e+002, 5.630097e+000
7.223809e+002, 5.653937e+000
7.228630e+002, 5.572761e+000
7.233451e+002, 5.405374e+000
7.238272e+002, 5.310588e+000
7.243093e+002, 5.333237e+000
7.247914e+002, 5.372169e+000
7.252736e+002, 5.395042e+000
7.257557e+002, 5.402708e+000
7.262378e+002, 5.396814e+000
7.267199e+002, 5.373338e+000
7.272020e+002, 5.371642e+000
7.276841e+002, 5.460873e+000
7.281663e+002, 5.580786e+000
7.286484e+002, 5.571330e+000
7.291305e+002, 5.432732e+000
7.296126e+002, 5.305136e+000
7.300947e+002, 5.269620e+000
7.305768e+002, 5.293929e+000
7.310590e+002, 5.383692e+000
7.315411e+002, 5.573013e+000
7.320232e+002, 5.645244e+000
7.325053e+002, 5.419646e+000
7.329874e+002, 5.180405e+000
7.334695e+002, 5.116290e+000
7.339517e+002, 5.312554e+000
7.344338e+002, 5.359155e+000
7.349159e+002, 5.205924e+000
7.353980e+002, 5.045857e+000
7.358801e+002, 5.118643e+000
7.363622e+002, 5.369433e+000
7.368444e+002, 5.574539e+000
7.373265e+002, 5.700131e+000
7.378086e+002, 5.772377e+000
7.382907e+002, 5.796546e+000
7.387728e+002, 5.788782e+000
7.392549e+002, 5.769707e+000
7.397371e+002, 5.747005e+000
7.402192e+002, 5.709902e+000
7.407013e+002, 5.634607e+000
7.411834e+002, 5.552179e+000
7.416655e+002, 5.499464e+000
7.421476e+002, 5.470973e+000
7.426298e+002, 5.497246e+000
7.431119e+002, 5.615143e+000
7.435940e+002, 5.745157e+000
7.440761e+002, 5.697823e+000
7.445582e+002, 5.497354e+000
7.450403e+002, 5.398630e+000
7.455225e+002, 5.516808e+000
7.460046e+002, 5.702354e+000
7.464867e+002, 5.799769e+000
7.469688e+002, 5.821921e+000
7.474509e+002, 5.795019e+000
7.479330e+002, 5.684793e+000
7.484152e+002, 5.575079e+000
7.488973e+002, 5.485690e+000
7.493794e+002, 5.421281e+000
7.498615e+002, 5.394164e+000
7.503436e+002, 5.403211e+000
7.508257e+002, 5.455187e+000
7.513079e+002, 5.582482e+000
7.517900e+002, 5.742360e+000
7.522721e+002, 5.752045e+000
7.527542e+002, 5.612023e+000
7.532363e+002, 5.486131e+000
7.537184e+002, 5.466413e+000
7.542006e+002, 5.501701e+000
7.546827e+002, 5.508889e+000
7.551648e+002, 5.498030e+000
7.556469e+002, 5.510633e+000
7.561290e+002, 5.655366e+000
7.566111e+002, 5.750206e+000
7.570933e+002, 5.642127e+000
7.575754e+002, 5.345698e+000
7.580575e+002, 5.182805e+000
7.585396e+002, 5.238578e+000
7.590217e+002, 5.326871e+000
7.595038e+002, 5.391265e+000
7.599860e+002, 5.429581e+000
7.604681e+002, 5.390202e+000
7.609502e+002, 5.261523e+000
7.614323e+002, 5.198233e+000
7.619144e+002, 5.396204e+000
7.623965e+002, 5.695258e+000
7.628787e+002, 5.763018e+000
7.633608e+002, 5.610635e+000
7.638429e+002, 5.487637e+000
7.643250e+002, 5.554737e+000
7.648071e+002, 5.695170e+000
7.652892e+002, 5.863412e+000
7.657714e+002, 6.074917e+000
7.662535e+002, 6.145925e+000
7.667356e+002, 5.993427e+000
7.672177e+002, 5.799939e+000
7.676998e+002, 5.650205e+000
7.681819e+002, 5.541388e+000
7.686641e+002, 5.517087e+000
7.691462e+002, 5.583623e+000
7.696283e+002, 5.687676e+000
7.701104e+002, 5.826531e+000
7.705925e+002, 5.959412e+000
7.710746e+002, 5.994798e+000
7.715568e+002, 5.921414e+000
7.720389e+002, 5.829068e+000
7.725210e+002, 5.725106e+000
7.730031e+002, 5.657479e+000
7.734852e+002, 5.673122e+000
7.739673e+002, 5.813392e+000
7.744495e+002, 5.928321e+000
7.749316e+002, 6.036582e+000
7.754137e+002, 6.089362e+000
7.758958e+002, 6.016326e+000
7.763779e+002, 5.798936e+000
7.768600e+002, 5.719066e+000
7.773422e+002, 5.803870e+000
7.778243e+002, 5.914330e+000
7.783064e+002, 5.900795e+000
7.787885e+002, 5.815717e+000
7.792706e+002, 5.767344e+000
7.797527e+002, 5.783809e+000
7.802349e+002, 5.769365e+000
7.807170e+002, 5.581189e+000
7.811991e+002, 5.387544e+000
7.816812e+002, 5.345470e+000
7.821633e+002, 5.592314e+000
7.826454e+002, 5.774957e+000
7.831276e+002, 5.895313e+000
7.836097e+002, 5.949173e+000
7.840918e+002, 5.904500e+000
7.845739e+002, 5.758841e+000
7.850560e+002, 5.677470e+000
7.855381e+002, 5.683845e+000
7.860203e+002, 5.717978e+000
7.865024e+002, 5.711029e+000
7.869845e+002, 5.686770e+000
7.874666e+002, 5.699706e+000
7.879487e+002, 5.790622e+000
7.884308e+002, 5.823753e+000
7.889130e+002, 5.639712e+000
7.893951e+002, 5.413671e+000
7.898772e+002, 5.329091e+000
7.903593e+002, 5.491346e+000
7.908414e+002, 5.631198e+000
7.913235e+002, 5.751698e+000
7.918057e+002, 5.840840e+000
7.922878e+002, 5.866717e+000
7.927699e+002, 5.834668e+000
7.932520e+002, 5.826835e+000
7.937341e+002, 5.858540e+000
7.942162e+002, 5.899774e+000
7.946984e+002, 5.924451e+000
7.951805e+002, 5.935234e+000
7.956626e+002, 5.930924e+000
7.961447e+002, 5.890318e+000
7.966268e+002, 5.883876e+000
7.971089e+002, 5.988651e+000
7.975911e+002, 6.113437e+000
7.980732e+002, 6.153161e+000
7.985553e+002, 6.057177e+000
7.990374e+002, 5.994483e+000
7.995195e+002, 5.977447e+000
8.000016e+002, 5.988555e+000
8.004838e+002, 6.015936e+000
8.009659e+002, 6.054643e+000
8.014480e+002, 6.078551e+000
8.019301e+002, 6.084443e+000
8.024122e+002, 6.068093e+000
8.028943e+002, 5.996071e+000
8.033765e+002, 5.910769e+000
8.038586e+002, 5.869352e+000
8.043407e+002, 5.914332e+000
8.048228e+002, 5.952313e+000
8.053049e+002, 5.951277e+000
8.057870e+002, 5.941967e+000
8.062692e+002, 5.959547e+000
8.067513e+002, 6.018514e+000
8.072334e+002, 6.045195e+000
8.077155e+002, 6.029726e+000
8.081976e+002, 5.989799e+000
8.086797e+002, 5.942166e+000
8.091619e+002, 5.888544e+000
8.096440e+002, 5.823580e+000
8.101261e+002, 5.731657e+000
8.106082e+002, 5.685262e+000
8.110903e+002, 5.811136e+000
8.115724e+002, 5.977083e+000
8.120546e+002, 6.034964e+000
8.125367e+002, 5.863326e+000
8.130188e+002, 5.730006e+000
8.135009e+002, 5.625995e+000
8.139830e+002, 5.585767e+000
8.144651e+002, 5.693463e+000
8.149473e+002, 5.967837e+000
8.154294e+002, 6.061683e+000
8.159115e+002, 5.913684e+000
8.163936e+002, 5.708995e+000
8.168757e+002, 5.658272e+000
8.173578e+002, 5.700908e+000
8.178400e+002, 5.730832e+000
8.183221e+002, 5.721635e+000
8.188042e+002, 5.711905e+000
8.192863e+002, 5.706937e+000
8.197684e+002, 5.717515e+000
8.202505e+002, 5.758699e+000
8.207327e+002, 5.860614e+000
8.212148e+002, 5.918327e+000
8.216969e+002, 5.911134e+000
8.221790e+002, 5.897256e+000
8.226611e+002, 5.965066e+000
8.231432e+002, 6.092505e+000
8.236254e+002, 6.121137e+000
8.241075e+002, 6.026436e+000
8.245896e+002, 5.903700e+000
8.250717e+002, 5.769977e+000
8.255538e+002, 5.693036e+000
8.260359e+002, 5.789938e+000
8.265181e+002, 6.165532e+000
8.270002e+002, 6.409859e+000
8.274823e+002, 6.319268e+000
8.279644e+002, 6.155223e+000
8.284465e+002, 6.086906e+000
8.289286e+002, 6.142167e+000
8.294108e+002, 6.157122e+000
8.298929e+002, 6.124924e+000
8.303750e+002, 6.081370e+000
8.308571e+002, 6.043841e+000
8.313392e+002, 6.023245e+000
8.318214e+002, 6.069773e+000
8.323035e+002, 6.191968e+000
8.327856e+002, 6.257033e+000
8.332677e+002, 6.102444e+000
8.337498e+002, 5.913645e+000
8.342319e+002, 5.838012e+000
8.347141e+002, 5.928128e+000
8.351962e+002, 5.981286e+000
8.356783e+002, 5.983865e+000
8.361604e+002, 5.972058e+000
8.366425e+002, 5.962615e+000
8.371246e+002, 5.956630e+000
8.376068e+002, 5.985312e+000
8.380889e+002, 6.049152e+000
8.385710e+002, 6.087983e+000
8.390531e+002, 6.018693e+000
8.395352e+002, 5.922844e+000
8.400173e+002, 5.887995e+000
8.404995e+002, 5.919804e+000
8.409816e+002, 5.974638e+000
8.414637e+002, 6.091469e+000
8.419458e+002, 6.174589e+000
8.424279e+002, 6.173698e+000
8.429100e+002, 6.090577e+000
8.433922e+002, 6.018412e+000
8.438743e+002, 5.951339e+000
8.443564e+002, 5.927177e+000
8.448385e+002, 6.014803e+000
8.453206e+002, 6.148750e+000
8.458027e+002, 6.167004e+000
8.462849e+002, 6.084289e+000
8.467670e+002, 5.981498e+000
8.472491e+002, 5.841758e+000
8.477312e+002, 5.752173e+000
8.482133e+002, 5.809441e+000
8.486954e+002, 5.990175e+000
8.491776e+002, 6.050431e+000
8.496597e+002, 5.895937e+000
8.501418e+002, 5.806356e+000
8.506239e+002, 5.909695e+000
8.511060e+002, 6.127769e+000
8.515881e+002, 6.193541e+000
8.520703e+002, 6.119233e+000
8.525524e+002, 6.004571e+000
8.530345e+002, 5.821035e+000
8.535166e+002, 5.693017e+000
8.539987e+002, 5.811150e+000
8.544808e+002, 6.074285e+000
8.549630e+002, 6.225992e+000
8.554451e+002, 6.088433e+000
8.559272e+002, 5.950796e+000
8.564093e+002, 5.857581e+000
8.568914e+002, 5.807638e+000
8.573735e+002, 5.803786e+000
8.578557e+002, 5.850035e+000
8.583378e+002, 5.897208e+000
8.588199e+002, 5.939354e+000
8.593020e+002, 5.962594e+000
8.597841e+002, 5.951632e+000
8.602662e+002, 5.905356e+000
8.607484e+002, 5.817244e+000
8.612305e+002, 5.628245e+000
8.617126e+002, 5.482878e+000
8.621947e+002, 5.447098e+000
8.626768e+002, 5.484334e+000
8.631589e+002, 5.543664e+000
8.636411e+002, 5.644382e+000
8.641232e+002, 5.712966e+000
8.646053e+002, 5.740136e+000
8.650874e+002, 5.740193e+000
8.655695e+002, 5.733062e+000
8.660516e+002, 5.714433e+000
8.665338e+002, 5.661563e+000
8.670159e+002, 5.559719e+000
8.674980e+002, 5.475770e+000
8.679801e+002, 5.482249e+000
8.684622e+002, 5.514532e+000
8.689443e+002, 5.506123e+000
8.694265e+002, 5.416753e+000
8.699086e+002, 5.361305e+000
8.703907e+002, 5.351139e+000
8.708728e+002, 5.357909e+000
8.713549e+002, 5.368716e+000
8.718370e+002, 5.380678e+000
8.723192e+002, 5.351991e+000
8.728013e+002, 5.279997e+000
8.732834e+002, 5.207227e+000
8.737655e+002, 5.139760e+000
8.742476e+002, 5.107374e+000
8.747297e+002, 5.170807e+000
8.752119e+002, 5.338876e+000
8.756940e+002, 5.435579e+000
8.761761e+002, 5.334459e+000
8.766582e+002, 5.241053e+000
8.771403e+002, 5.249494e+000
8.776224e+002, 5.348196e+000
8.781046e+002, 5.375546e+000
8.785867e+002, 5.329667e+000
8.790688e+002, 5.256681e+000
8.795509e+002, 5.154982e+000
8.800330e+002, 5.060969e+000
8.805151e+002, 5.045330e+000
8.809973e+002, 5.088176e+000
8.814794e+002, 5.112609e+000
8.819615e+002, 5.081853e+000
8.824436e+002, 5.031639e+000
8.829257e+002, 4.949971e+000
8.834078e+002, 4.861842e+000
8.838900e+002, 4.847044e+000
8.843721e+002, 4.923774e+000
8.848542e+002, 4.977195e+000
8.853363e+002, 4.970904e+000
8.858184e+002, 4.929617e+000
8.863005e+002, 4.868357e+000
8.867827e+002, 4.807434e+000
8.872648e+002, 4.805097e+000
8.877469e+002, 4.955607e+000
8.882290e+002, 5.057564e+000
8.887111e+002, 4.960270e+000
8.891932e+002, 4.785749e+000
8.896754e+002, 4.718948e+000
8.901575e+002, 4.826134e+000
8.906396e+002, 4.870162e+000
8.911217e+002, 4.818098e+000
8.916038e+002, 4.733469e+000
8.920859e+002, 4.701336e+000
8.925681e+002, 4.701391e+000
8.930502e+002, 4.661695e+000
8.935323e+002, 4.563753e+000
8.940144e+002, 4.481437e+000
8.944965e+002, 4.477218e+000
8.949786e+002, 4.504446e+000
8.954608e+002, 4.529073e+000
8.959429e+002, 4.554271e+000
8.964250e+002, 4.540846e+000
8.969071e+002, 4.465968e+000
8.973892e+002, 4.398436e+000
8.978713e+002, 4.391795e+000
8.983535e+002, 4.435776e+000
8.988356e+002, 4.474858e+000
8.993177e+002, 4.508449e+000
8.997998e+002, 4.534072e+000
9.002819e+002, 4.572359e+000
9.007640e+002, 4.584002e+000
9.012462e+002, 4.507230e+000
9.017283e+002, 4.356436e+000
9.022104e+002, 4.283494e+000
9.026925e+002, 4.333320e+000
9.031746e+002, 4.413560e+000
9.036567e+002, 4.515328e+000
9.041389e+002, 4.618971e+000
9.046210e+002, 4.666652e+000
9.051031e+002, 4.659402e+000
9.055852e+002, 4.606341e+000
9.060673e+002, 4.480581e+000
9.065494e+002, 4.353099e+000
9.070316e+002, 4.282723e+000
9.075137e+002, 4.257512e+000
9.079958e+002, 4.255786e+000
9.084779e+002, 4.306386e+000
9.089600e+002, 4.333002e+000
9.094421e+002, 4.319815e+000
9.099243e+002, 4.290222e+000
9.104064e+002, 4.290500e+000
9.108885e+002, 4.315652e+000
9.113706e+002, 4.265922e+000
9.118527e+002, 4.117561e+000
9.123348e+002, 3.951893e+000
9.128170e+002, 3.789756e+000
9.132991e+002, 3.684608e+000
9.137812e+002, 3.729561e+000
9.142633e+002, 4.000125e+000
9.147454e+002, 4.156182e+000
9.152275e+002, 4.070029e+000
9.157097e+002, 3.950522e+000
9.161918e+002, 3.910774e+000
9.166739e+002, 3.949971e+000
9.171560e+002, 4.040968e+000
9.176381e+002, 4.183913e+000
9.181202e+002, 4.273484e+000
9.186024e+002, 4.181159e+000
9.190845e+002, 4.035470e+000
9.195666e+002, 3.940307e+000
9.200487e+002, 3.909225e+000
9.205308e+002, 3.981161e+000
9.210129e+002, 4.382893e+000
9.214951e+002, 4.622150e+000
9.219772e+002, 4.518890e+000
9.224593e+002, 4.194360e+000
9.229414e+002, 4.005552e+000
9.234235e+002, 3.952017e+000
9.239056e+002, 3.928182e+000
9.243878e+002, 3.881856e+000
9.248699e+002, 3.887373e+000
9.253520e+002, 4.152545e+000
9.258341e+002, 4.490746e+000
9.263162e+002, 4.602831e+000
9.267983e+002, 4.127334e+000
9.272805e+002, 3.848432e+000
9.277626e+002, 3.949542e+000
9.282447e+002, 4.172636e+000
9.287268e+002, 4.257482e+000
9.292089e+002, 4.203263e+000
9.296910e+002, 4.164274e+000
9.301732e+002, 4.155451e+000
9.306553e+002, 4.117422e+000
9.311374e+002, 3.934496e+000
9.316195e+002, 3.729569e+000
9.321016e+002, 3.647511e+000
9.325837e+002, 3.710075e+000
9.330659e+002, 3.788407e+000
9.335480e+002, 3.892722e+000
9.340301e+002, 3.959665e+000
9.345122e+002, 3.952300e+000
9.349943e+002, 3.883348e+000
9.354764e+002, 3.837189e+000
9.359586e+002, 3.813120e+000
9.364407e+002, 3.803664e+000
9.369228e+002, 3.800846e+000
9.374049e+002, 3.814046e+000
9.378870e+002, 3.870062e+000
9.383691e+002, 3.948606e+000
9.388513e+002, 4.001426e+000
9.393334e+002, 4.081316e+000
9.398155e+002, 4.023103e+000
9.402976e+002, 3.694336e+000
9.407797e+002, 3.336302e+000
9.412618e+002, 3.413767e+000
9.417440e+002, 3.884312e+000
9.422261e+002, 4.152839e+000
9.427082e+002, 4.099474e+000
9.431903e+002, 3.955992e+000
9.436724e+002, 3.911814e+000
9.441545e+002, 3.915255e+000
9.446367e+002, 3.915825e+000
9.451188e+002, 3.906202e+000
9.456009e+002, 3.892742e+000
9.460830e+002, 3.899070e+000
9.465651e+002, 3.866341e+000
9.470472e+002, 3.734777e+000
9.475294e+002, 3.522910e+000
9.480115e+002, 3.400465e+000
9.484936e+002, 3.363082e+000
9.489757e+002, 3.369744e+000
9.494578e+002, 3.421699e+000
9.499399e+002, 3.483757e+000
9.504221e+002, 3.533350e+000
9.509042e+002, 3.570715e+000
9.513863e+002, 3.598316e+000
9.518684e+002, 3.621480e+000
9.523505e+002, 3.628292e+000
9.528326e+002, 3.616562e+000
9.533148e+002, 3.587871e+000
9.537969e+002, 3.521474e+000
9.542790e+002, 3.435721e+000
9.547611e+002, 3.415239e+000
9.552432e+002, 3.492123e+000
9.557253e+002, 3.597187e+000
9.562075e+002, 3.703813e+000
9.566896e+002, 3.800483e+000
9.571717e+002, 3.883287e+000
9.576538e+002, 3.974632e+000
9.581359e+002, 3.959870e+000
9.586180e+002, 3.788447e+000
9.591002e+002, 3.637265e+000
9.595823e+002, 3.696163e+000
9.600644e+002, 3.870750e+000
9.605465e+002, 3.824216e+000
9.610286e+002, 3.584757e+000
9.615107e+002, 3.414383e+000
9.619929e+002, 3.523333e+000
9.624750e+002, 3.677734e+000
9.629571e+002, 3.754437e+000
9.634392e+002, 3.773929e+000
9.639213e+002, 3.838268e+000
9.644034e+002, 3.975384e+000
9.648856e+002, 4.033995e+000
9.653677e+002, 3.953110e+000
9.658498e+002, 3.827508e+000
9.663319e+002, 3.821302e+000
9.668140e+002, 3.882438e+000
9.672961e+002, 3.896479e+000
9.677783e+002, 3.806473e+000
9.682604e+002, 3.739623e+000
9.687425e+002, 3.773823e+000
9.692246e+002, 3.827553e+000
9.697067e+002, 3.832031e+000
9.701888e+002, 3.775864e+000
9.706710e+002, 3.766385e+000
9.711531e+002, 3.811670e+000
9.716352e+002, 3.826918e+000
9.721173e+002, 3.717666e+000
9.725994e+002, 3.558127e+000
9.730815e+002, 3.421855e+000
9.735637e+002, 3.318555e+000
9.740458e+002, 3.276156e+000
9.745279e+002, 3.318967e+000
9.750100e+002, 3.415959e+000
9.754921e+002, 3.610180e+000
9.759742e+002, 3.821689e+000
9.764564e+002, 3.817791e+000
9.769385e+002, 3.612129e+000
9.774206e+002, 3.455259e+000
9.779027e+002, 3.408028e+000
9.783848e+002, 3.446193e+000
9.788669e+002, 3.616239e+000
9.793491e+002, 3.825254e+000
9.798312e+002, 3.956841e+000
9.803133e+002, 3.947126e+000
9.807954e+002, 3.979159e+000
9.812775e+002, 4.119667e+000
9.817596e+002, 4.197957e+000
9.822418e+002, 4.031175e+000
9.827239e+002, 3.686093e+000
9.832060e+002, 3.527240e+000
9.836881e+002, 3.542621e+000
9.841702e+002, 3.607455e+000
9.846523e+002, 3.670959e+000
9.851345e+002, 3.735676e+000
9.856166e+002, 3.840814e+000
9.860987e+002, 3.948461e+000
9.865808e+002, 3.923264e+000
9.870629e+002, 3.702832e+000
9.875450e+002, 3.552255e+000
9.880272e+002, 3.535217e+000
9.885093e+002, 3.578740e+000
9.889914e+002, 3.584722e+000
9.894735e+002, 3.565621e+000
9.899556e+002, 3.547222e+000
9.904377e+002, 3.537158e+000
9.909199e+002, 3.519326e+000
9.914020e+002, 3.498598e+000
9.918841e+002, 3.455635e+000
9.923662e+002, 3.354620e+000
9.928483e+002, 3.191652e+000
9.933304e+002, 3.188042e+000
9.938126e+002, 3.354144e+000
9.942947e+002, 3.499556e+000
9.947768e+002, 3.470410e+000
9.952589e+002, 3.380075e+000
9.957410e+002, 3.343765e+000
9.962231e+002, 3.359293e+000
9.967053e+002, 3.416046e+000
9.971874e+002, 3.591317e+000
9.976695e+002, 3.693268e+000
9.981516e+002, 3.669431e+000
9.986337e+002, 3.592999e+000
9.991158e+002, 3.563277e+000
9.995980e+002, 3.579656e+000
1.000080e+003, 3.663568e+000
1.000562e+003, 3.833344e+000
1.001044e+003, 3.935581e+000
1.001526e+003, 3.780780e+000
1.002009e+003, 3.561672e+000
1.002491e+003, 3.429328e+000
1.002973e+003, 3.400880e+000
1.003455e+003, 3.447105e+000
1.003937e+003, 3.600089e+000
1.004419e+003, 3.726256e+000
1.004901e+003, 3.760552e+000
1.005383e+003, 3.733101e+000
1.005865e+003, 3.696002e+000
1.006348e+003, 3.652943e+000
1.006830e+003, 3.613350e+000
1.007312e+003, 3.581623e+000
1.007794e+003, 3.554111e+000
1.008276e+003, 3.510291e+000
1.008758e+003, 3.482467e+000
1.009240e+003, 3.514961e+000
1.009722e+003, 3.615687e+000
1.010205e+003, 3.702127e+000
1.010687e+003, 3.772966e+000
1.011169e+003, 3.799901e+000
1.011651e+003, 3.712754e+000
1.012133e+003, 3.600383e+000
1.012615e+003, 3.563320e+000
1.013097e+003, 3.605071e+000
1.013579e+003, 3.640372e+000
1.014061e+003, 3.659908e+000
1.014544e+003, 3.664089e+000
1.015026e+003, 3.652097e+000
1.015508e+003, 3.625289e+000
1.015990e+003, 3.572492e+000
1.016472e+003, 3.504816e+000
1.016954e+003, 3.471017e+000
1.017436e+003, 3.497340e+000
1.017918e+003, 3.530981e+000
1.018401e+003, 3.539530e+000
1.018883e+003, 3.538707e+000
1.019365e+003, 3.545153e+000
1.019847e+003, 3.562167e+000
1.020329e+003, 3.573114e+000
1.020811e+003, 3.578015e+000
1.021293e+003, 3.576875e+000
1.021775e+003, 3.551518e+000
1.022257e+003, 3.530369e+000
1.022740e+003, 3.582748e+000
1.023222e+003, 3.683919e+000
1.023704e+003, 3.738365e+000
1.024186e+003, 3.665890e+000
1.024668e+003, 3.599028e+000
1.025150e+003, 3.550896e+000
1.025632e+003, 3.536054e+000
1.026114e+003, 3.604181e+000
1.026596e+003, 3.740780e+000
1.027079e+003, 3.818438e+000
1.027561e+003, 3.812063e+000
1.028043e+003, 3.785748e+000
1.028525e+003, 3.840113e+000
1.029007e+003, 3.861866e+000
1.029489e+003, 3.687982e+000
1.029971e+003, 3.289883e+000
1.030453e+003, 3.183782e+000
1.030936e+003, 3.462184e+000
1.031418e+003, 3.727318e+000
1.031900e+003, 3.816472e+000
1.032382e+003, 3.784136e+000
1.032864e+003, 3.698292e+000
1.033346e+003, 3.580045e+000
1.033828e+003, 3.478612e+000
1.034310e+003, 3.361234e+000
1.034792e+003, 3.343343e+000
1.035275e+003, 3.541648e+000
1.035757e+003, 3.771683e+000
1.036239e+003, 3.871341e+000
1.036721e+003, 3.840014e+000
1.037203e+003, 3.802136e+000
1.037685e+003, 3.762160e+000
1.038167e+003, 3.717429e+000
1.038649e+003, 3.646461e+000
1.039132e+003, 3.586958e+000
1.039614e+003, 3.587509e+000
1.040096e+003, 3.631397e+000
1.040578e+003, 3.619596e+000
1.041060e+003, 3.492746e+000
1.041542e+003, 3.467322e+000
1.042024e+003, 3.617134e+000
1.042506e+003, 3.809451e+000
1.042989e+003, 3.849565e+000
1.043471e+003, 3.781392e+000
1.043953e+003, 3.679572e+000
1.044435e+003, 3.542085e+000
1.044917e+003, 3.465557e+000
1.045399e+003, 3.521418e+000
1.045881e+003, 3.617142e+000
1.046363e+003, 3.731870e+000
1.046845e+003, 3.851016e+000
1.047328e+003, 3.823598e+000
1.047810e+003, 3.659752e+000
1.048292e+003, 3.540740e+000
1.048774e+003, 3.589841e+000
1.049256e+003, 3.659794e+000
1.049738e+003, 3.597318e+000
1.050220e+003, 3.489327e+000
1.050702e+003, 3.488380e+000
1.051184e+003, 3.710537e+000
1.051667e+003, 3.770240e+000
1.052149e+003, 3.622055e+000
1.052631e+003, 3.434898e+000
1.053113e+003, 3.335383e+000
1.053595e+003, 3.308213e+000
1.054077e+003, 3.339672e+000
1.054559e+003, 3.420605e+000
1.055041e+003, 3.501293e+000
1.055523e+003, 3.602717e+000
1.056006e+003, 3.646039e+000
1.056488e+003, 3.599353e+000
1.056970e+003, 3.496836e+000
1.057452e+003, 3.378992e+000
1.057934e+003, 3.256152e+000
1.058416e+003, 3.250390e+000
1.058898e+003, 3.407228e+000
1.059380e+003, 3.537732e+000
1.059863e+003, 3.433161e+000
1.060345e+003, 3.276751e+000
1.060827e+003, 3.215255e+000
1.061309e+003, 3.258020e+000
1.061791e+003, 3.377153e+000
1.062273e+003, 3.605160e+000
1.062755e+003, 3.749752e+000
1.063237e+003, 3.689102e+000
1.063719e+003, 3.547265e+000
1.064202e+003, 3.529742e+000
1.064684e+003, 3.571549e+000
1.065166e+003, 3.542366e+000
1.065648e+003, 3.289277e+000
1.066130e+003, 3.178812e+000
1.066612e+003, 3.327848e+000
1.067094e+003, 3.500806e+000
1.067576e+003, 3.477064e+000
1.068059e+003, 3.301071e+000
1.068541e+003, 3.241966e+000
1.069023e+003, 3.289625e+000
1.069505e+003, 3.330522e+000
1.069987e+003, 3.309974e+000
1.070469e+003, 3.251758e+000
1.070951e+003, 3.105108e+000
1.071433e+003, 2.951646e+000
1.071916e+003, 2.968756e+000
1.072398e+003, 3.183109e+000
1.072880e+003, 3.327548e+000
1.073362e+003, 3.361701e+000
1.073844e+003, 3.346284e+000
1.074326e+003, 3.333791e+000
1.074808e+003, 3.308997e+000
1.075290e+003, 3.231653e+000
1.075772e+003, 3.100132e+000
1.076255e+003, 3.068074e+000
1.076737e+003, 3.206604e+000
1.077219e+003, 3.291501e+000
1.077701e+003, 3.232897e+000
1.078183e+003, 3.105019e+000
1.078665e+003, 3.041542e+000
1.079147e+003, 3.025837e+000
1.079629e+003, 3.011970e+000
1.080111e+003, 2.964621e+000
1.080594e+003, 2.988201e+000
1.081076e+003, 3.264524e+000
1.081558e+003, 3.478015e+000
1.082040e+003, 3.392918e+000
1.082522e+003, 3.053516e+000
1.083004e+003, 2.945859e+000
1.083486e+003, 3.047540e+000
1.083968e+003, 3.152865e+000
1.084450e+003, 3.158673e+000
1.084933e+003, 3.122032e+000
1.085415e+003, 3.013702e+000
1.085897e+003, 2.914694e+000
1.086379e+003, 2.971505e+000
1.086861e+003, 3.266931e+000
1.087343e+003, 3.369617e+000
1.087825e+003, 3.238991e+000
1.088307e+003, 3.060244e+000
1.088790e+003, 2.975663e+000
1.089272e+003, 2.948274e+000
1.089754e+003, 2.936344e+000
1.090236e+003, 2.939220e+000
1.090718e+003, 2.967872e+000
1.091200e+003, 3.037222e+000
1.091682e+003, 3.113400e+000
1.092164e+003, 3.205456e+000
1.092646e+003, 3.274618e+000
1.093129e+003, 3.253634e+000
1.093611e+003, 3.164026e+000
1.094093e+003, 3.032167e+000
1.094575e+003, 2.854626e+000
1.095057e+003, 2.760169e+000
1.095539e+003, 2.874222e+000
1.096021e+003, 3.017118e+000
1.096503e+003, 3.129802e+000
1.096986e+003, 3.203676e+000
1.097468e+003, 3.187428e+000
1.097950e+003, 3.092752e+000
1.098432e+003, 3.023074e+000
1.098914e+003, 3.021055e+000
1.099396e+003, 3.024918e+000
1.099878e+003, 2.963825e+000
1.100360e+003, 2.905067e+000
1.100843e+003, 2.935809e+000
1.101325e+003, 3.077173e+000
1.101807e+003, 3.074431e+000
1.102289e+003, 2.910966e+000
1.102771e+003, 2.783156e+000
1.103253e+003, 2.850753e+000
1.103735e+003, 2.965233e+000
1.104217e+003, 2.953109e+000
1.104699e+003, 2.858375e+000
1.105182e+003, 2.761657e+000
1.105664e+003, 2.652150e+000
1.106146e+003, 2.596313e+000
1.106628e+003, 2.606334e+000
1.107110e+003, 2.641990e+000
1.107592e+003, 2.674831e+000
1.108074e+003, 2.704344e+000
1.108556e+003, 2.736557e+000
1.109038e+003, 2.767584e+000
1.109521e+003, 2.777993e+000
1.110003e+003, 2.702723e+000
1.110485e+003, 2.693418e+000
1.110967e+003, 2.837650e+000
1.111449e+003, 2.992247e+000
1.111931e+003, 2.868286e+000
1.112413e+003, 2.552779e+000
1.112895e+003, 2.470895e+000
1.113377e+003, 2.675241e+000
1.113860e+003, 2.898363e+000
1.114342e+003, 3.052792e+000
1.114824e+003, 3.099602e+000
1.115306e+003, 2.958353e+000
1.115788e+003, 2.707986e+000
1.116270e+003, 2.608726e+000
1.116752e+003, 2.657480e+000
1.117234e+003, 2.732855e+000
1.117717e+003, 2.816409e+000
1.118199e+003, 2.868011e+000
1.118681e+003, 2.790920e+000
1.119163e+003, 2.707359e+000
1.119645e+003, 2.769194e+000
1.120127e+003, 2.991251e+000
1.120609e+003, 3.055830e+000
1.121091e+003, 2.937962e+000
1.121573e+003, 2.820472e+000
1.122056e+003, 2.788728e+000
1.122538e+003, 2.782648e+000
1.123020e+003, 2.709438e+000
1.123502e+003, 2.613359e+000
1.123984e+003, 2.563018e+000
1.124466e+003, 2.585735e+000
1.124948e+003, 2.639441e+000
1.125430e+003, 2.747153e+000
1.125913e+003, 2.823368e+000
1.126395e+003, 2.771567e+000
1.126877e+003, 2.667124e+000
1.127359e+003, 2.719800e+000
1.127841e+003, 2.864888e+000
1.128323e+003, 2.921621e+000
1.128805e+003, 2.740238e+000
1.129287e+003, 2.577528e+000
1.129770e+003, 2.448759e+000
1.130252e+003, 2.375632e+000
1.130734e+003, 2.404517e+000
1.131216e+003, 2.506704e+000
1.131698e+003, 2.573057e+000
1.132180e+003, 2.600221e+000
1.132662e+003, 2.598659e+000
1.133144e+003, 2.508355e+000
1.133626e+003, 2.471837e+000
1.134109e+003, 2.578150e+000
1.134591e+003, 2.734796e+000
1.135073e+003, 2.790762e+000
1.135555e+003, 2.755862e+000
1.136037e+003, 2.772665e+000
1.136519e+003, 2.859523e+000
1.137001e+003, 2.899383e+000
1.137483e+003, 2.734696e+000
1.137965e+003, 2.566067e+000
1.138448e+003, 2.538987e+000
1.138930e+003, 2.610449e+000
1.139412e+003, 2.663267e+000
1.139894e+003, 2.699943e+000
1.140376e+003, 2.665627e+000
1.140858e+003, 2.537964e+000
1.141340e+003, 2.397152e+000
1.141822e+003, 2.260160e+000
1.142304e+003, 2.186297e+000
1.142787e+003, 2.268912e+000
1.143269e+003, 2.508027e+000
1.143751e+003, 2.651608e+000
1.144233e+003, 2.692680e+000
1.144715e+003, 2.660806e+000
1.145197e+003, 2.541589e+000
1.145679e+003, 2.411469e+000
1.146161e+003, 2.356873e+000
1.146644e+003, 2.359618e+000
1.147126e+003, 2.408483e+000
1.147608e+003, 2.527433e+000
1.148090e+003, 2.579367e+000
1.148572e+003, 2.551831e+000
1.149054e+003, 2.486664e+000
1.149536e+003, 2.375834e+000
1.150018e+003, 2.272640e+000
1.150500e+003, 2.282909e+000
1.150983e+003, 2.368618e+000
1.151465e+003, 2.453705e+000
1.151947e+003, 2.508727e+000
1.152429e+003, 2.587274e+000
1.152911e+003, 2.718594e+000
1.153393e+003, 2.820031e+000
1.153875e+003, 2.833333e+000
1.154357e+003, 2.774426e+000
1.154840e+003, 2.649910e+000
1.155322e+003, 2.487191e+000
1.155804e+003, 2.379205e+000
1.156286e+003, 2.404660e+000
1.156768e+003, 2.424598e+000
1.157250e+003, 2.390784e+000
1.157732e+003, 2.383002e+000
1.158214e+003, 2.530173e+000
1.158697e+003, 2.769043e+000
1.159179e+003, 2.782621e+000
1.159661e+003, 2.603989e+000
1.160143e+003, 2.469758e+000
1.160625e+003, 2.567240e+000
1.161107e+003, 2.637475e+000
1.161589e+003, 2.578432e+000
1.162071e+003, 2.478377e+000
1.162553e+003, 2.452203e+000
1.163036e+003, 2.489130e+000
1.163518e+003, 2.519461e+000
1.164000e+003, 2.536943e+000
1.164482e+003, 2.525616e+000
1.164964e+003, 2.398619e+000
1.165446e+003, 2.330211e+000
1.165928e+003, 2.499974e+000
1.166410e+003, 2.726626e+000
1.166892e+003, 2.596426e+000
1.167375e+003, 2.146490e+000
1.167857e+003, 1.960724e+000
1.168339e+003, 2.122281e+000
1.168821e+003, 2.356560e+000
1.169303e+003, 2.574704e+000
1.169785e+003, 2.695619e+000
1.170267e+003, 2.586961e+000
1.170749e+003, 2.353970e+000
1.171231e+003, 2.311223e+000
1.171714e+003, 2.456514e+000
1.172196e+003, 2.517085e+000
1.172678e+003, 2.424533e+000
1.173160e+003, 2.318793e+000
1.173642e+003, 2.316344e+000
1.174124e+003, 2.351593e+000
1.174606e+003, 2.371900e+000
1.175088e+003, 2.380485e+000
1.175571e+003, 2.421237e+000
1.176053e+003, 2.498302e+000
1.176535e+003, 2.522229e+000
1.177017e+003, 2.452197e+000
1.177499e+003, 2.376886e+000
1.177981e+003, 2.409750e+000
1.178463e+003, 2.459755e+000
1.178945e+003, 2.406662e+000
1.179427e+003, 2.247101e+000
1.179910e+003, 2.256030e+000
1.180392e+003, 2.457584e+000
1.180874e+003, 2.576205e+000
1.181356e+003, 2.472809e+000
1.181838e+003, 2.330422e+000
1.182320e+003, 2.364165e+000
1.182802e+003, 2.458085e+000
1.183284e+003, 2.464951e+000
1.183767e+003, 2.355197e+000
1.184249e+003, 2.301768e+000
1.184731e+003, 2.311514e+000
1.185213e+003, 2.326304e+000
1.185695e+003, 2.305342e+000
1.186177e+003, 2.296571e+000
1.186659e+003, 2.410433e+000
1.187141e+003, 2.548844e+000
1.187624e+003, 2.553035e+000
1.188106e+003, 2.352767e+000
1.188588e+003, 2.225184e+000
1.189070e+003, 2.180355e+000
1.189552e+003, 2.155432e+000
1.190034e+003, 2.103498e+000
1.190516e+003, 2.064110e+000
1.190998e+003, 2.118584e+000
1.191480e+003, 2.210476e+000
1.191963e+003, 2.232130e+000
1.192445e+003, 2.079705e+000
1.192927e+003, 2.108685e+000
1.193409e+003, 2.359025e+000
1.193891e+003, 2.608814e+000
1.194373e+003, 2.728969e+000
1.194855e+003, 2.744869e+000
1.195337e+003, 2.638157e+000
1.195819e+003, 2.461855e+000
1.196302e+003, 2.332027e+000
1.196784e+003, 2.246011e+000
1.197266e+003, 2.276147e+000
1.197748e+003, 2.459916e+000
1.198230e+003, 2.605802e+000
1.198712e+003, 2.499485e+000
1.199194e+003, 2.306891e+000
1.199676e+003, 2.230898e+000
1.200158e+003, 2.256753e+000
1.200641e+003, 2.344409e+000
1.201123e+003, 2.535089e+000
1.201605e+003, 2.676865e+000
1.202087e+003, 2.770902e+000
1.202569e+003, 2.778640e+000
1.203051e+003, 2.562135e+000
1.203533e+003, 2.309553e+000
1.204015e+003, 2.330469e+000
1.204498e+003, 2.539783e+000
1.204980e+003, 2.600837e+000
1.205462e+003, 2.368134e+000
1.205944e+003, 2.236941e+000
1.206426e+003, 2.258035e+000
1.206908e+003, 2.311070e+000
1.207390e+003, 2.278609e+000
1.207872e+003, 2.206344e+000
1.208354e+003, 2.128162e+000
1.208837e+003, 2.059316e+000
1.209319e+003, 2.065442e+000
1.209801e+003, 2.196662e+000
1.210283e+003, 2.278434e+000
1.210765e+003, 2.284007e+000
1.211247e+003, 2.262924e+000
1.211729e+003, 2.254729e+000
1.212211e+003, 2.259338e+000
1.212694e+003, 2.297830e+000
1.213176e+003, 2.356219e+000
1.213658e+003, 2.338745e+000
1.214140e+003, 2.184184e+000
1.214622e+003, 2.131683e+000
1.215104e+003, 2.234052e+000
1.215586e+003, 2.365974e+000
1.216068e+003, 2.376646e+000
1.216551e+003, 2.350497e+000
1.217033e+003, 2.431291e+000
1.217515e+003, 2.593936e+000
1.217997e+003, 2.579621e+000
1.218479e+003, 2.305156e+000
1.218961e+003, 2.107260e+000
1.219443e+003, 2.046352e+000
1.219925e+003, 2.054877e+000
1.220407e+003, 2.071208e+000
1.220890e+003, 2.104156e+000
1.221372e+003, 2.178768e+000
1.221854e+003, 2.287143e+000
1.222336e+003, 2.356687e+000
1.222818e+003, 2.381752e+000
1.223300e+003, 2.374559e+000
1.223782e+003, 2.329470e+000
1.224264e+003, 2.289129e+000
1.224746e+003, 2.322528e+000
1.225229e+003, 2.369450e+000
1.225711e+003, 2.341827e+000
1.226193e+003, 2.250520e+000
1.226675e+003, 2.280860e+000
1.227157e+003, 2.475563e+000
1.227639e+003, 2.549230e+000
1.228121e+003, 2.419111e+000
1.228603e+003, 2.260797e+000
1.229085e+003, 2.254170e+000
1.229568e+003, 2.315263e+000
1.230050e+003, 2.379586e+000
1.230532e+003, 2.438580e+000
1.231014e+003, 2.479238e+000
1.231496e+003, 2.505457e+000
1.231978e+003, 2.468962e+000
1.232460e+003, 2.343869e+000
1.232942e+003, 2.228402e+000
1.233425e+003, 2.232476e+000
1.233907e+003, 2.275157e+000
1.234389e+003, 2.285935e+000
1.234871e+003, 2.267781e+000
1.235353e+003, 2.261981e+000
1.235835e+003, 2.269280e+000
1.236317e+003, 2.273105e+000
1.236799e+003, 2.269591e+000
1.237281e+003, 2.261385e+000
1.237764e+003, 2.246963e+000
1.238246e+003, 2.231946e+000
1.238728e+003, 2.224537e+000
1.239210e+003, 2.220751e+000
1.239692e+003, 2.203917e+000
1.240174e+003, 2.174318e+000
1.240656e+003, 2.125307e+000
1.241138e+003, 2.049696e+000
1.241621e+003, 1.991215e+000
1.242103e+003, 2.010311e+000
1.242585e+003, 2.029748e+000
1.243067e+003, 1.965218e+000
1.243549e+003, 1.866769e+000
1.244031e+003, 1.970575e+000
1.244513e+003, 2.241033e+000
1.244995e+003, 2.373150e+000
1.245478e+003, 2.278282e+000
1.245960e+003, 2.158996e+000
1.246442e+003, 2.130007e+000
1.246924e+003, 2.122072e+000
1.247406e+003, 2.105239e+000
1.247888e+003, 2.073851e+000
1.248370e+003, 1.971616e+000
1.248852e+003, 1.834300e+000
1.249334e+003, 1.833181e+000
1.249817e+003, 2.027821e+000
1.250299e+003, 2.214802e+000
1.250781e+003, 2.316957e+000
1.251263e+003, 2.361353e+000
1.251745e+003, 2.350973e+000
1.252227e+003, 2.300563e+000
1.252709e+003, 2.218326e+000
1.253191e+003, 2.128484e+000
1.253673e+003, 2.109656e+000
1.254156e+003, 2.187216e+000
1.254638e+003, 2.258278e+000
1.255120e+003, 2.279080e+000
1.255602e+003, 2.311218e+000
1.256084e+003, 2.395928e+000
1.256566e+003, 2.472285e+000
1.257048e+003, 2.359964e+000
1.257530e+003, 2.163926e+000
1.258012e+003, 2.139874e+000
1.258495e+003, 2.360893e+000
1.258977e+003, 2.409178e+000
1.259459e+003, 2.137801e+000
1.259941e+003, 1.895749e+000
1.260423e+003, 1.785199e+000
1.260905e+003, 1.776482e+000
1.261387e+003, 1.878242e+000
1.261869e+003, 2.022900e+000
1.262352e+003, 2.109857e+000
1.262834e+003, 2.120740e+000
1.263316e+003, 2.130869e+000
1.263798e+003, 2.152042e+000
1.264280e+003, 2.135655e+000
1.264762e+003, 2.043604e+000
1.265244e+003, 1.983482e+000
1.265726e+003, 2.159228e+000
1.266208e+003, 2.390567e+000
1.266691e+003, 2.463642e+000
1.267173e+003, 2.359688e+000
1.267655e+003, 2.272685e+000
1.268137e+003, 2.199536e+000
1.268619e+003, 2.170327e+000
1.269101e+003, 2.201227e+000
1.269583e+003, 2.242113e+000
1.270065e+003, 2.240977e+000
1.270548e+003, 2.232316e+000
1.271030e+003, 2.267699e+000
1.271512e+003, 2.325217e+000
1.271994e+003, 2.271877e+000
1.272476e+003, 2.112170e+000
1.272958e+003, 2.052606e+000
1.273440e+003, 2.148612e+000
1.273922e+003, 2.274392e+000
1.274405e+003, 2.390758e+000
1.274887e+003, 2.451498e+000
1.275369e+003, 2.401749e+000
1.275851e+003, 2.297021e+000
1.276333e+003, 2.307824e+000
1.276815e+003, 2.407930e+000
1.277297e+003, 2.473003e+000
1.277779e+003, 2.481466e+000
1.278261e+003, 2.424151e+000
1.278744e+003, 2.189118e+000
1.279226e+003, 2.025491e+000
1.279708e+003, 2.044420e+000
1.280190e+003, 2.153961e+000
1.280672e+003, 2.169219e+000
1.281154e+003, 2.132541e+000
1.281636e+003, 2.178945e+000
1.282118e+003, 2.326977e+000
1.282600e+003, 2.381252e+000
1.283083e+003, 2.198431e+000
1.283565e+003, 2.065475e+000
1.284047e+003, 2.050328e+000
1.284529e+003, 2.101837e+000
1.285011e+003, 2.187056e+000
1.285493e+003, 2.269364e+000
1.285975e+003, 2.269391e+000
1.286457e+003, 2.189736e+000
1.286939e+003, 2.181413e+000
1.287422e+003, 2.292357e+000
1.287904e+003, 2.336402e+000
1.288386e+003, 2.264213e+000
1.288868e+003, 2.183539e+000
1.289350e+003, 2.241548e+000
1.289832e+003, 2.325685e+000
1.290314e+003, 2.306333e+000
1.290796e+003, 2.203966e+000
1.291279e+003, 2.161803e+000
1.291761e+003, 2.187395e+000
1.292243e+003, 2.184754e+000
1.292725e+003, 2.137124e+000
1.293207e+003, 2.114455e+000
1.293689e+003, 2.232715e+000
1.294171e+003, 2.334666e+000
1.294653e+003, 2.243903e+000
1.295135e+003, 2.098979e+000
1.295618e+003, 2.193078e+000
1.296100e+003, 2.485436e+000
1.296582e+003, 2.542639e+000
1.297064e+003, 2.337366e+000
1.297546e+003, 2.146947e+000
1.298028e+003, 2.146394e+000
1.298510e+003, 2.172867e+000
1.298992e+003, 2.187165e+000
1.299475e+003, 2.181272e+000
1.299957e+003, 2.104662e+000
1.300439e+003, 2.007582e+000
1.300921e+003, 2.095265e+000
1.301403e+003, 2.329701e+000
1.301885e+003, 2.438095e+000
##END=



