##NAMES=Caryinite
##RRUFFID=R060663
##IDEAL CHEMISTRY=NaCaCaMn^2+^_2_(As^5+^O_4_)_3_
##LOCALITY=Langban, Filipstad, Varmland, Sweden
##OWNER=RRUFF
##SOURCE=Michael Scott
##DESCRIPTION=Brown massive
##STATUS=The identification of this mineral has been confirmed by single-crystal X-ray diffraction.
##URL=rruff.info/R060663
9.059570e+001, 4.556906e+002
9.107782e+001, 4.511325e+002
9.155994e+001, 4.495339e+002
9.204205e+001, 4.529767e+002
9.252417e+001, 4.579720e+002
9.300629e+001, 4.636494e+002
9.348840e+001, 4.671289e+002
9.397052e+001, 4.650059e+002
9.445264e+001, 4.555150e+002
9.493475e+001, 4.433877e+002
9.541687e+001, 4.329824e+002
9.589898e+001, 4.254059e+002
9.638110e+001, 4.191333e+002
9.686321e+001, 4.127796e+002
9.734533e+001, 4.054672e+002
9.782745e+001, 3.968246e+002
9.830956e+001, 3.893213e+002
9.879168e+001, 3.829670e+002
9.927380e+001, 3.774052e+002
9.975591e+001, 3.727503e+002
1.002380e+002, 3.687250e+002
1.007201e+002, 3.647162e+002
1.012023e+002, 3.602237e+002
1.016844e+002, 3.554799e+002
1.021665e+002, 3.513854e+002
1.026486e+002, 3.482027e+002
1.031307e+002, 3.453930e+002
1.036128e+002, 3.424983e+002
1.040950e+002, 3.394639e+002
1.045771e+002, 3.364464e+002
1.050592e+002, 3.332243e+002
1.055413e+002, 3.300031e+002
1.060234e+002, 3.272011e+002
1.065055e+002, 3.251378e+002
1.069877e+002, 3.236313e+002
1.074698e+002, 3.219991e+002
1.079519e+002, 3.204407e+002
1.084340e+002, 3.184035e+002
1.089161e+002, 3.155171e+002
1.093982e+002, 3.119710e+002
1.098804e+002, 3.082536e+002
1.103625e+002, 3.047464e+002
1.108446e+002, 3.014676e+002
1.113267e+002, 2.983654e+002
1.118088e+002, 2.951263e+002
1.122909e+002, 2.922696e+002
1.127731e+002, 2.902235e+002
1.132552e+002, 2.889619e+002
1.137373e+002, 2.879940e+002
1.142194e+002, 2.866130e+002
1.147015e+002, 2.842770e+002
1.151836e+002, 2.825010e+002
1.156658e+002, 2.817126e+002
1.161479e+002, 2.812521e+002
1.166300e+002, 2.805282e+002
1.171121e+002, 2.793328e+002
1.175942e+002, 2.777430e+002
1.180763e+002, 2.758555e+002
1.185584e+002, 2.734993e+002
1.190406e+002, 2.712591e+002
1.195227e+002, 2.692765e+002
1.200048e+002, 2.675358e+002
1.204869e+002, 2.659532e+002
1.209690e+002, 2.644096e+002
1.214511e+002, 2.631336e+002
1.219333e+002, 2.624543e+002
1.224154e+002, 2.626049e+002
1.228975e+002, 2.629446e+002
1.233796e+002, 2.629179e+002
1.238617e+002, 2.624853e+002
1.243438e+002, 2.620122e+002
1.248260e+002, 2.617811e+002
1.253081e+002, 2.615576e+002
1.257902e+002, 2.610775e+002
1.262723e+002, 2.601741e+002
1.267544e+002, 2.590630e+002
1.272365e+002, 2.582208e+002
1.277187e+002, 2.576569e+002
1.282008e+002, 2.573972e+002
1.286829e+002, 2.576407e+002
1.291650e+002, 2.580971e+002
1.296471e+002, 2.583824e+002
1.301292e+002, 2.582417e+002
1.306114e+002, 2.577041e+002
1.310935e+002, 2.571778e+002
1.315756e+002, 2.564901e+002
1.320577e+002, 2.559851e+002
1.325398e+002, 2.559627e+002
1.330219e+002, 2.562337e+002
1.335041e+002, 2.563398e+002
1.339862e+002, 2.558409e+002
1.344683e+002, 2.545847e+002
1.349504e+002, 2.537238e+002
1.354325e+002, 2.535258e+002
1.359146e+002, 2.534246e+002
1.363968e+002, 2.530168e+002
1.368789e+002, 2.522959e+002
1.373610e+002, 2.516258e+002
1.378431e+002, 2.514388e+002
1.383252e+002, 2.518358e+002
1.388073e+002, 2.523188e+002
1.392895e+002, 2.529639e+002
1.397716e+002, 2.536429e+002
1.402537e+002, 2.542682e+002
1.407358e+002, 2.548589e+002
1.412179e+002, 2.552308e+002
1.417000e+002, 2.549362e+002
1.421821e+002, 2.540337e+002
1.426643e+002, 2.533456e+002
1.431464e+002, 2.533506e+002
1.436285e+002, 2.538748e+002
1.441106e+002, 2.542742e+002
1.445927e+002, 2.543130e+002
1.450748e+002, 2.542989e+002
1.455570e+002, 2.545944e+002
1.460391e+002, 2.551968e+002
1.465212e+002, 2.556866e+002
1.470033e+002, 2.556070e+002
1.474854e+002, 2.548847e+002
1.479675e+002, 2.543066e+002
1.484497e+002, 2.541445e+002
1.489318e+002, 2.540943e+002
1.494139e+002, 2.540151e+002
1.498960e+002, 2.538744e+002
1.503781e+002, 2.537050e+002
1.508602e+002, 2.536631e+002
1.513424e+002, 2.541706e+002
1.518245e+002, 2.537992e+002
1.523066e+002, 2.517510e+002
1.527887e+002, 2.493305e+002
1.532708e+002, 2.476082e+002
1.537529e+002, 2.469831e+002
1.542351e+002, 2.470016e+002
1.547172e+002, 2.465332e+002
1.551993e+002, 2.449377e+002
1.556814e+002, 2.435905e+002
1.561635e+002, 2.428429e+002
1.566456e+002, 2.422928e+002
1.571278e+002, 2.414100e+002
1.576099e+002, 2.399094e+002
1.580920e+002, 2.379839e+002
1.585741e+002, 2.364666e+002
1.590562e+002, 2.356683e+002
1.595383e+002, 2.348590e+002
1.600205e+002, 2.337118e+002
1.605026e+002, 2.324116e+002
1.609847e+002, 2.314334e+002
1.614668e+002, 2.311386e+002
1.619489e+002, 2.313341e+002
1.624310e+002, 2.311261e+002
1.629131e+002, 2.301830e+002
1.633953e+002, 2.291913e+002
1.638774e+002, 2.286571e+002
1.643595e+002, 2.285227e+002
1.648416e+002, 2.282074e+002
1.653237e+002, 2.272027e+002
1.658058e+002, 2.257918e+002
1.662880e+002, 2.246489e+002
1.667701e+002, 2.239192e+002
1.672522e+002, 2.234204e+002
1.677343e+002, 2.229623e+002
1.682164e+002, 2.225377e+002
1.686985e+002, 2.221924e+002
1.691807e+002, 2.220333e+002
1.696628e+002, 2.219529e+002
1.701449e+002, 2.218076e+002
1.706270e+002, 2.214776e+002
1.711091e+002, 2.210893e+002
1.715912e+002, 2.209632e+002
1.720734e+002, 2.212514e+002
1.725555e+002, 2.215323e+002
1.730376e+002, 2.217063e+002
1.735197e+002, 2.217620e+002
1.740018e+002, 2.216623e+002
1.744839e+002, 2.213434e+002
1.749661e+002, 2.208573e+002
1.754482e+002, 2.205252e+002
1.759303e+002, 2.204933e+002
1.764124e+002, 2.204668e+002
1.768945e+002, 2.202850e+002
1.773766e+002, 2.200553e+002
1.778588e+002, 2.199752e+002
1.783409e+002, 2.202032e+002
1.788230e+002, 2.207430e+002
1.793051e+002, 2.212526e+002
1.797872e+002, 2.216019e+002
1.802693e+002, 2.220475e+002
1.807515e+002, 2.229145e+002
1.812336e+002, 2.239840e+002
1.817157e+002, 2.246778e+002
1.821978e+002, 2.244235e+002
1.826799e+002, 2.230522e+002
1.831620e+002, 2.224211e+002
1.836441e+002, 2.229254e+002
1.841263e+002, 2.236312e+002
1.846084e+002, 2.241644e+002
1.850905e+002, 2.244823e+002
1.855726e+002, 2.246402e+002
1.860547e+002, 2.246151e+002
1.865368e+002, 2.243554e+002
1.870190e+002, 2.246297e+002
1.875011e+002, 2.258167e+002
1.879832e+002, 2.272405e+002
1.884653e+002, 2.285119e+002
1.889474e+002, 2.295687e+002
1.894296e+002, 2.303652e+002
1.899117e+002, 2.308150e+002
1.903938e+002, 2.309104e+002
1.908759e+002, 2.308412e+002
1.913580e+002, 2.302273e+002
1.918401e+002, 2.296401e+002
1.923223e+002, 2.299135e+002
1.928044e+002, 2.312929e+002
1.932865e+002, 2.327378e+002
1.937686e+002, 2.330353e+002
1.942507e+002, 2.325249e+002
1.947328e+002, 2.321793e+002
1.952150e+002, 2.323496e+002
1.956971e+002, 2.328730e+002
1.961792e+002, 2.334624e+002
1.966613e+002, 2.341425e+002
1.971434e+002, 2.347823e+002
1.976255e+002, 2.352343e+002
1.981077e+002, 2.355671e+002
1.985898e+002, 2.359497e+002
1.990719e+002, 2.366210e+002
1.995540e+002, 2.374548e+002
2.000361e+002, 2.378506e+002
2.005182e+002, 2.374551e+002
2.010004e+002, 2.370871e+002
2.014825e+002, 2.371367e+002
2.019646e+002, 2.375466e+002
2.024467e+002, 2.381731e+002
2.029288e+002, 2.390714e+002
2.034109e+002, 2.402055e+002
2.038930e+002, 2.408886e+002
2.043752e+002, 2.407030e+002
2.048573e+002, 2.404626e+002
2.053394e+002, 2.404676e+002
2.058215e+002, 2.406721e+002
2.063036e+002, 2.409146e+002
2.067857e+002, 2.410625e+002
2.072679e+002, 2.411096e+002
2.077500e+002, 2.411875e+002
2.082321e+002, 2.413269e+002
2.087142e+002, 2.414705e+002
2.091963e+002, 2.415611e+002
2.096784e+002, 2.416325e+002
2.101606e+002, 2.417869e+002
2.106427e+002, 2.421543e+002
2.111248e+002, 2.427919e+002
2.116069e+002, 2.430987e+002
2.120890e+002, 2.427322e+002
2.125711e+002, 2.423856e+002
2.130533e+002, 2.423730e+002
2.135354e+002, 2.426455e+002
2.140175e+002, 2.429666e+002
2.144996e+002, 2.431372e+002
2.149817e+002, 2.431614e+002
2.154638e+002, 2.429602e+002
2.159460e+002, 2.422393e+002
2.164281e+002, 2.416032e+002
2.169102e+002, 2.414433e+002
2.173923e+002, 2.416969e+002
2.178744e+002, 2.419868e+002
2.183565e+002, 2.419866e+002
2.188387e+002, 2.416646e+002
2.193208e+002, 2.411670e+002
2.198029e+002, 2.403627e+002
2.202850e+002, 2.395102e+002
2.207671e+002, 2.387257e+002
2.212492e+002, 2.380285e+002
2.217314e+002, 2.374449e+002
2.222135e+002, 2.370473e+002
2.226956e+002, 2.368429e+002
2.231777e+002, 2.363956e+002
2.236598e+002, 2.354455e+002
2.241419e+002, 2.344444e+002
2.246240e+002, 2.337827e+002
2.251062e+002, 2.334657e+002
2.255883e+002, 2.331525e+002
2.260704e+002, 2.325131e+002
2.265525e+002, 2.316096e+002
2.270346e+002, 2.309307e+002
2.275167e+002, 2.307762e+002
2.279989e+002, 2.306919e+002
2.284810e+002, 2.301799e+002
2.289631e+002, 2.292042e+002
2.294452e+002, 2.282938e+002
2.299273e+002, 2.280571e+002
2.304094e+002, 2.281825e+002
2.308916e+002, 2.277933e+002
2.313737e+002, 2.262482e+002
2.318558e+002, 2.244013e+002
2.323379e+002, 2.232364e+002
2.328200e+002, 2.228206e+002
2.333021e+002, 2.226190e+002
2.337843e+002, 2.225073e+002
2.342664e+002, 2.223518e+002
2.347485e+002, 2.219082e+002
2.352306e+002, 2.209970e+002
2.357127e+002, 2.198702e+002
2.361948e+002, 2.187879e+002
2.366770e+002, 2.176921e+002
2.371591e+002, 2.168646e+002
2.376412e+002, 2.167193e+002
2.381233e+002, 2.168394e+002
2.386054e+002, 2.167710e+002
2.390875e+002, 2.163412e+002
2.395697e+002, 2.157124e+002
2.400518e+002, 2.150956e+002
2.405339e+002, 2.144380e+002
2.410160e+002, 2.139624e+002
2.414981e+002, 2.139859e+002
2.419802e+002, 2.141286e+002
2.424624e+002, 2.139821e+002
2.429445e+002, 2.133532e+002
2.434266e+002, 2.125527e+002
2.439087e+002, 2.121600e+002
2.443908e+002, 2.123663e+002
2.448729e+002, 2.124587e+002
2.453550e+002, 2.120906e+002
2.458372e+002, 2.116092e+002
2.463193e+002, 2.113373e+002
2.468014e+002, 2.113921e+002
2.472835e+002, 2.115764e+002
2.477656e+002, 2.115766e+002
2.482477e+002, 2.114102e+002
2.487299e+002, 2.109879e+002
2.492120e+002, 2.099009e+002
2.496941e+002, 2.088151e+002
2.501762e+002, 2.083437e+002
2.506583e+002, 2.086567e+002
2.511404e+002, 2.092930e+002
2.516226e+002, 2.094664e+002
2.521047e+002, 2.089418e+002
2.525868e+002, 2.084718e+002
2.530689e+002, 2.081556e+002
2.535510e+002, 2.078918e+002
2.540331e+002, 2.076007e+002
2.545153e+002, 2.072663e+002
2.549974e+002, 2.069359e+002
2.554795e+002, 2.066833e+002
2.559616e+002, 2.065443e+002
2.564437e+002, 2.064144e+002
2.569258e+002, 2.061418e+002
2.574080e+002, 2.059784e+002
2.578901e+002, 2.062258e+002
2.583722e+002, 2.068699e+002
2.588543e+002, 2.075122e+002
2.593364e+002, 2.075312e+002
2.598185e+002, 2.063828e+002
2.603007e+002, 2.060235e+002
2.607828e+002, 2.071263e+002
2.612649e+002, 2.083264e+002
2.617470e+002, 2.087025e+002
2.622291e+002, 2.082141e+002
2.627112e+002, 2.074974e+002
2.631934e+002, 2.073005e+002
2.636755e+002, 2.078384e+002
2.641576e+002, 2.081183e+002
2.646397e+002, 2.080277e+002
2.651218e+002, 2.078278e+002
2.656039e+002, 2.075194e+002
2.660861e+002, 2.071908e+002
2.665682e+002, 2.070849e+002
2.670503e+002, 2.074755e+002
2.675324e+002, 2.084650e+002
2.680145e+002, 2.093058e+002
2.684966e+002, 2.100864e+002
2.689788e+002, 2.106772e+002
2.694609e+002, 2.109745e+002
2.699430e+002, 2.110094e+002
2.704251e+002, 2.108547e+002
2.709072e+002, 2.105027e+002
2.713893e+002, 2.099301e+002
2.718715e+002, 2.100056e+002
2.723536e+002, 2.112261e+002
2.728357e+002, 2.124574e+002
2.733178e+002, 2.131910e+002
2.737999e+002, 2.135277e+002
2.742820e+002, 2.137921e+002
2.747642e+002, 2.141673e+002
2.752463e+002, 2.146687e+002
2.757284e+002, 2.155096e+002
2.762105e+002, 2.172126e+002
2.766926e+002, 2.186156e+002
2.771747e+002, 2.190735e+002
2.776568e+002, 2.189335e+002
2.781389e+002, 2.190225e+002
2.786211e+002, 2.198403e+002
2.791032e+002, 2.211536e+002
2.795853e+002, 2.219442e+002
2.800674e+002, 2.216428e+002
2.805495e+002, 2.215983e+002
2.810316e+002, 2.222977e+002
2.815138e+002, 2.234629e+002
2.819959e+002, 2.246492e+002
2.824780e+002, 2.256900e+002
2.829601e+002, 2.265679e+002
2.834422e+002, 2.271682e+002
2.839243e+002, 2.272882e+002
2.844065e+002, 2.275627e+002
2.848886e+002, 2.282429e+002
2.853707e+002, 2.291235e+002
2.858528e+002, 2.298392e+002
2.863349e+002, 2.302418e+002
2.868170e+002, 2.306393e+002
2.872992e+002, 2.316667e+002
2.877813e+002, 2.336065e+002
2.882634e+002, 2.351496e+002
2.887455e+002, 2.357703e+002
2.892276e+002, 2.360085e+002
2.897097e+002, 2.365615e+002
2.901919e+002, 2.375983e+002
2.906740e+002, 2.386944e+002
2.911561e+002, 2.392523e+002
2.916382e+002, 2.391563e+002
2.921203e+002, 2.394412e+002
2.926024e+002, 2.405486e+002
2.930846e+002, 2.418897e+002
2.935667e+002, 2.428301e+002
2.940488e+002, 2.432987e+002
2.945309e+002, 2.437587e+002
2.950130e+002, 2.446799e+002
2.954951e+002, 2.460722e+002
2.959773e+002, 2.472729e+002
2.964594e+002, 2.481279e+002
2.969415e+002, 2.488772e+002
2.974236e+002, 2.497294e+002
2.979057e+002, 2.506756e+002
2.983878e+002, 2.515561e+002
2.988700e+002, 2.522682e+002
2.993521e+002, 2.528009e+002
2.998342e+002, 2.532254e+002
3.003163e+002, 2.532334e+002
3.007984e+002, 2.534078e+002
3.012805e+002, 2.542272e+002
3.017627e+002, 2.555650e+002
3.022448e+002, 2.568519e+002
3.027269e+002, 2.578120e+002
3.032090e+002, 2.585024e+002
3.036911e+002, 2.591367e+002
3.041732e+002, 2.597153e+002
3.046554e+002, 2.602536e+002
3.051375e+002, 2.606813e+002
3.056196e+002, 2.610703e+002
3.061017e+002, 2.616213e+002
3.065838e+002, 2.624348e+002
3.070659e+002, 2.634017e+002
3.075481e+002, 2.642929e+002
3.080302e+002, 2.650657e+002
3.085123e+002, 2.659348e+002
3.089944e+002, 2.670518e+002
3.094765e+002, 2.682925e+002
3.099586e+002, 2.694087e+002
3.104408e+002, 2.703120e+002
3.109229e+002, 2.711738e+002
3.114050e+002, 2.722497e+002
3.118871e+002, 2.735517e+002
3.123692e+002, 2.747526e+002
3.128513e+002, 2.756586e+002
3.133335e+002, 2.764872e+002
3.138156e+002, 2.774580e+002
3.142977e+002, 2.785952e+002
3.147798e+002, 2.799600e+002
3.152619e+002, 2.816851e+002
3.157440e+002, 2.837578e+002
3.162262e+002, 2.857959e+002
3.167083e+002, 2.878645e+002
3.171904e+002, 2.898188e+002
3.176725e+002, 2.914147e+002
3.181546e+002, 2.926907e+002
3.186367e+002, 2.940899e+002
3.191188e+002, 2.959252e+002
3.196010e+002, 2.981401e+002
3.200831e+002, 3.003651e+002
3.205652e+002, 3.026592e+002
3.210473e+002, 3.049168e+002
3.215294e+002, 3.070535e+002
3.220115e+002, 3.090954e+002
3.224937e+002, 3.111805e+002
3.229758e+002, 3.133754e+002
3.234579e+002, 3.156322e+002
3.239400e+002, 3.177695e+002
3.244221e+002, 3.197407e+002
3.249042e+002, 3.217335e+002
3.253864e+002, 3.238953e+002
3.258685e+002, 3.261173e+002
3.263506e+002, 3.282180e+002
3.268327e+002, 3.301441e+002
3.273148e+002, 3.319311e+002
3.277969e+002, 3.336284e+002
3.282791e+002, 3.352484e+002
3.287612e+002, 3.367561e+002
3.292433e+002, 3.382442e+002
3.297254e+002, 3.395656e+002
3.302075e+002, 3.404827e+002
3.306896e+002, 3.409548e+002
3.311718e+002, 3.412769e+002
3.316539e+002, 3.417540e+002
3.321360e+002, 3.423997e+002
3.326181e+002, 3.428817e+002
3.331002e+002, 3.429299e+002
3.335823e+002, 3.430044e+002
3.340645e+002, 3.434265e+002
3.345466e+002, 3.441981e+002
3.350287e+002, 3.452562e+002
3.355108e+002, 3.467308e+002
3.359929e+002, 3.484390e+002
3.364750e+002, 3.491609e+002
3.369572e+002, 3.481141e+002
3.374393e+002, 3.470318e+002
3.379214e+002, 3.466726e+002
3.384035e+002, 3.468332e+002
3.388856e+002, 3.470101e+002
3.393677e+002, 3.469616e+002
3.398499e+002, 3.468036e+002
3.403320e+002, 3.468569e+002
3.408141e+002, 3.471591e+002
3.412962e+002, 3.475585e+002
3.417783e+002, 3.479846e+002
3.422604e+002, 3.485074e+002
3.427426e+002, 3.492553e+002
3.432247e+002, 3.502622e+002
3.437068e+002, 3.513734e+002
3.441889e+002, 3.523430e+002
3.446710e+002, 3.530137e+002
3.451531e+002, 3.540728e+002
3.456353e+002, 3.559107e+002
3.461174e+002, 3.578643e+002
3.465995e+002, 3.593218e+002
3.470816e+002, 3.602886e+002
3.475637e+002, 3.613124e+002
3.480458e+002, 3.628697e+002
3.485280e+002, 3.649969e+002
3.490101e+002, 3.671726e+002
3.494922e+002, 3.693092e+002
3.499743e+002, 3.715707e+002
3.504564e+002, 3.741399e+002
3.509385e+002, 3.768755e+002
3.514207e+002, 3.793888e+002
3.519028e+002, 3.813803e+002
3.523849e+002, 3.831028e+002
3.528670e+002, 3.856978e+002
3.533491e+002, 3.899824e+002
3.538312e+002, 3.941133e+002
3.543134e+002, 3.977017e+002
3.547955e+002, 4.010836e+002
3.552776e+002, 4.046693e+002
3.557597e+002, 4.085984e+002
3.562418e+002, 4.127403e+002
3.567239e+002, 4.168996e+002
3.572061e+002, 4.209705e+002
3.576882e+002, 4.253041e+002
3.581703e+002, 4.302881e+002
3.586524e+002, 4.352260e+002
3.591345e+002, 4.396227e+002
3.596166e+002, 4.434595e+002
3.600987e+002, 4.469643e+002
3.605808e+002, 4.503775e+002
3.610630e+002, 4.537113e+002
3.615451e+002, 4.568101e+002
3.620272e+002, 4.597239e+002
3.625093e+002, 4.623625e+002
3.629914e+002, 4.648506e+002
3.634735e+002, 4.670341e+002
3.639557e+002, 4.685672e+002
3.644378e+002, 4.692246e+002
3.649199e+002, 4.691468e+002
3.654020e+002, 4.689325e+002
3.658841e+002, 4.687321e+002
3.663662e+002, 4.681486e+002
3.668484e+002, 4.670659e+002
3.673305e+002, 4.656464e+002
3.678126e+002, 4.639087e+002
3.682947e+002, 4.619048e+002
3.687768e+002, 4.599388e+002
3.692589e+002, 4.585464e+002
3.697411e+002, 4.580351e+002
3.702232e+002, 4.572690e+002
3.707053e+002, 4.557013e+002
3.711874e+002, 4.543052e+002
3.716695e+002, 4.535645e+002
3.721516e+002, 4.534940e+002
3.726338e+002, 4.538431e+002
3.731159e+002, 4.544501e+002
3.735980e+002, 4.553070e+002
3.740801e+002, 4.561995e+002
3.745622e+002, 4.568116e+002
3.750443e+002, 4.578954e+002
3.755265e+002, 4.598703e+002
3.760086e+002, 4.624041e+002
3.764907e+002, 4.649792e+002
3.769728e+002, 4.673607e+002
3.774549e+002, 4.696421e+002
3.779370e+002, 4.718771e+002
3.784192e+002, 4.737145e+002
3.789013e+002, 4.765326e+002
3.793834e+002, 4.817876e+002
3.798655e+002, 4.875089e+002
3.803476e+002, 4.919873e+002
3.808297e+002, 4.949015e+002
3.813119e+002, 4.976898e+002
3.817940e+002, 5.020462e+002
3.822761e+002, 5.079353e+002
3.827582e+002, 5.130261e+002
3.832403e+002, 5.162983e+002
3.837224e+002, 5.195765e+002
3.842046e+002, 5.241429e+002
3.846867e+002, 5.297476e+002
3.851688e+002, 5.355770e+002
3.856509e+002, 5.411751e+002
3.861330e+002, 5.466469e+002
3.866151e+002, 5.522600e+002
3.870973e+002, 5.579976e+002
3.875794e+002, 5.638713e+002
3.880615e+002, 5.699217e+002
3.885436e+002, 5.761311e+002
3.890257e+002, 5.824849e+002
3.895078e+002, 5.889191e+002
3.899900e+002, 5.956023e+002
3.904721e+002, 6.026020e+002
3.909542e+002, 6.099606e+002
3.914363e+002, 6.178615e+002
3.919184e+002, 6.265744e+002
3.924005e+002, 6.356117e+002
3.928827e+002, 6.442110e+002
3.933648e+002, 6.523116e+002
3.938469e+002, 6.607340e+002
3.943290e+002, 6.697475e+002
3.948111e+002, 6.792853e+002
3.952932e+002, 6.891672e+002
3.957754e+002, 6.994628e+002
3.962575e+002, 7.100462e+002
3.967396e+002, 7.210166e+002
3.972217e+002, 7.323232e+002
3.977038e+002, 7.433855e+002
3.981859e+002, 7.539276e+002
3.986681e+002, 7.645625e+002
3.991501e+002, 7.759105e+002
3.996323e+002, 7.877650e+002
4.001144e+002, 7.993311e+002
4.005965e+002, 8.101398e+002
4.010786e+002, 8.205027e+002
4.015607e+002, 8.311871e+002
4.020428e+002, 8.424406e+002
4.025250e+002, 8.535358e+002
4.030071e+002, 8.649899e+002
4.034892e+002, 8.759338e+002
4.039713e+002, 8.849415e+002
4.044534e+002, 8.917598e+002
4.049355e+002, 8.979238e+002
4.054177e+002, 9.052443e+002
4.058998e+002, 9.139954e+002
4.063819e+002, 9.223513e+002
4.068640e+002, 9.309247e+002
4.073461e+002, 9.385624e+002
4.078282e+002, 9.446686e+002
4.083104e+002, 9.493912e+002
4.087925e+002, 9.531268e+002
4.092746e+002, 9.561049e+002
4.097567e+002, 9.584487e+002
4.102388e+002, 9.607909e+002
4.107209e+002, 9.635621e+002
4.112031e+002, 9.657243e+002
4.116852e+002, 9.673332e+002
4.121673e+002, 9.682399e+002
4.126494e+002, 9.682567e+002
4.131315e+002, 9.673603e+002
4.136136e+002, 9.657624e+002
4.140958e+002, 9.637654e+002
4.145779e+002, 9.614384e+002
4.150600e+002, 9.583824e+002
4.155421e+002, 9.547592e+002
4.160242e+002, 9.502336e+002
4.165063e+002, 9.440056e+002
4.169885e+002, 9.367028e+002
4.174706e+002, 9.299173e+002
4.179527e+002, 9.248326e+002
4.184348e+002, 9.207960e+002
4.189169e+002, 9.153789e+002
4.193990e+002, 9.080290e+002
4.198812e+002, 9.005662e+002
4.203633e+002, 8.939647e+002
4.208454e+002, 8.873373e+002
4.213275e+002, 8.797795e+002
4.218096e+002, 8.710668e+002
4.222917e+002, 8.619846e+002
4.227739e+002, 8.534462e+002
4.232560e+002, 8.454131e+002
4.237381e+002, 8.368231e+002
4.242202e+002, 8.274669e+002
4.247023e+002, 8.175579e+002
4.251844e+002, 8.069159e+002
4.256666e+002, 7.958021e+002
4.261487e+002, 7.851013e+002
4.266308e+002, 7.753276e+002
4.271129e+002, 7.660953e+002
4.275950e+002, 7.569373e+002
4.280771e+002, 7.477934e+002
4.285593e+002, 7.388126e+002
4.290414e+002, 7.303144e+002
4.295235e+002, 7.219416e+002
4.300056e+002, 7.129595e+002
4.304877e+002, 7.030955e+002
4.309698e+002, 6.932343e+002
4.314520e+002, 6.837961e+002
4.319341e+002, 6.747211e+002
4.324162e+002, 6.657831e+002
4.328983e+002, 6.569513e+002
4.333804e+002, 6.484138e+002
4.338625e+002, 6.405204e+002
4.343447e+002, 6.334056e+002
4.348268e+002, 6.258896e+002
4.353089e+002, 6.173571e+002
4.357910e+002, 6.088963e+002
4.362731e+002, 6.013164e+002
4.367552e+002, 5.944870e+002
4.372374e+002, 5.878017e+002
4.377195e+002, 5.808971e+002
4.382016e+002, 5.739061e+002
4.386837e+002, 5.674630e+002
4.391658e+002, 5.619648e+002
4.396479e+002, 5.564996e+002
4.401301e+002, 5.507836e+002
4.406122e+002, 5.452230e+002
4.410943e+002, 5.404024e+002
4.415764e+002, 5.363682e+002
4.420585e+002, 5.324686e+002
4.425406e+002, 5.279797e+002
4.430227e+002, 5.228012e+002
4.435049e+002, 5.177031e+002
4.439870e+002, 5.124432e+002
4.444691e+002, 5.075386e+002
4.449512e+002, 5.031079e+002
4.454333e+002, 4.991866e+002
4.459154e+002, 4.958657e+002
4.463976e+002, 4.932829e+002
4.468797e+002, 4.910319e+002
4.473618e+002, 4.881061e+002
4.478439e+002, 4.841267e+002
4.483260e+002, 4.806072e+002
4.488081e+002, 4.782699e+002
4.492903e+002, 4.761363e+002
4.497724e+002, 4.734077e+002
4.502545e+002, 4.701380e+002
4.507366e+002, 4.672261e+002
4.512187e+002, 4.658376e+002
4.517008e+002, 4.654704e+002
4.521830e+002, 4.639293e+002
4.526651e+002, 4.608636e+002
4.531472e+002, 4.574170e+002
4.536293e+002, 4.538284e+002
4.541114e+002, 4.503864e+002
4.545935e+002, 4.476459e+002
4.550757e+002, 4.460591e+002
4.555578e+002, 4.445607e+002
4.560399e+002, 4.422050e+002
4.565220e+002, 4.391621e+002
4.570041e+002, 4.361414e+002
4.574862e+002, 4.333605e+002
4.579684e+002, 4.306238e+002
4.584505e+002, 4.277504e+002
4.589326e+002, 4.247729e+002
4.594147e+002, 4.213710e+002
4.598968e+002, 4.171129e+002
4.603789e+002, 4.126923e+002
4.608611e+002, 4.086925e+002
4.613432e+002, 4.051105e+002
4.618253e+002, 4.017175e+002
4.623074e+002, 3.983915e+002
4.627895e+002, 3.951042e+002
4.632716e+002, 3.916446e+002
4.637538e+002, 3.879318e+002
4.642359e+002, 3.841679e+002
4.647180e+002, 3.803051e+002
4.652001e+002, 3.764028e+002
4.656822e+002, 3.725997e+002
4.661643e+002, 3.688723e+002
4.666465e+002, 3.649937e+002
4.671286e+002, 3.606371e+002
4.676107e+002, 3.556459e+002
4.680928e+002, 3.513576e+002
4.685749e+002, 3.483400e+002
4.690570e+002, 3.454269e+002
4.695392e+002, 3.423372e+002
4.700213e+002, 3.391570e+002
4.705034e+002, 3.361078e+002
4.709855e+002, 3.332928e+002
4.714676e+002, 3.305190e+002
4.719497e+002, 3.273343e+002
4.724319e+002, 3.235438e+002
4.729140e+002, 3.202202e+002
4.733961e+002, 3.176288e+002
4.738782e+002, 3.155058e+002
4.743603e+002, 3.139259e+002
4.748424e+002, 3.127543e+002
4.753246e+002, 3.114868e+002
4.758067e+002, 3.098822e+002
4.762888e+002, 3.079727e+002
4.767709e+002, 3.056165e+002
4.772530e+002, 3.026815e+002
4.777351e+002, 3.002191e+002
4.782173e+002, 2.990249e+002
4.786994e+002, 2.984499e+002
4.791815e+002, 2.974474e+002
4.796636e+002, 2.958806e+002
4.801457e+002, 2.942475e+002
4.806278e+002, 2.927242e+002
4.811100e+002, 2.913199e+002
4.815920e+002, 2.901223e+002
4.820742e+002, 2.891586e+002
4.825563e+002, 2.881028e+002
4.830384e+002, 2.865485e+002
4.835205e+002, 2.845266e+002
4.840026e+002, 2.830848e+002
4.844847e+002, 2.826498e+002
4.849669e+002, 2.822931e+002
4.854490e+002, 2.816245e+002
4.859311e+002, 2.807759e+002
4.864132e+002, 2.800325e+002
4.868953e+002, 2.794965e+002
4.873774e+002, 2.789873e+002
4.878596e+002, 2.781949e+002
4.883417e+002, 2.769474e+002
4.888238e+002, 2.758714e+002
4.893059e+002, 2.749493e+002
4.897880e+002, 2.741866e+002
4.902701e+002, 2.737557e+002
4.907523e+002, 2.734850e+002
4.912344e+002, 2.729702e+002
4.917165e+002, 2.719178e+002
4.921986e+002, 2.706141e+002
4.926807e+002, 2.699100e+002
4.931628e+002, 2.700840e+002
4.936450e+002, 2.700943e+002
4.941271e+002, 2.695363e+002
4.946092e+002, 2.688793e+002
4.950913e+002, 2.684035e+002
4.955734e+002, 2.681338e+002
4.960555e+002, 2.679733e+002
4.965377e+002, 2.679535e+002
4.970198e+002, 2.679861e+002
4.975019e+002, 2.677543e+002
4.979840e+002, 2.671633e+002
4.984661e+002, 2.667350e+002
4.989482e+002, 2.668878e+002
4.994304e+002, 2.673394e+002
4.999125e+002, 2.675365e+002
5.003946e+002, 2.673774e+002
5.008767e+002, 2.671473e+002
5.013588e+002, 2.668749e+002
5.018409e+002, 2.666560e+002
5.023231e+002, 2.667165e+002
5.028052e+002, 2.671066e+002
5.032873e+002, 2.675368e+002
5.037694e+002, 2.677096e+002
5.042515e+002, 2.676142e+002
5.047336e+002, 2.677122e+002
5.052158e+002, 2.680013e+002
5.056979e+002, 2.684605e+002
5.061800e+002, 2.692376e+002
5.066621e+002, 2.701344e+002
5.071442e+002, 2.708455e+002
5.076263e+002, 2.712643e+002
5.081085e+002, 2.715272e+002
5.085906e+002, 2.718553e+002
5.090727e+002, 2.723194e+002
5.095548e+002, 2.725894e+002
5.100369e+002, 2.725021e+002
5.105190e+002, 2.723800e+002
5.110012e+002, 2.722212e+002
5.114833e+002, 2.721336e+002
5.119654e+002, 2.723145e+002
5.124475e+002, 2.728922e+002
5.129296e+002, 2.736868e+002
5.134117e+002, 2.744198e+002
5.138939e+002, 2.751064e+002
5.143760e+002, 2.756396e+002
5.148581e+002, 2.760174e+002
5.153402e+002, 2.761989e+002
5.158223e+002, 2.760351e+002
5.163044e+002, 2.756007e+002
5.167866e+002, 2.753747e+002
5.172687e+002, 2.757476e+002
5.177508e+002, 2.763293e+002
5.182329e+002, 2.766629e+002
5.187150e+002, 2.767448e+002
5.191971e+002, 2.766059e+002
5.196793e+002, 2.761617e+002
5.201614e+002, 2.756224e+002
5.206435e+002, 2.755332e+002
5.211256e+002, 2.760830e+002
5.216077e+002, 2.764289e+002
5.220898e+002, 2.762012e+002
5.225720e+002, 2.758711e+002
5.230541e+002, 2.759205e+002
5.235362e+002, 2.763110e+002
5.240183e+002, 2.766485e+002
5.245004e+002, 2.766522e+002
5.249825e+002, 2.763633e+002
5.254647e+002, 2.759786e+002
5.259468e+002, 2.753827e+002
5.264289e+002, 2.748613e+002
5.269110e+002, 2.743778e+002
5.273931e+002, 2.740137e+002
5.278752e+002, 2.739956e+002
5.283574e+002, 2.742465e+002
5.288395e+002, 2.742847e+002
5.293216e+002, 2.735775e+002
5.298037e+002, 2.722736e+002
5.302858e+002, 2.712498e+002
5.307679e+002, 2.705112e+002
5.312501e+002, 2.700518e+002
5.317322e+002, 2.702424e+002
5.322143e+002, 2.705348e+002
5.326964e+002, 2.703308e+002
5.331785e+002, 2.695005e+002
5.336606e+002, 2.684597e+002
5.341428e+002, 2.674062e+002
5.346249e+002, 2.663479e+002
5.351070e+002, 2.652145e+002
5.355891e+002, 2.639738e+002
5.360712e+002, 2.629965e+002
5.365533e+002, 2.627030e+002
5.370355e+002, 2.629302e+002
5.375176e+002, 2.626593e+002
5.379997e+002, 2.615130e+002
5.384818e+002, 2.603786e+002
5.389639e+002, 2.595840e+002
5.394460e+002, 2.588996e+002
5.399282e+002, 2.580637e+002
5.404103e+002, 2.570140e+002
5.408924e+002, 2.557743e+002
5.413745e+002, 2.543252e+002
5.418566e+002, 2.526506e+002
5.423387e+002, 2.513222e+002
5.428209e+002, 2.507330e+002
5.433029e+002, 2.500417e+002
5.437850e+002, 2.489761e+002
5.442672e+002, 2.477753e+002
5.447493e+002, 2.467459e+002
5.452314e+002, 2.459614e+002
5.457135e+002, 2.452006e+002
5.461956e+002, 2.442394e+002
5.466777e+002, 2.430855e+002
5.471599e+002, 2.418528e+002
5.476420e+002, 2.404947e+002
5.481241e+002, 2.391754e+002
5.486062e+002, 2.379467e+002
5.490883e+002, 2.368387e+002
5.495704e+002, 2.359359e+002
5.500526e+002, 2.353520e+002
5.505347e+002, 2.347712e+002
5.510168e+002, 2.340730e+002
5.514989e+002, 2.332191e+002
5.519810e+002, 2.320376e+002
5.524631e+002, 2.304836e+002
5.529453e+002, 2.289426e+002
5.534274e+002, 2.277911e+002
5.539095e+002, 2.270279e+002
5.543916e+002, 2.262034e+002
5.548737e+002, 2.251192e+002
5.553558e+002, 2.242174e+002
5.558380e+002, 2.238981e+002
5.563201e+002, 2.236963e+002
5.568022e+002, 2.229900e+002
5.572843e+002, 2.216469e+002
5.577664e+002, 2.200900e+002
5.582485e+002, 2.187520e+002
5.587307e+002, 2.176388e+002
5.592128e+002, 2.167905e+002
5.596949e+002, 2.165295e+002
5.601770e+002, 2.160748e+002
5.606591e+002, 2.149631e+002
5.611412e+002, 2.136260e+002
5.616234e+002, 2.125934e+002
5.621055e+002, 2.120165e+002
5.625876e+002, 2.115804e+002
5.630697e+002, 2.109772e+002
5.635518e+002, 2.102911e+002
5.640339e+002, 2.098557e+002
5.645161e+002, 2.097596e+002
5.649982e+002, 2.096365e+002
5.654803e+002, 2.091396e+002
5.659624e+002, 2.084023e+002
5.664445e+002, 2.080195e+002
5.669266e+002, 2.084263e+002
5.674088e+002, 2.085673e+002
5.678909e+002, 2.076798e+002
5.683730e+002, 2.065190e+002
5.688551e+002, 2.061658e+002
5.693372e+002, 2.067318e+002
5.698193e+002, 2.073910e+002
5.703015e+002, 2.073606e+002
5.707836e+002, 2.066800e+002
5.712657e+002, 2.061135e+002
5.717478e+002, 2.055092e+002
5.722299e+002, 2.052461e+002
5.727120e+002, 2.056460e+002
5.731942e+002, 2.062303e+002
5.736763e+002, 2.065611e+002
5.741584e+002, 2.065728e+002
5.746405e+002, 2.064839e+002
5.751226e+002, 2.064852e+002
5.756047e+002, 2.065439e+002
5.760869e+002, 2.065152e+002
5.765690e+002, 2.063822e+002
5.770511e+002, 2.062200e+002
5.775332e+002, 2.059462e+002
5.780153e+002, 2.057409e+002
5.784974e+002, 2.059467e+002
5.789796e+002, 2.066999e+002
5.794617e+002, 2.072698e+002
5.799438e+002, 2.071558e+002
5.804259e+002, 2.068491e+002
5.809080e+002, 2.069945e+002
5.813901e+002, 2.075665e+002
5.818723e+002, 2.080289e+002
5.823544e+002, 2.080180e+002
5.828365e+002, 2.076982e+002
5.833186e+002, 2.076292e+002
5.838007e+002, 2.079794e+002
5.842828e+002, 2.083405e+002
5.847650e+002, 2.087779e+002
5.852471e+002, 2.091661e+002
5.857292e+002, 2.094102e+002
5.862113e+002, 2.095296e+002
5.866934e+002, 2.095940e+002
5.871755e+002, 2.096255e+002
5.876577e+002, 2.096703e+002
5.881398e+002, 2.098651e+002
5.886219e+002, 2.102427e+002
5.891040e+002, 2.105328e+002
5.895861e+002, 2.105551e+002
5.900682e+002, 2.105998e+002
5.905504e+002, 2.109907e+002
5.910325e+002, 2.116688e+002
5.915146e+002, 2.122502e+002
5.919967e+002, 2.125086e+002
5.924788e+002, 2.127147e+002
5.929609e+002, 2.131493e+002
5.934431e+002, 2.137219e+002
5.939252e+002, 2.141611e+002
5.944073e+002, 2.143665e+002
5.948894e+002, 2.144003e+002
5.953715e+002, 2.142851e+002
5.958536e+002, 2.138582e+002
5.963358e+002, 2.140546e+002
5.968179e+002, 2.153561e+002
5.973000e+002, 2.166491e+002
5.977821e+002, 2.177065e+002
5.982642e+002, 2.184542e+002
5.987463e+002, 2.188056e+002
5.992285e+002, 2.187372e+002
5.997106e+002, 2.183957e+002
6.001927e+002, 2.178459e+002
6.006748e+002, 2.171017e+002
6.011569e+002, 2.166261e+002
6.016390e+002, 2.164639e+002
6.021212e+002, 2.165194e+002
6.026033e+002, 2.169417e+002
6.030854e+002, 2.174879e+002
6.035675e+002, 2.177602e+002
6.040496e+002, 2.176387e+002
6.045317e+002, 2.174659e+002
6.050139e+002, 2.173990e+002
6.054960e+002, 2.173947e+002
6.059781e+002, 2.173894e+002
6.064602e+002, 2.173775e+002
6.069423e+002, 2.173839e+002
6.074244e+002, 2.174213e+002
6.079066e+002, 2.174984e+002
6.083887e+002, 2.176616e+002
6.088708e+002, 2.182039e+002
6.093529e+002, 2.183998e+002
6.098350e+002, 2.179701e+002
6.103171e+002, 2.174051e+002
6.107993e+002, 2.170213e+002
6.112814e+002, 2.168237e+002
6.117635e+002, 2.166743e+002
6.122456e+002, 2.164886e+002
6.127277e+002, 2.162927e+002
6.132098e+002, 2.161338e+002
6.136920e+002, 2.160100e+002
6.141741e+002, 2.159494e+002
6.146562e+002, 2.160496e+002
6.151383e+002, 2.160920e+002
6.156204e+002, 2.158018e+002
6.161025e+002, 2.152342e+002
6.165847e+002, 2.147111e+002
6.170668e+002, 2.142245e+002
6.175489e+002, 2.138730e+002
6.180310e+002, 2.138354e+002
6.185131e+002, 2.139583e+002
6.189952e+002, 2.139494e+002
6.194774e+002, 2.137193e+002
6.199595e+002, 2.133163e+002
6.204416e+002, 2.127608e+002
6.209237e+002, 2.120262e+002
6.214058e+002, 2.115245e+002
6.218879e+002, 2.114575e+002
6.223701e+002, 2.113873e+002
6.228522e+002, 2.112989e+002
6.233343e+002, 2.111237e+002
6.238164e+002, 2.107848e+002
6.242985e+002, 2.102734e+002
6.247806e+002, 2.096599e+002
6.252628e+002, 2.089365e+002
6.257448e+002, 2.081658e+002
6.262269e+002, 2.075298e+002
6.267090e+002, 2.070392e+002
6.271912e+002, 2.065991e+002
6.276733e+002, 2.062004e+002
6.281554e+002, 2.057926e+002
6.286375e+002, 2.052349e+002
6.291196e+002, 2.044702e+002
6.296017e+002, 2.038511e+002
6.300839e+002, 2.036892e+002
6.305660e+002, 2.034543e+002
6.310481e+002, 2.026176e+002
6.315302e+002, 2.014163e+002
6.320123e+002, 2.004964e+002
6.324944e+002, 2.001587e+002
6.329766e+002, 2.000178e+002
6.334587e+002, 1.993573e+002
6.339408e+002, 1.980110e+002
6.344229e+002, 1.969905e+002
6.349050e+002, 1.964707e+002
6.353871e+002, 1.960857e+002
6.358693e+002, 1.958333e+002
6.363514e+002, 1.955490e+002
6.368335e+002, 1.949383e+002
6.373156e+002, 1.938736e+002
6.377977e+002, 1.927607e+002
6.382798e+002, 1.918821e+002
6.387620e+002, 1.911638e+002
6.392441e+002, 1.904603e+002
6.397262e+002, 1.897588e+002
6.402083e+002, 1.890799e+002
6.406904e+002, 1.884178e+002
6.411725e+002, 1.878108e+002
6.416547e+002, 1.873867e+002
6.421368e+002, 1.874764e+002
6.426189e+002, 1.872542e+002
6.431010e+002, 1.864855e+002
6.435831e+002, 1.856158e+002
6.440652e+002, 1.849628e+002
6.445474e+002, 1.844449e+002
6.450295e+002, 1.837527e+002
6.455116e+002, 1.826939e+002
6.459937e+002, 1.815503e+002
6.464758e+002, 1.808095e+002
6.469579e+002, 1.804686e+002
6.474401e+002, 1.801375e+002
6.479222e+002, 1.797979e+002
6.484043e+002, 1.793828e+002
6.488864e+002, 1.788103e+002
6.493685e+002, 1.781198e+002
6.498506e+002, 1.774408e+002
6.503328e+002, 1.766876e+002
6.508149e+002, 1.760973e+002
6.512970e+002, 1.758806e+002
6.517791e+002, 1.758164e+002
6.522612e+002, 1.756977e+002
6.527433e+002, 1.754696e+002
6.532255e+002, 1.750688e+002
6.537076e+002, 1.744213e+002
6.541897e+002, 1.736244e+002
6.546718e+002, 1.730630e+002
6.551539e+002, 1.728899e+002
6.556360e+002, 1.725822e+002
6.561182e+002, 1.716633e+002
6.566003e+002, 1.709453e+002
6.570824e+002, 1.711494e+002
6.575645e+002, 1.719536e+002
6.580466e+002, 1.723111e+002
6.585287e+002, 1.715551e+002
6.590109e+002, 1.706463e+002
6.594930e+002, 1.706002e+002
6.599751e+002, 1.711240e+002
6.604572e+002, 1.714216e+002
6.609393e+002, 1.713218e+002
6.614214e+002, 1.709679e+002
6.619036e+002, 1.704271e+002
6.623857e+002, 1.697344e+002
6.628678e+002, 1.692730e+002
6.633499e+002, 1.691688e+002
6.638320e+002, 1.691400e+002
6.643141e+002, 1.692881e+002
6.647963e+002, 1.694101e+002
6.652784e+002, 1.693331e+002
6.657605e+002, 1.690744e+002
6.662426e+002, 1.687732e+002
6.667247e+002, 1.685237e+002
6.672068e+002, 1.682650e+002
6.676890e+002, 1.678541e+002
6.681711e+002, 1.672967e+002
6.686532e+002, 1.668064e+002
6.691353e+002, 1.664818e+002
6.696174e+002, 1.661196e+002
6.700995e+002, 1.655583e+002
6.705817e+002, 1.647874e+002
6.710638e+002, 1.638483e+002
6.715459e+002, 1.625826e+002
6.720280e+002, 1.613439e+002
6.725101e+002, 1.601955e+002
6.729922e+002, 1.591692e+002
6.734744e+002, 1.584240e+002
6.739565e+002, 1.578815e+002
6.744386e+002, 1.571196e+002
6.749207e+002, 1.557540e+002
6.754028e+002, 1.540245e+002
6.758849e+002, 1.527027e+002
6.763671e+002, 1.518370e+002
6.768492e+002, 1.511805e+002
6.773313e+002, 1.508287e+002
6.778134e+002, 1.505102e+002
6.782955e+002, 1.500449e+002
6.787776e+002, 1.494409e+002
6.792598e+002, 1.487157e+002
6.797419e+002, 1.477317e+002
6.802240e+002, 1.468094e+002
6.807061e+002, 1.462063e+002
6.811882e+002, 1.457616e+002
6.816703e+002, 1.452281e+002
6.821525e+002, 1.445628e+002
6.826346e+002, 1.438115e+002
6.831167e+002, 1.429803e+002
6.835988e+002, 1.421331e+002
6.840809e+002, 1.415945e+002
6.845630e+002, 1.414972e+002
6.850452e+002, 1.414201e+002
6.855273e+002, 1.413273e+002
6.860094e+002, 1.412238e+002
6.864915e+002, 1.411631e+002
6.869736e+002, 1.410957e+002
6.874557e+002, 1.408634e+002
6.879379e+002, 1.403102e+002
6.884200e+002, 1.397445e+002
6.889021e+002, 1.395281e+002
6.893842e+002, 1.394947e+002
6.898663e+002, 1.391819e+002
6.903484e+002, 1.385146e+002
6.908306e+002, 1.379581e+002
6.913127e+002, 1.379074e+002
6.917948e+002, 1.382438e+002
6.922769e+002, 1.383682e+002
6.927590e+002, 1.381987e+002
6.932411e+002, 1.379385e+002
6.937233e+002, 1.373667e+002
6.942054e+002, 1.369274e+002
6.946875e+002, 1.370855e+002
6.951696e+002, 1.375894e+002
6.956517e+002, 1.377398e+002
6.961339e+002, 1.371306e+002
6.966160e+002, 1.363837e+002
6.970981e+002, 1.362666e+002
6.975802e+002, 1.365955e+002
6.980623e+002, 1.366572e+002
6.985444e+002, 1.363215e+002
6.990266e+002, 1.360938e+002
6.995087e+002, 1.364010e+002
6.999908e+002, 1.370439e+002
7.004729e+002, 1.372568e+002
7.009550e+002, 1.366712e+002
7.014371e+002, 1.362060e+002
7.019193e+002, 1.358071e+002
7.024014e+002, 1.355905e+002
7.028835e+002, 1.357198e+002
7.033656e+002, 1.360727e+002
7.038477e+002, 1.364104e+002
7.043298e+002, 1.366327e+002
7.048120e+002, 1.367750e+002
7.052941e+002, 1.368873e+002
7.057762e+002, 1.369575e+002
7.062583e+002, 1.368773e+002
7.067404e+002, 1.366029e+002
7.072225e+002, 1.364220e+002
7.077046e+002, 1.365150e+002
7.081867e+002, 1.368050e+002
7.086688e+002, 1.371218e+002
7.091509e+002, 1.375539e+002
7.096331e+002, 1.377867e+002
7.101152e+002, 1.375074e+002
7.105973e+002, 1.373078e+002
7.110794e+002, 1.376701e+002
7.115615e+002, 1.383254e+002
7.120436e+002, 1.387593e+002
7.125258e+002, 1.387883e+002
7.130079e+002, 1.386524e+002
7.134900e+002, 1.386073e+002
7.139721e+002, 1.386378e+002
7.144542e+002, 1.386460e+002
7.149363e+002, 1.386145e+002
7.154185e+002, 1.386620e+002
7.159006e+002, 1.388858e+002
7.163827e+002, 1.391742e+002
7.168648e+002, 1.393192e+002
7.173469e+002, 1.392852e+002
7.178290e+002, 1.393382e+002
7.183112e+002, 1.395670e+002
7.187933e+002, 1.398165e+002
7.192754e+002, 1.399657e+002
7.197575e+002, 1.401042e+002
7.202396e+002, 1.404409e+002
7.207217e+002, 1.409897e+002
7.212039e+002, 1.414292e+002
7.216860e+002, 1.413603e+002
7.221681e+002, 1.409469e+002
7.226502e+002, 1.408745e+002
7.231323e+002, 1.411901e+002
7.236144e+002, 1.414525e+002
7.240966e+002, 1.415177e+002
7.245787e+002, 1.414805e+002
7.250608e+002, 1.413951e+002
7.255429e+002, 1.412659e+002
7.260250e+002, 1.413204e+002
7.265071e+002, 1.417245e+002
7.269893e+002, 1.421319e+002
7.274714e+002, 1.424778e+002
7.279535e+002, 1.427278e+002
7.284356e+002, 1.427472e+002
7.289177e+002, 1.425956e+002
7.293998e+002, 1.425919e+002
7.298820e+002, 1.430074e+002
7.303641e+002, 1.436524e+002
7.308462e+002, 1.440850e+002
7.313283e+002, 1.442957e+002
7.318104e+002, 1.445320e+002
7.322925e+002, 1.448489e+002
7.327747e+002, 1.451834e+002
7.332568e+002, 1.455228e+002
7.337389e+002, 1.458376e+002
7.342210e+002, 1.459902e+002
7.347031e+002, 1.456385e+002
7.351852e+002, 1.456490e+002
7.356674e+002, 1.465627e+002
7.361495e+002, 1.476111e+002
7.366316e+002, 1.480912e+002
7.371137e+002, 1.481419e+002
7.375958e+002, 1.483278e+002
7.380779e+002, 1.489368e+002
7.385601e+002, 1.497439e+002
7.390422e+002, 1.505159e+002
7.395243e+002, 1.512265e+002
7.400064e+002, 1.515593e+002
7.404885e+002, 1.513992e+002
7.409706e+002, 1.512676e+002
7.414528e+002, 1.514482e+002
7.419349e+002, 1.518458e+002
7.424170e+002, 1.522669e+002
7.428991e+002, 1.527217e+002
7.433812e+002, 1.531669e+002
7.438633e+002, 1.534381e+002
7.443455e+002, 1.538678e+002
7.448276e+002, 1.547931e+002
7.453097e+002, 1.559312e+002
7.457918e+002, 1.568405e+002
7.462739e+002, 1.574000e+002
7.467560e+002, 1.578396e+002
7.472382e+002, 1.583613e+002
7.477203e+002, 1.589360e+002
7.482024e+002, 1.594177e+002
7.486845e+002, 1.598010e+002
7.491666e+002, 1.604106e+002
7.496487e+002, 1.614146e+002
7.501309e+002, 1.625343e+002
7.506130e+002, 1.634360e+002
7.510951e+002, 1.640954e+002
7.515772e+002, 1.649208e+002
7.520593e+002, 1.660189e+002
7.525414e+002, 1.671236e+002
7.530236e+002, 1.682242e+002
7.535057e+002, 1.692739e+002
7.539878e+002, 1.702328e+002
7.544699e+002, 1.710988e+002
7.549520e+002, 1.718752e+002
7.554341e+002, 1.724922e+002
7.559163e+002, 1.731781e+002
7.563984e+002, 1.743308e+002
7.568805e+002, 1.758467e+002
7.573626e+002, 1.772642e+002
7.578447e+002, 1.785117e+002
7.583268e+002, 1.796858e+002
7.588090e+002, 1.808889e+002
7.592911e+002, 1.820400e+002
7.597732e+002, 1.828394e+002
7.602553e+002, 1.826864e+002
7.607374e+002, 1.833065e+002
7.612195e+002, 1.852166e+002
7.617017e+002, 1.872993e+002
7.621838e+002, 1.892933e+002
7.626659e+002, 1.910167e+002
7.631480e+002, 1.920927e+002
7.636301e+002, 1.923803e+002
7.641122e+002, 1.928607e+002
7.645944e+002, 1.945163e+002
7.650765e+002, 1.966900e+002
7.655586e+002, 1.983436e+002
7.660407e+002, 1.995186e+002
7.665228e+002, 2.006323e+002
7.670049e+002, 2.018433e+002
7.674871e+002, 2.031304e+002
7.679692e+002, 2.044554e+002
7.684513e+002, 2.058249e+002
7.689334e+002, 2.072674e+002
7.694155e+002, 2.088578e+002
7.698976e+002, 2.104036e+002
7.703798e+002, 2.117334e+002
7.708619e+002, 2.131065e+002
7.713440e+002, 2.147999e+002
7.718261e+002, 2.167402e+002
7.723082e+002, 2.185162e+002
7.727903e+002, 2.198967e+002
7.732725e+002, 2.211890e+002
7.737546e+002, 2.225069e+002
7.742367e+002, 2.239112e+002
7.747188e+002, 2.255319e+002
7.752009e+002, 2.273591e+002
7.756830e+002, 2.292593e+002
7.761652e+002, 2.311686e+002
7.766473e+002, 2.330320e+002
7.771294e+002, 2.346292e+002
7.776115e+002, 2.358640e+002
7.780936e+002, 2.375348e+002
7.785757e+002, 2.398889e+002
7.790579e+002, 2.423355e+002
7.795400e+002, 2.448727e+002
7.800221e+002, 2.471537e+002
7.805042e+002, 2.483560e+002
7.809863e+002, 2.480998e+002
7.814684e+002, 2.486101e+002
7.819506e+002, 2.511174e+002
7.824327e+002, 2.538579e+002
7.829148e+002, 2.556490e+002
7.833969e+002, 2.569154e+002
7.838790e+002, 2.583854e+002
7.843611e+002, 2.602773e+002
7.848433e+002, 2.624773e+002
7.853254e+002, 2.649679e+002
7.858075e+002, 2.676339e+002
7.862896e+002, 2.700729e+002
7.867717e+002, 2.722716e+002
7.872538e+002, 2.745460e+002
7.877360e+002, 2.769886e+002
7.882181e+002, 2.794644e+002
7.887002e+002, 2.817641e+002
7.891823e+002, 2.839523e+002
7.896644e+002, 2.865025e+002
7.901465e+002, 2.897129e+002
7.906286e+002, 2.928545e+002
7.911107e+002, 2.958247e+002
7.915928e+002, 2.987574e+002
7.920750e+002, 3.014921e+002
7.925571e+002, 3.043165e+002
7.930392e+002, 3.079000e+002
7.935213e+002, 3.125356e+002
7.940034e+002, 3.174025e+002
7.944855e+002, 3.218341e+002
7.949677e+002, 3.259905e+002
7.954498e+002, 3.299051e+002
7.959319e+002, 3.337236e+002
7.964140e+002, 3.381969e+002
7.968961e+002, 3.436852e+002
7.973782e+002, 3.496188e+002
7.978604e+002, 3.552307e+002
7.983425e+002, 3.605390e+002
7.988246e+002, 3.657150e+002
7.993067e+002, 3.705446e+002
7.997888e+002, 3.756561e+002
8.002709e+002, 3.812983e+002
8.007531e+002, 3.871957e+002
8.012352e+002, 3.932349e+002
8.017173e+002, 3.993533e+002
8.021994e+002, 4.051846e+002
8.026815e+002, 4.102047e+002
8.031636e+002, 4.155392e+002
8.036458e+002, 4.217469e+002
8.041279e+002, 4.285509e+002
8.046100e+002, 4.360109e+002
8.050921e+002, 4.437645e+002
8.055742e+002, 4.508322e+002
8.060563e+002, 4.565960e+002
8.065385e+002, 4.619029e+002
8.070206e+002, 4.681467e+002
8.075027e+002, 4.752526e+002
8.079848e+002, 4.819020e+002
8.084669e+002, 4.879292e+002
8.089490e+002, 4.942581e+002
8.094312e+002, 5.013680e+002
8.099133e+002, 5.088500e+002
8.103954e+002, 5.160869e+002
8.108775e+002, 5.230289e+002
8.113596e+002, 5.300442e+002
8.118417e+002, 5.365275e+002
8.123239e+002, 5.438128e+002
8.128060e+002, 5.527704e+002
8.132881e+002, 5.623072e+002
8.137702e+002, 5.711246e+002
8.142523e+002, 5.793770e+002
8.147344e+002, 5.883110e+002
8.152166e+002, 5.987380e+002
8.156987e+002, 6.096373e+002
8.161808e+002, 6.196095e+002
8.166629e+002, 6.292180e+002
8.171450e+002, 6.396322e+002
8.176271e+002, 6.510017e+002
8.181093e+002, 6.631498e+002
8.185914e+002, 6.759870e+002
8.190735e+002, 6.894618e+002
8.195556e+002, 7.034890e+002
8.200377e+002, 7.181000e+002
8.205198e+002, 7.330925e+002
8.210020e+002, 7.482576e+002
8.214841e+002, 7.644218e+002
8.219662e+002, 7.822226e+002
8.224483e+002, 8.009205e+002
8.229304e+002, 8.194218e+002
8.234125e+002, 8.377820e+002
8.238947e+002, 8.570701e+002
8.243768e+002, 8.772206e+002
8.248589e+002, 8.985598e+002
8.253410e+002, 9.216160e+002
8.258231e+002, 9.458148e+002
8.263052e+002, 9.703047e+002
8.267874e+002, 9.951937e+002
8.272695e+002, 1.021224e+003
8.277516e+002, 1.048979e+003
8.282337e+002, 1.077906e+003
8.287158e+002, 1.107287e+003
8.291979e+002, 1.137222e+003
8.296801e+002, 1.168250e+003
8.301622e+002, 1.200247e+003
8.306443e+002, 1.232985e+003
8.311264e+002, 1.266315e+003
8.316085e+002, 1.300045e+003
8.320906e+002, 1.334288e+003
8.325728e+002, 1.369023e+003
8.330549e+002, 1.403096e+003
8.335370e+002, 1.436015e+003
8.340191e+002, 1.468603e+003
8.345012e+002, 1.501927e+003
8.349833e+002, 1.534046e+003
8.354655e+002, 1.563880e+003
8.359476e+002, 1.591269e+003
8.364297e+002, 1.616546e+003
8.369118e+002, 1.639939e+003
8.373939e+002, 1.661020e+003
8.378760e+002, 1.680749e+003
8.383582e+002, 1.697374e+003
8.388403e+002, 1.708601e+003
8.393224e+002, 1.714811e+003
8.398045e+002, 1.717858e+003
8.402866e+002, 1.718617e+003
8.407687e+002, 1.716661e+003
8.412509e+002, 1.711520e+003
8.417330e+002, 1.703177e+003
8.422151e+002, 1.691073e+003
8.426972e+002, 1.675127e+003
8.431793e+002, 1.657717e+003
8.436614e+002, 1.639885e+003
8.441436e+002, 1.620735e+003
8.446257e+002, 1.599525e+003
8.451078e+002, 1.576197e+003
8.455899e+002, 1.550170e+003
8.460720e+002, 1.519430e+003
8.465541e+002, 1.489022e+003
8.470363e+002, 1.459765e+003
8.475184e+002, 1.430507e+003
8.480005e+002, 1.400721e+003
8.484826e+002, 1.370202e+003
8.489647e+002, 1.338259e+003
8.494468e+002, 1.304309e+003
8.499290e+002, 1.270856e+003
8.504111e+002, 1.239450e+003
8.508932e+002, 1.208874e+003
8.513753e+002, 1.177130e+003
8.518574e+002, 1.145089e+003
8.523395e+002, 1.115017e+003
8.528217e+002, 1.087682e+003
8.533038e+002, 1.061336e+003
8.537859e+002, 1.034463e+003
8.542680e+002, 1.007598e+003
8.547501e+002, 9.828660e+002
8.552322e+002, 9.602193e+002
8.557144e+002, 9.383937e+002
8.561965e+002, 9.170918e+002
8.566786e+002, 8.971439e+002
8.571607e+002, 8.792574e+002
8.576428e+002, 8.632992e+002
8.581249e+002, 8.487774e+002
8.586071e+002, 8.363266e+002
8.590892e+002, 8.240240e+002
8.595713e+002, 8.107177e+002
8.600534e+002, 7.988882e+002
8.605355e+002, 7.900267e+002
8.610176e+002, 7.827144e+002
8.614998e+002, 7.751034e+002
8.619819e+002, 7.670236e+002
8.624640e+002, 7.599374e+002
8.629461e+002, 7.549033e+002
8.634282e+002, 7.504505e+002
8.639103e+002, 7.451818e+002
8.643925e+002, 7.400897e+002
8.648746e+002, 7.369671e+002
8.653567e+002, 7.356073e+002
8.658388e+002, 7.342592e+002
8.663209e+002, 7.318967e+002
8.668030e+002, 7.291082e+002
8.672852e+002, 7.267263e+002
8.677673e+002, 7.247239e+002
8.682494e+002, 7.231577e+002
8.687315e+002, 7.220676e+002
8.692136e+002, 7.202536e+002
8.696957e+002, 7.171931e+002
8.701779e+002, 7.132539e+002
8.706600e+002, 7.089570e+002
8.711421e+002, 7.042975e+002
8.716242e+002, 6.990266e+002
8.721063e+002, 6.935607e+002
8.725884e+002, 6.867424e+002
8.730705e+002, 6.781895e+002
8.735526e+002, 6.684316e+002
8.740347e+002, 6.574860e+002
8.745168e+002, 6.456340e+002
8.749990e+002, 6.333179e+002
8.754811e+002, 6.207371e+002
8.759632e+002, 6.075407e+002
8.764453e+002, 5.930705e+002
8.769274e+002, 5.785450e+002
8.774095e+002, 5.647916e+002
8.778917e+002, 5.516643e+002
8.783738e+002, 5.388380e+002
8.788559e+002, 5.262203e+002
8.793380e+002, 5.137076e+002
8.798201e+002, 5.011884e+002
8.803022e+002, 4.887711e+002
8.807844e+002, 4.763418e+002
8.812665e+002, 4.641039e+002
8.817486e+002, 4.531652e+002
8.822307e+002, 4.436192e+002
8.827128e+002, 4.339696e+002
8.831949e+002, 4.232116e+002
8.836771e+002, 4.122271e+002
8.841592e+002, 4.030664e+002
8.846413e+002, 3.959984e+002
8.851234e+002, 3.885559e+002
8.856055e+002, 3.805309e+002
8.860876e+002, 3.725929e+002
8.865698e+002, 3.647211e+002
8.870519e+002, 3.572647e+002
8.875340e+002, 3.506865e+002
8.880161e+002, 3.449433e+002
8.884982e+002, 3.390496e+002
8.889803e+002, 3.327317e+002
8.894625e+002, 3.266220e+002
8.899446e+002, 3.208252e+002
8.904267e+002, 3.152431e+002
8.909088e+002, 3.097018e+002
8.913909e+002, 3.043675e+002
8.918730e+002, 2.997145e+002
8.923552e+002, 2.958676e+002
8.928373e+002, 2.920308e+002
8.933194e+002, 2.875710e+002
8.938015e+002, 2.829622e+002
8.942836e+002, 2.788109e+002
8.947657e+002, 2.748929e+002
8.952479e+002, 2.707037e+002
8.957300e+002, 2.661962e+002
8.962121e+002, 2.617217e+002
8.966942e+002, 2.575507e+002
8.971763e+002, 2.536410e+002
8.976584e+002, 2.499471e+002
8.981406e+002, 2.464704e+002
8.986227e+002, 2.431526e+002
8.991048e+002, 2.400182e+002
8.995869e+002, 2.367301e+002
9.000690e+002, 2.330635e+002
9.005511e+002, 2.292935e+002
9.010333e+002, 2.258091e+002
9.015154e+002, 2.226157e+002
9.019975e+002, 2.196022e+002
9.024796e+002, 2.169679e+002
9.029617e+002, 2.141160e+002
9.034438e+002, 2.107072e+002
9.039260e+002, 2.072669e+002
9.044081e+002, 2.042129e+002
9.048902e+002, 2.014032e+002
9.053723e+002, 1.984987e+002
9.058544e+002, 1.954058e+002
9.063365e+002, 1.924162e+002
9.068187e+002, 1.896438e+002
9.073008e+002, 1.869628e+002
9.077829e+002, 1.843248e+002
9.082650e+002, 1.817499e+002
9.087471e+002, 1.793249e+002
9.092292e+002, 1.770243e+002
9.097114e+002, 1.745632e+002
9.101935e+002, 1.716465e+002
9.106756e+002, 1.687275e+002
9.111577e+002, 1.662420e+002
9.116398e+002, 1.640791e+002
9.121219e+002, 1.620907e+002
9.126041e+002, 1.602405e+002
9.130862e+002, 1.584788e+002
9.135683e+002, 1.567846e+002
9.140504e+002, 1.550861e+002
9.145325e+002, 1.532061e+002
9.150146e+002, 1.512294e+002
9.154968e+002, 1.496016e+002
9.159789e+002, 1.483291e+002
9.164610e+002, 1.472073e+002
9.169431e+002, 1.462007e+002
9.174252e+002, 1.452151e+002
9.179073e+002, 1.441560e+002
9.183895e+002, 1.430577e+002
9.188716e+002, 1.420181e+002
9.193537e+002, 1.409036e+002
9.198358e+002, 1.401947e+002
9.203179e+002, 1.403667e+002
9.208000e+002, 1.402570e+002
9.212822e+002, 1.390614e+002
9.217643e+002, 1.375759e+002
9.222464e+002, 1.367453e+002
9.227285e+002, 1.365470e+002
9.232106e+002, 1.361061e+002
9.236927e+002, 1.351227e+002
9.241749e+002, 1.341259e+002
9.246570e+002, 1.331386e+002
9.251391e+002, 1.323061e+002
9.256212e+002, 1.317832e+002
9.261033e+002, 1.314969e+002
9.265854e+002, 1.313236e+002
9.270676e+002, 1.312324e+002
9.275497e+002, 1.310945e+002
9.280318e+002, 1.307039e+002
9.285139e+002, 1.303367e+002
9.289960e+002, 1.304254e+002
9.294781e+002, 1.306927e+002
9.299603e+002, 1.305101e+002
9.304424e+002, 1.298621e+002
9.309245e+002, 1.293188e+002
9.314066e+002, 1.292545e+002
9.318887e+002, 1.294113e+002
9.323708e+002, 1.293640e+002
9.328530e+002, 1.291864e+002
9.333351e+002, 1.292207e+002
9.338172e+002, 1.294703e+002
9.342993e+002, 1.296407e+002
9.347814e+002, 1.296034e+002
9.352635e+002, 1.296708e+002
9.357457e+002, 1.302684e+002
9.362278e+002, 1.312161e+002
9.367099e+002, 1.313640e+002
9.371920e+002, 1.304643e+002
9.376741e+002, 1.298408e+002
9.381563e+002, 1.296764e+002
9.386384e+002, 1.297319e+002
9.391205e+002, 1.299547e+002
9.396026e+002, 1.302552e+002
9.400847e+002, 1.304787e+002
9.405668e+002, 1.306181e+002
9.410490e+002, 1.307227e+002
9.415311e+002, 1.309165e+002
9.420132e+002, 1.309101e+002
9.424953e+002, 1.304811e+002
9.429774e+002, 1.299872e+002
9.434595e+002, 1.296689e+002
9.439417e+002, 1.295002e+002
9.444238e+002, 1.293913e+002
9.449059e+002, 1.293477e+002
9.453880e+002, 1.292755e+002
9.458701e+002, 1.291948e+002
9.463522e+002, 1.290182e+002
9.468344e+002, 1.286695e+002
9.473165e+002, 1.282012e+002
9.477986e+002, 1.276180e+002
9.482807e+002, 1.269772e+002
9.487628e+002, 1.264610e+002
9.492449e+002, 1.261647e+002
9.497271e+002, 1.260332e+002
9.502092e+002, 1.261720e+002
9.506913e+002, 1.263484e+002
9.511734e+002, 1.262237e+002
9.516555e+002, 1.257980e+002
9.521376e+002, 1.250741e+002
9.526198e+002, 1.240947e+002
9.531019e+002, 1.232702e+002
9.535840e+002, 1.230664e+002
9.540661e+002, 1.232005e+002
9.545482e+002, 1.229979e+002
9.550303e+002, 1.224946e+002
9.555124e+002, 1.218757e+002
9.559945e+002, 1.211657e+002
9.564766e+002, 1.205869e+002
9.569587e+002, 1.202708e+002
9.574409e+002, 1.200666e+002
9.579230e+002, 1.197459e+002
9.584051e+002, 1.193071e+002
9.588872e+002, 1.187761e+002
9.593693e+002, 1.180978e+002
9.598514e+002, 1.175363e+002
9.603336e+002, 1.170987e+002
9.608157e+002, 1.169263e+002
9.612978e+002, 1.172763e+002
9.617799e+002, 1.178838e+002
9.622620e+002, 1.179945e+002
9.627441e+002, 1.174710e+002
9.632263e+002, 1.168695e+002
9.637084e+002, 1.158476e+002
9.641905e+002, 1.152215e+002
9.646726e+002, 1.155255e+002
9.651547e+002, 1.160425e+002
9.656368e+002, 1.160834e+002
9.661190e+002, 1.157769e+002
9.666011e+002, 1.157945e+002
9.670832e+002, 1.164650e+002
9.675653e+002, 1.169601e+002
9.680474e+002, 1.170238e+002
9.685295e+002, 1.169525e+002
9.690117e+002, 1.168607e+002
9.694938e+002, 1.167675e+002
9.699759e+002, 1.166512e+002
9.704580e+002, 1.165287e+002
9.709401e+002, 1.165144e+002
9.714222e+002, 1.166920e+002
9.719044e+002, 1.169368e+002
9.723865e+002, 1.172530e+002
9.728686e+002, 1.175323e+002
9.733507e+002, 1.176622e+002
9.738328e+002, 1.176550e+002
9.743149e+002, 1.175078e+002
9.747971e+002, 1.172450e+002
9.752792e+002, 1.170849e+002
9.757613e+002, 1.173280e+002
9.762434e+002, 1.176272e+002
9.767255e+002, 1.174909e+002
9.772076e+002, 1.170646e+002
9.776898e+002, 1.165808e+002
9.781719e+002, 1.161145e+002
9.786540e+002, 1.158315e+002
9.791361e+002, 1.158079e+002
9.796182e+002, 1.158835e+002
9.801003e+002, 1.159050e+002
9.805825e+002, 1.158487e+002
9.810646e+002, 1.155464e+002
9.815467e+002, 1.150511e+002
9.820288e+002, 1.148290e+002
9.825109e+002, 1.149723e+002
9.829930e+002, 1.151473e+002
9.834752e+002, 1.151280e+002
9.839573e+002, 1.150563e+002
9.844394e+002, 1.152789e+002
9.849215e+002, 1.158011e+002
9.854036e+002, 1.157363e+002
9.858857e+002, 1.149138e+002
9.863679e+002, 1.145799e+002
9.868500e+002, 1.151958e+002
9.873321e+002, 1.159167e+002
9.878142e+002, 1.159777e+002
9.882963e+002, 1.156945e+002
9.887784e+002, 1.161552e+002
9.892606e+002, 1.178160e+002
9.897427e+002, 1.185565e+002
9.902248e+002, 1.179377e+002
9.907069e+002, 1.172260e+002
9.911890e+002, 1.166515e+002
9.916711e+002, 1.163213e+002
9.921533e+002, 1.164946e+002
9.926354e+002, 1.170422e+002
9.931175e+002, 1.171832e+002
9.935996e+002, 1.166168e+002
9.940817e+002, 1.161886e+002
9.945638e+002, 1.159957e+002
9.950460e+002, 1.158389e+002
9.955281e+002, 1.155557e+002
9.960102e+002, 1.153310e+002
9.964923e+002, 1.154044e+002
9.969744e+002, 1.157480e+002
9.974565e+002, 1.160876e+002
9.979387e+002, 1.164528e+002
9.984208e+002, 1.166742e+002
9.989029e+002, 1.165478e+002
9.993850e+002, 1.164323e+002
9.998671e+002, 1.167568e+002
1.000349e+003, 1.171263e+002
1.000831e+003, 1.168017e+002
1.001313e+003, 1.157983e+002
1.001796e+003, 1.151628e+002
1.002278e+003, 1.156940e+002
1.002760e+003, 1.161323e+002
1.003242e+003, 1.154826e+002
1.003724e+003, 1.146980e+002
1.004206e+003, 1.148252e+002
1.004688e+003, 1.154662e+002
1.005170e+003, 1.157200e+002
1.005653e+003, 1.153752e+002
1.006135e+003, 1.148371e+002
1.006617e+003, 1.141949e+002
1.007099e+003, 1.136859e+002
1.007581e+003, 1.137000e+002
1.008063e+003, 1.138835e+002
1.008545e+003, 1.137225e+002
1.009027e+003, 1.132640e+002
1.009509e+003, 1.127740e+002
1.009992e+003, 1.123575e+002
1.010474e+003, 1.120221e+002
1.010956e+003, 1.117771e+002
1.011438e+003, 1.116186e+002
1.011920e+003, 1.115629e+002
1.012402e+003, 1.115842e+002
1.012884e+003, 1.116606e+002
1.013366e+003, 1.117595e+002
1.013849e+003, 1.117497e+002
1.014331e+003, 1.115768e+002
1.014813e+003, 1.113882e+002
1.015295e+003, 1.113968e+002
1.015777e+003, 1.114748e+002
1.016259e+003, 1.111870e+002
1.016741e+003, 1.106583e+002
1.017223e+003, 1.106039e+002
1.017705e+003, 1.110676e+002
1.018188e+003, 1.111625e+002
1.018670e+003, 1.103964e+002
1.019152e+003, 1.097372e+002
1.019634e+003, 1.108249e+002
1.020116e+003, 1.130846e+002
1.020598e+003, 1.134490e+002
1.021080e+003, 1.120046e+002
1.021562e+003, 1.111630e+002
1.022044e+003, 1.113650e+002
1.022527e+003, 1.117264e+002
1.023009e+003, 1.117516e+002
1.023491e+003, 1.115902e+002
1.023973e+003, 1.114668e+002
1.024455e+003, 1.113813e+002
1.024937e+003, 1.113491e+002
1.025419e+003, 1.113865e+002
1.025901e+003, 1.113227e+002
1.026384e+003, 1.110920e+002
1.026866e+003, 1.109135e+002
1.027348e+003, 1.109291e+002
1.027830e+003, 1.110679e+002
1.028312e+003, 1.111947e+002
1.028794e+003, 1.113069e+002
1.029276e+003, 1.115442e+002
1.029758e+003, 1.120144e+002
1.030240e+003, 1.122014e+002
1.030723e+003, 1.118761e+002
1.031205e+003, 1.115633e+002
1.031687e+003, 1.116042e+002
1.032169e+003, 1.118806e+002
1.032651e+003, 1.121406e+002
1.033133e+003, 1.123532e+002
1.033615e+003, 1.128443e+002
1.034097e+003, 1.139820e+002
1.034579e+003, 1.145557e+002
1.035062e+003, 1.139665e+002
1.035544e+003, 1.133256e+002
1.036026e+003, 1.134025e+002
1.036508e+003, 1.139028e+002
1.036990e+003, 1.142081e+002
1.037472e+003, 1.142649e+002
1.037954e+003, 1.144263e+002
1.038436e+003, 1.148391e+002
1.038919e+003, 1.151179e+002
1.039401e+003, 1.151522e+002
1.039883e+003, 1.150819e+002
1.040365e+003, 1.148844e+002
1.040847e+003, 1.146801e+002
1.041329e+003, 1.147837e+002
1.041811e+003, 1.153122e+002
1.042293e+003, 1.155336e+002
1.042776e+003, 1.151244e+002
1.043258e+003, 1.148459e+002
1.043740e+003, 1.148171e+002
1.044222e+003, 1.149818e+002
1.044704e+003, 1.154612e+002
1.045186e+003, 1.160565e+002
1.045668e+003, 1.163651e+002
1.046150e+003, 1.163178e+002
1.046632e+003, 1.162934e+002
1.047115e+003, 1.162724e+002
1.047597e+003, 1.163602e+002
1.048079e+003, 1.167092e+002
1.048561e+003, 1.170504e+002
1.049043e+003, 1.172036e+002
1.049525e+003, 1.172154e+002
1.050007e+003, 1.171368e+002
1.050489e+003, 1.169485e+002
1.050971e+003, 1.169780e+002
1.051454e+003, 1.175553e+002
1.051936e+003, 1.179935e+002
1.052418e+003, 1.180303e+002
1.052900e+003, 1.179141e+002
1.053382e+003, 1.177648e+002
1.053864e+003, 1.176194e+002
1.054346e+003, 1.174651e+002
1.054828e+003, 1.172938e+002
1.055311e+003, 1.173957e+002
1.055793e+003, 1.181629e+002
1.056275e+003, 1.187880e+002
1.056757e+003, 1.188826e+002
1.057239e+003, 1.188450e+002
1.057721e+003, 1.189829e+002
1.058203e+003, 1.191990e+002
1.058685e+003, 1.192202e+002
1.059167e+003, 1.190167e+002
1.059650e+003, 1.190657e+002
1.060132e+003, 1.200000e+002
1.060614e+003, 1.205691e+002
1.061096e+003, 1.198678e+002
1.061578e+003, 1.190463e+002
1.062060e+003, 1.189589e+002
1.062542e+003, 1.193761e+002
1.063024e+003, 1.198971e+002
1.063506e+003, 1.204307e+002
1.063989e+003, 1.208433e+002
1.064471e+003, 1.212103e+002
1.064953e+003, 1.212730e+002
1.065435e+003, 1.204727e+002
1.065917e+003, 1.197745e+002
1.066399e+003, 1.200677e+002
1.066881e+003, 1.208867e+002
1.067363e+003, 1.215304e+002
1.067846e+003, 1.218674e+002
1.068328e+003, 1.219795e+002
1.068810e+003, 1.217536e+002
1.069292e+003, 1.215607e+002
1.069774e+003, 1.215387e+002
1.070256e+003, 1.216415e+002
1.070738e+003, 1.218767e+002
1.071220e+003, 1.221898e+002
1.071703e+003, 1.226449e+002
1.072185e+003, 1.231493e+002
1.072667e+003, 1.231796e+002
1.073149e+003, 1.221373e+002
1.073631e+003, 1.215339e+002
1.074113e+003, 1.225354e+002
1.074595e+003, 1.237448e+002
1.075077e+003, 1.243003e+002
1.075559e+003, 1.243497e+002
1.076042e+003, 1.238935e+002
1.076524e+003, 1.231716e+002
1.077006e+003, 1.230668e+002
1.077488e+003, 1.241246e+002
1.077970e+003, 1.250296e+002
1.078452e+003, 1.250581e+002
1.078934e+003, 1.248534e+002
1.079416e+003, 1.246864e+002
1.079898e+003, 1.246527e+002
1.080380e+003, 1.249202e+002
1.080863e+003, 1.253974e+002
1.081345e+003, 1.257654e+002
1.081827e+003, 1.259193e+002
1.082309e+003, 1.259895e+002
1.082791e+003, 1.255285e+002
1.083273e+003, 1.255890e+002
1.083755e+003, 1.274771e+002
1.084237e+003, 1.297085e+002
1.084720e+003, 1.307559e+002
1.085202e+003, 1.307218e+002
1.085684e+003, 1.302535e+002
1.086166e+003, 1.294586e+002
1.086648e+003, 1.288428e+002
1.087130e+003, 1.285980e+002
1.087612e+003, 1.286123e+002
1.088094e+003, 1.290329e+002
1.088577e+003, 1.295063e+002
1.089059e+003, 1.295756e+002
1.089541e+003, 1.294787e+002
1.090023e+003, 1.298892e+002
1.090505e+003, 1.309511e+002
1.090987e+003, 1.315812e+002
1.091469e+003, 1.309763e+002
1.091951e+003, 1.303953e+002
1.092433e+003, 1.302358e+002
1.092916e+003, 1.304459e+002
1.093398e+003, 1.312339e+002
1.093880e+003, 1.322442e+002
1.094362e+003, 1.329293e+002
1.094844e+003, 1.332165e+002
1.095326e+003, 1.333663e+002
1.095808e+003, 1.330958e+002
1.096290e+003, 1.332389e+002
1.096772e+003, 1.347633e+002
1.097255e+003, 1.360377e+002
1.097737e+003, 1.357018e+002
1.098219e+003, 1.346870e+002
1.098701e+003, 1.342393e+002
1.099183e+003, 1.344294e+002
1.099665e+003, 1.346764e+002
1.100147e+003, 1.347123e+002
1.100629e+003, 1.350806e+002
1.101112e+003, 1.364273e+002
1.101594e+003, 1.375333e+002
1.102076e+003, 1.374721e+002
1.102558e+003, 1.371199e+002
1.103040e+003, 1.374976e+002
1.103522e+003, 1.384374e+002
1.104004e+003, 1.390541e+002
1.104486e+003, 1.391186e+002
1.104969e+003, 1.391866e+002
1.105451e+003, 1.393515e+002
1.105933e+003, 1.395384e+002
1.106415e+003, 1.396624e+002
1.106897e+003, 1.398526e+002
1.107379e+003, 1.402317e+002
1.107861e+003, 1.407559e+002
1.108343e+003, 1.413430e+002
1.108825e+003, 1.420283e+002
1.109307e+003, 1.425405e+002
1.109790e+003, 1.427589e+002
1.110272e+003, 1.429413e+002
1.110754e+003, 1.430426e+002
1.111236e+003, 1.432222e+002
1.111718e+003, 1.436834e+002
1.112200e+003, 1.442348e+002
1.112682e+003, 1.444921e+002
1.113164e+003, 1.444237e+002
1.113647e+003, 1.446675e+002
1.114129e+003, 1.455369e+002
1.114611e+003, 1.461967e+002
1.115093e+003, 1.464968e+002
1.115575e+003, 1.467052e+002
1.116057e+003, 1.468625e+002
1.116539e+003, 1.470532e+002
1.117021e+003, 1.474162e+002
1.117504e+003, 1.479130e+002
1.117986e+003, 1.482481e+002
1.118468e+003, 1.483065e+002
1.118950e+003, 1.484666e+002
1.119432e+003, 1.487058e+002
1.119914e+003, 1.491075e+002
1.120396e+003, 1.497744e+002
1.120878e+003, 1.504829e+002
1.121360e+003, 1.510044e+002
1.121843e+003, 1.514569e+002
1.122325e+003, 1.522647e+002
1.122807e+003, 1.536160e+002
1.123289e+003, 1.540695e+002
1.123771e+003, 1.532364e+002
1.124253e+003, 1.528550e+002
1.124735e+003, 1.533638e+002
1.125217e+003, 1.542017e+002
1.125699e+003, 1.550792e+002
1.126182e+003, 1.559325e+002
1.126664e+003, 1.566402e+002
1.127146e+003, 1.572087e+002
1.127628e+003, 1.577797e+002
1.128110e+003, 1.583743e+002
1.128592e+003, 1.586592e+002
1.129074e+003, 1.585024e+002
1.129556e+003, 1.587529e+002
1.130039e+003, 1.598528e+002
1.130521e+003, 1.611763e+002
1.131003e+003, 1.620359e+002
1.131485e+003, 1.625014e+002
1.131967e+003, 1.626531e+002
1.132449e+003, 1.625397e+002
1.132931e+003, 1.632037e+002
1.133413e+003, 1.646770e+002
1.133896e+003, 1.657422e+002
1.134378e+003, 1.660281e+002
1.134860e+003, 1.659168e+002
1.135342e+003, 1.656360e+002
1.135824e+003, 1.654962e+002
1.136306e+003, 1.662605e+002
1.136788e+003, 1.676254e+002
1.137270e+003, 1.683188e+002
1.137752e+003, 1.684932e+002
1.138234e+003, 1.689669e+002
1.138717e+003, 1.698730e+002
1.139199e+003, 1.709723e+002
1.139681e+003, 1.721487e+002
1.140163e+003, 1.731801e+002
1.140645e+003, 1.738046e+002
1.141127e+003, 1.741487e+002
1.141609e+003, 1.742864e+002
1.142091e+003, 1.743935e+002
1.142574e+003, 1.749357e+002
1.143056e+003, 1.758254e+002
1.143538e+003, 1.766441e+002
1.144020e+003, 1.772531e+002
1.144502e+003, 1.777066e+002
1.144984e+003, 1.779112e+002
1.145466e+003, 1.783018e+002
1.145948e+003, 1.797045e+002
1.146431e+003, 1.812566e+002
1.146913e+003, 1.816635e+002
1.147395e+003, 1.814767e+002
1.147877e+003, 1.818178e+002
1.148359e+003, 1.827750e+002
1.148841e+003, 1.837263e+002
1.149323e+003, 1.844036e+002
1.149805e+003, 1.850974e+002
1.150287e+003, 1.860635e+002
1.150770e+003, 1.870296e+002
1.151252e+003, 1.877907e+002
1.151734e+003, 1.884548e+002
1.152216e+003, 1.890918e+002
1.152698e+003, 1.897496e+002
1.153180e+003, 1.905622e+002
1.153662e+003, 1.915550e+002
1.154144e+003, 1.923277e+002
1.154626e+003, 1.926160e+002
1.155109e+003, 1.928556e+002
1.155591e+003, 1.930565e+002
1.156073e+003, 1.933997e+002
1.156555e+003, 1.939903e+002
1.157037e+003, 1.947952e+002
1.157519e+003, 1.959157e+002
1.158001e+003, 1.972594e+002
1.158483e+003, 1.982090e+002
1.158966e+003, 1.984900e+002
1.159448e+003, 1.988585e+002
1.159930e+003, 1.992072e+002
1.160412e+003, 1.998700e+002
1.160894e+003, 2.012362e+002
1.161376e+003, 2.026078e+002
1.161858e+003, 2.034025e+002
1.162340e+003, 2.038738e+002
1.162822e+003, 2.045688e+002
1.163305e+003, 2.055079e+002
1.163787e+003, 2.064805e+002
1.164269e+003, 2.075544e+002
1.164751e+003, 2.084332e+002
1.165233e+003, 2.089912e+002
1.165715e+003, 2.096112e+002
1.166197e+003, 2.105196e+002
1.166679e+003, 2.114403e+002
1.167161e+003, 2.119992e+002
1.167644e+003, 2.123492e+002
1.168126e+003, 2.132447e+002
1.168608e+003, 2.147198e+002
1.169090e+003, 2.155726e+002
1.169572e+003, 2.157293e+002
1.170054e+003, 2.160092e+002
1.170536e+003, 2.166309e+002
1.171018e+003, 2.175353e+002
1.171500e+003, 2.187238e+002
1.171983e+003, 2.198754e+002
1.172465e+003, 2.202586e+002
1.172947e+003, 2.202666e+002
1.173429e+003, 2.213809e+002
1.173911e+003, 2.232959e+002
1.174393e+003, 2.249673e+002
1.174875e+003, 2.262301e+002
1.175357e+003, 2.270085e+002
1.175840e+003, 2.273272e+002
1.176322e+003, 2.277631e+002
1.176804e+003, 2.288533e+002
1.177286e+003, 2.301650e+002
1.177768e+003, 2.310719e+002
1.178250e+003, 2.319218e+002
1.178732e+003, 2.334175e+002
1.179214e+003, 2.351757e+002
1.179697e+003, 2.363665e+002
1.180179e+003, 2.369598e+002
1.180661e+003, 2.374573e+002
1.181143e+003, 2.380541e+002
1.181625e+003, 2.386738e+002
1.182107e+003, 2.391649e+002
1.182589e+003, 2.397851e+002
1.183071e+003, 2.407847e+002
1.183553e+003, 2.419166e+002
1.184036e+003, 2.428855e+002
1.184518e+003, 2.438274e+002
1.185000e+003, 2.451205e+002
1.185482e+003, 2.467851e+002
1.185964e+003, 2.482024e+002
1.186446e+003, 2.492687e+002
1.186928e+003, 2.500317e+002
1.187410e+003, 2.499419e+002
1.187892e+003, 2.502498e+002
1.188375e+003, 2.517661e+002
1.188857e+003, 2.536710e+002
1.189339e+003, 2.552331e+002
1.189821e+003, 2.565717e+002
1.190303e+003, 2.580419e+002
1.190785e+003, 2.597625e+002
1.191267e+003, 2.608597e+002
1.191749e+003, 2.610274e+002
1.192232e+003, 2.613876e+002
1.192714e+003, 2.620286e+002
1.193196e+003, 2.632171e+002
1.193678e+003, 2.652862e+002
1.194160e+003, 2.673535e+002
1.194642e+003, 2.682482e+002
1.195124e+003, 2.683332e+002
1.195606e+003, 2.690290e+002
1.196089e+003, 2.703146e+002
1.196571e+003, 2.716927e+002
1.197053e+003, 2.731388e+002
1.197535e+003, 2.749192e+002
1.198017e+003, 2.770591e+002
1.198499e+003, 2.789148e+002
1.198981e+003, 2.800836e+002
1.199463e+003, 2.808017e+002
1.199945e+003, 2.810497e+002
1.200427e+003, 2.813156e+002
1.200910e+003, 2.828444e+002
1.201392e+003, 2.850591e+002
1.201874e+003, 2.867018e+002
1.202356e+003, 2.878192e+002
1.202838e+003, 2.889714e+002
1.203320e+003, 2.903305e+002
1.203802e+003, 2.917675e+002
1.204284e+003, 2.931610e+002
1.204767e+003, 2.947580e+002
1.205249e+003, 2.969836e+002
1.205731e+003, 2.992235e+002
1.206213e+003, 3.007699e+002
1.206695e+003, 3.021635e+002
1.207177e+003, 3.040809e+002
1.207659e+003, 3.064452e+002
1.208141e+003, 3.090038e+002
1.208624e+003, 3.117438e+002
1.209106e+003, 3.138708e+002
1.209588e+003, 3.147049e+002
1.210070e+003, 3.156261e+002
1.210552e+003, 3.170124e+002
1.211034e+003, 3.184574e+002
1.211516e+003, 3.196714e+002
1.211998e+003, 3.209166e+002
1.212480e+003, 3.224117e+002
1.212963e+003, 3.241666e+002
1.213445e+003, 3.262372e+002
1.213927e+003, 3.287176e+002
1.214409e+003, 3.310296e+002
1.214891e+003, 3.331717e+002
1.215373e+003, 3.351319e+002
1.215855e+003, 3.368967e+002
1.216337e+003, 3.384680e+002
1.216819e+003, 3.397677e+002
1.217302e+003, 3.412810e+002
1.217784e+003, 3.436754e+002
1.218266e+003, 3.466324e+002
1.218748e+003, 3.491501e+002
1.219230e+003, 3.513119e+002
1.219712e+003, 3.535232e+002
1.220194e+003, 3.558035e+002
1.220676e+003, 3.579792e+002
1.221159e+003, 3.600846e+002
1.221641e+003, 3.626317e+002
1.222123e+003, 3.659272e+002
1.222605e+003, 3.692493e+002
1.223087e+003, 3.716178e+002
1.223569e+003, 3.738878e+002
1.224051e+003, 3.773200e+002
1.224533e+003, 3.810335e+002
1.225016e+003, 3.835004e+002
1.225498e+003, 3.854268e+002
1.225980e+003, 3.886365e+002
1.226462e+003, 3.931120e+002
1.226944e+003, 3.967664e+002
1.227426e+003, 3.983169e+002
1.227908e+003, 4.005728e+002
1.228390e+003, 4.054243e+002
1.228872e+003, 4.099223e+002
1.229354e+003, 4.120853e+002
1.229837e+003, 4.141471e+002
1.230319e+003, 4.182573e+002
1.230801e+003, 4.232882e+002
1.231283e+003, 4.269961e+002
1.231765e+003, 4.294605e+002
1.232247e+003, 4.329920e+002
1.232729e+003, 4.381410e+002
1.233211e+003, 4.426271e+002
1.233694e+003, 4.461578e+002
1.234176e+003, 4.498407e+002
1.234658e+003, 4.540909e+002
1.235140e+003, 4.581607e+002
1.235622e+003, 4.614246e+002
1.236104e+003, 4.646202e+002
1.236586e+003, 4.690520e+002
1.237068e+003, 4.744738e+002
1.237551e+003, 4.802704e+002
1.238033e+003, 4.861669e+002
1.238515e+003, 4.909438e+002
1.238997e+003, 4.946703e+002
1.239479e+003, 4.981809e+002
1.239961e+003, 5.018367e+002
1.240443e+003, 5.061852e+002
1.240925e+003, 5.116489e+002
1.241407e+003, 5.175463e+002
1.241890e+003, 5.232563e+002
1.242372e+003, 5.290515e+002
1.242854e+003, 5.354950e+002
1.243336e+003, 5.420348e+002
1.243818e+003, 5.478109e+002
1.244300e+003, 5.532173e+002
1.244782e+003, 5.592523e+002
1.245264e+003, 5.660518e+002
1.245746e+003, 5.725746e+002
1.246229e+003, 5.783817e+002
1.246711e+003, 5.841740e+002
1.247193e+003, 5.897316e+002
1.247675e+003, 5.957841e+002
1.248157e+003, 6.028009e+002
1.248639e+003, 6.101046e+002
1.249121e+003, 6.171208e+002
1.249603e+003, 6.242311e+002
1.250085e+003, 6.323168e+002
1.250568e+003, 6.412633e+002
1.251050e+003, 6.492238e+002
1.251532e+003, 6.560720e+002
1.252014e+003, 6.631641e+002
1.252496e+003, 6.706114e+002
1.252978e+003, 6.788392e+002
1.253460e+003, 6.879739e+002
1.253942e+003, 6.972589e+002
1.254425e+003, 7.061494e+002
1.254907e+003, 7.146195e+002
1.255389e+003, 7.219826e+002
1.255871e+003, 7.292299e+002
1.256353e+003, 7.384875e+002
1.256835e+003, 7.488021e+002
1.257317e+003, 7.579940e+002
1.257799e+003, 7.665897e+002
1.258281e+003, 7.766603e+002
1.258764e+003, 7.882990e+002
1.259246e+003, 7.995247e+002
1.259728e+003, 8.094050e+002
1.260210e+003, 8.190162e+002
1.260692e+003, 8.284217e+002
1.261174e+003, 8.382405e+002
1.261656e+003, 8.487485e+002
1.262138e+003, 8.598619e+002
1.262620e+003, 8.720063e+002
1.263103e+003, 8.844575e+002
1.263585e+003, 8.957571e+002
1.264067e+003, 9.061984e+002
1.264549e+003, 9.176445e+002
1.265031e+003, 9.304584e+002
1.265513e+003, 9.430984e+002
1.265995e+003, 9.554305e+002
1.266477e+003, 9.678936e+002
1.266960e+003, 9.805924e+002
1.267442e+003, 9.934758e+002
1.267924e+003, 1.006541e+003
1.268406e+003, 1.019632e+003
1.268888e+003, 1.032756e+003
1.269370e+003, 1.045760e+003
1.269852e+003, 1.058239e+003
1.270334e+003, 1.070441e+003
1.270817e+003, 1.083115e+003
1.271299e+003, 1.096145e+003
1.271781e+003, 1.108997e+003
1.272263e+003, 1.121697e+003
1.272745e+003, 1.134750e+003
1.273227e+003, 1.148338e+003
1.273709e+003, 1.162070e+003
1.274191e+003, 1.176290e+003
1.274673e+003, 1.189897e+003
1.275156e+003, 1.201439e+003
1.275638e+003, 1.213380e+003
1.276120e+003, 1.227760e+003
1.276602e+003, 1.243221e+003
1.277084e+003, 1.258633e+003
1.277566e+003, 1.273729e+003
1.278048e+003, 1.287420e+003
1.278530e+003, 1.299460e+003
1.279012e+003, 1.312536e+003
1.279495e+003, 1.326904e+003
1.279977e+003, 1.341111e+003
1.280459e+003, 1.355044e+003
1.280941e+003, 1.368731e+003
1.281423e+003, 1.382162e+003
1.281905e+003, 1.395550e+003
1.282387e+003, 1.409190e+003
1.282869e+003, 1.422959e+003
1.283352e+003, 1.436908e+003
1.283834e+003, 1.450489e+003
1.284316e+003, 1.462375e+003
1.284798e+003, 1.472643e+003
##END=



