##NAMES=Cassiterite
##RRUFFID=R060563
##IDEAL CHEMISTRY=SnO_2_
##LOCALITY=unknown
##OWNER=RRUFF
##SOURCE=Gemological Institute of America
##DESCRIPTION=Dark brown fragment
##STATUS=The identification of this mineral has been confirmed by X-ray diffraction and chemical analysis
##URL=rruff.info/R060563
##MEASURED CHEMISTRY=Sn_1.00_O_2_
9.059570e+001, 1.581865e+003
9.107782e+001, 1.571143e+003
9.155994e+001, 1.567408e+003
9.204205e+001, 1.577741e+003
9.252417e+001, 1.590156e+003
9.300629e+001, 1.600146e+003
9.348840e+001, 1.598216e+003
9.397052e+001, 1.575524e+003
9.445264e+001, 1.530667e+003
9.493475e+001, 1.480703e+003
9.541687e+001, 1.438239e+003
9.589898e+001, 1.406105e+003
9.638110e+001, 1.379910e+003
9.686321e+001, 1.355959e+003
9.734533e+001, 1.331703e+003
9.782745e+001, 1.305077e+003
9.830956e+001, 1.281706e+003
9.879168e+001, 1.262463e+003
9.927380e+001, 1.244666e+003
9.975591e+001, 1.227537e+003
1.002380e+002, 1.210908e+003
1.007201e+002, 1.195027e+003
1.012023e+002, 1.180317e+003
1.016844e+002, 1.166202e+003
1.021665e+002, 1.150885e+003
1.026486e+002, 1.131967e+003
1.031307e+002, 1.113135e+003
1.036128e+002, 1.098130e+003
1.040950e+002, 1.087249e+003
1.045771e+002, 1.077655e+003
1.050592e+002, 1.067272e+003
1.055413e+002, 1.056548e+003
1.060234e+002, 1.046287e+003
1.065055e+002, 1.036196e+003
1.069877e+002, 1.026635e+003
1.074698e+002, 1.019559e+003
1.079519e+002, 1.018194e+003
1.084340e+002, 1.015161e+003
1.089161e+002, 1.008040e+003
1.093982e+002, 9.969855e+002
1.098804e+002, 9.826923e+002
1.103625e+002, 9.645098e+002
1.108446e+002, 9.408272e+002
1.113267e+002, 9.221707e+002
1.118088e+002, 9.102540e+002
1.122909e+002, 9.013248e+002
1.127731e+002, 8.947787e+002
1.132552e+002, 8.900168e+002
1.137373e+002, 8.857354e+002
1.142194e+002, 8.800214e+002
1.147015e+002, 8.707542e+002
1.151836e+002, 8.639263e+002
1.156658e+002, 8.611965e+002
1.161479e+002, 8.599859e+002
1.166300e+002, 8.579379e+002
1.171121e+002, 8.542166e+002
1.175942e+002, 8.492285e+002
1.180763e+002, 8.437000e+002
1.185584e+002, 8.371658e+002
1.190406e+002, 8.311141e+002
1.195227e+002, 8.260615e+002
1.200048e+002, 8.218392e+002
1.204869e+002, 8.179151e+002
1.209690e+002, 8.139558e+002
1.214511e+002, 8.103430e+002
1.219333e+002, 8.075103e+002
1.224154e+002, 8.053769e+002
1.228975e+002, 8.041291e+002
1.233796e+002, 8.042950e+002
1.238617e+002, 8.060437e+002
1.243438e+002, 8.077200e+002
1.248260e+002, 8.096183e+002
1.253081e+002, 8.106259e+002
1.257902e+002, 8.092375e+002
1.262723e+002, 8.043943e+002
1.267544e+002, 7.975380e+002
1.272365e+002, 7.919241e+002
1.277187e+002, 7.880031e+002
1.282008e+002, 7.846925e+002
1.286829e+002, 7.813852e+002
1.291650e+002, 7.783958e+002
1.296471e+002, 7.763584e+002
1.301292e+002, 7.759346e+002
1.306114e+002, 7.769035e+002
1.310935e+002, 7.759332e+002
1.315756e+002, 7.707761e+002
1.320577e+002, 7.657190e+002
1.325398e+002, 7.623173e+002
1.330219e+002, 7.599814e+002
1.335041e+002, 7.569905e+002
1.339862e+002, 7.516151e+002
1.344683e+002, 7.431378e+002
1.349504e+002, 7.370935e+002
1.354325e+002, 7.346741e+002
1.359146e+002, 7.331923e+002
1.363968e+002, 7.314462e+002
1.368789e+002, 7.292014e+002
1.373610e+002, 7.264900e+002
1.378431e+002, 7.232646e+002
1.383252e+002, 7.193434e+002
1.388073e+002, 7.157740e+002
1.392895e+002, 7.122699e+002
1.397716e+002, 7.092633e+002
1.402537e+002, 7.077031e+002
1.407358e+002, 7.081546e+002
1.412179e+002, 7.086821e+002
1.417000e+002, 7.066304e+002
1.421821e+002, 7.023018e+002
1.426643e+002, 6.972648e+002
1.431464e+002, 6.915135e+002
1.436285e+002, 6.854142e+002
1.441106e+002, 6.802631e+002
1.445927e+002, 6.765032e+002
1.450748e+002, 6.737395e+002
1.455570e+002, 6.716923e+002
1.460391e+002, 6.703434e+002
1.465212e+002, 6.689283e+002
1.470033e+002, 6.665626e+002
1.474854e+002, 6.630848e+002
1.479675e+002, 6.602067e+002
1.484497e+002, 6.593230e+002
1.489318e+002, 6.584409e+002
1.494139e+002, 6.562896e+002
1.498960e+002, 6.526533e+002
1.503781e+002, 6.484390e+002
1.508602e+002, 6.449297e+002
1.513424e+002, 6.420633e+002
1.518245e+002, 6.401119e+002
1.523066e+002, 6.394902e+002
1.527887e+002, 6.393556e+002
1.532708e+002, 6.390914e+002
1.537529e+002, 6.384618e+002
1.542351e+002, 6.375844e+002
1.547172e+002, 6.367353e+002
1.551993e+002, 6.353945e+002
1.556814e+002, 6.347897e+002
1.561635e+002, 6.358359e+002
1.566456e+002, 6.373890e+002
1.571278e+002, 6.380849e+002
1.576099e+002, 6.372308e+002
1.580920e+002, 6.351052e+002
1.585741e+002, 6.328176e+002
1.590562e+002, 6.296225e+002
1.595383e+002, 6.270927e+002
1.600205e+002, 6.259159e+002
1.605026e+002, 6.257235e+002
1.609847e+002, 6.257272e+002
1.614668e+002, 6.255761e+002
1.619489e+002, 6.252048e+002
1.624310e+002, 6.244527e+002
1.629131e+002, 6.229442e+002
1.633953e+002, 6.214485e+002
1.638774e+002, 6.205573e+002
1.643595e+002, 6.201987e+002
1.648416e+002, 6.196614e+002
1.653237e+002, 6.183753e+002
1.658058e+002, 6.166212e+002
1.662880e+002, 6.150677e+002
1.667701e+002, 6.137224e+002
1.672522e+002, 6.126469e+002
1.677343e+002, 6.119799e+002
1.682164e+002, 6.117833e+002
1.686985e+002, 6.117078e+002
1.691807e+002, 6.116100e+002
1.696628e+002, 6.114987e+002
1.701449e+002, 6.113798e+002
1.706270e+002, 6.112458e+002
1.711091e+002, 6.111110e+002
1.715912e+002, 6.110812e+002
1.720734e+002, 6.114287e+002
1.725555e+002, 6.113372e+002
1.730376e+002, 6.101448e+002
1.735197e+002, 6.084570e+002
1.740018e+002, 6.071703e+002
1.744839e+002, 6.069373e+002
1.749661e+002, 6.075263e+002
1.754482e+002, 6.075003e+002
1.759303e+002, 6.061350e+002
1.764124e+002, 6.049384e+002
1.768945e+002, 6.042451e+002
1.773766e+002, 6.040073e+002
1.778588e+002, 6.041140e+002
1.783409e+002, 6.045096e+002
1.788230e+002, 6.051974e+002
1.793051e+002, 6.059230e+002
1.797872e+002, 6.073392e+002
1.802693e+002, 6.081599e+002
1.807515e+002, 6.073796e+002
1.812336e+002, 6.055580e+002
1.817157e+002, 6.041264e+002
1.821978e+002, 6.043793e+002
1.826799e+002, 6.065523e+002
1.831620e+002, 6.081149e+002
1.836441e+002, 6.088307e+002
1.841263e+002, 6.092973e+002
1.846084e+002, 6.096708e+002
1.850905e+002, 6.100197e+002
1.855726e+002, 6.104777e+002
1.860547e+002, 6.111924e+002
1.865368e+002, 6.122133e+002
1.870190e+002, 6.130916e+002
1.875011e+002, 6.137208e+002
1.879832e+002, 6.142863e+002
1.884653e+002, 6.148569e+002
1.889474e+002, 6.154501e+002
1.894296e+002, 6.162017e+002
1.899117e+002, 6.173154e+002
1.903938e+002, 6.187813e+002
1.908759e+002, 6.201588e+002
1.913580e+002, 6.212754e+002
1.918401e+002, 6.223350e+002
1.923223e+002, 6.235278e+002
1.928044e+002, 6.248613e+002
1.932865e+002, 6.264190e+002
1.937686e+002, 6.284115e+002
1.942507e+002, 6.307257e+002
1.947328e+002, 6.330712e+002
1.952150e+002, 6.353916e+002
1.956971e+002, 6.376840e+002
1.961792e+002, 6.399619e+002
1.966613e+002, 6.422458e+002
1.971434e+002, 6.444578e+002
1.976255e+002, 6.464252e+002
1.981077e+002, 6.482675e+002
1.985898e+002, 6.502713e+002
1.990719e+002, 6.525623e+002
1.995540e+002, 6.551398e+002
2.000361e+002, 6.579667e+002
2.005182e+002, 6.610247e+002
2.010004e+002, 6.644246e+002
2.014825e+002, 6.681024e+002
2.019646e+002, 6.720892e+002
2.024467e+002, 6.764288e+002
2.029288e+002, 6.813091e+002
2.034109e+002, 6.866935e+002
2.038930e+002, 6.917510e+002
2.043752e+002, 6.959659e+002
2.048573e+002, 7.003726e+002
2.053394e+002, 7.055040e+002
2.058215e+002, 7.111373e+002
2.063036e+002, 7.167137e+002
2.067857e+002, 7.215907e+002
2.072679e+002, 7.256843e+002
2.077500e+002, 7.307450e+002
2.082321e+002, 7.375000e+002
2.087142e+002, 7.446327e+002
2.091963e+002, 7.517248e+002
2.096784e+002, 7.588274e+002
2.101606e+002, 7.661912e+002
2.106427e+002, 7.740355e+002
2.111248e+002, 7.823079e+002
2.116069e+002, 7.911253e+002
2.120890e+002, 8.002633e+002
2.125711e+002, 8.100488e+002
2.130533e+002, 8.208959e+002
2.135354e+002, 8.325918e+002
2.140175e+002, 8.445818e+002
2.144996e+002, 8.562559e+002
2.149817e+002, 8.674069e+002
2.154638e+002, 8.800068e+002
2.159460e+002, 8.943880e+002
2.164281e+002, 9.095760e+002
2.169102e+002, 9.252080e+002
2.173923e+002, 9.412123e+002
2.178744e+002, 9.578312e+002
2.183565e+002, 9.751591e+002
2.188387e+002, 9.932341e+002
2.193208e+002, 1.012339e+003
2.198029e+002, 1.032556e+003
2.202850e+002, 1.053660e+003
2.207671e+002, 1.075518e+003
2.212492e+002, 1.098135e+003
2.217314e+002, 1.121603e+003
2.222135e+002, 1.145971e+003
2.226956e+002, 1.171370e+003
2.231777e+002, 1.197867e+003
2.236598e+002, 1.225794e+003
2.241419e+002, 1.254576e+003
2.246240e+002, 1.283571e+003
2.251062e+002, 1.312825e+003
2.255883e+002, 1.342751e+003
2.260704e+002, 1.373620e+003
2.265525e+002, 1.405499e+003
2.270346e+002, 1.438769e+003
2.275167e+002, 1.473316e+003
2.279989e+002, 1.509302e+003
2.284810e+002, 1.546581e+003
2.289631e+002, 1.585085e+003
2.294452e+002, 1.624681e+003
2.299273e+002, 1.664805e+003
2.304094e+002, 1.705826e+003
2.308916e+002, 1.749025e+003
2.313737e+002, 1.794526e+003
2.318558e+002, 1.842216e+003
2.323379e+002, 1.892111e+003
2.328200e+002, 1.944278e+003
2.333021e+002, 1.998047e+003
2.337843e+002, 2.053462e+003
2.342664e+002, 2.110423e+003
2.347485e+002, 2.169097e+003
2.352306e+002, 2.229602e+003
2.357127e+002, 2.291777e+003
2.361948e+002, 2.356271e+003
2.366770e+002, 2.424076e+003
2.371591e+002, 2.491646e+003
2.376412e+002, 2.558346e+003
2.381233e+002, 2.623736e+003
2.386054e+002, 2.688030e+003
2.390875e+002, 2.752391e+003
2.395697e+002, 2.814125e+003
2.400518e+002, 2.869562e+003
2.405339e+002, 2.920028e+003
2.410160e+002, 2.960165e+003
2.414981e+002, 2.992249e+003
2.419802e+002, 3.011900e+003
2.424624e+002, 3.014087e+003
2.429445e+002, 2.997579e+003
2.434266e+002, 2.961176e+003
2.439087e+002, 2.902025e+003
2.443908e+002, 2.818184e+003
2.448729e+002, 2.715547e+003
2.453550e+002, 2.588262e+003
2.458372e+002, 2.448935e+003
2.463193e+002, 2.305288e+003
2.468014e+002, 2.159218e+003
2.472835e+002, 2.015266e+003
2.477656e+002, 1.878147e+003
2.482477e+002, 1.746735e+003
2.487299e+002, 1.626849e+003
2.492120e+002, 1.519871e+003
2.496941e+002, 1.423081e+003
2.501762e+002, 1.335388e+003
2.506583e+002, 1.256237e+003
2.511404e+002, 1.185281e+003
2.516226e+002, 1.121590e+003
2.521047e+002, 1.066834e+003
2.525868e+002, 1.017017e+003
2.530689e+002, 9.713400e+002
2.535510e+002, 9.297111e+002
2.540331e+002, 8.920245e+002
2.545153e+002, 8.583028e+002
2.549974e+002, 8.281672e+002
2.554795e+002, 8.010848e+002
2.559616e+002, 7.780881e+002
2.564437e+002, 7.563978e+002
2.569258e+002, 7.351608e+002
2.574080e+002, 7.154542e+002
2.578901e+002, 6.981233e+002
2.583722e+002, 6.832488e+002
2.588543e+002, 6.699535e+002
2.593364e+002, 6.570807e+002
2.598185e+002, 6.444406e+002
2.603007e+002, 6.328151e+002
2.607828e+002, 6.220065e+002
2.612649e+002, 6.120075e+002
2.617470e+002, 6.027911e+002
2.622291e+002, 5.943464e+002
2.627112e+002, 5.868580e+002
2.631934e+002, 5.805456e+002
2.636755e+002, 5.756861e+002
2.641576e+002, 5.711043e+002
2.646397e+002, 5.666346e+002
2.651218e+002, 5.625231e+002
2.656039e+002, 5.587060e+002
2.660861e+002, 5.553216e+002
2.665682e+002, 5.528498e+002
2.670503e+002, 5.519542e+002
2.675324e+002, 5.530864e+002
2.680145e+002, 5.528334e+002
2.684966e+002, 5.511725e+002
2.689788e+002, 5.484867e+002
2.694609e+002, 5.444001e+002
2.699430e+002, 5.393083e+002
2.704251e+002, 5.342377e+002
2.709072e+002, 5.299073e+002
2.713893e+002, 5.263284e+002
2.718715e+002, 5.242584e+002
2.723536e+002, 5.227523e+002
2.728357e+002, 5.232736e+002
2.733178e+002, 5.268849e+002
2.737999e+002, 5.331031e+002
2.742820e+002, 5.405761e+002
2.747642e+002, 5.483699e+002
2.752463e+002, 5.565999e+002
2.757284e+002, 5.666878e+002
2.762105e+002, 5.771807e+002
2.766926e+002, 5.905216e+002
2.771747e+002, 6.081317e+002
2.776568e+002, 6.292909e+002
2.781389e+002, 6.520438e+002
2.786211e+002, 6.751359e+002
2.791032e+002, 6.992686e+002
2.795853e+002, 7.282201e+002
2.800674e+002, 7.602545e+002
2.805495e+002, 7.979256e+002
2.810316e+002, 8.420187e+002
2.815138e+002, 8.921780e+002
2.819959e+002, 9.482564e+002
2.824780e+002, 1.010368e+003
2.829601e+002, 1.077673e+003
2.834422e+002, 1.147596e+003
2.839243e+002, 1.224109e+003
2.844065e+002, 1.296090e+003
2.848886e+002, 1.370760e+003
2.853707e+002, 1.437135e+003
2.858528e+002, 1.481228e+003
2.863349e+002, 1.499169e+003
2.868170e+002, 1.489013e+003
2.872992e+002, 1.441270e+003
2.877813e+002, 1.347724e+003
2.882634e+002, 1.250085e+003
2.887455e+002, 1.147446e+003
2.892276e+002, 1.047285e+003
2.897097e+002, 9.589775e+002
2.901919e+002, 8.846026e+002
2.906740e+002, 8.219506e+002
2.911561e+002, 7.690673e+002
2.916382e+002, 7.268506e+002
2.921203e+002, 6.904762e+002
2.926024e+002, 6.607547e+002
2.930846e+002, 6.360040e+002
2.935667e+002, 6.153171e+002
2.940488e+002, 5.984277e+002
2.945309e+002, 5.839603e+002
2.950130e+002, 5.708731e+002
2.954951e+002, 5.592971e+002
2.959773e+002, 5.488769e+002
2.964594e+002, 5.397153e+002
2.969415e+002, 5.316254e+002
2.974236e+002, 5.246072e+002
2.979057e+002, 5.186366e+002
2.983878e+002, 5.133157e+002
2.988700e+002, 5.084197e+002
2.993521e+002, 5.040140e+002
2.998342e+002, 5.000651e+002
3.003163e+002, 4.971276e+002
3.007984e+002, 4.941640e+002
3.012805e+002, 4.902217e+002
3.017627e+002, 4.855832e+002
3.022448e+002, 4.815133e+002
3.027269e+002, 4.787420e+002
3.032090e+002, 4.769520e+002
3.036911e+002, 4.750859e+002
3.041732e+002, 4.732055e+002
3.046554e+002, 4.711624e+002
3.051375e+002, 4.689622e+002
3.056196e+002, 4.665568e+002
3.061017e+002, 4.638165e+002
3.065838e+002, 4.606955e+002
3.070659e+002, 4.572176e+002
3.075481e+002, 4.532867e+002
3.080302e+002, 4.486723e+002
3.085123e+002, 4.445327e+002
3.089944e+002, 4.416208e+002
3.094765e+002, 4.393550e+002
3.099586e+002, 4.367002e+002
3.104408e+002, 4.333350e+002
3.109229e+002, 4.298397e+002
3.114050e+002, 4.270062e+002
3.118871e+002, 4.248017e+002
3.123692e+002, 4.229001e+002
3.128513e+002, 4.215428e+002
3.133335e+002, 4.203163e+002
3.138156e+002, 4.186593e+002
3.142977e+002, 4.164815e+002
3.147798e+002, 4.142045e+002
3.152619e+002, 4.122213e+002
3.157440e+002, 4.105045e+002
3.162262e+002, 4.086783e+002
3.167083e+002, 4.064819e+002
3.171904e+002, 4.043272e+002
3.176725e+002, 4.026777e+002
3.181546e+002, 4.014957e+002
3.186367e+002, 4.002245e+002
3.191188e+002, 3.984777e+002
3.196010e+002, 3.963255e+002
3.200831e+002, 3.941992e+002
3.205652e+002, 3.919070e+002
3.210473e+002, 3.898171e+002
3.215294e+002, 3.882229e+002
3.220115e+002, 3.870264e+002
3.224937e+002, 3.858815e+002
3.229758e+002, 3.846897e+002
3.234579e+002, 3.833891e+002
3.239400e+002, 3.818273e+002
3.244221e+002, 3.798571e+002
3.249042e+002, 3.779840e+002
3.253864e+002, 3.764799e+002
3.258685e+002, 3.751797e+002
3.263506e+002, 3.737846e+002
3.268327e+002, 3.722154e+002
3.273148e+002, 3.704659e+002
3.277969e+002, 3.684597e+002
3.282791e+002, 3.661574e+002
3.287612e+002, 3.639045e+002
3.292433e+002, 3.618358e+002
3.297254e+002, 3.598236e+002
3.302075e+002, 3.577235e+002
3.306896e+002, 3.555107e+002
3.311718e+002, 3.532128e+002
3.316539e+002, 3.506897e+002
3.321360e+002, 3.479285e+002
3.326181e+002, 3.459935e+002
3.331002e+002, 3.456571e+002
3.335823e+002, 3.456081e+002
3.340645e+002, 3.449235e+002
3.345466e+002, 3.435987e+002
3.350287e+002, 3.420322e+002
3.355108e+002, 3.404551e+002
3.359929e+002, 3.388730e+002
3.364750e+002, 3.373650e+002
3.369572e+002, 3.357230e+002
3.374393e+002, 3.343369e+002
3.379214e+002, 3.335759e+002
3.384035e+002, 3.331985e+002
3.388856e+002, 3.326263e+002
3.393677e+002, 3.315718e+002
3.398499e+002, 3.302079e+002
3.403320e+002, 3.290092e+002
3.408141e+002, 3.281356e+002
3.412962e+002, 3.271176e+002
3.417783e+002, 3.257468e+002
3.422604e+002, 3.242240e+002
3.427426e+002, 3.228274e+002
3.432247e+002, 3.216421e+002
3.437068e+002, 3.205301e+002
3.441889e+002, 3.192963e+002
3.446710e+002, 3.178623e+002
3.451531e+002, 3.165455e+002
3.456353e+002, 3.154547e+002
3.461174e+002, 3.144198e+002
3.465995e+002, 3.132601e+002
3.470816e+002, 3.119964e+002
3.475637e+002, 3.108530e+002
3.480458e+002, 3.101158e+002
3.485280e+002, 3.098208e+002
3.490101e+002, 3.089130e+002
3.494922e+002, 3.068194e+002
3.499743e+002, 3.048011e+002
3.504564e+002, 3.034136e+002
3.509385e+002, 3.025406e+002
3.514207e+002, 3.018692e+002
3.519028e+002, 3.012480e+002
3.523849e+002, 3.006381e+002
3.528670e+002, 2.998549e+002
3.533491e+002, 2.986944e+002
3.538312e+002, 2.976187e+002
3.543134e+002, 2.964554e+002
3.547955e+002, 2.954966e+002
3.552776e+002, 2.953329e+002
3.557597e+002, 2.961296e+002
3.562418e+002, 2.970647e+002
3.567239e+002, 2.966682e+002
3.572061e+002, 2.937817e+002
3.576882e+002, 2.919164e+002
3.581703e+002, 2.915770e+002
3.586524e+002, 2.917704e+002
3.591345e+002, 2.920318e+002
3.596166e+002, 2.921996e+002
3.600987e+002, 2.921473e+002
3.605808e+002, 2.917625e+002
3.610630e+002, 2.910477e+002
3.615451e+002, 2.899353e+002
3.620272e+002, 2.881195e+002
3.625093e+002, 2.862552e+002
3.629914e+002, 2.844366e+002
3.634735e+002, 2.827334e+002
3.639557e+002, 2.812592e+002
3.644378e+002, 2.800815e+002
3.649199e+002, 2.791735e+002
3.654020e+002, 2.784286e+002
3.658841e+002, 2.779961e+002
3.663662e+002, 2.775338e+002
3.668484e+002, 2.770720e+002
3.673305e+002, 2.765326e+002
3.678126e+002, 2.757999e+002
3.682947e+002, 2.748524e+002
3.687768e+002, 2.738283e+002
3.692589e+002, 2.729207e+002
3.697411e+002, 2.721175e+002
3.702232e+002, 2.714805e+002
3.707053e+002, 2.711177e+002
3.711874e+002, 2.708180e+002
3.716695e+002, 2.704471e+002
3.721516e+002, 2.700219e+002
3.726338e+002, 2.696636e+002
3.731159e+002, 2.695403e+002
3.735980e+002, 2.696373e+002
3.740801e+002, 2.694354e+002
3.745622e+002, 2.686056e+002
3.750443e+002, 2.678719e+002
3.755265e+002, 2.674824e+002
3.760086e+002, 2.673344e+002
3.764907e+002, 2.672576e+002
3.769728e+002, 2.671597e+002
3.774549e+002, 2.671077e+002
3.779370e+002, 2.673371e+002
3.784192e+002, 2.680682e+002
3.789013e+002, 2.684471e+002
3.793834e+002, 2.678898e+002
3.798655e+002, 2.671063e+002
3.803476e+002, 2.667018e+002
3.808297e+002, 2.667909e+002
3.813119e+002, 2.668836e+002
3.817940e+002, 2.662530e+002
3.822761e+002, 2.649258e+002
3.827582e+002, 2.644090e+002
3.832403e+002, 2.655876e+002
3.837224e+002, 2.668041e+002
3.842046e+002, 2.668138e+002
3.846867e+002, 2.658880e+002
3.851688e+002, 2.650387e+002
3.856509e+002, 2.648178e+002
3.861330e+002, 2.650511e+002
3.866151e+002, 2.653972e+002
3.870973e+002, 2.658993e+002
3.875794e+002, 2.663499e+002
3.880615e+002, 2.665594e+002
3.885436e+002, 2.666602e+002
3.890257e+002, 2.668477e+002
3.895078e+002, 2.672032e+002
3.899900e+002, 2.675669e+002
3.904721e+002, 2.678697e+002
3.909542e+002, 2.680910e+002
3.914363e+002, 2.680192e+002
3.919184e+002, 2.674316e+002
3.924005e+002, 2.667091e+002
3.928827e+002, 2.663979e+002
3.933648e+002, 2.665160e+002
3.938469e+002, 2.666731e+002
3.943290e+002, 2.666931e+002
3.948111e+002, 2.666676e+002
3.952932e+002, 2.667925e+002
3.957754e+002, 2.671183e+002
3.962575e+002, 2.673737e+002
3.967396e+002, 2.672836e+002
3.972217e+002, 2.668734e+002
3.977038e+002, 2.665391e+002
3.981859e+002, 2.661237e+002
3.986681e+002, 2.659389e+002
3.991501e+002, 2.663699e+002
3.996323e+002, 2.672487e+002
4.001144e+002, 2.679538e+002
4.005965e+002, 2.681406e+002
4.010786e+002, 2.680054e+002
4.015607e+002, 2.681085e+002
4.020428e+002, 2.684667e+002
4.025250e+002, 2.689802e+002
4.030071e+002, 2.697652e+002
4.034892e+002, 2.706352e+002
4.039713e+002, 2.713741e+002
4.044534e+002, 2.719299e+002
4.049355e+002, 2.723971e+002
4.054177e+002, 2.729023e+002
4.058998e+002, 2.734958e+002
4.063819e+002, 2.738203e+002
4.068640e+002, 2.736374e+002
4.073461e+002, 2.734487e+002
4.078282e+002, 2.733689e+002
4.083104e+002, 2.734845e+002
4.087925e+002, 2.739686e+002
4.092746e+002, 2.749652e+002
4.097567e+002, 2.763446e+002
4.102388e+002, 2.775168e+002
4.107209e+002, 2.781716e+002
4.112031e+002, 2.790173e+002
4.116852e+002, 2.803724e+002
4.121673e+002, 2.817993e+002
4.126494e+002, 2.828643e+002
4.131315e+002, 2.834649e+002
4.136136e+002, 2.838312e+002
4.140958e+002, 2.842305e+002
4.145779e+002, 2.846369e+002
4.150600e+002, 2.851922e+002
4.155421e+002, 2.861126e+002
4.160242e+002, 2.869818e+002
4.165063e+002, 2.877267e+002
4.169885e+002, 2.882926e+002
4.174706e+002, 2.885526e+002
4.179527e+002, 2.883471e+002
4.184348e+002, 2.878554e+002
4.189169e+002, 2.877190e+002
4.193990e+002, 2.881068e+002
4.198812e+002, 2.884818e+002
4.203633e+002, 2.888170e+002
4.208454e+002, 2.889921e+002
4.213275e+002, 2.887755e+002
4.218096e+002, 2.880967e+002
4.222917e+002, 2.874368e+002
4.227739e+002, 2.873051e+002
4.232560e+002, 2.876812e+002
4.237381e+002, 2.881867e+002
4.242202e+002, 2.889536e+002
4.247023e+002, 2.895655e+002
4.251844e+002, 2.894735e+002
4.256666e+002, 2.889167e+002
4.261487e+002, 2.887851e+002
4.266308e+002, 2.896770e+002
4.271129e+002, 2.911064e+002
4.275950e+002, 2.923917e+002
4.280771e+002, 2.935321e+002
4.285593e+002, 2.945971e+002
4.290414e+002, 2.955293e+002
4.295235e+002, 2.964594e+002
4.300056e+002, 2.976359e+002
4.304877e+002, 2.991074e+002
4.309698e+002, 3.007236e+002
4.314520e+002, 3.026274e+002
4.319341e+002, 3.045862e+002
4.324162e+002, 3.060551e+002
4.328983e+002, 3.068456e+002
4.333804e+002, 3.074716e+002
4.338625e+002, 3.085432e+002
4.343447e+002, 3.101352e+002
4.348268e+002, 3.115923e+002
4.353089e+002, 3.128286e+002
4.357910e+002, 3.139782e+002
4.362731e+002, 3.151660e+002
4.367552e+002, 3.163474e+002
4.372374e+002, 3.173969e+002
4.377195e+002, 3.182660e+002
4.382016e+002, 3.189001e+002
4.386837e+002, 3.190694e+002
4.391658e+002, 3.184509e+002
4.396479e+002, 3.177692e+002
4.401301e+002, 3.168781e+002
4.406122e+002, 3.160562e+002
4.410943e+002, 3.157243e+002
4.415764e+002, 3.158874e+002
4.420585e+002, 3.160102e+002
4.425406e+002, 3.154457e+002
4.430227e+002, 3.140783e+002
4.435049e+002, 3.128678e+002
4.439870e+002, 3.117970e+002
4.444691e+002, 3.109114e+002
4.449512e+002, 3.101759e+002
4.454333e+002, 3.096548e+002
4.459154e+002, 3.094556e+002
4.463976e+002, 3.096480e+002
4.468797e+002, 3.101410e+002
4.473618e+002, 3.107159e+002
4.478439e+002, 3.113060e+002
4.483260e+002, 3.121776e+002
4.488081e+002, 3.136715e+002
4.492903e+002, 3.152560e+002
4.497724e+002, 3.165003e+002
4.502545e+002, 3.174333e+002
4.507366e+002, 3.185458e+002
4.512187e+002, 3.202838e+002
4.517008e+002, 3.225256e+002
4.521830e+002, 3.246884e+002
4.526651e+002, 3.266588e+002
4.531472e+002, 3.287794e+002
4.536293e+002, 3.313028e+002
4.541114e+002, 3.340926e+002
4.545935e+002, 3.370263e+002
4.550757e+002, 3.401718e+002
4.555578e+002, 3.432474e+002
4.560399e+002, 3.458996e+002
4.565220e+002, 3.482460e+002
4.570041e+002, 3.507795e+002
4.574862e+002, 3.535282e+002
4.579684e+002, 3.567603e+002
4.584505e+002, 3.610582e+002
4.589326e+002, 3.663904e+002
4.594147e+002, 3.716881e+002
4.598968e+002, 3.766230e+002
4.603789e+002, 3.815323e+002
4.608611e+002, 3.865729e+002
4.613432e+002, 3.918184e+002
4.618253e+002, 3.975571e+002
4.623074e+002, 4.041032e+002
4.627895e+002, 4.111876e+002
4.632716e+002, 4.178434e+002
4.637538e+002, 4.237638e+002
4.642359e+002, 4.296938e+002
4.647180e+002, 4.358455e+002
4.652001e+002, 4.420329e+002
4.656822e+002, 4.483150e+002
4.661643e+002, 4.545950e+002
4.666465e+002, 4.601943e+002
4.671286e+002, 4.643333e+002
4.676107e+002, 4.669379e+002
4.680928e+002, 4.690506e+002
4.685749e+002, 4.703515e+002
4.690570e+002, 4.714842e+002
4.695392e+002, 4.723204e+002
4.700213e+002, 4.731692e+002
4.705034e+002, 4.742053e+002
4.709855e+002, 4.754611e+002
4.714676e+002, 4.776010e+002
4.719497e+002, 4.819059e+002
4.724319e+002, 4.886509e+002
4.729140e+002, 4.963365e+002
4.733961e+002, 5.058448e+002
4.738782e+002, 5.153130e+002
4.743603e+002, 5.241764e+002
4.748424e+002, 5.321376e+002
4.753246e+002, 5.386545e+002
4.758067e+002, 5.440706e+002
4.762888e+002, 5.475352e+002
4.767709e+002, 5.472454e+002
4.772530e+002, 5.431243e+002
4.777351e+002, 5.356252e+002
4.782173e+002, 5.232916e+002
4.786994e+002, 5.084047e+002
4.791815e+002, 4.944349e+002
4.796636e+002, 4.813260e+002
4.801457e+002, 4.699095e+002
4.806278e+002, 4.608728e+002
4.811100e+002, 4.537551e+002
4.815920e+002, 4.474808e+002
4.820742e+002, 4.418217e+002
4.825563e+002, 4.379633e+002
4.830384e+002, 4.373207e+002
4.835205e+002, 4.399114e+002
4.840026e+002, 4.420529e+002
4.844847e+002, 4.427822e+002
4.849669e+002, 4.441190e+002
4.854490e+002, 4.475843e+002
4.859311e+002, 4.520786e+002
4.864132e+002, 4.555520e+002
4.868953e+002, 4.572573e+002
4.873774e+002, 4.581914e+002
4.878596e+002, 4.600335e+002
4.883417e+002, 4.634347e+002
4.888238e+002, 4.659810e+002
4.893059e+002, 4.677550e+002
4.897880e+002, 4.687556e+002
4.902701e+002, 4.687462e+002
4.907523e+002, 4.679670e+002
4.912344e+002, 4.669648e+002
4.917165e+002, 4.661327e+002
4.921986e+002, 4.651178e+002
4.926807e+002, 4.627687e+002
4.931628e+002, 4.584872e+002
4.936450e+002, 4.545477e+002
4.941271e+002, 4.515637e+002
4.946092e+002, 4.490111e+002
4.950913e+002, 4.466996e+002
4.955734e+002, 4.445626e+002
4.960555e+002, 4.423590e+002
4.965377e+002, 4.397573e+002
4.970198e+002, 4.369923e+002
4.975019e+002, 4.347451e+002
4.979840e+002, 4.330797e+002
4.984661e+002, 4.316960e+002
4.989482e+002, 4.306045e+002
4.994304e+002, 4.296118e+002
4.999125e+002, 4.283987e+002
5.003946e+002, 4.270102e+002
5.008767e+002, 4.252445e+002
5.013588e+002, 4.225166e+002
5.018409e+002, 4.194615e+002
5.023231e+002, 4.173395e+002
5.028052e+002, 4.164249e+002
5.032873e+002, 4.156778e+002
5.037694e+002, 4.140621e+002
5.042515e+002, 4.115257e+002
5.047336e+002, 4.094978e+002
5.052158e+002, 4.081985e+002
5.056979e+002, 4.070990e+002
5.061800e+002, 4.061147e+002
5.066621e+002, 4.051764e+002
5.071442e+002, 4.042044e+002
5.076263e+002, 4.031696e+002
5.081085e+002, 4.020961e+002
5.085906e+002, 4.009658e+002
5.090727e+002, 3.996051e+002
5.095548e+002, 3.988105e+002
5.100369e+002, 3.994423e+002
5.105190e+002, 3.997787e+002
5.110012e+002, 3.990230e+002
5.114833e+002, 3.975050e+002
5.119654e+002, 3.958780e+002
5.124475e+002, 3.944261e+002
5.129296e+002, 3.931465e+002
5.134117e+002, 3.920661e+002
5.138939e+002, 3.912065e+002
5.143760e+002, 3.903598e+002
5.148581e+002, 3.895161e+002
5.153402e+002, 3.886300e+002
5.158223e+002, 3.877970e+002
5.163044e+002, 3.869580e+002
5.167866e+002, 3.857356e+002
5.172687e+002, 3.836036e+002
5.177508e+002, 3.812084e+002
5.182329e+002, 3.794095e+002
5.187150e+002, 3.781826e+002
5.191971e+002, 3.769915e+002
5.196793e+002, 3.755313e+002
5.201614e+002, 3.740159e+002
5.206435e+002, 3.729996e+002
5.211256e+002, 3.725943e+002
5.216077e+002, 3.722184e+002
5.220898e+002, 3.721405e+002
5.225720e+002, 3.718012e+002
5.230541e+002, 3.703768e+002
5.235362e+002, 3.680809e+002
5.240183e+002, 3.660276e+002
5.245004e+002, 3.650200e+002
5.249825e+002, 3.649344e+002
5.254647e+002, 3.651516e+002
5.259468e+002, 3.660421e+002
5.264289e+002, 3.667068e+002
5.269110e+002, 3.669189e+002
5.273931e+002, 3.669943e+002
5.278752e+002, 3.671352e+002
5.283574e+002, 3.673970e+002
5.288395e+002, 3.677993e+002
5.293216e+002, 3.684364e+002
5.298037e+002, 3.692415e+002
5.302858e+002, 3.697930e+002
5.307679e+002, 3.700096e+002
5.312501e+002, 3.701566e+002
5.317322e+002, 3.701779e+002
5.322143e+002, 3.702691e+002
5.326964e+002, 3.707062e+002
5.331785e+002, 3.715788e+002
5.336606e+002, 3.724488e+002
5.341428e+002, 3.730203e+002
5.346249e+002, 3.733879e+002
5.351070e+002, 3.736169e+002
5.355891e+002, 3.736741e+002
5.360712e+002, 3.741590e+002
5.365533e+002, 3.756337e+002
5.370355e+002, 3.779502e+002
5.375176e+002, 3.800437e+002
5.379997e+002, 3.817513e+002
5.384818e+002, 3.834650e+002
5.389639e+002, 3.854451e+002
5.394460e+002, 3.874327e+002
5.399282e+002, 3.890798e+002
5.404103e+002, 3.903286e+002
5.408924e+002, 3.914230e+002
5.413745e+002, 3.926349e+002
5.418566e+002, 3.939778e+002
5.423387e+002, 3.949704e+002
5.428209e+002, 3.953795e+002
5.433029e+002, 3.956854e+002
5.437850e+002, 3.958898e+002
5.442672e+002, 3.960849e+002
5.447493e+002, 3.963884e+002
5.452314e+002, 3.968259e+002
5.457135e+002, 3.972748e+002
5.461956e+002, 3.975267e+002
5.466777e+002, 3.976170e+002
5.471599e+002, 3.980124e+002
5.476420e+002, 3.989250e+002
5.481241e+002, 3.997432e+002
5.486062e+002, 3.999118e+002
5.490883e+002, 3.997699e+002
5.495704e+002, 3.998405e+002
5.500526e+002, 4.001891e+002
5.505347e+002, 4.008047e+002
5.510168e+002, 4.018253e+002
5.514989e+002, 4.030849e+002
5.519810e+002, 4.042150e+002
5.524631e+002, 4.051353e+002
5.529453e+002, 4.060610e+002
5.534274e+002, 4.071815e+002
5.539095e+002, 4.085020e+002
5.543916e+002, 4.099276e+002
5.548737e+002, 4.113375e+002
5.553558e+002, 4.129737e+002
5.558380e+002, 4.152244e+002
5.563201e+002, 4.176023e+002
5.568022e+002, 4.193848e+002
5.572843e+002, 4.204479e+002
5.577664e+002, 4.213629e+002
5.582485e+002, 4.227961e+002
5.587307e+002, 4.247543e+002
5.592128e+002, 4.267965e+002
5.596949e+002, 4.289684e+002
5.601770e+002, 4.311390e+002
5.606591e+002, 4.333259e+002
5.611412e+002, 4.354638e+002
5.616234e+002, 4.373675e+002
5.621055e+002, 4.389376e+002
5.625876e+002, 4.408073e+002
5.630697e+002, 4.437126e+002
5.635518e+002, 4.473753e+002
5.640339e+002, 4.508428e+002
5.645161e+002, 4.539830e+002
5.649982e+002, 4.571304e+002
5.654803e+002, 4.606165e+002
5.659624e+002, 4.643038e+002
5.664445e+002, 4.675988e+002
5.669266e+002, 4.699882e+002
5.674088e+002, 4.727126e+002
5.678909e+002, 4.763740e+002
5.683730e+002, 4.805157e+002
5.688551e+002, 4.846569e+002
5.693372e+002, 4.886617e+002
5.698193e+002, 4.925931e+002
5.703015e+002, 4.964157e+002
5.707836e+002, 5.001683e+002
5.712657e+002, 5.043256e+002
5.717478e+002, 5.092028e+002
5.722299e+002, 5.141013e+002
5.727120e+002, 5.190423e+002
5.731942e+002, 5.238928e+002
5.736763e+002, 5.285037e+002
5.741584e+002, 5.328859e+002
5.746405e+002, 5.371818e+002
5.751226e+002, 5.414697e+002
5.756047e+002, 5.457722e+002
5.760869e+002, 5.501005e+002
5.765690e+002, 5.543378e+002
5.770511e+002, 5.590992e+002
5.775332e+002, 5.650492e+002
5.780153e+002, 5.714391e+002
5.784974e+002, 5.769753e+002
5.789796e+002, 5.814368e+002
5.794617e+002, 5.859538e+002
5.799438e+002, 5.910539e+002
5.804259e+002, 5.963693e+002
5.809080e+002, 6.015710e+002
5.813901e+002, 6.065999e+002
5.818723e+002, 6.114556e+002
5.823544e+002, 6.160950e+002
5.828365e+002, 6.206487e+002
5.833186e+002, 6.255967e+002
5.838007e+002, 6.316136e+002
5.842828e+002, 6.370182e+002
5.847650e+002, 6.417789e+002
5.852471e+002, 6.459932e+002
5.857292e+002, 6.494940e+002
5.862113e+002, 6.524939e+002
5.866934e+002, 6.555477e+002
5.871755e+002, 6.590407e+002
5.876577e+002, 6.627281e+002
5.881398e+002, 6.661383e+002
5.886219e+002, 6.693439e+002
5.891040e+002, 6.717418e+002
5.895861e+002, 6.727589e+002
5.900682e+002, 6.733799e+002
5.905504e+002, 6.746732e+002
5.910325e+002, 6.764856e+002
5.915146e+002, 6.777890e+002
5.919967e+002, 6.781869e+002
5.924788e+002, 6.780182e+002
5.929609e+002, 6.773377e+002
5.934431e+002, 6.763086e+002
5.939252e+002, 6.756998e+002
5.944073e+002, 6.758943e+002
5.948894e+002, 6.754883e+002
5.953715e+002, 6.722984e+002
5.958536e+002, 6.654465e+002
5.963358e+002, 6.597357e+002
5.968179e+002, 6.565074e+002
5.973000e+002, 6.527646e+002
5.977821e+002, 6.473279e+002
5.982642e+002, 6.407433e+002
5.987463e+002, 6.337501e+002
5.992285e+002, 6.266055e+002
5.997106e+002, 6.194000e+002
6.001927e+002, 6.122361e+002
6.006748e+002, 6.050797e+002
6.011569e+002, 5.977362e+002
6.016390e+002, 5.901598e+002
6.021212e+002, 5.825294e+002
6.026033e+002, 5.750440e+002
6.030854e+002, 5.675489e+002
6.035675e+002, 5.599011e+002
6.040496e+002, 5.519389e+002
6.045317e+002, 5.441569e+002
6.050139e+002, 5.367296e+002
6.054960e+002, 5.296204e+002
6.059781e+002, 5.228640e+002
6.064602e+002, 5.164518e+002
6.069423e+002, 5.101515e+002
6.074244e+002, 5.037681e+002
6.079066e+002, 4.974630e+002
6.083887e+002, 4.919086e+002
6.088708e+002, 4.878327e+002
6.093529e+002, 4.835288e+002
6.098350e+002, 4.785428e+002
6.103171e+002, 4.736377e+002
6.107993e+002, 4.694026e+002
6.112814e+002, 4.657622e+002
6.117635e+002, 4.622340e+002
6.122456e+002, 4.584427e+002
6.127277e+002, 4.546891e+002
6.132098e+002, 4.516222e+002
6.136920e+002, 4.492684e+002
6.141741e+002, 4.470818e+002
6.146562e+002, 4.448719e+002
6.151383e+002, 4.428492e+002
6.156204e+002, 4.411831e+002
6.161025e+002, 4.398509e+002
6.165847e+002, 4.388552e+002
6.170668e+002, 4.384004e+002
6.175489e+002, 4.380792e+002
6.180310e+002, 4.373322e+002
6.185131e+002, 4.365853e+002
6.189952e+002, 4.367622e+002
6.194774e+002, 4.381239e+002
6.199595e+002, 4.401110e+002
6.204416e+002, 4.420665e+002
6.209237e+002, 4.439718e+002
6.214058e+002, 4.462562e+002
6.218879e+002, 4.491348e+002
6.223701e+002, 4.521609e+002
6.228522e+002, 4.552001e+002
6.233343e+002, 4.583533e+002
6.238164e+002, 4.615274e+002
6.242985e+002, 4.647614e+002
6.247806e+002, 4.686701e+002
6.252628e+002, 4.738217e+002
6.257448e+002, 4.799981e+002
6.262269e+002, 4.866030e+002
6.267090e+002, 4.936290e+002
6.271912e+002, 5.011471e+002
6.276733e+002, 5.090902e+002
6.281554e+002, 5.176802e+002
6.286375e+002, 5.276352e+002
6.291196e+002, 5.390850e+002
6.296017e+002, 5.507266e+002
6.300839e+002, 5.623861e+002
6.305660e+002, 5.742006e+002
6.310481e+002, 5.865466e+002
6.315302e+002, 5.991535e+002
6.320123e+002, 6.118533e+002
6.324944e+002, 6.245179e+002
6.329766e+002, 6.360765e+002
6.334587e+002, 6.449039e+002
6.339408e+002, 6.511896e+002
6.344229e+002, 6.539367e+002
6.349050e+002, 6.531791e+002
6.353871e+002, 6.485137e+002
6.358693e+002, 6.394700e+002
6.363514e+002, 6.269802e+002
6.368335e+002, 6.121571e+002
6.373156e+002, 5.950544e+002
6.377977e+002, 5.768561e+002
6.382798e+002, 5.576550e+002
6.387620e+002, 5.383169e+002
6.392441e+002, 5.202202e+002
6.397262e+002, 5.035993e+002
6.402083e+002, 4.878031e+002
6.406904e+002, 4.723197e+002
6.411725e+002, 4.574716e+002
6.416547e+002, 4.442125e+002
6.421368e+002, 4.332379e+002
6.426189e+002, 4.230290e+002
6.431010e+002, 4.133054e+002
6.435831e+002, 4.046066e+002
6.440652e+002, 3.974870e+002
6.445474e+002, 3.916482e+002
6.450295e+002, 3.863266e+002
6.455116e+002, 3.811784e+002
6.459937e+002, 3.762323e+002
6.464758e+002, 3.714290e+002
6.469579e+002, 3.667735e+002
6.474401e+002, 3.628863e+002
6.479222e+002, 3.599998e+002
6.484043e+002, 3.576469e+002
6.488864e+002, 3.559191e+002
6.493685e+002, 3.544549e+002
6.498506e+002, 3.521313e+002
6.503328e+002, 3.482548e+002
6.508149e+002, 3.444611e+002
6.512970e+002, 3.414663e+002
6.517791e+002, 3.388716e+002
6.522612e+002, 3.361066e+002
6.527433e+002, 3.331944e+002
6.532255e+002, 3.307621e+002
6.537076e+002, 3.293492e+002
6.541897e+002, 3.286119e+002
6.546718e+002, 3.272309e+002
6.551539e+002, 3.249646e+002
6.556360e+002, 3.226412e+002
6.561182e+002, 3.201922e+002
6.566003e+002, 3.178620e+002
6.570824e+002, 3.158373e+002
6.575645e+002, 3.140451e+002
6.580466e+002, 3.122762e+002
6.585287e+002, 3.104540e+002
6.590109e+002, 3.086032e+002
6.594930e+002, 3.067109e+002
6.599751e+002, 3.048116e+002
6.604572e+002, 3.030040e+002
6.609393e+002, 3.013177e+002
6.614214e+002, 2.995992e+002
6.619036e+002, 2.976605e+002
6.623857e+002, 2.955478e+002
6.628678e+002, 2.937900e+002
6.633499e+002, 2.927098e+002
6.638320e+002, 2.915708e+002
6.643141e+002, 2.902886e+002
6.647963e+002, 2.889406e+002
6.652784e+002, 2.874482e+002
6.657605e+002, 2.859267e+002
6.662426e+002, 2.847550e+002
6.667247e+002, 2.842792e+002
6.672068e+002, 2.840853e+002
6.676890e+002, 2.834068e+002
6.681711e+002, 2.822556e+002
6.686532e+002, 2.809514e+002
6.691353e+002, 2.794116e+002
6.696174e+002, 2.781285e+002
6.700995e+002, 2.778028e+002
6.705817e+002, 2.782904e+002
6.710638e+002, 2.781236e+002
6.715459e+002, 2.767630e+002
6.720280e+002, 2.753803e+002
6.725101e+002, 2.742662e+002
6.729922e+002, 2.733702e+002
6.734744e+002, 2.726306e+002
6.739565e+002, 2.720407e+002
6.744386e+002, 2.716501e+002
6.749207e+002, 2.715380e+002
6.754028e+002, 2.715779e+002
6.758849e+002, 2.713167e+002
6.763671e+002, 2.706658e+002
6.768492e+002, 2.700911e+002
6.773313e+002, 2.695442e+002
6.778134e+002, 2.692643e+002
6.782955e+002, 2.695242e+002
6.787776e+002, 2.702008e+002
6.792598e+002, 2.708722e+002
6.797419e+002, 2.716779e+002
6.802240e+002, 2.721549e+002
6.807061e+002, 2.717274e+002
6.811882e+002, 2.709121e+002
6.816703e+002, 2.704960e+002
6.821525e+002, 2.706187e+002
6.826346e+002, 2.710316e+002
6.831167e+002, 2.715575e+002
6.835988e+002, 2.721760e+002
6.840809e+002, 2.727917e+002
6.845630e+002, 2.734065e+002
6.850452e+002, 2.740128e+002
6.855273e+002, 2.746042e+002
6.860094e+002, 2.751867e+002
6.864915e+002, 2.757298e+002
6.869736e+002, 2.762629e+002
6.874557e+002, 2.768895e+002
6.879379e+002, 2.777235e+002
6.884200e+002, 2.785216e+002
6.889021e+002, 2.789443e+002
6.893842e+002, 2.791815e+002
6.898663e+002, 2.797954e+002
6.903484e+002, 2.808739e+002
6.908306e+002, 2.817281e+002
6.913127e+002, 2.817386e+002
6.917948e+002, 2.811421e+002
6.922769e+002, 2.811590e+002
6.927590e+002, 2.824931e+002
6.932411e+002, 2.833191e+002
6.937233e+002, 2.834032e+002
6.942054e+002, 2.831314e+002
6.946875e+002, 2.827729e+002
6.951696e+002, 2.822545e+002
6.956517e+002, 2.812870e+002
6.961339e+002, 2.796328e+002
6.966160e+002, 2.778426e+002
6.970981e+002, 2.766964e+002
6.975802e+002, 2.759368e+002
6.980623e+002, 2.745524e+002
6.985444e+002, 2.723691e+002
6.990266e+002, 2.700573e+002
6.995087e+002, 2.681771e+002
6.999908e+002, 2.664746e+002
7.004729e+002, 2.640080e+002
7.009550e+002, 2.602744e+002
7.014371e+002, 2.565293e+002
7.019193e+002, 2.526518e+002
7.024014e+002, 2.488902e+002
7.028835e+002, 2.452622e+002
7.033656e+002, 2.418969e+002
7.038477e+002, 2.390299e+002
7.043298e+002, 2.368089e+002
7.048120e+002, 2.348677e+002
7.052941e+002, 2.327196e+002
7.057762e+002, 2.304739e+002
7.062583e+002, 2.286886e+002
7.067404e+002, 2.274651e+002
7.072225e+002, 2.264046e+002
7.077046e+002, 2.253066e+002
7.081867e+002, 2.241877e+002
7.086688e+002, 2.230852e+002
7.091509e+002, 2.220082e+002
7.096331e+002, 2.209207e+002
7.101152e+002, 2.196019e+002
7.105973e+002, 2.184741e+002
7.110794e+002, 2.178148e+002
7.115615e+002, 2.175180e+002
7.120436e+002, 2.175024e+002
7.125258e+002, 2.177193e+002
7.130079e+002, 2.177444e+002
7.134900e+002, 2.168185e+002
7.139721e+002, 2.151982e+002
7.144542e+002, 2.144420e+002
7.149363e+002, 2.147631e+002
7.154185e+002, 2.148472e+002
7.159006e+002, 2.138814e+002
7.163827e+002, 2.125789e+002
7.168648e+002, 2.122891e+002
7.173469e+002, 2.132576e+002
7.178290e+002, 2.136602e+002
7.183112e+002, 2.128999e+002
7.187933e+002, 2.120175e+002
7.192754e+002, 2.114789e+002
7.197575e+002, 2.111676e+002
7.202396e+002, 2.109261e+002
7.207217e+002, 2.106880e+002
7.212039e+002, 2.103580e+002
7.216860e+002, 2.098345e+002
7.221681e+002, 2.091450e+002
7.226502e+002, 2.083421e+002
7.231323e+002, 2.073819e+002
7.236144e+002, 2.066398e+002
7.240966e+002, 2.062655e+002
7.245787e+002, 2.061187e+002
7.250608e+002, 2.061589e+002
7.255429e+002, 2.063765e+002
7.260250e+002, 2.062428e+002
7.265071e+002, 2.052834e+002
7.269893e+002, 2.045054e+002
7.274714e+002, 2.045187e+002
7.279535e+002, 2.047588e+002
7.284356e+002, 2.045295e+002
7.289177e+002, 2.038057e+002
7.293998e+002, 2.030747e+002
7.298820e+002, 2.026737e+002
7.303641e+002, 2.025308e+002
7.308462e+002, 2.025496e+002
7.313283e+002, 2.027401e+002
7.318104e+002, 2.027541e+002
7.322925e+002, 2.024520e+002
7.327747e+002, 2.021225e+002
7.332568e+002, 2.019641e+002
7.337389e+002, 2.019778e+002
7.342210e+002, 2.021335e+002
7.347031e+002, 2.026375e+002
7.351852e+002, 2.029592e+002
7.356674e+002, 2.030407e+002
7.361495e+002, 2.028582e+002
7.366316e+002, 2.021655e+002
7.371137e+002, 2.011973e+002
7.375958e+002, 2.005950e+002
7.380779e+002, 2.007010e+002
7.385601e+002, 2.010155e+002
7.390422e+002, 2.007033e+002
7.395243e+002, 1.998553e+002
7.400064e+002, 1.994096e+002
7.404885e+002, 1.995438e+002
7.409706e+002, 1.995969e+002
7.414528e+002, 1.991224e+002
7.419349e+002, 1.983930e+002
7.424170e+002, 1.980632e+002
7.428991e+002, 1.983261e+002
7.433812e+002, 1.982928e+002
7.438633e+002, 1.975927e+002
7.443455e+002, 1.968936e+002
7.448276e+002, 1.966238e+002
7.453097e+002, 1.965595e+002
7.457918e+002, 1.963342e+002
7.462739e+002, 1.958473e+002
7.467560e+002, 1.952507e+002
7.472382e+002, 1.946584e+002
7.477203e+002, 1.940793e+002
7.482024e+002, 1.934431e+002
7.486845e+002, 1.927386e+002
7.491666e+002, 1.925974e+002
7.496487e+002, 1.934839e+002
7.501309e+002, 1.943832e+002
7.506130e+002, 1.940016e+002
7.510951e+002, 1.922449e+002
7.515772e+002, 1.909190e+002
7.520593e+002, 1.900300e+002
7.525414e+002, 1.895211e+002
7.530236e+002, 1.897794e+002
7.535057e+002, 1.901177e+002
7.539878e+002, 1.898338e+002
7.544699e+002, 1.889976e+002
7.549520e+002, 1.882066e+002
7.554341e+002, 1.878025e+002
7.559163e+002, 1.875836e+002
7.563984e+002, 1.873015e+002
7.568805e+002, 1.869631e+002
7.573626e+002, 1.866671e+002
7.578447e+002, 1.864471e+002
7.583268e+002, 1.859410e+002
7.588090e+002, 1.847754e+002
7.592911e+002, 1.832463e+002
7.597732e+002, 1.823542e+002
7.602553e+002, 1.825869e+002
7.607374e+002, 1.825798e+002
7.612195e+002, 1.821743e+002
7.617017e+002, 1.817211e+002
7.621838e+002, 1.812722e+002
7.626659e+002, 1.809294e+002
7.631480e+002, 1.808918e+002
7.636301e+002, 1.812290e+002
7.641122e+002, 1.815383e+002
7.645944e+002, 1.813413e+002
7.650765e+002, 1.810220e+002
7.655586e+002, 1.812664e+002
7.660407e+002, 1.820011e+002
7.665228e+002, 1.826503e+002
7.670049e+002, 1.829827e+002
7.674871e+002, 1.832856e+002
7.679692e+002, 1.839468e+002
7.684513e+002, 1.849868e+002
7.689334e+002, 1.859547e+002
7.694155e+002, 1.868433e+002
7.698976e+002, 1.876711e+002
7.703798e+002, 1.881691e+002
7.708619e+002, 1.888239e+002
7.713440e+002, 1.901314e+002
7.718261e+002, 1.919845e+002
7.723082e+002, 1.937687e+002
7.727903e+002, 1.954649e+002
7.732725e+002, 1.967681e+002
7.737546e+002, 1.971709e+002
7.742367e+002, 1.971645e+002
7.747188e+002, 1.975523e+002
7.752009e+002, 1.983900e+002
7.756830e+002, 1.992596e+002
7.761652e+002, 1.999207e+002
7.766473e+002, 2.002882e+002
7.771294e+002, 2.000719e+002
7.776115e+002, 1.991596e+002
7.780936e+002, 1.984299e+002
7.785757e+002, 1.980374e+002
7.790579e+002, 1.976487e+002
7.795400e+002, 1.971119e+002
7.800221e+002, 1.964542e+002
7.805042e+002, 1.957138e+002
7.809863e+002, 1.948660e+002
7.814684e+002, 1.940363e+002
7.819506e+002, 1.931476e+002
7.824327e+002, 1.923932e+002
7.829148e+002, 1.917923e+002
7.833969e+002, 1.914451e+002
7.838790e+002, 1.916108e+002
7.843611e+002, 1.922946e+002
7.848433e+002, 1.930415e+002
7.853254e+002, 1.934087e+002
7.858075e+002, 1.935346e+002
7.862896e+002, 1.938237e+002
7.867717e+002, 1.942765e+002
7.872538e+002, 1.948212e+002
7.877360e+002, 1.955112e+002
7.882181e+002, 1.960728e+002
7.887002e+002, 1.962379e+002
7.891823e+002, 1.960400e+002
7.896644e+002, 1.957564e+002
7.901465e+002, 1.955136e+002
7.906286e+002, 1.950069e+002
7.911107e+002, 1.936203e+002
7.915928e+002, 1.925133e+002
7.920750e+002, 1.929277e+002
7.925571e+002, 1.941108e+002
7.930392e+002, 1.942942e+002
7.935213e+002, 1.927423e+002
7.940034e+002, 1.910077e+002
7.944855e+002, 1.904947e+002
7.949677e+002, 1.907068e+002
7.954498e+002, 1.909336e+002
7.959319e+002, 1.910533e+002
7.964140e+002, 1.906029e+002
7.968961e+002, 1.893601e+002
7.973782e+002, 1.877756e+002
7.978604e+002, 1.864403e+002
7.983425e+002, 1.853494e+002
7.988246e+002, 1.844768e+002
7.993067e+002, 1.840534e+002
7.997888e+002, 1.834216e+002
8.002709e+002, 1.821835e+002
8.007531e+002, 1.808636e+002
8.012352e+002, 1.798981e+002
8.017173e+002, 1.792197e+002
8.021994e+002, 1.784501e+002
8.026815e+002, 1.773543e+002
8.031636e+002, 1.763481e+002
8.036458e+002, 1.757435e+002
8.041279e+002, 1.752965e+002
8.046100e+002, 1.747260e+002
8.050921e+002, 1.740305e+002
8.055742e+002, 1.732969e+002
8.060563e+002, 1.725677e+002
8.065385e+002, 1.719685e+002
8.070206e+002, 1.718511e+002
8.075027e+002, 1.721531e+002
8.079848e+002, 1.718799e+002
8.084669e+002, 1.708386e+002
8.089490e+002, 1.700486e+002
8.094312e+002, 1.701363e+002
8.099133e+002, 1.704693e+002
8.103954e+002, 1.700574e+002
8.108775e+002, 1.687490e+002
8.113596e+002, 1.676651e+002
8.118417e+002, 1.665392e+002
8.123239e+002, 1.659740e+002
8.128060e+002, 1.667862e+002
8.132881e+002, 1.677671e+002
8.137702e+002, 1.675997e+002
8.142523e+002, 1.664377e+002
8.147344e+002, 1.655198e+002
8.152166e+002, 1.655704e+002
8.156987e+002, 1.658705e+002
8.161808e+002, 1.655999e+002
8.166629e+002, 1.650348e+002
8.171450e+002, 1.648612e+002
8.176271e+002, 1.651086e+002
8.181093e+002, 1.652516e+002
8.185914e+002, 1.649813e+002
8.190735e+002, 1.644862e+002
8.195556e+002, 1.641304e+002
8.200377e+002, 1.639394e+002
8.205198e+002, 1.637217e+002
8.210020e+002, 1.634910e+002
8.214841e+002, 1.631980e+002
8.219662e+002, 1.627417e+002
8.224483e+002, 1.622722e+002
8.229304e+002, 1.619559e+002
8.234125e+002, 1.617914e+002
8.238947e+002, 1.616842e+002
8.243768e+002, 1.616365e+002
8.248589e+002, 1.616213e+002
8.253410e+002, 1.616719e+002
8.258231e+002, 1.617222e+002
8.263052e+002, 1.617149e+002
8.267874e+002, 1.616373e+002
8.272695e+002, 1.615090e+002
8.277516e+002, 1.613602e+002
8.282337e+002, 1.610715e+002
8.287158e+002, 1.603109e+002
8.291979e+002, 1.592473e+002
8.296801e+002, 1.586108e+002
8.301622e+002, 1.584686e+002
8.306443e+002, 1.585179e+002
8.311264e+002, 1.586467e+002
8.316085e+002, 1.587828e+002
8.320906e+002, 1.588201e+002
8.325728e+002, 1.587668e+002
8.330549e+002, 1.585366e+002
8.335370e+002, 1.578200e+002
8.340191e+002, 1.573789e+002
8.345012e+002, 1.575520e+002
8.349833e+002, 1.579148e+002
8.354655e+002, 1.581844e+002
8.359476e+002, 1.583364e+002
8.364297e+002, 1.583746e+002
8.369118e+002, 1.582175e+002
8.373939e+002, 1.580808e+002
8.378760e+002, 1.581081e+002
8.383582e+002, 1.582025e+002
8.388403e+002, 1.581998e+002
8.393224e+002, 1.581542e+002
8.398045e+002, 1.583217e+002
8.402866e+002, 1.588252e+002
8.407687e+002, 1.593646e+002
8.412509e+002, 1.594219e+002
8.417330e+002, 1.591208e+002
8.422151e+002, 1.592586e+002
8.426972e+002, 1.598821e+002
8.431793e+002, 1.603201e+002
8.436614e+002, 1.602656e+002
8.441436e+002, 1.601121e+002
8.446257e+002, 1.603103e+002
8.451078e+002, 1.608521e+002
8.455899e+002, 1.614228e+002
8.460720e+002, 1.620881e+002
8.465541e+002, 1.626768e+002
8.470363e+002, 1.632647e+002
8.475184e+002, 1.636877e+002
8.480005e+002, 1.637556e+002
8.484826e+002, 1.635961e+002
8.489647e+002, 1.634800e+002
8.494468e+002, 1.634592e+002
8.499290e+002, 1.635595e+002
8.504111e+002, 1.638923e+002
8.508932e+002, 1.642767e+002
8.513753e+002, 1.646258e+002
8.518574e+002, 1.648592e+002
8.523395e+002, 1.647975e+002
8.528217e+002, 1.644048e+002
8.533038e+002, 1.638479e+002
8.537859e+002, 1.632187e+002
8.542680e+002, 1.626192e+002
8.547501e+002, 1.624771e+002
8.552322e+002, 1.627919e+002
8.557144e+002, 1.628429e+002
8.561965e+002, 1.624294e+002
8.566786e+002, 1.619904e+002
8.571607e+002, 1.618669e+002
8.576428e+002, 1.619570e+002
8.581249e+002, 1.619295e+002
8.586071e+002, 1.616924e+002
8.590892e+002, 1.615353e+002
8.595713e+002, 1.614903e+002
8.600534e+002, 1.614827e+002
8.605355e+002, 1.615156e+002
8.610176e+002, 1.615536e+002
8.614998e+002, 1.614970e+002
8.619819e+002, 1.613531e+002
8.624640e+002, 1.614076e+002
8.629461e+002, 1.621709e+002
8.634282e+002, 1.627449e+002
8.639103e+002, 1.623519e+002
8.643925e+002, 1.614749e+002
8.648746e+002, 1.604939e+002
8.653567e+002, 1.596817e+002
8.658388e+002, 1.598057e+002
8.663209e+002, 1.614064e+002
8.668030e+002, 1.633894e+002
8.672852e+002, 1.639888e+002
8.677673e+002, 1.634466e+002
8.682494e+002, 1.631045e+002
8.687315e+002, 1.630544e+002
8.692136e+002, 1.626500e+002
8.696957e+002, 1.615859e+002
8.701779e+002, 1.601540e+002
8.706600e+002, 1.586694e+002
8.711421e+002, 1.571241e+002
8.716242e+002, 1.561387e+002
8.721063e+002, 1.559638e+002
8.725884e+002, 1.559073e+002
8.730705e+002, 1.560793e+002
8.735526e+002, 1.561333e+002
8.740347e+002, 1.558049e+002
8.745168e+002, 1.552040e+002
8.749990e+002, 1.546145e+002
8.754811e+002, 1.541353e+002
8.759632e+002, 1.535101e+002
8.764453e+002, 1.523929e+002
8.769274e+002, 1.513490e+002
8.774095e+002, 1.508067e+002
8.778917e+002, 1.506331e+002
8.783738e+002, 1.505930e+002
8.788559e+002, 1.506127e+002
8.793380e+002, 1.507112e+002
8.798201e+002, 1.510815e+002
8.803022e+002, 1.513267e+002
8.807844e+002, 1.505884e+002
8.812665e+002, 1.491500e+002
8.817486e+002, 1.480894e+002
8.822307e+002, 1.475629e+002
8.827128e+002, 1.470488e+002
8.831949e+002, 1.461920e+002
8.836771e+002, 1.452758e+002
8.841592e+002, 1.449688e+002
8.846413e+002, 1.453949e+002
8.851234e+002, 1.454379e+002
8.856055e+002, 1.448528e+002
8.860876e+002, 1.445237e+002
8.865698e+002, 1.451290e+002
8.870519e+002, 1.457341e+002
8.875340e+002, 1.450510e+002
8.880161e+002, 1.431965e+002
8.884982e+002, 1.419969e+002
8.889803e+002, 1.419271e+002
8.894625e+002, 1.419151e+002
8.899446e+002, 1.419481e+002
8.904267e+002, 1.418205e+002
8.909088e+002, 1.412312e+002
8.913909e+002, 1.404213e+002
8.918730e+002, 1.399214e+002
8.923552e+002, 1.398899e+002
8.928373e+002, 1.397731e+002
8.933194e+002, 1.389968e+002
8.938015e+002, 1.381447e+002
8.942836e+002, 1.379986e+002
8.947657e+002, 1.382207e+002
8.952479e+002, 1.380108e+002
8.957300e+002, 1.372612e+002
8.962121e+002, 1.365299e+002
8.966942e+002, 1.362413e+002
8.971763e+002, 1.361984e+002
8.976584e+002, 1.360080e+002
8.981406e+002, 1.356893e+002
8.986227e+002, 1.354828e+002
8.991048e+002, 1.354323e+002
8.995869e+002, 1.351515e+002
9.000690e+002, 1.343540e+002
9.005511e+002, 1.335320e+002
9.010333e+002, 1.334750e+002
9.015154e+002, 1.342316e+002
9.019975e+002, 1.346657e+002
9.024796e+002, 1.348011e+002
9.029617e+002, 1.345615e+002
9.034438e+002, 1.334111e+002
9.039260e+002, 1.323940e+002
9.044081e+002, 1.324892e+002
9.048902e+002, 1.332315e+002
9.053723e+002, 1.333767e+002
9.058544e+002, 1.325393e+002
9.063365e+002, 1.318377e+002
9.068187e+002, 1.317248e+002
9.073008e+002, 1.316319e+002
9.077829e+002, 1.310283e+002
9.082650e+002, 1.303367e+002
9.087471e+002, 1.302185e+002
9.092292e+002, 1.307148e+002
9.097114e+002, 1.312652e+002
9.101935e+002, 1.315598e+002
9.106756e+002, 1.317353e+002
9.111577e+002, 1.320054e+002
9.116398e+002, 1.322268e+002
9.121219e+002, 1.320905e+002
9.126041e+002, 1.316212e+002
9.130862e+002, 1.310279e+002
9.135683e+002, 1.304097e+002
9.140504e+002, 1.299235e+002
9.145325e+002, 1.297618e+002
9.150146e+002, 1.299180e+002
9.154968e+002, 1.305284e+002
9.159789e+002, 1.316301e+002
9.164610e+002, 1.320574e+002
9.169431e+002, 1.314136e+002
9.174252e+002, 1.305183e+002
9.179073e+002, 1.300150e+002
9.183895e+002, 1.298202e+002
9.188716e+002, 1.295597e+002
9.193537e+002, 1.288096e+002
9.198358e+002, 1.291525e+002
9.203179e+002, 1.319376e+002
9.208000e+002, 1.338728e+002
9.212822e+002, 1.329165e+002
9.217643e+002, 1.309372e+002
9.222464e+002, 1.297478e+002
9.227285e+002, 1.293843e+002
9.232106e+002, 1.296576e+002
9.236927e+002, 1.312717e+002
9.241749e+002, 1.325302e+002
9.246570e+002, 1.331010e+002
9.251391e+002, 1.330101e+002
9.256212e+002, 1.319059e+002
9.261033e+002, 1.302609e+002
9.265854e+002, 1.289014e+002
9.270676e+002, 1.280638e+002
9.275497e+002, 1.277099e+002
9.280318e+002, 1.281207e+002
9.285139e+002, 1.287354e+002
9.289960e+002, 1.290256e+002
9.294781e+002, 1.290800e+002
9.299603e+002, 1.291367e+002
9.304424e+002, 1.292025e+002
9.309245e+002, 1.290165e+002
9.314066e+002, 1.283721e+002
9.318887e+002, 1.276309e+002
9.323708e+002, 1.273884e+002
9.328530e+002, 1.275454e+002
9.333351e+002, 1.277253e+002
9.338172e+002, 1.279028e+002
9.342993e+002, 1.280547e+002
9.347814e+002, 1.281734e+002
9.352635e+002, 1.282192e+002
9.357457e+002, 1.281062e+002
9.362278e+002, 1.279070e+002
9.367099e+002, 1.281285e+002
9.371920e+002, 1.289474e+002
9.376741e+002, 1.293980e+002
9.381563e+002, 1.292876e+002
9.386384e+002, 1.289738e+002
9.391205e+002, 1.285430e+002
9.396026e+002, 1.281138e+002
9.400847e+002, 1.278877e+002
9.405668e+002, 1.278715e+002
9.410490e+002, 1.280217e+002
9.415311e+002, 1.285887e+002
9.420132e+002, 1.289752e+002
9.424953e+002, 1.289418e+002
9.429774e+002, 1.288072e+002
9.434595e+002, 1.288725e+002
9.439417e+002, 1.290183e+002
9.444238e+002, 1.288540e+002
9.449059e+002, 1.281600e+002
9.453880e+002, 1.277126e+002
9.458701e+002, 1.280358e+002
9.463522e+002, 1.284285e+002
9.468344e+002, 1.283250e+002
9.473165e+002, 1.280606e+002
9.477986e+002, 1.281645e+002
9.482807e+002, 1.286427e+002
9.487628e+002, 1.290839e+002
9.492449e+002, 1.293047e+002
9.497271e+002, 1.293186e+002
9.502092e+002, 1.289441e+002
9.506913e+002, 1.284839e+002
9.511734e+002, 1.285292e+002
9.516555e+002, 1.289271e+002
9.521376e+002, 1.289856e+002
9.526198e+002, 1.285064e+002
9.531019e+002, 1.280915e+002
9.535840e+002, 1.283850e+002
9.540661e+002, 1.290674e+002
9.545482e+002, 1.293396e+002
9.550303e+002, 1.292676e+002
9.555124e+002, 1.292392e+002
9.559945e+002, 1.293112e+002
9.564766e+002, 1.296571e+002
9.569587e+002, 1.304168e+002
9.574409e+002, 1.312461e+002
9.579230e+002, 1.315638e+002
9.584051e+002, 1.313822e+002
9.588872e+002, 1.313297e+002
9.593693e+002, 1.314754e+002
9.598514e+002, 1.314048e+002
9.603336e+002, 1.308678e+002
9.608157e+002, 1.304842e+002
9.612978e+002, 1.308439e+002
9.617799e+002, 1.316262e+002
9.622620e+002, 1.319039e+002
9.627441e+002, 1.314463e+002
9.632263e+002, 1.311975e+002
9.637084e+002, 1.312191e+002
9.641905e+002, 1.313713e+002
9.646726e+002, 1.317505e+002
9.651547e+002, 1.321326e+002
9.656368e+002, 1.322568e+002
9.661190e+002, 1.322010e+002
9.666011e+002, 1.323522e+002
9.670832e+002, 1.329585e+002
9.675653e+002, 1.333649e+002
9.680474e+002, 1.333286e+002
9.685295e+002, 1.331678e+002
9.690117e+002, 1.330301e+002
9.694938e+002, 1.328974e+002
9.699759e+002, 1.327293e+002
9.704580e+002, 1.325226e+002
9.709401e+002, 1.322977e+002
9.714222e+002, 1.319853e+002
9.719044e+002, 1.317861e+002
9.723865e+002, 1.319292e+002
9.728686e+002, 1.321696e+002
9.733507e+002, 1.321911e+002
9.738328e+002, 1.321010e+002
9.743149e+002, 1.322682e+002
9.747971e+002, 1.327632e+002
9.752792e+002, 1.331090e+002
9.757613e+002, 1.327958e+002
9.762434e+002, 1.322724e+002
9.767255e+002, 1.322294e+002
9.772076e+002, 1.324050e+002
9.776898e+002, 1.321947e+002
9.781719e+002, 1.315918e+002
9.786540e+002, 1.309498e+002
9.791361e+002, 1.304344e+002
9.796182e+002, 1.300959e+002
9.801003e+002, 1.300267e+002
9.805825e+002, 1.301715e+002
9.810646e+002, 1.304434e+002
9.815467e+002, 1.307973e+002
9.820288e+002, 1.308564e+002
9.825109e+002, 1.305466e+002
9.829930e+002, 1.299819e+002
9.834752e+002, 1.291899e+002
9.839573e+002, 1.284169e+002
9.844394e+002, 1.282220e+002
9.849215e+002, 1.286120e+002
9.854036e+002, 1.285325e+002
9.858857e+002, 1.278647e+002
9.863679e+002, 1.274879e+002
9.868500e+002, 1.277555e+002
9.873321e+002, 1.279344e+002
9.878142e+002, 1.273035e+002
9.882963e+002, 1.262454e+002
9.887784e+002, 1.260422e+002
9.892606e+002, 1.271088e+002
9.897427e+002, 1.275382e+002
9.902248e+002, 1.270370e+002
9.907069e+002, 1.264467e+002
9.911890e+002, 1.258711e+002
9.916711e+002, 1.254814e+002
9.921533e+002, 1.255080e+002
9.926354e+002, 1.258821e+002
9.931175e+002, 1.261959e+002
9.935996e+002, 1.264493e+002
9.940817e+002, 1.266426e+002
9.945638e+002, 1.270294e+002
9.950460e+002, 1.270540e+002
9.955281e+002, 1.259802e+002
9.960102e+002, 1.248000e+002
9.964923e+002, 1.247979e+002
9.969744e+002, 1.258183e+002
9.974565e+002, 1.263215e+002
9.979387e+002, 1.256451e+002
9.984208e+002, 1.250571e+002
9.989029e+002, 1.248301e+002
9.993850e+002, 1.248336e+002
9.998671e+002, 1.252552e+002
1.000349e+003, 1.257162e+002
1.000831e+003, 1.255495e+002
1.001313e+003, 1.247690e+002
1.001796e+003, 1.243069e+002
1.002278e+003, 1.247213e+002
1.002760e+003, 1.252783e+002
1.003242e+003, 1.256816e+002
1.003724e+003, 1.259560e+002
1.004206e+003, 1.261755e+002
1.004688e+003, 1.262694e+002
1.005170e+003, 1.259588e+002
1.005653e+003, 1.252531e+002
1.006135e+003, 1.248596e+002
1.006617e+003, 1.254977e+002
1.007099e+003, 1.262633e+002
1.007581e+003, 1.262070e+002
1.008063e+003, 1.258078e+002
1.008545e+003, 1.257349e+002
1.009027e+003, 1.259529e+002
1.009509e+003, 1.261470e+002
1.009992e+003, 1.262028e+002
1.010474e+003, 1.261945e+002
1.010956e+003, 1.261648e+002
1.011438e+003, 1.261333e+002
1.011920e+003, 1.261818e+002
1.012402e+003, 1.262363e+002
1.012884e+003, 1.260394e+002
1.013366e+003, 1.256464e+002
1.013849e+003, 1.254697e+002
1.014331e+003, 1.256834e+002
1.014813e+003, 1.259573e+002
1.015295e+003, 1.258914e+002
1.015777e+003, 1.256346e+002
1.016259e+003, 1.255999e+002
1.016741e+003, 1.257204e+002
1.017223e+003, 1.256429e+002
1.017705e+003, 1.253375e+002
1.018188e+003, 1.250964e+002
1.018670e+003, 1.250709e+002
1.019152e+003, 1.251539e+002
1.019634e+003, 1.252166e+002
1.020116e+003, 1.252550e+002
1.020598e+003, 1.252555e+002
1.021080e+003, 1.252174e+002
1.021562e+003, 1.251110e+002
1.022044e+003, 1.249274e+002
1.022527e+003, 1.247126e+002
1.023009e+003, 1.244661e+002
1.023491e+003, 1.243457e+002
1.023973e+003, 1.246942e+002
1.024455e+003, 1.254565e+002
1.024937e+003, 1.256475e+002
1.025419e+003, 1.251992e+002
1.025901e+003, 1.247179e+002
1.026384e+003, 1.242682e+002
1.026866e+003, 1.240136e+002
1.027348e+003, 1.240892e+002
1.027830e+003, 1.243539e+002
1.028312e+003, 1.245647e+002
1.028794e+003, 1.247261e+002
1.029276e+003, 1.247433e+002
1.029758e+003, 1.245449e+002
1.030240e+003, 1.244952e+002
1.030723e+003, 1.248139e+002
1.031205e+003, 1.248928e+002
1.031687e+003, 1.241136e+002
1.032169e+003, 1.230836e+002
1.032651e+003, 1.231222e+002
1.033133e+003, 1.244182e+002
1.033615e+003, 1.251726e+002
1.034097e+003, 1.251601e+002
1.034579e+003, 1.250814e+002
1.035062e+003, 1.249711e+002
1.035544e+003, 1.249783e+002
1.036026e+003, 1.253576e+002
1.036508e+003, 1.258250e+002
1.036990e+003, 1.257099e+002
1.037472e+003, 1.248321e+002
1.037954e+003, 1.243877e+002
1.038436e+003, 1.246987e+002
1.038919e+003, 1.249294e+002
1.039401e+003, 1.248511e+002
1.039883e+003, 1.247471e+002
1.040365e+003, 1.247633e+002
1.040847e+003, 1.248935e+002
1.041329e+003, 1.252183e+002
1.041811e+003, 1.258862e+002
1.042293e+003, 1.259731e+002
1.042776e+003, 1.247484e+002
1.043258e+003, 1.239480e+002
1.043740e+003, 1.242606e+002
1.044222e+003, 1.247241e+002
1.044704e+003, 1.247491e+002
1.045186e+003, 1.244756e+002
1.045668e+003, 1.241677e+002
1.046150e+003, 1.238234e+002
1.046632e+003, 1.235869e+002
1.047115e+003, 1.234259e+002
1.047597e+003, 1.234392e+002
1.048079e+003, 1.238389e+002
1.048561e+003, 1.242371e+002
1.049043e+003, 1.243232e+002
1.049525e+003, 1.242341e+002
1.050007e+003, 1.242999e+002
1.050489e+003, 1.245910e+002
1.050971e+003, 1.246017e+002
1.051454e+003, 1.239787e+002
1.051936e+003, 1.234120e+002
1.052418e+003, 1.230168e+002
1.052900e+003, 1.228344e+002
1.053382e+003, 1.230729e+002
1.053864e+003, 1.234707e+002
1.054346e+003, 1.235240e+002
1.054828e+003, 1.231526e+002
1.055311e+003, 1.228759e+002
1.055793e+003, 1.229061e+002
1.056275e+003, 1.229506e+002
1.056757e+003, 1.229834e+002
1.057239e+003, 1.229234e+002
1.057721e+003, 1.225712e+002
1.058203e+003, 1.221438e+002
1.058685e+003, 1.220476e+002
1.059167e+003, 1.223374e+002
1.059650e+003, 1.225892e+002
1.060132e+003, 1.227363e+002
1.060614e+003, 1.227254e+002
1.061096e+003, 1.223338e+002
1.061578e+003, 1.219742e+002
1.062060e+003, 1.220704e+002
1.062542e+003, 1.223660e+002
1.063024e+003, 1.223942e+002
1.063506e+003, 1.220970e+002
1.063989e+003, 1.218059e+002
1.064471e+003, 1.216859e+002
1.064953e+003, 1.215278e+002
1.065435e+003, 1.209957e+002
1.065917e+003, 1.206389e+002
1.066399e+003, 1.211249e+002
1.066881e+003, 1.219459e+002
1.067363e+003, 1.222820e+002
1.067846e+003, 1.220453e+002
1.068328e+003, 1.217377e+002
1.068810e+003, 1.214574e+002
1.069292e+003, 1.212948e+002
1.069774e+003, 1.213623e+002
1.070256e+003, 1.214910e+002
1.070738e+003, 1.216357e+002
1.071220e+003, 1.217147e+002
1.071703e+003, 1.216179e+002
1.072185e+003, 1.213461e+002
1.072667e+003, 1.209930e+002
1.073149e+003, 1.205411e+002
1.073631e+003, 1.201333e+002
1.074113e+003, 1.197397e+002
1.074595e+003, 1.195151e+002
1.075077e+003, 1.196904e+002
1.075559e+003, 1.200277e+002
1.076042e+003, 1.202596e+002
1.076524e+003, 1.203405e+002
1.077006e+003, 1.202852e+002
1.077488e+003, 1.200603e+002
1.077970e+003, 1.198261e+002
1.078452e+003, 1.196482e+002
1.078934e+003, 1.194954e+002
1.079416e+003, 1.192884e+002
1.079898e+003, 1.191340e+002
1.080380e+003, 1.192321e+002
1.080863e+003, 1.195030e+002
1.081345e+003, 1.196305e+002
1.081827e+003, 1.194934e+002
1.082309e+003, 1.193305e+002
1.082791e+003, 1.192028e+002
1.083273e+003, 1.191340e+002
1.083755e+003, 1.192456e+002
1.084237e+003, 1.193398e+002
1.084720e+003, 1.191176e+002
1.085202e+003, 1.187070e+002
1.085684e+003, 1.184599e+002
1.086166e+003, 1.184602e+002
1.086648e+003, 1.187112e+002
1.087130e+003, 1.195374e+002
1.087612e+003, 1.202116e+002
1.088094e+003, 1.202713e+002
1.088577e+003, 1.200843e+002
1.089059e+003, 1.200103e+002
1.089541e+003, 1.199691e+002
1.090023e+003, 1.196929e+002
1.090505e+003, 1.191246e+002
1.090987e+003, 1.185923e+002
1.091469e+003, 1.180133e+002
1.091951e+003, 1.177669e+002
1.092433e+003, 1.183407e+002
1.092916e+003, 1.189955e+002
1.093398e+003, 1.190628e+002
1.093880e+003, 1.188372e+002
1.094362e+003, 1.189710e+002
1.094844e+003, 1.195065e+002
1.095326e+003, 1.196685e+002
1.095808e+003, 1.187351e+002
1.096290e+003, 1.181019e+002
1.096772e+003, 1.185298e+002
1.097255e+003, 1.190713e+002
1.097737e+003, 1.191228e+002
1.098219e+003, 1.189199e+002
1.098701e+003, 1.187131e+002
1.099183e+003, 1.185829e+002
1.099665e+003, 1.187863e+002
1.100147e+003, 1.197059e+002
1.100629e+003, 1.202809e+002
1.101112e+003, 1.199845e+002
1.101594e+003, 1.195795e+002
1.102076e+003, 1.194235e+002
1.102558e+003, 1.193600e+002
1.103040e+003, 1.191651e+002
1.103522e+003, 1.188962e+002
1.104004e+003, 1.187817e+002
1.104486e+003, 1.187748e+002
1.104969e+003, 1.191773e+002
1.105451e+003, 1.208749e+002
1.105933e+003, 1.219038e+002
1.106415e+003, 1.210146e+002
1.106897e+003, 1.197157e+002
1.107379e+003, 1.191805e+002
1.107861e+003, 1.192019e+002
1.108343e+003, 1.191353e+002
1.108825e+003, 1.188798e+002
1.109307e+003, 1.188437e+002
1.109790e+003, 1.193131e+002
1.110272e+003, 1.196471e+002
1.110754e+003, 1.195652e+002
1.111236e+003, 1.194733e+002
1.111718e+003, 1.197503e+002
1.112200e+003, 1.201118e+002
1.112682e+003, 1.200498e+002
1.113164e+003, 1.195371e+002
1.113647e+003, 1.190824e+002
1.114129e+003, 1.184381e+002
1.114611e+003, 1.182769e+002
1.115093e+003, 1.189974e+002
1.115575e+003, 1.197365e+002
1.116057e+003, 1.203093e+002
1.116539e+003, 1.205466e+002
1.117021e+003, 1.200529e+002
1.117504e+003, 1.189900e+002
1.117986e+003, 1.185721e+002
1.118468e+003, 1.190587e+002
1.118950e+003, 1.196070e+002
1.119432e+003, 1.204411e+002
1.119914e+003, 1.208363e+002
1.120396e+003, 1.203193e+002
1.120878e+003, 1.196868e+002
1.121360e+003, 1.195936e+002
1.121843e+003, 1.199293e+002
1.122325e+003, 1.204285e+002
1.122807e+003, 1.211974e+002
1.123289e+003, 1.214388e+002
1.123771e+003, 1.209817e+002
1.124253e+003, 1.205624e+002
1.124735e+003, 1.202940e+002
1.125217e+003, 1.202458e+002
1.125699e+003, 1.205270e+002
1.126182e+003, 1.209134e+002
1.126664e+003, 1.210006e+002
1.127146e+003, 1.208098e+002
1.127628e+003, 1.207442e+002
1.128110e+003, 1.208216e+002
1.128592e+003, 1.207887e+002
1.129074e+003, 1.205479e+002
1.129556e+003, 1.207861e+002
1.130039e+003, 1.219067e+002
1.130521e+003, 1.230789e+002
1.131003e+003, 1.233386e+002
1.131485e+003, 1.229079e+002
1.131967e+003, 1.224591e+002
1.132449e+003, 1.220116e+002
1.132931e+003, 1.220099e+002
1.133413e+003, 1.224627e+002
1.133896e+003, 1.227327e+002
1.134378e+003, 1.226255e+002
1.134860e+003, 1.225044e+002
1.135342e+003, 1.226694e+002
1.135824e+003, 1.228949e+002
1.136306e+003, 1.226909e+002
1.136788e+003, 1.222065e+002
1.137270e+003, 1.220485e+002
1.137752e+003, 1.221564e+002
1.138234e+003, 1.222575e+002
1.138717e+003, 1.222686e+002
1.139199e+003, 1.219604e+002
1.139681e+003, 1.212119e+002
1.140163e+003, 1.205718e+002
1.140645e+003, 1.208203e+002
1.141127e+003, 1.214239e+002
1.141609e+003, 1.212850e+002
1.142091e+003, 1.207851e+002
1.142574e+003, 1.208352e+002
1.143056e+003, 1.213465e+002
1.143538e+003, 1.216802e+002
1.144020e+003, 1.216436e+002
1.144502e+003, 1.214944e+002
1.144984e+003, 1.213616e+002
1.145466e+003, 1.213196e+002
1.145948e+003, 1.215152e+002
1.146431e+003, 1.217906e+002
1.146913e+003, 1.219420e+002
1.147395e+003, 1.220225e+002
1.147877e+003, 1.222310e+002
1.148359e+003, 1.225122e+002
1.148841e+003, 1.224797e+002
1.149323e+003, 1.219120e+002
1.149805e+003, 1.213849e+002
1.150287e+003, 1.212120e+002
1.150770e+003, 1.212653e+002
1.151252e+003, 1.216494e+002
1.151734e+003, 1.220498e+002
1.152216e+003, 1.220891e+002
1.152698e+003, 1.218788e+002
1.153180e+003, 1.217674e+002
1.153662e+003, 1.218270e+002
1.154144e+003, 1.217531e+002
1.154626e+003, 1.212803e+002
1.155109e+003, 1.208908e+002
1.155591e+003, 1.207187e+002
1.156073e+003, 1.207056e+002
1.156555e+003, 1.209673e+002
1.157037e+003, 1.212664e+002
1.157519e+003, 1.212043e+002
1.158001e+003, 1.208522e+002
1.158483e+003, 1.208406e+002
1.158966e+003, 1.214704e+002
1.159448e+003, 1.219210e+002
1.159930e+003, 1.223169e+002
1.160412e+003, 1.222752e+002
1.160894e+003, 1.211947e+002
1.161376e+003, 1.202097e+002
1.161858e+003, 1.202712e+002
1.162340e+003, 1.209568e+002
1.162822e+003, 1.213903e+002
1.163305e+003, 1.215773e+002
1.163787e+003, 1.214228e+002
1.164269e+003, 1.207374e+002
1.164751e+003, 1.202838e+002
1.165233e+003, 1.202415e+002
1.165715e+003, 1.201923e+002
1.166197e+003, 1.199006e+002
1.166679e+003, 1.196155e+002
1.167161e+003, 1.196353e+002
1.167644e+003, 1.199029e+002
1.168126e+003, 1.202376e+002
1.168608e+003, 1.206493e+002
1.169090e+003, 1.207423e+002
1.169572e+003, 1.204865e+002
1.170054e+003, 1.204719e+002
1.170536e+003, 1.208668e+002
1.171018e+003, 1.211229e+002
1.171500e+003, 1.208299e+002
1.171983e+003, 1.204268e+002
1.172465e+003, 1.206952e+002
1.172947e+003, 1.214002e+002
1.173429e+003, 1.218340e+002
1.173911e+003, 1.220009e+002
1.174393e+003, 1.218414e+002
1.174875e+003, 1.214175e+002
1.175357e+003, 1.209696e+002
1.175840e+003, 1.206092e+002
1.176322e+003, 1.205259e+002
1.176804e+003, 1.209700e+002
1.177286e+003, 1.215489e+002
1.177768e+003, 1.218009e+002
1.178250e+003, 1.218572e+002
1.178732e+003, 1.219022e+002
1.179214e+003, 1.219051e+002
1.179697e+003, 1.216778e+002
1.180179e+003, 1.212999e+002
1.180661e+003, 1.212123e+002
1.181143e+003, 1.216298e+002
1.181625e+003, 1.220701e+002
1.182107e+003, 1.223631e+002
1.182589e+003, 1.224323e+002
1.183071e+003, 1.220089e+002
1.183553e+003, 1.215311e+002
1.184036e+003, 1.215384e+002
1.184518e+003, 1.217552e+002
1.185000e+003, 1.214827e+002
1.185482e+003, 1.206756e+002
1.185964e+003, 1.203624e+002
1.186446e+003, 1.213233e+002
1.186928e+003, 1.219058e+002
1.187410e+003, 1.215257e+002
1.187892e+003, 1.211037e+002
1.188375e+003, 1.209832e+002
1.188857e+003, 1.210332e+002
1.189339e+003, 1.211796e+002
1.189821e+003, 1.213813e+002
1.190303e+003, 1.215271e+002
1.190785e+003, 1.216325e+002
1.191267e+003, 1.215707e+002
1.191749e+003, 1.212244e+002
1.192232e+003, 1.210476e+002
1.192714e+003, 1.211461e+002
1.193196e+003, 1.213390e+002
1.193678e+003, 1.215813e+002
1.194160e+003, 1.217138e+002
1.194642e+003, 1.214568e+002
1.195124e+003, 1.210284e+002
1.195606e+003, 1.214938e+002
1.196089e+003, 1.227919e+002
1.196571e+003, 1.230538e+002
1.197053e+003, 1.222670e+002
1.197535e+003, 1.221137e+002
1.198017e+003, 1.229744e+002
1.198499e+003, 1.237400e+002
1.198981e+003, 1.237206e+002
1.199463e+003, 1.233146e+002
1.199945e+003, 1.229095e+002
1.200427e+003, 1.225995e+002
1.200910e+003, 1.227245e+002
1.201392e+003, 1.230264e+002
1.201874e+003, 1.229121e+002
1.202356e+003, 1.224339e+002
1.202838e+003, 1.218674e+002
1.203320e+003, 1.213365e+002
1.203802e+003, 1.210365e+002
1.204284e+003, 1.210987e+002
1.204767e+003, 1.213689e+002
1.205249e+003, 1.218835e+002
1.205731e+003, 1.223929e+002
1.206213e+003, 1.226923e+002
1.206695e+003, 1.228598e+002
1.207177e+003, 1.229780e+002
1.207659e+003, 1.230649e+002
1.208141e+003, 1.231456e+002
1.208624e+003, 1.232306e+002
1.209106e+003, 1.232064e+002
1.209588e+003, 1.229824e+002
1.210070e+003, 1.227427e+002
1.210552e+003, 1.224470e+002
1.211034e+003, 1.222349e+002
1.211516e+003, 1.222036e+002
1.211998e+003, 1.222636e+002
1.212480e+003, 1.223154e+002
1.212963e+003, 1.223873e+002
1.213445e+003, 1.226200e+002
1.213927e+003, 1.231083e+002
1.214409e+003, 1.232053e+002
1.214891e+003, 1.227141e+002
1.215373e+003, 1.226787e+002
1.215855e+003, 1.234105e+002
1.216337e+003, 1.240487e+002
1.216819e+003, 1.241335e+002
1.217302e+003, 1.239322e+002
1.217784e+003, 1.237533e+002
1.218266e+003, 1.235759e+002
1.218748e+003, 1.232591e+002
1.219230e+003, 1.228806e+002
1.219712e+003, 1.228762e+002
1.220194e+003, 1.232032e+002
1.220676e+003, 1.235794e+002
1.221159e+003, 1.239014e+002
1.221641e+003, 1.239890e+002
1.222123e+003, 1.237378e+002
1.222605e+003, 1.234194e+002
1.223087e+003, 1.231629e+002
1.223569e+003, 1.231272e+002
1.224051e+003, 1.236823e+002
1.224533e+003, 1.244240e+002
1.225016e+003, 1.249125e+002
1.225498e+003, 1.251157e+002
1.225980e+003, 1.250164e+002
1.226462e+003, 1.246639e+002
1.226944e+003, 1.242705e+002
1.227426e+003, 1.238055e+002
1.227908e+003, 1.236170e+002
1.228390e+003, 1.241180e+002
1.228872e+003, 1.245329e+002
1.229354e+003, 1.245471e+002
1.229837e+003, 1.243379e+002
1.230319e+003, 1.238043e+002
1.230801e+003, 1.232739e+002
1.231283e+003, 1.233820e+002
1.231765e+003, 1.241047e+002
1.232247e+003, 1.245506e+002
1.232729e+003, 1.245466e+002
1.233211e+003, 1.248696e+002
1.233694e+003, 1.257710e+002
1.234176e+003, 1.261773e+002
1.234658e+003, 1.256763e+002
1.235140e+003, 1.249767e+002
1.235622e+003, 1.245429e+002
1.236104e+003, 1.244171e+002
1.236586e+003, 1.248217e+002
1.237068e+003, 1.255197e+002
1.237551e+003, 1.253657e+002
1.238033e+003, 1.245984e+002
1.238515e+003, 1.243647e+002
1.238997e+003, 1.246295e+002
1.239479e+003, 1.244669e+002
1.239961e+003, 1.237210e+002
1.240443e+003, 1.234221e+002
1.240925e+003, 1.243082e+002
1.241407e+003, 1.254074e+002
1.241890e+003, 1.259046e+002
1.242372e+003, 1.260391e+002
1.242854e+003, 1.258624e+002
1.243336e+003, 1.256152e+002
1.243818e+003, 1.255237e+002
1.244300e+003, 1.256129e+002
1.244782e+003, 1.259578e+002
1.245264e+003, 1.265298e+002
1.245746e+003, 1.268561e+002
1.246229e+003, 1.268210e+002
1.246711e+003, 1.265195e+002
1.247193e+003, 1.253989e+002
1.247675e+003, 1.247941e+002
1.248157e+003, 1.255685e+002
1.248639e+003, 1.264871e+002
1.249121e+003, 1.265627e+002
1.249603e+003, 1.263655e+002
1.250085e+003, 1.270905e+002
1.250568e+003, 1.286168e+002
1.251050e+003, 1.286815e+002
1.251532e+003, 1.270936e+002
1.252014e+003, 1.261259e+002
1.252496e+003, 1.259596e+002
1.252978e+003, 1.260763e+002
1.253460e+003, 1.263191e+002
1.253942e+003, 1.267389e+002
1.254425e+003, 1.273894e+002
1.254907e+003, 1.280085e+002
1.255389e+003, 1.281768e+002
1.255871e+003, 1.280956e+002
1.256353e+003, 1.282110e+002
1.256835e+003, 1.283184e+002
1.257317e+003, 1.277545e+002
1.257799e+003, 1.269243e+002
1.258281e+003, 1.270153e+002
1.258764e+003, 1.280992e+002
1.259246e+003, 1.290148e+002
1.259728e+003, 1.292680e+002
1.260210e+003, 1.293059e+002
1.260692e+003, 1.291538e+002
1.261174e+003, 1.290762e+002
1.261656e+003, 1.292580e+002
1.262138e+003, 1.295012e+002
1.262620e+003, 1.297804e+002
1.263103e+003, 1.299414e+002
1.263585e+003, 1.296018e+002
1.264067e+003, 1.288763e+002
1.264549e+003, 1.287824e+002
1.265031e+003, 1.295963e+002
1.265513e+003, 1.300989e+002
1.265995e+003, 1.302431e+002
1.266477e+003, 1.302326e+002
1.266960e+003, 1.300986e+002
1.267442e+003, 1.298555e+002
1.267924e+003, 1.294803e+002
1.268406e+003, 1.292986e+002
1.268888e+003, 1.297890e+002
1.269370e+003, 1.305814e+002
1.269852e+003, 1.307987e+002
1.270334e+003, 1.306455e+002
1.270817e+003, 1.305760e+002
1.271299e+003, 1.306123e+002
1.271781e+003, 1.307135e+002
1.272263e+003, 1.308797e+002
1.272745e+003, 1.312618e+002
1.273227e+003, 1.319182e+002
1.273709e+003, 1.321043e+002
1.274191e+003, 1.305750e+002
1.274673e+003, 1.295830e+002
1.275156e+003, 1.308107e+002
1.275638e+003, 1.323159e+002
1.276120e+003, 1.330260e+002
1.276602e+003, 1.331380e+002
1.277084e+003, 1.327499e+002
1.277566e+003, 1.320426e+002
1.278048e+003, 1.315115e+002
1.278530e+003, 1.311419e+002
1.279012e+003, 1.311424e+002
1.279495e+003, 1.316723e+002
1.279977e+003, 1.319485e+002
1.280459e+003, 1.318461e+002
1.280941e+003, 1.317381e+002
1.281423e+003, 1.317508e+002
1.281905e+003, 1.318665e+002
1.282387e+003, 1.320838e+002
1.282869e+003, 1.323310e+002
1.283352e+003, 1.324881e+002
1.283834e+003, 1.325681e+002
1.284316e+003, 1.325884e+002
1.284798e+003, 1.325553e+002
##END=



