##NAMES=Cassiterite
##RRUFFID=R060563
##IDEAL CHEMISTRY=SnO_2_
##LOCALITY=unknown
##OWNER=RRUFF
##SOURCE=Gemological Institute of America
##DESCRIPTION=Dark brown fragment
##STATUS=The identification of this mineral has been confirmed by X-ray diffraction and chemical analysis
##URL=rruff.info/R060563
##MEASURED CHEMISTRY=Sn_1.00_O_2_
8.930109e+001, 0.000000e+000
8.978320e+001, 3.539885e+002
9.026532e+001, 3.540842e+002
9.074744e+001, 3.540372e+002
9.122955e+001, 3.528662e+002
9.171167e+001, 3.535465e+002
9.219379e+001, 3.627409e+002
9.267590e+001, 3.789667e+002
9.315802e+001, 3.906348e+002
9.364014e+001, 3.852461e+002
9.412225e+001, 3.681961e+002
9.460437e+001, 3.545854e+002
9.508649e+001, 3.493065e+002
9.556860e+001, 3.489889e+002
9.605072e+001, 3.462831e+002
9.653284e+001, 3.414610e+002
9.701495e+001, 3.355648e+002
9.749707e+001, 3.287271e+002
9.797919e+001, 3.209431e+002
9.846130e+001, 3.146591e+002
9.894342e+001, 3.103466e+002
9.942554e+001, 3.079334e+002
9.990765e+001, 3.082259e+002
1.003898e+002, 3.122386e+002
1.008719e+002, 3.168227e+002
1.013540e+002, 3.170500e+002
1.018361e+002, 3.119605e+002
1.023182e+002, 3.065463e+002
1.028004e+002, 3.024919e+002
1.032825e+002, 2.999180e+002
1.037646e+002, 2.980975e+002
1.042467e+002, 2.968962e+002
1.047288e+002, 2.964667e+002
1.052109e+002, 2.970687e+002
1.056931e+002, 2.979866e+002
1.061752e+002, 3.007863e+002
1.066573e+002, 3.062951e+002
1.071394e+002, 3.160276e+002
1.076215e+002, 3.258195e+002
1.081036e+002, 3.381744e+002
1.085858e+002, 3.515713e+002
1.090679e+002, 3.570442e+002
1.095500e+002, 3.485052e+002
1.100321e+002, 3.368373e+002
1.105142e+002, 3.278978e+002
1.109963e+002, 3.228125e+002
1.114785e+002, 3.190836e+002
1.119606e+002, 3.166956e+002
1.124427e+002, 3.155899e+002
1.129248e+002, 3.149964e+002
1.134069e+002, 3.144957e+002
1.138890e+002, 3.145826e+002
1.143712e+002, 3.156539e+002
1.148533e+002, 3.174014e+002
1.153354e+002, 3.204565e+002
1.158175e+002, 3.261018e+002
1.162996e+002, 3.348242e+002
1.167817e+002, 3.412915e+002
1.172639e+002, 3.419619e+002
1.177460e+002, 3.398153e+002
1.182281e+002, 3.386235e+002
1.187102e+002, 3.421629e+002
1.191923e+002, 3.454095e+002
1.196744e+002, 3.447079e+002
1.201566e+002, 3.388640e+002
1.206387e+002, 3.328649e+002
1.211208e+002, 3.294755e+002
1.216029e+002, 3.281606e+002
1.220850e+002, 3.279111e+002
1.225671e+002, 3.272584e+002
1.230493e+002, 3.278120e+002
1.235314e+002, 3.322698e+002
1.240135e+002, 3.429555e+002
1.244956e+002, 3.528690e+002
1.249777e+002, 3.544335e+002
1.254598e+002, 3.491035e+002
1.259420e+002, 3.422925e+002
1.264241e+002, 3.365396e+002
1.269062e+002, 3.318050e+002
1.273883e+002, 3.280205e+002
1.278704e+002, 3.251642e+002
1.283525e+002, 3.232554e+002
1.288347e+002, 3.225077e+002
1.293168e+002, 3.228903e+002
1.297989e+002, 3.238427e+002
1.302810e+002, 3.253274e+002
1.307631e+002, 3.271245e+002
1.312452e+002, 3.284138e+002
1.317274e+002, 3.290664e+002
1.322095e+002, 3.290439e+002
1.326916e+002, 3.281534e+002
1.331737e+002, 3.263382e+002
1.336558e+002, 3.239780e+002
1.341379e+002, 3.210418e+002
1.346201e+002, 3.175499e+002
1.351022e+002, 3.147002e+002
1.355843e+002, 3.129531e+002
1.360664e+002, 3.121982e+002
1.365485e+002, 3.117054e+002
1.370306e+002, 3.114784e+002
1.375128e+002, 3.115055e+002
1.379949e+002, 3.114181e+002
1.384770e+002, 3.108900e+002
1.389591e+002, 3.119689e+002
1.394412e+002, 3.162185e+002
1.399233e+002, 3.240385e+002
1.404055e+002, 3.289437e+002
1.408876e+002, 3.305453e+002
1.413697e+002, 3.295948e+002
1.418518e+002, 3.270006e+002
1.423339e+002, 3.220060e+002
1.428160e+002, 3.170887e+002
1.432982e+002, 3.130399e+002
1.437803e+002, 3.098864e+002
1.442624e+002, 3.077018e+002
1.447445e+002, 3.069251e+002
1.452266e+002, 3.069854e+002
1.457087e+002, 3.065312e+002
1.461909e+002, 3.047796e+002
1.466730e+002, 3.035045e+002
1.471551e+002, 3.035135e+002
1.476372e+002, 3.062145e+002
1.481193e+002, 3.078229e+002
1.486014e+002, 3.079135e+002
1.490836e+002, 3.068609e+002
1.495657e+002, 3.059398e+002
1.500478e+002, 3.051896e+002
1.505299e+002, 3.045603e+002
1.510120e+002, 3.040264e+002
1.514941e+002, 3.029433e+002
1.519763e+002, 3.027082e+002
1.524584e+002, 3.039592e+002
1.529405e+002, 3.063195e+002
1.534226e+002, 3.079177e+002
1.539047e+002, 3.076549e+002
1.543868e+002, 3.072128e+002
1.548690e+002, 3.075067e+002
1.553511e+002, 3.095857e+002
1.558332e+002, 3.113947e+002
1.563153e+002, 3.129014e+002
1.567974e+002, 3.140163e+002
1.572795e+002, 3.140502e+002
1.577617e+002, 3.119088e+002
1.582438e+002, 3.091382e+002
1.587259e+002, 3.068553e+002
1.592080e+002, 3.051906e+002
1.596901e+002, 3.041689e+002
1.601722e+002, 3.040505e+002
1.606544e+002, 3.047895e+002
1.611365e+002, 3.054913e+002
1.616186e+002, 3.057752e+002
1.621007e+002, 3.059009e+002
1.625828e+002, 3.061143e+002
1.630649e+002, 3.063286e+002
1.635471e+002, 3.067767e+002
1.640292e+002, 3.079471e+002
1.645113e+002, 3.098509e+002
1.649934e+002, 3.109702e+002
1.654755e+002, 3.098543e+002
1.659576e+002, 3.076878e+002
1.664398e+002, 3.059535e+002
1.669219e+002, 3.055276e+002
1.674040e+002, 3.054794e+002
1.678861e+002, 3.051057e+002
1.683682e+002, 3.043367e+002
1.688503e+002, 3.038681e+002
1.693325e+002, 3.043920e+002
1.698146e+002, 3.054904e+002
1.702967e+002, 3.064769e+002
1.707788e+002, 3.067280e+002
1.712609e+002, 3.069306e+002
1.717430e+002, 3.080352e+002
1.722252e+002, 3.102645e+002
1.727073e+002, 3.119701e+002
1.731894e+002, 3.113369e+002
1.736715e+002, 3.091427e+002
1.741536e+002, 3.071665e+002
1.746357e+002, 3.062421e+002
1.751179e+002, 3.059837e+002
1.756000e+002, 3.059940e+002
1.760821e+002, 3.062679e+002
1.765642e+002, 3.066613e+002
1.770463e+002, 3.071481e+002
1.775284e+002, 3.076679e+002
1.780106e+002, 3.080292e+002
1.784927e+002, 3.079172e+002
1.789748e+002, 3.076302e+002
1.794569e+002, 3.077845e+002
1.799390e+002, 3.085587e+002
1.804211e+002, 3.093263e+002
1.809033e+002, 3.090291e+002
1.813854e+002, 3.079315e+002
1.818675e+002, 3.072826e+002
1.823496e+002, 3.082144e+002
1.828317e+002, 3.101012e+002
1.833138e+002, 3.114995e+002
1.837960e+002, 3.122092e+002
1.842781e+002, 3.125089e+002
1.847602e+002, 3.125135e+002
1.852423e+002, 3.122932e+002
1.857244e+002, 3.124425e+002
1.862065e+002, 3.135684e+002
1.866887e+002, 3.154110e+002
1.871708e+002, 3.170851e+002
1.876529e+002, 3.185662e+002
1.881350e+002, 3.196830e+002
1.886171e+002, 3.198221e+002
1.890992e+002, 3.190134e+002
1.895814e+002, 3.183829e+002
1.900635e+002, 3.189267e+002
1.905456e+002, 3.204353e+002
1.910277e+002, 3.213664e+002
1.915098e+002, 3.214354e+002
1.919919e+002, 3.210406e+002
1.924741e+002, 3.208540e+002
1.929562e+002, 3.208666e+002
1.934383e+002, 3.212587e+002
1.939204e+002, 3.223112e+002
1.944025e+002, 3.239810e+002
1.948846e+002, 3.255684e+002
1.953668e+002, 3.270513e+002
1.958489e+002, 3.283401e+002
1.963310e+002, 3.291021e+002
1.968131e+002, 3.292686e+002
1.972952e+002, 3.294196e+002
1.977773e+002, 3.298653e+002
1.982595e+002, 3.306027e+002
1.987416e+002, 3.318105e+002
1.992237e+002, 3.336457e+002
1.997058e+002, 3.358427e+002
2.001879e+002, 3.375890e+002
2.006700e+002, 3.388129e+002
2.011522e+002, 3.399966e+002
2.016343e+002, 3.413922e+002
2.021164e+002, 3.429835e+002
2.025985e+002, 3.450724e+002
2.030806e+002, 3.479120e+002
2.035627e+002, 3.511369e+002
2.040449e+002, 3.533672e+002
2.045270e+002, 3.543045e+002
2.050091e+002, 3.552195e+002
2.054912e+002, 3.570523e+002
2.059733e+002, 3.599559e+002
2.064554e+002, 3.628590e+002
2.069376e+002, 3.656773e+002
2.074197e+002, 3.683890e+002
2.079018e+002, 3.709037e+002
2.083839e+002, 3.730323e+002
2.088660e+002, 3.754640e+002
2.093481e+002, 3.787838e+002
2.098303e+002, 3.832625e+002
2.103124e+002, 3.874626e+002
2.107945e+002, 3.910757e+002
2.112766e+002, 3.943127e+002
2.117587e+002, 3.982027e+002
2.122408e+002, 4.029145e+002
2.127230e+002, 4.079571e+002
2.132051e+002, 4.129881e+002
2.136872e+002, 4.178316e+002
2.141693e+002, 4.232998e+002
2.146514e+002, 4.294951e+002
2.151335e+002, 4.363727e+002
2.156157e+002, 4.434155e+002
2.160978e+002, 4.505793e+002
2.165799e+002, 4.580732e+002
2.170620e+002, 4.661699e+002
2.175441e+002, 4.751063e+002
2.180262e+002, 4.839666e+002
2.185084e+002, 4.925329e+002
2.189905e+002, 5.010605e+002
2.194726e+002, 5.102456e+002
2.199547e+002, 5.201229e+002
2.204368e+002, 5.308434e+002
2.209189e+002, 5.424608e+002
2.214011e+002, 5.553402e+002
2.218832e+002, 5.684170e+002
2.223653e+002, 5.816008e+002
2.228474e+002, 5.949264e+002
2.233295e+002, 6.092101e+002
2.238116e+002, 6.242106e+002
2.242938e+002, 6.400436e+002
2.247759e+002, 6.568136e+002
2.252580e+002, 6.745739e+002
2.257401e+002, 6.928775e+002
2.262222e+002, 7.121573e+002
2.267043e+002, 7.319539e+002
2.271865e+002, 7.511487e+002
2.276686e+002, 7.687034e+002
2.281507e+002, 7.866177e+002
2.286328e+002, 8.059484e+002
2.291149e+002, 8.273810e+002
2.295970e+002, 8.484094e+002
2.300792e+002, 8.681370e+002
2.305613e+002, 8.873498e+002
2.310434e+002, 9.084547e+002
2.315255e+002, 9.314260e+002
2.320076e+002, 9.559352e+002
2.324897e+002, 9.816887e+002
2.329719e+002, 1.009175e+003
2.334540e+002, 1.036693e+003
2.339361e+002, 1.064083e+003
2.344182e+002, 1.091627e+003
2.349003e+002, 1.120805e+003
2.353824e+002, 1.152444e+003
2.358646e+002, 1.184553e+003
2.363467e+002, 1.216138e+003
2.368288e+002, 1.246820e+003
2.373109e+002, 1.277891e+003
2.377930e+002, 1.309851e+003
2.382751e+002, 1.342235e+003
2.387573e+002, 1.373001e+003
2.392394e+002, 1.403573e+003
2.397215e+002, 1.430433e+003
2.402036e+002, 1.452666e+003
2.406857e+002, 1.471808e+003
2.411678e+002, 1.482873e+003
2.416500e+002, 1.486329e+003
2.421321e+002, 1.481602e+003
2.426142e+002, 1.466942e+003
2.430963e+002, 1.441711e+003
2.435784e+002, 1.407375e+003
2.440605e+002, 1.364455e+003
2.445427e+002, 1.311121e+003
2.450248e+002, 1.253083e+003
2.455069e+002, 1.188454e+003
2.459890e+002, 1.119642e+003
2.464711e+002, 1.052632e+003
2.469532e+002, 9.859427e+002
2.474354e+002, 9.224848e+002
2.479175e+002, 8.638340e+002
2.483996e+002, 8.096160e+002
2.488817e+002, 7.603386e+002
2.493638e+002, 7.164147e+002
2.498459e+002, 6.771904e+002
2.503281e+002, 6.415944e+002
2.508102e+002, 6.099121e+002
2.512923e+002, 5.812723e+002
2.517744e+002, 5.550912e+002
2.522565e+002, 5.315802e+002
2.527386e+002, 5.107335e+002
2.532208e+002, 4.930620e+002
2.537029e+002, 4.776919e+002
2.541850e+002, 4.628914e+002
2.546671e+002, 4.481674e+002
2.551492e+002, 4.349263e+002
2.556313e+002, 4.239398e+002
2.561135e+002, 4.155831e+002
2.565956e+002, 4.070913e+002
2.570777e+002, 3.982683e+002
2.575598e+002, 3.895876e+002
2.580419e+002, 3.817514e+002
2.585240e+002, 3.750771e+002
2.590062e+002, 3.686818e+002
2.594883e+002, 3.621592e+002
2.599704e+002, 3.555502e+002
2.604525e+002, 3.498941e+002
2.609346e+002, 3.454143e+002
2.614167e+002, 3.416931e+002
2.618989e+002, 3.383294e+002
2.623810e+002, 3.354437e+002
2.628631e+002, 3.326680e+002
2.633452e+002, 3.298364e+002
2.638273e+002, 3.269258e+002
2.643094e+002, 3.248465e+002
2.647916e+002, 3.237729e+002
2.652737e+002, 3.232062e+002
2.657558e+002, 3.225548e+002
2.662379e+002, 3.215752e+002
2.667200e+002, 3.213739e+002
2.672021e+002, 3.223419e+002
2.676843e+002, 3.243560e+002
2.681664e+002, 3.262320e+002
2.686485e+002, 3.279249e+002
2.691306e+002, 3.295597e+002
2.696127e+002, 3.312357e+002
2.700948e+002, 3.329737e+002
2.705770e+002, 3.346140e+002
2.710591e+002, 3.361170e+002
2.715412e+002, 3.374792e+002
2.720233e+002, 3.386725e+002
2.725054e+002, 3.395656e+002
2.729875e+002, 3.405814e+002
2.734697e+002, 3.419253e+002
2.739518e+002, 3.435633e+002
2.744339e+002, 3.458036e+002
2.749160e+002, 3.485977e+002
2.753981e+002, 3.520515e+002
2.758802e+002, 3.565111e+002
2.763624e+002, 3.618594e+002
2.768445e+002, 3.684463e+002
2.773266e+002, 3.762679e+002
2.778087e+002, 3.852623e+002
2.782908e+002, 3.964055e+002
2.787729e+002, 4.096527e+002
2.792551e+002, 4.252191e+002
2.797372e+002, 4.432300e+002
2.802193e+002, 4.637674e+002
2.807014e+002, 4.867641e+002
2.811835e+002, 5.126617e+002
2.816656e+002, 5.414412e+002
2.821478e+002, 5.719827e+002
2.826299e+002, 6.046970e+002
2.831120e+002, 6.382484e+002
2.835941e+002, 6.720512e+002
2.840762e+002, 7.064944e+002
2.845583e+002, 7.354969e+002
2.850405e+002, 7.595562e+002
2.855226e+002, 7.775816e+002
2.860047e+002, 7.785502e+002
2.864868e+002, 7.612218e+002
2.869689e+002, 7.307310e+002
2.874510e+002, 6.897620e+002
2.879332e+002, 6.388776e+002
2.884153e+002, 5.892325e+002
2.888974e+002, 5.452330e+002
2.893795e+002, 5.063947e+002
2.898616e+002, 4.727751e+002
2.903438e+002, 4.444927e+002
2.908259e+002, 4.206318e+002
2.913080e+002, 4.006705e+002
2.917901e+002, 3.845854e+002
2.922722e+002, 3.711641e+002
2.927543e+002, 3.607085e+002
2.932365e+002, 3.525013e+002
2.937186e+002, 3.451635e+002
2.942007e+002, 3.387606e+002
2.946828e+002, 3.330462e+002
2.951649e+002, 3.278719e+002
2.956470e+002, 3.232653e+002
2.961292e+002, 3.191476e+002
2.966113e+002, 3.155775e+002
2.970934e+002, 3.124716e+002
2.975755e+002, 3.097422e+002
2.980576e+002, 3.073625e+002
2.985397e+002, 3.051720e+002
2.990219e+002, 3.030648e+002
2.995040e+002, 3.010307e+002
2.999861e+002, 2.990508e+002
3.004682e+002, 2.970749e+002
3.009503e+002, 2.952586e+002
3.014324e+002, 2.937582e+002
3.019146e+002, 2.925721e+002
3.023967e+002, 2.916230e+002
3.028788e+002, 2.910910e+002
3.033609e+002, 2.907088e+002
3.038430e+002, 2.900953e+002
3.043251e+002, 2.891786e+002
3.048073e+002, 2.881061e+002
3.052894e+002, 2.870743e+002
3.057715e+002, 2.859941e+002
3.062536e+002, 2.846213e+002
3.067357e+002, 2.823683e+002
3.072178e+002, 2.800011e+002
3.077000e+002, 2.784557e+002
3.081821e+002, 2.778746e+002
3.086642e+002, 2.773657e+002
3.091463e+002, 2.761461e+002
3.096284e+002, 2.745885e+002
3.101105e+002, 2.732582e+002
3.105927e+002, 2.727454e+002
3.110748e+002, 2.723089e+002
3.115569e+002, 2.713070e+002
3.120390e+002, 2.697331e+002
3.125211e+002, 2.682868e+002
3.130032e+002, 2.674630e+002
3.134854e+002, 2.669240e+002
3.139675e+002, 2.663221e+002
3.144496e+002, 2.655675e+002
3.149317e+002, 2.647096e+002
3.154138e+002, 2.636285e+002
3.158959e+002, 2.623971e+002
3.163781e+002, 2.614102e+002
3.168602e+002, 2.609406e+002
3.173423e+002, 2.607365e+002
3.178244e+002, 2.606509e+002
3.183065e+002, 2.609440e+002
3.187886e+002, 2.609357e+002
3.192708e+002, 2.601906e+002
3.197529e+002, 2.589420e+002
3.202350e+002, 2.578439e+002
3.207171e+002, 2.572268e+002
3.211992e+002, 2.567126e+002
3.216813e+002, 2.561024e+002
3.221635e+002, 2.552827e+002
3.226456e+002, 2.545587e+002
3.231277e+002, 2.539721e+002
3.236098e+002, 2.535155e+002
3.240919e+002, 2.531763e+002
3.245740e+002, 2.533391e+002
3.250562e+002, 2.532669e+002
3.255383e+002, 2.526430e+002
3.260204e+002, 2.512759e+002
3.265025e+002, 2.500917e+002
3.269846e+002, 2.492185e+002
3.274667e+002, 2.485348e+002
3.279489e+002, 2.479033e+002
3.284310e+002, 2.475600e+002
3.289131e+002, 2.470055e+002
3.293952e+002, 2.460454e+002
3.298773e+002, 2.446656e+002
3.303594e+002, 2.435645e+002
3.308416e+002, 2.429130e+002
3.313237e+002, 2.424088e+002
3.318058e+002, 2.418439e+002
3.322879e+002, 2.411740e+002
3.327700e+002, 2.405101e+002
3.332521e+002, 2.398379e+002
3.337343e+002, 2.391678e+002
3.342164e+002, 2.385502e+002
3.346985e+002, 2.379812e+002
3.351806e+002, 2.374750e+002
3.356627e+002, 2.370479e+002
3.361448e+002, 2.367304e+002
3.366270e+002, 2.364011e+002
3.371091e+002, 2.360457e+002
3.375912e+002, 2.356890e+002
3.380733e+002, 2.353973e+002
3.385554e+002, 2.352128e+002
3.390375e+002, 2.349688e+002
3.395197e+002, 2.345707e+002
3.400018e+002, 2.340107e+002
3.404839e+002, 2.335322e+002
3.409660e+002, 2.331751e+002
3.414481e+002, 2.328318e+002
3.419302e+002, 2.324211e+002
3.424124e+002, 2.319494e+002
3.428945e+002, 2.312269e+002
3.433766e+002, 2.299910e+002
3.438587e+002, 2.284636e+002
3.443408e+002, 2.277469e+002
3.448229e+002, 2.279420e+002
3.453051e+002, 2.282834e+002
3.457872e+002, 2.280344e+002
3.462693e+002, 2.272824e+002
3.467514e+002, 2.266122e+002
3.472335e+002, 2.262049e+002
3.477156e+002, 2.258719e+002
3.481978e+002, 2.251949e+002
3.486799e+002, 2.242032e+002
3.491620e+002, 2.232436e+002
3.496441e+002, 2.225842e+002
3.501262e+002, 2.221295e+002
3.506083e+002, 2.216293e+002
3.510905e+002, 2.210191e+002
3.515726e+002, 2.204732e+002
3.520547e+002, 2.203356e+002
3.525368e+002, 2.204554e+002
3.530189e+002, 2.203752e+002
3.535010e+002, 2.197248e+002
3.539832e+002, 2.188123e+002
3.544653e+002, 2.179697e+002
3.549474e+002, 2.172018e+002
3.554295e+002, 2.165443e+002
3.559116e+002, 2.159531e+002
3.563937e+002, 2.154998e+002
3.568759e+002, 2.153009e+002
3.573580e+002, 2.157733e+002
3.578401e+002, 2.161980e+002
3.583222e+002, 2.159715e+002
3.588043e+002, 2.151929e+002
3.592864e+002, 2.144646e+002
3.597686e+002, 2.143310e+002
3.602507e+002, 2.142655e+002
3.607328e+002, 2.137832e+002
3.612149e+002, 2.124808e+002
3.616970e+002, 2.112426e+002
3.621791e+002, 2.103856e+002
3.626613e+002, 2.098476e+002
3.631434e+002, 2.094878e+002
3.636255e+002, 2.094771e+002
3.641076e+002, 2.094583e+002
3.645897e+002, 2.092571e+002
3.650718e+002, 2.088197e+002
3.655540e+002, 2.083301e+002
3.660361e+002, 2.077631e+002
3.665182e+002, 2.071809e+002
3.670003e+002, 2.066583e+002
3.674824e+002, 2.061775e+002
3.679645e+002, 2.057886e+002
3.684467e+002, 2.055518e+002
3.689288e+002, 2.054835e+002
3.694109e+002, 2.053255e+002
3.698930e+002, 2.050337e+002
3.703751e+002, 2.046927e+002
3.708572e+002, 2.043504e+002
3.713394e+002, 2.039544e+002
3.718215e+002, 2.036591e+002
3.723036e+002, 2.035022e+002
3.727857e+002, 2.034534e+002
3.732678e+002, 2.034088e+002
3.737499e+002, 2.033819e+002
3.742321e+002, 2.033286e+002
3.747142e+002, 2.032057e+002
3.751963e+002, 2.029667e+002
3.756784e+002, 2.028587e+002
3.761605e+002, 2.029293e+002
3.766426e+002, 2.030668e+002
3.771248e+002, 2.030657e+002
3.776069e+002, 2.028858e+002
3.780890e+002, 2.028122e+002
3.785711e+002, 2.030130e+002
3.790532e+002, 2.034248e+002
3.795353e+002, 2.035387e+002
3.800175e+002, 2.033184e+002
3.804996e+002, 2.029916e+002
3.809817e+002, 2.027361e+002
3.814638e+002, 2.025539e+002
3.819459e+002, 2.024465e+002
3.824280e+002, 2.023986e+002
3.829102e+002, 2.024476e+002
3.833923e+002, 2.027975e+002
3.838744e+002, 2.034057e+002
3.843565e+002, 2.038205e+002
3.848386e+002, 2.035823e+002
3.853207e+002, 2.029687e+002
3.858029e+002, 2.025170e+002
3.862850e+002, 2.022653e+002
3.867671e+002, 2.022311e+002
3.872492e+002, 2.026319e+002
3.877313e+002, 2.032709e+002
3.882134e+002, 2.036918e+002
3.886956e+002, 2.035506e+002
3.891777e+002, 2.031880e+002
3.896598e+002, 2.028406e+002
3.901419e+002, 2.025232e+002
3.906240e+002, 2.023336e+002
3.911061e+002, 2.025532e+002
3.915883e+002, 2.028399e+002
3.920704e+002, 2.027952e+002
3.925525e+002, 2.018666e+002
3.930346e+002, 2.012074e+002
3.935167e+002, 2.016568e+002
3.939988e+002, 2.028224e+002
3.944810e+002, 2.036028e+002
3.949631e+002, 2.033203e+002
3.954452e+002, 2.027875e+002
3.959273e+002, 2.023708e+002
3.964094e+002, 2.020916e+002
3.968915e+002, 2.019937e+002
3.973737e+002, 2.022356e+002
3.978558e+002, 2.026110e+002
3.983379e+002, 2.028656e+002
3.988200e+002, 2.029838e+002
3.993021e+002, 2.029597e+002
3.997842e+002, 2.026279e+002
4.002664e+002, 2.019893e+002
4.007485e+002, 2.018420e+002
4.012306e+002, 2.024608e+002
4.017127e+002, 2.032985e+002
4.021948e+002, 2.040418e+002
4.026769e+002, 2.047666e+002
4.031591e+002, 2.052067e+002
4.036412e+002, 2.052368e+002
4.041233e+002, 2.050211e+002
4.046054e+002, 2.049775e+002
4.050875e+002, 2.051579e+002
4.055696e+002, 2.053575e+002
4.060518e+002, 2.054369e+002
4.065339e+002, 2.053862e+002
4.070160e+002, 2.057120e+002
4.074981e+002, 2.065237e+002
4.079802e+002, 2.074049e+002
4.084623e+002, 2.077923e+002
4.089445e+002, 2.077014e+002
4.094266e+002, 2.077398e+002
4.099087e+002, 2.080691e+002
4.103908e+002, 2.086285e+002
4.108729e+002, 2.093403e+002
4.113550e+002, 2.102037e+002
4.118372e+002, 2.110297e+002
4.123193e+002, 2.117256e+002
4.128014e+002, 2.122880e+002
4.132835e+002, 2.126918e+002
4.137656e+002, 2.129136e+002
4.142477e+002, 2.130654e+002
4.147299e+002, 2.132036e+002
4.152120e+002, 2.133569e+002
4.156941e+002, 2.135935e+002
4.161762e+002, 2.139208e+002
4.166583e+002, 2.143574e+002
4.171404e+002, 2.150084e+002
4.176226e+002, 2.158616e+002
4.181047e+002, 2.165708e+002
4.185868e+002, 2.166399e+002
4.190689e+002, 2.166079e+002
4.195510e+002, 2.170334e+002
4.200331e+002, 2.186350e+002
4.205153e+002, 2.199407e+002
4.209974e+002, 2.201151e+002
4.214795e+002, 2.195456e+002
4.219616e+002, 2.192015e+002
4.224437e+002, 2.195337e+002
4.229258e+002, 2.199734e+002
4.234080e+002, 2.202154e+002
4.238901e+002, 2.200770e+002
4.243722e+002, 2.203609e+002
4.248543e+002, 2.215456e+002
4.253364e+002, 2.229884e+002
4.258185e+002, 2.240395e+002
4.263007e+002, 2.242397e+002
4.267828e+002, 2.247454e+002
4.272649e+002, 2.258230e+002
4.277470e+002, 2.273708e+002
4.282291e+002, 2.287539e+002
4.287112e+002, 2.298700e+002
4.291934e+002, 2.309777e+002
4.296755e+002, 2.322595e+002
4.301576e+002, 2.337536e+002
4.306397e+002, 2.351367e+002
4.311218e+002, 2.362961e+002
4.316039e+002, 2.374990e+002
4.320861e+002, 2.393806e+002
4.325682e+002, 2.420088e+002
4.330503e+002, 2.442316e+002
4.335324e+002, 2.455059e+002
4.340145e+002, 2.461161e+002
4.344966e+002, 2.470250e+002
4.349788e+002, 2.482392e+002
4.354609e+002, 2.496094e+002
4.359430e+002, 2.511164e+002
4.364251e+002, 2.527025e+002
4.369072e+002, 2.542472e+002
4.373893e+002, 2.558296e+002
4.378715e+002, 2.571418e+002
4.383536e+002, 2.576925e+002
4.388357e+002, 2.576652e+002
4.393178e+002, 2.575717e+002
4.397999e+002, 2.578345e+002
4.402820e+002, 2.580451e+002
4.407642e+002, 2.578705e+002
4.412463e+002, 2.572867e+002
4.417284e+002, 2.563222e+002
4.422105e+002, 2.544754e+002
4.426926e+002, 2.524821e+002
4.431747e+002, 2.510662e+002
4.436569e+002, 2.510279e+002
4.441390e+002, 2.508543e+002
4.446211e+002, 2.498267e+002
4.451032e+002, 2.482741e+002
4.455853e+002, 2.471830e+002
4.460674e+002, 2.470834e+002
4.465496e+002, 2.471639e+002
4.470317e+002, 2.470977e+002
4.475138e+002, 2.467498e+002
4.479959e+002, 2.466839e+002
4.484780e+002, 2.468327e+002
4.489601e+002, 2.473186e+002
4.494423e+002, 2.483040e+002
4.499244e+002, 2.499839e+002
4.504065e+002, 2.517567e+002
4.508886e+002, 2.535911e+002
4.513707e+002, 2.554416e+002
4.518528e+002, 2.571193e+002
4.523350e+002, 2.585219e+002
4.528171e+002, 2.600882e+002
4.532992e+002, 2.621618e+002
4.537813e+002, 2.647569e+002
4.542634e+002, 2.672130e+002
4.547455e+002, 2.695135e+002
4.552277e+002, 2.717283e+002
4.557098e+002, 2.737888e+002
4.561919e+002, 2.757646e+002
4.566740e+002, 2.783276e+002
4.571561e+002, 2.818228e+002
4.576382e+002, 2.858633e+002
4.581204e+002, 2.897531e+002
4.586025e+002, 2.935368e+002
4.590846e+002, 2.972661e+002
4.595667e+002, 3.007910e+002
4.600488e+002, 3.044103e+002
4.605309e+002, 3.085610e+002
4.610131e+002, 3.133355e+002
4.614952e+002, 3.184393e+002
4.619773e+002, 3.238108e+002
4.624594e+002, 3.292809e+002
4.629415e+002, 3.346785e+002
4.634236e+002, 3.395069e+002
4.639058e+002, 3.445680e+002
4.643879e+002, 3.504164e+002
4.648700e+002, 3.569113e+002
4.653521e+002, 3.633380e+002
4.658342e+002, 3.694908e+002
4.663163e+002, 3.756113e+002
4.667985e+002, 3.818269e+002
4.672806e+002, 3.880055e+002
4.677627e+002, 3.945204e+002
4.682448e+002, 4.014857e+002
4.687269e+002, 4.086790e+002
4.692090e+002, 4.158325e+002
4.696912e+002, 4.227481e+002
4.701733e+002, 4.300850e+002
4.706554e+002, 4.377835e+002
4.711375e+002, 4.459451e+002
4.716196e+002, 4.557006e+002
4.721017e+002, 4.673758e+002
4.725839e+002, 4.797583e+002
4.730660e+002, 4.929609e+002
4.735481e+002, 5.069495e+002
4.740302e+002, 5.189822e+002
4.745123e+002, 5.291500e+002
4.749944e+002, 5.365211e+002
4.754766e+002, 5.403569e+002
4.759587e+002, 5.404584e+002
4.764408e+002, 5.353927e+002
4.769229e+002, 5.236089e+002
4.774050e+002, 5.069958e+002
4.778871e+002, 4.873200e+002
4.783693e+002, 4.649267e+002
4.788514e+002, 4.429377e+002
4.793335e+002, 4.223621e+002
4.798156e+002, 4.038594e+002
4.802977e+002, 3.885468e+002
4.807798e+002, 3.769489e+002
4.812620e+002, 3.674909e+002
4.817441e+002, 3.593737e+002
4.822262e+002, 3.528174e+002
4.827083e+002, 3.481491e+002
4.831904e+002, 3.464877e+002
4.836725e+002, 3.457422e+002
4.841547e+002, 3.452700e+002
4.846368e+002, 3.450570e+002
4.851189e+002, 3.452827e+002
4.856010e+002, 3.463080e+002
4.860831e+002, 3.475192e+002
4.865652e+002, 3.485796e+002
4.870474e+002, 3.492989e+002
4.875295e+002, 3.503195e+002
4.880116e+002, 3.519018e+002
4.884937e+002, 3.535805e+002
4.889758e+002, 3.547644e+002
4.894579e+002, 3.554843e+002
4.899401e+002, 3.555823e+002
4.904222e+002, 3.548711e+002
4.909043e+002, 3.535317e+002
4.913864e+002, 3.524133e+002
4.918685e+002, 3.515599e+002
4.923506e+002, 3.505898e+002
4.928328e+002, 3.491203e+002
4.933149e+002, 3.472866e+002
4.937970e+002, 3.456515e+002
4.942791e+002, 3.442509e+002
4.947612e+002, 3.430770e+002
4.952433e+002, 3.421688e+002
4.957255e+002, 3.414710e+002
4.962076e+002, 3.408293e+002
4.966897e+002, 3.401942e+002
4.971718e+002, 3.395898e+002
4.976539e+002, 3.392178e+002
4.981360e+002, 3.389599e+002
4.986182e+002, 3.383368e+002
4.991003e+002, 3.366574e+002
4.995824e+002, 3.348257e+002
5.000645e+002, 3.336324e+002
5.005466e+002, 3.333668e+002
5.010287e+002, 3.327145e+002
5.015109e+002, 3.308507e+002
5.019930e+002, 3.286065e+002
5.024751e+002, 3.268343e+002
5.029572e+002, 3.262104e+002
5.034393e+002, 3.253745e+002
5.039214e+002, 3.239993e+002
5.044036e+002, 3.223030e+002
5.048857e+002, 3.210169e+002
5.053678e+002, 3.202577e+002
5.058499e+002, 3.196956e+002
5.063320e+002, 3.193001e+002
5.068141e+002, 3.191117e+002
5.072963e+002, 3.184507e+002
5.077784e+002, 3.171904e+002
5.082605e+002, 3.157743e+002
5.087426e+002, 3.146432e+002
5.092247e+002, 3.137780e+002
5.097068e+002, 3.129123e+002
5.101890e+002, 3.120443e+002
5.106711e+002, 3.110659e+002
5.111532e+002, 3.096455e+002
5.116353e+002, 3.078933e+002
5.121174e+002, 3.063831e+002
5.125995e+002, 3.054654e+002
5.130817e+002, 3.049044e+002
5.135638e+002, 3.046910e+002
5.140459e+002, 3.047736e+002
5.145280e+002, 3.042975e+002
5.150101e+002, 3.021742e+002
5.154922e+002, 2.995151e+002
5.159744e+002, 2.974124e+002
5.164565e+002, 2.963681e+002
5.169386e+002, 2.953268e+002
5.174207e+002, 2.938051e+002
5.179028e+002, 2.920994e+002
5.183849e+002, 2.906942e+002
5.188671e+002, 2.901440e+002
5.193492e+002, 2.893867e+002
5.198313e+002, 2.880996e+002
5.203134e+002, 2.863338e+002
5.207955e+002, 2.846499e+002
5.212776e+002, 2.828820e+002
5.217598e+002, 2.814308e+002
5.222419e+002, 2.806544e+002
5.227240e+002, 2.807422e+002
5.232061e+002, 2.804384e+002
5.236882e+002, 2.796528e+002
5.241703e+002, 2.786198e+002
5.246525e+002, 2.774091e+002
5.251346e+002, 2.760647e+002
5.256167e+002, 2.754907e+002
5.260988e+002, 2.762834e+002
5.265809e+002, 2.775836e+002
5.270630e+002, 2.776908e+002
5.275452e+002, 2.767941e+002
5.280273e+002, 2.759775e+002
5.285094e+002, 2.759946e+002
5.289915e+002, 2.763814e+002
5.294736e+002, 2.765609e+002
5.299557e+002, 2.764795e+002
5.304379e+002, 2.765725e+002
5.309200e+002, 2.772588e+002
5.314021e+002, 2.781700e+002
5.318842e+002, 2.789288e+002
5.323663e+002, 2.791420e+002
5.328484e+002, 2.796198e+002
5.333306e+002, 2.807533e+002
5.338127e+002, 2.822702e+002
5.342948e+002, 2.835715e+002
5.347769e+002, 2.845498e+002
5.352590e+002, 2.853857e+002
5.357411e+002, 2.859835e+002
5.362233e+002, 2.863617e+002
5.367054e+002, 2.873324e+002
5.371875e+002, 2.891890e+002
5.376696e+002, 2.910663e+002
5.381517e+002, 2.923218e+002
5.386339e+002, 2.928763e+002
5.391160e+002, 2.938124e+002
5.395981e+002, 2.952492e+002
5.400802e+002, 2.968944e+002
5.405623e+002, 2.986394e+002
5.410444e+002, 3.003725e+002
5.415266e+002, 3.014691e+002
5.420087e+002, 3.014913e+002
5.424908e+002, 3.010589e+002
5.429729e+002, 3.010993e+002
5.434550e+002, 3.014743e+002
5.439371e+002, 3.016372e+002
5.444193e+002, 3.009696e+002
5.449014e+002, 3.001615e+002
5.453835e+002, 2.998506e+002
5.458656e+002, 3.001150e+002
5.463477e+002, 3.003226e+002
5.468298e+002, 3.003197e+002
5.473120e+002, 3.000881e+002
5.477941e+002, 2.995992e+002
5.482762e+002, 2.981885e+002
5.487583e+002, 2.974271e+002
5.492404e+002, 2.978345e+002
5.497225e+002, 2.988325e+002
5.502047e+002, 2.994252e+002
5.506868e+002, 2.993322e+002
5.511689e+002, 2.993777e+002
5.516510e+002, 2.997900e+002
5.521331e+002, 3.005179e+002
5.526152e+002, 3.011994e+002
5.530974e+002, 3.018112e+002
5.535795e+002, 3.025135e+002
5.540616e+002, 3.035220e+002
5.545437e+002, 3.047578e+002
5.550258e+002, 3.056757e+002
5.555079e+002, 3.062115e+002
5.559901e+002, 3.067362e+002
5.564722e+002, 3.076116e+002
5.569543e+002, 3.087759e+002
5.574364e+002, 3.101315e+002
5.579185e+002, 3.118060e+002
5.584006e+002, 3.134094e+002
5.588828e+002, 3.144172e+002
5.593649e+002, 3.151178e+002
5.598470e+002, 3.162052e+002
5.603291e+002, 3.182435e+002
5.608112e+002, 3.204555e+002
5.612933e+002, 3.224220e+002
5.617755e+002, 3.241175e+002
5.622576e+002, 3.261952e+002
5.627397e+002, 3.294106e+002
5.632218e+002, 3.324486e+002
5.637039e+002, 3.346379e+002
5.641860e+002, 3.356098e+002
5.646682e+002, 3.366569e+002
5.651503e+002, 3.376750e+002
5.656324e+002, 3.389223e+002
5.661145e+002, 3.407633e+002
5.665966e+002, 3.432664e+002
5.670787e+002, 3.459499e+002
5.675609e+002, 3.487521e+002
5.680430e+002, 3.516400e+002
5.685251e+002, 3.544916e+002
5.690072e+002, 3.573292e+002
5.694893e+002, 3.600932e+002
5.699714e+002, 3.626537e+002
5.704536e+002, 3.652030e+002
5.709357e+002, 3.680307e+002
5.714178e+002, 3.711227e+002
5.718999e+002, 3.743862e+002
5.723820e+002, 3.777455e+002
5.728641e+002, 3.812236e+002
5.733463e+002, 3.847755e+002
5.738284e+002, 3.883922e+002
5.743105e+002, 3.921819e+002
5.747926e+002, 3.964054e+002
5.752747e+002, 4.007357e+002
5.757568e+002, 4.047379e+002
5.762390e+002, 4.080912e+002
5.767211e+002, 4.115484e+002
5.772032e+002, 4.151071e+002
5.776853e+002, 4.188510e+002
5.781674e+002, 4.229883e+002
5.786495e+002, 4.276204e+002
5.791317e+002, 4.323673e+002
5.796138e+002, 4.372041e+002
5.800959e+002, 4.420671e+002
5.805780e+002, 4.462601e+002
5.810601e+002, 4.497627e+002
5.815422e+002, 4.532450e+002
5.820244e+002, 4.575515e+002
5.825065e+002, 4.622809e+002
5.829886e+002, 4.662601e+002
5.834707e+002, 4.693019e+002
5.839528e+002, 4.721213e+002
5.844349e+002, 4.750799e+002
5.849171e+002, 4.783127e+002
5.853992e+002, 4.820351e+002
5.858813e+002, 4.874051e+002
5.863634e+002, 4.921145e+002
5.868455e+002, 4.948174e+002
5.873276e+002, 4.960891e+002
5.878098e+002, 4.973863e+002
5.882919e+002, 4.989066e+002
5.887740e+002, 5.005704e+002
5.892561e+002, 5.025176e+002
5.897382e+002, 5.047614e+002
5.902203e+002, 5.063577e+002
5.907025e+002, 5.072926e+002
5.911846e+002, 5.075767e+002
5.916667e+002, 5.070911e+002
5.921488e+002, 5.057838e+002
5.926309e+002, 5.043530e+002
5.931130e+002, 5.027523e+002
5.935952e+002, 5.012806e+002
5.940773e+002, 5.007181e+002
5.945594e+002, 5.006868e+002
5.950415e+002, 4.996298e+002
5.955236e+002, 4.968046e+002
5.960057e+002, 4.934687e+002
5.964879e+002, 4.913174e+002
5.969700e+002, 4.897745e+002
5.974521e+002, 4.875024e+002
5.979342e+002, 4.832488e+002
5.984163e+002, 4.786394e+002
5.988984e+002, 4.744864e+002
5.993806e+002, 4.707707e+002
5.998627e+002, 4.672196e+002
6.003448e+002, 4.640389e+002
6.008269e+002, 4.607754e+002
6.013090e+002, 4.570930e+002
6.017911e+002, 4.527336e+002
6.022733e+002, 4.489675e+002
6.027554e+002, 4.461193e+002
6.032375e+002, 4.434101e+002
6.037196e+002, 4.399750e+002
6.042017e+002, 4.356418e+002
6.046838e+002, 4.320891e+002
6.051660e+002, 4.295293e+002
6.056481e+002, 4.277180e+002
6.061302e+002, 4.266804e+002
6.066123e+002, 4.261962e+002
6.070944e+002, 4.252049e+002
6.075765e+002, 4.228778e+002
6.080587e+002, 4.202738e+002
6.085408e+002, 4.186392e+002
6.090229e+002, 4.177805e+002
6.095050e+002, 4.169484e+002
6.099871e+002, 4.154542e+002
6.104692e+002, 4.141206e+002
6.109514e+002, 4.135836e+002
6.114335e+002, 4.139232e+002
6.119156e+002, 4.140721e+002
6.123977e+002, 4.134481e+002
6.128798e+002, 4.128488e+002
6.133619e+002, 4.127140e+002
6.138441e+002, 4.130424e+002
6.143262e+002, 4.138356e+002
6.148083e+002, 4.150346e+002
6.152904e+002, 4.167817e+002
6.157725e+002, 4.193134e+002
6.162546e+002, 4.226606e+002
6.167368e+002, 4.262227e+002
6.172189e+002, 4.297603e+002
6.177010e+002, 4.337762e+002
6.181831e+002, 4.392373e+002
6.186652e+002, 4.459522e+002
6.191473e+002, 4.532326e+002
6.196295e+002, 4.608123e+002
6.201116e+002, 4.686777e+002
6.205937e+002, 4.765677e+002
6.210758e+002, 4.845963e+002
6.215579e+002, 4.936171e+002
6.220400e+002, 5.040450e+002
6.225222e+002, 5.153803e+002
6.230043e+002, 5.272972e+002
6.234864e+002, 5.397124e+002
6.239685e+002, 5.530139e+002
6.244506e+002, 5.669656e+002
6.249327e+002, 5.820410e+002
6.254149e+002, 5.986039e+002
6.258970e+002, 6.164658e+002
6.263791e+002, 6.359568e+002
6.268612e+002, 6.572604e+002
6.273433e+002, 6.798965e+002
6.278254e+002, 7.032390e+002
6.283076e+002, 7.272938e+002
6.287897e+002, 7.522753e+002
6.292718e+002, 7.784124e+002
6.297539e+002, 8.053226e+002
6.302360e+002, 8.326686e+002
6.307181e+002, 8.601455e+002
6.312003e+002, 8.864149e+002
6.316824e+002, 9.119574e+002
6.321645e+002, 9.352184e+002
6.326466e+002, 9.561631e+002
6.331287e+002, 9.743176e+002
6.336108e+002, 9.856407e+002
6.340930e+002, 9.892825e+002
6.345751e+002, 9.854926e+002
6.350572e+002, 9.738699e+002
6.355393e+002, 9.538953e+002
6.360214e+002, 9.286547e+002
6.365035e+002, 8.966918e+002
6.369857e+002, 8.610794e+002
6.374678e+002, 8.236194e+002
6.379499e+002, 7.839803e+002
6.384320e+002, 7.456195e+002
6.389141e+002, 7.088845e+002
6.393962e+002, 6.741450e+002
6.398784e+002, 6.418259e+002
6.403605e+002, 6.122158e+002
6.408426e+002, 5.852604e+002
6.413247e+002, 5.613826e+002
6.418068e+002, 5.399448e+002
6.422889e+002, 5.200050e+002
6.427711e+002, 5.018872e+002
6.432532e+002, 4.858008e+002
6.437353e+002, 4.729456e+002
6.442174e+002, 4.613618e+002
6.446995e+002, 4.500290e+002
6.451816e+002, 4.391188e+002
6.456638e+002, 4.295920e+002
6.461459e+002, 4.224317e+002
6.466280e+002, 4.158548e+002
6.471101e+002, 4.091531e+002
6.475922e+002, 4.023260e+002
6.480743e+002, 3.963610e+002
6.485565e+002, 3.914531e+002
6.490386e+002, 3.869991e+002
6.495207e+002, 3.827260e+002
6.500028e+002, 3.786180e+002
6.504849e+002, 3.745490e+002
6.509670e+002, 3.705490e+002
6.514492e+002, 3.665469e+002
6.519313e+002, 3.623633e+002
6.524134e+002, 3.581781e+002
6.528955e+002, 3.544656e+002
6.533776e+002, 3.514920e+002
6.538597e+002, 3.485192e+002
6.543419e+002, 3.448491e+002
6.548240e+002, 3.409223e+002
6.553061e+002, 3.374748e+002
6.557882e+002, 3.352150e+002
6.562703e+002, 3.328764e+002
6.567524e+002, 3.300555e+002
6.572346e+002, 3.269581e+002
6.577167e+002, 3.241828e+002
6.581988e+002, 3.217951e+002
6.586809e+002, 3.195910e+002
6.591630e+002, 3.175128e+002
6.596451e+002, 3.155606e+002
6.601273e+002, 3.138014e+002
6.606094e+002, 3.122228e+002
6.610915e+002, 3.105929e+002
6.615736e+002, 3.085161e+002
6.620557e+002, 3.063165e+002
6.625378e+002, 3.047825e+002
6.630200e+002, 3.039453e+002
6.635021e+002, 3.029969e+002
6.639842e+002, 3.010731e+002
6.644663e+002, 2.989266e+002
6.649484e+002, 2.973199e+002
6.654305e+002, 2.965515e+002
6.659127e+002, 2.957955e+002
6.663948e+002, 2.948044e+002
6.668769e+002, 2.937656e+002
6.673590e+002, 2.928694e+002
6.678411e+002, 2.922173e+002
6.683232e+002, 2.915136e+002
6.688054e+002, 2.907109e+002
6.692875e+002, 2.898889e+002
6.697696e+002, 2.891910e+002
6.702517e+002, 2.886178e+002
6.707338e+002, 2.880789e+002
6.712159e+002, 2.874805e+002
6.716981e+002, 2.869948e+002
6.721802e+002, 2.869960e+002
6.726623e+002, 2.873919e+002
6.731444e+002, 2.878559e+002
6.736265e+002, 2.885242e+002
6.741086e+002, 2.889441e+002
6.745908e+002, 2.884983e+002
6.750729e+002, 2.873636e+002
6.755550e+002, 2.866806e+002
6.760371e+002, 2.872227e+002
6.765192e+002, 2.879232e+002
6.770013e+002, 2.882443e+002
6.774835e+002, 2.881118e+002
6.779656e+002, 2.884371e+002
6.784477e+002, 2.894596e+002
6.789298e+002, 2.905136e+002
6.794119e+002, 2.910075e+002
6.798940e+002, 2.909396e+002
6.803762e+002, 2.913400e+002
6.808583e+002, 2.922641e+002
6.813404e+002, 2.935255e+002
6.818225e+002, 2.951231e+002
6.823046e+002, 2.968896e+002
6.827867e+002, 2.985450e+002
6.832689e+002, 3.000453e+002
6.837510e+002, 3.013250e+002
6.842331e+002, 3.019969e+002
6.847152e+002, 3.025140e+002
6.851973e+002, 3.034370e+002
6.856794e+002, 3.052975e+002
6.861616e+002, 3.071382e+002
6.866437e+002, 3.089150e+002
6.871258e+002, 3.105454e+002
6.876079e+002, 3.117775e+002
6.880900e+002, 3.123593e+002
6.885721e+002, 3.131919e+002
6.890543e+002, 3.146116e+002
6.895364e+002, 3.163273e+002
6.900185e+002, 3.174496e+002
6.905006e+002, 3.179884e+002
6.909827e+002, 3.184721e+002
6.914648e+002, 3.194366e+002
6.919470e+002, 3.203719e+002
6.924291e+002, 3.201924e+002
6.929112e+002, 3.191306e+002
6.933933e+002, 3.184802e+002
6.938754e+002, 3.195063e+002
6.943575e+002, 3.207461e+002
6.948397e+002, 3.214051e+002
6.953218e+002, 3.214276e+002
6.958039e+002, 3.206595e+002
6.962860e+002, 3.186255e+002
6.967681e+002, 3.162586e+002
6.972502e+002, 3.140294e+002
6.977324e+002, 3.120725e+002
6.982145e+002, 3.096075e+002
6.986966e+002, 3.065426e+002
6.991787e+002, 3.032325e+002
6.996608e+002, 3.001533e+002
7.001429e+002, 2.971840e+002
7.006251e+002, 2.934720e+002
7.011072e+002, 2.888047e+002
7.015893e+002, 2.839659e+002
7.020714e+002, 2.795720e+002
7.025535e+002, 2.755523e+002
7.030356e+002, 2.717531e+002
7.035178e+002, 2.679029e+002
7.039999e+002, 2.647401e+002
7.044820e+002, 2.630188e+002
7.049641e+002, 2.620387e+002
7.054462e+002, 2.606607e+002
7.059283e+002, 2.583066e+002
7.064105e+002, 2.563694e+002
7.068926e+002, 2.550884e+002
7.073747e+002, 2.542855e+002
7.078568e+002, 2.535295e+002
7.083389e+002, 2.528089e+002
7.088210e+002, 2.522748e+002
7.093032e+002, 2.520594e+002
7.097853e+002, 2.519862e+002
7.102674e+002, 2.516239e+002
7.107495e+002, 2.510595e+002
7.112316e+002, 2.506703e+002
7.117137e+002, 2.508747e+002
7.121959e+002, 2.511546e+002
7.126780e+002, 2.510828e+002
7.131601e+002, 2.507045e+002
7.136422e+002, 2.504278e+002
7.141243e+002, 2.503477e+002
7.146064e+002, 2.504141e+002
7.150886e+002, 2.506556e+002
7.155707e+002, 2.510829e+002
7.160528e+002, 2.513178e+002
7.165349e+002, 2.512817e+002
7.170170e+002, 2.512622e+002
7.174991e+002, 2.515346e+002
7.179813e+002, 2.520318e+002
7.184634e+002, 2.521785e+002
7.189455e+002, 2.519482e+002
7.194276e+002, 2.516673e+002
7.199097e+002, 2.517372e+002
7.203918e+002, 2.518742e+002
7.208740e+002, 2.515783e+002
7.213561e+002, 2.506588e+002
7.218382e+002, 2.500434e+002
7.223203e+002, 2.505442e+002
7.228024e+002, 2.513199e+002
7.232845e+002, 2.516163e+002
7.237667e+002, 2.509404e+002
7.242488e+002, 2.505271e+002
7.247309e+002, 2.504719e+002
7.252130e+002, 2.505700e+002
7.256951e+002, 2.505653e+002
7.261772e+002, 2.504431e+002
7.266594e+002, 2.504652e+002
7.271415e+002, 2.507096e+002
7.276236e+002, 2.510003e+002
7.281057e+002, 2.510637e+002
7.285878e+002, 2.509805e+002
7.290699e+002, 2.509821e+002
7.295521e+002, 2.512951e+002
7.300342e+002, 2.514753e+002
7.305163e+002, 2.510763e+002
7.309984e+002, 2.503651e+002
7.314805e+002, 2.498176e+002
7.319626e+002, 2.495703e+002
7.324448e+002, 2.494822e+002
7.329269e+002, 2.495292e+002
7.334090e+002, 2.497092e+002
7.338911e+002, 2.501197e+002
7.343732e+002, 2.509220e+002
7.348553e+002, 2.512292e+002
7.353375e+002, 2.505243e+002
7.358196e+002, 2.493321e+002
7.363017e+002, 2.491495e+002
7.367838e+002, 2.498196e+002
7.372659e+002, 2.503840e+002
7.377480e+002, 2.501494e+002
7.382302e+002, 2.496957e+002
7.387123e+002, 2.496466e+002
7.391944e+002, 2.498973e+002
7.396765e+002, 2.498999e+002
7.401586e+002, 2.490951e+002
7.406407e+002, 2.483362e+002
7.411229e+002, 2.480632e+002
7.416050e+002, 2.482488e+002
7.420871e+002, 2.482962e+002
7.425692e+002, 2.481214e+002
7.430513e+002, 2.480129e+002
7.435334e+002, 2.482474e+002
7.440156e+002, 2.487371e+002
7.444977e+002, 2.486135e+002
7.449798e+002, 2.478777e+002
7.454619e+002, 2.471759e+002
7.459440e+002, 2.472278e+002
7.464261e+002, 2.474952e+002
7.469083e+002, 2.472277e+002
7.473904e+002, 2.463503e+002
7.478725e+002, 2.455229e+002
7.483546e+002, 2.450170e+002
7.488367e+002, 2.446993e+002
7.493188e+002, 2.444801e+002
7.498010e+002, 2.443297e+002
7.502831e+002, 2.444129e+002
7.507652e+002, 2.449823e+002
7.512473e+002, 2.453901e+002
7.517294e+002, 2.450296e+002
7.522115e+002, 2.439149e+002
7.526937e+002, 2.428108e+002
7.531758e+002, 2.417152e+002
7.536579e+002, 2.409352e+002
7.541400e+002, 2.411633e+002
7.546221e+002, 2.418016e+002
7.551042e+002, 2.417211e+002
7.555864e+002, 2.404587e+002
7.560685e+002, 2.395150e+002
7.565506e+002, 2.401771e+002
7.570327e+002, 2.413167e+002
7.575148e+002, 2.417822e+002
7.579969e+002, 2.407556e+002
7.584791e+002, 2.401011e+002
7.589612e+002, 2.398886e+002
7.594433e+002, 2.399671e+002
7.599254e+002, 2.401684e+002
7.604075e+002, 2.404910e+002
7.608896e+002, 2.409579e+002
7.613718e+002, 2.415743e+002
7.618539e+002, 2.423200e+002
7.623360e+002, 2.431513e+002
7.628181e+002, 2.440932e+002
7.633002e+002, 2.452419e+002
7.637823e+002, 2.468852e+002
7.642645e+002, 2.482860e+002
7.647466e+002, 2.483247e+002
7.652287e+002, 2.480754e+002
7.657108e+002, 2.491854e+002
7.661929e+002, 2.530511e+002
7.666750e+002, 2.566992e+002
7.671572e+002, 2.597959e+002
7.676393e+002, 2.626085e+002
7.681214e+002, 2.656827e+002
7.686035e+002, 2.690356e+002
7.690856e+002, 2.724179e+002
7.695677e+002, 2.758220e+002
7.700499e+002, 2.791729e+002
7.705320e+002, 2.823161e+002
7.710141e+002, 2.853091e+002
7.714962e+002, 2.883028e+002
7.719783e+002, 2.914545e+002
7.724604e+002, 2.945324e+002
7.729426e+002, 2.974957e+002
7.734247e+002, 3.002725e+002
7.739068e+002, 3.026592e+002
7.743889e+002, 3.046744e+002
7.748710e+002, 3.062622e+002
7.753531e+002, 3.074883e+002
7.758353e+002, 3.082477e+002
7.763174e+002, 3.081728e+002
7.767995e+002, 3.072488e+002
7.772816e+002, 3.058978e+002
7.777637e+002, 3.042293e+002
7.782458e+002, 3.022784e+002
7.787280e+002, 3.000978e+002
7.792101e+002, 2.976752e+002
7.796922e+002, 2.950174e+002
7.801743e+002, 2.917354e+002
7.806564e+002, 2.885736e+002
7.811385e+002, 2.860826e+002
7.816207e+002, 2.840523e+002
7.821028e+002, 2.815703e+002
7.825849e+002, 2.780003e+002
7.830670e+002, 2.748528e+002
7.835491e+002, 2.725133e+002
7.840313e+002, 2.708915e+002
7.845134e+002, 2.697359e+002
7.849955e+002, 2.690430e+002
7.854776e+002, 2.682777e+002
7.859597e+002, 2.670341e+002
7.864418e+002, 2.656613e+002
7.869240e+002, 2.646776e+002
7.874061e+002, 2.640475e+002
7.878882e+002, 2.636620e+002
7.883703e+002, 2.637210e+002
7.888524e+002, 2.637795e+002
7.893345e+002, 2.636216e+002
7.898167e+002, 2.632592e+002
7.902988e+002, 2.628973e+002
7.907809e+002, 2.626834e+002
7.912630e+002, 2.621837e+002
7.917451e+002, 2.610569e+002
7.922272e+002, 2.595687e+002
7.927094e+002, 2.589981e+002
7.931915e+002, 2.593084e+002
7.936736e+002, 2.594186e+002
7.941557e+002, 2.583132e+002
7.946378e+002, 2.569079e+002
7.951199e+002, 2.566031e+002
7.956021e+002, 2.571375e+002
7.960842e+002, 2.572672e+002
7.965663e+002, 2.564148e+002
7.970484e+002, 2.550772e+002
7.975305e+002, 2.531940e+002
7.980126e+002, 2.508954e+002
7.984948e+002, 2.491496e+002
7.989769e+002, 2.480694e+002
7.994590e+002, 2.473144e+002
7.999411e+002, 2.468987e+002
8.004232e+002, 2.466667e+002
8.009053e+002, 2.460312e+002
8.013875e+002, 2.450121e+002
8.018696e+002, 2.438051e+002
8.023517e+002, 2.423256e+002
8.028338e+002, 2.408412e+002
8.033159e+002, 2.396270e+002
8.037980e+002, 2.386569e+002
8.042802e+002, 2.377746e+002
8.047623e+002, 2.371061e+002
8.052444e+002, 2.363231e+002
8.057265e+002, 2.352213e+002
8.062086e+002, 2.338631e+002
8.066907e+002, 2.328200e+002
8.071729e+002, 2.321205e+002
8.076550e+002, 2.316006e+002
8.081371e+002, 2.312704e+002
8.086192e+002, 2.310182e+002
8.091013e+002, 2.304445e+002
8.095834e+002, 2.296269e+002
8.100656e+002, 2.290048e+002
8.105477e+002, 2.290434e+002
8.110298e+002, 2.291970e+002
8.115119e+002, 2.291601e+002
8.119940e+002, 2.289191e+002
8.124761e+002, 2.284646e+002
8.129583e+002, 2.275034e+002
8.134404e+002, 2.267153e+002
8.139225e+002, 2.263524e+002
8.144046e+002, 2.263443e+002
8.148867e+002, 2.262992e+002
8.153688e+002, 2.262262e+002
8.158510e+002, 2.259498e+002
8.163331e+002, 2.252458e+002
8.168152e+002, 2.243532e+002
8.172973e+002, 2.235871e+002
8.177794e+002, 2.229667e+002
8.182615e+002, 2.225927e+002
8.187437e+002, 2.228195e+002
8.192258e+002, 2.230079e+002
8.197079e+002, 2.228550e+002
8.201900e+002, 2.223738e+002
8.206721e+002, 2.218008e+002
8.211542e+002, 2.210190e+002
8.216364e+002, 2.204005e+002
8.221185e+002, 2.201242e+002
8.226006e+002, 2.200747e+002
8.230827e+002, 2.198376e+002
8.235648e+002, 2.194386e+002
8.240469e+002, 2.190596e+002
8.245291e+002, 2.186579e+002
8.250112e+002, 2.184346e+002
8.254933e+002, 2.188103e+002
8.259754e+002, 2.195537e+002
8.264575e+002, 2.199318e+002
8.269396e+002, 2.195108e+002
8.274218e+002, 2.189153e+002
8.279039e+002, 2.182682e+002
8.283860e+002, 2.175871e+002
8.288681e+002, 2.168891e+002
8.293502e+002, 2.161115e+002
8.298323e+002, 2.156841e+002
8.303145e+002, 2.158960e+002
8.307966e+002, 2.163622e+002
8.312787e+002, 2.163513e+002
8.317608e+002, 2.159674e+002
8.322429e+002, 2.155363e+002
8.327250e+002, 2.150590e+002
8.332072e+002, 2.147208e+002
8.336893e+002, 2.146786e+002
8.341714e+002, 2.148490e+002
8.346535e+002, 2.150082e+002
8.351356e+002, 2.150557e+002
8.356177e+002, 2.152642e+002
8.360999e+002, 2.157977e+002
8.365820e+002, 2.164176e+002
8.370641e+002, 2.164230e+002
8.375462e+002, 2.158940e+002
8.380283e+002, 2.157917e+002
8.385104e+002, 2.166323e+002
8.389926e+002, 2.176379e+002
8.394747e+002, 2.178761e+002
8.399568e+002, 2.176820e+002
8.404389e+002, 2.176429e+002
8.409210e+002, 2.180946e+002
8.414031e+002, 2.185508e+002
8.418853e+002, 2.187614e+002
8.423674e+002, 2.189842e+002
8.428495e+002, 2.196744e+002
8.433316e+002, 2.209875e+002
8.438137e+002, 2.219529e+002
8.442958e+002, 2.223599e+002
8.447780e+002, 2.225091e+002
8.452601e+002, 2.228972e+002
8.457422e+002, 2.233701e+002
8.462243e+002, 2.235089e+002
8.467064e+002, 2.230188e+002
8.471885e+002, 2.226412e+002
8.476707e+002, 2.228212e+002
8.481528e+002, 2.233400e+002
8.486349e+002, 2.239698e+002
8.491170e+002, 2.249737e+002
8.495991e+002, 2.255421e+002
8.500812e+002, 2.255970e+002
8.505634e+002, 2.253263e+002
8.510455e+002, 2.247780e+002
8.515276e+002, 2.240282e+002
8.520097e+002, 2.237263e+002
8.524918e+002, 2.240117e+002
8.529739e+002, 2.243451e+002
8.534561e+002, 2.243375e+002
8.539382e+002, 2.240486e+002
8.544203e+002, 2.234530e+002
8.549024e+002, 2.223508e+002
8.553845e+002, 2.216161e+002
8.558666e+002, 2.216617e+002
8.563488e+002, 2.218941e+002
8.568309e+002, 2.219505e+002
8.573130e+002, 2.218147e+002
8.577951e+002, 2.215847e+002
8.582772e+002, 2.212457e+002
8.587593e+002, 2.209061e+002
8.592415e+002, 2.207491e+002
8.597236e+002, 2.206207e+002
8.602057e+002, 2.201519e+002
8.606878e+002, 2.193193e+002
8.611699e+002, 2.187074e+002
8.616520e+002, 2.188193e+002
8.621342e+002, 2.190544e+002
8.626163e+002, 2.190727e+002
8.630984e+002, 2.188715e+002
8.635805e+002, 2.185256e+002
8.640626e+002, 2.180246e+002
8.645447e+002, 2.174315e+002
8.650269e+002, 2.168845e+002
8.655090e+002, 2.162647e+002
8.659911e+002, 2.149509e+002
8.664732e+002, 2.130732e+002
8.669553e+002, 2.114789e+002
8.674374e+002, 2.108349e+002
8.679196e+002, 2.105515e+002
8.684017e+002, 2.103800e+002
8.688838e+002, 2.102634e+002
8.693659e+002, 2.099142e+002
8.698480e+002, 2.092085e+002
8.703301e+002, 2.084358e+002
8.708123e+002, 2.075992e+002
8.712944e+002, 2.067800e+002
8.717765e+002, 2.064248e+002
8.722586e+002, 2.064654e+002
8.727407e+002, 2.061026e+002
8.732228e+002, 2.047071e+002
8.737050e+002, 2.030674e+002
8.741871e+002, 2.018778e+002
8.746692e+002, 2.010805e+002
8.751513e+002, 2.005339e+002
8.756334e+002, 2.007535e+002
8.761155e+002, 2.005124e+002
8.765977e+002, 1.994410e+002
8.770798e+002, 1.979208e+002
8.775619e+002, 1.965652e+002
8.780440e+002, 1.953669e+002
8.785261e+002, 1.945303e+002
8.790082e+002, 1.942075e+002
8.794904e+002, 1.939181e+002
8.799725e+002, 1.929044e+002
8.804546e+002, 1.915013e+002
8.809367e+002, 1.903059e+002
8.814188e+002, 1.895779e+002
8.819009e+002, 1.888580e+002
8.823831e+002, 1.880146e+002
8.828652e+002, 1.870743e+002
8.833473e+002, 1.860696e+002
8.838294e+002, 1.849366e+002
8.843115e+002, 1.839881e+002
8.847936e+002, 1.832890e+002
8.852758e+002, 1.825797e+002
8.857579e+002, 1.815281e+002
8.862400e+002, 1.802802e+002
8.867221e+002, 1.791488e+002
8.872042e+002, 1.781786e+002
8.876863e+002, 1.773097e+002
8.881685e+002, 1.765880e+002
8.886506e+002, 1.758835e+002
8.891327e+002, 1.750680e+002
8.896148e+002, 1.740953e+002
8.900969e+002, 1.733370e+002
8.905790e+002, 1.728821e+002
8.910612e+002, 1.723827e+002
8.915433e+002, 1.715974e+002
8.920254e+002, 1.705970e+002
8.925075e+002, 1.696529e+002
8.929896e+002, 1.687529e+002
8.934717e+002, 1.678506e+002
8.939539e+002, 1.667911e+002
8.944360e+002, 1.658165e+002
8.949181e+002, 1.651216e+002
8.954002e+002, 1.646725e+002
8.958823e+002, 1.642699e+002
8.963644e+002, 1.641021e+002
8.968466e+002, 1.635652e+002
8.973287e+002, 1.623293e+002
8.978108e+002, 1.607601e+002
8.982929e+002, 1.598841e+002
8.987750e+002, 1.595977e+002
8.992571e+002, 1.591878e+002
8.997393e+002, 1.582776e+002
9.002214e+002, 1.573049e+002
9.007035e+002, 1.566983e+002
9.011856e+002, 1.562704e+002
9.016677e+002, 1.557196e+002
9.021498e+002, 1.547190e+002
9.026320e+002, 1.539528e+002
9.031141e+002, 1.535370e+002
9.035962e+002, 1.532685e+002
9.040783e+002, 1.529039e+002
9.045604e+002, 1.524426e+002
9.050425e+002, 1.518978e+002
9.055247e+002, 1.512498e+002
9.060068e+002, 1.506561e+002
9.064889e+002, 1.504137e+002
9.069710e+002, 1.502307e+002
9.074531e+002, 1.496879e+002
9.079352e+002, 1.484896e+002
9.084174e+002, 1.478403e+002
9.088995e+002, 1.484338e+002
9.093816e+002, 1.489810e+002
9.098637e+002, 1.486076e+002
9.103458e+002, 1.473133e+002
9.108279e+002, 1.463220e+002
9.113101e+002, 1.456328e+002
9.117922e+002, 1.452494e+002
9.122743e+002, 1.454865e+002
9.127564e+002, 1.458185e+002
9.132385e+002, 1.455674e+002
9.137206e+002, 1.448004e+002
9.142028e+002, 1.441895e+002
9.146849e+002, 1.440427e+002
9.151670e+002, 1.439699e+002
9.156491e+002, 1.439224e+002
9.161312e+002, 1.438488e+002
9.166133e+002, 1.434755e+002
9.170955e+002, 1.427956e+002
9.175776e+002, 1.422534e+002
9.180597e+002, 1.420867e+002
9.185418e+002, 1.420194e+002
9.190239e+002, 1.416466e+002
9.195060e+002, 1.411279e+002
9.199882e+002, 1.407772e+002
9.204703e+002, 1.409810e+002
9.209524e+002, 1.409732e+002
9.214345e+002, 1.405078e+002
9.219166e+002, 1.398756e+002
9.223987e+002, 1.394422e+002
9.228809e+002, 1.392200e+002
9.233630e+002, 1.388862e+002
9.238451e+002, 1.383557e+002
9.243272e+002, 1.379762e+002
9.248093e+002, 1.383812e+002
9.252914e+002, 1.390415e+002
9.257736e+002, 1.392207e+002
9.262557e+002, 1.387460e+002
9.267378e+002, 1.382222e+002
9.272199e+002, 1.378041e+002
9.277020e+002, 1.374050e+002
9.281841e+002, 1.369710e+002
9.286663e+002, 1.365053e+002
9.291484e+002, 1.361269e+002
9.296305e+002, 1.358346e+002
9.301126e+002, 1.355991e+002
9.305947e+002, 1.353258e+002
9.310768e+002, 1.351431e+002
9.315590e+002, 1.353515e+002
9.320411e+002, 1.358329e+002
9.325232e+002, 1.360866e+002
9.330053e+002, 1.360210e+002
9.334874e+002, 1.355787e+002
9.339695e+002, 1.345107e+002
9.344517e+002, 1.331954e+002
9.349338e+002, 1.325783e+002
9.354159e+002, 1.326757e+002
9.358980e+002, 1.329257e+002
9.363801e+002, 1.332292e+002
9.368622e+002, 1.334886e+002
9.373444e+002, 1.336062e+002
9.378265e+002, 1.335918e+002
9.383086e+002, 1.334330e+002
9.387907e+002, 1.329259e+002
9.392728e+002, 1.326913e+002
9.397549e+002, 1.331314e+002
9.402371e+002, 1.335695e+002
9.407192e+002, 1.333667e+002
9.412013e+002, 1.324949e+002
9.416834e+002, 1.318630e+002
9.421655e+002, 1.314944e+002
9.426476e+002, 1.314867e+002
9.431298e+002, 1.323987e+002
9.436119e+002, 1.334086e+002
9.440940e+002, 1.334102e+002
9.445761e+002, 1.323961e+002
9.450582e+002, 1.319053e+002
9.455403e+002, 1.330511e+002
9.460225e+002, 1.338216e+002
9.465046e+002, 1.333576e+002
9.469867e+002, 1.320884e+002
9.474688e+002, 1.319039e+002
9.479509e+002, 1.327349e+002
9.484330e+002, 1.334555e+002
9.489152e+002, 1.335232e+002
9.493973e+002, 1.333726e+002
9.498794e+002, 1.334600e+002
9.503615e+002, 1.336182e+002
9.508436e+002, 1.335504e+002
9.513257e+002, 1.328994e+002
9.518079e+002, 1.324132e+002
9.522900e+002, 1.321094e+002
9.527721e+002, 1.320114e+002
9.532542e+002, 1.321566e+002
9.537363e+002, 1.325381e+002
9.542184e+002, 1.332383e+002
9.547006e+002, 1.343175e+002
9.551827e+002, 1.350932e+002
9.556648e+002, 1.348032e+002
9.561469e+002, 1.341201e+002
9.566290e+002, 1.335451e+002
9.571111e+002, 1.331164e+002
9.575933e+002, 1.331021e+002
9.580754e+002, 1.338174e+002
9.585575e+002, 1.343101e+002
9.590396e+002, 1.340107e+002
9.595217e+002, 1.331843e+002
9.600038e+002, 1.326778e+002
9.604860e+002, 1.324744e+002
9.609681e+002, 1.324874e+002
9.614502e+002, 1.328079e+002
9.619323e+002, 1.331918e+002
9.624144e+002, 1.333852e+002
9.628965e+002, 1.335588e+002
9.633787e+002, 1.341320e+002
9.638608e+002, 1.354459e+002
9.643429e+002, 1.362663e+002
9.648250e+002, 1.363503e+002
9.653071e+002, 1.361453e+002
9.657892e+002, 1.360549e+002
9.662714e+002, 1.361838e+002
9.667535e+002, 1.369739e+002
9.672356e+002, 1.386194e+002
9.677177e+002, 1.399464e+002
9.681998e+002, 1.401597e+002
9.686819e+002, 1.399178e+002
9.691641e+002, 1.397088e+002
9.696462e+002, 1.395771e+002
9.701283e+002, 1.389194e+002
9.706104e+002, 1.376067e+002
9.710925e+002, 1.364374e+002
9.715746e+002, 1.358019e+002
9.720568e+002, 1.356425e+002
9.725389e+002, 1.361779e+002
9.730210e+002, 1.371383e+002
9.735031e+002, 1.376179e+002
9.739852e+002, 1.367028e+002
9.744673e+002, 1.358955e+002
9.749495e+002, 1.357631e+002
9.754316e+002, 1.359201e+002
9.759137e+002, 1.357174e+002
9.763958e+002, 1.351417e+002
9.768779e+002, 1.344678e+002
9.773600e+002, 1.337093e+002
9.778422e+002, 1.330239e+002
9.783243e+002, 1.325893e+002
9.788064e+002, 1.323142e+002
9.792885e+002, 1.321190e+002
9.797706e+002, 1.320211e+002
9.802527e+002, 1.318519e+002
9.807349e+002, 1.317076e+002
9.812170e+002, 1.313150e+002
9.816991e+002, 1.303698e+002
9.821812e+002, 1.290042e+002
9.826633e+002, 1.283744e+002
9.831454e+002, 1.284198e+002
9.836276e+002, 1.284721e+002
9.841097e+002, 1.281218e+002
9.845918e+002, 1.276368e+002
9.850739e+002, 1.271855e+002
9.855560e+002, 1.267613e+002
9.860381e+002, 1.263519e+002
9.865203e+002, 1.259856e+002
9.870024e+002, 1.255279e+002
9.874845e+002, 1.248562e+002
9.879666e+002, 1.242952e+002
9.884487e+002, 1.245334e+002
9.889308e+002, 1.252620e+002
9.894130e+002, 1.255523e+002
9.898951e+002, 1.252123e+002
9.903772e+002, 1.247247e+002
9.908593e+002, 1.244004e+002
9.913414e+002, 1.240081e+002
9.918235e+002, 1.232428e+002
9.923057e+002, 1.220569e+002
9.927878e+002, 1.216090e+002
9.932699e+002, 1.220048e+002
9.937520e+002, 1.224492e+002
9.942341e+002, 1.225358e+002
9.947162e+002, 1.223866e+002
9.951984e+002, 1.221127e+002
9.956805e+002, 1.217734e+002
9.961626e+002, 1.215395e+002
9.966447e+002, 1.214359e+002
9.971268e+002, 1.215108e+002
9.976089e+002, 1.219511e+002
9.980911e+002, 1.224217e+002
9.985732e+002, 1.223342e+002
9.990553e+002, 1.216965e+002
9.995374e+002, 1.215417e+002
1.000020e+003, 1.220644e+002
1.000502e+003, 1.224753e+002
1.000984e+003, 1.216626e+002
1.001466e+003, 1.206344e+002
1.001948e+003, 1.205033e+002
1.002430e+003, 1.214924e+002
1.002912e+003, 1.220919e+002
1.003394e+003, 1.220807e+002
1.003876e+003, 1.218996e+002
1.004359e+003, 1.216925e+002
1.004841e+003, 1.214710e+002
1.005323e+003, 1.212578e+002
1.005805e+003, 1.210622e+002
1.006287e+003, 1.209264e+002
1.006769e+003, 1.208678e+002
1.007251e+003, 1.208745e+002
1.007733e+003, 1.209880e+002
1.008216e+003, 1.211424e+002
1.008698e+003, 1.212397e+002
1.009180e+003, 1.212565e+002
1.009662e+003, 1.213186e+002
1.010144e+003, 1.214472e+002
1.010626e+003, 1.215449e+002
1.011108e+003, 1.214704e+002
1.011590e+003, 1.213222e+002
1.012072e+003, 1.212754e+002
1.012555e+003, 1.213314e+002
1.013037e+003, 1.213052e+002
1.013519e+003, 1.210454e+002
1.014001e+003, 1.207892e+002
1.014483e+003, 1.206010e+002
1.014965e+003, 1.204755e+002
1.015447e+003, 1.203942e+002
1.015929e+003, 1.203574e+002
1.016411e+003, 1.203706e+002
1.016894e+003, 1.204245e+002
1.017376e+003, 1.205548e+002
1.017858e+003, 1.209690e+002
1.018340e+003, 1.213953e+002
1.018822e+003, 1.214682e+002
1.019304e+003, 1.209800e+002
1.019786e+003, 1.205226e+002
1.020268e+003, 1.200245e+002
1.020751e+003, 1.197501e+002
1.021233e+003, 1.200259e+002
1.021715e+003, 1.206564e+002
1.022197e+003, 1.212210e+002
1.022679e+003, 1.216806e+002
1.023161e+003, 1.218596e+002
1.023643e+003, 1.213556e+002
1.024125e+003, 1.209006e+002
1.024607e+003, 1.207834e+002
1.025090e+003, 1.209120e+002
1.025572e+003, 1.211733e+002
1.026054e+003, 1.215891e+002
1.026536e+003, 1.217557e+002
1.027018e+003, 1.215366e+002
1.027500e+003, 1.213425e+002
1.027982e+003, 1.218395e+002
1.028464e+003, 1.224825e+002
1.028947e+003, 1.225536e+002
1.029429e+003, 1.217764e+002
1.029911e+003, 1.213433e+002
1.030393e+003, 1.215448e+002
1.030875e+003, 1.216808e+002
1.031357e+003, 1.212233e+002
1.031839e+003, 1.205014e+002
1.032321e+003, 1.209113e+002
1.032803e+003, 1.221608e+002
1.033286e+003, 1.230215e+002
1.033768e+003, 1.225468e+002
1.034250e+003, 1.219312e+002
1.034732e+003, 1.216142e+002
1.035214e+003, 1.215088e+002
1.035696e+003, 1.214901e+002
1.036178e+003, 1.215680e+002
1.036660e+003, 1.216972e+002
1.037143e+003, 1.218934e+002
1.037625e+003, 1.220113e+002
1.038107e+003, 1.218190e+002
1.038589e+003, 1.215303e+002
1.039071e+003, 1.213799e+002
1.039553e+003, 1.213862e+002
1.040035e+003, 1.215642e+002
1.040517e+003, 1.222155e+002
1.041000e+003, 1.225520e+002
1.041482e+003, 1.222304e+002
1.041964e+003, 1.215810e+002
1.042446e+003, 1.214620e+002
1.042928e+003, 1.217346e+002
1.043410e+003, 1.218103e+002
1.043892e+003, 1.214420e+002
1.044374e+003, 1.210765e+002
1.044856e+003, 1.210106e+002
1.045339e+003, 1.210612e+002
1.045821e+003, 1.210758e+002
1.046303e+003, 1.210572e+002
1.046785e+003, 1.209581e+002
1.047267e+003, 1.207773e+002
1.047749e+003, 1.205348e+002
1.048231e+003, 1.203137e+002
1.048713e+003, 1.199948e+002
1.049195e+003, 1.192680e+002
1.049677e+003, 1.183075e+002
1.050160e+003, 1.176324e+002
1.050642e+003, 1.175557e+002
1.051124e+003, 1.175805e+002
1.051606e+003, 1.177401e+002
1.052088e+003, 1.178496e+002
1.052570e+003, 1.175798e+002
1.053052e+003, 1.170381e+002
1.053534e+003, 1.166434e+002
1.054017e+003, 1.164450e+002
1.054499e+003, 1.163788e+002
1.054981e+003, 1.166707e+002
1.055463e+003, 1.168365e+002
1.055945e+003, 1.164334e+002
1.056427e+003, 1.156023e+002
1.056909e+003, 1.151751e+002
1.057391e+003, 1.151862e+002
1.057874e+003, 1.152271e+002
1.058356e+003, 1.151869e+002
1.058838e+003, 1.150584e+002
1.059320e+003, 1.146647e+002
1.059802e+003, 1.142467e+002
1.060284e+003, 1.141753e+002
1.060766e+003, 1.148229e+002
1.061248e+003, 1.151026e+002
1.061730e+003, 1.148553e+002
1.062213e+003, 1.144835e+002
1.062695e+003, 1.143221e+002
1.063177e+003, 1.142625e+002
1.063659e+003, 1.137943e+002
1.064141e+003, 1.130233e+002
1.064623e+003, 1.124658e+002
1.065105e+003, 1.128465e+002
1.065587e+003, 1.129531e+002
1.066070e+003, 1.119517e+002
1.066552e+003, 1.105729e+002
1.067034e+003, 1.098898e+002
1.067516e+003, 1.099181e+002
1.067998e+003, 1.102338e+002
1.068480e+003, 1.108245e+002
1.068962e+003, 1.113103e+002
1.069444e+003, 1.113789e+002
1.069927e+003, 1.111581e+002
1.070409e+003, 1.106101e+002
1.070891e+003, 1.097666e+002
1.071373e+003, 1.094044e+002
1.071855e+003, 1.097460e+002
1.072337e+003, 1.100037e+002
1.072819e+003, 1.099421e+002
1.073301e+003, 1.096504e+002
1.073783e+003, 1.090877e+002
1.074266e+003, 1.084556e+002
1.074748e+003, 1.082104e+002
1.075230e+003, 1.086362e+002
1.075712e+003, 1.089984e+002
1.076194e+003, 1.091308e+002
1.076676e+003, 1.091191e+002
1.077158e+003, 1.089937e+002
1.077640e+003, 1.087597e+002
1.078122e+003, 1.083946e+002
1.078604e+003, 1.079316e+002
1.079087e+003, 1.076568e+002
1.079569e+003, 1.079453e+002
1.080051e+003, 1.082432e+002
1.080533e+003, 1.081676e+002
1.081015e+003, 1.078979e+002
1.081497e+003, 1.077759e+002
1.081979e+003, 1.078444e+002
1.082461e+003, 1.078939e+002
1.082944e+003, 1.079219e+002
1.083426e+003, 1.078453e+002
1.083908e+003, 1.074658e+002
1.084390e+003, 1.070136e+002
1.084872e+003, 1.067467e+002
1.085354e+003, 1.066774e+002
1.085836e+003, 1.067421e+002
1.086318e+003, 1.070827e+002
1.086801e+003, 1.072607e+002
1.087283e+003, 1.071646e+002
1.087765e+003, 1.068682e+002
1.088247e+003, 1.063663e+002
1.088729e+003, 1.057877e+002
1.089211e+003, 1.054942e+002
1.089693e+003, 1.055968e+002
1.090175e+003, 1.057836e+002
1.090657e+003, 1.059730e+002
1.091140e+003, 1.061638e+002
1.091622e+003, 1.063833e+002
1.092104e+003, 1.066100e+002
1.092586e+003, 1.066738e+002
1.093068e+003, 1.065784e+002
1.093550e+003, 1.063680e+002
1.094032e+003, 1.059564e+002
1.094514e+003, 1.055930e+002
1.094997e+003, 1.054783e+002
1.095479e+003, 1.055149e+002
1.095961e+003, 1.055898e+002
1.096443e+003, 1.057722e+002
1.096925e+003, 1.056747e+002
1.097407e+003, 1.052444e+002
1.097889e+003, 1.048656e+002
1.098371e+003, 1.049038e+002
1.098854e+003, 1.051240e+002
1.099336e+003, 1.052614e+002
1.099818e+003, 1.053212e+002
1.100300e+003, 1.053593e+002
1.100782e+003, 1.054658e+002
1.101264e+003, 1.053967e+002
1.101746e+003, 1.050637e+002
1.102228e+003, 1.046646e+002
1.102710e+003, 1.044437e+002
1.103193e+003, 1.043710e+002
1.103675e+003, 1.043579e+002
1.104157e+003, 1.043953e+002
1.104639e+003, 1.045577e+002
1.105121e+003, 1.052013e+002
1.105603e+003, 1.055853e+002
1.106085e+003, 1.053243e+002
1.106567e+003, 1.046716e+002
1.107049e+003, 1.044262e+002
1.107531e+003, 1.045374e+002
1.108014e+003, 1.046204e+002
1.108496e+003, 1.045422e+002
1.108978e+003, 1.045119e+002
1.109460e+003, 1.047916e+002
1.109942e+003, 1.050965e+002
1.110424e+003, 1.051546e+002
1.110906e+003, 1.049539e+002
1.111388e+003, 1.047843e+002
1.111871e+003, 1.046425e+002
1.112353e+003, 1.045692e+002
1.112835e+003, 1.045105e+002
1.113317e+003, 1.046242e+002
1.113799e+003, 1.053845e+002
1.114281e+003, 1.063391e+002
1.114763e+003, 1.067074e+002
1.115245e+003, 1.058444e+002
1.115728e+003, 1.055391e+002
1.116210e+003, 1.059479e+002
1.116692e+003, 1.064074e+002
1.117174e+003, 1.062506e+002
1.117656e+003, 1.058266e+002
1.118138e+003, 1.057809e+002
1.118620e+003, 1.060530e+002
1.119102e+003, 1.063250e+002
1.119584e+003, 1.065888e+002
1.120067e+003, 1.066818e+002
1.120549e+003, 1.065304e+002
1.121031e+003, 1.062758e+002
1.121513e+003, 1.060350e+002
1.121995e+003, 1.058509e+002
1.122477e+003, 1.059395e+002
1.122959e+003, 1.063121e+002
1.123441e+003, 1.066132e+002
1.123924e+003, 1.067188e+002
1.124406e+003, 1.066150e+002
1.124888e+003, 1.061350e+002
1.125370e+003, 1.055392e+002
1.125852e+003, 1.056680e+002
1.126334e+003, 1.064487e+002
1.126816e+003, 1.070053e+002
1.127298e+003, 1.070979e+002
1.127781e+003, 1.071244e+002
1.128263e+003, 1.074899e+002
1.128745e+003, 1.078254e+002
1.129227e+003, 1.077280e+002
1.129709e+003, 1.072279e+002
1.130191e+003, 1.070839e+002
1.130673e+003, 1.073068e+002
1.131155e+003, 1.077404e+002
1.131637e+003, 1.085094e+002
1.132120e+003, 1.091226e+002
1.132602e+003, 1.089661e+002
1.133084e+003, 1.083626e+002
1.133566e+003, 1.077181e+002
1.134048e+003, 1.069539e+002
1.134530e+003, 1.066391e+002
1.135012e+003, 1.068809e+002
1.135494e+003, 1.071335e+002
1.135976e+003, 1.069471e+002
1.136458e+003, 1.066140e+002
1.136941e+003, 1.067595e+002
1.137423e+003, 1.071294e+002
1.137905e+003, 1.071050e+002
1.138387e+003, 1.060450e+002
1.138869e+003, 1.052752e+002
1.139351e+003, 1.048695e+002
1.139833e+003, 1.047516e+002
1.140315e+003, 1.050435e+002
1.140798e+003, 1.055120e+002
1.141280e+003, 1.055471e+002
1.141762e+003, 1.051890e+002
1.142244e+003, 1.048509e+002
1.142726e+003, 1.044925e+002
1.143208e+003, 1.045023e+002
1.143690e+003, 1.052021e+002
1.144172e+003, 1.059925e+002
1.144655e+003, 1.058100e+002
1.145137e+003, 1.049126e+002
1.145619e+003, 1.043882e+002
1.146101e+003, 1.043788e+002
1.146583e+003, 1.042517e+002
1.147065e+003, 1.032921e+002
1.147547e+003, 1.025491e+002
1.148029e+003, 1.025892e+002
1.148511e+003, 1.031358e+002
1.148994e+003, 1.034600e+002
1.149476e+003, 1.035678e+002
1.149958e+003, 1.034618e+002
1.150440e+003, 1.030889e+002
1.150922e+003, 1.027749e+002
1.151404e+003, 1.028499e+002
1.151886e+003, 1.029937e+002
1.152368e+003, 1.029752e+002
1.152851e+003, 1.028004e+002
1.153333e+003, 1.024719e+002
1.153815e+003, 1.019865e+002
1.154297e+003, 1.017885e+002
1.154779e+003, 1.022127e+002
1.155261e+003, 1.025998e+002
1.155743e+003, 1.022092e+002
1.156225e+003, 1.015195e+002
1.156708e+003, 1.010784e+002
1.157190e+003, 1.009295e+002
1.157672e+003, 1.008629e+002
1.158154e+003, 1.008833e+002
1.158636e+003, 1.009604e+002
1.159118e+003, 1.012078e+002
1.159600e+003, 1.013610e+002
1.160082e+003, 1.009099e+002
1.160564e+003, 1.002225e+002
1.161047e+003, 9.997469e+001
1.161529e+003, 1.005886e+002
1.162011e+003, 1.008137e+002
1.162493e+003, 1.005744e+002
1.162975e+003, 1.002533e+002
1.163457e+003, 1.001263e+002
1.163939e+003, 1.001080e+002
1.164421e+003, 1.001364e+002
1.164903e+003, 1.001728e+002
1.165385e+003, 1.001027e+002
1.165868e+003, 9.975518e+001
1.166350e+003, 9.959016e+001
1.166832e+003, 9.969344e+001
1.167314e+003, 9.983778e+001
1.167796e+003, 9.975372e+001
1.168278e+003, 9.956197e+001
1.168760e+003, 9.948860e+001
1.169242e+003, 9.952449e+001
1.169725e+003, 9.952531e+001
1.170207e+003, 9.934830e+001
1.170689e+003, 9.929502e+001
1.171171e+003, 9.944725e+001
1.171653e+003, 9.967322e+001
1.172135e+003, 9.983376e+001
1.172617e+003, 9.991164e+001
1.173099e+003, 9.980711e+001
1.173582e+003, 9.951725e+001
1.174064e+003, 9.936614e+001
1.174546e+003, 9.954400e+001
1.175028e+003, 9.980019e+001
1.175510e+003, 1.000951e+002
1.175992e+003, 1.004016e+002
1.176474e+003, 1.007625e+002
1.176956e+003, 1.010776e+002
1.177438e+003, 1.009756e+002
1.177921e+003, 1.003337e+002
1.178403e+003, 9.977145e+001
1.178885e+003, 9.935207e+001
1.179367e+003, 9.933857e+001
1.179849e+003, 1.000347e+002
1.180331e+003, 1.010714e+002
1.180813e+003, 1.012021e+002
1.181295e+003, 1.006431e+002
1.181778e+003, 1.002064e+002
1.182260e+003, 1.001437e+002
1.182742e+003, 1.001219e+002
1.183224e+003, 9.991553e+001
1.183706e+003, 9.979613e+001
1.184188e+003, 9.999365e+001
1.184670e+003, 1.003978e+002
1.185152e+003, 1.003168e+002
1.185635e+003, 9.984727e+001
1.186117e+003, 9.948046e+001
1.186599e+003, 9.939693e+001
1.187081e+003, 9.946030e+001
1.187563e+003, 9.973190e+001
1.188045e+003, 1.000193e+002
1.188527e+003, 1.001927e+002
1.189009e+003, 1.002527e+002
1.189491e+003, 1.001898e+002
1.189974e+003, 1.000190e+002
1.190456e+003, 9.984418e+001
1.190938e+003, 9.962614e+001
1.191420e+003, 9.954041e+001
1.191902e+003, 9.986618e+001
1.192384e+003, 1.002259e+002
1.192866e+003, 1.002025e+002
1.193348e+003, 9.978407e+001
1.193830e+003, 9.958011e+001
1.194313e+003, 9.958203e+001
1.194795e+003, 9.966872e+001
1.195277e+003, 9.985177e+001
1.195759e+003, 1.000059e+002
1.196241e+003, 1.000682e+002
1.196723e+003, 1.000545e+002
1.197205e+003, 9.995494e+001
1.197687e+003, 9.976472e+001
1.198169e+003, 9.969459e+001
1.198652e+003, 9.975326e+001
1.199134e+003, 9.989514e+001
1.199616e+003, 1.002480e+002
1.200098e+003, 1.005074e+002
1.200580e+003, 1.003902e+002
1.201062e+003, 1.001034e+002
1.201544e+003, 9.999841e+001
1.202026e+003, 1.000817e+002
1.202509e+003, 1.000797e+002
1.202991e+003, 9.996748e+001
1.203473e+003, 9.991509e+001
1.203955e+003, 1.001556e+002
1.204437e+003, 1.003860e+002
1.204919e+003, 1.004067e+002
1.205401e+003, 1.002694e+002
1.205883e+003, 1.000108e+002
1.206365e+003, 9.961876e+001
1.206848e+003, 9.964172e+001
1.207330e+003, 1.001713e+002
1.207812e+003, 1.007573e+002
1.208294e+003, 1.012122e+002
1.208776e+003, 1.014577e+002
1.209258e+003, 1.012278e+002
1.209740e+003, 1.007736e+002
1.210222e+003, 1.008332e+002
1.210705e+003, 1.014149e+002
1.211187e+003, 1.019260e+002
1.211669e+003, 1.022843e+002
1.212151e+003, 1.023795e+002
1.212633e+003, 1.016831e+002
1.213115e+003, 1.010812e+002
1.213597e+003, 1.014117e+002
1.214079e+003, 1.023878e+002
1.214562e+003, 1.031025e+002
1.215044e+003, 1.035527e+002
1.215526e+003, 1.034590e+002
1.216008e+003, 1.026374e+002
1.216490e+003, 1.019292e+002
1.216972e+003, 1.020954e+002
1.217454e+003, 1.025524e+002
1.217936e+003, 1.029171e+002
1.218418e+003, 1.031764e+002
1.218901e+003, 1.033069e+002
1.219383e+003, 1.033101e+002
1.219865e+003, 1.031906e+002
1.220347e+003, 1.028963e+002
1.220829e+003, 1.026946e+002
1.221311e+003, 1.027786e+002
1.221793e+003, 1.030511e+002
1.222275e+003, 1.035200e+002
1.222757e+003, 1.041198e+002
1.223240e+003, 1.043709e+002
1.223722e+003, 1.042969e+002
1.224204e+003, 1.041846e+002
1.224686e+003, 1.041311e+002
1.225168e+003, 1.040638e+002
1.225650e+003, 1.038488e+002
1.226132e+003, 1.036833e+002
1.226614e+003, 1.037410e+002
1.227096e+003, 1.039889e+002
1.227579e+003, 1.041249e+002
1.228061e+003, 1.041590e+002
1.228543e+003, 1.041750e+002
1.229025e+003, 1.041880e+002
1.229507e+003, 1.042263e+002
1.229989e+003, 1.042772e+002
1.230471e+003, 1.043922e+002
1.230953e+003, 1.046532e+002
1.231436e+003, 1.050229e+002
1.231918e+003, 1.051380e+002
1.232400e+003, 1.050173e+002
1.232882e+003, 1.047768e+002
1.233364e+003, 1.043242e+002
1.233846e+003, 1.040276e+002
1.234328e+003, 1.041925e+002
1.234810e+003, 1.044705e+002
1.235292e+003, 1.045857e+002
1.235775e+003, 1.045779e+002
1.236257e+003, 1.048594e+002
1.236739e+003, 1.053552e+002
1.237221e+003, 1.056628e+002
1.237703e+003, 1.054530e+002
1.238185e+003, 1.052763e+002
1.238667e+003, 1.052847e+002
1.239149e+003, 1.054661e+002
1.239632e+003, 1.059581e+002
1.240114e+003, 1.066384e+002
1.240596e+003, 1.067052e+002
1.241078e+003, 1.062993e+002
1.241560e+003, 1.060156e+002
1.242042e+003, 1.060019e+002
1.242524e+003, 1.063603e+002
1.243006e+003, 1.074150e+002
1.243489e+003, 1.084266e+002
1.243971e+003, 1.088054e+002
1.244453e+003, 1.086554e+002
1.244935e+003, 1.082842e+002
1.245417e+003, 1.077470e+002
1.245899e+003, 1.072587e+002
1.246381e+003, 1.066948e+002
1.246863e+003, 1.065512e+002
1.247345e+003, 1.070688e+002
1.247828e+003, 1.076408e+002
1.248310e+003, 1.076481e+002
1.248792e+003, 1.073403e+002
1.249274e+003, 1.073632e+002
1.249756e+003, 1.076704e+002
1.250238e+003, 1.080702e+002
1.250720e+003, 1.087649e+002
1.251202e+003, 1.090695e+002
1.251684e+003, 1.087689e+002
1.252167e+003, 1.084816e+002
1.252649e+003, 1.090431e+002
1.253131e+003, 1.098436e+002
1.253613e+003, 1.094325e+002
1.254095e+003, 1.082044e+002
1.254577e+003, 1.075075e+002
1.255059e+003, 1.080007e+002
1.255541e+003, 1.084397e+002
1.256023e+003, 1.087568e+002
1.256506e+003, 1.090307e+002
1.256988e+003, 1.094197e+002
1.257470e+003, 1.097486e+002
1.257952e+003, 1.096392e+002
1.258434e+003, 1.092631e+002
1.258916e+003, 1.091735e+002
1.259398e+003, 1.096203e+002
1.259880e+003, 1.097445e+002
1.260363e+003, 1.094357e+002
1.260845e+003, 1.091830e+002
1.261327e+003, 1.095095e+002
1.261809e+003, 1.100082e+002
1.262291e+003, 1.103869e+002
1.262773e+003, 1.105710e+002
1.263255e+003, 1.103510e+002
1.263737e+003, 1.095405e+002
1.264219e+003, 1.092973e+002
1.264702e+003, 1.097280e+002
1.265184e+003, 1.102718e+002
1.265666e+003, 1.106457e+002
1.266148e+003, 1.108173e+002
1.266630e+003, 1.106571e+002
1.267112e+003, 1.103033e+002
1.267594e+003, 1.100110e+002
1.268076e+003, 1.097670e+002
1.268559e+003, 1.098588e+002
1.269041e+003, 1.103011e+002
1.269523e+003, 1.106473e+002
1.270005e+003, 1.104679e+002
1.270487e+003, 1.102379e+002
1.270969e+003, 1.102311e+002
1.271451e+003, 1.103433e+002
1.271933e+003, 1.104080e+002
1.272416e+003, 1.104428e+002
1.272898e+003, 1.107796e+002
1.273380e+003, 1.113980e+002
1.273862e+003, 1.118258e+002
1.274344e+003, 1.115218e+002
1.274826e+003, 1.113193e+002
1.275308e+003, 1.115772e+002
1.275790e+003, 1.119911e+002
1.276272e+003, 1.120235e+002
1.276755e+003, 1.118904e+002
1.277237e+003, 1.127842e+002
1.277719e+003, 1.145199e+002
1.278201e+003, 1.154364e+002
1.278683e+003, 1.138476e+002
1.279165e+003, 1.126986e+002
1.279647e+003, 1.126069e+002
1.280129e+003, 1.129454e+002
1.280611e+003, 1.130553e+002
1.281094e+003, 1.130491e+002
1.281576e+003, 1.131619e+002
1.282058e+003, 1.133883e+002
1.282540e+003, 1.136383e+002
1.283022e+003, 1.139765e+002
1.283504e+003, 1.141650e+002
1.283986e+003, 1.141732e+002
1.284468e+003, 1.140482e+002
1.284950e+003, 1.137159e+002
1.285433e+003, 1.133626e+002
1.285915e+003, 1.131600e+002
1.286397e+003, 1.131573e+002
1.286879e+003, 1.135633e+002
1.287361e+003, 1.145847e+002
1.287843e+003, 1.151327e+002
1.288325e+003, 1.150700e+002
1.288807e+003, 1.148651e+002
1.289290e+003, 1.148663e+002
1.289772e+003, 1.149518e+002
1.290254e+003, 1.150816e+002
1.290736e+003, 1.151930e+002
1.291218e+003, 1.151312e+002
1.291700e+003, 1.148704e+002
1.292182e+003, 1.148170e+002
1.292664e+003, 1.149963e+002
1.293146e+003, 1.151527e+002
1.293629e+003, 1.149334e+002
1.294111e+003, 1.148319e+002
1.294593e+003, 1.153979e+002
1.295075e+003, 1.160619e+002
1.295557e+003, 1.160294e+002
1.296039e+003, 1.154020e+002
1.296521e+003, 1.149598e+002
1.297003e+003, 1.147452e+002
1.297486e+003, 1.147392e+002
1.297968e+003, 1.152650e+002
1.298450e+003, 1.155379e+002
1.298932e+003, 1.152227e+002
1.299414e+003, 1.148383e+002
1.299896e+003, 1.150648e+002
1.300378e+003, 1.156530e+002
1.300860e+003, 1.158960e+002
1.301343e+003, 1.158396e+002
1.301825e+003, 1.158306e+002
##END=



