##NAMES=Cattierite
##RRUFFID=R061039
##IDEAL CHEMISTRY=Co^2+^(S_2_)^2-^
##LOCALITY=Shinkolobwe, Belgian Congo
##OWNER=RRUFF
##SOURCE=Michael Scott
##DESCRIPTION=Pinkish silver metallic
##STATUS=The identification of this mineral has been confirmed only by single crystal X-ray diffraction.
##URL=rruff.info/R061039
128.2727, 375.4499
128.7548, 369.7157
129.2369, 365.5849
129.7190, 368.4231
130.2011, 376.5986
130.6832, 388.2175
131.1654, 404.6628
131.6475, 417.9132
132.1296, 415.5975
132.6117, 398.5505
133.0938, 380.2270
133.5759, 365.6133
134.0581, 354.6706
134.5402, 347.6184
135.0223, 344.6055
135.5044, 345.1277
135.9865, 349.7605
136.4686, 359.4276
136.9508, 367.4534
137.4329, 365.3715
137.9150, 350.1335
138.3971, 353.1595
138.8792, 385.1324
139.3613, 435.8270
139.8434, 464.1853
140.3256, 466.3941
140.8077, 454.7841
141.2898, 435.9972
141.7719, 405.8043
142.2540, 381.0248
142.7361, 365.1985
143.2183, 358.0922
143.7004, 352.1495
144.1825, 346.0916
144.6646, 342.4112
145.1467, 343.9182
145.6288, 352.8880
146.1110, 363.6597
146.5931, 375.8699
147.0752, 390.7477
147.5573, 402.1128
148.0394, 412.3444
148.5215, 418.1936
149.0037, 414.5154
149.4858, 386.1467
149.9679, 363.0908
150.4500, 355.0467
150.9321, 373.7566
151.4142, 384.6244
151.8964, 382.4368
152.3785, 372.2750
152.8606, 365.4151
153.3427, 361.3002
153.8248, 361.4408
154.3069, 366.9527
154.7890, 387.7622
155.2712, 400.9781
155.7533, 400.3308
156.2354, 388.6942
156.7175, 377.4540
157.1996, 371.1153
157.6817, 364.3880
158.1639, 353.9896
158.6460, 326.8822
159.1281, 308.1216
159.6102, 309.1584
160.0923, 327.9871
160.5744, 343.9944
161.0566, 346.1660
161.5387, 343.8985
162.0208, 345.6576
162.5029, 360.8427
162.9850, 374.9677
163.4671, 382.5277
163.9493, 383.1939
164.4314, 377.2780
164.9135, 357.0244
165.3956, 332.0220
165.8777, 314.7104
166.3598, 316.2357
166.8420, 323.0049
167.3241, 325.1335
167.8062, 320.7372
168.2883, 318.5985
168.7704, 326.6637
169.2525, 340.9397
169.7346, 353.9000
170.2168, 363.4148
170.6989, 369.0275
171.1810, 369.6606
171.6631, 364.3341
172.1452, 356.6567
172.6273, 347.3864
173.1095, 337.7207
173.5916, 330.9159
174.0737, 329.5468
174.5558, 331.9933
175.0379, 337.0799
175.5201, 346.8664
176.0022, 354.9657
176.4843, 351.4815
176.9664, 338.4934
177.4485, 326.6422
177.9306, 326.3094
178.4128, 332.1204
178.8949, 332.8798
179.3770, 322.3926
179.8591, 309.3856
180.3412, 308.5036
180.8233, 319.0601
181.3055, 330.2245
181.7876, 330.8191
182.2697, 324.5506
182.7518, 322.8631
183.2339, 332.1864
183.7160, 346.5929
184.1981, 353.5285
184.6803, 352.7783
185.1624, 348.7548
185.6445, 344.6630
186.1266, 340.6346
186.6087, 337.1138
187.0908, 333.9430
187.5730, 331.4254
188.0551, 331.5856
188.5372, 335.0137
189.0193, 337.8766
189.5014, 334.5772
189.9835, 325.5962
190.4657, 317.5062
190.9478, 312.6261
191.4299, 310.7549
191.9120, 311.0910
192.3941, 313.7528
192.8762, 318.2525
193.3584, 325.1945
193.8405, 334.6262
194.3226, 342.0225
194.8047, 345.0934
195.2868, 343.9762
195.7689, 340.5466
196.2511, 334.0645
196.7332, 326.6144
197.2153, 321.6164
197.6974, 319.0473
198.1795, 318.7809
198.6616, 322.2052
199.1437, 329.5981
199.6259, 332.9549
200.1080, 330.5179
200.5901, 325.4066
201.0722, 325.4454
201.5543, 331.7963
202.0364, 337.7565
202.5186, 338.5645
203.0007, 333.3977
203.4828, 330.9261
203.9649, 333.0082
204.4470, 337.4360
204.9291, 336.9328
205.4113, 329.9863
205.8934, 322.9256
206.3755, 319.5304
206.8576, 320.0283
207.3397, 323.5672
207.8218, 332.0722
208.3040, 343.1498
208.7861, 345.8098
209.2682, 336.8466
209.7503, 326.8693
210.2324, 324.6878
210.7145, 333.3553
211.1967, 337.7359
211.6788, 334.8403
212.1609, 325.8979
212.6430, 317.8780
213.1251, 309.9705
213.6072, 304.5767
214.0894, 304.4535
214.5715, 311.9420
215.0536, 317.7097
215.5357, 320.4614
216.0178, 320.2586
216.4999, 316.9471
216.9820, 308.5683
217.4642, 299.9523
217.9463, 295.3842
218.4284, 296.1308
218.9105, 297.7997
219.3926, 299.9774
219.8747, 302.6111
220.3569, 304.5052
220.8390, 305.6166
221.3211, 306.0380
221.8032, 305.5566
222.2853, 303.1024
222.7674, 302.3919
223.2496, 305.6346
223.7317, 313.1805
224.2138, 314.0603
224.6959, 304.5583
225.1780, 292.3137
225.6601, 285.5736
226.1423, 288.0065
226.6244, 288.4482
227.1065, 282.7819
227.5886, 269.7627
228.0707, 264.6863
228.5528, 271.6814
229.0350, 282.9769
229.5171, 289.0021
229.9992, 286.5095
230.4813, 285.0614
230.9634, 287.8778
231.4455, 296.1535
231.9276, 299.3350
232.4098, 294.1544
232.8919, 286.4674
233.3740, 284.3562
233.8561, 291.6221
234.3382, 297.6160
234.8203, 299.5814
235.3025, 296.9280
235.7846, 293.1282
236.2667, 285.5566
236.7488, 278.7488
237.2309, 280.0090
237.7130, 296.1371
238.1952, 308.5999
238.6773, 311.3259
239.1594, 301.9949
239.6415, 295.1989
240.1236, 291.6335
240.6057, 290.0895
241.0879, 288.6186
241.5700, 286.0565
242.0521, 285.5826
242.5342, 288.5087
243.0163, 295.6484
243.4984, 302.7604
243.9806, 312.0423
244.4627, 319.8532
244.9448, 319.5911
245.4269, 304.2476
245.9090, 292.5225
246.3911, 291.3967
246.8732, 304.6198
247.3554, 311.4391
247.8375, 309.2883
248.3196, 302.3979
248.8017, 296.9008
249.2838, 292.3884
249.7659, 290.1653
250.2481, 291.6457
250.7302, 298.6109
251.2123, 300.7182
251.6944, 295.5330
252.1765, 287.2638
252.6586, 281.9987
253.1408, 279.9182
253.6229, 280.6168
254.1050, 285.0858
254.5871, 294.9024
255.0692, 300.1616
255.5513, 298.9977
256.0334, 294.7310
256.5156, 292.1720
256.9977, 291.2627
257.4798, 292.2768
257.9619, 296.3489
258.4440, 304.9647
258.9261, 308.3963
259.4083, 304.9815
259.8904, 297.8411
260.3725, 291.1778
260.8546, 283.7545
261.3367, 279.4716
261.8188, 280.3528
262.3010, 287.4416
262.7831, 292.7505
263.2652, 295.6676
263.7473, 297.4696
264.2294, 300.3264
264.7115, 305.0728
265.1937, 308.6426
265.6758, 309.9539
266.1579, 308.8791
266.6400, 306.5456
267.1221, 301.9500
267.6042, 297.3925
268.0864, 296.6392
268.5685, 300.9792
269.0506, 305.0499
269.5327, 306.6163
270.0148, 305.4071
270.4969, 307.6039
270.9791, 314.7399
271.4612, 322.8417
271.9433, 325.9055
272.4254, 322.5818
272.9075, 319.8431
273.3896, 319.1949
273.8718, 320.6499
274.3539, 326.6050
274.8360, 338.3417
275.3181, 352.1905
275.8002, 364.2539
276.2823, 374.6600
276.7645, 382.0727
277.2466, 383.4080
277.7287, 379.6935
278.2108, 387.8184
278.6929, 410.0258
279.1750, 437.9353
279.6572, 462.5730
280.1393, 483.7090
280.6214, 503.9601
281.1035, 522.5398
281.5856, 540.5059
282.0677, 566.3300
282.5499, 601.7432
283.0320, 638.3090
283.5141, 666.3451
283.9962, 685.7850
284.4783, 705.4319
284.9604, 727.2419
285.4425, 751.2490
285.9247, 777.7572
286.4068, 807.0018
286.8889, 836.3873
287.3710, 860.7202
287.8531, 880.9482
288.3352, 909.4147
288.8174, 955.1374
289.2995, 1008.479
289.7816, 1040.641
290.2637, 1050.367
290.7458, 1051.083
291.2279, 1058.009
291.7101, 1067.548
292.1922, 1059.443
292.6743, 1024.558
293.1564, 973.4250
293.6385, 925.6516
294.1206, 881.4342
294.6028, 839.6262
295.0849, 798.3964
295.5670, 758.4738
296.0491, 721.9826
296.5312, 689.7495
297.0133, 661.2778
297.4955, 636.7875
297.9776, 616.4063
298.4597, 597.2703
298.9418, 577.0923
299.4239, 556.9576
299.9060, 539.2726
300.3882, 524.7897
300.8703, 512.6271
301.3524, 502.7451
301.8345, 494.7464
302.3166, 486.8777
302.7987, 475.9122
303.2809, 464.9099
303.7630, 459.1359
304.2451, 461.0849
304.7272, 463.9923
305.2093, 460.2484
305.6914, 451.6854
306.1736, 444.2220
306.6557, 441.8013
307.1378, 441.7603
307.6199, 441.5163
308.1020, 440.9766
308.5841, 439.2919
309.0663, 433.5408
309.5484, 426.0926
310.0305, 422.1368
310.5126, 427.5999
310.9947, 435.3217
311.4768, 439.5679
311.9590, 439.4622
312.4411, 438.0909
312.9232, 436.9650
313.4053, 435.7994
313.8874, 434.1819
314.3695, 428.9727
314.8516, 425.5194
315.3337, 429.7523
315.8159, 443.0297
316.2980, 450.1980
316.7801, 436.9079
317.2622, 416.5258
317.7443, 404.4420
318.2264, 415.1517
318.7086, 426.4846
319.1907, 428.9447
319.6728, 422.2524
320.1549, 416.7138
320.6370, 418.3376
321.1191, 420.9726
321.6013, 419.4088
322.0834, 404.0562
322.5655, 393.1724
323.0476, 393.2843
323.5297, 403.3721
324.0118, 411.2916
324.4940, 417.7914
324.9761, 419.8513
325.4582, 415.5889
325.9403, 394.6696
326.4224, 379.0196
326.9045, 371.2837
327.3867, 370.6522
327.8688, 372.8055
328.3509, 383.2486
328.8330, 391.9992
329.3151, 394.5867
329.7972, 385.4577
330.2794, 378.3241
330.7615, 372.7367
331.2436, 369.1308
331.7257, 369.3366
332.2078, 379.2493
332.6899, 385.3983
333.1721, 381.0282
333.6542, 359.6090
334.1363, 346.4261
334.6184, 343.7331
335.1005, 347.7442
335.5826, 352.7383
336.0648, 360.9222
336.5469, 365.2091
337.0290, 361.9113
337.5111, 349.6976
337.9932, 341.3937
338.4753, 337.3862
338.9575, 336.6779
339.4396, 339.1928
339.9217, 346.1362
340.4038, 350.2538
340.8859, 347.7168
341.3680, 339.8149
341.8502, 340.0477
342.3323, 350.5841
342.8144, 361.4712
343.2965, 360.8693
343.7786, 348.8416
344.2607, 339.7512
344.7429, 337.1404
345.2250, 339.4804
345.7071, 342.7853
346.1892, 347.1569
346.6713, 351.6570
347.1534, 355.9773
347.6355, 359.9691
348.1176, 362.8915
348.5998, 364.3064
349.0819, 365.1499
349.5640, 368.1773
350.0461, 372.8394
350.5282, 374.7347
351.0103, 366.4995
351.4925, 354.4214
351.9746, 351.6750
352.4567, 361.8681
352.9388, 374.6451
353.4209, 380.6537
353.9030, 380.6828
354.3852, 376.8873
354.8673, 364.1670
355.3494, 351.4259
355.8315, 349.7091
356.3136, 360.5794
356.7957, 372.8300
357.2779, 377.3706
357.7600, 378.2102
358.2421, 381.3611
358.7242, 394.1876
359.2063, 406.1220
359.6884, 407.9504
360.1706, 400.0924
360.6527, 396.3841
361.1348, 406.6898
361.6169, 422.6427
362.0990, 436.4370
362.5811, 443.0396
363.0633, 450.2652
363.5454, 460.8452
364.0275, 474.2293
364.5096, 487.7063
364.9917, 501.9109
365.4738, 515.0915
365.9560, 525.8829
366.4381, 528.1326
366.9202, 536.8011
367.4023, 555.3604
367.8844, 581.5187
368.3665, 609.5612
368.8487, 637.8717
369.3308, 669.4548
369.8129, 705.0948
370.2950, 744.9102
370.7771, 787.8123
371.2592, 832.3733
371.7414, 880.7279
372.2235, 936.4344
372.7056, 999.6063
373.1877, 1070.518
373.6698, 1150.950
374.1519, 1240.812
374.6341, 1326.902
375.1162, 1406.059
375.5983, 1484.855
376.0804, 1567.945
376.5625, 1653.255
377.0446, 1750.228
377.5267, 1863.839
378.0089, 1989.191
378.4910, 2100.820
378.9731, 2196.227
379.4552, 2289.652
379.9373, 2391.556
380.4194, 2501.999
380.9016, 2606.778
381.3837, 2705.692
381.8658, 2798.320
382.3479, 2883.251
382.8300, 2960.655
383.3121, 3035.878
383.7943, 3119.424
384.2764, 3201.564
384.7585, 3261.258
385.2406, 3297.217
385.7227, 3308.014
386.2048, 3286.229
386.6870, 3237.325
387.1691, 3173.608
387.6512, 3094.917
388.1333, 3007.653
388.6154, 2917.917
389.0975, 2825.833
389.5797, 2727.417
390.0618, 2614.022
390.5439, 2495.705
391.0260, 2386.086
391.5081, 2291.416
391.9902, 2203.752
392.4724, 2121.308
392.9545, 2042.668
393.4366, 1961.536
393.9187, 1867.845
394.4008, 1776.616
394.8829, 1694.988
395.3651, 1625.753
395.8472, 1563.860
396.3293, 1510.801
396.8114, 1463.777
397.2935, 1418.274
397.7756, 1374.255
398.2578, 1330.926
398.7399, 1287.639
399.2220, 1244.216
399.7041, 1201.565
400.1862, 1157.418
400.6683, 1115.467
401.1505, 1078.778
401.6326, 1046.171
402.1147, 1021.151
402.5968, 1007.416
403.0789, 1002.712
403.5610, 990.0662
404.0432, 965.9261
404.5253, 940.2639
405.0074, 919.1229
405.4895, 903.1968
405.9716, 888.1785
406.4537, 873.8045
406.9359, 860.2778
407.4180, 848.6083
407.9001, 838.9943
408.3822, 829.0224
408.8643, 816.0078
409.3464, 800.8635
409.8285, 792.1866
410.3106, 791.2931
410.7928, 790.1281
411.2749, 777.0464
411.7570, 754.9744
412.2391, 737.1753
412.7212, 729.5029
413.2033, 727.0269
413.6855, 722.0638
414.1676, 714.9403
414.6497, 708.2300
415.1318, 705.4922
415.6139, 703.7988
416.0960, 699.0017
416.5782, 689.4252
417.0603, 678.4253
417.5424, 670.5885
418.0245, 663.3923
418.5066, 651.2128
418.9887, 621.5610
419.4709, 593.5135
419.9530, 580.7236
420.4351, 586.9099
420.9172, 591.5078
421.3993, 589.6322
421.8814, 581.6004
422.3636, 567.7427
422.8457, 534.5585
423.3278, 509.9221
423.8099, 504.9753
424.2920, 518.0220
424.7741, 524.5510
425.2563, 519.3514
425.7384, 510.7007
426.2205, 502.7073
426.7026, 495.2739
427.1847, 489.0236
427.6668, 487.1453
428.1490, 485.1013
428.6311, 470.9694
429.1132, 436.2399
429.5953, 409.0626
430.0774, 402.5769
430.5595, 417.1827
431.0417, 424.8639
431.5238, 424.6373
432.0059, 419.7957
432.4880, 413.6735
432.9701, 406.2633
433.4522, 396.1086
433.9344, 380.7186
434.4165, 364.0522
434.8986, 356.9969
435.3807, 359.1029
435.8628, 360.4173
436.3449, 351.4566
436.8271, 336.8993
437.3092, 327.1614
437.7913, 324.2423
438.2734, 323.9046
438.7555, 323.4595
439.2376, 322.4393
439.7197, 319.8096
440.2018, 311.4162
440.6840, 303.7908
441.1661, 303.4021
441.6482, 310.2503
442.1303, 316.4879
442.6124, 318.2631
443.0945, 317.5575
443.5767, 316.2231
444.0588, 317.5351
444.5409, 314.8683
445.0230, 302.2230
445.5051, 283.5097
445.9872, 271.3293
446.4694, 272.3268
446.9515, 276.1327
447.4336, 279.2559
447.9157, 281.7142
448.3978, 283.2659
448.8799, 283.6003
449.3621, 283.2261
449.8442, 282.9572
450.3263, 283.7578
450.8084, 282.2714
451.2905, 276.5142
451.7726, 267.6420
452.2548, 263.4773
452.7369, 265.0491
453.2190, 268.1147
453.7011, 270.5050
454.1832, 272.1811
454.6653, 270.9447
455.1475, 265.9095
455.6296, 259.4884
456.1117, 254.8281
456.5938, 251.9669
457.0759, 250.8825
457.5580, 252.6769
458.0402, 255.9445
458.5223, 258.4477
459.0044, 260.1917
459.4865, 260.7049
459.9686, 258.1082
460.4507, 254.4899
460.9329, 253.0775
461.4150, 256.8027
461.8971, 259.9149
462.3792, 257.4149
462.8613, 251.2541
463.3434, 246.6346
463.8256, 247.4013
464.3077, 249.0326
464.7898, 248.6139
465.2719, 244.9238
465.7540, 243.4037
466.2361, 246.7920
466.7183, 252.1354
467.2004, 256.4026
467.6825, 260.1165
468.1646, 261.7555
468.6467, 259.3734
469.1288, 254.1246
469.6109, 254.0436
470.0930, 263.6120
470.5752, 271.1016
471.0573, 268.9669
471.5394, 253.8205
472.0215, 244.7372
472.5036, 243.0354
472.9857, 245.6641
473.4679, 249.8195
473.9500, 255.5965
474.4321, 257.1750
474.9142, 250.6066
475.3963, 239.2870
475.8784, 231.6364
476.3606, 227.6680
476.8427, 228.1955
477.3248, 238.3155
477.8069, 252.5976
478.2890, 260.2609
478.7711, 258.3293
479.2533, 252.9027
479.7354, 248.1071
480.2175, 243.9430
480.6996, 240.3975
481.1817, 238.6833
481.6638, 236.6484
482.1460, 230.3592
482.6281, 219.8909
483.1102, 216.7407
483.5923, 236.0483
484.0744, 257.6245
484.5565, 266.6430
485.0387, 244.8678
485.5208, 230.2041
486.0029, 229.5940
486.4850, 237.7985
486.9671, 243.9769
487.4492, 249.0923
487.9314, 250.6204
488.4135, 246.6045
488.8956, 236.4592
489.3777, 229.1175
489.8598, 224.3024
490.3419, 222.7181
490.8241, 226.5619
491.3062, 236.4062
491.7883, 243.0694
492.2704, 244.9060
492.7525, 243.1603
493.2346, 238.2224
493.7168, 230.7109
494.1989, 226.6920
494.6810, 233.6980
495.1631, 245.4361
495.6452, 248.7773
496.1273, 242.8387
496.6095, 236.3654
497.0916, 237.8340
497.5737, 243.0238
498.0558, 245.9675
498.5379, 241.0439
499.0201, 238.2325
499.5022, 230.4527
499.9843, 253.7178
500.4664, 267.2826
500.9485, 271.6682
501.4306, 239.3821
501.9127, 254.4499
502.3948, 250.5404
502.8770, 245.8530
503.3591, 267.5856
503.8412, 240.6333
504.3233, 244.5951
504.8054, 265.4032
505.2875, 276.5109
505.7697, 278.4392
506.2518, 243.6962
506.7339, 256.3070
507.2160, 249.9404
507.6981, 242.7958
508.1802, 262.0714
508.6624, 232.6619
509.1445, 249.2175
509.6266, 242.7971
510.1087, 236.1869
510.5908, 238.0291
511.0729, 245.2934
511.5551, 246.5679
512.0372, 235.4727
512.5193, 221.8085
513.0014, 218.1911
513.4835, 222.4220
513.9656, 227.2536
514.4478, 228.0813
514.9299, 228.3212
515.4120, 231.0409
515.8941, 236.8232
516.3762, 242.0582
516.8583, 246.7421
517.3405, 249.4192
517.8226, 248.7278
518.3047, 240.9444
518.7868, 233.7912
519.2689, 226.1818
519.7510, 219.7731
520.2332, 220.4154
520.7153, 234.1019
521.1974, 245.8963
521.6795, 250.5183
522.1616, 247.5534
522.6437, 240.8791
523.1259, 228.5436
523.6080, 217.2157
524.0901, 215.0614
524.5722, 222.0297
525.0543, 226.4850
525.5364, 226.1914
526.0186, 223.0645
526.5007, 218.5757
526.9828, 213.4926
527.4649, 211.7751
527.9470, 218.5428
528.4291, 228.4361
528.9113, 234.5740
529.3934, 236.7349
529.8755, 238.4565
530.3576, 242.2652
530.8397, 246.6302
531.3218, 250.7254
531.8040, 258.7581
532.2861, 259.1883
532.7682, 239.0187
533.2503, 209.5572
533.7324, 193.1427
534.2145, 201.9827
534.6967, 214.7550
535.1788, 228.1414
535.6609, 242.1289
536.1430, 251.0984
536.6251, 253.3784
537.1072, 252.9682
537.5894, 252.9027
538.0715, 253.7930
538.5536, 250.0550
539.0357, 239.5132
539.5178, 227.7895
539.9999, 224.0221
540.4821, 227.7826
540.9642, 233.5721
541.4463, 241.2609
541.9284, 248.5346
542.4105, 251.3786
542.8926, 249.9751
543.3748, 245.6383
543.8569, 235.4999
544.3390, 224.8330
544.8211, 219.6208
545.3032, 221.6262
545.7853, 224.6405
546.2675, 226.6998
546.7495, 227.6124
547.2316, 227.1518
547.7137, 222.3550
548.1959, 219.4168
548.6780, 221.4651
549.1601, 226.9800
549.6422, 228.4472
550.1243, 222.5705
550.6064, 217.0653
551.0886, 214.1975
551.5707, 213.5921
552.0528, 220.4028
552.5349, 237.8492
553.0170, 254.8721
553.4991, 257.2087
553.9813, 245.7675
554.4634, 240.3161
554.9455, 246.7567
555.4276, 256.4819
555.9097, 253.6597
556.3918, 241.2216
556.8740, 230.5938
557.3561, 230.2230
557.8382, 233.0220
558.3203, 229.6619
558.8024, 220.5284
559.2845, 216.5327
559.7667, 229.9494
560.2488, 246.9330
560.7309, 256.8646
561.2130, 255.9503
561.6951, 251.6397
562.1772, 241.6058
562.6594, 230.0652
563.1415, 223.3938
563.6236, 225.1333
564.1057, 226.3945
564.5878, 224.7058
565.0699, 221.0739
565.5521, 221.4384
566.0342, 226.5132
566.5163, 233.2778
566.9984, 242.0116
567.4805, 252.0466
567.9626, 255.3392
568.4448, 251.2178
568.9269, 243.7511
569.4090, 233.7230
569.8911, 223.7433
570.3732, 221.2452
570.8553, 233.3182
571.3375, 244.8609
571.8196, 237.4182
572.3017, 218.4601
572.7838, 205.7248
573.2659, 213.9261
573.7480, 223.8694
574.2302, 224.2206
574.7123, 214.1145
575.1944, 209.5813
575.6765, 219.4241
576.1586, 230.9646
576.6407, 236.9850
577.1229, 234.0866
577.6050, 233.3721
578.0871, 236.1440
578.5692, 239.7240
579.0513, 239.6898
579.5334, 235.4846
580.0156, 232.2680
580.4977, 232.0005
580.9798, 232.9721
581.4619, 229.8607
581.9440, 223.2126
582.4261, 218.3466
582.9083, 222.4108
583.3904, 228.6873
583.8725, 225.2659
584.3546, 211.3153
584.8367, 199.9967
585.3188, 201.0167
585.8010, 208.2480
586.2831, 215.8297
586.7652, 223.5352
587.2473, 229.6192
587.7294, 233.4814
588.2115, 235.5084
588.6937, 236.4529
589.1758, 237.9526
589.6579, 235.9598
590.1400, 226.9764
590.6221, 212.8658
591.1042, 209.4239
591.5864, 220.0994
592.0685, 230.5268
592.5506, 230.4663
593.0327, 221.1474
593.5148, 217.4551
593.9969, 220.4205
594.4791, 224.6107
594.9612, 225.1110
595.4433, 222.5443
595.9254, 217.4063
596.4075, 207.1541
596.8896, 199.5637
597.3718, 202.9616
597.8539, 213.6591
598.3360, 224.1899
598.8181, 232.6045
599.3002, 239.4192
599.7823, 245.5376
600.2645, 250.8731
600.7466, 252.1093
601.2287, 245.9481
601.7108, 238.8416
602.1929, 233.6791
602.6750, 230.9718
603.1572, 228.2603
603.6393, 225.4864
604.1214, 222.7770
604.6035, 220.1492
605.0856, 217.6024
605.5677, 215.2659
606.0499, 212.6834
606.5320, 211.2117
607.0141, 213.3355
607.4962, 218.4425
607.9783, 224.5559
608.4604, 231.8228
608.9425, 238.8039
609.4246, 245.4431
609.9067, 251.2760
610.3889, 252.6691
610.8710, 243.9739
611.3531, 233.4460
611.8352, 225.0489
612.3173, 217.4506
612.7994, 217.5431
613.2816, 233.8788
613.7637, 251.3145
614.2458, 254.8310
614.7279, 239.0062
615.2100, 226.4833
615.6921, 219.7648
616.1743, 217.6529
616.6564, 218.3295
617.1385, 221.7621
617.6206, 227.0623
618.1027, 235.8561
618.5848, 245.1517
619.0670, 249.6501
619.5491, 249.6814
620.0312, 247.4093
620.5133, 241.0877
620.9954, 235.0004
621.4775, 233.6600
621.9597, 238.3239
622.4418, 242.2361
622.9239, 242.6852
623.4060, 241.6018
623.8881, 240.5577
624.3702, 238.6565
624.8524, 238.4651
625.3345, 241.4046
625.8166, 245.2448
626.2987, 245.2517
626.7808, 239.9421
627.2629, 238.0384
627.7451, 243.9244
628.2272, 253.5968
628.7093, 254.6951
629.1914, 247.6180
629.6735, 238.4798
630.1556, 228.2943
630.6378, 219.7631
631.1199, 218.5654
631.6020, 224.8100
632.0841, 230.1419
632.5662, 227.8734
633.0483, 223.2664
633.5305, 220.9391
634.0126, 223.0551
634.4947, 224.8021
634.9768, 225.6708
635.4589, 225.5410
635.9410, 224.0341
636.4232, 219.3763
636.9053, 217.1979
637.3874, 219.6148
637.8695, 224.2160
638.3516, 223.6388
638.8337, 217.4164
639.3159, 212.3183
639.7980, 212.0069
640.2801, 214.6912
640.7622, 215.4995
641.2443, 214.6721
641.7264, 214.7189
642.2086, 218.0718
642.6907, 222.8102
643.1728, 228.0660
643.6549, 234.4537
644.1370, 236.2992
644.6191, 226.6247
645.1013, 213.8973
645.5834, 205.6247
646.0655, 206.0721
646.5476, 206.5318
647.0297, 206.3641
647.5118, 206.5041
647.9940, 209.4556
648.4761, 216.8167
648.9582, 219.6740
649.4403, 213.5417
649.9224, 203.1930
650.4045, 202.5618
650.8867, 210.7862
651.3688, 218.6282
651.8509, 220.4010
652.3330, 218.9174
652.8151, 216.8232
653.2972, 214.4222
653.7794, 213.9307
654.2615, 219.7423
654.7436, 225.8707
655.2257, 227.7351
655.7078, 223.5554
656.1899, 218.5590
656.6721, 208.7316
657.1542, 201.4680
657.6363, 205.1039
658.1184, 226.8436
658.6005, 237.7312
659.0826, 231.5145
659.5648, 217.6738
660.0469, 213.6804
660.5290, 219.1013
661.0111, 225.4978
661.4932, 231.1421
661.9753, 234.8384
662.4575, 234.4333
662.9396, 230.3323
663.4217, 224.0964
663.9038, 211.5335
664.3859, 201.0971
664.8680, 199.7041
665.3502, 207.5288
665.8323, 216.2670
666.3144, 229.6404
666.7965, 238.5256
667.2786, 237.2993
667.7607, 221.8901
668.2429, 209.5925
668.7250, 200.0299
669.2071, 194.1725
669.6892, 194.9365
670.1713, 202.1120
670.6534, 204.4281
671.1355, 198.6147
671.6176, 192.0866
672.0997, 197.1817
672.5818, 209.7507
673.0640, 219.6756
673.5461, 222.9724
674.0282, 222.4716
674.5103, 218.6525
674.9924, 212.5019
675.4745, 206.6809
675.9567, 201.5016
676.4388, 197.3468
676.9209, 193.5492
677.4030, 190.3065
677.8851, 191.9060
678.3672, 199.9903
678.8494, 209.6043
679.3315, 220.2413
679.8136, 231.7058
680.2957, 232.7678
680.7778, 222.5193
681.2599, 209.2109
681.7421, 197.1961
682.2242, 188.3518
682.7063, 188.3743
683.1884, 200.2054
683.6705, 211.7527
684.1526, 213.5446
684.6348, 210.5242
685.1169, 208.5356
685.5990, 209.9490
686.0811, 211.5352
686.5632, 213.2813
687.0453, 214.7662
687.5275, 215.0587
688.0096, 213.3260
688.4917, 212.5857
688.9738, 214.2099
689.4559, 216.9445
689.9380, 217.0503
690.4202, 214.5447
690.9023, 209.5406
691.3844, 196.5547
691.8665, 183.6211
692.3486, 187.0683
692.8307, 205.0157
693.3129, 219.6750
693.7950, 216.5661
694.2771, 209.1143
694.7592, 208.0951
695.2413, 216.9660
695.7234, 219.6449
696.2056, 206.6516
696.6877, 192.3802
697.1698, 186.3840
697.6519, 191.2228
698.1340, 195.7890
698.6161, 199.8517
699.0983, 203.4190
699.5804, 206.2462
700.0625, 208.4723
700.5446, 211.0426
701.0267, 214.1600
701.5089, 217.7131
701.9910, 223.6340
702.4731, 229.6929
702.9552, 231.4778
703.4373, 222.9977
703.9194, 214.2121
704.4016, 209.5663
704.8837, 207.9378
705.3658, 204.9970
705.8479, 196.6143
706.3300, 192.3213
706.8121, 196.8000
707.2943, 208.2488
707.7764, 210.4125
708.2585, 201.5789
708.7406, 194.6976
709.2227, 202.4893
709.7048, 217.8948
710.1870, 217.4225
710.6691, 201.0113
711.1512, 187.2398
711.6333, 192.4666
712.1154, 204.9732
712.5975, 214.0612
713.0797, 218.2144
713.5618, 219.1359
714.0439, 214.0892
714.5260, 208.0054
715.0081, 204.9698
715.4902, 206.3824
715.9724, 207.8652
716.4545, 209.3149
716.9366, 210.7907
717.4187, 212.5109
717.9008, 214.4461
718.3829, 216.1664
718.8651, 218.2895
719.3472, 218.5648
719.8293, 211.5501
720.3114, 200.5663
720.7935, 192.8701
721.2756, 192.1426
721.7578, 194.9849
722.2399, 201.3366
722.7220, 210.1795
723.2041, 218.1249
723.6862, 225.9908
724.1683, 231.3101
724.6505, 232.8983
725.1326, 231.2795
725.6147, 229.7271
726.0968, 228.3157
726.5789, 226.5905
727.0610, 223.2410
727.5432, 219.4731
728.0253, 220.7018
728.5074, 226.4048
728.9895, 229.4542
729.4716, 219.8629
729.9537, 208.2704
730.4359, 205.7596
730.9180, 214.6133
731.4000, 222.0181
731.8821, 225.5606
732.3643, 225.5032
732.8464, 221.5726
733.3285, 210.9262
733.8106, 204.5369
734.2927, 202.3265
734.7748, 204.5373
735.2570, 214.9910
735.7391, 231.8846
736.2212, 239.7958
736.7033, 235.2861
737.1854, 225.9333
737.6675, 216.6172
738.1497, 208.9642
738.6318, 205.7195
739.1139, 211.1695
739.5960, 216.1659
740.0781, 215.9547
740.5602, 213.2227
741.0424, 213.1819
741.5245, 220.0770
742.0066, 222.5341
742.4887, 216.1909
742.9708, 205.9176
743.4529, 205.1712
743.9351, 214.2415
744.4172, 223.2856
744.8993, 228.9830
745.3814, 231.9156
745.8635, 231.6547
746.3456, 229.1926
746.8278, 228.2733
747.3099, 234.6990
747.7920, 239.9067
748.2741, 237.1628
748.7562, 227.1387
749.2383, 220.3866
749.7205, 202.4307
750.2026, 224.9737
750.6847, 237.8163
751.1668, 241.4798
751.6489, 208.4717
752.1310, 222.8173
752.6132, 218.1858
753.0953, 212.7760
753.5774, 233.7866
754.0595, 206.1123
754.5416, 226.7038
755.0237, 228.0285
755.5059, 238.1712
755.9880, 229.2194
756.4701, 226.1653
756.9522, 242.2117
757.4343, 247.6821
757.9164, 236.5321
758.3986, 247.2354
758.8807, 218.8940
759.3628, 224.8148
759.8449, 245.5182
760.3270, 235.3284
760.8091, 215.6547
761.2913, 207.8903
761.7734, 204.4023
762.2555, 203.9187
762.7376, 207.0133
763.2197, 210.0328
763.7018, 208.6275
764.1840, 205.7126
764.6661, 205.0653
765.1482, 210.0097
765.6303, 214.3262
766.1124, 216.0256
766.5945, 216.9917
767.0767, 220.9995
767.5588, 231.1687
768.0409, 232.1210
768.5230, 217.6121
769.0051, 198.1082
769.4872, 193.7481
769.9694, 202.0186
770.4515, 211.6973
770.9336, 220.4357
771.4157, 226.4081
771.8978, 226.2335
772.3799, 222.0419
772.8621, 218.8999
773.3442, 218.0801
773.8263, 218.9721
774.3084, 223.2503
774.7905, 229.0879
775.2726, 229.8779
775.7548, 223.8258
776.2369, 218.8036
776.7190, 218.1251
777.2011, 220.1084
777.6832, 220.4698
778.1653, 219.2025
778.6475, 216.1746
779.1296, 207.1948
779.6117, 199.5149
780.0938, 202.6569
780.5759, 214.5049
781.0580, 221.1777
781.5402, 213.0486
782.0223, 204.2209
782.5044, 200.2032
782.9865, 200.8057
783.4686, 200.7537
783.9507, 199.5256
784.4329, 199.4277
784.9150, 202.6044
785.3971, 208.0229
785.8792, 211.3584
786.3613, 212.7666
786.8434, 214.2428
787.3256, 218.4173
787.8077, 222.4383
788.2898, 224.0596
788.7719, 223.0317
789.2540, 219.9118
789.7361, 209.8613
790.2183, 202.3266
790.7004, 202.8281
791.1825, 212.6494
791.6646, 220.7941
792.1467, 227.8526
792.6288, 230.7870
793.1110, 222.2934
793.5930, 208.0855
794.0751, 206.4999
794.5573, 219.3349
795.0394, 232.1137
795.5215, 233.8045
796.0036, 230.5167
796.4857, 226.7947
796.9678, 222.4262
797.4500, 221.0579
797.9321, 225.2052
798.4142, 230.2624
798.8963, 233.4131
799.3784, 234.8244
799.8605, 231.8567
800.3427, 205.4091
800.8248, 228.7049
801.3069, 242.3002
801.7890, 246.7165
802.2711, 214.4611
802.7532, 229.5594
803.2354, 225.6809
803.7175, 221.0240
804.1996, 242.7871
804.6817, 215.8656
805.1638, 237.2099
805.6459, 239.2873
806.1281, 250.1830
806.6102, 241.9840
807.0923, 239.6825
807.5744, 256.4818
808.0565, 262.7049
808.5386, 252.3077
809.0208, 263.7639
809.5029, 236.1754
809.9850, 237.9901
810.4671, 235.8315
810.9492, 241.3214
811.4313, 247.2787
811.9135, 251.7167
812.3956, 254.5957
812.8777, 255.8642
813.3598, 255.3250
813.8419, 253.5373
814.3240, 249.9146
814.8062, 246.0609
815.2883, 243.3264
815.7704, 241.9691
816.2525, 244.4792
816.7346, 252.5691
817.2167, 259.6970
817.6989, 256.8575
818.1810, 249.9387
818.6631, 247.3127
819.1452, 254.5770
819.6273, 260.6606
820.1094, 262.9391
820.5916, 263.0508
821.0737, 262.8112
821.5558, 262.8130
822.0379, 258.8151
822.5200, 248.4283
823.0021, 238.9171
823.4843, 243.6801
823.9664, 257.4953
824.4485, 265.5805
824.9306, 262.5894
825.4127, 257.0221
825.8948, 251.4540
826.3770, 248.0406
826.8591, 249.4446
827.3412, 266.3893
827.8233, 273.1583
828.3054, 263.3617
828.7875, 248.6732
829.2697, 246.7358
829.7518, 257.7234
830.2339, 264.2020
830.7160, 262.4634
831.1981, 258.6859
831.6802, 262.0955
832.1624, 268.2061
832.6445, 269.1350
833.1266, 260.3881
833.6087, 250.4582
834.0908, 238.8992
834.5729, 229.6124
835.0551, 227.3380
835.5372, 235.1510
836.0193, 242.1396
836.5014, 247.7256
836.9835, 251.6434
837.4656, 253.2119
837.9478, 252.6620
838.4299, 250.3020
838.9120, 245.1396
839.3941, 241.7747
839.8762, 246.9670
840.3583, 254.9175
840.8405, 258.4592
841.3226, 250.2534
841.8047, 246.6243
842.2868, 251.3836
842.7689, 258.2905
843.2510, 260.6103
843.7332, 258.2266
844.2153, 251.6122
844.6974, 239.4721
845.1795, 228.7735
845.6616, 230.2140
846.1437, 238.2034
846.6259, 243.2241
847.1080, 242.1647
847.5901, 240.7060
848.0722, 242.0150
848.5543, 243.6141
849.0364, 243.2433
849.5186, 241.5636
850.0007, 234.9888
850.4828, 220.7436
850.9649, 207.8859
851.4470, 210.9706
851.9291, 224.6942
852.4113, 226.1915
852.8934, 210.4884
853.3755, 196.6748
853.8576, 203.1714
854.3397, 217.1479
854.8218, 226.1191
855.3039, 226.6136
855.7860, 225.1803
856.2681, 220.9042
856.7502, 216.6902
857.2324, 214.5240
857.7145, 214.4149
858.1966, 217.6553
858.6787, 224.8363
859.1608, 230.7131
859.6429, 229.8551
860.1251, 225.0052
860.6072, 218.1145
861.0893, 208.5257
861.5714, 204.9602
862.0535, 217.9871
862.5356, 232.0676
863.0178, 236.6197
863.4999, 229.5518
863.9820, 226.1553
864.4641, 226.9727
864.9462, 229.5033
865.4283, 232.3059
865.9105, 235.2337
866.3926, 238.6349
866.8747, 242.3822
867.3568, 244.0011
867.8389, 241.0936
868.3210, 236.1514
868.8032, 229.1988
869.2853, 219.6853
869.7674, 217.1354
870.2495, 224.7968
870.7316, 233.3383
871.2137, 239.1891
871.6959, 242.0106
872.1780, 237.9333
872.6601, 227.4932
873.1422, 218.2557
873.6243, 214.1021
874.1064, 214.0743
874.5886, 220.0677
875.0707, 230.8251
875.5528, 236.5029
876.0349, 229.0479
876.5170, 223.1216
876.9991, 224.3703
877.4813, 230.5419
877.9634, 228.5350
878.4455, 218.0595
878.9276, 209.6180
879.4097, 209.0154
879.8918, 212.7812
880.3740, 219.7427
880.8561, 227.5102
881.3382, 228.8983
881.8203, 209.5014
882.3024, 196.1753
882.7845, 202.0756
883.2667, 219.4179
883.7488, 230.9721
884.2309, 236.5117
884.7130, 236.7574
885.1951, 230.1024
885.6772, 221.2387
886.1594, 217.3068
886.6415, 217.6149
887.1236, 220.4779
887.6057, 228.1502
888.0878, 234.3386
888.5699, 234.8293
889.0521, 232.4389
889.5342, 231.7618
890.0163, 233.8028
890.4984, 235.8841
890.9805, 238.9239
891.4626, 239.5229
891.9448, 227.6812
892.4269, 208.8101
892.9090, 203.2521
893.3911, 219.3325
893.8732, 234.2844
894.3553, 228.2508
894.8375, 214.4348
895.3196, 206.3641
895.8017, 207.0990
896.2838, 212.5545
896.7659, 226.9285
897.2480, 239.0986
897.7302, 236.1128
898.2123, 220.7656
898.6944, 211.7252
899.1765, 210.4560
899.6586, 212.0509
900.1407, 214.0549
900.6229, 216.0825
901.1050, 217.9526
901.5871, 219.7904
902.0692, 220.4202
902.5513, 219.9909
903.0334, 217.9874
903.5156, 212.0147
903.9977, 203.0096
904.4798, 207.5034
904.9619, 225.2450
905.4440, 239.6178
905.9261, 235.9893
906.4083, 226.0167
906.8904, 220.3876
907.3725, 219.1678
907.8546, 219.8019
908.3367, 224.3988
908.8188, 227.2169
909.3010, 224.4552
909.7831, 219.1303
910.2652, 225.4374
910.7473, 243.5488
911.2294, 256.8141
911.7115, 258.3926
912.1937, 252.6361
912.6758, 240.8897
913.1579, 226.6292
913.6400, 217.1043
914.1221, 217.9626
914.6042, 220.0206
915.0864, 221.3064
915.5685, 222.7128
916.0506, 226.5193
916.5327, 233.2919
917.0148, 235.9867
917.4969, 232.8277
917.9790, 227.7067
918.4611, 225.5355
918.9432, 224.5518
919.4254, 220.7857
919.9075, 209.6782
920.3896, 206.1090
920.8717, 226.5503
921.3538, 247.6241
921.8359, 249.4645
922.3181, 227.1923
922.8002, 213.9445
923.2823, 210.4367
923.7644, 213.2398
924.2465, 223.6845
924.7286, 236.4192
925.2108, 243.6369
925.6929, 244.7005
926.1750, 241.3211
926.6571, 228.8877
927.1392, 217.3586
927.6213, 211.6763
928.1035, 211.5320
928.5856, 211.2575
929.0677, 210.5260
929.5498, 212.2603
930.0319, 220.1041
930.5140, 229.7622
930.9962, 234.6284
931.4783, 235.2631
931.9604, 233.4435
932.4425, 225.5701
932.9246, 220.3604
933.4067, 223.1099
933.8889, 229.6639
934.3710, 231.7358
934.8531, 228.6113
935.3352, 225.4671
935.8173, 223.3019
936.2994, 221.9730
936.7816, 221.8116
937.2637, 222.2697
937.7458, 222.3460
938.2279, 221.7090
938.7100, 220.7903
939.1921, 218.7275
939.6743, 217.1801
940.1564, 217.3868
940.6385, 219.2816
941.1206, 224.9344
941.6027, 235.6574
942.0848, 242.8047
942.5670, 231.6814
943.0491, 215.0221
943.5312, 214.6227
944.0133, 232.3655
944.4954, 245.2398
944.9775, 238.8073
945.4597, 230.7596
945.9418, 229.5032
946.4239, 234.3690
946.9060, 237.3419
947.3881, 238.3548
947.8702, 238.7001
948.3524, 238.8739
948.8345, 238.8773
949.3166, 239.7352
949.7987, 240.4702
950.2808, 238.3694
950.7629, 227.6653
951.2451, 219.9060
951.7272, 217.6645
952.2093, 219.7813
952.6914, 226.4024
953.1735, 238.0145
953.6556, 242.1134
954.1378, 234.9486
954.6199, 224.2980
955.1020, 216.7523
955.5841, 212.0114
956.0662, 210.1537
956.5483, 212.7510
957.0305, 213.6309
957.5126, 208.3136
957.9947, 204.6616
958.4768, 209.7646
958.9589, 223.7480
959.4410, 230.3603
959.9232, 229.3937
960.4053, 227.9611
960.8874, 233.3539
961.3695, 239.4787
961.8516, 240.1815
962.3337, 235.5569
962.8159, 229.4048
963.2980, 218.7709
963.7801, 212.1669
964.2622, 213.2320
964.7443, 219.1473
965.2264, 220.6036
965.7086, 218.2834
966.1907, 217.4028
966.6728, 221.2433
967.1549, 225.0597
967.6370, 222.7696
968.1191, 218.5689
968.6013, 219.1340
969.0834, 231.1197
969.5655, 237.9994
970.0476, 237.9631
970.5297, 235.3122
971.0118, 235.6052
971.4940, 237.5186
971.9761, 234.6747
972.4582, 226.1038
972.9403, 218.8976
973.4224, 218.6016
973.9045, 220.7128
974.3867, 222.0594
974.8688, 222.3866
975.3509, 223.1294
975.8330, 224.3667
976.3151, 225.8073
976.7972, 227.8627
977.2794, 229.6422
977.7615, 227.2965
978.2435, 222.5579
978.7256, 221.5429
979.2078, 234.0993
979.6899, 243.1009
980.1720, 237.5835
980.6541, 225.5815
981.1362, 221.8251
981.6183, 228.4710
982.1005, 229.7072
982.5826, 221.2803
983.0647, 214.5400
983.5468, 231.0531
984.0289, 255.9211
984.5110, 263.0238
984.9932, 243.8376
985.4753, 226.7143
985.9574, 218.4943
986.4395, 216.7777
986.9216, 222.7352
987.4037, 236.0765
987.8859, 240.8292
988.3680, 236.9562
988.8501, 233.1853
989.3322, 236.3757
989.8143, 241.3269
990.2964, 241.6457
990.7786, 239.0741
991.2607, 240.3773
991.7428, 254.0105
992.2249, 260.2505
992.7070, 253.2857
993.1891, 240.6565
993.6713, 236.5747
994.1534, 239.4718
994.6355, 242.2146
995.1176, 243.3832
995.5997, 243.2876
996.0818, 239.9678
996.5640, 236.8631
997.0461, 238.0875
997.5282, 245.7532
998.0103, 249.0392
998.4924, 246.5712
998.9745, 243.9473
999.4567, 247.1279
999.9388, 252.4497
1000.421, 248.4396
1000.903, 237.2683
1001.385, 231.0807
1001.867, 240.1907
1002.349, 251.0341
1002.831, 261.7559
1003.314, 269.2667
1003.796, 262.7875
1004.278, 240.2749
1004.760, 227.5354
1005.242, 232.4085
1005.724, 242.3276
1006.206, 242.0680
1006.688, 237.3258
1007.171, 236.5292
1007.653, 243.3505
1008.135, 248.6288
1008.617, 251.7585
1009.099, 252.5648
1009.581, 250.4274
1010.063, 245.5707
1010.545, 239.4804
1011.027, 232.5306
1011.510, 229.4563
1011.992, 239.9376
1012.474, 249.4070
1012.956, 244.9766
1013.438, 230.3669
1013.920, 221.8599
1014.402, 220.2674
1014.884, 224.8217
1015.367, 237.4861
1015.849, 251.9225
1016.331, 257.0668
1016.813, 256.3579
1017.295, 258.2160
1017.777, 266.3036
1018.259, 270.4825
1018.741, 263.2439
1019.223, 253.4547
1019.706, 246.0138
1020.188, 240.8216
1020.670, 243.0298
1021.152, 253.0859
1021.634, 260.6682
1022.116, 255.7231
1022.598, 247.1500
1023.080, 244.7781
1023.563, 246.9807
1024.045, 247.4255
1024.527, 241.6417
1025.009, 239.2245
1025.491, 242.9145
1025.973, 248.6571
1026.455, 250.3077
1026.937, 248.3128
1027.419, 243.1071
1027.901, 233.7143
1028.384, 227.9591
1028.866, 235.4699
1029.348, 245.1316
1029.830, 246.6176
1030.312, 238.9575
1030.794, 241.1782
1031.276, 255.5581
1031.758, 265.7901
1032.241, 258.1195
1032.723, 243.8403
1033.205, 239.8326
1033.687, 243.4115
1034.169, 247.2093
1034.651, 250.9851
1035.133, 251.1337
1035.615, 243.8967
1036.098, 236.4323
1036.580, 240.8189
1037.062, 255.0992
1037.544, 265.5474
1038.026, 270.5393
1038.508, 270.0172
1038.990, 255.0621
1039.472, 241.4395
1039.954, 245.5731
1040.437, 268.4964
1040.919, 278.5005
1041.401, 272.6306
1041.883, 265.5665
1042.365, 263.7537
1042.847, 263.9430
1043.329, 259.4214
1043.811, 252.2533
1044.293, 247.1016
1044.776, 245.2272
1045.258, 246.2834
1045.740, 251.5390
1046.222, 258.2048
1046.704, 266.1010
1047.186, 274.6999
1047.668, 267.9491
1048.150, 245.1535
1048.633, 227.0255
1049.115, 234.0107
1049.597, 248.0764
1050.079, 256.7513
1050.561, 259.5471
1051.043, 261.1549
1051.525, 261.5626
1052.007, 260.6655
1052.490, 257.5805
1052.972, 254.8164
1053.454, 258.0201
1053.936, 264.3091
1054.418, 268.0711
1054.900, 267.5401
1055.382, 264.9862
1055.864, 258.3587
1056.346, 252.6030
1056.828, 250.8306
1057.311, 252.9231
1057.793, 257.7914
1058.275, 265.1856
1058.757, 270.7056
1059.239, 270.4131
1059.721, 268.5324
1060.203, 269.2951
1060.685, 270.5902
1061.168, 265.8174
1061.650, 251.2772
1062.132, 243.0651
1062.614, 244.4586
1063.096, 249.1749
1063.578, 249.6031
1064.060, 248.0414
1064.542, 248.8882
1065.025, 253.1285
1065.507, 254.9630
1065.989, 250.4182
1066.471, 245.5769
1066.953, 241.6774
1067.435, 239.5553
1067.917, 244.8294
1068.399, 256.0989
1068.881, 264.5290
1069.364, 266.6652
1069.846, 264.7332
1070.328, 257.0099
1070.810, 247.5892
1071.292, 241.9762
1071.774, 241.3061
1072.256, 239.5168
1072.738, 235.9141
1073.220, 235.0032
1073.703, 243.3917
1074.185, 254.9514
1074.667, 261.4375
1075.149, 263.3514
1075.631, 265.8143
1076.113, 275.5159
1076.595, 276.5293
1077.077, 262.0623
1077.559, 242.4534
1078.042, 238.5629
1078.524, 245.4865
1079.006, 246.7915
1079.488, 237.8879
1079.970, 229.4047
1080.452, 224.2072
1080.934, 224.1541
1081.416, 231.3952
1081.899, 245.3409
1082.381, 254.8623
1082.863, 259.8795
1083.345, 262.7882
1083.827, 265.6340
1084.309, 265.8697
1084.791, 256.1212
1085.273, 243.4440
1085.755, 241.3703
1086.238, 258.3506
1086.720, 271.0910
1087.202, 279.7211
1087.684, 281.4353
1088.166, 267.2881
1088.648, 246.7326
1089.130, 239.0235
1089.612, 243.9417
1090.094, 249.2086
1090.577, 254.0104
1091.059, 252.8205
1091.541, 240.3017
1092.023, 224.4470
1092.505, 224.5712
1092.987, 237.7661
1093.469, 248.0075
1093.951, 251.4467
1094.434, 252.9262
1094.916, 255.5412
1095.398, 257.6074
1095.880, 257.8441
1096.362, 256.2825
1096.844, 252.6383
1097.326, 246.6985
1097.808, 241.1864
1098.291, 234.8623
1098.773, 232.6540
1099.255, 246.2739
1099.737, 266.5256
1100.219, 276.7951
1100.701, 265.7878
1101.183, 259.7256
1101.665, 260.7795
1102.147, 262.3361
1102.630, 255.7770
1103.112, 246.0139
1103.594, 245.2169
1104.076, 252.4498
1104.558, 257.0972
1105.040, 253.4717
1105.522, 247.8031
1106.004, 240.4928
1106.486, 233.5288
1106.969, 231.2155
1107.451, 233.0164
1107.933, 236.3436
1108.415, 240.9408
1108.897, 245.1275
1109.379, 250.2688
1109.861, 252.2582
1110.343, 246.1510
1110.826, 233.1534
1111.308, 226.4946
1111.790, 226.3519
1112.272, 230.0676
1112.754, 237.9677
1113.236, 246.9482
1113.718, 256.3948
1114.200, 263.7620
1114.682, 264.6032
1115.165, 253.5076
1115.647, 248.7350
1116.129, 251.9386
1116.611, 256.0462
1117.093, 255.6131
1117.575, 252.4789
1118.057, 249.0715
1118.539, 245.7779
1119.021, 243.7886
1119.504, 244.3680
1119.986, 245.2126
1120.468, 246.1156
1120.950, 246.9603
1121.432, 247.9424
1121.914, 248.7346
1122.396, 247.1781
1122.878, 243.0250
1123.361, 241.7350
1123.843, 251.3875
1124.325, 258.9706
1124.807, 258.2111
1125.289, 251.1585
1125.771, 242.8537
1126.253, 233.6854
1126.735, 228.4780
1127.218, 228.6558
1127.700, 232.8835
1128.182, 245.6734
1128.664, 258.1610
1129.146, 260.0002
1129.628, 250.1380
1130.110, 249.5379
1130.592, 259.5416
1131.074, 264.5432
1131.557, 251.1053
1132.039, 234.1420
1132.521, 232.4589
1133.003, 239.4021
1133.485, 243.1611
1133.967, 239.6127
1134.449, 238.0140
1134.931, 239.6671
1135.413, 239.4673
1135.896, 227.7140
1136.378, 213.8534
1136.860, 217.1617
1137.342, 234.4352
1137.824, 247.5293
1138.306, 247.5794
1138.788, 246.7742
1139.270, 246.2886
1139.752, 246.6919
1140.235, 250.2463
1140.717, 255.1742
1141.199, 256.0414
1141.681, 252.0530
1142.163, 247.8680
1142.645, 244.8870
1143.127, 243.1248
1143.609, 242.6295
1144.092, 243.2606
1144.574, 245.7759
1145.056, 249.4604
1145.538, 249.2884
1146.020, 242.4464
1146.502, 236.6741
1146.984, 240.1698
1147.466, 243.8775
1147.948, 239.6194
1148.431, 227.7791
1148.913, 224.0452
1149.395, 228.2395
1149.877, 232.9949
1150.359, 233.7520
1150.841, 234.9055
1151.323, 242.5238
1151.805, 251.4869
1152.287, 254.3454
1152.770, 249.6807
1153.252, 243.0084
1153.734, 233.8308
1154.216, 226.5370
1154.698, 226.9346
1155.180, 229.0129
1155.662, 223.9965
1156.144, 215.2743
1156.627, 215.0116
1157.109, 228.2131
1157.591, 238.3810
1158.073, 244.0964
1158.555, 245.5954
1159.037, 241.9521
1159.519, 235.0082
1160.001, 225.7846
1160.484, 214.8759
1160.966, 208.0505
1161.448, 205.7315
1161.930, 208.9678
1162.412, 219.8858
1162.894, 232.8833
1163.376, 239.9958
1163.858, 241.8915
1164.340, 237.7891
1164.823, 226.0343
1165.305, 221.3515
1165.787, 232.9903
1166.269, 244.4349
1166.751, 250.1101
1167.233, 250.6753
1167.715, 243.9198
1168.197, 233.3620
1168.679, 231.0690
1169.162, 246.1907
1169.644, 256.1253
1170.126, 250.7291
1170.608, 239.7761
1171.090, 225.1051
1171.572, 209.2677
1172.054, 211.8764
1172.536, 229.4881
1173.019, 243.4861
1173.501, 243.7127
1173.983, 240.0368
1174.465, 233.5855
1174.947, 227.0852
1175.429, 222.4277
1175.911, 219.7014
1176.393, 221.9533
1176.875, 228.8784
1177.358, 235.4893
1177.840, 238.0264
1178.322, 239.9503
1178.804, 245.4513
1179.286, 250.4109
1179.768, 246.5108
1180.250, 233.5874
1180.732, 223.8125
1181.214, 218.3260
1181.697, 218.3955
1182.179, 229.6455
1182.661, 242.5638
1183.143, 252.8653
1183.625, 258.9046
1184.107, 253.4218
1184.589, 235.1043
1185.071, 226.4557
1185.554, 233.4078
1186.036, 240.8800
1186.518, 232.1077
1187.000, 219.3409
1187.482, 213.1602
1187.964, 213.8419
1188.446, 218.7035
1188.928, 228.6340
1189.411, 234.7394
1189.893, 233.0780
1190.375, 229.9382
1190.857, 230.9848
1191.339, 234.9927
1191.821, 242.5828
1192.303, 255.0777
1192.785, 255.0674
1193.267, 240.0406
1193.750, 229.1031
1194.232, 232.3440
1194.714, 241.9900
1195.196, 255.9129
1195.678, 267.2256
1196.160, 263.2433
1196.642, 233.2435
1197.124, 220.6623
1197.606, 228.3896
1198.089, 237.9246
1198.571, 236.4415
1199.053, 230.7034
1199.535, 230.1732
1200.017, 231.7422
1200.499, 228.1744
1200.981, 212.2862
1201.463, 206.6863
1201.945, 213.6822
1202.428, 223.2725
1202.910, 227.5101
1203.392, 229.3514
1203.874, 234.5229
1204.356, 240.8976
1204.838, 239.8033
1205.320, 223.4067
1205.802, 216.7334
1206.285, 223.8034
1206.767, 234.0024
1207.249, 235.3803
1207.731, 233.7280
1208.213, 237.4418
1208.695, 246.0969
1209.177, 253.3348
1209.659, 259.2326
1210.141, 261.4991
1210.624, 259.2769
1211.106, 254.6835
1211.588, 246.6559
1212.070, 239.8882
1212.552, 242.9882
1213.034, 256.3322
1213.516, 265.3780
1213.998, 268.6730
1214.480, 267.6467
1214.963, 261.5088
1215.445, 254.0271
1215.927, 250.6349
1216.409, 249.4593
1216.891, 248.0428
1217.373, 246.0552
1217.855, 242.8090
1218.337, 236.6279
1218.820, 234.2133
1219.302, 239.3912
1219.784, 246.4626
1220.266, 244.2359
1220.748, 238.7941
1221.230, 240.9560
1221.712, 256.1310
1222.194, 260.4231
1222.677, 249.4929
1223.159, 238.4032
1223.641, 233.7551
1224.123, 232.8865
1224.605, 231.7837
1225.087, 231.3092
1225.569, 233.1680
1226.051, 239.2484
1226.533, 243.3533
1227.016, 245.0094
1227.498, 246.0845
1227.980, 248.0956
1228.462, 249.6979
1228.944, 247.6420
1229.426, 243.9951
1229.908, 242.7386
1230.390, 246.9923
1230.872, 248.4660
1231.355, 246.9546
1231.837, 243.4671
1232.319, 236.5817
1232.801, 229.7588
1233.283, 226.0551
1233.765, 226.3559
1234.247, 233.9091
1234.729, 256.7024
1235.212, 265.0382
1235.694, 255.7156
1236.176, 244.4471
1236.658, 243.8573
1237.140, 248.4169
1237.622, 253.8844
1238.104, 259.0133
1238.586, 260.4325
1239.068, 255.7709
1239.551, 256.2714
1240.033, 263.7870
1240.515, 269.4737
1240.997, 262.3214
1241.479, 252.2578
1241.961, 250.3367
1242.443, 254.2810
1242.925, 254.1920
1243.407, 247.7725
1243.890, 247.9529
1244.372, 257.0159
1244.854, 265.2525
1245.336, 261.0123
1245.818, 254.0845
1246.300, 251.9052
1246.782, 254.8275
1247.264, 263.3683
1247.747, 279.6213
1248.229, 281.0851
1248.711, 262.5172
1249.193, 245.4718
1249.675, 253.5122
1250.157, 266.0693
1250.639, 264.7514
1251.121, 254.0317
1251.604, 251.8056
1252.086, 258.4614
1252.568, 261.8453
1253.050, 259.7683
1253.532, 254.0633
1254.014, 238.0319
1254.496, 226.6816
1254.978, 236.6862
1255.460, 258.9259
1255.943, 262.1425
1256.425, 247.8940
1256.907, 239.6770
1257.389, 243.0483
1257.871, 248.1259
1258.353, 250.7110
1258.835, 250.0194
1259.317, 244.4408
1259.799, 236.0426
1260.281, 230.1518
1260.764, 227.6015
1261.246, 235.5796
1261.728, 258.8690
1262.210, 276.5669
1262.692, 275.2595
1263.174, 267.7921
1263.656, 258.1564
1264.138, 248.8461
1264.621, 249.9930
1265.103, 258.2326
1265.585, 262.7828
1266.067, 261.1877
1266.549, 253.8648
1267.031, 231.0209
1267.513, 215.9229
1267.995, 220.1682
1268.478, 236.9464
1268.960, 255.0991
1269.442, 271.0074
1269.924, 274.1335
1270.406, 256.9962
1270.888, 244.3231
1271.370, 239.9380
1271.852, 239.7665
1272.334, 243.0462
1272.817, 248.0006
1273.299, 251.1935
1273.781, 253.5021
1274.263, 257.1302
1274.745, 264.4138
1275.227, 266.1310
##END=



