##NAMES=Cattierite
##RRUFFID=R061039
##IDEAL CHEMISTRY=Co^2+^(S_2_)^2-^
##LOCALITY=Shinkolobwe, Belgian Congo
##OWNER=RRUFF
##SOURCE=Michael Scott
##DESCRIPTION=Pinkish silver metallic
##STATUS=The identification of this mineral has been confirmed only by single crystal X-ray diffraction.
##URL=rruff.info/R061039
123.4562, 769.3409
123.9384, 766.9449
124.4205, 775.5236
124.9026, 791.7055
125.3847, 811.6373
125.8668, 835.3779
126.3489, 862.9666
126.8311, 898.1559
127.3132, 937.4617
127.7953, 974.2743
128.2774, 1005.060
128.7595, 1031.942
129.2416, 1060.281
129.7238, 1092.794
130.2059, 1121.199
130.6880, 1143.726
131.1701, 1159.262
131.6522, 1162.952
132.1343, 1147.923
132.6165, 1117.475
133.0986, 1087.538
133.5807, 1059.546
134.0628, 1030.771
134.5449, 999.2078
135.0270, 965.6436
135.5092, 932.3528
135.9913, 898.3646
136.4734, 864.0004
136.9555, 839.5917
137.4376, 834.4504
137.9197, 831.9011
138.4019, 824.1471
138.8840, 811.4736
139.3661, 797.6150
139.8482, 785.5363
140.3303, 775.1243
140.8124, 766.9940
141.2946, 756.0271
141.7767, 751.6928
142.2588, 762.4512
142.7409, 786.7474
143.2230, 813.2793
143.7051, 828.5645
144.1873, 828.9011
144.6694, 831.3551
145.1515, 836.6692
145.6336, 843.9315
146.1157, 854.5799
146.5978, 867.9790
147.0800, 880.2835
147.5621, 885.4831
148.0442, 878.9281
148.5263, 876.5006
149.0084, 885.4788
149.4906, 893.3560
149.9727, 889.0936
150.4548, 871.4101
150.9369, 850.4771
151.4190, 844.0997
151.9011, 869.1684
152.3833, 877.1262
152.8654, 853.6775
153.3475, 823.6053
153.8296, 807.9545
154.3117, 812.1730
154.7938, 824.4296
155.2760, 822.8137
155.7581, 794.6075
156.2402, 770.6096
156.7223, 749.0444
157.2044, 732.5461
157.6865, 725.7189
158.1687, 729.7650
158.6508, 738.6495
159.1329, 739.5378
159.6150, 718.6911
160.0971, 707.2010
160.5792, 714.8432
161.0614, 727.7413
161.5435, 729.7774
162.0256, 714.8150
162.5077, 691.4863
162.9898, 679.7981
163.4719, 695.3333
163.9541, 704.7283
164.4362, 702.6801
164.9183, 695.3178
165.4004, 689.4011
165.8825, 687.6133
166.3646, 688.9520
166.8468, 690.9817
167.3289, 697.6457
167.8110, 700.0838
168.2931, 694.2799
168.7752, 684.6337
169.2573, 677.8825
169.7395, 677.1619
170.2216, 678.7753
170.7037, 672.1635
171.1858, 646.0163
171.6679, 627.1553
172.1500, 622.8047
172.6322, 627.4158
173.1143, 633.5702
173.5964, 638.5128
174.0785, 641.7615
174.5606, 641.6020
175.0427, 635.0170
175.5249, 629.7175
176.0070, 628.5662
176.4891, 629.5016
176.9712, 628.5241
177.4533, 623.5030
177.9354, 616.7034
178.4176, 615.6189
178.8997, 630.0873
179.3818, 634.9907
179.8639, 615.2736
180.3460, 582.5661
180.8281, 559.5320
181.3103, 557.2553
181.7924, 566.8884
182.2745, 562.8854
182.7566, 534.0046
183.2387, 512.7842
183.7208, 512.0778
184.2030, 525.1957
184.6851, 540.7264
185.1672, 555.1309
185.6493, 567.1473
186.1314, 572.8740
186.6135, 570.8846
187.0957, 567.0705
187.5778, 563.8121
188.0599, 559.9374
188.5420, 551.6616
189.0241, 535.9024
189.5062, 518.0216
189.9884, 512.4022
190.4705, 524.9557
190.9526, 534.4459
191.4347, 531.0261
191.9168, 520.1421
192.3989, 513.1904
192.8811, 515.2084
193.3632, 521.7181
193.8453, 522.5693
194.3274, 515.3625
194.8095, 509.8040
195.2916, 510.3077
195.7738, 514.4532
196.2559, 517.9177
196.7380, 519.5477
197.2201, 519.0669
197.7022, 514.5056
198.1843, 503.2018
198.6665, 496.2025
199.1486, 500.3041
199.6307, 510.5041
200.1128, 517.8185
200.5949, 519.2228
201.0770, 516.8453
201.5592, 512.7906
202.0413, 504.6838
202.5234, 502.7148
203.0055, 516.8923
203.4876, 537.8426
203.9697, 548.8115
204.4519, 544.1066
204.9340, 530.9269
205.4161, 519.1498
205.8982, 507.3727
206.3803, 501.2794
206.8624, 507.1797
207.3446, 518.4128
207.8267, 525.0264
208.3088, 524.4378
208.7909, 518.8535
209.2730, 508.8307
209.7551, 492.2281
210.2373, 483.4179
210.7194, 495.9973
211.2015, 514.4785
211.6836, 513.8852
212.1657, 486.8731
212.6478, 455.0821
213.1300, 449.0180
213.6121, 472.2804
214.0942, 489.0402
214.5763, 492.1835
215.0584, 486.7764
215.5405, 475.2150
216.0227, 457.4536
216.5048, 442.7290
216.9869, 443.6274
217.4690, 462.3093
217.9511, 476.3235
218.4332, 481.9324
218.9154, 482.9292
219.3975, 482.7001
219.8796, 481.7364
220.3617, 479.3253
220.8438, 473.9188
221.3259, 464.9989
221.8081, 459.7610
222.2902, 461.4791
222.7723, 464.9604
223.2544, 465.5555
223.7365, 463.0729
224.2186, 460.9192
224.7008, 462.1175
225.1829, 466.9536
225.6650, 471.2477
226.1471, 478.5472
226.6292, 482.5365
227.1113, 475.7875
227.5935, 459.9439
228.0756, 446.0098
228.5577, 443.0941
229.0398, 450.6948
229.5219, 452.9895
230.0040, 442.6170
230.4862, 434.2418
230.9683, 438.1883
231.4504, 451.5009
231.9325, 462.8600
232.4146, 464.7002
232.8967, 458.2706
233.3789, 454.9356
233.8610, 456.0864
234.3431, 458.1797
234.8252, 460.9521
235.3073, 463.7306
235.7894, 465.1992
236.2716, 464.6209
236.7537, 462.2303
237.2358, 458.9087
237.7179, 452.2871
238.2000, 447.5949
238.6821, 445.9451
239.1643, 446.9750
239.6464, 451.4688
240.1285, 460.2278
240.6106, 469.9826
241.0927, 471.5292
241.5748, 452.4777
242.0570, 440.6298
242.5391, 443.5831
243.0212, 452.6743
243.5033, 457.9927
243.9854, 456.0878
244.4675, 450.1444
244.9497, 445.9381
245.4318, 442.7527
245.9139, 442.9632
246.3960, 451.3418
246.8781, 460.3159
247.3602, 462.8202
247.8424, 457.4352
248.3245, 448.2514
248.8066, 440.5099
249.2887, 433.5859
249.7708, 430.3113
250.2529, 432.9505
250.7351, 436.9980
251.2172, 439.5394
251.6993, 440.3417
252.1814, 441.0152
252.6635, 443.3629
253.1456, 447.8195
253.6278, 451.8022
254.1099, 458.6719
254.5920, 462.1199
255.0741, 457.0556
255.5562, 445.5306
256.0384, 433.7275
256.5205, 426.3641
257.0026, 423.4451
257.4847, 424.8745
257.9668, 439.3301
258.4489, 449.5403
258.9311, 447.6262
259.4132, 438.4537
259.8953, 431.6862
260.3774, 434.0793
260.8595, 443.3283
261.3416, 446.9010
261.8238, 442.6432
262.3059, 434.8552
262.7880, 419.1019
263.2701, 402.4074
263.7522, 393.7915
264.2343, 397.9573
264.7165, 410.2433
265.1986, 419.6912
265.6807, 425.0005
266.1628, 430.2030
266.6449, 437.2710
267.1270, 444.0291
267.6092, 448.8700
268.0913, 451.3246
268.5734, 451.1697
269.0555, 446.6934
269.5376, 436.1396
270.0197, 429.3063
270.5019, 433.0986
270.9840, 437.9312
271.4661, 436.9808
271.9482, 429.7457
272.4303, 422.8994
272.9124, 424.4852
273.3946, 434.2419
273.8767, 439.1124
274.3588, 434.2938
274.8409, 427.6684
275.3230, 423.2137
275.8051, 421.2676
276.2873, 422.6873
276.7694, 429.4182
277.2515, 440.0922
277.7336, 451.2828
278.2157, 465.5622
278.6978, 474.4368
279.1800, 466.5076
279.6621, 448.5580
280.1442, 436.7342
280.6263, 440.5500
281.1084, 452.0654
281.5905, 459.5128
282.0727, 462.2653
282.5548, 465.4504
283.0369, 471.6541
283.5190, 480.6922
284.0011, 492.1740
284.4832, 510.1290
284.9654, 526.1658
285.4475, 531.3613
285.9296, 527.4124
286.4117, 525.2792
286.8938, 530.0744
287.3759, 539.6476
287.8581, 548.2256
288.3402, 553.3959
288.8223, 562.3503
289.3044, 581.3245
289.7865, 605.8102
290.2686, 628.4094
290.7508, 647.8650
291.2329, 660.3750
291.7150, 656.7637
292.1971, 630.1720
292.6792, 611.3848
293.1613, 613.1290
293.6435, 619.9487
294.1256, 614.6796
294.6077, 594.7637
295.0898, 571.0477
295.5719, 554.9774
296.0540, 548.3602
296.5362, 541.4362
297.0183, 532.5246
297.5004, 524.7775
297.9825, 522.7871
298.4646, 524.2675
298.9467, 521.1560
299.4289, 506.6622
299.9110, 481.5604
300.3931, 461.4151
300.8752, 444.0932
301.3573, 433.7836
301.8394, 434.7036
302.3216, 442.6072
302.8037, 452.3779
303.2858, 461.7080
303.7679, 469.1268
304.2500, 469.6308
304.7321, 453.6521
305.2143, 446.2580
305.6964, 459.7840
306.1785, 476.0587
306.6606, 477.6346
307.1427, 460.7522
307.6248, 437.8571
308.1070, 425.8526
308.5891, 426.7019
309.0712, 430.4561
309.5533, 444.0989
310.0354, 454.3868
310.5175, 451.7155
310.9997, 438.2132
311.4818, 425.5306
311.9639, 424.6589
312.4460, 434.0253
312.9281, 438.5459
313.4102, 436.5446
313.8924, 431.9384
314.3745, 424.9614
314.8566, 417.2620
315.3387, 411.7273
315.8208, 408.5120
316.3029, 409.0755
316.7851, 420.1389
317.2672, 445.0083
317.7493, 459.2814
318.2314, 440.1946
318.7135, 408.4216
319.1956, 395.1094
319.6778, 411.4265
320.1599, 428.9102
320.6420, 419.8028
321.1241, 391.7306
321.6062, 382.9719
322.0883, 413.4358
322.5705, 454.7855
323.0526, 457.9108
323.5347, 417.5781
324.0168, 389.5117
324.4989, 400.3578
324.9810, 427.9824
325.4632, 444.4126
325.9453, 445.0295
326.4274, 438.9851
326.9095, 434.0439
327.3916, 430.2613
327.8737, 429.3987
328.3559, 433.9758
328.8380, 439.1090
329.3201, 443.4138
329.8022, 446.0926
330.2843, 445.1105
330.7664, 438.7460
331.2486, 428.2152
331.7307, 420.3421
332.2128, 417.2152
332.6949, 414.3415
333.1770, 411.0660
333.6591, 407.7789
334.1413, 404.6690
334.6234, 401.8541
335.1055, 399.9887
335.5876, 400.3100
336.0697, 403.6091
336.5518, 407.4304
337.0340, 416.2536
337.5161, 421.9743
337.9982, 417.5625
338.4803, 404.2545
338.9624, 390.1128
339.4445, 381.5070
339.9267, 378.3767
340.4088, 380.4430
340.8909, 394.0579
341.3730, 404.2622
341.8551, 402.1584
342.3372, 393.2565
342.8194, 387.6556
343.3015, 391.6440
343.7836, 399.0093
344.2657, 383.7259
344.7478, 402.2231
345.2299, 412.8721
345.7121, 416.0950
346.1942, 389.6486
346.6763, 401.5137
347.1584, 398.0253
347.6405, 393.9073
348.1227, 411.1647
348.6048, 389.0336
349.0869, 405.9520
349.5690, 407.2825
350.0511, 415.7471
350.5332, 408.7635
351.0154, 406.5514
351.4975, 419.7925
351.9796, 424.4770
352.4617, 409.0256
352.9438, 405.1399
353.4259, 396.0815
353.9081, 389.7829
354.3902, 392.5915
354.8723, 403.3993
355.3544, 409.6477
355.8365, 407.8423
356.3186, 406.4840
356.8008, 409.7921
357.2829, 414.5825
357.7650, 414.9893
358.2471, 408.6392
358.7292, 400.0338
359.2113, 398.9276
359.6935, 416.2818
360.1756, 420.5731
360.6577, 397.6595
361.1398, 374.5774
361.6219, 371.3289
362.1040, 387.0435
362.5862, 405.5963
363.0683, 411.6322
363.5504, 405.5608
364.0325, 405.1112
364.5146, 415.4599
364.9967, 424.5999
365.4789, 427.9842
365.9610, 427.5442
366.4431, 425.7115
366.9252, 422.4957
367.4073, 420.4452
367.8894, 424.9418
368.3716, 436.8376
368.8537, 445.7995
369.3358, 443.2336
369.8179, 440.5292
370.3000, 453.4842
370.7821, 484.9158
371.2643, 509.7307
371.7464, 505.6010
372.2285, 486.6727
372.7106, 483.5532
373.1927, 502.3616
373.6748, 527.2448
374.1570, 543.4929
374.6391, 551.4240
375.1212, 566.0282
375.6033, 595.1000
376.0854, 624.4336
376.5675, 642.6834
377.0497, 653.7232
377.5318, 670.5367
378.0139, 700.6418
378.4960, 739.0509
378.9781, 770.3712
379.4602, 782.7898
379.9424, 803.3760
380.4245, 838.7986
380.9066, 879.0412
381.3887, 918.2476
381.8708, 954.0243
382.3529, 982.7438
382.8351, 997.7214
383.3172, 995.6494
383.7993, 1007.222
384.2814, 1049.831
384.7635, 1088.743
385.2456, 1113.508
385.7278, 1126.349
386.2099, 1132.470
386.6920, 1134.290
387.1741, 1131.264
387.6562, 1121.897
388.1383, 1105.611
388.6205, 1085.700
389.1026, 1062.701
389.5847, 1036.635
390.0668, 1005.817
390.5489, 969.5151
391.0310, 936.7709
391.5132, 916.5645
391.9953, 903.6285
392.4774, 885.9756
392.9595, 861.4981
393.4416, 833.6333
393.9237, 802.5224
394.4059, 769.1537
394.8880, 745.7118
395.3701, 741.8846
395.8522, 739.7177
396.3343, 727.9489
396.8164, 709.5192
397.2986, 692.5880
397.7807, 680.9135
398.2628, 672.9619
398.7449, 665.1134
399.2270, 660.6456
399.7091, 651.1376
400.1913, 632.2737
400.6734, 611.6176
401.1555, 592.4961
401.6376, 576.5948
402.1197, 567.0976
402.6018, 568.8976
403.0840, 581.5754
403.5661, 585.2612
404.0482, 572.5319
404.5303, 560.6505
405.0124, 557.5591
405.4945, 557.6863
405.9767, 552.7728
406.4588, 538.8204
406.9409, 523.0716
407.4230, 515.7562
407.9051, 516.7539
408.3872, 515.0305
408.8694, 504.8540
409.3515, 495.0554
409.8336, 497.4398
410.3157, 511.1906
410.7978, 519.3276
411.2799, 512.3309
411.7621, 498.7895
412.2442, 486.7605
412.7263, 477.1610
413.2084, 472.4049
413.6905, 475.3200
414.1726, 484.0421
414.6548, 488.2953
415.1369, 485.5457
415.6190, 482.3322
416.1011, 481.1767
416.5832, 479.7072
417.0653, 474.4823
417.5475, 464.8552
418.0296, 453.6694
418.5117, 443.8049
418.9938, 434.3709
419.4759, 430.7390
419.9580, 437.5207
420.4402, 445.6950
420.9223, 456.4796
421.4044, 465.9637
421.8865, 466.0703
422.3686, 450.2667
422.8507, 428.5540
423.3329, 422.3749
423.8150, 434.8253
424.2971, 442.8259
424.7792, 433.8131
425.2613, 422.8998
425.7434, 427.7379
426.2256, 449.1763
426.7077, 464.5883
427.1898, 460.1282
427.6719, 443.7243
428.1540, 423.6681
428.6361, 400.7587
429.1183, 387.0938
429.6004, 394.3305
430.0825, 418.4963
430.5646, 431.7298
431.0467, 426.0471
431.5288, 420.3099
432.0110, 423.3310
432.4931, 428.2275
432.9752, 423.9724
433.4573, 407.8655
433.9394, 388.6100
434.4215, 378.2552
434.9037, 379.7201
435.3858, 377.9294
435.8679, 370.9559
436.3500, 362.6439
436.8321, 351.6865
437.3142, 340.6844
437.7964, 334.5802
438.2785, 336.5183
438.7606, 342.9699
439.2427, 346.6753
439.7248, 346.6953
440.2069, 350.8783
440.6891, 364.0742
441.1712, 380.0030
441.6533, 393.1020
442.1354, 403.3313
442.6175, 410.7965
443.0996, 419.3954
443.5818, 423.3774
444.0639, 410.2131
444.5460, 380.4068
445.0281, 354.0878
445.5102, 344.3873
445.9923, 348.6294
446.4745, 354.0261
446.9566, 363.9485
447.4387, 370.5396
447.9208, 369.8093
448.4029, 366.4166
448.8850, 365.1338
449.3672, 367.0050
449.8493, 370.4034
450.3314, 373.7919
450.8135, 377.2432
451.2956, 379.7442
451.7777, 380.3485
452.2599, 381.1287
452.7420, 384.8683
453.2241, 388.5095
453.7062, 386.7473
454.1883, 376.6889
454.6704, 365.3191
455.1526, 361.3294
455.6347, 364.2206
456.1168, 367.6405
456.5989, 370.7966
457.0811, 373.3308
457.5632, 374.8253
458.0453, 375.3858
458.5274, 375.1576
459.0095, 372.7882
459.4916, 370.7845
459.9738, 372.7800
460.4559, 377.0557
460.9380, 377.2831
461.4201, 369.9200
461.9022, 359.1127
462.3843, 354.3721
462.8665, 362.5705
463.3486, 364.8344
463.8307, 353.1490
464.3128, 342.6134
464.7949, 345.1323
465.2770, 358.2063
465.7592, 370.7430
466.2413, 374.8262
466.7234, 372.4380
467.2055, 369.3445
467.6876, 363.6004
468.1697, 362.9930
468.6519, 377.4856
469.1340, 393.7890
469.6161, 398.9162
470.0982, 391.1487
470.5803, 382.2251
471.0624, 377.4445
471.5446, 376.1815
472.0267, 379.9940
472.5088, 388.9857
472.9909, 392.3775
473.4730, 380.2660
473.9551, 356.3164
474.4373, 344.3794
474.9194, 350.8862
475.4015, 358.8593
475.8836, 368.0738
476.3657, 375.4858
476.8478, 376.2739
477.3300, 370.3801
477.8121, 363.9814
478.2942, 364.2583
478.7763, 371.4102
479.2584, 374.5083
479.7405, 371.5384
480.2227, 367.2124
480.7048, 359.9591
481.1869, 353.6243
481.6690, 354.5007
482.1511, 365.4794
482.6332, 376.9004
483.1154, 378.0756
483.5975, 371.8717
484.0796, 369.7581
484.5617, 374.2483
485.0438, 380.8786
485.5259, 388.4825
486.0081, 395.9117
486.4902, 392.1472
486.9723, 362.1212
487.4544, 336.8750
487.9365, 331.7927
488.4186, 339.7256
488.9008, 350.2029
489.3829, 359.5068
489.8650, 368.0059
490.3471, 377.3079
490.8292, 389.5172
491.3113, 391.8058
491.7935, 369.6687
492.2756, 352.4036
492.7577, 353.0568
493.2398, 364.3723
493.7219, 373.8092
494.2040, 376.4333
494.6862, 375.9848
495.1683, 376.6353
495.6504, 378.2433
496.1325, 379.2594
496.6146, 378.8019
497.0967, 379.0429
497.5789, 384.1574
498.0610, 393.4574
498.5431, 396.2115
499.0252, 387.0013
499.5073, 375.3371
499.9894, 361.8572
500.4716, 350.5936
500.9537, 352.0250
501.4358, 370.0396
501.9179, 391.7043
502.4000, 394.4039
502.8821, 368.3781
503.3643, 357.0365
503.8464, 379.0795
504.3285, 397.4952
504.8106, 394.4596
505.2927, 378.8064
505.7748, 369.1090
506.2570, 375.0072
506.7391, 384.6061
507.2212, 380.6500
507.7033, 364.7141
508.1854, 354.2356
508.6675, 354.2274
509.1497, 358.0263
509.6318, 359.8120
510.1139, 359.5891
510.5960, 356.8982
511.0781, 345.3993
511.5602, 337.6836
512.0424, 344.5172
512.5245, 359.4083
513.0066, 369.8248
513.4887, 371.0614
513.9708, 367.2085
514.4529, 364.2747
514.9351, 362.5211
515.4172, 360.5968
515.8993, 357.7277
516.3814, 355.5171
516.8635, 352.5191
517.3456, 351.0137
517.8278, 356.3157
518.3099, 372.9189
518.7920, 389.0446
519.2741, 391.0919
519.7562, 381.1073
520.2383, 367.5605
520.7205, 349.9825
521.2026, 337.3683
521.6847, 341.0244
522.1668, 361.1687
522.6489, 372.9084
523.1310, 371.3392
523.6132, 366.7444
524.0953, 362.1911
524.5774, 357.5461
525.0595, 350.7414
525.5416, 341.6887
526.0237, 335.6292
526.5059, 340.3711
526.9880, 357.0169
527.4701, 370.4109
527.9522, 381.8377
528.4343, 387.9781
528.9164, 388.2915
529.3986, 382.9268
529.8807, 370.1180
530.3628, 347.0711
530.8449, 326.5036
531.3270, 316.6235
531.8091, 316.4659
532.2913, 327.8676
532.7734, 351.4400
533.2555, 371.0151
533.7376, 371.6796
534.2197, 356.0923
534.7018, 351.1360
535.1840, 371.7365
535.6661, 382.8897
536.1482, 368.2526
536.6303, 348.1954
537.1124, 343.1513
537.5945, 355.2591
538.0767, 372.7496
538.5588, 387.6760
539.0409, 399.0586
539.5230, 401.3679
540.0051, 392.3144
540.4872, 381.6901
540.9694, 371.5103
541.4515, 362.8688
541.9336, 358.0027
542.4157, 357.8251
542.8978, 355.5378
543.3799, 343.7728
543.8621, 331.8582
544.3442, 331.9839
544.8263, 342.3616
545.3084, 351.5777
545.7905, 353.2101
546.2726, 349.0244
546.7548, 343.1835
547.2369, 331.4671
547.7190, 326.6413
548.2011, 329.4916
548.6832, 338.3592
549.1653, 358.5341
549.6475, 384.2657
550.1296, 400.2758
550.6117, 395.0304
551.0938, 382.1108
551.5759, 382.8170
552.0580, 395.2046
552.5402, 400.1477
553.0223, 390.9230
553.5044, 377.4124
553.9865, 370.5321
554.4686, 371.1971
554.9507, 370.5809
555.4329, 362.2086
555.9150, 359.5699
556.3971, 375.4715
556.8792, 398.2205
557.3613, 410.1460
557.8434, 405.9630
558.3256, 394.0606
558.8077, 382.5753
559.2898, 371.4266
559.7719, 368.0394
560.2540, 378.5500
560.7361, 385.1703
561.2183, 371.0420
561.7004, 350.8773
562.1825, 346.0241
562.6646, 363.8486
563.1467, 379.6663
563.6288, 378.3994
564.1110, 369.6542
564.5931, 368.2528
565.0752, 374.1910
565.5573, 374.3979
566.0394, 358.6256
566.5215, 333.1079
567.0037, 322.6818
567.4858, 341.3071
567.9679, 350.3359
568.4500, 338.0715
568.9321, 324.2621
569.4142, 323.0198
569.8964, 331.8823
570.3785, 338.4645
570.8606, 333.8975
571.3427, 326.4915
571.8248, 328.6423
572.3069, 339.1858
572.7891, 350.0255
573.2712, 359.0129
573.7533, 367.1682
574.2354, 376.7334
574.7175, 388.6364
575.1996, 391.8300
575.6818, 377.0621
576.1639, 364.6696
576.6460, 364.1883
577.1281, 369.2882
577.6102, 372.0709
578.0923, 370.1316
578.5745, 364.7539
579.0566, 354.9919
579.5387, 341.9155
580.0208, 335.7876
580.5029, 338.2822
580.9850, 342.1610
581.4672, 343.9297
581.9493, 345.1346
582.4314, 348.6604
582.9135, 355.1844
583.3956, 361.5074
583.8777, 367.1426
584.3599, 371.8569
584.8420, 376.6246
585.3241, 380.3702
585.8062, 378.5103
586.2883, 367.9312
586.7704, 355.1279
587.2526, 356.5841
587.7347, 378.9173
588.2168, 388.9243
588.6989, 373.7572
589.1810, 357.6967
589.6631, 356.2720
590.1453, 363.7998
590.6274, 366.7975
591.1095, 360.2794
591.5916, 351.0437
592.0737, 340.3509
592.5558, 331.0999
593.0380, 328.9727
593.5201, 334.8619
594.0022, 346.2129
594.4843, 361.9351
594.9664, 380.9182
595.4485, 394.3971
595.9307, 403.2454
596.4128, 404.5874
596.8949, 391.4510
597.3770, 376.6045
597.8591, 369.8077
598.3412, 370.8428
598.8234, 373.2306
599.3055, 374.5433
599.7876, 374.3664
600.2697, 371.5141
600.7518, 366.4420
601.2339, 361.1155
601.7161, 355.8551
602.1982, 352.0129
602.6803, 350.9970
603.1624, 352.6981
603.6445, 358.4246
604.1266, 373.5026
604.6088, 385.8663
605.0909, 392.2775
605.5730, 394.4132
606.0551, 394.5045
606.5372, 392.9678
607.0193, 388.3168
607.5015, 375.8043
607.9836, 359.7014
608.4657, 351.9860
608.9478, 353.0760
609.4299, 358.3232
609.9120, 367.8411
610.3942, 377.4222
610.8763, 378.9421
611.3584, 369.0421
611.8405, 361.6146
612.3226, 353.5260
612.8047, 351.4052
613.2869, 364.1489
613.7690, 383.6900
614.2511, 396.8147
614.7332, 398.6871
615.2153, 394.1072
615.6974, 385.2292
616.1796, 373.6802
616.6617, 373.8199
617.1438, 389.7706
617.6259, 402.4830
618.1080, 399.7899
618.5901, 387.2565
619.0723, 378.5201
619.5544, 373.1651
620.0365, 372.0328
620.5186, 380.0330
621.0007, 388.2921
621.4828, 387.8079
621.9650, 382.2322
622.4471, 383.3885
622.9292, 397.9248
623.4113, 413.9705
623.8934, 408.4810
624.3755, 381.5273
624.8577, 365.8170
625.3398, 366.7563
625.8219, 373.9501
626.3040, 385.5323
626.7861, 397.5754
627.2682, 397.9377
627.7504, 376.6635
628.2325, 361.8947
628.7146, 366.1942
629.1967, 376.6190
629.6788, 383.5190
630.1609, 385.5488
630.6431, 382.3863
631.1252, 372.8767
631.6073, 362.7082
632.0894, 366.4807
632.5715, 386.0189
633.0536, 394.7424
633.5358, 384.0766
634.0179, 371.0256
634.5000, 368.1428
634.9821, 372.8453
635.4642, 376.7122
635.9464, 376.6474
636.4285, 379.5798
636.9106, 394.9839
637.3927, 409.7363
637.8748, 407.0276
638.3569, 389.1182
638.8391, 373.1092
639.3212, 370.6161
639.8033, 375.9575
640.2854, 375.1671
640.7675, 367.3264
641.2496, 361.3195
641.7318, 357.3594
642.2139, 357.5966
642.6960, 368.3719
643.1781, 385.4078
643.6602, 392.6621
644.1423, 379.8019
644.6245, 369.2351
645.1066, 370.0132
645.5887, 375.7737
646.0708, 381.2797
646.5529, 385.1616
647.0350, 386.1342
647.5172, 382.4235
647.9993, 377.5352
648.4814, 382.1368
648.9635, 397.7185
649.4456, 406.7520
649.9277, 404.9840
650.4099, 397.9992
650.8920, 386.3063
651.3741, 372.4531
651.8562, 368.0738
652.3383, 382.6945
652.8204, 395.5390
653.3026, 398.7868
653.7847, 398.5183
654.2668, 400.7032
654.7489, 405.6641
655.2310, 411.0362
655.7131, 415.7376
656.1953, 418.5445
656.6774, 416.2464
657.1595, 408.7150
657.6416, 399.3464
658.1237, 385.7200
658.6058, 377.3354
659.0880, 384.7956
659.5701, 405.1387
660.0522, 418.8869
660.5343, 426.7013
661.0164, 427.3022
661.4985, 416.3673
661.9807, 401.1829
662.4628, 385.6477
662.9449, 371.6955
663.4270, 362.0671
663.9091, 358.5357
664.3912, 359.8929
664.8734, 364.1720
665.3555, 371.4322
665.8376, 384.2341
666.3197, 405.3024
666.8018, 422.6345
667.2839, 426.8535
667.7661, 419.7457
668.2482, 410.4843
668.7303, 394.4576
669.2124, 382.9624
669.6945, 379.1203
670.1766, 378.3007
670.6588, 376.9817
671.1409, 375.8796
671.6230, 377.6962
672.1051, 383.8070
672.5872, 393.0041
673.0693, 409.8765
673.5515, 429.2495
674.0336, 426.9702
674.5157, 398.6761
674.9978, 370.4443
675.4799, 358.3316
675.9620, 360.3870
676.4442, 371.1713
676.9263, 406.4064
677.4084, 423.4308
677.8905, 404.9690
678.3726, 386.9736
678.8547, 392.5436
679.3369, 411.0985
679.8190, 420.0516
680.3011, 410.8810
680.7832, 396.6362
681.2653, 383.8607
681.7474, 374.7861
682.2296, 377.4180
682.7117, 390.2628
683.1938, 397.4054
683.6759, 389.6939
684.1580, 373.2800
684.6401, 359.4983
685.1223, 345.5086
685.6044, 344.4398
686.0865, 369.9610
686.5686, 391.5144
687.0507, 393.8832
687.5328, 386.8601
688.0150, 384.1652
688.4971, 388.5347
688.9792, 392.4390
689.4613, 391.3663
689.9434, 388.8947
690.4255, 389.5782
690.9077, 391.9791
691.3898, 390.1614
691.8719, 381.8984
692.3540, 374.2528
692.8361, 377.6799
693.3182, 392.1486
693.8004, 404.0479
694.2825, 412.6366
694.7646, 421.1172
695.2467, 434.0660
695.7288, 444.8203
696.2109, 443.6910
696.6931, 430.1967
697.1752, 415.4013
697.6573, 393.8495
698.1394, 379.2602
698.6215, 383.5448
699.1036, 396.8447
699.5858, 407.2241
700.0679, 411.2227
700.5500, 408.5250
701.0321, 393.7308
701.5142, 375.3882
701.9963, 382.4193
702.4785, 414.1077
702.9606, 425.4501
703.4427, 398.8155
703.9248, 366.1352
704.4069, 360.3581
704.8890, 380.7021
705.3712, 397.6483
705.8533, 417.3363
706.3354, 425.4102
706.8175, 410.0389
707.2996, 390.4612
707.7817, 380.9346
708.2639, 380.9641
708.7460, 383.7279
709.2281, 387.4613
709.7102, 390.0469
710.1923, 386.8004
710.6744, 381.4243
711.1566, 384.6697
711.6387, 396.9943
712.1208, 404.8039
712.6029, 397.8454
713.0850, 382.3500
713.5671, 376.4590
714.0493, 383.6442
714.5314, 389.0234
715.0135, 389.8155
715.4956, 391.2390
715.9777, 396.5577
716.4598, 404.1890
716.9420, 412.0100
717.4241, 420.9106
717.9062, 426.0179
718.3883, 424.9541
718.8704, 419.9509
719.3525, 408.3013
719.8347, 394.9623
720.3168, 392.0873
720.7989, 403.9570
721.2810, 418.6013
721.7631, 420.5242
722.2452, 412.0465
722.7274, 405.8886
723.2095, 402.0274
723.6916, 402.9700
724.1737, 412.5561
724.6558, 421.9567
725.1379, 417.5797
725.6201, 396.4391
726.1022, 383.6582
726.5843, 378.7431
727.0664, 381.9537
727.5485, 402.8749
728.0306, 425.3452
728.5128, 435.0862
728.9949, 430.9094
729.4770, 419.1443
729.9591, 397.0850
730.4412, 375.9671
730.9233, 367.5302
731.4055, 368.9711
731.8876, 374.9499
732.3697, 384.0321
732.8518, 395.6463
733.3339, 411.2309
733.8160, 425.1327
734.2982, 413.9979
734.7803, 366.8212
735.2624, 342.5203
735.7445, 356.3968
736.2266, 380.2664
736.7087, 402.5043
737.1909, 420.7157
737.6730, 428.4416
738.1551, 419.6119
738.6372, 414.8229
739.1193, 427.0231
739.6014, 437.2163
740.0836, 425.7665
740.5657, 403.8397
741.0478, 395.4126
741.5299, 408.4723
742.0120, 426.6862
742.4941, 436.0931
742.9763, 437.8826
743.4584, 433.6066
743.9405, 423.7237
744.4226, 411.8844
744.9047, 398.6021
745.3868, 388.9782
745.8690, 390.2130
746.3511, 402.6461
746.8332, 411.6794
747.3153, 413.5988
747.7974, 418.3954
748.2795, 432.7902
748.7617, 446.9324
749.2438, 452.2694
749.7259, 450.4027
750.2080, 450.6311
750.6901, 460.8916
751.1722, 466.1508
751.6544, 455.4338
752.1365, 437.7902
752.6186, 420.5909
753.1007, 406.4367
753.5828, 399.9611
754.0649, 404.5405
754.5471, 411.9784
755.0292, 406.4939
755.5113, 391.1818
755.9934, 388.2299
756.4755, 400.3480
756.9576, 415.2825
757.4398, 428.1312
757.9219, 437.8948
758.4040, 443.2794
758.8861, 445.2737
759.3682, 438.8032
759.8503, 406.1466
760.3325, 386.4450
760.8146, 399.2628
761.2967, 423.3581
761.7788, 438.2245
762.2609, 441.6924
762.7430, 439.3318
763.2252, 430.6033
763.7073, 419.6160
764.1894, 405.3284
764.6715, 392.4411
765.1536, 390.7398
765.6357, 399.5826
766.1179, 407.7113
766.6000, 407.3441
767.0821, 400.7211
767.5642, 388.4641
768.0463, 371.6052
768.5284, 371.5418
769.0106, 394.5136
769.4927, 414.0069
769.9748, 411.2470
770.4569, 396.5978
770.9390, 396.5815
771.4211, 424.1144
771.9033, 433.0739
772.3854, 400.2100
772.8675, 376.2742
773.3496, 388.2260
773.8317, 413.1801
774.3138, 422.5638
774.7960, 412.5992
775.2781, 399.2385
775.7602, 381.8933
776.2423, 371.0182
776.7244, 378.8989
777.2065, 396.9775
777.6887, 414.5172
778.1708, 427.6158
778.6529, 431.0276
779.1350, 418.4598
779.6171, 398.7459
780.0992, 390.1655
780.5814, 392.1888
781.0635, 401.0153
781.5456, 417.3906
782.0277, 430.7523
782.5098, 434.5705
782.9919, 429.8107
783.4741, 417.1139
783.9562, 384.7129
784.4383, 375.2172
784.9204, 411.9200
785.4025, 443.9211
785.8846, 452.8366
786.3668, 447.7828
786.8489, 436.0681
787.3310, 418.2760
787.8131, 410.1667
788.2952, 428.3182
788.7773, 445.7166
789.2595, 444.4005
789.7416, 432.6902
790.2237, 418.1629
790.7058, 405.1197
791.1879, 402.9211
791.6700, 421.6798
792.1522, 446.4043
792.6343, 451.7732
793.1164, 441.8528
793.5985, 404.7550
794.0806, 439.0089
794.5627, 458.4507
795.0449, 463.8765
795.5270, 413.3059
796.0091, 435.0428
796.4912, 427.8022
796.9733, 419.3734
797.4554, 451.2872
797.9376, 408.8613
798.4197, 440.1353
798.9018, 441.9897
799.3839, 457.3088
799.8660, 443.4713
800.3481, 438.6393
800.8303, 462.9734
801.3124, 471.1578
801.7945, 453.9640
802.2766, 470.1389
802.7587, 426.6945
803.2408, 435.5668
803.7230, 467.0117
804.2051, 451.2838
804.6872, 467.9918
805.1693, 472.3464
805.6514, 420.5602
806.1335, 466.4085
806.6157, 470.0333
807.0978, 430.3032
807.5799, 472.8062
808.0620, 439.0532
808.5441, 432.5188
809.0262, 446.4684
809.5084, 439.0643
809.9905, 465.3267
810.4726, 459.1557
810.9547, 446.4897
811.4368, 441.5835
811.9189, 437.8469
812.4011, 435.4841
812.8832, 438.2633
813.3653, 453.6888
813.8474, 463.0206
814.3295, 463.4947
814.8116, 458.9768
815.2938, 445.2840
815.7759, 429.6125
816.2580, 429.7891
816.7401, 455.9138
817.2222, 471.4944
817.7043, 448.1049
818.1865, 420.1721
818.6686, 416.4463
819.1507, 428.4339
819.6328, 439.3242
820.1149, 444.3759
820.5970, 447.9286
821.0792, 455.9259
821.5613, 462.4741
822.0434, 454.5681
822.5255, 436.0143
823.0076, 419.7050
823.4897, 408.4786
823.9719, 405.5583
824.4540, 414.1130
824.9361, 429.6931
825.4182, 441.3394
825.9003, 448.8510
826.3824, 453.7679
826.8646, 455.8222
827.3467, 455.9791
827.8289, 453.4112
828.3110, 450.4927
828.7931, 452.1444
829.2752, 460.2343
829.7573, 460.0913
830.2394, 440.1171
830.7216, 427.4688
831.2037, 434.8529
831.6858, 446.2580
832.1679, 450.3579
832.6500, 446.6377
833.1321, 436.2752
833.6143, 411.8248
834.0964, 397.9402
834.5785, 421.3470
835.0606, 450.2830
835.5427, 448.6770
836.0248, 426.9300
836.5070, 415.5924
836.9891, 424.8709
837.4712, 437.9374
837.9533, 439.6619
838.4354, 433.3849
838.9175, 422.1002
839.3997, 408.2974
839.8818, 404.4545
840.3639, 413.1746
840.8460, 420.9031
841.3281, 416.1423
841.8102, 403.1855
842.2924, 392.7977
842.7745, 384.1407
843.2566, 388.8480
843.7387, 413.3866
844.2208, 433.6423
844.7029, 436.6384
845.1851, 429.0341
845.6672, 420.5373
846.1493, 408.6864
846.6314, 409.3770
847.1135, 441.8502
847.5956, 461.8623
848.0778, 454.6521
848.5599, 436.8385
849.0420, 413.7776
849.5241, 391.0870
850.0062, 389.0911
850.4883, 428.5502
850.9705, 458.7227
851.4526, 451.4964
851.9347, 436.5288
852.4168, 436.6876
852.8989, 447.6884
853.3810, 459.1693
853.8632, 467.6662
854.3453, 470.3668
854.8274, 460.9602
855.3095, 447.7043
855.7916, 441.7309
856.2737, 439.9653
856.7559, 432.7697
857.2380, 419.8314
857.7201, 413.1294
858.2022, 422.0986
858.6843, 437.7875
859.1664, 442.2043
859.6486, 436.9912
860.1307, 437.3190
860.6128, 444.7244
861.0949, 445.4751
861.5770, 431.9485
862.0591, 415.3582
862.5413, 412.1067
863.0234, 422.0311
863.5055, 426.8320
863.9876, 423.0062
864.4697, 424.5512
864.9518, 441.2188
865.4340, 453.7148
865.9161, 442.7938
866.3982, 416.0475
866.8803, 402.2885
867.3624, 405.6018
867.8445, 412.6721
868.3267, 432.9306
868.8088, 445.4856
869.2909, 432.0220
869.7730, 411.5903
870.2551, 408.7237
870.7372, 424.9971
871.2194, 440.9344
871.7015, 451.7733
872.1836, 458.1811
872.6657, 458.5461
873.1478, 456.0532
873.6299, 451.5069
874.1121, 447.2941
874.5942, 450.5692
875.0763, 465.3467
875.5584, 475.2018
876.0405, 456.1641
876.5226, 430.3082
877.0048, 434.6837
877.4869, 458.5696
877.9690, 471.3398
878.4511, 465.1710
878.9332, 447.8950
879.4153, 421.9734
879.8975, 398.1008
880.3796, 407.2092
880.8617, 441.5716
881.3438, 450.3736
881.8259, 428.2260
882.3080, 410.0320
882.7902, 413.4293
883.2723, 428.9012
883.7544, 444.4177
884.2365, 459.7925
884.7186, 459.3870
885.2007, 438.3466
885.6829, 422.0477
886.1650, 416.6864
886.6471, 416.8163
887.1292, 418.9645
887.6113, 422.6718
888.0934, 426.1710
888.5756, 429.2800
889.0577, 432.6676
889.5398, 439.8805
890.0219, 442.8163
890.5040, 430.8481
890.9861, 418.0750
891.4683, 425.2710
891.9504, 452.0427
892.4325, 464.7062
892.9146, 445.0594
893.3967, 429.2372
893.8788, 428.2884
894.3610, 433.0400
894.8431, 439.4389
895.3252, 445.3553
895.8073, 446.0572
896.2894, 439.1231
896.7715, 438.7293
897.2537, 459.7693
897.7358, 481.8242
898.2179, 492.1445
898.7000, 492.3612
899.1821, 481.3897
899.6642, 462.8232
900.1464, 449.1926
900.6285, 448.2448
901.1106, 452.2887
901.5927, 454.2813
902.0748, 455.5782
902.5569, 459.5098
903.0391, 464.8227
903.5212, 467.4454
904.0033, 465.8832
904.4854, 459.9758
904.9675, 447.2624
905.4496, 432.6435
905.9318, 427.0403
906.4139, 429.7185
906.8960, 439.7830
907.3781, 456.3389
907.8602, 466.5692
908.3423, 462.5901
908.8245, 452.0504
909.3066, 446.4464
909.7887, 445.8297
910.2708, 453.9176
910.7529, 472.3920
911.2350, 482.9557
911.7172, 480.1260
912.1993, 470.2309
912.6814, 457.4394
913.1635, 443.0838
913.6456, 431.5322
914.1277, 421.8121
914.6099, 418.7534
915.0920, 423.5478
915.5741, 433.3912
916.0562, 452.2335
916.5383, 469.7988
917.0204, 472.3416
917.5026, 459.9369
917.9847, 447.6101
918.4668, 428.3579
918.9489, 420.1633
919.4310, 436.1718
919.9131, 451.2322
920.3953, 447.9556
920.8774, 436.6443
921.3595, 436.6604
921.8416, 451.5472
922.3237, 461.4113
922.8058, 462.6654
923.2880, 459.5769
923.7701, 447.6784
924.2522, 436.9152
924.7343, 437.7093
925.2164, 446.8633
925.6985, 452.9807
926.1807, 452.4230
926.6628, 451.5854
927.1449, 453.1760
927.6270, 455.0811
928.1091, 453.7412
928.5912, 453.0452
929.0734, 462.1288
929.5555, 478.7876
930.0376, 485.2101
930.5197, 466.6945
931.0018, 448.6776
931.4839, 452.7078
931.9661, 464.5042
932.4482, 469.2213
932.9303, 468.0791
933.4124, 465.8944
933.8945, 464.5222
934.3766, 466.1993
934.8588, 477.5287
935.3409, 486.9294
935.8230, 474.1608
936.3051, 452.0167
936.7872, 445.0655
937.2693, 453.2032
937.7515, 464.1927
938.2336, 472.4777
938.7157, 475.0732
939.1978, 463.4654
939.6799, 446.1081
940.1620, 443.9776
940.6442, 452.7989
941.1263, 458.3064
941.6084, 457.4429
942.0905, 449.2312
942.5726, 431.9142
943.0547, 415.7506
943.5369, 421.5252
944.0190, 443.8396
944.5011, 454.9368
944.9832, 455.0788
945.4653, 457.0900
945.9474, 464.6384
946.4296, 472.4990
946.9117, 476.6129
947.3938, 476.8466
947.8759, 471.3424
948.3580, 460.2388
948.8401, 452.2226
949.3223, 447.6037
949.8044, 449.9051
950.2865, 462.2941
950.7686, 472.3496
951.2507, 464.0475
951.7328, 442.8777
952.2150, 442.0719
952.6971, 465.8978
953.1792, 481.9790
953.6613, 486.6179
954.1434, 484.8669
954.6255, 477.0721
955.1077, 468.6954
955.5898, 469.1129
956.0719, 478.0307
956.5540, 473.7528
957.0361, 448.2132
957.5182, 435.0194
958.0004, 443.8400
958.4825, 456.2164
958.9646, 463.1318
959.4467, 464.7520
959.9288, 459.9838
960.4109, 446.9056
960.8931, 442.3268
961.3752, 454.2692
961.8573, 458.7737
962.3394, 443.5730
962.8215, 429.7858
963.3036, 435.0020
963.7858, 451.8463
964.2679, 460.6864
964.7500, 459.2615
965.2321, 457.2136
965.7142, 454.5394
966.1964, 451.2198
966.6785, 440.3892
967.1606, 434.9260
967.6427, 453.4709
968.1248, 486.4048
968.6069, 497.2674
969.0891, 472.3466
969.5712, 454.9329
970.0533, 447.0237
970.5354, 447.0435
971.0175, 462.0351
971.4996, 479.0105
971.9818, 486.1953
972.4639, 483.9902
972.9460, 477.0110
973.4281, 457.9043
973.9102, 448.7759
974.3923, 458.4057
974.8745, 471.9930
975.3566, 490.8363
975.8387, 504.7349
976.3208, 496.9501
976.8029, 470.3269
977.2850, 455.1100
977.7672, 461.7256
978.2493, 472.3401
978.7314, 494.1128
979.2135, 506.7726
979.6956, 488.3643
980.1777, 459.5316
980.6599, 450.9400
981.1420, 464.2027
981.6241, 472.8878
982.1062, 462.7598
982.5883, 457.2204
983.0704, 470.9418
983.5526, 483.8532
984.0347, 477.2596
984.5168, 462.8253
984.9989, 433.4071
985.4810, 468.0245
985.9631, 487.8297
986.4453, 493.6189
986.9274, 443.4118
987.4095, 465.5121
987.8916, 458.6349
988.3737, 450.5695
988.8558, 482.8466
989.3380, 440.7843
989.8201, 472.4218
990.3022, 474.6395
990.7843, 490.3220
991.2664, 476.8480
991.7485, 472.3794
992.2307, 497.0769
992.7128, 505.6249
993.1949, 488.7944
993.6770, 505.3328
994.1591, 462.2517
994.6412, 471.4874
995.1234, 503.2958
995.6055, 487.9314
996.0876, 505.0027
996.5697, 509.7208
997.0518, 458.2980
997.5339, 504.5098
998.0161, 508.4980
998.4982, 469.1314
998.9803, 511.9978
999.4624, 491.9496
999.9445, 497.9187
1000.427, 499.1076
1000.909, 498.4894
1001.391, 499.7180
1001.873, 501.4387
1002.355, 498.7067
1002.837, 489.7335
1003.319, 484.3041
1003.801, 491.3594
1004.284, 497.6408
1004.766, 492.5133
1005.248, 485.4020
1005.730, 486.3648
1006.212, 493.5075
1006.694, 500.2167
1007.176, 504.8548
1007.658, 508.2206
1008.141, 511.9409
1008.623, 512.9805
1009.105, 509.3407
1009.587, 502.3633
1010.069, 487.7825
1010.551, 472.1573
1011.033, 474.0121
1011.515, 500.8654
1011.997, 517.3420
1012.480, 494.0080
1012.962, 473.9646
1013.444, 492.0125
1013.926, 514.8612
1014.408, 501.7678
1014.890, 466.5757
1015.372, 452.9436
1015.854, 473.9279
1016.336, 462.9992
1016.819, 496.6698
1017.301, 515.5286
1017.783, 520.3713
1018.265, 469.2178
1018.747, 490.3717
1019.229, 482.5481
1019.711, 473.5363
1020.193, 504.8672
1020.676, 461.8578
1021.158, 492.5490
1021.640, 493.8204
1022.122, 508.5564
1022.604, 494.1360
1023.086, 488.7211
1023.568, 512.4720
1024.050, 520.0735
1024.532, 502.2968
1025.015, 517.8884
1025.497, 473.8609
1025.979, 482.1503
1026.461, 513.0121
1026.943, 496.7013
1027.425, 512.8264
1027.907, 516.5980
1028.389, 464.2288
1028.871, 509.4942
1029.354, 512.5355
1029.836, 472.2226
1030.318, 514.1426
1030.800, 479.8065
1031.282, 499.6522
1031.764, 480.5906
1032.246, 448.3105
1032.728, 447.1170
1033.211, 485.0097
1033.693, 507.8177
1034.175, 494.8629
1034.657, 487.0529
1035.139, 501.0633
1035.621, 513.4720
1036.103, 505.2919
1036.585, 488.2779
1037.068, 483.8273
1037.550, 494.2370
1038.032, 498.3991
1038.514, 486.4140
1038.996, 482.1888
1039.478, 494.0887
1039.960, 507.2502
1040.442, 517.0223
1040.924, 521.9082
1041.406, 517.1750
1041.889, 502.5140
1042.371, 497.9001
1042.853, 512.8105
1043.335, 518.3910
1043.817, 504.8571
1044.299, 494.2952
1044.781, 499.2009
1045.263, 509.6877
1045.746, 513.9039
1046.228, 512.0840
1046.710, 506.5494
1047.192, 495.9833
1047.674, 484.3009
1048.156, 466.1860
1048.638, 462.6812
1049.120, 488.3980
1049.603, 520.5355
1050.085, 535.1852
1050.567, 533.5106
1051.049, 518.1403
1051.531, 483.4069
1052.013, 467.5816
1052.495, 476.0994
1052.977, 485.3034
1053.459, 486.8564
1053.942, 487.8910
1054.424, 495.7906
1054.906, 507.0421
1055.388, 508.5980
1055.870, 500.0316
1056.352, 507.6257
1056.834, 533.4659
1057.316, 541.8829
1057.798, 521.6716
1058.281, 499.0666
1058.763, 494.3758
1059.245, 498.6209
1059.727, 493.3747
1060.209, 480.1033
1060.691, 465.4083
1061.173, 450.7483
1061.655, 450.6620
1062.138, 467.4595
1062.620, 486.5583
1063.102, 499.3093
1063.584, 508.3875
1064.066, 520.5055
1064.548, 530.9435
1065.030, 519.8361
1065.512, 496.2806
1065.995, 494.8734
1066.477, 515.9898
1066.959, 530.3322
1067.441, 524.2691
1067.923, 509.6270
1068.405, 494.0986
1068.887, 481.6870
1069.369, 479.6190
1069.851, 484.4252
1070.333, 494.1691
1070.816, 504.3124
1071.298, 501.5272
1071.780, 482.6522
1072.262, 465.9827
1072.744, 464.9566
1073.226, 471.4161
1073.708, 483.4467
1074.190, 494.5339
1074.673, 495.2629
1075.155, 489.7180
1075.637, 487.1357
1076.119, 488.9798
1076.601, 489.8046
1077.083, 487.7061
1077.565, 482.8969
1078.047, 468.2546
1078.530, 458.5702
1079.012, 468.9244
1079.494, 488.1449
1079.976, 503.8477
1080.458, 513.7001
1080.940, 516.1475
1081.422, 509.0216
1081.904, 499.2762
1082.386, 480.6289
1082.869, 469.6919
1083.351, 479.1688
1083.833, 494.5398
1084.315, 507.0196
1084.797, 514.1241
1085.279, 507.9874
1085.761, 480.6518
1086.243, 467.4859
1086.726, 478.8634
1087.208, 488.0246
1087.690, 488.8888
1088.172, 488.4953
1088.654, 493.1407
1089.136, 497.2443
1089.618, 488.8059
1090.100, 467.3764
1090.583, 459.9512
1091.065, 469.6087
1091.547, 482.9838
1092.029, 500.7517
1092.511, 513.7806
1092.993, 517.5652
1093.475, 515.3699
1093.957, 509.8409
1094.439, 502.8845
1094.922, 503.5305
1095.404, 511.5648
1095.886, 516.5075
1096.368, 517.6870
1096.850, 515.7029
1097.332, 510.7485
1097.814, 506.0117
1098.296, 504.2930
1098.778, 503.2636
1099.261, 496.7938
1099.743, 488.1727
1100.225, 489.1351
1100.707, 496.7747
1101.189, 498.4648
1101.671, 493.5511
1102.153, 494.5934
1102.635, 508.5044
1103.118, 521.0611
1103.600, 517.5576
1104.082, 505.0602
1104.564, 485.7202
1105.046, 467.3757
1105.528, 463.7146
1106.010, 471.5064
1106.492, 479.1166
1106.974, 483.1229
1107.457, 486.2901
1107.939, 488.3248
1108.421, 492.4513
1108.903, 504.7375
1109.385, 515.5280
1109.867, 516.1572
1110.349, 510.7526
1110.831, 504.6870
1111.313, 499.0896
1111.796, 495.7034
1112.278, 494.8399
1112.760, 496.2121
1113.242, 507.3190
1113.724, 510.9629
1114.206, 486.3209
1114.688, 465.0208
1115.170, 481.9229
1115.653, 520.2704
1116.135, 534.0088
1116.617, 517.8914
1117.099, 507.1239
1117.581, 501.9152
1118.063, 502.0677
1118.545, 508.6922
1119.027, 518.2234
1119.510, 530.6541
1119.992, 539.6146
1120.474, 533.9843
1120.956, 517.9758
1121.438, 518.2199
1121.920, 534.1990
1122.402, 543.0320
1122.884, 542.7082
1123.366, 533.0345
1123.849, 514.2206
1124.331, 499.8042
1124.813, 501.9844
1125.295, 510.9350
1125.777, 510.0795
1126.259, 489.4880
1126.741, 508.4626
1127.223, 519.4760
1127.705, 522.9558
1128.188, 496.3403
1128.670, 508.5874
1129.152, 505.2592
1129.634, 501.2926
1130.116, 519.0094
1130.598, 496.7698
1131.080, 514.1428
1131.562, 515.7032
1132.045, 524.5024
1132.527, 517.6285
1133.009, 515.5952
1133.491, 529.2379
1133.973, 534.2007
1134.455, 525.5229
1134.937, 534.7805
1135.419, 511.9932
1135.901, 517.3257
1136.384, 534.7922
1136.866, 526.9023
1137.348, 536.4464
1137.830, 539.3505
1138.312, 512.0799
1138.794, 537.2863
1139.276, 539.7982
1139.758, 519.0077
1140.240, 542.4160
1140.723, 524.8396
1141.205, 521.8911
1141.687, 511.0576
1142.169, 487.2621
1142.651, 488.5116
1143.133, 509.1891
1143.615, 523.9990
1144.097, 532.5179
1144.580, 523.0728
1145.062, 498.0281
1145.544, 494.8302
1146.026, 523.0967
1146.508, 544.8098
1146.990, 530.7641
1147.472, 486.9619
1147.954, 505.8502
1148.437, 516.7788
1148.919, 520.1722
1149.401, 493.4688
1149.883, 505.6295
1150.365, 502.2151
1150.847, 498.1621
1151.329, 515.7926
1151.811, 493.4667
1152.293, 510.7534
1152.776, 512.2289
1153.258, 520.9401
1153.740, 513.9800
1154.222, 511.8603
1154.704, 525.4167
1155.186, 530.2932
1155.668, 521.5291
1156.150, 530.7003
1156.632, 507.8268
1157.115, 513.0744
1157.597, 530.4530
1158.079, 522.4767
1158.561, 531.9345
1159.043, 534.7523
1159.525, 507.3954
1160.007, 532.5156
1160.489, 534.9412
1160.972, 514.0657
1161.454, 537.3878
1161.936, 519.7234
1162.418, 516.6886
1162.900, 524.6637
1163.382, 521.1614
1163.864, 535.7545
1164.346, 532.9149
1164.828, 528.5181
1165.311, 530.9196
1165.793, 514.0588
1166.275, 532.9308
1166.757, 527.3943
1167.239, 533.9908
1167.721, 543.3372
1168.203, 531.6265
1168.685, 542.2087
1169.167, 518.2196
1169.650, 523.1591
1170.132, 524.9820
1170.614, 545.2946
1171.096, 521.4740
1171.578, 525.6083
1172.060, 541.6453
1172.542, 541.0275
1173.024, 547.3733
1173.507, 533.1058
1173.989, 538.2028
1174.471, 537.9617
1174.953, 556.1664
1175.435, 559.8091
1175.917, 545.8900
1176.399, 532.0455
1176.881, 551.5775
1177.364, 539.4763
1177.846, 541.3127
1178.328, 566.0894
1178.810, 574.7166
1179.292, 557.9653
1179.774, 574.5829
1180.256, 531.5809
1180.738, 540.8961
1181.220, 572.7833
1181.703, 557.5000
1182.185, 574.6507
1182.667, 579.4479
1183.149, 528.1043
1183.631, 574.3952
1184.113, 578.4625
1184.595, 539.1750
1185.077, 582.1207
1185.559, 548.8101
1186.042, 546.9620
1186.524, 509.5072
1187.006, 543.1961
1187.488, 562.0729
1187.970, 566.9336
1188.452, 515.7980
1188.934, 536.9700
1189.416, 529.1644
1189.899, 520.1702
1190.381, 551.5191
1190.863, 508.5281
1191.345, 539.2372
1191.827, 540.5266
1192.309, 555.2806
1192.791, 540.8782
1193.273, 535.4812
1193.755, 559.2501
1194.238, 566.8694
1194.720, 549.1105
1195.202, 564.7205
1195.684, 520.7110
1196.166, 529.0184
1196.648, 559.8982
1197.130, 543.6053
1197.612, 559.7483
1198.094, 563.5380
1198.577, 511.1864
1199.059, 556.4698
1199.541, 559.5295
1200.023, 519.2345
1200.505, 561.1725
1200.987, 526.8544
1201.469, 519.7551
1201.951, 533.1397
1202.434, 525.1703
1202.916, 550.8677
1203.398, 544.1317
1203.880, 534.4979
1204.362, 537.5102
1204.844, 504.6874
1205.326, 538.3459
1205.808, 526.5920
1206.291, 537.4113
1206.773, 553.3475
1207.255, 530.1062
1207.737, 548.3413
1208.219, 502.2563
1208.701, 509.9903
1209.183, 511.9290
1209.665, 548.2675
1210.147, 502.4961
1210.630, 508.7345
1211.112, 537.1183
1211.594, 534.5160
1212.076, 544.8691
1212.558, 516.8686
1213.040, 511.1031
1213.522, 515.6183
1214.004, 550.6301
1214.486, 567.3358
1214.969, 526.0207
1215.451, 496.8394
1215.933, 510.5305
1216.415, 524.8773
1216.897, 515.4321
1217.379, 504.3027
1217.861, 513.5031
1218.343, 532.3329
1218.826, 532.3328
1219.308, 513.2806
1219.790, 512.8116
1220.272, 531.3944
1220.754, 548.7827
1221.236, 562.1105
1221.718, 561.5122
1222.200, 544.2482
1222.682, 525.9954
1223.165, 518.2720
1223.647, 517.0055
1224.129, 518.3481
1224.611, 522.2983
1225.093, 532.2354
1225.575, 542.3246
1226.057, 545.6816
1226.539, 542.0825
1227.021, 529.3342
1227.504, 508.1487
1227.986, 499.6587
1228.468, 523.0019
1228.950, 535.1324
1229.432, 521.4445
1229.914, 513.7531
1230.396, 524.0518
1230.878, 537.0203
1231.361, 544.3910
1231.843, 542.3175
1232.325, 520.7753
1232.807, 486.1953
1233.289, 472.5255
1233.771, 477.2988
1234.253, 490.5428
1234.735, 507.7985
1235.218, 515.1123
1235.700, 509.1864
1236.182, 491.6552
1236.664, 461.3955
1237.146, 440.2499
1237.628, 450.8844
1238.110, 469.3211
1238.592, 491.5559
1239.074, 501.5632
1239.557, 466.4449
1240.039, 422.5050
1240.521, 428.5531
1241.003, 479.4108
1241.485, 517.8865
1241.967, 547.7206
1242.449, 545.6619
1242.931, 499.9435
1243.413, 472.8254
1243.896, 475.7750
1244.378, 490.3295
1244.860, 508.5029
1245.342, 528.5040
##END=



