##NAMES=Cechite
##RRUFFID=R070363
##IDEAL CHEMISTRY=Pb^2+^Fe^2+^V^5+^O_4_(OH)
##LOCALITY=Alexander mine, Vrancice, Příbram, Central Bohemia Region, Bohemia, Czech Republic
##OWNER=RRUFF
##SOURCE=Michael Scott
##DESCRIPTION=Black submetallic fragments associated with calcite and with R120086, goethite
##STATUS=The identification of this mineral has been confirmed only by single crystal X-ray diffraction.
##URL=rruff.info/R070363
8.806445e+001, 4.796397e+002
8.854657e+001, 4.783944e+002
8.902869e+001, 4.779854e+002
8.951080e+001, 4.786327e+002
8.999292e+001, 4.800097e+002
9.047504e+001, 4.820234e+002
9.095715e+001, 4.848030e+002
9.143927e+001, 4.875956e+002
9.192139e+001, 4.891894e+002
9.240350e+001, 4.896169e+002
9.288562e+001, 4.900338e+002
9.336774e+001, 4.877898e+002
9.384985e+001, 4.798600e+002
9.433197e+001, 4.664184e+002
9.481409e+001, 4.542984e+002
9.529620e+001, 4.417644e+002
9.577832e+001, 4.299204e+002
9.626044e+001, 4.189250e+002
9.674255e+001, 4.090880e+002
9.722467e+001, 4.008299e+002
9.770679e+001, 3.943531e+002
9.818890e+001, 3.883442e+002
9.867102e+001, 3.827409e+002
9.915314e+001, 3.771838e+002
9.963525e+001, 3.712379e+002
1.001174e+002, 3.646653e+002
1.005995e+002, 3.577048e+002
1.010816e+002, 3.512184e+002
1.015637e+002, 3.449439e+002
1.020458e+002, 3.393639e+002
1.025280e+002, 3.344847e+002
1.030101e+002, 3.302407e+002
1.034922e+002, 3.265698e+002
1.039743e+002, 3.234866e+002
1.044564e+002, 3.209669e+002
1.049385e+002, 3.185007e+002
1.054207e+002, 3.161608e+002
1.059028e+002, 3.137433e+002
1.063849e+002, 3.114701e+002
1.068670e+002, 3.092411e+002
1.073491e+002, 3.061734e+002
1.078312e+002, 3.008987e+002
1.083134e+002, 2.935757e+002
1.087955e+002, 2.874205e+002
1.092776e+002, 2.831693e+002
1.097597e+002, 2.801945e+002
1.102418e+002, 2.777119e+002
1.107239e+002, 2.757411e+002
1.112061e+002, 2.739799e+002
1.116882e+002, 2.720306e+002
1.121703e+002, 2.699613e+002
1.126524e+002, 2.682444e+002
1.131345e+002, 2.674737e+002
1.136166e+002, 2.675604e+002
1.140988e+002, 2.670107e+002
1.145809e+002, 2.650695e+002
1.150630e+002, 2.628692e+002
1.155451e+002, 2.609790e+002
1.160272e+002, 2.594403e+002
1.165093e+002, 2.580563e+002
1.169915e+002, 2.566364e+002
1.174736e+002, 2.552796e+002
1.179557e+002, 2.535936e+002
1.184378e+002, 2.509546e+002
1.189199e+002, 2.483947e+002
1.194020e+002, 2.467296e+002
1.198842e+002, 2.462036e+002
1.203663e+002, 2.463677e+002
1.208484e+002, 2.462005e+002
1.213305e+002, 2.454545e+002
1.218126e+002, 2.445937e+002
1.222947e+002, 2.438625e+002
1.227769e+002, 2.429713e+002
1.232590e+002, 2.414761e+002
1.237411e+002, 2.390851e+002
1.242232e+002, 2.360293e+002
1.247053e+002, 2.333111e+002
1.251874e+002, 2.307082e+002
1.256696e+002, 2.285608e+002
1.261517e+002, 2.272383e+002
1.266338e+002, 2.265740e+002
1.271159e+002, 2.257919e+002
1.275980e+002, 2.242404e+002
1.280801e+002, 2.222683e+002
1.285623e+002, 2.210160e+002
1.290444e+002, 2.211875e+002
1.295265e+002, 2.216300e+002
1.300086e+002, 2.211825e+002
1.304907e+002, 2.197288e+002
1.309728e+002, 2.179628e+002
1.314550e+002, 2.160213e+002
1.319371e+002, 2.140895e+002
1.324192e+002, 2.124882e+002
1.329013e+002, 2.114902e+002
1.333834e+002, 2.108895e+002
1.338655e+002, 2.100412e+002
1.343477e+002, 2.086756e+002
1.348298e+002, 2.074645e+002
1.353119e+002, 2.067105e+002
1.357940e+002, 2.062939e+002
1.362761e+002, 2.059973e+002
1.367582e+002, 2.056769e+002
1.372404e+002, 2.053342e+002
1.377225e+002, 2.050098e+002
1.382046e+002, 2.049497e+002
1.386867e+002, 2.046911e+002
1.391688e+002, 2.039827e+002
1.396509e+002, 2.029005e+002
1.401331e+002, 2.017244e+002
1.406152e+002, 2.007420e+002
1.410973e+002, 2.000642e+002
1.415794e+002, 1.991928e+002
1.420615e+002, 1.979574e+002
1.425436e+002, 1.966943e+002
1.430258e+002, 1.955531e+002
1.435079e+002, 1.945804e+002
1.439900e+002, 1.937903e+002
1.444721e+002, 1.932203e+002
1.449542e+002, 1.929691e+002
1.454363e+002, 1.927137e+002
1.459185e+002, 1.924769e+002
1.464006e+002, 1.922157e+002
1.468827e+002, 1.918636e+002
1.473648e+002, 1.913903e+002
1.478469e+002, 1.908672e+002
1.483290e+002, 1.903644e+002
1.488112e+002, 1.898358e+002
1.492933e+002, 1.895042e+002
1.497754e+002, 1.896477e+002
1.502575e+002, 1.900801e+002
1.507396e+002, 1.902467e+002
1.512217e+002, 1.899302e+002
1.517039e+002, 1.893146e+002
1.521860e+002, 1.886297e+002
1.526681e+002, 1.878508e+002
1.531502e+002, 1.871751e+002
1.536323e+002, 1.868648e+002
1.541144e+002, 1.869411e+002
1.545966e+002, 1.868016e+002
1.550787e+002, 1.860684e+002
1.555608e+002, 1.851723e+002
1.560429e+002, 1.844515e+002
1.565250e+002, 1.839786e+002
1.570071e+002, 1.834872e+002
1.574893e+002, 1.825147e+002
1.579714e+002, 1.807663e+002
1.584535e+002, 1.793408e+002
1.589356e+002, 1.785864e+002
1.594177e+002, 1.780949e+002
1.598998e+002, 1.775737e+002
1.603820e+002, 1.769135e+002
1.608641e+002, 1.761907e+002
1.613462e+002, 1.756192e+002
1.618283e+002, 1.755873e+002
1.623104e+002, 1.751260e+002
1.627925e+002, 1.738174e+002
1.632747e+002, 1.721873e+002
1.637568e+002, 1.707732e+002
1.642389e+002, 1.698510e+002
1.647210e+002, 1.693333e+002
1.652031e+002, 1.688793e+002
1.656852e+002, 1.686994e+002
1.661674e+002, 1.683469e+002
1.666495e+002, 1.675554e+002
1.671316e+002, 1.665552e+002
1.676137e+002, 1.657797e+002
1.680958e+002, 1.655087e+002
1.685779e+002, 1.656373e+002
1.690601e+002, 1.654793e+002
1.695422e+002, 1.648391e+002
1.700243e+002, 1.641808e+002
1.705064e+002, 1.637020e+002
1.709885e+002, 1.633688e+002
1.714706e+002, 1.630305e+002
1.719528e+002, 1.625943e+002
1.724349e+002, 1.620730e+002
1.729170e+002, 1.615603e+002
1.733991e+002, 1.610173e+002
1.738812e+002, 1.605094e+002
1.743633e+002, 1.601293e+002
1.748455e+002, 1.598804e+002
1.753276e+002, 1.595634e+002
1.758097e+002, 1.589341e+002
1.762918e+002, 1.581746e+002
1.767739e+002, 1.576245e+002
1.772560e+002, 1.575075e+002
1.777382e+002, 1.575241e+002
1.782203e+002, 1.572869e+002
1.787024e+002, 1.567922e+002
1.791845e+002, 1.560504e+002
1.796666e+002, 1.547268e+002
1.801487e+002, 1.532518e+002
1.806309e+002, 1.522322e+002
1.811130e+002, 1.520841e+002
1.815951e+002, 1.524583e+002
1.820772e+002, 1.523878e+002
1.825593e+002, 1.516347e+002
1.830414e+002, 1.507954e+002
1.835236e+002, 1.500044e+002
1.840057e+002, 1.492912e+002
1.844878e+002, 1.486882e+002
1.849699e+002, 1.482031e+002
1.854520e+002, 1.478459e+002
1.859341e+002, 1.477001e+002
1.864163e+002, 1.481854e+002
1.868984e+002, 1.484054e+002
1.873805e+002, 1.480403e+002
1.878626e+002, 1.472792e+002
1.883447e+002, 1.464425e+002
1.888268e+002, 1.457387e+002
1.893090e+002, 1.451686e+002
1.897911e+002, 1.446635e+002
1.902732e+002, 1.442935e+002
1.907553e+002, 1.439181e+002
1.912374e+002, 1.435100e+002
1.917195e+002, 1.430662e+002
1.922017e+002, 1.425578e+002
1.926838e+002, 1.419325e+002
1.931659e+002, 1.411649e+002
1.936480e+002, 1.408443e+002
1.941301e+002, 1.414006e+002
1.946122e+002, 1.418851e+002
1.950944e+002, 1.418692e+002
1.955765e+002, 1.414048e+002
1.960586e+002, 1.407775e+002
1.965407e+002, 1.401893e+002
1.970228e+002, 1.396446e+002
1.975049e+002, 1.392057e+002
1.979871e+002, 1.388541e+002
1.984692e+002, 1.386046e+002
1.989513e+002, 1.385127e+002
1.994334e+002, 1.385636e+002
1.999155e+002, 1.386274e+002
2.003976e+002, 1.385912e+002
2.008798e+002, 1.384637e+002
2.013619e+002, 1.383956e+002
2.018440e+002, 1.385580e+002
2.023261e+002, 1.386782e+002
2.028082e+002, 1.384246e+002
2.032903e+002, 1.377660e+002
2.037725e+002, 1.371404e+002
2.042546e+002, 1.369858e+002
2.047367e+002, 1.371462e+002
2.052188e+002, 1.371757e+002
2.057009e+002, 1.369966e+002
2.061830e+002, 1.366413e+002
2.066652e+002, 1.360687e+002
2.071473e+002, 1.351947e+002
2.076294e+002, 1.344377e+002
2.081115e+002, 1.341882e+002
2.085936e+002, 1.342330e+002
2.090757e+002, 1.342690e+002
2.095579e+002, 1.341637e+002
2.100400e+002, 1.339916e+002
2.105221e+002, 1.339223e+002
2.110042e+002, 1.340204e+002
2.114863e+002, 1.340708e+002
2.119685e+002, 1.339688e+002
2.124506e+002, 1.337568e+002
2.129327e+002, 1.334734e+002
2.134148e+002, 1.330818e+002
2.138969e+002, 1.326566e+002
2.143790e+002, 1.324485e+002
2.148612e+002, 1.325817e+002
2.153433e+002, 1.327390e+002
2.158254e+002, 1.328488e+002
2.163075e+002, 1.328996e+002
2.167896e+002, 1.328678e+002
2.172717e+002, 1.327255e+002
2.177539e+002, 1.325016e+002
2.182360e+002, 1.323387e+002
2.187181e+002, 1.323814e+002
2.192002e+002, 1.322847e+002
2.196823e+002, 1.318652e+002
2.201644e+002, 1.312876e+002
2.206466e+002, 1.307954e+002
2.211287e+002, 1.305489e+002
2.216108e+002, 1.304863e+002
2.220929e+002, 1.302564e+002
2.225750e+002, 1.296688e+002
2.230571e+002, 1.291090e+002
2.235393e+002, 1.286948e+002
2.240214e+002, 1.283408e+002
2.245035e+002, 1.278737e+002
2.249856e+002, 1.271707e+002
2.254677e+002, 1.263201e+002
2.259498e+002, 1.259008e+002
2.264320e+002, 1.265014e+002
2.269141e+002, 1.269027e+002
2.273962e+002, 1.267772e+002
2.278783e+002, 1.263427e+002
2.283604e+002, 1.259430e+002
2.288425e+002, 1.257750e+002
2.293247e+002, 1.258028e+002
2.298068e+002, 1.258230e+002
2.302889e+002, 1.259768e+002
2.307710e+002, 1.259663e+002
2.312531e+002, 1.256173e+002
2.317352e+002, 1.250707e+002
2.322174e+002, 1.245442e+002
2.326995e+002, 1.241388e+002
2.331816e+002, 1.238695e+002
2.336637e+002, 1.238302e+002
2.341458e+002, 1.242640e+002
2.346279e+002, 1.246024e+002
2.351101e+002, 1.245927e+002
2.355922e+002, 1.243911e+002
2.360743e+002, 1.243371e+002
2.365564e+002, 1.246289e+002
2.370385e+002, 1.251173e+002
2.375206e+002, 1.253037e+002
2.380028e+002, 1.251328e+002
2.384849e+002, 1.248390e+002
2.389670e+002, 1.243611e+002
2.394491e+002, 1.238152e+002
2.399312e+002, 1.235135e+002
2.404133e+002, 1.236795e+002
2.408955e+002, 1.240296e+002
2.413776e+002, 1.238838e+002
2.418597e+002, 1.230426e+002
2.423418e+002, 1.222990e+002
2.428239e+002, 1.220625e+002
2.433060e+002, 1.221899e+002
2.437882e+002, 1.222829e+002
2.442703e+002, 1.221880e+002
2.447524e+002, 1.220202e+002
2.452345e+002, 1.219905e+002
2.457166e+002, 1.221348e+002
2.461987e+002, 1.222224e+002
2.466809e+002, 1.220846e+002
2.471630e+002, 1.217888e+002
2.476451e+002, 1.215770e+002
2.481272e+002, 1.215760e+002
2.486093e+002, 1.215957e+002
2.490914e+002, 1.213980e+002
2.495736e+002, 1.209830e+002
2.500557e+002, 1.205411e+002
2.505378e+002, 1.202181e+002
2.510199e+002, 1.199673e+002
2.515020e+002, 1.195321e+002
2.519841e+002, 1.186159e+002
2.524663e+002, 1.178705e+002
2.529484e+002, 1.180483e+002
2.534305e+002, 1.190323e+002
2.539126e+002, 1.197966e+002
2.543947e+002, 1.195759e+002
2.548768e+002, 1.185737e+002
2.553590e+002, 1.177302e+002
2.558411e+002, 1.170979e+002
2.563232e+002, 1.167318e+002
2.568053e+002, 1.166639e+002
2.572874e+002, 1.168522e+002
2.577695e+002, 1.171490e+002
2.582516e+002, 1.175314e+002
2.587338e+002, 1.179710e+002
2.592159e+002, 1.183052e+002
2.596980e+002, 1.185309e+002
2.601801e+002, 1.186352e+002
2.606622e+002, 1.186403e+002
2.611443e+002, 1.185425e+002
2.616265e+002, 1.183205e+002
2.621086e+002, 1.178540e+002
2.625907e+002, 1.172426e+002
2.630728e+002, 1.169956e+002
2.635549e+002, 1.174013e+002
2.640370e+002, 1.177350e+002
2.645192e+002, 1.176232e+002
2.650013e+002, 1.172634e+002
2.654834e+002, 1.169774e+002
2.659655e+002, 1.169482e+002
2.664476e+002, 1.171120e+002
2.669297e+002, 1.172714e+002
2.674119e+002, 1.175586e+002
2.678940e+002, 1.175993e+002
2.683761e+002, 1.171584e+002
2.688582e+002, 1.164904e+002
2.693403e+002, 1.158757e+002
2.698224e+002, 1.154329e+002
2.703046e+002, 1.151742e+002
2.707867e+002, 1.151621e+002
2.712688e+002, 1.155584e+002
2.717509e+002, 1.159238e+002
2.722330e+002, 1.161307e+002
2.727151e+002, 1.162814e+002
2.731973e+002, 1.164842e+002
2.736794e+002, 1.167833e+002
2.741615e+002, 1.171327e+002
2.746436e+002, 1.174436e+002
2.751257e+002, 1.177208e+002
2.756078e+002, 1.179414e+002
2.760900e+002, 1.179313e+002
2.765721e+002, 1.179695e+002
2.770542e+002, 1.183942e+002
2.775363e+002, 1.192743e+002
2.780184e+002, 1.202433e+002
2.785005e+002, 1.206186e+002
2.789827e+002, 1.199715e+002
2.794648e+002, 1.196880e+002
2.799469e+002, 1.200577e+002
2.804290e+002, 1.205939e+002
2.809111e+002, 1.209433e+002
2.813932e+002, 1.210607e+002
2.818754e+002, 1.211771e+002
2.823575e+002, 1.216182e+002
2.828396e+002, 1.225307e+002
2.833217e+002, 1.233483e+002
2.838038e+002, 1.242072e+002
2.842859e+002, 1.248788e+002
2.847681e+002, 1.250993e+002
2.852502e+002, 1.249484e+002
2.857323e+002, 1.248002e+002
2.862144e+002, 1.250810e+002
2.866965e+002, 1.259196e+002
2.871786e+002, 1.264387e+002
2.876608e+002, 1.262747e+002
2.881429e+002, 1.261630e+002
2.886250e+002, 1.265115e+002
2.891071e+002, 1.271945e+002
2.895892e+002, 1.277934e+002
2.900714e+002, 1.279532e+002
2.905535e+002, 1.276659e+002
2.910356e+002, 1.274751e+002
2.915177e+002, 1.275696e+002
2.919998e+002, 1.275645e+002
2.924819e+002, 1.272235e+002
2.929641e+002, 1.267126e+002
2.934462e+002, 1.263573e+002
2.939283e+002, 1.263784e+002
2.944104e+002, 1.267122e+002
2.948925e+002, 1.269225e+002
2.953746e+002, 1.269751e+002
2.958568e+002, 1.269294e+002
2.963389e+002, 1.267874e+002
2.968210e+002, 1.265505e+002
2.973031e+002, 1.262060e+002
2.977852e+002, 1.257453e+002
2.982673e+002, 1.252006e+002
2.987495e+002, 1.246724e+002
2.992316e+002, 1.240643e+002
2.997137e+002, 1.235995e+002
3.001958e+002, 1.232844e+002
3.006779e+002, 1.231120e+002
3.011600e+002, 1.231389e+002
3.016422e+002, 1.233676e+002
3.021243e+002, 1.236399e+002
3.026064e+002, 1.236520e+002
3.030885e+002, 1.231115e+002
3.035706e+002, 1.228304e+002
3.040527e+002, 1.230270e+002
3.045349e+002, 1.233141e+002
3.050170e+002, 1.233507e+002
3.054991e+002, 1.231052e+002
3.059812e+002, 1.228435e+002
3.064633e+002, 1.229066e+002
3.069454e+002, 1.234202e+002
3.074276e+002, 1.238334e+002
3.079097e+002, 1.242624e+002
3.083918e+002, 1.245133e+002
3.088739e+002, 1.243355e+002
3.093560e+002, 1.238294e+002
3.098381e+002, 1.233684e+002
3.103203e+002, 1.232658e+002
3.108024e+002, 1.235325e+002
3.112845e+002, 1.240343e+002
3.117666e+002, 1.249851e+002
3.122487e+002, 1.259170e+002
3.127308e+002, 1.267096e+002
3.132130e+002, 1.273591e+002
3.136951e+002, 1.278734e+002
3.141772e+002, 1.282472e+002
3.146593e+002, 1.285057e+002
3.151414e+002, 1.288117e+002
3.156235e+002, 1.291584e+002
3.161057e+002, 1.295623e+002
3.165878e+002, 1.302105e+002
3.170699e+002, 1.308656e+002
3.175520e+002, 1.311058e+002
3.180341e+002, 1.307353e+002
3.185162e+002, 1.300993e+002
3.189984e+002, 1.300899e+002
3.194805e+002, 1.313302e+002
3.199626e+002, 1.324329e+002
3.204447e+002, 1.334187e+002
3.209268e+002, 1.342411e+002
3.214089e+002, 1.348109e+002
3.218911e+002, 1.351228e+002
3.223732e+002, 1.353162e+002
3.228553e+002, 1.356089e+002
3.233374e+002, 1.361120e+002
3.238195e+002, 1.364249e+002
3.243016e+002, 1.362896e+002
3.247838e+002, 1.361900e+002
3.252659e+002, 1.365167e+002
3.257480e+002, 1.372320e+002
3.262301e+002, 1.379629e+002
3.267122e+002, 1.383448e+002
3.271943e+002, 1.383362e+002
3.276765e+002, 1.382970e+002
3.281586e+002, 1.381717e+002
3.286407e+002, 1.380730e+002
3.291228e+002, 1.381304e+002
3.296049e+002, 1.382492e+002
3.300870e+002, 1.381870e+002
3.305692e+002, 1.377482e+002
3.310513e+002, 1.370169e+002
3.315334e+002, 1.366521e+002
3.320155e+002, 1.374308e+002
3.324976e+002, 1.377017e+002
3.329797e+002, 1.367193e+002
3.334619e+002, 1.352549e+002
3.339440e+002, 1.344436e+002
3.344261e+002, 1.347941e+002
3.349082e+002, 1.356515e+002
3.353904e+002, 1.353949e+002
3.358725e+002, 1.328724e+002
3.363546e+002, 1.310149e+002
3.368367e+002, 1.302661e+002
3.373188e+002, 1.299469e+002
3.378009e+002, 1.295657e+002
3.382831e+002, 1.289931e+002
3.387652e+002, 1.283435e+002
3.392473e+002, 1.277938e+002
3.397294e+002, 1.274413e+002
3.402115e+002, 1.268646e+002
3.406936e+002, 1.256512e+002
3.411758e+002, 1.246035e+002
3.416579e+002, 1.242706e+002
3.421400e+002, 1.245081e+002
3.426221e+002, 1.247337e+002
3.431042e+002, 1.244116e+002
3.435863e+002, 1.235426e+002
3.440685e+002, 1.230035e+002
3.445506e+002, 1.231702e+002
3.450327e+002, 1.233101e+002
3.455148e+002, 1.232640e+002
3.459969e+002, 1.230868e+002
3.464790e+002, 1.228872e+002
3.469612e+002, 1.227252e+002
3.474433e+002, 1.225741e+002
3.479254e+002, 1.223338e+002
3.484075e+002, 1.219086e+002
3.488896e+002, 1.215545e+002
3.493717e+002, 1.213608e+002
3.498539e+002, 1.212175e+002
3.503360e+002, 1.210360e+002
3.508181e+002, 1.207885e+002
3.513002e+002, 1.204851e+002
3.517823e+002, 1.201118e+002
3.522644e+002, 1.196061e+002
3.527466e+002, 1.192405e+002
3.532287e+002, 1.192128e+002
3.537108e+002, 1.191747e+002
3.541929e+002, 1.189657e+002
3.546750e+002, 1.185743e+002
3.551571e+002, 1.180573e+002
3.556393e+002, 1.174302e+002
3.561214e+002, 1.166920e+002
3.566035e+002, 1.160206e+002
3.570856e+002, 1.153489e+002
3.575677e+002, 1.148482e+002
3.580498e+002, 1.147107e+002
3.585320e+002, 1.147564e+002
3.590141e+002, 1.146857e+002
3.594962e+002, 1.143367e+002
3.599783e+002, 1.137709e+002
3.604604e+002, 1.130948e+002
3.609425e+002, 1.121383e+002
3.614247e+002, 1.114753e+002
3.619068e+002, 1.116164e+002
3.623889e+002, 1.119238e+002
3.628710e+002, 1.117601e+002
3.633531e+002, 1.109397e+002
3.638352e+002, 1.099563e+002
3.643174e+002, 1.094179e+002
3.647995e+002, 1.093704e+002
3.652816e+002, 1.092928e+002
3.657637e+002, 1.090897e+002
3.662458e+002, 1.088340e+002
3.667279e+002, 1.085368e+002
3.672101e+002, 1.082157e+002
3.676922e+002, 1.079496e+002
3.681743e+002, 1.078408e+002
3.686564e+002, 1.078450e+002
3.691385e+002, 1.077454e+002
3.696206e+002, 1.074736e+002
3.701028e+002, 1.072149e+002
3.705849e+002, 1.071398e+002
3.710670e+002, 1.071472e+002
3.715491e+002, 1.070459e+002
3.720312e+002, 1.066996e+002
3.725133e+002, 1.062815e+002
3.729955e+002, 1.060682e+002
3.734776e+002, 1.060872e+002
3.739597e+002, 1.060434e+002
3.744418e+002, 1.057177e+002
3.749239e+002, 1.053196e+002
3.754060e+002, 1.051643e+002
3.758882e+002, 1.053544e+002
3.763703e+002, 1.054562e+002
3.768524e+002, 1.049635e+002
3.773345e+002, 1.040768e+002
3.778166e+002, 1.036910e+002
3.782987e+002, 1.041928e+002
3.787809e+002, 1.049085e+002
3.792630e+002, 1.050765e+002
3.797451e+002, 1.047669e+002
3.802272e+002, 1.044229e+002
3.807093e+002, 1.041144e+002
3.811914e+002, 1.038857e+002
3.816736e+002, 1.038280e+002
3.821557e+002, 1.039534e+002
3.826378e+002, 1.041203e+002
3.831199e+002, 1.042686e+002
3.836020e+002, 1.043712e+002
3.840841e+002, 1.043526e+002
3.845663e+002, 1.041410e+002
3.850484e+002, 1.038782e+002
3.855305e+002, 1.035736e+002
3.860126e+002, 1.032720e+002
3.864947e+002, 1.031297e+002
3.869768e+002, 1.032338e+002
3.874590e+002, 1.034847e+002
3.879411e+002, 1.036944e+002
3.884232e+002, 1.038912e+002
3.889053e+002, 1.039843e+002
3.893874e+002, 1.038856e+002
3.898695e+002, 1.037071e+002
3.903517e+002, 1.035305e+002
3.908338e+002, 1.033795e+002
3.913159e+002, 1.033635e+002
3.917980e+002, 1.036548e+002
3.922801e+002, 1.043231e+002
3.927622e+002, 1.045879e+002
3.932444e+002, 1.040002e+002
3.937265e+002, 1.034717e+002
3.942086e+002, 1.034791e+002
3.946907e+002, 1.039320e+002
3.951728e+002, 1.045802e+002
3.956549e+002, 1.053121e+002
3.961371e+002, 1.060363e+002
3.966192e+002, 1.063582e+002
3.971013e+002, 1.057058e+002
3.975834e+002, 1.053558e+002
3.980655e+002, 1.055678e+002
3.985476e+002, 1.060392e+002
3.990298e+002, 1.065477e+002
3.995119e+002, 1.070023e+002
3.999940e+002, 1.073003e+002
4.004761e+002, 1.072332e+002
4.009582e+002, 1.065322e+002
4.014403e+002, 1.064345e+002
4.019225e+002, 1.074646e+002
4.024046e+002, 1.085193e+002
4.028867e+002, 1.090729e+002
4.033688e+002, 1.092201e+002
4.038509e+002, 1.093269e+002
4.043330e+002, 1.096471e+002
4.048152e+002, 1.101353e+002
4.052973e+002, 1.105279e+002
4.057794e+002, 1.107382e+002
4.062615e+002, 1.109813e+002
4.067436e+002, 1.113460e+002
4.072257e+002, 1.117355e+002
4.077079e+002, 1.120529e+002
4.081900e+002, 1.122697e+002
4.086721e+002, 1.124188e+002
4.091542e+002, 1.124717e+002
4.096363e+002, 1.123547e+002
4.101184e+002, 1.125686e+002
4.106006e+002, 1.134985e+002
4.110827e+002, 1.144820e+002
4.115648e+002, 1.151604e+002
4.120469e+002, 1.155922e+002
4.125290e+002, 1.160371e+002
4.130111e+002, 1.166915e+002
4.134933e+002, 1.174823e+002
4.139754e+002, 1.181577e+002
4.144575e+002, 1.186655e+002
4.149396e+002, 1.191965e+002
4.154217e+002, 1.198518e+002
4.159038e+002, 1.205778e+002
4.163860e+002, 1.213056e+002
4.168681e+002, 1.220042e+002
4.173502e+002, 1.227588e+002
4.178323e+002, 1.237236e+002
4.183144e+002, 1.248612e+002
4.187965e+002, 1.258205e+002
4.192787e+002, 1.265145e+002
4.197608e+002, 1.269973e+002
4.202429e+002, 1.272327e+002
4.207250e+002, 1.272476e+002
4.212071e+002, 1.274380e+002
4.216892e+002, 1.280445e+002
4.221714e+002, 1.288553e+002
4.226535e+002, 1.296663e+002
4.231356e+002, 1.304625e+002
4.236177e+002, 1.310366e+002
4.240998e+002, 1.311761e+002
4.245819e+002, 1.309794e+002
4.250641e+002, 1.309225e+002
4.255462e+002, 1.309131e+002
4.260283e+002, 1.311492e+002
4.265104e+002, 1.319126e+002
4.269925e+002, 1.329553e+002
4.274746e+002, 1.338292e+002
4.279568e+002, 1.343969e+002
4.284389e+002, 1.346811e+002
4.289210e+002, 1.346868e+002
4.294031e+002, 1.342618e+002
4.298852e+002, 1.339781e+002
4.303673e+002, 1.339133e+002
4.308495e+002, 1.339278e+002
4.313316e+002, 1.339239e+002
4.318137e+002, 1.339055e+002
4.322958e+002, 1.339366e+002
4.327779e+002, 1.340710e+002
4.332600e+002, 1.342915e+002
4.337422e+002, 1.344558e+002
4.342243e+002, 1.345888e+002
4.347064e+002, 1.346292e+002
4.351885e+002, 1.346528e+002
4.356706e+002, 1.345387e+002
4.361527e+002, 1.340596e+002
4.366349e+002, 1.331833e+002
4.371170e+002, 1.322337e+002
4.375991e+002, 1.317038e+002
4.380812e+002, 1.317428e+002
4.385633e+002, 1.316527e+002
4.390454e+002, 1.314885e+002
4.395276e+002, 1.311391e+002
4.400097e+002, 1.304676e+002
4.404918e+002, 1.295737e+002
4.409739e+002, 1.286716e+002
4.414560e+002, 1.279138e+002
4.419381e+002, 1.272179e+002
4.424203e+002, 1.262762e+002
4.429024e+002, 1.249231e+002
4.433845e+002, 1.237816e+002
4.438666e+002, 1.233215e+002
4.443487e+002, 1.229830e+002
4.448308e+002, 1.222722e+002
4.453130e+002, 1.211073e+002
4.457951e+002, 1.198654e+002
4.462772e+002, 1.188803e+002
4.467593e+002, 1.180972e+002
4.472414e+002, 1.172314e+002
4.477235e+002, 1.162262e+002
4.482057e+002, 1.151955e+002
4.486878e+002, 1.141941e+002
4.491699e+002, 1.132273e+002
4.496520e+002, 1.123411e+002
4.501341e+002, 1.115508e+002
4.506162e+002, 1.108360e+002
4.510984e+002, 1.102553e+002
4.515805e+002, 1.097696e+002
4.520626e+002, 1.091045e+002
4.525447e+002, 1.080780e+002
4.530268e+002, 1.069129e+002
4.535089e+002, 1.060566e+002
4.539911e+002, 1.055405e+002
4.544732e+002, 1.050568e+002
4.549553e+002, 1.045077e+002
4.554374e+002, 1.039745e+002
4.559195e+002, 1.035780e+002
4.564016e+002, 1.033121e+002
4.568838e+002, 1.030366e+002
4.573659e+002, 1.026479e+002
4.578480e+002, 1.021466e+002
4.583301e+002, 1.015260e+002
4.588122e+002, 1.005614e+002
4.592943e+002, 9.975881e+001
4.597765e+002, 9.936829e+001
4.602586e+002, 9.916213e+001
4.607407e+002, 9.883545e+001
4.612228e+002, 9.828954e+001
4.617049e+002, 9.763840e+001
4.621870e+002, 9.703069e+001
4.626692e+002, 9.643449e+001
4.631513e+002, 9.599868e+001
4.636334e+002, 9.589523e+001
4.641155e+002, 9.577760e+001
4.645976e+002, 9.547524e+001
4.650797e+002, 9.504236e+001
4.655619e+002, 9.463313e+001
4.660440e+002, 9.435915e+001
4.665261e+002, 9.413335e+001
4.670082e+002, 9.367135e+001
4.674903e+002, 9.281767e+001
4.679724e+002, 9.214912e+001
4.684546e+002, 9.191315e+001
4.689367e+002, 9.184632e+001
4.694188e+002, 9.184218e+001
4.699009e+002, 9.186629e+001
4.703830e+002, 9.176917e+001
4.708651e+002, 9.135473e+001
4.713473e+002, 9.071727e+001
4.718294e+002, 9.021706e+001
4.723115e+002, 8.991513e+001
4.727936e+002, 8.961752e+001
4.732757e+002, 8.907845e+001
4.737578e+002, 8.848343e+001
4.742400e+002, 8.822620e+001
4.747221e+002, 8.857973e+001
4.752042e+002, 8.892972e+001
4.756863e+002, 8.880119e+001
4.761684e+002, 8.833154e+001
4.766505e+002, 8.790000e+001
4.771327e+002, 8.760271e+001
4.776148e+002, 8.742088e+001
4.780969e+002, 8.736773e+001
4.785790e+002, 8.747653e+001
4.790611e+002, 8.745863e+001
4.795432e+002, 8.719076e+001
4.800254e+002, 8.688947e+001
4.805075e+002, 8.669279e+001
4.809896e+002, 8.658147e+001
4.814717e+002, 8.647803e+001
4.819538e+002, 8.634232e+001
4.824359e+002, 8.617696e+001
4.829181e+002, 8.598560e+001
4.834002e+002, 8.566872e+001
4.838823e+002, 8.547743e+001
4.843644e+002, 8.556778e+001
4.848465e+002, 8.566309e+001
4.853286e+002, 8.554152e+001
4.858108e+002, 8.520982e+001
4.862929e+002, 8.481269e+001
4.867750e+002, 8.442293e+001
4.872571e+002, 8.407603e+001
4.877392e+002, 8.412865e+001
4.882213e+002, 8.499622e+001
4.887035e+002, 8.557342e+001
4.891856e+002, 8.542174e+001
4.896677e+002, 8.494930e+001
4.901498e+002, 8.455808e+001
4.906319e+002, 8.434569e+001
4.911140e+002, 8.417820e+001
4.915962e+002, 8.387805e+001
4.920783e+002, 8.347742e+001
4.925604e+002, 8.329191e+001
4.930425e+002, 8.348238e+001
4.935246e+002, 8.363601e+001
4.940067e+002, 8.338950e+001
4.944889e+002, 8.288090e+001
4.949710e+002, 8.239412e+001
4.954531e+002, 8.195044e+001
4.959352e+002, 8.159850e+001
4.964173e+002, 8.139636e+001
4.968994e+002, 8.132231e+001
4.973816e+002, 8.132517e+001
4.978637e+002, 8.141924e+001
4.983458e+002, 8.147977e+001
4.988279e+002, 8.128570e+001
4.993100e+002, 8.075274e+001
4.997921e+002, 8.039649e+001
5.002743e+002, 8.045752e+001
5.007564e+002, 8.052427e+001
5.012385e+002, 8.030667e+001
5.017206e+002, 7.985470e+001
5.022027e+002, 7.934073e+001
5.026848e+002, 7.884726e+001
5.031670e+002, 7.842886e+001
5.036491e+002, 7.827300e+001
5.041312e+002, 7.870540e+001
5.046133e+002, 7.886623e+001
5.050954e+002, 7.848906e+001
5.055775e+002, 7.805069e+001
5.060597e+002, 7.791661e+001
5.065418e+002, 7.805421e+001
5.070239e+002, 7.816878e+001
5.075060e+002, 7.802201e+001
5.079881e+002, 7.766605e+001
5.084702e+002, 7.731826e+001
5.089524e+002, 7.689422e+001
5.094345e+002, 7.667506e+001
5.099166e+002, 7.698049e+001
5.103987e+002, 7.739940e+001
5.108808e+002, 7.757826e+001
5.113629e+002, 7.746172e+001
5.118451e+002, 7.718031e+001
5.123271e+002, 7.671894e+001
5.128093e+002, 7.617001e+001
5.132914e+002, 7.581110e+001
5.137735e+002, 7.568388e+001
5.142556e+002, 7.566531e+001
5.147377e+002, 7.572510e+001
5.152198e+002, 7.582523e+001
5.157020e+002, 7.584108e+001
5.161841e+002, 7.576305e+001
5.166662e+002, 7.560989e+001
5.171483e+002, 7.526058e+001
5.176304e+002, 7.487785e+001
5.181125e+002, 7.478185e+001
5.185947e+002, 7.504433e+001
5.190768e+002, 7.538687e+001
5.195589e+002, 7.551988e+001
5.200410e+002, 7.543230e+001
5.205231e+002, 7.523015e+001
5.210052e+002, 7.466384e+001
5.214874e+002, 7.428042e+001
5.219695e+002, 7.438734e+001
5.224516e+002, 7.473705e+001
5.229337e+002, 7.497602e+001
5.234158e+002, 7.497509e+001
5.238979e+002, 7.485686e+001
5.243801e+002, 7.480246e+001
5.248622e+002, 7.482957e+001
5.253443e+002, 7.483327e+001
5.258264e+002, 7.486817e+001
5.263085e+002, 7.480992e+001
5.267906e+002, 7.447795e+001
5.272728e+002, 7.403730e+001
5.277549e+002, 7.381532e+001
5.282370e+002, 7.399597e+001
5.287191e+002, 7.433006e+001
5.292012e+002, 7.452993e+001
5.296833e+002, 7.459880e+001
5.301655e+002, 7.457289e+001
5.306476e+002, 7.442196e+001
5.311297e+002, 7.424300e+001
5.316118e+002, 7.417068e+001
5.320939e+002, 7.418554e+001
5.325760e+002, 7.412682e+001
5.330582e+002, 7.385048e+001
5.335403e+002, 7.358510e+001
5.340224e+002, 7.352625e+001
5.345045e+002, 7.362852e+001
5.349866e+002, 7.373828e+001
5.354688e+002, 7.378690e+001
5.359509e+002, 7.382313e+001
5.364330e+002, 7.395461e+001
5.369151e+002, 7.432378e+001
5.373972e+002, 7.442969e+001
5.378793e+002, 7.397889e+001
5.383615e+002, 7.356110e+001
5.388436e+002, 7.356492e+001
5.393257e+002, 7.386601e+001
5.398078e+002, 7.411657e+001
5.402899e+002, 7.411650e+001
5.407720e+002, 7.398271e+001
5.412542e+002, 7.402259e+001
5.417363e+002, 7.434714e+001
5.422184e+002, 7.446415e+001
5.427005e+002, 7.401115e+001
5.431826e+002, 7.357491e+001
5.436647e+002, 7.364178e+001
5.441469e+002, 7.406499e+001
5.446290e+002, 7.421172e+001
5.451111e+002, 7.348277e+001
5.455932e+002, 7.250401e+001
5.460753e+002, 7.229182e+001
5.465574e+002, 7.282185e+001
5.470396e+002, 7.338145e+001
5.475217e+002, 7.375327e+001
5.480038e+002, 7.396413e+001
5.484859e+002, 7.401753e+001
5.489680e+002, 7.390620e+001
5.494501e+002, 7.379044e+001
5.499323e+002, 7.368284e+001
5.504144e+002, 7.359487e+001
5.508965e+002, 7.355451e+001
5.513786e+002, 7.354513e+001
5.518607e+002, 7.350435e+001
5.523428e+002, 7.339432e+001
5.528250e+002, 7.325669e+001
5.533071e+002, 7.319288e+001
5.537892e+002, 7.321108e+001
5.542713e+002, 7.329574e+001
5.547534e+002, 7.358316e+001
5.552355e+002, 7.380600e+001
5.557177e+002, 7.376427e+001
5.561998e+002, 7.352585e+001
5.566819e+002, 7.329136e+001
5.571640e+002, 7.317468e+001
5.576461e+002, 7.314645e+001
5.581282e+002, 7.316574e+001
5.586104e+002, 7.324770e+001
5.590925e+002, 7.327357e+001
5.595746e+002, 7.314842e+001
5.600567e+002, 7.302477e+001
5.605388e+002, 7.304724e+001
5.610209e+002, 7.319868e+001
5.615031e+002, 7.335439e+001
5.619852e+002, 7.352513e+001
5.624673e+002, 7.363689e+001
5.629494e+002, 7.359673e+001
5.634315e+002, 7.342222e+001
5.639136e+002, 7.317409e+001
5.643958e+002, 7.284761e+001
5.648779e+002, 7.255215e+001
5.653600e+002, 7.249037e+001
5.658421e+002, 7.278255e+001
5.663242e+002, 7.297249e+001
5.668063e+002, 7.301341e+001
5.672885e+002, 7.299912e+001
5.677706e+002, 7.295898e+001
5.682527e+002, 7.290731e+001
5.687348e+002, 7.284022e+001
5.692169e+002, 7.275252e+001
5.696990e+002, 7.270893e+001
5.701812e+002, 7.289004e+001
5.706633e+002, 7.340880e+001
5.711454e+002, 7.368628e+001
5.716275e+002, 7.345207e+001
5.721096e+002, 7.319804e+001
5.725917e+002, 7.323028e+001
5.730739e+002, 7.342873e+001
5.735560e+002, 7.348681e+001
5.740381e+002, 7.321781e+001
5.745202e+002, 7.288934e+001
5.750023e+002, 7.280479e+001
5.754844e+002, 7.293263e+001
5.759666e+002, 7.312508e+001
5.764487e+002, 7.338174e+001
5.769308e+002, 7.357548e+001
5.774129e+002, 7.351651e+001
5.778950e+002, 7.320000e+001
5.783771e+002, 7.308311e+001
5.788593e+002, 7.339864e+001
5.793414e+002, 7.367427e+001
5.798235e+002, 7.363780e+001
5.803056e+002, 7.343906e+001
5.807877e+002, 7.331808e+001
5.812698e+002, 7.334984e+001
5.817520e+002, 7.346643e+001
5.822341e+002, 7.359334e+001
5.827162e+002, 7.373772e+001
5.831984e+002, 7.383108e+001
5.836805e+002, 7.386009e+001
5.841626e+002, 7.385011e+001
5.846447e+002, 7.379230e+001
5.851268e+002, 7.370872e+001
5.856089e+002, 7.359690e+001
5.860911e+002, 7.345468e+001
5.865732e+002, 7.339188e+001
5.870553e+002, 7.356147e+001
5.875374e+002, 7.390128e+001
5.880195e+002, 7.418247e+001
5.885016e+002, 7.439353e+001
5.889838e+002, 7.450448e+001
5.894659e+002, 7.441664e+001
5.899480e+002, 7.423746e+001
5.904301e+002, 7.429370e+001
5.909122e+002, 7.473660e+001
5.913943e+002, 7.510909e+001
5.918765e+002, 7.529131e+001
5.923586e+002, 7.532458e+001
5.928407e+002, 7.517017e+001
5.933228e+002, 7.487874e+001
5.938049e+002, 7.469137e+001
5.942870e+002, 7.481351e+001
5.947692e+002, 7.514102e+001
5.952513e+002, 7.516798e+001
5.957334e+002, 7.463653e+001
5.962155e+002, 7.425997e+001
5.966976e+002, 7.418922e+001
5.971797e+002, 7.421434e+001
5.976619e+002, 7.422961e+001
5.981440e+002, 7.421322e+001
5.986261e+002, 7.414385e+001
5.991082e+002, 7.393118e+001
5.995903e+002, 7.372936e+001
6.000724e+002, 7.393175e+001
6.005546e+002, 7.454091e+001
6.010367e+002, 7.488008e+001
6.015188e+002, 7.464001e+001
6.020009e+002, 7.418891e+001
6.024830e+002, 7.400975e+001
6.029651e+002, 7.409268e+001
6.034473e+002, 7.407912e+001
6.039294e+002, 7.376991e+001
6.044115e+002, 7.349461e+001
6.048936e+002, 7.350668e+001
6.053757e+002, 7.369630e+001
6.058578e+002, 7.385608e+001
6.063400e+002, 7.390651e+001
6.068221e+002, 7.384359e+001
6.073042e+002, 7.363578e+001
6.077863e+002, 7.324307e+001
6.082684e+002, 7.297305e+001
6.087505e+002, 7.289633e+001
6.092327e+002, 7.286971e+001
6.097148e+002, 7.290235e+001
6.101969e+002, 7.293924e+001
6.106790e+002, 7.291161e+001
6.111611e+002, 7.280017e+001
6.116432e+002, 7.264926e+001
6.121254e+002, 7.247107e+001
6.126075e+002, 7.228408e+001
6.130896e+002, 7.217307e+001
6.135717e+002, 7.215934e+001
6.140538e+002, 7.208643e+001
6.145359e+002, 7.182898e+001
6.150181e+002, 7.145955e+001
6.155002e+002, 7.119131e+001
6.159823e+002, 7.102820e+001
6.164644e+002, 7.093581e+001
6.169465e+002, 7.096468e+001
6.174286e+002, 7.101894e+001
6.179108e+002, 7.100367e+001
6.183929e+002, 7.093275e+001
6.188750e+002, 7.091576e+001
6.193571e+002, 7.103945e+001
6.198392e+002, 7.117347e+001
6.203214e+002, 7.089684e+001
6.208035e+002, 6.995489e+001
6.212856e+002, 6.938984e+001
6.217677e+002, 6.962129e+001
6.222498e+002, 6.996912e+001
6.227319e+002, 7.011551e+001
6.232141e+002, 7.009624e+001
6.236962e+002, 7.003646e+001
6.241783e+002, 6.996574e+001
6.246604e+002, 6.990078e+001
6.251425e+002, 6.988346e+001
6.256246e+002, 6.988747e+001
6.261068e+002, 6.978481e+001
6.265889e+002, 6.952854e+001
6.270710e+002, 6.934411e+001
6.275531e+002, 6.949418e+001
6.280352e+002, 6.995371e+001
6.285173e+002, 7.012746e+001
6.289995e+002, 6.977816e+001
6.294816e+002, 6.948806e+001
6.299637e+002, 6.941116e+001
6.304458e+002, 6.942609e+001
6.309279e+002, 6.941483e+001
6.314100e+002, 6.936184e+001
6.318922e+002, 6.932589e+001
6.323743e+002, 6.937659e+001
6.328564e+002, 6.946537e+001
6.333385e+002, 6.937006e+001
6.338206e+002, 6.901108e+001
6.343027e+002, 6.879698e+001
6.347849e+002, 6.892313e+001
6.352670e+002, 6.916826e+001
6.357491e+002, 6.929256e+001
6.362312e+002, 6.931467e+001
6.367133e+002, 6.942581e+001
6.371954e+002, 6.993684e+001
6.376776e+002, 7.033571e+001
6.381597e+002, 6.997705e+001
6.386418e+002, 6.919626e+001
6.391239e+002, 6.891765e+001
6.396060e+002, 6.944426e+001
6.400881e+002, 7.015585e+001
6.405703e+002, 7.025182e+001
6.410524e+002, 6.966442e+001
6.415345e+002, 6.926704e+001
6.420166e+002, 6.914255e+001
6.424987e+002, 6.912666e+001
6.429808e+002, 6.932617e+001
6.434630e+002, 6.953960e+001
6.439451e+002, 6.952217e+001
6.444272e+002, 6.925005e+001
6.449093e+002, 6.897770e+001
6.453914e+002, 6.890508e+001
6.458735e+002, 6.897883e+001
6.463557e+002, 6.908372e+001
6.468378e+002, 6.922029e+001
6.473199e+002, 6.935753e+001
6.478020e+002, 6.949076e+001
6.482841e+002, 6.960847e+001
6.487662e+002, 6.971275e+001
6.492484e+002, 6.983044e+001
6.497305e+002, 6.978795e+001
6.502126e+002, 6.934861e+001
6.506947e+002, 6.896854e+001
6.511768e+002, 6.894504e+001
6.516589e+002, 6.914507e+001
6.521411e+002, 6.932217e+001
6.526232e+002, 6.938846e+001
6.531053e+002, 6.942599e+001
6.535874e+002, 6.954159e+001
6.540695e+002, 6.973569e+001
6.545516e+002, 6.994413e+001
6.550338e+002, 7.022587e+001
6.555159e+002, 7.040026e+001
6.559980e+002, 7.029530e+001
6.564801e+002, 7.008540e+001
6.569622e+002, 6.992360e+001
6.574443e+002, 6.981499e+001
6.579265e+002, 6.985072e+001
6.584086e+002, 7.023162e+001
6.588907e+002, 7.066727e+001
6.593728e+002, 7.079675e+001
6.598549e+002, 7.067202e+001
6.603370e+002, 7.056878e+001
6.608192e+002, 7.061002e+001
6.613013e+002, 7.076951e+001
6.617834e+002, 7.103245e+001
6.622655e+002, 7.149895e+001
6.627476e+002, 7.169496e+001
6.632297e+002, 7.142596e+001
6.637119e+002, 7.109550e+001
6.641940e+002, 7.063828e+001
6.646761e+002, 7.026992e+001
6.651582e+002, 7.034424e+001
6.656403e+002, 7.095516e+001
6.661224e+002, 7.160850e+001
6.666046e+002, 7.190891e+001
6.670867e+002, 7.194711e+001
6.675688e+002, 7.189323e+001
6.680509e+002, 7.175667e+001
6.685330e+002, 7.166994e+001
6.690151e+002, 7.170267e+001
6.694973e+002, 7.181841e+001
6.699794e+002, 7.194753e+001
6.704615e+002, 7.208791e+001
6.709436e+002, 7.224937e+001
6.714257e+002, 7.246495e+001
6.719078e+002, 7.266712e+001
6.723900e+002, 7.282780e+001
6.728721e+002, 7.294822e+001
6.733542e+002, 7.301962e+001
6.738363e+002, 7.304185e+001
6.743184e+002, 7.307262e+001
6.748005e+002, 7.321214e+001
6.752827e+002, 7.344144e+001
6.757648e+002, 7.354089e+001
6.762469e+002, 7.344849e+001
6.767290e+002, 7.343546e+001
6.772111e+002, 7.371303e+001
6.776932e+002, 7.409627e+001
6.781754e+002, 7.422449e+001
6.786575e+002, 7.402438e+001
6.791396e+002, 7.397776e+001
6.796217e+002, 7.431676e+001
6.801038e+002, 7.474393e+001
6.805859e+002, 7.509480e+001
6.810681e+002, 7.534516e+001
6.815502e+002, 7.542725e+001
6.820323e+002, 7.532374e+001
6.825144e+002, 7.522670e+001
6.829965e+002, 7.543533e+001
6.834786e+002, 7.597062e+001
6.839608e+002, 7.646076e+001
6.844429e+002, 7.694484e+001
6.849250e+002, 7.730817e+001
6.854071e+002, 7.742965e+001
6.858892e+002, 7.744478e+001
6.863713e+002, 7.742343e+001
6.868535e+002, 7.735960e+001
6.873356e+002, 7.754520e+001
6.878177e+002, 7.839864e+001
6.882998e+002, 7.934229e+001
6.887819e+002, 7.971918e+001
6.892640e+002, 7.965977e+001
6.897462e+002, 7.965618e+001
6.902283e+002, 7.990109e+001
6.907104e+002, 8.027619e+001
6.911925e+002, 8.060686e+001
6.916746e+002, 8.087767e+001
6.921567e+002, 8.125832e+001
6.926389e+002, 8.183059e+001
6.931210e+002, 8.240990e+001
6.936031e+002, 8.300937e+001
6.940852e+002, 8.355832e+001
6.945673e+002, 8.401148e+001
6.950494e+002, 8.435692e+001
6.955316e+002, 8.453722e+001
6.960137e+002, 8.424603e+001
6.964958e+002, 8.394305e+001
6.969779e+002, 8.438918e+001
6.974600e+002, 8.541875e+001
6.979421e+002, 8.622151e+001
6.984243e+002, 8.649861e+001
6.989064e+002, 8.658042e+001
6.993885e+002, 8.687657e+001
6.998706e+002, 8.740794e+001
7.003527e+002, 8.788233e+001
7.008348e+002, 8.835332e+001
7.013170e+002, 8.869761e+001
7.017991e+002, 8.878670e+001
7.022812e+002, 8.880873e+001
7.027633e+002, 8.890011e+001
7.032454e+002, 8.909354e+001
7.037275e+002, 8.941297e+001
7.042097e+002, 8.999272e+001
7.046918e+002, 9.060695e+001
7.051739e+002, 9.082798e+001
7.056560e+002, 9.072951e+001
7.061381e+002, 9.081559e+001
7.066202e+002, 9.126139e+001
7.071024e+002, 9.171433e+001
7.075845e+002, 9.178384e+001
7.080666e+002, 9.147937e+001
7.085487e+002, 9.136148e+001
7.090308e+002, 9.149897e+001
7.095129e+002, 9.172057e+001
7.099951e+002, 9.208070e+001
7.104772e+002, 9.245557e+001
7.109593e+002, 9.277254e+001
7.114414e+002, 9.300834e+001
7.119235e+002, 9.313525e+001
7.124056e+002, 9.312596e+001
7.128878e+002, 9.302502e+001
7.133699e+002, 9.282436e+001
7.138520e+002, 9.256196e+001
7.143341e+002, 9.254639e+001
7.148162e+002, 9.286983e+001
7.152983e+002, 9.327503e+001
7.157805e+002, 9.357810e+001
7.162626e+002, 9.378671e+001
7.167447e+002, 9.394437e+001
7.172268e+002, 9.382453e+001
7.177089e+002, 9.398009e+001
7.181910e+002, 9.475776e+001
7.186732e+002, 9.556589e+001
7.191553e+002, 9.591653e+001
7.196374e+002, 9.594360e+001
7.201195e+002, 9.606711e+001
7.206016e+002, 9.648917e+001
7.210837e+002, 9.706374e+001
7.215659e+002, 9.764544e+001
7.220480e+002, 9.821974e+001
7.225301e+002, 9.868584e+001
7.230122e+002, 9.902384e+001
7.234943e+002, 9.931402e+001
7.239764e+002, 9.954876e+001
7.244586e+002, 9.981158e+001
7.249407e+002, 1.003364e+002
7.254228e+002, 1.012302e+002
7.259049e+002, 1.021170e+002
7.263870e+002, 1.029861e+002
7.268691e+002, 1.038319e+002
7.273513e+002, 1.045531e+002
7.278334e+002, 1.052772e+002
7.283155e+002, 1.061666e+002
7.287976e+002, 1.072798e+002
7.292797e+002, 1.086686e+002
7.297618e+002, 1.106411e+002
7.302440e+002, 1.129294e+002
7.307261e+002, 1.144684e+002
7.312082e+002, 1.151807e+002
7.316903e+002, 1.158611e+002
7.321724e+002, 1.167391e+002
7.326545e+002, 1.178945e+002
7.331367e+002, 1.195037e+002
7.336188e+002, 1.216679e+002
7.341009e+002, 1.237478e+002
7.345830e+002, 1.256411e+002
7.350651e+002, 1.275796e+002
7.355472e+002, 1.295326e+002
7.360294e+002, 1.316391e+002
7.365115e+002, 1.340538e+002
7.369936e+002, 1.367839e+002
7.374757e+002, 1.397209e+002
7.379578e+002, 1.428027e+002
7.384399e+002, 1.460165e+002
7.389221e+002, 1.493788e+002
7.394042e+002, 1.528815e+002
7.398863e+002, 1.564633e+002
7.403684e+002, 1.600693e+002
7.408505e+002, 1.638939e+002
7.413326e+002, 1.681548e+002
7.418148e+002, 1.728080e+002
7.422969e+002, 1.773477e+002
7.427790e+002, 1.813269e+002
7.432611e+002, 1.858232e+002
7.437432e+002, 1.912321e+002
7.442253e+002, 1.969555e+002
7.447075e+002, 2.026480e+002
7.451896e+002, 2.082818e+002
7.456717e+002, 2.139018e+002
7.461538e+002, 2.195094e+002
7.466359e+002, 2.252381e+002
7.471180e+002, 2.313060e+002
7.476002e+002, 2.376504e+002
7.480823e+002, 2.442444e+002
7.485644e+002, 2.511163e+002
7.490465e+002, 2.577268e+002
7.495286e+002, 2.637704e+002
7.500107e+002, 2.694076e+002
7.504929e+002, 2.750618e+002
7.509750e+002, 2.810198e+002
7.514571e+002, 2.863134e+002
7.519392e+002, 2.909360e+002
7.524213e+002, 2.949509e+002
7.529034e+002, 2.985296e+002
7.533856e+002, 3.014648e+002
7.538677e+002, 3.034202e+002
7.543498e+002, 3.043390e+002
7.548319e+002, 3.046541e+002
7.553140e+002, 3.047290e+002
7.557961e+002, 3.043810e+002
7.562783e+002, 3.033809e+002
7.567604e+002, 3.017010e+002
7.572425e+002, 2.991221e+002
7.577246e+002, 2.955589e+002
7.582067e+002, 2.913438e+002
7.586888e+002, 2.868457e+002
7.591710e+002, 2.820502e+002
7.596531e+002, 2.773707e+002
7.601352e+002, 2.731284e+002
7.606173e+002, 2.685133e+002
7.610994e+002, 2.631341e+002
7.615815e+002, 2.575937e+002
7.620637e+002, 2.523616e+002
7.625458e+002, 2.473737e+002
7.630279e+002, 2.422045e+002
7.635100e+002, 2.365316e+002
7.639921e+002, 2.309640e+002
7.644742e+002, 2.260303e+002
7.649564e+002, 2.215336e+002
7.654385e+002, 2.171701e+002
7.659206e+002, 2.128740e+002
7.664027e+002, 2.087007e+002
7.668848e+002, 2.046810e+002
7.673669e+002, 2.008985e+002
7.678491e+002, 1.976670e+002
7.683312e+002, 1.952562e+002
7.688133e+002, 1.923610e+002
7.692954e+002, 1.886232e+002
7.697775e+002, 1.848884e+002
7.702596e+002, 1.812922e+002
7.707418e+002, 1.780024e+002
7.712239e+002, 1.753909e+002
7.717060e+002, 1.735537e+002
7.721881e+002, 1.716183e+002
7.726702e+002, 1.689870e+002
7.731523e+002, 1.663681e+002
7.736345e+002, 1.644241e+002
7.741166e+002, 1.629255e+002
7.745987e+002, 1.614056e+002
7.750808e+002, 1.597173e+002
7.755629e+002, 1.579096e+002
7.760450e+002, 1.559863e+002
7.765272e+002, 1.540095e+002
7.770093e+002, 1.523057e+002
7.774914e+002, 1.509265e+002
7.779735e+002, 1.495115e+002
7.784556e+002, 1.478417e+002
7.789377e+002, 1.463049e+002
7.794199e+002, 1.453866e+002
7.799020e+002, 1.449268e+002
7.803841e+002, 1.441060e+002
7.808662e+002, 1.425582e+002
7.813483e+002, 1.411467e+002
7.818304e+002, 1.402045e+002
7.823126e+002, 1.393629e+002
7.827947e+002, 1.382672e+002
7.832768e+002, 1.370071e+002
7.837589e+002, 1.358890e+002
7.842410e+002, 1.350493e+002
7.847231e+002, 1.343700e+002
7.852053e+002, 1.337855e+002
7.856874e+002, 1.332460e+002
7.861695e+002, 1.325167e+002
7.866516e+002, 1.315795e+002
7.871337e+002, 1.306321e+002
7.876158e+002, 1.297492e+002
7.880980e+002, 1.289400e+002
7.885801e+002, 1.282173e+002
7.890622e+002, 1.275908e+002
7.895443e+002, 1.270208e+002
7.900264e+002, 1.265941e+002
7.905085e+002, 1.261148e+002
7.909907e+002, 1.254850e+002
7.914728e+002, 1.248241e+002
7.919549e+002, 1.242841e+002
7.924370e+002, 1.238370e+002
7.929191e+002, 1.232724e+002
7.934012e+002, 1.223806e+002
7.938834e+002, 1.215042e+002
7.943655e+002, 1.210603e+002
7.948476e+002, 1.208597e+002
7.953297e+002, 1.204566e+002
7.958118e+002, 1.198132e+002
7.962939e+002, 1.192628e+002
7.967761e+002, 1.190296e+002
7.972582e+002, 1.189906e+002
7.977403e+002, 1.188463e+002
7.982224e+002, 1.185525e+002
7.987045e+002, 1.183473e+002
7.991866e+002, 1.183371e+002
7.996688e+002, 1.182575e+002
8.001509e+002, 1.178587e+002
8.006330e+002, 1.173904e+002
8.011151e+002, 1.171254e+002
8.015972e+002, 1.170799e+002
8.020793e+002, 1.172678e+002
8.025615e+002, 1.180076e+002
8.030436e+002, 1.186546e+002
8.035257e+002, 1.187123e+002
8.040078e+002, 1.184620e+002
8.044899e+002, 1.183221e+002
8.049720e+002, 1.183697e+002
8.054542e+002, 1.184383e+002
8.059363e+002, 1.183995e+002
8.064184e+002, 1.182948e+002
8.069005e+002, 1.181674e+002
8.073826e+002, 1.180256e+002
8.078647e+002, 1.181130e+002
8.083469e+002, 1.185148e+002
8.088290e+002, 1.189349e+002
8.093111e+002, 1.191543e+002
8.097932e+002, 1.192482e+002
8.102753e+002, 1.194419e+002
8.107574e+002, 1.197301e+002
8.112396e+002, 1.201404e+002
8.117217e+002, 1.207414e+002
8.122038e+002, 1.213861e+002
8.126859e+002, 1.220491e+002
8.131680e+002, 1.227047e+002
8.136501e+002, 1.233019e+002
8.141323e+002, 1.238398e+002
8.146144e+002, 1.244155e+002
8.150965e+002, 1.251746e+002
8.155786e+002, 1.259368e+002
8.160607e+002, 1.263846e+002
8.165428e+002, 1.266721e+002
8.170250e+002, 1.272604e+002
8.175071e+002, 1.282326e+002
8.179892e+002, 1.291806e+002
8.184713e+002, 1.297082e+002
8.189534e+002, 1.300542e+002
8.194355e+002, 1.311777e+002
8.199177e+002, 1.333195e+002
8.203998e+002, 1.351190e+002
8.208819e+002, 1.363092e+002
8.213640e+002, 1.373444e+002
8.218461e+002, 1.384073e+002
8.223282e+002, 1.395296e+002
8.228104e+002, 1.407983e+002
8.232925e+002, 1.422687e+002
8.237746e+002, 1.436886e+002
8.242567e+002, 1.448327e+002
8.247388e+002, 1.461114e+002
8.252209e+002, 1.479033e+002
8.257031e+002, 1.499177e+002
8.261852e+002, 1.517293e+002
8.266673e+002, 1.532508e+002
8.271494e+002, 1.546568e+002
8.276315e+002, 1.559954e+002
8.281136e+002, 1.573781e+002
8.285958e+002, 1.591018e+002
8.290779e+002, 1.610775e+002
8.295600e+002, 1.629033e+002
8.300421e+002, 1.645014e+002
8.305242e+002, 1.658973e+002
8.310063e+002, 1.670783e+002
8.314885e+002, 1.681230e+002
8.319706e+002, 1.692807e+002
8.324527e+002, 1.706597e+002
8.329348e+002, 1.718778e+002
8.334169e+002, 1.731167e+002
8.338990e+002, 1.739425e+002
8.343812e+002, 1.741496e+002
8.348633e+002, 1.739019e+002
8.353454e+002, 1.732613e+002
8.358275e+002, 1.722244e+002
8.363096e+002, 1.714467e+002
8.367917e+002, 1.716753e+002
8.372739e+002, 1.716605e+002
8.377560e+002, 1.705863e+002
8.382381e+002, 1.687966e+002
8.387202e+002, 1.665975e+002
8.392023e+002, 1.641828e+002
8.396844e+002, 1.620002e+002
8.401666e+002, 1.604515e+002
8.406487e+002, 1.589946e+002
8.411308e+002, 1.566625e+002
8.416129e+002, 1.535476e+002
8.420950e+002, 1.502175e+002
8.425771e+002, 1.466845e+002
8.430593e+002, 1.435011e+002
8.435414e+002, 1.410411e+002
8.440235e+002, 1.389430e+002
8.445056e+002, 1.365006e+002
8.449877e+002, 1.336194e+002
8.454698e+002, 1.309236e+002
8.459520e+002, 1.285340e+002
8.464341e+002, 1.261705e+002
8.469162e+002, 1.236407e+002
8.473983e+002, 1.212128e+002
8.478804e+002, 1.190896e+002
8.483625e+002, 1.172801e+002
8.488447e+002, 1.157211e+002
8.493268e+002, 1.145468e+002
8.498089e+002, 1.133791e+002
8.502910e+002, 1.120092e+002
8.507731e+002, 1.105224e+002
8.512552e+002, 1.089145e+002
8.517374e+002, 1.072826e+002
8.522195e+002, 1.058663e+002
8.527016e+002, 1.047769e+002
8.531837e+002, 1.038398e+002
8.536658e+002, 1.028368e+002
8.541479e+002, 1.017925e+002
8.546301e+002, 1.007905e+002
8.551122e+002, 9.983606e+001
8.555943e+002, 9.899533e+001
8.560764e+002, 9.832809e+001
8.565585e+002, 9.766194e+001
8.570406e+002, 9.678452e+001
8.575228e+002, 9.572976e+001
8.580049e+002, 9.486000e+001
8.584870e+002, 9.424805e+001
8.589691e+002, 9.371121e+001
8.594512e+002, 9.317394e+001
8.599333e+002, 9.276821e+001
8.604155e+002, 9.280311e+001
8.608976e+002, 9.294936e+001
8.613797e+002, 9.251989e+001
8.618618e+002, 9.128602e+001
8.623439e+002, 9.013934e+001
8.628260e+002, 8.950979e+001
8.633082e+002, 8.905352e+001
8.637903e+002, 8.862550e+001
8.642724e+002, 8.812841e+001
8.647545e+002, 8.732122e+001
8.652366e+002, 8.622324e+001
8.657188e+002, 8.526656e+001
8.662009e+002, 8.479799e+001
8.666830e+002, 8.464371e+001
8.671651e+002, 8.457459e+001
8.676472e+002, 8.454371e+001
8.681293e+002, 8.419802e+001
8.686115e+002, 8.347110e+001
8.690936e+002, 8.275559e+001
8.695757e+002, 8.227229e+001
8.700578e+002, 8.198495e+001
8.705399e+002, 8.186437e+001
8.710220e+002, 8.201575e+001
8.715042e+002, 8.178422e+001
8.719863e+002, 8.089674e+001
8.724684e+002, 8.006921e+001
8.729505e+002, 7.959043e+001
8.734326e+002, 7.921278e+001
8.739147e+002, 7.867370e+001
8.743969e+002, 7.801891e+001
8.748790e+002, 7.758100e+001
8.753611e+002, 7.759789e+001
8.758432e+002, 7.759324e+001
8.763253e+002, 7.746878e+001
8.768074e+002, 7.719738e+001
8.772896e+002, 7.661745e+001
8.777717e+002, 7.589421e+001
8.782538e+002, 7.542665e+001
8.787359e+002, 7.535651e+001
8.792180e+002, 7.532577e+001
8.797001e+002, 7.497948e+001
8.801823e+002, 7.445926e+001
8.806644e+002, 7.400523e+001
8.811465e+002, 7.361367e+001
8.816286e+002, 7.324783e+001
8.821107e+002, 7.289829e+001
8.825928e+002, 7.258669e+001
8.830750e+002, 7.234952e+001
8.835571e+002, 7.213852e+001
8.840392e+002, 7.175381e+001
8.845213e+002, 7.113814e+001
8.850034e+002, 7.070042e+001
8.854855e+002, 7.052895e+001
8.859677e+002, 7.042171e+001
8.864498e+002, 7.030003e+001
8.869319e+002, 7.016659e+001
8.874140e+002, 7.005465e+001
8.878961e+002, 6.999728e+001
8.883782e+002, 6.974435e+001
8.888604e+002, 6.909020e+001
8.893425e+002, 6.849991e+001
8.898246e+002, 6.805653e+001
8.903067e+002, 6.776299e+001
8.907888e+002, 6.774740e+001
8.912709e+002, 6.788052e+001
8.917531e+002, 6.775558e+001
8.922352e+002, 6.713803e+001
8.927173e+002, 6.653887e+001
8.931994e+002, 6.633433e+001
8.936815e+002, 6.631718e+001
8.941636e+002, 6.628818e+001
8.946458e+002, 6.623023e+001
8.951279e+002, 6.618623e+001
8.956100e+002, 6.615659e+001
8.960921e+002, 6.601076e+001
8.965742e+002, 6.557044e+001
8.970563e+002, 6.497379e+001
8.975385e+002, 6.456931e+001
8.980206e+002, 6.435088e+001
8.985027e+002, 6.429353e+001
8.989848e+002, 6.441465e+001
8.994669e+002, 6.444628e+001
8.999490e+002, 6.418852e+001
9.004312e+002, 6.377718e+001
9.009133e+002, 6.353429e+001
9.013954e+002, 6.352064e+001
9.018775e+002, 6.339313e+001
9.023596e+002, 6.309815e+001
9.028417e+002, 6.277666e+001
9.033239e+002, 6.238151e+001
9.038060e+002, 6.205195e+001
9.042881e+002, 6.195375e+001
9.047702e+002, 6.205250e+001
9.052523e+002, 6.212685e+001
9.057344e+002, 6.231346e+001
9.062166e+002, 6.223146e+001
9.066987e+002, 6.146723e+001
9.071808e+002, 6.070994e+001
9.076629e+002, 6.049018e+001
9.081450e+002, 6.063308e+001
9.086271e+002, 6.081508e+001
9.091093e+002, 6.093813e+001
9.095914e+002, 6.089845e+001
9.100735e+002, 6.046021e+001
9.105556e+002, 5.996154e+001
9.110377e+002, 5.984795e+001
9.115198e+002, 5.993780e+001
9.120020e+002, 5.982259e+001
9.124841e+002, 5.946907e+001
9.129662e+002, 5.914531e+001
9.134483e+002, 5.901915e+001
9.139304e+002, 5.902049e+001
9.144125e+002, 5.904765e+001
9.148947e+002, 5.909782e+001
9.153768e+002, 5.916009e+001
9.158589e+002, 5.923679e+001
9.163410e+002, 5.925416e+001
9.168231e+002, 5.917396e+001
9.173052e+002, 5.907493e+001
9.177874e+002, 5.905802e+001
9.182695e+002, 5.910496e+001
9.187516e+002, 5.902750e+001
9.192337e+002, 5.874506e+001
9.197158e+002, 5.853399e+001
9.201979e+002, 5.847701e+001
9.206801e+002, 5.842182e+001
9.211622e+002, 5.827105e+001
9.216443e+002, 5.807393e+001
9.221264e+002, 5.789293e+001
9.226085e+002, 5.771952e+001
9.230906e+002, 5.763759e+001
9.235728e+002, 5.773524e+001
9.240549e+002, 5.783013e+001
9.245370e+002, 5.796254e+001
9.250191e+002, 5.797771e+001
9.255012e+002, 5.757820e+001
9.259833e+002, 5.693269e+001
9.264655e+002, 5.659743e+001
9.269476e+002, 5.684638e+001
9.274297e+002, 5.715669e+001
9.279118e+002, 5.713094e+001
9.283939e+002, 5.700431e+001
9.288760e+002, 5.707648e+001
9.293582e+002, 5.725714e+001
9.298403e+002, 5.729624e+001
9.303224e+002, 5.714120e+001
9.308045e+002, 5.693596e+001
9.312866e+002, 5.677392e+001
9.317687e+002, 5.667838e+001
9.322509e+002, 5.675135e+001
9.327330e+002, 5.693882e+001
9.332151e+002, 5.699232e+001
9.336972e+002, 5.688689e+001
9.341793e+002, 5.669083e+001
9.346614e+002, 5.642558e+001
9.351436e+002, 5.617357e+001
9.356257e+002, 5.604952e+001
9.361078e+002, 5.605193e+001
9.365899e+002, 5.621318e+001
9.370720e+002, 5.663769e+001
9.375541e+002, 5.675840e+001
9.380363e+002, 5.631561e+001
9.385184e+002, 5.584459e+001
9.390005e+002, 5.575709e+001
9.394826e+002, 5.591829e+001
9.399647e+002, 5.594164e+001
9.404468e+002, 5.574249e+001
9.409290e+002, 5.563540e+001
9.414111e+002, 5.574674e+001
9.418932e+002, 5.578534e+001
9.423753e+002, 5.558482e+001
9.428574e+002, 5.533959e+001
9.433395e+002, 5.522624e+001
9.438217e+002, 5.523650e+001
9.443038e+002, 5.528154e+001
9.447859e+002, 5.538303e+001
9.452680e+002, 5.543632e+001
9.457501e+002, 5.536905e+001
9.462322e+002, 5.527385e+001
9.467144e+002, 5.523352e+001
9.471965e+002, 5.521009e+001
9.476786e+002, 5.513289e+001
9.481607e+002, 5.498812e+001
9.486428e+002, 5.480830e+001
9.491249e+002, 5.456258e+001
9.496071e+002, 5.435874e+001
9.500892e+002, 5.434149e+001
9.505713e+002, 5.442584e+001
9.510534e+002, 5.449217e+001
9.515355e+002, 5.451799e+001
9.520176e+002, 5.449133e+001
9.524998e+002, 5.440768e+001
9.529819e+002, 5.430345e+001
9.534640e+002, 5.417687e+001
9.539461e+002, 5.407872e+001
9.544282e+002, 5.422731e+001
9.549103e+002, 5.457973e+001
9.553925e+002, 5.480445e+001
9.558746e+002, 5.483307e+001
9.563567e+002, 5.471876e+001
9.568388e+002, 5.447404e+001
9.573209e+002, 5.419846e+001
9.578030e+002, 5.412860e+001
9.582852e+002, 5.428839e+001
9.587673e+002, 5.438249e+001
9.592494e+002, 5.441359e+001
9.597315e+002, 5.435705e+001
9.602136e+002, 5.417233e+001
9.606957e+002, 5.396482e+001
9.611779e+002, 5.383605e+001
9.616600e+002, 5.377167e+001
9.621421e+002, 5.369075e+001
9.626242e+002, 5.350621e+001
9.631063e+002, 5.348414e+001
9.635884e+002, 5.391415e+001
9.640706e+002, 5.414308e+001
9.645527e+002, 5.365569e+001
9.650348e+002, 5.303072e+001
9.655169e+002, 5.299495e+001
9.659990e+002, 5.351350e+001
9.664811e+002, 5.381881e+001
9.669633e+002, 5.364966e+001
9.674454e+002, 5.347826e+001
9.679275e+002, 5.340517e+001
9.684096e+002, 5.336639e+001
9.688917e+002, 5.334870e+001
9.693738e+002, 5.332141e+001
9.698560e+002, 5.320004e+001
9.703381e+002, 5.297718e+001
9.708202e+002, 5.288012e+001
9.713023e+002, 5.314770e+001
9.717844e+002, 5.342686e+001
9.722665e+002, 5.349677e+001
9.727487e+002, 5.343871e+001
9.732308e+002, 5.331120e+001
9.737129e+002, 5.315129e+001
9.741950e+002, 5.299918e+001
9.746771e+002, 5.287095e+001
9.751592e+002, 5.282071e+001
9.756414e+002, 5.295290e+001
9.761235e+002, 5.315161e+001
9.766056e+002, 5.328584e+001
9.770877e+002, 5.334599e+001
9.775698e+002, 5.327737e+001
9.780519e+002, 5.309996e+001
9.785341e+002, 5.295350e+001
9.790162e+002, 5.292010e+001
9.794983e+002, 5.296757e+001
9.799804e+002, 5.307533e+001
9.804625e+002, 5.322308e+001
9.809446e+002, 5.336063e+001
9.814268e+002, 5.347578e+001
9.819089e+002, 5.342650e+001
9.823910e+002, 5.317381e+001
9.828731e+002, 5.295866e+001
9.833552e+002, 5.298291e+001
9.838373e+002, 5.315537e+001
9.843195e+002, 5.327802e+001
9.848016e+002, 5.335579e+001
9.852837e+002, 5.320965e+001
9.857658e+002, 5.275309e+001
9.862479e+002, 5.258082e+001
9.867300e+002, 5.300400e+001
9.872122e+002, 5.347383e+001
9.876943e+002, 5.342021e+001
9.881764e+002, 5.294112e+001
9.886585e+002, 5.256999e+001
9.891406e+002, 5.232198e+001
9.896227e+002, 5.214183e+001
9.901049e+002, 5.207782e+001
9.905870e+002, 5.198249e+001
9.910691e+002, 5.170523e+001
9.915512e+002, 5.145377e+001
9.920333e+002, 5.150404e+001
9.925154e+002, 5.184707e+001
9.929976e+002, 5.217224e+001
9.934797e+002, 5.271432e+001
9.939618e+002, 5.288158e+001
9.944439e+002, 5.229805e+001
9.949260e+002, 5.172123e+001
9.954081e+002, 5.152714e+001
9.958903e+002, 5.154377e+001
9.963724e+002, 5.151645e+001
9.968545e+002, 5.143104e+001
9.973366e+002, 5.148040e+001
9.978187e+002, 5.185284e+001
9.983008e+002, 5.215508e+001
9.987830e+002, 5.226106e+001
9.992651e+002, 5.227423e+001
9.997472e+002, 5.222565e+001
1.000229e+003, 5.215590e+001
1.000711e+003, 5.212499e+001
1.001194e+003, 5.214363e+001
1.001676e+003, 5.215665e+001
1.002158e+003, 5.211502e+001
1.002640e+003, 5.209153e+001
1.003122e+003, 5.222277e+001
1.003604e+003, 5.231941e+001
1.004086e+003, 5.208169e+001
1.004568e+003, 5.166097e+001
1.005050e+003, 5.144195e+001
1.005533e+003, 5.154488e+001
1.006015e+003, 5.179021e+001
1.006497e+003, 5.224082e+001
1.006979e+003, 5.259324e+001
1.007461e+003, 5.241403e+001
1.007943e+003, 5.201376e+001
1.008425e+003, 5.191095e+001
1.008907e+003, 5.207189e+001
1.009390e+003, 5.212936e+001
1.009872e+003, 5.192738e+001
1.010354e+003, 5.168754e+001
1.010836e+003, 5.165253e+001
1.011318e+003, 5.169903e+001
1.011800e+003, 5.160357e+001
1.012282e+003, 5.143220e+001
1.012764e+003, 5.132788e+001
1.013246e+003, 5.132351e+001
1.013729e+003, 5.147295e+001
1.014211e+003, 5.181182e+001
1.014693e+003, 5.211066e+001
1.015175e+003, 5.200015e+001
1.015657e+003, 5.163155e+001
1.016139e+003, 5.139303e+001
1.016621e+003, 5.129695e+001
1.017103e+003, 5.146825e+001
1.017586e+003, 5.190661e+001
1.018068e+003, 5.230909e+001
1.018550e+003, 5.249062e+001
1.019032e+003, 5.250554e+001
1.019514e+003, 5.241188e+001
1.019996e+003, 5.222402e+001
1.020478e+003, 5.202417e+001
1.020960e+003, 5.181444e+001
1.021442e+003, 5.170028e+001
1.021925e+003, 5.170960e+001
1.022407e+003, 5.176160e+001
1.022889e+003, 5.180756e+001
1.023371e+003, 5.183458e+001
1.023853e+003, 5.180275e+001
1.024335e+003, 5.171087e+001
1.024817e+003, 5.169421e+001
1.025299e+003, 5.176356e+001
1.025781e+003, 5.182801e+001
1.026264e+003, 5.187158e+001
1.026746e+003, 5.187643e+001
1.027228e+003, 5.182051e+001
1.027710e+003, 5.173351e+001
1.028192e+003, 5.170652e+001
1.028674e+003, 5.177055e+001
1.029156e+003, 5.159606e+001
1.029638e+003, 5.103200e+001
1.030120e+003, 5.076052e+001
1.030603e+003, 5.103907e+001
1.031085e+003, 5.147186e+001
1.031567e+003, 5.179279e+001
1.032049e+003, 5.200777e+001
1.032531e+003, 5.213656e+001
1.033013e+003, 5.218953e+001
1.033495e+003, 5.208958e+001
1.033977e+003, 5.168764e+001
1.034460e+003, 5.146189e+001
1.034942e+003, 5.165153e+001
1.035424e+003, 5.187928e+001
1.035906e+003, 5.184588e+001
1.036388e+003, 5.162695e+001
1.036870e+003, 5.142698e+001
1.037352e+003, 5.122449e+001
1.037834e+003, 5.111557e+001
1.038317e+003, 5.103014e+001
1.038799e+003, 5.115356e+001
1.039281e+003, 5.180932e+001
1.039763e+003, 5.240555e+001
1.040245e+003, 5.241018e+001
1.040727e+003, 5.201833e+001
1.041209e+003, 5.178059e+001
1.041691e+003, 5.173214e+001
1.042173e+003, 5.172834e+001
1.042656e+003, 5.185762e+001
1.043138e+003, 5.190844e+001
1.043620e+003, 5.175196e+001
1.044102e+003, 5.156987e+001
1.044584e+003, 5.150747e+001
1.045066e+003, 5.152438e+001
1.045548e+003, 5.149607e+001
1.046030e+003, 5.137254e+001
1.046512e+003, 5.137183e+001
1.046995e+003, 5.168470e+001
1.047477e+003, 5.190129e+001
1.047959e+003, 5.192226e+001
1.048441e+003, 5.178279e+001
1.048923e+003, 5.139316e+001
1.049405e+003, 5.089297e+001
1.049887e+003, 5.059644e+001
1.050369e+003, 5.055885e+001
1.050852e+003, 5.062984e+001
1.051334e+003, 5.091470e+001
1.051816e+003, 5.112820e+001
1.052298e+003, 5.114843e+001
1.052780e+003, 5.108134e+001
1.053262e+003, 5.099381e+001
1.053744e+003, 5.089400e+001
1.054226e+003, 5.076227e+001
1.054708e+003, 5.057836e+001
1.055191e+003, 5.050356e+001
1.055673e+003, 5.062196e+001
1.056155e+003, 5.080323e+001
1.056637e+003, 5.118675e+001
1.057119e+003, 5.144059e+001
1.057601e+003, 5.110632e+001
1.058083e+003, 5.048853e+001
1.058565e+003, 5.026144e+001
1.059047e+003, 5.057056e+001
1.059530e+003, 5.088797e+001
1.060012e+003, 5.109418e+001
1.060494e+003, 5.120293e+001
1.060976e+003, 5.123061e+001
1.061458e+003, 5.115258e+001
1.061940e+003, 5.081477e+001
1.062422e+003, 5.040303e+001
1.062904e+003, 5.031783e+001
1.063387e+003, 5.063158e+001
1.063869e+003, 5.083007e+001
1.064351e+003, 5.064394e+001
1.064833e+003, 5.040471e+001
1.065315e+003, 5.016888e+001
1.065797e+003, 5.002615e+001
1.066279e+003, 5.009996e+001
1.066761e+003, 5.029993e+001
1.067244e+003, 5.051639e+001
1.067726e+003, 5.071239e+001
1.068208e+003, 5.072271e+001
1.068690e+003, 5.029973e+001
1.069172e+003, 4.991954e+001
1.069654e+003, 4.979939e+001
1.070136e+003, 4.980783e+001
1.070618e+003, 4.992180e+001
1.071100e+003, 5.005085e+001
1.071583e+003, 5.005217e+001
1.072065e+003, 4.991718e+001
1.072547e+003, 4.978482e+001
1.073029e+003, 4.966590e+001
1.073511e+003, 4.963606e+001
1.073993e+003, 4.982215e+001
1.074475e+003, 5.002043e+001
1.074957e+003, 5.010393e+001
1.075439e+003, 5.007901e+001
1.075922e+003, 4.989785e+001
1.076404e+003, 4.961181e+001
1.076886e+003, 4.950826e+001
1.077368e+003, 4.981258e+001
1.077850e+003, 5.004323e+001
1.078332e+003, 4.988121e+001
1.078814e+003, 4.966401e+001
1.079297e+003, 4.963391e+001
1.079779e+003, 4.970079e+001
1.080261e+003, 4.968670e+001
1.080743e+003, 4.962492e+001
1.081225e+003, 4.978388e+001
1.081707e+003, 5.038948e+001
1.082189e+003, 5.075911e+001
1.082671e+003, 5.034453e+001
1.083153e+003, 4.985717e+001
1.083635e+003, 4.979041e+001
1.084118e+003, 4.988391e+001
1.084600e+003, 4.985912e+001
1.085082e+003, 4.968891e+001
1.085564e+003, 4.938142e+001
1.086046e+003, 4.887923e+001
1.086528e+003, 4.857728e+001
1.087010e+003, 4.881641e+001
1.087492e+003, 4.909318e+001
1.087975e+003, 4.917143e+001
1.088457e+003, 4.911350e+001
1.088939e+003, 4.886814e+001
1.089421e+003, 4.857848e+001
1.089903e+003, 4.859951e+001
1.090385e+003, 4.904221e+001
1.090867e+003, 4.938268e+001
1.091349e+003, 4.940080e+001
1.091832e+003, 4.929876e+001
1.092314e+003, 4.903164e+001
1.092796e+003, 4.880891e+001
1.093278e+003, 4.888623e+001
1.093760e+003, 4.911041e+001
1.094242e+003, 4.917009e+001
1.094724e+003, 4.901410e+001
1.095206e+003, 4.884723e+001
1.095688e+003, 4.861075e+001
1.096171e+003, 4.854614e+001
1.096653e+003, 4.888526e+001
1.097135e+003, 4.927157e+001
1.097617e+003, 4.952283e+001
1.098099e+003, 4.962713e+001
1.098581e+003, 4.951670e+001
1.099063e+003, 4.922637e+001
1.099545e+003, 4.912042e+001
1.100027e+003, 4.946615e+001
1.100510e+003, 4.969873e+001
1.100992e+003, 4.958807e+001
1.101474e+003, 4.942833e+001
1.101956e+003, 4.936563e+001
1.102438e+003, 4.934981e+001
1.102920e+003, 4.930782e+001
1.103402e+003, 4.924795e+001
1.103884e+003, 4.924553e+001
1.104367e+003, 4.937288e+001
1.104849e+003, 4.940608e+001
1.105331e+003, 4.924203e+001
1.105813e+003, 4.905861e+001
1.106295e+003, 4.892110e+001
1.106777e+003, 4.879589e+001
1.107259e+003, 4.858186e+001
1.107741e+003, 4.836285e+001
1.108224e+003, 4.841024e+001
1.108706e+003, 4.884248e+001
1.109188e+003, 4.914498e+001
1.109670e+003, 4.938112e+001
1.110152e+003, 4.933246e+001
1.110634e+003, 4.852418e+001
1.111116e+003, 4.784523e+001
1.111598e+003, 4.800718e+001
1.112080e+003, 4.865245e+001
1.112563e+003, 4.915592e+001
1.113045e+003, 4.952238e+001
1.113527e+003, 4.961377e+001
1.114009e+003, 4.921368e+001
1.114491e+003, 4.889178e+001
1.114973e+003, 4.876000e+001
1.115455e+003, 4.863450e+001
1.115937e+003, 4.833958e+001
1.116419e+003, 4.808482e+001
1.116902e+003, 4.821578e+001
1.117384e+003, 4.868150e+001
1.117866e+003, 4.885263e+001
1.118348e+003, 4.852224e+001
1.118830e+003, 4.838963e+001
1.119312e+003, 4.859751e+001
1.119794e+003, 4.876811e+001
1.120276e+003, 4.879089e+001
1.120759e+003, 4.867980e+001
1.121241e+003, 4.837093e+001
1.121723e+003, 4.797878e+001
1.122205e+003, 4.794717e+001
1.122687e+003, 4.842048e+001
1.123169e+003, 4.854868e+001
1.123651e+003, 4.818614e+001
1.124133e+003, 4.797737e+001
1.124615e+003, 4.812963e+001
1.125098e+003, 4.831683e+001
1.125580e+003, 4.830931e+001
1.126062e+003, 4.820342e+001
1.126544e+003, 4.819016e+001
1.127026e+003, 4.826676e+001
1.127508e+003, 4.827951e+001
1.127990e+003, 4.821484e+001
1.128472e+003, 4.823459e+001
1.128954e+003, 4.839157e+001
1.129437e+003, 4.840123e+001
1.129919e+003, 4.809820e+001
1.130401e+003, 4.771998e+001
1.130883e+003, 4.754997e+001
1.131365e+003, 4.755727e+001
1.131847e+003, 4.761989e+001
1.132329e+003, 4.773830e+001
1.132811e+003, 4.797000e+001
1.133294e+003, 4.831158e+001
1.133776e+003, 4.845984e+001
1.134258e+003, 4.831347e+001
1.134740e+003, 4.806224e+001
1.135222e+003, 4.784658e+001
1.135704e+003, 4.770453e+001
1.136186e+003, 4.778869e+001
1.136668e+003, 4.800641e+001
1.137151e+003, 4.792043e+001
1.137633e+003, 4.760360e+001
1.138115e+003, 4.747913e+001
1.138597e+003, 4.761405e+001
1.139079e+003, 4.779664e+001
1.139561e+003, 4.791322e+001
1.140043e+003, 4.791676e+001
1.140525e+003, 4.760320e+001
1.141007e+003, 4.724322e+001
1.141490e+003, 4.748051e+001
1.141972e+003, 4.803187e+001
1.142454e+003, 4.826021e+001
1.142936e+003, 4.816515e+001
1.143418e+003, 4.804706e+001
1.143900e+003, 4.801080e+001
1.144382e+003, 4.796619e+001
1.144864e+003, 4.780948e+001
1.145346e+003, 4.768637e+001
1.145829e+003, 4.783726e+001
1.146311e+003, 4.804714e+001
1.146793e+003, 4.798576e+001
1.147275e+003, 4.778968e+001
1.147757e+003, 4.778942e+001
1.148239e+003, 4.799092e+001
1.148721e+003, 4.809536e+001
1.149203e+003, 4.793370e+001
1.149686e+003, 4.782656e+001
1.150168e+003, 4.810376e+001
1.150650e+003, 4.837243e+001
1.151132e+003, 4.831939e+001
1.151614e+003, 4.811792e+001
1.152096e+003, 4.787496e+001
1.152578e+003, 4.768764e+001
1.153060e+003, 4.778951e+001
1.153542e+003, 4.824625e+001
1.154025e+003, 4.848843e+001
1.154507e+003, 4.804020e+001
1.154989e+003, 4.773516e+001
1.155471e+003, 4.811975e+001
1.155953e+003, 4.846546e+001
1.156435e+003, 4.811995e+001
1.156917e+003, 4.755027e+001
1.157399e+003, 4.748507e+001
1.157881e+003, 4.789838e+001
1.158364e+003, 4.810237e+001
1.158846e+003, 4.783008e+001
1.159328e+003, 4.772963e+001
1.159810e+003, 4.808919e+001
1.160292e+003, 4.828605e+001
1.160774e+003, 4.796465e+001
1.161256e+003, 4.761600e+001
1.161738e+003, 4.765724e+001
1.162221e+003, 4.793771e+001
1.162703e+003, 4.810661e+001
1.163185e+003, 4.816294e+001
1.163667e+003, 4.810340e+001
1.164149e+003, 4.785983e+001
1.164631e+003, 4.770033e+001
1.165113e+003, 4.767030e+001
1.165595e+003, 4.772137e+001
1.166078e+003, 4.786017e+001
1.166560e+003, 4.798899e+001
1.167042e+003, 4.797483e+001
1.167524e+003, 4.785681e+001
1.168006e+003, 4.780534e+001
1.168488e+003, 4.781879e+001
1.168970e+003, 4.799009e+001
1.169452e+003, 4.833417e+001
1.169934e+003, 4.847230e+001
1.170417e+003, 4.829136e+001
1.170899e+003, 4.803692e+001
1.171381e+003, 4.788159e+001
1.171863e+003, 4.780007e+001
1.172345e+003, 4.775475e+001
1.172827e+003, 4.774652e+001
1.173309e+003, 4.778716e+001
1.173791e+003, 4.786825e+001
1.174273e+003, 4.797297e+001
1.174756e+003, 4.808702e+001
1.175238e+003, 4.815245e+001
1.175720e+003, 4.815080e+001
1.176202e+003, 4.816595e+001
1.176684e+003, 4.831889e+001
1.177166e+003, 4.842828e+001
1.177648e+003, 4.811906e+001
1.178130e+003, 4.772682e+001
1.178613e+003, 4.786108e+001
1.179095e+003, 4.826029e+001
1.179577e+003, 4.830886e+001
1.180059e+003, 4.797581e+001
1.180541e+003, 4.767590e+001
1.181023e+003, 4.758330e+001
1.181505e+003, 4.757170e+001
1.181987e+003, 4.760295e+001
1.182469e+003, 4.764307e+001
1.182952e+003, 4.764952e+001
1.183434e+003, 4.767131e+001
1.183916e+003, 4.779196e+001
1.184398e+003, 4.795180e+001
1.184880e+003, 4.803850e+001
1.185362e+003, 4.803452e+001
1.185844e+003, 4.796204e+001
1.186326e+003, 4.770896e+001
1.186808e+003, 4.756959e+001
1.187291e+003, 4.771134e+001
1.187773e+003, 4.783299e+001
1.188255e+003, 4.778214e+001
1.188737e+003, 4.766898e+001
1.189219e+003, 4.758750e+001
1.189701e+003, 4.753232e+001
1.190183e+003, 4.748271e+001
1.190665e+003, 4.742973e+001
1.191148e+003, 4.743415e+001
1.191630e+003, 4.752882e+001
1.192112e+003, 4.758821e+001
1.192594e+003, 4.758477e+001
1.193076e+003, 4.756112e+001
1.193558e+003, 4.753258e+001
1.194040e+003, 4.751332e+001
1.194522e+003, 4.752042e+001
1.195005e+003, 4.755345e+001
1.195487e+003, 4.761771e+001
1.195969e+003, 4.771125e+001
1.196451e+003, 4.781395e+001
1.196933e+003, 4.791846e+001
1.197415e+003, 4.785932e+001
1.197897e+003, 4.760620e+001
1.198379e+003, 4.745200e+001
1.198861e+003, 4.759020e+001
1.199344e+003, 4.782188e+001
1.199826e+003, 4.797686e+001
1.200308e+003, 4.796846e+001
1.200790e+003, 4.735651e+001
1.201272e+003, 4.655031e+001
1.201754e+003, 4.663036e+001
1.202236e+003, 4.736536e+001
1.202718e+003, 4.768782e+001
1.203200e+003, 4.734804e+001
1.203683e+003, 4.702376e+001
1.204165e+003, 4.714305e+001
1.204647e+003, 4.732981e+001
1.205129e+003, 4.725628e+001
1.205611e+003, 4.717794e+001
1.206093e+003, 4.739992e+001
1.206575e+003, 4.768026e+001
1.207057e+003, 4.769649e+001
1.207540e+003, 4.750318e+001
1.208022e+003, 4.733303e+001
1.208504e+003, 4.723504e+001
1.208986e+003, 4.712775e+001
1.209468e+003, 4.698750e+001
1.209950e+003, 4.684171e+001
1.210432e+003, 4.664004e+001
1.210914e+003, 4.649969e+001
1.211396e+003, 4.646587e+001
1.211879e+003, 4.653811e+001
1.212361e+003, 4.679200e+001
1.212843e+003, 4.714156e+001
1.213325e+003, 4.721938e+001
1.213807e+003, 4.694692e+001
1.214289e+003, 4.677394e+001
1.214771e+003, 4.670184e+001
1.215253e+003, 4.668984e+001
1.215735e+003, 4.667817e+001
1.216218e+003, 4.711467e+001
1.216700e+003, 4.839480e+001
1.217182e+003, 4.940166e+001
1.217664e+003, 4.855894e+001
1.218146e+003, 4.663854e+001
1.218628e+003, 4.616422e+001
1.219110e+003, 4.683875e+001
1.219592e+003, 4.721165e+001
1.220075e+003, 4.721578e+001
1.220557e+003, 4.694558e+001
1.221039e+003, 4.649150e+001
1.221521e+003, 4.623318e+001
1.222003e+003, 4.638993e+001
1.222485e+003, 4.660960e+001
1.222967e+003, 4.645202e+001
1.223449e+003, 4.625323e+001
1.223932e+003, 4.653141e+001
1.224414e+003, 4.690368e+001
1.224896e+003, 4.674186e+001
1.225378e+003, 4.631953e+001
1.225860e+003, 4.635742e+001
1.226342e+003, 4.686952e+001
1.226824e+003, 4.706732e+001
1.227306e+003, 4.650953e+001
1.227788e+003, 4.610860e+001
1.228271e+003, 4.633009e+001
1.228753e+003, 4.656401e+001
1.229235e+003, 4.655813e+001
1.229717e+003, 4.645471e+001
1.230199e+003, 4.632757e+001
1.230681e+003, 4.620449e+001
1.231163e+003, 4.613027e+001
1.231645e+003, 4.610388e+001
1.232127e+003, 4.607746e+001
1.232610e+003, 4.605972e+001
1.233092e+003, 4.600331e+001
1.233574e+003, 4.587159e+001
1.234056e+003, 4.583208e+001
1.234538e+003, 4.595055e+001
1.235020e+003, 4.612077e+001
1.235502e+003, 4.628765e+001
1.235984e+003, 4.635441e+001
1.236467e+003, 4.606866e+001
1.236949e+003, 4.557780e+001
1.237431e+003, 4.560823e+001
1.237913e+003, 4.601043e+001
1.238395e+003, 4.605120e+001
1.238877e+003, 4.576033e+001
1.239359e+003, 4.567907e+001
1.239841e+003, 4.594753e+001
1.240323e+003, 4.628912e+001
1.240806e+003, 4.655278e+001
1.241288e+003, 4.668876e+001
1.241770e+003, 4.658354e+001
1.242252e+003, 4.639614e+001
1.242734e+003, 4.621105e+001
1.243216e+003, 4.609249e+001
1.243698e+003, 4.620834e+001
1.244180e+003, 4.641278e+001
1.244662e+003, 4.631134e+001
1.245145e+003, 4.588213e+001
1.245627e+003, 4.576609e+001
1.246109e+003, 4.646997e+001
1.246591e+003, 4.686954e+001
1.247073e+003, 4.656721e+001
1.247555e+003, 4.620938e+001
1.248037e+003, 4.589761e+001
1.248519e+003, 4.575371e+001
1.249002e+003, 4.597682e+001
1.249484e+003, 4.631124e+001
1.249966e+003, 4.625562e+001
1.250448e+003, 4.584312e+001
1.250930e+003, 4.567509e+001
1.251412e+003, 4.578306e+001
1.251894e+003, 4.577508e+001
1.252376e+003, 4.561599e+001
1.252859e+003, 4.548050e+001
1.253341e+003, 4.542224e+001
1.253823e+003, 4.550098e+001
1.254305e+003, 4.577366e+001
1.254787e+003, 4.603901e+001
1.255269e+003, 4.590762e+001
1.255751e+003, 4.566364e+001
1.256233e+003, 4.594526e+001
1.256715e+003, 4.644667e+001
1.257198e+003, 4.657699e+001
1.257680e+003, 4.642577e+001
1.258162e+003, 4.636665e+001
1.258644e+003, 4.645758e+001
1.259126e+003, 4.648190e+001
1.259608e+003, 4.632415e+001
1.260090e+003, 4.618543e+001
1.260572e+003, 4.610427e+001
1.261054e+003, 4.613651e+001
1.261537e+003, 4.646330e+001
1.262019e+003, 4.675733e+001
1.262501e+003, 4.675476e+001
1.262983e+003, 4.656501e+001
1.263465e+003, 4.628910e+001
1.263947e+003, 4.597596e+001
1.264429e+003, 4.601326e+001
1.264911e+003, 4.654638e+001
1.265394e+003, 4.694870e+001
1.265876e+003, 4.723645e+001
1.266358e+003, 4.728065e+001
1.266840e+003, 4.702379e+001
1.267322e+003, 4.668512e+001
1.267804e+003, 4.636189e+001
1.268286e+003, 4.623034e+001
1.268768e+003, 4.656865e+001
1.269250e+003, 4.712066e+001
1.269733e+003, 4.730272e+001
1.270215e+003, 4.723748e+001
1.270697e+003, 4.719418e+001
1.271179e+003, 4.718553e+001
1.271661e+003, 4.718087e+001
1.272143e+003, 4.718690e+001
1.272625e+003, 4.728485e+001
1.273107e+003, 4.750444e+001
1.273589e+003, 4.759728e+001
1.274072e+003, 4.736792e+001
1.274554e+003, 4.704093e+001
1.275036e+003, 4.658571e+001
1.275518e+003, 4.623130e+001
1.276000e+003, 4.611073e+001
1.276482e+003, 4.618722e+001
1.276964e+003, 4.652407e+001
1.277446e+003, 4.700800e+001
1.277929e+003, 4.728728e+001
1.278411e+003, 4.735320e+001
1.278893e+003, 4.726949e+001
1.279375e+003, 4.691111e+001
1.279857e+003, 4.693576e+001
1.280339e+003, 4.752076e+001
1.280821e+003, 4.785658e+001
1.281303e+003, 4.763738e+001
1.281786e+003, 4.730333e+001
1.282268e+003, 4.717376e+001
##END=



