##NAMES=Celsian
##RRUFFID=R060460
##IDEAL CHEMISTRY=BaAl_2_Si_2_O_8_
##LOCALITY=Benallt mine, Rhiw, Leyen Peninsula, Caernarvonshire, Wales
##OWNER=RRUFF
##SOURCE=Michael Scott
##DESCRIPTION=White prismatic-shaped granular aggregates associated with barite and piemontite
##STATUS=The identification of this mineral has been confirmed by X-ray diffraction and chemical analysis
##URL=rruff.info/R060460
##MEASURED CHEMISTRY=Ba_1.00_Al_2.00_Si_2.00_O_8_
163.8349, 245.5939
164.3170, 251.2665
164.7991, 255.9160
165.2812, 258.2179
165.7633, 260.0570
166.2454, 263.1292
166.7276, 268.1092
167.2097, 274.3248
167.6918, 281.7746
168.1739, 290.3069
168.6560, 299.2127
169.1381, 309.2326
169.6203, 318.9360
170.1024, 324.5762
170.5845, 327.4258
171.0666, 327.9297
171.5487, 325.0424
172.0309, 318.9853
172.5130, 311.7054
172.9951, 303.1534
173.4772, 294.4757
173.9593, 287.4526
174.4414, 283.2494
174.9236, 280.7541
175.4057, 279.3781
175.8878, 279.1040
176.3699, 278.5173
176.8520, 275.8755
177.3341, 272.0103
177.8163, 268.7250
178.2984, 267.1123
178.7805, 266.4212
179.2626, 265.4767
179.7447, 264.2260
180.2268, 263.2368
180.7090, 263.3955
181.1911, 264.3637
181.6732, 265.1008
182.1553, 264.8674
182.6374, 264.1121
183.1195, 263.8552
183.6017, 264.1835
184.0838, 264.6251
184.5659, 264.6866
185.0480, 264.3998
185.5301, 263.9191
186.0123, 262.4505
186.4944, 260.7503
186.9765, 261.6417
187.4586, 265.6018
187.9407, 270.6967
188.4228, 274.4339
188.9050, 276.8830
189.3871, 278.8892
189.8692, 280.6425
190.3513, 282.2180
190.8334, 284.0202
191.3155, 286.0276
191.7977, 288.3389
192.2798, 290.6900
192.7619, 293.0760
193.2440, 296.9362
193.7261, 303.9293
194.2082, 313.6816
194.6904, 321.9922
195.1725, 328.3717
195.6546, 333.8141
196.1367, 340.2261
196.6188, 347.7870
197.1009, 354.4564
197.5831, 359.9227
198.0652, 364.2359
198.5473, 364.3420
199.0294, 359.7154
199.5115, 351.3677
199.9937, 340.3600
200.4758, 326.3455
200.9579, 312.7476
201.4400, 301.6105
201.9221, 293.0422
202.4042, 285.2082
202.8864, 277.8697
203.3685, 271.3263
203.8506, 266.3391
204.3327, 263.0638
204.8148, 260.8532
205.2969, 259.3909
205.7791, 258.6593
206.2612, 258.9495
206.7433, 260.7608
207.2254, 263.2368
207.7075, 263.8490
208.1896, 261.8548
208.6718, 260.1662
209.1539, 260.6569
209.6360, 263.8960
210.1181, 266.4588
210.6002, 268.3061
211.0823, 269.3069
211.5645, 268.7734
212.0466, 266.0110
212.5287, 263.3665
213.0108, 262.2398
213.4929, 263.0788
213.9750, 263.6247
214.4572, 263.6172
214.9393, 263.2976
215.4214, 263.3928
215.9035, 264.0099
216.3856, 264.8229
216.8678, 265.5445
217.3499, 265.9238
217.8320, 267.1043
218.3141, 269.4594
218.7962, 272.5359
219.2783, 274.8526
219.7605, 276.0571
220.2426, 277.0899
220.7247, 278.4468
221.2068, 280.2695
221.6889, 282.0204
222.1710, 283.8013
222.6532, 285.4639
223.1353, 286.4600
223.6174, 286.6396
224.0995, 286.4322
224.5816, 286.0945
225.0637, 285.8048
225.5459, 284.8436
226.0280, 282.7167
226.5101, 280.0071
226.9922, 278.6551
227.4743, 279.3380
227.9564, 280.2879
228.4386, 280.5148
228.9207, 279.2155
229.4028, 279.1812
229.8849, 280.9424
230.3670, 283.8651
230.8492, 286.2314
231.3313, 287.7750
231.8134, 289.1298
232.2955, 290.5424
232.7776, 291.8057
233.2597, 293.5937
233.7419, 296.1230
234.2240, 299.1333
234.7061, 301.8316
235.1882, 303.9090
235.6703, 306.1461
236.1524, 308.9557
236.6346, 312.6972
237.1167, 316.1128
237.5988, 318.7787
238.0809, 321.2719
238.5630, 325.0494
239.0451, 330.5421
239.5273, 336.6286
240.0094, 342.8007
240.4915, 348.7538
240.9736, 355.6182
241.4557, 363.4930
241.9378, 372.2577
242.4200, 381.7036
242.9021, 392.2771
243.3842, 402.9920
243.8663, 413.5209
244.3484, 423.8526
244.8306, 434.2111
245.3127, 445.3797
245.7948, 456.0801
246.2769, 463.9295
246.7590, 468.6625
247.2411, 470.9016
247.7233, 470.9293
248.2054, 468.9623
248.6875, 463.8941
249.1696, 455.1819
249.6517, 443.8204
250.1338, 431.0806
250.6160, 415.5660
251.0981, 401.1185
251.5802, 388.9875
252.0623, 379.2086
252.5444, 371.1602
253.0265, 365.0383
253.5087, 360.5433
253.9908, 357.3988
254.4729, 355.6869
254.9550, 355.1403
255.4371, 356.0991
255.9192, 358.8925
256.4014, 360.4316
256.8835, 360.4487
257.3656, 359.4741
257.8477, 358.2755
258.3298, 357.3616
258.8120, 355.0497
259.2941, 350.7769
259.7762, 344.4362
260.2583, 337.2892
260.7404, 328.5457
261.2225, 319.8812
261.7047, 312.8649
262.1868, 307.7408
262.6689, 303.6359
263.1510, 300.6444
263.6331, 298.7423
264.1152, 295.9973
264.5974, 291.9105
265.0795, 287.7769
265.5616, 285.0590
266.0437, 284.1646
266.5258, 283.1594
267.0079, 281.4733
267.4901, 279.2809
267.9722, 278.4464
268.4543, 279.5305
268.9364, 280.8496
269.4185, 280.9552
269.9006, 279.5627
270.3828, 278.2012
270.8649, 277.0397
271.3470, 276.0808
271.8291, 275.2733
272.3112, 274.5328
272.7933, 274.1259
273.2755, 274.4848
273.7576, 275.8200
274.2397, 276.3372
274.7218, 275.4984
275.2039, 273.8838
275.6860, 273.3596
276.1682, 274.1418
276.6503, 275.1828
277.1324, 275.9239
277.6145, 276.3660
278.0966, 276.4338
278.5787, 276.0103
279.0609, 275.3614
279.5430, 275.0030
280.0251, 274.9391
280.5072, 275.2109
280.9893, 276.1764
281.4715, 277.8239
281.9536, 278.4526
282.4357, 277.8116
282.9178, 276.4790
283.3999, 275.3048
283.8820, 274.2786
284.3642, 273.5005
284.8463, 273.1421
285.3284, 273.1458
285.8105, 272.7543
286.2926, 271.7676
286.7747, 270.9774
287.2569, 271.8748
287.7390, 274.3777
288.2211, 276.3882
288.7032, 276.7355
289.1853, 275.8435
289.6674, 275.6988
290.1496, 276.3921
290.6317, 277.2431
291.1138, 277.2737
291.5959, 276.6537
292.0780, 276.5565
292.5602, 277.5827
293.0423, 279.3156
293.5244, 280.6720
294.0065, 281.6320
294.4886, 282.5847
294.9707, 284.0009
295.4529, 285.7445
295.9350, 287.3015
296.4171, 288.5826
296.8992, 289.5850
297.3813, 290.1603
297.8634, 290.3422
298.3456, 290.5356
298.8277, 290.9525
299.3098, 291.6078
299.7919, 292.5519
300.2740, 293.8171
300.7561, 295.3279
301.2383, 296.7409
301.7204, 298.2007
302.2025, 300.2837
302.6846, 303.8333
303.1667, 308.1096
303.6488, 312.1586
304.1310, 315.8677
304.6131, 319.1148
305.0952, 321.2956
305.5773, 322.8074
306.0594, 324.7154
306.5415, 328.8857
307.0237, 333.1051
307.5058, 334.9311
307.9879, 333.9456
308.4700, 331.7569
308.9521, 329.7583
309.4343, 327.3740
309.9164, 323.5723
310.3985, 316.3163
310.8806, 308.5124
311.3627, 302.2364
311.8448, 297.5339
312.3270, 293.8746
312.8091, 291.2169
313.2912, 289.3213
313.7733, 287.9056
314.2554, 287.6339
314.7375, 287.1584
315.2197, 285.3716
315.7018, 282.4668
316.1839, 280.2224
316.6660, 279.9312
317.1481, 280.3795
317.6302, 280.5612
318.1124, 279.7147
318.5945, 279.2111
319.0766, 280.0931
319.5587, 281.8258
320.0408, 282.5731
320.5229, 280.2184
321.0051, 277.7992
321.4872, 277.1310
321.9693, 279.5842
322.4514, 281.7495
322.9335, 283.3936
323.4156, 284.2605
323.8978, 283.8560
324.3799, 279.8922
324.8620, 276.5596
325.3441, 275.6611
325.8262, 278.3600
326.3083, 280.2391
326.7905, 280.3469
327.2726, 279.6595
327.7547, 279.3776
328.2368, 280.2152
328.7189, 280.7584
329.2010, 280.6158
329.6832, 279.7049
330.1653, 279.0441
330.6474, 278.6380
331.1295, 278.4800
331.6116, 278.6177
332.0938, 279.6219
332.5759, 279.9728
333.0580, 279.0682
333.5401, 277.1768
334.0222, 276.4573
334.5043, 277.5944
334.9865, 278.9470
335.4686, 279.4979
335.9507, 278.8788
336.4328, 278.3990
336.9149, 277.9283
337.3970, 277.7341
337.8792, 278.7698
338.3613, 281.6267
338.8434, 284.0893
339.3255, 285.0132
339.8076, 284.1606
340.2898, 283.5452
340.7719, 283.0644
341.2540, 282.9924
341.7361, 283.9896
342.2182, 286.1800
342.7003, 288.1056
343.1825, 289.1371
343.6646, 289.4305
344.1467, 289.9178
344.6288, 290.6005
345.1109, 291.4830
345.5930, 292.6742
346.0752, 294.1260
346.5573, 295.5092
347.0394, 296.7193
347.5215, 297.8375
348.0036, 299.2240
348.4857, 300.8560
348.9679, 302.1728
349.4500, 302.0396
349.9321, 301.2252
350.4142, 302.1655
350.8963, 305.6365
351.3784, 309.9196
351.8606, 312.8001
352.3427, 314.5380
352.8248, 316.1509
353.3069, 317.7445
353.7890, 319.7096
354.2711, 323.0302
354.7533, 327.9611
355.2354, 332.4933
355.7175, 334.4581
356.1996, 334.8506
356.6817, 335.4047
357.1638, 337.3878
357.6460, 339.4130
358.1281, 340.5905
358.6102, 340.9068
359.0923, 340.4253
359.5744, 338.8201
360.0565, 336.5891
360.5387, 334.2213
361.0208, 332.0085
361.5029, 329.4778
361.9850, 326.3048
362.4671, 322.6367
362.9492, 318.9615
363.4314, 315.3527
363.9135, 311.8532
364.3956, 308.4402
364.8777, 304.9503
365.3598, 301.9096
365.8419, 299.3118
366.3241, 297.2508
366.8062, 295.8906
367.2883, 295.8424
367.7704, 295.9276
368.2526, 295.7930
368.7347, 295.3457
369.2168, 295.1730
369.6989, 295.8985
370.1810, 296.5202
370.6631, 296.1534
371.1453, 293.5722
371.6274, 291.8487
372.1095, 291.7000
372.5916, 292.8260
373.0737, 293.1340
373.5558, 291.9200
374.0380, 290.9344
374.5201, 291.3003
375.0022, 293.5958
375.4843, 295.2426
375.9664, 295.8783
376.4485, 296.0707
376.9307, 297.0778
377.4128, 299.1122
377.8949, 301.0223
378.3770, 302.3306
378.8591, 303.0546
379.3412, 303.6496
379.8234, 304.1369
380.3055, 304.4018
380.7876, 304.1923
381.2697, 303.5384
381.7518, 302.9298
382.2339, 302.2785
382.7161, 301.9215
383.1982, 302.9428
383.6803, 305.2913
384.1624, 307.7200
384.6445, 309.3667
385.1266, 310.3701
385.6088, 310.9525
386.0909, 311.0053
386.5730, 311.0924
387.0551, 311.8911
387.5372, 313.2581
388.0193, 314.8043
388.5015, 316.2422
388.9836, 317.7873
389.4657, 319.5633
389.9478, 321.5662
390.4299, 324.1228
390.9120, 328.2865
391.3942, 332.8828
391.8763, 336.3991
392.3584, 337.7386
392.8405, 338.4301
393.3226, 339.7598
393.8047, 341.3053
394.2869, 341.1270
394.7690, 337.1722
395.2511, 332.1466
395.7332, 327.7401
396.2154, 324.6465
396.6975, 321.2987
397.1796, 316.8056
397.6617, 311.9034
398.1438, 307.8849
398.6259, 305.0973
399.1081, 302.9896
399.5902, 301.3240
400.0723, 299.9940
400.5544, 299.8036
401.0365, 301.6514
401.5186, 303.9690
402.0008, 305.4669
402.4829, 305.8819
402.9650, 305.9737
403.4471, 305.7388
403.9292, 305.2387
404.4113, 304.6902
404.8935, 303.9668
405.3756, 303.4751
405.8577, 303.4520
406.3398, 303.9397
406.8219, 304.7545
407.3040, 306.1911
407.7862, 307.4015
408.2683, 306.6868
408.7504, 303.9689
409.2325, 302.0845
409.7146, 302.2512
410.1967, 303.9307
410.6789, 305.4782
411.1610, 306.9009
411.6431, 308.1158
412.1252, 308.7859
412.6073, 309.1657
413.0894, 310.1039
413.5716, 312.0074
414.0537, 313.9357
414.5358, 314.6542
415.0179, 314.3905
415.5000, 313.9158
415.9821, 313.1436
416.4643, 312.6396
416.9464, 313.0470
417.4285, 314.4365
417.9106, 316.3248
418.3927, 318.8960
418.8748, 321.6215
419.3570, 323.8299
419.8391, 324.7929
420.3212, 325.7052
420.8033, 327.0737
421.2854, 328.8313
421.7675, 330.6731
422.2497, 331.8500
422.7318, 333.5838
423.2139, 336.6320
423.6960, 341.7378
424.1781, 346.7049
424.6602, 351.3784
425.1424, 355.7530
425.6245, 359.7494
426.1066, 362.8829
426.5887, 366.2096
427.0709, 370.1368
427.5530, 374.6623
428.0351, 378.4456
428.5172, 381.9011
428.9993, 384.0896
429.4814, 384.4785
429.9636, 383.2031
430.4457, 379.2914
430.9278, 371.8198
431.4099, 362.5016
431.8920, 355.1237
432.3741, 349.8084
432.8563, 344.9695
433.3384, 339.4343
433.8205, 333.5506
434.3026, 330.4108
434.7847, 330.3087
435.2668, 330.4633
435.7490, 327.3847
436.2311, 322.0392
436.7132, 318.0138
437.1953, 316.5135
437.6774, 316.3793
438.1595, 316.4166
438.6417, 316.5480
439.1238, 316.4523
439.6059, 315.8741
440.0880, 315.0042
440.5701, 313.9049
441.0522, 312.5030
441.5344, 311.4383
442.0165, 310.9837
442.4986, 311.1334
442.9807, 311.8878
443.4628, 314.3032
443.9449, 316.2885
444.4271, 316.6495
444.9092, 315.6950
445.3913, 315.2302
445.8734, 315.9057
446.3555, 317.0244
446.8376, 318.3008
447.3198, 319.9710
447.8019, 321.2758
448.2840, 321.9872
448.7661, 322.4074
449.2482, 322.8833
449.7303, 323.0047
450.2125, 323.9133
450.6946, 326.1749
451.1767, 329.6600
451.6588, 332.2939
452.1409, 334.0009
452.6230, 335.0903
453.1052, 335.3624
453.5873, 334.6618
454.0694, 335.4041
454.5515, 338.0316
455.0337, 341.6241
455.5158, 344.5783
455.9979, 346.9735
456.4800, 349.6048
456.9621, 352.8278
457.4442, 356.5447
457.9264, 360.6709
458.4085, 365.1767
458.8906, 369.7630
459.3727, 374.2074
459.8548, 378.5354
460.3369, 382.6623
460.8191, 386.5443
461.3012, 390.4156
461.7833, 395.0482
462.2654, 399.8100
462.7475, 403.3702
463.2296, 404.5196
463.7118, 404.8736
464.1939, 405.2952
464.6760, 405.8456
465.1581, 406.0776
465.6402, 405.7937
466.1223, 405.1651
466.6045, 404.3094
467.0866, 402.5151
467.5687, 401.3907
468.0508, 401.8696
468.5329, 402.9802
469.0150, 402.3936
469.4972, 398.3393
469.9793, 395.3123
470.4614, 395.1456
470.9435, 398.0494
471.4256, 399.5712
471.9077, 399.4127
472.3899, 398.4818
472.8720, 397.8052
473.3541, 397.5083
473.8362, 395.6650
474.3183, 391.6614
474.8004, 386.5241
475.2826, 382.3859
475.7647, 379.1526
476.2468, 375.5009
476.7289, 369.8873
477.2110, 363.5240
477.6931, 359.2698
478.1753, 357.1185
478.6574, 355.9610
479.1395, 355.3249
479.6216, 354.9746
480.1037, 354.5536
480.5858, 353.9049
481.0680, 353.2895
481.5501, 352.8853
482.0322, 352.6479
482.5143, 352.4867
482.9964, 352.6419
483.4786, 352.6353
483.9607, 351.9136
484.4428, 350.3500
484.9249, 349.7783
485.4070, 350.9497
485.8892, 352.9919
486.3713, 355.3157
486.8534, 357.7020
487.3355, 360.6131
487.8176, 364.1795
488.2997, 368.2271
488.7819, 372.3857
489.2640, 376.3708
489.7461, 381.1632
490.2282, 387.1203
490.7103, 394.2495
491.1924, 401.7037
491.6746, 409.4028
492.1567, 417.9176
492.6388, 427.2737
493.1209, 437.7248
493.6030, 450.6085
494.0851, 466.7790
494.5673, 484.0205
495.0494, 498.9086
495.5315, 512.0380
496.0136, 524.9971
496.4957, 538.4886
496.9778, 552.3254
497.4600, 566.7224
497.9421, 581.6193
498.4242, 596.9111
498.9063, 611.6927
499.3884, 627.4244
499.8705, 645.5001
500.3527, 665.8508
500.8348, 689.0823
501.3169, 715.7216
501.7990, 744.8399
502.2811, 775.3911
502.7632, 806.4371
503.2454, 839.2962
503.7275, 875.5283
504.2096, 914.5906
504.6917, 952.6620
505.1738, 989.6066
505.6559, 1025.167
506.1381, 1059.100
506.6202, 1091.908
507.1023, 1121.870
507.5844, 1150.373
508.0665, 1173.558
508.5486, 1187.589
509.0308, 1192.560
509.5129, 1182.777
509.9950, 1155.704
510.4771, 1114.224
510.9592, 1060.412
511.4413, 995.3552
511.9235, 927.8209
512.4056, 859.3564
512.8877, 793.5550
513.3698, 734.3616
513.8519, 682.0966
514.3340, 636.4694
514.8162, 598.6794
515.2983, 566.9015
515.7804, 539.0071
516.2625, 514.9973
516.7446, 493.8813
517.2267, 475.5987
517.7089, 460.0408
518.1910, 447.1666
518.6731, 438.8106
519.1552, 431.3768
519.6373, 423.6901
520.1194, 415.5652
520.6016, 408.2441
521.0837, 401.3689
521.5658, 395.7732
522.0479, 392.4132
522.5300, 392.1627
523.0121, 390.9632
523.4943, 388.2269
523.9764, 384.8493
524.4585, 382.3022
524.9406, 380.6306
525.4227, 379.6238
525.9048, 379.6790
526.3870, 380.1274
526.8691, 379.0766
527.3513, 376.6070
527.8334, 374.0192
528.3155, 372.4121
528.7976, 371.1883
529.2797, 369.5026
529.7618, 367.2340
530.2440, 364.5509
530.7261, 360.7058
531.2082, 356.7978
531.6903, 354.3032
532.1724, 355.2434
532.6545, 355.9974
533.1367, 355.2929
533.6188, 353.4437
534.1009, 351.5703
534.5830, 349.1949
535.0651, 347.4730
535.5472, 347.0769
536.0294, 348.3218
536.5115, 348.5327
536.9936, 347.2368
537.4757, 345.5721
537.9578, 344.3076
538.4399, 343.3441
538.9221, 343.5733
539.4042, 345.5373
539.8863, 347.9498
540.3684, 348.2028
540.8505, 346.4904
541.3326, 345.1438
541.8148, 345.2982
542.2969, 346.2892
542.7790, 346.9720
543.2611, 347.3893
543.7432, 347.9012
544.2253, 348.7133
544.7075, 349.7641
545.1896, 351.0319
545.6717, 352.5479
546.1538, 354.0859
546.6359, 355.3903
547.1180, 356.7239
547.6002, 358.3502
548.0823, 361.0305
548.5644, 363.2042
549.0465, 363.9261
549.5286, 363.9175
550.0107, 365.3100
550.4929, 368.9568
550.9750, 372.7422
551.4571, 376.1779
551.9392, 379.2736
552.4213, 381.3648
552.9034, 382.2870
553.3856, 382.7594
553.8677, 383.5654
554.3498, 384.6007
554.8319, 384.5477
555.3140, 383.2028
555.7961, 381.0127
556.2783, 378.4074
556.7604, 375.4324
557.2425, 372.2254
557.7246, 368.7048
558.2067, 365.1060
558.6888, 361.6498
559.1710, 358.3258
559.6531, 355.1312
560.1352, 352.1744
560.6173, 349.2928
561.0994, 346.2087
561.5815, 342.7553
562.0637, 340.2769
562.5458, 339.6880
563.0279, 339.7570
563.5100, 339.5504
563.9921, 338.6524
564.4742, 338.2455
564.9564, 338.6779
565.4385, 339.3519
565.9206, 339.1250
566.4027, 337.7689
566.8848, 336.6619
567.3669, 336.2909
567.8491, 336.4012
568.3312, 336.2658
568.8133, 335.8872
569.2954, 335.2675
569.7775, 333.8239
570.2596, 332.3107
570.7418, 332.5107
571.2239, 334.5856
571.7060, 336.4936
572.1881, 336.3994
572.6702, 335.4239
573.1523, 334.8217
573.6345, 335.1494
574.1166, 335.4516
574.5987, 334.9542
575.0808, 334.2851
575.5629, 334.4877
576.0450, 336.8239
576.5272, 338.8149
577.0093, 339.9009
577.4914, 340.2072
577.9735, 340.6065
578.4556, 341.2482
578.9377, 341.6693
579.4199, 341.4579
579.9020, 340.5971
580.3841, 340.4466
580.8662, 341.0505
581.3483, 342.1335
581.8304, 343.5187
582.3126, 345.1651
582.7947, 347.0332
583.2768, 349.2739
583.7589, 351.2485
584.2410, 351.9717
584.7231, 351.9495
585.2053, 352.1850
585.6874, 352.8779
586.1696, 354.1372
586.6517, 356.2196
587.1338, 358.9730
587.6159, 361.7505
588.0980, 364.3771
588.5801, 366.9833
589.0623, 369.6024
589.5444, 372.2145
590.0265, 374.9623
590.5086, 378.0062
590.9907, 380.9839
591.4728, 383.7846
591.9550, 386.5266
592.4371, 388.1911
592.9192, 388.6084
593.4013, 388.1539
593.8834, 386.8410
594.3655, 384.9126
594.8477, 384.0454
595.3298, 385.6685
595.8119, 387.5056
596.2940, 386.3745
596.7761, 382.8073
597.2582, 378.5569
597.7404, 373.7287
598.2225, 369.1733
598.7046, 365.4674
599.1867, 362.6569
599.6688, 360.3582
600.1509, 358.5225
600.6331, 357.0706
601.1152, 356.1029
601.5973, 356.2362
602.0794, 355.2373
602.5615, 352.2226
603.0436, 348.9305
603.5258, 347.5169
604.0079, 348.3607
604.4900, 349.1484
604.9721, 349.6793
605.4542, 349.7354
605.9363, 348.2399
606.4185, 345.4729
606.9006, 343.8083
607.3827, 345.1820
607.8648, 347.7805
608.3469, 348.8922
608.8290, 348.7558
609.3112, 348.6491
609.7933, 348.8569
610.2754, 349.7166
610.7575, 351.9218
611.2396, 355.7819
611.7217, 358.6758
612.2039, 359.1504
612.6860, 358.7930
613.1681, 358.8487
613.6502, 360.2359
614.1323, 360.3633
614.6144, 358.2217
615.0966, 355.6706
615.5787, 355.8209
616.0608, 359.2654
616.5429, 361.5690
617.0250, 361.4522
617.5071, 359.8892
617.9893, 359.0065
618.4714, 358.7213
618.9535, 358.3917
619.4356, 358.0943
619.9177, 357.3324
620.3998, 355.0845
620.8820, 351.5241
621.3641, 348.2326
621.8462, 346.0717
622.3283, 344.4850
622.8104, 343.0527
623.2925, 341.6207
623.7747, 340.6864
624.2568, 340.7370
624.7389, 341.0677
625.2210, 341.1017
625.7031, 340.6342
626.1852, 340.3698
626.6674, 340.5790
627.1495, 340.7399
627.6316, 339.6458
628.1137, 337.2126
628.5958, 335.7133
629.0779, 336.2538
629.5601, 337.5911
630.0422, 336.8147
630.5243, 334.4448
631.0064, 332.8965
631.4885, 334.4352
631.9706, 336.7982
632.4528, 337.9342
632.9349, 337.8329
633.4170, 337.3550
633.8991, 336.4725
634.3812, 335.6356
634.8633, 335.0973
635.3455, 334.9218
635.8276, 334.9811
636.3097, 335.5143
636.7918, 336.0490
637.2739, 336.1111
637.7560, 335.4918
638.2382, 335.2356
638.7203, 335.4745
639.2024, 335.9927
639.6845, 336.6894
640.1666, 337.4808
640.6487, 337.6423
641.1309, 336.6592
641.6130, 335.3529
642.0951, 334.6187
642.5772, 334.4737
643.0594, 335.0128
643.5415, 337.2422
644.0236, 339.3284
644.5057, 340.0320
644.9879, 339.4641
645.4700, 338.9572
645.9521, 338.8979
646.4342, 338.9110
646.9163, 338.8448
647.3984, 338.6996
647.8806, 338.4814
648.3627, 338.0520
648.8448, 337.8270
649.3269, 338.3237
649.8090, 339.5454
650.2911, 340.3642
650.7733, 340.7472
651.2554, 340.5636
651.7375, 338.9707
652.2196, 336.7103
652.7017, 335.7100
653.1838, 337.0531
653.6660, 338.7126
654.1481, 339.0919
654.6302, 338.6965
655.1123, 338.4259
655.5944, 338.4814
656.0765, 338.7935
656.5587, 339.5562
657.0408, 340.6062
657.5229, 341.2330
658.0050, 341.3036
658.4871, 341.1290
658.9692, 340.7192
659.4514, 340.1142
659.9335, 339.7166
660.4156, 339.5056
660.8977, 339.6694
661.3798, 340.7915
661.8619, 342.3539
662.3441, 342.8538
662.8262, 342.1861
663.3083, 341.2998
663.7904, 340.6689
664.2725, 340.3684
664.7546, 340.4959
665.2368, 341.1245
665.7189, 342.0534
666.2010, 343.9589
666.6831, 345.8157
667.1652, 346.3434
667.6473, 343.8835
668.1295, 342.8964
668.6116, 344.3221
669.0937, 346.9174
669.5758, 348.1205
670.0579, 347.7718
670.5400, 347.6368
671.0222, 348.2576
671.5043, 349.3738
671.9864, 350.3433
672.4685, 351.2751
672.9506, 352.7337
673.4327, 355.7392
673.9149, 358.8675
674.3970, 360.5620
674.8791, 361.0327
675.3612, 361.9361
675.8433, 364.6645
676.3254, 367.3962
676.8076, 369.0460
677.2897, 369.3314
677.7718, 369.9927
678.2539, 371.0294
678.7360, 372.4472
679.2181, 374.4768
679.7003, 377.2392
680.1824, 379.0843
680.6645, 379.7885
681.1466, 380.3004
681.6287, 381.7491
682.1108, 383.8403
682.5930, 385.8779
683.0751, 387.9527
683.5572, 389.1881
684.0393, 388.5683
684.5214, 386.7236
685.0035, 384.5639
685.4857, 382.0255
685.9678, 379.5994
686.4499, 377.5317
686.9320, 375.6628
687.4141, 373.6480
687.8962, 371.6852
688.3784, 369.1407
688.8605, 365.4745
689.3426, 361.2979
689.8247, 358.8829
690.3068, 358.2668
690.7889, 357.9854
691.2711, 357.3756
691.7532, 356.5961
692.2353, 356.1158
692.7174, 355.8482
693.1995, 355.2177
693.6816, 353.1514
694.1638, 351.1239
694.6459, 350.4278
695.1280, 351.2135
695.6101, 351.9167
696.0922, 352.4884
696.5743, 352.5808
697.0565, 351.8583
697.5386, 349.9035
698.0207, 348.9471
698.5028, 349.2431
698.9849, 350.0085
699.4670, 350.8410
699.9492, 351.6480
700.4313, 351.1080
700.9135, 348.8093
701.3956, 346.6214
701.8777, 347.1373
702.3598, 349.0221
702.8419, 349.8742
703.3240, 348.3378
703.8062, 347.0651
704.2883, 347.6823
704.7704, 349.3388
705.2525, 350.7839
705.7346, 351.3000
706.2167, 352.3239
706.6989, 354.5314
707.1810, 357.0937
707.6631, 357.8420
708.1452, 356.3518
708.6273, 355.6359
709.1094, 357.0142
709.5916, 359.3311
710.0737, 359.4718
710.5558, 357.9194
711.0379, 357.1674
711.5200, 359.4855
712.0021, 362.4942
712.4843, 364.0063
712.9664, 364.2646
713.4485, 364.7315
713.9306, 366.4251
714.4127, 368.0043
714.8948, 368.8464
715.3770, 368.9557
715.8591, 368.6714
716.3412, 367.8365
716.8233, 366.9216
717.3054, 366.3377
717.7875, 366.0447
718.2697, 364.7560
718.7518, 362.3536
719.2339, 360.4544
719.7160, 361.2241
720.1981, 363.1266
720.6802, 363.5234
721.1624, 361.9679
721.6445, 360.3878
722.1266, 359.5401
722.6087, 359.4026
723.0908, 360.0757
723.5729, 362.2895
724.0551, 363.8158
724.5372, 364.3849
725.0193, 364.3979
725.5014, 364.2343
725.9835, 363.9113
726.4656, 363.2282
726.9478, 362.0292
727.4299, 360.8067
727.9120, 360.3505
728.3941, 360.4615
728.8762, 360.5714
729.3583, 360.6057
729.8405, 360.4031
730.3226, 359.4743
730.8047, 358.2883
731.2868, 357.6475
731.7689, 358.5757
732.2510, 359.1498
732.7332, 358.7039
733.2153, 357.6756
733.6974, 356.8601
734.1795, 356.2163
734.6616, 355.9148
735.1437, 355.9897
735.6259, 356.4440
736.1080, 357.5916
736.5901, 359.3098
737.0722, 360.5070
737.5543, 360.1231
738.0364, 359.3528
738.5186, 359.5368
739.0007, 360.5256
739.4828, 361.7909
739.9649, 363.1560
740.4470, 364.6982
740.9291, 366.7084
741.4113, 369.0872
741.8934, 370.7048
742.3755, 371.2837
742.8576, 371.5663
743.3397, 371.5041
743.8218, 371.3103
744.3040, 372.9758
744.7861, 376.5224
745.2682, 380.5607
745.7503, 384.0201
746.2324, 388.3672
746.7145, 391.8235
747.1967, 397.1459
747.6788, 402.1852
748.1609, 406.8615
748.6430, 410.5575
749.1251, 412.5473
749.6072, 412.2643
750.0894, 413.0782
750.5715, 416.0397
751.0536, 418.8808
751.5357, 420.2757
752.0178, 420.2099
752.4999, 418.8550
752.9821, 416.1131
753.4642, 412.7183
753.9463, 409.5009
754.4284, 405.3751
754.9105, 401.7636
755.3926, 396.2010
755.8748, 390.5128
756.3569, 384.8850
756.8390, 379.6888
757.3211, 375.1355
757.8032, 371.1477
758.2853, 368.2330
758.7675, 366.8044
759.2496, 366.0064
759.7318, 365.1038
760.2139, 364.0875
760.6960, 363.1637
761.1781, 362.4240
761.6602, 361.5401
762.1423, 359.7876
762.6245, 357.6084
763.1066, 356.1626
763.5887, 355.9009
764.0708, 355.7453
764.5529, 354.6528
765.0350, 353.3704
765.5172, 352.7829
765.9993, 354.1342
766.4814, 354.7429
766.9635, 354.1065
767.4456, 352.9389
767.9277, 352.1494
768.4099, 351.7715
768.8920, 351.4798
769.3741, 351.2223
769.8562, 351.0220
770.3383, 350.9502
770.8204, 350.9615
771.3026, 350.9692
771.7847, 351.0985
772.2668, 350.9376
772.7489, 349.8529
773.2310, 348.3923
773.7131, 347.4276
774.1953, 347.2229
774.6774, 347.4889
775.1595, 348.5376
775.6416, 349.8282
776.1237, 350.3886
776.6058, 350.1841
777.0880, 349.3793
777.5701, 347.7043
778.0522, 346.0234
778.5343, 346.0664
779.0164, 347.3396
779.4985, 348.4281
779.9807, 348.7124
780.4628, 348.6725
780.9449, 348.3641
781.4270, 347.9630
781.9091, 347.8305
782.3912, 348.3653
782.8734, 348.7501
783.3555, 348.7399
783.8376, 348.5790
784.3197, 349.0069
784.8018, 350.1108
785.2839, 350.8671
785.7661, 351.0586
786.2482, 350.5971
786.7303, 348.5493
787.2124, 345.6585
787.6945, 343.9843
788.1766, 345.7609
788.6588, 347.7183
789.1409, 347.9723
789.6230, 347.1097
790.1051, 346.8725
790.5872, 348.1460
791.0693, 348.9126
791.5515, 348.5962
792.0336, 347.6085
792.5157, 347.0926
792.9978, 347.0508
793.4799, 347.3095
793.9620, 348.0749
794.4442, 348.7920
794.9263, 348.3406
795.4084, 347.1461
795.8905, 346.3900
796.3726, 346.7709
796.8547, 347.5163
797.3369, 348.6348
797.8190, 349.8800
798.3011, 350.4565
798.7832, 349.9564
799.2653, 349.6090
799.7474, 349.8443
800.2296, 350.3217
800.7117, 349.9042
801.1938, 348.6905
801.6759, 347.7692
802.1580, 347.7192
802.6401, 348.0612
803.1223, 348.2794
803.6044, 348.4566
804.0865, 348.7983
804.5686, 349.8419
805.0507, 350.5692
805.5328, 350.4909
806.0150, 349.8773
806.4971, 349.2828
806.9792, 348.4836
807.4613, 348.5512
807.9434, 350.2206
808.4255, 352.4504
808.9077, 352.6376
809.3898, 351.1750
809.8719, 349.8292
810.3540, 349.2552
810.8361, 349.2225
811.3182, 349.7342
811.8004, 350.6367
812.2825, 351.5805
812.7646, 352.9498
813.2467, 353.7476
813.7288, 353.7141
814.2109, 353.0410
814.6931, 352.0340
815.1752, 350.5903
815.6573, 349.7667
816.1394, 350.0132
816.6215, 350.7910
817.1037, 351.3178
817.5858, 351.6420
818.0679, 351.9072
818.5500, 352.6375
819.0322, 352.8055
819.5143, 351.1497
819.9964, 348.6781
820.4785, 347.6255
820.9606, 349.2833
821.4427, 349.9995
821.9249, 348.6770
822.4070, 346.6924
822.8891, 347.4403
823.3712, 350.5938
823.8533, 352.3819
824.3354, 351.2007
824.8176, 349.4088
825.2997, 349.8940
825.7818, 351.6065
826.2639, 352.7331
826.7460, 352.2290
827.2281, 351.6275
827.7103, 351.1627
828.1924, 350.8425
828.6745, 350.6722
829.1566, 350.6398
829.6387, 350.7982
830.1208, 351.1459
830.6030, 351.6946
831.0851, 352.7858
831.5672, 354.0786
832.0493, 354.5772
832.5314, 353.8290
833.0135, 352.7102
833.4957, 351.4198
833.9778, 350.2822
834.4599, 349.6643
834.9420, 350.4610
835.4241, 350.5490
835.9063, 349.3726
836.3884, 348.1613
836.8705, 348.7202
837.3526, 350.9806
837.8347, 352.1933
838.3168, 351.9126
838.7990, 351.2296
839.2811, 351.0344
839.7632, 351.2614
840.2453, 351.9927
840.7274, 353.5874
841.2095, 354.4767
841.6917, 353.3476
842.1738, 351.8490
842.6559, 351.2886
843.1380, 351.9814
843.6201, 352.4943
844.1022, 352.8063
844.5844, 353.0104
845.0665, 353.4133
845.5486, 353.7593
846.0307, 352.9586
846.5128, 350.8794
846.9949, 349.5041
847.4771, 351.3462
847.9592, 353.5737
848.4413, 353.6104
848.9234, 350.4544
849.4055, 349.3431
849.8876, 351.7300
850.3698, 354.0419
850.8519, 353.7761
851.3340, 351.2375
851.8161, 350.6473
852.2982, 351.9886
852.7803, 353.3658
853.2625, 353.2827
853.7446, 352.5826
854.2267, 352.0201
854.7088, 351.6554
855.1909, 351.5909
855.6730, 352.2292
856.1552, 352.7986
856.6373, 353.0155
857.1194, 352.9117
857.6015, 352.5699
858.0836, 351.8802
858.5657, 351.8313
859.0479, 353.4586
859.5300, 355.6374
860.0121, 356.0366
860.4942, 355.0445
860.9763, 353.9947
861.4584, 353.3058
861.9406, 352.9874
862.4227, 353.3412
862.9048, 354.0998
863.3869, 354.3042
863.8690, 353.6288
864.3511, 353.2383
864.8333, 353.5355
865.3154, 354.0902
865.7975, 353.9141
866.2796, 353.1632
866.7617, 352.5665
867.2438, 352.6396
867.7260, 352.4885
868.2081, 350.4945
868.6902, 348.0997
869.1723, 347.5092
869.6544, 351.5595
870.1365, 354.0350
870.6187, 354.0737
871.1008, 353.0387
871.5829, 352.7501
872.0650, 353.1684
872.5471, 353.4061
873.0292, 353.2914
873.5114, 353.1927
873.9935, 353.6835
874.4756, 354.3300
874.9577, 354.5539
875.4399, 354.1335
875.9220, 353.6497
876.4041, 353.0858
876.8862, 352.6459
877.3683, 352.3230
877.8505, 351.9651
878.3326, 353.1812
878.8147, 356.2478
879.2968, 358.8136
879.7789, 358.1498
880.2610, 355.9002
880.7432, 354.7162
881.2253, 354.7561
881.7074, 355.0047
882.1895, 355.1105
882.6716, 355.1877
883.1537, 355.4453
883.6359, 355.8490
884.1180, 355.4611
884.6001, 354.0764
885.0822, 352.7501
885.5643, 351.8135
886.0464, 351.3886
886.5286, 352.3216
887.0107, 354.1837
887.4928, 355.2077
887.9749, 353.0074
888.4570, 351.1774
888.9391, 352.1718
889.4213, 355.0300
889.9034, 356.5019
890.3855, 355.9228
890.8676, 355.3361
891.3497, 355.1623
891.8318, 355.1597
892.3140, 354.8525
892.7961, 354.3037
893.2782, 353.6659
893.7603, 352.7034
894.2424, 352.3457
894.7245, 354.0097
895.2067, 356.3654
895.6888, 357.8022
896.1709, 357.8221
896.6530, 357.1391
897.1351, 355.3756
897.6172, 353.5107
898.0994, 352.6055
898.5815, 352.5551
899.0636, 352.6454
899.5457, 352.8089
900.0278, 353.1814
900.5099, 354.4191
900.9921, 355.5612
901.4742, 355.4662
901.9563, 353.7647
902.4384, 352.9174
902.9205, 353.7741
903.4026, 354.6579
903.8848, 354.5994
904.3669, 353.8010
904.8490, 354.2744
905.3311, 355.9583
905.8132, 357.2791
906.2953, 356.8152
906.7775, 355.8937
907.2596, 355.8514
907.7417, 356.4923
908.2238, 357.0656
908.7059, 357.5393
909.1880, 357.6742
909.6702, 357.3016
910.1523, 356.6439
910.6344, 356.2046
911.1165, 355.9832
911.5986, 355.8676
912.0807, 355.8197
912.5629, 355.8916
913.0450, 356.3123
913.5271, 356.8346
914.0092, 357.0875
914.4913, 356.8559
914.9734, 356.5363
915.4556, 356.1238
915.9377, 355.7114
916.4198, 355.3430
916.9019, 355.0068
917.3840, 354.9737
917.8661, 355.2878
918.3483, 355.6170
918.8304, 355.5270
919.3125, 355.3556
919.7946, 355.7388
920.2767, 356.7444
920.7589, 357.0687
921.2410, 355.2513
921.7231, 353.7916
922.2052, 353.6924
922.6873, 354.8331
923.1694, 356.3696
923.6516, 358.3087
924.1337, 359.9131
924.6158, 360.8820
925.0979, 361.2437
925.5800, 360.4852
926.0621, 359.1541
926.5443, 358.6140
927.0264, 360.1581
927.5085, 361.5282
927.9906, 362.3729
928.4727, 362.7437
928.9548, 362.5879
929.4370, 361.8842
929.9191, 361.3886
930.4012, 361.2717
930.8833, 361.2475
931.3654, 360.7625
931.8475, 360.2733
932.3297, 360.5046
932.8118, 361.8590
933.2939, 362.9388
933.7761, 363.0271
934.2582, 363.1280
934.7403, 363.7989
935.2224, 365.0499
935.7045, 366.6798
936.1866, 368.7228
936.6688, 370.4951
937.1509, 371.6194
937.6330, 372.1534
938.1151, 371.7905
938.5972, 370.7794
939.0793, 370.3247
939.5615, 371.9240
940.0436, 372.6583
940.5257, 371.2152
941.0078, 368.7783
941.4899, 368.9100
941.9720, 371.4991
942.4542, 373.5640
942.9363, 374.2401
943.4184, 374.1525
943.9005, 373.2673
944.3826, 372.3258
944.8647, 372.4321
945.3469, 374.8806
945.8290, 376.3831
946.3111, 376.4943
946.7932, 375.8661
947.2753, 374.7636
947.7574, 373.2348
948.2396, 372.6642
948.7217, 373.1009
949.2038, 373.7457
949.6859, 374.1628
950.1680, 374.3756
950.6501, 374.3179
951.1323, 374.0150
951.6144, 373.8750
952.0965, 374.2633
952.5786, 374.2401
953.0607, 373.2513
953.5428, 371.8336
954.0250, 371.7954
954.5071, 372.9066
954.9892, 373.8203
955.4713, 373.9137
955.9534, 373.7987
956.4355, 373.7679
956.9177, 373.8723
957.3998, 374.1853
957.8819, 374.5867
958.3640, 375.4542
958.8461, 376.8828
959.3282, 378.6225
959.8104, 380.3471
960.2925, 382.1401
960.7746, 384.3634
961.2567, 387.0519
961.7388, 389.5733
962.2209, 391.4445
962.7031, 393.1115
963.1852, 394.5241
963.6673, 395.7790
964.1494, 398.4406
964.6315, 402.7853
965.1136, 407.5196
965.5958, 412.3295
966.0779, 417.0399
966.5600, 421.2295
967.0421, 425.0682
967.5242, 428.8961
968.0063, 432.8569
968.4885, 436.8805
968.9706, 441.0580
969.4527, 445.2587
969.9348, 449.4452
970.4169, 453.6856
970.8990, 457.6050
971.3812, 461.2596
971.8633, 464.1058
972.3454, 465.8623
972.8275, 466.2872
973.3096, 464.9144
973.7917, 461.7077
974.2739, 457.3532
974.7560, 450.2155
975.2381, 444.0817
975.7202, 440.6680
976.2023, 439.3894
976.6844, 437.1294
977.1666, 433.8893
977.6487, 431.0866
978.1308, 429.3132
978.6129, 428.2511
979.0950, 427.0920
979.5771, 426.5515
980.0593, 427.7829
980.5414, 432.9023
981.0235, 437.0998
981.5056, 439.5895
981.9877, 442.0225
982.4698, 446.5376
982.9520, 452.6779
983.4341, 457.5695
983.9162, 461.0295
984.3983, 463.8266
984.8804, 466.9593
985.3625, 469.2642
985.8447, 469.9769
986.3268, 468.9657
986.8089, 466.4987
987.2910, 462.5663
987.7731, 457.0631
988.2552, 449.3218
988.7374, 440.8295
989.2195, 434.9042
989.7016, 430.7836
990.1837, 426.4777
990.6658, 420.6845
991.1479, 415.8764
991.6301, 413.3837
992.1122, 412.2209
992.5944, 411.3997
993.0765, 410.9090
993.5586, 410.9549
994.0407, 411.5873
994.5228, 412.3470
995.0049, 413.1303
995.4871, 413.6487
995.9692, 413.2621
996.4513, 412.1223
996.9334, 411.3891
997.4155, 412.0209
997.8976, 412.4178
998.3798, 412.4993
998.8619, 411.8981
999.3440, 409.1244
999.8261, 404.4726
1000.308, 400.9507
1000.790, 399.5475
1001.272, 398.7578
1001.755, 397.1269
1002.237, 395.5246
1002.719, 395.0162
1003.201, 396.2382
1003.683, 396.8568
1004.165, 396.6475
1004.647, 396.4237
1005.129, 396.7299
1005.612, 397.4345
1006.094, 398.1278
1006.576, 398.8568
1007.058, 399.8638
1007.540, 401.4367
1008.022, 403.1233
1008.504, 404.6483
1008.986, 406.2264
1009.468, 408.4191
1009.951, 411.3592
1010.433, 413.6320
1010.915, 414.9175
1011.397, 416.0757
1011.879, 418.2614
1012.361, 420.7647
1012.843, 422.7672
1013.325, 424.1221
1013.807, 425.0449
1014.290, 425.8490
1014.772, 425.8270
1015.254, 424.3910
1015.736, 421.9554
1016.218, 420.4657
1016.700, 419.6526
1017.182, 417.9257
1017.664, 413.6950
1018.147, 409.4485
1018.629, 407.0777
1019.111, 405.5815
1019.593, 403.3768
1020.075, 400.2605
1020.557, 396.8026
1021.039, 392.8874
1021.521, 389.1849
1022.003, 386.5228
1022.486, 384.4226
1022.968, 381.9225
1023.450, 379.0411
1023.932, 376.7428
1024.414, 375.7863
1024.896, 375.0584
1025.378, 374.1647
1025.860, 373.2402
1026.343, 372.6911
1026.825, 372.5062
1027.307, 372.4412
1027.789, 372.4712
1028.271, 372.4697
1028.753, 371.9622
1029.235, 371.5597
1029.717, 372.1212
1030.199, 374.3304
1030.682, 375.3172
1031.164, 374.7317
1031.646, 373.9224
1032.128, 373.9350
1032.610, 374.2604
1033.092, 373.1735
1033.574, 371.1501
1034.056, 369.9745
1034.539, 371.3852
1035.021, 372.6374
1035.503, 372.8233
1035.985, 372.4252
1036.467, 372.0955
1036.949, 371.8488
1037.431, 370.9991
1037.913, 369.4019
1038.396, 367.9520
1038.878, 367.3332
1039.360, 367.3120
1039.842, 367.8852
1040.324, 369.0309
1040.806, 369.6919
1041.288, 369.6825
1041.770, 369.4722
1042.252, 369.0037
1042.734, 368.7034
1043.217, 369.8676
1043.699, 371.8968
1044.181, 373.1335
1044.663, 372.6211
1045.145, 372.3786
1045.627, 373.3883
1046.109, 374.8281
1046.591, 376.1314
1047.074, 377.2970
1047.556, 378.4777
1048.038, 379.6845
1048.520, 380.4201
1049.002, 379.5052
1049.484, 378.7198
1049.966, 379.9289
1050.448, 382.5179
1050.931, 384.7039
1051.413, 386.1058
1051.895, 387.5148
1052.377, 388.9893
1052.859, 390.5650
1053.341, 392.5768
1053.823, 394.6897
1054.305, 396.2577
1054.787, 397.2056
1055.270, 397.4328
1055.752, 396.1204
1056.234, 394.9240
1056.716, 394.7979
1057.198, 395.2789
1057.680, 394.4183
1058.162, 392.2987
1058.644, 390.2404
1059.126, 388.7179
1059.609, 387.2427
1060.091, 385.3241
1060.573, 383.2836
1061.055, 381.5335
1061.537, 380.2181
1062.019, 378.7212
1062.501, 376.9754
1062.983, 375.3103
1063.466, 374.0623
1063.948, 373.0040
1064.430, 371.4892
1064.912, 369.7744
1065.394, 368.6168
1065.876, 368.7959
1066.358, 368.9395
1066.840, 368.8209
1067.323, 368.5553
1067.805, 368.2110
1068.287, 367.8175
1068.769, 367.4916
1069.251, 367.2416
1069.733, 367.5831
1070.215, 370.1778
1070.697, 372.2899
1071.179, 371.2722
1071.661, 368.0600
1072.144, 366.7985
1072.626, 367.7649
1073.108, 369.0578
1073.590, 370.5215
1074.072, 371.1199
1074.554, 368.3321
1075.036, 364.4647
1075.518, 362.7050
1076.001, 364.1254
1076.483, 365.3987
1076.965, 366.3221
1077.447, 366.9435
1077.929, 367.2927
1078.411, 367.3481
1078.893, 366.7592
1079.375, 365.7896
1079.858, 365.3246
1080.340, 366.4391
1080.822, 367.0775
1081.304, 365.9477
1081.786, 364.4404
1082.268, 363.7701
1082.750, 363.9497
1083.232, 364.3643
1083.714, 365.0005
1084.197, 365.7739
1084.679, 366.9457
1085.161, 367.9435
1085.643, 368.2642
1086.125, 368.0453
1086.607, 367.8303
1087.089, 367.6766
1087.571, 367.3036
1088.054, 366.5342
1088.536, 366.0706
1089.018, 367.5497
1089.500, 369.4577
1089.982, 369.1402
1090.464, 366.2762
1090.946, 364.5184
1091.428, 364.8344
1091.911, 365.9867
1092.393, 367.9937
1092.875, 370.1822
1093.357, 370.6961
1093.839, 370.0143
1094.321, 369.7148
1094.803, 370.4366
1095.285, 370.9288
1095.767, 370.3214
1096.250, 369.5312
1096.732, 369.1758
1097.214, 369.2355
1097.696, 369.2666
1098.178, 369.2624
1098.660, 369.0652
1099.142, 368.4313
1099.624, 367.7677
1100.106, 367.0620
1100.589, 366.6678
1101.071, 367.3282
1101.553, 369.9287
1102.035, 370.3292
1102.517, 368.0633
1102.999, 365.8023
1103.481, 366.4874
1103.963, 368.0516
1104.446, 367.2553
1104.928, 364.7530
1105.410, 363.6585
1105.892, 366.2763
1106.374, 367.5050
1106.856, 366.3219
1107.338, 364.2040
1107.820, 362.7490
1108.302, 362.0100
1108.785, 362.3580
1109.267, 363.8259
1109.749, 364.8833
1110.231, 364.2422
1110.713, 363.8577
1111.195, 364.7731
1111.677, 364.0285
1112.159, 365.8346
1112.641, 363.9233
1113.124, 362.8857
1113.606, 363.4963
1114.088, 364.2764
1114.570, 364.3548
1115.052, 364.0928
1115.534, 363.6861
1116.016, 363.1660
1116.498, 362.9376
1116.981, 363.0056
1117.463, 363.1857
1117.945, 363.5226
1118.427, 363.7311
1118.909, 363.2316
1119.391, 362.5444
1119.873, 362.4281
1120.355, 363.0426
1120.838, 364.0751
1121.320, 365.7025
1121.802, 366.9671
1122.284, 366.8546
1122.766, 366.1861
1123.248, 366.2866
1123.730, 366.8770
1124.212, 367.1874
1124.694, 367.2152
1125.177, 366.3977
1125.659, 364.0712
1126.141, 362.1465
1126.623, 363.3817
1127.105, 366.4439
1127.587, 367.8712
1128.069, 367.6009
1128.551, 366.6731
1129.033, 364.7153
1129.516, 363.2029
1129.998, 362.5331
1130.480, 362.4778
1130.962, 362.9618
1131.444, 363.7738
1131.926, 363.5894
1132.408, 362.1643
1132.890, 361.1738
1133.373, 362.1980
1133.855, 363.4502
1134.337, 363.9620
1134.819, 363.8872
1135.301, 363.6413
1135.783, 363.2420
1136.265, 363.1194
1136.747, 363.5261
1137.229, 363.6598
1137.712, 362.0592
1138.194, 360.4425
1138.676, 360.6959
1139.158, 362.8177
1139.640, 364.0786
1140.122, 364.4444
1140.604, 364.2621
1141.086, 363.3051
1141.569, 362.5408
1142.051, 363.5849
1142.533, 365.2362
1143.015, 365.7438
1143.497, 364.2581
1143.979, 363.8471
1144.461, 364.8170
1144.943, 365.6628
1145.426, 365.4576
1145.908, 364.5665
1146.390, 362.8741
1146.872, 361.0643
1147.354, 360.5580
1147.836, 363.3454
1148.318, 365.0172
1148.800, 365.2841
1149.282, 364.8675
1149.765, 364.0121
1150.247, 363.0633
1150.729, 362.9929
1151.211, 363.5879
1151.693, 363.8837
1152.175, 362.9137
1152.657, 362.5057
1153.139, 363.1358
1153.621, 364.1225
1154.104, 364.6678
1154.586, 364.8974
1155.068, 365.2603
1155.550, 365.7673
1156.032, 366.1474
1156.514, 366.2256
1156.996, 366.2095
1157.478, 366.2558
1157.961, 366.1794
1158.443, 365.4045
1158.925, 364.1403
1159.407, 363.7398
1159.889, 364.4197
1160.371, 364.9339
1160.853, 363.9095
1161.335, 363.1786
1161.818, 363.6620
1162.300, 365.1183
1162.782, 367.4516
1163.264, 370.4520
1163.746, 371.4969
1164.228, 369.7602
1164.710, 367.6361
1165.192, 366.7632
1165.674, 366.2535
1166.156, 365.4160
1166.639, 364.3353
1167.121, 363.6404
1167.603, 363.3381
1168.085, 363.4012
1168.567, 363.9059
1169.049, 364.5261
1169.531, 365.0204
1170.013, 365.4658
1170.496, 365.9713
1170.978, 366.5404
1171.460, 367.0229
1171.942, 367.4401
1172.424, 367.3463
1172.906, 366.2826
1173.388, 365.0771
1173.870, 364.1733
1174.353, 363.8333
1174.835, 364.6960
1175.317, 367.1738
1175.799, 368.2954
1176.281, 367.9281
1176.763, 367.3786
1177.245, 367.7422
1177.727, 367.9190
1178.209, 365.9055
1178.692, 363.0891
1179.174, 361.9611
1179.656, 363.6907
1180.138, 364.4683
1180.620, 364.0795
1181.102, 363.8587
1181.584, 365.1190
1182.066, 366.8257
1182.548, 367.9674
1183.031, 368.4698
1183.513, 368.1074
1183.995, 366.2538
1184.477, 364.9069
1184.959, 364.1076
1185.441, 363.9507
1185.923, 365.2925
1186.405, 366.8141
1186.888, 366.3295
1187.370, 364.3671
1187.852, 362.9540
1188.334, 362.6108
1188.816, 362.4780
1189.298, 362.4325
1189.780, 362.7497
1190.262, 364.1814
1190.745, 365.8893
1191.227, 366.4216
1191.709, 365.9450
1192.191, 365.7946
1192.673, 366.5518
1193.155, 367.0118
1193.637, 366.9655
1194.119, 366.7156
1194.601, 366.7159
1195.084, 366.7108
1195.566, 366.0123
1196.048, 364.7094
1196.530, 364.2746
1197.012, 365.5208
1197.494, 366.5738
1197.976, 367.1318
1198.458, 367.2470
1198.941, 366.5511
1199.423, 365.6527
1199.905, 365.8113
1200.387, 367.1173
1200.869, 367.8910
1201.351, 367.2933
1201.833, 367.2943
1202.315, 368.6945
1202.797, 370.2479
1203.280, 369.5811
1203.762, 367.7953
1204.244, 366.9073
1204.726, 367.2809
1205.208, 367.1572
1205.690, 365.6453
1206.172, 364.8864
1206.654, 365.7625
1207.136, 367.2708
1207.619, 367.7076
1208.101, 367.4941
1208.583, 367.3388
1209.065, 367.3663
1209.547, 367.4360
1210.029, 367.6216
1210.511, 367.5850
1210.993, 367.0341
1211.476, 366.4609
1211.958, 366.9969
1212.440, 368.0785
1212.922, 368.6861
1213.404, 368.5626
1213.886, 368.2431
1214.368, 367.6772
1214.850, 367.2784
1215.333, 367.3755
1215.815, 367.5101
1216.297, 366.1438
1216.779, 364.4281
1217.261, 364.7484
1217.743, 368.5086
1218.225, 370.6113
1218.707, 370.2298
1219.189, 369.3387
1219.672, 368.7374
1220.154, 368.3138
1220.636, 367.6293
1221.118, 367.0397
1221.600, 367.2979
1222.082, 369.0625
1222.564, 370.1130
1223.046, 370.2934
1223.528, 369.9149
1224.011, 368.8796
1224.493, 367.6906
1224.975, 367.2157
1225.457, 367.2082
1225.939, 367.2394
1226.421, 367.2398
1226.903, 367.1365
1227.385, 366.7573
1227.868, 366.9314
1228.350, 368.6316
1228.832, 370.5766
1229.314, 370.4437
1229.796, 369.2690
1230.278, 368.8500
1230.760, 369.9163
1231.242, 370.7167
1231.724, 371.3380
1232.207, 371.2626
1232.689, 369.3698
1233.171, 367.4813
1233.653, 368.8158
1234.135, 371.4846
1234.617, 372.1520
1235.099, 369.6388
1235.581, 367.8603
1236.063, 366.9086
1236.546, 366.1728
1237.028, 365.0298
1237.510, 364.1962
1237.992, 364.5683
1238.474, 365.7165
1238.956, 367.1045
1239.438, 369.1363
1239.920, 369.0992
1240.403, 366.8018
1240.885, 365.0724
1241.367, 366.4914
1241.849, 368.4532
1242.331, 368.8735
1242.813, 368.2549
1243.295, 367.1472
1243.777, 365.1611
1244.260, 365.5035
1244.742, 368.1758
1245.224, 370.3540
1245.706, 369.7418
1246.188, 368.6445
1246.670, 368.8755
1247.152, 369.4004
1247.634, 368.5537
1248.116, 366.1006
1248.599, 365.8885
1249.081, 367.7978
1249.563, 369.7393
1250.045, 370.6175
1250.527, 371.0018
1251.009, 370.9793
1251.491, 370.7486
1251.973, 370.5659
1252.455, 370.4113
1252.938, 369.4466
1253.420, 367.8572
1253.902, 367.1181
1254.384, 369.2538
1254.866, 370.8130
1255.348, 370.0374
1255.830, 368.6795
1256.313, 368.2767
1256.795, 368.6631
1257.277, 368.6333
1257.759, 368.3464
1258.241, 368.6401
1258.723, 371.4126
1259.205, 372.5009
1259.687, 370.1944
1260.169, 367.5477
1260.651, 367.3199
1261.134, 368.8788
1261.616, 370.6208
1262.098, 372.3624
1262.580, 373.6208
1263.062, 374.4346
1263.544, 374.1735
1264.026, 372.2994
1264.508, 370.5581
1264.991, 370.7990
1265.473, 371.9777
1265.955, 372.1668
1266.437, 371.5967
1266.919, 370.9047
1267.401, 369.7212
1267.883, 369.5847
1268.365, 370.7826
1268.848, 372.0101
1269.330, 371.8626
1269.812, 371.4782
1270.294, 372.8401
1270.776, 374.9922
1271.258, 375.7068
1271.740, 374.4457
1272.222, 372.8806
1272.704, 370.9432
1273.187, 369.5591
1273.669, 369.6224
1274.151, 370.2599
1274.633, 370.8260
1275.115, 371.4162
1275.597, 372.3801
1276.079, 372.2441
1276.561, 373.7642
1277.043, 371.7703
1277.526, 369.8551
1278.008, 368.7979
1278.490, 368.5878
1278.972, 369.9116
1279.454, 371.6178
1279.936, 372.6475
1280.418, 372.9888
1280.900, 372.2521
1281.383, 370.6712
1281.865, 369.7510
1282.347, 371.0195
1282.829, 371.9268
1283.311, 371.2930
1283.793, 370.3851
1284.275, 370.0186
1284.757, 370.1733
1285.240, 371.1069
1285.722, 372.5172
1286.204, 373.3963
1286.686, 373.2000
1287.168, 372.6625
1287.650, 371.7035
1288.132, 370.9005
1288.614, 370.7238
1289.096, 370.9379
1289.578, 371.1647
1290.061, 371.3787
1290.543, 371.5327
1291.025, 371.6634
1291.507, 371.4577
1291.989, 370.7399
1292.471, 370.5037
1292.953, 371.6436
1293.435, 373.1343
1293.918, 373.9073
1294.400, 374.1515
1294.882, 374.1224
1295.364, 373.8686
1295.846, 373.2038
1296.328, 372.1215
1296.810, 371.5136
1297.292, 372.0024
1297.775, 372.6712
1298.257, 373.1181
1298.739, 373.2173
1299.221, 372.7544
1299.703, 371.8249
1300.185, 371.5309
1300.667, 371.7828
1301.149, 372.0359
1301.631, 372.1283
1302.114, 371.9302
1302.596, 371.7958
##END=



