##NAMES=Cernyite
##RRUFFID=R070179
##IDEAL CHEMISTRY=Cu^1+^_2_Cd^2+^Sn^4+^S^2-^_4_
##LOCALITY=Hugo mine, Keystone, Keystone District, Pennington County, South Dakota, USA
##OWNER=RRUFF
##SOURCE=Michael Scott
##DESCRIPTION=Gray metallic massive
##STATUS=The identification of this mineral has been confirmed by single-crystal X-ray diffraction.
##URL=rruff.info/R070179
112.6316, 90.86571
113.1138, 91.38018
113.5959, 97.52498
114.0780, 110.0565
114.5601, 123.7502
115.0422, 131.3288
115.5243, 130.5889
116.0065, 133.5984
116.4886, 144.6653
116.9707, 159.0691
117.4528, 170.5107
117.9349, 177.1543
118.4170, 182.5323
118.8991, 192.4705
119.3813, 207.0219
119.8634, 220.9485
120.3455, 232.0933
120.8276, 241.5431
121.3097, 251.0809
121.7918, 260.0137
122.2740, 271.3694
122.7561, 289.5040
123.2382, 314.6661
123.7203, 340.5711
124.2024, 363.4497
124.6845, 384.1312
125.1667, 406.2161
125.6488, 429.7939
126.1309, 456.4719
126.6130, 487.4235
127.0951, 522.7067
127.5772, 560.2713
128.0594, 597.7455
128.5415, 635.2113
129.0236, 676.3494
129.5057, 725.2888
129.9878, 775.9354
130.4699, 823.0526
130.9521, 865.8222
131.4342, 908.2898
131.9163, 956.9036
132.3984, 1014.237
132.8805, 1063.058
133.3626, 1097.240
133.8448, 1122.850
134.3269, 1141.466
134.8090, 1153.486
135.2911, 1161.960
135.7732, 1170.429
136.2553, 1178.065
136.7375, 1188.281
137.2196, 1204.358
137.7017, 1221.323
138.1838, 1233.122
138.6659, 1238.229
139.1480, 1244.592
139.6302, 1267.306
140.1123, 1315.908
140.5944, 1364.041
141.0765, 1406.281
141.5586, 1448.338
142.0407, 1494.789
142.5229, 1547.209
143.0050, 1604.003
143.4871, 1661.920
143.9692, 1723.565
144.4513, 1781.893
144.9334, 1830.803
145.4156, 1879.002
145.8977, 1935.654
146.3798, 2004.479
146.8619, 2080.751
147.3440, 2151.731
147.8261, 2216.588
148.3083, 2276.397
148.7904, 2327.956
149.2725, 2375.464
149.7546, 2425.823
150.2367, 2482.150
150.7188, 2539.101
151.2010, 2580.811
151.6831, 2593.492
152.1652, 2606.284
152.6473, 2626.076
153.1294, 2646.024
153.6115, 2655.770
154.0937, 2650.066
154.5758, 2634.047
155.0579, 2623.403
155.5400, 2621.320
156.0221, 2620.353
156.5042, 2618.618
156.9864, 2617.443
157.4685, 2618.752
157.9506, 2623.342
158.4327, 2631.125
158.9148, 2642.321
159.3969, 2654.791
159.8791, 2672.552
160.3612, 2699.735
160.8433, 2732.686
161.3254, 2764.161
161.8075, 2790.538
162.2896, 2814.226
162.7718, 2842.263
163.2539, 2874.865
163.7360, 2909.849
164.2181, 2950.660
164.7002, 2993.633
165.1823, 3027.825
165.6645, 3045.393
166.1466, 3056.174
166.6287, 3084.221
167.1108, 3135.781
167.5929, 3188.565
168.0750, 3236.641
168.5572, 3279.258
169.0393, 3313.850
169.5214, 3337.799
170.0035, 3354.657
170.4856, 3371.927
170.9677, 3390.123
171.4499, 3407.498
171.9320, 3422.649
172.4141, 3436.078
172.8962, 3448.746
173.3783, 3458.533
173.8604, 3470.784
174.3426, 3495.776
174.8247, 3538.313
175.3068, 3576.271
175.7889, 3593.411
176.2710, 3593.960
176.7531, 3597.104
177.2353, 3608.758
177.7174, 3626.170
178.1995, 3644.147
178.6816, 3662.046
179.1637, 3683.271
179.6458, 3712.157
180.1279, 3747.176
180.6101, 3780.666
181.0922, 3812.610
181.5743, 3839.571
182.0564, 3857.728
182.5385, 3866.264
183.0206, 3874.117
183.5028, 3886.511
183.9849, 3903.126
184.4670, 3922.192
184.9491, 3946.012
185.4312, 3968.913
185.9133, 3981.785
186.3955, 3984.414
186.8776, 3994.564
187.3597, 4031.329
187.8418, 4089.717
188.3239, 4136.818
188.8060, 4164.816
189.2882, 4180.736
189.7703, 4188.207
190.2524, 4188.190
190.7345, 4191.321
191.2166, 4208.199
191.6987, 4236.308
192.1809, 4257.437
192.6630, 4265.560
193.1451, 4270.436
193.6272, 4277.601
194.1093, 4287.422
194.5914, 4301.305
195.0736, 4323.005
195.5557, 4350.904
196.0378, 4373.964
196.5199, 4389.084
197.0020, 4402.025
197.4841, 4415.290
197.9663, 4429.364
198.4484, 4445.677
198.9305, 4468.357
199.4126, 4495.122
199.8947, 4513.922
200.3768, 4519.708
200.8590, 4523.746
201.3411, 4533.183
201.8232, 4546.134
202.3053, 4558.017
202.7874, 4567.464
203.2695, 4573.873
203.7517, 4573.370
204.2338, 4559.455
204.7159, 4549.503
205.1980, 4553.518
205.6801, 4566.697
206.1622, 4580.283
206.6444, 4590.111
207.1265, 4596.912
207.6086, 4602.860
208.0907, 4607.925
208.5728, 4612.084
209.0549, 4614.002
209.5371, 4615.400
210.0192, 4619.075
210.5013, 4627.240
210.9834, 4637.577
211.4655, 4643.441
211.9476, 4640.728
212.4298, 4643.125
212.9119, 4664.861
213.3940, 4691.028
213.8761, 4701.714
214.3582, 4684.873
214.8403, 4658.460
215.3225, 4658.943
215.8046, 4698.002
216.2867, 4729.226
216.7688, 4732.197
217.2509, 4723.092
217.7330, 4713.811
218.2152, 4706.968
218.6973, 4705.805
219.1794, 4718.821
219.6615, 4751.630
220.1436, 4775.545
220.6257, 4770.571
221.1079, 4760.447
221.5900, 4762.427
222.0721, 4780.587
222.5542, 4805.310
223.0363, 4827.254
223.5184, 4846.910
224.0006, 4860.722
224.4827, 4866.804
224.9648, 4867.078
225.4469, 4857.530
225.9290, 4838.928
226.4111, 4825.864
226.8933, 4836.017
227.3754, 4870.139
227.8575, 4900.120
228.3396, 4921.056
228.8217, 4937.931
229.3038, 4954.432
229.7859, 4970.262
230.2681, 4982.769
230.7502, 4988.395
231.2323, 4987.818
231.7144, 4988.644
232.1965, 4991.166
232.6786, 4995.557
233.1608, 5000.946
233.6429, 5007.838
234.1250, 5017.773
234.6071, 5032.736
235.0892, 5051.798
235.5714, 5070.281
236.0535, 5086.190
236.5356, 5105.370
237.0177, 5132.086
237.4998, 5163.753
237.9819, 5196.292
238.4641, 5230.681
238.9462, 5263.070
239.4283, 5283.086
239.9104, 5285.676
240.3925, 5289.306
240.8746, 5305.011
241.3568, 5326.323
241.8389, 5345.270
242.3210, 5357.876
242.8031, 5369.029
243.2852, 5385.069
243.7673, 5406.034
244.2495, 5431.995
244.7316, 5470.609
245.2137, 5510.740
245.6958, 5540.202
246.1779, 5554.539
246.6600, 5565.097
247.1422, 5584.446
247.6243, 5612.656
248.1064, 5636.683
248.5885, 5649.711
249.0706, 5659.374
249.5527, 5673.718
250.0349, 5693.468
250.5170, 5714.281
250.9991, 5733.526
251.4812, 5751.419
251.9633, 5769.542
252.4454, 5790.661
252.9276, 5808.512
253.4097, 5813.131
253.8918, 5806.019
254.3739, 5806.610
254.8560, 5829.167
255.3381, 5865.838
255.8203, 5899.501
256.3024, 5929.294
256.7845, 5952.848
257.2666, 5964.159
257.7487, 5966.600
258.2308, 5970.350
258.7130, 5980.287
259.1951, 5992.310
259.6772, 6001.827
260.1593, 6008.806
260.6414, 6011.472
261.1235, 6004.201
261.6057, 5991.855
262.0878, 5988.096
262.5699, 5994.534
263.0520, 6010.158
263.5341, 6039.347
264.0162, 6080.259
264.4984, 6116.037
264.9805, 6134.457
265.4626, 6143.999
265.9447, 6167.676
266.4268, 6215.150
266.9089, 6259.687
267.3911, 6281.820
267.8732, 6290.092
268.3553, 6308.171
268.8374, 6345.763
269.3195, 6394.607
269.8016, 6440.592
270.2838, 6483.195
270.7659, 6524.964
271.2480, 6561.458
271.7301, 6599.155
272.2122, 6650.420
272.6943, 6719.238
273.1765, 6790.745
273.6586, 6845.656
274.1407, 6879.648
274.6228, 6920.813
275.1049, 6972.172
275.5870, 7030.532
276.0692, 7094.101
276.5513, 7162.466
277.0334, 7235.024
277.5155, 7312.096
277.9976, 7394.028
278.4797, 7475.512
278.9619, 7564.340
279.4440, 7645.291
279.9261, 7714.922
280.4082, 7771.521
280.8903, 7808.140
281.3724, 7818.625
281.8546, 7809.632
282.3367, 7814.817
282.8188, 7849.769
283.3009, 7879.334
283.7830, 7902.290
284.2651, 7915.236
284.7473, 7909.193
285.2294, 7880.998
285.7115, 7845.204
286.1936, 7831.272
286.6757, 7857.067
287.1578, 7877.617
287.6400, 7896.251
288.1221, 7907.834
288.6042, 7903.033
289.0863, 7883.354
289.5684, 7864.565
290.0505, 7867.052
290.5327, 7898.512
291.0148, 7915.493
291.4969, 7908.797
291.9790, 7897.588
292.4611, 7887.314
292.9432, 7879.057
293.4254, 7872.977
293.9075, 7869.744
294.3896, 7868.787
294.8717, 7864.378
295.3538, 7847.564
295.8359, 7839.185
296.3181, 7841.843
296.8002, 7855.863
297.2823, 7884.967
297.7644, 7932.671
298.2465, 7986.581
298.7286, 8016.774
299.2108, 8008.156
299.6929, 8016.354
300.1750, 8049.128
300.6571, 8104.056
301.1392, 8185.596
301.6213, 8294.118
302.1035, 8412.807
302.5855, 8515.972
303.0677, 8602.056
303.5498, 8725.157
304.0319, 8893.390
304.5140, 9101.510
304.9961, 9343.105
305.4782, 9617.117
305.9604, 9920.619
306.4425, 10255.64
306.9246, 10617.22
307.4067, 10988.48
307.8888, 11356.33
308.3709, 11762.19
308.8531, 12229.18
309.3352, 12750.07
309.8173, 13324.50
310.2994, 13966.62
310.7815, 14648.13
311.2636, 15334.56
311.7458, 16025.96
312.2279, 16760.37
312.7100, 17556.75
313.1921, 18408.46
313.6742, 19292.77
314.1563, 20204.73
314.6385, 21158.41
315.1206, 22151.21
315.6027, 23194.22
316.0848, 24317.48
316.5669, 25530.70
317.0490, 26819.61
317.5312, 28163.10
318.0133, 29569.69
318.4954, 31027.06
318.9775, 32532.71
319.4596, 34083.19
319.9417, 35690.73
320.4239, 37340.37
320.9060, 39013.49
321.3881, 40696.41
321.8702, 42378.43
322.3523, 43935.44
322.8344, 45400.88
323.3166, 46720.98
323.7987, 47896.55
324.2808, 48909.41
324.7629, 49752.90
325.2450, 50428.64
325.7271, 50892.66
326.2093, 51039.50
326.6914, 50872.41
327.1735, 50322.20
327.6556, 49335.82
328.1377, 48018.14
328.6198, 46426.38
329.1020, 44580.70
329.5841, 42497.43
330.0662, 40159.20
330.5483, 37517.18
331.0304, 34861.55
331.5125, 32071.86
331.9947, 29358.34
332.4768, 26725.65
332.9589, 24226.87
333.4410, 21918.30
333.9231, 19848.89
334.4052, 18006.77
334.8874, 16362.66
335.3695, 14922.56
335.8516, 13702.49
336.3337, 12717.89
336.8158, 11910.58
337.2979, 11248.91
337.7801, 10726.37
338.2622, 10299.91
338.7443, 9924.507
339.2264, 9598.488
339.7085, 9332.680
340.1906, 9153.313
340.6728, 9015.572
341.1549, 8889.829
341.6370, 8773.451
342.1191, 8658.756
342.6012, 8530.037
343.0833, 8401.662
343.5655, 8309.746
344.0476, 8261.473
344.5297, 8221.396
345.0118, 8160.833
345.4939, 8091.470
345.9760, 8044.135
346.4582, 8034.867
346.9403, 8034.310
347.4224, 8023.494
347.9045, 8004.647
348.3866, 7984.182
348.8687, 7962.750
349.3509, 7944.834
349.8330, 7942.795
350.3151, 7965.447
350.7972, 7975.438
351.2793, 7952.075
351.7614, 7920.755
352.2436, 7906.127
352.7257, 7912.278
353.2078, 7931.064
353.6899, 7955.049
354.1720, 7983.909
354.6541, 8021.355
355.1363, 8072.650
355.6184, 8125.253
356.1005, 8167.669
356.5826, 8208.833
357.0647, 8265.637
357.5468, 8347.427
358.0290, 8447.171
358.5111, 8545.793
358.9932, 8653.096
359.4753, 8741.707
359.9574, 8817.177
360.4395, 8871.063
360.9217, 8898.177
361.4038, 8897.037
361.8859, 8867.090
362.3680, 8807.561
362.8501, 8718.604
363.3322, 8601.271
363.8144, 8453.016
364.2965, 8276.063
364.7786, 8062.540
365.2607, 7826.267
365.7428, 7591.673
366.2249, 7374.978
366.7071, 7161.644
367.1892, 6920.649
367.6713, 6645.107
368.1534, 6398.887
368.6355, 6215.284
369.1176, 6064.646
369.5998, 5902.792
370.0819, 5723.555
370.5640, 5565.983
371.0461, 5456.739
371.5282, 5382.325
372.0103, 5316.708
372.4925, 5256.047
372.9746, 5201.338
373.4567, 5154.729
373.9388, 5116.257
374.4209, 5077.266
374.9030, 5033.969
375.3852, 4993.196
375.8673, 4958.688
376.3494, 4930.078
376.8315, 4907.335
377.3136, 4891.425
377.7957, 4878.129
378.2779, 4855.978
378.7600, 4808.750
379.2421, 4774.793
379.7242, 4767.450
380.2063, 4765.412
380.6884, 4749.456
381.1706, 4718.109
381.6527, 4684.464
382.1348, 4661.664
382.6169, 4650.256
383.0990, 4639.544
383.5811, 4628.991
384.0633, 4619.899
384.5454, 4618.792
385.0275, 4617.753
385.5096, 4603.948
385.9917, 4570.586
386.4738, 4528.087
386.9560, 4492.074
387.4381, 4462.181
387.9202, 4442.501
388.4023, 4443.267
388.8844, 4447.227
389.3665, 4442.648
389.8487, 4429.192
390.3308, 4411.551
390.8129, 4387.747
391.2950, 4362.573
391.7771, 4347.693
392.2592, 4345.215
392.7414, 4344.134
393.2235, 4339.337
393.7056, 4330.045
394.1877, 4314.941
394.6698, 4288.177
395.1519, 4263.005
395.6341, 4247.521
396.1162, 4238.451
396.5983, 4228.150
397.0804, 4213.926
397.5625, 4200.882
398.0446, 4197.413
398.5268, 4209.182
399.0089, 4212.346
399.4910, 4196.328
399.9731, 4181.221
400.4552, 4184.710
400.9373, 4200.314
401.4194, 4206.028
401.9016, 4185.924
402.3837, 4148.378
402.8658, 4129.421
403.3479, 4146.839
403.8300, 4155.561
404.3121, 4142.045
404.7943, 4123.658
405.2764, 4117.425
405.7585, 4125.248
406.2406, 4132.416
406.7227, 4118.638
407.2048, 4085.340
407.6870, 4071.000
408.1691, 4088.188
408.6512, 4105.742
409.1333, 4101.453
409.6154, 4086.611
410.0975, 4082.244
410.5797, 4099.822
411.0618, 4122.760
411.5439, 4132.805
412.0260, 4131.870
412.5081, 4133.616
412.9902, 4143.729
413.4724, 4156.320
413.9545, 4161.234
414.4366, 4157.698
414.9187, 4157.305
415.4008, 4163.252
415.8829, 4172.561
416.3651, 4185.218
416.8472, 4199.688
417.3293, 4208.712
417.8114, 4205.965
418.2935, 4194.970
418.7756, 4195.694
419.2578, 4226.633
419.7399, 4246.329
420.2220, 4243.928
420.7041, 4232.456
421.1862, 4224.708
421.6683, 4223.131
422.1505, 4221.180
422.6326, 4210.748
423.1147, 4191.116
423.5968, 4173.898
424.0789, 4160.625
424.5610, 4147.961
425.0432, 4135.766
425.5253, 4123.096
426.0074, 4107.827
426.4895, 4087.926
426.9716, 4068.604
427.4537, 4057.782
427.9359, 4054.995
428.4180, 4050.232
428.9001, 4040.006
429.3822, 4028.389
429.8643, 4021.311
430.3464, 4018.304
430.8286, 4010.615
431.3107, 3991.948
431.7928, 3970.290
432.2749, 3953.580
432.7570, 3941.341
433.2391, 3928.856
433.7213, 3913.569
434.2034, 3896.034
434.6855, 3878.143
435.1676, 3858.942
435.6497, 3840.852
436.1318, 3822.907
436.6140, 3806.848
437.0961, 3797.283
437.5782, 3792.616
438.0603, 3783.478
438.5424, 3760.212
439.0245, 3723.901
439.5067, 3692.528
439.9888, 3661.467
440.4709, 3643.514
440.9530, 3657.783
441.4351, 3677.585
441.9172, 3670.264
442.3994, 3626.060
442.8815, 3573.927
443.3636, 3540.722
443.8457, 3524.979
444.3278, 3518.396
444.8099, 3524.329
445.2921, 3529.780
445.7742, 3524.389
446.2563, 3510.127
446.7384, 3491.210
447.2205, 3463.321
447.7026, 3435.769
448.1848, 3414.937
448.6669, 3399.373
449.1490, 3386.150
449.6311, 3374.308
450.1132, 3362.854
450.5953, 3350.200
451.0775, 3336.411
451.5596, 3321.060
452.0417, 3300.384
452.5238, 3281.690
453.0059, 3274.336
453.4880, 3272.028
453.9702, 3258.077
454.4523, 3221.523
454.9344, 3174.664
455.4165, 3152.266
455.8986, 3166.117
456.3807, 3171.690
456.8629, 3151.290
457.3450, 3128.302
457.8271, 3117.962
458.3092, 3119.360
458.7913, 3120.204
459.2734, 3111.705
459.7556, 3098.222
460.2377, 3086.029
460.7198, 3074.868
461.2019, 3072.137
461.6840, 3086.556
462.1661, 3108.012
462.6483, 3115.222
463.1304, 3105.394
463.6125, 3090.795
464.0946, 3071.852
464.5767, 3051.603
465.0588, 3029.960
465.5410, 3008.748
466.0231, 2997.207
466.5052, 3004.343
466.9873, 3027.480
467.4694, 3041.623
467.9515, 3043.735
468.4337, 3039.907
468.9158, 3022.157
469.3979, 3003.984
469.8800, 3001.883
470.3621, 3016.828
470.8442, 3030.782
471.3264, 3021.384
471.8085, 2991.934
472.2906, 2976.905
472.7727, 2980.656
473.2548, 2989.399
473.7369, 3002.853
474.2191, 3014.679
474.7012, 3013.516
475.1833, 2991.836
475.6654, 2972.578
476.1475, 2973.128
476.6296, 2985.894
477.1118, 2995.943
477.5939, 3000.425
478.0760, 3002.049
478.5581, 3001.801
479.0402, 2999.684
479.5223, 3006.838
480.0045, 3038.936
480.4866, 3060.425
480.9687, 3052.989
481.4508, 3032.739
481.9329, 3019.541
482.4150, 3019.391
482.8972, 3026.911
483.3793, 3037.726
483.8614, 3052.802
484.3435, 3059.465
484.8256, 3052.623
485.3077, 3043.890
485.7899, 3035.303
486.2720, 3028.826
486.7541, 3027.441
487.2362, 3032.156
487.7183, 3041.617
488.2004, 3060.765
488.6826, 3084.616
489.1647, 3091.125
489.6468, 3072.393
490.1289, 3052.404
490.6110, 3055.506
491.0931, 3081.680
491.5753, 3096.970
492.0574, 3095.590
492.5395, 3089.969
493.0216, 3080.177
493.5037, 3070.948
493.9858, 3071.518
494.4680, 3083.989
494.9501, 3097.926
495.4322, 3097.794
495.9143, 3080.217
496.3964, 3073.971
496.8785, 3097.763
497.3607, 3110.971
497.8428, 3088.835
498.3249, 3052.198
498.8070, 3033.260
499.2891, 3045.152
499.7712, 3062.620
500.2533, 3056.483
500.7354, 3032.133
501.2176, 3018.125
501.6997, 3021.771
502.1818, 3026.528
502.6639, 3016.301
503.1460, 2993.682
503.6281, 2980.561
504.1103, 2986.353
504.5924, 2991.776
505.0745, 2987.435
505.5566, 2978.356
506.0387, 2972.972
506.5208, 2973.102
507.0030, 2972.971
507.4851, 2965.763
507.9672, 2951.057
508.4493, 2934.801
508.9314, 2906.851
509.4135, 2890.500
509.8957, 2902.989
510.3778, 2925.039
510.8599, 2932.976
511.3420, 2920.206
511.8241, 2900.292
512.3063, 2881.498
512.7884, 2865.548
513.2705, 2862.231
513.7526, 2875.647
514.2347, 2886.218
514.7169, 2877.642
515.1990, 2855.433
515.6811, 2843.806
516.1632, 2852.752
516.6453, 2857.463
517.1274, 2848.814
517.6096, 2832.695
518.0917, 2811.689
518.5738, 2788.610
519.0559, 2773.601
519.5380, 2778.168
520.0201, 2799.355
520.5023, 2803.958
520.9844, 2780.016
521.4665, 2758.896
521.9486, 2746.022
522.4307, 2738.949
522.9128, 2737.290
523.3950, 2740.361
523.8771, 2743.062
524.3592, 2742.142
524.8413, 2738.295
525.3234, 2730.380
525.8055, 2717.984
526.2877, 2713.826
526.7698, 2727.850
527.2519, 2750.924
527.7340, 2759.550
528.2161, 2746.638
528.6982, 2740.621
529.1804, 2752.100
529.6625, 2766.609
530.1446, 2773.317
530.6267, 2772.670
531.1088, 2769.735
531.5909, 2767.441
532.0731, 2765.654
532.5552, 2763.964
533.0373, 2762.213
533.5194, 2761.058
534.0015, 2761.097
534.4836, 2761.316
534.9658, 2758.733
535.4479, 2755.360
535.9300, 2758.585
536.4121, 2777.530
536.8942, 2798.285
537.3763, 2804.083
537.8585, 2798.381
538.3406, 2794.525
538.8227, 2796.431
539.3048, 2802.743
539.7869, 2812.475
540.2690, 2826.710
540.7512, 2837.976
541.2333, 2848.618
541.7154, 2854.097
542.1975, 2848.208
542.6796, 2837.911
543.1617, 2832.971
543.6439, 2836.423
544.1260, 2843.101
544.6081, 2846.670
545.0902, 2847.312
545.5723, 2850.224
546.0544, 2856.806
546.5366, 2862.831
547.0187, 2865.607
547.5008, 2866.483
547.9829, 2867.567
548.4650, 2869.256
548.9471, 2870.552
549.4292, 2871.550
549.9113, 2871.609
550.3934, 2868.793
550.8755, 2863.548
551.3577, 2859.526
551.8398, 2859.062
552.3219, 2862.117
552.8040, 2869.058
553.2861, 2885.819
553.7682, 2896.084
554.2504, 2897.513
554.7325, 2893.945
555.2146, 2885.829
555.6967, 2874.665
556.1788, 2864.175
556.6609, 2856.534
557.1431, 2850.564
557.6252, 2844.701
558.1073, 2838.917
558.5894, 2832.725
559.0715, 2825.221
559.5536, 2819.205
560.0358, 2819.087
560.5179, 2825.799
561.0000, 2827.429
561.4821, 2819.626
561.9642, 2811.335
562.4464, 2806.355
562.9285, 2803.261
563.4106, 2800.441
563.8927, 2797.169
564.3748, 2792.054
564.8569, 2781.561
565.3391, 2766.067
565.8212, 2760.502
566.3033, 2772.350
566.7854, 2778.604
567.2675, 2762.402
567.7496, 2738.522
568.2318, 2723.347
568.7139, 2719.230
569.1960, 2718.729
569.6781, 2719.750
570.1602, 2721.795
570.6423, 2725.608
571.1245, 2730.348
571.6066, 2731.808
572.0887, 2727.325
572.5708, 2719.558
573.0529, 2714.713
573.5350, 2712.682
574.0172, 2713.877
574.4993, 2727.491
574.9814, 2735.109
575.4635, 2721.823
575.9456, 2697.086
576.4277, 2680.027
576.9099, 2678.713
577.3920, 2686.373
577.8741, 2699.739
578.3562, 2716.398
578.8383, 2726.560
579.3204, 2728.225
579.8026, 2725.440
580.2847, 2720.544
580.7668, 2713.850
581.2489, 2707.857
581.7310, 2693.528
582.2131, 2691.695
582.6953, 2720.998
583.1774, 2753.425
583.6595, 2762.190
584.1416, 2748.027
584.6237, 2730.314
585.1058, 2721.968
585.5880, 2721.032
586.0701, 2725.046
586.5522, 2735.586
587.0343, 2737.126
587.5164, 2719.585
587.9985, 2699.835
588.4807, 2696.321
588.9628, 2706.798
589.4449, 2716.780
589.9270, 2727.962
590.4091, 2733.821
590.8912, 2726.650
591.3734, 2713.231
591.8555, 2703.204
592.3376, 2699.461
592.8197, 2702.223
593.3018, 2713.125
593.7839, 2731.391
594.2661, 2743.661
594.7482, 2744.965
595.2303, 2750.196
595.7124, 2772.936
596.1945, 2795.627
596.6766, 2797.939
597.1588, 2779.562
597.6409, 2770.451
598.1230, 2789.887
598.6051, 2820.195
599.0872, 2846.166
599.5693, 2867.386
600.0515, 2884.341
600.5336, 2897.058
601.0157, 2908.039
601.4978, 2921.278
601.9799, 2937.710
602.4620, 2950.570
602.9442, 2951.746
603.4263, 2958.991
603.9084, 2979.564
604.3905, 3007.326
604.8726, 3035.245
605.3547, 3061.917
605.8369, 3088.996
606.3190, 3120.369
606.8011, 3152.120
607.2832, 3176.816
607.7653, 3194.479
608.2474, 3210.210
608.7296, 3226.105
609.2117, 3242.263
609.6938, 3258.218
610.1759, 3271.037
610.6580, 3292.399
611.1401, 3333.857
611.6223, 3370.583
612.1044, 3388.216
612.5865, 3395.547
613.0686, 3407.758
613.5507, 3429.817
614.0328, 3450.777
614.5150, 3458.161
614.9971, 3455.446
615.4792, 3454.094
615.9613, 3454.903
616.4434, 3455.448
616.9255, 3453.440
617.4077, 3451.414
617.8898, 3456.715
618.3719, 3479.521
618.8540, 3485.329
619.3361, 3461.079
619.8182, 3430.910
620.3004, 3407.012
620.7825, 3387.928
621.2646, 3370.269
621.7467, 3352.773
622.2288, 3330.292
622.7109, 3290.633
623.1931, 3237.906
623.6752, 3201.545
624.1573, 3185.958
624.6394, 3175.249
625.1215, 3160.697
625.6036, 3144.680
626.0858, 3134.310
626.5679, 3133.443
627.0500, 3127.321
627.5321, 3108.174
628.0142, 3088.283
628.4963, 3078.802
628.9785, 3075.000
629.4606, 3063.249
629.9427, 3037.086
630.4248, 3010.264
630.9069, 3002.396
631.3890, 3012.716
631.8712, 3032.005
632.3533, 3063.618
632.8354, 3091.515
633.3175, 3105.281
633.7996, 3109.547
634.2817, 3114.920
634.7639, 3119.079
635.2460, 3130.394
635.7281, 3154.258
636.2102, 3182.447
636.6923, 3209.603
637.1744, 3236.149
637.6566, 3265.719
638.1387, 3300.170
638.6208, 3333.313
639.1029, 3352.348
639.5850, 3358.140
640.0671, 3376.769
640.5493, 3414.542
641.0314, 3450.494
641.5135, 3473.214
641.9956, 3486.260
642.4777, 3496.843
642.9598, 3502.579
643.4420, 3513.213
643.9241, 3538.795
644.4062, 3562.801
644.8883, 3568.558
645.3704, 3563.651
645.8525, 3566.642
646.3347, 3585.328
646.8168, 3610.515
647.2989, 3633.383
647.7810, 3653.334
648.2631, 3656.428
648.7452, 3637.290
649.2274, 3617.766
649.7095, 3609.091
650.1916, 3606.417
650.6737, 3599.734
651.1558, 3587.438
651.6379, 3578.170
652.1201, 3584.689
652.6022, 3583.755
653.0843, 3546.951
653.5664, 3494.885
654.0485, 3472.528
654.5306, 3494.416
655.0128, 3522.228
655.4949, 3504.093
655.9770, 3447.064
656.4591, 3410.392
656.9412, 3399.841
657.4233, 3383.903
657.9055, 3347.171
658.3876, 3299.832
658.8697, 3259.109
659.3518, 3226.387
659.8339, 3188.905
660.3160, 3137.858
660.7982, 3089.730
661.2803, 3056.340
661.7624, 3029.461
662.2445, 2996.035
662.7266, 2953.046
663.2087, 2908.350
663.6909, 2868.003
664.1730, 2832.157
664.6551, 2802.303
665.1372, 2779.075
665.6193, 2753.243
666.1014, 2720.531
666.5836, 2685.980
667.0657, 2656.370
667.5478, 2632.765
668.0299, 2605.144
668.5120, 2565.505
668.9941, 2531.677
669.4763, 2512.466
669.9584, 2499.833
670.4405, 2486.365
670.9226, 2470.073
671.4047, 2450.635
671.8868, 2427.193
672.3690, 2400.781
672.8511, 2371.837
673.3332, 2340.838
673.8153, 2311.084
674.2974, 2282.477
674.7795, 2259.916
675.2617, 2250.973
675.7438, 2254.359
676.2259, 2245.168
676.7080, 2212.501
677.1901, 2181.702
677.6722, 2156.191
678.1544, 2132.824
678.6365, 2108.632
679.1186, 2084.375
679.6007, 2063.387
680.0828, 2048.186
680.5649, 2035.189
681.0471, 2020.278
681.5292, 2004.481
682.0113, 1991.666
682.4934, 1982.327
682.9755, 1970.835
683.4576, 1952.147
683.9398, 1929.905
684.4219, 1917.173
684.9040, 1921.124
685.3861, 1919.649
685.8682, 1908.949
686.3503, 1895.646
686.8325, 1880.026
687.3146, 1864.496
687.7967, 1853.243
688.2788, 1847.547
688.7609, 1845.140
689.2430, 1850.668
689.7252, 1855.122
690.2073, 1841.184
690.6894, 1813.278
691.1715, 1795.229
691.6536, 1798.629
692.1357, 1810.869
692.6179, 1810.164
693.1000, 1794.523
693.5821, 1783.508
694.0642, 1779.737
694.5463, 1775.534
695.0284, 1766.417
695.5106, 1756.003
695.9927, 1747.280
696.4748, 1740.029
696.9569, 1739.381
697.4390, 1752.490
697.9211, 1766.867
698.4033, 1774.311
698.8854, 1777.505
699.3675, 1781.374
699.8496, 1787.091
700.3317, 1792.310
700.8138, 1793.547
701.2960, 1793.296
701.7781, 1801.727
702.2602, 1819.746
702.7423, 1835.729
703.2244, 1845.761
703.7065, 1854.646
704.1887, 1866.612
704.6708, 1881.637
705.1529, 1898.413
705.6350, 1915.726
706.1171, 1936.209
706.5992, 1962.140
707.0814, 1990.080
707.5635, 2017.690
708.0456, 2044.686
708.5277, 2070.359
709.0098, 2092.854
709.4919, 2119.280
709.9741, 2165.227
710.4562, 2221.359
710.9383, 2256.272
711.4204, 2266.985
711.9025, 2275.230
712.3846, 2292.698
712.8668, 2319.726
713.3489, 2358.396
713.8310, 2416.132
714.3131, 2464.568
714.7952, 2496.884
715.2773, 2527.644
715.7595, 2563.708
716.2416, 2600.252
716.7237, 2630.921
717.2058, 2654.806
717.6879, 2673.607
718.1700, 2683.440
718.6522, 2692.404
719.1343, 2714.270
719.6164, 2740.057
720.0985, 2746.865
720.5806, 2729.135
721.0627, 2704.404
721.5449, 2690.479
722.0270, 2685.199
722.5091, 2679.288
722.9912, 2674.769
723.4733, 2657.817
723.9554, 2621.781
724.4376, 2577.597
724.9197, 2537.254
725.4018, 2498.742
725.8839, 2445.983
726.3660, 2361.544
726.8481, 2286.598
727.3303, 2236.693
727.8124, 2193.292
728.2945, 2142.851
728.7766, 2085.486
729.2587, 2026.237
729.7408, 1967.355
730.2230, 1908.509
730.7051, 1845.977
731.1872, 1783.767
731.6693, 1734.810
732.1514, 1699.161
732.6335, 1663.752
733.1157, 1622.017
733.5978, 1576.341
734.0799, 1529.724
734.5620, 1479.809
735.0441, 1442.058
735.5262, 1426.081
736.0084, 1408.349
736.4905, 1379.372
736.9726, 1346.531
737.4547, 1314.971
737.9368, 1285.529
738.4189, 1263.373
738.9011, 1257.635
739.3832, 1251.587
739.8653, 1231.097
740.3474, 1205.376
740.8295, 1189.597
741.3116, 1184.523
741.7938, 1177.609
742.2759, 1158.227
742.7580, 1135.081
743.2401, 1129.886
743.7222, 1141.581
744.2043, 1144.606
744.6865, 1134.013
745.1686, 1119.970
745.6507, 1107.854
746.1328, 1098.068
746.6149, 1092.229
747.0970, 1094.891
747.5791, 1091.910
748.0612, 1074.688
748.5433, 1061.617
749.0255, 1067.367
749.5076, 1078.685
749.9897, 1074.638
750.4718, 1051.294
750.9539, 1030.117
751.4360, 1024.291
751.9182, 1025.961
752.4003, 1030.960
752.8824, 1036.212
753.3645, 1032.020
753.8466, 1017.328
754.3287, 1007.520
754.8109, 1019.278
755.2930, 1044.172
755.7751, 1047.170
756.2572, 1024.291
756.7393, 1009.404
757.2214, 1011.239
757.7036, 1015.696
758.1857, 1012.307
758.6678, 1003.208
759.1499, 996.6849
759.6320, 994.1724
760.1141, 991.2521
760.5963, 985.6937
761.0784, 981.5315
761.5605, 983.7351
762.0426, 987.8848
762.5247, 985.3561
763.0068, 973.9004
763.4890, 963.8287
763.9711, 965.3749
764.4532, 970.5060
764.9353, 966.9517
765.4174, 957.5335
765.8995, 952.4951
766.3817, 954.6108
766.8638, 958.1283
767.3459, 957.1526
767.8280, 953.0057
768.3101, 953.3530
768.7922, 960.3698
769.2744, 960.1021
769.7565, 945.8540
770.2386, 931.4849
770.7207, 927.2216
771.2028, 930.9653
771.6849, 935.0856
772.1671, 942.8974
772.6492, 944.3912
773.1313, 933.9557
773.6134, 921.4749
774.0955, 907.7408
774.5776, 897.5599
775.0598, 900.9701
775.5419, 919.8726
776.0240, 935.5303
776.5061, 932.1195
776.9882, 919.9890
777.4703, 910.0385
777.9525, 903.0424
778.4346, 901.9196
778.9167, 906.8536
779.3988, 911.2094
779.8809, 908.7977
780.3630, 901.3276
780.8452, 894.1632
781.3273, 886.8334
781.8094, 883.6373
782.2915, 886.3524
782.7736, 890.8266
783.2557, 895.7431
783.7379, 899.9564
784.2200, 900.1923
784.7021, 895.8739
785.1842, 889.1914
785.6663, 875.2361
786.1484, 864.5344
786.6306, 863.2751
787.1127, 867.1495
787.5948, 870.9319
788.0769, 873.5786
788.5590, 875.7603
789.0411, 879.6372
789.5233, 881.6144
790.0054, 875.9749
790.4875, 866.7043
790.9696, 862.0247
791.4517, 862.7092
791.9338, 862.9008
792.4160, 858.2337
792.8981, 851.6027
793.3802, 850.3421
793.8623, 854.2056
794.3444, 852.3384
794.8265, 842.3677
795.3087, 834.2316
795.7908, 833.1467
796.2729, 836.7271
796.7550, 841.6216
797.2371, 849.5046
797.7192, 850.6885
798.2014, 836.9943
798.6835, 826.8611
799.1656, 829.2861
799.6477, 833.1202
800.1298, 825.4268
800.6119, 808.6013
801.0941, 799.0170
801.5762, 806.0927
802.0583, 815.3849
802.5404, 822.9476
803.0225, 826.1794
803.5046, 818.9858
803.9868, 804.8677
804.4689, 794.1416
804.9510, 791.4350
805.4331, 793.0956
805.9152, 795.7802
806.3973, 799.2763
806.8795, 804.3984
807.3616, 810.5955
807.8437, 810.5071
808.3258, 801.0357
808.8079, 790.3920
809.2900, 787.5366
809.7722, 791.7603
810.2543, 797.8717
810.7364, 810.0789
811.2185, 811.1888
811.7006, 788.5787
812.1827, 767.9590
812.6649, 771.6794
813.1470, 789.3405
813.6291, 794.5102
814.1112, 780.7283
814.5933, 770.4120
815.0754, 767.7445
815.5576, 768.3091
816.0397, 772.0225
816.5218, 776.4636
817.0039, 779.0854
817.4860, 779.3231
817.9681, 777.3589
818.4503, 771.7054
818.9324, 765.5745
819.4145, 761.6351
819.8966, 759.5826
820.3787, 759.4999
820.8608, 760.9335
821.3430, 762.3177
821.8251, 762.8311
822.3072, 761.8783
822.7893, 757.6006
823.2714, 750.5321
823.7535, 745.0277
824.2357, 741.1966
824.7178, 740.3172
825.1999, 743.6062
825.6820, 748.0157
826.1641, 750.1072
826.6462, 749.8661
827.1284, 745.4575
827.6105, 733.1180
828.0926, 723.6740
828.5747, 717.3508
829.0568, 715.9387
829.5389, 724.7487
830.0211, 738.7052
830.5032, 744.7669
830.9853, 738.8630
831.4674, 732.4755
831.9495, 728.1557
832.4316, 724.3961
832.9138, 719.8799
833.3959, 715.4714
833.8780, 712.0425
834.3601, 709.9655
834.8422, 710.3324
835.3243, 716.4850
835.8065, 722.4532
836.2886, 721.0591
836.7707, 715.0596
837.2528, 707.7846
837.7349, 700.9910
838.2170, 700.3654
838.6992, 709.7786
839.1813, 721.3386
839.6634, 720.9089
840.1455, 710.2397
840.6276, 702.7525
841.1097, 698.9445
841.5919, 696.9873
842.0740, 696.3421
842.5561, 696.9169
843.0382, 698.9330
843.5203, 702.1711
844.0024, 703.6628
844.4846, 702.0884
844.9667, 701.9442
845.4488, 705.8093
845.9309, 708.7232
846.4130, 707.1904
846.8951, 702.7003
847.3773, 697.3405
847.8594, 689.7598
848.3415, 686.6533
848.8236, 692.2527
849.3057, 698.6796
849.7878, 704.6101
850.2700, 708.1552
850.7521, 706.1280
851.2342, 699.3558
851.7163, 693.4421
852.1984, 690.8425
852.6805, 689.8441
853.1627, 690.3192
853.6448, 690.9421
854.1269, 689.5743
854.6090, 686.7955
855.0911, 685.4131
855.5732, 686.4427
856.0554, 686.1465
856.5375, 676.9836
857.0196, 664.6078
857.5017, 666.9830
857.9838, 680.7213
858.4659, 684.2578
858.9481, 672.5436
859.4302, 659.3947
859.9123, 655.4586
860.3944, 658.0457
860.8765, 660.2141
861.3586, 662.0052
861.8408, 662.6236
862.3229, 661.2964
862.8050, 661.3918
863.2871, 665.1992
863.7692, 669.9903
864.2513, 672.1899
864.7335, 671.7515
865.2156, 669.7646
865.6977, 662.5480
866.1798, 659.4288
866.6619, 664.4495
867.1440, 670.9295
867.6262, 675.3941
868.1083, 678.0833
868.5904, 680.1086
869.0725, 682.2091
869.5546, 681.3438
870.0367, 674.3622
870.5189, 666.7903
871.0010, 661.1025
871.4831, 656.9581
871.9652, 654.3558
872.4473, 652.8091
872.9294, 650.0768
873.4116, 642.8246
873.8937, 638.2545
874.3758, 647.4023
874.8579, 659.4838
875.3400, 657.1950
875.8221, 644.2038
876.3043, 635.2380
876.7864, 635.8993
877.2685, 641.5676
877.7506, 650.6472
878.2327, 659.4440
878.7148, 657.6001
879.1970, 647.4346
879.6791, 639.2042
880.1612, 635.0279
880.6433, 633.5447
881.1254, 634.0385
881.6075, 635.7007
882.0897, 637.1173
882.5718, 638.3026
883.0539, 637.9906
883.5360, 635.7761
884.0181, 634.3068
884.5002, 634.6048
884.9824, 635.6976
885.4645, 636.2271
885.9466, 636.5146
886.4287, 640.2368
886.9108, 652.4769
887.3929, 656.2207
887.8751, 643.1536
888.3572, 630.9048
888.8393, 630.8979
889.3214, 636.3566
889.8035, 635.6402
890.2856, 627.7187
890.7678, 621.0901
891.2499, 617.8398
891.7320, 614.0200
892.2141, 603.8852
892.6962, 596.8179
893.1783, 604.2104
893.6605, 620.7418
894.1426, 630.4161
894.6247, 627.5969
895.1068, 624.0126
895.5889, 625.2591
896.0710, 626.7567
896.5532, 625.1281
897.0353, 621.6460
897.5174, 617.7932
897.9995, 614.2220
898.4816, 612.0146
898.9637, 611.9089
899.4459, 613.1398
899.9280, 615.5479
900.4101, 618.5097
900.8922, 622.5097
901.3743, 626.1774
901.8564, 624.2733
902.3386, 615.5058
902.8207, 608.2492
903.3028, 612.2383
903.7849, 621.9585
904.2670, 627.0273
904.7491, 627.8243
905.2313, 624.7410
905.7134, 618.2608
906.1955, 611.5814
906.6776, 606.4006
907.1597, 603.6622
907.6418, 606.4445
908.1240, 613.8842
908.6061, 615.4089
909.0882, 610.6601
909.5703, 606.9513
910.0524, 605.9207
910.5345, 608.8665
911.0167, 618.4020
911.4988, 630.6365
911.9809, 630.8992
912.4630, 614.4327
912.9451, 609.7730
913.4272, 623.9130
913.9094, 632.7758
914.3915, 624.6141
914.8736, 610.6140
915.3557, 602.9367
915.8378, 601.3816
916.3199, 602.5286
916.8021, 610.1208
917.2842, 613.5828
917.7663, 608.8036
918.2484, 603.7488
918.7305, 602.3657
919.2126, 603.0731
919.6948, 603.9047
920.1769, 604.9103
920.6590, 604.8851
921.1411, 604.1612
921.6232, 601.7933
922.1053, 594.3336
922.5875, 588.1233
923.0696, 589.0710
923.5517, 594.5693
924.0338, 598.0597
924.5159, 597.8501
924.9980, 598.5312
925.4802, 602.2972
925.9623, 606.6104
926.4444, 611.7737
926.9265, 615.5500
927.4086, 615.8812
927.8907, 612.4932
928.3729, 604.6503
928.8550, 589.9930
929.3371, 578.7240
929.8192, 579.3763
930.3013, 584.3351
930.7834, 586.7375
931.2656, 588.0146
931.7477, 593.0808
932.2298, 601.4758
932.7119, 604.8654
933.1940, 595.9539
933.6761, 585.8517
934.1583, 587.0689
934.6404, 593.9383
935.1225, 599.4131
935.6046, 602.3544
936.0867, 600.9173
936.5688, 595.0828
937.0510, 589.5431
937.5331, 588.3876
938.0152, 590.0130
938.4973, 593.5171
938.9794, 597.2582
939.4615, 596.0980
939.9437, 590.1808
940.4258, 582.7103
940.9079, 575.1617
941.3900, 570.9753
941.8721, 575.7961
942.3542, 586.1443
942.8364, 590.5012
943.3185, 589.8580
943.8006, 591.3424
944.2827, 595.9917
944.7648, 599.8290
945.2469, 600.6145
945.7290, 598.7998
946.2111, 594.2739
946.6932, 587.5878
947.1754, 584.0726
947.6575, 583.8705
948.1396, 582.6039
948.6217, 579.0559
949.1038, 576.8278
949.5859, 579.0371
950.0681, 582.6162
950.5502, 578.9966
951.0323, 566.8690
951.5144, 568.1552
951.9965, 587.4438
952.4786, 595.9183
952.9608, 582.3079
953.4429, 566.0593
953.9250, 563.8347
954.4071, 571.5161
954.8892, 575.4205
955.3713, 574.0275
955.8535, 575.2357
956.3356, 581.3027
956.8177, 583.8782
957.2998, 578.7949
957.7819, 571.3225
958.2640, 565.7430
958.7462, 562.3501
959.2283, 563.3857
959.7104, 574.0151
960.1925, 576.2271
960.6746, 563.1809
961.1567, 552.8802
961.6389, 554.0952
962.1210, 559.3115
962.6031, 559.8261
963.0852, 556.1735
963.5673, 555.0450
964.0494, 559.2402
964.5316, 561.1959
965.0137, 558.3921
965.4958, 556.0759
965.9779, 557.5801
966.4600, 560.0605
966.9421, 559.1124
967.4243, 554.8477
967.9064, 554.2567
968.3885, 562.8751
968.8706, 567.1859
969.3527, 562.9967
969.8348, 557.3741
970.3170, 551.9185
970.7991, 548.1955
971.2812, 549.5355
971.7633, 556.1472
972.2454, 559.6708
972.7275, 554.9436
973.2097, 553.0241
973.6918, 558.4743
974.1739, 564.8743
974.6560, 570.5765
975.1381, 573.5495
975.6202, 569.7346
976.1024, 558.4795
976.5845, 548.7638
977.0666, 541.4112
977.5487, 537.2036
978.0308, 538.1468
978.5129, 540.5983
978.9951, 543.9630
979.4772, 546.1999
979.9593, 542.2415
980.4414, 530.8572
980.9235, 525.4899
981.4056, 537.8204
981.8878, 546.2598
982.3699, 536.4710
982.8520, 525.5201
983.3341, 529.2888
983.8162, 541.7470
984.2983, 548.9161
984.7805, 547.9612
985.2626, 546.6440
985.7447, 548.5622
986.2268, 549.4278
986.7089, 546.3668
987.1910, 542.3128
987.6732, 539.7194
988.1553, 538.2313
988.6374, 536.5172
989.1195, 534.2408
989.6016, 532.4338
990.0837, 531.2508
990.5659, 530.9231
991.0480, 533.3436
991.5301, 535.1738
992.0122, 532.4501
992.4943, 526.7740
992.9764, 521.9462
993.4586, 518.8167
993.9407, 517.6862
994.4228, 520.5936
994.9049, 523.2214
995.3870, 523.5375
995.8691, 522.1897
996.3513, 518.4982
996.8334, 514.0396
997.3155, 512.5893
997.7976, 515.3505
998.2797, 517.1486
998.7618, 516.8318
999.2440, 513.5300
999.7261, 502.9566
1000.208, 492.2094
1000.690, 488.4773
1001.172, 490.5385
1001.655, 494.5420
1002.137, 499.6397
1002.619, 503.9481
1003.101, 507.4421
1003.583, 508.9016
1004.065, 507.2630
1004.547, 503.5970
1005.029, 497.2039
1005.511, 490.1175
1005.994, 486.4673
1006.476, 487.3070
1006.958, 490.5583
1007.440, 498.7093
1007.922, 504.8257
1008.404, 504.3167
1008.886, 500.7483
1009.368, 496.6665
1009.851, 492.6115
1010.333, 488.3155
1010.815, 483.6572
1011.297, 481.6248
1011.779, 485.9317
1012.261, 490.1240
1012.743, 492.6385
1013.225, 492.1310
1013.707, 483.7578
1014.190, 472.6563
1014.672, 470.3617
1015.154, 479.4098
1015.636, 485.9120
1016.118, 481.9931
1016.600, 477.7754
1017.082, 477.6772
1017.564, 479.1882
1018.047, 481.2257
1018.529, 482.8546
1019.011, 482.0244
1019.493, 478.4486
1019.975, 476.9186
1020.457, 483.3897
1020.939, 486.2608
1021.421, 476.4299
1021.903, 466.0969
1022.386, 466.8143
1022.868, 472.1563
1023.350, 468.7538
1023.832, 455.3210
1024.314, 449.0301
1024.796, 461.4559
1025.278, 471.7612
1025.760, 473.2621
1026.243, 471.6498
1026.725, 469.3770
1027.207, 466.9993
1027.689, 465.6831
1028.171, 465.2547
1028.653, 461.8894
1029.135, 449.4119
1029.617, 442.0348
1030.099, 444.3076
1030.582, 450.1931
1031.064, 459.4964
1031.546, 468.6526
1032.028, 473.5237
1032.510, 474.0873
1032.992, 472.5129
1033.474, 466.0467
1033.956, 462.4032
1034.438, 466.2646
1034.921, 468.4009
1035.403, 461.8741
1035.885, 453.9519
1036.367, 454.1513
1036.849, 460.7492
1037.331, 461.7288
1037.813, 449.5397
1038.295, 445.5979
1038.778, 459.8387
1039.260, 469.0344
1039.742, 460.4612
1040.224, 449.6144
1040.706, 452.2260
1041.188, 463.7489
1041.670, 466.7579
1042.152, 456.8059
1042.635, 451.6217
1043.117, 454.2626
1043.599, 455.9774
1044.081, 454.0992
1044.563, 451.3216
1045.045, 449.7040
1045.527, 448.6869
1046.009, 446.7718
1046.491, 443.7458
1046.974, 440.8888
1047.456, 437.0909
1047.938, 437.2692
1048.420, 444.8857
1048.902, 450.3137
1049.384, 446.2899
1049.866, 437.9556
1050.348, 434.7377
1050.830, 436.6464
1051.313, 440.1456
1051.795, 446.3407
1052.277, 447.3316
1052.759, 440.9575
1053.241, 433.5936
1053.723, 427.9359
1054.205, 425.6123
1054.687, 430.1369
1055.169, 439.4698
1055.652, 440.0815
1056.134, 431.8349
1056.616, 428.1401
1057.098, 430.6340
1057.580, 431.2476
1058.062, 426.4650
1058.544, 421.0788
1059.026, 420.3059
1059.509, 422.2744
1059.991, 421.3044
1060.473, 418.1691
1060.955, 418.0027
1061.437, 420.7418
1061.919, 422.7214
1062.401, 422.8211
1062.883, 422.1251
1063.365, 421.4036
1063.848, 420.7118
1064.330, 420.1300
1064.812, 419.6561
1065.294, 419.2650
1065.776, 418.9829
1066.258, 419.5167
1066.740, 420.5452
1067.222, 418.8276
1067.704, 412.0497
1068.187, 406.5992
1068.669, 411.5873
1069.151, 420.6835
1069.633, 425.8083
1070.115, 427.6247
1070.597, 427.7253
1071.079, 426.1910
1071.561, 420.6823
1072.044, 410.3462
1072.526, 404.5501
1073.008, 418.0335
1073.490, 430.4826
1073.972, 419.7328
1074.454, 402.1359
1074.936, 395.9618
1075.418, 398.9483
1075.901, 402.2097
1076.383, 403.6797
1076.865, 406.1947
1077.347, 412.8913
1077.829, 418.1901
1078.311, 417.7870
1078.793, 416.8146
1079.275, 420.6184
1079.757, 425.2326
1080.240, 424.5838
1080.722, 418.7691
1081.204, 412.5919
1081.686, 405.1940
1082.168, 401.5740
1082.650, 405.9412
1083.132, 410.2118
1083.614, 410.2482
1084.096, 409.4745
1084.579, 411.9678
1085.061, 416.2801
1085.543, 417.2676
1086.025, 414.1668
1086.507, 410.4180
1086.989, 404.3313
1087.471, 400.7184
1087.953, 401.2070
1088.436, 403.4226
1088.918, 407.5457
1089.400, 410.4743
1089.882, 405.6604
1090.364, 393.3806
1090.846, 389.0381
1091.328, 394.3156
1091.810, 399.7204
1092.292, 404.6781
1092.775, 406.9864
1093.257, 405.3071
1093.739, 402.2903
1094.221, 400.7580
1094.703, 400.3184
1095.185, 399.7049
1095.667, 398.9454
1096.149, 399.1852
1096.631, 400.1835
1097.114, 396.8004
1097.596, 387.8973
1098.078, 380.2610
1098.560, 378.7229
1099.042, 380.4585
1099.524, 382.3932
1100.006, 383.7444
1100.488, 381.5609
1100.971, 377.4601
1101.453, 376.1099
1101.935, 377.6772
1102.417, 379.7355
1102.899, 381.2131
1103.381, 381.2898
1103.863, 377.7390
1104.345, 374.1499
1104.828, 373.4737
1105.310, 375.4896
1105.792, 383.1700
1106.274, 392.1467
1106.756, 391.7404
1107.238, 381.5688
1107.720, 376.3836
1108.202, 386.1965
1108.684, 394.6120
1109.167, 393.4373
1109.649, 389.2990
1110.131, 384.2845
1110.613, 380.1328
1111.095, 378.7048
1111.577, 379.6318
1112.059, 381.4977
1112.541, 385.1241
1113.023, 386.1138
1113.506, 381.6321
1113.988, 377.8776
1114.470, 376.0663
1114.952, 375.3699
1115.434, 374.8810
1115.916, 375.6820
1116.398, 380.6461
1116.880, 389.4693
1117.363, 390.9338
1117.845, 382.4809
1118.327, 377.0734
1118.809, 376.9433
1119.291, 373.7241
1119.773, 362.6971
1120.255, 355.1250
1120.737, 362.9114
1121.219, 379.0997
1121.702, 386.5857
1122.184, 385.9295
1122.666, 379.3319
1123.148, 368.0150
1123.630, 360.7160
1124.112, 359.2101
1124.594, 362.0293
1125.076, 368.5410
1125.558, 374.0025
1126.041, 370.8087
1126.523, 365.0245
1127.005, 368.3759
1127.487, 375.4930
1127.969, 376.6759
1128.451, 372.6502
1128.933, 366.7031
1129.415, 360.6268
1129.898, 359.6978
1130.380, 369.7411
1130.862, 378.8105
1131.344, 379.2420
1131.826, 375.8015
1132.308, 371.3557
1132.790, 365.7155
1133.272, 354.2255
1133.755, 341.2605
1134.237, 342.8152
1134.719, 366.7216
1135.201, 380.8011
1135.683, 373.4564
1136.165, 365.3811
1136.647, 359.8651
1137.129, 356.2932
1137.611, 354.2734
1138.094, 354.2080
1138.576, 357.8884
1139.058, 364.4041
1139.540, 363.5488
1140.022, 352.1876
1140.504, 349.0348
1140.986, 356.7285
1141.468, 363.3027
1141.950, 365.2094
1142.433, 364.3140
1142.915, 361.6075
1143.397, 358.8427
1143.879, 360.6506
1144.361, 365.0366
1144.843, 361.1344
1145.325, 351.7905
1145.807, 349.9609
1146.290, 355.9111
1146.772, 361.4622
1147.254, 363.3503
1147.736, 362.5242
1148.218, 358.7044
1148.700, 354.6232
1149.182, 353.0755
1149.664, 352.9605
1150.146, 353.5986
1150.629, 354.4120
1151.111, 354.5873
1151.593, 354.1740
1152.075, 353.6418
1152.557, 352.8102
1153.039, 353.5230
1153.521, 358.9458
1154.003, 362.5580
1154.485, 361.4077
1154.968, 358.2503
1155.450, 352.3686
1155.932, 347.3336
1156.414, 349.8284
1156.896, 359.1614
1157.378, 363.7059
1157.860, 362.4682
1158.342, 358.7219
1158.825, 350.5726
1159.307, 347.3971
1159.789, 352.9437
1160.271, 360.3803
1160.753, 365.0600
1161.235, 366.6496
1161.717, 363.2561
1162.199, 356.4710
1162.682, 354.9056
1163.164, 357.2819
1163.646, 356.3018
1164.128, 352.3291
1164.610, 353.6272
1165.092, 362.3315
1165.574, 368.9595
1166.056, 365.8967
1166.538, 359.2498
1167.021, 352.8093
1167.503, 348.4270
1167.985, 349.6176
1168.467, 353.2097
1168.949, 354.4669
1169.431, 353.7408
1169.913, 354.6137
1170.395, 358.3396
1170.877, 359.3498
1171.360, 351.8831
1171.842, 347.6945
1172.324, 353.1067
1172.806, 358.5342
1173.288, 358.4381
1173.770, 356.4415
1174.252, 356.9301
1174.734, 358.7534
1175.217, 356.3446
1175.699, 348.0439
1176.181, 346.0382
1176.663, 351.6424
1177.145, 352.4126
1177.627, 345.3674
1178.109, 340.7971
1178.591, 344.5059
1179.073, 349.3696
1179.556, 345.7555
1180.038, 339.4097
1180.520, 345.4991
1181.002, 357.3467
1181.484, 358.8083
1181.966, 352.4024
1182.448, 347.5305
1182.930, 345.8184
1183.412, 343.4574
1183.895, 338.4904
1184.377, 334.7154
1184.859, 336.0647
1185.341, 337.2800
1185.823, 333.6747
1186.305, 330.2636
1186.787, 331.1578
1187.269, 335.1529
1187.752, 340.5693
1188.234, 347.0722
1188.716, 352.5927
1189.198, 359.3816
1189.680, 359.1232
1190.162, 347.4176
1190.644, 340.8176
1191.126, 344.8267
1191.609, 349.6906
1192.091, 349.3326
1192.573, 345.9612
1193.055, 342.0862
1193.537, 338.7083
1194.019, 341.0713
1194.501, 347.2604
1194.983, 348.6274
1195.465, 345.6770
1195.948, 343.0496
1196.430, 342.1800
1196.912, 343.7752
1197.394, 348.7159
1197.876, 352.1750
1198.358, 348.8093
1198.840, 343.9443
1199.322, 339.0623
1199.804, 337.2538
1200.287, 346.3813
1200.769, 358.2338
1201.251, 355.6043
1201.733, 338.7230
1202.215, 331.3951
1202.697, 343.2342
1203.179, 350.6013
1203.661, 352.8373
1204.144, 351.1425
1204.626, 343.4880
1205.108, 338.2113
1205.590, 341.5726
1206.072, 346.9665
1206.554, 344.1824
1207.036, 335.9110
1207.518, 332.2119
1208.000, 332.6001
1208.483, 334.9374
1208.965, 338.7357
1209.447, 343.0927
1209.929, 347.5695
1210.411, 351.3806
1210.893, 354.2426
1211.375, 354.8764
1211.857, 352.1963
1212.339, 346.9577
1212.822, 334.8474
1213.304, 325.1629
1213.786, 330.0378
1214.268, 341.0029
1214.750, 344.9441
1215.232, 341.4847
1215.714, 336.6601
1216.196, 328.6700
1216.679, 326.4655
1217.161, 333.4965
1217.643, 337.8817
1218.125, 336.6852
1218.607, 335.2090
1219.089, 336.0848
1219.571, 338.2350
1220.053, 340.7091
1220.536, 342.9211
1221.018, 343.8149
1221.500, 343.0992
1221.982, 337.7552
1222.464, 330.3200
1222.946, 329.4960
1223.428, 334.9753
1223.910, 339.8720
1224.392, 341.5506
1224.875, 340.4540
1225.357, 334.6350
1225.839, 329.4684
1226.321, 326.0873
1226.803, 326.3424
1227.285, 336.0548
1227.767, 346.2849
1228.249, 346.2499
1228.731, 339.1204
1229.214, 333.5901
1229.696, 329.4412
1230.178, 331.6261
1230.660, 342.6566
1231.142, 346.9423
1231.624, 342.3658
1232.106, 336.5916
1232.588, 332.1103
1233.071, 330.3587
1233.553, 332.7075
1234.035, 336.1864
1234.517, 335.2517
1234.999, 333.7177
1235.481, 340.8724
1235.963, 350.0306
1236.445, 349.5558
1236.927, 342.2566
1237.410, 336.2106
##END=



