##NAMES=Chabazite-K
##RRUFFID=R120032
##IDEAL CHEMISTRY=(K_2_NaCa_0.5_)Al_4_Si_8_O_24_&#183;11H_2_O
##LOCALITY=Kirovskii mine, Rasvumchorr Mt, Khibiny Massif, Kola Peninsula, Murmanskaja Oblast, Northern Region, Russia
##OWNER=RRUFF
##SOURCE=Donald Doell
##DESCRIPTION=Druse of colorless rhombohedral crystals
##STATUS=The identification of this mineral has been confirmed only by single crystal X-ray diffraction.
##URL=rruff.info/R120032
9.001007e+001, 0.000000e+000
9.049219e+001, 7.872204e+001
9.097430e+001, 7.911052e+001
9.145642e+001, 7.877096e+001
9.193854e+001, 7.782523e+001
9.242065e+001, 7.728783e+001
9.290277e+001, 7.878065e+001
9.338489e+001, 8.134913e+001
9.386700e+001, 8.271973e+001
9.434912e+001, 8.142832e+001
9.483124e+001, 7.863175e+001
9.531335e+001, 7.658890e+001
9.579547e+001, 7.530921e+001
9.627759e+001, 7.469158e+001
9.675970e+001, 7.490158e+001
9.724182e+001, 7.587345e+001
9.772394e+001, 7.670016e+001
9.820605e+001, 7.710424e+001
9.868817e+001, 7.707545e+001
9.917029e+001, 7.628786e+001
9.965240e+001, 7.439783e+001
1.001345e+002, 7.229631e+001
1.006166e+002, 7.196837e+001
1.010988e+002, 7.380042e+001
1.015809e+002, 7.570586e+001
1.020630e+002, 7.649355e+001
1.025451e+002, 7.592305e+001
1.030272e+002, 7.547935e+001
1.035093e+002, 7.532779e+001
1.039915e+002, 7.536448e+001
1.044736e+002, 7.511258e+001
1.049557e+002, 7.441589e+001
1.054378e+002, 7.365850e+001
1.059199e+002, 7.304900e+001
1.064020e+002, 7.236720e+001
1.068842e+002, 7.226376e+001
1.073663e+002, 7.317300e+001
1.078484e+002, 7.511277e+001
1.083305e+002, 7.608427e+001
1.088126e+002, 7.528060e+001
1.092947e+002, 7.395725e+001
1.097769e+002, 7.326578e+001
1.102590e+002, 7.377071e+001
1.107411e+002, 7.433794e+001
1.112232e+002, 7.482040e+001
1.117053e+002, 7.523506e+001
1.121874e+002, 7.547816e+001
1.126696e+002, 7.560699e+001
1.131517e+002, 7.554196e+001
1.136338e+002, 7.517988e+001
1.141159e+002, 7.404263e+001
1.145980e+002, 7.298820e+001
1.150801e+002, 7.224541e+001
1.155623e+002, 7.172838e+001
1.160444e+002, 7.182784e+001
1.165265e+002, 7.313657e+001
1.170086e+002, 7.515556e+001
1.174907e+002, 7.679882e+001
1.179728e+002, 7.782951e+001
1.184550e+002, 7.829134e+001
1.189371e+002, 7.808565e+001
1.194192e+002, 7.653071e+001
1.199013e+002, 7.532952e+001
1.203834e+002, 7.566190e+001
1.208655e+002, 7.720222e+001
1.213477e+002, 7.868227e+001
1.218298e+002, 7.952673e+001
1.223119e+002, 7.989177e+001
1.227940e+002, 7.993192e+001
1.232761e+002, 7.967269e+001
1.237582e+002, 7.912465e+001
1.242404e+002, 7.781231e+001
1.247225e+002, 7.585168e+001
1.252046e+002, 7.467310e+001
1.256867e+002, 7.647836e+001
1.261688e+002, 7.978568e+001
1.266509e+002, 8.188943e+001
1.271331e+002, 8.051205e+001
1.276152e+002, 7.774828e+001
1.280973e+002, 7.684222e+001
1.285794e+002, 7.789994e+001
1.290615e+002, 7.953122e+001
1.295436e+002, 8.046954e+001
1.300258e+002, 8.079324e+001
1.305079e+002, 8.083367e+001
1.309900e+002, 8.038241e+001
1.314721e+002, 7.973554e+001
1.319542e+002, 7.992445e+001
1.324363e+002, 8.113099e+001
1.329185e+002, 8.270811e+001
1.334006e+002, 8.390366e+001
1.338827e+002, 8.471909e+001
1.343648e+002, 8.489635e+001
1.348469e+002, 8.380375e+001
1.353290e+002, 8.158721e+001
1.358112e+002, 8.049033e+001
1.362933e+002, 8.094061e+001
1.367754e+002, 8.227673e+001
1.372575e+002, 8.286774e+001
1.377396e+002, 8.250582e+001
1.382217e+002, 8.236106e+001
1.387039e+002, 8.332693e+001
1.391860e+002, 8.559668e+001
1.396681e+002, 8.771519e+001
1.401502e+002, 8.973096e+001
1.406323e+002, 9.145277e+001
1.411144e+002, 9.200068e+001
1.415966e+002, 9.102554e+001
1.420787e+002, 8.953449e+001
1.425608e+002, 8.807909e+001
1.430429e+002, 8.628792e+001
1.435250e+002, 8.565732e+001
1.440071e+002, 8.690998e+001
1.444893e+002, 8.991860e+001
1.449714e+002, 9.160967e+001
1.454535e+002, 9.129324e+001
1.459356e+002, 9.031458e+001
1.464177e+002, 8.987645e+001
1.468998e+002, 8.989632e+001
1.473820e+002, 9.058395e+001
1.478641e+002, 9.221512e+001
1.483462e+002, 9.498716e+001
1.488283e+002, 9.725341e+001
1.493104e+002, 9.872430e+001
1.497925e+002, 9.983570e+001
1.502747e+002, 1.011202e+002
1.507568e+002, 1.025146e+002
1.512389e+002, 1.041128e+002
1.517210e+002, 1.056440e+002
1.522031e+002, 1.064475e+002
1.526852e+002, 1.092255e+002
1.531674e+002, 1.149242e+002
1.536495e+002, 1.224398e+002
1.541316e+002, 1.301952e+002
1.546137e+002, 1.367151e+002
1.550958e+002, 1.446252e+002
1.555779e+002, 1.547012e+002
1.560601e+002, 1.670271e+002
1.565422e+002, 1.813826e+002
1.570243e+002, 1.971312e+002
1.575064e+002, 2.148577e+002
1.579885e+002, 2.356944e+002
1.584706e+002, 2.589838e+002
1.589528e+002, 2.860981e+002
1.594349e+002, 3.179758e+002
1.599170e+002, 3.564892e+002
1.603991e+002, 3.966944e+002
1.608812e+002, 4.351031e+002
1.613633e+002, 4.738946e+002
1.618455e+002, 5.187882e+002
1.623276e+002, 5.730436e+002
1.628097e+002, 6.329464e+002
1.632918e+002, 6.972706e+002
1.637739e+002, 7.647301e+002
1.642560e+002, 8.371642e+002
1.647382e+002, 9.155071e+002
1.652203e+002, 9.995352e+002
1.657024e+002, 1.088390e+003
1.661845e+002, 1.189381e+003
1.666666e+002, 1.291981e+003
1.671487e+002, 1.385381e+003
1.676309e+002, 1.462142e+003
1.681130e+002, 1.535100e+003
1.685951e+002, 1.610627e+003
1.690772e+002, 1.688621e+003
1.695593e+002, 1.766536e+003
1.700414e+002, 1.844837e+003
1.705236e+002, 1.921952e+003
1.710057e+002, 1.994944e+003
1.714878e+002, 2.062535e+003
1.719699e+002, 2.126991e+003
1.724520e+002, 2.188662e+003
1.729341e+002, 2.247938e+003
1.734163e+002, 2.306313e+003
1.738984e+002, 2.362953e+003
1.743805e+002, 2.420130e+003
1.748626e+002, 2.479772e+003
1.753447e+002, 2.543509e+003
1.758268e+002, 2.610693e+003
1.763090e+002, 2.680773e+003
1.767911e+002, 2.753147e+003
1.772732e+002, 2.828809e+003
1.777553e+002, 2.897564e+003
1.782374e+002, 2.956577e+003
1.787195e+002, 3.013027e+003
1.792017e+002, 3.067075e+003
1.796838e+002, 3.122367e+003
1.801659e+002, 3.184001e+003
1.806480e+002, 3.252815e+003
1.811301e+002, 3.324137e+003
1.816122e+002, 3.395829e+003
1.820944e+002, 3.467815e+003
1.825765e+002, 3.537913e+003
1.830586e+002, 3.606754e+003
1.835407e+002, 3.673095e+003
1.840228e+002, 3.737133e+003
1.845049e+002, 3.798171e+003
1.849871e+002, 3.858204e+003
1.854692e+002, 3.918979e+003
1.859513e+002, 3.980555e+003
1.864334e+002, 4.039893e+003
1.869155e+002, 4.096988e+003
1.873976e+002, 4.151233e+003
1.878798e+002, 4.201263e+003
1.883619e+002, 4.246659e+003
1.888440e+002, 4.288804e+003
1.893261e+002, 4.327740e+003
1.898082e+002, 4.363980e+003
1.902903e+002, 4.399831e+003
1.907725e+002, 4.437232e+003
1.912546e+002, 4.476000e+003
1.917367e+002, 4.511729e+003
1.922188e+002, 4.544121e+003
1.927009e+002, 4.574293e+003
1.931830e+002, 4.603504e+003
1.936652e+002, 4.631665e+003
1.941473e+002, 4.658214e+003
1.946294e+002, 4.681303e+003
1.951115e+002, 4.701345e+003
1.955936e+002, 4.724233e+003
1.960757e+002, 4.750879e+003
1.965579e+002, 4.779425e+003
1.970400e+002, 4.806671e+003
1.975221e+002, 4.832619e+003
1.980042e+002, 4.857325e+003
1.984863e+002, 4.881220e+003
1.989684e+002, 4.904235e+003
1.994506e+002, 4.925625e+003
1.999327e+002, 4.944750e+003
2.004148e+002, 4.962750e+003
2.008969e+002, 4.981638e+003
2.013790e+002, 5.001603e+003
2.018611e+002, 5.022560e+003
2.023433e+002, 5.045344e+003
2.028254e+002, 5.070342e+003
2.033075e+002, 5.092611e+003
2.037896e+002, 5.110591e+003
2.042717e+002, 5.126410e+003
2.047538e+002, 5.145519e+003
2.052360e+002, 5.168516e+003
2.057181e+002, 5.192218e+003
2.062002e+002, 5.214605e+003
2.066823e+002, 5.235334e+003
2.071644e+002, 5.256746e+003
2.076465e+002, 5.280028e+003
2.081287e+002, 5.303399e+003
2.086108e+002, 5.321821e+003
2.090929e+002, 5.334115e+003
2.095750e+002, 5.344668e+003
2.100571e+002, 5.356255e+003
2.105392e+002, 5.369573e+003
2.110214e+002, 5.380805e+003
2.115035e+002, 5.388982e+003
2.119856e+002, 5.395146e+003
2.124677e+002, 5.403242e+003
2.129498e+002, 5.414097e+003
2.134319e+002, 5.425417e+003
2.139140e+002, 5.436536e+003
2.143962e+002, 5.448436e+003
2.148783e+002, 5.456815e+003
2.153604e+002, 5.459920e+003
2.158425e+002, 5.459481e+003
2.163246e+002, 5.462614e+003
2.168067e+002, 5.471053e+003
2.172889e+002, 5.479676e+003
2.177710e+002, 5.484471e+003
2.182531e+002, 5.482457e+003
2.187352e+002, 5.485521e+003
2.192173e+002, 5.496208e+003
2.196994e+002, 5.512711e+003
2.201816e+002, 5.525965e+003
2.206637e+002, 5.534601e+003
2.211458e+002, 5.542448e+003
2.216279e+002, 5.552217e+003
2.221100e+002, 5.565829e+003
2.225921e+002, 5.576181e+003
2.230743e+002, 5.581675e+003
2.235564e+002, 5.583477e+003
2.240385e+002, 5.587403e+003
2.245206e+002, 5.594548e+003
2.250027e+002, 5.602166e+003
2.254848e+002, 5.608465e+003
2.259670e+002, 5.612520e+003
2.264491e+002, 5.617742e+003
2.269312e+002, 5.624703e+003
2.274133e+002, 5.633150e+003
2.278954e+002, 5.642232e+003
2.283775e+002, 5.652478e+003
2.288597e+002, 5.662424e+003
2.293418e+002, 5.671073e+003
2.298239e+002, 5.678196e+003
2.303060e+002, 5.684280e+003
2.307881e+002, 5.688446e+003
2.312702e+002, 5.691358e+003
2.317524e+002, 5.696428e+003
2.322345e+002, 5.704698e+003
2.327166e+002, 5.713242e+003
2.331987e+002, 5.720106e+003
2.336808e+002, 5.724144e+003
2.341629e+002, 5.728739e+003
2.346451e+002, 5.734617e+003
2.351272e+002, 5.741162e+003
2.356093e+002, 5.746009e+003
2.360914e+002, 5.749052e+003
2.365735e+002, 5.750563e+003
2.370556e+002, 5.750423e+003
2.375378e+002, 5.747321e+003
2.380199e+002, 5.745725e+003
2.385020e+002, 5.746567e+003
2.389841e+002, 5.749269e+003
2.394662e+002, 5.751084e+003
2.399483e+002, 5.751225e+003
2.404305e+002, 5.751912e+003
2.409126e+002, 5.754673e+003
2.413947e+002, 5.761408e+003
2.418768e+002, 5.766312e+003
2.423589e+002, 5.768657e+003
2.428410e+002, 5.769098e+003
2.433232e+002, 5.769609e+003
2.438053e+002, 5.769008e+003
2.442874e+002, 5.770043e+003
2.447695e+002, 5.774272e+003
2.452516e+002, 5.783176e+003
2.457337e+002, 5.791667e+003
2.462159e+002, 5.799516e+003
2.466980e+002, 5.806696e+003
2.471801e+002, 5.813282e+003
2.476622e+002, 5.819667e+003
2.481443e+002, 5.824732e+003
2.486264e+002, 5.827506e+003
2.491086e+002, 5.826218e+003
2.495907e+002, 5.826867e+003
2.500728e+002, 5.829954e+003
2.505549e+002, 5.834969e+003
2.510370e+002, 5.840758e+003
2.515191e+002, 5.848313e+003
2.520013e+002, 5.855308e+003
2.524834e+002, 5.860810e+003
2.529655e+002, 5.864449e+003
2.534476e+002, 5.867750e+003
2.539297e+002, 5.870909e+003
2.544118e+002, 5.873740e+003
2.548940e+002, 5.875678e+003
2.553761e+002, 5.876057e+003
2.558582e+002, 5.876679e+003
2.563403e+002, 5.878182e+003
2.568224e+002, 5.880514e+003
2.573046e+002, 5.883493e+003
2.577867e+002, 5.886883e+003
2.582688e+002, 5.890840e+003
2.587509e+002, 5.896064e+003
2.592330e+002, 5.903534e+003
2.597151e+002, 5.909922e+003
2.601973e+002, 5.913557e+003
2.606794e+002, 5.913459e+003
2.611615e+002, 5.914751e+003
2.616436e+002, 5.918205e+003
2.621257e+002, 5.922437e+003
2.626078e+002, 5.924744e+003
2.630900e+002, 5.923941e+003
2.635721e+002, 5.924414e+003
2.640542e+002, 5.928419e+003
2.645363e+002, 5.937045e+003
2.650184e+002, 5.942805e+003
2.655005e+002, 5.944722e+003
2.659827e+002, 5.945305e+003
2.664648e+002, 5.948279e+003
2.669469e+002, 5.954368e+003
2.674290e+002, 5.960831e+003
2.679111e+002, 5.967107e+003
2.683932e+002, 5.973175e+003
2.688754e+002, 5.977887e+003
2.693575e+002, 5.980500e+003
2.698396e+002, 5.982627e+003
2.703217e+002, 5.986549e+003
2.708038e+002, 5.992780e+003
2.712859e+002, 5.998142e+003
2.717681e+002, 6.001197e+003
2.722502e+002, 6.001982e+003
2.727323e+002, 6.004391e+003
2.732144e+002, 6.008962e+003
2.736965e+002, 6.013883e+003
2.741786e+002, 6.016739e+003
2.746608e+002, 6.016922e+003
2.751429e+002, 6.018745e+003
2.756250e+002, 6.024243e+003
2.761071e+002, 6.032577e+003
2.765892e+002, 6.036882e+003
2.770714e+002, 6.036156e+003
2.775535e+002, 6.034112e+003
2.780356e+002, 6.033599e+003
2.785177e+002, 6.034505e+003
2.789998e+002, 6.038130e+003
2.794819e+002, 6.046138e+003
2.799641e+002, 6.056758e+003
2.804462e+002, 6.061711e+003
2.809283e+002, 6.060286e+003
2.814104e+002, 6.056172e+003
2.818925e+002, 6.051542e+003
2.823746e+002, 6.046399e+003
2.828568e+002, 6.042744e+003
2.833389e+002, 6.041242e+003
2.838210e+002, 6.041401e+003
2.843031e+002, 6.042242e+003
2.847852e+002, 6.044083e+003
2.852673e+002, 6.045274e+003
2.857495e+002, 6.043939e+003
2.862316e+002, 6.040469e+003
2.867137e+002, 6.038905e+003
2.871958e+002, 6.040102e+003
2.876779e+002, 6.043099e+003
2.881600e+002, 6.045672e+003
2.886422e+002, 6.047776e+003
2.891243e+002, 6.050992e+003
2.896064e+002, 6.056471e+003
2.900885e+002, 6.063850e+003
2.905706e+002, 6.071891e+003
2.910527e+002, 6.080977e+003
2.915349e+002, 6.089027e+003
2.920170e+002, 6.091683e+003
2.924991e+002, 6.089279e+003
2.929812e+002, 6.086850e+003
2.934633e+002, 6.086854e+003
2.939454e+002, 6.088917e+003
2.944276e+002, 6.092422e+003
2.949097e+002, 6.097617e+003
2.953918e+002, 6.102931e+003
2.958739e+002, 6.106026e+003
2.963560e+002, 6.107346e+003
2.968381e+002, 6.109002e+003
2.973203e+002, 6.112137e+003
2.978024e+002, 6.116286e+003
2.982845e+002, 6.120894e+003
2.987666e+002, 6.126093e+003
2.992487e+002, 6.130676e+003
2.997308e+002, 6.132544e+003
3.002130e+002, 6.132726e+003
3.006951e+002, 6.134143e+003
3.011772e+002, 6.138979e+003
3.016593e+002, 6.145181e+003
3.021414e+002, 6.149452e+003
3.026235e+002, 6.151787e+003
3.031057e+002, 6.154603e+003
3.035878e+002, 6.162281e+003
3.040699e+002, 6.171619e+003
3.045520e+002, 6.176269e+003
3.050341e+002, 6.170642e+003
3.055162e+002, 6.162769e+003
3.059984e+002, 6.160747e+003
3.064805e+002, 6.164146e+003
3.069626e+002, 6.169852e+003
3.074447e+002, 6.178830e+003
3.079268e+002, 6.187898e+003
3.084089e+002, 6.192333e+003
3.088911e+002, 6.188496e+003
3.093732e+002, 6.183514e+003
3.098553e+002, 6.182389e+003
3.103374e+002, 6.184711e+003
3.108195e+002, 6.189115e+003
3.113016e+002, 6.198403e+003
3.117838e+002, 6.207510e+003
3.122659e+002, 6.211371e+003
3.127480e+002, 6.207064e+003
3.132301e+002, 6.201915e+003
3.137122e+002, 6.198665e+003
3.141943e+002, 6.197666e+003
3.146765e+002, 6.199779e+003
3.151586e+002, 6.208453e+003
3.156407e+002, 6.218196e+003
3.161228e+002, 6.225560e+003
3.166049e+002, 6.229649e+003
3.170870e+002, 6.233266e+003
3.175692e+002, 6.239273e+003
3.180513e+002, 6.245211e+003
3.185334e+002, 6.247569e+003
3.190155e+002, 6.241204e+003
3.194976e+002, 6.234506e+003
3.199797e+002, 6.230955e+003
3.204619e+002, 6.230914e+003
3.209440e+002, 6.232429e+003
3.214261e+002, 6.235078e+003
3.219082e+002, 6.238854e+003
3.223903e+002, 6.243734e+003
3.228724e+002, 6.252695e+003
3.233546e+002, 6.259613e+003
3.238367e+002, 6.262303e+003
3.243188e+002, 6.260845e+003
3.248009e+002, 6.258936e+003
3.252830e+002, 6.255774e+003
3.257651e+002, 6.253301e+003
3.262473e+002, 6.252827e+003
3.267294e+002, 6.257643e+003
3.272115e+002, 6.261070e+003
3.276936e+002, 6.261911e+003
3.281757e+002, 6.260822e+003
3.286578e+002, 6.260700e+003
3.291400e+002, 6.262850e+003
3.296221e+002, 6.265159e+003
3.301042e+002, 6.266757e+003
3.305863e+002, 6.267053e+003
3.310684e+002, 6.267626e+003
3.315505e+002, 6.267355e+003
3.320327e+002, 6.267442e+003
3.325148e+002, 6.270805e+003
3.329969e+002, 6.279618e+003
3.334790e+002, 6.288372e+003
3.339611e+002, 6.295049e+003
3.344432e+002, 6.298814e+003
3.349254e+002, 6.302934e+003
3.354075e+002, 6.307288e+003
3.358896e+002, 6.311704e+003
3.363717e+002, 6.316192e+003
3.368538e+002, 6.321184e+003
3.373359e+002, 6.324803e+003
3.378180e+002, 6.326041e+003
3.383001e+002, 6.324980e+003
3.387823e+002, 6.325761e+003
3.392644e+002, 6.329687e+003
3.397465e+002, 6.333194e+003
3.402286e+002, 6.332248e+003
3.407107e+002, 6.326119e+003
3.411928e+002, 6.320731e+003
3.416750e+002, 6.317380e+003
3.421571e+002, 6.315779e+003
3.426392e+002, 6.315299e+003
3.431213e+002, 6.316343e+003
3.436034e+002, 6.316740e+003
3.440855e+002, 6.313888e+003
3.445677e+002, 6.308052e+003
3.450498e+002, 6.304810e+003
3.455319e+002, 6.304936e+003
3.460140e+002, 6.307836e+003
3.464961e+002, 6.314305e+003
3.469782e+002, 6.324079e+003
3.474604e+002, 6.330905e+003
3.479425e+002, 6.328518e+003
3.484246e+002, 6.319847e+003
3.489067e+002, 6.315998e+003
3.493888e+002, 6.318055e+003
3.498709e+002, 6.322417e+003
3.503531e+002, 6.324836e+003
3.508352e+002, 6.325851e+003
3.513173e+002, 6.327475e+003
3.517994e+002, 6.329882e+003
3.522815e+002, 6.333614e+003
3.527636e+002, 6.340721e+003
3.532458e+002, 6.351135e+003
3.537279e+002, 6.360564e+003
3.542100e+002, 6.364905e+003
3.546921e+002, 6.365771e+003
3.551742e+002, 6.365951e+003
3.556563e+002, 6.366104e+003
3.561385e+002, 6.366045e+003
3.566206e+002, 6.365101e+003
3.571027e+002, 6.363546e+003
3.575848e+002, 6.362867e+003
3.580669e+002, 6.363943e+003
3.585490e+002, 6.366325e+003
3.590312e+002, 6.370084e+003
3.595133e+002, 6.376628e+003
3.599954e+002, 6.381612e+003
3.604775e+002, 6.382327e+003
3.609596e+002, 6.379766e+003
3.614417e+002, 6.375997e+003
3.619239e+002, 6.368478e+003
3.624060e+002, 6.362679e+003
3.628881e+002, 6.362944e+003
3.633702e+002, 6.371280e+003
3.638523e+002, 6.377374e+003
3.643344e+002, 6.375453e+003
3.648166e+002, 6.370385e+003
3.652987e+002, 6.367702e+003
3.657808e+002, 6.370673e+003
3.662629e+002, 6.374267e+003
3.667450e+002, 6.377255e+003
3.672271e+002, 6.379592e+003
3.677093e+002, 6.382001e+003
3.681914e+002, 6.384495e+003
3.686735e+002, 6.387032e+003
3.691556e+002, 6.389591e+003
3.696377e+002, 6.392782e+003
3.701198e+002, 6.394982e+003
3.706020e+002, 6.395275e+003
3.710841e+002, 6.394319e+003
3.715662e+002, 6.394775e+003
3.720483e+002, 6.398448e+003
3.725304e+002, 6.401187e+003
3.730125e+002, 6.400882e+003
3.734947e+002, 6.395757e+003
3.739768e+002, 6.392491e+003
3.744589e+002, 6.391057e+003
3.749410e+002, 6.391455e+003
3.754231e+002, 6.394675e+003
3.759052e+002, 6.403106e+003
3.763874e+002, 6.407868e+003
3.768695e+002, 6.404780e+003
3.773516e+002, 6.394206e+003
3.778337e+002, 6.389555e+003
3.783158e+002, 6.392086e+003
3.787979e+002, 6.397251e+003
3.792801e+002, 6.400935e+003
3.797622e+002, 6.403192e+003
3.802443e+002, 6.404614e+003
3.807264e+002, 6.404790e+003
3.812085e+002, 6.404676e+003
3.816906e+002, 6.407424e+003
3.821728e+002, 6.413021e+003
3.826549e+002, 6.418249e+003
3.831370e+002, 6.419705e+003
3.836191e+002, 6.418551e+003
3.841012e+002, 6.419819e+003
3.845833e+002, 6.424262e+003
3.850655e+002, 6.429838e+003
3.855476e+002, 6.434298e+003
3.860297e+002, 6.437659e+003
3.865118e+002, 6.439958e+003
3.869939e+002, 6.440543e+003
3.874760e+002, 6.440400e+003
3.879582e+002, 6.441102e+003
3.884403e+002, 6.442747e+003
3.889224e+002, 6.444458e+003
3.894045e+002, 6.445708e+003
3.898866e+002, 6.446649e+003
3.903687e+002, 6.447405e+003
3.908509e+002, 6.447158e+003
3.913330e+002, 6.447870e+003
3.918151e+002, 6.452343e+003
3.922972e+002, 6.459502e+003
3.927793e+002, 6.464871e+003
3.932614e+002, 6.466277e+003
3.937436e+002, 6.465035e+003
3.942257e+002, 6.461081e+003
3.947078e+002, 6.451669e+003
3.951899e+002, 6.446256e+003
3.956720e+002, 6.451112e+003
3.961541e+002, 6.461477e+003
3.966363e+002, 6.469726e+003
3.971184e+002, 6.473245e+003
3.976005e+002, 6.474984e+003
3.980826e+002, 6.475166e+003
3.985647e+002, 6.473454e+003
3.990468e+002, 6.473263e+003
3.995290e+002, 6.478412e+003
4.000111e+002, 6.483240e+003
4.004932e+002, 6.483009e+003
4.009753e+002, 6.468561e+003
4.014574e+002, 6.461561e+003
4.019395e+002, 6.466975e+003
4.024217e+002, 6.481998e+003
4.029038e+002, 6.493442e+003
4.033859e+002, 6.500815e+003
4.038680e+002, 6.505400e+003
4.043501e+002, 6.507362e+003
4.048322e+002, 6.505740e+003
4.053144e+002, 6.504725e+003
4.057965e+002, 6.504146e+003
4.062786e+002, 6.504373e+003
4.067607e+002, 6.506308e+003
4.072428e+002, 6.510263e+003
4.077249e+002, 6.514157e+003
4.082071e+002, 6.517288e+003
4.086892e+002, 6.519730e+003
4.091713e+002, 6.521528e+003
4.096534e+002, 6.522401e+003
4.101355e+002, 6.524128e+003
4.106176e+002, 6.529813e+003
4.110998e+002, 6.538402e+003
4.115819e+002, 6.543162e+003
4.120640e+002, 6.541417e+003
4.125461e+002, 6.537517e+003
4.130282e+002, 6.538927e+003
4.135103e+002, 6.544889e+003
4.139925e+002, 6.550979e+003
4.144746e+002, 6.555318e+003
4.149567e+002, 6.557945e+003
4.154388e+002, 6.558546e+003
4.159209e+002, 6.556957e+003
4.164030e+002, 6.554747e+003
4.168852e+002, 6.553020e+003
4.173673e+002, 6.551618e+003
4.178494e+002, 6.550266e+003
4.183315e+002, 6.550008e+003
4.188136e+002, 6.548935e+003
4.192957e+002, 6.544062e+003
4.197779e+002, 6.536445e+003
4.202600e+002, 6.532315e+003
4.207421e+002, 6.537572e+003
4.212242e+002, 6.545734e+003
4.217063e+002, 6.552119e+003
4.221884e+002, 6.555774e+003
4.226706e+002, 6.558217e+003
4.231527e+002, 6.558170e+003
4.236348e+002, 6.557393e+003
4.241169e+002, 6.559140e+003
4.245990e+002, 6.568005e+003
4.250811e+002, 6.575438e+003
4.255633e+002, 6.577303e+003
4.260454e+002, 6.571981e+003
4.265275e+002, 6.571857e+003
4.270096e+002, 6.579054e+003
4.274917e+002, 6.589565e+003
4.279738e+002, 6.600757e+003
4.284560e+002, 6.615186e+003
4.289381e+002, 6.624298e+003
4.294202e+002, 6.625038e+003
4.299023e+002, 6.620077e+003
4.303844e+002, 6.619356e+003
4.308665e+002, 6.624777e+003
4.313487e+002, 6.629016e+003
4.318308e+002, 6.627007e+003
4.323129e+002, 6.618273e+003
4.327950e+002, 6.614611e+003
4.332771e+002, 6.617246e+003
4.337592e+002, 6.622228e+003
4.342414e+002, 6.623875e+003
4.347235e+002, 6.622648e+003
4.352056e+002, 6.623750e+003
4.356877e+002, 6.629882e+003
4.361698e+002, 6.638724e+003
4.366519e+002, 6.645772e+003
4.371341e+002, 6.651086e+003
4.376162e+002, 6.655237e+003
4.380983e+002, 6.658703e+003
4.385804e+002, 6.661382e+003
4.390625e+002, 6.662597e+003
4.395446e+002, 6.661601e+003
4.400268e+002, 6.661358e+003
4.405089e+002, 6.664095e+003
4.409910e+002, 6.669551e+003
4.414731e+002, 6.677115e+003
4.419552e+002, 6.689715e+003
4.424373e+002, 6.701783e+003
4.429195e+002, 6.709304e+003
4.434016e+002, 6.712197e+003
4.438837e+002, 6.714584e+003
4.443658e+002, 6.717224e+003
4.448479e+002, 6.720415e+003
4.453300e+002, 6.724345e+003
4.458122e+002, 6.729120e+003
4.462943e+002, 6.734406e+003
4.467764e+002, 6.740661e+003
4.472585e+002, 6.747368e+003
4.477406e+002, 6.753249e+003
4.482227e+002, 6.757891e+003
4.487049e+002, 6.762030e+003
4.491870e+002, 6.765697e+003
4.496691e+002, 6.768661e+003
4.501512e+002, 6.772962e+003
4.506333e+002, 6.780203e+003
4.511154e+002, 6.787167e+003
4.515976e+002, 6.790228e+003
4.520797e+002, 6.787720e+003
4.525618e+002, 6.787503e+003
4.530439e+002, 6.792002e+003
4.535260e+002, 6.799093e+003
4.540081e+002, 6.801025e+003
4.544903e+002, 6.796730e+003
4.549724e+002, 6.794595e+003
4.554545e+002, 6.800896e+003
4.559366e+002, 6.814185e+003
4.564187e+002, 6.824479e+003
4.569008e+002, 6.831036e+003
4.573830e+002, 6.836188e+003
4.578651e+002, 6.842830e+003
4.583472e+002, 6.850182e+003
4.588293e+002, 6.855459e+003
4.593114e+002, 6.856785e+003
4.597935e+002, 6.856450e+003
4.602757e+002, 6.856750e+003
4.607578e+002, 6.857701e+003
4.612399e+002, 6.859664e+003
4.617220e+002, 6.863559e+003
4.622041e+002, 6.868179e+003
4.626862e+002, 6.872808e+003
4.631684e+002, 6.877781e+003
4.636505e+002, 6.880995e+003
4.641326e+002, 6.878750e+003
4.646147e+002, 6.874990e+003
4.650968e+002, 6.874789e+003
4.655789e+002, 6.885354e+003
4.660611e+002, 6.894133e+003
4.665432e+002, 6.896406e+003
4.670253e+002, 6.892794e+003
4.675074e+002, 6.890579e+003
4.679895e+002, 6.890502e+003
4.684716e+002, 6.892207e+003
4.689538e+002, 6.895638e+003
4.694359e+002, 6.901415e+003
4.699180e+002, 6.907364e+003
4.704001e+002, 6.913329e+003
4.708822e+002, 6.919493e+003
4.713643e+002, 6.926469e+003
4.718465e+002, 6.934938e+003
4.723286e+002, 6.941787e+003
4.728107e+002, 6.945358e+003
4.732928e+002, 6.946448e+003
4.737749e+002, 6.951000e+003
4.742570e+002, 6.959724e+003
4.747392e+002, 6.967813e+003
4.752213e+002, 6.971166e+003
4.757034e+002, 6.970425e+003
4.761855e+002, 6.970150e+003
4.766676e+002, 6.971061e+003
4.771497e+002, 6.971870e+003
4.776319e+002, 6.971353e+003
4.781140e+002, 6.969455e+003
4.785961e+002, 6.965821e+003
4.790782e+002, 6.958201e+003
4.795603e+002, 6.950117e+003
4.800424e+002, 6.946183e+003
4.805246e+002, 6.945947e+003
4.810067e+002, 6.945865e+003
4.814888e+002, 6.944229e+003
4.819709e+002, 6.941396e+003
4.824530e+002, 6.937401e+003
4.829352e+002, 6.931492e+003
4.834173e+002, 6.926167e+003
4.838994e+002, 6.924251e+003
4.843815e+002, 6.923025e+003
4.848636e+002, 6.918415e+003
4.853457e+002, 6.906300e+003
4.858279e+002, 6.893957e+003
4.863100e+002, 6.882727e+003
4.867921e+002, 6.872710e+003
4.872742e+002, 6.864906e+003
4.877563e+002, 6.860375e+003
4.882384e+002, 6.857116e+003
4.887206e+002, 6.854509e+003
4.892027e+002, 6.854025e+003
4.896848e+002, 6.850496e+003
4.901669e+002, 6.843175e+003
4.906490e+002, 6.833685e+003
4.911311e+002, 6.823680e+003
4.916133e+002, 6.812866e+003
4.920954e+002, 6.804159e+003
4.925775e+002, 6.798252e+003
4.930596e+002, 6.795147e+003
4.935417e+002, 6.795739e+003
4.940238e+002, 6.799998e+003
4.945060e+002, 6.804351e+003
4.949881e+002, 6.807273e+003
4.954702e+002, 6.808024e+003
4.959523e+002, 6.803833e+003
4.964344e+002, 6.793225e+003
4.969165e+002, 6.782391e+003
4.973987e+002, 6.778254e+003
4.978808e+002, 6.778214e+003
4.983629e+002, 6.777498e+003
4.988450e+002, 6.773493e+003
4.993271e+002, 6.768760e+003
4.998092e+002, 6.765478e+003
5.002914e+002, 6.763243e+003
5.007735e+002, 6.759820e+003
5.012556e+002, 6.751802e+003
5.017377e+002, 6.744310e+003
5.022198e+002, 6.741078e+003
5.027019e+002, 6.745361e+003
5.031841e+002, 6.746683e+003
5.036662e+002, 6.741419e+003
5.041483e+002, 6.733604e+003
5.046304e+002, 6.727900e+003
5.051125e+002, 6.725152e+003
5.055946e+002, 6.723317e+003
5.060768e+002, 6.722417e+003
5.065589e+002, 6.722159e+003
5.070410e+002, 6.721091e+003
5.075231e+002, 6.718885e+003
5.080052e+002, 6.716576e+003
5.084873e+002, 6.714015e+003
5.089695e+002, 6.711168e+003
5.094516e+002, 6.711379e+003
5.099337e+002, 6.715069e+003
5.104158e+002, 6.719843e+003
5.108979e+002, 6.723498e+003
5.113800e+002, 6.725995e+003
5.118622e+002, 6.727132e+003
5.123443e+002, 6.726851e+003
5.128264e+002, 6.725179e+003
5.133085e+002, 6.720320e+003
5.137906e+002, 6.713637e+003
5.142728e+002, 6.709964e+003
5.147549e+002, 6.717676e+003
5.152370e+002, 6.725994e+003
5.157191e+002, 6.723576e+003
5.162012e+002, 6.708995e+003
5.166833e+002, 6.697120e+003
5.171655e+002, 6.697650e+003
5.176476e+002, 6.702453e+003
5.181297e+002, 6.704545e+003
5.186118e+002, 6.698700e+003
5.190939e+002, 6.694870e+003
5.195760e+002, 6.695822e+003
5.200582e+002, 6.699791e+003
5.205403e+002, 6.702459e+003
5.210224e+002, 6.702412e+003
5.215045e+002, 6.702875e+003
5.219866e+002, 6.704221e+003
5.224688e+002, 6.706430e+003
5.229509e+002, 6.712306e+003
5.234330e+002, 6.723937e+003
5.239151e+002, 6.734256e+003
5.243972e+002, 6.736005e+003
5.248793e+002, 6.728857e+003
5.253615e+002, 6.726555e+003
5.258436e+002, 6.730999e+003
5.263257e+002, 6.738457e+003
5.268078e+002, 6.745213e+003
5.272899e+002, 6.750679e+003
5.277720e+002, 6.751787e+003
5.282542e+002, 6.744953e+003
5.287363e+002, 6.734925e+003
5.292184e+002, 6.727050e+003
5.297005e+002, 6.721380e+003
5.301826e+002, 6.717818e+003
5.306647e+002, 6.717569e+003
5.311469e+002, 6.718742e+003
5.316290e+002, 6.719771e+003
5.321111e+002, 6.720432e+003
5.325932e+002, 6.721385e+003
5.330753e+002, 6.724376e+003
5.335574e+002, 6.727296e+003
5.340396e+002, 6.727910e+003
5.345217e+002, 6.723860e+003
5.350038e+002, 6.719971e+003
5.354859e+002, 6.716021e+003
5.359680e+002, 6.712708e+003
5.364501e+002, 6.712541e+003
5.369323e+002, 6.718144e+003
5.374144e+002, 6.722371e+003
5.378965e+002, 6.721419e+003
5.383786e+002, 6.715023e+003
5.388607e+002, 6.714690e+003
5.393428e+002, 6.722181e+003
5.398250e+002, 6.730054e+003
5.403071e+002, 6.729925e+003
5.407892e+002, 6.722796e+003
5.412713e+002, 6.718983e+003
5.417534e+002, 6.720621e+003
5.422355e+002, 6.724302e+003
5.427177e+002, 6.724974e+003
5.431998e+002, 6.723650e+003
5.436819e+002, 6.723568e+003
5.441640e+002, 6.729201e+003
5.446461e+002, 6.734688e+003
5.451282e+002, 6.732900e+003
5.456104e+002, 6.725123e+003
5.460925e+002, 6.719270e+003
5.465746e+002, 6.720439e+003
5.470567e+002, 6.724292e+003
5.475388e+002, 6.727980e+003
5.480209e+002, 6.730802e+003
5.485031e+002, 6.734555e+003
5.489852e+002, 6.741954e+003
5.494673e+002, 6.749353e+003
5.499494e+002, 6.752864e+003
5.504315e+002, 6.750546e+003
5.509136e+002, 6.747007e+003
5.513958e+002, 6.741231e+003
5.518779e+002, 6.734798e+003
5.523600e+002, 6.733013e+003
5.528421e+002, 6.736940e+003
5.533242e+002, 6.741668e+003
5.538063e+002, 6.746336e+003
5.542885e+002, 6.750421e+003
5.547706e+002, 6.748342e+003
5.552527e+002, 6.739540e+003
5.557348e+002, 6.730724e+003
5.562169e+002, 6.728458e+003
5.566990e+002, 6.730753e+003
5.571812e+002, 6.732305e+003
5.576633e+002, 6.732132e+003
5.581454e+002, 6.731940e+003
5.586275e+002, 6.734345e+003
5.591096e+002, 6.737793e+003
5.595917e+002, 6.739556e+003
5.600739e+002, 6.737388e+003
5.605560e+002, 6.734384e+003
5.610381e+002, 6.730873e+003
5.615202e+002, 6.727463e+003
5.620023e+002, 6.726604e+003
5.624844e+002, 6.733554e+003
5.629666e+002, 6.739102e+003
5.634487e+002, 6.738236e+003
5.639308e+002, 6.729229e+003
5.644129e+002, 6.722073e+003
5.648950e+002, 6.716140e+003
5.653771e+002, 6.712631e+003
5.658593e+002, 6.713124e+003
5.663414e+002, 6.718806e+003
5.668235e+002, 6.723371e+003
5.673056e+002, 6.726472e+003
5.677877e+002, 6.727819e+003
5.682698e+002, 6.726242e+003
5.687520e+002, 6.721936e+003
5.692341e+002, 6.717938e+003
5.697162e+002, 6.715337e+003
5.701983e+002, 6.713928e+003
5.706804e+002, 6.714063e+003
5.711625e+002, 6.715487e+003
5.716447e+002, 6.715933e+003
5.721268e+002, 6.712949e+003
5.726089e+002, 6.708955e+003
5.730910e+002, 6.706045e+003
5.735731e+002, 6.704402e+003
5.740552e+002, 6.704458e+003
5.745374e+002, 6.706714e+003
5.750195e+002, 6.710588e+003
5.755016e+002, 6.715500e+003
5.759837e+002, 6.725066e+003
5.764658e+002, 6.730748e+003
5.769479e+002, 6.728286e+003
5.774301e+002, 6.722054e+003
5.779122e+002, 6.720884e+003
5.783943e+002, 6.726772e+003
5.788764e+002, 6.733315e+003
5.793585e+002, 6.738996e+003
5.798406e+002, 6.743751e+003
5.803228e+002, 6.747951e+003
5.808049e+002, 6.751766e+003
5.812870e+002, 6.753747e+003
5.817691e+002, 6.752413e+003
5.822512e+002, 6.748456e+003
5.827333e+002, 6.744424e+003
5.832155e+002, 6.740553e+003
5.836975e+002, 6.736792e+003
5.841796e+002, 6.731633e+003
5.846617e+002, 6.726968e+003
5.851439e+002, 6.725889e+003
5.856260e+002, 6.729964e+003
5.861081e+002, 6.736750e+003
5.865902e+002, 6.749599e+003
5.870723e+002, 6.763670e+003
5.875544e+002, 6.769427e+003
5.880366e+002, 6.755405e+003
5.885187e+002, 6.741547e+003
5.890008e+002, 6.733089e+003
5.894829e+002, 6.730157e+003
5.899650e+002, 6.731711e+003
5.904471e+002, 6.742039e+003
5.909293e+002, 6.750892e+003
5.914114e+002, 6.752451e+003
5.918935e+002, 6.745186e+003
5.923756e+002, 6.741192e+003
5.928577e+002, 6.741030e+003
5.933398e+002, 6.742507e+003
5.938220e+002, 6.743879e+003
5.943041e+002, 6.745095e+003
5.947862e+002, 6.745435e+003
5.952683e+002, 6.744680e+003
5.957504e+002, 6.743504e+003
5.962325e+002, 6.743274e+003
5.967147e+002, 6.743430e+003
5.971968e+002, 6.742406e+003
5.976789e+002, 6.737562e+003
5.981610e+002, 6.733067e+003
5.986431e+002, 6.733837e+003
5.991252e+002, 6.738294e+003
5.996074e+002, 6.738992e+003
6.000895e+002, 6.728114e+003
6.005716e+002, 6.717233e+003
6.010537e+002, 6.712414e+003
6.015358e+002, 6.715688e+003
6.020179e+002, 6.717663e+003
6.025001e+002, 6.718080e+003
6.029822e+002, 6.717300e+003
6.034643e+002, 6.715099e+003
6.039464e+002, 6.710467e+003
6.044285e+002, 6.708776e+003
6.049106e+002, 6.711319e+003
6.053928e+002, 6.715104e+003
6.058749e+002, 6.714921e+003
6.063570e+002, 6.711130e+003
6.068391e+002, 6.708604e+003
6.073212e+002, 6.708929e+003
6.078033e+002, 6.711083e+003
6.082855e+002, 6.713792e+003
6.087676e+002, 6.716993e+003
6.092497e+002, 6.720655e+003
6.097318e+002, 6.726414e+003
6.102139e+002, 6.731255e+003
6.106960e+002, 6.732016e+003
6.111782e+002, 6.728678e+003
6.116603e+002, 6.725684e+003
6.121424e+002, 6.724249e+003
6.126245e+002, 6.723873e+003
6.131066e+002, 6.724602e+003
6.135887e+002, 6.728140e+003
6.140709e+002, 6.728968e+003
6.145530e+002, 6.726285e+003
6.150351e+002, 6.721813e+003
6.155172e+002, 6.716326e+003
6.159993e+002, 6.708502e+003
6.164814e+002, 6.706499e+003
6.169636e+002, 6.713351e+003
6.174457e+002, 6.723737e+003
6.179278e+002, 6.727556e+003
6.184099e+002, 6.725164e+003
6.188920e+002, 6.720726e+003
6.193741e+002, 6.713012e+003
6.198563e+002, 6.706198e+003
6.203384e+002, 6.709487e+003
6.208205e+002, 6.720549e+003
6.213026e+002, 6.727979e+003
6.217847e+002, 6.720642e+003
6.222668e+002, 6.710380e+003
6.227490e+002, 6.706959e+003
6.232311e+002, 6.711995e+003
6.237132e+002, 6.714931e+003
6.241953e+002, 6.711123e+003
6.246774e+002, 6.705700e+003
6.251595e+002, 6.702337e+003
6.256417e+002, 6.702698e+003
6.261238e+002, 6.702369e+003
6.266059e+002, 6.701260e+003
6.270880e+002, 6.699841e+003
6.275701e+002, 6.698521e+003
6.280522e+002, 6.697268e+003
6.285344e+002, 6.696939e+003
6.290165e+002, 6.697727e+003
6.294986e+002, 6.699491e+003
6.299807e+002, 6.702263e+003
6.304628e+002, 6.705854e+003
6.309449e+002, 6.709356e+003
6.314271e+002, 6.711949e+003
6.319092e+002, 6.714328e+003
6.323913e+002, 6.717413e+003
6.328734e+002, 6.720972e+003
6.333555e+002, 6.723958e+003
6.338376e+002, 6.725773e+003
6.343198e+002, 6.726771e+003
6.348019e+002, 6.727244e+003
6.352840e+002, 6.727307e+003
6.357661e+002, 6.726105e+003
6.362482e+002, 6.720746e+003
6.367303e+002, 6.716450e+003
6.372125e+002, 6.717461e+003
6.376946e+002, 6.726962e+003
6.381767e+002, 6.732770e+003
6.386588e+002, 6.734166e+003
6.391409e+002, 6.732440e+003
6.396230e+002, 6.727836e+003
6.401052e+002, 6.720746e+003
6.405873e+002, 6.717202e+003
6.410694e+002, 6.719919e+003
6.415515e+002, 6.725022e+003
6.420336e+002, 6.726798e+003
6.425157e+002, 6.726088e+003
6.429979e+002, 6.725350e+003
6.434800e+002, 6.725169e+003
6.439621e+002, 6.725843e+003
6.444442e+002, 6.728427e+003
6.449263e+002, 6.732400e+003
6.454084e+002, 6.734861e+003
6.458906e+002, 6.733427e+003
6.463727e+002, 6.731525e+003
6.468548e+002, 6.730951e+003
6.473369e+002, 6.732030e+003
6.478190e+002, 6.732177e+003
6.483011e+002, 6.731132e+003
6.487833e+002, 6.729563e+003
6.492654e+002, 6.727555e+003
6.497475e+002, 6.724903e+003
6.502296e+002, 6.724272e+003
6.507117e+002, 6.726058e+003
6.511938e+002, 6.728842e+003
6.516760e+002, 6.730175e+003
6.521581e+002, 6.730967e+003
6.526402e+002, 6.734375e+003
6.531223e+002, 6.742409e+003
6.536044e+002, 6.750677e+003
6.540865e+002, 6.755882e+003
6.545687e+002, 6.758459e+003
6.550508e+002, 6.759348e+003
6.555329e+002, 6.758151e+003
6.560150e+002, 6.756095e+003
6.564971e+002, 6.752544e+003
6.569792e+002, 6.748165e+003
6.574614e+002, 6.746255e+003
6.579435e+002, 6.747019e+003
6.584256e+002, 6.750164e+003
6.589077e+002, 6.757008e+003
6.593898e+002, 6.767182e+003
6.598719e+002, 6.770864e+003
6.603541e+002, 6.766781e+003
6.608362e+002, 6.762101e+003
6.613183e+002, 6.763233e+003
6.618004e+002, 6.768131e+003
6.622825e+002, 6.767936e+003
6.627646e+002, 6.761933e+003
6.632468e+002, 6.755224e+003
6.637289e+002, 6.752209e+003
6.642110e+002, 6.751294e+003
6.646931e+002, 6.750500e+003
6.651752e+002, 6.749542e+003
6.656573e+002, 6.748469e+003
6.661395e+002, 6.745696e+003
6.666216e+002, 6.743518e+003
6.671037e+002, 6.744741e+003
6.675858e+002, 6.755350e+003
6.680679e+002, 6.762105e+003
6.685500e+002, 6.761795e+003
6.690322e+002, 6.758008e+003
6.695143e+002, 6.759674e+003
6.699964e+002, 6.768700e+003
6.704785e+002, 6.773314e+003
6.709606e+002, 6.767873e+003
6.714427e+002, 6.756940e+003
6.719249e+002, 6.752995e+003
6.724070e+002, 6.755506e+003
6.728891e+002, 6.760766e+003
6.733712e+002, 6.770219e+003
6.738533e+002, 6.779048e+003
6.743354e+002, 6.779731e+003
6.748176e+002, 6.773022e+003
6.752997e+002, 6.768097e+003
6.757818e+002, 6.772765e+003
6.762639e+002, 6.778312e+003
6.767460e+002, 6.778625e+003
6.772281e+002, 6.770890e+003
6.777103e+002, 6.766690e+003
6.781924e+002, 6.767628e+003
6.786745e+002, 6.770976e+003
6.791566e+002, 6.774990e+003
6.796387e+002, 6.779819e+003
6.801208e+002, 6.784560e+003
6.806030e+002, 6.789111e+003
6.810851e+002, 6.793741e+003
6.815672e+002, 6.799925e+003
6.820493e+002, 6.806779e+003
6.825314e+002, 6.810528e+003
6.830135e+002, 6.809312e+003
6.834957e+002, 6.806732e+003
6.839778e+002, 6.806600e+003
6.844599e+002, 6.807807e+003
6.849420e+002, 6.808303e+003
6.854241e+002, 6.805488e+003
6.859063e+002, 6.803788e+003
6.863884e+002, 6.806032e+003
6.868705e+002, 6.810932e+003
6.873526e+002, 6.813814e+003
6.878347e+002, 6.812738e+003
6.883168e+002, 6.812396e+003
6.887990e+002, 6.814535e+003
6.892811e+002, 6.818665e+003
6.897632e+002, 6.821323e+003
6.902453e+002, 6.822604e+003
6.907274e+002, 6.822083e+003
6.912095e+002, 6.817464e+003
6.916917e+002, 6.810976e+003
6.921738e+002, 6.810261e+003
6.926559e+002, 6.815123e+003
6.931380e+002, 6.819890e+003
6.936201e+002, 6.820219e+003
6.941022e+002, 6.818405e+003
6.945844e+002, 6.815804e+003
6.950665e+002, 6.812032e+003
6.955486e+002, 6.811007e+003
6.960307e+002, 6.818417e+003
6.965128e+002, 6.826167e+003
6.969949e+002, 6.827531e+003
6.974771e+002, 6.817517e+003
6.979592e+002, 6.811523e+003
6.984413e+002, 6.810495e+003
6.989234e+002, 6.812529e+003
6.994055e+002, 6.817150e+003
6.998876e+002, 6.824608e+003
7.003698e+002, 6.825806e+003
7.008519e+002, 6.817830e+003
7.013340e+002, 6.807188e+003
7.018161e+002, 6.803073e+003
7.022982e+002, 6.803631e+003
7.027803e+002, 6.804053e+003
7.032625e+002, 6.802059e+003
7.037446e+002, 6.800055e+003
7.042267e+002, 6.799549e+003
7.047088e+002, 6.800208e+003
7.051909e+002, 6.801313e+003
7.056730e+002, 6.802786e+003
7.061552e+002, 6.804328e+003
7.066373e+002, 6.804798e+003
7.071194e+002, 6.804932e+003
7.076015e+002, 6.809300e+003
7.080836e+002, 6.819784e+003
7.085657e+002, 6.828092e+003
7.090479e+002, 6.829705e+003
7.095300e+002, 6.826437e+003
7.100121e+002, 6.826477e+003
7.104942e+002, 6.829655e+003
7.109763e+002, 6.833041e+003
7.114584e+002, 6.835287e+003
7.119406e+002, 6.836286e+003
7.124227e+002, 6.835708e+003
7.129048e+002, 6.833617e+003
7.133869e+002, 6.831079e+003
7.138690e+002, 6.828023e+003
7.143511e+002, 6.825301e+003
7.148333e+002, 6.823581e+003
7.153154e+002, 6.823417e+003
7.157975e+002, 6.823511e+003
7.162796e+002, 6.825569e+003
7.167617e+002, 6.826110e+003
7.172438e+002, 6.821151e+003
7.177260e+002, 6.809929e+003
7.182081e+002, 6.803130e+003
7.186902e+002, 6.801743e+003
7.191723e+002, 6.803832e+003
7.196544e+002, 6.809763e+003
7.201365e+002, 6.817275e+003
7.206187e+002, 6.819966e+003
7.211008e+002, 6.814928e+003
7.215829e+002, 6.809270e+003
7.220650e+002, 6.806925e+003
7.225471e+002, 6.807548e+003
7.230292e+002, 6.810675e+003
7.235114e+002, 6.819306e+003
7.239935e+002, 6.826318e+003
7.244756e+002, 6.829929e+003
7.249577e+002, 6.831416e+003
7.254398e+002, 6.832739e+003
7.259219e+002, 6.833453e+003
7.264041e+002, 6.835005e+003
7.268862e+002, 6.837397e+003
7.273683e+002, 6.841070e+003
7.278504e+002, 6.849264e+003
7.283325e+002, 6.860794e+003
7.288146e+002, 6.867333e+003
7.292968e+002, 6.860802e+003
7.297789e+002, 6.850989e+003
7.302610e+002, 6.849716e+003
7.307431e+002, 6.854706e+003
7.312252e+002, 6.858418e+003
7.317073e+002, 6.857095e+003
7.321895e+002, 6.854316e+003
7.326716e+002, 6.850342e+003
7.331537e+002, 6.845630e+003
7.336358e+002, 6.844813e+003
7.341179e+002, 6.850611e+003
7.346000e+002, 6.855823e+003
7.350822e+002, 6.857349e+003
7.355643e+002, 6.855604e+003
7.360464e+002, 6.853922e+003
7.365285e+002, 6.852343e+003
7.370106e+002, 6.850910e+003
7.374927e+002, 6.849633e+003
7.379749e+002, 6.848578e+003
7.384570e+002, 6.847940e+003
7.389391e+002, 6.847733e+003
7.394212e+002, 6.847467e+003
7.399033e+002, 6.847661e+003
7.403854e+002, 6.847060e+003
7.408676e+002, 6.843755e+003
7.413497e+002, 6.835616e+003
7.418318e+002, 6.832864e+003
7.423139e+002, 6.840866e+003
7.427960e+002, 6.848792e+003
7.432781e+002, 6.848240e+003
7.437603e+002, 6.837366e+003
7.442424e+002, 6.831548e+003
7.447245e+002, 6.831855e+003
7.452066e+002, 6.834597e+003
7.456887e+002, 6.836530e+003
7.461708e+002, 6.837905e+003
7.466530e+002, 6.839134e+003
7.471351e+002, 6.840220e+003
7.476172e+002, 6.841803e+003
7.480993e+002, 6.845660e+003
7.485814e+002, 6.849757e+003
7.490635e+002, 6.851573e+003
7.495457e+002, 6.847072e+003
7.500278e+002, 6.845830e+003
7.505099e+002, 6.849442e+003
7.509920e+002, 6.856397e+003
7.514741e+002, 6.866180e+003
7.519562e+002, 6.880376e+003
7.524384e+002, 6.889123e+003
7.529205e+002, 6.889749e+003
7.534026e+002, 6.886707e+003
7.538847e+002, 6.886338e+003
7.543668e+002, 6.888253e+003
7.548489e+002, 6.891557e+003
7.553311e+002, 6.897481e+003
7.558132e+002, 6.901742e+003
7.562953e+002, 6.898330e+003
7.567774e+002, 6.891005e+003
7.572595e+002, 6.886446e+003
7.577416e+002, 6.889779e+003
7.582238e+002, 6.892655e+003
7.587059e+002, 6.893851e+003
7.591880e+002, 6.893389e+003
7.596701e+002, 6.890686e+003
7.601522e+002, 6.884702e+003
7.606343e+002, 6.880159e+003
7.611165e+002, 6.878130e+003
7.615986e+002, 6.878517e+003
7.620807e+002, 6.882685e+003
7.625628e+002, 6.889713e+003
7.630449e+002, 6.893968e+003
7.635270e+002, 6.890417e+003
7.640092e+002, 6.885058e+003
7.644913e+002, 6.884317e+003
7.649734e+002, 6.886494e+003
7.654555e+002, 6.886347e+003
7.659376e+002, 6.877567e+003
7.664197e+002, 6.870707e+003
7.669019e+002, 6.870328e+003
7.673840e+002, 6.875042e+003
7.678661e+002, 6.878984e+003
7.683482e+002, 6.881951e+003
7.688303e+002, 6.884554e+003
7.693124e+002, 6.887140e+003
7.697946e+002, 6.889448e+003
7.702767e+002, 6.890600e+003
7.707588e+002, 6.890646e+003
7.712409e+002, 6.890115e+003
7.717230e+002, 6.887428e+003
7.722051e+002, 6.885697e+003
7.726873e+002, 6.890478e+003
7.731694e+002, 6.900453e+003
7.736515e+002, 6.905415e+003
7.741336e+002, 6.895536e+003
7.746157e+002, 6.886063e+003
7.750978e+002, 6.884337e+003
7.755800e+002, 6.890069e+003
7.760621e+002, 6.893546e+003
7.765442e+002, 6.893971e+003
7.770263e+002, 6.894492e+003
7.775084e+002, 6.896272e+003
7.779905e+002, 6.899481e+003
7.784727e+002, 6.906695e+003
7.789548e+002, 6.917514e+003
7.794369e+002, 6.925445e+003
7.799190e+002, 6.922706e+003
7.804011e+002, 6.916757e+003
7.808832e+002, 6.915315e+003
7.813654e+002, 6.918821e+003
7.818475e+002, 6.921299e+003
7.823296e+002, 6.920321e+003
7.828117e+002, 6.918249e+003
7.832938e+002, 6.916431e+003
7.837759e+002, 6.915034e+003
7.842581e+002, 6.911915e+003
7.847402e+002, 6.906338e+003
7.852223e+002, 6.901757e+003
7.857044e+002, 6.901524e+003
7.861865e+002, 6.904469e+003
7.866686e+002, 6.905761e+003
7.871508e+002, 6.905340e+003
7.876329e+002, 6.904115e+003
7.881150e+002, 6.900778e+003
7.885971e+002, 6.898218e+003
7.890792e+002, 6.900182e+003
7.895613e+002, 6.907706e+003
7.900435e+002, 6.913055e+003
7.905256e+002, 6.911557e+003
7.910077e+002, 6.909665e+003
7.914898e+002, 6.910722e+003
7.919719e+002, 6.915022e+003
7.924540e+002, 6.919514e+003
7.929362e+002, 6.924239e+003
7.934183e+002, 6.928158e+003
7.939004e+002, 6.929597e+003
7.943825e+002, 6.929507e+003
7.948646e+002, 6.931733e+003
7.953467e+002, 6.936639e+003
7.958289e+002, 6.938576e+003
7.963110e+002, 6.929454e+003
7.967931e+002, 6.918405e+003
7.972752e+002, 6.914498e+003
7.977573e+002, 6.921734e+003
7.982394e+002, 6.923030e+003
7.987216e+002, 6.910630e+003
7.992037e+002, 6.898529e+003
7.996858e+002, 6.896393e+003
8.001679e+002, 6.905957e+003
8.006500e+002, 6.913149e+003
8.011321e+002, 6.918196e+003
8.016143e+002, 6.920377e+003
8.020964e+002, 6.916185e+003
8.025785e+002, 6.909470e+003
8.030606e+002, 6.908425e+003
8.035427e+002, 6.914283e+003
8.040248e+002, 6.920053e+003
8.045070e+002, 6.919667e+003
8.049891e+002, 6.918768e+003
8.054712e+002, 6.922340e+003
8.059533e+002, 6.933670e+003
8.064354e+002, 6.940139e+003
8.069175e+002, 6.939873e+003
8.073997e+002, 6.937264e+003
8.078818e+002, 6.934596e+003
8.083639e+002, 6.931925e+003
8.088460e+002, 6.933312e+003
8.093281e+002, 6.939366e+003
8.098102e+002, 6.943547e+003
8.102924e+002, 6.936903e+003
8.107745e+002, 6.926208e+003
8.112566e+002, 6.921056e+003
8.117387e+002, 6.923271e+003
8.122208e+002, 6.926153e+003
8.127029e+002, 6.926012e+003
8.131851e+002, 6.926436e+003
8.136672e+002, 6.930503e+003
8.141493e+002, 6.939771e+003
8.146314e+002, 6.946067e+003
8.151135e+002, 6.948927e+003
8.155956e+002, 6.949827e+003
8.160778e+002, 6.948813e+003
8.165599e+002, 6.946567e+003
8.170420e+002, 6.946454e+003
8.175241e+002, 6.948609e+003
8.180062e+002, 6.951905e+003
8.184883e+002, 6.957096e+003
8.189705e+002, 6.961849e+003
8.194526e+002, 6.963208e+003
8.199347e+002, 6.960158e+003
8.204168e+002, 6.958374e+003
8.208989e+002, 6.959702e+003
8.213810e+002, 6.961974e+003
8.218632e+002, 6.964589e+003
8.223453e+002, 6.967838e+003
8.228274e+002, 6.969385e+003
8.233095e+002, 6.969508e+003
8.237916e+002, 6.966851e+003
8.242737e+002, 6.957943e+003
8.247559e+002, 6.946339e+003
8.252380e+002, 6.939079e+003
8.257201e+002, 6.936671e+003
8.262022e+002, 6.936835e+003
8.266843e+002, 6.941110e+003
8.271664e+002, 6.945311e+003
8.276486e+002, 6.945647e+003
8.281307e+002, 6.940757e+003
8.286128e+002, 6.940493e+003
8.290949e+002, 6.947797e+003
8.295770e+002, 6.954500e+003
8.300591e+002, 6.955023e+003
8.305413e+002, 6.950153e+003
8.310234e+002, 6.950112e+003
8.315055e+002, 6.954783e+003
8.319876e+002, 6.959143e+003
8.324697e+002, 6.960347e+003
8.329518e+002, 6.958869e+003
8.334340e+002, 6.952673e+003
8.339161e+002, 6.942474e+003
8.343982e+002, 6.938240e+003
8.348803e+002, 6.951360e+003
8.353624e+002, 6.963437e+003
8.358445e+002, 6.966006e+003
8.363267e+002, 6.959523e+003
8.368088e+002, 6.953933e+003
8.372909e+002, 6.949250e+003
8.377730e+002, 6.945690e+003
8.382551e+002, 6.942229e+003
8.387372e+002, 6.940390e+003
8.392194e+002, 6.946810e+003
8.397015e+002, 6.959702e+003
8.401836e+002, 6.968614e+003
8.406657e+002, 6.962588e+003
8.411478e+002, 6.955096e+003
8.416299e+002, 6.955871e+003
8.421121e+002, 6.963876e+003
8.425942e+002, 6.966898e+003
8.430763e+002, 6.961150e+003
8.435584e+002, 6.955690e+003
8.440405e+002, 6.952683e+003
8.445226e+002, 6.952250e+003
8.450048e+002, 6.956805e+003
8.454869e+002, 6.965827e+003
8.459690e+002, 6.971869e+003
8.464511e+002, 6.967452e+003
8.469332e+002, 6.961278e+003
8.474153e+002, 6.964849e+003
8.478975e+002, 6.974636e+003
8.483796e+002, 6.980596e+003
8.488617e+002, 6.976480e+003
8.493438e+002, 6.971312e+003
8.498259e+002, 6.966829e+003
8.503080e+002, 6.963454e+003
8.507902e+002, 6.962695e+003
8.512723e+002, 6.965120e+003
8.517544e+002, 6.967002e+003
8.522365e+002, 6.966954e+003
8.527186e+002, 6.966381e+003
8.532007e+002, 6.968335e+003
8.536829e+002, 6.971814e+003
8.541650e+002, 6.973974e+003
8.546471e+002, 6.970967e+003
8.551292e+002, 6.969787e+003
8.556113e+002, 6.976336e+003
8.560934e+002, 6.986217e+003
8.565756e+002, 6.991232e+003
8.570577e+002, 6.987821e+003
8.575398e+002, 6.986259e+003
8.580219e+002, 6.988220e+003
8.585040e+002, 6.991493e+003
8.589861e+002, 6.991858e+003
8.594683e+002, 6.990062e+003
8.599504e+002, 6.990589e+003
8.604325e+002, 6.995099e+003
8.609146e+002, 7.000028e+003
8.613967e+002, 7.003941e+003
8.618788e+002, 7.005539e+003
8.623610e+002, 7.002783e+003
8.628431e+002, 6.989459e+003
8.633252e+002, 6.982424e+003
8.638073e+002, 6.986594e+003
8.642894e+002, 6.993769e+003
8.647715e+002, 6.995734e+003
8.652537e+002, 6.992263e+003
8.657358e+002, 6.990429e+003
8.662179e+002, 6.991173e+003
8.667000e+002, 6.991493e+003
8.671821e+002, 6.987570e+003
8.676642e+002, 6.981753e+003
8.681464e+002, 6.976586e+003
8.686285e+002, 6.971948e+003
8.691106e+002, 6.971893e+003
8.695927e+002, 6.983047e+003
8.700748e+002, 6.995140e+003
8.705569e+002, 7.001002e+003
8.710391e+002, 6.999372e+003
8.715212e+002, 6.998838e+003
8.720033e+002, 6.999151e+003
8.724854e+002, 7.000602e+003
8.729675e+002, 7.002990e+003
8.734496e+002, 7.006485e+003
8.739318e+002, 7.012869e+003
8.744139e+002, 7.021651e+003
8.748960e+002, 7.028190e+003
8.753781e+002, 7.030163e+003
8.758602e+002, 7.028642e+003
8.763423e+002, 7.022197e+003
8.768245e+002, 7.011196e+003
8.773066e+002, 7.006317e+003
8.777887e+002, 7.010933e+003
8.782708e+002, 7.014771e+003
8.787529e+002, 7.013701e+003
8.792350e+002, 7.009196e+003
8.797172e+002, 7.004906e+003
8.801993e+002, 7.001202e+003
8.806814e+002, 6.999087e+003
8.811635e+002, 6.999554e+003
8.816456e+002, 7.001523e+003
8.821277e+002, 7.004899e+003
8.826099e+002, 7.009081e+003
8.830920e+002, 7.012359e+003
8.835741e+002, 7.012153e+003
8.840562e+002, 7.013876e+003
8.845383e+002, 7.019063e+003
8.850204e+002, 7.025688e+003
8.855026e+002, 7.029362e+003
8.859847e+002, 7.030103e+003
8.864668e+002, 7.029815e+003
8.869489e+002, 7.027771e+003
8.874310e+002, 7.027597e+003
8.879131e+002, 7.036436e+003
8.883953e+002, 7.048853e+003
8.888774e+002, 7.056757e+003
8.893595e+002, 7.056502e+003
8.898416e+002, 7.053780e+003
8.903237e+002, 7.048218e+003
8.908058e+002, 7.041869e+003
8.912880e+002, 7.036498e+003
8.917701e+002, 7.032144e+003
8.922522e+002, 7.029123e+003
8.927343e+002, 7.027330e+003
8.932164e+002, 7.027563e+003
8.936985e+002, 7.033657e+003
8.941807e+002, 7.040987e+003
8.946628e+002, 7.042041e+003
8.951449e+002, 7.034712e+003
8.956270e+002, 7.027994e+003
8.961091e+002, 7.024784e+003
8.965912e+002, 7.023495e+003
8.970734e+002, 7.022822e+003
8.975555e+002, 7.022612e+003
8.980376e+002, 7.027134e+003
8.985197e+002, 7.037708e+003
8.990018e+002, 7.045479e+003
8.994839e+002, 7.040665e+003
8.999661e+002, 7.030337e+003
9.004482e+002, 7.028548e+003
9.009303e+002, 7.034292e+003
9.014124e+002, 7.039237e+003
9.018945e+002, 7.036916e+003
9.023766e+002, 7.035134e+003
9.028588e+002, 7.038857e+003
9.033409e+002, 7.046468e+003
9.038230e+002, 7.050658e+003
9.043051e+002, 7.050637e+003
9.047872e+002, 7.049694e+003
9.052693e+002, 7.048113e+003
9.057515e+002, 7.047007e+003
9.062336e+002, 7.049712e+003
9.067157e+002, 7.054846e+003
9.071978e+002, 7.058489e+003
9.076799e+002, 7.057444e+003
9.081620e+002, 7.056528e+003
9.086442e+002, 7.057751e+003
9.091263e+002, 7.060674e+003
9.096084e+002, 7.064875e+003
9.100905e+002, 7.072329e+003
9.105726e+002, 7.075525e+003
9.110547e+002, 7.072859e+003
9.115369e+002, 7.068411e+003
9.120190e+002, 7.068681e+003
9.125011e+002, 7.071523e+003
9.129832e+002, 7.069596e+003
9.134653e+002, 7.060644e+003
9.139474e+002, 7.053795e+003
9.144296e+002, 7.056247e+003
9.149117e+002, 7.062305e+003
9.153938e+002, 7.067500e+003
9.158759e+002, 7.071521e+003
9.163580e+002, 7.073537e+003
9.168401e+002, 7.072389e+003
9.173223e+002, 7.071800e+003
9.178044e+002, 7.075923e+003
9.182865e+002, 7.082687e+003
9.187686e+002, 7.083601e+003
9.192507e+002, 7.079234e+003
9.197328e+002, 7.075171e+003
9.202150e+002, 7.076194e+003
9.206971e+002, 7.077604e+003
9.211792e+002, 7.075982e+003
9.216613e+002, 7.071840e+003
9.221434e+002, 7.069561e+003
9.226255e+002, 7.069813e+003
9.231077e+002, 7.070923e+003
9.235898e+002, 7.073055e+003
9.240719e+002, 7.075047e+003
9.245540e+002, 7.073318e+003
9.250361e+002, 7.068771e+003
9.255182e+002, 7.065347e+003
9.260004e+002, 7.064749e+003
9.264825e+002, 7.064893e+003
9.269646e+002, 7.062971e+003
9.274467e+002, 7.061288e+003
9.279288e+002, 7.063858e+003
9.284109e+002, 7.074982e+003
9.288931e+002, 7.081541e+003
9.293752e+002, 7.082483e+003
9.298573e+002, 7.079562e+003
9.303394e+002, 7.073444e+003
9.308215e+002, 7.065147e+003
9.313036e+002, 7.057261e+003
9.317858e+002, 7.049987e+003
9.322679e+002, 7.046198e+003
9.327500e+002, 7.052540e+003
9.332321e+002, 7.059852e+003
9.337142e+002, 7.060869e+003
9.341964e+002, 7.054208e+003
9.346785e+002, 7.047339e+003
9.351606e+002, 7.038764e+003
9.356427e+002, 7.034224e+003
9.361248e+002, 7.038956e+003
9.366069e+002, 7.049465e+003
9.370891e+002, 7.052749e+003
9.375712e+002, 7.050235e+003
9.380533e+002, 7.048994e+003
9.385354e+002, 7.054274e+003
9.390175e+002, 7.060364e+003
9.394996e+002, 7.063908e+003
9.399818e+002, 7.065542e+003
9.404639e+002, 7.067267e+003
9.409460e+002, 7.068562e+003
9.414281e+002, 7.071198e+003
9.419102e+002, 7.076028e+003
9.423923e+002, 7.081004e+003
9.428745e+002, 7.082442e+003
9.433566e+002, 7.081331e+003
9.438387e+002, 7.080358e+003
9.443208e+002, 7.080029e+003
9.448029e+002, 7.080642e+003
9.452850e+002, 7.083555e+003
9.457672e+002, 7.086875e+003
9.462493e+002, 7.089029e+003
9.467314e+002, 7.090329e+003
9.472135e+002, 7.089339e+003
9.476956e+002, 7.085690e+003
9.481777e+002, 7.081314e+003
9.486599e+002, 7.077243e+003
9.491420e+002, 7.073760e+003
9.496241e+002, 7.072011e+003
9.501062e+002, 7.071756e+003
9.505883e+002, 7.071119e+003
9.510704e+002, 7.068385e+003
9.515526e+002, 7.065585e+003
9.520347e+002, 7.062945e+003
9.525168e+002, 7.060987e+003
9.529989e+002, 7.062909e+003
9.534810e+002, 7.070279e+003
9.539631e+002, 7.073534e+003
9.544453e+002, 7.068529e+003
9.549274e+002, 7.060586e+003
9.554095e+002, 7.058209e+003
9.558916e+002, 7.059760e+003
9.563737e+002, 7.061841e+003
9.568558e+002, 7.064592e+003
9.573380e+002, 7.065599e+003
9.578201e+002, 7.062136e+003
9.583022e+002, 7.057982e+003
9.587843e+002, 7.056700e+003
9.592664e+002, 7.058804e+003
9.597485e+002, 7.061459e+003
9.602307e+002, 7.064711e+003
9.607128e+002, 7.067604e+003
9.611949e+002, 7.068125e+003
9.616770e+002, 7.068335e+003
9.621591e+002, 7.072191e+003
9.626412e+002, 7.079603e+003
9.631234e+002, 7.084597e+003
9.636055e+002, 7.078802e+003
9.640876e+002, 7.077542e+003
9.645697e+002, 7.089302e+003
9.650518e+002, 7.109310e+003
9.655339e+002, 7.115479e+003
9.660161e+002, 7.107747e+003
9.664982e+002, 7.099964e+003
9.669803e+002, 7.096286e+003
9.674624e+002, 7.096651e+003
9.679445e+002, 7.104287e+003
9.684266e+002, 7.115119e+003
9.689088e+002, 7.122287e+003
9.693909e+002, 7.122045e+003
9.698730e+002, 7.120714e+003
9.703551e+002, 7.118672e+003
9.708372e+002, 7.116059e+003
9.713193e+002, 7.112933e+003
9.718015e+002, 7.109417e+003
9.722836e+002, 7.104778e+003
9.727657e+002, 7.098952e+003
9.732478e+002, 7.096159e+003
9.737299e+002, 7.103200e+003
9.742120e+002, 7.112097e+003
9.746942e+002, 7.115453e+003
9.751763e+002, 7.112692e+003
9.756584e+002, 7.112819e+003
9.761405e+002, 7.117743e+003
9.766226e+002, 7.122190e+003
9.771047e+002, 7.124084e+003
9.775869e+002, 7.124191e+003
9.780690e+002, 7.124089e+003
9.785511e+002, 7.123924e+003
9.790332e+002, 7.124518e+003
9.795153e+002, 7.127674e+003
9.799974e+002, 7.129368e+003
9.804796e+002, 7.125518e+003
9.809617e+002, 7.119715e+003
9.814438e+002, 7.117187e+003
9.819259e+002, 7.119361e+003
9.824080e+002, 7.121070e+003
9.828901e+002, 7.122435e+003
9.833723e+002, 7.122226e+003
9.838544e+002, 7.116956e+003
9.843365e+002, 7.110117e+003
9.848186e+002, 7.109206e+003
9.853007e+002, 7.114724e+003
9.857828e+002, 7.119597e+003
9.862650e+002, 7.118884e+003
9.867471e+002, 7.118995e+003
9.872292e+002, 7.124095e+003
9.877113e+002, 7.132418e+003
9.881934e+002, 7.132795e+003
9.886755e+002, 7.124619e+003
9.891577e+002, 7.121930e+003
9.896398e+002, 7.133549e+003
9.901219e+002, 7.147157e+003
9.906040e+002, 7.145111e+003
9.910861e+002, 7.135299e+003
9.915682e+002, 7.131187e+003
9.920504e+002, 7.142319e+003
9.925325e+002, 7.150394e+003
9.930146e+002, 7.152967e+003
9.934967e+002, 7.153542e+003
9.939788e+002, 7.156755e+003
9.944609e+002, 7.161742e+003
9.949431e+002, 7.158279e+003
9.954252e+002, 7.145939e+003
9.959073e+002, 7.136467e+003
9.963894e+002, 7.142627e+003
9.968715e+002, 7.151438e+003
9.973536e+002, 7.153704e+003
9.978358e+002, 7.149063e+003
9.983179e+002, 7.142104e+003
9.988000e+002, 7.130364e+003
9.992821e+002, 7.123334e+003
9.997642e+002, 7.124343e+003
1.000246e+003, 7.130750e+003
1.000728e+003, 7.140326e+003
1.001211e+003, 7.150748e+003
1.001693e+003, 7.155278e+003
1.002175e+003, 7.149630e+003
1.002657e+003, 7.142940e+003
1.003139e+003, 7.137655e+003
1.003621e+003, 7.134251e+003
1.004103e+003, 7.132832e+003
1.004585e+003, 7.133100e+003
1.005068e+003, 7.138031e+003
1.005550e+003, 7.148154e+003
1.006032e+003, 7.157510e+003
1.006514e+003, 7.159758e+003
1.006996e+003, 7.159734e+003
1.007478e+003, 7.165641e+003
1.007960e+003, 7.175724e+003
1.008442e+003, 7.179479e+003
1.008924e+003, 7.164694e+003
1.009407e+003, 7.155517e+003
1.009889e+003, 7.159025e+003
1.010371e+003, 7.168562e+003
1.010853e+003, 7.170008e+003
1.011335e+003, 7.164577e+003
1.011817e+003, 7.159697e+003
1.012299e+003, 7.156955e+003
1.012781e+003, 7.156131e+003
1.013263e+003, 7.159458e+003
1.013746e+003, 7.163372e+003
1.014228e+003, 7.163976e+003
1.014710e+003, 7.160221e+003
1.015192e+003, 7.158922e+003
1.015674e+003, 7.160857e+003
1.016156e+003, 7.163086e+003
1.016638e+003, 7.163435e+003
1.017120e+003, 7.162955e+003
1.017603e+003, 7.162836e+003
1.018085e+003, 7.163628e+003
1.018567e+003, 7.167510e+003
1.019049e+003, 7.180085e+003
1.019531e+003, 7.189722e+003
1.020013e+003, 7.190191e+003
1.020495e+003, 7.187340e+003
1.020977e+003, 7.190442e+003
1.021459e+003, 7.199580e+003
1.021942e+003, 7.205685e+003
1.022424e+003, 7.207536e+003
1.022906e+003, 7.206603e+003
1.023388e+003, 7.203580e+003
1.023870e+003, 7.199095e+003
1.024352e+003, 7.192901e+003
1.024834e+003, 7.184865e+003
1.025316e+003, 7.180793e+003
1.025799e+003, 7.183052e+003
1.026281e+003, 7.185340e+003
1.026763e+003, 7.184636e+003
1.027245e+003, 7.182978e+003
1.027727e+003, 7.187002e+003
1.028209e+003, 7.194775e+003
1.028691e+003, 7.199515e+003
1.029173e+003, 7.196556e+003
1.029656e+003, 7.193230e+003
1.030138e+003, 7.192350e+003
1.030620e+003, 7.193066e+003
1.031102e+003, 7.194236e+003
1.031584e+003, 7.195532e+003
1.032066e+003, 7.199323e+003
1.032548e+003, 7.205963e+003
1.033030e+003, 7.211282e+003
1.033512e+003, 7.207781e+003
1.033995e+003, 7.203563e+003
1.034477e+003, 7.210971e+003
1.034959e+003, 7.227997e+003
1.035441e+003, 7.239432e+003
1.035923e+003, 7.240665e+003
1.036405e+003, 7.237120e+003
1.036887e+003, 7.227386e+003
1.037369e+003, 7.216403e+003
1.037851e+003, 7.216680e+003
1.038334e+003, 7.224455e+003
1.038816e+003, 7.223458e+003
1.039298e+003, 7.207497e+003
1.039780e+003, 7.194550e+003
1.040262e+003, 7.199586e+003
1.040744e+003, 7.209216e+003
1.041226e+003, 7.212885e+003
1.041708e+003, 7.210217e+003
1.042191e+003, 7.206281e+003
1.042673e+003, 7.200711e+003
1.043155e+003, 7.196880e+003
1.043637e+003, 7.197987e+003
1.044119e+003, 7.200643e+003
1.044601e+003, 7.198432e+003
1.045083e+003, 7.194214e+003
1.045565e+003, 7.194595e+003
1.046047e+003, 7.208206e+003
1.046530e+003, 7.216497e+003
1.047012e+003, 7.215908e+003
1.047494e+003, 7.212505e+003
1.047976e+003, 7.212819e+003
1.048458e+003, 7.216229e+003
1.048940e+003, 7.219915e+003
1.049422e+003, 7.223638e+003
1.049904e+003, 7.227425e+003
1.050386e+003, 7.233167e+003
1.050869e+003, 7.237242e+003
1.051351e+003, 7.234948e+003
1.051833e+003, 7.228788e+003
1.052315e+003, 7.230040e+003
1.052797e+003, 7.239968e+003
1.053279e+003, 7.247437e+003
1.053761e+003, 7.249415e+003
1.054243e+003, 7.248058e+003
1.054726e+003, 7.242527e+003
1.055208e+003, 7.236984e+003
1.055690e+003, 7.238230e+003
1.056172e+003, 7.251141e+003
1.056654e+003, 7.259417e+003
1.057136e+003, 7.260845e+003
1.057618e+003, 7.259412e+003
1.058100e+003, 7.256950e+003
1.058583e+003, 7.253666e+003
1.059065e+003, 7.249250e+003
1.059547e+003, 7.244406e+003
1.060029e+003, 7.242327e+003
1.060511e+003, 7.248664e+003
1.060993e+003, 7.253588e+003
1.061475e+003, 7.250424e+003
1.061957e+003, 7.244792e+003
1.062439e+003, 7.244697e+003
1.062922e+003, 7.250890e+003
1.063404e+003, 7.256799e+003
1.063886e+003, 7.262157e+003
1.064368e+003, 7.264878e+003
1.064850e+003, 7.261227e+003
1.065332e+003, 7.255414e+003
1.065814e+003, 7.250683e+003
1.066296e+003, 7.247486e+003
1.066778e+003, 7.247886e+003
1.067261e+003, 7.254525e+003
1.067743e+003, 7.258531e+003
1.068225e+003, 7.256979e+003
1.068707e+003, 7.252596e+003
1.069189e+003, 7.249003e+003
1.069671e+003, 7.246739e+003
1.070153e+003, 7.248008e+003
1.070635e+003, 7.254875e+003
1.071118e+003, 7.259266e+003
1.071600e+003, 7.255395e+003
1.072082e+003, 7.250476e+003
1.072564e+003, 7.249443e+003
1.073046e+003, 7.251721e+003
1.073528e+003, 7.247024e+003
1.074010e+003, 7.236189e+003
1.074492e+003, 7.229503e+003
1.074974e+003, 7.237277e+003
1.075457e+003, 7.245958e+003
1.075939e+003, 7.243183e+003
1.076421e+003, 7.235342e+003
1.076903e+003, 7.233727e+003
1.077385e+003, 7.241748e+003
1.077867e+003, 7.246663e+003
1.078349e+003, 7.247395e+003
1.078831e+003, 7.246797e+003
1.079313e+003, 7.246134e+003
1.079796e+003, 7.246428e+003
1.080278e+003, 7.250950e+003
1.080760e+003, 7.258711e+003
1.081242e+003, 7.262542e+003
1.081724e+003, 7.254037e+003
1.082206e+003, 7.249905e+003
1.082688e+003, 7.255694e+003
1.083170e+003, 7.264854e+003
1.083652e+003, 7.264156e+003
1.084135e+003, 7.256306e+003
1.084617e+003, 7.251513e+003
1.085099e+003, 7.251979e+003
1.085581e+003, 7.253794e+003
1.086063e+003, 7.256941e+003
1.086545e+003, 7.258612e+003
1.087027e+003, 7.256034e+003
1.087509e+003, 7.250016e+003
1.087992e+003, 7.249433e+003
1.088474e+003, 7.254374e+003
1.088956e+003, 7.258196e+003
1.089438e+003, 7.257718e+003
1.089920e+003, 7.255862e+003
1.090402e+003, 7.252640e+003
1.090884e+003, 7.251072e+003
1.091366e+003, 7.256324e+003
1.091849e+003, 7.274593e+003
1.092331e+003, 7.283693e+003
1.092813e+003, 7.281475e+003
1.093295e+003, 7.277369e+003
1.093777e+003, 7.279413e+003
1.094259e+003, 7.283667e+003
1.094741e+003, 7.281208e+003
1.095223e+003, 7.274129e+003
1.095705e+003, 7.270120e+003
1.096188e+003, 7.272522e+003
1.096670e+003, 7.277972e+003
1.097152e+003, 7.287796e+003
1.097634e+003, 7.297470e+003
1.098116e+003, 7.300115e+003
1.098598e+003, 7.297336e+003
1.099080e+003, 7.296647e+003
1.099562e+003, 7.298728e+003
1.100044e+003, 7.302023e+003
1.100527e+003, 7.309892e+003
1.101009e+003, 7.314373e+003
1.101491e+003, 7.308779e+003
1.101973e+003, 7.297086e+003
1.102455e+003, 7.291817e+003
1.102937e+003, 7.293097e+003
1.103419e+003, 7.293973e+003
1.103901e+003, 7.292514e+003
1.104384e+003, 7.291440e+003
1.104866e+003, 7.294719e+003
1.105348e+003, 7.298889e+003
1.105830e+003, 7.300464e+003
1.106312e+003, 7.298836e+003
1.106794e+003, 7.296047e+003
1.107276e+003, 7.291538e+003
1.107758e+003, 7.287716e+003
1.108240e+003, 7.284790e+003
1.108723e+003, 7.284115e+003
1.109205e+003, 7.289652e+003
1.109687e+003, 7.298541e+003
1.110169e+003, 7.305186e+003
1.110651e+003, 7.305032e+003
1.111133e+003, 7.308705e+003
1.111615e+003, 7.320142e+003
1.112097e+003, 7.329614e+003
1.112579e+003, 7.327094e+003
1.113062e+003, 7.316720e+003
1.113544e+003, 7.313573e+003
1.114026e+003, 7.316454e+003
1.114508e+003, 7.319146e+003
1.114990e+003, 7.318399e+003
1.115472e+003, 7.317275e+003
1.115954e+003, 7.316358e+003
1.116436e+003, 7.316014e+003
1.116919e+003, 7.317379e+003
1.117401e+003, 7.320289e+003
1.117883e+003, 7.320396e+003
1.118365e+003, 7.317396e+003
1.118847e+003, 7.316163e+003
1.119329e+003, 7.323447e+003
1.119811e+003, 7.330713e+003
1.120293e+003, 7.331498e+003
1.120776e+003, 7.327501e+003
1.121258e+003, 7.324217e+003
1.121740e+003, 7.321354e+003
1.122222e+003, 7.322050e+003
1.122704e+003, 7.327740e+003
1.123186e+003, 7.333143e+003
1.123668e+003, 7.331925e+003
1.124150e+003, 7.328042e+003
1.124632e+003, 7.325752e+003
1.125115e+003, 7.325695e+003
1.125597e+003, 7.324054e+003
1.126079e+003, 7.319674e+003
1.126561e+003, 7.317779e+003
1.127043e+003, 7.321881e+003
1.127525e+003, 7.327292e+003
1.128007e+003, 7.326148e+003
1.128489e+003, 7.320984e+003
1.128971e+003, 7.316199e+003
1.129454e+003, 7.314016e+003
1.129936e+003, 7.309271e+003
1.130418e+003, 7.300028e+003
1.130900e+003, 7.291427e+003
1.131382e+003, 7.285411e+003
1.131864e+003, 7.282846e+003
1.132346e+003, 7.288351e+003
1.132828e+003, 7.299608e+003
1.133311e+003, 7.309022e+003
1.133793e+003, 7.311373e+003
1.134275e+003, 7.313712e+003
1.134757e+003, 7.317210e+003
1.135239e+003, 7.321498e+003
1.135721e+003, 7.326789e+003
1.136203e+003, 7.332609e+003
1.136685e+003, 7.335835e+003
1.137167e+003, 7.336531e+003
1.137650e+003, 7.337292e+003
1.138132e+003, 7.341722e+003
1.138614e+003, 7.344308e+003
1.139096e+003, 7.341215e+003
1.139578e+003, 7.335102e+003
1.140060e+003, 7.328695e+003
1.140542e+003, 7.321918e+003
1.141024e+003, 7.324229e+003
1.141506e+003, 7.337365e+003
1.141989e+003, 7.347553e+003
1.142471e+003, 7.339997e+003
1.142953e+003, 7.328896e+003
1.143435e+003, 7.324791e+003
1.143917e+003, 7.327037e+003
1.144399e+003, 7.329212e+003
1.144881e+003, 7.331211e+003
1.145363e+003, 7.334344e+003
1.145846e+003, 7.339417e+003
1.146328e+003, 7.342869e+003
1.146810e+003, 7.337900e+003
1.147292e+003, 7.330882e+003
1.147774e+003, 7.328734e+003
1.148256e+003, 7.332659e+003
1.148738e+003, 7.336646e+003
1.149220e+003, 7.340974e+003
1.149703e+003, 7.343367e+003
1.150185e+003, 7.342073e+003
1.150667e+003, 7.340293e+003
1.151149e+003, 7.344251e+003
1.151631e+003, 7.350441e+003
1.152113e+003, 7.352995e+003
1.152595e+003, 7.349275e+003
1.153077e+003, 7.347128e+003
1.153559e+003, 7.347732e+003
1.154042e+003, 7.348633e+003
1.154524e+003, 7.348652e+003
1.155006e+003, 7.348116e+003
1.155488e+003, 7.348653e+003
1.155970e+003, 7.349119e+003
1.156452e+003, 7.346488e+003
1.156934e+003, 7.336194e+003
1.157416e+003, 7.329682e+003
1.157898e+003, 7.329463e+003
1.158381e+003, 7.331210e+003
1.158863e+003, 7.332447e+003
1.159345e+003, 7.332939e+003
1.159827e+003, 7.330771e+003
1.160309e+003, 7.326708e+003
1.160791e+003, 7.323956e+003
1.161273e+003, 7.322981e+003
1.161755e+003, 7.324778e+003
1.162238e+003, 7.329795e+003
1.162720e+003, 7.337001e+003
1.163202e+003, 7.347279e+003
1.163684e+003, 7.359290e+003
1.164166e+003, 7.363930e+003
1.164648e+003, 7.361424e+003
1.165130e+003, 7.357942e+003
1.165612e+003, 7.357697e+003
1.166094e+003, 7.356278e+003
1.166577e+003, 7.349743e+003
1.167059e+003, 7.342475e+003
1.167541e+003, 7.343311e+003
1.168023e+003, 7.351291e+003
1.168505e+003, 7.351616e+003
1.168987e+003, 7.342790e+003
1.169469e+003, 7.335563e+003
1.169951e+003, 7.338783e+003
1.170433e+003, 7.344628e+003
1.170916e+003, 7.349673e+003
1.171398e+003, 7.353442e+003
1.171880e+003, 7.354076e+003
1.172362e+003, 7.351614e+003
1.172844e+003, 7.351125e+003
1.173326e+003, 7.353563e+003
1.173808e+003, 7.357500e+003
1.174290e+003, 7.364361e+003
1.174773e+003, 7.369892e+003
1.175255e+003, 7.369666e+003
1.175737e+003, 7.364780e+003
1.176219e+003, 7.360318e+003
1.176701e+003, 7.356183e+003
1.177183e+003, 7.353989e+003
1.177665e+003, 7.354308e+003
1.178147e+003, 7.356335e+003
1.178630e+003, 7.361229e+003
1.179112e+003, 7.366178e+003
1.179594e+003, 7.367856e+003
1.180076e+003, 7.366215e+003
1.180558e+003, 7.367076e+003
1.181040e+003, 7.370958e+003
1.181522e+003, 7.372527e+003
1.182004e+003, 7.368625e+003
1.182486e+003, 7.364045e+003
1.182969e+003, 7.363825e+003
1.183451e+003, 7.365932e+003
1.183933e+003, 7.367844e+003
1.184415e+003, 7.368945e+003
1.184897e+003, 7.372135e+003
1.185379e+003, 7.378034e+003
1.185861e+003, 7.381394e+003
1.186343e+003, 7.377032e+003
1.186825e+003, 7.372037e+003
1.187308e+003, 7.377705e+003
1.187790e+003, 7.387349e+003
1.188272e+003, 7.389944e+003
1.188754e+003, 7.381144e+003
1.189236e+003, 7.373456e+003
1.189718e+003, 7.366478e+003
1.190200e+003, 7.363328e+003
1.190682e+003, 7.368889e+003
1.191165e+003, 7.377209e+003
1.191647e+003, 7.381471e+003
1.192129e+003, 7.382514e+003
1.192611e+003, 7.381769e+003
1.193093e+003, 7.378103e+003
1.193575e+003, 7.376421e+003
1.194057e+003, 7.377399e+003
1.194539e+003, 7.377994e+003
1.195021e+003, 7.374646e+003
1.195504e+003, 7.370242e+003
1.195986e+003, 7.367946e+003
1.196468e+003, 7.367876e+003
1.196950e+003, 7.370573e+003
1.197432e+003, 7.378302e+003
1.197914e+003, 7.383393e+003
1.198396e+003, 7.385045e+003
1.198878e+003, 7.384963e+003
1.199360e+003, 7.384126e+003
1.199843e+003, 7.382971e+003
1.200325e+003, 7.381920e+003
1.200807e+003, 7.381175e+003
1.201289e+003, 7.381531e+003
1.201771e+003, 7.384947e+003
1.202253e+003, 7.385023e+003
1.202735e+003, 7.379789e+003
1.203217e+003, 7.375749e+003
1.203700e+003, 7.382002e+003
1.204182e+003, 7.392918e+003
1.204664e+003, 7.400651e+003
1.205146e+003, 7.405016e+003
1.205628e+003, 7.409292e+003
1.206110e+003, 7.415104e+003
1.206592e+003, 7.417310e+003
1.207074e+003, 7.413600e+003
1.207557e+003, 7.409835e+003
1.208039e+003, 7.415322e+003
1.208521e+003, 7.424215e+003
1.209003e+003, 7.428141e+003
1.209485e+003, 7.426492e+003
1.209967e+003, 7.423583e+003
1.210449e+003, 7.419434e+003
1.210931e+003, 7.415470e+003
1.211413e+003, 7.411635e+003
1.211896e+003, 7.409144e+003
1.212378e+003, 7.409292e+003
1.212860e+003, 7.412030e+003
1.213342e+003, 7.419761e+003
1.213824e+003, 7.432768e+003
1.214306e+003, 7.436120e+003
1.214788e+003, 7.425300e+003
1.215270e+003, 7.414528e+003
1.215752e+003, 7.407102e+003
1.216235e+003, 7.402703e+003
1.216717e+003, 7.403630e+003
1.217199e+003, 7.405909e+003
1.217681e+003, 7.402210e+003
1.218163e+003, 7.390856e+003
1.218645e+003, 7.386714e+003
1.219127e+003, 7.393796e+003
1.219609e+003, 7.398440e+003
1.220092e+003, 7.395553e+003
1.220574e+003, 7.390017e+003
1.221056e+003, 7.387588e+003
1.221538e+003, 7.387912e+003
1.222020e+003, 7.391159e+003
1.222502e+003, 7.397800e+003
1.222984e+003, 7.402471e+003
1.223466e+003, 7.404328e+003
1.223948e+003, 7.405571e+003
1.224431e+003, 7.406128e+003
1.224913e+003, 7.408000e+003
1.225395e+003, 7.417705e+003
1.225877e+003, 7.428813e+003
1.226359e+003, 7.431345e+003
1.226841e+003, 7.420911e+003
1.227323e+003, 7.417117e+003
1.227805e+003, 7.422309e+003
1.228287e+003, 7.424781e+003
1.228770e+003, 7.418210e+003
1.229252e+003, 7.409182e+003
1.229734e+003, 7.405806e+003
1.230216e+003, 7.406167e+003
1.230698e+003, 7.408414e+003
1.231180e+003, 7.413157e+003
1.231662e+003, 7.414737e+003
1.232144e+003, 7.412870e+003
1.232627e+003, 7.409842e+003
1.233109e+003, 7.406883e+003
1.233591e+003, 7.403116e+003
1.234073e+003, 7.396484e+003
1.234555e+003, 7.388984e+003
1.235037e+003, 7.383409e+003
1.235519e+003, 7.380462e+003
1.236001e+003, 7.376602e+003
1.236484e+003, 7.371428e+003
1.236966e+003, 7.370455e+003
1.237448e+003, 7.379439e+003
1.237930e+003, 7.389269e+003
1.238412e+003, 7.387975e+003
1.238894e+003, 7.383249e+003
1.239376e+003, 7.386595e+003
1.239858e+003, 7.399927e+003
1.240340e+003, 7.407780e+003
1.240823e+003, 7.409707e+003
1.241305e+003, 7.409930e+003
1.241787e+003, 7.409015e+003
1.242269e+003, 7.409220e+003
1.242751e+003, 7.413782e+003
1.243233e+003, 7.419653e+003
1.243715e+003, 7.422993e+003
1.244197e+003, 7.423497e+003
1.244679e+003, 7.424094e+003
1.245162e+003, 7.424764e+003
1.245644e+003, 7.423036e+003
1.246126e+003, 7.414089e+003
1.246608e+003, 7.407201e+003
1.247090e+003, 7.411336e+003
1.247572e+003, 7.419471e+003
1.248054e+003, 7.423588e+003
1.248536e+003, 7.423804e+003
1.249019e+003, 7.422510e+003
1.249501e+003, 7.420002e+003
1.249983e+003, 7.418181e+003
1.250465e+003, 7.416772e+003
1.250947e+003, 7.418072e+003
1.251429e+003, 7.427177e+003
1.251911e+003, 7.436333e+003
1.252393e+003, 7.436931e+003
1.252875e+003, 7.429549e+003
1.253358e+003, 7.428320e+003
1.253840e+003, 7.432325e+003
1.254322e+003, 7.436219e+003
1.254804e+003, 7.438099e+003
1.255286e+003, 7.437831e+003
1.255768e+003, 7.433422e+003
1.256250e+003, 7.428731e+003
1.256732e+003, 7.426355e+003
1.257214e+003, 7.426538e+003
1.257697e+003, 7.432255e+003
1.258179e+003, 7.442320e+003
1.258661e+003, 7.450804e+003
1.259143e+003, 7.455107e+003
1.259625e+003, 7.457701e+003
1.260107e+003, 7.458481e+003
1.260589e+003, 7.459208e+003
1.261071e+003, 7.461152e+003
1.261554e+003, 7.464272e+003
1.262036e+003, 7.470221e+003
1.262518e+003, 7.477278e+003
1.263000e+003, 7.479938e+003
1.263482e+003, 7.470542e+003
1.263964e+003, 7.464992e+003
1.264446e+003, 7.465402e+003
1.264928e+003, 7.467528e+003
1.265411e+003, 7.468814e+003
1.265893e+003, 7.468802e+003
1.266375e+003, 7.464992e+003
1.266857e+003, 7.459307e+003
1.267339e+003, 7.456967e+003
1.267821e+003, 7.461999e+003
1.268303e+003, 7.466274e+003
1.268785e+003, 7.469960e+003
1.269267e+003, 7.472335e+003
1.269750e+003, 7.472322e+003
1.270232e+003, 7.471163e+003
1.270714e+003, 7.470889e+003
1.271196e+003, 7.470636e+003
1.271678e+003, 7.467825e+003
1.272160e+003, 7.459962e+003
1.272642e+003, 7.457130e+003
1.273124e+003, 7.459899e+003
1.273606e+003, 7.463919e+003
1.274089e+003, 7.465369e+003
1.274571e+003, 7.467075e+003
1.275053e+003, 7.473938e+003
1.275535e+003, 7.481636e+003
1.276017e+003, 7.481971e+003
1.276499e+003, 7.472807e+003
1.276981e+003, 7.471583e+003
1.277463e+003, 7.478524e+003
1.277946e+003, 7.482659e+003
1.278428e+003, 7.473054e+003
1.278910e+003, 7.462844e+003
1.279392e+003, 7.460694e+003
1.279874e+003, 7.462467e+003
1.280356e+003, 7.462857e+003
1.280838e+003, 7.462036e+003
1.281320e+003, 7.466607e+003
1.281802e+003, 7.475773e+003
1.282285e+003, 7.481901e+003
1.282767e+003, 7.476920e+003
1.283249e+003, 7.473272e+003
1.283731e+003, 7.477603e+003
1.284213e+003, 7.482530e+003
1.284695e+003, 7.479917e+003
1.285177e+003, 7.472135e+003
1.285659e+003, 7.471639e+003
1.286141e+003, 7.476887e+003
1.286624e+003, 7.481405e+003
1.287106e+003, 7.480584e+003
1.287588e+003, 7.481784e+003
1.288070e+003, 7.487215e+003
1.288552e+003, 7.492101e+003
1.289034e+003, 7.491194e+003
1.289516e+003, 7.487470e+003
1.289998e+003, 7.487549e+003
1.290481e+003, 7.490463e+003
1.290963e+003, 7.493655e+003
1.291445e+003, 7.499896e+003
1.291927e+003, 7.498373e+003
1.292409e+003, 7.486221e+003
1.292891e+003, 7.477507e+003
1.293373e+003, 7.487473e+003
1.293855e+003, 7.502467e+003
1.294338e+003, 7.503622e+003
1.294820e+003, 7.497485e+003
1.295302e+003, 7.497143e+003
1.295784e+003, 7.506303e+003
1.296266e+003, 7.507891e+003
1.296748e+003, 7.501280e+003
1.297230e+003, 7.498199e+003
1.297712e+003, 7.510367e+003
1.298194e+003, 7.523381e+003
1.298677e+003, 7.525558e+003
1.299159e+003, 7.521694e+003
1.299641e+003, 7.517331e+003
1.300123e+003, 7.512307e+003
1.300605e+003, 7.508747e+003
1.301087e+003, 7.506275e+003
1.301569e+003, 7.501855e+003
1.302051e+003, 7.492139e+003
1.302533e+003, 7.481356e+003
1.303016e+003, 7.470615e+003
##END=



