##NAMES=Chabazite-Na
##RRUFFID=R070440
##IDEAL CHEMISTRY=(Na_3_K)Al_4_Si_8_O_24_&#183;11H_2_O
##LOCALITY=Faraglione dei Ciclopi, Aci Castello, Catania Province, Sicily, Italy
##OWNER=RRUFF
##SOURCE=Michael Scott
##DESCRIPTION=Group of colorless blocky crystals associated with phillipsite-Na, R061094
##STATUS=The identification of this mineral is confirmed by single-crystal X-ray diffraction and chemical analysis.
##URL=rruff.info/R070440
##MEASURED CHEMISTRY=Na_2.00_(Ca_0.75_Na_0.25_)_Σ=1_(Si_7.88_Al_4.12_)O_24_·((H_2_O)_11.64_K_0.21_Na_0.15_)_Σ=12_; H_2_O estimated by difference
143.1732, 1677.089
143.6553, 1722.162
144.1374, 1754.478
144.6195, 1766.641
145.1016, 1777.983
145.5838, 1796.753
146.0659, 1829.008
146.5480, 1856.775
147.0301, 1881.392
147.5122, 1901.623
147.9943, 1912.537
148.4765, 1902.515
148.9586, 1893.831
149.4407, 1898.999
149.9228, 1935.423
150.4049, 1962.912
150.8870, 1972.998
151.3692, 1965.923
151.8513, 1969.167
152.3334, 1991.717
152.8155, 2019.721
153.2976, 2043.258
153.7797, 2059.577
154.2619, 2073.560
154.7440, 2085.380
155.2261, 2094.469
155.7082, 2104.698
156.1903, 2116.811
156.6724, 2130.287
157.1546, 2144.170
157.6367, 2154.995
158.1188, 2169.099
158.6009, 2190.727
159.0830, 2225.549
159.5651, 2253.344
160.0473, 2266.905
160.5294, 2270.187
161.0115, 2270.722
161.4936, 2267.575
161.9757, 2264.534
162.4578, 2263.700
162.9400, 2266.014
163.4221, 2269.628
163.9042, 2275.063
164.3863, 2281.554
164.8684, 2286.567
165.3505, 2285.939
165.8327, 2284.775
166.3148, 2287.415
166.7969, 2299.663
167.2790, 2311.383
167.7611, 2315.418
168.2433, 2312.708
168.7254, 2311.250
169.2075, 2319.587
169.6896, 2330.633
170.1717, 2336.021
170.6538, 2324.245
171.1360, 2311.117
171.6181, 2310.921
172.1002, 2324.296
172.5823, 2337.742
173.0644, 2341.039
173.5465, 2337.630
174.0287, 2333.774
174.5108, 2330.416
174.9929, 2328.902
175.4750, 2332.220
175.9571, 2341.576
176.4392, 2349.856
176.9214, 2348.210
177.4035, 2339.608
177.8856, 2332.261
178.3677, 2331.595
178.8498, 2334.781
179.3319, 2338.289
179.8141, 2342.784
180.2962, 2344.669
180.7783, 2335.872
181.2604, 2318.799
181.7425, 2305.290
182.2246, 2306.909
182.7068, 2317.870
183.1889, 2324.592
183.6710, 2323.960
184.1531, 2318.904
184.6352, 2313.385
185.1173, 2307.371
185.5995, 2301.178
186.0816, 2295.834
186.5637, 2290.739
187.0458, 2282.804
187.5279, 2268.321
188.0100, 2252.510
188.4922, 2250.492
188.9743, 2263.128
189.4564, 2276.566
189.9385, 2274.290
190.4206, 2258.744
190.9027, 2249.064
191.3849, 2254.127
191.8670, 2269.320
192.3491, 2276.406
192.8312, 2274.279
193.3133, 2269.825
193.7954, 2273.627
194.2776, 2285.396
194.7597, 2290.556
195.2418, 2277.421
195.7239, 2249.878
196.2060, 2241.827
196.6881, 2257.839
197.1703, 2282.053
197.6524, 2290.801
198.1345, 2283.107
198.6166, 2273.544
199.0987, 2267.856
199.5808, 2266.045
200.0630, 2267.158
200.5451, 2273.430
201.0272, 2279.092
201.5093, 2270.178
201.9914, 2243.083
202.4735, 2219.939
202.9557, 2214.143
203.4378, 2227.433
203.9199, 2237.177
204.4020, 2241.460
204.8841, 2242.273
205.3662, 2244.943
205.8484, 2250.334
206.3305, 2254.641
206.8126, 2255.801
207.2947, 2253.693
207.7768, 2248.625
208.2589, 2238.923
208.7411, 2226.875
209.2232, 2221.099
209.7053, 2223.301
210.1874, 2227.707
210.6695, 2231.863
211.1517, 2237.239
211.6338, 2235.160
212.1159, 2220.763
212.5980, 2197.519
213.0801, 2187.889
213.5622, 2198.089
214.0444, 2210.350
214.5265, 2207.809
215.0086, 2183.008
215.4907, 2168.100
215.9728, 2171.847
216.4549, 2192.268
216.9371, 2202.313
217.4192, 2198.690
217.9013, 2189.391
218.3834, 2181.305
218.8655, 2174.177
219.3476, 2169.044
219.8298, 2166.479
220.3119, 2166.523
220.7940, 2167.126
221.2761, 2169.905
221.7582, 2171.379
222.2403, 2166.129
222.7225, 2148.657
223.2046, 2137.651
223.6867, 2140.644
224.1688, 2159.833
224.6509, 2166.896
225.1330, 2155.321
225.6152, 2137.790
226.0973, 2131.214
226.5794, 2140.239
227.0615, 2150.966
227.5436, 2161.260
228.0257, 2172.575
228.5079, 2174.452
228.9900, 2162.646
229.4721, 2144.603
229.9542, 2130.420
230.4363, 2119.076
230.9184, 2113.517
231.4006, 2115.310
231.8827, 2125.921
232.3648, 2138.383
232.8469, 2155.999
233.3290, 2173.629
233.8111, 2181.708
234.2933, 2174.537
234.7754, 2167.348
235.2575, 2166.251
235.7396, 2175.108
236.2217, 2176.864
236.7038, 2166.357
237.1860, 2151.116
237.6681, 2146.898
238.1502, 2160.436
238.6323, 2174.383
239.1144, 2182.678
239.5965, 2183.975
240.0787, 2182.961
240.5608, 2179.303
241.0429, 2173.458
241.5250, 2165.885
242.0071, 2153.903
242.4892, 2144.243
242.9714, 2140.168
243.4535, 2144.303
243.9356, 2147.602
244.4177, 2149.011
244.8998, 2149.849
245.3819, 2153.987
245.8641, 2164.020
246.3462, 2173.564
246.8283, 2178.731
247.3104, 2174.687
247.7925, 2178.682
248.2746, 2197.339
248.7568, 2222.750
249.2389, 2230.670
249.7210, 2209.686
250.2031, 2188.495
250.6852, 2181.878
251.1674, 2198.025
251.6495, 2209.184
252.1316, 2212.844
252.6137, 2211.267
253.0958, 2211.316
253.5779, 2213.098
254.0601, 2216.360
254.5422, 2221.635
255.0243, 2231.167
255.5064, 2236.682
255.9885, 2236.630
256.4706, 2232.512
256.9528, 2228.689
257.4349, 2223.267
257.9170, 2221.285
258.3991, 2227.072
258.8812, 2246.023
259.3633, 2256.870
259.8455, 2254.611
260.3276, 2244.240
260.8097, 2244.913
261.2918, 2263.849
261.7739, 2280.624
262.2560, 2280.624
262.7382, 2253.227
263.2203, 2242.601
263.7024, 2258.450
264.1845, 2291.064
264.6666, 2306.379
265.1487, 2299.103
265.6309, 2285.174
266.1130, 2271.495
266.5951, 2254.750
267.0772, 2251.489
267.5593, 2268.699
268.0414, 2298.160
268.5236, 2310.239
269.0057, 2299.917
269.4878, 2284.584
269.9699, 2271.801
270.4520, 2259.379
270.9341, 2262.238
271.4163, 2288.472
271.8984, 2327.427
272.3805, 2343.562
272.8626, 2330.170
273.3447, 2314.168
273.8268, 2313.805
274.3090, 2332.086
274.7911, 2344.928
275.2732, 2349.245
275.7553, 2347.341
276.2374, 2345.064
276.7195, 2342.419
277.2017, 2339.296
277.6838, 2334.254
278.1659, 2326.726
278.6480, 2324.656
279.1301, 2329.617
279.6122, 2339.575
280.0944, 2351.316
280.5765, 2365.533
281.0586, 2377.194
281.5407, 2382.178
282.0228, 2380.430
282.5049, 2379.689
282.9871, 2381.583
283.4692, 2383.594
283.9513, 2377.786
284.4334, 2363.157
284.9155, 2352.428
285.3976, 2355.869
285.8798, 2372.271
286.3619, 2385.750
286.8440, 2395.363
287.3261, 2400.767
287.8082, 2399.101
288.2903, 2390.283
288.7725, 2383.336
289.2546, 2384.345
289.7367, 2392.202
290.2188, 2401.233
290.7009, 2411.723
291.1830, 2421.505
291.6652, 2426.618
292.1473, 2427.298
292.6294, 2426.243
293.1115, 2425.266
293.5936, 2423.839
294.0757, 2418.374
294.5579, 2406.639
295.0400, 2396.822
295.5221, 2406.164
296.0042, 2430.865
296.4863, 2447.876
296.9684, 2434.831
297.4506, 2405.940
297.9327, 2397.301
298.4148, 2414.219
298.8969, 2438.572
299.3790, 2448.379
299.8611, 2446.958
300.3433, 2445.311
300.8254, 2450.832
301.3075, 2459.273
301.7896, 2463.008
302.2717, 2461.121
302.7538, 2457.993
303.2360, 2456.484
303.7181, 2456.981
304.2002, 2460.451
304.6823, 2471.080
305.1644, 2483.240
305.6465, 2488.813
306.1287, 2486.937
306.6108, 2485.193
307.0929, 2490.094
307.5750, 2499.480
308.0571, 2509.583
308.5392, 2524.095
309.0214, 2535.173
309.5035, 2531.443
309.9856, 2512.093
310.4677, 2497.950
310.9498, 2507.650
311.4319, 2529.937
311.9141, 2549.208
312.3962, 2560.186
312.8783, 2565.961
313.3604, 2565.854
313.8426, 2560.262
314.3247, 2557.632
314.8068, 2563.960
315.2889, 2575.047
315.7710, 2586.504
316.2531, 2601.760
316.7353, 2612.896
317.2174, 2613.797
317.6995, 2605.513
318.1816, 2598.895
318.6637, 2594.350
319.1458, 2595.178
319.6280, 2604.028
320.1101, 2635.791
320.5922, 2661.193
321.0743, 2668.342
321.5564, 2660.273
322.0385, 2654.065
322.5207, 2659.076
323.0028, 2664.195
323.4849, 2662.290
323.9670, 2634.794
324.4491, 2621.064
324.9312, 2635.505
325.4134, 2670.462
325.8955, 2697.135
326.3776, 2711.710
326.8597, 2717.552
327.3418, 2715.658
327.8239, 2695.663
328.3061, 2682.715
328.7882, 2682.622
329.2703, 2690.082
329.7524, 2691.226
330.2345, 2673.908
330.7166, 2662.203
331.1988, 2666.756
331.6809, 2699.488
332.1630, 2720.629
332.6451, 2725.753
333.1272, 2720.867
333.6093, 2716.649
334.0915, 2711.965
334.5736, 2709.806
335.0557, 2713.236
335.5378, 2725.751
336.0199, 2725.154
336.5020, 2701.960
336.9842, 2674.802
337.4663, 2672.420
337.9484, 2705.707
338.4305, 2734.006
338.9126, 2743.736
339.3947, 2734.678
339.8769, 2734.794
340.3590, 2748.579
340.8411, 2762.401
341.3232, 2756.383
341.8053, 2726.408
342.2874, 2710.124
342.7696, 2724.427
343.2517, 2760.623
343.7338, 2769.164
344.2159, 2746.599
344.6980, 2715.649
345.1801, 2692.917
345.6623, 2678.662
346.1444, 2675.305
346.6265, 2687.672
347.1086, 2707.511
347.5907, 2716.526
348.0728, 2714.600
348.5550, 2706.280
349.0371, 2688.224
349.5192, 2665.591
350.0013, 2656.407
350.4834, 2667.242
350.9655, 2685.975
351.4477, 2697.773
351.9298, 2702.956
352.4119, 2702.120
352.8940, 2691.120
353.3761, 2675.520
353.8582, 2663.526
354.3404, 2655.498
354.8225, 2653.679
355.3046, 2664.935
355.7867, 2684.475
356.2688, 2700.792
356.7509, 2706.560
357.2331, 2707.385
357.7152, 2708.365
358.1973, 2710.031
358.6794, 2710.258
359.1615, 2708.948
359.6436, 2705.071
360.1258, 2697.186
360.6079, 2676.597
361.0900, 2658.556
361.5721, 2652.826
362.0542, 2659.510
362.5363, 2667.266
363.0185, 2672.344
363.5006, 2676.017
363.9827, 2679.372
364.4648, 2690.632
364.9469, 2693.502
365.4290, 2676.202
365.9112, 2642.750
366.3933, 2620.616
366.8754, 2619.078
367.3575, 2627.609
367.8396, 2640.361
368.3217, 2669.439
368.8039, 2687.140
369.2860, 2683.228
369.7681, 2665.816
370.2502, 2659.428
370.7323, 2678.001
371.2144, 2693.635
371.6966, 2694.302
372.1787, 2670.388
372.6608, 2655.451
373.1429, 2650.474
373.6250, 2653.972
374.1071, 2665.457
374.5893, 2692.433
375.0714, 2712.233
375.5535, 2716.025
376.0356, 2702.710
376.5177, 2688.829
376.9998, 2670.719
377.4820, 2658.547
377.9641, 2669.114
378.4462, 2707.185
378.9283, 2736.310
379.4104, 2744.831
379.8925, 2737.306
380.3747, 2735.693
380.8568, 2741.232
381.3389, 2744.889
381.8210, 2715.080
382.3031, 2740.833
382.7852, 2756.247
383.2674, 2761.880
383.7495, 2728.430
384.2316, 2745.446
384.7137, 2742.238
385.1958, 2738.200
385.6779, 2762.320
386.1601, 2734.555
386.6422, 2758.228
387.1243, 2761.367
387.6064, 2773.904
388.0885, 2766.092
388.5706, 2764.565
389.0528, 2783.394
389.5349, 2790.952
390.0170, 2780.797
390.4991, 2793.931
390.9812, 2765.455
391.4633, 2773.492
391.9455, 2797.285
392.4276, 2788.153
392.9097, 2801.659
393.3918, 2806.544
393.8739, 2772.246
394.3561, 2796.112
394.8382, 2787.634
395.3203, 2781.727
395.8024, 2786.092
396.2845, 2795.007
396.7667, 2804.791
397.2488, 2820.337
397.7309, 2829.699
398.2130, 2827.116
398.6951, 2816.138
399.1772, 2807.931
399.6594, 2798.589
400.1415, 2796.777
400.6236, 2808.105
401.1057, 2844.912
401.5878, 2864.908
402.0699, 2857.113
402.5521, 2837.855
403.0342, 2831.551
403.5163, 2845.241
403.9984, 2859.345
404.4805, 2868.358
404.9626, 2872.068
405.4448, 2880.200
405.9269, 2895.518
406.4090, 2910.180
406.8911, 2916.193
407.3732, 2912.557
407.8553, 2906.678
408.3375, 2899.209
408.8196, 2890.834
409.3017, 2881.601
409.7838, 2870.829
410.2659, 2866.854
410.7480, 2883.903
411.2302, 2915.624
411.7123, 2926.448
412.1944, 2907.729
412.6765, 2880.711
413.1586, 2874.024
413.6407, 2884.429
414.1229, 2897.638
414.6050, 2911.321
415.0871, 2921.759
415.5692, 2920.807
416.0513, 2907.735
416.5334, 2893.958
417.0156, 2885.933
417.4977, 2883.442
417.9798, 2886.261
418.4619, 2902.691
418.9440, 2917.144
419.4261, 2915.709
419.9083, 2901.541
420.3904, 2893.115
420.8725, 2905.618
421.3546, 2922.723
421.8367, 2932.588
422.3188, 2929.625
422.8010, 2925.399
423.2831, 2916.645
423.7652, 2908.867
424.2473, 2913.434
424.7294, 2953.598
425.2115, 2986.457
425.6937, 2994.793
426.1758, 2969.288
426.6579, 2954.848
427.1400, 2954.727
427.6221, 2963.441
428.1042, 2976.719
428.5864, 3000.102
429.0685, 3016.190
429.5506, 3017.283
430.0327, 3006.933
430.5148, 3014.386
430.9969, 3046.640
431.4791, 3079.964
431.9612, 3097.321
432.4433, 3098.008
432.9254, 3094.594
433.4075, 3085.403
433.8896, 3077.263
434.3718, 3086.524
434.8539, 3112.634
435.3360, 3136.144
435.8181, 3146.384
436.3002, 3146.560
436.7823, 3141.147
437.2645, 3129.090
437.7466, 3124.773
438.2287, 3149.091
438.7108, 3191.625
439.1929, 3229.515
439.6750, 3252.831
440.1572, 3269.866
440.6393, 3289.214
441.1214, 3309.640
441.6035, 3325.051
442.0856, 3326.811
442.5677, 3324.915
443.0499, 3327.233
443.5320, 3334.528
444.0141, 3347.785
444.4962, 3375.334
444.9783, 3407.894
445.4604, 3429.923
445.9426, 3422.783
446.4247, 3418.171
446.9068, 3426.700
447.3889, 3449.933
447.8710, 3478.064
448.3531, 3516.396
448.8353, 3555.631
449.3174, 3590.111
449.7995, 3625.933
450.2816, 3645.415
450.7637, 3636.399
451.2458, 3610.008
451.7280, 3613.178
452.2101, 3657.963
452.6922, 3703.293
453.1743, 3726.471
453.6564, 3724.645
454.1385, 3727.395
454.6207, 3734.917
455.1028, 3747.633
455.5849, 3769.454
456.0670, 3799.547
456.5491, 3824.787
457.0313, 3836.823
457.5134, 3842.398
457.9955, 3859.278
458.4776, 3887.152
458.9597, 3913.762
459.4418, 3929.288
459.9240, 3937.014
460.4061, 3941.250
460.8882, 3939.940
461.3703, 3942.213
461.8524, 3959.223
462.3345, 3986.079
462.8167, 4011.132
463.2988, 4026.483
463.7809, 4039.831
464.2630, 4055.308
464.7451, 4073.243
465.2272, 4092.666
465.7094, 4109.814
466.1915, 4129.727
466.6736, 4157.189
467.1557, 4206.408
467.6378, 4247.958
468.1199, 4274.424
468.6021, 4289.088
469.0842, 4305.239
469.5663, 4322.960
470.0484, 4341.998
470.5305, 4362.698
471.0126, 4385.722
471.4948, 4407.922
471.9769, 4428.920
472.4590, 4449.770
472.9411, 4470.677
473.4232, 4490.614
473.9053, 4517.794
474.3875, 4560.321
474.8696, 4610.567
475.3517, 4631.358
475.8338, 4621.219
476.3159, 4611.653
476.7981, 4630.889
477.2802, 4670.582
477.7623, 4705.446
478.2444, 4731.489
478.7265, 4753.083
479.2086, 4775.371
479.6908, 4797.071
480.1729, 4814.702
480.6550, 4823.428
481.1371, 4829.571
481.6192, 4839.423
482.1013, 4852.978
482.5835, 4863.318
483.0656, 4863.276
483.5477, 4860.371
484.0298, 4861.228
484.5119, 4875.778
484.9940, 4882.848
485.4762, 4871.457
485.9583, 4849.063
486.4404, 4834.868
486.9225, 4848.729
487.4046, 4852.950
487.8867, 4832.344
488.3689, 4779.845
488.8510, 4745.969
489.3331, 4741.157
489.8152, 4742.062
490.2973, 4722.594
490.7794, 4675.232
491.2616, 4641.869
491.7437, 4634.455
492.2258, 4641.015
492.7079, 4628.487
493.1900, 4596.410
493.6721, 4556.604
494.1543, 4511.847
494.6364, 4464.743
495.1185, 4425.161
495.6006, 4394.672
496.0827, 4367.833
496.5648, 4340.589
497.0470, 4313.243
497.5291, 4287.058
498.0112, 4261.677
498.4933, 4237.911
498.9754, 4221.839
499.4576, 4209.531
499.9397, 4186.832
500.4218, 4135.175
500.9039, 4079.256
501.3860, 4035.114
501.8681, 4009.324
502.3503, 3981.729
502.8324, 3946.581
503.3145, 3907.675
503.7966, 3869.569
504.2787, 3824.069
504.7608, 3789.562
505.2430, 3773.809
505.7251, 3773.219
506.2072, 3762.390
506.6893, 3738.632
507.1714, 3709.371
507.6535, 3677.697
508.1357, 3643.527
508.6178, 3607.937
509.0999, 3570.060
509.5820, 3533.333
510.0641, 3502.407
510.5462, 3477.009
511.0284, 3455.601
511.5105, 3439.260
511.9926, 3424.897
512.4747, 3405.640
512.9568, 3382.077
513.4389, 3359.136
513.9210, 3341.075
514.4031, 3325.156
514.8853, 3307.538
515.3674, 3286.571
515.8495, 3268.089
516.3316, 3257.716
516.8137, 3251.463
517.2958, 3243.813
517.7780, 3226.531
518.2601, 3214.041
518.7422, 3218.307
519.2244, 3236.344
519.7065, 3238.164
520.1886, 3201.264
520.6707, 3164.070
521.1528, 3144.396
521.6349, 3151.497
522.1171, 3152.281
522.5992, 3145.203
523.0813, 3133.318
523.5634, 3119.656
524.0455, 3103.603
524.5276, 3089.178
525.0098, 3077.875
525.4919, 3068.759
525.9740, 3056.260
526.4561, 3040.083
526.9382, 3029.517
527.4203, 3036.410
527.9025, 3052.831
528.3846, 3058.430
528.8667, 3049.961
529.3488, 3039.640
529.8309, 3041.969
530.3130, 3049.691
530.7952, 3051.026
531.2773, 3037.567
531.7594, 3019.974
532.2415, 2998.530
532.7236, 2976.011
533.2057, 2965.269
533.6879, 2979.917
534.1700, 2999.540
534.6521, 3014.542
535.1342, 3023.295
535.6163, 3029.789
536.0984, 3037.612
536.5806, 3040.806
537.0627, 3031.484
537.5448, 3001.983
538.0269, 2978.341
538.5090, 2965.717
538.9911, 2961.244
539.4733, 2956.062
539.9554, 2949.691
540.4375, 2945.816
540.9196, 2946.781
541.4017, 2952.018
541.8839, 2961.137
542.3660, 2974.956
542.8481, 2984.490
543.3302, 2976.798
543.8123, 2959.292
544.2944, 2946.669
544.7766, 2944.267
545.2587, 2945.956
545.7408, 2948.107
546.2229, 2950.706
546.7050, 2953.763
547.1871, 2958.619
547.6693, 2962.786
548.1514, 2964.085
548.6335, 2961.896
549.1156, 2962.366
549.5977, 2973.449
550.0798, 2982.659
550.5620, 2980.166
551.0441, 2951.911
551.5262, 2941.095
552.0083, 2958.591
552.4904, 2987.772
552.9725, 2993.607
553.4547, 2971.221
553.9368, 2950.848
554.4189, 2942.673
554.9010, 2944.768
555.3831, 2952.891
555.8652, 2967.224
556.3474, 2978.236
556.8295, 2973.628
557.3116, 2961.080
557.7937, 2958.192
558.2758, 2969.727
558.7579, 2980.659
559.2401, 2971.773
559.7222, 2955.156
560.2043, 2949.581
560.6864, 2979.600
561.1685, 3005.237
561.6506, 3004.600
562.1328, 2982.498
562.6149, 2965.661
563.0970, 2958.273
563.5791, 2958.125
564.0612, 2966.352
564.5433, 2987.967
565.0255, 2997.592
565.5076, 2987.744
565.9897, 2974.680
566.4718, 2978.094
566.9539, 3002.366
567.4360, 3014.168
567.9182, 3004.956
568.4003, 2984.381
568.8824, 2973.455
569.3645, 2971.380
569.8466, 2967.137
570.3287, 2944.539
570.8109, 2920.023
571.2930, 2929.353
571.7751, 2971.328
572.2572, 3008.180
572.7393, 3011.096
573.2214, 2997.028
573.7036, 2981.573
574.1857, 2963.507
574.6678, 2954.798
575.1499, 2968.989
575.6320, 2992.905
576.1141, 3007.439
576.5963, 2997.218
577.0784, 2991.442
577.5605, 2998.948
578.0426, 3016.491
578.5247, 3022.780
579.0068, 3012.987
579.4890, 3001.714
579.9711, 2996.136
580.4532, 2996.548
580.9353, 2999.221
581.4174, 3005.239
581.8995, 3009.005
582.3817, 3001.484
582.8638, 2985.905
583.3459, 2974.272
583.8280, 2970.041
584.3101, 2969.742
584.7922, 2970.843
585.2744, 2972.905
585.7565, 2974.828
586.2386, 2973.432
586.7207, 2973.958
587.2028, 2982.225
587.6849, 2997.897
588.1671, 3007.813
588.6492, 3002.040
589.1313, 2994.010
589.6134, 2992.194
590.0955, 3000.855
590.5776, 3006.437
591.0598, 3007.112
591.5419, 3006.348
592.0240, 3011.815
592.5061, 3027.697
592.9882, 3025.645
593.4703, 2990.115
593.9525, 2942.074
594.4346, 2941.295
594.9167, 2984.402
595.3988, 3023.889
595.8809, 3030.368
596.3630, 3016.597
596.8452, 2998.268
597.3273, 2976.553
597.8094, 2962.328
598.2915, 2968.487
598.7736, 2982.965
599.2557, 2994.369
599.7379, 2999.614
600.2200, 3002.693
600.7021, 3004.105
601.1842, 3004.181
601.6663, 3003.264
602.1484, 2996.923
602.6306, 2996.141
603.1127, 3006.189
603.5948, 3023.642
604.0769, 3029.513
604.5590, 3020.311
605.0411, 3010.889
605.5233, 3009.984
606.0054, 3016.457
606.4875, 3020.793
606.9696, 3022.908
607.4517, 3023.376
607.9338, 3022.139
608.4160, 3019.700
608.8981, 3015.476
609.3802, 3005.785
609.8623, 3003.757
610.3444, 3034.502
610.8265, 3076.814
611.3087, 3095.742
611.7908, 3051.179
612.2729, 3009.216
612.7550, 2995.269
613.2371, 3006.066
613.7192, 3014.156
614.2014, 3013.342
614.6835, 3016.294
615.1656, 3032.596
615.6477, 3066.161
616.1298, 3071.743
616.6119, 3040.956
617.0941, 3003.751
617.5762, 2988.992
618.0583, 2994.077
618.5404, 2998.159
619.0225, 2997.725
619.5046, 2996.559
619.9868, 3001.614
620.4689, 3009.704
620.9510, 3013.271
621.4331, 2999.779
621.9152, 2988.846
622.3973, 2999.260
622.8795, 3024.937
623.3616, 3040.691
623.8437, 3023.924
624.3258, 3007.774
624.8079, 3010.957
625.2900, 3038.856
625.7722, 3052.891
626.2543, 3045.491
626.7364, 3033.638
627.2185, 3030.569
627.7006, 3038.028
628.1827, 3042.947
628.6649, 3043.945
629.1470, 3043.225
629.6291, 3044.246
630.1112, 3046.510
630.5933, 3047.674
631.0754, 3048.147
631.5576, 3045.717
632.0397, 3032.413
632.5218, 3012.958
633.0039, 3002.381
633.4860, 3013.298
633.9681, 3031.242
634.4503, 3052.730
634.9324, 3077.655
635.4145, 3089.390
635.8966, 3068.666
636.3787, 3046.440
636.8608, 3039.524
637.3430, 3053.544
637.8251, 3068.082
638.3072, 3084.434
638.7893, 3099.104
639.2714, 3109.777
639.7535, 3116.422
640.2357, 3108.982
640.7178, 3062.206
641.1999, 3088.427
641.6820, 3104.309
642.1641, 3110.409
642.6462, 3077.426
643.1284, 3094.911
643.6105, 3092.170
644.0926, 3088.601
644.5747, 3113.188
645.0568, 3085.890
645.5389, 3110.030
646.0211, 3113.638
646.5032, 3126.643
646.9853, 3119.298
647.4674, 3118.239
647.9495, 3137.536
648.4316, 3145.561
648.9138, 3133.188
649.3959, 3124.909
649.8780, 3121.168
650.3601, 3125.949
650.8422, 3131.743
651.3243, 3124.399
651.8065, 3106.886
652.2886, 3094.521
652.7707, 3093.745
653.2528, 3098.666
653.7349, 3104.543
654.2170, 3110.854
654.6992, 3115.896
655.1813, 3122.829
655.6634, 3124.804
656.1455, 3114.797
656.6276, 3092.657
657.1097, 3076.937
657.5919, 3070.257
658.0740, 3070.196
658.5561, 3078.112
659.0382, 3098.442
659.5203, 3105.203
660.0024, 3093.995
660.4846, 3079.710
660.9667, 3080.460
661.4488, 3094.178
661.9309, 3101.486
662.4130, 3097.557
662.8951, 3090.706
663.3773, 3090.736
663.8594, 3095.802
664.3415, 3102.031
664.8236, 3113.462
665.3057, 3120.264
665.7878, 3110.388
666.2700, 3090.255
666.7521, 3081.698
667.2342, 3107.669
667.7163, 3127.994
668.1984, 3126.681
668.6805, 3103.870
669.1627, 3091.298
669.6448, 3092.313
670.1269, 3095.950
670.6090, 3094.742
671.0911, 3089.040
671.5732, 3087.893
672.0554, 3092.540
672.5375, 3094.137
673.0196, 3076.407
673.5017, 3050.686
673.9838, 3040.060
674.4659, 3054.719
674.9481, 3072.337
675.4302, 3079.362
675.9123, 3080.056
676.3944, 3080.782
676.8765, 3084.362
677.3586, 3086.735
677.8408, 3087.704
678.3229, 3086.888
678.8050, 3082.085
679.2871, 3069.910
679.7692, 3062.410
680.2513, 3065.308
680.7335, 3076.230
681.2156, 3083.256
681.6977, 3086.412
682.1799, 3087.605
682.6620, 3085.157
683.1441, 3082.710
683.6262, 3088.726
684.1083, 3103.781
684.5905, 3115.417
685.0726, 3110.683
685.5547, 3101.689
686.0368, 3099.925
686.5189, 3113.917
687.0010, 3120.582
687.4832, 3108.122
687.9653, 3091.663
688.4474, 3087.693
688.9295, 3102.961
689.4116, 3110.767
689.8937, 3106.303
690.3759, 3094.867
690.8580, 3085.562
691.3401, 3078.325
691.8222, 3072.004
692.3043, 3062.785
692.7864, 3057.582
693.2686, 3071.382
693.7507, 3098.965
694.2328, 3120.966
694.7149, 3124.882
695.1970, 3123.314
695.6791, 3122.540
696.1613, 3122.936
696.6434, 3123.546
697.1255, 3122.655
697.6076, 3123.678
698.0897, 3131.077
698.5718, 3148.170
699.0540, 3143.880
699.5361, 3110.961
700.0182, 3078.652
700.5003, 3078.983
700.9824, 3105.001
701.4645, 3122.843
701.9467, 3127.397
702.4288, 3127.674
702.9109, 3133.470
703.3930, 3140.409
703.8751, 3141.699
704.3572, 3131.463
704.8394, 3120.967
705.3215, 3112.678
705.8036, 3107.275
706.2857, 3106.333
706.7678, 3113.470
707.2499, 3119.281
707.7321, 3122.951
708.2142, 3123.965
708.6963, 3117.580
709.1784, 3102.193
709.6605, 3094.959
710.1426, 3108.339
710.6248, 3133.199
711.1069, 3148.442
711.5890, 3154.937
712.0711, 3158.037
712.5532, 3162.314
713.0353, 3163.820
713.5175, 3157.359
713.9996, 3142.070
714.4817, 3129.625
714.9638, 3126.175
715.4459, 3124.175
715.9280, 3118.614
716.4102, 3107.182
716.8923, 3100.151
717.3744, 3098.683
717.8565, 3099.302
718.3386, 3096.757
718.8207, 3091.922
719.3029, 3095.883
719.7850, 3112.180
720.2671, 3129.380
720.7492, 3135.793
721.2313, 3133.276
721.7134, 3124.474
722.1956, 3102.857
722.6777, 3085.844
723.1598, 3083.039
723.6419, 3090.043
724.1240, 3098.236
724.6061, 3109.208
725.0883, 3117.810
725.5704, 3123.307
726.0525, 3125.849
726.5346, 3125.414
727.0167, 3121.686
727.4988, 3117.297
727.9810, 3111.375
728.4631, 3106.628
728.9452, 3114.093
729.4273, 3131.162
729.9094, 3141.080
730.3915, 3122.221
730.8737, 3100.212
731.3558, 3098.281
731.8379, 3117.875
732.3200, 3133.482
732.8021, 3139.922
733.2842, 3138.371
733.7664, 3127.364
734.2485, 3102.659
734.7306, 3090.623
735.2127, 3093.888
735.6948, 3103.624
736.1769, 3115.852
736.6591, 3129.182
737.1412, 3131.912
737.6233, 3121.974
738.1054, 3108.969
738.5875, 3099.098
739.0696, 3093.246
739.5518, 3093.420
740.0339, 3103.422
740.5160, 3112.422
740.9981, 3115.547
741.4802, 3115.604
741.9623, 3116.396
742.4445, 3118.307
742.9266, 3120.800
743.4087, 3124.695
743.8908, 3128.354
744.3729, 3126.973
744.8550, 3120.518
745.3372, 3118.664
745.8193, 3127.233
746.3014, 3137.836
746.7835, 3134.560
747.2656, 3122.148
747.7477, 3114.609
748.2299, 3127.385
748.7120, 3138.829
749.1941, 3132.184
749.6762, 3111.952
750.1583, 3104.051
750.6404, 3126.334
751.1226, 3141.748
751.6047, 3134.677
752.0868, 3108.504
752.5689, 3102.578
753.0510, 3119.728
753.5331, 3134.770
754.0153, 3125.533
754.4974, 3104.084
754.9795, 3101.386
755.4616, 3117.023
755.9437, 3132.368
756.4258, 3135.790
756.9080, 3133.361
757.3901, 3128.950
757.8722, 3122.550
758.3543, 3116.920
758.8364, 3112.579
759.3185, 3109.012
759.8007, 3105.376
760.2828, 3100.589
760.7649, 3100.723
761.2470, 3106.113
761.7291, 3115.361
762.2112, 3131.244
762.6934, 3150.051
763.1755, 3158.699
763.6576, 3153.995
764.1397, 3144.770
764.6218, 3132.451
765.1039, 3121.934
765.5861, 3119.307
766.0682, 3132.152
766.5503, 3143.056
767.0324, 3150.938
767.5145, 3154.414
767.9966, 3150.885
768.4788, 3138.476
768.9609, 3125.578
769.4430, 3111.585
769.9251, 3101.130
770.4072, 3106.665
770.8893, 3123.824
771.3715, 3133.602
771.8536, 3126.346
772.3357, 3114.906
772.8178, 3106.185
773.2999, 3101.838
773.7820, 3105.138
774.2642, 3133.342
774.7463, 3150.261
775.2284, 3139.439
775.7105, 3112.693
776.1926, 3101.983
776.6747, 3112.071
777.1569, 3099.994
777.6390, 3123.121
778.1211, 3135.911
778.6032, 3138.918
779.0853, 3102.843
779.5674, 3117.234
780.0496, 3111.401
780.5317, 3104.739
781.0138, 3126.233
781.4959, 3095.842
781.9780, 3116.890
782.4601, 3117.405
782.9423, 3127.317
783.4244, 3116.879
783.9065, 3112.727
784.3886, 3128.931
784.8707, 3133.864
785.3528, 3121.083
785.8350, 3131.593
786.3171, 3100.491
786.7992, 3105.904
787.2813, 3127.071
787.7634, 3115.314
788.2455, 3126.196
788.7277, 3128.455
789.2098, 3091.531
789.6919, 3122.751
790.1740, 3124.501
790.6561, 3095.992
791.1382, 3124.877
791.6204, 3100.540
792.1025, 3095.199
792.5846, 3104.156
793.0667, 3098.208
793.5488, 3115.758
794.0309, 3110.671
794.5131, 3103.562
794.9952, 3105.279
795.4773, 3081.985
795.9594, 3096.672
796.4415, 3111.999
796.9236, 3129.020
797.4058, 3129.315
797.8879, 3103.944
798.3700, 3086.709
798.8521, 3081.643
799.3342, 3084.750
799.8163, 3097.175
800.2985, 3122.130
800.7806, 3127.695
801.2627, 3109.569
801.7448, 3090.191
802.2269, 3097.274
802.7090, 3118.631
803.1912, 3130.549
803.6733, 3128.740
804.1554, 3120.918
804.6375, 3103.520
805.1196, 3087.064
805.6017, 3081.565
806.0839, 3095.963
806.5660, 3108.066
807.0481, 3120.360
807.5302, 3127.243
808.0123, 3120.726
808.4944, 3100.804
808.9766, 3083.539
809.4587, 3070.631
809.9408, 3060.428
810.4229, 3051.171
810.9050, 3043.195
811.3871, 3036.086
811.8693, 3027.192
812.3514, 3026.208
812.8335, 3046.757
813.3156, 3072.477
813.7977, 3084.575
814.2798, 3075.626
814.7620, 3069.199
815.2441, 3066.861
815.7262, 3066.263
816.2083, 3064.765
816.6904, 3062.391
817.1725, 3058.861
817.6547, 3053.573
818.1368, 3049.305
818.6189, 3048.359
819.1010, 3050.171
819.5831, 3054.462
820.0652, 3067.092
820.5474, 3072.562
821.0295, 3059.423
821.5116, 3042.518
821.9937, 3037.859
822.4758, 3047.727
822.9579, 3061.226
823.4401, 3079.064
823.9222, 3094.843
824.4043, 3096.717
824.8864, 3088.969
825.3685, 3083.898
825.8506, 3087.307
826.3328, 3087.573
826.8149, 3070.198
827.2970, 3047.628
827.7791, 3035.982
828.2612, 3047.674
828.7433, 3057.868
829.2255, 3067.479
829.7076, 3073.645
830.1897, 3069.496
830.6718, 3055.096
831.1539, 3048.866
831.6360, 3055.487
832.1182, 3066.977
832.6003, 3082.979
833.0824, 3094.794
833.5645, 3084.847
834.0466, 3023.507
834.5287, 2983.081
835.0109, 3008.105
835.4930, 3059.528
835.9751, 3084.156
836.4572, 3072.327
836.9393, 3059.695
837.4214, 3048.953
837.9036, 3039.792
838.3857, 3032.265
838.8678, 3025.991
839.3499, 3018.884
839.8320, 3008.966
840.3141, 3002.976
840.7963, 3011.243
841.2784, 3024.717
841.7605, 3031.947
842.2426, 3017.882
842.7247, 3016.253
843.2068, 3038.384
843.6890, 3064.915
844.1711, 3069.495
844.6532, 3050.658
845.1353, 3040.917
845.6174, 3045.932
846.0995, 3055.702
846.5817, 3059.308
847.0638, 3059.057
847.5460, 3058.757
848.0281, 3059.004
848.5102, 3060.188
848.9923, 3064.799
849.4744, 3069.104
849.9565, 3069.020
850.4387, 3062.426
850.9208, 3056.468
851.4029, 3050.930
851.8850, 3047.201
852.3671, 3049.840
852.8492, 3056.025
853.3314, 3052.329
853.8135, 3034.046
854.2956, 3020.540
854.7777, 3033.511
855.2598, 3055.570
855.7419, 3068.809
856.2241, 3065.625
856.7062, 3062.678
857.1883, 3059.683
857.6704, 3058.752
858.1525, 3063.979
858.6346, 3075.749
859.1168, 3076.902
859.5989, 3065.267
860.0810, 3052.615
860.5631, 3050.915
861.0452, 3055.216
861.5273, 3058.842
862.0095, 3060.438
862.4916, 3063.234
862.9737, 3076.234
863.4558, 3084.263
863.9379, 3073.930
864.4200, 3037.075
864.9022, 3025.163
865.3843, 3042.973
865.8664, 3067.398
866.3485, 3085.156
866.8306, 3093.703
867.3127, 3081.700
867.7949, 3048.767
868.2770, 3021.179
868.7591, 3017.256
869.2412, 3023.036
869.7233, 3030.337
870.2054, 3039.120
870.6876, 3043.875
871.1697, 3042.492
871.6518, 3041.190
872.1339, 3043.403
872.6160, 3048.785
873.0981, 3056.774
873.5803, 3067.136
874.0624, 3073.051
874.5445, 3068.855
875.0266, 3058.987
875.5087, 3041.077
875.9908, 3016.982
876.4730, 3010.178
876.9551, 3050.987
877.4372, 3081.365
877.9193, 3077.137
878.4014, 3045.783
878.8835, 3038.053
879.3657, 3054.490
879.8478, 3070.740
880.3299, 3073.581
880.8120, 3068.782
881.2941, 3061.808
881.7762, 3053.749
882.2584, 3048.171
882.7405, 3050.917
883.2226, 3051.520
883.7047, 3041.585
884.1868, 3027.233
884.6689, 3028.448
885.1511, 3049.039
885.6332, 3065.732
886.1153, 3070.776
886.5974, 3068.838
887.0795, 3067.156
887.5616, 3065.317
888.0438, 3062.176
888.5259, 3057.062
889.0080, 3050.771
889.4901, 3040.385
889.9722, 3029.985
890.4543, 3028.464
890.9365, 3043.452
891.4186, 3046.262
891.9007, 3028.118
892.3828, 3005.447
892.8649, 3008.219
893.3470, 3028.988
893.8292, 3040.018
894.3113, 3030.130
894.7934, 3021.744
895.2755, 3034.527
895.7576, 3055.850
896.2397, 3071.412
896.7219, 3075.079
897.2040, 3080.064
897.6861, 3089.404
898.1682, 3095.158
898.6503, 3084.460
899.1324, 3060.750
899.6146, 3049.615
900.0967, 3054.300
900.5788, 3062.989
901.0609, 3070.338
901.5430, 3074.204
902.0251, 3070.581
902.5073, 3056.158
902.9894, 3049.406
903.4715, 3056.667
903.9536, 3065.689
904.4357, 3069.617
904.9178, 3068.659
905.4000, 3067.902
905.8821, 3067.344
906.3642, 3069.096
906.8463, 3079.534
907.3284, 3089.807
907.8105, 3086.922
908.2927, 3072.414
908.7748, 3064.773
909.2569, 3078.051
909.7390, 3089.313
910.2211, 3090.640
910.7032, 3084.153
911.1854, 3080.866
911.6675, 3080.936
912.1496, 3078.834
912.6317, 3069.108
913.1138, 3059.108
913.5959, 3061.369
914.0781, 3070.844
914.5602, 3075.318
915.0423, 3062.505
915.5244, 3053.760
916.0065, 3058.777
916.4886, 3068.568
916.9708, 3062.160
917.4529, 3036.328
917.9350, 3032.906
918.4171, 3067.333
918.8992, 3107.086
919.3813, 3104.810
919.8635, 3079.058
920.3456, 3061.113
920.8277, 3063.224
921.3098, 3065.708
921.7919, 3061.471
922.2740, 3056.063
922.7562, 3053.784
923.2383, 3054.497
923.7204, 3060.658
924.2025, 3073.466
924.6846, 3085.049
925.1667, 3085.932
925.6489, 3081.302
926.1310, 3079.769
926.6131, 3082.387
927.0952, 3083.981
927.5773, 3082.231
928.0594, 3078.901
928.5416, 3073.597
929.0237, 3066.364
929.5058, 3067.722
929.9879, 3079.173
930.4700, 3088.605
930.9521, 3086.060
931.4343, 3078.405
931.9164, 3079.224
932.3985, 3085.880
932.8806, 3088.235
933.3627, 3078.464
933.8448, 3067.098
934.3270, 3056.088
934.8091, 3046.721
935.2912, 3041.717
935.7733, 3040.707
936.2554, 3046.936
936.7375, 3062.888
937.2197, 3082.991
937.7018, 3106.605
938.1839, 3127.145
938.6660, 3129.098
939.1481, 3088.666
939.6302, 3063.766
940.1124, 3094.145
940.5945, 3135.240
941.0766, 3137.961
941.5587, 3090.288
942.0408, 3073.491
942.5229, 3096.962
943.0051, 3124.574
943.4872, 3115.734
943.9693, 3089.753
944.4514, 3078.833
944.9335, 3087.557
945.4156, 3092.685
945.8978, 3073.167
946.3799, 3059.524
946.8620, 3072.034
947.3441, 3109.074
947.8262, 3119.330
948.3083, 3100.506
948.7905, 3080.708
949.2726, 3074.739
949.7547, 3078.206
950.2368, 3091.649
950.7189, 3109.910
951.2010, 3116.123
951.6832, 3084.779
952.1653, 3063.985
952.6474, 3071.551
953.1295, 3094.500
953.6116, 3103.975
954.0938, 3099.402
954.5759, 3099.786
955.0580, 3111.154
955.5401, 3123.804
956.0222, 3128.076
956.5043, 3125.465
956.9865, 3116.939
957.4686, 3096.636
957.9507, 3085.029
958.4328, 3091.731
958.9149, 3101.048
959.3970, 3098.411
959.8792, 3083.386
960.3613, 3081.783
960.8434, 3094.706
961.3255, 3109.544
961.8076, 3120.681
962.2897, 3125.710
962.7719, 3116.606
963.2540, 3094.355
963.7361, 3086.808
964.2182, 3111.985
964.7003, 3134.444
965.1824, 3143.041
965.6646, 3140.250
966.1467, 3127.540
966.6288, 3107.823
967.1109, 3104.635
967.5930, 3140.325
968.0751, 3180.213
968.5573, 3197.862
969.0394, 3199.414
969.5215, 3195.313
970.0036, 3182.335
970.4857, 3172.717
970.9678, 3168.545
971.4500, 3165.811
971.9321, 3157.349
972.4142, 3145.749
972.8963, 3143.472
973.3784, 3153.013
973.8605, 3160.727
974.3427, 3155.041
974.8248, 3145.165
975.3069, 3136.475
975.7890, 3128.704
976.2711, 3131.685
976.7532, 3148.312
977.2354, 3166.916
977.7175, 3186.234
978.1996, 3200.891
978.6817, 3189.015
979.1638, 3158.244
979.6459, 3139.061
980.1281, 3160.902
980.6102, 3181.583
981.0923, 3176.296
981.5744, 3159.698
982.0565, 3163.866
982.5386, 3195.395
983.0208, 3210.662
983.5029, 3198.385
983.9850, 3179.399
984.4671, 3183.154
984.9492, 3197.168
985.4313, 3200.471
985.9135, 3185.869
986.3956, 3171.762
986.8777, 3158.846
987.3598, 3152.793
987.8419, 3159.583
988.3240, 3179.298
988.8062, 3189.419
989.2883, 3189.847
989.7704, 3190.250
990.2525, 3200.972
990.7346, 3212.021
991.2167, 3209.829
991.6989, 3198.069
992.1810, 3193.420
992.6631, 3203.109
993.1452, 3215.094
993.6273, 3228.880
994.1094, 3241.765
994.5916, 3248.166
995.0737, 3248.576
995.5558, 3245.990
996.0379, 3241.726
996.5200, 3232.829
997.0021, 3207.789
997.4843, 3182.271
997.9664, 3174.153
998.4485, 3188.571
998.9306, 3206.916
999.4127, 3232.377
999.8948, 3251.281
1000.377, 3249.185
1000.859, 3233.896
1001.341, 3220.859
1001.823, 3211.239
1002.305, 3208.874
1002.788, 3231.235
1003.270, 3244.129
1003.752, 3222.770
1004.234, 3183.752
1004.716, 3172.871
1005.198, 3193.007
1005.680, 3209.226
1006.162, 3210.249
1006.644, 3209.599
1007.127, 3228.559
1007.609, 3254.800
1008.091, 3270.320
1008.573, 3269.919
1009.055, 3259.954
1009.537, 3232.432
1010.019, 3208.366
1010.501, 3206.676
1010.984, 3224.395
1011.466, 3228.032
1011.948, 3218.291
1012.430, 3210.979
1012.912, 3216.569
1013.394, 3228.324
1013.876, 3247.138
1014.358, 3268.956
1014.841, 3276.451
1015.323, 3263.041
1015.805, 3253.195
1016.287, 3253.176
1016.769, 3257.161
1017.251, 3254.217
1017.733, 3248.060
1018.215, 3246.779
1018.697, 3252.973
1019.180, 3262.494
1019.662, 3282.438
1020.144, 3297.508
1020.626, 3294.455
1021.108, 3271.642
1021.590, 3260.170
1022.072, 3260.374
1022.554, 3263.921
1023.036, 3272.130
1023.519, 3275.494
1024.001, 3252.595
1024.483, 3214.192
1024.965, 3201.878
1025.447, 3252.866
1025.929, 3283.563
1026.411, 3274.169
1026.893, 3247.943
1027.375, 3248.224
1027.858, 3267.320
1028.340, 3274.429
1028.822, 3261.300
1029.304, 3247.293
1029.786, 3244.221
1030.268, 3245.601
1030.750, 3246.823
1031.232, 3247.832
1031.715, 3245.817
1032.197, 3239.882
1032.679, 3236.955
1033.161, 3243.997
1033.643, 3254.563
1034.125, 3256.692
1034.607, 3254.149
1035.089, 3257.579
1035.572, 3294.461
1036.054, 3302.067
1036.536, 3252.908
1037.018, 3191.694
1037.500, 3191.339
1037.982, 3242.210
1038.464, 3270.328
1038.946, 3265.385
1039.428, 3249.003
1039.911, 3221.456
1040.393, 3201.812
1040.875, 3214.148
1041.357, 3259.744
1041.839, 3275.209
1042.321, 3252.002
1042.803, 3231.715
1043.285, 3234.098
1043.767, 3248.165
1044.250, 3258.095
1044.732, 3263.806
1045.214, 3265.173
1045.696, 3259.844
1046.178, 3253.031
1046.660, 3242.047
1047.142, 3233.572
1047.624, 3235.735
1048.107, 3247.726
1048.589, 3256.599
1049.071, 3261.626
1049.553, 3265.373
1050.035, 3273.980
1050.517, 3278.460
1050.999, 3264.822
1051.481, 3237.261
1051.964, 3234.297
1052.446, 3266.588
1052.928, 3287.946
1053.410, 3282.563
1053.892, 3267.211
1054.374, 3271.381
1054.856, 3285.506
1055.338, 3290.324
1055.820, 3275.814
1056.302, 3266.507
1056.785, 3271.176
1057.267, 3280.790
1057.749, 3292.072
1058.231, 3304.398
1058.713, 3309.572
1059.195, 3307.735
1059.677, 3300.741
1060.159, 3279.104
1060.642, 3263.003
1061.124, 3270.794
1061.606, 3294.420
1062.088, 3310.469
1062.570, 3314.074
1063.052, 3328.278
1063.534, 3361.680
1064.016, 3387.171
1064.499, 3356.747
1064.981, 3303.461
1065.463, 3282.679
1065.945, 3303.202
1066.427, 3327.540
1066.909, 3353.703
1067.391, 3371.160
1067.873, 3373.813
1068.355, 3365.527
1068.838, 3357.131
1069.320, 3349.898
1069.802, 3351.272
1070.284, 3373.335
1070.766, 3388.904
1071.248, 3375.103
1071.730, 3349.089
1072.212, 3308.192
1072.694, 3344.292
1073.177, 3365.286
1073.659, 3371.979
1074.141, 3321.551
1074.623, 3344.883
1075.105, 3338.655
1075.587, 3331.216
1076.069, 3364.928
1076.551, 3322.809
1077.034, 3355.872
1077.516, 3358.922
1077.998, 3375.707
1078.480, 3362.750
1078.962, 3358.979
1079.444, 3384.960
1079.926, 3394.467
1080.408, 3378.086
1080.891, 3395.748
1081.373, 3352.590
1081.855, 3362.798
1082.337, 3396.032
1082.819, 3381.147
1083.301, 3399.349
1083.783, 3404.949
1084.265, 3353.281
1084.747, 3401.208
1085.229, 3406.064
1085.712, 3366.698
1086.194, 3411.212
1086.676, 3377.940
1087.158, 3372.433
1087.640, 3387.821
1088.122, 3381.426
1088.604, 3409.374
1089.086, 3404.238
1089.569, 3430.569
1090.051, 3449.536
1090.533, 3444.839
1091.015, 3436.132
1091.497, 3432.571
1091.979, 3421.891
1092.461, 3394.728
1092.943, 3365.979
1093.426, 3368.166
1093.908, 3395.257
1094.390, 3418.867
1094.872, 3434.418
1095.354, 3438.747
1095.836, 3418.599
1096.318, 3395.859
1096.800, 3386.022
1097.282, 3388.429
1097.765, 3392.290
1098.247, 3397.634
1098.729, 3404.327
1099.211, 3414.398
1099.693, 3422.352
1100.175, 3417.521
1100.657, 3408.199
1101.139, 3408.281
1101.622, 3432.110
1102.104, 3437.602
1102.586, 3417.833
1103.068, 3399.972
1103.550, 3415.027
1104.032, 3444.046
1104.514, 3448.493
1104.996, 3430.869
1105.479, 3408.629
1105.961, 3370.213
1106.443, 3353.861
1106.925, 3375.261
1107.407, 3411.843
1107.889, 3430.246
1108.371, 3431.888
1108.853, 3418.282
1109.335, 3387.877
1109.818, 3366.390
1110.300, 3380.666
1110.782, 3398.921
1111.264, 3402.368
1111.746, 3392.594
1112.228, 3372.794
1112.710, 3342.075
1113.192, 3333.981
1113.674, 3368.816
1114.157, 3408.947
1114.639, 3421.944
1115.121, 3415.927
1115.603, 3395.376
1116.085, 3348.236
1116.567, 3342.651
1117.049, 3390.111
1117.531, 3433.224
1118.014, 3428.361
1118.496, 3400.116
1118.978, 3387.360
1119.460, 3385.112
1119.942, 3380.378
1120.424, 3360.298
1120.906, 3351.338
1121.388, 3358.779
1121.870, 3372.210
1122.353, 3380.913
1122.835, 3386.212
1123.317, 3393.789
1123.799, 3403.416
1124.281, 3406.920
1124.763, 3388.342
1125.245, 3377.354
1125.727, 3389.803
1126.209, 3412.928
1126.692, 3416.422
1127.174, 3402.436
1127.656, 3390.091
1128.138, 3383.168
1128.620, 3380.360
1129.102, 3390.093
1129.584, 3395.921
1130.066, 3380.458
1130.549, 3346.187
1131.031, 3322.982
1131.513, 3310.508
1131.995, 3317.039
1132.477, 3358.531
1132.959, 3397.104
1133.441, 3383.135
1133.923, 3345.830
1134.406, 3326.102
1134.888, 3333.250
1135.370, 3346.585
1135.852, 3369.016
1136.334, 3385.699
1136.816, 3380.895
1137.298, 3367.500
1137.780, 3371.360
1138.262, 3384.271
1138.745, 3382.626
1139.227, 3335.199
1139.709, 3310.072
1140.191, 3317.083
1140.673, 3337.902
1141.155, 3363.903
1141.637, 3385.037
1142.119, 3363.817
1142.601, 3303.139
1143.084, 3261.700
1143.566, 3278.713
1144.048, 3300.431
1144.530, 3314.126
1145.012, 3320.927
1145.494, 3321.816
1145.976, 3317.710
1146.458, 3312.872
1146.941, 3308.092
1147.423, 3302.479
1147.905, 3293.776
1148.387, 3285.702
1148.869, 3279.475
1149.351, 3275.538
1149.833, 3279.522
1150.315, 3290.441
1150.797, 3293.304
1151.280, 3280.073
1151.762, 3265.243
1152.244, 3254.611
1152.726, 3251.564
1153.208, 3264.137
1153.690, 3295.815
1154.172, 3295.309
1154.654, 3260.917
1155.136, 3231.970
1155.619, 3235.393
1156.101, 3249.093
1156.583, 3252.716
1157.065, 3251.521
1157.547, 3256.143
1158.029, 3272.922
1158.511, 3277.729
1158.993, 3268.729
1159.476, 3254.681
1159.958, 3235.402
1160.440, 3220.417
1160.922, 3230.192
1161.404, 3256.312
1161.886, 3263.634
1162.368, 3234.117
1162.850, 3215.131
1163.333, 3214.766
1163.815, 3219.281
1164.297, 3208.745
1164.779, 3193.664
1165.261, 3195.912
1165.743, 3215.726
1166.225, 3224.888
1166.707, 3203.690
1167.189, 3193.934
1167.672, 3210.104
1168.154, 3235.197
1168.636, 3236.517
1169.118, 3223.164
1169.600, 3216.720
1170.082, 3222.692
1170.564, 3222.867
1171.046, 3203.450
1171.528, 3186.978
1172.011, 3182.417
1172.493, 3186.597
1172.975, 3192.157
1173.457, 3198.534
1173.939, 3204.078
1174.421, 3208.222
1174.903, 3211.463
1175.385, 3220.021
1175.868, 3220.843
1176.350, 3200.355
1176.832, 3164.595
1177.314, 3157.515
1177.796, 3173.904
1178.278, 3185.872
1178.760, 3170.135
1179.242, 3161.938
1179.724, 3195.225
1180.207, 3228.596
1180.689, 3216.216
1181.171, 3159.091
1181.653, 3145.554
1182.135, 3172.859
1182.617, 3194.785
1183.099, 3177.243
1183.581, 3152.962
1184.063, 3130.421
1184.546, 3116.602
1185.028, 3126.175
1185.510, 3160.399
1185.992, 3176.163
1186.474, 3170.241
1186.956, 3160.497
1187.438, 3154.338
1187.920, 3154.271
1188.403, 3170.165
1188.885, 3191.813
1189.367, 3190.345
1189.849, 3163.586
1190.331, 3150.032
1190.813, 3156.044
1191.295, 3169.886
1191.777, 3193.754
1192.260, 3210.989
1192.742, 3199.652
1193.224, 3167.132
1193.706, 3160.857
1194.188, 3184.269
1194.670, 3198.972
1195.152, 3195.115
1195.634, 3184.192
1196.116, 3167.655
1196.599, 3156.513
1197.081, 3169.218
1197.563, 3205.327
1198.045, 3210.029
1198.527, 3179.682
1199.009, 3151.571
1199.491, 3137.130
1199.973, 3135.026
1200.455, 3150.687
1200.938, 3174.131
1201.420, 3196.299
1201.902, 3217.643
1202.384, 3219.726
1202.866, 3200.438
1203.348, 3177.269
1203.830, 3153.953
1204.312, 3138.120
1204.795, 3143.882
1205.277, 3160.578
1205.759, 3173.872
1206.241, 3186.208
1206.723, 3175.176
1207.205, 3135.575
1207.687, 3107.229
1208.169, 3128.985
1208.651, 3162.271
1209.134, 3157.230
1209.616, 3133.391
1210.098, 3131.553
1210.580, 3168.787
1211.062, 3185.128
1211.544, 3176.751
1212.026, 3164.250
1212.508, 3164.712
1212.990, 3168.858
1213.473, 3165.237
1213.955, 3157.131
1214.437, 3154.601
1214.919, 3160.285
1215.401, 3163.823
1215.883, 3163.559
1216.365, 3166.230
1216.847, 3187.563
1217.330, 3207.669
1217.812, 3196.710
1218.294, 3163.855
1218.776, 3151.665
1219.258, 3166.504
1219.740, 3190.255
1220.222, 3224.474
1220.704, 3246.574
1221.187, 3222.816
1221.669, 3182.775
1222.151, 3153.161
1222.633, 3136.878
1223.115, 3135.365
1223.597, 3152.811
1224.079, 3166.554
1224.561, 3172.739
1225.043, 3172.937
1225.526, 3160.363
1226.008, 3148.696
1226.490, 3159.511
1226.972, 3191.570
1227.454, 3193.735
1227.936, 3157.681
1228.418, 3135.887
1228.900, 3143.440
1229.382, 3161.622
1229.865, 3177.275
1230.347, 3187.391
1230.829, 3186.541
1231.311, 3174.435
1231.793, 3164.714
1232.275, 3157.207
1232.757, 3152.929
1233.239, 3152.110
1233.722, 3154.893
1234.204, 3166.199
1234.686, 3178.050
1235.168, 3180.590
1235.650, 3173.278
1236.132, 3170.239
1236.614, 3171.829
1237.096, 3172.843
1237.578, 3169.753
1238.061, 3168.975
1238.543, 3178.797
1239.025, 3192.801
1239.507, 3206.855
1239.989, 3221.454
1240.471, 3211.168
1240.953, 3175.330
1241.435, 3152.826
1241.917, 3171.706
1242.400, 3191.019
1242.882, 3167.676
1243.364, 3133.864
1243.846, 3125.245
1244.328, 3143.228
1244.810, 3156.745
1245.292, 3166.107
1245.774, 3176.515
1246.257, 3195.151
1246.739, 3209.073
1247.221, 3205.656
1247.703, 3195.945
1248.185, 3191.586
1248.667, 3192.657
1249.149, 3196.040
1249.631, 3201.393
1250.114, 3205.332
1250.596, 3208.344
1251.078, 3206.469
1251.560, 3193.116
1252.042, 3177.255
1252.524, 3167.974
1253.006, 3164.954
1253.488, 3158.075
1253.970, 3148.352
1254.453, 3143.356
1254.935, 3148.315
1255.417, 3157.411
1255.899, 3169.888
1256.381, 3184.265
1256.863, 3201.801
1257.345, 3220.689
1257.827, 3229.273
1258.310, 3228.133
1258.792, 3222.148
1259.274, 3211.338
1259.756, 3198.653
1260.238, 3182.700
1260.720, 3168.568
1261.202, 3160.321
1261.684, 3158.419
1262.167, 3167.451
1262.649, 3185.240
1263.131, 3200.638
1263.613, 3209.598
1264.095, 3214.343
1264.577, 3215.186
1265.059, 3212.402
1265.541, 3202.533
1266.023, 3190.846
1266.505, 3189.814
1266.988, 3197.955
1267.470, 3205.509
1267.952, 3211.946
1268.434, 3213.186
1268.916, 3207.678
1269.398, 3200.424
1269.880, 3193.097
1270.362, 3189.559
1270.845, 3202.480
1271.327, 3226.225
1271.809, 3229.212
1272.291, 3198.992
1272.773, 3177.977
1273.255, 3171.104
1273.737, 3174.698
1274.219, 3197.074
1274.702, 3218.566
1275.184, 3213.372
1275.666, 3187.994
1276.148, 3174.343
1276.630, 3174.911
1277.112, 3178.613
1277.594, 3184.506
1278.076, 3189.371
1278.558, 3186.039
1279.041, 3184.553
1279.523, 3198.700
1280.005, 3219.754
1280.487, 3222.192
1280.969, 3205.503
1281.451, 3200.066
1281.933, 3209.971
1282.415, 3221.965
1282.897, 3236.273
1283.380, 3239.129
1283.862, 3213.789
1284.344, 3177.872
1284.826, 3164.465
1285.308, 3171.311
1285.790, 3186.712
1286.272, 3209.118
1286.754, 3224.588
1287.237, 3218.686
1287.719, 3212.980
1288.201, 3215.157
1288.683, 3220.848
1289.165, 3225.691
1289.647, 3227.432
1290.129, 3214.157
1290.611, 3186.120
1291.094, 3172.452
1291.576, 3195.015
1292.058, 3217.104
1292.540, 3234.505
1293.022, 3242.283
1293.504, 3225.067
1293.986, 3197.801
1294.468, 3183.630
1294.950, 3184.205
1295.432, 3192.131
1295.915, 3210.203
1296.397, 3223.023
1296.879, 3228.079
1297.361, 3226.244
1297.843, 3209.890
1298.325, 3193.567
1298.807, 3195.805
1299.289, 3214.910
1299.772, 3227.526
1300.254, 3233.914
1300.736, 3229.739
1301.218, 3212.694
1301.700, 3198.894
1302.182, 3208.705
1302.664, 3221.328
1303.146, 3217.137
1303.629, 3205.287
1304.111, 3211.498
1304.593, 3233.181
1305.075, 3231.985
1305.557, 3201.799
1306.039, 3182.927
1306.521, 3219.325
1307.003, 3248.563
1307.485, 3240.581
1307.968, 3218.344
1308.450, 3229.048
1308.932, 3259.823
1309.414, 3269.772
1309.896, 3254.753
1310.378, 3238.052
1310.860, 3227.134
1311.342, 3216.377
1311.824, 3202.688
1312.307, 3193.833
1312.789, 3207.839
1313.271, 3230.080
1313.753, 3235.062
1314.235, 3222.829
1314.717, 3216.968
1315.199, 3221.215
1315.681, 3226.314
1316.164, 3231.411
1316.646, 3233.273
1317.128, 3220.385
1317.610, 3209.575
##END=



