##NAMES=Chabazite-Na
##RRUFFID=R061095
##IDEAL CHEMISTRY=(Na_3_K)Al_4_Si_8_O_24_&#183;11H_2_O
##LOCALITY=Vaitape, Bora Bora, French Polynesia
##OWNER=RRUFF
##SOURCE=Michael Scott
##DESCRIPTION=Clusters and druse of clear, colorless rhombohedral crystals
##STATUS=The identification of this mineral has been confirmed only by single crystal X-ray diffraction.
##URL=rruff.info/R061095
119.1542, 3796.178
119.6363, 4048.303
120.1184, 4340.876
120.6006, 4651.398
121.0827, 4963.563
121.5648, 5279.211
122.0469, 5600.871
122.5290, 5925.902
123.0111, 6258.756
123.4933, 6606.053
123.9754, 6990.375
124.4575, 7379.470
124.9396, 7731.586
125.4217, 8042.058
125.9038, 8347.549
126.3860, 8644.696
126.8681, 8847.266
127.3502, 8950.932
127.8323, 8997.479
128.3144, 9001.320
128.7965, 8986.141
129.2787, 8951.807
129.7608, 8905.771
130.2429, 8852.910
130.7250, 8792.911
131.2071, 8734.059
131.6892, 8680.987
132.1714, 8631.378
132.6535, 8578.778
133.1356, 8517.328
133.6177, 8451.532
134.0998, 8394.975
134.5819, 8345.388
135.0640, 8308.385
135.5462, 8292.875
136.0283, 8299.592
136.5104, 8305.981
136.9925, 8303.651
137.4746, 8293.270
137.9567, 8296.265
138.4389, 8315.604
138.9210, 8342.677
139.4031, 8370.438
139.8852, 8407.142
140.3673, 8423.974
140.8494, 8405.927
141.3316, 8339.732
141.8137, 8295.844
142.2958, 8285.914
142.7779, 8293.510
143.2600, 8272.197
143.7421, 8201.604
144.2243, 8135.037
144.7064, 8103.364
145.1885, 8139.514
145.6706, 8148.823
146.1527, 8117.157
146.6348, 8049.656
147.1170, 7990.970
147.5991, 7939.675
148.0812, 7897.478
148.5633, 7866.395
149.0454, 7861.107
149.5275, 7848.619
150.0097, 7819.910
150.4918, 7770.103
150.9739, 7731.589
151.4560, 7719.339
151.9381, 7712.844
152.4202, 7689.267
152.9024, 7621.756
153.3845, 7559.532
153.8666, 7517.393
154.3487, 7507.251
154.8308, 7491.529
155.3129, 7456.203
155.7950, 7412.307
156.2772, 7382.256
156.7593, 7391.376
157.2414, 7400.610
157.7235, 7390.064
158.2056, 7337.484
158.6877, 7292.505
159.1699, 7272.733
159.6520, 7272.968
160.1341, 7271.816
160.6162, 7258.889
161.0983, 7243.836
161.5804, 7233.849
162.0626, 7247.390
162.5447, 7252.214
163.0268, 7228.946
163.5089, 7179.208
163.9910, 7133.683
164.4731, 7108.362
164.9553, 7094.585
165.4374, 7082.223
165.9195, 7070.465
166.4016, 7056.532
166.8837, 7036.904
167.3658, 7010.381
167.8480, 6984.882
168.3301, 6962.583
168.8122, 6944.643
169.2943, 6933.363
169.7764, 6939.601
170.2585, 6948.067
170.7407, 6943.358
171.2228, 6921.253
171.7049, 6892.542
172.1870, 6861.148
172.6691, 6828.987
173.1512, 6803.169
173.6334, 6797.613
174.1155, 6798.116
174.5976, 6783.562
175.0797, 6744.057
175.5618, 6696.394
176.0439, 6658.475
176.5260, 6629.320
177.0082, 6602.359
177.4903, 6574.911
177.9724, 6545.743
178.4545, 6512.721
178.9366, 6471.039
179.4187, 6427.456
179.9009, 6394.002
180.3830, 6370.580
180.8651, 6350.771
181.3472, 6330.926
181.8293, 6310.165
182.3114, 6285.656
182.7936, 6254.221
183.2757, 6218.506
183.7578, 6180.311
184.2399, 6138.453
184.7220, 6101.727
185.2041, 6085.386
185.6863, 6086.579
186.1684, 6087.053
186.6505, 6077.137
187.1326, 6058.764
187.6147, 6041.604
188.0968, 6027.844
188.5790, 6009.723
189.0611, 5967.412
189.5432, 5901.399
190.0253, 5843.010
190.5074, 5821.647
190.9895, 5830.886
191.4717, 5812.185
191.9538, 5750.840
192.4359, 5670.258
192.9180, 5624.220
193.4001, 5615.172
193.8822, 5613.039
194.3644, 5596.548
194.8465, 5566.137
195.3286, 5535.298
195.8107, 5505.176
196.2928, 5476.649
196.7749, 5455.458
197.2570, 5444.011
197.7392, 5429.045
198.2213, 5396.024
198.7034, 5343.023
199.1855, 5291.569
199.6676, 5242.037
200.1497, 5196.529
200.6319, 5176.233
201.1140, 5189.267
201.5961, 5205.803
202.0782, 5188.066
202.5603, 5129.213
203.0424, 5074.651
203.5246, 5037.771
204.0067, 5018.211
204.4888, 5005.508
204.9709, 5003.029
205.4530, 5001.963
205.9352, 4988.536
206.4173, 4959.333
206.8994, 4930.203
207.3815, 4907.297
207.8636, 4890.934
208.3457, 4876.071
208.8279, 4863.471
209.3100, 4851.672
209.7921, 4837.863
210.2742, 4821.516
210.7563, 4804.551
211.2384, 4789.982
211.7206, 4780.809
212.2027, 4759.026
212.6848, 4717.692
213.1669, 4667.290
213.6490, 4636.697
214.1311, 4633.745
214.6133, 4633.290
215.0954, 4621.501
215.5775, 4594.286
216.0596, 4569.499
216.5417, 4547.561
217.0238, 4528.847
217.5059, 4514.893
217.9881, 4508.681
218.4702, 4502.272
218.9523, 4490.629
219.4344, 4472.480
219.9165, 4452.551
220.3986, 4429.070
220.8808, 4403.779
221.3629, 4386.748
221.8450, 4382.353
222.3271, 4380.315
222.8092, 4372.457
223.2913, 4354.657
223.7735, 4340.308
224.2556, 4331.532
224.7377, 4327.945
225.2198, 4326.042
225.7019, 4327.849
226.1840, 4328.649
226.6662, 4324.055
227.1483, 4311.647
227.6304, 4298.140
228.1125, 4283.365
228.5946, 4267.274
229.0767, 4255.575
229.5589, 4251.069
230.0410, 4248.377
230.5231, 4241.574
231.0052, 4227.495
231.4873, 4215.486
231.9694, 4208.129
232.4516, 4206.235
232.9337, 4202.586
233.4158, 4197.703
233.8979, 4190.888
234.3800, 4180.814
234.8621, 4164.552
235.3443, 4150.396
235.8264, 4141.362
236.3085, 4138.971
236.7906, 4132.991
237.2727, 4121.247
237.7548, 4107.449
238.2369, 4095.864
238.7191, 4082.908
239.2012, 4078.284
239.6833, 4088.315
240.1654, 4120.515
240.6475, 4136.298
241.1296, 4127.297
241.6118, 4106.580
242.0939, 4096.766
242.5760, 4106.124
243.0581, 4113.094
243.5402, 4108.530
244.0223, 4085.572
244.5045, 4074.384
244.9866, 4082.675
245.4687, 4099.184
245.9508, 4100.193
246.4329, 4073.402
246.9150, 4050.543
247.3972, 4045.906
247.8793, 4070.917
248.3614, 4082.885
248.8435, 4074.734
249.3256, 4056.022
249.8077, 4049.886
250.2899, 4062.944
250.7720, 4077.859
251.2541, 4087.451
251.7362, 4090.234
252.2183, 4090.453
252.7004, 4086.155
253.1826, 4079.754
253.6647, 4077.470
254.1468, 4079.241
254.6289, 4085.064
255.1110, 4095.860
255.5931, 4115.043
256.0753, 4130.885
256.5574, 4144.530
257.0395, 4154.438
257.5216, 4153.801
258.0037, 4134.444
258.4858, 4118.865
258.9680, 4122.498
259.4501, 4159.156
259.9322, 4174.784
260.4143, 4160.175
260.8964, 4125.030
261.3785, 4099.110
261.8607, 4080.987
262.3428, 4074.539
262.8249, 4086.119
263.3070, 4125.607
263.7891, 4149.846
264.2712, 4151.052
264.7534, 4136.637
265.2355, 4131.847
265.7176, 4141.477
266.1997, 4150.450
266.6818, 4146.954
267.1639, 4124.410
267.6461, 4116.375
268.1282, 4131.761
268.6103, 4161.196
269.0924, 4171.741
269.5745, 4157.489
270.0566, 4138.424
270.5387, 4124.132
271.0208, 4112.955
271.5030, 4116.654
271.9851, 4141.689
272.4672, 4179.966
272.9493, 4204.004
273.4314, 4210.813
273.9135, 4212.741
274.3957, 4218.570
274.8778, 4229.513
275.3599, 4234.450
275.8420, 4228.783
276.3241, 4218.458
276.8062, 4224.945
277.2884, 4252.563
277.7705, 4279.582
278.2526, 4290.485
278.7347, 4284.425
279.2168, 4275.550
279.6989, 4262.493
280.1811, 4249.851
280.6632, 4251.701
281.1453, 4269.697
281.6274, 4291.732
282.1095, 4311.016
282.5916, 4327.455
283.0738, 4339.607
283.5559, 4346.401
284.0380, 4349.476
284.5201, 4352.899
285.0022, 4356.745
285.4843, 4359.663
285.9665, 4359.265
286.4486, 4356.147
286.9307, 4357.772
287.4128, 4367.604
287.8949, 4379.680
288.3770, 4377.238
288.8592, 4360.253
289.3413, 4347.885
289.8234, 4358.174
290.3055, 4386.640
290.7876, 4408.322
291.2697, 4419.149
291.7519, 4423.308
292.2340, 4427.218
292.7161, 4430.882
293.1982, 4434.429
293.6803, 4436.840
294.1624, 4439.021
294.6446, 4444.151
295.1267, 4453.118
295.6088, 4463.991
296.0909, 4472.159
296.5730, 4478.350
297.0551, 4489.177
297.5373, 4517.500
298.0194, 4552.659
298.5015, 4568.984
298.9836, 4557.934
299.4657, 4539.045
299.9478, 4535.993
300.4300, 4546.276
300.9121, 4560.435
301.3942, 4575.425
301.8763, 4589.994
302.3584, 4601.604
302.8405, 4609.676
303.3227, 4616.196
303.8048, 4623.688
304.2869, 4631.458
304.7690, 4637.761
305.2511, 4637.416
305.7332, 4636.820
306.2154, 4643.852
306.6975, 4660.456
307.1796, 4680.718
307.6617, 4701.722
308.1438, 4722.458
308.6259, 4741.559
309.1081, 4752.467
309.5901, 4764.414
310.0723, 4787.888
310.5544, 4826.759
311.0365, 4863.698
311.5186, 4885.309
312.0007, 4897.891
312.4828, 4912.803
312.9650, 4934.939
313.4471, 4961.244
313.9292, 4993.635
314.4113, 5035.212
314.8934, 5065.338
315.3755, 5061.193
315.8577, 5042.267
316.3398, 5036.432
316.8219, 5061.922
317.3040, 5095.671
317.7861, 5129.962
318.2682, 5165.057
318.7504, 5192.576
319.2325, 5204.469
319.7146, 5209.232
320.1967, 5216.753
320.6788, 5223.501
321.1609, 5238.928
321.6431, 5274.833
322.1252, 5334.960
322.6073, 5372.822
323.0894, 5355.636
323.5715, 5322.739
324.0536, 5310.555
324.5358, 5347.746
325.0179, 5381.932
325.5000, 5403.314
325.9821, 5411.117
326.4642, 5414.265
326.9464, 5414.408
327.4285, 5409.311
327.9106, 5397.225
328.3927, 5375.663
328.8748, 5350.085
329.3569, 5312.937
329.8391, 5266.653
330.3212, 5248.053
330.8033, 5281.841
331.2854, 5321.280
331.7675, 5335.446
332.2496, 5310.745
332.7318, 5285.677
333.2139, 5262.697
333.6960, 5241.818
334.1781, 5220.564
334.6602, 5193.770
335.1423, 5174.562
335.6245, 5175.195
336.1066, 5210.145
336.5887, 5219.369
337.0708, 5191.716
337.5529, 5139.678
338.0350, 5099.433
338.5172, 5071.939
338.9993, 5052.029
339.4814, 5038.986
339.9635, 5034.071
340.4456, 5024.777
340.9277, 5009.859
341.4099, 4991.099
341.8920, 4969.980
342.3741, 4946.053
342.8562, 4925.019
343.3383, 4911.528
343.8204, 4904.808
344.3026, 4895.725
344.7847, 4884.391
345.2668, 4870.199
345.7489, 4850.623
346.2310, 4826.113
346.7131, 4803.920
347.1953, 4791.160
347.6774, 4783.297
348.1595, 4763.837
348.6416, 4731.857
349.1237, 4699.584
349.6058, 4681.966
350.0880, 4675.593
350.5700, 4669.371
351.0522, 4659.055
351.5343, 4646.684
352.0164, 4635.333
352.4985, 4625.011
352.9806, 4614.525
353.4627, 4601.862
353.9449, 4588.500
354.4270, 4576.813
354.9091, 4567.062
355.3912, 4559.497
355.8733, 4555.706
356.3554, 4554.953
356.8376, 4553.183
357.3197, 4544.037
357.8018, 4534.182
358.2839, 4531.424
358.7660, 4545.832
359.2481, 4555.225
359.7303, 4539.821
360.2124, 4508.674
360.6945, 4487.671
361.1766, 4503.519
361.6587, 4522.896
362.1408, 4522.478
362.6230, 4487.136
363.1051, 4458.052
363.5872, 4448.679
364.0693, 4453.580
364.5514, 4462.119
365.0335, 4482.750
365.5157, 4497.433
365.9978, 4496.675
366.4799, 4472.439
366.9620, 4455.896
367.4441, 4455.770
367.9262, 4462.931
368.4084, 4465.541
368.8905, 4461.766
369.3726, 4454.632
369.8547, 4441.420
370.3368, 4419.946
370.8189, 4411.948
371.3011, 4428.579
371.7832, 4449.160
372.2653, 4454.112
372.7474, 4434.887
373.2295, 4418.223
373.7116, 4409.658
374.1938, 4407.998
374.6759, 4402.446
375.1580, 4390.992
375.6401, 4380.492
376.1222, 4376.302
376.6043, 4379.372
377.0865, 4383.795
377.5686, 4388.221
378.0507, 4394.318
378.5328, 4410.173
379.0149, 4438.053
379.4970, 4458.385
379.9792, 4451.280
380.4613, 4420.548
380.9434, 4409.741
381.4255, 4425.882
381.9076, 4450.520
382.3897, 4455.828
382.8719, 4443.791
383.3540, 4429.341
383.8361, 4415.416
384.3182, 4404.719
384.8003, 4405.542
385.2824, 4418.937
385.7646, 4434.064
386.2467, 4443.076
386.7288, 4446.116
387.2109, 4443.645
387.6930, 4427.990
388.1751, 4411.975
388.6573, 4408.735
389.1394, 4417.603
389.6215, 4431.313
390.1036, 4454.253
390.5857, 4475.880
391.0678, 4484.083
391.5499, 4461.744
392.0320, 4442.259
392.5142, 4449.154
392.9963, 4474.610
393.4784, 4493.063
393.9605, 4488.695
394.4426, 4478.223
394.9247, 4471.793
395.4069, 4474.223
395.8890, 4474.013
396.3711, 4461.170
396.8532, 4444.945
397.3353, 4442.145
397.8174, 4467.848
398.2996, 4495.268
398.7817, 4519.685
399.2638, 4545.205
399.7459, 4549.996
400.2280, 4509.773
400.7101, 4463.159
401.1923, 4451.981
401.6744, 4499.257
402.1565, 4542.174
402.6386, 4570.710
403.1207, 4585.243
403.6028, 4589.733
404.0850, 4579.676
404.5671, 4567.680
405.0492, 4562.765
405.5313, 4565.565
406.0134, 4572.169
406.4955, 4582.390
406.9777, 4595.831
407.4598, 4612.635
407.9419, 4633.392
408.4240, 4652.811
408.9061, 4666.154
409.3882, 4674.782
409.8704, 4687.402
410.3525, 4705.382
410.8346, 4724.433
411.3167, 4739.525
411.7988, 4751.112
412.2809, 4760.857
412.7631, 4762.737
413.2452, 4765.835
413.7273, 4790.697
414.2094, 4837.445
414.6915, 4880.046
415.1736, 4888.997
415.6558, 4881.621
416.1379, 4884.352
416.6200, 4911.955
417.1021, 4945.118
417.5842, 4971.742
418.0663, 4992.992
418.5485, 5013.289
419.0306, 5026.117
419.5127, 5044.466
419.9948, 5080.953
420.4769, 5150.594
420.9590, 5210.065
421.4412, 5238.176
421.9233, 5248.965
422.4054, 5269.174
422.8875, 5309.720
423.3696, 5354.889
423.8517, 5400.150
424.3339, 5444.636
424.8160, 5489.519
425.2981, 5534.032
425.7802, 5578.953
426.2623, 5625.303
426.7444, 5671.031
427.2266, 5721.465
427.7087, 5780.162
428.1908, 5844.997
428.6729, 5904.289
429.1550, 5953.131
429.6371, 6006.963
430.1193, 6077.859
430.6014, 6168.466
431.0835, 6255.684
431.5656, 6338.281
432.0477, 6415.883
432.5298, 6483.087
433.0119, 6539.532
433.4940, 6604.350
433.9762, 6694.072
434.4583, 6800.360
434.9404, 6889.094
435.4225, 6957.654
435.9046, 7027.358
436.3867, 7118.950
436.8689, 7228.243
437.3510, 7345.047
437.8331, 7473.804
438.3152, 7601.132
438.7973, 7708.966
439.2794, 7800.310
439.7616, 7892.831
440.2437, 7989.891
440.7258, 8096.207
441.2079, 8218.839
441.6900, 8368.799
442.1721, 8513.380
442.6543, 8635.221
443.1364, 8741.376
443.6185, 8845.687
444.1006, 8945.091
444.5827, 9048.691
445.0648, 9162.692
445.5470, 9289.902
446.0291, 9413.544
446.5112, 9532.517
446.9933, 9646.642
447.4754, 9757.635
447.9576, 9866.203
448.4397, 9969.323
448.9218, 10065.95
449.4039, 10156.34
449.8860, 10237.58
450.3681, 10300.22
450.8503, 10369.25
451.3324, 10462.79
451.8145, 10586.51
452.2966, 10697.42
452.7787, 10794.05
453.2608, 10879.15
453.7430, 10958.97
454.2251, 11032.98
454.7072, 11099.79
455.1893, 11158.15
455.6714, 11209.19
456.1535, 11257.22
456.6357, 11302.34
457.1178, 11343.79
457.5999, 11380.09
458.0820, 11412.10
458.5641, 11438.22
459.0462, 11450.07
459.5284, 11469.50
460.0105, 11524.60
460.4926, 11606.78
460.9747, 11687.99
461.4568, 11757.44
461.9389, 11817.81
462.4211, 11867.58
462.9032, 11903.55
463.3853, 11945.36
463.8674, 12008.54
464.3495, 12078.95
464.8316, 12140.04
465.3138, 12174.97
465.7959, 12213.75
466.2780, 12264.47
466.7601, 12326.86
467.2422, 12389.95
467.7243, 12454.35
468.2065, 12519.92
468.6886, 12587.90
469.1707, 12661.20
469.6528, 12731.49
470.1349, 12798.27
470.6170, 12862.45
471.0992, 12926.47
471.5813, 12992.29
472.0634, 13052.02
472.5455, 13104.30
473.0276, 13148.82
473.5097, 13180.80
473.9918, 13198.94
474.4739, 13212.62
474.9561, 13234.95
475.4382, 13262.06
475.9203, 13275.91
476.4024, 13273.19
476.8845, 13254.72
477.3666, 13222.36
477.8488, 13175.47
478.3309, 13111.68
478.8130, 13022.64
479.2951, 12919.31
479.7772, 12813.23
480.2593, 12705.31
480.7415, 12591.01
481.2236, 12467.51
481.7057, 12336.13
482.1878, 12198.45
482.6699, 12068.68
483.1520, 11917.76
483.6342, 11720.78
484.1163, 11486.74
484.5984, 11275.75
485.0805, 11121.75
485.5626, 10972.53
486.0447, 10802.07
486.5269, 10598.76
487.0090, 10399.69
487.4911, 10208.85
487.9732, 10021.97
488.4553, 9829.797
488.9374, 9632.567
489.4196, 9434.285
489.9017, 9229.434
490.3838, 9024.583
490.8659, 8856.499
491.3480, 8732.255
491.8301, 8610.957
492.3123, 8453.798
492.7944, 8269.301
493.2765, 8095.064
493.7586, 7937.619
494.2407, 7791.668
494.7228, 7653.206
495.2050, 7522.587
495.6871, 7401.499
496.1692, 7292.496
496.6513, 7191.426
497.1334, 7096.933
497.6155, 7009.097
498.0977, 6913.104
498.5798, 6789.911
499.0619, 6660.146
499.5440, 6545.693
500.0261, 6457.409
500.5082, 6374.472
500.9904, 6294.175
501.4725, 6215.922
501.9546, 6136.985
502.4367, 6057.086
502.9188, 5976.707
503.4009, 5892.149
503.8831, 5800.267
504.3652, 5729.708
504.8473, 5692.529
505.3294, 5661.817
505.8115, 5612.813
506.2936, 5539.222
506.7758, 5473.340
507.2579, 5420.137
507.7400, 5376.011
508.2221, 5335.082
508.7042, 5297.694
509.1863, 5255.625
509.6685, 5200.961
510.1506, 5138.518
510.6327, 5080.909
511.1148, 5028.282
511.5969, 4984.624
512.0790, 4963.315
512.5612, 4952.032
513.0433, 4928.020
513.5254, 4877.217
514.0075, 4822.356
514.4896, 4777.425
514.9717, 4741.701
515.4539, 4711.927
515.9360, 4688.507
516.4181, 4669.079
516.9002, 4653.292
517.3823, 4642.029
517.8644, 4629.282
518.3466, 4612.560
518.8287, 4594.442
519.3108, 4577.463
519.7929, 4562.280
520.2750, 4546.913
520.7571, 4530.955
521.2393, 4514.831
521.7214, 4500.465
522.2035, 4490.207
522.6856, 4475.042
523.1677, 4447.427
523.6498, 4408.268
524.1320, 4380.736
524.6141, 4366.246
525.0962, 4356.513
525.5783, 4343.539
526.0604, 4327.882
526.5425, 4310.894
527.0247, 4291.040
527.5068, 4273.679
527.9889, 4270.160
528.4710, 4275.978
528.9531, 4276.113
529.4352, 4254.310
529.9174, 4229.108
530.3995, 4215.979
530.8816, 4217.414
531.3637, 4219.420
531.8458, 4218.212
532.3279, 4214.282
532.8101, 4208.077
533.2922, 4195.501
533.7743, 4185.602
534.2564, 4179.944
534.7385, 4177.551
535.2206, 4176.156
535.7027, 4177.646
536.1848, 4176.893
536.6669, 4171.974
537.1490, 4162.823
537.6312, 4150.587
538.1133, 4133.501
538.5954, 4118.462
539.0775, 4116.195
539.5596, 4124.883
540.0417, 4121.512
540.5239, 4098.119
541.0060, 4069.798
541.4881, 4062.089
541.9702, 4070.234
542.4523, 4076.075
542.9344, 4067.054
543.4166, 4053.301
543.8987, 4047.124
544.3808, 4048.231
544.8629, 4044.466
545.3450, 4021.265
545.8271, 3994.856
546.3093, 3978.920
546.7914, 3982.284
547.2735, 3986.237
547.7556, 3987.322
548.2377, 3986.643
548.7198, 3986.155
549.2020, 3985.666
549.6841, 3985.622
550.1662, 3986.168
550.6483, 3987.211
551.1304, 3986.011
551.6125, 3978.136
552.0947, 3978.938
552.5768, 4008.854
553.0589, 4067.109
553.5410, 4092.641
554.0231, 4076.719
554.5052, 4042.010
554.9874, 4014.309
555.4695, 3992.842
555.9516, 3975.154
556.4337, 3957.104
556.9158, 3945.464
557.3979, 3955.782
557.8801, 3982.238
558.3622, 3998.038
558.8443, 3978.149
559.3264, 3950.004
559.8085, 3933.089
560.2906, 3931.518
560.7728, 3932.844
561.2549, 3940.745
561.7370, 3946.938
562.2191, 3942.502
562.7012, 3915.645
563.1833, 3894.641
563.6655, 3881.114
564.1476, 3875.249
564.6297, 3881.100
565.1118, 3905.121
565.5939, 3921.301
566.0760, 3914.538
566.5582, 3887.721
567.0403, 3870.734
567.5224, 3864.105
568.0045, 3864.026
568.4866, 3868.827
568.9688, 3877.480
569.4509, 3888.308
569.9330, 3902.592
570.4151, 3914.016
570.8972, 3913.521
571.3793, 3905.542
571.8615, 3899.025
572.3436, 3897.031
572.8257, 3898.070
573.3078, 3903.112
573.7899, 3911.574
574.2720, 3917.163
574.7542, 3915.829
575.2363, 3913.259
575.7184, 3911.953
576.2005, 3910.539
576.6826, 3914.873
577.1647, 3930.797
577.6469, 3946.809
578.1290, 3947.049
578.6111, 3928.773
579.0932, 3910.177
579.5753, 3893.765
580.0574, 3880.573
580.5396, 3875.283
581.0217, 3877.385
581.5038, 3878.138
581.9859, 3864.868
582.4680, 3849.671
582.9501, 3860.610
583.4323, 3898.328
583.9144, 3926.486
584.3965, 3905.451
584.8786, 3867.601
585.3607, 3847.917
585.8428, 3865.248
586.3250, 3880.826
586.8071, 3876.751
587.2892, 3863.889
587.7713, 3860.665
588.2534, 3888.417
588.7355, 3903.518
589.2177, 3892.573
589.6998, 3860.098
590.1819, 3840.636
590.6640, 3837.137
591.1461, 3839.546
591.6282, 3843.316
592.1104, 3848.402
592.5925, 3853.630
593.0746, 3859.182
593.5567, 3863.382
594.0388, 3864.495
594.5209, 3862.632
595.0031, 3857.798
595.4852, 3848.604
595.9673, 3838.880
596.4494, 3831.350
596.9315, 3826.103
597.4136, 3823.468
597.8958, 3822.185
598.3779, 3824.876
598.8600, 3838.790
599.3421, 3863.792
599.8242, 3872.910
600.3063, 3841.137
600.7885, 3809.597
601.2706, 3800.791
601.7527, 3825.538
602.2348, 3842.618
602.7169, 3850.851
603.1990, 3852.814
603.6812, 3850.517
604.1633, 3843.692
604.6454, 3835.719
605.1275, 3825.614
605.6096, 3816.958
606.0917, 3819.012
606.5739, 3829.701
607.0560, 3838.596
607.5381, 3841.366
608.0202, 3838.363
608.5023, 3826.655
608.9844, 3806.849
609.4666, 3791.289
609.9487, 3789.459
610.4308, 3792.294
610.9129, 3792.409
611.3950, 3784.009
611.8771, 3783.435
612.3593, 3803.640
612.8414, 3827.581
613.3235, 3835.048
613.8056, 3818.298
614.2877, 3803.258
614.7698, 3793.580
615.2520, 3788.579
615.7341, 3787.324
616.2162, 3789.940
616.6983, 3793.185
617.1804, 3794.138
617.6625, 3794.512
618.1446, 3802.621
618.6267, 3817.798
619.1088, 3825.892
619.5909, 3803.684
620.0731, 3773.800
620.5552, 3764.855
621.0373, 3787.668
621.5194, 3811.303
622.0015, 3827.007
622.4836, 3834.742
622.9658, 3834.594
623.4479, 3812.716
623.9300, 3800.397
624.4121, 3807.577
624.8942, 3826.044
625.3763, 3829.762
625.8585, 3810.567
626.3406, 3799.656
626.8227, 3814.076
627.3048, 3848.274
627.7869, 3862.678
628.2690, 3856.282
628.7512, 3843.964
629.2333, 3833.931
629.7154, 3827.007
630.1975, 3826.195
630.6796, 3832.846
631.1617, 3839.611
631.6439, 3842.275
632.1260, 3841.416
632.6081, 3837.711
633.0902, 3828.753
633.5723, 3820.211
634.0544, 3814.815
634.5366, 3811.002
635.0187, 3804.758
635.5008, 3793.288
635.9829, 3783.146
636.4650, 3776.338
636.9471, 3772.419
637.4293, 3768.179
637.9114, 3763.147
638.3935, 3759.485
638.8756, 3759.958
639.3577, 3763.160
639.8398, 3760.148
640.3220, 3749.401
640.8041, 3744.191
641.2862, 3764.996
641.7683, 3796.977
642.2504, 3816.710
642.7325, 3814.748
643.2147, 3807.559
643.6968, 3799.607
644.1789, 3793.015
644.6610, 3790.895
645.1431, 3797.912
645.6252, 3805.277
646.1074, 3812.614
646.5895, 3819.267
647.0716, 3822.083
647.5537, 3821.326
648.0358, 3816.100
648.5179, 3803.908
649.0001, 3785.901
649.4822, 3772.995
649.9643, 3765.012
650.4464, 3763.879
650.9285, 3776.176
651.4106, 3795.584
651.8928, 3809.182
652.3749, 3815.055
652.8570, 3816.180
653.3391, 3809.196
653.8212, 3800.659
654.3033, 3798.504
654.7855, 3813.921
655.2676, 3825.625
655.7497, 3824.167
656.2318, 3816.304
656.7139, 3817.715
657.1960, 3838.313
657.6782, 3849.632
658.1603, 3839.636
658.6424, 3814.458
659.1245, 3810.318
659.6066, 3829.870
660.0887, 3846.609
660.5709, 3839.041
661.0530, 3817.206
661.5351, 3808.177
662.0172, 3812.871
662.4993, 3821.852
662.9814, 3836.012
663.4636, 3846.410
663.9457, 3840.508
664.4278, 3807.097
664.9099, 3781.994
665.3920, 3785.646
665.8741, 3801.047
666.3563, 3806.558
666.8384, 3793.215
667.3205, 3782.681
667.8026, 3776.451
668.2847, 3774.434
668.7668, 3776.879
669.2490, 3784.122
669.7311, 3794.137
670.2132, 3809.516
670.6953, 3825.272
671.1774, 3825.906
671.6595, 3813.127
672.1417, 3799.992
672.6238, 3790.757
673.1059, 3788.043
673.5880, 3797.645
674.0701, 3820.122
674.5522, 3840.297
675.0344, 3854.792
675.5165, 3862.336
675.9986, 3860.724
676.4807, 3841.827
676.9628, 3830.355
677.4449, 3830.202
677.9271, 3833.597
678.4092, 3829.199
678.8913, 3814.135
679.3734, 3814.015
679.8555, 3838.408
680.3376, 3868.498
680.8198, 3868.729
681.3019, 3845.000
681.7840, 3821.651
682.2661, 3805.265
682.7482, 3797.102
683.2303, 3802.031
683.7125, 3816.766
684.1946, 3829.764
684.6767, 3836.594
685.1588, 3840.297
685.6409, 3841.589
686.1230, 3840.297
686.6052, 3838.793
687.0873, 3833.471
687.5694, 3832.929
688.0515, 3844.962
688.5336, 3872.024
689.0157, 3886.516
689.4979, 3886.754
689.9800, 3881.839
690.4621, 3881.765
690.9442, 3883.984
691.4263, 3878.839
691.9084, 3860.421
692.3906, 3848.997
692.8727, 3874.983
693.3548, 3914.917
693.8369, 3935.965
694.3190, 3902.134
694.8011, 3876.378
695.2833, 3882.613
695.7654, 3907.437
696.2475, 3917.684
696.7296, 3905.796
697.2117, 3893.781
697.6938, 3885.528
698.1760, 3881.699
698.6581, 3886.339
699.1402, 3899.661
699.6223, 3914.759
700.1044, 3927.600
700.5865, 3939.470
701.0686, 3957.799
701.5507, 3981.413
702.0328, 3991.607
702.5150, 3955.467
702.9971, 3915.048
703.4792, 3908.475
703.9613, 3951.775
704.4434, 3980.514
704.9255, 3970.932
705.4077, 3950.427
705.8898, 3937.279
706.3719, 3931.300
706.8540, 3934.704
707.3361, 3951.252
707.8182, 3970.267
708.3004, 3977.438
708.7825, 3973.570
709.2646, 3963.876
709.7467, 3947.210
710.2288, 3930.591
710.7109, 3922.349
711.1931, 3920.550
711.6752, 3920.867
712.1573, 3920.091
712.6394, 3922.441
713.1215, 3933.640
713.6036, 3950.422
714.0858, 3959.034
714.5679, 3954.750
715.0500, 3947.856
715.5321, 3940.124
716.0142, 3931.959
716.4963, 3927.727
716.9785, 3927.945
717.4606, 3929.112
717.9427, 3930.910
718.4248, 3931.866
718.9069, 3924.823
719.3890, 3909.978
719.8712, 3900.271
720.3533, 3912.525
720.8354, 3930.463
721.3175, 3936.703
721.7996, 3924.794
722.2817, 3917.381
722.7639, 3917.048
723.2460, 3925.660
723.7281, 3947.593
724.2102, 3999.193
724.6923, 4019.145
725.1744, 3995.437
725.6566, 3955.005
726.1387, 3932.209
726.6208, 3926.026
727.1029, 3926.523
727.5850, 3934.695
728.0671, 3941.291
728.5493, 3928.443
729.0314, 3906.008
729.5135, 3894.193
729.9956, 3914.043
730.4777, 3932.964
730.9598, 3934.042
731.4420, 3923.035
731.9241, 3919.327
732.4062, 3927.056
732.8883, 3937.969
733.3704, 3953.163
733.8525, 3969.920
734.3347, 3971.087
734.8168, 3954.875
735.2989, 3940.271
735.7810, 3938.348
736.2631, 3945.331
736.7452, 3957.433
737.2274, 3973.249
737.7095, 3979.534
738.1916, 3955.959
738.6737, 3928.014
739.1558, 3917.187
739.6379, 3928.502
740.1201, 3935.945
740.6022, 3931.217
741.0843, 3924.690
741.5664, 3923.113
742.0485, 3929.678
742.5306, 3926.347
743.0128, 3909.586
743.4949, 3893.244
743.9770, 3889.252
744.4591, 3897.446
744.9412, 3921.709
745.4233, 3967.617
745.9055, 4006.921
746.3876, 4006.114
746.8697, 3986.256
747.3518, 3975.503
747.8339, 3984.144
748.3160, 3998.514
748.7982, 4027.844
749.2803, 4056.059
749.7624, 4058.154
750.2445, 4021.318
750.7266, 3990.773
751.2087, 3972.738
751.6909, 3966.073
752.1730, 3971.418
752.6551, 3987.427
753.1372, 4003.601
753.6193, 4017.454
754.1014, 4028.124
754.5836, 4034.056
755.0657, 4036.191
755.5478, 4037.109
756.0299, 4036.966
756.5120, 4036.928
756.9941, 4037.540
757.4763, 4038.762
757.9584, 4040.191
758.4405, 4042.630
758.9226, 4043.386
759.4047, 4039.946
759.8868, 4033.674
760.3690, 4033.576
760.8511, 4039.596
761.3332, 4046.723
761.8153, 4051.688
762.2974, 4055.695
762.7795, 4062.391
763.2617, 4071.470
763.7438, 4074.717
764.2259, 4064.283
764.7080, 4049.787
765.1901, 4034.144
765.6722, 4014.364
766.1544, 4013.139
766.6365, 4043.572
767.1186, 4072.898
767.6007, 4074.170
768.0828, 4047.481
768.5649, 4032.180
769.0471, 4030.390
769.5292, 4033.110
770.0113, 4032.619
770.4934, 4030.508
770.9755, 4029.234
771.4576, 4029.169
771.9398, 4030.255
772.4219, 4031.772
772.9040, 4034.818
773.3861, 4040.678
773.8682, 4054.889
774.3503, 4063.012
774.8325, 4065.215
775.3146, 4061.042
775.7967, 4046.157
776.2788, 4020.505
776.7609, 4004.639
777.2430, 4003.019
777.7252, 4008.179
778.2073, 4011.443
778.6894, 4014.287
779.1715, 4020.388
779.6536, 4038.021
780.1357, 4047.925
780.6179, 4033.103
781.1000, 4006.983
781.5821, 3993.641
782.0642, 4010.067
782.5463, 4011.098
783.0284, 3983.413
783.5105, 3944.795
783.9926, 3937.265
784.4747, 3960.017
784.9568, 3973.777
785.4390, 3963.195
785.9211, 3941.671
786.4032, 3921.182
786.8853, 3904.557
787.3674, 3899.297
787.8495, 3922.013
788.3317, 3942.525
788.8138, 3946.848
789.2959, 3938.352
789.7780, 3931.484
790.2601, 3929.311
790.7422, 3922.212
791.2244, 3903.096
791.7065, 3878.956
792.1886, 3879.033
792.6707, 3901.728
793.1528, 3917.689
793.6349, 3908.659
794.1171, 3886.475
794.5992, 3858.289
795.0813, 3827.865
795.5634, 3808.792
796.0455, 3820.834
796.5276, 3832.464
797.0098, 3827.107
797.4919, 3807.041
797.9740, 3798.071
798.4561, 3806.950
798.9382, 3809.817
799.4203, 3791.311
799.9025, 3759.046
800.3846, 3748.169
800.8667, 3757.417
801.3488, 3768.247
801.8309, 3769.656
802.3130, 3765.825
802.7952, 3759.582
803.2773, 3751.249
803.7594, 3743.060
804.2415, 3737.103
804.7236, 3729.933
805.2057, 3718.662
805.6879, 3703.183
806.1700, 3694.276
806.6521, 3692.739
807.1342, 3694.803
807.6163, 3699.923
808.0984, 3706.746
808.5806, 3710.168
809.0627, 3710.327
809.5448, 3710.355
810.0269, 3712.876
810.5090, 3715.703
810.9911, 3716.077
811.4733, 3713.312
811.9554, 3714.254
812.4375, 3727.710
812.9196, 3736.530
813.4017, 3730.329
813.8839, 3708.215
814.3660, 3696.267
814.8481, 3695.422
815.3302, 3697.970
815.8123, 3700.868
816.2944, 3702.317
816.7766, 3697.299
817.2587, 3685.897
817.7408, 3675.935
818.2229, 3667.258
818.7050, 3665.596
819.1871, 3676.589
819.6693, 3704.418
820.1514, 3730.396
820.6335, 3756.385
821.1156, 3778.071
821.5977, 3792.613
822.0798, 3800.153
822.5620, 3800.578
823.0441, 3793.352
823.5262, 3787.321
824.0083, 3787.948
824.4904, 3794.865
824.9725, 3811.859
825.4547, 3840.424
825.9368, 3858.701
826.4189, 3848.580
826.9010, 3833.330
827.3831, 3827.290
827.8652, 3832.162
828.3474, 3836.849
828.8295, 3841.760
829.3116, 3845.258
829.7937, 3845.591
830.2758, 3843.508
830.7579, 3840.907
831.2401, 3837.887
831.7222, 3835.731
832.2043, 3834.315
832.6864, 3834.887
833.1685, 3839.576
833.6506, 3849.880
834.1328, 3856.645
834.6149, 3855.510
835.0970, 3855.249
835.5791, 3862.278
836.0612, 3877.082
836.5433, 3887.852
837.0255, 3894.739
837.5076, 3896.609
837.9897, 3894.288
838.4718, 3885.649
838.9539, 3861.175
839.4360, 3819.508
839.9182, 3792.140
840.4003, 3805.228
840.8824, 3827.224
841.3645, 3837.913
841.8466, 3834.730
842.3287, 3835.933
842.8109, 3841.709
843.2930, 3850.961
843.7751, 3867.697
844.2572, 3887.572
844.7393, 3888.723
845.2214, 3871.401
845.7036, 3856.481
846.1857, 3869.970
846.6678, 3884.390
847.1499, 3869.528
847.6320, 3820.073
848.1141, 3795.224
848.5963, 3822.762
849.0784, 3851.553
849.5605, 3854.594
850.0426, 3833.419
850.5247, 3835.222
851.0068, 3861.742
851.4890, 3885.015
851.9711, 3880.215
852.4532, 3863.074
852.9353, 3855.649
853.4174, 3857.916
853.8995, 3860.296
854.3817, 3858.709
854.8638, 3855.562
855.3459, 3849.031
855.8280, 3839.622
856.3101, 3843.563
856.7922, 3864.899
857.2744, 3885.708
857.7565, 3897.013
858.2386, 3900.663
858.7207, 3901.558
859.2028, 3899.648
859.6849, 3894.270
860.1671, 3876.865
860.6492, 3863.103
861.1313, 3866.188
861.6134, 3884.423
862.0955, 3900.142
862.5776, 3914.614
863.0598, 3921.805
863.5419, 3917.802
864.0240, 3905.635
864.5061, 3894.588
864.9882, 3885.124
865.4703, 3883.533
865.9524, 3901.479
866.4345, 3922.103
866.9166, 3926.319
867.3987, 3918.134
867.8809, 3909.288
868.3630, 3899.414
868.8451, 3894.933
869.3272, 3901.125
869.8093, 3912.602
870.2914, 3913.423
870.7736, 3902.456
871.2557, 3889.562
871.7378, 3874.891
872.2199, 3864.342
872.7020, 3874.775
873.1841, 3896.929
873.6663, 3907.516
874.1484, 3882.130
874.6305, 3860.508
875.1126, 3860.707
875.5947, 3873.719
876.0768, 3880.557
876.5590, 3877.715
877.0411, 3878.249
877.5232, 3883.916
878.0053, 3894.210
878.4874, 3913.867
878.9695, 3938.074
879.4517, 3949.507
879.9338, 3939.321
880.4159, 3925.892
880.8980, 3921.218
881.3801, 3920.948
881.8622, 3919.607
882.3444, 3914.171
882.8265, 3911.207
883.3086, 3911.598
883.7907, 3913.158
884.2728, 3912.529
884.7549, 3910.294
885.2371, 3912.225
885.7192, 3919.343
886.2013, 3928.097
886.6834, 3936.789
887.1655, 3944.442
887.6476, 3951.848
888.1298, 3963.073
888.6119, 3958.603
889.0940, 3921.065
889.5761, 3884.280
890.0582, 3871.954
890.5403, 3885.802
891.0225, 3898.502
891.5046, 3910.407
891.9867, 3917.293
892.4688, 3909.726
892.9509, 3898.262
893.4330, 3897.538
893.9152, 3908.416
894.3973, 3917.659
894.8794, 3917.704
895.3615, 3917.640
895.8436, 3921.256
896.3257, 3928.415
896.8079, 3938.341
897.2900, 3951.696
897.7721, 3961.613
898.2542, 3964.533
898.7363, 3961.119
899.2184, 3945.684
899.7006, 3922.929
900.1827, 3913.336
900.6648, 3944.443
901.1469, 3971.475
901.6290, 3969.741
902.1111, 3948.961
902.5933, 3940.592
903.0754, 3948.060
903.5575, 3954.201
904.0396, 3953.444
904.5217, 3949.620
905.0038, 3950.996
905.4860, 3955.346
905.9681, 3956.253
906.4502, 3945.558
906.9323, 3938.359
907.4144, 3942.263
907.8965, 3954.097
908.3787, 3969.523
908.8608, 3993.408
909.3429, 4006.814
909.8250, 4006.396
910.3071, 3998.337
910.7892, 3986.445
911.2714, 3973.889
911.7535, 3971.756
912.2356, 3984.563
912.7177, 3996.174
913.1998, 3993.491
913.6819, 3986.271
914.1641, 3983.952
914.6462, 3990.200
915.1283, 3991.543
915.6104, 3984.599
916.0925, 3980.516
916.5746, 3991.783
917.0568, 4013.926
917.5389, 4026.686
918.0210, 4029.837
918.5031, 4033.221
918.9852, 4050.531
919.4673, 4065.022
919.9495, 4061.669
920.4316, 4039.343
920.9137, 4024.841
921.3958, 4021.707
921.8779, 4020.138
922.3600, 4013.902
922.8422, 4006.896
923.3243, 4017.330
923.8064, 4041.891
924.2885, 4062.311
924.7706, 4065.150
925.2527, 4063.374
925.7349, 4064.292
926.2170, 4067.232
926.6991, 4070.069
927.1812, 4070.091
927.6633, 4075.750
928.1454, 4092.087
928.6276, 4109.895
929.1097, 4111.709
929.5918, 4099.688
930.0739, 4081.537
930.5560, 4055.572
931.0381, 4036.750
931.5203, 4041.595
932.0024, 4057.943
932.4845, 4072.721
932.9666, 4085.413
933.4487, 4092.413
933.9308, 4091.666
934.4130, 4088.526
934.8951, 4088.040
935.3772, 4089.383
935.8593, 4088.618
936.3414, 4085.447
936.8235, 4080.515
937.3057, 4067.654
937.7878, 4058.304
938.2699, 4062.098
938.7520, 4080.456
939.2341, 4103.964
939.7162, 4140.976
940.1984, 4164.360
940.6805, 4156.639
941.1626, 4128.654
941.6447, 4120.092
942.1268, 4128.310
942.6089, 4138.240
943.0911, 4142.397
943.5732, 4145.112
944.0553, 4145.497
944.5374, 4146.650
945.0195, 4158.491
945.5016, 4192.881
945.9838, 4210.363
946.4659, 4199.264
946.9480, 4178.981
947.4301, 4182.465
947.9122, 4203.825
948.3943, 4222.774
948.8764, 4235.985
949.3585, 4241.114
949.8406, 4226.544
950.3228, 4209.351
950.8049, 4208.319
951.2870, 4232.130
951.7691, 4245.950
952.2512, 4246.674
952.7333, 4245.827
953.2155, 4254.538
953.6976, 4268.602
954.1797, 4276.319
954.6618, 4277.363
955.1439, 4273.686
955.6260, 4255.139
956.1082, 4242.551
956.5903, 4254.203
957.0724, 4285.201
957.5545, 4301.819
958.0366, 4300.526
958.5187, 4297.797
959.0009, 4299.482
959.4830, 4302.739
959.9651, 4300.697
960.4472, 4295.753
960.9293, 4294.030
961.4114, 4300.509
961.8936, 4307.312
962.3757, 4309.625
962.8578, 4311.666
963.3399, 4318.840
963.8220, 4332.041
964.3041, 4347.021
964.7863, 4364.726
965.2684, 4378.485
965.7505, 4377.172
966.2326, 4368.774
966.7147, 4365.085
967.1968, 4367.565
967.6790, 4375.816
968.1611, 4397.083
968.6432, 4416.738
969.1253, 4427.086
969.6074, 4428.733
970.0895, 4431.253
970.5717, 4434.552
971.0538, 4444.105
971.5359, 4471.848
972.0180, 4500.447
972.5001, 4507.461
972.9822, 4498.461
973.4644, 4489.074
973.9465, 4478.943
974.4286, 4476.177
974.9107, 4485.774
975.3928, 4499.512
975.8749, 4499.718
976.3571, 4488.413
976.8392, 4492.433
977.3213, 4519.271
977.8034, 4549.192
978.2855, 4569.191
978.7676, 4579.952
979.2498, 4579.022
979.7319, 4559.677
980.2140, 4554.350
980.6961, 4571.228
981.1782, 4588.184
981.6603, 4586.410
982.1425, 4572.559
982.6246, 4587.039
983.1067, 4625.238
983.5888, 4653.447
984.0709, 4638.128
984.5530, 4620.260
985.0352, 4628.372
985.5173, 4654.720
985.9994, 4667.625
986.4815, 4664.094
986.9636, 4654.035
987.4457, 4635.234
987.9279, 4620.009
988.4100, 4635.395
988.8921, 4668.057
989.3742, 4686.683
989.8563, 4677.953
990.3384, 4672.113
990.8206, 4681.641
991.3027, 4699.274
991.7848, 4720.456
992.2669, 4746.340
992.7490, 4763.481
993.2311, 4770.990
993.7133, 4777.186
994.1954, 4789.958
994.6775, 4803.646
995.1596, 4810.245
995.6417, 4810.882
996.1238, 4812.164
996.6060, 4821.997
997.0881, 4824.844
997.5702, 4813.839
998.0523, 4796.740
998.5344, 4791.676
999.0165, 4797.363
999.4987, 4800.848
999.9808, 4796.367
1000.463, 4796.417
1000.945, 4822.667
1001.427, 4853.364
1001.909, 4863.110
1002.391, 4836.861
1002.873, 4821.783
1003.356, 4820.426
1003.838, 4824.099
1004.320, 4826.200
1004.802, 4828.424
1005.284, 4838.892
1005.766, 4855.978
1006.248, 4867.677
1006.730, 4856.688
1007.213, 4850.105
1007.695, 4867.248
1008.177, 4897.801
1008.659, 4914.898
1009.141, 4917.070
1009.623, 4914.244
1010.105, 4907.997
1010.587, 4899.032
1011.069, 4879.803
1011.552, 4861.708
1012.034, 4864.170
1012.516, 4900.359
1012.998, 4930.786
1013.480, 4952.740
1013.962, 4962.467
1014.444, 4954.376
1014.926, 4930.063
1015.409, 4905.646
1015.891, 4881.956
1016.373, 4870.738
1016.855, 4889.227
1017.337, 4913.692
1017.819, 4925.294
1018.301, 4928.628
1018.783, 4942.313
1019.265, 4976.114
1019.748, 4994.782
1020.230, 4986.718
1020.712, 4973.632
1021.194, 4996.218
1021.676, 5036.872
1022.158, 5053.846
1022.640, 5034.217
1023.122, 5015.283
1023.604, 5007.376
1024.087, 5011.343
1024.569, 5031.650
1025.051, 5067.582
1025.533, 5082.871
1026.015, 5077.118
1026.497, 5069.890
1026.979, 5074.262
1027.461, 5081.720
1027.943, 5084.529
1028.426, 5083.534
1028.908, 5080.677
1029.390, 5075.933
1029.872, 5069.304
1030.354, 5057.879
1030.836, 5049.761
1031.318, 5062.321
1031.800, 5087.586
1032.283, 5095.014
1032.765, 5079.758
1033.247, 5064.395
1033.729, 5059.734
1034.211, 5062.243
1034.693, 5071.525
1035.175, 5086.476
1035.657, 5100.581
1036.140, 5114.104
1036.622, 5123.263
1037.104, 5126.658
1037.586, 5124.452
1038.068, 5113.306
1038.550, 5097.459
1039.032, 5084.695
1039.514, 5074.229
1039.996, 5072.021
1040.479, 5080.410
1040.961, 5093.642
1041.443, 5108.353
1041.925, 5123.589
1042.407, 5133.364
1042.889, 5137.646
1043.371, 5139.187
1043.853, 5138.216
1044.335, 5136.568
1044.818, 5130.689
1045.300, 5124.536
1045.782, 5139.799
1046.264, 5183.546
1046.746, 5204.379
1047.228, 5181.121
1047.710, 5148.284
1048.192, 5150.909
1048.675, 5176.348
1049.157, 5207.995
1049.639, 5250.228
1050.121, 5273.765
1050.603, 5269.549
1051.085, 5255.604
1051.567, 5238.500
1052.049, 5220.756
1052.531, 5221.325
1053.014, 5237.951
1053.496, 5254.203
1053.978, 5258.899
1054.460, 5262.891
1054.942, 5277.340
1055.424, 5293.948
1055.906, 5293.222
1056.388, 5269.396
1056.870, 5255.044
1057.353, 5253.248
1057.835, 5266.336
1058.317, 5315.285
1058.799, 5370.314
1059.281, 5387.649
1059.763, 5360.269
1060.245, 5340.965
1060.727, 5337.876
1061.210, 5346.820
1061.692, 5372.644
1062.174, 5405.033
1062.656, 5410.516
1063.138, 5395.436
1063.620, 5384.191
1064.102, 5384.542
1064.584, 5393.250
1065.067, 5420.138
1065.549, 5447.173
1066.031, 5455.122
1066.513, 5440.130
1066.995, 5426.513
1067.477, 5413.444
1067.959, 5412.059
1068.441, 5442.147
1068.923, 5479.231
1069.406, 5500.300
1069.888, 5505.899
1070.370, 5500.906
1070.852, 5475.427
1071.334, 5460.173
1071.816, 5460.980
1072.298, 5471.860
1072.780, 5488.441
1073.262, 5507.252
1073.745, 5519.347
1074.227, 5522.579
1074.709, 5525.085
1075.191, 5535.707
1075.673, 5541.081
1076.155, 5532.079
1076.637, 5511.707
1077.119, 5502.223
1077.601, 5503.157
1078.084, 5505.112
1078.566, 5498.241
1079.048, 5500.022
1079.530, 5536.242
1080.012, 5585.768
1080.494, 5617.227
1080.976, 5623.745
1081.458, 5626.462
1081.941, 5626.169
1082.423, 5618.459
1082.905, 5587.314
1083.387, 5552.870
1083.869, 5555.515
1084.351, 5588.337
1084.833, 5612.172
1085.315, 5604.279
1085.797, 5599.598
1086.280, 5608.444
1086.762, 5619.479
1087.244, 5611.392
1087.726, 5588.352
1088.208, 5564.307
1088.690, 5540.053
1089.172, 5530.140
1089.654, 5560.441
1090.136, 5592.734
1090.619, 5600.205
1091.101, 5586.108
1091.583, 5576.496
1092.065, 5571.281
1092.547, 5571.800
1093.029, 5579.116
1093.511, 5591.443
1093.993, 5613.717
1094.476, 5637.020
1094.958, 5648.058
1095.440, 5635.521
1095.922, 5637.439
1096.404, 5659.371
1096.886, 5679.089
1097.368, 5679.509
1097.850, 5666.065
1098.333, 5641.665
1098.815, 5611.296
1099.297, 5594.078
1099.779, 5608.227
1100.261, 5621.388
1100.743, 5628.744
1101.225, 5630.555
1101.707, 5624.210
1102.189, 5612.082
1102.672, 5609.210
1103.154, 5617.442
1103.636, 5619.819
1104.118, 5591.262
1104.600, 5568.382
1105.082, 5585.434
1105.564, 5626.241
1106.046, 5617.340
1106.528, 5557.058
1107.011, 5522.411
1107.493, 5543.452
1107.975, 5572.491
1108.457, 5559.940
1108.939, 5530.562
1109.421, 5511.317
1109.903, 5506.813
1110.385, 5507.247
1110.868, 5513.458
1111.350, 5521.136
1111.832, 5530.142
1112.314, 5537.179
1112.796, 5533.714
1113.278, 5524.011
1113.760, 5517.756
1114.242, 5523.554
1114.724, 5523.870
1115.207, 5513.784
1115.689, 5503.931
1116.171, 5506.528
1116.653, 5517.710
1117.135, 5526.574
1117.617, 5531.947
1118.099, 5529.318
1118.581, 5507.907
1119.063, 5488.144
1119.546, 5478.958
1120.028, 5475.251
1120.510, 5468.141
1120.992, 5457.917
1121.474, 5446.535
1121.956, 5434.259
1122.438, 5422.480
1122.920, 5408.995
1123.403, 5399.270
1123.885, 5399.911
1124.367, 5409.065
1124.849, 5415.034
1125.331, 5417.422
1125.813, 5422.158
1126.295, 5433.689
1126.777, 5442.021
1127.260, 5430.919
1127.742, 5412.305
1128.224, 5400.990
1128.706, 5401.191
1129.188, 5403.695
1129.670, 5411.878
1130.152, 5410.219
1130.634, 5378.039
1131.116, 5339.896
1131.599, 5348.925
1132.081, 5385.955
1132.563, 5405.349
1133.045, 5375.183
1133.527, 5351.776
1134.009, 5339.422
1134.491, 5334.161
1134.973, 5333.733
1135.455, 5337.054
1135.938, 5344.223
1136.420, 5353.402
1136.902, 5353.849
1137.384, 5328.486
1137.866, 5308.731
1138.348, 5307.504
1138.830, 5312.920
1139.312, 5304.693
1139.795, 5285.416
1140.277, 5271.251
1140.759, 5264.457
1141.241, 5260.752
1141.723, 5267.849
1142.205, 5266.769
1142.687, 5240.085
1143.169, 5197.288
1143.651, 5172.337
1144.134, 5164.937
1144.616, 5163.500
1145.098, 5167.024
1145.580, 5167.762
1146.062, 5155.162
1146.544, 5139.324
1147.026, 5129.788
1147.508, 5127.068
1147.990, 5124.386
1148.473, 5121.325
1148.955, 5121.553
1149.437, 5126.384
1149.919, 5135.531
1150.401, 5158.915
1150.883, 5182.115
1151.365, 5181.309
1151.847, 5139.353
1152.330, 5113.067
1152.812, 5105.869
1153.294, 5102.008
1153.776, 5089.076
1154.258, 5073.694
1154.740, 5066.362
1155.222, 5065.310
1155.704, 5066.002
1156.186, 5073.727
1156.669, 5072.462
1157.151, 5059.225
1157.633, 5042.523
1158.115, 5028.934
1158.597, 5018.746
1159.079, 5014.899
1159.561, 5015.975
1160.043, 5013.017
1160.526, 5000.707
1161.008, 4985.414
1161.490, 4965.385
1161.972, 4947.358
1162.454, 4942.487
1162.936, 4947.740
1163.418, 4957.669
1163.900, 4971.283
1164.382, 4974.257
1164.865, 4940.875
1165.347, 4919.643
1165.829, 4937.332
1166.311, 4970.639
1166.793, 4955.924
1167.275, 4903.846
1167.757, 4862.850
1168.239, 4842.633
1168.721, 4837.103
1169.204, 4857.162
1169.686, 4876.733
1170.168, 4880.301
1170.650, 4870.798
1171.132, 4858.546
1171.614, 4845.290
1172.096, 4846.664
1172.578, 4877.242
1173.061, 4900.025
1173.543, 4879.855
1174.025, 4849.823
1174.507, 4840.388
1174.989, 4851.418
1175.471, 4850.943
1175.953, 4839.460
1176.435, 4829.839
1176.917, 4831.708
1177.400, 4833.587
1177.882, 4827.467
1178.364, 4816.459
1178.846, 4803.850
1179.328, 4788.572
1179.810, 4780.655
1180.292, 4780.378
1180.774, 4784.703
1181.256, 4798.090
1181.739, 4809.307
1182.221, 4808.358
1182.703, 4798.517
1183.185, 4785.378
1183.667, 4766.189
1184.149, 4758.521
1184.631, 4764.031
1185.113, 4773.080
1185.596, 4779.289
1186.078, 4783.625
1186.560, 4783.734
1187.042, 4782.742
1187.524, 4793.538
1188.006, 4824.390
1188.488, 4832.010
1188.970, 4807.414
1189.453, 4778.708
1189.935, 4777.955
1190.417, 4784.635
1190.899, 4771.289
1191.381, 4741.422
1191.863, 4736.758
1192.345, 4769.344
1192.827, 4786.637
1193.309, 4774.766
1193.792, 4757.116
1194.274, 4762.891
1194.756, 4778.064
1195.238, 4786.409
1195.720, 4785.960
1196.202, 4783.289
1196.684, 4776.042
1197.166, 4777.144
1197.648, 4793.895
1198.131, 4810.826
1198.613, 4806.083
1199.095, 4788.535
1199.577, 4767.571
1200.059, 4743.401
1200.541, 4728.433
1201.023, 4721.563
1201.505, 4729.393
1201.988, 4760.329
1202.470, 4796.646
1202.952, 4815.543
1203.434, 4819.358
1203.916, 4808.456
1204.398, 4773.606
1204.880, 4762.237
1205.362, 4784.047
1205.844, 4800.247
1206.327, 4779.378
1206.809, 4754.815
1207.291, 4801.242
1207.773, 4879.647
1208.255, 4918.942
1208.737, 4878.236
1209.219, 4852.633
1209.701, 4845.230
1210.183, 4846.897
1210.666, 4861.957
1211.148, 4874.403
1211.630, 4844.425
1212.112, 4793.085
1212.594, 4764.227
1213.076, 4788.913
1213.558, 4804.458
1214.040, 4809.675
1214.523, 4810.209
1215.005, 4810.265
1215.487, 4808.589
1215.969, 4802.064
1216.451, 4792.197
1216.933, 4782.711
1217.415, 4769.164
1217.897, 4767.583
1218.380, 4781.564
1218.862, 4797.760
1219.344, 4805.397
1219.826, 4807.601
1220.308, 4805.631
1220.790, 4802.079
1221.272, 4806.461
1221.754, 4829.434
1222.236, 4837.000
1222.719, 4821.698
1223.201, 4806.803
1223.683, 4821.829
1224.165, 4846.924
1224.647, 4852.890
1225.129, 4843.076
1225.611, 4841.092
1226.093, 4854.402
1226.575, 4862.294
1227.058, 4861.628
1227.540, 4857.640
1228.022, 4852.150
1228.504, 4849.197
1228.986, 4857.880
1229.468, 4875.656
1229.950, 4881.618
1230.432, 4870.440
1230.915, 4861.826
1231.397, 4858.733
1231.879, 4859.912
1232.361, 4870.382
1232.843, 4879.918
1233.325, 4869.433
1233.807, 4842.809
1234.289, 4847.166
1234.771, 4896.635
1235.254, 4913.647
1235.736, 4875.486
1236.218, 4833.278
1236.700, 4851.033
1237.182, 4888.809
1237.664, 4907.874
1238.146, 4905.708
1238.628, 4904.098
1239.110, 4903.784
1239.593, 4897.429
1240.075, 4881.301
1240.557, 4866.657
1241.039, 4862.409
1241.521, 4866.445
1242.003, 4883.212
1242.485, 4908.945
1242.967, 4910.125
1243.449, 4884.251
1243.932, 4873.782
1244.414, 4893.999
1244.896, 4917.292
1245.378, 4917.993
1245.860, 4911.193
1246.342, 4910.296
1246.824, 4914.439
1247.306, 4913.535
1247.789, 4907.750
1248.271, 4906.021
1248.753, 4911.302
1249.235, 4919.616
1249.717, 4930.279
1250.199, 4940.592
1250.681, 4948.722
1251.163, 4954.734
1251.646, 4960.031
1252.128, 4964.199
1252.610, 4963.723
1253.092, 4956.467
1253.574, 4947.749
1254.056, 4938.639
1254.538, 4931.226
1255.020, 4926.331
1255.502, 4924.118
1255.984, 4925.051
1256.467, 4929.600
1256.949, 4941.829
1257.431, 4967.862
1257.913, 4986.193
1258.395, 4977.874
1258.877, 4969.071
1259.359, 4974.132
1259.841, 4988.187
1260.324, 4996.948
1260.806, 4999.805
1261.288, 4992.353
1261.770, 4964.965
1262.252, 4953.474
1262.734, 4979.265
1263.216, 5002.554
1263.698, 5000.257
1264.181, 4984.345
1264.663, 4987.425
1265.145, 5000.911
1265.627, 5005.083
1266.109, 4992.334
1266.591, 4975.361
1267.073, 4953.673
1267.555, 4932.732
1268.037, 4911.120
1268.520, 4897.044
1269.002, 4911.815
1269.484, 4942.812
1269.966, 4967.781
1270.448, 4981.303
1270.930, 4987.807
1271.412, 4984.253
1271.894, 4986.563
1272.376, 5007.325
1272.859, 5032.080
1273.341, 5045.060
1273.823, 5047.862
1274.305, 5038.071
1274.787, 5009.747
1275.269, 5013.192
1275.751, 5051.936
1276.233, 5086.179
1276.716, 5097.579
1277.198, 5094.704
1277.680, 5076.931
1278.162, 5054.618
1278.644, 5039.565
1279.126, 5031.963
1279.608, 5029.958
1280.090, 5033.411
1280.573, 5039.517
1281.055, 5053.345
1281.537, 5057.937
1282.019, 5026.640
1282.501, 4995.321
1282.983, 4995.408
1283.465, 5023.203
1283.947, 5046.129
1284.429, 5063.404
1284.911, 5071.838
1285.394, 5067.012
1285.876, 5059.273
1286.358, 5049.688
##END=



