##NAMES=Chalcocite
##RRUFFID=R120090
##IDEAL CHEMISTRY=Cu^1+^_2_S^2-^
##LOCALITY=Tsumeb, Namibia
##OWNER=RRUFF
##SOURCE=William W Pinch
##DESCRIPTION=Grey metallic hexagonal tablets associated with stottite R120089, siderite and tennantite
##STATUS=The identification of this mineral is confirmed by single-crystal X-ray diffraction and chemical analysis.
##URL=rruff.info/R120090
##MEASURED CHEMISTRY=Cu_1.99_S
9.112140e+001, 0.000000e+000
9.160352e+001, 3.324752e+002
9.208563e+001, 3.306315e+002
9.256775e+001, 3.303556e+002
9.304987e+001, 3.321576e+002
9.353198e+001, 3.350159e+002
9.401410e+001, 3.353829e+002
9.449622e+001, 3.326773e+002
9.497833e+001, 3.272281e+002
9.546045e+001, 3.191360e+002
9.594257e+001, 3.083020e+002
9.642468e+001, 2.998616e+002
9.690680e+001, 2.941227e+002
9.738892e+001, 2.901083e+002
9.787103e+001, 2.885953e+002
9.835315e+001, 2.885053e+002
9.883527e+001, 2.876577e+002
9.931738e+001, 2.845399e+002
9.979950e+001, 2.785107e+002
1.002816e+002, 2.725710e+002
1.007637e+002, 2.660887e+002
1.012458e+002, 2.598581e+002
1.017280e+002, 2.545401e+002
1.022101e+002, 2.501973e+002
1.026922e+002, 2.468377e+002
1.031743e+002, 2.448146e+002
1.036564e+002, 2.440538e+002
1.041385e+002, 2.434507e+002
1.046207e+002, 2.424954e+002
1.051028e+002, 2.413438e+002
1.055849e+002, 2.406463e+002
1.060670e+002, 2.411262e+002
1.065491e+002, 2.415113e+002
1.070313e+002, 2.404743e+002
1.075134e+002, 2.378295e+002
1.079955e+002, 2.344603e+002
1.084776e+002, 2.311621e+002
1.089597e+002, 2.279237e+002
1.094418e+002, 2.247539e+002
1.099240e+002, 2.211120e+002
1.104061e+002, 2.177902e+002
1.108882e+002, 2.156399e+002
1.113703e+002, 2.150442e+002
1.118524e+002, 2.153560e+002
1.123345e+002, 2.147811e+002
1.128167e+002, 2.120300e+002
1.132988e+002, 2.101095e+002
1.137809e+002, 2.098819e+002
1.142630e+002, 2.105976e+002
1.147451e+002, 2.113642e+002
1.152272e+002, 2.116481e+002
1.157094e+002, 2.114505e+002
1.161915e+002, 2.107001e+002
1.166736e+002, 2.094984e+002
1.171557e+002, 2.077526e+002
1.176378e+002, 2.048099e+002
1.181199e+002, 2.010857e+002
1.186021e+002, 1.979305e+002
1.190842e+002, 1.966169e+002
1.195663e+002, 1.973373e+002
1.200484e+002, 1.975351e+002
1.205305e+002, 1.965789e+002
1.210126e+002, 1.954859e+002
1.214948e+002, 1.952968e+002
1.219769e+002, 1.962178e+002
1.224590e+002, 1.972970e+002
1.229411e+002, 1.978843e+002
1.234232e+002, 1.979768e+002
1.239053e+002, 1.969987e+002
1.243875e+002, 1.940130e+002
1.248696e+002, 1.897485e+002
1.253517e+002, 1.862154e+002
1.258338e+002, 1.836740e+002
1.263159e+002, 1.819580e+002
1.267980e+002, 1.807435e+002
1.272802e+002, 1.800461e+002
1.277623e+002, 1.799511e+002
1.282444e+002, 1.810070e+002
1.287265e+002, 1.834345e+002
1.292086e+002, 1.846202e+002
1.296907e+002, 1.831293e+002
1.301729e+002, 1.811863e+002
1.306550e+002, 1.796882e+002
1.311371e+002, 1.787812e+002
1.316192e+002, 1.781270e+002
1.321013e+002, 1.773694e+002
1.325834e+002, 1.769098e+002
1.330656e+002, 1.754029e+002
1.335477e+002, 1.716336e+002
1.340298e+002, 1.676958e+002
1.345119e+002, 1.651966e+002
1.349940e+002, 1.646704e+002
1.354761e+002, 1.655198e+002
1.359583e+002, 1.664321e+002
1.364404e+002, 1.675243e+002
1.369225e+002, 1.685316e+002
1.374046e+002, 1.696923e+002
1.378867e+002, 1.707160e+002
1.383688e+002, 1.711590e+002
1.388510e+002, 1.707990e+002
1.393331e+002, 1.697656e+002
1.398152e+002, 1.684452e+002
1.402973e+002, 1.665492e+002
1.407794e+002, 1.648280e+002
1.412615e+002, 1.636642e+002
1.417437e+002, 1.629750e+002
1.422258e+002, 1.623706e+002
1.427079e+002, 1.616751e+002
1.431900e+002, 1.609332e+002
1.436721e+002, 1.602793e+002
1.441542e+002, 1.599132e+002
1.446364e+002, 1.593936e+002
1.451185e+002, 1.580612e+002
1.456006e+002, 1.557280e+002
1.460827e+002, 1.537332e+002
1.465648e+002, 1.532608e+002
1.470469e+002, 1.533415e+002
1.475291e+002, 1.529122e+002
1.480112e+002, 1.513298e+002
1.484933e+002, 1.493061e+002
1.489754e+002, 1.486103e+002
1.494575e+002, 1.503022e+002
1.499396e+002, 1.515032e+002
1.504218e+002, 1.511105e+002
1.509039e+002, 1.498001e+002
1.513860e+002, 1.483874e+002
1.518681e+002, 1.472694e+002
1.523502e+002, 1.464741e+002
1.528323e+002, 1.462964e+002
1.533145e+002, 1.477594e+002
1.537966e+002, 1.488764e+002
1.542787e+002, 1.492517e+002
1.547608e+002, 1.489705e+002
1.552429e+002, 1.482903e+002
1.557250e+002, 1.474004e+002
1.562072e+002, 1.463063e+002
1.566893e+002, 1.448880e+002
1.571714e+002, 1.422693e+002
1.576535e+002, 1.401689e+002
1.581356e+002, 1.394656e+002
1.586177e+002, 1.400448e+002
1.590999e+002, 1.412022e+002
1.595820e+002, 1.424568e+002
1.600641e+002, 1.438932e+002
1.605462e+002, 1.441483e+002
1.610283e+002, 1.423725e+002
1.615104e+002, 1.400654e+002
1.619926e+002, 1.381847e+002
1.624747e+002, 1.368737e+002
1.629568e+002, 1.361005e+002
1.634389e+002, 1.362053e+002
1.639210e+002, 1.371176e+002
1.644031e+002, 1.372836e+002
1.648853e+002, 1.355947e+002
1.653674e+002, 1.332525e+002
1.658495e+002, 1.321843e+002
1.663316e+002, 1.329579e+002
1.668137e+002, 1.341888e+002
1.672958e+002, 1.345070e+002
1.677780e+002, 1.341329e+002
1.682601e+002, 1.338470e+002
1.687422e+002, 1.341516e+002
1.692243e+002, 1.348797e+002
1.697064e+002, 1.354108e+002
1.701885e+002, 1.359198e+002
1.706707e+002, 1.358316e+002
1.711528e+002, 1.345140e+002
1.716349e+002, 1.322377e+002
1.721170e+002, 1.301044e+002
1.725991e+002, 1.292020e+002
1.730812e+002, 1.296131e+002
1.735634e+002, 1.294692e+002
1.740455e+002, 1.275788e+002
1.745276e+002, 1.259891e+002
1.750097e+002, 1.256492e+002
1.754918e+002, 1.265107e+002
1.759739e+002, 1.279274e+002
1.764561e+002, 1.293757e+002
1.769382e+002, 1.311357e+002
1.774203e+002, 1.319434e+002
1.779024e+002, 1.312397e+002
1.783845e+002, 1.301418e+002
1.788666e+002, 1.292673e+002
1.793488e+002, 1.286732e+002
1.798309e+002, 1.279462e+002
1.803130e+002, 1.264064e+002
1.807951e+002, 1.230446e+002
1.812772e+002, 1.212943e+002
1.817593e+002, 1.219310e+002
1.822415e+002, 1.234398e+002
1.827236e+002, 1.250464e+002
1.832057e+002, 1.264635e+002
1.836878e+002, 1.273866e+002
1.841699e+002, 1.272684e+002
1.846520e+002, 1.251536e+002
1.851342e+002, 1.238947e+002
1.856163e+002, 1.243195e+002
1.860984e+002, 1.252957e+002
1.865805e+002, 1.256301e+002
1.870626e+002, 1.249624e+002
1.875447e+002, 1.236992e+002
1.880269e+002, 1.223568e+002
1.885090e+002, 1.207730e+002
1.889911e+002, 1.196909e+002
1.894732e+002, 1.197662e+002
1.899553e+002, 1.203801e+002
1.904374e+002, 1.203252e+002
1.909196e+002, 1.190293e+002
1.914017e+002, 1.174624e+002
1.918838e+002, 1.171392e+002
1.923659e+002, 1.181053e+002
1.928480e+002, 1.190546e+002
1.933301e+002, 1.191952e+002
1.938123e+002, 1.187858e+002
1.942944e+002, 1.189136e+002
1.947765e+002, 1.204010e+002
1.952586e+002, 1.217972e+002
1.957407e+002, 1.214480e+002
1.962228e+002, 1.193252e+002
1.967050e+002, 1.171507e+002
1.971871e+002, 1.162646e+002
1.976692e+002, 1.166076e+002
1.981513e+002, 1.168173e+002
1.986334e+002, 1.163595e+002
1.991155e+002, 1.159368e+002
1.995977e+002, 1.160957e+002
2.000798e+002, 1.168457e+002
2.005619e+002, 1.177045e+002
2.010440e+002, 1.183036e+002
2.015261e+002, 1.186717e+002
2.020082e+002, 1.185981e+002
2.024904e+002, 1.171481e+002
2.029725e+002, 1.158967e+002
2.034546e+002, 1.157991e+002
2.039367e+002, 1.168954e+002
2.044188e+002, 1.184147e+002
2.049009e+002, 1.194969e+002
2.053831e+002, 1.201607e+002
2.058652e+002, 1.202762e+002
2.063473e+002, 1.195864e+002
2.068294e+002, 1.186016e+002
2.073115e+002, 1.172631e+002
2.077936e+002, 1.157340e+002
2.082758e+002, 1.146131e+002
2.087579e+002, 1.149229e+002
2.092400e+002, 1.178701e+002
2.097221e+002, 1.195744e+002
2.102042e+002, 1.198870e+002
2.106863e+002, 1.193165e+002
2.111685e+002, 1.177002e+002
2.116506e+002, 1.152300e+002
2.121327e+002, 1.128882e+002
2.126148e+002, 1.121609e+002
2.130969e+002, 1.141866e+002
2.135790e+002, 1.155516e+002
2.140612e+002, 1.161231e+002
2.145433e+002, 1.161777e+002
2.150254e+002, 1.157684e+002
2.155075e+002, 1.149543e+002
2.159896e+002, 1.140534e+002
2.164717e+002, 1.135215e+002
2.169539e+002, 1.135162e+002
2.174360e+002, 1.135634e+002
2.179181e+002, 1.136610e+002
2.184002e+002, 1.138048e+002
2.188823e+002, 1.140127e+002
2.193644e+002, 1.142892e+002
2.198466e+002, 1.145911e+002
2.203287e+002, 1.150105e+002
2.208108e+002, 1.157383e+002
2.212929e+002, 1.155000e+002
2.217750e+002, 1.126281e+002
2.222571e+002, 1.092660e+002
2.227393e+002, 1.084392e+002
2.232214e+002, 1.110159e+002
2.237035e+002, 1.146742e+002
2.241856e+002, 1.167081e+002
2.246677e+002, 1.172764e+002
2.251498e+002, 1.172046e+002
2.256320e+002, 1.161743e+002
2.261141e+002, 1.147567e+002
2.265962e+002, 1.139915e+002
2.270783e+002, 1.142171e+002
2.275604e+002, 1.145905e+002
2.280425e+002, 1.141022e+002
2.285247e+002, 1.129705e+002
2.290068e+002, 1.120767e+002
2.294889e+002, 1.116276e+002
2.299710e+002, 1.116675e+002
2.304531e+002, 1.124009e+002
2.309352e+002, 1.140770e+002
2.314174e+002, 1.159795e+002
2.318995e+002, 1.180073e+002
2.323816e+002, 1.199105e+002
2.328637e+002, 1.208554e+002
2.333458e+002, 1.198057e+002
2.338279e+002, 1.174255e+002
2.343101e+002, 1.159044e+002
2.347922e+002, 1.156651e+002
2.352743e+002, 1.157173e+002
2.357564e+002, 1.154842e+002
2.362385e+002, 1.150850e+002
2.367206e+002, 1.147437e+002
2.372028e+002, 1.144523e+002
2.376849e+002, 1.143116e+002
2.381670e+002, 1.148807e+002
2.386491e+002, 1.169618e+002
2.391312e+002, 1.185270e+002
2.396133e+002, 1.186468e+002
2.400955e+002, 1.177907e+002
2.405776e+002, 1.166769e+002
2.410597e+002, 1.155255e+002
2.415418e+002, 1.145040e+002
2.420239e+002, 1.145267e+002
2.425060e+002, 1.164698e+002
2.429882e+002, 1.183130e+002
2.434703e+002, 1.194454e+002
2.439524e+002, 1.201153e+002
2.444345e+002, 1.208201e+002
2.449166e+002, 1.219661e+002
2.453987e+002, 1.232289e+002
2.458809e+002, 1.229245e+002
2.463630e+002, 1.189150e+002
2.468451e+002, 1.160983e+002
2.473272e+002, 1.161681e+002
2.478093e+002, 1.177436e+002
2.482914e+002, 1.190798e+002
2.487736e+002, 1.192351e+002
2.492557e+002, 1.184556e+002
2.497378e+002, 1.177106e+002
2.502199e+002, 1.164690e+002
2.507020e+002, 1.159946e+002
2.511841e+002, 1.169337e+002
2.516663e+002, 1.185465e+002
2.521484e+002, 1.200119e+002
2.526305e+002, 1.209432e+002
2.531126e+002, 1.214303e+002
2.535947e+002, 1.217734e+002
2.540768e+002, 1.220243e+002
2.545590e+002, 1.220274e+002
2.550411e+002, 1.214013e+002
2.555232e+002, 1.206695e+002
2.560053e+002, 1.204557e+002
2.564874e+002, 1.210225e+002
2.569695e+002, 1.220749e+002
2.574517e+002, 1.229015e+002
2.579338e+002, 1.235651e+002
2.584159e+002, 1.238753e+002
2.588980e+002, 1.234450e+002
2.593801e+002, 1.228277e+002
2.598622e+002, 1.225712e+002
2.603444e+002, 1.228674e+002
2.608265e+002, 1.235843e+002
2.613086e+002, 1.244785e+002
2.617907e+002, 1.255929e+002
2.622728e+002, 1.268652e+002
2.627549e+002, 1.284996e+002
2.632371e+002, 1.301976e+002
2.637192e+002, 1.316803e+002
2.642013e+002, 1.328743e+002
2.646834e+002, 1.338367e+002
2.651655e+002, 1.346697e+002
2.656476e+002, 1.354674e+002
2.661298e+002, 1.357975e+002
2.666119e+002, 1.349210e+002
2.670940e+002, 1.339775e+002
2.675761e+002, 1.343005e+002
2.680582e+002, 1.361008e+002
2.685403e+002, 1.380906e+002
2.690225e+002, 1.386416e+002
2.695046e+002, 1.372433e+002
2.699867e+002, 1.367639e+002
2.704688e+002, 1.379357e+002
2.709509e+002, 1.396355e+002
2.714330e+002, 1.410131e+002
2.719152e+002, 1.419457e+002
2.723973e+002, 1.425615e+002
2.728794e+002, 1.428519e+002
2.733615e+002, 1.427974e+002
2.738436e+002, 1.431830e+002
2.743257e+002, 1.442920e+002
2.748079e+002, 1.456557e+002
2.752900e+002, 1.469381e+002
2.757721e+002, 1.481206e+002
2.762542e+002, 1.492743e+002
2.767363e+002, 1.504855e+002
2.772184e+002, 1.517152e+002
2.777006e+002, 1.527922e+002
2.781827e+002, 1.537890e+002
2.786648e+002, 1.545649e+002
2.791469e+002, 1.549827e+002
2.796290e+002, 1.550615e+002
2.801111e+002, 1.549361e+002
2.805933e+002, 1.545856e+002
2.810754e+002, 1.541189e+002
2.815575e+002, 1.538924e+002
2.820396e+002, 1.540521e+002
2.825217e+002, 1.542718e+002
2.830038e+002, 1.542937e+002
2.834860e+002, 1.541745e+002
2.839681e+002, 1.543142e+002
2.844502e+002, 1.552388e+002
2.849323e+002, 1.562008e+002
2.854144e+002, 1.556560e+002
2.858965e+002, 1.530399e+002
2.863787e+002, 1.503773e+002
2.868608e+002, 1.490017e+002
2.873429e+002, 1.485507e+002
2.878250e+002, 1.476081e+002
2.883071e+002, 1.454851e+002
2.887892e+002, 1.429899e+002
2.892714e+002, 1.413886e+002
2.897535e+002, 1.407935e+002
2.902356e+002, 1.400672e+002
2.907177e+002, 1.387012e+002
2.911998e+002, 1.368036e+002
2.916819e+002, 1.345560e+002
2.921641e+002, 1.318262e+002
2.926462e+002, 1.290847e+002
2.931283e+002, 1.268808e+002
2.936104e+002, 1.251546e+002
2.940925e+002, 1.234978e+002
2.945746e+002, 1.218872e+002
2.950568e+002, 1.202216e+002
2.955389e+002, 1.181012e+002
2.960210e+002, 1.152040e+002
2.965031e+002, 1.126872e+002
2.969852e+002, 1.120807e+002
2.974673e+002, 1.127318e+002
2.979495e+002, 1.128827e+002
2.984316e+002, 1.116348e+002
2.989137e+002, 1.096924e+002
2.993958e+002, 1.080035e+002
2.998779e+002, 1.065697e+002
3.003600e+002, 1.054993e+002
3.008422e+002, 1.052937e+002
3.013243e+002, 1.054491e+002
3.018064e+002, 1.050473e+002
3.022885e+002, 1.034534e+002
3.027706e+002, 1.016364e+002
3.032527e+002, 1.007294e+002
3.037349e+002, 1.007761e+002
3.042170e+002, 1.010854e+002
3.046991e+002, 1.016374e+002
3.051812e+002, 1.021133e+002
3.056633e+002, 1.020312e+002
3.061454e+002, 1.011684e+002
3.066276e+002, 1.001482e+002
3.071097e+002, 9.956468e+001
3.075918e+002, 9.938806e+001
3.080739e+002, 9.905214e+001
3.085560e+002, 9.825108e+001
3.090381e+002, 9.732211e+001
3.095203e+002, 9.669798e+001
3.100024e+002, 9.642001e+001
3.104845e+002, 9.609237e+001
3.109666e+002, 9.522208e+001
3.114487e+002, 9.399235e+001
3.119308e+002, 9.338921e+001
3.124130e+002, 9.389152e+001
3.128951e+002, 9.466734e+001
3.133772e+002, 9.509484e+001
3.138593e+002, 9.517575e+001
3.143414e+002, 9.480972e+001
3.148235e+002, 9.366273e+001
3.153057e+002, 9.204328e+001
3.157878e+002, 9.062621e+001
3.162699e+002, 8.930883e+001
3.167520e+002, 8.860784e+001
3.172341e+002, 8.948339e+001
3.177162e+002, 9.125746e+001
3.181984e+002, 9.243953e+001
3.186805e+002, 9.209262e+001
3.191626e+002, 9.103102e+001
3.196447e+002, 9.052610e+001
3.201268e+002, 9.065610e+001
3.206089e+002, 9.095106e+001
3.210911e+002, 9.116828e+001
3.215732e+002, 9.138868e+001
3.220553e+002, 9.176272e+001
3.225374e+002, 9.244338e+001
3.230195e+002, 9.308679e+001
3.235016e+002, 9.335878e+001
3.239838e+002, 9.326087e+001
3.244659e+002, 9.284335e+001
3.249480e+002, 9.157375e+001
3.254301e+002, 9.041625e+001
3.259122e+002, 9.082128e+001
3.263943e+002, 9.323006e+001
3.268765e+002, 9.527384e+001
3.273586e+002, 9.485709e+001
3.278407e+002, 9.242362e+001
3.283228e+002, 9.038157e+001
3.288049e+002, 8.912743e+001
3.292870e+002, 8.868974e+001
3.297692e+002, 8.943771e+001
3.302513e+002, 9.123625e+001
3.307334e+002, 9.245769e+001
3.312155e+002, 9.172473e+001
3.316976e+002, 8.990250e+001
3.321797e+002, 8.907227e+001
3.326619e+002, 8.965157e+001
3.331440e+002, 9.065633e+001
3.336261e+002, 9.166443e+001
3.341082e+002, 9.252235e+001
3.345903e+002, 9.271824e+001
3.350724e+002, 9.180364e+001
3.355546e+002, 9.028931e+001
3.360367e+002, 8.856670e+001
3.365188e+002, 8.656989e+001
3.370009e+002, 8.518322e+001
3.374830e+002, 8.517245e+001
3.379651e+002, 8.607594e+001
3.384473e+002, 8.709415e+001
3.389294e+002, 8.853756e+001
3.394115e+002, 8.945879e+001
3.398936e+002, 8.852470e+001
3.403757e+002, 8.604936e+001
3.408578e+002, 8.447564e+001
3.413400e+002, 8.495489e+001
3.418221e+002, 8.656119e+001
3.423042e+002, 8.798780e+001
3.427863e+002, 8.935888e+001
3.432684e+002, 9.001083e+001
3.437505e+002, 8.931379e+001
3.442327e+002, 8.766945e+001
3.447148e+002, 8.594285e+001
3.451969e+002, 8.421046e+001
3.456790e+002, 8.271285e+001
3.461611e+002, 8.174869e+001
3.466432e+002, 8.124802e+001
3.471254e+002, 8.115648e+001
3.476075e+002, 8.194329e+001
3.480896e+002, 8.289886e+001
3.485717e+002, 8.294812e+001
3.490538e+002, 8.196552e+001
3.495359e+002, 8.109505e+001
3.500181e+002, 8.127579e+001
3.505002e+002, 8.230435e+001
3.509823e+002, 8.310267e+001
3.514644e+002, 8.378465e+001
3.519465e+002, 8.407082e+001
3.524286e+002, 8.358121e+001
3.529108e+002, 8.245591e+001
3.533929e+002, 8.136362e+001
3.538750e+002, 8.066189e+001
3.543571e+002, 8.016021e+001
3.548392e+002, 7.933089e+001
3.553214e+002, 7.791507e+001
3.558035e+002, 7.678742e+001
3.562856e+002, 7.642577e+001
3.567677e+002, 7.653584e+001
3.572498e+002, 7.659046e+001
3.577319e+002, 7.643238e+001
3.582141e+002, 7.623247e+001
3.586962e+002, 7.621015e+001
3.591783e+002, 7.636684e+001
3.596604e+002, 7.668521e+001
3.601425e+002, 7.735201e+001
3.606246e+002, 7.806605e+001
3.611068e+002, 7.865228e+001
3.615889e+002, 7.906490e+001
3.620710e+002, 7.903422e+001
3.625531e+002, 7.810999e+001
3.630352e+002, 7.635359e+001
3.635173e+002, 7.588277e+001
3.639995e+002, 7.827085e+001
3.644816e+002, 8.026336e+001
3.649637e+002, 7.997781e+001
3.654458e+002, 7.803152e+001
3.659279e+002, 7.605347e+001
3.664100e+002, 7.485397e+001
3.668922e+002, 7.427717e+001
3.673743e+002, 7.386270e+001
3.678564e+002, 7.357789e+001
3.683385e+002, 7.348320e+001
3.688206e+002, 7.419002e+001
3.693027e+002, 7.483511e+001
3.697849e+002, 7.400391e+001
3.702670e+002, 7.139616e+001
3.707491e+002, 6.857225e+001
3.712312e+002, 6.774621e+001
3.717133e+002, 6.970904e+001
3.721954e+002, 7.146421e+001
3.726776e+002, 7.351655e+001
3.731597e+002, 7.496597e+001
3.736418e+002, 7.499576e+001
3.741239e+002, 7.381542e+001
3.746060e+002, 7.233544e+001
3.750881e+002, 7.121415e+001
3.755703e+002, 7.045821e+001
3.760524e+002, 7.010247e+001
3.765345e+002, 7.053323e+001
3.770166e+002, 7.090974e+001
3.774987e+002, 7.116945e+001
3.779808e+002, 7.122594e+001
3.784630e+002, 7.084685e+001
3.789451e+002, 6.991984e+001
3.794272e+002, 6.882751e+001
3.799093e+002, 6.853397e+001
3.803914e+002, 6.985839e+001
3.808735e+002, 7.061804e+001
3.813557e+002, 6.997371e+001
3.818378e+002, 6.932724e+001
3.823199e+002, 7.020120e+001
3.828020e+002, 7.251970e+001
3.832841e+002, 7.450617e+001
3.837662e+002, 7.387386e+001
3.842484e+002, 7.003859e+001
3.847305e+002, 6.767076e+001
3.852126e+002, 6.785378e+001
3.856947e+002, 6.853455e+001
3.861768e+002, 6.956066e+001
3.866589e+002, 7.057598e+001
3.871411e+002, 7.096126e+001
3.876232e+002, 7.021519e+001
3.881053e+002, 6.877222e+001
3.885874e+002, 6.826173e+001
3.890695e+002, 6.926518e+001
3.895516e+002, 7.012415e+001
3.900338e+002, 7.043740e+001
3.905159e+002, 7.047009e+001
3.909980e+002, 7.041842e+001
3.914801e+002, 7.034029e+001
3.919622e+002, 7.026598e+001
3.924443e+002, 7.033129e+001
3.929265e+002, 7.059412e+001
3.934086e+002, 7.041159e+001
3.938907e+002, 6.903195e+001
3.943728e+002, 6.783461e+001
3.948549e+002, 6.784542e+001
3.953370e+002, 6.880317e+001
3.958192e+002, 6.961532e+001
3.963013e+002, 6.940545e+001
3.967834e+002, 6.852117e+001
3.972655e+002, 6.812486e+001
3.977476e+002, 6.833504e+001
3.982297e+002, 6.872929e+001
3.987119e+002, 6.932481e+001
3.991940e+002, 6.989955e+001
3.996761e+002, 7.008560e+001
4.001582e+002, 6.964031e+001
4.006403e+002, 6.912031e+001
4.011224e+002, 6.934458e+001
4.016046e+002, 7.023575e+001
4.020867e+002, 7.035851e+001
4.025688e+002, 6.882581e+001
4.030509e+002, 6.684675e+001
4.035330e+002, 6.586068e+001
4.040151e+002, 6.587136e+001
4.044973e+002, 6.612496e+001
4.049794e+002, 6.630746e+001
4.054615e+002, 6.651511e+001
4.059436e+002, 6.698908e+001
4.064257e+002, 6.779241e+001
4.069078e+002, 6.855161e+001
4.073900e+002, 6.894732e+001
4.078721e+002, 6.902028e+001
4.083542e+002, 6.905305e+001
4.088363e+002, 6.910612e+001
4.093184e+002, 6.908578e+001
4.098005e+002, 6.892142e+001
4.102827e+002, 6.863029e+001
4.107648e+002, 6.826882e+001
4.112469e+002, 6.785562e+001
4.117290e+002, 6.739729e+001
4.122111e+002, 6.681129e+001
4.126932e+002, 6.568872e+001
4.131754e+002, 6.542576e+001
4.136575e+002, 6.712035e+001
4.141396e+002, 6.933048e+001
4.146217e+002, 7.056902e+001
4.151038e+002, 7.058347e+001
4.155859e+002, 6.995072e+001
4.160681e+002, 6.913931e+001
4.165502e+002, 6.809627e+001
4.170323e+002, 6.754479e+001
4.175144e+002, 6.794683e+001
4.179965e+002, 6.827475e+001
4.184786e+002, 6.810342e+001
4.189608e+002, 6.755395e+001
4.194429e+002, 6.681649e+001
4.199250e+002, 6.596705e+001
4.204071e+002, 6.518757e+001
4.208892e+002, 6.503532e+001
4.213713e+002, 6.652992e+001
4.218535e+002, 6.707547e+001
4.223356e+002, 6.568981e+001
4.228177e+002, 6.402955e+001
4.232998e+002, 6.344689e+001
4.237819e+002, 6.405332e+001
4.242640e+002, 6.499841e+001
4.247462e+002, 6.540183e+001
4.252283e+002, 6.521926e+001
4.257104e+002, 6.518345e+001
4.261925e+002, 6.561445e+001
4.266746e+002, 6.583903e+001
4.271567e+002, 6.552052e+001
4.276389e+002, 6.490475e+001
4.281210e+002, 6.432424e+001
4.286031e+002, 6.390338e+001
4.290852e+002, 6.373399e+001
4.295673e+002, 6.413288e+001
4.300494e+002, 6.535148e+001
4.305316e+002, 6.623299e+001
4.310137e+002, 6.635227e+001
4.314958e+002, 6.613062e+001
4.319779e+002, 6.566956e+001
4.324600e+002, 6.502962e+001
4.329421e+002, 6.450991e+001
4.334243e+002, 6.429581e+001
4.339064e+002, 6.438229e+001
4.343885e+002, 6.488525e+001
4.348706e+002, 6.614428e+001
4.353527e+002, 6.703863e+001
4.358348e+002, 6.630973e+001
4.363170e+002, 6.481839e+001
4.367991e+002, 6.404027e+001
4.372812e+002, 6.465912e+001
4.377633e+002, 6.564555e+001
4.382454e+002, 6.599025e+001
4.387275e+002, 6.579874e+001
4.392097e+002, 6.579022e+001
4.396918e+002, 6.620652e+001
4.401739e+002, 6.691877e+001
4.406560e+002, 6.802520e+001
4.411381e+002, 6.968274e+001
4.416202e+002, 7.033345e+001
4.421024e+002, 6.877158e+001
4.425845e+002, 6.640118e+001
4.430666e+002, 6.460891e+001
4.435487e+002, 6.356837e+001
4.440308e+002, 6.331567e+001
4.445129e+002, 6.405284e+001
4.449951e+002, 6.564606e+001
4.454772e+002, 6.679803e+001
4.459593e+002, 6.773929e+001
4.464414e+002, 6.805007e+001
4.469235e+002, 6.675023e+001
4.474056e+002, 6.498409e+001
4.478878e+002, 6.482218e+001
4.483699e+002, 6.692599e+001
4.488520e+002, 6.955647e+001
4.493341e+002, 6.989507e+001
4.498162e+002, 6.650640e+001
4.502983e+002, 6.491847e+001
4.507805e+002, 6.687652e+001
4.512626e+002, 6.874747e+001
4.517447e+002, 6.829252e+001
4.522268e+002, 6.610289e+001
4.527089e+002, 6.410326e+001
4.531910e+002, 6.357420e+001
4.536732e+002, 6.424949e+001
4.541553e+002, 6.512674e+001
4.546374e+002, 6.683537e+001
4.551195e+002, 6.761208e+001
4.556016e+002, 6.604983e+001
4.560837e+002, 6.428916e+001
4.565659e+002, 6.459940e+001
4.570480e+002, 6.719745e+001
4.575301e+002, 6.977605e+001
4.580122e+002, 6.956347e+001
4.584943e+002, 6.662911e+001
4.589764e+002, 6.473845e+001
4.594586e+002, 6.450421e+001
4.599407e+002, 6.460863e+001
4.604228e+002, 6.445734e+001
4.609049e+002, 6.411705e+001
4.613870e+002, 6.362354e+001
4.618691e+002, 6.273455e+001
4.623513e+002, 6.211909e+001
4.628334e+002, 6.291381e+001
4.633155e+002, 6.505091e+001
4.637976e+002, 6.676741e+001
4.642797e+002, 6.753230e+001
4.647618e+002, 6.760589e+001
4.652440e+002, 6.717348e+001
4.657261e+002, 6.622021e+001
4.662082e+002, 6.551355e+001
4.666903e+002, 6.565895e+001
4.671724e+002, 6.600065e+001
4.676545e+002, 6.564329e+001
4.681367e+002, 6.455666e+001
4.686188e+002, 6.340828e+001
4.691009e+002, 6.258336e+001
4.695830e+002, 6.208338e+001
4.700651e+002, 6.188823e+001
4.705472e+002, 6.227210e+001
4.710294e+002, 6.257014e+001
4.715115e+002, 6.250636e+001
4.719936e+002, 6.230883e+001
4.724757e+002, 6.228262e+001
4.729578e+002, 6.249933e+001
4.734399e+002, 6.278372e+001
4.739221e+002, 6.289866e+001
4.744042e+002, 6.275969e+001
4.748863e+002, 6.295333e+001
4.753684e+002, 6.368585e+001
4.758505e+002, 6.449068e+001
4.763326e+002, 6.545825e+001
4.768148e+002, 6.632584e+001
4.772969e+002, 6.667996e+001
4.777790e+002, 6.631483e+001
4.782611e+002, 6.541743e+001
4.787432e+002, 6.428680e+001
4.792253e+002, 6.271226e+001
4.797075e+002, 6.152177e+001
4.801896e+002, 6.098149e+001
4.806717e+002, 6.071065e+001
4.811538e+002, 6.046891e+001
4.816359e+002, 6.030054e+001
4.821180e+002, 6.047890e+001
4.826002e+002, 6.155141e+001
4.830823e+002, 6.299107e+001
4.835644e+002, 6.300436e+001
4.840465e+002, 6.104203e+001
4.845286e+002, 5.969341e+001
4.850107e+002, 6.075755e+001
4.854929e+002, 6.272533e+001
4.859750e+002, 6.384020e+001
4.864571e+002, 6.383765e+001
4.869392e+002, 6.342322e+001
4.874213e+002, 6.275206e+001
4.879034e+002, 6.201241e+001
4.883856e+002, 6.173197e+001
4.888677e+002, 6.205159e+001
4.893498e+002, 6.233923e+001
4.898319e+002, 6.196421e+001
4.903140e+002, 6.099313e+001
4.907961e+002, 6.043145e+001
4.912783e+002, 6.060414e+001
4.917604e+002, 6.083289e+001
4.922425e+002, 6.079552e+001
4.927246e+002, 6.059935e+001
4.932067e+002, 6.036499e+001
4.936888e+002, 6.013386e+001
4.941710e+002, 6.014764e+001
4.946531e+002, 6.089582e+001
4.951352e+002, 6.297744e+001
4.956173e+002, 6.383760e+001
4.960994e+002, 6.270618e+001
4.965815e+002, 6.129033e+001
4.970637e+002, 6.026464e+001
4.975458e+002, 5.961805e+001
4.980279e+002, 5.910510e+001
4.985100e+002, 5.857093e+001
4.989921e+002, 5.817284e+001
4.994742e+002, 5.835571e+001
4.999564e+002, 5.935021e+001
5.004385e+002, 6.034740e+001
5.009206e+002, 6.163114e+001
5.014027e+002, 6.257450e+001
5.018848e+002, 6.252666e+001
5.023669e+002, 6.164471e+001
5.028491e+002, 6.084439e+001
5.033312e+002, 6.086616e+001
5.038133e+002, 6.139854e+001
5.042954e+002, 6.152717e+001
5.047775e+002, 6.112837e+001
5.052596e+002, 6.092388e+001
5.057418e+002, 6.145884e+001
5.062239e+002, 6.226521e+001
5.067060e+002, 6.268869e+001
5.071881e+002, 6.265946e+001
5.076702e+002, 6.239852e+001
5.081523e+002, 6.210228e+001
5.086345e+002, 6.161860e+001
5.091166e+002, 6.044586e+001
5.095987e+002, 5.850307e+001
5.100808e+002, 5.687491e+001
5.105629e+002, 5.654102e+001
5.110450e+002, 5.738279e+001
5.115272e+002, 5.786806e+001
5.120093e+002, 5.767134e+001
5.124914e+002, 5.755749e+001
5.129735e+002, 5.782090e+001
5.134556e+002, 5.826586e+001
5.139377e+002, 5.875294e+001
5.144199e+002, 5.919890e+001
5.149020e+002, 5.932196e+001
5.153841e+002, 5.860392e+001
5.158662e+002, 5.675445e+001
5.163483e+002, 5.606972e+001
5.168304e+002, 5.805139e+001
5.173126e+002, 5.962666e+001
5.177947e+002, 5.973418e+001
5.182768e+002, 5.895489e+001
5.187589e+002, 5.804748e+001
5.192410e+002, 5.728415e+001
5.197231e+002, 5.690606e+001
5.202053e+002, 5.761145e+001
5.206874e+002, 5.954155e+001
5.211695e+002, 6.034480e+001
5.216516e+002, 5.883620e+001
5.221337e+002, 5.725451e+001
5.226158e+002, 5.734570e+001
5.230980e+002, 5.859060e+001
5.235801e+002, 5.948789e+001
5.240622e+002, 5.919865e+001
5.245443e+002, 5.864329e+001
5.250264e+002, 5.894144e+001
5.255085e+002, 5.991920e+001
5.259907e+002, 6.041766e+001
5.264728e+002, 5.983699e+001
5.269549e+002, 5.905964e+001
5.274370e+002, 5.962916e+001
5.279191e+002, 6.190545e+001
5.284012e+002, 6.317888e+001
5.288834e+002, 6.235415e+001
5.293655e+002, 6.115582e+001
5.298476e+002, 6.090032e+001
5.303297e+002, 6.131044e+001
5.308118e+002, 6.124232e+001
5.312939e+002, 6.002508e+001
5.317761e+002, 5.831414e+001
5.322582e+002, 5.785425e+001
5.327403e+002, 5.975126e+001
5.332224e+002, 6.086997e+001
5.337045e+002, 6.069034e+001
5.341866e+002, 6.023225e+001
5.346688e+002, 6.012477e+001
5.351509e+002, 6.029039e+001
5.356330e+002, 6.027108e+001
5.361151e+002, 5.969828e+001
5.365972e+002, 5.883073e+001
5.370793e+002, 5.830016e+001
5.375615e+002, 5.807933e+001
5.380436e+002, 5.834127e+001
5.385257e+002, 5.973323e+001
5.390078e+002, 6.116715e+001
5.394899e+002, 6.153149e+001
5.399720e+002, 6.085807e+001
5.404542e+002, 6.034576e+001
5.409363e+002, 6.075574e+001
5.414184e+002, 6.158117e+001
5.419005e+002, 6.220578e+001
5.423826e+002, 6.259398e+001
5.428647e+002, 6.261121e+001
5.433469e+002, 6.208290e+001
5.438290e+002, 6.124352e+001
5.443111e+002, 6.065901e+001
5.447932e+002, 6.020380e+001
5.452753e+002, 6.023214e+001
5.457574e+002, 6.149359e+001
5.462396e+002, 6.276065e+001
5.467217e+002, 6.266475e+001
5.472038e+002, 6.143377e+001
5.476859e+002, 6.056419e+001
5.481680e+002, 6.120747e+001
5.486501e+002, 6.285215e+001
5.491323e+002, 6.310335e+001
5.496144e+002, 6.045687e+001
5.500965e+002, 5.904693e+001
5.505786e+002, 6.032771e+001
5.510607e+002, 6.206318e+001
5.515428e+002, 6.261110e+001
5.520250e+002, 6.193828e+001
5.525071e+002, 6.104785e+001
5.529892e+002, 6.056115e+001
5.534713e+002, 6.043130e+001
5.539534e+002, 6.056474e+001
5.544355e+002, 6.100611e+001
5.549177e+002, 6.149186e+001
5.553998e+002, 6.195508e+001
5.558819e+002, 6.238276e+001
5.563640e+002, 6.278444e+001
5.568461e+002, 6.316987e+001
5.573282e+002, 6.344260e+001
5.578104e+002, 6.379862e+001
5.582925e+002, 6.388818e+001
5.587746e+002, 6.284290e+001
5.592567e+002, 6.085687e+001
5.597388e+002, 5.969851e+001
5.602209e+002, 6.056638e+001
5.607031e+002, 6.279275e+001
5.611852e+002, 6.425040e+001
5.616673e+002, 6.471725e+001
5.621494e+002, 6.467649e+001
5.626315e+002, 6.364358e+001
5.631136e+002, 6.248799e+001
5.635958e+002, 6.184471e+001
5.640779e+002, 6.168666e+001
5.645600e+002, 6.161452e+001
5.650421e+002, 6.130243e+001
5.655242e+002, 6.094061e+001
5.660063e+002, 6.134772e+001
5.664885e+002, 6.304714e+001
5.669706e+002, 6.397744e+001
5.674527e+002, 6.276741e+001
5.679348e+002, 6.127248e+001
5.684169e+002, 6.072867e+001
5.688990e+002, 6.113486e+001
5.693812e+002, 6.183200e+001
5.698633e+002, 6.276164e+001
5.703454e+002, 6.363169e+001
5.708275e+002, 6.395736e+001
5.713096e+002, 6.376330e+001
5.717917e+002, 6.343097e+001
5.722739e+002, 6.304696e+001
5.727560e+002, 6.272048e+001
5.732381e+002, 6.262110e+001
5.737202e+002, 6.269832e+001
5.742023e+002, 6.316865e+001
5.746844e+002, 6.486089e+001
5.751666e+002, 6.625423e+001
5.756487e+002, 6.595982e+001
5.761308e+002, 6.448605e+001
5.766129e+002, 6.331557e+001
5.770950e+002, 6.323053e+001
5.775771e+002, 6.372325e+001
5.780593e+002, 6.355775e+001
5.785414e+002, 6.216755e+001
5.790235e+002, 6.167226e+001
5.795056e+002, 6.360076e+001
5.799877e+002, 6.511034e+001
5.804698e+002, 6.428798e+001
5.809520e+002, 6.206787e+001
5.814341e+002, 6.081242e+001
5.819162e+002, 6.193554e+001
5.823983e+002, 6.371854e+001
5.828804e+002, 6.362402e+001
5.833625e+002, 6.186164e+001
5.838447e+002, 6.069289e+001
5.843268e+002, 6.070498e+001
5.848089e+002, 6.129918e+001
5.852910e+002, 6.200300e+001
5.857731e+002, 6.280213e+001
5.862552e+002, 6.353821e+001
5.867374e+002, 6.473051e+001
5.872195e+002, 6.530016e+001
5.877016e+002, 6.391668e+001
5.881837e+002, 6.172665e+001
5.886658e+002, 6.095650e+001
5.891479e+002, 6.220897e+001
5.896301e+002, 6.388252e+001
5.901122e+002, 6.385689e+001
5.905943e+002, 6.182087e+001
5.910764e+002, 6.109468e+001
5.915585e+002, 6.318000e+001
5.920406e+002, 6.485045e+001
5.925228e+002, 6.529337e+001
5.930049e+002, 6.494202e+001
5.934870e+002, 6.417326e+001
5.939691e+002, 6.310713e+001
5.944512e+002, 6.213035e+001
5.949333e+002, 6.155438e+001
5.954155e+002, 6.136427e+001
5.958976e+002, 6.151239e+001
5.963797e+002, 6.201087e+001
5.968618e+002, 6.283410e+001
5.973439e+002, 6.446178e+001
5.978260e+002, 6.618882e+001
5.983082e+002, 6.628423e+001
5.987903e+002, 6.396011e+001
5.992724e+002, 6.200494e+001
5.997545e+002, 6.144715e+001
6.002366e+002, 6.161703e+001
6.007188e+002, 6.189955e+001
6.012009e+002, 6.220765e+001
6.016830e+002, 6.269888e+001
6.021651e+002, 6.354471e+001
6.026472e+002, 6.450346e+001
6.031293e+002, 6.459193e+001
6.036115e+002, 6.286776e+001
6.040936e+002, 6.202437e+001
6.045757e+002, 6.319333e+001
6.050578e+002, 6.436782e+001
6.055399e+002, 6.410206e+001
6.060220e+002, 6.271789e+001
6.065042e+002, 6.151769e+001
6.069863e+002, 6.119083e+001
6.074684e+002, 6.149193e+001
6.079505e+002, 6.228418e+001
6.084326e+002, 6.354386e+001
6.089147e+002, 6.415374e+001
6.093969e+002, 6.348326e+001
6.098790e+002, 6.271115e+001
6.103611e+002, 6.355180e+001
6.108432e+002, 6.580435e+001
6.113253e+002, 6.670965e+001
6.118074e+002, 6.440891e+001
6.122896e+002, 6.233423e+001
6.127717e+002, 6.320012e+001
6.132538e+002, 6.525909e+001
6.137359e+002, 6.500697e+001
6.142180e+002, 6.157153e+001
6.147001e+002, 5.776568e+001
6.151823e+002, 5.698096e+001
6.156644e+002, 5.937274e+001
6.161465e+002, 6.161845e+001
6.166286e+002, 6.443034e+001
6.171107e+002, 6.602375e+001
6.175928e+002, 6.505431e+001
6.180750e+002, 6.324362e+001
6.185571e+002, 6.251942e+001
6.190392e+002, 6.320274e+001
6.195213e+002, 6.375565e+001
6.200034e+002, 6.244651e+001
6.204855e+002, 6.031549e+001
6.209677e+002, 5.997220e+001
6.214498e+002, 6.158339e+001
6.219319e+002, 6.307099e+001
6.224140e+002, 6.344092e+001
6.228961e+002, 6.304008e+001
6.233782e+002, 6.251420e+001
6.238604e+002, 6.176564e+001
6.243425e+002, 6.121489e+001
6.248246e+002, 6.055109e+001
6.253067e+002, 6.041691e+001
6.257888e+002, 6.186458e+001
6.262709e+002, 6.416492e+001
6.267531e+002, 6.551907e+001
6.272352e+002, 6.502071e+001
6.277173e+002, 6.361598e+001
6.281994e+002, 6.313708e+001
6.286815e+002, 6.388408e+001
6.291636e+002, 6.380522e+001
6.296458e+002, 6.174521e+001
6.301279e+002, 6.022462e+001
6.306100e+002, 6.097260e+001
6.310921e+002, 6.293103e+001
6.315742e+002, 6.421570e+001
6.320563e+002, 6.424287e+001
6.325385e+002, 6.389242e+001
6.330206e+002, 6.381595e+001
6.335027e+002, 6.380748e+001
6.339848e+002, 6.331416e+001
6.344669e+002, 6.227480e+001
6.349490e+002, 6.139316e+001
6.354312e+002, 6.117468e+001
6.359133e+002, 6.152890e+001
6.363954e+002, 6.203328e+001
6.368775e+002, 6.361551e+001
6.373596e+002, 6.405247e+001
6.378417e+002, 6.189317e+001
6.383239e+002, 5.969177e+001
6.388060e+002, 5.968207e+001
6.392881e+002, 6.134920e+001
6.397702e+002, 6.245853e+001
6.402523e+002, 6.151457e+001
6.407344e+002, 5.968182e+001
6.412166e+002, 5.937523e+001
6.416987e+002, 6.067968e+001
6.421808e+002, 6.148735e+001
6.426629e+002, 6.116813e+001
6.431450e+002, 6.061382e+001
6.436271e+002, 6.050295e+001
6.441093e+002, 6.079557e+001
6.445914e+002, 6.144598e+001
6.450735e+002, 6.312794e+001
6.455556e+002, 6.438546e+001
6.460377e+002, 6.429291e+001
6.465198e+002, 6.346373e+001
6.470020e+002, 6.261099e+001
6.474841e+002, 6.194739e+001
6.479662e+002, 6.163104e+001
6.484483e+002, 6.185460e+001
6.489304e+002, 6.252604e+001
6.494125e+002, 6.307259e+001
6.498947e+002, 6.390882e+001
6.503768e+002, 6.379902e+001
6.508589e+002, 6.132283e+001
6.513410e+002, 5.883986e+001
6.518231e+002, 5.806949e+001
6.523052e+002, 5.890404e+001
6.527874e+002, 6.013780e+001
6.532695e+002, 6.175245e+001
6.537516e+002, 6.290984e+001
6.542337e+002, 6.202746e+001
6.547158e+002, 5.961219e+001
6.551979e+002, 5.812679e+001
6.556801e+002, 5.837068e+001
6.561622e+002, 5.911639e+001
6.566443e+002, 5.894188e+001
6.571264e+002, 5.775755e+001
6.576085e+002, 5.742128e+001
6.580906e+002, 5.822758e+001
6.585728e+002, 5.938005e+001
6.590549e+002, 6.169939e+001
6.595370e+002, 6.367354e+001
6.600191e+002, 6.317023e+001
6.605012e+002, 6.030436e+001
6.609833e+002, 5.774802e+001
6.614655e+002, 5.798940e+001
6.619476e+002, 6.002984e+001
6.624297e+002, 6.062794e+001
6.629118e+002, 5.957229e+001
6.633939e+002, 5.874599e+001
6.638760e+002, 5.878008e+001
6.643582e+002, 5.921861e+001
6.648403e+002, 5.962797e+001
6.653224e+002, 6.000507e+001
6.658045e+002, 6.019273e+001
6.662866e+002, 5.995679e+001
6.667687e+002, 5.974420e+001
6.672509e+002, 5.971905e+001
6.677330e+002, 5.991182e+001
6.682151e+002, 6.064421e+001
6.686972e+002, 6.187458e+001
6.691793e+002, 6.257383e+001
6.696614e+002, 6.141109e+001
6.701436e+002, 5.861121e+001
6.706257e+002, 5.751825e+001
6.711078e+002, 5.902265e+001
6.715899e+002, 6.038590e+001
6.720720e+002, 6.085894e+001
6.725541e+002, 6.089495e+001
6.730363e+002, 6.070539e+001
6.735184e+002, 6.034687e+001
6.740005e+002, 6.010336e+001
6.744826e+002, 5.996178e+001
6.749647e+002, 6.009570e+001
6.754468e+002, 6.095778e+001
6.759290e+002, 6.224961e+001
6.764111e+002, 6.303375e+001
6.768932e+002, 6.301318e+001
6.773753e+002, 6.264354e+001
6.778574e+002, 6.240594e+001
6.783395e+002, 6.229410e+001
6.788217e+002, 6.248850e+001
6.793038e+002, 6.368103e+001
6.797859e+002, 6.428020e+001
6.802680e+002, 6.340377e+001
6.807501e+002, 6.224007e+001
6.812322e+002, 6.185541e+001
6.817144e+002, 6.233287e+001
6.821965e+002, 6.310649e+001
6.826786e+002, 6.421101e+001
6.831607e+002, 6.510612e+001
6.836428e+002, 6.450070e+001
6.841249e+002, 6.261829e+001
6.846071e+002, 6.153130e+001
6.850892e+002, 6.202729e+001
6.855713e+002, 6.289351e+001
6.860534e+002, 6.268655e+001
6.865355e+002, 6.131504e+001
6.870176e+002, 6.049813e+001
6.874998e+002, 6.049347e+001
6.879819e+002, 6.066297e+001
6.884640e+002, 6.092138e+001
6.889461e+002, 6.122985e+001
6.894282e+002, 6.173185e+001
6.899103e+002, 6.232107e+001
6.903925e+002, 6.244276e+001
6.908746e+002, 6.138170e+001
6.913567e+002, 5.984944e+001
6.918388e+002, 5.974134e+001
6.923209e+002, 6.112055e+001
6.928030e+002, 6.231615e+001
6.932852e+002, 6.293207e+001
6.937673e+002, 6.315139e+001
6.942494e+002, 6.308381e+001
6.947315e+002, 6.274123e+001
6.952136e+002, 6.237394e+001
6.956957e+002, 6.167576e+001
6.961779e+002, 6.133452e+001
6.966600e+002, 6.191368e+001
6.971421e+002, 6.277851e+001
6.976242e+002, 6.323857e+001
6.981063e+002, 6.321012e+001
6.985884e+002, 6.295990e+001
6.990706e+002, 6.261113e+001
6.995527e+002, 6.232314e+001
7.000348e+002, 6.266430e+001
7.005169e+002, 6.376768e+001
7.009990e+002, 6.469360e+001
7.014811e+002, 6.550004e+001
7.019633e+002, 6.574925e+001
7.024454e+002, 6.431019e+001
7.029275e+002, 6.190008e+001
7.034096e+002, 6.103542e+001
7.038917e+002, 6.329115e+001
7.043738e+002, 6.542641e+001
7.048560e+002, 6.628559e+001
7.053381e+002, 6.619080e+001
7.058202e+002, 6.495100e+001
7.063023e+002, 6.298150e+001
7.067844e+002, 6.193996e+001
7.072665e+002, 6.308533e+001
7.077487e+002, 6.549218e+001
7.082308e+002, 6.667548e+001
7.087129e+002, 6.651817e+001
7.091950e+002, 6.554905e+001
7.096771e+002, 6.269664e+001
7.101592e+002, 6.055788e+001
7.106414e+002, 6.153145e+001
7.111235e+002, 6.427187e+001
7.116056e+002, 6.592150e+001
7.120877e+002, 6.576065e+001
7.125698e+002, 6.507109e+001
7.130519e+002, 6.393790e+001
7.135341e+002, 6.293629e+001
7.140162e+002, 6.300193e+001
7.144983e+002, 6.395335e+001
7.149804e+002, 6.470987e+001
7.154625e+002, 6.464877e+001
7.159446e+002, 6.409850e+001
7.164268e+002, 6.361639e+001
7.169089e+002, 6.301171e+001
7.173910e+002, 6.341785e+001
7.178731e+002, 6.596761e+001
7.183552e+002, 6.801292e+001
7.188373e+002, 6.784760e+001
7.193195e+002, 6.664394e+001
7.198016e+002, 6.602068e+001
7.202837e+002, 6.623267e+001
7.207658e+002, 6.687284e+001
7.212479e+002, 6.862110e+001
7.217300e+002, 7.008057e+001
7.222122e+002, 6.911396e+001
7.226943e+002, 6.639963e+001
7.231764e+002, 6.466280e+001
7.236585e+002, 6.510416e+001
7.241406e+002, 6.629819e+001
7.246227e+002, 6.590974e+001
7.251049e+002, 6.363966e+001
7.255870e+002, 6.268401e+001
7.260691e+002, 6.390084e+001
7.265512e+002, 6.505448e+001
7.270333e+002, 6.522019e+001
7.275154e+002, 6.506161e+001
7.279976e+002, 6.537537e+001
7.284797e+002, 6.620300e+001
7.289618e+002, 6.652792e+001
7.294439e+002, 6.525187e+001
7.299260e+002, 6.386645e+001
7.304081e+002, 6.414846e+001
7.308903e+002, 6.534670e+001
7.313724e+002, 6.520220e+001
7.318545e+002, 6.317623e+001
7.323366e+002, 6.161168e+001
7.328187e+002, 6.336611e+001
7.333008e+002, 6.796510e+001
7.337830e+002, 6.949023e+001
7.342651e+002, 6.629250e+001
7.347472e+002, 6.358322e+001
7.352293e+002, 6.271474e+001
7.357114e+002, 6.256013e+001
7.361935e+002, 6.248120e+001
7.366757e+002, 6.245300e+001
7.371578e+002, 6.252150e+001
7.376399e+002, 6.279008e+001
7.381220e+002, 6.304303e+001
7.386041e+002, 6.283410e+001
7.390862e+002, 6.263725e+001
7.395684e+002, 6.370889e+001
7.400505e+002, 6.590556e+001
7.405326e+002, 6.714736e+001
7.410147e+002, 6.578780e+001
7.414968e+002, 6.277590e+001
7.419789e+002, 6.091515e+001
7.424611e+002, 6.029143e+001
7.429432e+002, 6.055752e+001
7.434253e+002, 6.233046e+001
7.439074e+002, 6.418340e+001
7.443895e+002, 6.555999e+001
7.448716e+002, 6.639719e+001
7.453538e+002, 6.636818e+001
7.458359e+002, 6.497657e+001
7.463180e+002, 6.419286e+001
7.468001e+002, 6.585287e+001
7.472822e+002, 6.786581e+001
7.477643e+002, 6.763831e+001
7.482465e+002, 6.575572e+001
7.487286e+002, 6.465234e+001
7.492107e+002, 6.543923e+001
7.496928e+002, 6.700874e+001
7.501749e+002, 6.769168e+001
7.506570e+002, 6.743697e+001
7.511392e+002, 6.745234e+001
7.516213e+002, 6.802975e+001
7.521034e+002, 6.819060e+001
7.525855e+002, 6.719930e+001
7.530676e+002, 6.582786e+001
7.535497e+002, 6.489198e+001
7.540319e+002, 6.440067e+001
7.545140e+002, 6.451731e+001
7.549961e+002, 6.610466e+001
7.554782e+002, 6.745100e+001
7.559603e+002, 6.717781e+001
7.564424e+002, 6.612346e+001
7.569246e+002, 6.561976e+001
7.574067e+002, 6.592378e+001
7.578888e+002, 6.641737e+001
7.583709e+002, 6.660450e+001
7.588530e+002, 6.653396e+001
7.593351e+002, 6.612504e+001
7.598173e+002, 6.520414e+001
7.602994e+002, 6.568638e+001
7.607815e+002, 6.905692e+001
7.612636e+002, 7.195887e+001
7.617457e+002, 7.090276e+001
7.622278e+002, 6.680663e+001
7.627100e+002, 6.427858e+001
7.631921e+002, 6.397163e+001
7.636742e+002, 6.437419e+001
7.641563e+002, 6.597524e+001
7.646384e+002, 6.747569e+001
7.651205e+002, 6.756453e+001
7.656027e+002, 6.663107e+001
7.660848e+002, 6.588205e+001
7.665669e+002, 6.586606e+001
7.670490e+002, 6.636508e+001
7.675311e+002, 6.755362e+001
7.680132e+002, 6.912521e+001
7.684954e+002, 6.900564e+001
7.689775e+002, 6.681947e+001
7.694596e+002, 6.519131e+001
7.699417e+002, 6.557040e+001
7.704238e+002, 6.693570e+001
7.709059e+002, 6.751554e+001
7.713881e+002, 6.706416e+001
7.718702e+002, 6.677374e+001
7.723523e+002, 6.655701e+001
7.728344e+002, 6.659498e+001
7.733165e+002, 6.714947e+001
7.737986e+002, 6.787359e+001
7.742808e+002, 6.843772e+001
7.747629e+002, 6.876810e+001
7.752450e+002, 6.887318e+001
7.757271e+002, 6.840351e+001
7.762092e+002, 6.805518e+001
7.766913e+002, 6.948904e+001
7.771735e+002, 7.206401e+001
7.776556e+002, 7.280913e+001
7.781377e+002, 7.098681e+001
7.786198e+002, 6.881224e+001
7.791019e+002, 6.814699e+001
7.795840e+002, 6.874547e+001
7.800662e+002, 6.943604e+001
7.805483e+002, 7.077707e+001
7.810304e+002, 7.113274e+001
7.815125e+002, 6.885072e+001
7.819946e+002, 6.715207e+001
7.824767e+002, 6.837075e+001
7.829589e+002, 7.110446e+001
7.834410e+002, 7.250708e+001
7.839231e+002, 7.164896e+001
7.844052e+002, 7.068599e+001
7.848873e+002, 7.131142e+001
7.853694e+002, 7.227718e+001
7.858516e+002, 7.167465e+001
7.863337e+002, 6.997112e+001
7.868158e+002, 6.913774e+001
7.872979e+002, 6.995547e+001
7.877800e+002, 7.146072e+001
7.882621e+002, 7.252135e+001
7.887443e+002, 7.312539e+001
7.892264e+002, 7.287155e+001
7.897085e+002, 7.106796e+001
7.901906e+002, 7.041732e+001
7.906727e+002, 7.282115e+001
7.911548e+002, 7.561524e+001
7.916370e+002, 7.581612e+001
7.921191e+002, 7.383052e+001
7.926012e+002, 7.249263e+001
7.930833e+002, 7.248978e+001
7.935654e+002, 7.285286e+001
7.940475e+002, 7.379369e+001
7.945297e+002, 7.452676e+001
7.950118e+002, 7.372187e+001
7.954939e+002, 7.186527e+001
7.959760e+002, 7.102027e+001
7.964581e+002, 7.244221e+001
7.969402e+002, 7.460186e+001
7.974224e+002, 7.510500e+001
7.979045e+002, 7.421242e+001
7.983866e+002, 7.367872e+001
7.988687e+002, 7.368334e+001
7.993508e+002, 7.368847e+001
7.998329e+002, 7.334547e+001
8.003151e+002, 7.296996e+001
8.007972e+002, 7.324252e+001
8.012793e+002, 7.453635e+001
8.017614e+002, 7.499320e+001
8.022435e+002, 7.369638e+001
8.027256e+002, 7.277033e+001
8.032078e+002, 7.308281e+001
8.036899e+002, 7.390512e+001
8.041720e+002, 7.426299e+001
8.046541e+002, 7.421397e+001
8.051362e+002, 7.492062e+001
8.056183e+002, 7.764169e+001
8.061005e+002, 8.064259e+001
8.065826e+002, 8.267756e+001
8.070647e+002, 8.348608e+001
8.075468e+002, 8.179924e+001
8.080289e+002, 7.771500e+001
8.085110e+002, 7.393227e+001
8.089932e+002, 7.231905e+001
8.094753e+002, 7.243529e+001
8.099574e+002, 7.336949e+001
8.104395e+002, 7.554023e+001
8.109216e+002, 7.654253e+001
8.114037e+002, 7.535284e+001
8.118859e+002, 7.450018e+001
8.123680e+002, 7.613378e+001
8.128501e+002, 7.844669e+001
8.133322e+002, 7.850479e+001
8.138143e+002, 7.576308e+001
8.142964e+002, 7.392216e+001
8.147786e+002, 7.422144e+001
8.152607e+002, 7.522517e+001
8.157428e+002, 7.653207e+001
8.162249e+002, 7.781403e+001
8.167070e+002, 7.875220e+001
8.171891e+002, 7.924500e+001
8.176713e+002, 7.916569e+001
8.181534e+002, 7.812103e+001
8.186355e+002, 7.689567e+001
8.191176e+002, 7.720550e+001
8.195997e+002, 7.885414e+001
8.200818e+002, 8.046963e+001
8.205640e+002, 8.189271e+001
8.210461e+002, 8.245921e+001
8.215282e+002, 8.147878e+001
8.220103e+002, 7.954304e+001
8.224924e+002, 7.847771e+001
8.229745e+002, 7.875040e+001
8.234567e+002, 7.883751e+001
8.239388e+002, 7.856705e+001
8.244209e+002, 7.831039e+001
8.249030e+002, 7.831296e+001
8.253851e+002, 7.834492e+001
8.258672e+002, 7.800691e+001
8.263494e+002, 7.725769e+001
8.268315e+002, 7.675371e+001
8.273136e+002, 7.687070e+001
8.277957e+002, 7.729162e+001
8.282778e+002, 7.812301e+001
8.287599e+002, 7.894055e+001
8.292421e+002, 7.874506e+001
8.297242e+002, 7.752089e+001
8.302063e+002, 7.639610e+001
8.306884e+002, 7.617869e+001
8.311705e+002, 7.678128e+001
8.316526e+002, 7.831972e+001
8.321348e+002, 8.084720e+001
8.326169e+002, 8.238467e+001
8.330990e+002, 8.259322e+001
8.335811e+002, 8.207178e+001
8.340632e+002, 8.080879e+001
8.345453e+002, 7.931620e+001
8.350275e+002, 7.877653e+001
8.355096e+002, 7.964413e+001
8.359917e+002, 8.012770e+001
8.364738e+002, 7.970738e+001
8.369559e+002, 7.950358e+001
8.374380e+002, 8.021810e+001
8.379202e+002, 8.118686e+001
8.384023e+002, 8.171758e+001
8.388844e+002, 8.171021e+001
8.393665e+002, 8.136841e+001
8.398486e+002, 8.055107e+001
8.403307e+002, 7.975991e+001
8.408129e+002, 7.941434e+001
8.412950e+002, 7.949685e+001
8.417771e+002, 8.016494e+001
8.422592e+002, 8.132117e+001
8.427413e+002, 8.232690e+001
8.432234e+002, 8.277277e+001
8.437056e+002, 8.283080e+001
8.441877e+002, 8.282957e+001
8.446698e+002, 8.277396e+001
8.451519e+002, 8.253289e+001
8.456340e+002, 8.191326e+001
8.461161e+002, 8.169395e+001
8.465983e+002, 8.257007e+001
8.470804e+002, 8.366610e+001
8.475625e+002, 8.359645e+001
8.480446e+002, 8.226662e+001
8.485267e+002, 8.142564e+001
8.490089e+002, 8.145851e+001
8.494910e+002, 8.158094e+001
8.499731e+002, 8.153956e+001
8.504552e+002, 8.152148e+001
8.509373e+002, 8.175820e+001
8.514194e+002, 8.218150e+001
8.519016e+002, 8.251186e+001
8.523837e+002, 8.259971e+001
8.528658e+002, 8.267393e+001
8.533479e+002, 8.306800e+001
8.538300e+002, 8.353601e+001
8.543121e+002, 8.373109e+001
8.547943e+002, 8.359200e+001
8.552764e+002, 8.281341e+001
8.557585e+002, 8.125548e+001
8.562406e+002, 7.984992e+001
8.567227e+002, 7.997878e+001
8.572048e+002, 8.147604e+001
8.576870e+002, 8.206637e+001
8.581691e+002, 8.145982e+001
8.586512e+002, 8.111483e+001
8.591333e+002, 8.160468e+001
8.596154e+002, 8.211082e+001
8.600975e+002, 8.175704e+001
8.605797e+002, 8.075990e+001
8.610618e+002, 8.036420e+001
8.615439e+002, 8.120870e+001
8.620260e+002, 8.157384e+001
8.625081e+002, 8.074861e+001
8.629902e+002, 7.993312e+001
8.634724e+002, 7.987735e+001
8.639545e+002, 8.030518e+001
8.644366e+002, 8.082933e+001
8.649187e+002, 8.133611e+001
8.654008e+002, 8.144321e+001
8.658829e+002, 8.049647e+001
8.663651e+002, 7.934367e+001
8.668472e+002, 7.894653e+001
8.673293e+002, 7.912612e+001
8.678114e+002, 7.958949e+001
8.682935e+002, 8.018181e+001
8.687756e+002, 8.036141e+001
8.692578e+002, 7.964957e+001
8.697399e+002, 7.846191e+001
8.702220e+002, 7.787933e+001
8.707041e+002, 7.793801e+001
8.711862e+002, 7.772499e+001
8.716683e+002, 7.692358e+001
8.721505e+002, 7.683277e+001
8.726326e+002, 7.860973e+001
8.731147e+002, 8.090709e+001
8.735968e+002, 8.125389e+001
8.740789e+002, 7.903982e+001
8.745610e+002, 7.817941e+001
8.750432e+002, 8.039503e+001
8.755253e+002, 8.164040e+001
8.760074e+002, 7.982146e+001
8.764895e+002, 7.761845e+001
8.769716e+002, 7.758939e+001
8.774537e+002, 7.928516e+001
8.779359e+002, 8.037116e+001
8.784180e+002, 7.992909e+001
8.789001e+002, 7.909396e+001
8.793822e+002, 7.819683e+001
8.798643e+002, 7.754122e+001
8.803464e+002, 7.788933e+001
8.808286e+002, 7.874535e+001
8.813107e+002, 7.850026e+001
8.817928e+002, 7.666658e+001
8.822749e+002, 7.491181e+001
8.827570e+002, 7.526157e+001
8.832391e+002, 7.699844e+001
8.837213e+002, 7.786801e+001
8.842034e+002, 7.791462e+001
8.846855e+002, 7.787334e+001
8.851676e+002, 7.792634e+001
8.856497e+002, 7.777373e+001
8.861318e+002, 7.710319e+001
8.866140e+002, 7.613414e+001
8.870961e+002, 7.562821e+001
8.875782e+002, 7.576638e+001
8.880603e+002, 7.592536e+001
8.885424e+002, 7.644422e+001
8.890245e+002, 7.650771e+001
8.895067e+002, 7.516053e+001
8.899888e+002, 7.356716e+001
8.904709e+002, 7.316235e+001
8.909530e+002, 7.399117e+001
8.914351e+002, 7.480728e+001
8.919172e+002, 7.574091e+001
8.923994e+002, 7.613667e+001
8.928815e+002, 7.560456e+001
8.933636e+002, 7.450498e+001
8.938457e+002, 7.268781e+001
8.943278e+002, 7.065608e+001
8.948099e+002, 6.971870e+001
8.952921e+002, 7.053658e+001
8.957742e+002, 7.166481e+001
8.962563e+002, 7.160526e+001
8.967384e+002, 7.101692e+001
8.972205e+002, 7.109776e+001
8.977026e+002, 7.171823e+001
8.981848e+002, 7.218822e+001
8.986669e+002, 7.228629e+001
8.991490e+002, 7.212910e+001
8.996311e+002, 7.185825e+001
9.001132e+002, 7.138631e+001
9.005953e+002, 7.002552e+001
9.010775e+002, 6.755891e+001
9.015596e+002, 6.699423e+001
9.020417e+002, 6.941452e+001
9.025238e+002, 7.155944e+001
9.030059e+002, 7.143220e+001
9.034880e+002, 6.984917e+001
9.039702e+002, 6.833955e+001
9.044523e+002, 6.669905e+001
9.049344e+002, 6.598093e+001
9.054165e+002, 6.694029e+001
9.058986e+002, 6.784224e+001
9.063807e+002, 6.865232e+001
9.068629e+002, 6.898009e+001
9.073450e+002, 6.794436e+001
9.078271e+002, 6.604740e+001
9.083092e+002, 6.539787e+001
9.087913e+002, 6.735994e+001
9.092734e+002, 6.890958e+001
9.097556e+002, 6.773817e+001
9.102377e+002, 6.641065e+001
9.107198e+002, 6.780534e+001
9.112019e+002, 7.067326e+001
9.116840e+002, 7.226038e+001
9.121661e+002, 7.177915e+001
9.126483e+002, 7.047507e+001
9.131304e+002, 6.891171e+001
9.136125e+002, 6.757447e+001
9.140946e+002, 6.766904e+001
9.145767e+002, 6.865955e+001
9.150588e+002, 6.862865e+001
9.155410e+002, 6.736092e+001
9.160231e+002, 6.628500e+001
9.165052e+002, 6.631133e+001
9.169873e+002, 6.699295e+001
9.174694e+002, 6.764173e+001
9.179515e+002, 6.828449e+001
9.184337e+002, 6.784685e+001
9.189158e+002, 6.587493e+001
9.193979e+002, 6.501632e+001
9.198800e+002, 6.661922e+001
9.203621e+002, 6.878489e+001
9.208442e+002, 6.951027e+001
9.213264e+002, 6.893106e+001
9.218085e+002, 6.845161e+001
9.222906e+002, 6.794897e+001
9.227727e+002, 6.775025e+001
9.232548e+002, 6.871067e+001
9.237369e+002, 6.905184e+001
9.242191e+002, 6.687151e+001
9.247012e+002, 6.402496e+001
9.251833e+002, 6.368187e+001
9.256654e+002, 6.631645e+001
9.261475e+002, 6.822585e+001
9.266296e+002, 6.785629e+001
9.271118e+002, 6.702886e+001
9.275939e+002, 6.610521e+001
9.280760e+002, 6.559881e+001
9.285581e+002, 6.626592e+001
9.290402e+002, 6.785959e+001
9.295223e+002, 6.959982e+001
9.300045e+002, 7.128716e+001
9.304866e+002, 7.209477e+001
9.309687e+002, 7.047975e+001
9.314508e+002, 6.798650e+001
9.319329e+002, 6.710417e+001
9.324150e+002, 6.750911e+001
9.328972e+002, 6.783232e+001
9.333793e+002, 6.769429e+001
9.338614e+002, 6.757372e+001
9.343435e+002, 6.792498e+001
9.348256e+002, 6.849303e+001
9.353077e+002, 6.860118e+001
9.357899e+002, 6.828625e+001
9.362720e+002, 6.802905e+001
9.367541e+002, 6.786150e+001
9.372362e+002, 6.806959e+001
9.377183e+002, 6.891112e+001
9.382004e+002, 6.984710e+001
9.386826e+002, 7.010430e+001
9.391647e+002, 6.967867e+001
9.396468e+002, 6.850854e+001
9.401289e+002, 6.557673e+001
9.406110e+002, 6.448221e+001
9.410931e+002, 6.731584e+001
9.415753e+002, 7.031393e+001
9.420574e+002, 7.071867e+001
9.425395e+002, 6.931324e+001
9.430216e+002, 6.814951e+001
9.435037e+002, 6.698820e+001
9.439858e+002, 6.681566e+001
9.444680e+002, 6.887672e+001
9.449501e+002, 7.051850e+001
9.454322e+002, 7.033619e+001
9.459143e+002, 6.955373e+001
9.463964e+002, 6.939978e+001
9.468785e+002, 6.989127e+001
9.473607e+002, 7.043849e+001
9.478428e+002, 7.088738e+001
9.483249e+002, 7.127589e+001
9.488070e+002, 7.181758e+001
9.492891e+002, 7.214071e+001
9.497712e+002, 7.135186e+001
9.502534e+002, 7.023179e+001
9.507355e+002, 7.067544e+001
9.512176e+002, 7.295069e+001
9.516997e+002, 7.485719e+001
9.521818e+002, 7.434676e+001
9.526639e+002, 7.306718e+001
9.531461e+002, 7.352857e+001
9.536282e+002, 7.490150e+001
9.541103e+002, 7.510385e+001
9.545924e+002, 7.407542e+001
9.550745e+002, 7.323167e+001
9.555566e+002, 7.327970e+001
9.560388e+002, 7.328953e+001
9.565209e+002, 7.151991e+001
9.570030e+002, 6.863261e+001
9.574851e+002, 6.838680e+001
9.579672e+002, 7.076421e+001
9.584493e+002, 7.272110e+001
9.589315e+002, 7.360400e+001
9.594136e+002, 7.365231e+001
9.598957e+002, 7.281096e+001
9.603778e+002, 7.173022e+001
9.608599e+002, 7.236301e+001
9.613420e+002, 7.539959e+001
9.618242e+002, 7.641804e+001
9.623063e+002, 7.440664e+001
9.627884e+002, 7.289542e+001
9.632705e+002, 7.340907e+001
9.637526e+002, 7.436227e+001
9.642347e+002, 7.406422e+001
9.647169e+002, 7.273660e+001
9.651990e+002, 7.200793e+001
9.656811e+002, 7.249499e+001
9.661632e+002, 7.264053e+001
9.666453e+002, 7.192092e+001
9.671274e+002, 7.145857e+001
9.676096e+002, 7.211227e+001
9.680917e+002, 7.306014e+001
9.685738e+002, 7.302410e+001
9.690559e+002, 7.201137e+001
9.695380e+002, 7.174426e+001
9.700201e+002, 7.362131e+001
9.705023e+002, 7.499580e+001
9.709844e+002, 7.446987e+001
9.714665e+002, 7.349740e+001
9.719486e+002, 7.301051e+001
9.724307e+002, 7.307922e+001
9.729128e+002, 7.382264e+001
9.733950e+002, 7.523843e+001
9.738771e+002, 7.617034e+001
9.743592e+002, 7.555632e+001
9.748413e+002, 7.455163e+001
9.753234e+002, 7.415311e+001
9.758055e+002, 7.402895e+001
9.762877e+002, 7.360009e+001
9.767698e+002, 7.292407e+001
9.772519e+002, 7.244209e+001
9.777340e+002, 7.235501e+001
9.782161e+002, 7.265214e+001
9.786982e+002, 7.368644e+001
9.791804e+002, 7.490470e+001
9.796625e+002, 7.496670e+001
9.801446e+002, 7.426591e+001
9.806267e+002, 7.439970e+001
9.811088e+002, 7.558180e+001
9.815909e+002, 7.639194e+001
9.820731e+002, 7.580407e+001
9.825552e+002, 7.459485e+001
9.830373e+002, 7.414775e+001
9.835194e+002, 7.437316e+001
9.840015e+002, 7.471822e+001
9.844836e+002, 7.516167e+001
9.849658e+002, 7.516862e+001
9.854479e+002, 7.450982e+001
9.859300e+002, 7.396874e+001
9.864121e+002, 7.434290e+001
9.868942e+002, 7.529130e+001
9.873763e+002, 7.548968e+001
9.878585e+002, 7.475626e+001
9.883406e+002, 7.444646e+001
9.888227e+002, 7.461893e+001
9.893048e+002, 7.535635e+001
9.897869e+002, 7.710201e+001
9.902690e+002, 7.864548e+001
9.907512e+002, 7.832478e+001
9.912333e+002, 7.635029e+001
9.917154e+002, 7.539861e+001
9.921975e+002, 7.599741e+001
9.926796e+002, 7.651430e+001
9.931617e+002, 7.692250e+001
9.936439e+002, 7.712180e+001
9.941260e+002, 7.703114e+001
9.946081e+002, 7.672279e+001
9.950902e+002, 7.623941e+001
9.955723e+002, 7.557063e+001
9.960544e+002, 7.505002e+001
9.965366e+002, 7.473265e+001
9.970187e+002, 7.450027e+001
9.975008e+002, 7.420684e+001
9.979829e+002, 7.412322e+001
9.984650e+002, 7.471478e+001
9.989471e+002, 7.550668e+001
9.994293e+002, 7.546461e+001
9.999114e+002, 7.438318e+001
1.000393e+003, 7.413113e+001
1.000876e+003, 7.631921e+001
1.001358e+003, 7.803828e+001
1.001840e+003, 7.788363e+001
1.002322e+003, 7.689013e+001
1.002804e+003, 7.541914e+001
1.003286e+003, 7.402683e+001
1.003768e+003, 7.373291e+001
1.004250e+003, 7.485855e+001
1.004733e+003, 7.631121e+001
1.005215e+003, 7.836384e+001
1.005697e+003, 7.960482e+001
1.006179e+003, 7.802976e+001
1.006661e+003, 7.560494e+001
1.007143e+003, 7.497399e+001
1.007625e+003, 7.598481e+001
1.008107e+003, 7.698656e+001
1.008589e+003, 7.729781e+001
1.009072e+003, 7.741687e+001
1.009554e+003, 7.764425e+001
1.010036e+003, 7.800066e+001
1.010518e+003, 7.854774e+001
1.011000e+003, 7.923074e+001
1.011482e+003, 8.022924e+001
1.011964e+003, 8.132729e+001
1.012446e+003, 8.148730e+001
1.012929e+003, 8.006423e+001
1.013411e+003, 7.826172e+001
1.013893e+003, 7.766599e+001
1.014375e+003, 7.766121e+001
1.014857e+003, 7.667089e+001
1.015339e+003, 7.513942e+001
1.015821e+003, 7.493465e+001
1.016303e+003, 7.631380e+001
1.016785e+003, 7.764090e+001
1.017268e+003, 7.777912e+001
1.017750e+003, 7.741704e+001
1.018232e+003, 7.774229e+001
1.018714e+003, 7.854585e+001
1.019196e+003, 7.884711e+001
1.019678e+003, 7.870407e+001
1.020160e+003, 7.895164e+001
1.020642e+003, 7.982008e+001
1.021125e+003, 8.086388e+001
1.021607e+003, 8.177438e+001
1.022089e+003, 8.246713e+001
1.022571e+003, 8.285938e+001
1.023053e+003, 8.292612e+001
1.023535e+003, 8.174728e+001
1.024017e+003, 7.919682e+001
1.024499e+003, 7.797167e+001
1.024981e+003, 7.905919e+001
1.025464e+003, 8.064339e+001
1.025946e+003, 8.107947e+001
1.026428e+003, 8.073965e+001
1.026910e+003, 8.085487e+001
1.027392e+003, 8.152116e+001
1.027874e+003, 8.168974e+001
1.028356e+003, 8.125676e+001
1.028838e+003, 8.062961e+001
1.029321e+003, 7.988088e+001
1.029803e+003, 7.917624e+001
1.030285e+003, 7.866521e+001
1.030767e+003, 7.833271e+001
1.031249e+003, 7.807143e+001
1.031731e+003, 7.776442e+001
1.032213e+003, 7.807482e+001
1.032695e+003, 7.944480e+001
1.033177e+003, 8.026291e+001
1.033660e+003, 7.953193e+001
1.034142e+003, 7.871842e+001
1.034624e+003, 7.959500e+001
1.035106e+003, 8.174362e+001
1.035588e+003, 8.244240e+001
1.036070e+003, 8.068423e+001
1.036552e+003, 7.991715e+001
1.037034e+003, 8.062643e+001
1.037516e+003, 8.163769e+001
1.037999e+003, 8.299034e+001
1.038481e+003, 8.393301e+001
1.038963e+003, 8.325321e+001
1.039445e+003, 8.128572e+001
1.039927e+003, 8.065340e+001
1.040409e+003, 8.258394e+001
1.040891e+003, 8.368517e+001
1.041373e+003, 8.380695e+001
1.041855e+003, 8.326780e+001
1.042338e+003, 8.146620e+001
1.042820e+003, 7.957936e+001
1.043302e+003, 7.867558e+001
1.043784e+003, 7.874471e+001
1.044266e+003, 7.966995e+001
1.044748e+003, 8.308423e+001
1.045230e+003, 8.459143e+001
1.045712e+003, 8.198351e+001
1.046195e+003, 7.981300e+001
1.046677e+003, 8.044733e+001
1.047159e+003, 8.201326e+001
1.047641e+003, 8.239907e+001
1.048123e+003, 8.173421e+001
1.048605e+003, 8.153525e+001
1.049087e+003, 8.260148e+001
1.049569e+003, 8.297434e+001
1.050052e+003, 8.158385e+001
1.050534e+003, 8.037595e+001
1.051016e+003, 8.014625e+001
1.051498e+003, 8.062452e+001
1.051980e+003, 8.180289e+001
1.052462e+003, 8.345638e+001
1.052944e+003, 8.451850e+001
1.053426e+003, 8.459431e+001
1.053908e+003, 8.449973e+001
1.054391e+003, 8.455434e+001
1.054873e+003, 8.432100e+001
1.055355e+003, 8.294126e+001
1.055837e+003, 8.159663e+001
1.056319e+003, 8.191133e+001
1.056801e+003, 8.361945e+001
1.057283e+003, 8.481351e+001
1.057765e+003, 8.488348e+001
1.058248e+003, 8.480127e+001
1.058730e+003, 8.476530e+001
1.059212e+003, 8.474938e+001
1.059694e+003, 8.432789e+001
1.060176e+003, 8.420532e+001
1.060658e+003, 8.580871e+001
1.061140e+003, 8.856200e+001
1.061622e+003, 8.969389e+001
1.062104e+003, 8.785412e+001
1.062587e+003, 8.608221e+001
1.063069e+003, 8.504552e+001
1.063551e+003, 8.486894e+001
1.064033e+003, 8.635462e+001
1.064515e+003, 8.823233e+001
1.064997e+003, 8.932238e+001
1.065479e+003, 8.944729e+001
1.065961e+003, 8.843481e+001
1.066443e+003, 8.566373e+001
1.066926e+003, 8.383469e+001
1.067408e+003, 8.486591e+001
1.067890e+003, 8.622210e+001
1.068372e+003, 8.641090e+001
1.068854e+003, 8.608604e+001
1.069336e+003, 8.608797e+001
1.069818e+003, 8.634499e+001
1.070300e+003, 8.615493e+001
1.070782e+003, 8.508278e+001
1.071265e+003, 8.472536e+001
1.071747e+003, 8.663974e+001
1.072229e+003, 8.848789e+001
1.072711e+003, 8.855444e+001
1.073193e+003, 8.804583e+001
1.073675e+003, 8.858545e+001
1.074157e+003, 8.973806e+001
1.074639e+003, 8.964327e+001
1.075122e+003, 8.752583e+001
1.075604e+003, 8.620422e+001
1.076086e+003, 8.807402e+001
1.076568e+003, 8.979639e+001
1.077050e+003, 8.905418e+001
1.077532e+003, 8.746765e+001
1.078014e+003, 8.635757e+001
1.078496e+003, 8.597781e+001
1.078979e+003, 8.669140e+001
1.079461e+003, 8.867553e+001
1.079943e+003, 9.000829e+001
1.080425e+003, 8.917806e+001
1.080907e+003, 8.822835e+001
1.081389e+003, 8.834755e+001
1.081871e+003, 8.882327e+001
1.082353e+003, 8.921656e+001
1.082835e+003, 8.932304e+001
1.083318e+003, 8.853259e+001
1.083800e+003, 8.674401e+001
1.084282e+003, 8.609624e+001
1.084764e+003, 8.920577e+001
1.085246e+003, 9.150964e+001
1.085728e+003, 8.973784e+001
1.086210e+003, 8.710247e+001
1.086692e+003, 8.605164e+001
1.087175e+003, 8.636267e+001
1.087657e+003, 8.756009e+001
1.088139e+003, 8.942226e+001
1.088621e+003, 9.063960e+001
1.089103e+003, 9.001488e+001
1.089585e+003, 8.959264e+001
1.090067e+003, 9.087254e+001
1.090549e+003, 9.207468e+001
1.091031e+003, 9.132244e+001
1.091514e+003, 8.984355e+001
1.091996e+003, 8.988637e+001
1.092478e+003, 9.147985e+001
1.092960e+003, 9.223023e+001
1.093442e+003, 9.083951e+001
1.093924e+003, 8.943333e+001
1.094406e+003, 8.868072e+001
1.094888e+003, 8.829146e+001
1.095370e+003, 8.818924e+001
1.095853e+003, 8.826119e+001
1.096335e+003, 8.824983e+001
1.096817e+003, 8.826053e+001
1.097299e+003, 8.903642e+001
1.097781e+003, 9.165357e+001
1.098263e+003, 9.277361e+001
1.098745e+003, 8.957838e+001
1.099227e+003, 8.670415e+001
1.099709e+003, 8.741654e+001
1.100192e+003, 8.905252e+001
1.100674e+003, 8.827444e+001
1.101156e+003, 8.581039e+001
1.101638e+003, 8.506028e+001
1.102120e+003, 8.731046e+001
1.102602e+003, 8.879881e+001
1.103084e+003, 8.783594e+001
1.103566e+003, 8.694259e+001
1.104049e+003, 8.741808e+001
1.104531e+003, 8.810152e+001
1.105013e+003, 8.752322e+001
1.105495e+003, 8.645754e+001
1.105977e+003, 8.721360e+001
1.106459e+003, 9.057955e+001
1.106941e+003, 9.220827e+001
1.107423e+003, 8.952749e+001
1.107906e+003, 8.761021e+001
1.108388e+003, 8.837366e+001
1.108870e+003, 8.972639e+001
1.109352e+003, 9.050098e+001
1.109834e+003, 9.083513e+001
1.110316e+003, 9.110071e+001
1.110798e+003, 9.133869e+001
1.111280e+003, 9.110489e+001
1.111762e+003, 8.910172e+001
1.112245e+003, 8.853340e+001
1.112727e+003, 9.160395e+001
1.113209e+003, 9.410974e+001
1.113691e+003, 9.368810e+001
1.114173e+003, 9.177733e+001
1.114655e+003, 8.978006e+001
1.115137e+003, 8.778896e+001
1.115619e+003, 8.690500e+001
1.116102e+003, 8.771043e+001
1.116584e+003, 8.862285e+001
1.117066e+003, 9.016685e+001
1.117548e+003, 9.100243e+001
1.118030e+003, 9.051306e+001
1.118512e+003, 8.925148e+001
1.118994e+003, 8.715913e+001
1.119476e+003, 8.480757e+001
1.119958e+003, 8.464682e+001
1.120441e+003, 8.765307e+001
1.120923e+003, 8.973699e+001
1.121405e+003, 9.064822e+001
1.121887e+003, 9.117871e+001
1.122369e+003, 9.158605e+001
1.122851e+003, 9.151466e+001
1.123333e+003, 9.048977e+001
1.123815e+003, 8.902245e+001
1.124297e+003, 8.830443e+001
1.124780e+003, 8.843378e+001
1.125262e+003, 8.791405e+001
1.125744e+003, 8.624050e+001
1.126226e+003, 8.601663e+001
1.126708e+003, 8.821738e+001
1.127190e+003, 9.008055e+001
1.127672e+003, 8.993696e+001
1.128154e+003, 8.901481e+001
1.128636e+003, 8.912405e+001
1.129119e+003, 9.011449e+001
1.129601e+003, 9.073222e+001
1.130083e+003, 9.095888e+001
1.130565e+003, 9.095982e+001
1.131047e+003, 9.069170e+001
1.131529e+003, 9.082103e+001
1.132011e+003, 9.167908e+001
1.132493e+003, 9.255842e+001
1.132976e+003, 9.272966e+001
1.133458e+003, 9.240160e+001
1.133940e+003, 9.199160e+001
1.134422e+003, 9.156232e+001
1.134904e+003, 9.230295e+001
1.135386e+003, 9.415540e+001
1.135868e+003, 9.462061e+001
1.136350e+003, 9.305997e+001
1.136833e+003, 9.186475e+001
1.137315e+003, 9.279512e+001
1.137797e+003, 9.459216e+001
1.138279e+003, 9.528810e+001
1.138761e+003, 9.506052e+001
1.139243e+003, 9.409216e+001
1.139725e+003, 9.273015e+001
1.140207e+003, 9.270107e+001
1.140689e+003, 9.403251e+001
1.141172e+003, 9.500148e+001
1.141654e+003, 9.478871e+001
1.142136e+003, 9.383033e+001
1.142618e+003, 9.202959e+001
1.143100e+003, 9.041080e+001
1.143582e+003, 9.166162e+001
1.144064e+003, 9.400225e+001
1.144546e+003, 9.293296e+001
1.145029e+003, 8.946693e+001
1.145511e+003, 8.834518e+001
1.145993e+003, 9.063091e+001
1.146475e+003, 9.254195e+001
1.146957e+003, 9.108511e+001
1.147439e+003, 8.932993e+001
1.147921e+003, 9.099465e+001
1.148403e+003, 9.349230e+001
1.148885e+003, 9.317759e+001
1.149368e+003, 9.160059e+001
1.149850e+003, 9.217181e+001
1.150332e+003, 9.472055e+001
1.150814e+003, 9.615520e+001
1.151296e+003, 9.509954e+001
1.151778e+003, 9.344481e+001
1.152260e+003, 9.176105e+001
1.152742e+003, 9.052332e+001
1.153224e+003, 9.037659e+001
1.153707e+003, 9.056908e+001
1.154189e+003, 9.015034e+001
1.154671e+003, 8.944056e+001
1.155153e+003, 8.934470e+001
1.155635e+003, 9.004865e+001
1.156117e+003, 9.093829e+001
1.156599e+003, 9.202110e+001
1.157081e+003, 9.297556e+001
1.157563e+003, 9.384348e+001
1.158046e+003, 9.439881e+001
1.158528e+003, 9.446931e+001
1.159010e+003, 9.415957e+001
1.159492e+003, 9.336605e+001
1.159974e+003, 9.222796e+001
1.160456e+003, 9.177428e+001
1.160938e+003, 9.249902e+001
1.161420e+003, 9.311822e+001
1.161903e+003, 9.417921e+001
1.162385e+003, 9.423401e+001
1.162867e+003, 9.151080e+001
1.163349e+003, 8.928053e+001
1.163831e+003, 9.064791e+001
1.164313e+003, 9.404875e+001
1.164795e+003, 9.563915e+001
1.165277e+003, 9.520513e+001
1.165760e+003, 9.474488e+001
1.166242e+003, 9.415071e+001
1.166724e+003, 9.388316e+001
1.167206e+003, 9.404290e+001
1.167688e+003, 9.455615e+001
1.168170e+003, 9.564486e+001
1.168652e+003, 9.628031e+001
1.169134e+003, 9.492460e+001
1.169616e+003, 9.216735e+001
1.170099e+003, 9.077246e+001
1.170581e+003, 9.074942e+001
1.171063e+003, 9.143876e+001
1.171545e+003, 9.280642e+001
1.172027e+003, 9.416641e+001
1.172509e+003, 9.532593e+001
1.172991e+003, 9.589018e+001
1.173473e+003, 9.550123e+001
1.173956e+003, 9.470176e+001
1.174438e+003, 9.436465e+001
1.174920e+003, 9.439957e+001
1.175402e+003, 9.464832e+001
1.175884e+003, 9.500182e+001
1.176366e+003, 9.506864e+001
1.176848e+003, 9.482687e+001
1.177330e+003, 9.454060e+001
1.177813e+003, 9.431447e+001
1.178295e+003, 9.386781e+001
1.178777e+003, 9.261201e+001
1.179259e+003, 9.150060e+001
1.179741e+003, 9.192635e+001
1.180223e+003, 9.310817e+001
1.180705e+003, 9.430553e+001
1.181187e+003, 9.519401e+001
1.181669e+003, 9.521519e+001
1.182151e+003, 9.439349e+001
1.182634e+003, 9.323675e+001
1.183116e+003, 9.160432e+001
1.183598e+003, 9.109702e+001
1.184080e+003, 9.428719e+001
1.184562e+003, 9.702731e+001
1.185044e+003, 9.578172e+001
1.185526e+003, 9.330138e+001
1.186008e+003, 9.216307e+001
1.186490e+003, 9.233072e+001
1.186973e+003, 9.311435e+001
1.187455e+003, 9.442566e+001
1.187937e+003, 9.586442e+001
1.188419e+003, 9.847824e+001
1.188901e+003, 9.953854e+001
1.189383e+003, 9.693253e+001
1.189865e+003, 9.451791e+001
1.190347e+003, 9.450520e+001
1.190830e+003, 9.545784e+001
1.191312e+003, 9.584113e+001
1.191794e+003, 9.584602e+001
1.192276e+003, 9.655881e+001
1.192758e+003, 9.875874e+001
1.193240e+003, 9.882394e+001
1.193722e+003, 9.577553e+001
1.194204e+003, 9.343274e+001
1.194687e+003, 9.252426e+001
1.195169e+003, 9.317493e+001
1.195651e+003, 9.595037e+001
1.196133e+003, 9.895226e+001
1.196615e+003, 9.897736e+001
1.197097e+003, 9.656615e+001
1.197579e+003, 9.482166e+001
1.198061e+003, 9.374623e+001
1.198543e+003, 9.373256e+001
1.199026e+003, 9.473431e+001
1.199508e+003, 9.568723e+001
1.199990e+003, 9.620740e+001
1.200472e+003, 9.613243e+001
1.200954e+003, 9.524093e+001
1.201436e+003, 9.412277e+001
1.201918e+003, 9.364927e+001
1.202400e+003, 9.360116e+001
1.202883e+003, 9.336959e+001
1.203365e+003, 9.326295e+001
1.203847e+003, 9.443518e+001
1.204329e+003, 9.649106e+001
1.204811e+003, 9.755083e+001
1.205293e+003, 9.694326e+001
1.205775e+003, 9.597942e+001
1.206257e+003, 9.551752e+001
1.206740e+003, 9.507156e+001
1.207222e+003, 9.419535e+001
1.207704e+003, 9.326807e+001
1.208186e+003, 9.221503e+001
1.208668e+003, 9.159643e+001
1.209150e+003, 9.261845e+001
1.209632e+003, 9.490730e+001
1.210114e+003, 9.632597e+001
1.210596e+003, 9.639283e+001
1.211078e+003, 9.559889e+001
1.211561e+003, 9.253799e+001
1.212043e+003, 9.069676e+001
1.212525e+003, 9.225674e+001
1.213007e+003, 9.413989e+001
1.213489e+003, 9.412827e+001
1.213971e+003, 9.340305e+001
1.214453e+003, 9.388557e+001
1.214935e+003, 9.547969e+001
1.215417e+003, 9.644868e+001
1.215900e+003, 9.676646e+001
1.216382e+003, 9.646546e+001
1.216864e+003, 9.537541e+001
1.217346e+003, 9.437029e+001
1.217828e+003, 9.366371e+001
1.218310e+003, 9.345443e+001
1.218792e+003, 9.393704e+001
1.219274e+003, 9.484382e+001
1.219757e+003, 9.591678e+001
1.220239e+003, 9.693732e+001
1.220721e+003, 9.654129e+001
1.221203e+003, 9.509215e+001
1.221685e+003, 9.443474e+001
1.222167e+003, 9.467603e+001
1.222649e+003, 9.500956e+001
1.223131e+003, 9.513035e+001
1.223614e+003, 9.511579e+001
1.224096e+003, 9.503236e+001
1.224578e+003, 9.481541e+001
1.225060e+003, 9.424110e+001
1.225542e+003, 9.362878e+001
1.226024e+003, 9.327515e+001
1.226506e+003, 9.320613e+001
1.226988e+003, 9.366210e+001
1.227470e+003, 9.437522e+001
1.227953e+003, 9.455644e+001
1.228435e+003, 9.396886e+001
1.228917e+003, 9.338371e+001
1.229399e+003, 9.325703e+001
1.229881e+003, 9.295037e+001
1.230363e+003, 9.145247e+001
1.230845e+003, 9.062627e+001
1.231327e+003, 9.283113e+001
1.231810e+003, 9.536608e+001
1.232292e+003, 9.432442e+001
1.232774e+003, 9.082214e+001
1.233256e+003, 8.946735e+001
1.233738e+003, 9.090524e+001
1.234220e+003, 9.169450e+001
1.234702e+003, 9.158439e+001
1.235184e+003, 9.172427e+001
1.235667e+003, 9.253671e+001
1.236149e+003, 9.261033e+001
1.236631e+003, 9.099616e+001
1.237113e+003, 8.936595e+001
1.237595e+003, 8.983821e+001
1.238077e+003, 9.164120e+001
1.238559e+003, 9.260909e+001
1.239041e+003, 9.281229e+001
1.239523e+003, 9.239217e+001
1.240005e+003, 9.154283e+001
1.240488e+003, 9.126022e+001
1.240970e+003, 9.159011e+001
1.241452e+003, 9.122081e+001
1.241934e+003, 8.948502e+001
1.242416e+003, 8.848701e+001
1.242898e+003, 9.126298e+001
1.243380e+003, 9.444093e+001
1.243862e+003, 9.423817e+001
1.244344e+003, 9.293526e+001
1.244827e+003, 9.335428e+001
1.245309e+003, 9.446951e+001
1.245791e+003, 9.389833e+001
1.246273e+003, 9.179867e+001
1.246755e+003, 9.067554e+001
1.247237e+003, 9.143394e+001
1.247719e+003, 9.224261e+001
1.248201e+003, 9.289247e+001
1.248684e+003, 9.325514e+001
1.249166e+003, 9.274654e+001
1.249648e+003, 9.260012e+001
1.250130e+003, 9.402003e+001
1.250612e+003, 9.567630e+001
1.251094e+003, 9.575505e+001
1.251576e+003, 9.446229e+001
1.252058e+003, 9.297605e+001
1.252541e+003, 9.112862e+001
1.253023e+003, 9.033006e+001
1.253505e+003, 9.064702e+001
1.253987e+003, 9.198602e+001
1.254469e+003, 9.436607e+001
1.254951e+003, 9.573647e+001
1.255433e+003, 9.488058e+001
1.255915e+003, 9.311989e+001
1.256397e+003, 9.190278e+001
1.256880e+003, 9.108450e+001
1.257362e+003, 9.028171e+001
1.257844e+003, 8.972742e+001
1.258326e+003, 9.007487e+001
1.258808e+003, 9.101550e+001
1.259290e+003, 9.185066e+001
1.259772e+003, 9.241187e+001
1.260254e+003, 9.271925e+001
1.260737e+003, 9.273351e+001
1.261219e+003, 9.286968e+001
1.261701e+003, 9.382531e+001
1.262183e+003, 9.431451e+001
1.262665e+003, 9.306046e+001
1.263147e+003, 9.180679e+001
1.263629e+003, 9.175246e+001
1.264111e+003, 9.252975e+001
1.264594e+003, 9.422635e+001
1.265076e+003, 9.633283e+001
1.265558e+003, 9.591367e+001
1.266040e+003, 9.163774e+001
1.266522e+003, 8.977123e+001
1.267004e+003, 9.093389e+001
1.267486e+003, 9.248796e+001
1.267968e+003, 9.418706e+001
1.268450e+003, 9.477416e+001
1.268932e+003, 9.339928e+001
1.269415e+003, 9.212151e+001
1.269897e+003, 9.350105e+001
1.270379e+003, 9.610352e+001
1.270861e+003, 9.640055e+001
1.271343e+003, 9.507100e+001
1.271825e+003, 9.371855e+001
1.272307e+003, 9.268887e+001
1.272789e+003, 9.313687e+001
1.273271e+003, 9.470969e+001
1.273754e+003, 9.519978e+001
1.274236e+003, 9.382161e+001
1.274718e+003, 9.263155e+001
1.275200e+003, 9.320926e+001
1.275682e+003, 9.400477e+001
1.276164e+003, 9.376689e+001
1.276646e+003, 9.379008e+001
1.277128e+003, 9.583470e+001
1.277611e+003, 9.800924e+001
1.278093e+003, 9.767953e+001
1.278575e+003, 9.562485e+001
1.279057e+003, 9.485339e+001
1.279539e+003, 9.569962e+001
1.280021e+003, 9.574902e+001
1.280503e+003, 9.417152e+001
1.280985e+003, 9.430789e+001
1.281468e+003, 9.710628e+001
1.281950e+003, 9.946005e+001
1.282432e+003, 1.002753e+002
1.282914e+003, 9.992136e+001
1.283396e+003, 9.853258e+001
1.283878e+003, 9.691441e+001
1.284360e+003, 9.661118e+001
1.284842e+003, 9.720046e+001
1.285324e+003, 9.750622e+001
##END=



