##NAMES=Chalcanthite
##RRUFFID=R060018
##IDEAL CHEMISTRY=Cu^2+^S^6+^O_4_&#183;5H_2_O
##LOCALITY=Chuquicamata, Chile
##OWNER=RRUFF
##SOURCE=American Museum of Natural History
##DESCRIPTION=Dark blue fragment
##STATUS=The identification of this mineral is confirmed by single-crystal X-ray diffraction and chemical analysis.
##URL=rruff.info/R060018
##MEASURED CHEMISTRY=Cu_1.00_S_1.00_O_4_Â·5H_2_O
94.99219, 22.16222
95.47430, 21.79072
95.95642, 22.10379
96.43854, 22.92842
96.92065, 23.77286
97.40277, 24.01674
97.88489, 23.58158
98.36700, 22.85839
98.84912, 21.15733
99.33124, 19.60995
99.81335, 19.37584
100.2955, 20.77400
100.7776, 22.74706
101.2597, 23.09171
101.7418, 20.79072
102.2239, 19.94311
102.7061, 22.81042
103.1882, 27.93370
103.6703, 31.66848
104.1524, 32.22794
104.6345, 30.97568
105.1166, 30.54372
105.5988, 31.23834
106.0809, 32.03888
106.5630, 31.81056
107.0451, 30.32052
107.5272, 29.33802
108.0093, 30.27247
108.4915, 31.78965
108.9736, 32.66840
109.4557, 32.31592
109.9378, 31.24137
110.4199, 30.91850
110.9020, 32.22040
111.3842, 33.05374
111.8663, 32.21166
112.3484, 30.69198
112.8305, 29.97389
113.3126, 31.18953
113.7947, 34.40969
114.2769, 37.09499
114.7590, 39.64535
115.2411, 41.38663
115.7232, 41.47077
116.2053, 40.27777
116.6874, 39.17064
117.1696, 39.60783
117.6517, 42.16064
118.1338, 43.88882
118.6159, 44.11463
119.0980, 43.95926
119.5801, 44.42295
120.0623, 45.74208
120.5444, 47.35690
121.0265, 48.63609
121.5086, 49.66069
121.9907, 50.10439
122.4728, 49.74830
122.9550, 48.72813
123.4371, 47.25936
123.9192, 44.99756
124.4013, 42.83051
124.8834, 41.71789
125.3655, 41.69095
125.8477, 42.02504
126.3298, 42.36063
126.8119, 42.74211
127.2940, 42.57915
127.7761, 41.61691
128.2582, 40.06575
128.7404, 37.72033
129.2225, 34.51768
129.7046, 31.14343
130.1867, 28.69716
130.6688, 27.31409
131.1509, 26.77723
131.6331, 27.73738
132.1152, 29.05588
132.5973, 29.59821
133.0794, 28.80056
133.5615, 27.03108
134.0436, 25.84080
134.5258, 25.86806
135.0079, 25.82795
135.4900, 25.48804
135.9721, 24.96864
136.4542, 24.48905
136.9363, 24.18775
137.4185, 24.06106
137.9006, 24.00708
138.3827, 24.44226
138.8648, 24.56705
139.3469, 23.73995
139.8290, 22.09769
140.3112, 20.54979
140.7933, 19.93266
141.2754, 20.12990
141.7575, 19.87375
142.2396, 18.47157
142.7217, 16.89714
143.2039, 16.28466
143.6860, 16.84493
144.1681, 17.71456
144.6502, 18.24319
145.1323, 18.53798
145.6144, 18.80465
146.0966, 19.18457
146.5787, 19.60525
147.0608, 19.89965
147.5429, 20.31513
148.0250, 20.16156
148.5071, 18.43979
148.9893, 15.76847
149.4714, 13.85327
149.9535, 14.69549
150.4356, 18.62529
150.9177, 20.89792
151.3998, 19.06973
151.8820, 17.41538
152.3641, 18.17074
152.8462, 20.99802
153.3283, 23.64169
153.8104, 23.27461
154.2925, 18.36080
154.7747, 14.66463
155.2568, 12.03633
155.7389, 10.40505
156.2210, 10.00294
156.7031, 10.76145
157.1852, 12.16185
157.6673, 13.43716
158.1495, 14.76929
158.6316, 15.55463
159.1137, 15.67733
159.5958, 15.32868
160.0779, 14.46861
160.5600, 13.04585
161.0422, 11.60575
161.5243, 11.46943
162.0064, 13.39795
162.4885, 14.68129
162.9706, 14.11901
163.4527, 12.53214
163.9349, 11.57449
164.4170, 11.99560
164.8991, 13.19447
165.3812, 13.96383
165.8633, 14.15307
166.3454, 14.42171
166.8276, 15.27392
167.3097, 16.62015
167.7918, 17.82813
168.2739, 18.77335
168.7560, 19.33040
169.2381, 19.41807
169.7203, 19.01038
170.2024, 18.17469
170.6845, 16.70766
171.1666, 14.41637
171.6487, 12.67258
172.1308, 12.11179
172.6130, 12.23658
173.0951, 12.83379
173.5772, 13.87606
174.0593, 15.17014
174.5414, 16.55746
175.0235, 18.59079
175.5057, 19.42850
175.9878, 17.91624
176.4699, 15.61163
176.9520, 13.87917
177.4341, 13.34048
177.9162, 13.77161
178.3984, 14.52044
178.8805, 16.24797
179.3626, 17.42154
179.8447, 17.15014
180.3268, 16.43692
180.8089, 16.77987
181.2911, 19.10981
181.7732, 22.80921
182.2553, 24.31962
182.7374, 20.70420
183.2195, 18.14154
183.7016, 18.99276
184.1838, 21.66740
184.6659, 22.94399
185.1480, 20.55112
185.6301, 15.10231
186.1122, 13.00957
186.5943, 16.96676
187.0765, 20.70289
187.5586, 21.50871
188.0407, 19.96723
188.5228, 18.22231
189.0049, 17.56798
189.4870, 17.97427
189.9692, 18.64238
190.4513, 20.40664
190.9334, 21.74431
191.4155, 21.24310
191.8976, 19.01955
192.3797, 16.96811
192.8619, 16.48518
193.3440, 17.13407
193.8261, 17.55274
194.3082, 17.46823
194.7903, 17.18904
195.2724, 16.79061
195.7546, 16.14754
196.2367, 16.19911
196.7188, 18.84140
197.2009, 22.34400
197.6830, 24.20623
198.1651, 22.70016
198.6473, 19.81475
199.1294, 19.36046
199.6115, 22.61308
200.0936, 25.08754
200.5757, 24.05153
201.0578, 21.24235
201.5400, 18.64147
202.0221, 16.94729
202.5042, 16.22905
202.9863, 16.94764
203.4684, 20.57461
203.9505, 23.18310
204.4327, 23.40141
204.9148, 22.03880
205.3969, 20.05613
205.8790, 17.78285
206.3611, 15.46537
206.8432, 14.34089
207.3254, 15.22566
207.8075, 16.48207
208.2896, 18.20673
208.7717, 19.96674
209.2538, 21.17570
209.7359, 21.42243
210.2181, 20.80527
210.7002, 20.22031
211.1823, 19.85093
211.6644, 19.31927
212.1465, 18.32169
212.6286, 17.12489
213.1108, 16.23249
213.5929, 16.02317
214.0750, 16.41834
214.5571, 16.26062
215.0392, 14.38630
215.5213, 13.23115
216.0035, 13.91760
216.4856, 15.88464
216.9677, 17.92336
217.4498, 19.29750
217.9319, 20.01251
218.4140, 20.22083
218.8962, 19.27437
219.3783, 18.59205
219.8604, 19.48633
220.3425, 21.26417
220.8246, 21.59409
221.3067, 18.46596
221.7889, 12.68643
222.2710, 9.908191
222.7531, 12.11971
223.2352, 15.02613
223.7173, 16.72545
224.1994, 17.31319
224.6816, 17.47405
225.1637, 17.59138
225.6458, 17.56148
226.1279, 17.11581
226.6100, 15.50545
227.0921, 14.21717
227.5743, 14.49708
228.0564, 16.20922
228.5385, 18.01375
229.0206, 19.48171
229.5027, 20.38071
229.9848, 20.23773
230.4670, 18.10066
230.9491, 16.15125
231.4312, 16.98041
231.9133, 20.61608
232.3954, 23.04206
232.8775, 21.17082
233.3597, 17.54090
233.8418, 15.42365
234.3239, 15.38922
234.8060, 16.61507
235.2881, 18.73877
235.7702, 21.94256
236.2524, 24.33219
236.7345, 24.78666
237.2166, 24.21794
237.6987, 23.17769
238.1808, 21.66959
238.6629, 20.17412
239.1451, 19.04006
239.6272, 18.10141
240.1093, 18.38971
240.5914, 21.73234
241.0735, 25.59763
241.5556, 28.31530
242.0378, 29.49877
242.5199, 29.61864
243.0020, 29.09112
243.4841, 27.68614
243.9662, 26.49561
244.4483, 25.16587
244.9305, 24.46003
245.4126, 25.55226
245.8947, 28.53749
246.3768, 31.46717
246.8589, 31.30654
247.3410, 26.70469
247.8232, 23.22586
248.3053, 21.31408
248.7874, 20.60702
249.2695, 21.65503
249.7516, 24.23236
250.2337, 26.73903
250.7159, 26.59922
251.1980, 21.97771
251.6801, 19.77058
252.1622, 22.45111
252.6443, 25.46263
253.1264, 25.97145
253.6086, 23.77788
254.0907, 20.74510
254.5728, 19.16883
255.0549, 19.50059
255.5370, 19.97581
256.0191, 21.20138
256.5013, 22.06863
256.9834, 21.48437
257.4655, 19.67229
257.9476, 18.03915
258.4297, 18.24762
258.9118, 20.98159
259.3940, 22.77259
259.8761, 23.91555
260.3582, 24.10432
260.8403, 22.48411
261.3224, 19.50832
261.8045, 16.77669
262.2867, 15.86450
262.7688, 17.09227
263.2509, 18.06716
263.7330, 18.39919
264.2151, 18.88240
264.6972, 20.24847
265.1794, 22.20591
265.6615, 23.69538
266.1436, 23.73172
266.6257, 22.21743
267.1078, 21.57416
267.5899, 22.45607
268.0721, 23.35755
268.5542, 24.01295
269.0363, 24.20237
269.5184, 23.36801
270.0005, 20.94253
270.4826, 17.08913
270.9648, 14.38835
271.4469, 12.48965
271.9290, 11.79133
272.4111, 13.24566
272.8932, 16.07675
273.3753, 18.58015
273.8575, 19.83742
274.3396, 19.91369
274.8217, 19.05157
275.3038, 15.85903
275.7859, 13.49741
276.2680, 13.53532
276.7502, 15.09063
277.2323, 16.33494
277.7144, 16.40418
278.1965, 15.66269
278.6786, 15.13413
279.1607, 14.75869
279.6429, 14.61782
280.1250, 15.01725
280.6071, 15.63023
281.0892, 15.88257
281.5713, 15.57161
282.0534, 14.79670
282.5356, 13.49887
283.0177, 11.24257
283.4998, 9.910295
283.9819, 10.40906
284.4640, 12.00709
284.9461, 13.79837
285.4283, 15.64608
285.9104, 17.12218
286.3925, 17.40355
286.8746, 16.41979
287.3567, 15.47901
287.8388, 15.08947
288.3210, 14.78741
288.8031, 13.83887
289.2852, 12.04803
289.7673, 10.15711
290.2494, 8.828686
290.7315, 8.050915
291.2137, 8.029985
291.6958, 9.334782
292.1779, 11.12924
292.6600, 12.58001
293.1421, 13.60567
293.6242, 14.36678
294.1064, 15.06193
294.5885, 15.59250
295.0706, 15.52681
295.5527, 14.23248
296.0348, 12.73138
296.5169, 12.14074
296.9991, 12.42996
297.4812, 12.24998
297.9633, 10.15675
298.4454, 7.127758
298.9275, 6.098086
299.4096, 8.482868
299.8918, 11.40268
300.3739, 12.82165
300.8560, 12.92065
301.3381, 13.05524
301.8202, 14.22284
302.3023, 15.43114
302.7845, 14.60491
303.2666, 10.70556
303.7487, 7.297624
304.2308, 6.535373
304.7129, 7.951703
305.1950, 10.24511
305.6772, 13.81955
306.1593, 16.87246
306.6414, 16.23335
307.1235, 11.47690
307.6056, 7.685061
308.0877, 7.503381
308.5699, 9.845498
309.0520, 12.53951
309.5341, 15.55411
310.0162, 17.80209
310.4983, 17.62775
310.9804, 15.40158
311.4626, 12.93258
311.9447, 9.936552
312.4268, 7.330438
312.9089, 6.801162
313.3910, 8.802078
313.8731, 11.42659
314.3553, 13.61436
314.8374, 15.22552
315.3195, 15.63451
315.8016, 13.08548
316.2837, 10.22479
316.7658, 10.32576
317.2480, 13.52246
317.7301, 16.91322
318.2122, 19.20619
318.6943, 20.27431
319.1764, 19.97803
319.6585, 17.46881
320.1407, 14.64442
320.6228, 12.65394
321.1049, 11.50515
321.5870, 11.41859
322.0691, 13.14402
322.5512, 15.43770
323.0334, 15.94548
323.5155, 14.08470
323.9976, 12.34950
324.4797, 12.24133
324.9618, 13.32975
325.4439, 14.41289
325.9261, 15.34567
326.4082, 15.81485
326.8903, 15.18911
327.3724, 13.49101
327.8545, 11.92964
328.3366, 10.51341
328.8188, 9.617769
329.3009, 10.30857
329.7830, 13.10120
330.2651, 15.76243
330.7472, 15.43873
331.2293, 12.78413
331.7115, 11.45058
332.1936, 13.47354
332.6757, 16.31205
333.1578, 17.08210
333.6399, 15.65115
334.1220, 14.17138
334.6042, 14.30265
335.0863, 15.47182
335.5684, 15.46394
336.0505, 12.95618
336.5326, 10.54371
337.0147, 10.34279
337.4969, 11.85532
337.9790, 12.68447
338.4611, 11.40750
338.9432, 9.175406
339.4253, 8.676062
339.9074, 10.63126
340.3896, 12.22270
340.8717, 11.66790
341.3538, 10.05840
341.8359, 9.783074
342.3180, 11.72525
342.8001, 14.39579
343.2823, 15.64642
343.7644, 15.40127
344.2465, 15.10523
344.7286, 15.41187
345.2107, 15.60254
345.6928, 14.61253
346.1750, 12.30649
346.6571, 9.893097
347.1392, 8.249018
347.6213, 7.510690
348.1034, 7.964287
348.5855, 11.22407
349.0677, 14.32767
349.5498, 15.09585
350.0319, 13.84790
350.5140, 12.34279
350.9961, 11.52139
351.4782, 11.32420
351.9604, 11.44244
352.4425, 11.86250
352.9246, 12.54175
353.4067, 13.77988
353.8888, 15.22649
354.3709, 16.22970
354.8531, 16.52825
355.3352, 16.37593
355.8173, 16.33046
356.2994, 17.00706
356.7815, 16.32595
357.2636, 12.35400
357.7458, 7.914565
358.2279, 6.054767
358.7100, 7.185297
359.1921, 9.194096
359.6742, 9.782983
360.1563, 8.622683
360.6385, 7.934059
361.1206, 7.666486
361.6027, 7.853839
362.0848, 8.984443
362.5669, 10.67185
363.0490, 11.76137
363.5312, 11.36406
364.0133, 9.729571
364.4954, 8.906832
364.9775, 9.721665
365.4596, 10.31830
365.9417, 9.823521
366.4239, 9.049753
366.9060, 9.305857
367.3881, 11.11840
367.8702, 13.62176
368.3523, 15.04539
368.8344, 14.81531
369.3166, 14.31794
369.7987, 13.27413
370.2808, 12.17789
370.7629, 11.26378
371.2450, 10.63582
371.7271, 10.48134
372.2093, 11.17066
372.6914, 13.03659
373.1735, 13.58226
373.6556, 11.10919
374.1377, 9.095088
374.6198, 9.199232
375.1020, 10.72161
375.5841, 12.06878
376.0662, 12.20631
376.5483, 11.38613
377.0304, 10.77781
377.5125, 10.28065
377.9947, 10.19079
378.4768, 11.17639
378.9589, 12.25575
379.4410, 12.17710
379.9231, 10.58417
380.4052, 8.659942
380.8874, 8.467884
381.3695, 10.83788
381.8516, 12.20588
382.3337, 11.65334
382.8158, 10.57534
383.2979, 9.308084
383.7801, 8.074007
384.2622, 7.340228
384.7443, 7.862071
385.2264, 9.456921
385.7085, 9.637079
386.1906, 6.641703
386.6728, 4.825082
387.1549, 6.839765
387.6370, 10.76408
388.1191, 13.67332
388.6012, 14.23077
389.0833, 13.37719
389.5655, 12.67332
390.0476, 12.14561
390.5297, 11.64892
391.0118, 11.21772
391.4939, 10.74474
391.9760, 10.02223
392.4582, 9.013601
392.9403, 8.238957
393.4224, 8.235019
393.9045, 8.887374
394.3866, 9.472585
394.8687, 9.805131
395.3509, 10.20552
395.8330, 11.02472
396.3151, 12.13743
396.7972, 13.13514
397.2793, 14.31647
397.7614, 15.08702
398.2436, 14.12146
398.7257, 11.25277
399.2078, 8.941153
399.6899, 8.719363
400.1720, 10.00513
400.6541, 11.40972
401.1363, 13.10033
401.6184, 14.48834
402.1005, 14.92641
402.5826, 14.76207
403.0647, 15.13169
403.5468, 16.58317
404.0290, 18.10837
404.5111, 17.94879
404.9932, 15.92753
405.4753, 14.59726
405.9574, 15.03170
406.4395, 15.98007
406.9217, 16.05305
407.4038, 15.22142
407.8859, 14.74619
408.3680, 15.89294
408.8501, 18.39103
409.3322, 18.85775
409.8144, 15.56251
410.2965, 12.49058
410.7786, 10.83394
411.2607, 10.38702
411.7428, 10.94988
412.2249, 12.47740
412.7071, 14.35050
413.1892, 15.29435
413.6713, 14.09937
414.1534, 14.19028
414.6355, 16.85349
415.1176, 19.79974
415.5998, 21.36136
416.0819, 21.45924
416.5640, 20.99057
417.0461, 20.73305
417.5282, 20.69105
418.0103, 20.55108
418.4925, 20.10933
418.9746, 19.79207
419.4567, 19.56831
419.9388, 19.56235
420.4209, 20.14753
420.9030, 21.50694
421.3852, 22.94378
421.8673, 22.68674
422.3494, 19.34325
422.8315, 17.91689
423.3136, 20.18510
423.7957, 23.37546
424.2779, 26.42105
424.7600, 28.95044
425.2421, 30.40392
425.7242, 29.81069
426.2063, 27.45953
426.6884, 26.18581
427.1706, 26.25904
427.6527, 27.02775
428.1348, 28.62407
428.6169, 30.53014
429.0990, 32.01703
429.5811, 32.82170
430.0633, 33.16251
430.5454, 33.10242
431.0275, 32.62481
431.5096, 32.56734
431.9917, 33.28883
432.4738, 34.43353
432.9560, 35.74508
433.4381, 37.21700
433.9202, 38.30585
434.4023, 38.27239
434.8844, 37.82602
435.3665, 38.47374
435.8487, 40.49119
436.3308, 42.23725
436.8129, 42.11851
437.2950, 40.72621
437.7771, 40.62865
438.2592, 43.30360
438.7414, 45.76917
439.2235, 45.85732
439.7056, 44.50535
440.1877, 44.09919
440.6698, 45.60349
441.1519, 47.95143
441.6341, 49.49824
442.1162, 50.14739
442.5983, 50.15310
443.0804, 48.83583
443.5625, 47.39539
444.0446, 46.97337
444.5268, 47.41027
445.0089, 47.49841
445.4910, 46.22827
445.9731, 43.81054
446.4552, 42.28732
446.9373, 42.62614
447.4195, 42.69582
447.9016, 41.47591
448.3837, 40.15878
448.8658, 40.41811
449.3479, 42.62844
449.8300, 45.30611
450.3122, 46.30880
450.7943, 45.28181
451.2764, 43.89773
451.7585, 41.29659
452.2406, 39.14725
452.7227, 38.39198
453.2049, 38.61765
453.6870, 38.87237
454.1691, 38.67099
454.6512, 38.02778
455.1333, 36.76162
455.6154, 34.43581
456.0976, 32.80924
456.5797, 33.22562
457.0618, 34.09934
457.5439, 34.27378
458.0260, 33.58411
458.5081, 32.49107
458.9903, 30.93068
459.4724, 29.19890
459.9545, 28.48949
460.4366, 29.19306
460.9187, 30.18544
461.4008, 30.71110
461.8830, 30.87485
462.3651, 30.90875
462.8472, 31.27018
463.3293, 31.07317
463.8114, 28.99582
464.2935, 25.65652
464.7757, 23.42960
465.2578, 23.36768
465.7399, 24.32763
466.2220, 24.38346
466.7041, 23.28089
467.1862, 22.40297
467.6683, 21.89323
468.1505, 21.66969
468.6326, 21.98215
469.1147, 22.63006
469.5968, 22.77058
470.0789, 21.75154
470.5610, 19.75477
471.0432, 18.02468
471.5253, 16.05556
472.0074, 14.99870
472.4895, 15.72024
472.9716, 17.01698
473.4537, 17.79230
473.9359, 17.75264
474.4180, 17.14382
474.9001, 16.07949
475.3822, 14.41198
475.8643, 13.55484
476.3464, 13.88111
476.8286, 14.69992
477.3107, 16.77844
477.7928, 18.97737
478.2749, 19.20495
478.7570, 16.18689
479.2391, 12.11437
479.7213, 10.89193
480.2034, 12.91485
480.6855, 14.33169
481.1676, 13.87895
481.6497, 12.93066
482.1318, 12.50803
482.6140, 12.60643
483.0961, 13.00669
483.5782, 14.24107
484.0603, 15.44727
484.5424, 14.82543
485.0245, 12.24994
485.5067, 10.25341
485.9888, 10.61127
486.4709, 12.26425
486.9530, 12.32851
487.4351, 9.941436
487.9172, 7.973025
488.3994, 7.398648
488.8815, 7.802280
489.3636, 9.193780
489.8457, 11.43957
490.3278, 12.80254
490.8099, 11.27646
491.2921, 6.662898
491.7742, 4.338832
492.2563, 5.611408
492.7384, 7.267186
493.2205, 8.831469
493.7026, 10.01798
494.1848, 10.36837
494.6669, 9.742778
495.1490, 8.718900
495.6311, 8.274878
496.1132, 8.743283
496.5953, 8.715514
497.0775, 7.339223
497.5596, 6.271695
498.0417, 6.342156
498.5238, 7.234583
499.0059, 8.220340
499.4880, 8.971755
499.9702, 9.502249
500.4523, 9.884534
500.9344, 10.16094
501.4165, 10.02641
501.8986, 9.315466
502.3807, 8.198421
502.8629, 6.360430
503.3450, 3.906816
503.8271, 2.691844
504.3092, 4.754600
504.7913, 8.106894
505.2734, 9.504570
505.7556, 8.786057
506.2377, 7.921670
506.7198, 8.187902
507.2019, 9.026186
507.6840, 8.633265
508.1661, 6.249865
508.6483, 4.254544
509.1304, 2.877810
509.6125, 2.408956
510.0946, 3.653044
510.5767, 6.517972
511.0588, 9.487350
511.5410, 11.14359
512.0231, 11.49606
512.5052, 11.98250
512.9873, 13.32444
513.4694, 13.93962
513.9515, 13.24561
514.4337, 11.79278
514.9158, 9.906531
515.3979, 7.783286
515.8800, 6.076280
516.3621, 6.052367
516.8442, 8.020866
517.3264, 8.207016
517.8085, 4.469825
518.2906, 1.712200
518.7727, 2.865238
519.2548, 6.178959
519.7369, 8.746215
520.2191, 9.568569
520.7012, 9.411955
521.1833, 8.803792
521.6654, 7.835798
522.1475, 7.312019
522.6296, 7.625345
523.1118, 8.019348
523.5939, 7.235896
524.0760, 5.517415
524.5581, 5.004054
525.0402, 7.154981
525.5223, 9.650146
526.0045, 11.08813
526.4866, 11.50619
526.9687, 11.10908
527.4508, 9.940101
527.9329, 8.263783
528.4150, 6.433954
528.8972, 3.567836
529.3793, 2.812380
529.8614, 6.708823
530.3435, 10.23939
530.8256, 10.10176
531.3077, 7.241728
531.7899, 4.387906
532.2720, 3.074744
532.7541, 3.083863
533.2362, 4.119124
533.7183, 6.873045
534.2004, 8.695627
534.6826, 8.178382
535.1647, 7.349489
535.6468, 7.593664
536.1289, 8.708717
536.6110, 9.359813
537.0931, 8.196595
537.5753, 6.347639
538.0574, 6.098036
538.5395, 7.518755
539.0216, 9.009786
539.5037, 10.29307
539.9858, 10.90931
540.4680, 9.652087
540.9501, 5.955604
541.4322, 3.818501
541.9143, 5.771729
542.3964, 8.870824
542.8785, 9.992113
543.3607, 9.234755
543.8428, 8.736341
544.3249, 9.974943
544.8070, 12.27991
545.2891, 13.16027
545.7712, 11.18894
546.2534, 9.689546
546.7355, 8.529951
547.2176, 8.027540
547.6997, 9.068402
548.1818, 11.17250
548.6639, 12.50812
549.1461, 11.42679
549.6282, 8.592741
550.1103, 6.669679
550.5924, 5.539361
551.0745, 5.610052
551.5566, 8.854541
552.0388, 12.20218
552.5209, 12.88308
553.0030, 10.73993
553.4851, 8.417069
553.9672, 7.610226
554.4493, 7.546762
554.9315, 6.391212
555.4136, 4.043184
555.8957, 3.099376
556.3778, 5.602273
556.8599, 9.978933
557.3420, 11.79251
557.8242, 10.09732
558.3063, 8.622749
558.7884, 7.596574
559.2705, 7.421645
559.7526, 9.420839
560.2347, 12.95937
560.7169, 15.12477
561.1990, 13.59247
561.6811, 9.387235
562.1632, 7.259269
562.6453, 8.614365
563.1274, 9.714120
563.6096, 10.57636
564.0917, 10.75097
564.5738, 9.607383
565.0559, 7.340853
565.5380, 4.964942
566.0201, 2.916037
566.5023, 1.404077
566.9844, 1.003120
567.4665, 1.758391
567.9486, 3.493797
568.4307, 7.371947
568.9128, 11.12603
569.3950, 11.32897
569.8771, 7.647113
570.3592, 4.591104
570.8413, 3.943275
571.3234, 4.424680
571.8055, 5.098302
572.2877, 5.758262
572.7698, 5.768887
573.2519, 4.615714
573.7340, 3.098641
574.2161, 3.342296
574.6982, 7.241038
575.1804, 9.607372
575.6625, 8.947714
576.1446, 8.154477
576.6267, 9.531544
577.1088, 12.29979
577.5909, 14.09155
578.0731, 13.43807
578.5552, 11.18158
579.0373, 8.872868
579.5194, 6.311388
580.0015, 4.846635
580.4836, 5.118319
580.9658, 6.250072
581.4479, 7.942267
581.9300, 9.960809
582.4121, 11.32756
582.8942, 11.64046
583.3763, 11.19058
583.8585, 10.10581
584.3406, 8.473572
584.8227, 6.263675
585.3048, 3.225883
585.7869, 0.8388733
586.2690, 1.450868
586.7512, 6.036476
587.2333, 8.823187
587.7154, 8.284804
588.1975, 7.731688
588.6796, 8.776778
589.1617, 10.68233
589.6439, 12.21655
590.1260, 12.90887
590.6081, 13.07572
591.0902, 13.05401
591.5723, 12.80719
592.0544, 12.70707
592.5366, 12.63031
593.0187, 12.90742
593.5008, 14.17541
593.9829, 15.70176
594.4650, 16.25261
594.9471, 15.28700
595.4293, 14.28190
595.9114, 14.86701
596.3935, 16.17262
596.8756, 15.52080
597.3577, 12.40270
597.8398, 10.46711
598.3220, 13.27547
598.8041, 19.72114
599.2862, 22.13285
599.7683, 16.42244
600.2504, 12.75446
600.7325, 14.40851
601.2147, 17.65978
601.6968, 19.01602
602.1789, 18.23766
602.6610, 17.22448
603.1431, 17.56814
603.6252, 18.82712
604.1074, 18.92440
604.5895, 17.23965
605.0716, 16.01713
605.5537, 15.97886
606.0358, 16.49467
606.5179, 17.47286
607.0001, 18.75335
607.4822, 19.44402
607.9643, 18.43808
608.4464, 17.05562
608.9285, 17.22827
609.4106, 18.65567
609.8928, 19.29930
610.3749, 18.16057
610.8570, 16.69043
611.3391, 17.31048
611.8212, 21.07745
612.3033, 22.62580
612.7855, 20.14005
613.2676, 17.46462
613.7497, 15.84638
614.2318, 15.33103
614.7139, 16.17594
615.1960, 18.38431
615.6782, 20.59698
616.1603, 20.67640
616.6424, 18.49276
617.1245, 17.25379
617.6066, 17.68039
618.0887, 17.86714
618.5709, 16.19739
619.0530, 13.95896
619.5351, 13.12035
620.0172, 14.35453
620.4993, 15.40890
620.9814, 14.73973
621.4636, 13.18824
621.9457, 11.96355
622.4278, 11.20817
622.9099, 10.73584
623.3920, 10.41529
623.8741, 10.61808
624.3563, 10.59511
624.8384, 11.76722
625.3205, 12.67142
625.8026, 13.86692
626.2847, 14.31651
626.7668, 12.81071
627.2490, 9.961227
627.7311, 7.292941
628.2132, 5.453132
628.6953, 4.829617
629.1774, 6.911054
629.6595, 11.85418
630.1417, 14.79207
630.6238, 14.21166
631.1059, 12.45067
631.5880, 11.40885
632.0701, 10.81571
632.5522, 9.789748
633.0344, 7.620883
633.5165, 5.684678
633.9986, 4.817904
634.4807, 4.561987
634.9628, 4.068127
635.4449, 3.232666
635.9271, 2.811349
636.4092, 3.528560
636.8913, 5.299435
637.3734, 7.287236
637.8555, 10.49140
638.3376, 12.23585
638.8198, 11.35775
639.3019, 9.631870
639.7840, 7.875285
640.2661, 6.455743
640.7482, 6.285682
641.2303, 9.443403
641.7125, 13.02276
642.1946, 10.98306
642.6767, 4.002196
643.1588, 0.2906124
643.6409, 3.257750
644.1230, 8.270597
644.6052, 9.479700
645.0873, 6.214704
645.5694, 4.704051
646.0515, 6.962807
646.5336, 8.691278
647.0157, 7.596014
647.4979, 5.222464
647.9800, 3.666288
648.4621, 3.451588
648.9442, 3.731452
649.4263, 3.556429
649.9084, 3.042895
650.3906, 3.427032
650.8727, 5.149300
651.3548, 6.589564
651.8369, 6.776357
652.3190, 6.685772
652.8011, 7.839931
653.2833, 10.31197
653.7654, 11.06950
654.2475, 6.656346
654.7296, 1.848885
655.2117, 1.805212
655.6938, 5.351179
656.1760, 8.331448
656.6581, 9.115431
657.1402, 8.960328
657.6223, 9.815153
658.1044, 12.10080
658.5865, 12.86247
659.0687, 10.35114
659.5508, 8.253614
660.0329, 7.963062
660.5150, 8.309136
660.9971, 7.698585
661.4792, 5.860021
661.9614, 4.339749
662.4435, 4.733476
662.9256, 6.257671
663.4077, 7.028824
663.8898, 6.991096
664.3719, 7.315309
664.8541, 8.860757
665.3362, 10.48384
665.8183, 9.809782
666.3004, 5.478632
666.7825, 3.825568
667.2646, 7.873767
667.7468, 11.60317
668.2289, 11.47665
668.7110, 9.183687
669.1931, 7.687119
669.6752, 7.955448
670.1573, 8.740010
670.6395, 8.136194
671.1216, 6.364061
671.6037, 6.945318
672.0858, 11.11155
672.5679, 13.75056
673.0500, 11.13922
673.5322, 6.531829
674.0143, 5.128923
674.4964, 7.507002
674.9785, 9.015408
675.4606, 7.750105
675.9427, 5.572927
676.4249, 3.240283
676.9070, 1.308213
677.3891, 1.244970
677.8712, 3.602283
678.3533, 6.436491
678.8354, 6.685275
679.3176, 3.955720
679.7997, 2.504239
680.2818, 3.169420
680.7639, 3.854135
681.2460, 3.695137
681.7281, 3.254303
682.2103, 3.095206
682.6924, 3.297673
683.1745, 3.772873
683.6566, 5.327119
684.1387, 6.585734
684.6208, 4.613854
685.1030, 0.4037248
685.5851, -0.7268097
686.0672, 3.788439
686.5493, 9.717978
687.0314, 10.24010
687.5135, 3.714112
687.9957, 0.6277095
688.4778, 5.024576
688.9599, 8.200849
689.4420, 6.394301
689.9241, 3.103825
690.4063, 2.817137
690.8884, 6.169072
691.3705, 9.192028
691.8526, 8.066676
692.3347, 4.974841
692.8168, 4.363398
693.2990, 6.103208
693.7811, 7.223087
694.2632, 6.514812
694.7453, 4.960983
695.2274, 3.776962
695.7095, 2.891446
696.1917, 2.937441
696.6738, 4.807271
697.1559, 6.454376
697.6380, 7.433777
698.1201, 7.745152
698.6022, 6.980291
699.0844, 5.334208
699.5665, 4.287845
700.0486, 5.505185
700.5307, 8.008481
701.0128, 9.272300
701.4949, 9.278261
701.9771, 8.470457
702.4592, 6.639943
702.9413, 4.728817
703.4234, 3.863040
703.9055, 4.108199
704.3876, 4.530247
704.8698, 5.298274
705.3519, 6.027744
705.8340, 6.455691
706.3161, 6.844529
706.7982, 7.988554
707.2803, 9.637148
707.7625, 10.02050
708.2446, 7.273887
708.7267, 2.795115
709.2088, 0.8531587
709.6909, 1.752323
710.1730, 1.636581
710.6552, -1.334653
711.1373, -3.978874
711.6194, -2.608037
712.1015, 1.987614
712.5836, 5.121222
713.0657, 5.788246
713.5479, 5.850852
714.0300, 5.652478
714.5121, 5.338177
714.9942, 4.755972
715.4763, 4.134659
715.9584, 4.404707
716.4406, 6.351373
716.9227, 9.042709
717.4048, 10.22500
717.8869, 9.770400
718.3690, 8.972868
718.8511, 7.633090
719.3333, 6.637164
719.8154, 6.867035
720.2975, 7.904172
720.7796, 8.792661
721.2617, 9.719032
721.7438, 9.957241
722.2260, 8.898367
722.7081, 7.306834
723.1902, 5.380511
723.6723, 3.570670
724.1544, 3.018634
724.6365, 4.361317
725.1187, 6.570294
725.6008, 7.927969
726.0829, 8.381152
726.5650, 8.580793
727.0471, 8.440011
727.5292, 8.288202
728.0114, 8.419749
728.4935, 8.583431
728.9756, 8.340425
729.4577, 7.581888
729.9398, 6.887066
730.4219, 6.410419
730.9041, 6.062963
731.3862, 5.801609
731.8683, 5.607352
732.3504, 5.489886
732.8325, 5.442803
733.3146, 5.343816
733.7968, 4.992417
734.2789, 4.416263
734.7610, 4.087153
735.2431, 4.102695
735.7252, 4.055814
736.2073, 3.632078
736.6895, 3.235864
737.1716, 3.509710
737.6537, 4.411014
738.1358, 4.773990
738.6179, 3.625228
739.1000, 2.678617
739.5822, 2.975890
740.0643, 4.000154
740.5464, 5.062905
741.0285, 5.998214
741.5106, 6.990886
741.9927, 8.282927
742.4749, 9.622056
742.9570, 10.18765
743.4391, 9.969476
743.9212, 8.868143
744.4033, 5.967179
744.8854, 3.549814
745.3676, 4.047848
745.8497, 6.597072
746.3318, 8.408690
746.8139, 9.172224
747.2960, 9.323818
747.7781, 8.618123
748.2603, 7.639426
748.7424, 7.030388
749.2245, 6.671807
749.7066, 5.902678
750.1887, 4.336537
750.6708, 2.710707
751.1530, 2.112793
751.6351, 2.540567
752.1172, 3.978073
752.5993, 6.966044
753.0814, 9.010763
753.5635, 8.048247
754.0457, 5.810349
754.5278, 6.229663
755.0099, 10.36207
755.4920, 11.97447
755.9741, 7.343666
756.4562, 3.094537
756.9384, 3.890308
757.4205, 7.008290
757.9026, 7.864679
758.3847, 5.484183
758.8668, 2.684544
759.3489, 2.001676
759.8311, 2.946272
760.3132, 4.345792
760.7953, 6.211377
761.2774, 7.660144
761.7595, 8.420827
762.2416, 8.682563
762.7238, 8.573160
763.2059, 8.097494
763.6880, 7.548105
764.1701, 6.078137
764.6522, 5.682223
765.1343, 7.406646
765.6165, 9.770844
766.0986, 12.66662
766.5807, 15.11938
767.0628, 14.42657
767.5449, 8.476751
768.0270, 1.990192
768.5092, 1.590686
768.9913, 5.455156
769.4734, 7.039146
769.9555, 5.565482
770.4376, 4.326073
770.9197, 5.355629
771.4019, 7.591806
771.8840, 8.642757
772.3661, 8.154620
772.8482, 7.486639
773.3303, 6.299362
773.8124, 5.322996
774.2946, 4.998250
774.7767, 4.917006
775.2588, 4.232695
775.7409, 2.907133
776.2230, 2.638758
776.7051, 5.831210
777.1873, 9.621019
777.6694, 10.06966
778.1515, 8.162464
778.6336, 7.194006
779.1157, 8.040028
779.5978, 9.030425
780.0800, 8.477388
780.5621, 6.672437
781.0442, 5.496899
781.5263, 4.925969
782.0084, 5.095080
782.4905, 7.228641
782.9727, 8.875489
783.4548, 8.038987
783.9369, 5.639765
784.4190, 3.998267
784.9011, 3.772396
785.3832, 3.845189
785.8654, 3.816777
786.3475, 3.738344
786.8296, 3.562407
787.3117, 3.385672
787.7938, 3.577891
788.2759, 4.293153
788.7581, 4.959261
789.2402, 4.440454
789.7223, 2.844355
790.2044, 2.876977
790.6865, 5.079675
791.1686, 6.658727
791.6508, 6.359313
792.1329, 5.202020
792.6150, 4.169044
793.0971, 3.252073
793.5792, 3.376460
794.0613, 5.562772
794.5435, 7.590661
795.0256, 9.125890
795.5077, 9.926647
795.9898, 9.379992
796.4719, 7.833367
796.9540, 6.468665
797.4362, 5.828220
797.9183, 6.056946
798.4004, 8.185051
798.8825, 11.44254
799.3646, 12.40868
799.8467, 10.62812
800.3289, 8.654806
800.8110, 7.828863
801.2931, 7.998407
801.7752, 9.007631
802.2573, 11.54301
802.7394, 12.59928
803.2216, 10.79134
803.7037, 9.097387
804.1858, 8.318872
804.6679, 8.065682
805.1500, 7.969232
805.6321, 7.960326
806.1143, 7.945692
806.5964, 8.054029
807.0785, 7.974790
807.5606, 7.165929
808.0427, 6.064435
808.5248, 5.522976
809.0070, 5.668124
809.4891, 6.167157
809.9712, 6.867124
810.4533, 7.444393
810.9354, 6.752708
811.4175, 4.501181
811.8997, 3.329790
812.3818, 3.763385
812.8639, 4.702368
813.3460, 5.653443
813.8281, 6.651633
814.3102, 7.948407
814.7924, 9.917617
815.2745, 10.67875
815.7566, 8.995934
816.2387, 7.112640
816.7208, 5.556641
817.2029, 4.826093
817.6851, 6.423088
818.1672, 10.00687
818.6493, 11.81457
819.1314, 7.662221
819.6135, 1.711702
820.0956, 1.632809
820.5778, 6.056560
821.0599, 8.650311
821.5420, 8.106300
822.0241, 6.814575
822.5062, 6.469543
822.9883, 6.827433
823.4705, 7.100178
823.9526, 7.207967
824.4347, 7.419975
824.9168, 7.659677
825.3989, 8.107431
825.8810, 9.174236
826.3632, 10.31660
826.8453, 10.85018
827.3274, 10.69032
827.8095, 10.01701
828.2916, 8.212502
828.7737, 6.597322
829.2559, 6.661027
829.7380, 7.346858
830.2201, 6.340572
830.7022, 3.660392
831.1843, 2.216573
831.6664, 4.552480
832.1486, 8.745153
832.6307, 10.85957
833.1128, 10.92382
833.5949, 8.943922
834.0770, 4.262456
834.5591, 0.9853708
835.0413, 1.991324
835.5233, 5.775670
836.0054, 8.925397
836.4875, 11.84063
836.9697, 12.93632
837.4518, 11.43067
837.9339, 9.196871
838.4160, 5.724379
838.8981, 2.533528
839.3802, 1.476182
839.8624, 2.539101
840.3445, 3.849495
840.8266, 4.134389
841.3087, 4.745746
841.7908, 7.832583
842.2729, 11.59785
842.7551, 12.57515
843.2372, 10.74639
843.7193, 8.900578
844.2014, 8.766171
844.6835, 9.494978
845.1656, 9.400398
845.6478, 8.472380
846.1299, 8.406320
846.6120, 9.662508
847.0941, 10.09470
847.5762, 8.335310
848.0583, 5.851922
848.5405, 4.774515
849.0226, 5.275466
849.5047, 5.628503
849.9868, 5.417138
850.4689, 5.610618
850.9510, 6.908227
851.4332, 8.299095
851.9153, 8.901200
852.3974, 8.844322
852.8795, 8.740586
853.3616, 8.783106
853.8438, 8.972517
854.3259, 9.725584
854.8080, 10.38398
855.2901, 9.486330
855.7722, 7.523660
856.2543, 6.828953
856.7365, 8.303145
857.2186, 9.900702
857.7007, 8.718946
858.1828, 5.373476
858.6649, 5.038810
859.1470, 8.531597
859.6292, 9.582542
860.1113, 5.498878
860.5934, 1.087468
861.0755, 0.5513738
861.5576, 3.218124
862.0397, 5.698193
862.5219, 9.067205
863.0040, 10.44722
863.4861, 8.117861
863.9682, 5.473784
864.4503, 3.753108
864.9324, 3.051159
865.4146, 3.620365
865.8967, 5.456180
866.3788, 7.163260
866.8609, 8.382133
867.3430, 8.704821
867.8251, 7.083364
868.3073, 4.468770
868.7894, 2.315456
869.2715, 1.108388
869.7536, 1.769530
870.2357, 5.243671
870.7178, 9.659147
871.2000, 10.95810
871.6821, 9.221359
872.1642, 7.451641
872.6463, 5.749874
873.1284, 4.686536
873.6105, 4.731007
874.0927, 5.203110
874.5748, 4.926745
875.0569, 3.685038
875.5390, 3.597398
876.0211, 5.967553
876.5032, 7.773150
876.9854, 8.714403
877.4675, 8.819056
877.9496, 7.482955
878.4317, 5.338190
878.9138, 4.252502
879.3959, 5.131475
879.8781, 5.934251
880.3602, 5.029439
880.8423, 4.034204
881.3244, 4.621709
881.8065, 6.372832
882.2886, 8.445417
882.7708, 10.44183
883.2529, 11.66297
883.7350, 11.21460
884.2171, 9.755161
884.6992, 8.748251
885.1813, 8.147321
885.6635, 7.523211
886.1456, 6.763711
886.6277, 6.610687
887.1098, 7.769669
887.5919, 9.483797
888.0740, 9.677247
888.5562, 7.775716
889.0383, 6.563279
889.5204, 6.533197
890.0025, 6.371638
890.4846, 5.368218
890.9667, 4.174998
891.4489, 3.360759
891.9310, 2.940668
892.4131, 3.034858
892.8952, 4.155377
893.3773, 5.137345
893.8594, 4.997244
894.3416, 5.121679
894.8237, 7.784169
895.3058, 11.45931
895.7879, 12.15670
896.2700, 8.407998
896.7521, 4.453138
897.2343, 3.630286
897.7164, 4.665462
898.1985, 6.651716
898.6806, 8.854121
899.1627, 8.818457
899.6448, 6.242038
900.1270, 4.289652
900.6091, 5.784617
901.0912, 9.146799
901.5733, 10.06818
902.0554, 8.501413
902.5375, 7.518586
903.0197, 7.606755
903.5018, 7.164787
903.9839, 5.027881
904.4660, 2.555767
904.9481, 1.996422
905.4302, 3.562728
905.9124, 4.989793
906.3945, 6.792437
906.8766, 7.687763
907.3587, 6.801669
907.8408, 5.582510
908.3229, 4.752076
908.8051, 4.421266
909.2872, 4.817955
909.7693, 6.247018
910.2514, 7.549113
910.7335, 8.625580
911.2156, 9.093792
911.6978, 8.253026
912.1799, 6.796523
912.6620, 5.584996
913.1441, 4.908954
913.6262, 5.125367
914.1083, 7.085618
914.5905, 8.999699
915.0726, 7.858859
915.5547, 4.994266
916.0368, 3.734290
916.5189, 4.276240
917.0010, 5.099154
917.4832, 5.465529
917.9653, 5.335424
918.4474, 4.290552
918.9295, 2.565628
919.4116, 3.410756
919.8937, 7.507779
920.3759, 8.879267
920.8580, 5.082770
921.3401, 0.9251617
921.8222, 0.4122096
922.3043, 2.634611
922.7864, 4.089149
923.2686, 4.077997
923.7507, 4.830619
924.2328, 7.549281
924.7149, 9.604832
925.1970, 10.26504
925.6791, 9.760657
926.1613, 7.614583
926.6434, 4.121662
927.1255, 2.317150
927.6076, 4.685908
928.0897, 6.524070
928.5718, 4.960564
929.0540, 3.115754
929.5361, 4.193156
930.0182, 7.095358
930.5003, 9.108530
930.9824, 9.354788
931.4645, 8.617580
931.9467, 7.027524
932.4288, 5.151753
932.9109, 3.161316
933.3930, 1.577059
933.8751, 1.927920
934.3572, 4.183412
934.8394, 6.519115
935.3215, 7.790700
935.8036, 8.329818
936.2857, 8.911520
936.7678, 9.358506
937.2499, 7.746248
937.7321, 3.920402
938.2142, 1.905997
938.6963, 3.334812
939.1784, 5.837760
939.6605, 7.030000
940.1426, 7.047858
940.6248, 6.630750
941.1069, 5.582901
941.5890, 4.621028
942.0711, 3.279353
942.5532, 2.957628
943.0353, 5.250821
943.5175, 8.426929
943.9996, 9.555613
944.4817, 8.466049
944.9638, 7.667699
945.4459, 7.171117
945.9280, 7.080404
946.4102, 7.614239
946.8923, 8.387388
947.3744, 9.597220
947.8565, 10.71750
948.3386, 10.58364
948.8207, 8.778005
949.3029, 6.692598
949.7850, 4.651413
950.2671, 2.878607
950.7492, 0.5114069
951.2313, -0.9442272
951.7134, 2.122406
952.1956, 8.638562
952.6777, 12.21934
953.1598, 8.734613
953.6419, 3.798439
954.1240, 3.867438
954.6061, 6.545137
955.0883, 7.498953
955.5704, 6.938605
956.0525, 6.817042
956.5346, 7.736539
957.0167, 8.918317
957.4988, 9.714513
957.9810, 10.12245
958.4631, 10.02371
958.9452, 9.464951
959.4273, 8.947924
959.9094, 8.498800
960.3915, 8.807498
960.8737, 10.40909
961.3558, 12.06770
961.8379, 11.77397
962.3200, 12.96466
962.8021, 13.76132
963.2842, 12.93325
963.7664, 14.59268
964.2485, 12.78056
964.7306, 11.18490
965.2127, 12.16689
965.6948, 14.97795
966.1769, 18.08044
966.6591, 21.70610
967.1412, 24.70789
967.6233, 26.17892
968.1054, 28.23989
968.5875, 31.59064
969.0696, 35.48127
969.5518, 39.50387
970.0339, 43.55169
970.5160, 47.59482
970.9981, 51.84101
971.4802, 55.30846
971.9623, 56.89479
972.4445, 58.50536
972.9266, 61.77808
973.4087, 65.36526
973.8908, 66.44305
974.3729, 65.80619
974.8550, 68.48019
975.3372, 78.14645
975.8193, 87.74066
976.3014, 90.50727
976.7835, 91.78716
977.2656, 97.94561
977.7477, 107.5016
978.2299, 116.7411
978.7120, 124.4731
979.1941, 130.7527
979.6762, 134.8279
980.1583, 139.1163
980.6404, 148.2343
981.1226, 159.9714
981.6047, 170.1768
982.0868, 177.7773
982.5689, 180.1068
983.0510, 176.1109
983.5331, 167.6130
984.0153, 156.4279
984.4974, 142.5423
984.9795, 124.3150
985.4616, 102.3709
985.9437, 85.26748
986.4258, 74.33672
986.9080, 65.36757
987.3901, 56.12597
987.8722, 47.35668
988.3543, 40.12314
988.8364, 34.42503
989.3185, 30.49513
989.8007, 28.81081
990.2828, 26.53449
990.7649, 22.73836
991.2470, 19.33840
991.7291, 17.65715
992.2112, 17.13232
992.6934, 16.65674
993.1755, 16.37724
993.6576, 15.26376
994.1397, 12.33853
994.6218, 10.34482
995.1039, 10.28411
995.5861, 10.92099
996.0682, 11.98096
996.5503, 12.94874
997.0324, 12.20897
997.5145, 8.821943
997.9966, 6.556154
998.4788, 6.289962
998.9609, 6.356341
999.4430, 6.134931
999.9251, 6.092647
1000.407, 7.308751
1000.889, 9.089262
1001.371, 8.776633
1001.854, 4.539669
1002.336, 2.196554
1002.818, 5.986443
1003.300, 9.398562
1003.782, 7.978228
1004.264, 4.548518
1004.746, 2.390526
1005.228, 1.764963
1005.711, 1.389340
1006.193, 0.5728821
1006.675, 0.5473388
1007.157, 2.827637
1007.639, 5.509402
1008.121, 7.002462
1008.603, 7.591422
1009.085, 7.722785
1009.567, 7.618388
1010.050, 7.740172
1010.532, 8.586619
1011.014, 9.026480
1011.496, 7.260126
1011.978, 4.900395
1012.460, 4.518605
1012.942, 5.483002
1013.424, 5.809088
1013.906, 5.050707
1014.389, 4.173372
1014.871, 3.765345
1015.353, 3.942517
1015.835, 5.382273
1016.317, 7.368590
1016.799, 7.971986
1017.281, 7.381464
1017.763, 7.150368
1018.246, 7.738766
1018.728, 8.216089
1019.210, 7.803275
1019.692, 6.587033
1020.174, 3.968520
1020.656, 0.5968865
1021.138, 0.2647498
1021.620, 3.002120
1022.102, 5.198651
1022.585, 5.471658
1023.067, 4.914694
1023.549, 4.478673
1024.031, 4.393405
1024.513, 6.018271
1024.995, 9.261236
1025.477, 9.768046
1025.959, 6.975505
1026.442, 4.236386
1026.924, 2.931797
1027.406, 2.335653
1027.888, 1.542427
1028.370, 0.7861559
1028.852, 1.708445
1029.334, 4.762974
1029.816, 5.789926
1030.298, 3.776069
1030.781, 2.726926
1031.263, 4.883481
1031.745, 7.590269
1032.227, 7.389610
1032.709, 4.722338
1033.191, 3.386708
1033.673, 3.538192
1034.155, 4.706345
1034.638, 7.615993
1035.120, 9.778467
1035.602, 10.16615
1036.084, 9.076540
1036.566, 6.305948
1037.048, 2.107835
1037.530, 0.7239455
1038.012, 4.132703
1038.495, 5.856909
1038.977, 4.161365
1039.459, 2.861241
1039.941, 3.975547
1040.423, 6.067571
1040.905, 7.391668
1041.387, 7.971297
1041.869, 8.474566
1042.351, 9.090098
1042.833, 9.316706
1043.316, 9.470331
1043.798, 8.821969
1044.280, 5.695327
1044.762, 2.486816
1045.244, 2.724095
1045.726, 6.134528
1046.208, 7.797166
1046.690, 5.635140
1047.173, 4.618472
1047.655, 6.241398
1048.137, 7.785367
1048.619, 8.074817
1049.101, 7.596087
1049.583, 6.648362
1050.065, 5.375558
1050.547, 4.818061
1051.030, 6.117185
1051.512, 6.490842
1051.994, 3.841487
1052.476, 2.127848
1052.958, 4.927739
1053.440, 8.670323
1053.922, 8.413575
1054.404, 4.618968
1054.886, 2.584833
1055.369, 4.423542
1055.851, 6.013393
1056.333, 6.315842
1056.815, 6.253754
1057.297, 6.325068
1057.779, 6.285851
1058.261, 5.388986
1058.743, 3.969985
1059.225, 3.992102
1059.708, 7.225376
1060.190, 8.909883
1060.672, 6.012178
1061.154, 3.013261
1061.636, 2.091463
1062.118, 2.656958
1062.600, 4.838821
1063.082, 7.816782
1063.565, 8.472843
1064.047, 4.645339
1064.529, 2.516721
1065.011, 6.477030
1065.493, 10.30051
1065.975, 10.12923
1066.457, 8.072351
1066.939, 5.982092
1067.422, 4.382425
1067.904, 4.035696
1068.386, 5.542130
1068.868, 6.610089
1069.350, 5.603547
1069.832, 4.706266
1070.314, 5.752381
1070.796, 7.147565
1071.278, 6.534742
1071.760, 4.755757
1072.243, 5.085776
1072.725, 8.883848
1073.207, 11.33871
1073.689, 8.857449
1074.171, 6.238145
1074.653, 6.491347
1075.135, 7.756880
1075.617, 8.283434
1076.100, 8.077389
1076.582, 7.624059
1077.064, 7.031783
1077.546, 6.535056
1078.028, 6.493333
1078.510, 6.256501
1078.992, 5.162883
1079.474, 3.970853
1079.957, 3.177114
1080.439, 2.935783
1080.921, 3.502822
1081.403, 4.915639
1081.885, 6.453704
1082.367, 8.397326
1082.849, 9.631007
1083.331, 9.168331
1083.813, 8.134150
1084.296, 7.135223
1084.778, 6.435130
1085.260, 6.407495
1085.742, 7.059953
1086.224, 7.728394
1086.706, 8.175325
1087.188, 8.537020
1087.670, 9.023185
1088.152, 9.301849
1088.635, 8.416397
1089.117, 7.544908
1089.599, 9.136382
1090.081, 12.83405
1090.563, 14.58371
1091.045, 11.86668
1091.527, 9.489762
1092.009, 9.996452
1092.491, 10.90371
1092.974, 10.72057
1093.456, 9.892165
1093.938, 8.696962
1094.420, 7.476042
1094.902, 7.327006
1095.384, 9.120458
1095.866, 10.05876
1096.348, 8.129631
1096.831, 6.250058
1097.313, 5.971286
1097.795, 6.516244
1098.277, 7.202295
1098.759, 7.930119
1099.241, 8.724495
1099.723, 9.623598
1100.205, 10.40190
1100.688, 11.13966
1101.170, 11.54522
1101.652, 11.79822
1102.134, 11.39355
1102.616, 9.465796
1103.098, 6.732091
1103.580, 4.453937
1104.062, 2.811119
1104.544, 1.971200
1105.026, 2.462646
1105.509, 3.092033
1105.991, 3.359990
1106.473, 3.842201
1106.955, 5.353041
1107.437, 7.070271
1107.919, 7.469311
1108.401, 6.572247
1108.883, 6.637833
1109.366, 9.308283
1109.848, 10.95279
1110.330, 11.07923
1110.812, 10.07145
1111.294, 6.569068
1111.776, 3.140291
1112.258, 2.926373
1112.740, 5.446114
1113.223, 7.596497
1113.705, 10.11625
1114.187, 10.24319
1114.669, 5.465674
1115.151, 1.409069
1115.633, -0.7549207
1116.115, -1.188767
1116.597, 0.6611521
1117.079, 3.998901
1117.562, 6.902788
1118.044, 9.732011
1118.526, 10.52326
1119.008, 7.849982
1119.490, 5.568556
1119.972, 4.108995
1120.454, 3.539474
1120.936, 4.166491
1121.418, 5.499418
1121.901, 6.825028
1122.383, 8.157160
1122.865, 8.918146
1123.347, 8.982982
1123.829, 8.901759
1124.311, 9.219441
1124.793, 8.015801
1125.275, 3.234546
1125.758, -1.211071
1126.240, -0.2608625
1126.722, 4.850295
1127.204, 7.252529
1127.686, 6.225848
1128.168, 5.997283
1128.650, 6.871587
1129.132, 7.992553
1129.615, 9.369520
1130.097, 9.750234
1130.579, 7.711726
1131.061, 9.061362
1131.543, 5.111837
1132.025, 8.740567
1132.507, 9.749052
1132.989, 7.917039
1133.471, 7.255414
1133.953, 8.680426
1134.436, 9.519258
1134.918, 8.105263
1135.400, 6.359210
1135.882, 7.346635
1136.364, 6.515913
1136.846, 6.436457
1137.328, 7.530785
1137.810, 7.049408
1138.293, 8.877270
1138.775, 10.54630
1139.257, 11.09206
1139.739, 10.18219
1140.221, 7.094499
1140.703, 3.564476
1141.185, 3.738250
1141.667, 6.093252
1142.150, 5.843553
1142.632, 3.423182
1143.114, 1.289247
1143.596, 0.1430952
1144.078, 0.1001143
1144.560, 1.285098
1145.042, 2.973471
1145.524, 4.531477
1146.006, 5.883653
1146.489, 7.367268
1146.971, 8.361293
1147.453, 6.471581
1147.935, 2.899094
1148.417, 2.715492
1148.899, 7.464441
1149.381, 11.63390
1149.863, 10.65659
1150.345, 8.155978
1150.828, 6.928332
1151.310, 6.372777
1151.792, 5.959373
1152.274, 5.637447
1152.756, 5.362220
1153.238, 5.190702
1153.720, 5.591567
1154.202, 7.357275
1154.685, 7.888768
1155.167, 4.200498
1155.649, 0.7451009
1156.131, 0.3053145
1156.613, 1.665529
1157.095, 4.345510
1157.577, 7.378588
1158.059, 8.669577
1158.542, 7.697035
1159.024, 6.314310
1159.506, 3.835148
1159.988, 2.596334
1160.470, 4.868752
1160.952, 6.834050
1161.434, 5.218322
1161.916, 2.388907
1162.398, 2.154382
1162.880, 4.425517
1163.363, 5.397300
1163.845, 3.988749
1164.327, 3.254493
1164.809, 3.785748
1165.291, 3.952554
1165.773, 2.708666
1166.255, 1.743170
1166.737, 2.579821
1167.220, 4.632062
1167.702, 6.604093
1168.184, 8.649565
1168.666, 8.751693
1169.148, 6.323359
1169.630, 4.790711
1170.112, 4.831359
1170.594, 5.222922
1171.077, 5.335019
1171.559, 5.627617
1172.041, 6.891661
1172.523, 8.521644
1173.005, 7.655361
1173.487, 8.121526
1173.969, 7.926466
1174.451, 6.227798
1174.933, 6.397239
1175.416, 3.518397
1175.898, 1.197582
1176.380, 2.035271
1176.862, 3.962590
1177.344, 4.010385
1177.826, 2.862781
1178.308, 1.656530
1178.790, 0.6855401
1179.272, 0.6406374
1179.755, 1.555883
1180.237, 3.733829
1180.719, 7.036665
1181.201, 8.459601
1181.683, 4.147703
1182.165, 2.2185570E-02
1182.647, 3.645871
1183.129, 8.968710
1183.612, 8.818201
1184.094, 5.506969
1184.576, 3.241648
1185.058, 2.583265
1185.540, 2.332770
1186.022, 2.164398
1186.504, 1.946899
1186.986, 1.413101
1187.469, 1.087634
1187.951, 1.316331
1188.433, 1.770797
1188.915, 2.097537
1189.397, 2.491240
1189.879, 3.551613
1190.361, 5.305305
1190.843, 6.228593
1191.325, 5.676425
1191.807, 5.108727
1192.290, 3.984327
1192.772, 3.841319
1193.254, 6.371545
1193.736, 8.456130
1194.218, 7.025089
1194.700, 3.393090
1195.182, 0.8167183
1195.664, -0.7279992
1196.147, -0.6191524
1196.629, 1.643751
1197.111, 2.583299
1197.593, 1.367687
1198.075, 0.9135382
1198.557, 2.725511
1199.039, 5.101381
1199.521, 6.270871
1200.004, 6.355598
1200.486, 5.127637
1200.968, 5.797136
1201.450, 3.172195
1201.932, 5.032096
1202.414, 5.370060
1202.896, 3.831288
1203.378, 3.587423
1203.860, 6.414686
1204.343, 9.114269
1204.825, 7.364465
1205.307, 4.444386
1205.789, 5.155432
1206.271, 7.290294
1206.753, 7.665750
1207.235, 6.607996
1207.717, 5.109134
1208.199, 3.702384
1208.682, 3.819722
1209.164, 6.850465
1209.646, 9.114351
1210.128, 7.829807
1210.610, 6.389321
1211.092, 7.843153
1211.574, 9.131781
1212.056, 6.006832
1212.539, 0.8681773
1213.021, -0.4482148
1213.503, 2.876666
1213.985, 5.130160
1214.467, 5.444781
1214.949, 5.419432
1215.431, 4.745915
1215.913, 4.466307
1216.396, 5.468754
1216.878, 6.047551
1217.360, 4.147372
1217.842, 1.285822
1218.324, 1.703765
1218.806, 5.498969
1219.288, 7.792532
1219.770, 8.511098
1220.252, 8.886568
1220.734, 9.114215
1221.217, 7.697324
1221.699, 3.925547
1222.181, 1.085528
1222.663, 2.809321
1223.145, 6.243987
1223.627, 5.571184
1224.109, 2.729876
1224.591, 2.483217
1225.074, 3.996140
1225.556, 4.751934
1226.038, 4.298919
1226.520, 2.513049
1227.002, -0.5964298
1227.484, -1.963679
1227.966, 2.221083
1228.448, 6.779185
1228.931, 8.679796
1229.413, 8.721304
1229.895, 6.160794
1230.377, 3.128444
1230.859, 2.774774
1231.341, 4.719672
1231.823, 6.015624
1232.305, 6.206262
1232.787, 5.576216
1233.270, 2.577929
1233.752, 1.168121
1234.234, 3.193780
1234.716, 5.325570
1235.198, 5.772325
1235.680, 5.589891
1236.162, 6.179389
1236.644, 7.244190
1237.126, 7.135541
1237.609, 7.859248
1238.091, 5.815963
1238.573, 7.986623
1239.055, 8.757849
1239.537, 7.391847
1240.019, 4.996605
1240.501, 2.105416
1240.983, 0.2949535
1241.466, 1.912625
1241.948, 4.991796
1242.430, 5.751756
1242.912, 5.148967
1243.394, 5.301551
1243.876, 5.750195
1244.358, 4.677750
1244.840, 2.218223
1245.323, 0.5052757
1245.805, 0.4850249
1246.287, 0.4826533
1246.769, -1.108303
1247.251, -2.164864
1247.733, -1.220708
1248.215, 0.4450205
1248.697, 2.310269
1249.179, 3.950947
1249.661, 4.772298
1250.144, 4.866544
1250.626, 5.025464
1251.108, 5.293056
1251.590, 5.625468
1252.072, 6.196853
1252.554, 6.434592
1253.036, 6.224360
1253.518, 5.643396
1254.001, 4.613984
1254.483, 3.520036
1254.965, 2.667754
1255.447, 2.378816
1255.929, 4.551056
1256.411, 3.208920
1256.893, 7.703324
1257.375, 3.246061
1257.858, 1.425938
1258.340, 3.016406
1258.822, 4.692601
1259.304, 4.954146
1259.786, 4.668983
1260.268, 4.371192
1260.750, 4.195104
1261.232, 4.616241
1261.714, 4.906832
1262.197, 4.022248
1262.679, 2.691103
1263.161, 1.418069
1263.643, 0.7653213
1264.125, 2.474489
1264.607, 7.369124
1265.089, 10.22311
1265.571, 7.878577
1266.053, 6.897807
1266.536, 10.21126
1267.018, 12.03052
1267.500, 9.044907
1267.982, 5.465959
1268.464, 5.306811
1268.946, 7.109694
1269.428, 7.260175
1269.910, 5.847984
1270.393, 5.059927
1270.875, 4.877109
1271.357, 4.948014
1271.839, 5.154123
1272.321, 4.503558
1272.803, 2.775146
1273.285, 1.609186
1273.767, 2.200478
1274.250, 3.789080
1274.732, 6.505367
1275.214, 8.764196
1275.696, 8.177295
1276.178, 6.286611
1276.660, 4.977906
1277.142, 4.214376
1277.624, 3.331397
1278.106, 2.286887
1278.589, 1.773607
1279.071, 2.385559
1279.553, 2.543883
1280.035, 0.5015270
1280.517, 0.1774358
1280.999, 4.516562
1281.481, 7.911973
##END=



