##NAMES=Chalcopyrite
##RRUFFID=R050018
##IDEAL CHEMISTRY=Cu^1+^Fe^3+^S^2-^_2_
##LOCALITY=Sudbury, Ontario, Canada
##OWNER=RRUFF
##SOURCE=Eugene Schlepp
##DESCRIPTION=Massive fragment
##STATUS=The identification of this mineral has been confirmed by X-ray diffraction and chemical analysis
##URL=rruff.info/R050018
##MEASURED CHEMISTRY=Cu_1.00_Fe_1.00_S_2.00_
136.1626, 239.7174
136.6447, 247.7066
137.1268, 255.7757
137.6089, 264.0692
138.0910, 271.7146
138.5731, 278.2711
139.0553, 283.9658
139.5374, 287.9310
140.0195, 290.1002
140.5016, 290.4870
140.9837, 288.7567
141.4658, 283.8046
141.9480, 278.4467
142.4301, 274.5121
142.9122, 272.0610
143.3943, 271.0185
143.8764, 272.2162
144.3585, 275.5564
144.8407, 276.3338
145.3228, 272.2124
145.8049, 267.2988
146.2870, 265.5719
146.7691, 269.9691
147.2512, 273.7047
147.7334, 274.9231
148.2155, 272.5074
148.6976, 272.6724
149.1797, 276.2471
149.6618, 282.1866
150.1439, 289.0508
150.6261, 299.4069
151.1082, 308.3038
151.5903, 314.1970
152.0724, 315.7879
152.5545, 317.1962
153.0366, 318.3725
153.5188, 319.5569
154.0009, 321.2132
154.4830, 325.5933
154.9651, 328.8524
155.4472, 329.0693
155.9293, 322.8621
156.4115, 318.2599
156.8936, 317.7678
157.3757, 320.3463
157.8578, 322.3607
158.3399, 322.3262
158.8221, 321.6435
159.3042, 321.2236
159.7863, 321.1019
160.2684, 321.4514
160.7505, 322.2728
161.2326, 323.5873
161.7148, 325.5142
162.1969, 327.3705
162.6790, 330.1609
163.1611, 334.8153
163.6432, 345.9359
164.1253, 355.6274
164.6075, 359.1826
165.0896, 356.4140
165.5717, 351.9018
166.0538, 344.8026
166.5359, 338.1646
167.0180, 336.2746
167.5002, 346.4519
167.9823, 358.5496
168.4644, 364.0687
168.9465, 361.5626
169.4286, 358.2242
169.9107, 359.5387
170.3929, 363.9050
170.8750, 367.9879
171.3571, 371.4619
171.8392, 373.1543
172.3213, 371.1867
172.8034, 364.5738
173.2856, 356.8448
173.7677, 350.9581
174.2498, 346.6007
174.7319, 342.7971
175.2140, 339.5398
175.6961, 336.3234
176.1783, 331.8329
176.6604, 324.6147
177.1425, 318.3399
177.6246, 319.3798
178.1067, 326.6238
178.5888, 332.9286
179.0710, 331.5495
179.5531, 325.3711
180.0352, 320.8162
180.5173, 320.0166
180.9994, 320.9811
181.4815, 320.2906
181.9637, 318.0000
182.4458, 316.0219
182.9279, 316.2180
183.4100, 318.1487
183.8921, 320.0849
184.3742, 321.0655
184.8564, 321.9439
185.3385, 325.6159
185.8206, 332.4057
186.3027, 338.4313
186.7848, 339.9994
187.2669, 337.3236
187.7491, 331.9868
188.2312, 321.3158
188.7133, 308.2948
189.1954, 305.6689
189.6775, 315.1042
190.1596, 327.5952
190.6418, 331.8209
191.1239, 327.9455
191.6060, 323.9127
192.0881, 323.5463
192.5702, 326.2563
193.0524, 326.3945
193.5345, 323.2847
194.0166, 319.3642
194.4987, 319.3903
194.9808, 323.7398
195.4629, 326.3440
195.9451, 322.0294
196.4272, 310.9843
196.9093, 307.4821
197.3914, 313.8780
197.8735, 324.8175
198.3556, 330.2372
198.8378, 329.5356
199.3199, 327.1089
199.8020, 325.5281
200.2841, 325.0089
200.7662, 321.6721
201.2483, 313.6974
201.7305, 304.2444
202.2126, 301.9103
202.6947, 308.2199
203.1768, 315.9579
203.6589, 321.8168
204.1410, 326.1121
204.6232, 325.2339
205.1053, 316.6692
205.5874, 303.6755
206.0695, 297.9429
206.5516, 301.7368
207.0337, 306.8436
207.5159, 307.3827
207.9980, 302.2733
208.4801, 297.4619
208.9622, 292.8398
209.4443, 289.0827
209.9264, 290.4458
210.4086, 299.2579
210.8907, 308.5375
211.3728, 312.4423
211.8549, 309.3779
212.3370, 306.4823
212.8191, 304.7845
213.3013, 304.1537
213.7834, 303.4203
214.2655, 302.6640
214.7476, 301.6718
215.2297, 299.8224
215.7118, 295.9507
216.1940, 294.5438
216.6761, 297.1109
217.1582, 303.4291
217.6403, 308.5855
218.1224, 313.0014
218.6045, 315.6249
219.0867, 314.7790
219.5688, 308.3291
220.0509, 303.4803
220.5330, 301.9693
221.0151, 303.8323
221.4972, 306.4422
221.9794, 310.7470
222.4615, 314.7678
222.9436, 316.0044
223.4257, 312.3793
223.9078, 310.3698
224.3899, 312.4066
224.8721, 319.1179
225.3542, 321.5799
225.8363, 317.3130
226.3184, 311.1703
226.8005, 309.1352
227.2827, 313.5560
227.7648, 317.6009
228.2469, 319.0806
228.7290, 317.3404
229.2111, 318.3886
229.6932, 324.3384
230.1754, 331.3520
230.6575, 334.2568
231.1396, 331.0408
231.6217, 327.1707
232.1038, 323.7171
232.5859, 320.3835
233.0681, 319.0760
233.5502, 319.9748
234.0323, 322.7545
234.5144, 327.5006
234.9965, 336.6280
235.4786, 343.5258
235.9608, 345.5239
236.4429, 341.1094
236.9250, 338.7940
237.4071, 339.3211
237.8892, 341.5109
238.3713, 343.4729
238.8535, 344.7267
239.3356, 346.5927
239.8177, 349.9975
240.2998, 356.0929
240.7819, 359.1168
241.2640, 357.6939
241.7462, 354.0494
242.2283, 351.8232
242.7104, 350.7744
243.1925, 351.5618
243.6746, 354.7361
244.1567, 361.1858
244.6389, 367.1428
245.1210, 372.8427
245.6031, 377.9049
246.0852, 381.4217
246.5673, 382.4189
247.0494, 383.5316
247.5316, 385.7605
248.0137, 389.5197
248.4958, 393.0485
248.9779, 396.4432
249.4600, 399.5335
249.9421, 401.5719
250.4243, 401.0347
250.9064, 402.2037
251.3885, 407.1445
251.8706, 417.5206
252.3527, 426.2718
252.8348, 433.3334
253.3170, 438.8076
253.7991, 442.7373
254.2812, 444.7832
254.7633, 445.8364
255.2454, 445.6483
255.7275, 443.0748
256.2097, 443.8719
256.6918, 449.8039
257.1739, 457.8843
257.6560, 462.1111
258.1381, 460.0692
258.6202, 459.1981
259.1024, 463.1289
259.5845, 473.8152
260.0666, 480.7232
260.5487, 482.2047
261.0308, 481.1427
261.5129, 483.1439
261.9951, 489.4262
262.4772, 495.8459
262.9593, 501.2568
263.4414, 506.2053
263.9235, 506.9928
264.4056, 501.0829
264.8878, 493.3905
265.3699, 493.8923
265.8520, 506.4359
266.3341, 516.1539
266.8162, 515.4605
267.2983, 501.6956
267.7805, 495.2586
268.2626, 498.5884
268.7447, 506.6201
269.2268, 510.4630
269.7089, 508.9739
270.1910, 507.3620
270.6732, 506.9902
271.1553, 507.6542
271.6374, 512.2061
272.1195, 521.6577
272.6016, 533.5317
273.0837, 543.3118
273.5659, 550.5193
274.0480, 558.2414
274.5301, 566.7733
275.0122, 575.9454
275.4943, 591.7966
275.9764, 616.8677
276.4586, 643.8374
276.9407, 659.2530
277.4228, 661.0212
277.9049, 667.6575
278.3870, 688.1188
278.8691, 721.7132
279.3513, 752.0529
279.8334, 778.1342
280.3155, 803.5419
280.7976, 832.6893
281.2798, 865.3379
281.7619, 901.2967
282.2440, 939.9644
282.7261, 981.6349
283.2082, 1029.163
283.6903, 1083.168
284.1725, 1140.754
284.6546, 1199.974
285.1367, 1260.210
285.6188, 1318.605
286.1009, 1374.293
286.5830, 1427.272
287.0652, 1476.507
287.5473, 1520.894
288.0294, 1565.423
288.5115, 1621.457
288.9936, 1686.358
289.4757, 1736.984
289.9579, 1769.945
290.4400, 1782.412
290.9221, 1767.276
291.4042, 1724.342
291.8863, 1656.180
292.3684, 1558.247
292.8506, 1434.922
293.3327, 1302.807
293.8148, 1155.402
294.2969, 1008.312
294.7790, 889.5959
295.2611, 798.8967
295.7433, 725.7601
296.2254, 662.7987
296.7075, 609.1179
297.1896, 564.4683
297.6717, 528.9500
298.1538, 500.9085
298.6360, 479.4113
299.1181, 464.0633
299.6002, 452.5037
300.0823, 444.4099
300.5644, 438.5113
301.0465, 432.3677
301.5287, 425.4082
302.0108, 417.8683
302.4929, 408.4611
302.9750, 397.8907
303.4571, 390.7215
303.9392, 393.2551
304.4214, 400.0064
304.9035, 403.2160
305.3856, 398.9568
305.8677, 393.9490
306.3498, 394.1096
306.8319, 398.5057
307.3141, 403.8936
307.7962, 410.4893
308.2783, 416.1009
308.7604, 417.6931
309.2425, 411.9529
309.7246, 408.0056
310.2068, 413.6131
310.6889, 425.8248
311.1710, 437.0082
311.6531, 441.4364
312.1352, 444.6879
312.6173, 451.5016
313.0995, 464.2916
313.5816, 475.5586
314.0637, 478.6003
314.5458, 477.9074
315.0279, 481.9464
315.5100, 501.5944
315.9922, 521.0761
316.4743, 530.5348
316.9564, 525.9775
317.4385, 523.2751
317.9206, 532.9103
318.4027, 546.3438
318.8849, 551.6420
319.3670, 538.4806
319.8491, 522.9054
320.3312, 509.9028
320.8133, 499.6767
321.2954, 493.0052
321.7776, 491.8154
322.2597, 493.4927
322.7418, 495.2505
323.2239, 498.8642
323.7060, 500.3522
324.1881, 498.5551
324.6703, 493.2862
325.1524, 486.6634
325.6345, 476.4176
326.1166, 466.2191
326.5987, 458.9473
327.0808, 457.3838
327.5630, 455.5319
328.0451, 453.7857
328.5272, 451.9626
329.0093, 445.7073
329.4914, 430.6678
329.9735, 415.3005
330.4557, 405.3289
330.9378, 404.1371
331.4199, 402.3163
331.9020, 397.8506
332.3841, 391.9640
332.8662, 391.3083
333.3484, 399.5262
333.8305, 407.4600
334.3126, 409.5352
334.7947, 403.1102
335.2768, 399.0188
335.7589, 398.4393
336.2411, 400.1367
336.7232, 401.0452
337.2053, 400.9835
337.6874, 400.6403
338.1695, 399.9178
338.6516, 398.5697
339.1338, 399.4421
339.6159, 403.3916
340.0980, 408.2777
340.5801, 409.2603
341.0622, 405.6420
341.5443, 404.8075
342.0265, 410.9116
342.5086, 423.1083
342.9907, 434.4308
343.4728, 444.9453
343.9549, 453.9443
344.4370, 459.1239
344.9192, 460.9768
345.4013, 464.6499
345.8834, 473.3546
346.3655, 484.7304
346.8476, 490.8156
347.3297, 491.3555
347.8119, 493.1556
348.2940, 505.0174
348.7761, 523.6153
349.2582, 538.6505
349.7403, 546.6188
350.2225, 550.6815
350.7046, 555.0940
351.1867, 559.7545
351.6688, 563.5667
352.1509, 566.1602
352.6331, 567.3094
353.1152, 566.4616
353.5973, 562.8452
354.0794, 558.4299
354.5615, 555.3685
355.0436, 553.0397
355.5258, 549.5537
356.0079, 544.7551
356.4900, 537.8550
356.9721, 527.9543
357.4542, 514.5303
357.9363, 499.4094
358.4185, 482.2941
358.9006, 464.3125
359.3827, 447.4163
359.8648, 432.1251
360.3469, 418.3068
360.8290, 405.1307
361.3112, 392.0008
361.7933, 383.2555
362.2754, 384.3091
362.7575, 388.8476
363.2396, 390.0133
363.7217, 381.2401
364.2039, 373.9513
364.6860, 371.4611
365.1681, 373.8846
365.6502, 377.0005
366.1323, 383.7436
366.6144, 388.9935
367.0966, 389.1295
367.5787, 373.7567
368.0608, 366.0307
368.5429, 372.1794
369.0250, 388.6598
369.5071, 397.0114
369.9893, 392.5242
370.4714, 385.4081
370.9535, 380.6410
371.4356, 380.2316
371.9177, 377.5495
372.3998, 371.4482
372.8820, 363.5497
373.3641, 357.7685
373.8462, 355.0901
374.3283, 352.0219
374.8104, 347.4170
375.2925, 341.2331
375.7747, 333.0432
376.2568, 321.9612
376.7389, 310.4907
377.2210, 301.8362
377.7031, 296.0364
378.1852, 292.7367
378.6674, 293.2856
379.1495, 296.1638
379.6316, 293.6863
380.1137, 285.2794
380.5958, 276.9029
381.0779, 274.9092
381.5601, 278.1069
382.0422, 280.8047
382.5243, 281.9085
383.0064, 281.7167
383.4885, 280.2299
383.9706, 277.6156
384.4528, 275.2130
384.9349, 272.7621
385.4170, 271.3977
385.8991, 273.9688
386.3812, 282.4160
386.8633, 289.9321
387.3455, 289.0277
387.8276, 282.2990
388.3097, 275.6406
388.7918, 270.6788
389.2739, 267.9047
389.7560, 268.3965
390.2382, 272.4865
390.7203, 276.7898
391.2024, 281.3411
391.6845, 284.4696
392.1666, 284.2791
392.6487, 274.5310
393.1309, 266.5684
393.6130, 266.3829
394.0951, 273.2747
394.5772, 278.5968
395.0593, 278.7708
395.5414, 277.5605
396.0236, 277.3165
396.5057, 280.9305
396.9878, 282.4724
397.4699, 280.3375
397.9520, 275.5806
398.4341, 271.4804
398.9163, 266.5768
399.3984, 263.8603
399.8805, 264.7099
400.3626, 270.3891
400.8447, 276.1924
401.3268, 283.8609
401.8090, 290.3539
402.2911, 290.3268
402.7732, 280.0991
403.2553, 273.2091
403.7374, 275.0058
404.2195, 284.7144
404.7017, 287.0433
405.1838, 279.6502
405.6659, 271.1925
406.1480, 270.6097
406.6301, 278.0396
407.1122, 283.3057
407.5944, 284.2374
408.0765, 282.3146
408.5586, 280.5888
409.0407, 279.0566
409.5228, 278.0615
410.0049, 278.6046
410.4871, 279.8867
410.9692, 278.7771
411.4513, 274.0905
411.9334, 270.5442
412.4155, 275.8358
412.8976, 287.0421
413.3798, 295.5252
413.8619, 295.2992
414.3440, 291.7157
414.8261, 290.1350
415.3082, 290.6896
415.7903, 291.7981
416.2725, 293.1620
416.7546, 294.2311
417.2367, 294.3544
417.7188, 291.9569
418.2009, 290.0773
418.6830, 291.2027
419.1652, 294.3006
419.6473, 295.5379
420.1294, 290.2740
420.6115, 285.2981
421.0937, 284.7163
421.5758, 291.9443
422.0579, 297.3828
422.5400, 298.7931
423.0221, 297.8966
423.5042, 297.5401
423.9864, 298.6576
424.4685, 299.3501
424.9506, 298.4164
425.4327, 295.4815
425.9148, 296.6131
426.3969, 306.0507
426.8791, 314.7281
427.3612, 313.1415
427.8433, 296.1696
428.3254, 285.4787
428.8075, 286.0947
429.2896, 294.2854
429.7718, 296.9500
430.2539, 293.1541
430.7360, 288.8875
431.2181, 287.5111
431.7002, 288.8972
432.1823, 291.6112
432.6645, 296.0011
433.1466, 300.3333
433.6287, 301.8188
434.1108, 300.9409
434.5929, 300.0889
435.0750, 300.5951
435.5572, 301.5907
436.0393, 301.1119
436.5214, 299.2536
437.0035, 298.0239
437.4856, 298.8489
437.9677, 301.3249
438.4499, 305.4700
438.9320, 313.7008
439.4141, 319.4851
439.8962, 315.8485
440.3783, 305.9164
440.8604, 297.6381
441.3426, 294.1821
441.8247, 293.7344
442.3068, 295.6035
442.7889, 299.9595
443.2710, 305.4279
443.7531, 314.3898
444.2353, 323.1917
444.7174, 327.9464
445.1995, 323.8912
445.6816, 320.2769
446.1637, 318.5300
446.6458, 318.5593
447.1280, 319.4006
447.6101, 321.9626
448.0922, 324.3397
448.5743, 325.3649
449.0564, 324.3799
449.5385, 323.8109
450.0207, 323.7760
450.5028, 324.1328
450.9849, 324.1412
451.4670, 323.3026
451.9491, 324.7369
452.4312, 330.9862
452.9134, 341.0608
453.3955, 347.3346
453.8776, 349.5815
454.3597, 349.5832
454.8418, 347.6591
455.3239, 344.5640
455.8061, 343.9351
456.2882, 347.9297
456.7703, 352.6439
457.2524, 350.7388
457.7345, 344.0422
458.2166, 340.0042
458.6988, 343.8169
459.1809, 352.2754
459.6630, 363.5310
460.1451, 378.3236
460.6272, 389.6677
461.1093, 389.8732
461.5915, 385.0357
462.0736, 382.7130
462.5557, 389.7132
463.0378, 395.4327
463.5199, 393.9161
464.0020, 386.4353
464.4842, 382.7710
464.9663, 388.3291
465.4484, 395.7613
465.9305, 401.1372
466.4126, 402.2531
466.8947, 405.1125
467.3769, 411.3990
467.8590, 418.6771
468.3411, 423.0076
468.8232, 423.5633
469.3053, 422.6146
469.7874, 420.0119
470.2696, 415.9661
470.7517, 414.9692
471.2338, 417.9842
471.7159, 421.0881
472.1980, 420.3017
472.6801, 415.7324
473.1623, 412.5509
473.6444, 411.8552
474.1265, 412.0855
474.6086, 411.3827
475.0907, 409.5593
475.5728, 405.4049
476.0550, 396.2939
476.5371, 385.0982
477.0192, 377.0892
477.5013, 372.4460
477.9834, 367.6357
478.4655, 358.9859
478.9477, 348.7939
479.4298, 340.2135
479.9119, 334.9551
480.3940, 330.3980
480.8761, 324.8301
481.3582, 318.8601
481.8404, 314.3199
482.3225, 312.8191
482.8046, 312.0538
483.2867, 311.3113
483.7688, 311.0533
484.2509, 308.9918
484.7331, 302.9084
485.2152, 295.9900
485.6973, 290.9203
486.1794, 287.0560
486.6615, 286.4676
487.1436, 291.4921
487.6258, 300.1126
488.1079, 301.9988
488.5900, 294.9870
489.0721, 287.1663
489.5542, 282.7919
490.0363, 281.8550
490.5185, 282.3201
491.0006, 284.4810
491.4827, 286.8811
491.9648, 287.2592
492.4470, 286.0121
492.9291, 285.5311
493.4112, 288.3583
493.8933, 290.8985
494.3754, 284.9381
494.8575, 272.0559
495.3397, 262.5391
495.8218, 267.4634
496.3039, 277.1140
496.7860, 280.2485
497.2681, 273.6864
497.7502, 266.8320
498.2324, 264.1268
498.7145, 264.2755
499.1966, 265.4680
499.6787, 269.3955
500.1608, 272.0597
500.6429, 271.2771
501.1251, 267.3404
501.6072, 265.1976
502.0893, 266.6276
502.5714, 268.6212
503.0535, 269.6996
503.5356, 269.0274
504.0178, 269.6486
504.4999, 272.7154
504.9820, 276.0117
505.4641, 275.4578
505.9462, 269.9860
506.4283, 266.2353
506.9105, 266.2900
507.3926, 269.5007
507.8747, 274.8437
508.3568, 282.6098
508.8389, 287.2293
509.3210, 280.5166
509.8032, 267.5262
510.2853, 263.7454
510.7674, 272.9988
511.2495, 283.3460
511.7316, 280.3434
512.2137, 269.4825
512.6959, 261.9887
513.1780, 266.5203
513.6601, 272.6073
514.1422, 272.7755
514.6243, 267.8747
515.1064, 264.2078
515.5886, 264.7671
516.0707, 266.9563
516.5528, 269.3102
517.0349, 271.9303
517.5170, 274.1500
517.9991, 276.3954
518.4813, 277.9995
518.9634, 278.0042
519.4455, 275.6519
519.9276, 272.9810
520.4097, 270.2882
520.8918, 267.6174
521.3740, 264.5092
521.8561, 260.3268
522.3382, 257.8178
522.8203, 259.9139
523.3024, 266.2193
523.7845, 269.7729
524.2667, 269.6865
524.7488, 268.8436
525.2309, 272.0908
525.7130, 277.8633
526.1951, 280.5322
526.6772, 276.2897
527.1594, 269.8033
527.6415, 266.3835
528.1236, 265.5363
528.6057, 265.0246
529.0878, 263.5117
529.5699, 261.9053
530.0521, 260.6937
530.5342, 259.7316
531.0163, 260.0661
531.4984, 262.8054
531.9805, 266.6813
532.4626, 270.3522
532.9448, 273.9269
533.4269, 276.9709
533.9090, 279.9965
534.3911, 282.5181
534.8732, 282.4294
535.3553, 278.9344
535.8375, 274.2164
536.3196, 268.1400
536.8017, 260.3137
537.2838, 258.8467
537.7659, 265.3394
538.2480, 272.8709
538.7302, 272.8770
539.2123, 266.5809
539.6944, 262.7918
540.1765, 264.4581
540.6586, 267.5410
541.1407, 265.1054
541.6229, 258.8767
542.1050, 255.0107
542.5871, 259.7634
543.0692, 266.4235
543.5513, 268.6055
544.0334, 265.9842
544.5156, 263.2132
544.9977, 261.1957
545.4798, 260.6566
545.9619, 262.4218
546.4440, 270.1991
546.9261, 274.9882
547.4083, 272.8791
547.8904, 267.5369
548.3725, 265.7644
548.8546, 270.4302
549.3367, 273.8319
549.8188, 273.2639
550.3010, 269.2941
550.7831, 269.3679
551.2652, 274.8912
551.7473, 279.7727
552.2294, 278.4038
552.7115, 271.6057
553.1937, 267.8721
553.6758, 268.2209
554.1579, 270.2012
554.6400, 271.5670
555.1221, 272.1844
555.6042, 271.5588
556.0864, 268.1331
556.5685, 264.7853
557.0506, 265.1641
557.5327, 268.2363
558.0148, 270.1534
558.4969, 267.4793
558.9791, 264.2445
559.4612, 262.8455
559.9433, 263.7103
560.4254, 265.4917
560.9075, 268.9480
561.3896, 272.6565
561.8718, 275.3724
562.3539, 276.2103
562.8360, 277.7639
563.3181, 281.4674
563.8002, 285.3959
564.2823, 283.6769
564.7645, 274.5167
565.2466, 268.0308
565.7287, 270.3501
566.2108, 278.8043
566.6929, 278.7946
567.1750, 269.9640
567.6572, 260.7606
568.1393, 257.8503
568.6214, 259.8193
569.1035, 264.9587
569.5856, 274.0783
570.0677, 282.0410
570.5499, 283.6697
571.0320, 281.5911
571.5141, 279.9892
571.9962, 280.7248
572.4783, 281.8988
572.9604, 283.8352
573.4426, 285.9559
573.9247, 285.4135
574.4068, 279.2592
574.8889, 272.5730
575.3710, 266.7227
575.8531, 261.2328
576.3353, 259.6203
576.8174, 263.1957
577.2995, 268.7292
577.7816, 273.2091
578.2637, 276.4604
578.7458, 280.7144
579.2280, 287.0691
579.7101, 293.1404
580.1922, 293.6579
580.6743, 289.5453
581.1564, 286.0188
581.6385, 286.5748
582.1207, 288.5004
582.6028, 287.9955
583.0849, 285.3619
583.5670, 282.9360
584.0491, 282.3832
584.5313, 282.4070
585.0134, 275.7097
585.4955, 283.7855
585.9776, 288.3349
586.4597, 289.5474
586.9418, 277.4288
587.4240, 282.5246
587.9061, 280.7217
588.3882, 278.6359
588.8703, 286.1545
589.3524, 275.9749
589.8345, 283.3413
590.3167, 283.7036
590.7988, 287.2715
591.2809, 283.8980
591.7630, 282.6685
592.2451, 288.3826
592.7272, 290.2520
593.2094, 286.0795
593.6915, 289.8512
594.1736, 279.4291
594.6557, 288.4743
595.1378, 292.6736
595.6199, 294.4359
596.1021, 291.4188
596.5842, 286.1344
597.0663, 282.1500
597.5485, 280.6092
598.0306, 280.6646
598.5127, 283.6469
598.9948, 288.4458
599.4769, 290.2536
599.9590, 285.7278
600.4412, 281.9597
600.9233, 281.7429
601.4054, 285.4246
601.8875, 286.8523
602.3696, 285.2457
602.8517, 283.2723
603.3339, 283.7406
603.8160, 286.3669
604.2981, 286.9698
604.7802, 284.6247
605.2623, 281.7924
605.7444, 282.0253
606.2266, 284.3642
606.7087, 286.2233
607.1908, 286.4702
607.6729, 286.0922
608.1550, 286.0712
608.6371, 286.1177
609.1193, 285.2896
609.6014, 280.8533
610.0835, 277.4850
610.5656, 278.5205
611.0477, 285.1147
611.5298, 288.2691
612.0120, 285.4660
612.4941, 281.3781
612.9762, 278.9659
613.4583, 278.4732
613.9404, 278.9692
614.4225, 280.8308
614.9047, 282.9517
615.3868, 283.7784
615.8689, 283.3751
616.3510, 282.3531
616.8331, 280.3345
617.3152, 278.5199
617.7974, 279.7651
618.2795, 283.1146
618.7616, 284.9307
619.2437, 280.5920
619.7258, 275.9050
620.2079, 275.7034
620.6901, 280.2122
621.1722, 284.6237
621.6543, 289.2486
622.1364, 291.8531
622.6185, 290.1491
623.1006, 279.0761
623.5828, 275.2819
624.0649, 283.5551
624.5470, 294.7144
625.0291, 296.6855
625.5112, 287.2002
625.9933, 280.8132
626.4755, 280.7083
626.9576, 284.4020
627.4397, 288.4670
627.9218, 292.4676
628.4039, 293.0803
628.8860, 284.6439
629.3682, 273.9685
629.8503, 270.8481
630.3324, 274.5523
630.8145, 279.5061
631.2966, 284.6401
631.7787, 288.2964
632.2609, 288.2870
632.7430, 282.5807
633.2251, 280.2237
633.7072, 287.6239
634.1893, 296.2178
634.6714, 298.5915
635.1536, 290.7150
635.6357, 285.7049
636.1178, 285.6109
636.5999, 287.6854
637.0820, 285.8842
637.5641, 279.9350
638.0463, 277.5091
638.5284, 282.9985
639.0105, 291.8509
639.4926, 294.6533
639.9747, 292.2624
640.4568, 289.6093
640.9390, 289.3804
641.4211, 290.4556
641.9032, 292.3145
642.3853, 294.9041
642.8674, 296.4940
643.3495, 296.7446
643.8317, 295.5089
644.3138, 292.2458
644.7959, 283.1368
645.2780, 279.7593
645.7601, 286.0422
646.2422, 294.6068
646.7244, 296.0283
647.2065, 288.5172
647.6886, 283.2310
648.1707, 282.6890
648.6528, 284.5750
649.1349, 284.1352
649.6171, 281.7157
650.0992, 279.7477
650.5813, 278.0043
651.0634, 278.1767
651.5455, 283.4197
652.0276, 292.9710
652.5098, 302.4919
652.9919, 314.1354
653.4740, 321.5831
653.9561, 318.3336
654.4382, 300.9616
654.9203, 290.3920
655.4025, 295.2267
655.8846, 302.6905
656.3667, 303.8852
656.8488, 295.5344
657.3309, 291.1463
657.8130, 292.3382
658.2952, 295.4364
658.7773, 295.2693
659.2594, 292.0721
659.7415, 288.2834
660.2236, 283.4110
660.7057, 280.1277
661.1879, 284.6575
661.6700, 294.1996
662.1521, 300.8833
662.6342, 297.4802
663.1163, 292.9498
663.5984, 293.1953
664.0806, 297.7451
664.5627, 301.5792
665.0448, 304.3417
665.5269, 305.2297
666.0090, 303.8778
666.4911, 300.1722
666.9733, 294.4248
667.4554, 284.4941
667.9375, 276.7694
668.4196, 278.3859
668.9017, 288.9485
669.3839, 295.6121
669.8660, 297.0143
670.3481, 295.4313
670.8302, 292.1034
671.3123, 287.8783
671.7944, 284.5903
672.2766, 283.0234
672.7587, 282.2432
673.2408, 281.1654
673.7229, 280.4816
674.2050, 281.5166
674.6871, 288.3610
675.1693, 292.9057
675.6514, 291.0450
676.1335, 284.5301
676.6156, 282.6908
677.0977, 287.0625
677.5798, 292.6663
678.0620, 297.9161
678.5441, 302.6959
679.0262, 305.3198
679.5083, 305.7579
679.9904, 304.8638
680.4725, 303.0974
680.9547, 300.5491
681.4368, 296.9636
681.9189, 292.1721
682.4010, 287.9890
682.8831, 286.1703
683.3652, 285.3576
683.8474, 284.0872
684.3295, 280.1089
684.8116, 278.7325
685.2937, 282.4007
685.7758, 288.3391
686.2579, 293.3470
686.7401, 298.0904
687.2222, 299.6888
687.7043, 296.3368
688.1864, 290.7381
688.6685, 290.5778
689.1506, 295.4088
689.6328, 297.8976
690.1149, 291.1622
690.5970, 282.5319
691.0791, 285.2318
691.5612, 296.9821
692.0433, 306.0747
692.5255, 303.2952
693.0076, 298.3605
693.4897, 297.8770
693.9718, 302.8540
694.4539, 305.9167
694.9360, 303.4403
695.4182, 301.2509
695.9003, 303.3790
696.3824, 312.2381
696.8645, 314.0283
697.3466, 306.6893
697.8287, 297.6877
698.3109, 295.8250
698.7930, 299.7001
699.2751, 301.4949
699.7572, 299.2436
700.2393, 296.8834
700.7214, 300.6504
701.2036, 306.6847
701.6857, 308.4508
702.1678, 297.9507
702.6499, 289.4122
703.1320, 290.1746
703.6141, 296.7591
704.0963, 300.3046
704.5784, 297.5767
705.0605, 296.0359
705.5426, 297.6966
706.0247, 301.7334
706.5068, 304.1965
706.9890, 304.8591
707.4711, 305.9730
707.9532, 309.8709
708.4353, 314.8107
708.9174, 316.0136
709.3995, 313.7069
709.8817, 309.9529
710.3638, 303.6760
710.8459, 298.2197
711.3280, 297.6069
711.8101, 302.9472
712.2922, 306.4890
712.7744, 303.5865
713.2565, 299.9929
713.7386, 300.0539
714.2207, 307.2068
714.7028, 308.4497
715.1849, 301.4107
715.6671, 292.5993
716.1492, 289.1209
716.6313, 290.6729
717.1134, 293.7253
717.5955, 298.1744
718.0776, 302.2961
718.5598, 303.5039
719.0419, 302.8600
719.5240, 302.4223
720.0061, 303.1804
720.4882, 303.9950
720.9703, 304.4834
721.4525, 304.6415
721.9346, 304.4644
722.4167, 303.8416
722.8988, 303.0255
723.3809, 302.0909
723.8630, 300.9936
724.3452, 299.2663
724.8273, 296.7036
725.3094, 295.0393
725.7915, 295.7059
726.2736, 297.6499
726.7557, 298.3181
727.2379, 297.7606
727.7200, 296.3736
728.2021, 294.5718
728.6842, 291.9497
729.1663, 286.9763
729.6484, 279.4243
730.1306, 275.1714
730.6127, 278.5687
731.0948, 283.5783
731.5769, 286.8840
732.0590, 288.0781
732.5411, 289.3620
733.0233, 290.7545
733.5054, 292.1953
733.9875, 294.4882
734.4696, 297.1707
734.9517, 295.7508
735.4338, 288.9580
735.9160, 282.7271
736.3981, 286.0189
736.8802, 292.8444
737.3623, 293.4682
737.8444, 279.7153
738.3266, 270.3328
738.8087, 277.3908
739.2908, 291.3934
739.7729, 298.3095
740.2551, 293.9661
740.7372, 289.2256
741.2193, 285.0820
741.7014, 281.3872
742.1835, 276.8406
742.6656, 271.4250
743.1478, 270.3933
743.6299, 277.7216
744.1120, 287.4410
744.5941, 290.0437
745.0762, 287.0446
745.5583, 283.2275
746.0405, 279.3486
746.5226, 276.8134
747.0047, 277.8097
747.4868, 281.4158
747.9689, 282.1988
748.4510, 275.7908
748.9332, 271.4000
749.4153, 273.0982
749.8974, 280.0470
750.3795, 281.7009
750.8616, 277.4016
751.3438, 272.9243
751.8259, 272.2614
752.3080, 274.0320
752.7901, 274.8127
753.2722, 274.5977
753.7543, 274.8970
754.2365, 278.3359
754.7186, 281.5914
755.2007, 281.4196
755.6828, 276.6872
756.1649, 273.2486
756.6470, 272.8516
757.1292, 273.3034
757.6113, 273.1238
758.0934, 271.7496
758.5755, 272.6175
759.0576, 276.2708
759.5397, 280.3828
760.0219, 281.9882
760.5040, 282.0487
760.9861, 283.8736
761.4682, 288.2889
761.9503, 292.6485
762.4324, 295.7423
762.9146, 297.2353
763.3967, 296.6223
763.8788, 291.9835
764.3609, 288.1793
764.8430, 287.5574
765.3251, 287.2917
765.8073, 283.0349
766.2894, 272.1870
766.7715, 268.4597
767.2536, 275.8176
767.7357, 287.2082
768.2178, 291.3866
768.7000, 289.3466
769.1821, 284.6948
769.6642, 275.9721
770.1463, 269.3151
770.6284, 272.8053
771.1105, 281.8088
771.5927, 287.3671
772.0748, 283.3170
772.5569, 279.4476
773.0390, 278.0455
773.5211, 278.4211
774.0032, 279.1387
774.4854, 280.5150
774.9675, 280.9112
775.4496, 279.2819
775.9317, 276.8452
776.4138, 277.0905
776.8959, 279.5345
777.3781, 281.5639
777.8602, 282.0007
778.3423, 281.2841
778.8244, 278.7375
779.3065, 275.0784
779.7886, 273.2551
780.2708, 275.2960
780.7529, 278.2437
781.2350, 282.0468
781.7171, 286.2870
782.1992, 286.5649
782.6813, 282.0466
783.1635, 276.8122
783.6456, 271.3491
784.1277, 267.0184
784.6098, 270.2842
785.0919, 280.2548
785.5740, 288.2096
786.0562, 285.6002
786.5383, 280.7678
787.0204, 282.3672
787.5025, 290.8133
787.9846, 293.9946
788.4667, 280.5080
788.9489, 269.4822
789.4310, 270.5843
789.9131, 284.8331
790.3952, 291.1056
790.8773, 288.1072
791.3594, 282.9369
791.8416, 280.4267
792.3237, 279.8804
792.8058, 279.5594
793.2879, 279.3728
793.7700, 279.4628
794.2521, 280.7986
794.7343, 281.8664
795.2164, 281.1173
795.6985, 277.7914
796.1806, 275.2363
796.6627, 272.7292
797.1448, 272.1762
797.6270, 275.9394
798.1091, 285.1248
798.5912, 288.8679
799.0733, 286.2971
799.5554, 282.7751
800.0375, 285.3315
800.5197, 290.1982
801.0018, 289.0544
801.4839, 280.0029
801.9660, 271.6483
802.4481, 268.2318
802.9302, 268.3978
803.4124, 271.6934
803.8945, 282.0939
804.3766, 286.0242
804.8587, 280.5418
805.3408, 272.4655
805.8229, 267.5445
806.3051, 265.7703
806.7872, 266.1423
807.2693, 268.8320
807.7514, 272.1302
808.2335, 275.6720
808.7156, 278.2119
809.1978, 276.7527
809.6799, 268.3502
810.1620, 263.8224
810.6441, 273.0425
811.1262, 285.2340
811.6083, 289.4017
812.0905, 280.4060
812.5726, 274.8899
813.0547, 273.8419
813.5368, 275.0981
814.0189, 276.8897
814.5010, 278.9821
814.9832, 279.6682
815.4653, 278.3315
815.9474, 277.2296
816.4295, 280.1158
816.9116, 283.7608
817.3937, 283.5764
817.8759, 274.2537
818.3580, 269.3918
818.8401, 276.9534
819.3222, 286.7881
819.8043, 288.9126
820.2864, 281.2810
820.7686, 274.7998
821.2507, 269.8749
821.7328, 268.0879
822.2149, 275.1451
822.6970, 286.7678
823.1791, 291.1445
823.6613, 283.2766
824.1434, 275.5798
824.6255, 278.7261
825.1076, 285.4571
825.5897, 287.6550
826.0718, 277.4900
826.5540, 272.1030
827.0361, 273.1722
827.5182, 277.0644
828.0003, 279.6417
828.4824, 280.9012
828.9645, 282.5645
829.4467, 285.0843
829.9288, 287.1533
830.4109, 287.0744
830.8930, 285.6284
831.3751, 284.1772
831.8572, 283.8425
832.3394, 281.7636
832.8215, 272.5259
833.3036, 263.5089
833.7857, 263.3936
834.2678, 277.0037
834.7499, 284.8659
835.2321, 284.2987
835.7142, 281.2201
836.1963, 284.5492
836.6784, 291.8732
837.1605, 293.2705
837.6426, 285.5571
838.1248, 277.6856
838.6069, 276.3131
839.0890, 278.7262
839.5711, 282.3436
840.0532, 290.1383
840.5353, 292.2605
841.0175, 285.1258
841.4996, 275.4659
841.9817, 269.3898
842.4638, 266.8321
842.9459, 269.7724
843.4280, 279.5173
843.9102, 288.9122
844.3923, 288.9110
844.8744, 283.6741
845.3565, 279.6872
845.8386, 278.2440
846.3207, 278.0181
846.8029, 278.5745
847.2850, 280.0940
847.7671, 283.1884
848.2492, 290.4185
848.7313, 291.4905
849.2134, 284.5332
849.6956, 276.1653
850.1777, 272.1982
850.6598, 272.2480
851.1419, 276.1259
851.6240, 284.3067
852.1061, 291.2493
852.5883, 292.4169
853.0704, 290.6509
853.5525, 288.2537
854.0346, 285.0302
854.5167, 283.0702
854.9988, 283.1639
855.4810, 283.6199
855.9631, 283.0256
856.4452, 281.3486
856.9273, 280.4458
857.4094, 280.2821
857.8915, 281.9018
858.3737, 287.9590
858.8558, 295.4448
859.3379, 301.5035
859.8200, 305.9525
860.3021, 305.5505
860.7842, 292.5968
861.2664, 280.0609
861.7485, 275.6832
862.2306, 280.3470
862.7127, 284.1175
863.1948, 287.0226
863.6769, 289.0430
864.1591, 289.4878
864.6412, 289.2152
865.1233, 291.0870
865.6054, 294.9128
866.0875, 296.9688
866.5696, 292.8160
867.0518, 288.0572
867.5339, 286.6001
868.0160, 288.8827
868.4981, 289.7624
868.9802, 288.4738
869.4623, 287.3754
869.9445, 287.7851
870.4266, 289.2817
870.9087, 289.6374
871.3908, 289.0070
871.8729, 288.9598
872.3550, 293.0897
872.8372, 296.0802
873.3193, 290.8637
873.8014, 279.4028
874.2835, 273.3393
874.7656, 279.8881
875.2477, 286.8703
875.7299, 291.7897
876.2120, 294.7547
876.6941, 296.2400
877.1762, 296.2480
877.6583, 294.9870
878.1404, 291.5005
878.6226, 287.8907
879.1047, 286.2206
879.5869, 286.6760
880.0690, 289.6786
880.5511, 300.6492
881.0332, 308.0670
881.5153, 305.7707
881.9974, 298.6655
882.4796, 297.2652
882.9617, 303.0692
883.4438, 305.8322
883.9259, 302.4221
884.4080, 296.3438
884.8901, 291.6288
885.3723, 288.7055
885.8544, 288.9053
886.3365, 295.5981
886.8186, 300.7234
887.3007, 297.9977
887.7828, 292.7223
888.2650, 292.7845
888.7471, 301.7679
889.2292, 306.4886
889.7113, 305.1791
890.1934, 300.9267
890.6755, 296.2614
891.1577, 291.9448
891.6398, 290.8477
892.1219, 294.1894
892.6040, 297.2494
893.0861, 295.0166
893.5682, 291.9452
894.0504, 292.9087
894.5325, 302.5888
895.0146, 305.0466
895.4967, 296.6767
895.9788, 287.7498
896.4609, 288.2726
896.9431, 296.4213
897.4252, 301.2644
897.9073, 302.2123
898.3894, 300.5445
898.8715, 293.8960
899.3536, 287.4554
899.8358, 285.9401
900.3179, 290.1490
900.8000, 295.0992
901.2821, 302.1373
901.7642, 306.8905
902.2463, 306.2522
902.7285, 301.3069
903.2106, 300.8679
903.6927, 304.7700
904.1748, 308.4809
904.6569, 309.5865
905.1390, 308.9075
905.6212, 306.1645
906.1033, 302.1135
906.5854, 299.7134
907.0675, 299.4503
907.5496, 301.8087
908.0317, 309.0848
908.5139, 318.1612
908.9960, 318.5714
909.4781, 310.2651
909.9602, 301.2484
910.4423, 293.0132
910.9244, 287.6380
911.4066, 289.8409
911.8887, 296.3604
912.3708, 301.2285
912.8529, 299.4914
913.3350, 299.7773
913.8171, 305.4824
914.2993, 312.5511
914.7814, 315.4686
915.2635, 313.9727
915.7456, 311.4078
916.2277, 307.8797
916.7098, 304.9579
917.1920, 307.1657
917.6741, 310.1441
918.1562, 306.0808
918.6383, 290.3202
919.1204, 278.8996
919.6025, 278.4585
920.0847, 282.7145
920.5668, 288.4337
921.0489, 296.2595
921.5310, 300.7612
922.0131, 301.6949
922.4952, 301.2811
922.9774, 300.8673
923.4595, 300.4534
923.9416, 299.4023
924.4237, 297.8821
924.9058, 298.4448
925.3879, 306.0655
925.8701, 311.8359
926.3522, 311.4064
926.8343, 305.6636
927.3164, 301.3887
927.7985, 298.4558
928.2806, 298.0369
928.7628, 302.1933
929.2449, 307.7321
929.7270, 309.2276
930.2091, 307.9636
930.6912, 307.4616
931.1733, 310.9205
931.6555, 313.2666
932.1376, 311.9148
932.6197, 308.9672
933.1018, 308.0181
933.5839, 309.3804
934.0660, 310.5780
934.5482, 311.4972
935.0303, 311.0985
935.5124, 305.5442
935.9945, 298.4152
936.4766, 296.5657
936.9587, 303.8152
937.4409, 310.0440
937.9230, 312.5545
938.4051, 312.3295
938.8872, 309.3617
939.3693, 302.5450
939.8514, 299.9295
940.3336, 302.0233
940.8157, 304.8130
941.2978, 304.3941
941.7799, 302.8692
942.2620, 304.3424
942.7441, 308.7090
943.2263, 310.2409
943.7084, 302.1107
944.1905, 295.6493
944.6726, 296.7759
945.1547, 303.6667
945.6368, 303.5376
946.1190, 295.8181
946.6011, 290.8777
947.0832, 294.8959
947.5653, 302.4815
948.0474, 308.4933
948.5295, 312.2916
949.0117, 312.3891
949.4938, 302.4696
949.9759, 296.4021
950.4580, 299.1446
950.9401, 305.1274
951.4222, 305.2422
951.9044, 299.3542
952.3865, 296.1885
952.8686, 297.4937
953.3507, 300.0294
953.8328, 300.7014
954.3149, 300.3769
954.7971, 300.1777
955.2792, 300.4686
955.7613, 300.2404
956.2434, 298.5126
956.7255, 297.2150
957.2076, 296.9634
957.6898, 297.8416
958.1719, 304.8525
958.6540, 317.8845
959.1361, 325.7740
959.6182, 314.8925
960.1003, 300.1116
960.5825, 295.7532
961.0646, 300.4402
961.5467, 303.0283
962.0288, 298.2350
962.5109, 296.4283
962.9930, 301.4457
963.4752, 309.7359
963.9573, 312.6122
964.4394, 310.5587
964.9215, 306.3405
965.4036, 299.4849
965.8857, 293.5407
966.3679, 290.7766
966.8500, 290.8646
967.3321, 293.5963
967.8142, 302.1710
968.2963, 307.0458
968.7784, 306.8564
969.2606, 305.5623
969.7427, 307.6966
970.2248, 312.0815
970.7069, 314.3260
971.1890, 314.1092
971.6711, 313.2987
972.1533, 311.8241
972.6354, 311.2424
973.1175, 314.3813
973.5996, 320.9603
974.0817, 319.9283
974.5638, 308.6373
975.0460, 299.1252
975.5281, 296.6236
976.0102, 298.7638
976.4923, 302.0923
976.9744, 305.8499
977.4565, 307.8069
977.9387, 306.4938
978.4208, 303.7958
978.9029, 297.4128
979.3850, 291.4881
979.8671, 292.2475
980.3492, 300.9705
980.8314, 309.3557
981.3135, 316.8576
981.7956, 322.3993
982.2777, 325.0983
982.7598, 325.0566
983.2419, 321.2013
983.7241, 312.5956
984.2062, 307.0367
984.6883, 309.2241
985.1704, 312.7216
985.6525, 315.2299
986.1346, 316.6876
986.6168, 316.3719
987.0989, 314.2972
987.5810, 310.9219
988.0631, 303.8510
988.5452, 297.8185
989.0273, 299.1920
989.5095, 305.1246
989.9916, 308.2490
990.4737, 303.9744
990.9558, 301.9703
991.4379, 304.2370
991.9200, 307.9824
992.4022, 307.8059
992.8843, 305.0915
993.3664, 306.8807
993.8485, 315.4035
994.3306, 322.3806
994.8127, 321.1530
995.2949, 316.4875
995.7770, 311.7371
996.2591, 306.7186
996.7412, 305.6291
997.2233, 309.7519
997.7054, 313.1421
998.1876, 310.4890
998.6697, 305.2591
999.1518, 305.6557
999.6339, 310.5176
1000.116, 315.1599
1000.598, 318.4467
1001.080, 320.0439
1001.562, 318.7540
1002.044, 316.2458
1002.527, 315.8671
1003.009, 317.8900
1003.491, 317.5900
1003.973, 313.4283
1004.455, 309.7002
1004.937, 312.8882
1005.419, 318.5336
1005.901, 321.0354
1006.384, 318.9937
1006.866, 315.1761
1007.348, 307.0036
1007.830, 301.7364
1008.312, 304.8039
1008.794, 314.4696
1009.276, 322.0032
1009.758, 327.0779
1010.240, 327.4057
1010.723, 315.3321
1011.205, 304.3232
1011.687, 304.3154
1012.169, 311.8913
1012.651, 317.3076
1013.133, 320.1028
1013.615, 321.3580
1014.097, 321.0497
1014.580, 319.7424
1015.062, 316.6000
1015.544, 313.4836
1016.026, 314.9545
1016.508, 322.9401
1016.990, 328.9243
1017.472, 329.1683
1017.954, 326.5349
1018.436, 322.4179
1018.919, 316.8919
1019.401, 309.1613
1019.883, 299.2070
1020.365, 294.4628
1020.847, 305.4737
1021.329, 318.5373
1021.811, 318.6245
1022.293, 310.1115
1022.776, 303.7707
1023.258, 301.6300
1023.740, 302.2533
1024.222, 306.8164
1024.704, 311.9179
1025.186, 312.8058
1025.668, 310.2740
1026.150, 306.0118
1026.632, 299.9259
1027.115, 296.5841
1027.597, 302.5277
1028.079, 308.9456
1028.561, 308.7103
1029.043, 302.2226
1029.525, 300.6005
1030.007, 304.3394
1030.489, 309.1842
1030.972, 314.4551
1031.454, 318.3174
1031.936, 317.2111
1032.418, 312.9058
1032.900, 309.2248
1033.382, 306.1592
1033.864, 305.6653
1034.346, 308.4878
1034.828, 312.9589
1035.311, 317.8770
1035.793, 322.9741
1036.275, 326.2818
1036.757, 327.6689
1037.239, 327.2743
1037.721, 323.8515
1038.203, 319.8510
1038.685, 317.1754
1039.167, 315.7027
1039.650, 313.0696
1040.132, 308.6609
1040.614, 305.8169
1041.096, 305.6181
1041.578, 307.7265
1042.060, 315.3021
1042.542, 323.9493
1043.024, 324.5199
1043.507, 305.7562
1043.989, 296.2583
1044.471, 307.0735
1044.953, 321.5719
1045.435, 326.7339
1045.917, 323.3230
1046.399, 321.1618
1046.881, 320.4276
1047.364, 320.6591
1047.846, 323.2621
1048.328, 325.1386
1048.810, 323.3195
1049.292, 318.7729
1049.774, 316.3593
1050.256, 317.2241
1050.738, 315.4024
1051.220, 308.0375
1051.703, 302.0679
1052.185, 311.2388
1052.667, 327.5480
1053.149, 337.7711
1053.631, 338.9786
1054.113, 335.4156
1054.595, 321.3661
1055.077, 310.8248
1055.559, 313.3496
1056.042, 326.0681
1056.524, 327.4446
1057.006, 318.9803
1057.488, 312.9533
1057.970, 320.5351
1058.452, 328.0249
1058.934, 325.1789
1059.416, 316.8204
1059.899, 312.3909
1060.381, 313.2725
1060.863, 313.6156
1061.345, 312.6526
1061.827, 312.4008
1062.309, 316.0928
1062.791, 321.2774
1063.273, 325.3780
1063.755, 328.0491
1064.238, 325.7549
1064.720, 309.6336
1065.202, 298.9834
1065.684, 301.4750
1066.166, 311.8770
1066.648, 316.4451
1067.130, 315.7652
1067.612, 312.4550
1068.094, 305.8127
1068.577, 300.4044
1069.059, 298.3250
1069.541, 299.3160
1070.023, 303.5166
1070.505, 311.9105
1070.987, 318.0065
1071.469, 322.0174
1071.951, 322.5124
1072.434, 314.4503
1072.916, 305.3107
1073.398, 305.2176
1073.880, 311.7986
1074.362, 316.2702
1074.844, 314.8010
1075.326, 314.5804
1075.808, 316.8198
1076.291, 320.0259
1076.773, 322.5686
1077.255, 324.3412
1077.737, 324.6948
1078.219, 323.4666
1078.701, 322.2969
1079.183, 321.9195
1079.665, 321.9622
1080.147, 322.4743
1080.630, 323.2333
1081.112, 323.7834
1081.594, 324.0082
1082.076, 319.4062
1082.558, 303.9595
1083.040, 291.3740
1083.522, 297.4318
1084.004, 312.2287
1084.486, 322.8307
1084.969, 328.6134
1085.451, 327.4854
1085.933, 317.5328
1086.415, 307.9236
1086.897, 306.8699
1087.379, 310.2511
1087.861, 310.3698
1088.343, 308.1953
1088.826, 308.5021
1089.308, 317.9622
1089.790, 323.0114
1090.272, 319.4127
1090.754, 312.6674
1091.236, 311.5952
1091.718, 315.0450
1092.200, 317.7110
1092.682, 318.7332
1093.165, 319.8408
1093.647, 324.8610
1094.129, 327.6449
1094.611, 322.0958
1095.093, 310.2300
1095.575, 308.3442
1096.057, 317.0346
1096.539, 319.8735
1097.022, 306.6588
1097.504, 293.3471
1097.986, 300.9265
1098.468, 316.7556
1098.950, 322.5982
1099.432, 309.3756
1099.914, 303.8812
1100.396, 307.9730
1100.879, 314.0295
1101.361, 317.3619
1101.843, 318.5241
1102.325, 317.6290
1102.807, 315.4113
1103.289, 314.5508
1103.771, 318.4510
1104.253, 320.3055
1104.735, 317.7544
1105.218, 314.3101
1105.700, 314.7481
1106.182, 318.6173
1106.664, 325.5418
1107.146, 335.6515
1107.628, 340.6727
1108.110, 328.2461
1108.592, 316.7360
1109.074, 318.6890
1109.557, 330.0009
1110.039, 334.1545
1110.521, 331.1045
1111.003, 326.1373
1111.485, 319.8723
1111.967, 315.1468
1112.449, 316.9674
1112.931, 320.5560
1113.414, 319.5809
1113.896, 311.2867
1114.378, 311.7728
1114.860, 323.7386
1115.342, 332.5023
1115.824, 325.6951
1116.306, 314.1613
1116.788, 317.4157
1117.271, 329.2334
1117.753, 335.7680
1118.235, 325.5981
1118.717, 321.0510
1119.199, 326.2729
1119.681, 332.1200
1120.163, 327.9686
1120.645, 317.3970
1121.127, 309.7001
1121.609, 305.5169
1122.092, 306.0929
1122.574, 318.6046
1123.056, 327.9384
1123.538, 328.1042
1124.020, 323.1955
1124.502, 320.8073
1124.984, 320.7541
1125.466, 321.7383
1125.949, 323.6591
1126.431, 325.3393
1126.913, 326.2321
1127.395, 326.3189
1127.877, 325.2429
1128.359, 323.2341
1128.841, 322.4388
1129.323, 323.0377
1129.806, 320.8731
1130.288, 312.4872
1130.770, 304.9448
1131.252, 306.9325
1131.734, 313.4014
1132.216, 318.0594
1132.698, 320.5026
1133.180, 318.9829
1133.662, 312.1050
1134.145, 307.2199
1134.627, 311.1432
1135.109, 318.5022
1135.591, 320.2169
1136.073, 318.4760
1136.555, 318.7744
1137.037, 327.4427
1137.519, 330.3756
1138.001, 324.7469
1138.484, 317.5205
1138.966, 316.7669
1139.448, 319.8252
1139.930, 319.3657
1140.412, 315.6354
1140.894, 314.5974
1141.376, 321.2115
1141.858, 327.8611
1142.341, 333.3531
1142.823, 336.9586
1143.305, 336.9302
1143.787, 333.8084
1144.269, 329.0289
1144.751, 322.3857
1145.233, 319.2002
1145.715, 327.5050
1146.198, 334.9144
1146.680, 333.2932
1147.162, 325.3558
1147.644, 325.4469
1148.126, 332.7475
1148.608, 335.5976
1149.090, 328.2374
1149.572, 321.0746
1150.054, 323.3094
1150.536, 328.5528
1151.019, 330.9005
1151.501, 330.1020
1151.983, 326.9835
1152.465, 321.3397
1152.947, 318.1004
1153.429, 322.0491
1153.911, 327.1959
1154.393, 327.5670
1154.876, 325.2372
1155.358, 323.7559
1155.840, 323.5453
1156.322, 323.7980
1156.804, 324.5497
1157.286, 325.4891
1157.768, 326.8993
1158.250, 327.9787
1158.733, 327.3491
1159.215, 325.4506
1159.697, 324.0273
1160.179, 323.6154
1160.661, 323.1403
1161.143, 322.5695
1161.625, 321.6416
1162.107, 318.5652
1162.589, 315.5987
1163.072, 317.3091
1163.554, 323.7200
1164.036, 329.6041
1164.518, 335.2238
1165.000, 337.3423
1165.482, 334.3692
1165.964, 328.7505
1166.446, 323.6359
1166.928, 319.6520
1167.411, 318.2492
1167.893, 319.8277
1168.375, 323.1371
1168.857, 331.9666
1169.339, 336.8236
1169.821, 332.0325
1170.303, 322.1404
1170.785, 321.2688
1171.268, 326.7811
1171.750, 329.6685
1172.232, 325.5256
1172.714, 322.5401
1173.196, 326.8099
1173.678, 330.3809
1174.160, 327.5249
1174.642, 319.6194
1175.125, 315.7265
1175.607, 315.4513
1176.089, 316.8562
1176.571, 321.0589
1177.053, 324.0328
1177.535, 321.5348
1178.017, 318.8860
1178.499, 322.3548
1178.981, 331.8263
1179.464, 333.6901
1179.946, 328.2958
1180.428, 323.5284
1180.910, 324.9214
1181.392, 327.6439
1181.874, 329.3307
1182.356, 330.6397
1182.838, 332.9980
1183.320, 336.5210
1183.803, 338.0798
1184.285, 337.4117
1184.767, 335.3247
1185.249, 329.8605
1185.731, 325.6228
1186.213, 328.3669
1186.695, 334.5281
1187.177, 332.7162
1187.660, 322.0471
1188.142, 317.7716
1188.624, 322.9830
1189.106, 329.9687
1189.588, 332.3285
1190.070, 333.3080
1190.552, 336.3700
1191.034, 340.8493
1191.516, 340.9770
1191.999, 336.2661
1192.481, 331.4375
1192.963, 327.2846
1193.445, 324.7213
1193.927, 326.5044
1194.409, 329.0890
1194.891, 327.5949
1195.373, 321.6172
1195.855, 323.1854
1196.338, 333.5990
1196.820, 340.1813
1197.302, 336.9309
1197.784, 329.9875
1198.266, 322.8768
1198.748, 317.7252
1199.230, 318.5426
1199.712, 327.3084
1200.195, 329.9801
1200.677, 325.5580
1201.159, 322.0680
1201.641, 324.2985
1202.123, 328.9872
1202.605, 333.9897
1203.087, 338.3012
1203.569, 340.0746
1204.052, 337.6375
1204.534, 337.9546
1205.016, 341.6785
1205.498, 344.2593
1205.980, 341.4018
1206.462, 336.6551
1206.944, 333.4624
1207.426, 331.6645
1207.908, 330.9778
1208.391, 331.0489
1208.873, 333.3110
1209.355, 338.4211
1209.837, 342.6159
1210.319, 341.4553
1210.801, 338.5831
1211.283, 338.0410
1211.765, 339.3873
1212.247, 340.7182
1212.730, 342.0946
1213.212, 343.0713
1213.694, 343.9769
1214.176, 342.5907
1214.658, 333.1661
1215.140, 322.8069
1215.622, 321.1011
1216.104, 326.6785
1216.587, 327.9410
1217.069, 320.8999
1217.551, 321.9217
1218.033, 335.3043
1218.515, 350.1639
1218.997, 356.7048
1219.479, 356.4560
1219.961, 346.9906
1220.443, 329.8745
1220.926, 325.8956
1221.408, 340.5287
1221.890, 348.0942
1222.372, 340.8028
1222.854, 330.9744
1223.336, 334.8601
1223.818, 343.5212
1224.300, 346.9974
1224.782, 343.7912
1225.265, 338.7146
1225.747, 330.8556
1226.229, 325.9198
1226.711, 326.2324
1227.193, 328.5706
1227.675, 328.5827
1228.157, 328.6605
1228.639, 332.9213
1229.122, 342.5388
1229.604, 344.7476
1230.086, 338.2043
1230.568, 333.6238
1231.050, 336.5448
1231.532, 340.2031
1232.014, 333.3499
1232.496, 324.6263
1232.979, 326.6593
1233.461, 342.1790
1233.943, 348.4804
1234.425, 344.6081
1234.907, 340.6898
1235.389, 342.2350
1235.871, 344.5388
1236.353, 342.8143
1236.835, 339.0760
1237.318, 335.5765
1237.800, 332.0838
1238.282, 331.9416
1238.764, 335.3153
1239.246, 338.6669
1239.728, 340.0289
1240.210, 340.5157
1240.692, 341.1263
1241.175, 341.3214
1241.657, 340.4637
1242.139, 338.5607
1242.621, 334.2010
1243.103, 327.2956
1243.585, 324.8084
1244.067, 336.3152
1244.549, 347.8773
1245.031, 349.5008
1245.514, 345.6154
1245.996, 342.6044
1246.478, 340.4590
1246.960, 338.4093
1247.442, 336.5414
1247.924, 337.2083
1248.406, 344.4725
1248.888, 351.8718
1249.370, 356.9402
1249.853, 359.2591
1250.335, 357.4839
1250.817, 351.8237
1251.299, 349.0742
1251.781, 349.1662
1252.263, 346.6179
1252.745, 330.6329
1253.227, 320.2027
1253.710, 329.2650
1254.192, 344.0091
1254.674, 345.7024
1255.156, 336.7682
1255.638, 335.5732
1256.120, 342.5388
1256.602, 348.7862
1257.084, 349.2431
1257.567, 348.1268
1258.049, 345.3195
1258.531, 343.5936
1259.013, 349.3227
1259.495, 359.3647
1259.977, 361.3702
1260.459, 355.0198
1260.941, 347.9960
1261.423, 342.0809
1261.906, 338.4572
1262.388, 337.6767
1262.870, 338.6335
1263.352, 340.6470
1263.834, 342.8931
1264.316, 342.8486
1264.798, 340.5669
1265.280, 339.5677
1265.762, 341.3734
1266.245, 344.1419
1266.727, 348.2794
1267.209, 351.6108
1267.691, 350.0438
1268.173, 346.1684
1268.655, 344.2725
1269.137, 344.6321
1269.619, 345.1369
1270.102, 346.3047
1270.584, 344.9288
1271.066, 339.3745
1271.548, 334.4056
1272.030, 337.2609
1272.512, 343.3723
1272.994, 348.4798
1273.476, 351.7590
1273.958, 350.2874
1274.441, 342.1061
1274.923, 339.5176
1275.405, 346.3106
1275.887, 354.4113
1276.369, 355.2722
1276.851, 353.4903
1277.333, 353.1711
1277.815, 354.2737
1278.297, 354.9226
1278.780, 355.1035
1279.262, 354.6259
1279.744, 353.0700
1280.226, 353.1759
1280.708, 360.0111
1281.190, 366.7259
1281.672, 368.6194
1282.154, 366.3333
1282.637, 359.1592
1283.119, 348.3401
1283.601, 347.9420
1284.083, 362.8133
1284.565, 373.9825
1285.047, 367.4749
1285.529, 356.5108
1286.011, 346.2023
1286.494, 337.7059
1286.976, 335.6552
1287.458, 338.4960
1287.940, 341.1258
1288.422, 342.4244
1288.904, 344.1814
1289.386, 348.3536
1289.868, 351.1883
1290.350, 350.9016
1290.833, 349.3353
1291.315, 351.1026
1291.797, 354.0459
1292.279, 352.6626
1292.761, 344.8666
1293.243, 343.5708
1293.725, 353.2168
1294.207, 360.8383
1294.689, 362.4460
1295.172, 359.5880
1295.654, 350.0426
1296.136, 339.9103
1296.618, 338.2073
1297.100, 347.1795
1297.582, 354.2908
1298.064, 359.6606
1298.546, 362.2796
1299.029, 361.1416
1299.511, 359.3865
1299.993, 361.3935
1300.475, 363.5991
1300.957, 361.0625
1301.439, 354.9649
1301.921, 354.7246
1302.403, 360.0596
1302.885, 362.5816
1303.368, 359.7077
1303.850, 354.8279
##END=



