##NAMES=Chalcanthite
##RRUFFID=R050354
##IDEAL CHEMISTRY=Cu^2+^S^6+^O_4_&#183;5H_2_O
##LOCALITY=Utah, USA
##OWNER=RRUFF
##SOURCE=California Institute of Technology
##DESCRIPTION=Group of blue parallel prismatic crystals
##STATUS=The identification of this mineral has been confirmed by X-ray diffraction.
##URL=rruff.info/R050354
##MEASURED CHEMISTRY=Cu_1.00_S_1.00_O_4_Â·5H_2_O
111.8081, 18.76541
112.2902, 19.28726
112.7723, 20.07145
113.2544, 20.68077
113.7366, 21.06920
114.2187, 21.32677
114.7008, 21.38311
115.1829, 21.35718
115.6650, 21.38297
116.1471, 21.51046
116.6293, 21.63928
117.1114, 21.47458
117.5935, 20.66868
118.0756, 20.23699
118.5577, 20.66612
119.0398, 21.66874
119.5220, 22.56440
120.0041, 23.03049
120.4862, 23.19845
120.9683, 23.41647
121.4504, 23.70279
121.9325, 24.00565
122.4147, 24.26697
122.8968, 24.47964
123.3789, 24.73666
123.8610, 25.29434
124.3431, 25.84721
124.8252, 26.02813
125.3074, 25.59485
125.7895, 24.88627
126.2716, 24.65363
126.7537, 25.23072
127.2358, 25.70494
127.7179, 25.79310
128.2001, 25.62412
128.6822, 25.35916
129.1643, 25.08797
129.6464, 24.80970
130.1285, 24.52760
130.6106, 24.17239
131.0928, 23.87998
131.5749, 23.73392
132.0570, 23.68631
132.5391, 23.62359
133.0212, 23.43883
133.5033, 23.09997
133.9855, 22.86048
134.4676, 22.77661
134.9497, 22.72444
135.4318, 22.68482
135.9139, 22.63699
136.3960, 22.48671
136.8782, 22.06052
137.3603, 21.25500
137.8424, 20.80690
138.3245, 21.13743
138.8066, 21.70187
139.2887, 21.83253
139.7709, 21.34044
140.2530, 20.58444
140.7351, 19.91883
141.2172, 19.33116
141.6993, 18.92764
142.1814, 18.90006
142.6636, 19.13323
143.1457, 19.17780
143.6278, 18.80049
144.1099, 18.36113
144.5920, 18.20656
145.0741, 18.33532
145.5563, 18.45886
146.0384, 18.29752
146.5205, 17.81568
147.0026, 17.35902
147.4847, 16.90762
147.9668, 16.55233
148.4490, 16.36266
148.9311, 16.35066
149.4132, 16.46173
149.8953, 16.64678
150.3774, 17.03129
150.8595, 17.21775
151.3417, 17.17174
151.8238, 16.96300
152.3059, 16.58980
152.7880, 16.06435
153.2701, 15.47611
153.7522, 15.06055
154.2344, 15.17848
154.7165, 15.06071
155.1986, 14.45009
155.6807, 13.64979
156.1628, 13.03403
156.6449, 12.79358
157.1271, 12.86016
157.6092, 12.97778
158.0913, 13.31055
158.5734, 13.50863
159.0555, 13.47582
159.5376, 13.23261
160.0198, 12.78459
160.5019, 12.02958
160.9840, 11.13765
161.4661, 10.68791
161.9482, 10.89474
162.4303, 11.28878
162.9125, 11.68877
163.3946, 12.08603
163.8767, 12.22183
164.3588, 11.74272
164.8409, 10.94718
165.3230, 10.32636
165.8052, 9.941561
166.2873, 9.784448
166.7694, 9.902444
167.2515, 10.36629
167.7336, 10.86882
168.2157, 11.42768
168.6979, 11.89616
169.1800, 12.04687
169.6621, 11.68338
170.1442, 11.01206
170.6263, 10.61738
171.1084, 10.63328
171.5906, 10.74063
172.0727, 10.92639
172.5548, 11.10639
173.0369, 11.14949
173.5190, 10.94634
174.0011, 10.54000
174.4833, 10.29543
174.9654, 10.37609
175.4475, 10.47201
175.9296, 10.50362
176.4117, 10.50297
176.8938, 10.55319
177.3760, 10.73234
177.8581, 11.04839
178.3402, 11.17404
178.8223, 10.86877
179.3044, 10.62940
179.7865, 10.67278
180.2687, 10.94781
180.7508, 11.28091
181.2329, 11.54822
181.7150, 11.75199
182.1971, 11.71059
182.6792, 11.08434
183.1614, 10.52802
183.6435, 10.54602
184.1256, 11.10580
184.6077, 11.65389
185.0898, 11.65941
185.5719, 11.07608
186.0540, 10.69281
186.5362, 10.70794
187.0183, 10.82387
187.5004, 10.72378
187.9825, 10.36164
188.4646, 10.01897
188.9467, 9.995469
189.4289, 10.22261
189.9110, 10.44040
190.3931, 10.68927
190.8752, 10.86580
191.3573, 10.74764
191.8394, 10.21272
192.3216, 9.682667
192.8037, 9.431708
193.2858, 9.418936
193.7679, 9.606529
194.2500, 10.21239
194.7321, 11.03123
195.2143, 11.33850
195.6964, 10.75915
196.1785, 10.22151
196.6606, 10.36656
197.1427, 10.93822
197.6248, 11.36792
198.1070, 11.18825
198.5891, 10.47818
199.0712, 10.04943
199.5533, 10.14086
200.0354, 10.27368
200.5175, 10.26412
200.9997, 10.14890
201.4818, 10.02734
201.9639, 9.960976
202.4460, 9.947725
202.9281, 10.04885
203.4102, 10.45142
203.8924, 10.80236
204.3745, 10.98633
204.8566, 11.02555
205.3387, 11.00167
205.8208, 10.99153
206.3029, 11.00816
206.7851, 10.90816
207.2672, 10.53385
207.7493, 10.20225
208.2314, 10.04858
208.7135, 10.05826
209.1956, 10.15869
209.6778, 10.31536
210.1599, 10.57161
210.6420, 10.48262
211.1241, 9.662492
211.6062, 8.901884
212.0883, 8.602446
212.5705, 8.764359
213.0526, 9.184980
213.5347, 9.749071
214.0168, 10.48713
214.4989, 10.87414
214.9810, 10.78069
215.4632, 10.47518
215.9453, 10.00786
216.4274, 9.421953
216.9095, 8.970607
217.3916, 8.912835
217.8737, 9.265280
218.3559, 9.515241
218.8380, 9.636644
219.3201, 9.666335
219.8022, 9.607480
220.2843, 9.460649
220.7664, 9.303831
221.2486, 9.163721
221.7307, 9.062178
222.2128, 9.089375
222.6949, 9.406697
223.1770, 9.782896
223.6591, 9.910847
224.1413, 9.744716
224.6234, 9.596359
225.1055, 9.754413
225.5876, 10.08669
226.0697, 10.35972
226.5518, 10.47820
227.0340, 10.52168
227.5161, 10.60794
227.9982, 10.74972
228.4803, 10.89005
228.9624, 11.05054
229.4445, 11.17804
229.9267, 11.17880
230.4088, 10.96333
230.8909, 10.64734
231.3730, 10.46184
231.8551, 10.45561
232.3372, 10.45946
232.8194, 10.39708
233.3015, 10.30540
233.7836, 10.21789
234.2657, 10.13657
234.7478, 10.08590
235.2299, 10.10452
235.7121, 10.14125
236.1942, 10.37192
236.6763, 11.07192
237.1584, 11.87204
237.6405, 12.37195
238.1227, 12.38595
238.6048, 12.06384
239.0869, 11.75138
239.5690, 11.31309
240.0511, 11.14953
240.5332, 11.51380
241.0154, 12.06280
241.4975, 12.45472
241.9796, 12.54279
242.4617, 12.43315
242.9438, 12.37535
243.4259, 12.31777
243.9081, 12.41419
244.3902, 12.82211
244.8723, 13.30585
245.3544, 13.65812
245.8365, 13.79801
246.3186, 13.76325
246.8007, 13.62626
247.2829, 13.20372
247.7650, 12.95393
248.2471, 12.92179
248.7292, 13.04287
249.2113, 13.29835
249.6934, 13.67228
250.1756, 14.09238
250.6577, 14.41528
251.1398, 14.52604
251.6219, 14.69995
252.1040, 15.06253
252.5861, 15.41784
253.0683, 15.53808
253.5504, 15.37119
254.0325, 15.11780
254.5146, 15.11693
254.9967, 15.62215
255.4788, 15.91141
255.9610, 15.68044
256.4431, 15.40823
256.9252, 15.56436
257.4073, 16.24545
257.8894, 17.13715
258.3716, 17.83328
258.8537, 18.27559
259.3358, 18.61396
259.8179, 18.77470
260.3000, 18.87727
260.7821, 19.02527
261.2643, 19.23668
261.7464, 19.45776
262.2285, 19.60987
262.7106, 19.65706
263.1927, 19.87317
263.6748, 20.41275
264.1570, 21.02667
264.6391, 21.49803
265.1212, 21.80640
265.6033, 22.07818
266.0854, 22.44669
266.5675, 22.91186
267.0497, 23.23309
267.5318, 23.16887
268.0139, 23.12112
268.4960, 23.50739
268.9781, 24.32405
269.4602, 25.08663
269.9424, 25.37311
270.4245, 25.25611
270.9066, 25.36869
271.3887, 26.01496
271.8708, 26.67613
272.3529, 26.88303
272.8351, 26.66948
273.3172, 26.49278
273.7993, 26.64806
274.2814, 27.05090
274.7635, 27.38128
275.2456, 27.66684
275.7278, 27.84044
276.2099, 27.82523
276.6920, 27.63613
277.1741, 27.38083
277.6562, 27.05057
278.1383, 26.72785
278.6204, 26.59781
279.1025, 26.79625
279.5847, 26.89147
280.0668, 26.54128
280.5489, 25.80580
281.0310, 25.03905
281.5131, 24.32777
281.9952, 23.68181
282.4774, 23.13845
282.9595, 22.72825
283.4416, 22.24430
283.9237, 21.40544
284.4058, 20.34408
284.8879, 19.66960
285.3701, 19.75112
285.8522, 19.96524
286.3343, 19.64451
286.8164, 18.81593
287.2985, 17.88920
287.7806, 17.03874
288.2628, 16.25415
288.7449, 15.49662
289.2270, 14.72158
289.7091, 14.04790
290.1912, 13.58476
290.6733, 13.29474
291.1555, 13.04768
291.6376, 12.82128
292.1197, 12.59417
292.6018, 12.31459
293.0839, 11.98488
293.5660, 11.59190
294.0482, 10.96921
294.5303, 10.28795
295.0124, 9.894689
295.4945, 10.12418
295.9766, 10.61770
296.4587, 10.68414
296.9409, 10.19669
297.4230, 9.716402
297.9051, 9.604662
298.3872, 9.645526
298.8693, 9.598465
299.3514, 9.397412
299.8336, 9.078847
300.3157, 8.596169
300.7978, 7.878253
301.2799, 7.416856
301.7620, 7.668445
302.2441, 8.131998
302.7263, 8.382770
303.2084, 8.335170
303.6905, 8.131948
304.1726, 7.842387
304.6547, 7.457058
305.1368, 7.237627
305.6190, 7.346091
306.1011, 7.574067
306.5832, 7.796352
307.0653, 7.999387
307.5474, 8.139288
308.0295, 8.188741
308.5117, 8.147669
308.9938, 7.999265
309.4759, 7.656584
309.9580, 7.302573
310.4401, 7.033292
310.9222, 6.850329
311.4044, 6.751494
311.8865, 6.756671
312.3686, 6.850709
312.8507, 6.977872
313.3328, 7.172848
313.8149, 7.337660
314.2971, 7.486515
314.7792, 7.569913
315.2613, 7.468526
315.7434, 6.999322
316.2255, 6.395953
316.7076, 6.224039
317.1898, 6.662848
317.6719, 7.030899
318.1540, 6.832131
318.6361, 6.478048
319.1182, 6.478590
319.6003, 7.086102
320.0825, 7.808939
320.5646, 7.938413
321.0467, 7.385316
321.5288, 6.804458
322.0109, 6.288596
322.4930, 5.901183
322.9752, 5.732581
323.4573, 5.801095
323.9394, 5.960621
324.4215, 6.092117
324.9036, 6.195426
325.3857, 6.304736
325.8679, 6.467827
326.3500, 6.590162
326.8321, 6.593714
327.3142, 6.491581
327.7963, 6.370204
328.2784, 6.245149
328.7606, 6.137028
329.2427, 6.166008
329.7248, 6.425018
330.2069, 6.672318
330.6890, 6.836165
331.1711, 6.885191
331.6533, 6.720717
332.1354, 6.100001
332.6175, 5.338097
333.0996, 5.138122
333.5817, 5.657321
334.0638, 6.229786
334.5460, 6.564375
335.0281, 6.749277
335.5102, 6.858890
335.9923, 6.906320
336.4744, 6.898824
336.9565, 6.853776
337.4387, 6.773906
337.9208, 6.605886
338.4029, 6.218787
338.8850, 5.817920
339.3671, 5.591088
339.8492, 5.554891
340.3314, 5.651545
340.8135, 5.908434
341.2956, 6.292546
341.7777, 6.592781
342.2598, 6.797427
342.7419, 6.861400
343.2241, 6.705383
343.7062, 6.370116
344.1883, 6.059691
344.6704, 5.753425
345.1525, 5.557263
345.6346, 5.840293
346.1168, 6.822297
346.5989, 7.631361
347.0810, 7.380220
347.5631, 6.534857
348.0452, 5.870780
348.5273, 5.638419
349.0095, 5.621098
349.4916, 5.573093
349.9737, 5.491632
350.4558, 5.523401
350.9379, 5.837236
351.4200, 6.246141
351.9022, 6.437351
352.3843, 6.333555
352.8664, 6.186681
353.3485, 6.181807
353.8306, 6.277671
354.3127, 6.292885
354.7949, 6.131447
355.2770, 5.950451
355.7591, 6.004785
356.2412, 6.291663
356.7233, 6.454026
357.2054, 6.177581
357.6876, 5.756222
358.1697, 5.720046
358.6518, 6.182263
359.1339, 6.698901
359.6160, 6.858342
360.0981, 6.725329
360.5803, 6.654052
361.0624, 6.853636
361.5445, 7.003656
362.0266, 6.700092
362.5087, 6.015228
362.9908, 5.559730
363.4730, 5.759594
363.9551, 6.378661
364.4372, 6.672785
364.9193, 6.539860
365.4014, 6.289079
365.8835, 5.872384
366.3657, 5.443784
366.8478, 5.406358
367.3299, 5.962148
367.8120, 6.663970
368.2941, 6.724323
368.7762, 5.940633
369.2584, 5.460388
369.7405, 5.676165
370.2226, 6.127377
370.7047, 6.336766
371.1868, 6.256752
371.6689, 6.199689
372.1511, 6.484185
372.6332, 7.129575
373.1153, 7.496797
373.5974, 7.443902
374.0795, 7.287447
374.5616, 7.098437
375.0438, 6.924899
375.5259, 6.893598
376.0080, 7.102662
376.4901, 7.435552
376.9722, 7.470054
377.4543, 6.865073
377.9365, 6.406962
378.4186, 6.310330
378.9007, 6.338377
379.3828, 6.160756
379.8649, 5.706773
380.3470, 5.284447
380.8292, 5.364289
381.3113, 6.246722
381.7934, 6.728286
382.2755, 6.490801
382.7576, 6.185022
383.2397, 6.200393
383.7219, 6.496527
384.2040, 6.806378
384.6861, 6.914861
385.1682, 6.838275
385.6503, 6.831801
386.1324, 7.081355
386.6146, 7.192651
387.0967, 6.976022
387.5788, 6.622062
388.0609, 6.360071
388.5430, 6.289016
389.0251, 6.363252
389.5073, 6.506007
389.9894, 6.776941
390.4715, 6.990756
390.9536, 7.087229
391.4357, 7.170581
391.9178, 7.376750
392.4000, 7.672039
392.8821, 7.843862
393.3642, 7.620270
393.8463, 6.982179
394.3284, 6.578312
394.8105, 6.447662
395.2927, 6.533946
395.7748, 6.982853
396.2569, 7.594289
396.7390, 8.044641
397.2211, 8.152777
397.7032, 8.050059
398.1854, 8.017534
398.6675, 8.065065
399.1496, 8.153763
399.6317, 8.306351
400.1138, 8.476330
400.5959, 8.628970
401.0780, 8.758207
401.5602, 8.882263
402.0423, 9.056862
402.5244, 9.266490
403.0065, 9.301929
403.4886, 8.958942
403.9707, 8.707430
404.4529, 9.012569
404.9350, 9.676007
405.4171, 10.13252
405.8992, 9.926958
406.3813, 9.483125
406.8634, 9.504719
407.3456, 10.03673
407.8277, 10.63383
408.3098, 11.17467
408.7919, 11.59908
409.2740, 11.80628
409.7561, 11.73110
410.2383, 11.59839
410.7204, 11.53892
411.2025, 11.52906
411.6846, 11.50303
412.1667, 11.44777
412.6488, 11.36058
413.1310, 11.18654
413.6131, 10.92436
414.0952, 10.82655
414.5773, 11.00667
415.0594, 11.32232
415.5415, 11.70479
416.0237, 12.12713
416.5058, 12.46760
416.9879, 12.64509
417.4700, 12.67347
417.9521, 12.63366
418.4342, 12.44772
418.9164, 12.29874
419.3985, 12.19185
419.8806, 12.16519
420.3627, 12.34381
420.8448, 12.76394
421.3269, 13.18943
421.8091, 13.24073
422.2912, 12.68649
422.7733, 12.42486
423.2554, 12.68754
423.7375, 13.01660
424.2196, 13.14994
424.7018, 13.10275
425.1839, 13.03001
425.6660, 13.05296
426.1481, 13.13791
426.6302, 13.04526
427.1123, 12.55584
427.5945, 12.15209
428.0766, 11.72413
428.5587, 11.49127
429.0408, 11.80049
429.5229, 12.71137
430.0050, 13.75601
430.4872, 14.21934
430.9693, 13.91309
431.4514, 13.80773
431.9335, 14.30399
432.4156, 14.66654
432.8977, 14.43067
433.3799, 13.80731
433.8620, 13.35730
434.3441, 13.46318
434.8262, 13.95506
435.3083, 14.37393
435.7904, 14.73634
436.2726, 14.97365
436.7547, 14.87428
437.2368, 14.73873
437.7189, 14.86686
438.2010, 15.32720
438.6831, 15.85538
439.1653, 16.23275
439.6474, 16.48285
440.1295, 16.73331
440.6116, 16.99581
441.0937, 17.27479
441.5758, 17.55403
442.0580, 17.84600
442.5401, 18.20559
443.0222, 18.70957
443.5043, 19.24388
443.9864, 19.70036
444.4685, 20.08187
444.9507, 20.42587
445.4328, 20.72332
445.9149, 21.02136
446.3970, 21.43533
446.8791, 21.99667
447.3612, 22.55445
447.8434, 23.10631
448.3255, 23.61489
448.8076, 24.01904
449.2897, 24.31449
449.7718, 24.57460
450.2539, 24.88026
450.7361, 25.23898
451.2182, 25.45851
451.7003, 25.19617
452.1824, 25.18672
452.6645, 25.94333
453.1466, 27.08191
453.6288, 27.96914
454.1109, 28.32914
454.5930, 28.31110
455.0751, 28.16633
455.5572, 27.58413
456.0393, 27.51194
456.5215, 28.46700
457.0036, 29.40601
457.4857, 29.59992
457.9678, 29.17689
458.4499, 28.79532
458.9320, 28.99823
459.4142, 29.65142
459.8963, 29.94166
460.3784, 29.64001
460.8605, 29.37512
461.3426, 29.30509
461.8247, 29.34991
462.3069, 29.45884
462.7890, 29.61874
463.2711, 29.76624
463.7532, 29.87010
464.2353, 29.92376
464.7174, 29.79855
465.1996, 29.38232
465.6817, 28.93877
466.1638, 28.69515
466.6459, 28.57214
467.1280, 28.36798
467.6101, 28.00230
468.0923, 27.54027
468.5744, 27.05850
469.0565, 26.54874
469.5386, 25.95006
470.0207, 25.19233
470.5028, 24.39113
470.9850, 23.76981
471.4671, 23.34516
471.9492, 22.93252
472.4313, 22.51383
472.9134, 22.06558
473.3955, 21.60378
473.8777, 21.11279
474.3598, 20.44487
474.8419, 19.43228
475.3240, 18.13801
475.8061, 17.21551
476.2882, 16.98590
476.7704, 16.67499
477.2525, 16.04907
477.7346, 15.29498
478.2167, 14.62670
478.6988, 14.10431
479.1809, 13.68006
479.6631, 13.28330
480.1452, 12.90298
480.6273, 12.62201
481.1094, 12.48139
481.5915, 12.40124
482.0736, 12.49228
482.5558, 12.60105
483.0379, 12.46098
483.5200, 11.92657
484.0021, 11.16690
484.4842, 10.44024
484.9663, 9.690065
485.4485, 9.228762
485.9306, 9.368361
486.4127, 9.610974
486.8948, 9.641938
487.3769, 9.471174
487.8590, 9.252800
488.3412, 9.053676
488.8233, 8.872438
489.3054, 8.727179
489.7875, 8.627863
490.2696, 8.467069
490.7517, 8.130899
491.2339, 7.733762
491.7160, 7.495059
492.1981, 7.445876
492.6802, 7.466467
493.1623, 7.601176
493.6444, 7.740962
494.1266, 7.676278
494.6087, 7.377635
495.0908, 7.073524
495.5729, 6.963842
496.0550, 7.048585
496.5371, 7.151081
497.0193, 7.387855
497.5014, 7.506111
497.9835, 7.297804
498.4656, 6.969885
498.9477, 6.824815
499.4298, 6.957356
499.9120, 7.219427
500.3941, 7.413391
500.8762, 7.555781
501.3583, 7.565874
501.8404, 7.393152
502.3225, 7.138834
502.8047, 6.690245
503.2868, 6.208310
503.7689, 6.006694
504.2510, 6.270421
504.7331, 6.743377
505.2152, 6.951278
505.6974, 6.854530
506.1795, 6.742204
506.6616, 6.679114
507.1437, 6.609018
507.6258, 6.513860
508.1079, 6.383656
508.5901, 6.176716
509.0722, 5.707196
509.5543, 5.231286
510.0364, 5.183969
510.5185, 5.560733
511.0006, 5.972993
511.4828, 6.304428
511.9649, 6.499976
512.4470, 6.410432
512.9291, 5.957070
513.4112, 5.546329
513.8933, 5.184564
514.3754, 4.975696
514.8575, 5.135905
515.3397, 5.621928
515.8218, 6.081285
516.3039, 6.265117
516.7860, 6.189145
517.2681, 5.966456
517.7502, 5.209514
518.2324, 4.797808
518.7145, 5.135037
519.1966, 5.656013
519.6787, 5.811709
520.1608, 5.524798
520.6429, 5.100739
521.1251, 4.813692
521.6072, 4.662518
522.0893, 4.647752
522.5714, 4.782204
523.0535, 5.043324
523.5356, 5.616578
524.0178, 6.208094
524.4999, 6.432928
524.9820, 6.171008
525.4641, 5.787982
525.9462, 5.612264
526.4283, 5.601629
526.9105, 5.555738
527.3926, 5.435772
527.8747, 5.316159
528.3568, 5.254926
528.8389, 5.242011
529.3210, 5.241928
529.8032, 5.274177
530.2853, 5.292724
530.7674, 5.250042
531.2495, 5.179688
531.7316, 5.187244
532.2137, 5.305797
532.6959, 5.355254
533.1780, 5.059734
533.6601, 4.290078
534.1422, 3.998153
534.6243, 4.570691
535.1064, 5.117605
535.5886, 5.252645
536.0707, 5.158558
536.5528, 5.164408
537.0349, 5.397259
537.5170, 5.681439
537.9991, 5.696506
538.4813, 5.360951
538.9634, 5.181070
539.4455, 5.319565
539.9276, 5.463534
540.4097, 5.453467
540.8918, 5.346250
541.3740, 5.276148
541.8561, 5.331573
542.3382, 5.368029
542.8203, 5.118263
543.3024, 4.629657
543.7845, 4.404874
544.2667, 4.678770
544.7488, 5.030681
545.2309, 4.900168
545.7130, 4.354927
546.1951, 4.049556
546.6772, 4.267343
547.1594, 4.582131
547.6415, 4.743197
548.1236, 4.778401
548.6057, 4.766072
549.0878, 4.733954
549.5699, 4.719352
550.0521, 4.780019
550.5342, 4.908129
551.0163, 5.144192
551.4984, 5.711291
551.9805, 6.141847
552.4626, 6.147971
552.9448, 5.882601
553.4269, 5.633244
553.9090, 5.532300
554.3911, 5.547054
554.8732, 5.683628
555.3553, 5.994015
555.8375, 6.060321
556.3196, 5.689168
556.8017, 5.214349
557.2838, 4.740325
557.7659, 4.331534
558.2480, 4.177249
558.7302, 4.428058
559.2123, 4.862073
559.6944, 5.374390
560.1765, 5.906984
560.6586, 6.143588
561.1407, 5.929606
561.6229, 5.589313
562.1050, 5.555484
562.5871, 5.901018
563.0692, 6.014861
563.5513, 5.676121
564.0334, 5.319655
564.5156, 5.109427
564.9977, 5.051785
565.4798, 5.152695
565.9619, 5.412057
566.4440, 5.766185
566.9261, 6.157910
567.4083, 6.673584
567.8904, 6.873639
568.3725, 6.434164
568.8546, 6.000962
569.3367, 5.771872
569.8188, 5.701029
570.3010, 5.717486
570.7831, 5.811066
571.2652, 5.899447
571.7473, 5.825787
572.2294, 5.627062
572.7115, 5.655107
573.1937, 6.077778
573.6758, 6.451190
574.1579, 6.279433
574.6400, 5.727254
575.1221, 5.445631
575.6042, 5.722217
576.0864, 6.023255
576.5685, 6.031925
577.0506, 5.907145
577.5327, 5.946592
578.0148, 6.215020
578.4969, 6.497334
578.9791, 6.554145
579.4612, 6.374451
579.9433, 6.247144
580.4254, 6.127484
580.9075, 6.118032
581.3896, 6.354610
581.8718, 6.650487
582.3539, 6.817094
582.8360, 6.808527
583.3181, 6.681120
583.8002, 6.326909
584.2823, 5.834592
584.7645, 5.969277
585.2466, 6.997725
585.7287, 7.899093
586.2108, 8.096119
586.6929, 7.895888
587.1750, 7.667157
587.6572, 7.372878
588.1393, 7.324753
588.6214, 7.956205
589.1035, 8.767738
589.5856, 9.021686
590.0677, 8.701575
590.5499, 8.330276
591.0320, 8.226495
591.5141, 8.354942
591.9962, 8.589827
592.4783, 9.098145
592.9604, 9.474720
593.4426, 9.718786
593.9247, 9.830246
594.4068, 9.693544
594.8889, 9.411437
595.3710, 9.274771
595.8531, 9.491991
596.3353, 9.930584
596.8174, 10.30469
597.2995, 10.61518
597.7816, 10.84103
598.2637, 10.94058
598.7458, 10.98991
599.2280, 11.03193
599.7101, 11.07613
600.1922, 11.17562
600.6743, 11.38145
601.1564, 11.61897
601.6385, 11.85160
602.1207, 12.06641
602.6028, 12.20343
603.0849, 12.23457
603.5670, 12.27193
604.0491, 12.46640
604.5313, 12.84658
605.0134, 13.20834
605.4955, 13.70430
605.9776, 14.01189
606.4597, 13.89395
606.9418, 13.58792
607.4240, 13.38931
607.9061, 13.38478
608.3882, 13.46883
608.8703, 13.53370
609.3524, 13.58165
609.8345, 13.66092
610.3167, 13.81680
610.7988, 13.89263
611.2809, 13.78790
611.7630, 13.56443
612.2451, 13.29419
612.7272, 12.97621
613.2094, 12.64371
613.6915, 12.28266
614.1736, 11.93093
614.6557, 11.63838
615.1378, 11.40488
615.6199, 11.21114
616.1021, 11.04842
616.5842, 10.91141
617.0663, 10.79143
617.5484, 10.74935
618.0305, 10.61450
618.5126, 10.36609
618.9948, 10.05376
619.4769, 9.646154
619.9590, 9.202102
620.4411, 8.836477
620.9232, 8.601263
621.4053, 8.484247
621.8875, 8.527719
622.3696, 8.726854
622.8517, 8.761003
623.3338, 8.497759
623.8159, 8.213298
624.2980, 8.206187
624.7802, 8.371531
625.2623, 8.356578
625.7444, 8.015863
626.2265, 7.625648
626.7086, 7.257145
627.1907, 6.938856
627.6729, 6.757846
628.1550, 6.706670
628.6371, 6.604741
629.1192, 6.266799
629.6013, 5.743982
630.0834, 5.478713
630.5656, 5.652413
631.0477, 5.785758
631.5298, 5.814300
632.0119, 5.779063
632.4940, 5.657717
632.9761, 5.485782
633.4583, 5.397485
633.9404, 5.473596
634.4225, 5.678122
634.9046, 6.062722
635.3867, 6.596439
635.8688, 6.794356
636.3510, 6.391940
636.8331, 5.882572
637.3152, 5.939708
637.7973, 6.648904
638.2794, 6.908696
638.7615, 6.222926
639.2437, 5.624969
639.7258, 5.626056
640.2079, 5.941604
640.6900, 6.211529
641.1721, 6.318357
641.6542, 6.246102
642.1364, 5.896602
642.6185, 5.315172
643.1006, 5.150277
643.5827, 5.599530
644.0648, 6.030029
644.5469, 6.279438
645.0291, 6.370515
645.5112, 6.237442
645.9933, 5.882514
646.4754, 5.643921
646.9575, 5.828071
647.4396, 6.093449
647.9218, 6.032501
648.4039, 5.706450
648.8860, 5.416200
649.3681, 5.280608
649.8502, 5.240729
650.3323, 5.200380
650.8145, 5.132501
651.2966, 5.192369
651.7787, 5.542033
652.2608, 5.826906
652.7429, 6.008394
653.2250, 6.031981
653.7072, 5.755630
654.1893, 5.165448
654.6714, 4.600990
655.1535, 4.377833
655.6356, 4.435235
656.1177, 4.583826
656.5999, 4.822550
657.0820, 5.130623
657.5641, 5.556532
658.0462, 5.992440
658.5283, 6.235464
659.0104, 6.280571
659.4926, 6.226364
659.9747, 5.980546
660.4568, 5.738780
660.9389, 5.644982
661.4210, 5.646930
661.9031, 5.605034
662.3853, 5.467732
662.8674, 5.348987
663.3495, 5.431189
663.8316, 5.730750
664.3137, 5.996218
664.7958, 6.312840
665.2780, 6.438275
665.7601, 6.048202
666.2422, 5.512860
666.7243, 5.278634
667.2064, 5.421120
667.6885, 5.614234
668.1707, 5.715182
668.6528, 5.781629
669.1349, 5.943890
669.6170, 6.149876
670.0991, 6.125628
670.5812, 5.725272
671.0634, 5.198857
671.5455, 4.990955
672.0276, 5.195129
672.5097, 5.367511
672.9918, 5.560808
673.4739, 5.660183
673.9561, 5.539359
674.4382, 5.342823
674.9203, 5.275367
675.4024, 5.387601
675.8845, 5.499853
676.3666, 5.426096
676.8488, 5.260103
677.3309, 5.215100
677.8130, 5.299434
678.2951, 5.399457
678.7772, 5.465197
679.2593, 5.511212
679.7415, 5.564092
680.2236, 5.625570
680.7057, 5.689113
681.1878, 5.818616
681.6699, 5.882398
682.1520, 5.742311
682.6342, 5.527633
683.1163, 5.453227
683.5984, 5.575986
684.0805, 5.730892
684.5626, 5.698108
685.0447, 5.531955
685.5269, 5.559936
686.0090, 5.828252
686.4911, 6.047929
686.9732, 6.044460
687.4553, 5.969322
687.9374, 6.143714
688.4196, 6.630875
688.9017, 6.795307
689.3838, 6.249406
689.8659, 5.644669
690.3480, 5.272624
690.8301, 5.144492
691.3123, 5.311159
691.7944, 5.761002
692.2765, 6.240704
692.7586, 6.464234
693.2407, 6.444669
693.7228, 6.348882
694.2050, 6.134534
694.6871, 5.955237
695.1692, 5.858439
695.6513, 5.828426
696.1334, 5.901404
696.6155, 6.073088
697.0977, 6.085873
697.5798, 5.579912
698.0619, 5.155867
698.5440, 5.449780
699.0261, 6.117370
699.5082, 6.400176
699.9904, 6.098351
700.4725, 5.644885
700.9546, 5.511102
701.4367, 5.672500
701.9188, 5.736175
702.4009, 5.571809
702.8831, 5.570487
703.3652, 6.048482
703.8473, 6.561743
704.3294, 6.792413
704.8115, 6.746706
705.2936, 6.587125
705.7758, 6.234801
706.2579, 5.932111
706.7400, 5.931020
707.2221, 6.121577
707.7042, 6.268507
708.1863, 6.314983
708.6685, 6.320848
709.1505, 6.348402
709.6326, 6.381299
710.1147, 6.286184
710.5969, 5.972855
711.0790, 5.696660
711.5611, 5.400850
712.0432, 5.227242
712.5253, 5.295425
713.0074, 5.567716
713.4896, 5.945532
713.9717, 6.515051
714.4538, 6.943906
714.9359, 6.846142
715.4180, 6.401495
715.9001, 5.952730
716.3823, 5.568604
716.8644, 5.387927
717.3465, 5.556500
717.8286, 5.942255
718.3107, 6.034836
718.7928, 5.511859
719.2750, 5.310893
719.7571, 5.747762
720.2392, 6.203180
720.7213, 6.373435
721.2034, 6.336760
721.6855, 6.265352
722.1677, 6.206652
722.6498, 6.167266
723.1319, 6.176353
723.6140, 6.201437
724.0961, 6.168580
724.5782, 6.075584
725.0604, 5.988946
725.5425, 5.955227
726.0246, 5.913819
726.5067, 5.718460
726.9888, 5.245371
727.4709, 4.998399
727.9531, 5.218546
728.4352, 5.385663
728.9173, 5.162663
729.3994, 4.866781
729.8815, 4.977277
730.3636, 5.582350
730.8458, 6.172285
731.3279, 6.463628
731.8100, 6.478599
732.2921, 6.090884
732.7742, 5.394405
733.2563, 4.990517
733.7385, 5.123044
734.2206, 5.445309
734.7027, 5.490951
735.1848, 5.221504
735.6669, 5.261210
736.1490, 6.081803
736.6312, 6.603641
737.1133, 6.515882
737.5954, 6.166244
738.0775, 5.765481
738.5596, 5.380371
739.0417, 5.130817
739.5239, 5.125819
740.0060, 5.222849
740.4881, 5.263364
740.9702, 5.269130
741.4523, 5.327809
741.9344, 5.456863
742.4166, 5.539342
742.8987, 5.468286
743.3808, 5.277282
743.8629, 5.125274
744.3450, 4.936050
744.8271, 4.930380
745.3093, 5.205779
745.7914, 5.570977
746.2735, 6.114557
746.7556, 6.634358
747.2377, 6.682162
747.7198, 6.003093
748.2020, 5.329982
748.6841, 5.308532
749.1662, 5.624928
749.6483, 5.737667
750.1304, 5.631178
750.6125, 5.558498
751.0947, 5.653678
751.5768, 5.821610
752.0589, 5.903245
752.5410, 5.907812
753.0231, 5.769381
753.5052, 5.238078
753.9874, 4.903716
754.4695, 5.110487
754.9516, 5.490246
755.4337, 5.657625
755.9158, 5.570624
756.3979, 5.417513
756.8801, 5.209490
757.3622, 5.039600
757.8443, 4.981761
758.3264, 5.035383
758.8085, 5.281960
759.2906, 5.713153
759.7728, 6.002125
760.2549, 5.797163
760.7370, 5.192081
761.2191, 4.771345
761.7012, 4.571030
762.1833, 4.451989
762.6655, 4.333363
763.1476, 4.357652
763.6297, 4.785015
764.1118, 5.419288
764.5939, 5.696155
765.0760, 5.329616
765.5582, 4.942518
766.0403, 4.832016
766.5224, 4.861113
767.0045, 4.898866
767.4866, 4.929445
767.9688, 4.995298
768.4509, 5.122123
768.9330, 5.201324
769.4151, 4.979914
769.8972, 4.435614
770.3793, 4.164689
770.8615, 4.216971
771.3436, 4.453227
771.8257, 4.976888
772.3078, 5.531956
772.7899, 5.697553
773.2720, 5.439025
773.7542, 5.271426
774.2363, 5.450210
774.7184, 5.544853
775.2005, 5.169342
775.6826, 4.664961
776.1647, 4.550043
776.6469, 4.859086
777.1290, 5.166611
777.6111, 5.116566
778.0932, 4.882027
778.5753, 4.852180
779.0574, 5.021004
779.5396, 5.272763
780.0217, 5.651492
780.5038, 5.853791
780.9859, 5.554101
781.4680, 4.904725
781.9501, 4.575552
782.4323, 4.889018
782.9144, 4.980846
783.3965, 4.550328
783.8786, 4.152408
784.3607, 4.135782
784.8428, 4.366160
785.3250, 4.603902
785.8071, 4.774362
786.2892, 4.846571
786.7713, 4.744112
787.2534, 4.547482
787.7355, 4.343585
788.2177, 4.164340
788.6998, 4.232953
789.1819, 4.654813
789.6640, 5.130497
790.1461, 5.292926
790.6282, 5.143333
791.1104, 4.966866
791.5925, 4.767833
792.0746, 4.535255
792.5567, 4.048122
793.0388, 3.715429
793.5209, 3.905099
794.0031, 4.503747
794.4852, 5.135166
794.9673, 5.894044
795.4494, 6.258809
795.9315, 5.468896
796.4136, 4.348534
796.8958, 4.049569
797.3779, 4.514329
797.8600, 4.993283
798.3421, 5.100989
798.8242, 4.998383
799.3063, 4.933556
799.7885, 4.908068
800.2706, 4.862926
800.7527, 4.789065
801.2348, 4.712369
801.7169, 4.557163
802.1990, 4.480964
802.6812, 4.868908
803.1633, 5.732847
803.6454, 6.051702
804.1275, 5.100329
804.6096, 4.359904
805.0917, 4.520298
805.5739, 5.062640
806.0560, 5.565447
806.5381, 5.906418
807.0202, 6.002645
807.5023, 5.770404
807.9844, 5.376440
808.4666, 5.011707
808.9487, 4.680648
809.4308, 4.391425
809.9129, 4.143466
810.3950, 3.970861
810.8771, 3.880799
811.3593, 3.910113
811.8414, 4.164635
812.3235, 4.768948
812.8056, 5.132126
813.2877, 5.019443
813.7698, 4.956800
814.2520, 5.173958
814.7341, 5.448896
815.2162, 5.514205
815.6983, 5.374861
816.1804, 5.321860
816.6625, 5.742165
817.1447, 6.012971
817.6268, 5.393149
818.1089, 4.444098
818.5910, 4.145711
819.0731, 4.535046
819.5552, 4.891185
820.0374, 4.729842
820.5195, 4.330508
821.0016, 4.305853
821.4837, 4.669634
821.9658, 4.883968
822.4479, 4.856733
822.9301, 4.870567
823.4122, 5.125479
823.8943, 5.455577
824.3764, 5.562954
824.8585, 5.408456
825.3406, 5.235601
825.8228, 4.978103
826.3049, 4.793499
826.7870, 4.693752
827.2691, 4.720395
827.7512, 5.050732
828.2333, 5.586023
828.7155, 5.846213
829.1976, 5.431169
829.6797, 4.901363
830.1618, 4.996968
830.6439, 5.439479
831.1260, 5.510525
831.6082, 5.162471
832.0903, 4.847077
832.5724, 4.817440
833.0545, 5.010380
833.5366, 5.368825
834.0187, 5.973554
834.5009, 6.146308
834.9830, 5.635983
835.4651, 5.198295
835.9472, 5.106151
836.4293, 5.220468
836.9114, 5.500216
837.3936, 5.918830
837.8757, 5.988091
838.3578, 5.306233
838.8399, 4.671132
839.3220, 4.259387
839.8041, 4.121965
840.2863, 4.442166
840.7684, 5.080642
841.2505, 5.647267
841.7326, 5.959749
842.2147, 6.101000
842.6968, 6.183058
843.1790, 6.171365
843.6611, 5.864141
844.1432, 5.287033
844.6253, 4.946303
845.1074, 5.075491
845.5895, 5.400157
846.0717, 5.565492
846.5538, 5.570324
847.0359, 5.545056
847.5180, 5.453158
848.0001, 5.405185
848.4822, 5.537682
848.9644, 5.611255
849.4465, 5.302587
849.9286, 4.803639
850.4107, 4.720769
850.8928, 5.371640
851.3749, 5.939683
851.8571, 6.121813
852.3392, 6.122596
852.8213, 6.040072
853.3034, 5.928305
853.7855, 5.852401
854.2676, 5.833746
854.7498, 5.855655
855.2319, 5.940254
855.7140, 6.034684
856.1961, 5.954920
856.6782, 5.744066
857.1603, 5.755470
857.6425, 6.091337
858.1246, 6.426366
858.6067, 6.497684
859.0888, 6.344699
859.5709, 6.099372
860.0530, 5.703080
860.5352, 5.359772
861.0173, 4.951840
861.4994, 4.766710
861.9815, 5.129989
862.4636, 5.680979
862.9457, 5.952651
863.4279, 5.900901
863.9100, 5.754467
864.3921, 5.443220
864.8742, 5.195357
865.3563, 5.043089
865.8384, 5.076155
866.3206, 5.581132
866.8027, 6.411456
867.2848, 6.940015
867.7669, 6.770436
868.2490, 6.298056
868.7311, 5.936382
869.2133, 5.697302
869.6954, 5.642345
870.1775, 5.764813
870.6596, 5.953690
871.1417, 6.169753
871.6238, 6.344923
872.1060, 6.379821
872.5881, 6.275022
873.0702, 6.119234
873.5523, 5.807345
874.0344, 5.727334
874.5165, 6.157633
874.9987, 6.625216
875.4808, 6.767145
875.9629, 6.644904
876.4450, 6.399138
876.9271, 5.886897
877.4092, 5.577053
877.8914, 5.707310
878.3735, 5.916137
878.8556, 6.027935
879.3377, 6.049951
879.8198, 5.987720
880.3019, 5.859011
880.7841, 5.784720
881.2662, 5.954656
881.7483, 6.119967
882.2304, 5.864238
882.7125, 5.384562
883.1946, 5.144247
883.6768, 5.211489
884.1589, 5.444775
884.6410, 5.768285
885.1231, 6.107940
885.6052, 6.329935
886.0873, 6.435349
886.5695, 6.378198
887.0516, 6.109486
887.5337, 5.883554
888.0158, 5.821761
888.4979, 5.807359
888.9800, 5.715482
889.4622, 5.545674
889.9443, 5.297034
890.4264, 4.641655
890.9085, 4.380630
891.3906, 4.999166
891.8727, 5.632715
892.3549, 5.743700
892.8370, 5.479336
893.3191, 5.127735
893.8012, 4.721003
894.2833, 4.487043
894.7654, 4.714126
895.2476, 4.990864
895.7297, 4.902375
896.2118, 4.647526
896.6939, 4.593003
897.1760, 4.789842
897.6581, 5.058352
898.1403, 5.316673
898.6224, 5.453071
899.1045, 5.106763
899.5866, 4.457968
900.0687, 4.426997
900.5508, 5.078636
901.0330, 5.491100
901.5151, 5.182748
901.9972, 4.702784
902.4793, 4.934639
902.9614, 5.879747
903.4435, 6.165019
903.9257, 5.534696
904.4078, 4.891910
904.8899, 4.230624
905.3720, 3.855711
905.8541, 4.264068
906.3362, 5.128335
906.8184, 5.410908
907.3005, 4.825870
907.7826, 4.322529
908.2647, 3.814550
908.7468, 3.639191
909.2289, 4.314021
909.7111, 5.208644
910.1932, 5.513763
910.6753, 5.177493
911.1574, 4.778818
911.6395, 4.613694
912.1216, 4.463929
912.6038, 3.990532
913.0859, 3.516129
913.5680, 3.582949
914.0501, 4.104179
914.5322, 4.651616
915.0143, 5.031882
915.4965, 5.180137
915.9786, 4.863694
916.4607, 4.278826
916.9428, 4.181748
917.4249, 4.536172
917.9070, 4.881443
918.3892, 5.115849
918.8713, 5.188195
919.3534, 5.017831
919.8355, 4.723366
920.3176, 4.693041
920.7997, 5.031535
921.2819, 5.252213
921.7640, 5.380853
922.2461, 5.326207
922.7282, 4.992938
923.2103, 4.507328
923.6924, 3.871511
924.1746, 3.113064
924.6567, 2.911895
925.1388, 3.820447
925.6209, 4.547654
926.1030, 4.739564
926.5851, 4.797213
927.0673, 5.021322
927.5494, 5.298926
928.0315, 5.366970
928.5136, 5.156766
928.9957, 4.938527
929.4778, 4.858356
929.9600, 4.822314
930.4421, 4.835055
930.9242, 4.799430
931.4063, 4.450719
931.8884, 3.872456
932.3705, 3.535695
932.8527, 3.716014
933.3348, 4.147068
933.8169, 4.640694
934.2990, 5.076494
934.7811, 4.979533
935.2632, 4.431002
935.7454, 4.146001
936.2275, 4.360291
936.7096, 4.694373
937.1917, 4.783743
937.6738, 4.682340
938.1559, 4.579618
938.6381, 4.468846
939.1202, 4.427675
939.6023, 4.488853
940.0844, 4.539942
940.5665, 4.532128
941.0486, 4.468411
941.5308, 4.326951
942.0129, 4.084950
942.4950, 4.014714
942.9771, 4.239668
943.4592, 4.450863
943.9413, 4.567827
944.4235, 4.695182
944.9056, 4.969394
945.3877, 5.286637
945.8698, 5.403916
946.3519, 5.247623
946.8340, 5.089882
947.3162, 5.036459
947.7983, 4.956584
948.2804, 4.723928
948.7625, 4.467072
949.2446, 4.269028
949.7267, 4.186763
950.2089, 4.382605
950.6910, 5.037807
951.1731, 5.622140
951.6552, 5.542603
952.1373, 5.286215
952.6194, 5.505953
953.1016, 6.060241
953.5837, 6.543363
954.0658, 6.824489
954.5479, 6.935683
955.0300, 6.867217
955.5121, 6.716956
955.9943, 6.647313
956.4763, 6.652949
956.9584, 6.698686
957.4406, 6.786619
957.9227, 7.003704
958.4048, 7.397481
958.8869, 7.851308
959.3690, 8.211881
959.8511, 8.490046
960.3333, 8.797744
960.8154, 9.159312
961.2975, 9.324518
961.7796, 9.168005
962.2617, 9.072196
962.7438, 9.273623
963.2260, 9.716175
963.7081, 10.32270
964.1902, 11.18494
964.6723, 11.70502
965.1544, 11.44953
965.6365, 11.57045
966.1187, 12.34377
966.6008, 13.57582
967.0829, 15.27896
967.5650, 17.31043
968.0471, 19.17729
968.5292, 20.59714
969.0114, 22.53842
969.4935, 25.42824
969.9756, 28.53050
970.4577, 31.76001
970.9398, 34.88068
971.4219, 37.65016
971.9041, 40.09197
972.3862, 42.41565
972.8683, 44.58389
973.3504, 46.86866
973.8325, 49.40073
974.3146, 52.13201
974.7968, 55.01320
975.2789, 58.05355
975.7610, 61.10203
976.2431, 64.23664
976.7252, 68.12473
977.2073, 73.31398
977.6895, 79.20772
978.1716, 85.33921
978.6537, 91.61926
979.1358, 97.80651
979.6179, 104.0692
980.1000, 111.1580
980.5822, 119.3142
981.0643, 127.6667
981.5464, 135.7359
982.0285, 142.8937
982.5106, 148.1849
982.9927, 151.2079
983.4749, 149.9447
983.9570, 144.1599
984.4391, 134.3890
984.9212, 120.7418
985.4033, 105.1005
985.8854, 89.74953
986.3676, 74.85801
986.8497, 62.42773
987.3318, 52.53086
987.8139, 44.36385
988.2960, 37.88900
988.7781, 32.64551
989.2603, 28.40448
989.7424, 25.02269
990.2245, 22.17091
990.7066, 19.85969
991.1887, 18.01555
991.6708, 16.82047
992.1530, 15.60669
992.6351, 14.12823
993.1172, 12.71584
993.5993, 11.64999
994.0814, 10.83013
994.5635, 9.921336
995.0457, 8.711716
995.5278, 8.015603
996.0099, 8.280972
996.4920, 8.466763
996.9741, 8.153271
997.4562, 7.789717
997.9384, 7.882069
998.4205, 8.253671
998.9026, 8.232514
999.3847, 7.573157
999.8668, 6.948031
1000.349, 6.416690
1000.831, 6.029331
1001.313, 5.811285
1001.795, 5.749276
1002.277, 5.979434
1002.760, 6.373786
1003.242, 6.386499
1003.724, 5.637507
1004.206, 5.018058
1004.688, 5.002570
1005.170, 5.207225
1005.652, 5.556161
1006.134, 5.812368
1006.616, 5.531495
1007.099, 4.774520
1007.581, 4.187943
1008.063, 4.085538
1008.545, 4.263228
1009.027, 4.851630
1009.509, 5.402217
1009.991, 5.183991
1010.473, 4.552042
1010.956, 4.440530
1011.438, 4.976677
1011.920, 5.328014
1012.402, 4.812985
1012.884, 4.140256
1013.366, 4.388690
1013.848, 5.006459
1014.330, 4.724869
1014.812, 3.809955
1015.295, 3.607685
1015.777, 4.463021
1016.259, 5.289720
1016.741, 5.095557
1017.223, 4.433480
1017.705, 4.240530
1018.187, 4.458541
1018.669, 5.101665
1019.151, 6.044765
1019.634, 6.383654
1020.116, 5.795718
1020.598, 5.006357
1021.080, 4.766762
1021.562, 4.869613
1022.044, 4.725710
1022.526, 4.360490
1023.008, 3.979886
1023.491, 3.603044
1023.973, 3.533370
1024.455, 3.918168
1024.937, 4.481412
1025.419, 4.955764
1025.901, 5.290944
1026.383, 5.158655
1026.865, 4.507442
1027.348, 4.189922
1027.830, 4.317342
1028.312, 4.647846
1028.794, 5.145300
1029.276, 5.549949
1029.758, 5.492298
1030.240, 5.051248
1030.722, 4.905673
1031.204, 5.202651
1031.687, 5.077315
1032.169, 4.255254
1032.651, 3.584064
1033.133, 3.514983
1033.615, 3.686398
1034.097, 3.595786
1034.579, 3.280075
1035.061, 3.345662
1035.543, 4.000459
1036.026, 4.500688
1036.508, 4.794711
1036.990, 4.900085
1037.472, 4.677752
1037.954, 4.421977
1038.436, 4.537191
1038.918, 5.010414
1039.400, 5.489556
1039.883, 6.190326
1040.365, 6.481651
1040.847, 6.115983
1041.329, 5.612572
1041.811, 5.059351
1042.293, 4.581802
1042.775, 4.356567
1043.257, 4.379755
1043.740, 4.471672
1044.222, 4.646560
1044.704, 4.868091
1045.186, 5.152377
1045.668, 5.463300
1046.150, 6.021736
1046.632, 6.448488
1047.114, 6.025871
1047.596, 4.852423
1048.078, 4.431456
1048.561, 5.663213
1049.043, 6.477338
1049.525, 6.278886
1050.007, 6.020960
1050.489, 6.262718
1050.971, 6.629262
1051.453, 6.634001
1051.935, 6.289424
1052.418, 5.954494
1052.900, 5.427853
1053.382, 5.360225
1053.864, 6.461688
1054.346, 7.383890
1054.828, 7.206645
1055.310, 6.609205
1055.792, 6.444178
1056.275, 6.693417
1056.757, 6.765182
1057.239, 6.360134
1057.721, 6.122432
1058.203, 6.498532
1058.685, 6.778171
1059.167, 6.404183
1059.649, 5.831927
1060.131, 5.557805
1060.614, 5.608952
1061.096, 5.857175
1061.578, 6.430861
1062.060, 6.765785
1062.542, 6.500024
1063.024, 6.135594
1063.506, 5.872329
1063.988, 5.725736
1064.470, 5.726568
1064.953, 5.844453
1065.435, 5.964060
1065.917, 6.020406
1066.399, 6.203618
1066.881, 6.910669
1067.363, 7.394105
1067.845, 6.913831
1068.327, 6.206472
1068.810, 6.228906
1069.292, 6.769637
1069.774, 6.843614
1070.256, 6.071206
1070.738, 5.466866
1071.220, 5.629161
1071.702, 5.896625
1072.184, 5.889826
1072.667, 5.790241
1073.149, 5.834121
1073.631, 5.957225
1074.113, 5.851308
1074.595, 5.387084
1075.077, 5.300457
1075.559, 6.598634
1076.041, 7.544088
1076.523, 6.725216
1077.005, 5.457951
1077.488, 4.941000
1077.970, 5.066401
1078.452, 5.383685
1078.934, 5.783960
1079.416, 6.013770
1079.898, 5.726615
1080.380, 5.538959
1080.862, 5.987159
1081.344, 6.483041
1081.827, 6.367880
1082.309, 5.946457
1082.791, 5.897354
1083.273, 6.321818
1083.755, 6.651891
1084.237, 6.631133
1084.719, 6.490336
1085.201, 6.191011
1085.684, 5.959336
1086.166, 6.079715
1086.648, 6.339746
1087.130, 6.377082
1087.612, 6.168458
1088.094, 6.010369
1088.576, 6.068193
1089.058, 6.083509
1089.541, 5.727595
1090.023, 5.519415
1090.505, 6.092628
1090.987, 6.866751
1091.469, 6.959515
1091.951, 6.453167
1092.433, 6.224311
1092.915, 6.658676
1093.397, 7.043151
1093.880, 7.036026
1094.362, 6.970680
1094.844, 7.102293
1095.326, 7.232579
1095.808, 7.109946
1096.290, 6.784165
1096.772, 6.464867
1097.254, 6.197999
1097.736, 5.963525
1098.219, 5.515209
1098.701, 5.401687
1099.183, 6.327146
1099.665, 7.296788
1100.147, 7.280628
1100.629, 6.642010
1101.111, 6.349257
1101.593, 6.597895
1102.076, 6.673842
1102.558, 6.264112
1103.040, 5.826428
1103.522, 5.474776
1104.004, 5.179850
1104.486, 4.784204
1104.968, 4.496112
1105.450, 4.846687
1105.932, 5.839177
1106.415, 6.229552
1106.897, 5.189955
1107.379, 4.416346
1107.861, 4.342154
1108.343, 4.484567
1108.825, 4.723703
1109.307, 4.954180
1109.789, 5.097492
1110.271, 5.135995
1110.754, 4.991390
1111.236, 4.499330
1111.718, 4.134196
1112.200, 4.046691
1112.682, 3.952211
1113.164, 3.681669
1113.646, 3.420520
1114.128, 3.341496
1114.611, 3.409168
1115.093, 3.497903
1115.575, 3.591300
1116.057, 3.755277
1116.539, 4.119570
1117.021, 4.354208
1117.503, 4.242997
1117.985, 4.170476
1118.468, 4.518546
1118.950, 4.992688
1119.432, 4.959160
1119.914, 4.342958
1120.396, 4.169668
1120.878, 4.883189
1121.360, 5.042117
1121.842, 4.097909
1122.324, 3.293105
1122.807, 3.303960
1123.289, 3.664261
1123.771, 3.789351
1124.253, 3.714574
1124.735, 3.730839
1125.217, 3.823463
1125.699, 4.100755
1126.181, 4.695044
1126.663, 5.054316
1127.146, 4.917315
1127.628, 4.665037
1128.110, 4.619567
1128.592, 4.759444
1129.074, 5.068133
1129.556, 5.581029
1130.038, 5.855468
1130.520, 5.865692
1131.003, 5.784082
1131.485, 5.622471
1131.967, 5.576941
1132.449, 5.804883
1132.931, 6.079099
1133.413, 5.934204
1133.895, 5.505496
1134.377, 5.938858
1134.859, 7.189718
1135.342, 7.666120
1135.824, 7.171801
1136.306, 6.843876
1136.788, 7.182785
1137.270, 7.676093
1137.752, 7.789161
1138.234, 7.649952
1138.716, 7.564566
1139.198, 7.506021
1139.681, 7.308013
1140.163, 7.005056
1140.645, 6.868668
1141.127, 6.958064
1141.609, 7.064590
1142.091, 7.040095
1142.573, 6.998170
1143.055, 7.214157
1143.538, 7.461501
1144.020, 7.147335
1144.502, 6.512043
1144.984, 6.249217
1145.466, 6.355323
1145.948, 6.233621
1146.430, 5.641307
1146.912, 5.260777
1147.395, 6.010225
1147.877, 6.913458
1148.359, 6.737116
1148.841, 6.106198
1149.323, 5.860492
1149.805, 5.931131
1150.287, 5.992604
1150.769, 5.953780
1151.251, 5.833142
1151.734, 5.601467
1152.216, 5.390663
1152.698, 5.474396
1153.180, 5.422724
1153.662, 4.573375
1154.144, 3.579004
1154.626, 3.378096
1155.108, 3.840856
1155.590, 4.207682
1156.073, 4.264291
1156.555, 4.306762
1157.037, 4.315536
1157.519, 4.494302
1158.001, 5.288845
1158.483, 5.928870
1158.965, 5.606668
1159.447, 4.830752
1159.930, 4.596932
1160.412, 4.970608
1160.894, 4.927695
1161.376, 3.700481
1161.858, 3.090786
1162.340, 3.841071
1162.822, 4.474708
1163.304, 4.326512
1163.786, 3.959335
1164.269, 3.928791
1164.751, 4.096780
1165.233, 3.946482
1165.715, 3.319160
1166.197, 3.118271
1166.679, 3.577474
1167.161, 3.763875
1167.643, 3.328931
1168.125, 3.083204
1168.608, 3.641422
1169.090, 4.327606
1169.572, 4.041785
1170.054, 2.976383
1170.536, 2.688735
1171.018, 3.224643
1171.500, 3.408215
1171.982, 3.125341
1172.465, 2.985706
1172.947, 3.205930
1173.429, 3.501683
1173.911, 3.647267
1174.393, 3.662547
1174.875, 3.522816
1175.357, 3.293519
1175.839, 3.257962
1176.322, 3.365934
1176.804, 3.366349
1177.286, 3.243353
1177.768, 3.220128
1178.250, 3.391434
1178.732, 3.469642
1179.214, 3.035860
1179.696, 2.556125
1180.178, 2.782046
1180.661, 3.290031
1181.143, 3.492302
1181.625, 3.395486
1182.107, 3.013290
1182.589, 2.464349
1183.071, 2.206099
1183.553, 2.474483
1184.035, 2.992752
1184.517, 4.046808
1185.000, 4.760699
1185.482, 4.082003
1185.964, 3.098338
1186.446, 3.120818
1186.928, 3.761502
1187.410, 3.833483
1187.892, 3.118638
1188.374, 2.692877
1188.857, 2.949649
1189.339, 3.306489
1189.821, 4.057420
1190.303, 4.387983
1190.785, 3.320504
1191.267, 2.103827
1191.749, 2.245768
1192.231, 3.358807
1192.714, 3.937376
1193.196, 3.864972
1193.678, 3.683318
1194.160, 3.295393
1194.642, 3.080531
1195.124, 3.173931
1195.606, 3.270677
1196.088, 3.187869
1196.570, 3.035556
1197.052, 2.951508
1197.535, 2.944670
1198.017, 3.117173
1198.499, 3.459837
1198.981, 3.539686
1199.463, 3.342729
1199.945, 3.241349
1200.427, 3.336658
1200.909, 3.386580
1201.392, 3.211079
1201.874, 3.021719
1202.356, 3.239446
1202.838, 3.592451
1203.320, 3.437275
1203.802, 2.974474
1204.284, 2.622876
1204.766, 2.421817
1205.249, 2.274986
1205.731, 2.161365
1206.213, 2.192121
1206.695, 2.488968
1207.177, 2.822755
1207.659, 3.060471
1208.141, 3.213625
1208.623, 3.286862
1209.105, 3.284685
1209.588, 3.218888
1210.070, 3.080535
1210.552, 2.770349
1211.034, 2.217006
1211.516, 2.007719
1211.998, 2.470396
1212.480, 3.010340
1212.962, 3.813067
1213.444, 4.275559
1213.927, 3.755489
1214.409, 2.998832
1214.891, 2.831462
1215.373, 3.118704
1215.855, 3.253743
1216.337, 3.187916
1216.819, 3.180125
1217.301, 3.238357
1217.784, 3.339516
1218.266, 3.502703
1218.748, 3.587775
1219.230, 3.507443
1219.712, 3.357677
1220.194, 3.248463
1220.676, 3.189416
1221.158, 3.250483
1221.641, 3.393231
1222.123, 3.366549
1222.605, 3.208907
1223.087, 3.227399
1223.569, 3.462405
1224.051, 3.640787
1224.533, 3.608475
1225.015, 3.507442
1225.497, 3.472337
1225.979, 3.454398
1226.462, 3.416026
1226.944, 3.344838
1227.426, 3.198078
1227.908, 3.016307
1228.390, 2.903728
1228.872, 2.856207
1229.354, 2.706987
1229.836, 2.271502
1230.319, 2.103535
1230.801, 2.642996
1231.283, 3.160264
1231.765, 3.429106
1232.247, 3.472523
1232.729, 3.149920
1233.211, 2.698333
1233.693, 2.567783
1234.176, 2.743035
1234.658, 2.754374
1235.140, 2.481689
1235.622, 2.444363
1236.104, 2.776434
1236.586, 2.922020
1237.068, 2.687183
1237.550, 2.353723
1238.032, 2.094073
1238.515, 1.996051
1238.997, 2.263302
1239.479, 2.785452
1239.961, 3.129399
1240.443, 3.322428
1240.925, 3.475339
1241.407, 3.600321
1241.889, 3.705751
1242.371, 3.783674
1242.854, 3.729306
1243.336, 3.433202
1243.818, 3.265784
1244.300, 3.805271
1244.782, 4.396195
1245.264, 4.345780
1245.746, 4.015844
1246.228, 3.765017
1246.711, 3.636693
1247.193, 3.699380
1247.675, 3.918386
1248.157, 3.871476
1248.639, 3.208143
1249.121, 2.774537
1249.603, 2.874996
1250.085, 3.011163
1250.568, 3.086733
1251.050, 3.062039
1251.532, 2.775220
1252.014, 2.517334
1252.496, 2.836118
1252.978, 3.657202
1253.460, 4.193995
1253.942, 4.462607
1254.424, 4.142453
1254.906, 3.185155
1255.389, 2.600127
1255.871, 2.663457
1256.353, 2.993442
1256.835, 3.364852
1257.317, 3.643212
1257.799, 3.637517
1258.281, 3.445739
1258.763, 3.139389
1259.246, 2.838909
1259.728, 2.753839
1260.210, 2.862168
1260.692, 3.174986
1261.174, 3.594831
1261.656, 3.704846
1262.138, 3.260726
1262.620, 2.928648
1263.103, 3.210498
1263.585, 3.410779
1264.067, 2.977228
1264.549, 2.612312
1265.031, 3.020648
1265.513, 3.660017
1265.995, 3.696867
1266.477, 3.259047
1266.959, 3.052784
1267.442, 3.170084
1267.924, 3.116559
1268.406, 2.834945
1268.888, 2.666847
1269.370, 2.698545
1269.852, 2.638890
1270.334, 2.323394
1270.816, 2.073176
1271.298, 2.236584
1271.781, 2.678337
1272.263, 3.357858
1272.745, 3.992662
1273.227, 3.610388
1273.709, 2.698141
1274.191, 2.600977
1274.673, 3.247175
1275.155, 3.600485
1275.638, 3.333710
1276.120, 3.062834
1276.602, 3.134007
1277.084, 3.259612
1277.566, 3.358026
1278.048, 3.395263
1278.530, 3.249647
1279.012, 3.120732
1279.495, 3.265874
##END=



