##NAMES=Chalcostibite
##RRUFFID=R060262
##IDEAL CHEMISTRY=Cu^1+^Sb^3+^S^2-^_2_
##LOCALITY=Rar el Anz, Wadi of Cherrat, east of Casablanca, Morocco
##OWNER=RRUFF
##SOURCE=Michael Scott
##DESCRIPTION=Lead gray metallic bleb associated with azurite
##STATUS=The identification of this mineral is confirmed by single-crystal X-ray diffraction and chemical analysis.
##URL=rruff.info/R060262
##MEASURED CHEMISTRY=Cu_1.00_Sb_1.00_S_2.00_
91.53320, 251.8125
92.01532, 253.0003
92.49744, 252.7706
92.97955, 254.0865
93.46167, 254.5401
93.94379, 253.2537
94.42590, 252.0131
94.90802, 250.6264
95.39014, 248.2619
95.87225, 244.8414
96.35437, 241.0321
96.83649, 236.6418
97.31860, 232.4124
97.80072, 229.2303
98.28284, 227.4846
98.76495, 226.6149
99.24707, 225.0781
99.72919, 222.9383
100.2113, 220.1228
100.6934, 215.3268
101.1755, 209.7055
101.6577, 205.6639
102.1398, 205.6429
102.6219, 210.9188
103.1040, 213.3012
103.5861, 211.4793
104.0682, 208.6857
104.5504, 206.2128
105.0325, 204.4309
105.5146, 203.4257
105.9967, 203.4644
106.4788, 205.1977
106.9609, 206.2322
107.4431, 205.7785
107.9252, 204.7171
108.4073, 204.3559
108.8894, 205.2817
109.3715, 206.6635
109.8536, 207.0011
110.3358, 206.1725
110.8179, 205.1861
111.3000, 204.2531
111.7821, 203.4385
112.2642, 203.4119
112.7463, 204.5802
113.2285, 206.6754
113.7106, 209.6276
114.1927, 213.6679
114.6748, 217.8781
115.1569, 220.9654
115.6390, 222.7335
116.1212, 223.8524
116.6033, 224.4361
117.0854, 224.6273
117.5675, 224.2551
118.0496, 223.0147
118.5317, 221.4726
119.0139, 222.3820
119.4960, 228.2082
119.9781, 234.1370
120.4602, 239.5547
120.9423, 244.4604
121.4244, 249.0820
121.9066, 253.6837
122.3887, 258.3762
122.8708, 261.3548
123.3529, 261.5921
123.8350, 261.4873
124.3171, 262.0369
124.7993, 263.3266
125.2814, 264.9266
125.7635, 266.3422
126.2456, 267.4572
126.7277, 269.4195
127.2098, 273.4518
127.6920, 277.7969
128.1741, 280.3227
128.6562, 280.3499
129.1383, 279.7568
129.6204, 281.4642
130.1025, 285.2194
130.5847, 287.7774
131.0668, 286.7691
131.5489, 283.2928
132.0310, 281.2109
132.5131, 281.7347
132.9952, 283.5877
133.4774, 286.0683
133.9595, 289.1149
134.4416, 291.3102
134.9237, 291.1903
135.4058, 288.4869
135.8879, 285.3187
136.3701, 280.9320
136.8522, 276.9364
137.3343, 274.7124
137.8164, 274.5193
138.2985, 274.9763
138.7806, 273.7755
139.2628, 270.5122
139.7449, 266.0379
140.2270, 259.1773
140.7091, 251.9413
141.1912, 246.1912
141.6733, 242.7890
142.1555, 241.1083
142.6376, 239.0787
143.1197, 236.3110
143.6018, 233.5984
144.0839, 231.1231
144.5660, 228.7419
145.0482, 226.0713
145.5303, 222.7726
146.0124, 219.0981
146.4945, 216.9130
146.9766, 217.3302
147.4587, 217.7863
147.9409, 216.9761
148.4230, 215.1494
148.9051, 213.6298
149.3872, 213.6026
149.8693, 214.6911
150.3514, 214.6017
150.8336, 211.7487
151.3157, 208.6562
151.7978, 208.0311
152.2799, 210.2710
152.7620, 212.4658
153.2441, 211.5034
153.7263, 208.9893
154.2084, 207.6663
154.6905, 209.2719
155.1726, 212.5680
155.6547, 214.9223
156.1368, 216.2751
156.6190, 216.6326
157.1011, 215.5216
157.5832, 213.5778
158.0653, 212.0431
158.5474, 211.9519
159.0295, 213.1619
159.5117, 213.7807
159.9938, 213.5157
160.4759, 212.8597
160.9580, 211.5639
161.4401, 209.9559
161.9222, 208.7612
162.4044, 208.6783
162.8865, 209.8717
163.3686, 211.2664
163.8507, 213.9698
164.3328, 215.9470
164.8149, 215.9744
165.2971, 214.1857
165.7792, 211.6561
166.2613, 209.5029
166.7434, 207.4654
167.2255, 206.8853
167.7076, 209.1455
168.1898, 211.7070
168.6719, 212.6293
169.1540, 211.5805
169.6361, 209.7779
170.1182, 208.9429
170.6003, 209.6381
171.0825, 209.9220
171.5646, 209.2004
172.0467, 208.2253
172.5288, 208.0004
173.0109, 208.8871
173.4930, 210.1033
173.9752, 210.2379
174.4573, 209.1881
174.9394, 208.2548
175.4215, 207.5943
175.9036, 207.3202
176.3857, 207.8587
176.8679, 209.7320
177.3500, 211.8448
177.8321, 212.7647
178.3142, 212.4706
178.7963, 211.7405
179.2784, 210.7961
179.7606, 209.6897
180.2427, 208.8959
180.7248, 208.4523
181.2069, 208.5114
181.6890, 209.3120
182.1711, 210.9019
182.6533, 212.6052
183.1354, 213.6611
183.6175, 213.9470
184.0996, 214.5600
184.5817, 216.8938
185.0638, 218.9164
185.5460, 219.1558
186.0281, 217.3340
186.5102, 214.6444
186.9923, 212.7305
187.4744, 211.8779
187.9565, 211.0737
188.4387, 210.1679
188.9208, 209.2638
189.4029, 208.0885
189.8850, 206.6355
190.3671, 205.6768
190.8492, 207.0379
191.3314, 214.0792
191.8135, 217.7703
192.2956, 215.2021
192.7777, 210.6500
193.2598, 207.7526
193.7419, 207.9548
194.2241, 210.3310
194.7062, 212.6590
195.1883, 217.0089
195.6704, 218.6789
196.1525, 214.6457
196.6346, 208.8182
197.1168, 206.1983
197.5989, 209.0659
198.0810, 215.2045
198.5631, 218.1443
199.0452, 214.6749
199.5273, 212.4759
200.0095, 213.6992
200.4916, 216.8427
200.9737, 219.6081
201.4558, 221.0839
201.9379, 221.3542
202.4200, 220.4214
202.9022, 217.1318
203.3843, 214.8300
203.8664, 215.7403
204.3485, 218.7010
204.8306, 220.3231
205.3127, 218.6796
205.7949, 215.3412
206.2770, 213.8527
206.7591, 214.7366
207.2412, 216.0916
207.7233, 217.0019
208.2054, 217.5016
208.6876, 217.7540
209.1697, 217.6910
209.6518, 217.4996
210.1339, 217.4768
210.6160, 217.6814
211.0981, 217.9151
211.5803, 217.8460
212.0624, 217.4711
212.5445, 217.6165
213.0266, 219.1538
213.5087, 220.9981
213.9908, 222.0998
214.4730, 222.2320
214.9551, 222.0099
215.4372, 221.9354
215.9193, 221.9477
216.4014, 222.4917
216.8836, 224.9997
217.3657, 227.3537
217.8478, 227.8421
218.3299, 226.0249
218.8120, 223.3432
219.2941, 221.5451
219.7763, 220.5476
220.2584, 220.7911
220.7405, 223.9061
221.2226, 227.2573
221.7047, 228.9518
222.1868, 228.4968
222.6690, 226.8610
223.1511, 225.3623
223.6332, 223.5382
224.1153, 223.0150
224.5974, 225.1457
225.0795, 227.6537
225.5617, 228.7279
226.0438, 227.9189
226.5259, 226.2957
227.0080, 225.7276
227.4901, 226.8641
227.9722, 227.9566
228.4544, 229.3132
228.9365, 230.3954
229.4186, 230.6532
229.9007, 229.9798
230.3828, 228.8136
230.8649, 227.8667
231.3471, 226.7559
231.8292, 226.6090
232.3113, 228.7096
232.7934, 230.9482
233.2755, 231.3785
233.7576, 229.5313
234.2398, 226.6007
234.7219, 224.5283
235.2040, 223.3778
235.6861, 223.2141
236.1682, 225.0401
236.6503, 227.2883
237.1325, 228.4563
237.6146, 228.1636
238.0967, 227.2000
238.5788, 226.7126
239.0609, 226.9194
239.5430, 227.1651
240.0252, 227.8039
240.5073, 228.2912
240.9894, 227.8948
241.4715, 226.4442
241.9536, 224.7115
242.4357, 223.6996
242.9179, 223.5291
243.4000, 223.6294
243.8821, 223.8343
244.3642, 224.3438
244.8463, 225.7660
245.3284, 228.2982
245.8106, 230.5186
246.2927, 230.3404
246.7748, 227.6489
247.2569, 225.7509
247.7390, 225.4194
248.2211, 226.0020
248.7033, 226.8951
249.1854, 228.0659
249.6675, 229.1442
250.1496, 230.0652
250.6317, 230.7452
251.1138, 230.1064
251.5960, 226.4999
252.0781, 222.0474
252.5602, 219.4642
253.0423, 219.1178
253.5244, 219.9753
254.0065, 222.2614
254.4887, 225.2466
254.9708, 226.6689
255.4529, 224.4445
255.9350, 220.9462
256.4171, 219.9858
256.8992, 222.3136
257.3813, 224.2320
257.8635, 221.9461
258.3456, 217.5058
258.8277, 214.2585
259.3098, 213.1375
259.7919, 213.7396
260.2740, 216.3227
260.7562, 221.6613
261.2383, 225.6217
261.7204, 224.2625
262.2025, 220.4710
262.6846, 217.5490
263.1667, 216.3655
263.6489, 216.5376
264.1310, 218.0974
264.6131, 221.6191
265.0952, 224.0196
265.5773, 222.8594
266.0594, 220.2721
266.5416, 217.9767
267.0237, 216.2724
267.5058, 215.4286
267.9879, 216.3252
268.4700, 219.5646
268.9521, 221.7421
269.4343, 220.7202
269.9164, 218.6544
270.3985, 217.0174
270.8806, 216.1607
271.3627, 215.7477
271.8448, 215.4289
272.3270, 215.2231
272.8091, 215.0028
273.2912, 214.7449
273.7733, 214.4544
274.2554, 214.0927
274.7375, 213.6576
275.2197, 213.2622
275.7018, 212.9490
276.1839, 212.6650
276.6660, 212.8092
277.1481, 214.0282
277.6302, 215.2753
278.1124, 216.0286
278.5945, 216.2593
279.0766, 216.2423
279.5587, 216.1270
280.0408, 215.8619
280.5229, 215.9798
281.0051, 217.7303
281.4872, 218.7839
281.9693, 217.3405
282.4514, 214.0750
282.9335, 211.3623
283.4156, 211.6830
283.8978, 215.1330
284.3799, 217.0567
284.8620, 216.3202
285.3441, 215.0452
285.8262, 213.1724
286.3083, 211.3105
286.7905, 210.6834
287.2726, 212.5498
287.7547, 216.5218
288.2368, 218.7562
288.7189, 217.5033
289.2010, 216.4914
289.6832, 216.6613
290.1653, 217.7264
290.6474, 219.3709
291.1295, 221.5755
291.6116, 223.9447
292.0938, 224.7477
292.5759, 222.6596
293.0580, 220.8161
293.5401, 219.1119
294.0222, 218.2177
294.5043, 219.3139
294.9865, 223.0069
295.4686, 227.8664
295.9507, 230.2854
296.4328, 228.6077
296.9149, 227.3324
297.3970, 226.7044
297.8792, 226.8144
298.3613, 228.1328
298.8434, 230.6963
299.3255, 233.4664
299.8076, 234.5004
300.2897, 232.4861
300.7719, 231.7259
301.2540, 233.1408
301.7361, 235.1348
302.2182, 237.0139
302.7003, 238.5066
303.1824, 239.3862
303.6646, 239.0094
304.1467, 236.4603
304.6288, 236.0664
305.1109, 239.1739
305.5930, 243.1100
306.0751, 247.0477
306.5573, 250.7516
307.0394, 254.1100
307.5215, 256.9474
308.0036, 259.2292
308.4857, 261.7367
308.9678, 264.5916
309.4500, 267.5733
309.9321, 270.2790
310.4142, 273.0874
310.8963, 276.7973
311.3784, 282.0840
311.8605, 288.7064
312.3427, 294.6038
312.8248, 297.8896
313.3069, 302.7997
313.7890, 310.8568
314.2711, 320.7244
314.7532, 330.6468
315.2354, 339.6786
315.7175, 348.4671
316.1996, 358.9151
316.6817, 373.1999
317.1638, 385.7304
317.6459, 394.5253
318.1281, 402.2524
318.6102, 411.5934
319.0923, 423.2984
319.5744, 435.5650
320.0565, 445.4061
320.5386, 452.1148
321.0208, 457.8352
321.5029, 461.8393
321.9850, 465.6323
322.4671, 470.0346
322.9492, 475.2155
323.4313, 480.9947
323.9135, 487.6478
324.3956, 495.8009
324.8777, 501.5026
325.3598, 502.4378
325.8419, 503.0717
326.3240, 505.2283
326.8062, 508.5917
327.2883, 512.0443
327.7704, 515.1473
328.2525, 517.7292
328.7346, 516.7877
329.2167, 508.5117
329.6989, 500.8102
330.1810, 496.2913
330.6631, 493.4095
331.1452, 489.9894
331.6273, 484.9454
332.1094, 478.3229
332.5916, 470.1917
333.0737, 460.1174
333.5558, 449.1153
334.0379, 437.2244
334.5200, 424.7076
335.0021, 411.8594
335.4843, 398.7402
335.9664, 385.4272
336.4485, 372.0471
336.9306, 358.3789
337.4127, 345.2162
337.8948, 331.9318
338.3770, 319.6342
338.8591, 309.2566
339.3412, 300.6991
339.8233, 293.0399
340.3055, 285.0506
340.7876, 276.5587
341.2697, 269.8161
341.7518, 266.4628
342.2339, 263.4135
342.7160, 259.3947
343.1982, 254.7003
343.6803, 250.1604
344.1624, 246.2275
344.6445, 242.9183
345.1266, 240.3415
345.6087, 238.6564
346.0909, 237.5268
346.5730, 237.0120
347.0551, 236.8229
347.5372, 236.6838
348.0193, 236.5435
348.5014, 236.1849
348.9836, 234.9593
349.4657, 232.3745
349.9478, 230.6063
350.4299, 231.7178
350.9120, 232.9417
351.3941, 231.8030
351.8763, 227.9037
352.3584, 223.7001
352.8405, 221.7309
353.3226, 222.0377
353.8047, 222.8644
354.2868, 224.7218
354.7690, 226.2797
355.2511, 226.5690
355.7332, 225.7912
356.2153, 224.8753
356.6974, 224.4986
357.1795, 224.4811
357.6617, 224.0172
358.1438, 222.7696
358.6259, 221.7774
359.1080, 222.0520
359.5901, 222.8813
360.0722, 223.0616
360.5544, 221.8457
361.0365, 220.1673
361.5186, 219.4539
362.0007, 219.8538
362.4828, 220.0488
362.9649, 218.9928
363.4471, 217.7626
363.9292, 217.6388
364.4113, 218.9036
364.8934, 220.5943
365.3755, 222.3687
365.8576, 224.0789
366.3398, 224.7106
366.8219, 223.3806
367.3040, 221.8827
367.7861, 222.5221
368.2682, 225.0558
368.7503, 226.8543
369.2325, 226.0938
369.7146, 224.1656
370.1967, 223.6165
370.6788, 224.8517
371.1609, 226.3071
371.6430, 226.8767
372.1252, 226.6940
372.6073, 226.2077
373.0894, 225.2696
373.5715, 224.2066
374.0536, 223.1514
374.5357, 222.1481
375.0179, 221.5046
375.5000, 221.5452
375.9821, 221.8882
376.4642, 221.5932
376.9463, 220.4102
377.4284, 219.2699
377.9106, 218.2361
378.3927, 217.5304
378.8748, 217.5579
379.3569, 218.4397
379.8390, 219.9939
380.3211, 222.3095
380.8033, 225.7097
381.2854, 227.7773
381.7675, 227.4859
382.2496, 226.4035
382.7317, 225.7639
383.2138, 225.5994
383.6960, 225.1324
384.1781, 223.5494
384.6602, 221.0415
385.1423, 220.3647
385.6244, 222.7540
386.1065, 225.2141
386.5887, 227.1296
387.0708, 228.3846
387.5529, 228.5528
388.0350, 227.3801
388.5171, 225.7959
388.9992, 225.8966
389.4814, 229.9868
389.9635, 232.2070
390.4456, 231.7628
390.9277, 230.0168
391.4098, 227.6701
391.8919, 225.0448
392.3741, 222.4866
392.8562, 220.1736
393.3383, 217.8334
393.8204, 217.9058
394.3025, 223.2332
394.7846, 227.8577
395.2668, 229.6591
395.7489, 229.2859
396.2310, 228.0522
396.7131, 226.6301
397.1952, 225.2188
397.6773, 224.4992
398.1595, 224.6026
398.6416, 225.2601
399.1237, 227.1850
399.6058, 229.1234
400.0879, 229.7658
400.5700, 228.9093
401.0522, 227.7390
401.5343, 227.8432
402.0164, 229.5276
402.4985, 230.6687
402.9806, 231.0669
403.4627, 230.9751
403.9449, 229.7605
404.4270, 228.0871
404.9091, 227.6774
405.3912, 230.3595
405.8733, 234.6971
406.3554, 235.8347
406.8376, 232.4127
407.3197, 229.1863
407.8018, 228.2505
408.2839, 228.3735
408.7660, 228.3095
409.2481, 227.6740
409.7303, 227.3176
410.2124, 228.4494
410.6945, 230.9400
411.1766, 232.8396
411.6587, 233.9045
412.1408, 233.9807
412.6230, 232.4203
413.1051, 229.5179
413.5872, 227.5359
414.0693, 228.3623
414.5514, 230.3439
415.0335, 230.4758
415.5157, 228.3878
415.9978, 226.7857
416.4799, 227.9550
416.9620, 230.8683
417.4441, 232.1842
417.9262, 230.4147
418.4084, 228.8540
418.8905, 229.9997
419.3726, 232.8234
419.8547, 234.5771
420.3368, 234.2143
420.8189, 232.7861
421.3011, 231.8279
421.7832, 231.2841
422.2653, 231.4062
422.7474, 233.1456
423.2295, 234.9434
423.7116, 235.3776
424.1938, 234.4237
424.6759, 232.9610
425.1580, 231.5762
425.6401, 230.2881
426.1222, 229.4241
426.6043, 228.6054
427.0865, 228.5679
427.5686, 230.2116
428.0507, 232.5233
428.5328, 234.1526
429.0149, 234.5802
429.4970, 234.1523
429.9792, 233.3181
430.4613, 231.1317
430.9434, 230.7021
431.4255, 234.3836
431.9076, 237.4642
432.3897, 236.4889
432.8719, 232.2896
433.3540, 228.2802
433.8361, 227.1175
434.3182, 228.4879
434.8003, 230.2401
435.2824, 233.0385
435.7646, 235.1515
436.2467, 235.9458
436.7288, 236.0289
437.2109, 236.0716
437.6930, 236.2878
438.1751, 236.2849
438.6573, 235.3075
439.1394, 233.2383
439.6215, 231.8907
440.1036, 231.9948
440.5857, 232.3524
441.0678, 232.0678
441.5500, 231.3214
442.0321, 230.8384
442.5142, 230.9989
442.9963, 231.6452
443.4784, 232.6796
443.9605, 234.1982
444.4427, 235.3142
444.9248, 235.1457
445.4069, 234.5192
445.8890, 235.1128
446.3711, 237.7549
446.8532, 239.4955
447.3354, 237.5708
447.8175, 233.6976
448.2996, 231.7881
448.7817, 232.8596
449.2638, 234.9882
449.7459, 236.1062
450.2281, 236.1346
450.7102, 236.8424
451.1923, 239.1844
451.6744, 241.4315
452.1565, 242.3527
452.6386, 242.2359
453.1208, 242.1580
453.6029, 242.7379
454.0850, 243.5286
454.5671, 243.2805
455.0492, 240.7292
455.5313, 238.8311
456.0135, 237.7578
456.4956, 237.2547
456.9777, 237.2164
457.4598, 237.5668
457.9419, 238.1379
458.4240, 238.7832
458.9062, 239.5025
459.3883, 240.3258
459.8704, 242.0103
460.3525, 242.9037
460.8346, 241.5119
461.3167, 239.5472
461.7989, 239.5839
462.2810, 242.6440
462.7631, 246.4245
463.2452, 246.9948
463.7273, 243.6532
464.2094, 241.2769
464.6916, 241.1066
465.1737, 241.4910
465.6558, 241.5153
466.1379, 241.2530
466.6200, 241.1431
467.1021, 241.5418
467.5843, 242.1947
468.0664, 242.5318
468.5485, 242.4925
469.0306, 242.5927
469.5127, 243.1293
469.9948, 243.9147
470.4770, 244.7185
470.9591, 245.6437
471.4412, 246.1733
471.9233, 245.7110
472.4054, 244.7624
472.8875, 244.2742
473.3697, 244.4280
473.8518, 244.8271
474.3339, 245.1449
474.8160, 245.3813
475.2981, 245.6570
475.7802, 246.1286
476.2624, 246.4728
476.7445, 246.9642
477.2266, 247.1590
477.7087, 245.6416
478.1908, 241.7893
478.6729, 237.7959
479.1551, 237.8611
479.6372, 244.8425
480.1193, 249.2112
480.6014, 250.0260
481.0835, 249.4706
481.5656, 248.1017
482.0478, 246.3806
482.5299, 244.9448
483.0120, 244.1831
483.4941, 244.0826
483.9762, 244.7791
484.4583, 247.0564
484.9405, 248.5088
485.4226, 248.1150
485.9047, 247.1704
486.3868, 246.6540
486.8689, 246.6893
487.3510, 246.7729
487.8332, 246.4047
488.3153, 245.7037
488.7974, 245.1720
489.2795, 244.7026
489.7616, 244.7189
490.2437, 246.2110
490.7259, 248.1907
491.2080, 249.0332
491.6901, 247.9910
492.1722, 246.6689
492.6543, 246.1234
493.1364, 246.2133
493.6186, 246.7371
494.1007, 247.8123
494.5828, 248.5549
495.0649, 247.6478
495.5470, 244.8598
496.0291, 243.2795
496.5113, 243.7065
496.9934, 244.7082
497.4755, 246.1168
497.9576, 247.4176
498.4397, 247.0940
498.9218, 244.2897
499.4040, 240.7377
499.8861, 240.5866
500.3682, 247.6247
500.8503, 251.0269
501.3324, 248.1620
501.8145, 244.3643
502.2967, 242.5374
502.7788, 242.7443
503.2609, 243.9414
503.7430, 245.6518
504.2251, 247.5047
504.7072, 247.8080
505.1894, 245.5092
505.6715, 244.0858
506.1536, 245.7296
506.6357, 247.7188
507.1178, 247.6045
507.5999, 245.1857
508.0821, 242.7577
508.5642, 241.8551
509.0463, 242.2518
509.5284, 243.5878
510.0105, 246.1418
510.4926, 248.3024
510.9748, 248.9082
511.4569, 248.4225
511.9390, 248.0088
512.4211, 247.7892
512.9032, 247.5271
513.3853, 247.0354
513.8674, 246.4424
514.3495, 245.9663
514.8317, 245.6514
515.3138, 245.4552
515.7959, 245.3619
516.2780, 245.3856
516.7601, 245.2586
517.2422, 244.5957
517.7244, 244.2347
518.2065, 244.8423
518.6886, 245.7998
519.1707, 246.0143
519.6528, 245.1501
520.1349, 244.1551
520.6171, 244.6818
521.0992, 247.3528
521.5813, 249.0144
522.0634, 249.2969
522.5455, 248.8530
523.0276, 247.2226
523.5098, 245.1310
523.9919, 243.8782
524.4740, 244.1063
524.9561, 245.1880
525.4382, 246.5077
525.9203, 248.0725
526.4025, 248.9057
526.8846, 248.4274
527.3667, 247.5986
527.8488, 247.2067
528.3309, 247.2357
528.8130, 247.6897
529.2952, 249.1040
529.7773, 250.5338
530.2594, 251.0881
530.7415, 250.8643
531.2236, 250.3358
531.7057, 249.6455
532.1879, 248.9515
532.6700, 248.5569
533.1521, 248.5405
533.6342, 248.6821
534.1163, 249.0366
534.5984, 249.4989
535.0806, 250.1294
535.5627, 250.8152
536.0448, 251.2722
536.5269, 251.3059
537.0090, 251.0622
537.4911, 251.0413
537.9733, 251.5878
538.4554, 251.5792
538.9375, 250.0024
539.4196, 248.5822
539.9017, 248.6321
540.3839, 249.9310
540.8660, 251.1413
541.3481, 251.3175
541.8302, 250.8786
542.3123, 250.9150
542.7944, 251.5523
543.2766, 251.5299
543.7587, 249.9660
544.2408, 247.7964
544.7229, 246.2105
545.2050, 245.1542
545.6871, 245.0028
546.1693, 247.0297
546.6514, 249.3237
547.1335, 249.2208
547.6156, 246.9964
548.0977, 245.6841
548.5798, 247.4241
549.0620, 250.9327
549.5441, 251.8704
550.0262, 246.4575
550.5083, 243.4859
550.9904, 244.5264
551.4725, 246.8528
551.9547, 248.8881
552.4368, 250.2830
552.9189, 251.0797
553.4010, 251.3159
553.8831, 250.9578
554.3652, 249.5863
554.8474, 246.3210
555.3295, 244.2915
555.8116, 245.5764
556.2937, 247.5186
556.7758, 247.9774
557.2579, 246.9528
557.7401, 246.4540
558.2222, 248.4285
558.7043, 251.3782
559.1864, 252.6850
559.6685, 252.2663
560.1506, 251.2134
560.6328, 249.8206
561.1149, 248.3395
561.5970, 247.3581
562.0791, 247.0212
562.5612, 246.6125
563.0433, 245.3021
563.5255, 244.3857
564.0076, 245.5363
564.4897, 248.2746
564.9718, 250.3404
565.4539, 250.1939
565.9360, 248.6397
566.4182, 248.4862
566.9003, 251.0262
567.3824, 252.5232
567.8645, 252.1885
568.3466, 251.3226
568.8287, 250.5468
569.3109, 249.9627
569.7930, 249.5785
570.2751, 249.4565
570.7572, 249.4715
571.2393, 249.3273
571.7214, 249.0019
572.2036, 248.7955
572.6857, 248.8661
573.1678, 249.0295
573.6499, 249.0334
574.1320, 248.8822
574.6141, 248.8462
575.0963, 249.2619
575.5784, 249.6121
576.0605, 249.5629
576.5426, 249.0724
577.0247, 247.8641
577.5068, 245.7148
577.9890, 243.4285
578.4711, 242.5130
578.9532, 243.3123
579.4353, 244.7103
579.9174, 247.6196
580.3995, 250.1478
580.8817, 251.3867
581.3638, 251.5610
581.8459, 251.0553
582.3280, 249.9799
582.8101, 248.8764
583.2922, 248.6450
583.7744, 249.3296
584.2565, 250.4023
584.7386, 252.6281
585.2207, 254.0324
585.7029, 252.3893
586.1850, 248.8966
586.6671, 246.6347
587.1492, 246.7097
587.6313, 247.7071
588.1135, 249.2063
588.5956, 250.7856
589.0777, 251.3677
589.5598, 250.6692
590.0419, 249.3214
590.5240, 247.8541
591.0062, 246.2382
591.4883, 245.3342
591.9704, 244.8305
592.4525, 245.3129
592.9346, 247.9129
593.4167, 251.0749
593.8989, 252.9422
594.3810, 253.1701
594.8631, 253.0079
595.3452, 254.0883
595.8273, 256.1593
596.3094, 255.9659
596.7916, 252.1739
597.2737, 249.1630
597.7558, 249.4192
598.2379, 251.1364
598.7200, 252.7046
599.2021, 254.0006
599.6843, 254.7128
600.1664, 254.4330
600.6485, 253.5977
601.1306, 252.5315
601.6127, 251.3707
602.0948, 251.0224
602.5770, 252.2429
603.0591, 254.2197
603.5412, 254.6757
604.0233, 251.9080
604.5054, 250.3966
604.9875, 251.0098
605.4697, 252.0901
605.9518, 252.7022
606.4339, 252.8780
606.9160, 253.0920
607.3981, 253.6763
607.8802, 254.1377
608.3624, 253.1353
608.8445, 250.3447
609.3266, 248.7710
609.8087, 249.5839
610.2908, 250.8241
610.7729, 251.1609
611.2551, 250.7611
611.7372, 250.0630
612.2193, 248.8038
612.7014, 247.7454
613.1835, 247.3234
613.6656, 247.5201
614.1478, 248.5330
614.6299, 250.3957
615.1120, 252.2760
615.5941, 253.3962
616.0762, 253.7542
616.5583, 253.3486
617.0405, 250.9846
617.5226, 249.3508
618.0047, 249.3710
618.4868, 250.0178
618.9689, 250.2285
619.4510, 249.8903
619.9332, 249.7021
620.4153, 250.3962
620.8974, 251.6800
621.3795, 252.4501
621.8616, 252.6174
622.3438, 252.7785
622.8259, 253.3173
623.3080, 253.8075
623.7901, 253.6145
624.2722, 252.7037
624.7543, 251.8878
625.2365, 251.5262
625.7186, 251.2207
626.2007, 250.2572
626.6828, 249.0686
627.1649, 249.0266
627.6470, 250.7285
628.1292, 253.1699
628.6113, 254.8207
629.0934, 255.6816
629.5755, 255.7321
630.0576, 254.1275
630.5397, 252.5788
631.0219, 251.4060
631.5040, 250.6523
631.9861, 250.2860
632.4682, 250.2915
632.9503, 250.8604
633.4324, 252.5315
633.9146, 254.9098
634.3967, 256.9222
634.8788, 258.5560
635.3609, 259.0165
635.8430, 257.4411
636.3251, 254.5810
636.8073, 252.5664
637.2894, 251.3356
637.7715, 250.8797
638.2536, 251.7710
638.7357, 252.9613
639.2178, 253.8074
639.7000, 254.2337
640.1821, 254.2616
640.6642, 253.8803
641.1463, 253.3099
641.6284, 253.1223
642.1105, 253.5231
642.5927, 253.1470
643.0748, 251.1826
643.5569, 249.3113
644.0390, 248.4471
644.5211, 248.3298
645.0032, 248.3783
645.4854, 248.2534
645.9675, 248.7608
646.4496, 251.4423
646.9317, 254.8344
647.4138, 255.9919
647.8959, 254.5858
648.3781, 252.4266
648.8602, 250.7068
649.3423, 249.4813
649.8244, 249.0813
650.3065, 250.1290
650.7886, 251.1045
651.2708, 251.7048
651.7529, 252.4352
652.2350, 254.1223
652.7171, 256.2470
653.1992, 257.2683
653.6813, 256.1340
654.1635, 254.1186
654.6456, 253.1405
655.1277, 253.1262
655.6098, 253.1570
656.0919, 253.0409
656.5740, 253.0041
657.0562, 253.3753
657.5383, 254.0381
658.0204, 254.2053
658.5025, 253.3470
658.9846, 252.6535
659.4667, 252.2073
659.9489, 252.2553
660.4310, 253.3987
660.9131, 255.4379
661.3952, 257.3377
661.8773, 258.3961
662.3594, 258.6519
662.8416, 258.1364
663.3237, 256.6080
663.8058, 255.1695
664.2879, 253.7502
664.7700, 252.7656
665.2521, 252.4521
665.7343, 252.7764
666.2164, 253.6902
666.6985, 256.1516
667.1806, 257.9113
667.6627, 256.6410
668.1448, 253.7362
668.6270, 251.9412
669.1091, 251.7690
669.5912, 251.8002
670.0733, 250.6083
670.5554, 248.6106
671.0375, 248.9862
671.5197, 254.5579
672.0018, 257.8260
672.4839, 256.1376
672.9660, 253.6850
673.4481, 253.0797
673.9302, 254.2785
674.4124, 256.2944
674.8945, 259.2065
675.3766, 261.7610
675.8587, 262.0719
676.3408, 260.5571
676.8229, 258.9742
677.3051, 257.6065
677.7872, 256.8946
678.2693, 257.5644
678.7514, 259.3827
679.2335, 259.6044
679.7156, 256.4175
680.1978, 254.2403
680.6799, 254.2915
681.1620, 255.1406
681.6441, 255.9284
682.1262, 256.3870
682.6083, 256.1918
683.0905, 254.9513
683.5726, 253.3872
684.0547, 252.8647
684.5368, 253.3833
685.0189, 254.3485
685.5010, 255.8871
685.9832, 257.3090
686.4653, 258.1302
686.9474, 258.3299
687.4295, 257.9210
687.9116, 255.8374
688.3937, 254.6119
688.8759, 255.9636
689.3580, 257.8698
689.8401, 258.0885
690.3222, 256.7203
690.8043, 255.4045
691.2864, 255.2225
691.7686, 255.7288
692.2507, 255.8527
692.7328, 255.5301
693.2149, 255.1673
693.6970, 254.3724
694.1791, 254.1959
694.6613, 255.9874
695.1434, 258.8536
695.6255, 260.8554
696.1076, 261.7119
696.5897, 261.6491
697.0718, 260.0773
697.5540, 258.0466
698.0361, 256.6242
698.5182, 255.9927
699.0003, 256.2584
699.4824, 257.5562
699.9645, 259.3954
700.4467, 260.6869
700.9288, 261.5595
701.4109, 261.3202
701.8930, 258.7728
702.3751, 256.5266
702.8572, 255.9522
703.3394, 256.4848
703.8215, 257.2911
704.3036, 258.3330
704.7857, 259.0912
705.2678, 258.7147
705.7499, 258.1719
706.2321, 259.5091
706.7142, 262.2607
707.1963, 263.0700
707.6784, 259.9576
708.1605, 255.3986
708.6426, 254.6048
709.1248, 259.1671
709.6069, 261.7961
710.0890, 261.0148
710.5711, 259.9902
711.0532, 259.7076
711.5353, 259.8562
712.0175, 259.9723
712.4996, 259.9556
712.9817, 260.1563
713.4638, 261.0502
713.9459, 262.1412
714.4280, 262.9497
714.9102, 263.3577
715.3923, 262.6265
715.8744, 260.2939
716.3565, 258.0230
716.8386, 258.5382
717.3207, 262.4876
717.8029, 264.4897
718.2850, 262.8445
718.7671, 261.2817
719.2492, 260.4046
719.7313, 260.1498
720.2134, 260.8834
720.6956, 262.4303
721.1777, 263.1916
721.6598, 261.1154
722.1419, 258.4967
722.6240, 258.6070
723.1061, 260.8471
723.5883, 263.0157
724.0704, 264.5091
724.5525, 265.0647
725.0346, 264.1859
725.5167, 261.9403
725.9988, 260.8594
726.4810, 262.1620
726.9631, 262.8813
727.4452, 261.3228
727.9273, 260.1599
728.4094, 262.4668
728.8915, 267.2057
729.3737, 269.9612
729.8558, 267.8261
730.3379, 264.3944
730.8200, 263.4310
731.3021, 264.2351
731.7842, 265.0170
732.2664, 265.4500
732.7485, 265.5456
733.2306, 265.2547
733.7127, 264.6961
734.1948, 264.3425
734.6769, 264.3289
735.1591, 264.2787
735.6412, 263.7292
736.1233, 263.5950
736.6054, 264.8431
737.0875, 266.7188
737.5696, 267.7384
738.0518, 267.3363
738.5339, 266.6497
739.0160, 266.9790
739.4981, 267.4863
739.9802, 265.9879
740.4623, 262.7103
740.9445, 260.8117
741.4266, 262.0057
741.9087, 264.8277
742.3908, 266.7613
742.8729, 267.8380
743.3550, 267.8920
743.8372, 265.5485
744.3193, 263.8276
744.8014, 263.9477
745.2835, 264.8543
745.7656, 265.2574
746.2477, 265.0301
746.7299, 265.3014
747.2120, 267.4817
747.6941, 269.8960
748.1762, 270.3277
748.6583, 269.3319
749.1404, 268.5894
749.6226, 268.5892
750.1047, 269.2201
750.5868, 270.5903
751.0689, 272.4984
751.5510, 272.6261
752.0331, 269.6299
752.5153, 267.4396
752.9974, 267.6186
753.4795, 267.9618
753.9616, 266.6318
754.4437, 264.2728
754.9258, 263.1310
755.4080, 264.4176
755.8901, 266.0286
756.3722, 266.4749
756.8543, 266.3679
757.3364, 266.6816
757.8185, 267.4321
758.3007, 267.9153
758.7828, 267.6542
759.2649, 267.1905
759.7470, 267.9068
760.2291, 270.2928
760.7112, 271.5179
761.1934, 271.2986
761.6755, 270.2566
762.1576, 267.9971
762.6397, 265.4075
763.1218, 263.5532
763.6039, 262.5205
764.0861, 262.1642
764.5682, 262.2628
765.0503, 263.1749
765.5324, 266.0841
766.0145, 269.7880
766.4966, 271.7774
766.9788, 271.4636
767.4609, 270.6318
767.9430, 271.1405
768.4251, 272.6574
768.9072, 273.4453
769.3893, 273.3487
769.8715, 273.3387
770.3536, 273.8243
770.8357, 274.2190
771.3178, 273.8803
771.7999, 272.9419
772.2820, 272.0878
772.7642, 271.1501
773.2463, 270.5786
773.7284, 270.6670
774.2105, 271.0373
774.6926, 271.3828
775.1747, 271.7031
775.6569, 272.2880
776.1390, 273.3529
776.6211, 274.0379
777.1032, 272.5093
777.5853, 269.3623
778.0674, 268.1541
778.5496, 269.2889
779.0317, 271.1303
779.5138, 273.2121
779.9959, 275.0622
780.4780, 275.8414
780.9601, 275.3890
781.4423, 274.4203
781.9244, 271.5497
782.4065, 269.8597
782.8886, 271.5513
783.3707, 274.1701
783.8528, 275.0135
784.3350, 273.8477
784.8171, 272.2846
785.2992, 270.9129
785.7813, 270.0851
786.2634, 270.7376
786.7455, 272.3292
787.2277, 272.9239
787.7098, 272.1514
788.1919, 271.3237
788.6740, 271.4761
789.1561, 272.3590
789.6382, 273.0918
790.1204, 273.7122
790.6025, 274.0822
791.0846, 274.1982
791.5667, 274.0416
792.0488, 273.0153
792.5309, 271.9372
793.0131, 272.1983
793.4952, 274.1787
793.9773, 276.3654
794.4594, 278.5827
794.9415, 280.2521
795.4236, 280.9901
795.9058, 280.7062
796.3879, 278.8500
796.8700, 275.4243
797.3521, 272.0432
797.8342, 270.3022
798.3163, 270.0664
798.7985, 270.8508
799.2806, 272.9036
799.7627, 274.5350
800.2448, 275.3340
800.7269, 275.6447
801.2090, 275.3109
801.6912, 274.6606
802.1733, 275.4171
802.6554, 279.5403
803.1375, 281.9531
803.6196, 279.9613
804.1017, 277.5330
804.5839, 277.6948
805.0660, 279.6758
805.5481, 281.7085
806.0302, 283.1553
806.5123, 283.3016
806.9944, 280.4615
807.4766, 276.0663
807.9587, 273.4452
808.4408, 272.6554
808.9229, 273.1021
809.4050, 274.7192
809.8871, 276.5782
810.3693, 277.5976
810.8514, 277.7817
811.3335, 277.6168
811.8156, 276.1183
812.2977, 275.9344
812.7798, 279.2329
813.2620, 282.3131
813.7441, 282.0709
814.2262, 279.6165
814.7083, 278.4444
815.1904, 280.0128
815.6725, 281.6325
816.1547, 281.6480
816.6368, 281.0218
817.1189, 280.7450
817.6010, 280.8535
818.0831, 281.2134
818.5652, 281.7516
819.0474, 282.0705
819.5295, 281.3889
820.0116, 279.9038
820.4937, 279.5230
820.9758, 280.3935
821.4579, 281.5391
821.9401, 282.8280
822.4222, 283.9670
822.9043, 284.5382
823.3864, 284.5747
823.8685, 285.0331
824.3506, 286.9929
824.8328, 287.8476
825.3149, 286.6412
825.7970, 284.7062
826.2791, 282.2152
826.7612, 279.9122
827.2433, 279.4146
827.7255, 281.5128
828.2076, 283.8386
828.6897, 284.4611
829.1718, 283.9715
829.6539, 283.0533
830.1360, 281.8992
830.6182, 280.9887
831.1003, 280.5039
831.5824, 280.5978
832.0645, 281.6635
832.5466, 283.5289
833.0287, 283.8168
833.5109, 281.8530
833.9930, 280.3336
834.4751, 279.9859
834.9572, 280.0301
835.4393, 279.8195
835.9214, 279.4995
836.4036, 279.5139
836.8857, 279.9477
837.3678, 280.6083
837.8499, 281.7762
838.3320, 282.8493
838.8141, 283.6427
839.2963, 283.9361
839.7784, 283.1454
840.2605, 281.1740
840.7426, 279.3214
841.2247, 278.2971
841.7068, 278.3867
842.1890, 281.2282
842.6711, 286.0630
843.1532, 288.2881
843.6353, 286.6641
844.1174, 283.7130
844.5995, 281.4453
845.0817, 279.9487
845.5638, 279.8370
846.0459, 281.7519
846.5280, 283.2315
847.0101, 283.6311
847.4922, 284.1746
847.9744, 286.4310
848.4565, 288.8350
848.9386, 288.6428
849.4207, 285.2316
849.9028, 282.2972
850.3849, 280.4689
850.8671, 279.7924
851.3492, 280.9187
851.8313, 282.8887
852.3134, 284.7349
852.7955, 286.1101
853.2776, 286.6736
853.7598, 285.9863
854.2419, 284.8271
854.7240, 284.2056
855.2061, 284.1241
855.6882, 284.7831
856.1703, 286.1826
856.6525, 287.4915
857.1346, 288.2335
857.6167, 288.6360
858.0988, 289.1777
858.5809, 289.9926
859.0630, 290.0009
859.5452, 288.7573
860.0273, 287.4891
860.5094, 285.8804
860.9915, 284.9625
861.4736, 286.2930
861.9557, 289.3841
862.4379, 291.2452
862.9200, 290.5881
863.4021, 289.7061
863.8842, 289.6029
864.3663, 289.4362
864.8484, 287.9492
865.3306, 285.8537
865.8127, 284.9598
866.2948, 285.9540
866.7769, 287.6767
867.2590, 289.5040
867.7411, 291.0308
868.2233, 290.9667
868.7054, 289.6493
869.1875, 289.1554
869.6696, 290.0884
870.1517, 291.1934
870.6339, 291.2560
871.1160, 290.5435
871.5981, 290.1738
872.0802, 290.0019
872.5623, 290.8806
873.0444, 294.1362
873.5266, 296.3600
874.0087, 294.7389
874.4908, 291.2554
874.9729, 289.5873
875.4550, 290.0179
875.9371, 290.6567
876.4193, 291.9656
876.9014, 292.5926
877.3835, 291.2877
877.8656, 289.4661
878.3477, 288.6588
878.8298, 288.8783
879.3120, 289.2367
879.7941, 289.4108
880.2762, 289.2653
880.7583, 288.1246
881.2404, 286.8176
881.7225, 286.9850
882.2047, 288.5012
882.6868, 290.2330
883.1689, 291.6896
883.6510, 292.7914
884.1331, 293.3316
884.6152, 293.4284
885.0974, 294.0882
885.5795, 295.4496
886.0616, 296.3214
886.5437, 296.3206
887.0258, 296.0494
887.5079, 296.0927
887.9901, 296.2383
888.4722, 295.5935
888.9543, 293.2483
889.4364, 291.8550
889.9185, 292.7163
890.4006, 293.0104
890.8828, 290.3395
891.3649, 287.2320
891.8470, 287.2698
892.3291, 290.5984
892.8112, 293.2818
893.2933, 293.1556
893.7755, 292.5846
894.2576, 293.2679
894.7397, 294.2141
895.2218, 293.9068
895.7039, 292.6092
896.1860, 291.8103
896.6682, 292.2329
897.1503, 293.0875
897.6324, 293.2482
898.1145, 293.0992
898.5966, 294.1714
899.0787, 296.2823
899.5609, 297.3234
900.0430, 296.6038
900.5251, 294.9862
901.0072, 293.1317
901.4893, 291.2521
901.9714, 290.5264
902.4536, 291.3472
902.9357, 291.9176
903.4178, 292.2322
903.8999, 291.9742
904.3820, 290.1356
904.8641, 288.0934
905.3463, 288.4326
905.8284, 291.4391
906.3105, 294.2477
906.7926, 296.9372
907.2747, 299.0500
907.7568, 300.7166
908.2390, 301.5480
908.7211, 301.0553
909.2032, 299.4448
909.6853, 297.1876
910.1674, 294.1469
910.6495, 291.7579
911.1317, 291.0833
911.6138, 291.4612
912.0959, 292.4796
912.5780, 293.8556
913.0601, 295.0891
913.5422, 296.0559
914.0244, 297.0625
914.5065, 298.5926
914.9886, 299.9579
915.4707, 299.1704
915.9528, 296.7011
916.4349, 295.7116
916.9171, 296.6448
917.3992, 297.8141
917.8813, 298.3239
918.3634, 298.5069
918.8455, 298.9497
919.3276, 299.6844
919.8098, 300.1876
920.2919, 300.7210
920.7740, 300.2432
921.2561, 297.3406
921.7382, 294.8626
922.2203, 295.7440
922.7025, 299.0147
923.1846, 300.7813
923.6667, 300.2873
924.1488, 299.9744
924.6309, 299.8645
925.1130, 300.2139
925.5952, 301.7767
926.0773, 303.4798
926.5594, 304.0747
927.0415, 303.4491
927.5236, 302.1685
928.0057, 299.5087
928.4879, 297.6878
928.9700, 298.7407
929.4521, 301.0113
929.9342, 303.0409
930.4163, 304.4606
930.8984, 304.9074
931.3806, 304.2691
931.8627, 303.1141
932.3448, 301.3473
932.8269, 299.8394
933.3090, 301.1987
933.7911, 304.5542
934.2733, 306.0381
934.7554, 304.9503
935.2375, 303.0796
935.7196, 301.5202
936.2017, 300.4691
936.6838, 300.5505
937.1660, 301.8419
937.6481, 302.5934
938.1302, 302.6003
938.6123, 303.0661
939.0944, 304.7494
939.5765, 306.2515
940.0587, 305.9441
940.5408, 304.1585
941.0229, 303.3135
941.5050, 303.7567
941.9871, 304.5058
942.4692, 306.9224
942.9514, 308.0403
943.4335, 305.2234
943.9156, 301.2644
944.3977, 300.0329
944.8798, 301.6947
945.3619, 302.5381
945.8441, 300.3487
946.3262, 299.0997
946.8083, 301.2398
947.2904, 303.9894
947.7725, 304.7735
948.2546, 304.2865
948.7368, 304.5892
949.2189, 306.3206
949.7010, 308.1999
950.1831, 309.8885
950.6652, 310.8895
951.1473, 310.0750
951.6295, 308.4806
952.1116, 308.1823
952.5937, 309.1927
953.0758, 309.7906
953.5579, 308.9492
954.0400, 307.6747
954.5222, 307.4311
955.0043, 307.8353
955.4864, 308.0023
955.9685, 307.7975
956.4506, 305.8661
956.9327, 301.8198
957.4149, 299.6042
957.8970, 303.1627
958.3791, 310.2482
958.8612, 314.0478
959.3433, 314.3705
959.8254, 313.7114
960.3076, 311.9162
960.7897, 310.6033
961.2718, 310.6851
961.7539, 311.0897
962.2360, 310.3495
962.7181, 308.5446
963.2003, 307.5814
963.6824, 307.6778
964.1645, 308.1910
964.6466, 309.4203
965.1287, 310.6123
965.6108, 311.7408
966.0930, 312.4112
966.5751, 311.5977
967.0572, 309.0247
967.5393, 307.8922
968.0214, 309.7357
968.5035, 311.4491
968.9857, 312.0040
969.4678, 312.2910
969.9499, 313.4103
970.4320, 314.7267
970.9141, 314.5144
971.3962, 312.1524
971.8784, 310.2868
972.3605, 310.7467
972.8426, 311.4509
973.3247, 310.8852
973.8068, 309.7624
974.2889, 308.7314
974.7711, 308.0956
975.2532, 308.4541
975.7353, 310.2471
976.2174, 311.9400
976.6995, 311.8484
977.1816, 312.6177
977.6638, 311.1791
978.1459, 311.8042
978.6280, 311.1759
979.1101, 309.1545
979.5922, 307.4077
980.0743, 307.0522
980.5565, 307.8598
981.0386, 309.8657
981.5207, 312.6992
982.0028, 315.2384
982.4849, 317.3418
982.9670, 318.4987
983.4492, 318.5289
983.9313, 317.7531
984.4134, 316.3061
984.8955, 314.6089
985.3776, 314.2180
985.8597, 315.1915
986.3419, 315.4453
986.8240, 314.7086
987.3061, 313.9250
987.7882, 313.4687
988.2703, 313.1815
988.7524, 312.7311
989.2346, 312.2487
989.7167, 313.2939
990.1988, 316.6803
990.6809, 319.1393
991.1630, 320.2642
991.6451, 320.6171
992.1273, 320.2585
992.6094, 319.4668
993.0915, 318.5016
993.5736, 317.3166
994.0557, 316.8657
994.5378, 317.9180
995.0200, 318.5783
995.5021, 318.7929
995.9842, 318.4459
996.4663, 316.6451
996.9484, 314.5916
997.4305, 314.4444
997.9127, 316.5166
998.3948, 318.3518
998.8769, 319.5753
999.3590, 320.4826
999.8411, 320.6470
1000.323, 321.0107
1000.805, 323.0426
1001.287, 325.6157
1001.770, 326.2029
1002.252, 324.1732
1002.734, 321.9735
1003.216, 320.1278
1003.698, 318.9863
1004.180, 318.9540
1004.662, 319.5959
1005.144, 320.9276
1005.627, 322.4450
1006.109, 322.9845
1006.591, 322.1138
1007.073, 320.8877
1007.555, 319.5708
1008.037, 318.6896
1008.519, 319.0093
1009.001, 319.9929
1009.483, 320.9139
1009.966, 321.6180
1010.448, 322.0983
1010.930, 322.3412
1011.412, 322.4780
1011.894, 322.8058
1012.376, 322.9963
1012.858, 322.0429
1013.340, 320.6322
1013.823, 320.5591
1014.305, 322.0161
1014.787, 324.2764
1015.269, 326.9921
1015.751, 329.2040
1016.233, 328.9346
1016.715, 330.6617
1017.197, 328.1052
1017.679, 330.6366
1018.162, 330.9516
1018.644, 328.3802
1019.126, 326.1421
1019.608, 326.4577
1020.090, 327.7076
1020.572, 326.5580
1021.054, 327.1565
1021.536, 327.8891
1022.018, 326.8045
1022.501, 328.6057
1022.983, 328.0914
1023.465, 326.3692
1023.947, 323.9490
1024.429, 321.9483
1024.911, 323.4828
1025.393, 328.6909
1025.875, 330.1920
1026.358, 327.3855
1026.840, 325.9778
1027.322, 327.6801
1027.804, 330.0693
1028.286, 331.3887
1028.768, 331.8576
1029.250, 331.8839
1029.732, 331.3115
1030.214, 331.5809
1030.697, 332.9570
1031.179, 334.3571
1031.661, 335.7870
1032.143, 336.4974
1032.625, 335.8101
1033.107, 334.0254
1033.589, 331.8331
1034.071, 328.7898
1034.553, 327.3813
1035.036, 328.0782
1035.518, 329.4241
1036.000, 331.4647
1036.482, 333.4466
1036.964, 334.8636
1037.446, 335.7403
1037.928, 336.1118
1038.410, 335.9153
1038.893, 335.4191
1039.375, 334.0001
1039.857, 333.2976
1040.339, 334.3985
1040.821, 335.6069
1041.303, 334.9225
1041.785, 333.4536
1042.267, 334.7482
1042.750, 340.4209
1043.232, 343.4545
1043.714, 341.8097
1044.196, 340.1718
1044.678, 339.9291
1045.160, 339.7275
1045.642, 337.7473
1046.124, 335.2078
1046.606, 335.3518
1047.089, 339.1954
1047.571, 342.1555
1048.053, 343.3833
1048.535, 344.1664
1049.017, 345.4444
1049.499, 345.8597
1049.981, 343.5958
1050.463, 339.8902
1050.945, 337.4175
1051.428, 336.5250
1051.910, 336.5540
1052.392, 338.0797
1052.874, 339.5874
1053.356, 340.9959
1053.838, 341.8434
1054.320, 341.4055
1054.802, 340.2702
1055.285, 339.5863
1055.767, 339.5446
1056.249, 339.7202
1056.731, 339.7865
1057.213, 340.3409
1057.695, 342.5594
1058.177, 344.4353
1058.659, 343.9182
1059.141, 342.1069
1059.624, 341.2208
1060.106, 341.6444
1060.588, 342.0309
1061.070, 341.9962
1061.552, 341.7909
1062.034, 341.4305
1062.516, 341.0178
1062.998, 340.6266
1063.480, 340.2438
1063.963, 339.7381
1064.445, 339.1219
1064.927, 338.8863
1065.409, 339.3341
1065.891, 340.0263
1066.373, 341.3807
1066.855, 342.3246
1067.337, 340.9029
1067.820, 339.0697
1068.302, 340.5237
1068.784, 345.3150
1069.266, 348.8552
1069.748, 348.9035
1070.230, 348.2795
1070.712, 347.8086
1071.194, 347.5489
1071.677, 347.9590
1072.159, 348.3696
1072.641, 347.5487
1073.123, 345.6411
1073.605, 344.3268
1074.087, 344.2903
1074.569, 344.7462
1075.051, 345.5665
1075.533, 346.5032
1076.016, 347.5505
1076.498, 348.4978
1076.980, 349.0029
1077.462, 349.1484
1077.944, 349.4496
1078.426, 350.2422
1078.908, 350.6167
1079.390, 349.5818
1079.873, 348.6280
1080.355, 348.6092
1080.837, 349.3163
1081.319, 350.8955
1081.801, 352.8922
1082.283, 354.1796
1082.765, 354.4293
1083.247, 353.9605
1083.729, 351.8155
1084.212, 350.3093
1084.694, 351.6455
1085.176, 353.6021
1085.658, 353.7162
1086.140, 352.5364
1086.622, 351.8950
1087.104, 352.2429
1087.586, 352.7113
1088.068, 352.6648
1088.551, 352.9949
1089.033, 354.8077
1089.515, 356.5860
1089.997, 357.2173
1090.479, 356.7236
1090.961, 354.6268
1091.443, 351.0700
1091.925, 349.7018
1092.408, 354.1404
1092.890, 357.9478
1093.372, 357.8102
1093.854, 356.8795
1094.336, 357.6518
1094.818, 359.0270
1095.300, 358.9145
1095.782, 357.3246
1096.265, 356.4487
1096.747, 357.6600
1097.229, 358.2126
1097.711, 356.0295
1098.193, 354.2431
1098.675, 355.6352
1099.157, 357.7679
1099.639, 357.4866
1100.121, 355.1513
1100.604, 353.4059
1101.086, 352.7520
1101.568, 352.8597
1102.050, 353.7500
1102.532, 355.2505
1103.014, 358.3538
1103.496, 361.1195
1103.978, 361.5157
1104.460, 360.2096
1104.943, 359.0311
1105.425, 358.1206
1105.907, 357.9971
1106.389, 360.1648
1106.871, 361.1852
1107.353, 358.7217
1107.835, 356.1348
1108.317, 355.2807
1108.800, 356.0887
1109.282, 358.9130
1109.764, 363.8988
1110.246, 367.0983
1110.728, 368.1626
1111.210, 367.4236
1111.692, 362.3597
1112.174, 358.4766
1112.656, 359.6978
1113.139, 362.6780
1113.621, 363.4394
1114.103, 362.0855
1114.585, 360.3292
1115.067, 356.2569
1115.549, 355.3179
1116.031, 360.7854
1116.513, 364.6872
1116.995, 362.9376
1117.478, 360.3886
1117.960, 361.6774
1118.442, 365.4418
1118.924, 367.3257
1119.406, 366.9254
1119.888, 366.1800
1120.370, 364.6712
1120.852, 363.6569
1121.335, 363.2076
1121.817, 363.7614
1122.299, 366.2899
1122.781, 369.2216
1123.263, 369.4531
1123.745, 366.9051
1124.227, 365.7003
1124.709, 366.1901
1125.192, 366.9138
1125.674, 368.0816
1126.156, 368.0840
1126.638, 365.6391
1127.120, 363.0901
1127.602, 363.4427
1128.084, 365.9344
1128.566, 366.5607
1129.048, 364.9564
1129.531, 365.0360
1130.013, 367.2733
1130.495, 368.9812
1130.977, 369.2896
1131.459, 369.0790
1131.941, 369.0948
1132.423, 368.9691
1132.905, 367.4261
1133.387, 364.6879
1133.870, 364.5433
1134.352, 366.8895
1134.834, 368.7148
1135.316, 369.4508
1135.798, 370.9897
1136.280, 374.4653
1136.762, 377.5330
1137.244, 376.8034
1137.727, 373.6539
1138.209, 371.9933
1138.691, 371.6548
1139.173, 372.2962
1139.655, 373.6495
1140.137, 374.4860
1140.619, 374.4172
1141.101, 374.3186
1141.583, 375.0631
1142.066, 375.6462
1142.548, 373.5694
1143.030, 370.7054
1143.512, 371.8681
1143.994, 375.3907
1144.476, 375.6966
1144.958, 372.5474
1145.440, 370.6418
1145.922, 372.4014
1146.405, 375.1363
1146.887, 376.5232
1147.369, 377.3669
1147.851, 378.7891
1148.333, 380.1434
1148.815, 380.5386
1149.297, 379.9508
1149.779, 378.1034
1150.262, 375.1761
1150.744, 373.6235
1151.226, 375.7128
1151.708, 378.1514
1152.190, 379.2161
1152.672, 379.3402
1153.154, 378.0786
1153.636, 376.6133
1154.119, 376.7542
1154.601, 378.3412
1155.083, 379.7106
1155.565, 380.5069
1156.047, 380.7024
1156.529, 380.3985
1157.011, 379.3484
1157.493, 376.1095
1157.975, 373.3128
1158.458, 374.0322
1158.940, 376.5494
1159.422, 376.9311
1159.904, 374.6570
1160.386, 373.2075
1160.868, 372.4635
1161.350, 373.2137
1161.832, 377.0920
1162.314, 380.4590
1162.797, 381.8053
1163.279, 381.9354
1163.761, 381.4542
1164.243, 380.5173
1164.725, 379.8278
1165.207, 379.2861
1165.689, 379.3745
1166.171, 380.2442
1166.654, 381.3539
1167.136, 382.7060
1167.618, 383.9285
1168.100, 384.8961
1168.582, 385.2329
1169.064, 383.9787
1169.546, 381.4968
1170.028, 381.4666
1170.510, 383.9613
1170.993, 385.8404
1171.475, 386.7724
1171.957, 387.1280
1172.439, 387.0441
1172.921, 386.5529
1173.403, 385.6602
1173.885, 384.4698
1174.367, 382.8322
1174.849, 381.1429
1175.332, 380.7301
1175.814, 381.5380
1176.296, 383.8804
1176.778, 387.2512
1177.260, 388.7027
1177.742, 386.8335
1178.224, 384.3403
1178.706, 383.2495
1179.189, 383.6120
1179.671, 386.6192
1180.153, 390.3442
1180.635, 392.1445
1181.117, 392.1563
1181.599, 390.6833
1182.081, 388.2590
1182.563, 386.8427
1183.046, 387.5578
1183.528, 388.7563
1184.010, 390.1890
1184.492, 390.9452
1184.974, 389.7945
1185.456, 388.1550
1185.938, 387.5803
1186.420, 387.7378
1186.902, 387.3316
1187.385, 386.0859
1187.867, 385.8617
1188.349, 387.8481
1188.831, 389.6335
1189.313, 390.7798
1189.795, 391.6264
1190.277, 392.5632
1190.759, 393.0583
1191.241, 392.1248
1191.724, 392.6391
1192.206, 392.7032
1192.688, 392.0302
1193.170, 392.7491
1193.652, 391.8956
1194.134, 390.8531
1194.616, 389.7716
1195.098, 388.9358
1195.581, 388.4779
1196.063, 388.4391
1196.545, 388.8886
1197.027, 389.7923
1197.509, 391.2521
1197.991, 393.1848
1198.473, 393.9206
1198.955, 393.4585
1199.438, 393.1940
1199.920, 393.4860
1200.402, 393.6146
1200.884, 393.0896
1201.366, 392.2964
1201.848, 391.2800
1202.330, 390.6562
1202.812, 392.3397
1203.294, 392.0422
1203.776, 392.7636
1204.259, 394.0909
1204.741, 394.2881
1205.223, 396.5341
1205.705, 397.9733
1206.187, 396.4290
1206.669, 395.1126
1207.151, 397.2155
1207.633, 399.3703
1208.116, 398.3484
1208.598, 396.3322
1209.080, 396.0001
1209.562, 396.9798
1210.044, 397.5139
1210.526, 397.2255
1211.008, 397.4927
1211.490, 399.6019
1211.973, 400.7315
1212.455, 398.9975
1212.937, 397.8986
1213.419, 399.7600
1213.901, 402.0881
1214.383, 402.4299
1214.865, 401.2070
1215.347, 399.6557
1215.829, 397.4672
1216.312, 397.3120
1216.794, 399.7138
1217.276, 401.7118
1217.758, 402.9447
1218.240, 402.4931
1218.722, 399.6551
1219.204, 396.7970
1219.686, 396.6872
1220.168, 398.2170
1220.651, 398.5340
1221.133, 397.9966
1221.615, 397.7142
1222.097, 397.9463
1222.579, 400.0031
1223.061, 403.6068
1223.543, 405.9287
1224.025, 405.6333
1224.508, 404.7490
1224.990, 404.7511
1225.472, 405.3848
1225.954, 407.3646
1226.436, 408.9953
1226.918, 407.5049
1227.400, 404.6862
1227.882, 404.0131
1228.365, 405.3335
1228.847, 405.2146
1229.329, 401.8828
1229.811, 400.6123
1230.293, 405.7762
1230.775, 409.1617
1231.257, 406.9230
1231.739, 403.3503
1232.221, 400.0950
1232.703, 397.8796
1233.186, 397.7985
1233.668, 399.6161
1234.150, 401.9675
1234.632, 405.4685
1235.114, 406.6820
1235.596, 404.7929
1236.078, 404.6535
1236.560, 407.6691
1237.043, 410.5817
1237.525, 411.5785
1238.007, 411.0506
1238.489, 409.1388
1238.971, 406.6863
1239.453, 406.4543
1239.935, 404.9429
1240.417, 403.9783
1240.900, 404.1359
1241.382, 403.2353
1241.864, 404.3057
1242.346, 405.8848
1242.828, 407.2803
1243.310, 408.5908
1243.792, 410.0988
1244.274, 411.3191
1244.756, 412.0869
1245.239, 412.1800
1245.721, 410.5617
1246.203, 408.6134
1246.685, 408.6218
1247.167, 410.4215
1247.649, 411.9033
1248.131, 412.7478
1248.613, 413.1489
1249.095, 412.6239
1249.578, 412.4410
1250.060, 413.2240
1250.542, 413.6956
1251.024, 412.9106
1251.506, 412.0078
1251.988, 412.4796
1252.470, 413.8554
1252.952, 414.2450
1253.435, 413.6211
1253.917, 413.1045
1254.399, 412.7206
1254.881, 412.8795
1255.363, 413.6095
1255.845, 414.2168
1256.327, 414.3824
1256.809, 414.4917
1257.292, 415.0643
1257.774, 415.4010
1258.256, 413.4855
1258.738, 411.5668
1259.220, 413.7043
1259.702, 417.7191
1260.184, 419.9710
1260.666, 420.2355
1261.148, 419.6463
1261.630, 418.5036
1262.113, 417.3823
1262.595, 415.7763
1263.077, 415.2940
1263.559, 417.5502
1264.041, 419.5999
1264.523, 419.5128
1265.005, 419.1005
1265.487, 420.5475
1265.970, 422.4459
1266.452, 421.1364
1266.934, 416.5257
1267.416, 415.2514
1267.898, 417.9279
1268.380, 419.0735
1268.862, 418.0703
1269.344, 417.4391
1269.827, 418.0034
1270.309, 418.6657
1270.791, 418.6321
1271.273, 418.2597
1271.755, 417.8741
1272.237, 417.6289
1272.719, 417.8356
1273.201, 418.3780
1273.683, 419.3274
1274.166, 420.3297
1274.648, 420.5774
1275.130, 420.0410
1275.612, 419.3994
1276.094, 418.7784
1276.576, 418.6164
1277.058, 419.1734
1277.540, 420.1005
1278.022, 421.4786
1278.505, 422.9359
1278.987, 424.9446
1279.469, 426.2821
1279.951, 425.0285
1280.433, 422.0292
1280.915, 420.7581
1281.397, 421.3869
1281.879, 423.5467
1282.362, 427.6072
1282.844, 428.3716
1283.326, 424.9479
1283.808, 422.2657
1284.290, 422.3539
1284.772, 423.1465
1285.254, 422.7744
1285.736, 421.2314
##END=



