##NAMES=Chalcanthite
##RRUFFID=R050293
##IDEAL CHEMISTRY=Cu^2+^S^6+^O_4_&#183;5H_2_O
##LOCALITY=79 mine, 4th level, Hayden, Gila County, Arizona, USA
##OWNER=RRUFF
##SOURCE=George Godas, John Callahan
##DESCRIPTION=Blue fibrous crust
##STATUS=The identification of this mineral has been confirmed by X-ray diffraction and chemical analysis
##URL=rruff.info/R050293
##MEASURED CHEMISTRY=Cu_1.00_S_1.00_O_4_Â·5H_2_O
92.52344, 111.0561
93.00555, 110.8423
93.48767, 111.0943
93.96979, 114.5450
94.45190, 116.6885
94.93402, 115.8037
95.41614, 112.6434
95.89825, 109.4871
96.38037, 107.9942
96.86249, 107.8448
97.34460, 108.3769
97.82672, 111.9452
98.30884, 113.5890
98.79095, 111.4603
99.27307, 106.7554
99.75519, 102.1111
100.2373, 99.28945
100.7194, 98.21689
101.2015, 97.60775
101.6837, 98.57141
102.1658, 99.11512
102.6479, 96.97093
103.1300, 91.79031
103.6121, 87.33458
104.0942, 87.52617
104.5764, 90.28585
105.0585, 92.64449
105.5406, 93.38066
106.0227, 92.93169
106.5048, 92.60634
106.9869, 92.54171
107.4691, 92.34179
107.9512, 91.50257
108.4333, 90.32815
108.9154, 89.58148
109.3975, 90.19550
109.8796, 92.53739
110.3618, 93.80311
110.8439, 93.82840
111.3260, 92.97224
111.8081, 90.57719
112.2902, 86.98421
112.7723, 83.63542
113.2544, 82.70361
113.7366, 86.36438
114.2187, 88.49590
114.7008, 89.03856
115.1829, 88.26768
115.6650, 85.89918
116.1471, 81.79767
116.6293, 77.10071
117.1114, 74.64790
117.5935, 75.29323
118.0756, 76.14005
118.5577, 76.06823
119.0398, 75.65734
119.5220, 76.57956
120.0041, 80.34673
120.4862, 85.21280
120.9683, 87.30913
121.4504, 85.44294
121.9325, 82.89198
122.4147, 82.45963
122.8968, 84.33858
123.3789, 85.98064
123.8610, 85.38980
124.3431, 84.13036
124.8252, 83.81786
125.3074, 85.32292
125.7895, 87.58514
126.2716, 88.15004
126.7537, 85.53749
127.2358, 83.88138
127.7179, 85.57616
128.2001, 88.61115
128.6822, 90.18965
129.1643, 88.27682
129.6464, 83.25784
130.1285, 80.17561
130.6107, 81.45689
131.0928, 82.48035
131.5749, 81.57720
132.0570, 79.44077
132.5391, 77.86952
133.0212, 78.55664
133.5034, 81.97443
133.9855, 84.54401
134.4676, 86.40545
134.9497, 87.52821
135.4318, 87.64184
135.9139, 86.82320
136.3960, 85.66556
136.8782, 84.79964
137.3603, 84.28096
137.8424, 83.84889
138.3245, 83.47538
138.8066, 83.18813
139.2887, 83.24400
139.7709, 83.86989
140.2530, 84.16795
140.7351, 82.38110
141.2172, 78.72139
141.6993, 75.87895
142.1814, 75.27872
142.6636, 76.49855
143.1457, 78.18755
143.6278, 80.98771
144.1099, 83.02562
144.5920, 82.44032
145.0741, 79.27631
145.5563, 75.91676
146.0384, 74.55882
146.5205, 75.44006
147.0026, 76.29726
147.4847, 76.38701
147.9668, 76.58578
148.4490, 77.59972
148.9311, 79.51184
149.4132, 81.59700
149.8953, 82.80702
150.3774, 83.06976
150.8595, 82.44711
151.3417, 80.10877
151.8238, 77.53587
152.3059, 75.84624
152.7880, 75.47556
153.2701, 76.14954
153.7522, 77.20556
154.2344, 80.37815
154.7165, 81.83990
155.1986, 79.92906
155.6807, 76.64251
156.1628, 74.52329
156.6449, 74.89326
157.1271, 77.14684
157.6092, 78.87475
158.0913, 80.65590
158.5734, 81.45205
159.0555, 79.92952
159.5376, 77.02239
160.0198, 75.33490
160.5019, 76.71319
160.9840, 80.20870
161.4661, 82.08042
161.9482, 81.86467
162.4303, 80.64362
162.9125, 78.49673
163.3946, 75.49059
163.8767, 73.31167
164.3588, 73.18710
164.8409, 74.57162
165.3230, 76.72294
165.8052, 80.71479
166.2873, 84.33278
166.7694, 83.84177
167.2515, 77.80938
167.7336, 72.57639
168.2157, 71.61823
168.6979, 73.07097
169.1800, 75.09373
169.6621, 77.20614
170.1442, 79.17730
170.6263, 80.36891
171.1084, 80.63349
171.5906, 80.22432
172.0727, 78.73750
172.5548, 76.83751
173.0369, 75.43832
173.5190, 75.12946
174.0011, 75.80314
174.4833, 76.54991
174.9654, 77.20122
175.4475, 78.12948
175.9296, 79.91538
176.4117, 82.02760
176.8938, 83.47334
177.3760, 83.39847
177.8581, 81.74000
178.3402, 81.03304
178.8223, 83.22201
179.3044, 84.38480
179.7865, 81.95320
180.2687, 76.98280
180.7508, 72.74097
181.2329, 72.13622
181.7150, 75.58706
182.1971, 78.29852
182.6792, 80.19019
183.1614, 81.54396
183.6435, 82.51653
184.1256, 83.11092
184.6077, 83.24026
185.0898, 82.81136
185.5719, 81.74348
186.0541, 80.27237
186.5362, 77.29521
187.0183, 74.55418
187.5004, 73.86494
187.9825, 75.47686
188.4646, 77.94322
188.9468, 80.52606
189.4289, 83.03744
189.9110, 84.56743
190.3931, 83.80916
190.8752, 82.27261
191.3573, 82.71209
191.8395, 86.11980
192.3216, 89.23093
192.8037, 88.96335
193.2858, 86.46746
193.7679, 84.21761
194.2500, 83.89457
194.7322, 84.73289
195.2143, 84.01780
195.6964, 80.47000
196.1785, 77.29615
196.6606, 76.35886
197.1427, 77.04262
197.6249, 78.02975
198.1070, 78.53210
198.5891, 78.59625
199.0712, 78.69186
199.5533, 78.82153
200.0354, 78.98510
200.5176, 79.23628
200.9997, 79.52323
201.4818, 79.70512
201.9639, 79.54542
202.4460, 79.01454
202.9281, 79.23930
203.4103, 82.17277
203.8924, 84.08322
204.3745, 83.26003
204.8566, 80.33251
205.3387, 77.01424
205.8208, 74.72684
206.3030, 73.50721
206.7851, 72.97970
207.2672, 73.81658
207.7493, 74.63681
208.2314, 74.80801
208.7135, 74.43328
209.1957, 74.06721
209.6778, 74.28092
210.1599, 75.24999
210.6420, 75.31131
211.1241, 72.96133
211.6062, 71.17376
212.0884, 72.03152
212.5705, 75.20724
213.0526, 78.60030
213.5347, 80.45349
214.0168, 80.56399
214.4989, 79.76334
214.9811, 77.09272
215.4632, 74.33302
215.9453, 72.68979
216.4274, 72.20380
216.9095, 72.11229
217.3916, 71.75594
217.8737, 71.15284
218.3559, 70.96147
218.8380, 71.46844
219.3201, 72.21257
219.8022, 73.21844
220.2843, 74.48466
220.7664, 74.70026
221.2486, 71.66672
221.7307, 66.45140
222.2128, 63.74877
222.6949, 65.70894
223.1770, 69.72668
223.6591, 73.17049
224.1413, 75.97588
224.6234, 78.16085
225.1055, 79.99601
225.5876, 81.16862
226.0697, 80.82578
226.5518, 78.01915
227.0340, 73.94758
227.5161, 69.69191
227.9982, 64.54259
228.4803, 61.75777
228.9624, 65.74968
229.4445, 72.66869
229.9267, 77.47909
230.4088, 77.55852
230.8909, 75.15369
231.3730, 74.75221
231.8551, 77.39487
232.3372, 79.39107
232.8194, 78.32211
233.3015, 76.08446
233.7836, 75.02197
234.2657, 76.42433
234.7478, 79.02904
235.2299, 79.86551
235.7121, 78.01607
236.1942, 76.18665
236.6763, 75.03758
237.1584, 74.36879
237.6405, 74.11353
238.1227, 74.32179
238.6048, 74.62830
239.0869, 73.89323
239.5690, 70.69212
240.0511, 69.04343
240.5332, 70.45982
241.0154, 73.19312
241.4975, 75.64259
241.9796, 77.12962
242.4617, 77.85894
242.9438, 78.29561
243.4259, 78.31197
243.9081, 78.20146
244.3902, 78.18198
244.8723, 77.98631
245.3544, 77.22197
245.8365, 75.75178
246.3186, 73.98486
246.8008, 72.83186
247.2829, 72.50840
247.7650, 72.59956
248.2471, 73.70397
248.7292, 74.87008
249.2113, 75.05256
249.6935, 73.93676
250.1756, 72.24105
250.6577, 71.38320
251.1398, 72.23626
251.6219, 72.71711
252.1040, 72.94499
252.5862, 72.75842
253.0683, 71.42932
253.5504, 68.90365
254.0325, 66.68488
254.5146, 67.42537
254.9967, 74.26786
255.4789, 78.19669
255.9610, 77.18388
256.4431, 74.46185
256.9252, 72.77856
257.4073, 72.78217
257.8894, 73.38962
258.3716, 73.02143
258.8537, 70.71539
259.3358, 70.23795
259.8179, 73.32012
260.3000, 77.19231
260.7821, 79.60022
261.2643, 80.13148
261.7464, 79.49374
262.2285, 78.37545
262.7106, 76.67579
263.1927, 74.69246
263.6748, 70.75583
264.1570, 67.60588
264.6391, 68.58116
265.1212, 73.77596
265.6033, 78.98242
266.0854, 79.94375
266.5675, 76.38702
267.0497, 74.33190
267.5318, 75.63600
268.0139, 77.29015
268.4960, 76.20985
268.9781, 72.41338
269.4602, 69.46265
269.9424, 70.72517
270.4245, 75.46951
270.9066, 77.75027
271.3887, 74.79880
271.8708, 71.34337
272.3529, 71.44538
272.8351, 74.86100
273.3172, 78.14216
273.7993, 79.40981
274.2814, 78.82434
274.7635, 77.55650
275.2456, 74.85622
275.7278, 72.34113
276.2099, 71.33670
276.6920, 71.68501
277.1741, 72.06395
277.6562, 71.71364
278.1383, 71.13148
278.6205, 71.46457
279.1026, 73.39595
279.5847, 74.77605
280.0668, 73.11643
280.5489, 69.13063
281.0310, 67.34489
281.5132, 70.43819
281.9953, 75.42434
282.4774, 78.10417
282.9595, 78.31611
283.4416, 77.32582
283.9237, 75.15054
284.4059, 72.19124
284.8880, 70.26820
285.3701, 70.39957
285.8522, 70.92313
286.3343, 69.59814
286.8164, 66.54170
287.2986, 64.50772
287.7807, 66.10775
288.2628, 70.03187
288.7449, 71.82590
289.2270, 70.19421
289.7091, 67.56055
290.1913, 65.61268
290.6734, 64.30283
291.1555, 63.53409
291.6376, 63.33211
292.1197, 63.63683
292.6018, 64.39774
293.0840, 65.77574
293.5661, 67.22446
294.0482, 68.62486
294.5303, 69.83076
295.0124, 70.53759
295.4945, 70.77641
295.9767, 70.35618
296.4588, 68.58573
296.9409, 64.94419
297.4230, 61.74117
297.9051, 60.37452
298.3872, 60.06132
298.8694, 60.06027
299.3515, 60.29278
299.8336, 60.53041
300.3157, 60.13697
300.7978, 58.82975
301.2799, 58.62353
301.7621, 61.59749
302.2442, 65.38272
302.7263, 68.00617
303.2084, 69.09472
303.6905, 69.14039
304.1726, 68.36633
304.6548, 66.73411
305.1369, 65.21629
305.6190, 63.84023
306.1011, 62.85653
306.5832, 62.75447
307.0653, 63.51006
307.5475, 63.96928
308.0296, 62.84214
308.5117, 60.30740
308.9938, 58.49477
309.4759, 57.75403
309.9580, 57.79055
310.4402, 58.72333
310.9223, 60.28249
311.4044, 61.49241
311.8865, 61.63890
312.3686, 60.90076
312.8507, 59.92675
313.3329, 58.25767
313.8150, 57.21074
314.2971, 57.77359
314.7792, 59.33776
315.2613, 60.81211
315.7434, 61.70144
316.2256, 62.20120
316.7077, 62.76603
317.1898, 63.50350
317.6719, 64.01009
318.1540, 64.32292
318.6361, 64.24286
319.1183, 63.21354
319.6004, 60.68086
320.0825, 58.23177
320.5646, 58.72286
321.0467, 62.87825
321.5288, 65.31087
322.0110, 61.98030
322.4931, 57.64774
322.9752, 56.31442
323.4573, 58.65348
323.9394, 61.70011
324.4215, 62.54600
324.9037, 61.24068
325.3858, 60.50680
325.8679, 61.26325
326.3500, 62.27909
326.8321, 62.63085
327.3142, 62.39063
327.7964, 62.14437
328.2785, 62.60830
328.7606, 63.49289
329.2427, 63.13247
329.7248, 60.37898
330.2069, 58.24681
330.6891, 59.10149
331.1712, 61.82967
331.6533, 64.13364
332.1354, 65.06304
332.6175, 64.88094
333.0996, 63.98204
333.5818, 62.19302
334.0639, 60.22703
334.5460, 57.38447
335.0281, 54.93281
335.5102, 54.87008
335.9923, 58.57000
336.4745, 62.79655
336.9566, 63.09639
337.4387, 59.15945
337.9208, 56.63766
338.4029, 58.81393
338.8850, 62.20518
339.3671, 63.25923
339.8492, 61.57558
340.3314, 59.45050
340.8135, 58.41403
341.2956, 58.36944
341.7777, 58.93331
342.2598, 60.66801
342.7419, 62.06044
343.2241, 61.42358
343.7062, 59.17051
344.1883, 57.39394
344.6704, 57.09175
345.1525, 57.95350
345.6346, 59.57891
346.1168, 62.27391
346.5989, 64.66722
347.0810, 66.23686
347.5631, 66.77823
348.0452, 65.41672
348.5273, 59.89591
349.0095, 54.20564
349.4916, 53.69294
349.9737, 58.48380
350.4558, 62.78734
350.9379, 64.09906
351.4200, 63.12560
351.9022, 60.99661
352.3843, 57.16655
352.8664, 53.84945
353.3485, 52.65050
353.8306, 53.23179
354.3127, 54.42791
354.7949, 56.29430
355.2770, 58.04878
355.7591, 58.53773
356.2412, 57.80093
356.7233, 57.16573
357.2054, 57.56779
357.6876, 58.22040
358.1697, 57.50092
358.6518, 54.97577
359.1339, 52.71496
359.6160, 52.74712
360.0981, 54.71765
360.5803, 56.63415
361.0624, 58.70893
361.5445, 60.30754
362.0266, 60.63356
362.5087, 59.82777
362.9908, 58.97352
363.4730, 58.59153
363.9551, 58.63905
364.4372, 58.96128
364.9193, 59.97079
365.4014, 60.56139
365.8835, 60.07588
366.3657, 58.86984
366.8478, 57.52654
367.3299, 56.16108
367.8120, 55.04911
368.2941, 54.62601
368.7762, 54.87046
369.2584, 55.78748
369.7405, 58.53975
370.2226, 61.29223
370.7047, 61.95507
371.1868, 60.36744
371.6689, 58.23685
372.1511, 56.97869
372.6332, 56.65267
373.1153, 56.74575
373.5974, 57.44370
374.0795, 58.33041
374.5616, 59.71122
375.0438, 61.15118
375.5259, 61.42812
376.0080, 59.69985
376.4901, 56.74566
376.9722, 55.35972
377.4543, 57.59681
377.9365, 58.73119
378.4186, 57.30611
378.9007, 54.98309
379.3828, 53.63139
379.8649, 53.75087
380.3470, 54.50836
380.8292, 54.74110
381.3113, 54.19337
381.7934, 53.86890
382.2755, 54.06105
382.7576, 54.19307
383.2397, 53.62006
383.7219, 52.61404
384.2040, 52.14436
384.6861, 53.05632
385.1682, 55.23606
385.6503, 56.84192
386.1324, 57.19144
386.6146, 57.69390
387.0967, 59.12429
387.5788, 60.65585
388.0609, 61.13238
388.5430, 60.06403
389.0251, 58.10862
389.5073, 56.50541
389.9894, 55.11386
390.4715, 54.43259
390.9536, 54.92075
391.4357, 55.67637
391.9178, 56.08475
392.4000, 56.12933
392.8821, 56.26674
393.3642, 57.18171
393.8463, 58.93449
394.3284, 59.32175
394.8105, 56.58812
395.2927, 54.50023
395.7748, 55.12309
396.2569, 57.08801
396.7390, 57.88256
397.2211, 55.92248
397.7032, 52.79891
398.1854, 52.36315
398.6675, 55.65441
399.1496, 58.48051
399.6317, 59.45275
400.1138, 59.65117
400.5959, 59.80349
401.0781, 60.03722
401.5602, 60.08019
402.0423, 59.53820
402.5244, 58.48071
403.0065, 57.71844
403.4886, 57.61733
403.9708, 57.42147
404.4529, 56.26878
404.9350, 54.56805
405.4171, 53.49761
405.8992, 54.03690
406.3813, 55.25816
406.8635, 55.49547
407.3456, 54.59295
407.8277, 54.18989
408.3098, 55.57941
408.7919, 57.74522
409.2740, 58.95710
409.7562, 58.92744
410.2383, 58.45810
410.7204, 57.56496
411.2025, 56.58310
411.6846, 56.88885
412.1667, 59.36417
412.6489, 61.64768
413.1310, 59.60922
413.6131, 53.34164
414.0952, 50.32030
414.5773, 55.20975
415.0594, 61.61034
415.5416, 62.89949
416.0237, 59.30364
416.5058, 56.14102
416.9879, 57.05548
417.4700, 61.23172
417.9521, 64.14095
418.4343, 66.37044
418.9164, 66.91238
419.3985, 63.19243
419.8806, 58.29377
420.3627, 57.55250
420.8448, 62.62289
421.3270, 69.47419
421.8091, 72.04550
422.2912, 68.43815
422.7733, 65.65219
423.2554, 63.70895
423.7375, 62.49197
424.2197, 62.37093
424.7018, 63.00201
425.1839, 63.47821
425.6660, 63.14127
426.1481, 62.09630
426.6302, 61.01577
427.1124, 59.21252
427.5945, 58.29546
428.0766, 58.73333
428.5587, 59.98965
429.0408, 61.88519
429.5229, 64.24710
430.0051, 66.28123
430.4872, 66.67133
430.9693, 64.93208
431.4514, 63.58423
431.9335, 63.20210
432.4156, 62.76042
432.8978, 61.28505
433.3799, 59.38221
433.8620, 58.64631
434.3441, 60.46734
434.8262, 63.81646
435.3083, 65.56638
435.7905, 65.06474
436.2726, 64.75300
436.7547, 65.88280
437.2368, 67.40082
437.7189, 68.48722
438.2010, 69.00224
438.6832, 68.94556
439.1653, 67.80827
439.6474, 65.91684
440.1295, 65.16177
440.6116, 66.21568
441.0938, 67.71825
441.5759, 68.76926
442.0580, 69.37214
442.5401, 69.37141
443.0222, 68.09827
443.5043, 66.63084
443.9865, 66.06236
444.4686, 66.33418
444.9507, 66.97828
445.4328, 68.11217
445.9149, 69.13424
446.3970, 68.35789
446.8792, 64.81413
447.3613, 62.53484
447.8434, 63.88498
448.3255, 66.50560
448.8076, 67.14363
449.2897, 65.35646
449.7719, 63.55196
450.2540, 64.13869
450.7361, 67.28214
451.2182, 69.37973
451.7003, 70.25249
452.1824, 70.46101
452.6646, 69.93610
453.1467, 68.94820
453.6288, 67.73840
454.1109, 66.40767
454.5930, 65.32274
455.0751, 65.33569
455.5573, 67.63424
456.0394, 68.67567
456.5215, 67.71867
457.0036, 66.35475
457.4857, 65.38326
457.9678, 64.86575
458.4500, 64.59620
458.9321, 64.54124
459.4142, 64.55745
459.8963, 63.64384
460.3784, 60.76273
460.8605, 58.83940
461.3427, 59.13538
461.8248, 60.35069
462.3069, 61.23392
462.7890, 61.47282
463.2711, 61.61837
463.7532, 62.58555
464.2354, 64.24781
464.7175, 64.62034
465.1996, 63.02354
465.6817, 60.80112
466.1638, 58.50361
466.6459, 56.33253
467.1281, 54.86111
467.6102, 54.43787
468.0923, 54.65881
468.5744, 55.19144
469.0565, 56.02513
469.5386, 57.27605
470.0208, 59.69091
470.5029, 61.64128
470.9850, 59.30183
471.4671, 51.57936
471.9492, 46.40479
472.4313, 47.32841
472.9135, 50.85703
473.3956, 53.55586
473.8777, 55.03007
474.3598, 56.19422
474.8419, 57.89729
475.3240, 59.92130
475.8062, 60.01077
476.2883, 56.69166
476.7704, 53.53718
477.2525, 50.18165
477.7346, 47.85328
478.2167, 48.88643
478.6989, 53.55202
479.1810, 58.64119
479.6631, 59.96743
480.1452, 56.77711
480.6273, 53.60041
481.1094, 48.64158
481.5916, 45.58455
482.0737, 47.30841
482.5558, 51.49158
483.0379, 53.95821
483.5200, 52.53852
484.0021, 49.33251
484.4843, 48.63539
484.9664, 51.22734
485.4485, 52.68565
485.9306, 50.86312
486.4127, 48.75132
486.8948, 48.46979
487.3770, 49.82306
487.8591, 51.19793
488.3412, 51.97971
488.8233, 52.07757
489.3054, 50.78234
489.7875, 47.85830
490.2697, 45.98410
490.7518, 47.03215
491.2339, 49.77185
491.7160, 51.59434
492.1981, 52.27201
492.6802, 52.67749
493.1624, 53.03481
493.6445, 53.38800
494.1266, 53.97157
494.6087, 54.80563
495.0908, 55.20611
495.5729, 54.38504
496.0551, 52.37188
496.5372, 51.36685
497.0193, 52.91290
497.5014, 53.52688
497.9835, 50.53964
498.4656, 46.53272
498.9478, 45.62647
499.4299, 49.02522
499.9120, 53.83550
500.3941, 55.74343
500.8762, 53.82777
501.3583, 52.71677
501.8405, 53.19267
502.3226, 53.68188
502.8047, 53.61943
503.2868, 53.16611
503.7689, 52.73199
504.2510, 52.55327
504.7331, 52.32859
505.2152, 51.24375
505.6974, 49.00867
506.1795, 47.69543
506.6616, 47.97257
507.1437, 49.13997
507.6258, 51.23955
508.1079, 53.95550
508.5901, 55.65746
509.0722, 55.17884
509.5543, 53.42303
510.0364, 51.32225
510.5185, 48.91002
511.0006, 47.28391
511.4828, 47.24738
511.9649, 48.06486
512.4470, 48.07144
512.9291, 46.90069
513.4113, 46.29082
513.8934, 47.00282
514.3755, 48.30063
514.8576, 49.76256
515.3397, 51.17765
515.8218, 51.75057
516.3040, 50.67797
516.7861, 48.35239
517.2682, 47.63132
517.7503, 50.87697
518.2324, 52.78329
518.7145, 51.59809
519.1967, 49.63699
519.6788, 49.35727
520.1609, 50.99319
520.6430, 52.71865
521.1251, 52.65711
521.6072, 50.85650
522.0894, 48.93382
522.5715, 45.74413
523.0536, 44.34769
523.5357, 47.40677
524.0178, 51.84293
524.4999, 53.82012
524.9821, 52.20074
525.4642, 49.94338
525.9463, 50.09051
526.4284, 52.00690
526.9105, 52.71359
527.3926, 51.56104
527.8748, 49.87779
528.3569, 48.08106
528.8390, 46.55931
529.3211, 46.68789
529.8032, 50.78307
530.2853, 54.07606
530.7675, 53.04299
531.2496, 49.52309
531.7317, 47.08059
532.2138, 46.74951
532.6959, 47.48972
533.1780, 48.09850
533.6602, 48.57609
534.1423, 48.91064
534.6244, 48.24876
535.1065, 48.38653
535.5886, 51.24541
536.0707, 54.97607
536.5529, 56.63762
537.0350, 55.08358
537.5171, 51.79326
537.9992, 49.01481
538.4813, 46.84693
538.9634, 44.65745
539.4456, 41.56621
539.9277, 39.47264
540.4098, 39.53173
540.8919, 41.15466
541.3740, 43.30241
541.8561, 45.92628
542.3383, 48.15156
542.8204, 48.59370
543.3025, 47.43993
543.7846, 46.40834
544.2667, 45.75489
544.7488, 45.66647
545.2310, 46.54184
545.7131, 48.27948
546.1952, 50.16857
546.6773, 52.96894
547.1594, 55.07864
547.6415, 55.34185
548.1237, 54.07890
548.6058, 51.58264
549.0879, 47.87020
549.5700, 44.75975
550.0521, 45.65877
550.5342, 53.01577
551.0164, 56.82002
551.4985, 54.52695
551.9806, 51.83631
552.4627, 51.38890
552.9448, 52.36016
553.4269, 52.92807
553.9091, 52.24595
554.3912, 50.60601
554.8733, 47.88924
555.3554, 43.56655
555.8375, 41.90264
556.3196, 45.38851
556.8018, 49.46888
557.2839, 51.29160
557.7660, 51.37392
558.2481, 51.16917
558.7302, 51.11091
559.2123, 51.07436
559.6945, 50.79224
560.1766, 50.37989
560.6587, 50.51797
561.1408, 51.59633
561.6229, 52.66415
562.1050, 52.42746
562.5872, 50.62301
563.0693, 49.27966
563.5514, 48.07760
564.0335, 47.69051
564.5156, 49.32138
564.9977, 51.83503
565.4799, 53.12365
565.9620, 52.35919
566.4441, 50.59136
566.9262, 49.42773
567.4083, 48.95631
567.8904, 48.73875
568.3726, 49.52361
568.8547, 49.76759
569.3368, 47.93024
569.8189, 45.45493
570.3010, 45.05532
570.7831, 48.07939
571.2653, 51.57293
571.7474, 51.36163
572.2295, 48.05527
572.7116, 46.91515
573.1937, 49.49236
573.6758, 52.57761
574.1580, 53.66001
574.6401, 53.03288
575.1222, 51.82004
575.6043, 49.34529
576.0864, 47.19204
576.5685, 45.78234
577.0507, 45.32836
577.5328, 46.80115
578.0149, 50.28479
578.4970, 53.54555
578.9791, 54.04705
579.4612, 51.65208
579.9434, 49.96087
580.4255, 49.32331
580.9076, 49.00988
581.3897, 48.84959
581.8718, 48.96665
582.3539, 49.75415
582.8361, 51.19483
583.3182, 52.40469
583.8003, 52.09910
584.2824, 50.59800
584.7645, 50.46255
585.2466, 52.22486
585.7288, 53.87273
586.2108, 54.62988
586.6929, 54.56121
587.1750, 53.43324
587.6572, 50.79235
588.1393, 49.01511
588.6214, 50.38744
589.1035, 52.63367
589.5856, 51.92862
590.0677, 48.37944
590.5499, 46.34219
591.0320, 49.06784
591.5141, 54.80439
591.9962, 56.99647
592.4783, 51.57594
592.9604, 48.23580
593.4426, 47.91116
593.9247, 48.97292
594.4068, 51.22134
594.8889, 53.90241
595.3710, 55.31867
595.8531, 54.12599
596.3353, 51.47633
596.8174, 50.16409
597.2995, 50.47342
597.7816, 50.43206
598.2637, 48.65048
598.7458, 47.46265
599.2280, 49.59401
599.7101, 54.31144
600.1922, 57.61772
600.6743, 57.49139
601.1564, 56.12426
601.6385, 54.86737
602.1207, 53.85210
602.6028, 53.56232
603.0849, 54.20461
603.5670, 55.09968
604.0491, 55.42210
604.5313, 55.16227
605.0134, 54.34516
605.4955, 51.29165
605.9776, 49.67289
606.4597, 52.42687
606.9418, 56.51644
607.4240, 57.59430
607.9061, 54.59517
608.3882, 50.69448
608.8703, 49.57188
609.3524, 51.00864
609.8345, 52.16888
610.3167, 53.17550
610.7988, 53.51830
611.2809, 52.27067
611.7630, 50.50502
612.2451, 49.77258
612.7272, 50.41711
613.2094, 51.05915
613.6915, 50.66574
614.1736, 50.15155
614.6557, 51.04167
615.1378, 53.17979
615.6199, 54.71656
616.1021, 54.41466
616.5842, 53.04380
617.0663, 52.85012
617.5484, 55.32646
618.0305, 56.42698
618.5126, 56.11665
618.9948, 54.60676
619.4769, 50.49802
619.9590, 45.39190
620.4411, 43.03992
620.9232, 45.74620
621.4053, 50.33879
621.8875, 51.47254
622.3696, 49.21996
622.8517, 48.18060
623.3338, 49.71486
623.8159, 51.45461
624.2980, 51.43372
624.7802, 50.02104
625.2623, 48.28991
625.7444, 45.17181
626.2265, 43.27943
626.7086, 44.65126
627.1907, 47.61741
627.6729, 50.18806
628.1550, 51.83654
628.6371, 52.20063
629.1192, 50.72410
629.6013, 47.76720
630.0834, 46.41639
630.5656, 47.92600
631.0477, 48.97065
631.5298, 48.62761
632.0119, 48.04594
632.4940, 47.99467
632.9761, 48.52652
633.4583, 49.42826
633.9404, 51.25273
634.4225, 52.80269
634.9046, 51.48753
635.3867, 47.58212
635.8688, 44.72984
636.3510, 44.08573
636.8331, 44.88932
637.3152, 46.71894
637.7973, 49.78406
638.2794, 51.05787
638.7615, 49.37268
639.2437, 47.16042
639.7258, 44.73504
640.2079, 42.67795
640.6900, 41.95637
641.1721, 42.69017
641.6542, 43.80434
642.1364, 44.09191
642.6185, 43.65017
643.1006, 43.66388
643.5827, 43.89055
644.0648, 45.12805
644.5469, 49.85772
645.0291, 54.33390
645.5112, 54.30698
645.9933, 49.55145
646.4754, 45.72281
646.9575, 46.09755
647.4396, 48.12270
647.9218, 49.50048
648.4039, 50.11776
648.8860, 49.80608
649.3681, 48.40153
649.8502, 46.80249
650.3323, 46.43228
650.8145, 47.65167
651.2966, 48.45019
651.7787, 48.64309
652.2608, 48.64674
652.7429, 48.66396
653.2250, 48.52331
653.7072, 47.90908
654.1893, 46.76572
654.6714, 45.55933
655.1535, 44.23679
655.6356, 43.20089
656.1177, 44.34343
656.5999, 48.05212
657.0820, 50.99829
657.5641, 51.46265
658.0462, 50.45213
658.5283, 49.77032
659.0104, 49.51357
659.4926, 49.04088
659.9747, 47.76971
660.4568, 46.72626
660.9389, 46.93774
661.4210, 47.80946
661.9031, 48.06186
662.3853, 47.20098
662.8674, 45.82970
663.3495, 44.67294
663.8316, 43.71424
664.3137, 43.18971
664.7958, 42.98199
665.2780, 43.42719
665.7601, 45.67297
666.2422, 48.17522
666.7243, 48.82376
667.2064, 47.15596
667.6885, 45.82905
668.1707, 46.49972
668.6528, 47.87921
669.1349, 48.41183
669.6170, 48.23554
670.0991, 48.45951
670.5812, 49.64555
671.0634, 51.05737
671.5455, 51.36727
672.0276, 50.25187
672.5097, 49.25608
672.9918, 48.41251
673.4739, 47.66174
673.9561, 46.59965
674.4382, 45.80172
674.9203, 46.43151
675.4024, 48.76293
675.8845, 50.52982
676.3666, 49.19593
676.8488, 46.18210
677.3309, 44.55806
677.8130, 44.46139
678.2951, 44.85806
678.7772, 45.33715
679.2593, 45.90575
679.7415, 46.59814
680.2236, 47.48198
680.7057, 48.27831
681.1878, 49.39574
681.6699, 49.99709
682.1520, 49.63739
682.6342, 48.54544
683.1163, 46.75076
683.5984, 44.35482
684.0805, 42.45582
684.5626, 42.46313
685.0447, 44.04801
685.5269, 45.63887
686.0090, 47.39624
686.4911, 48.14185
686.9732, 46.85880
687.4553, 44.73702
687.9374, 43.67538
688.4196, 43.71571
688.9017, 44.03772
689.3838, 44.78497
689.8659, 45.51743
690.3480, 45.83131
690.8301, 45.98610
691.3123, 46.73447
691.7944, 48.20625
692.2765, 49.19885
692.7586, 48.05564
693.2407, 44.97579
693.7228, 42.75059
694.2050, 41.29587
694.6871, 40.91174
695.1692, 42.41425
695.6513, 44.53143
696.1334, 46.28379
696.6155, 47.63099
697.0977, 47.53848
697.5798, 43.93599
698.0619, 40.45181
698.5440, 40.07803
699.0261, 41.75972
699.5082, 43.46919
699.9904, 44.55143
700.4725, 45.06603
700.9546, 45.12856
701.4367, 44.70647
701.9188, 42.98775
702.4009, 38.45611
702.8831, 35.66882
703.3652, 37.27532
703.8473, 39.91398
704.3294, 41.11963
704.8115, 40.99261
705.2936, 41.07589
705.7758, 42.39322
706.2579, 43.74204
706.7400, 43.78717
707.2221, 43.17165
707.7042, 43.77787
708.1863, 45.92299
708.6685, 47.21035
709.1506, 45.08610
709.6327, 40.29803
710.1148, 38.70090
710.5969, 42.67156
711.0790, 45.49692
711.5612, 45.68664
712.0433, 45.09104
712.5254, 44.56589
713.0075, 44.22806
713.4896, 44.17317
713.9717, 44.61356
714.4539, 45.01750
714.9360, 44.92624
715.4181, 44.43870
715.9002, 43.81089
716.3823, 43.07473
716.8644, 41.85553
717.3466, 39.61300
717.8287, 37.06127
718.3108, 36.98641
718.7929, 41.53892
719.2750, 44.48487
719.7571, 44.84692
720.2393, 44.46134
720.7214, 43.59224
721.2035, 42.77467
721.6856, 43.02561
722.1677, 44.87047
722.6498, 46.77208
723.1320, 47.58799
723.6141, 47.50048
724.0962, 46.75756
724.5783, 45.41640
725.0604, 43.63858
725.5425, 41.31584
726.0247, 39.19827
726.5068, 38.94071
726.9889, 41.44508
727.4710, 43.06373
727.9531, 42.34887
728.4352, 42.41346
728.9174, 45.89249
729.3995, 49.98139
729.8816, 50.50208
730.3637, 46.68081
730.8458, 42.83475
731.3279, 42.21418
731.8101, 43.35434
732.2922, 43.87484
732.7743, 43.87819
733.2564, 44.71830
733.7385, 47.06500
734.2206, 49.13712
734.7028, 48.42394
735.1849, 44.64721
735.6670, 42.29485
736.1491, 42.22182
736.6312, 42.54423
737.1133, 43.23848
737.5955, 44.00069
738.0776, 44.51418
738.5597, 44.82047
739.0418, 45.30212
739.5239, 46.55198
740.0060, 47.58806
740.4882, 47.09101
740.9703, 45.44501
741.4524, 43.53128
741.9345, 41.54547
742.4166, 40.46023
742.8987, 41.26183
743.3809, 43.50564
743.8630, 44.98788
744.3451, 45.55308
744.8272, 45.61115
745.3093, 44.92399
745.7914, 44.02648
746.2736, 42.40905
746.7557, 40.94894
747.2378, 41.67600
747.7199, 45.78593
748.2020, 49.72377
748.6841, 50.37695
749.1663, 49.24532
749.6484, 49.23645
750.1305, 50.25828
750.6126, 49.64667
751.0947, 45.82552
751.5768, 40.98640
752.0590, 39.11876
752.5411, 40.80479
753.0232, 42.77113
753.5053, 45.75748
753.9874, 48.00916
754.4695, 49.46795
754.9517, 49.70451
755.4338, 47.39347
755.9159, 42.60610
756.3980, 39.30220
756.8801, 40.63668
757.3622, 43.18192
757.8444, 43.54844
758.3265, 42.50835
758.8086, 42.13642
759.2907, 42.93209
759.7728, 43.83064
760.2549, 43.91107
760.7371, 43.12111
761.2192, 40.67066
761.7013, 34.79652
762.1834, 32.09960
762.6655, 36.52918
763.1476, 41.55249
763.6298, 42.65090
764.1119, 40.88715
764.5940, 39.26582
765.0761, 38.26083
765.5582, 37.74228
766.0403, 37.75980
766.5225, 38.15618
767.0046, 38.80877
767.4867, 39.67833
767.9688, 40.77102
768.4509, 42.10216
768.9330, 43.44424
769.4152, 44.44067
769.8973, 45.09527
770.3794, 45.50093
770.8615, 45.80124
771.3436, 45.41455
771.8257, 43.55639
772.3079, 41.25656
772.7900, 40.03440
773.2721, 39.94510
773.7542, 40.10341
774.2363, 40.34564
774.7184, 40.83082
775.2006, 42.20987
775.6827, 43.59153
776.1648, 43.58210
776.6469, 42.13700
777.1290, 40.48076
777.6111, 39.35427
778.0933, 38.96387
778.5754, 40.32513
779.0575, 43.33689
779.5396, 45.05190
780.0217, 44.83981
780.5038, 43.34689
780.9860, 40.27670
781.4681, 36.48744
781.9502, 35.79543
782.4323, 40.95305
782.9144, 44.58617
783.3965, 45.71094
783.8787, 45.89864
784.3608, 45.97221
784.8429, 45.77302
785.3250, 44.70001
785.8071, 42.55749
786.2892, 40.45415
786.7714, 38.86909
787.2535, 38.16236
787.7356, 39.69126
788.2177, 43.05931
788.6998, 45.38828
789.1819, 45.59369
789.6641, 44.75462
790.1462, 44.15492
790.6283, 43.79198
791.1104, 42.95562
791.5925, 40.51204
792.0746, 39.54053
792.5568, 41.94921
793.0389, 44.76047
793.5210, 46.06125
794.0031, 45.99430
794.4852, 45.32900
794.9673, 43.83565
795.4495, 42.69799
795.9316, 43.21115
796.4137, 44.18694
796.8958, 43.85762
797.3779, 42.39079
797.8600, 41.17054
798.3422, 40.90920
798.8243, 41.29346
799.3064, 42.03309
799.7885, 43.16767
800.2706, 43.47579
800.7527, 42.78427
801.2349, 41.68977
801.7170, 39.71729
802.1991, 38.09260
802.6812, 38.94669
803.1633, 42.27382
803.6454, 44.87841
804.1276, 47.10341
804.6097, 47.78194
805.0918, 45.25431
805.5739, 41.78056
806.0560, 39.23676
806.5381, 38.05367
807.0203, 38.36526
807.5024, 40.53463
807.9845, 43.37568
808.4666, 45.48994
808.9487, 46.88261
809.4308, 47.47832
809.9130, 47.26572
810.3951, 46.60261
810.8772, 45.57445
811.3593, 44.49997
811.8414, 44.02880
812.3235, 44.27250
812.8057, 44.70761
813.2878, 46.06115
813.7699, 46.68016
814.2520, 44.65373
814.7341, 42.65899
815.2162, 44.53756
815.6984, 49.96044
816.1805, 52.95336
816.6626, 48.58909
817.1447, 43.53224
817.6268, 43.37680
818.1089, 45.47295
818.5911, 45.62502
819.0732, 43.38801
819.5553, 40.33814
820.0374, 37.26128
820.5195, 35.23536
821.0016, 37.65105
821.4838, 44.73483
821.9659, 47.35138
822.4480, 43.39634
822.9301, 39.87729
823.4122, 40.67717
823.8943, 43.68132
824.3765, 45.19868
824.8586, 44.89324
825.3407, 44.87478
825.8228, 45.70051
826.3049, 46.22546
826.7870, 46.54703
827.2692, 46.05224
827.7513, 42.95696
828.2334, 38.09581
828.7155, 35.70584
829.1976, 39.17077
829.6797, 43.97029
830.1619, 44.63622
830.6440, 42.80618
831.1261, 42.37978
831.6082, 43.75590
832.0903, 45.63839
832.5724, 47.42249
833.0546, 48.48676
833.5367, 47.19445
834.0188, 42.89507
834.5009, 40.93789
834.9830, 42.54807
835.4651, 44.03310
835.9473, 43.96416
836.4294, 43.20638
836.9115, 42.64243
837.3936, 42.27315
837.8757, 42.02125
838.3578, 41.60065
838.8400, 41.63639
839.3221, 42.81006
839.8042, 44.22604
840.2863, 45.12703
840.7684, 45.42415
841.2505, 45.23576
841.7327, 44.59916
842.2148, 43.63978
842.6969, 41.89920
843.1790, 40.05072
843.6611, 40.63421
844.1432, 43.54540
844.6254, 45.33504
845.1075, 44.51141
845.5896, 42.14905
846.0717, 39.27615
846.5538, 35.88638
847.0359, 35.58466
847.5181, 40.96962
848.0002, 44.31152
848.4823, 41.62795
848.9644, 38.75771
849.4465, 40.88623
849.9286, 46.06003
850.4108, 48.04044
850.8929, 43.93503
851.3750, 40.90565
851.8571, 42.69170
852.3392, 45.47479
852.8214, 46.41541
853.3035, 45.79137
853.7856, 44.28339
854.2677, 42.27076
854.7498, 41.04538
855.2319, 42.88225
855.7141, 40.85331
856.1962, 44.65258
856.6783, 40.04516
857.1604, 37.45322
857.6425, 38.30984
858.1246, 39.83974
858.6068, 39.61509
859.0889, 41.53188
859.5710, 39.32285
860.0531, 43.93699
860.5352, 46.58069
861.0173, 46.42704
861.4995, 45.08292
861.9816, 41.51428
862.4637, 38.08724
862.9458, 38.58212
863.4279, 43.53454
863.9100, 47.30871
864.3922, 48.27230
864.8743, 47.97858
865.3564, 46.56467
865.8385, 44.77177
866.3206, 43.36325
866.8027, 42.43218
867.2849, 41.59914
867.7670, 40.47557
868.2491, 40.06099
868.7312, 42.84736
869.2133, 47.21631
869.6954, 48.16955
870.1776, 45.53073
870.6597, 42.06043
871.1418, 38.79158
871.6239, 37.01513
872.1060, 39.11588
872.5881, 45.03939
873.0703, 47.13728
873.5524, 43.59498
874.0345, 40.88879
874.5166, 40.99279
874.9987, 41.69431
875.4808, 40.85266
875.9630, 39.17902
876.4451, 38.95455
876.9272, 41.45605
877.4093, 42.93898
877.8914, 41.58116
878.3735, 40.10738
878.8557, 40.37580
879.3378, 41.56351
879.8199, 42.47614
880.3020, 42.75731
880.7841, 42.15792
881.2662, 39.49345
881.7484, 36.82015
882.2305, 37.31759
882.7126, 39.66961
883.1947, 40.64457
883.6768, 39.84459
884.1589, 38.73600
884.6411, 38.17336
885.1232, 38.42445
885.6053, 40.66244
886.0874, 45.00475
886.5695, 46.51625
887.0516, 44.41289
887.5338, 42.23459
888.0159, 41.25035
888.4980, 40.89982
888.9801, 40.58265
889.4622, 40.29854
889.9443, 40.07179
890.4265, 39.38065
890.9086, 39.49724
891.3907, 41.38177
891.8728, 43.28951
892.3549, 44.22499
892.8370, 44.37169
893.3192, 44.17904
893.8013, 43.73118
894.2834, 43.06363
894.7655, 41.85582
895.2476, 40.75629
895.7297, 40.52320
896.2119, 40.69685
896.6940, 40.38863
897.1761, 39.51915
897.6582, 38.70103
898.1403, 38.25641
898.6224, 38.39043
899.1046, 40.07641
899.5867, 42.71024
900.0688, 43.43116
900.5509, 42.01212
901.0330, 40.14149
901.5151, 38.46825
901.9973, 37.57362
902.4794, 38.66564
902.9615, 41.74893
903.4436, 42.20600
903.9257, 38.43579
904.4078, 36.29061
904.8900, 37.79825
905.3721, 40.21051
905.8542, 42.04668
906.3363, 43.08267
906.8184, 42.35555
907.3005, 38.23868
907.7827, 36.34892
908.2648, 39.94289
908.7469, 43.02969
909.2290, 42.01355
909.7111, 39.23571
910.1932, 37.57684
910.6754, 37.42638
911.1575, 37.67614
911.6396, 37.49005
912.1217, 37.96508
912.6038, 41.29972
913.0859, 45.08662
913.5681, 45.39643
914.0502, 42.76965
914.5323, 40.34167
915.0144, 39.49899
915.4965, 39.62436
915.9786, 40.45972
916.4607, 41.57313
916.9428, 41.15418
917.4249, 39.33392
917.9070, 37.69680
918.3892, 36.54757
918.8713, 36.69467
919.3534, 39.04156
919.8355, 42.70878
920.3176, 45.00413
920.7997, 45.75525
921.2819, 45.70138
921.7640, 44.06249
922.2461, 43.23598
922.7282, 45.42634
923.2103, 47.84697
923.6924, 46.30885
924.1746, 41.10486
924.6567, 37.91991
925.1388, 38.28184
925.6209, 38.85662
926.1030, 38.64035
926.5851, 38.85657
927.0673, 41.48690
927.5494, 44.76036
928.0315, 44.96433
928.5136, 41.11005
928.9957, 37.87903
929.4778, 38.15474
929.9600, 39.60337
930.4421, 40.48610
930.9242, 41.19132
931.4063, 43.02675
931.8884, 45.56425
932.3705, 46.15839
932.8527, 43.08610
933.3348, 39.25523
933.8169, 38.51920
934.2990, 39.97909
934.7811, 41.40641
935.2632, 42.67679
935.7454, 44.16934
936.2275, 46.01800
936.7096, 46.37368
937.1917, 42.95919
937.6738, 37.27261
938.1559, 35.33085
938.6381, 37.61218
939.1202, 39.96111
939.6023, 42.16866
940.0844, 43.79725
940.5665, 44.80742
941.0486, 44.81557
941.5308, 42.77868
942.0129, 38.28719
942.4950, 36.24288
942.9771, 38.79914
943.4592, 40.54702
943.9413, 39.96894
944.4235, 39.13819
944.9056, 39.70669
945.3877, 40.89130
945.8698, 40.79731
946.3519, 38.84455
946.8340, 37.20821
947.3162, 36.29723
947.7983, 36.00313
948.2804, 36.77832
948.7625, 37.80843
949.2446, 38.00451
949.7267, 37.51844
950.2089, 37.38177
950.6910, 37.95527
951.1731, 39.30428
951.6552, 42.77791
952.1373, 46.11348
952.6194, 45.92603
953.1016, 43.27541
953.5837, 40.90542
954.0658, 39.69695
954.5479, 39.43032
955.0300, 40.17133
955.5121, 41.25698
955.9943, 41.54185
956.4764, 41.10638
956.9585, 40.00358
957.4406, 38.32814
957.9227, 37.06773
958.4048, 36.64233
958.8870, 37.25761
959.3691, 39.41563
959.8512, 42.85101
960.3333, 45.78959
960.8154, 48.50245
961.2975, 48.00120
961.7797, 42.43072
962.2618, 38.16265
962.7439, 40.05441
963.2260, 45.10946
963.7081, 46.74807
964.1902, 43.99805
964.6724, 43.05131
965.1545, 44.75145
965.6366, 46.87374
966.1187, 49.48766
966.6008, 51.79789
967.0829, 52.78588
967.5651, 53.01021
968.0472, 54.19728
968.5293, 56.68774
969.0114, 59.49202
969.4935, 62.34420
969.9756, 65.65729
970.4578, 70.25903
970.9399, 74.98372
971.4220, 79.02248
971.9041, 82.05449
972.3862, 83.14616
972.8683, 80.61239
973.3505, 79.17057
973.8326, 82.14478
974.3147, 86.43881
974.7968, 89.49456
975.2789, 91.72268
975.7610, 94.24514
976.2432, 97.27365
976.7253, 100.3363
977.2074, 103.5291
977.6895, 105.8797
978.1716, 105.6584
978.6537, 104.2021
979.1359, 103.9418
979.6180, 104.6920
980.1001, 104.8306
980.5822, 103.7781
981.0643, 102.4090
981.5464, 101.7724
982.0286, 101.2666
982.5107, 100.1547
982.9928, 98.03606
983.4749, 92.02402
983.9570, 82.03405
984.4391, 72.62721
984.9213, 66.18324
985.4034, 61.87968
985.8855, 58.63075
986.3676, 56.42153
986.8497, 55.58975
987.3318, 56.34209
987.8140, 55.95667
988.2961, 53.77020
988.7782, 50.88579
989.2603, 47.61142
989.7424, 44.83712
990.2245, 44.61359
990.7067, 47.39381
991.1888, 49.04907
991.6709, 49.42257
992.1530, 49.03351
992.6351, 47.67194
993.1172, 46.05284
993.5994, 44.54393
994.0815, 43.24435
994.5636, 42.56379
995.0457, 43.06026
995.5278, 42.59708
996.0099, 38.85139
996.4921, 37.18009
996.9742, 41.44369
997.4563, 46.20754
997.9384, 46.52835
998.4205, 43.43497
998.9026, 40.89586
999.3848, 39.19783
999.8669, 38.56662
1000.349, 40.01850
1000.831, 41.41253
1001.313, 41.50017
1001.795, 41.15139
1002.277, 41.62380
1002.760, 42.68621
1003.242, 42.72596
1003.724, 40.50386
1004.206, 39.07135
1004.688, 40.47428
1005.170, 42.55958
1005.652, 43.95065
1006.134, 44.77096
1006.617, 45.54776
1007.099, 46.21561
1007.581, 45.95089
1008.063, 44.05315
1008.545, 41.83402
1009.027, 39.85834
1009.509, 38.51237
1009.991, 38.73716
1010.473, 39.81525
1010.956, 39.98798
1011.438, 39.01800
1011.920, 38.40552
1012.402, 39.15450
1012.884, 40.76345
1013.366, 44.38818
1013.848, 47.58822
1014.330, 43.75829
1014.813, 35.06609
1015.295, 30.59083
1015.777, 32.86627
1016.259, 36.42727
1016.741, 36.47226
1017.223, 35.14585
1017.705, 36.77121
1018.187, 40.39173
1018.669, 42.77452
1019.152, 43.68768
1019.634, 43.78994
1020.116, 43.33712
1020.598, 42.13811
1021.080, 39.61959
1021.562, 36.88717
1022.044, 38.02811
1022.526, 42.46929
1023.008, 43.72057
1023.491, 41.14177
1023.973, 38.57798
1024.455, 37.55983
1024.937, 38.07521
1025.419, 40.61212
1025.901, 44.19758
1026.383, 43.67299
1026.865, 38.62376
1027.348, 36.02931
1027.830, 36.91072
1028.312, 38.14754
1028.794, 38.35889
1029.276, 38.27973
1029.758, 38.97569
1030.240, 40.19827
1030.722, 39.60579
1031.204, 36.37662
1031.687, 35.15986
1032.169, 36.86121
1032.651, 39.31220
1033.133, 41.83905
1033.615, 44.05491
1034.097, 45.48944
1034.579, 46.14219
1035.061, 45.90049
1035.544, 44.52065
1036.026, 42.75940
1036.508, 39.85510
1036.990, 38.13578
1037.472, 39.14135
1037.954, 41.46402
1038.436, 43.70657
1038.918, 45.80576
1039.401, 45.74210
1039.883, 41.18361
1040.365, 38.86925
1040.847, 41.04016
1041.329, 43.05714
1041.811, 42.66317
1042.293, 41.16986
1042.775, 40.28481
1043.257, 39.98266
1043.740, 39.17141
1044.222, 36.63501
1044.704, 35.47019
1045.186, 37.03844
1045.668, 38.59994
1046.150, 38.52466
1046.632, 38.07244
1047.114, 39.18984
1047.596, 41.71346
1048.079, 42.78088
1048.561, 41.28421
1049.043, 39.63377
1049.525, 37.53140
1050.007, 35.99201
1050.489, 35.66402
1050.971, 36.04869
1051.453, 36.61147
1051.936, 37.31318
1052.418, 38.20048
1052.900, 39.45418
1053.382, 40.59792
1053.864, 42.13032
1054.346, 42.87395
1054.828, 40.92902
1055.310, 38.71769
1055.792, 39.68194
1056.275, 43.40117
1056.757, 45.90235
1057.239, 46.06872
1057.721, 45.46677
1058.203, 44.04321
1058.685, 42.50570
1059.167, 41.26576
1059.649, 40.11712
1060.131, 38.34127
1060.614, 36.31721
1061.096, 35.93994
1061.578, 38.51871
1062.060, 40.60432
1062.542, 41.44599
1063.024, 40.98557
1063.506, 37.89026
1063.988, 34.38862
1064.471, 32.87094
1064.953, 33.32180
1065.435, 34.72018
1065.917, 37.16619
1066.399, 39.19521
1066.881, 39.52346
1067.363, 40.08919
1067.845, 43.44798
1068.328, 46.58241
1068.810, 44.81324
1069.292, 39.84128
1069.774, 38.25957
1070.256, 42.67042
1070.738, 45.87661
1071.220, 43.05350
1071.702, 40.16610
1072.184, 41.43636
1072.667, 43.80772
1073.149, 43.78136
1073.631, 42.00209
1074.113, 41.08410
1074.595, 41.78532
1075.077, 42.44893
1075.559, 42.36251
1076.041, 41.99986
1076.523, 41.52939
1077.006, 40.99119
1077.488, 40.68935
1077.970, 40.26511
1078.452, 38.56598
1078.934, 35.32993
1079.416, 33.27243
1079.898, 33.41721
1080.380, 35.26098
1080.862, 40.99324
1081.345, 46.10320
1081.827, 45.26112
1082.309, 41.22569
1082.791, 39.80550
1083.273, 41.92669
1083.755, 43.39211
1084.237, 41.64762
1084.719, 39.97865
1085.202, 39.92450
1085.684, 40.58945
1086.166, 42.09878
1086.648, 43.39672
1087.130, 42.26715
1087.612, 38.95031
1088.094, 37.45018
1088.576, 40.52491
1089.058, 43.10845
1089.541, 42.58822
1090.023, 41.26490
1090.505, 40.36671
1090.987, 39.90427
1091.469, 40.00933
1091.951, 40.45158
1092.433, 40.19746
1092.915, 38.39007
1093.397, 37.46397
1093.880, 38.95553
1094.362, 40.93256
1094.844, 42.39901
1095.326, 43.64203
1095.808, 45.44709
1096.290, 47.34086
1096.772, 47.79571
1097.254, 46.28555
1097.737, 44.10953
1098.219, 40.17078
1098.701, 37.60898
1099.183, 39.90953
1099.665, 42.39288
1100.147, 39.69913
1100.629, 34.18942
1101.111, 31.59735
1101.594, 32.99935
1102.076, 35.39116
1102.558, 39.59025
1103.040, 42.45166
1103.522, 41.83807
1104.004, 40.67896
1104.486, 41.02768
1104.968, 42.22527
1105.450, 42.92338
1105.932, 43.02069
1106.415, 43.73247
1106.897, 46.79610
1107.379, 48.23069
1107.861, 46.25097
1108.343, 43.63669
1108.825, 41.28902
1109.307, 39.44905
1109.789, 38.42328
1110.272, 38.14495
1110.754, 38.00851
1111.236, 37.42906
1111.718, 38.04358
1112.200, 41.24879
1112.682, 44.06644
1113.164, 45.17074
1113.646, 45.72730
1114.129, 47.50121
1114.611, 46.04061
1115.093, 48.65636
1115.575, 43.03079
1116.057, 39.36749
1116.539, 37.43177
1117.021, 37.90477
1117.503, 44.07316
1117.985, 48.89363
1118.468, 46.19592
1118.950, 40.00395
1119.432, 38.24826
1119.914, 41.43425
1120.396, 42.93859
1120.878, 42.64022
1121.360, 40.63491
1121.842, 34.72498
1122.324, 31.44577
1122.807, 35.91716
1123.289, 41.94924
1123.771, 40.79597
1124.253, 33.78599
1124.735, 32.56938
1125.217, 39.49681
1125.699, 44.02447
1126.181, 45.62792
1126.664, 44.47453
1127.146, 39.19736
1127.628, 35.16663
1128.110, 37.99168
1128.592, 44.91048
1129.074, 47.51894
1129.556, 45.24941
1130.038, 44.87919
1130.521, 46.81831
1131.003, 47.59786
1131.485, 46.27239
1131.967, 44.64525
1132.449, 43.72825
1132.931, 43.82877
1133.413, 46.01994
1133.895, 44.47583
1134.377, 48.99725
1134.859, 44.35946
1135.342, 42.77086
1135.824, 45.12187
1136.306, 47.74627
1136.788, 49.06913
1137.270, 49.34662
1137.752, 48.63441
1138.234, 47.50602
1138.716, 47.72789
1139.199, 48.78724
1139.681, 48.00853
1140.163, 45.69915
1140.645, 44.87251
1141.127, 46.16271
1141.609, 47.00993
1142.091, 45.54169
1142.573, 46.39325
1143.056, 44.09441
1143.538, 45.73071
1144.020, 45.81976
1144.502, 44.74258
1144.984, 43.18030
1145.466, 41.60867
1145.948, 41.34505
1146.430, 42.91786
1146.912, 44.73231
1147.395, 45.59743
1147.877, 45.74335
1148.359, 44.56227
1148.841, 43.43108
1149.323, 45.55740
1149.805, 49.00060
1150.287, 48.42870
1150.769, 43.32107
1151.251, 39.14664
1151.734, 38.83798
1152.216, 39.99500
1152.698, 42.00745
1153.180, 43.83388
1153.662, 45.25354
1154.144, 45.50186
1154.626, 42.28064
1155.108, 37.11108
1155.591, 35.21379
1156.073, 38.41618
1156.555, 42.02788
1157.037, 45.74846
1157.519, 47.76411
1158.001, 46.09922
1158.483, 43.67430
1158.965, 42.85031
1159.448, 42.75716
1159.930, 41.18977
1160.412, 38.04098
1160.894, 37.17661
1161.376, 41.86456
1161.858, 44.35748
1162.340, 41.68295
1162.822, 39.70200
1163.304, 41.31422
1163.786, 43.79433
1164.269, 44.96738
1164.751, 44.85483
1165.233, 43.27312
1165.715, 39.39358
1166.197, 37.79275
1166.679, 39.00231
1167.161, 41.29680
1167.643, 45.33128
1168.126, 47.47203
1168.608, 44.83559
1169.090, 40.86329
1169.572, 41.06312
1170.054, 44.56551
1170.536, 44.36972
1171.018, 40.25864
1171.500, 37.20796
1171.983, 35.60276
1172.465, 36.06134
1172.947, 38.89481
1173.429, 41.76916
1173.911, 42.73463
1174.393, 42.50094
1174.875, 42.13472
1175.357, 41.76207
1175.839, 42.23121
1176.322, 43.15187
1176.804, 42.23705
1177.286, 39.66541
1177.768, 38.93777
1178.250, 41.59637
1178.732, 45.03532
1179.214, 47.32061
1179.696, 48.28521
1180.178, 47.10917
1180.661, 44.89236
1181.143, 42.78399
1181.625, 41.27173
1182.107, 42.13471
1182.589, 44.73906
1183.071, 43.82491
1183.553, 35.35178
1184.035, 29.34627
1184.518, 35.02191
1185.000, 42.09062
1185.482, 43.46436
1185.964, 42.29452
1186.446, 41.50610
1186.928, 41.38337
1187.410, 41.76152
1187.892, 42.62252
1188.375, 43.30051
1188.857, 43.87328
1189.339, 43.89373
1189.821, 42.57896
1190.303, 41.51717
1190.785, 42.04128
1191.267, 42.73741
1191.749, 41.54177
1192.231, 39.26360
1192.714, 39.36011
1193.196, 38.35797
1193.678, 36.61548
1194.160, 38.06521
1194.642, 34.53005
1195.124, 34.86772
1195.606, 36.33253
1196.088, 37.63822
1196.570, 38.41552
1197.053, 37.83298
1197.535, 36.51661
1198.017, 38.27554
1198.499, 42.98048
1198.981, 44.80897
1199.463, 43.48858
1199.945, 41.42661
1200.427, 39.40900
1200.910, 39.63054
1201.392, 43.92722
1201.874, 48.29414
1202.356, 45.89365
1202.838, 40.08783
1203.320, 37.53634
1203.802, 37.57131
1204.284, 39.53177
1204.766, 42.41726
1205.249, 43.70658
1205.731, 42.74951
1206.213, 41.28701
1206.695, 40.19180
1207.177, 39.42257
1207.659, 38.47820
1208.141, 38.34166
1208.623, 41.31417
1209.105, 44.57698
1209.588, 43.67125
1210.070, 39.95600
1210.552, 38.80185
1211.034, 41.68293
1211.516, 43.46462
1211.998, 42.47309
1212.480, 40.95113
1212.962, 38.73458
1213.445, 36.93742
1213.927, 36.16308
1214.409, 36.09870
1214.891, 36.72789
1215.373, 37.75864
1215.855, 37.67025
1216.337, 35.67307
1216.819, 36.50395
1217.302, 41.62451
1217.784, 43.56114
1218.266, 40.21705
1218.748, 36.00952
1219.230, 33.08681
1219.712, 31.91115
1220.194, 33.51047
1220.676, 36.63706
1221.158, 36.79856
1221.641, 34.75398
1222.123, 34.79166
1222.605, 36.69233
1223.087, 37.88294
1223.569, 37.81484
1224.051, 37.42770
1224.533, 37.21862
1225.015, 37.41132
1225.497, 38.10302
1225.980, 39.45004
1226.462, 42.72697
1226.944, 45.93660
1227.426, 46.03360
1227.908, 44.13012
1228.390, 42.77011
1228.872, 42.36366
1229.354, 41.98312
1229.837, 41.46561
1230.319, 40.48650
1230.801, 37.35132
1231.283, 35.80479
1231.765, 39.76060
1232.247, 43.63042
1232.729, 41.68304
1233.211, 37.31285
1233.693, 36.91311
1234.176, 40.34369
1234.658, 43.77993
1235.140, 48.86319
1235.622, 48.26201
1236.104, 39.38198
1236.586, 33.21494
1237.068, 33.36253
1237.550, 35.09296
1238.032, 35.07495
1238.515, 34.36584
1238.997, 34.76945
1239.479, 35.95801
1239.961, 36.78842
1240.443, 37.19642
1240.925, 36.17091
1241.407, 34.32386
1241.889, 35.33138
1242.372, 39.68410
1242.854, 42.80015
1243.336, 41.67661
1243.818, 39.55691
1244.300, 39.19286
1244.782, 39.59159
1245.264, 40.53962
1245.746, 41.07049
1246.229, 38.87017
1246.711, 35.85586
1247.193, 36.67479
1247.675, 41.54069
1248.157, 44.45686
1248.639, 43.51584
1249.121, 41.42995
1249.603, 36.45881
1250.085, 33.47890
1250.568, 35.33910
1251.050, 37.98747
1251.532, 38.86139
1252.014, 38.79386
1252.496, 39.18825
1252.978, 39.97304
1253.460, 40.40745
1253.942, 40.51672
1254.424, 39.89570
1254.907, 38.49652
1255.389, 36.84246
1255.871, 35.10654
1256.353, 34.85702
1256.835, 37.23774
1257.317, 39.70815
1257.799, 38.51581
1258.281, 35.74787
1258.764, 34.62531
1259.246, 34.99797
1259.728, 37.96668
1260.210, 41.71449
1260.692, 41.79236
1261.174, 38.14441
1261.656, 34.77628
1262.138, 33.04714
1262.620, 32.90493
1263.103, 35.88587
1263.585, 38.35625
1264.067, 38.37342
1264.549, 37.65630
1265.031, 37.50272
1265.513, 37.30244
1265.995, 35.38093
1266.477, 36.41198
1266.959, 37.79117
1267.442, 38.09501
1267.924, 41.81839
1268.406, 44.24432
1268.888, 44.97292
1269.370, 43.76762
1269.852, 42.06037
1270.334, 40.52901
1270.816, 39.18981
1271.299, 38.06393
1271.781, 37.13283
1272.263, 36.25471
1272.745, 35.58407
1273.227, 35.69203
1273.709, 36.25520
1274.191, 36.50623
1274.673, 36.37442
1275.156, 35.98665
1275.638, 35.43359
1276.120, 35.39762
1276.602, 36.89456
1277.084, 37.86250
1277.566, 37.05172
1278.048, 35.67355
1278.530, 34.19190
1279.012, 32.72302
1279.495, 30.53280
1279.977, 28.73499
1280.459, 29.90956
1280.941, 34.08284
1281.423, 39.28918
1281.905, 47.14322
1282.387, 49.25659
1282.869, 43.97313
1283.351, 39.34799
1283.834, 37.75696
1284.316, 37.11309
1284.798, 36.00295
1285.280, 35.02147
1285.762, 34.88329
1286.244, 35.60736
##END=



