##NAMES=Chalcocite
##RRUFFID=R120090
##IDEAL CHEMISTRY=Cu^1+^_2_S^2-^
##LOCALITY=Tsumeb, Namibia
##OWNER=RRUFF
##SOURCE=William W Pinch
##DESCRIPTION=Grey metallic hexagonal tablets associated with stottite R120089, siderite and tennantite
##STATUS=The identification of this mineral is confirmed by single-crystal X-ray diffraction and chemical analysis.
##URL=rruff.info/R120090
##MEASURED CHEMISTRY=Cu_1.99_S
9.001007e+001, 0.000000e+000
9.049219e+001, 2.012616e+001
9.097430e+001, 2.068698e+001
9.145642e+001, 2.059150e+001
9.193854e+001, 1.988349e+001
9.242065e+001, 1.892881e+001
9.290277e+001, 1.808169e+001
9.338489e+001, 1.721558e+001
9.386700e+001, 1.600616e+001
9.434912e+001, 1.388478e+001
9.483124e+001, 1.149278e+001
9.531335e+001, 1.014644e+001
9.579547e+001, 9.872515e+000
9.627759e+001, 1.045610e+001
9.675970e+001, 1.231684e+001
9.724182e+001, 1.529777e+001
9.772394e+001, 1.736773e+001
9.820605e+001, 1.720016e+001
9.868817e+001, 1.500192e+001
9.917029e+001, 1.343508e+001
9.965240e+001, 1.267092e+001
1.001345e+002, 1.229656e+001
1.006166e+002, 1.149472e+001
1.010988e+002, 1.015678e+001
1.015809e+002, 8.832040e+000
1.020630e+002, 7.913648e+000
1.025451e+002, 7.549409e+000
1.030272e+002, 6.721023e+000
1.035093e+002, 4.999211e+000
1.039915e+002, 2.800724e+000
1.044736e+002, 1.966219e+000
1.049557e+002, 3.224445e+000
1.054378e+002, 4.805564e+000
1.059199e+002, 5.452651e+000
1.064020e+002, 4.534341e+000
1.068842e+002, 3.870224e+000
1.073663e+002, 3.804233e+000
1.078484e+002, 4.348941e+000
1.083305e+002, 4.546351e+000
1.088126e+002, 4.180946e+000
1.092947e+002, 3.587800e+000
1.097769e+002, 3.076511e+000
1.102590e+002, 3.071583e+000
1.107411e+002, 2.716381e+000
1.112232e+002, 1.596376e+000
1.117053e+002, -6.657456e-001
1.121874e+002, -2.031572e+000
1.126696e+002, -1.771491e+000
1.131517e+002, -6.838472e-001
1.136338e+002, 1.967404e-001
1.141159e+002, 1.122884e+000
1.145980e+002, 1.482875e+000
1.150801e+002, 9.665628e-001
1.155623e+002, -7.748925e-001
1.160444e+002, -2.634317e+000
1.165265e+002, -4.734575e+000
1.170086e+002, -6.775477e+000
1.174907e+002, -8.055099e+000
1.179728e+002, -7.592834e+000
1.184550e+002, -6.760583e+000
1.189371e+002, -6.473388e+000
1.194192e+002, -7.332359e+000
1.199013e+002, -8.131810e+000
1.203834e+002, -8.210992e+000
1.208655e+002, -7.690886e+000
1.213477e+002, -7.042153e+000
1.218298e+002, -6.064058e+000
1.223119e+002, -5.259995e+000
1.227940e+002, -5.192773e+000
1.232761e+002, -6.417964e+000
1.237582e+002, -8.097029e+000
1.242404e+002, -9.792978e+000
1.247225e+002, -1.146775e+001
1.252046e+002, -1.265557e+001
1.256867e+002, -1.276538e+001
1.261688e+002, -1.214306e+001
1.266509e+002, -1.140979e+001
1.271331e+002, -1.039183e+001
1.276152e+002, -9.544259e+000
1.280973e+002, -9.770095e+000
1.285794e+002, -1.114404e+001
1.290615e+002, -1.268678e+001
1.295436e+002, -1.352738e+001
1.300258e+002, -1.370720e+001
1.305079e+002, -1.340446e+001
1.309900e+002, -1.187332e+001
1.314721e+002, -9.851483e+000
1.319542e+002, -9.955713e+000
1.324363e+002, -1.269493e+001
1.329185e+002, -1.622944e+001
1.334006e+002, -1.781732e+001
1.338827e+002, -1.746390e+001
1.343648e+002, -1.658717e+001
1.348469e+002, -1.584004e+001
1.353290e+002, -1.521165e+001
1.358112e+002, -1.447801e+001
1.362933e+002, -1.351351e+001
1.367754e+002, -1.257921e+001
1.372575e+002, -1.237473e+001
1.377396e+002, -1.302504e+001
1.382217e+002, -1.384999e+001
1.387039e+002, -1.446678e+001
1.391860e+002, -1.486333e+001
1.396681e+002, -1.513289e+001
1.401502e+002, -1.524865e+001
1.406323e+002, -1.525191e+001
1.411144e+002, -1.534719e+001
1.415966e+002, -1.559466e+001
1.420787e+002, -1.581961e+001
1.425608e+002, -1.572856e+001
1.430429e+002, -1.490226e+001
1.435250e+002, -1.500186e+001
1.440071e+002, -1.672166e+001
1.444893e+002, -1.994108e+001
1.449714e+002, -2.185665e+001
1.454535e+002, -2.178731e+001
1.459356e+002, -2.105987e+001
1.464177e+002, -2.097951e+001
1.468998e+002, -2.238089e+001
1.473820e+002, -2.308867e+001
1.478641e+002, -2.230365e+001
1.483462e+002, -1.962036e+001
1.488283e+002, -1.834312e+001
1.493104e+002, -1.928311e+001
1.497925e+002, -2.123941e+001
1.502747e+002, -2.287095e+001
1.507568e+002, -2.477596e+001
1.512389e+002, -2.570477e+001
1.517210e+002, -2.503498e+001
1.522031e+002, -2.195419e+001
1.526852e+002, -1.987684e+001
1.531674e+002, -1.926937e+001
1.536495e+002, -1.958830e+001
1.541316e+002, -2.003574e+001
1.546137e+002, -2.030287e+001
1.550958e+002, -2.090482e+001
1.555779e+002, -2.220661e+001
1.560601e+002, -2.494193e+001
1.565422e+002, -2.670337e+001
1.570243e+002, -2.680375e+001
1.575064e+002, -2.570653e+001
1.579885e+002, -2.430935e+001
1.584706e+002, -2.161416e+001
1.589528e+002, -1.953359e+001
1.594349e+002, -1.914029e+001
1.599170e+002, -2.178454e+001
1.603991e+002, -2.401159e+001
1.608812e+002, -2.487037e+001
1.613633e+002, -2.459737e+001
1.618455e+002, -2.381370e+001
1.623276e+002, -2.194494e+001
1.628097e+002, -2.012246e+001
1.632918e+002, -1.910990e+001
1.637739e+002, -1.990795e+001
1.642560e+002, -2.041989e+001
1.647382e+002, -1.948229e+001
1.652203e+002, -1.741675e+001
1.657024e+002, -1.545407e+001
1.661845e+002, -1.443859e+001
1.666666e+002, -1.366858e+001
1.671487e+002, -1.253195e+001
1.676309e+002, -1.071968e+001
1.681130e+002, -8.623266e+000
1.685951e+002, -6.162161e+000
1.690772e+002, -3.459598e+000
1.695593e+002, -1.340547e+000
1.700414e+002, -8.469204e-001
1.705236e+002, -1.049843e+000
1.710057e+002, -8.338747e-001
1.714878e+002, 6.150482e-001
1.719699e+002, 2.284785e+000
1.724520e+002, 3.083529e+000
1.729341e+002, 3.102803e+000
1.734163e+002, 3.464836e+000
1.738984e+002, 5.066300e+000
1.743805e+002, 7.564043e+000
1.748626e+002, 1.032259e+001
1.753447e+002, 1.381202e+001
1.758268e+002, 1.712354e+001
1.763090e+002, 1.899357e+001
1.767911e+002, 1.939420e+001
1.772732e+002, 1.957580e+001
1.777553e+002, 2.087276e+001
1.782374e+002, 2.268203e+001
1.787195e+002, 2.372334e+001
1.792017e+002, 2.248498e+001
1.796838e+002, 2.054589e+001
1.801659e+002, 2.034504e+001
1.806480e+002, 2.192413e+001
1.811301e+002, 2.445176e+001
1.816122e+002, 2.788338e+001
1.820944e+002, 3.180633e+001
1.825765e+002, 3.476054e+001
1.830586e+002, 3.541594e+001
1.835407e+002, 3.480432e+001
1.840228e+002, 3.528664e+001
1.845049e+002, 3.703036e+001
1.849871e+002, 3.908485e+001
1.854692e+002, 4.024158e+001
1.859513e+002, 4.065898e+001
1.864334e+002, 4.111337e+001
1.869155e+002, 4.191962e+001
1.873976e+002, 4.304486e+001
1.878798e+002, 4.457148e+001
1.883619e+002, 4.663359e+001
1.888440e+002, 4.857585e+001
1.893261e+002, 4.914124e+001
1.898082e+002, 4.845133e+001
1.902903e+002, 4.802643e+001
1.907725e+002, 4.878880e+001
1.912546e+002, 5.055207e+001
1.917367e+002, 5.219453e+001
1.922188e+002, 5.366136e+001
1.927009e+002, 5.502451e+001
1.931830e+002, 5.659856e+001
1.936652e+002, 5.838996e+001
1.941473e+002, 5.953874e+001
1.946294e+002, 5.907517e+001
1.951115e+002, 5.718322e+001
1.955936e+002, 5.634846e+001
1.960757e+002, 5.692159e+001
1.965579e+002, 5.822786e+001
1.970400e+002, 5.887334e+001
1.975221e+002, 5.877016e+001
1.980042e+002, 5.893303e+001
1.984863e+002, 6.022773e+001
1.989684e+002, 6.267009e+001
1.994506e+002, 6.436289e+001
1.999327e+002, 6.508052e+001
2.004148e+002, 6.510394e+001
2.008969e+002, 6.481966e+001
2.013790e+002, 6.410342e+001
2.018611e+002, 6.372443e+001
2.023433e+002, 6.431156e+001
2.028254e+002, 6.597201e+001
2.033075e+002, 6.730669e+001
2.037896e+002, 6.818078e+001
2.042717e+002, 6.869063e+001
2.047538e+002, 6.903840e+001
2.052360e+002, 6.921046e+001
2.057181e+002, 6.927059e+001
2.062002e+002, 6.904038e+001
2.066823e+002, 6.833376e+001
2.071644e+002, 6.865004e+001
2.076465e+002, 7.051440e+001
2.081287e+002, 7.324786e+001
2.086108e+002, 7.490017e+001
2.090929e+002, 7.535356e+001
2.095750e+002, 7.506599e+001
2.100571e+002, 7.393123e+001
2.105392e+002, 7.146706e+001
2.110214e+002, 7.051414e+001
2.115035e+002, 7.185876e+001
2.119856e+002, 7.469772e+001
2.124677e+002, 7.624268e+001
2.129498e+002, 7.617537e+001
2.134319e+002, 7.554611e+001
2.139140e+002, 7.491612e+001
2.143962e+002, 7.424857e+001
2.148783e+002, 7.368784e+001
2.153604e+002, 7.315587e+001
2.158425e+002, 7.275222e+001
2.163246e+002, 7.300202e+001
2.168067e+002, 7.423837e+001
2.172889e+002, 7.548796e+001
2.177710e+002, 7.613927e+001
2.182531e+002, 7.600809e+001
2.187352e+002, 7.585801e+001
2.192173e+002, 7.591356e+001
2.196994e+002, 7.599647e+001
2.201816e+002, 7.505611e+001
2.206637e+002, 7.219301e+001
2.211458e+002, 6.982088e+001
2.216279e+002, 6.972484e+001
2.221100e+002, 7.306438e+001
2.225921e+002, 7.560686e+001
2.230743e+002, 7.696655e+001
2.235564e+002, 7.727839e+001
2.240385e+002, 7.711855e+001
2.245206e+002, 7.620049e+001
2.250027e+002, 7.527380e+001
2.254848e+002, 7.480641e+001
2.259670e+002, 7.494886e+001
2.264491e+002, 7.525333e+001
2.269312e+002, 7.599563e+001
2.274133e+002, 7.691019e+001
2.278954e+002, 7.650230e+001
2.283775e+002, 7.371359e+001
2.288597e+002, 7.115869e+001
2.293418e+002, 7.055442e+001
2.298239e+002, 7.276797e+001
2.303060e+002, 7.498148e+001
2.307881e+002, 7.736758e+001
2.312702e+002, 7.964317e+001
2.317524e+002, 8.018632e+001
2.322345e+002, 7.799537e+001
2.327166e+002, 7.548896e+001
2.331987e+002, 7.415519e+001
2.336808e+002, 7.468034e+001
2.341629e+002, 7.483700e+001
2.346451e+002, 7.430062e+001
2.351272e+002, 7.327614e+001
2.356093e+002, 7.265029e+001
2.360914e+002, 7.249883e+001
2.365735e+002, 7.263937e+001
2.370556e+002, 7.305491e+001
2.375378e+002, 7.411320e+001
2.380199e+002, 7.464812e+001
2.385020e+002, 7.455404e+001
2.389841e+002, 7.389602e+001
2.394662e+002, 7.279861e+001
2.399483e+002, 7.053391e+001
2.404305e+002, 6.882431e+001
2.409126e+002, 6.871726e+001
2.413947e+002, 7.121353e+001
2.418768e+002, 7.311420e+001
2.423589e+002, 7.420164e+001
2.428410e+002, 7.460442e+001
2.433232e+002, 7.482048e+001
2.438053e+002, 7.511752e+001
2.442874e+002, 7.484978e+001
2.447695e+002, 7.342225e+001
2.452516e+002, 6.943125e+001
2.457337e+002, 6.749908e+001
2.462159e+002, 6.866330e+001
2.466980e+002, 7.186320e+001
2.471801e+002, 7.368830e+001
2.476622e+002, 7.375140e+001
2.481443e+002, 7.305383e+001
2.486264e+002, 7.188621e+001
2.491086e+002, 6.958957e+001
2.495907e+002, 6.843813e+001
2.500728e+002, 6.890374e+001
2.505549e+002, 7.041160e+001
2.510370e+002, 7.146846e+001
2.515191e+002, 7.204320e+001
2.520013e+002, 7.222099e+001
2.524834e+002, 7.191702e+001
2.529655e+002, 7.069331e+001
2.534476e+002, 7.019350e+001
2.539297e+002, 7.076638e+001
2.544118e+002, 7.190827e+001
2.548940e+002, 7.247270e+001
2.553761e+002, 7.218242e+001
2.558582e+002, 7.180684e+001
2.563403e+002, 7.173934e+001
2.568224e+002, 7.224409e+001
2.573046e+002, 7.211601e+001
2.577867e+002, 7.101008e+001
2.582688e+002, 6.949087e+001
2.587509e+002, 6.866428e+001
2.592330e+002, 6.870069e+001
2.597151e+002, 6.909366e+001
2.601973e+002, 6.970831e+001
2.606794e+002, 7.058221e+001
2.611615e+002, 7.149107e+001
2.616436e+002, 7.254343e+001
2.621257e+002, 7.352866e+001
2.626078e+002, 7.403591e+001
2.630900e+002, 7.388501e+001
2.635721e+002, 7.368991e+001
2.640542e+002, 7.376753e+001
2.645363e+002, 7.425683e+001
2.650184e+002, 7.398471e+001
2.655005e+002, 7.256611e+001
2.659827e+002, 7.083647e+001
2.664648e+002, 7.008308e+001
2.669469e+002, 7.068651e+001
2.674290e+002, 7.116745e+001
2.679111e+002, 7.095378e+001
2.683932e+002, 6.997241e+001
2.688754e+002, 6.954892e+001
2.693575e+002, 6.981993e+001
2.698396e+002, 7.043336e+001
2.703217e+002, 7.105476e+001
2.708038e+002, 7.179440e+001
2.712859e+002, 7.207047e+001
2.717681e+002, 7.146732e+001
2.722502e+002, 7.004086e+001
2.727323e+002, 6.955515e+001
2.732144e+002, 7.025654e+001
2.736965e+002, 7.141631e+001
2.741786e+002, 7.233569e+001
2.746608e+002, 7.302931e+001
2.751429e+002, 7.341861e+001
2.756250e+002, 7.334658e+001
2.761071e+002, 7.291538e+001
2.765892e+002, 7.296671e+001
2.770714e+002, 7.361884e+001
2.775535e+002, 7.441423e+001
2.780356e+002, 7.504183e+001
2.785177e+002, 7.553270e+001
2.789998e+002, 7.547961e+001
2.794819e+002, 7.459483e+001
2.799641e+002, 7.314111e+001
2.804462e+002, 7.228824e+001
2.809283e+002, 7.208414e+001
2.814104e+002, 7.226665e+001
2.818925e+002, 7.274146e+001
2.823746e+002, 7.351456e+001
2.828568e+002, 7.418143e+001
2.833389e+002, 7.471705e+001
2.838210e+002, 7.507679e+001
2.843031e+002, 7.499211e+001
2.847852e+002, 7.439735e+001
2.852673e+002, 7.393118e+001
2.857495e+002, 7.421765e+001
2.862316e+002, 7.518067e+001
2.867137e+002, 7.574248e+001
2.871958e+002, 7.563766e+001
2.876779e+002, 7.526216e+001
2.881600e+002, 7.555184e+001
2.886422e+002, 7.651931e+001
2.891243e+002, 7.736446e+001
2.896064e+002, 7.749218e+001
2.900885e+002, 7.702541e+001
2.905706e+002, 7.655967e+001
2.910527e+002, 7.613022e+001
2.915349e+002, 7.575868e+001
2.920170e+002, 7.556348e+001
2.924991e+002, 7.551952e+001
2.929812e+002, 7.533663e+001
2.934633e+002, 7.479542e+001
2.939454e+002, 7.398663e+001
2.944276e+002, 7.312752e+001
2.949097e+002, 7.219038e+001
2.953918e+002, 7.141671e+001
2.958739e+002, 7.123693e+001
2.963560e+002, 7.154665e+001
2.968381e+002, 7.184280e+001
2.973203e+002, 7.201454e+001
2.978024e+002, 7.198675e+001
2.982845e+002, 7.145774e+001
2.987666e+002, 7.036776e+001
2.992487e+002, 6.930908e+001
2.997308e+002, 6.898633e+001
3.002130e+002, 6.918575e+001
3.006951e+002, 6.929426e+001
3.011772e+002, 6.889748e+001
3.016593e+002, 6.835244e+001
3.021414e+002, 6.823032e+001
3.026235e+002, 6.852286e+001
3.031057e+002, 6.884515e+001
3.035878e+002, 6.889870e+001
3.040699e+002, 6.875307e+001
3.045520e+002, 6.852657e+001
3.050341e+002, 6.818326e+001
3.055162e+002, 6.784657e+001
3.059984e+002, 6.772490e+001
3.064805e+002, 6.777626e+001
3.069626e+002, 6.770343e+001
3.074447e+002, 6.715404e+001
3.079268e+002, 6.640586e+001
3.084089e+002, 6.583763e+001
3.088911e+002, 6.562868e+001
3.093732e+002, 6.549724e+001
3.098553e+002, 6.519820e+001
3.103374e+002, 6.478339e+001
3.108195e+002, 6.442136e+001
3.113016e+002, 6.415897e+001
3.117838e+002, 6.402171e+001
3.122659e+002, 6.407546e+001
3.127480e+002, 6.444402e+001
3.132301e+002, 6.473566e+001
3.137122e+002, 6.489516e+001
3.141943e+002, 6.481401e+001
3.146765e+002, 6.425739e+001
3.151586e+002, 6.216340e+001
3.156407e+002, 6.023425e+001
3.161228e+002, 5.980374e+001
3.166049e+002, 6.147202e+001
3.170870e+002, 6.279137e+001
3.175692e+002, 6.220174e+001
3.180513e+002, 6.070884e+001
3.185334e+002, 5.972028e+001
3.190155e+002, 6.006010e+001
3.194976e+002, 6.068184e+001
3.199797e+002, 6.119838e+001
3.204619e+002, 6.158096e+001
3.209440e+002, 6.186267e+001
3.214261e+002, 6.200690e+001
3.219082e+002, 6.207152e+001
3.223903e+002, 6.211029e+001
3.228724e+002, 6.236571e+001
3.233546e+002, 6.236256e+001
3.238367e+002, 6.164174e+001
3.243188e+002, 6.025648e+001
3.248009e+002, 5.964549e+001
3.252830e+002, 6.112413e+001
3.257651e+002, 6.278615e+001
3.262473e+002, 6.339515e+001
3.267294e+002, 6.186637e+001
3.272115e+002, 6.040662e+001
3.276936e+002, 5.889511e+001
3.281757e+002, 5.750532e+001
3.286578e+002, 5.702478e+001
3.291400e+002, 5.853006e+001
3.296221e+002, 6.004921e+001
3.301042e+002, 6.072779e+001
3.305863e+002, 5.980176e+001
3.310684e+002, 5.930071e+001
3.315505e+002, 5.939962e+001
3.320327e+002, 5.989153e+001
3.325148e+002, 6.035553e+001
3.329969e+002, 6.102420e+001
3.334790e+002, 6.134347e+001
3.339611e+002, 6.107151e+001
3.344432e+002, 6.004512e+001
3.349254e+002, 5.901625e+001
3.354075e+002, 5.777822e+001
3.358896e+002, 5.671983e+001
3.363717e+002, 5.645504e+001
3.368538e+002, 5.727222e+001
3.373359e+002, 5.822660e+001
3.378180e+002, 5.928699e+001
3.383001e+002, 6.043626e+001
3.387823e+002, 6.028222e+001
3.392644e+002, 5.824231e+001
3.397465e+002, 5.605525e+001
3.402286e+002, 5.559980e+001
3.407107e+002, 5.720258e+001
3.411928e+002, 5.865296e+001
3.416750e+002, 5.960402e+001
3.421571e+002, 6.006297e+001
3.426392e+002, 5.993198e+001
3.431213e+002, 5.916159e+001
3.436034e+002, 5.806783e+001
3.440855e+002, 5.669991e+001
3.445677e+002, 5.509147e+001
3.450498e+002, 5.374294e+001
3.455319e+002, 5.263475e+001
3.460140e+002, 5.196180e+001
3.464961e+002, 5.243996e+001
3.469782e+002, 5.401338e+001
3.474604e+002, 5.532294e+001
3.479425e+002, 5.526032e+001
3.484246e+002, 5.425220e+001
3.489067e+002, 5.390143e+001
3.493888e+002, 5.436286e+001
3.498709e+002, 5.512811e+001
3.503531e+002, 5.582165e+001
3.508352e+002, 5.636293e+001
3.513173e+002, 5.645323e+001
3.517994e+002, 5.566844e+001
3.522815e+002, 5.444994e+001
3.527636e+002, 5.351215e+001
3.532458e+002, 5.285514e+001
3.537279e+002, 5.230676e+001
3.542100e+002, 5.160334e+001
3.546921e+002, 5.092582e+001
3.551742e+002, 5.061824e+001
3.556563e+002, 5.106510e+001
3.561385e+002, 5.162144e+001
3.566206e+002, 5.159263e+001
3.571027e+002, 5.108828e+001
3.575848e+002, 5.065771e+001
3.580669e+002, 5.056110e+001
3.585490e+002, 5.072406e+001
3.590312e+002, 5.114885e+001
3.595133e+002, 5.203551e+001
3.599954e+002, 5.273332e+001
3.604775e+002, 5.291801e+001
3.609596e+002, 5.264240e+001
3.614417e+002, 5.202082e+001
3.619239e+002, 5.016582e+001
3.624060e+002, 4.869092e+001
3.628881e+002, 4.886328e+001
3.633702e+002, 5.125615e+001
3.638523e+002, 5.288596e+001
3.643344e+002, 5.225456e+001
3.648166e+002, 5.053491e+001
3.652987e+002, 4.905271e+001
3.657808e+002, 4.808768e+001
3.662629e+002, 4.745857e+001
3.667450e+002, 4.721385e+001
3.672271e+002, 4.734792e+001
3.677093e+002, 4.750416e+001
3.681914e+002, 4.812132e+001
3.686735e+002, 4.844650e+001
3.691556e+002, 4.797166e+001
3.696377e+002, 4.512371e+001
3.701198e+002, 4.344764e+001
3.706020e+002, 4.344989e+001
3.710841e+002, 4.477085e+001
3.715662e+002, 4.619303e+001
3.720483e+002, 4.829913e+001
3.725304e+002, 4.977731e+001
3.730125e+002, 4.995897e+001
3.734947e+002, 4.827416e+001
3.739768e+002, 4.687673e+001
3.744589e+002, 4.564500e+001
3.749410e+002, 4.478189e+001
3.754231e+002, 4.479943e+001
3.759052e+002, 4.616018e+001
3.763874e+002, 4.709028e+001
3.768695e+002, 4.689950e+001
3.773516e+002, 4.562036e+001
3.778337e+002, 4.480385e+001
3.783158e+002, 4.451197e+001
3.787979e+002, 4.447514e+001
3.792801e+002, 4.448622e+001
3.797622e+002, 4.455093e+001
3.802443e+002, 4.449463e+001
3.807264e+002, 4.412481e+001
3.812085e+002, 4.374382e+001
3.816906e+002, 4.454233e+001
3.821728e+002, 4.655169e+001
3.826549e+002, 4.803981e+001
3.831370e+002, 4.724909e+001
3.836191e+002, 4.482343e+001
3.841012e+002, 4.337266e+001
3.845833e+002, 4.324699e+001
3.850655e+002, 4.379047e+001
3.855476e+002, 4.448490e+001
3.860297e+002, 4.520298e+001
3.865118e+002, 4.544120e+001
3.869939e+002, 4.443385e+001
3.874760e+002, 4.301653e+001
3.879582e+002, 4.241004e+001
3.884403e+002, 4.263948e+001
3.889224e+002, 4.324213e+001
3.894045e+002, 4.432504e+001
3.898866e+002, 4.541786e+001
3.903687e+002, 4.581375e+001
3.908509e+002, 4.465168e+001
3.913330e+002, 4.339750e+001
3.918151e+002, 4.338678e+001
3.922972e+002, 4.427126e+001
3.927793e+002, 4.463191e+001
3.932614e+002, 4.283699e+001
3.937436e+002, 4.084674e+001
3.942257e+002, 4.017427e+001
3.947078e+002, 4.169396e+001
3.951899e+002, 4.305499e+001
3.956720e+002, 4.325877e+001
3.961541e+002, 4.280626e+001
3.966363e+002, 4.250300e+001
3.971184e+002, 4.255750e+001
3.976005e+002, 4.277887e+001
3.980826e+002, 4.329876e+001
3.985647e+002, 4.422818e+001
3.990468e+002, 4.450338e+001
3.995290e+002, 4.322424e+001
4.000111e+002, 4.169768e+001
4.004932e+002, 4.099076e+001
4.009753e+002, 4.222976e+001
4.014574e+002, 4.276301e+001
4.019395e+002, 4.200523e+001
4.024217e+002, 4.028859e+001
4.029038e+002, 3.918369e+001
4.033859e+002, 3.883773e+001
4.038680e+002, 3.888744e+001
4.043501e+002, 3.920139e+001
4.048322e+002, 3.983704e+001
4.053144e+002, 4.057735e+001
4.057965e+002, 4.155452e+001
4.062786e+002, 4.246985e+001
4.067607e+002, 4.272564e+001
4.072428e+002, 4.217907e+001
4.077249e+002, 4.176336e+001
4.082071e+002, 4.188693e+001
4.086892e+002, 4.242743e+001
4.091713e+002, 4.255468e+001
4.096534e+002, 4.221427e+001
4.101355e+002, 4.177403e+001
4.106176e+002, 4.171187e+001
4.110998e+002, 4.191093e+001
4.115819e+002, 4.152705e+001
4.120640e+002, 4.003638e+001
4.125461e+002, 3.850052e+001
4.130282e+002, 3.903167e+001
4.135103e+002, 4.129583e+001
4.139925e+002, 4.332294e+001
4.144746e+002, 4.398710e+001
4.149567e+002, 4.369190e+001
4.154388e+002, 4.282888e+001
4.159209e+002, 4.133791e+001
4.164030e+002, 4.006253e+001
4.168852e+002, 3.992403e+001
4.173673e+002, 4.042723e+001
4.178494e+002, 4.076100e+001
4.183315e+002, 4.063572e+001
4.188136e+002, 4.022414e+001
4.192957e+002, 3.932003e+001
4.197779e+002, 3.807158e+001
4.202600e+002, 3.737748e+001
4.207421e+002, 3.854450e+001
4.212242e+002, 3.988340e+001
4.217063e+002, 4.002022e+001
4.221884e+002, 3.777151e+001
4.226706e+002, 3.611094e+001
4.231527e+002, 3.611414e+001
4.236348e+002, 3.714201e+001
4.241169e+002, 3.798287e+001
4.245990e+002, 3.837645e+001
4.250811e+002, 3.864745e+001
4.255633e+002, 3.895006e+001
4.260454e+002, 3.934600e+001
4.265275e+002, 3.933950e+001
4.270096e+002, 3.859592e+001
4.274917e+002, 3.771218e+001
4.279738e+002, 3.715927e+001
4.284560e+002, 3.696899e+001
4.289381e+002, 3.707145e+001
4.294202e+002, 3.762518e+001
4.299023e+002, 3.842999e+001
4.303844e+002, 3.880569e+001
4.308665e+002, 3.866421e+001
4.313487e+002, 3.833422e+001
4.318308e+002, 3.788483e+001
4.323129e+002, 3.729752e+001
4.327950e+002, 3.703939e+001
4.332771e+002, 3.718477e+001
4.337592e+002, 3.747863e+001
4.342414e+002, 3.768669e+001
4.347235e+002, 3.779536e+001
4.352056e+002, 3.759056e+001
4.356877e+002, 3.676001e+001
4.361698e+002, 3.574566e+001
4.366519e+002, 3.565281e+001
4.371341e+002, 3.643263e+001
4.376162e+002, 3.717431e+001
4.380983e+002, 3.700546e+001
4.385804e+002, 3.639557e+001
4.390625e+002, 3.616776e+001
4.395446e+002, 3.650514e+001
4.400268e+002, 3.707575e+001
4.405089e+002, 3.793463e+001
4.409910e+002, 3.880035e+001
4.414731e+002, 3.908948e+001
4.419552e+002, 3.807720e+001
4.424373e+002, 3.677496e+001
4.429195e+002, 3.558687e+001
4.434016e+002, 3.455489e+001
4.438837e+002, 3.419612e+001
4.443658e+002, 3.545497e+001
4.448479e+002, 3.706732e+001
4.453300e+002, 3.803125e+001
4.458122e+002, 3.786592e+001
4.462943e+002, 3.742585e+001
4.467764e+002, 3.635280e+001
4.472585e+002, 3.508702e+001
4.477406e+002, 3.476149e+001
4.482227e+002, 3.691842e+001
4.487049e+002, 3.855348e+001
4.491870e+002, 3.850921e+001
4.496691e+002, 3.630860e+001
4.501512e+002, 3.540675e+001
4.506333e+002, 3.667137e+001
4.511154e+002, 3.830123e+001
4.515976e+002, 3.840639e+001
4.520797e+002, 3.633631e+001
4.525618e+002, 3.494759e+001
4.530439e+002, 3.483280e+001
4.535260e+002, 3.560249e+001
4.540081e+002, 3.614222e+001
4.544903e+002, 3.646474e+001
4.549724e+002, 3.647816e+001
4.554545e+002, 3.568320e+001
4.559366e+002, 3.433717e+001
4.564187e+002, 3.463461e+001
4.569008e+002, 3.692538e+001
4.573830e+002, 3.928942e+001
4.578651e+002, 3.913939e+001
4.583472e+002, 3.712667e+001
4.588293e+002, 3.533149e+001
4.593114e+002, 3.436916e+001
4.597935e+002, 3.400148e+001
4.602757e+002, 3.416857e+001
4.607578e+002, 3.475587e+001
4.612399e+002, 3.518791e+001
4.617220e+002, 3.471627e+001
4.622041e+002, 3.413592e+001
4.626862e+002, 3.432721e+001
4.631684e+002, 3.560050e+001
4.636505e+002, 3.679942e+001
4.641326e+002, 3.742537e+001
4.646147e+002, 3.759188e+001
4.650968e+002, 3.744905e+001
4.655789e+002, 3.669320e+001
4.660611e+002, 3.598933e+001
4.665432e+002, 3.565553e+001
4.670253e+002, 3.564070e+001
4.675074e+002, 3.531690e+001
4.679895e+002, 3.402657e+001
4.684716e+002, 3.288518e+001
4.689538e+002, 3.246201e+001
4.694359e+002, 3.316812e+001
4.699180e+002, 3.369274e+001
4.704001e+002, 3.395094e+001
4.708822e+002, 3.409056e+001
4.713643e+002, 3.437033e+001
4.718465e+002, 3.490255e+001
4.723286e+002, 3.523610e+001
4.728107e+002, 3.519193e+001
4.732928e+002, 3.484756e+001
4.737749e+002, 3.461937e+001
4.742570e+002, 3.450076e+001
4.747392e+002, 3.454247e+001
4.752213e+002, 3.478893e+001
4.757034e+002, 3.523263e+001
4.761855e+002, 3.594254e+001
4.766676e+002, 3.705141e+001
4.771497e+002, 3.799859e+001
4.776319e+002, 3.786917e+001
4.781140e+002, 3.691155e+001
4.785961e+002, 3.592738e+001
4.790782e+002, 3.517990e+001
4.795603e+002, 3.464021e+001
4.800424e+002, 3.435722e+001
4.805246e+002, 3.429975e+001
4.810067e+002, 3.422388e+001
4.814888e+002, 3.361654e+001
4.819709e+002, 3.311891e+001
4.824530e+002, 3.346995e+001
4.829352e+002, 3.534802e+001
4.834173e+002, 3.672764e+001
4.838994e+002, 3.620192e+001
4.843815e+002, 3.480743e+001
4.848636e+002, 3.412841e+001
4.853457e+002, 3.541919e+001
4.858279e+002, 3.654065e+001
4.863100e+002, 3.691389e+001
4.867921e+002, 3.651739e+001
4.872742e+002, 3.596615e+001
4.877563e+002, 3.492078e+001
4.882384e+002, 3.405984e+001
4.887206e+002, 3.385798e+001
4.892027e+002, 3.477345e+001
4.896848e+002, 3.505544e+001
4.901669e+002, 3.440990e+001
4.906490e+002, 3.342161e+001
4.911311e+002, 3.304640e+001
4.916133e+002, 3.337046e+001
4.920954e+002, 3.374133e+001
4.925775e+002, 3.400011e+001
4.930596e+002, 3.414216e+001
4.935417e+002, 3.398708e+001
4.940238e+002, 3.352381e+001
4.945060e+002, 3.339061e+001
4.949881e+002, 3.460060e+001
4.954702e+002, 3.647406e+001
4.959523e+002, 3.722950e+001
4.964344e+002, 3.648779e+001
4.969165e+002, 3.527480e+001
4.973987e+002, 3.442704e+001
4.978808e+002, 3.385513e+001
4.983629e+002, 3.340813e+001
4.988450e+002, 3.288527e+001
4.993271e+002, 3.258058e+001
4.998092e+002, 3.272122e+001
5.002914e+002, 3.327133e+001
5.007735e+002, 3.401000e+001
5.012556e+002, 3.531884e+001
5.017377e+002, 3.645858e+001
5.022198e+002, 3.695403e+001
5.027019e+002, 3.653331e+001
5.031841e+002, 3.605700e+001
5.036662e+002, 3.546552e+001
5.041483e+002, 3.494309e+001
5.046304e+002, 3.471888e+001
5.051125e+002, 3.498068e+001
5.055946e+002, 3.525017e+001
5.060768e+002, 3.552990e+001
5.065589e+002, 3.576843e+001
5.070410e+002, 3.566053e+001
5.075231e+002, 3.507910e+001
5.080052e+002, 3.450880e+001
5.084873e+002, 3.432603e+001
5.089695e+002, 3.453939e+001
5.094516e+002, 3.411152e+001
5.099337e+002, 3.289444e+001
5.104158e+002, 3.162844e+001
5.108979e+002, 3.126898e+001
5.113800e+002, 3.163314e+001
5.118622e+002, 3.190611e+001
5.123443e+002, 3.181296e+001
5.128264e+002, 3.161516e+001
5.133085e+002, 3.168316e+001
5.137906e+002, 3.195416e+001
5.142728e+002, 3.220272e+001
5.147549e+002, 3.241696e+001
5.152370e+002, 3.247979e+001
5.157191e+002, 3.204021e+001
5.162012e+002, 3.102250e+001
5.166833e+002, 3.063676e+001
5.171655e+002, 3.224660e+001
5.176476e+002, 3.430236e+001
5.181297e+002, 3.547722e+001
5.186118e+002, 3.495503e+001
5.190939e+002, 3.421307e+001
5.195760e+002, 3.306486e+001
5.200582e+002, 3.187399e+001
5.205403e+002, 3.149336e+001
5.210224e+002, 3.272149e+001
5.215045e+002, 3.363011e+001
5.219866e+002, 3.346653e+001
5.224688e+002, 3.223385e+001
5.229509e+002, 3.210486e+001
5.234330e+002, 3.352108e+001
5.239151e+002, 3.500994e+001
5.243972e+002, 3.525810e+001
5.248793e+002, 3.422871e+001
5.253615e+002, 3.376333e+001
5.258436e+002, 3.415891e+001
5.263257e+002, 3.478079e+001
5.268078e+002, 3.443592e+001
5.272899e+002, 3.338206e+001
5.277720e+002, 3.288659e+001
5.282542e+002, 3.393334e+001
5.287363e+002, 3.543026e+001
5.292184e+002, 3.583874e+001
5.297005e+002, 3.531825e+001
5.301826e+002, 3.475948e+001
5.306647e+002, 3.494389e+001
5.311469e+002, 3.518515e+001
5.316290e+002, 3.469570e+001
5.321111e+002, 3.311681e+001
5.325932e+002, 3.207683e+001
5.330753e+002, 3.283134e+001
5.335574e+002, 3.418089e+001
5.340396e+002, 3.486896e+001
5.345217e+002, 3.384724e+001
5.350038e+002, 3.313740e+001
5.354859e+002, 3.325023e+001
5.359680e+002, 3.389015e+001
5.364501e+002, 3.412440e+001
5.369323e+002, 3.383861e+001
5.374144e+002, 3.332609e+001
5.378965e+002, 3.252154e+001
5.383786e+002, 3.140179e+001
5.388607e+002, 3.117328e+001
5.393428e+002, 3.206116e+001
5.398250e+002, 3.315029e+001
5.403071e+002, 3.347099e+001
5.407892e+002, 3.312392e+001
5.412713e+002, 3.319396e+001
5.417534e+002, 3.396519e+001
5.422355e+002, 3.485972e+001
5.427177e+002, 3.482608e+001
5.431998e+002, 3.419389e+001
5.436819e+002, 3.401588e+001
5.441640e+002, 3.551939e+001
5.446461e+002, 3.717570e+001
5.451282e+002, 3.731388e+001
5.456104e+002, 3.616777e+001
5.460925e+002, 3.521814e+001
5.465746e+002, 3.558400e+001
5.470567e+002, 3.616338e+001
5.475388e+002, 3.609772e+001
5.480209e+002, 3.493303e+001
5.485031e+002, 3.427330e+001
5.489852e+002, 3.517809e+001
5.494673e+002, 3.639901e+001
5.499494e+002, 3.657174e+001
5.504315e+002, 3.449428e+001
5.509136e+002, 3.324497e+001
5.513958e+002, 3.346576e+001
5.518779e+002, 3.463661e+001
5.523600e+002, 3.519283e+001
5.528421e+002, 3.500482e+001
5.533242e+002, 3.466777e+001
5.538063e+002, 3.440274e+001
5.542885e+002, 3.419949e+001
5.547706e+002, 3.392259e+001
5.552527e+002, 3.355125e+001
5.557348e+002, 3.332565e+001
5.562169e+002, 3.352481e+001
5.566990e+002, 3.402961e+001
5.571812e+002, 3.455342e+001
5.576633e+002, 3.506201e+001
5.581454e+002, 3.554103e+001
5.586275e+002, 3.626403e+001
5.591096e+002, 3.690482e+001
5.595917e+002, 3.690192e+001
5.600739e+002, 3.502755e+001
5.605560e+002, 3.340087e+001
5.610381e+002, 3.334810e+001
5.615202e+002, 3.453471e+001
5.620023e+002, 3.544973e+001
5.624844e+002, 3.574695e+001
5.629666e+002, 3.566009e+001
5.634487e+002, 3.513694e+001
5.639308e+002, 3.400265e+001
5.644129e+002, 3.337474e+001
5.648950e+002, 3.350838e+001
5.653771e+002, 3.386908e+001
5.658593e+002, 3.397713e+001
5.663414e+002, 3.371024e+001
5.668235e+002, 3.378066e+001
5.673056e+002, 3.441459e+001
5.677877e+002, 3.517518e+001
5.682698e+002, 3.513817e+001
5.687520e+002, 3.435608e+001
5.692341e+002, 3.371775e+001
5.697162e+002, 3.357243e+001
5.701983e+002, 3.376798e+001
5.706804e+002, 3.417941e+001
5.711625e+002, 3.475159e+001
5.716447e+002, 3.511351e+001
5.721268e+002, 3.471891e+001
5.726089e+002, 3.417355e+001
5.730910e+002, 3.417800e+001
5.735731e+002, 3.490233e+001
5.740552e+002, 3.543566e+001
5.745374e+002, 3.492430e+001
5.750195e+002, 3.424815e+001
5.755016e+002, 3.422719e+001
5.759837e+002, 3.619329e+001
5.764658e+002, 3.735534e+001
5.769479e+002, 3.700130e+001
5.774301e+002, 3.579958e+001
5.779122e+002, 3.505816e+001
5.783943e+002, 3.499224e+001
5.788764e+002, 3.492865e+001
5.793585e+002, 3.459318e+001
5.798406e+002, 3.408324e+001
5.803228e+002, 3.431117e+001
5.808049e+002, 3.544838e+001
5.812870e+002, 3.621482e+001
5.817691e+002, 3.516808e+001
5.822512e+002, 3.294120e+001
5.827333e+002, 3.240908e+001
5.832155e+002, 3.389844e+001
5.836975e+002, 3.545299e+001
5.841796e+002, 3.486220e+001
5.846617e+002, 3.318748e+001
5.851439e+002, 3.221257e+001
5.856260e+002, 3.266668e+001
5.861081e+002, 3.348956e+001
5.865902e+002, 3.408605e+001
5.870723e+002, 3.459027e+001
5.875544e+002, 3.524712e+001
5.880366e+002, 3.701264e+001
5.885187e+002, 3.806129e+001
5.890008e+002, 3.720285e+001
5.894829e+002, 3.459415e+001
5.899650e+002, 3.347287e+001
5.904471e+002, 3.497749e+001
5.909293e+002, 3.648812e+001
5.914114e+002, 3.659526e+001
5.918935e+002, 3.498710e+001
5.923756e+002, 3.428418e+001
5.928577e+002, 3.466956e+001
5.933398e+002, 3.546667e+001
5.938220e+002, 3.618080e+001
5.943041e+002, 3.676365e+001
5.947862e+002, 3.674184e+001
5.952683e+002, 3.587585e+001
5.957504e+002, 3.478764e+001
5.962325e+002, 3.420753e+001
5.967147e+002, 3.404054e+001
5.971968e+002, 3.404496e+001
5.976789e+002, 3.405903e+001
5.981610e+002, 3.424765e+001
5.986431e+002, 3.506131e+001
5.991252e+002, 3.626740e+001
5.996074e+002, 3.681560e+001
6.000895e+002, 3.549228e+001
6.005716e+002, 3.414304e+001
6.010537e+002, 3.375069e+001
6.015358e+002, 3.465479e+001
6.020179e+002, 3.525720e+001
6.025001e+002, 3.549537e+001
6.029822e+002, 3.547126e+001
6.034643e+002, 3.519447e+001
6.039464e+002, 3.453546e+001
6.044285e+002, 3.412115e+001
6.049106e+002, 3.399131e+001
6.053928e+002, 3.410468e+001
6.058749e+002, 3.457404e+001
6.063570e+002, 3.534942e+001
6.068391e+002, 3.572063e+001
6.073212e+002, 3.528234e+001
6.078033e+002, 3.457149e+001
6.082855e+002, 3.435887e+001
6.087676e+002, 3.457467e+001
6.092497e+002, 3.495536e+001
6.097318e+002, 3.556828e+001
6.102139e+002, 3.613037e+001
6.106960e+002, 3.631618e+001
6.111782e+002, 3.613086e+001
6.116603e+002, 3.610859e+001
6.121424e+002, 3.692520e+001
6.126245e+002, 3.760903e+001
6.131066e+002, 3.743313e+001
6.135887e+002, 3.554023e+001
6.140709e+002, 3.474720e+001
6.145530e+002, 3.600303e+001
6.150351e+002, 3.749841e+001
6.155172e+002, 3.703154e+001
6.159993e+002, 3.389560e+001
6.164814e+002, 3.204571e+001
6.169636e+002, 3.223986e+001
6.174457e+002, 3.368540e+001
6.179278e+002, 3.532250e+001
6.184099e+002, 3.705457e+001
6.188920e+002, 3.790313e+001
6.193741e+002, 3.678405e+001
6.198563e+002, 3.505727e+001
6.203384e+002, 3.506961e+001
6.208205e+002, 3.644812e+001
6.213026e+002, 3.732733e+001
6.217847e+002, 3.577312e+001
6.222668e+002, 3.392381e+001
6.227490e+002, 3.352959e+001
6.232311e+002, 3.487141e+001
6.237132e+002, 3.610907e+001
6.241953e+002, 3.709667e+001
6.246774e+002, 3.757573e+001
6.251595e+002, 3.729171e+001
6.256417e+002, 3.536682e+001
6.261238e+002, 3.444202e+001
6.266059e+002, 3.480733e+001
6.270880e+002, 3.586202e+001
6.275701e+002, 3.696331e+001
6.280522e+002, 3.815711e+001
6.285344e+002, 3.894600e+001
6.290165e+002, 3.918240e+001
6.294986e+002, 3.902399e+001
6.299807e+002, 3.876170e+001
6.304628e+002, 3.837586e+001
6.309449e+002, 3.777746e+001
6.314271e+002, 3.641163e+001
6.319092e+002, 3.513418e+001
6.323913e+002, 3.512012e+001
6.328734e+002, 3.617927e+001
6.333555e+002, 3.708714e+001
6.338376e+002, 3.714013e+001
6.343198e+002, 3.693105e+001
6.348019e+002, 3.682468e+001
6.352840e+002, 3.690145e+001
6.357661e+002, 3.683765e+001
6.362482e+002, 3.651087e+001
6.367303e+002, 3.610876e+001
6.372125e+002, 3.571061e+001
6.376946e+002, 3.517927e+001
6.381767e+002, 3.516090e+001
6.386588e+002, 3.594728e+001
6.391409e+002, 3.678756e+001
6.396230e+002, 3.627776e+001
6.401052e+002, 3.454345e+001
6.405873e+002, 3.363614e+001
6.410694e+002, 3.439973e+001
6.415515e+002, 3.568310e+001
6.420336e+002, 3.559240e+001
6.425157e+002, 3.455448e+001
6.429979e+002, 3.381372e+001
6.434800e+002, 3.433090e+001
6.439621e+002, 3.507971e+001
6.444442e+002, 3.530400e+001
6.449263e+002, 3.508907e+001
6.454084e+002, 3.500444e+001
6.458906e+002, 3.525626e+001
6.463727e+002, 3.565895e+001
6.468548e+002, 3.626305e+001
6.473369e+002, 3.717054e+001
6.478190e+002, 3.743626e+001
6.483011e+002, 3.676606e+001
6.487833e+002, 3.589149e+001
6.492654e+002, 3.530337e+001
6.497475e+002, 3.499821e+001
6.502296e+002, 3.499046e+001
6.507117e+002, 3.530581e+001
6.511938e+002, 3.581086e+001
6.516760e+002, 3.676619e+001
6.521581e+002, 3.781662e+001
6.526402e+002, 3.763644e+001
6.531223e+002, 3.525850e+001
6.536044e+002, 3.286848e+001
6.540865e+002, 3.251361e+001
6.545687e+002, 3.352981e+001
6.550508e+002, 3.462365e+001
6.555329e+002, 3.591481e+001
6.560150e+002, 3.659114e+001
6.564971e+002, 3.588612e+001
6.569792e+002, 3.414847e+001
6.574614e+002, 3.323120e+001
6.579435e+002, 3.392078e+001
6.584256e+002, 3.441165e+001
6.589077e+002, 3.390836e+001
6.593898e+002, 3.248679e+001
6.598719e+002, 3.211782e+001
6.603541e+002, 3.294246e+001
6.608362e+002, 3.415348e+001
6.613183e+002, 3.569242e+001
6.618004e+002, 3.720933e+001
6.622825e+002, 3.699300e+001
6.627646e+002, 3.484681e+001
6.632468e+002, 3.281075e+001
6.637289e+002, 3.310669e+001
6.642110e+002, 3.443096e+001
6.646931e+002, 3.501329e+001
6.651752e+002, 3.413932e+001
6.656573e+002, 3.337363e+001
6.661395e+002, 3.360136e+001
6.666216e+002, 3.424089e+001
6.671037e+002, 3.457648e+001
6.675858e+002, 3.419782e+001
6.680679e+002, 3.389582e+001
6.685500e+002, 3.371538e+001
6.690322e+002, 3.365284e+001
6.695143e+002, 3.371746e+001
6.699964e+002, 3.392628e+001
6.704785e+002, 3.421807e+001
6.709606e+002, 3.474276e+001
6.714427e+002, 3.521931e+001
6.719249e+002, 3.448278e+001
6.724070e+002, 3.272475e+001
6.728891e+002, 3.152260e+001
6.733712e+002, 3.239874e+001
6.738533e+002, 3.399160e+001
6.743354e+002, 3.473403e+001
6.748176e+002, 3.464729e+001
6.752997e+002, 3.441954e+001
6.757818e+002, 3.425507e+001
6.762639e+002, 3.416597e+001
6.767460e+002, 3.409133e+001
6.772281e+002, 3.390732e+001
6.777103e+002, 3.428944e+001
6.781924e+002, 3.588373e+001
6.786745e+002, 3.740643e+001
6.791566e+002, 3.781893e+001
6.796387e+002, 3.682117e+001
6.801208e+002, 3.613402e+001
6.806030e+002, 3.585283e+001
6.810851e+002, 3.585515e+001
6.815672e+002, 3.619078e+001
6.820493e+002, 3.671936e+001
6.825314e+002, 3.677235e+001
6.830135e+002, 3.599663e+001
6.834957e+002, 3.515051e+001
6.839778e+002, 3.507546e+001
6.844599e+002, 3.550347e+001
6.849420e+002, 3.592995e+001
6.854241e+002, 3.640931e+001
6.859063e+002, 3.660010e+001
6.863884e+002, 3.607242e+001
6.868705e+002, 3.511267e+001
6.873526e+002, 3.473692e+001
6.878347e+002, 3.557784e+001
6.883168e+002, 3.613833e+001
6.887990e+002, 3.590483e+001
6.892811e+002, 3.502953e+001
6.897632e+002, 3.447901e+001
6.902453e+002, 3.424536e+001
6.907274e+002, 3.438914e+001
6.912095e+002, 3.531527e+001
6.916917e+002, 3.661983e+001
6.921738e+002, 3.700504e+001
6.926559e+002, 3.648199e+001
6.931380e+002, 3.576995e+001
6.936201e+002, 3.522185e+001
6.941022e+002, 3.484363e+001
6.945844e+002, 3.468486e+001
6.950665e+002, 3.478926e+001
6.955486e+002, 3.485593e+001
6.960307e+002, 3.466317e+001
6.965128e+002, 3.446854e+001
6.969949e+002, 3.450065e+001
6.974771e+002, 3.503939e+001
6.979592e+002, 3.517234e+001
6.984413e+002, 3.463660e+001
6.989234e+002, 3.403322e+001
6.994055e+002, 3.423937e+001
6.998876e+002, 3.527649e+001
7.003698e+002, 3.593943e+001
7.008519e+002, 3.598111e+001
7.013340e+002, 3.567566e+001
7.018161e+002, 3.508626e+001
7.022982e+002, 3.444913e+001
7.027803e+002, 3.438720e+001
7.032625e+002, 3.560596e+001
7.037446e+002, 3.689596e+001
7.042267e+002, 3.765565e+001
7.047088e+002, 3.787711e+001
7.051909e+002, 3.752550e+001
7.056730e+002, 3.536648e+001
7.061552e+002, 3.403784e+001
7.066373e+002, 3.458170e+001
7.071194e+002, 3.650705e+001
7.076015e+002, 3.756587e+001
7.080836e+002, 3.762999e+001
7.085657e+002, 3.713596e+001
7.090479e+002, 3.586472e+001
7.095300e+002, 3.421989e+001
7.100121e+002, 3.428127e+001
7.104942e+002, 3.597684e+001
7.109763e+002, 3.750099e+001
7.114584e+002, 3.758277e+001
7.119406e+002, 3.683474e+001
7.124227e+002, 3.567336e+001
7.129048e+002, 3.417007e+001
7.133869e+002, 3.341418e+001
7.138690e+002, 3.477876e+001
7.143511e+002, 3.645119e+001
7.148333e+002, 3.721277e+001
7.153154e+002, 3.659997e+001
7.157975e+002, 3.610834e+001
7.162796e+002, 3.575055e+001
7.167617e+002, 3.550679e+001
7.172438e+002, 3.536414e+001
7.177260e+002, 3.532655e+001
7.182081e+002, 3.540997e+001
7.186902e+002, 3.566105e+001
7.191723e+002, 3.584437e+001
7.196544e+002, 3.545097e+001
7.201365e+002, 3.478252e+001
7.206187e+002, 3.465110e+001
7.211008e+002, 3.536257e+001
7.215829e+002, 3.624985e+001
7.220650e+002, 3.697859e+001
7.225471e+002, 3.752388e+001
7.230292e+002, 3.786675e+001
7.235114e+002, 3.753727e+001
7.239935e+002, 3.756953e+001
7.244756e+002, 3.873878e+001
7.249577e+002, 4.014108e+001
7.254398e+002, 4.005885e+001
7.259219e+002, 3.778868e+001
7.264041e+002, 3.624653e+001
7.268862e+002, 3.628336e+001
7.273683e+002, 3.718202e+001
7.278504e+002, 3.713683e+001
7.283325e+002, 3.629767e+001
7.288146e+002, 3.568394e+001
7.292968e+002, 3.594403e+001
7.297789e+002, 3.650549e+001
7.302610e+002, 3.676219e+001
7.307431e+002, 3.677730e+001
7.312252e+002, 3.676052e+001
7.317073e+002, 3.691134e+001
7.321895e+002, 3.694381e+001
7.326716e+002, 3.658434e+001
7.331537e+002, 3.588592e+001
7.336358e+002, 3.566540e+001
7.341179e+002, 3.638928e+001
7.346000e+002, 3.675174e+001
7.350822e+002, 3.580825e+001
7.355643e+002, 3.383751e+001
7.360464e+002, 3.418191e+001
7.365285e+002, 3.697538e+001
7.370106e+002, 3.941665e+001
7.374927e+002, 3.911047e+001
7.379749e+002, 3.727991e+001
7.384570e+002, 3.581868e+001
7.389391e+002, 3.484789e+001
7.394212e+002, 3.428596e+001
7.399033e+002, 3.433929e+001
7.403854e+002, 3.460533e+001
7.408676e+002, 3.475751e+001
7.413497e+002, 3.465276e+001
7.418318e+002, 3.488678e+001
7.423139e+002, 3.563715e+001
7.427960e+002, 3.656021e+001
7.432781e+002, 3.762466e+001
7.437603e+002, 3.900201e+001
7.442424e+002, 3.912887e+001
7.447245e+002, 3.776072e+001
7.452066e+002, 3.598503e+001
7.456887e+002, 3.455314e+001
7.461708e+002, 3.361691e+001
7.466530e+002, 3.375341e+001
7.471351e+002, 3.522436e+001
7.476172e+002, 3.687254e+001
7.480993e+002, 3.819925e+001
7.485814e+002, 3.907794e+001
7.490635e+002, 3.931627e+001
7.495457e+002, 3.823383e+001
7.500278e+002, 3.754730e+001
7.505099e+002, 3.794390e+001
7.509920e+002, 3.853755e+001
7.514741e+002, 3.810020e+001
7.519562e+002, 3.615023e+001
7.524384e+002, 3.534503e+001
7.529205e+002, 3.631538e+001
7.534026e+002, 3.798367e+001
7.538847e+002, 3.859977e+001
7.543668e+002, 3.840884e+001
7.548489e+002, 3.846048e+001
7.553311e+002, 3.932389e+001
7.558132e+002, 4.006355e+001
7.562953e+002, 3.955113e+001
7.567774e+002, 3.838979e+001
7.572595e+002, 3.764905e+001
7.577416e+002, 3.782678e+001
7.582238e+002, 3.826439e+001
7.587059e+002, 3.911440e+001
7.591880e+002, 4.005468e+001
7.596701e+002, 4.035858e+001
7.601522e+002, 3.982174e+001
7.606343e+002, 3.931796e+001
7.611165e+002, 3.906892e+001
7.615986e+002, 3.898293e+001
7.620807e+002, 3.883455e+001
7.625628e+002, 3.863857e+001
7.630449e+002, 3.847451e+001
7.635270e+002, 3.817425e+001
7.640092e+002, 3.810397e+001
7.644913e+002, 3.904896e+001
7.649734e+002, 4.056722e+001
7.654555e+002, 4.130095e+001
7.659376e+002, 4.003332e+001
7.664197e+002, 3.865288e+001
7.669019e+002, 3.763711e+001
7.673840e+002, 3.701487e+001
7.678661e+002, 3.704038e+001
7.683482e+002, 3.795643e+001
7.688303e+002, 3.881034e+001
7.693124e+002, 3.922401e+001
7.697946e+002, 3.928182e+001
7.702767e+002, 3.913680e+001
7.707588e+002, 3.883678e+001
7.712409e+002, 3.882837e+001
7.717230e+002, 4.004524e+001
7.722051e+002, 4.121967e+001
7.726873e+002, 4.055376e+001
7.731694e+002, 3.837038e+001
7.736515e+002, 3.724104e+001
7.741336e+002, 3.940557e+001
7.746157e+002, 4.151635e+001
7.750978e+002, 4.208180e+001
7.755800e+002, 4.115516e+001
7.760621e+002, 4.009354e+001
7.765442e+002, 3.868217e+001
7.770263e+002, 3.774938e+001
7.775084e+002, 3.794403e+001
7.779905e+002, 3.901839e+001
7.784727e+002, 3.991711e+001
7.789548e+002, 4.063516e+001
7.794369e+002, 4.108604e+001
7.799190e+002, 4.073821e+001
7.804011e+002, 4.039998e+001
7.808832e+002, 4.131124e+001
7.813654e+002, 4.349953e+001
7.818475e+002, 4.455470e+001
7.823296e+002, 4.239582e+001
7.828117e+002, 4.008698e+001
7.832938e+002, 3.916423e+001
7.837759e+002, 3.975188e+001
7.842581e+002, 4.045198e+001
7.847402e+002, 4.145416e+001
7.852223e+002, 4.195975e+001
7.857044e+002, 4.065107e+001
7.861865e+002, 3.832575e+001
7.866686e+002, 3.870180e+001
7.871508e+002, 4.184405e+001
7.876329e+002, 4.455526e+001
7.881150e+002, 4.379800e+001
7.885971e+002, 4.189568e+001
7.890792e+002, 4.118620e+001
7.895613e+002, 4.208184e+001
7.900435e+002, 4.255809e+001
7.905256e+002, 4.140875e+001
7.910077e+002, 4.035580e+001
7.914898e+002, 4.040793e+001
7.919719e+002, 4.179206e+001
7.924540e+002, 4.269906e+001
7.929362e+002, 4.309646e+001
7.934183e+002, 4.308606e+001
7.939004e+002, 4.222845e+001
7.943825e+002, 4.106231e+001
7.948646e+002, 4.158849e+001
7.953467e+002, 4.397918e+001
7.958289e+002, 4.575069e+001
7.963110e+002, 4.418977e+001
7.967931e+002, 4.182226e+001
7.972752e+002, 4.086409e+001
7.977573e+002, 4.196569e+001
7.982394e+002, 4.278709e+001
7.987216e+002, 4.319721e+001
7.992037e+002, 4.312258e+001
7.996858e+002, 4.225230e+001
8.001679e+002, 4.033512e+001
8.006500e+002, 3.972567e+001
8.011321e+002, 4.056253e+001
8.016143e+002, 4.177168e+001
8.020964e+002, 4.256631e+001
8.025785e+002, 4.298429e+001
8.030606e+002, 4.302103e+001
8.035427e+002, 4.265293e+001
8.040248e+002, 4.226240e+001
8.045070e+002, 4.188153e+001
8.049891e+002, 4.169948e+001
8.054712e+002, 4.193391e+001
8.059533e+002, 4.284621e+001
8.064354e+002, 4.339167e+001
8.069175e+002, 4.341862e+001
8.073997e+002, 4.329134e+001
8.078818e+002, 4.330584e+001
8.083639e+002, 4.345455e+001
8.088460e+002, 4.323608e+001
8.093281e+002, 4.257908e+001
8.098102e+002, 4.223228e+001
8.102924e+002, 4.314013e+001
8.107745e+002, 4.464984e+001
8.112566e+002, 4.622682e+001
8.117387e+002, 4.792522e+001
8.122208e+002, 4.820485e+001
8.127029e+002, 4.480807e+001
8.131851e+002, 4.097848e+001
8.136672e+002, 3.899270e+001
8.141493e+002, 3.923083e+001
8.146314e+002, 3.985535e+001
8.151135e+002, 4.107716e+001
8.155956e+002, 4.214595e+001
8.160778e+002, 4.209505e+001
8.165599e+002, 4.129650e+001
8.170420e+002, 4.183315e+001
8.175241e+002, 4.385071e+001
8.180062e+002, 4.540065e+001
8.184883e+002, 4.424791e+001
8.189705e+002, 4.233574e+001
8.194526e+002, 4.163050e+001
8.199347e+002, 4.254035e+001
8.204168e+002, 4.337318e+001
8.208989e+002, 4.364778e+001
8.213810e+002, 4.388523e+001
8.218632e+002, 4.449528e+001
8.223453e+002, 4.561048e+001
8.228274e+002, 4.554820e+001
8.233095e+002, 4.410432e+001
8.237916e+002, 4.274475e+001
8.242737e+002, 4.268687e+001
8.247559e+002, 4.354098e+001
8.252380e+002, 4.486617e+001
8.257201e+002, 4.657949e+001
8.262022e+002, 4.763265e+001
8.266843e+002, 4.680848e+001
8.271664e+002, 4.554654e+001
8.276486e+002, 4.484344e+001
8.281307e+002, 4.489155e+001
8.286128e+002, 4.465822e+001
8.290949e+002, 4.389447e+001
8.295770e+002, 4.327409e+001
8.300591e+002, 4.334038e+001
8.305413e+002, 4.398148e+001
8.310234e+002, 4.380606e+001
8.315055e+002, 4.282465e+001
8.319876e+002, 4.185921e+001
8.324697e+002, 4.127121e+001
8.329518e+002, 4.114604e+001
8.334340e+002, 4.192059e+001
8.339161e+002, 4.350531e+001
8.343982e+002, 4.446279e+001
8.348803e+002, 4.368092e+001
8.353624e+002, 4.274812e+001
8.358445e+002, 4.225326e+001
8.363267e+002, 4.219760e+001
8.368088e+002, 4.277802e+001
8.372909e+002, 4.416573e+001
8.377730e+002, 4.539321e+001
8.382551e+002, 4.596900e+001
8.387372e+002, 4.598283e+001
8.392194e+002, 4.542445e+001
8.397015e+002, 4.441138e+001
8.401836e+002, 4.362341e+001
8.406657e+002, 4.360911e+001
8.411478e+002, 4.380109e+001
8.416299e+002, 4.387615e+001
8.421121e+002, 4.383723e+001
8.425942e+002, 4.384680e+001
8.430763e+002, 4.389959e+001
8.435584e+002, 4.404095e+001
8.440405e+002, 4.438213e+001
8.445226e+002, 4.479156e+001
8.450048e+002, 4.467237e+001
8.454869e+002, 4.405554e+001
8.459690e+002, 4.341127e+001
8.464511e+002, 4.264568e+001
8.469332e+002, 4.225523e+001
8.474153e+002, 4.318087e+001
8.478975e+002, 4.495686e+001
8.483796e+002, 4.626550e+001
8.488617e+002, 4.651529e+001
8.493438e+002, 4.636857e+001
8.498259e+002, 4.585546e+001
8.503080e+002, 4.513322e+001
8.507902e+002, 4.455179e+001
8.512723e+002, 4.409127e+001
8.517544e+002, 4.397013e+001
8.522365e+002, 4.440370e+001
8.527186e+002, 4.497086e+001
8.532007e+002, 4.486525e+001
8.536829e+002, 4.427357e+001
8.541650e+002, 4.369627e+001
8.546471e+002, 4.311171e+001
8.551292e+002, 4.286069e+001
8.556113e+002, 4.336965e+001
8.560934e+002, 4.426027e+001
8.565756e+002, 4.484750e+001
8.570577e+002, 4.504964e+001
8.575398e+002, 4.502525e+001
8.580219e+002, 4.468681e+001
8.585040e+002, 4.429333e+001
8.589861e+002, 4.429229e+001
8.594683e+002, 4.462492e+001
8.599504e+002, 4.507491e+001
8.604325e+002, 4.573799e+001
8.609146e+002, 4.600226e+001
8.613967e+002, 4.471453e+001
8.618788e+002, 4.295231e+001
8.623610e+002, 4.207773e+001
8.628431e+002, 4.316850e+001
8.633252e+002, 4.380090e+001
8.638073e+002, 4.351926e+001
8.642894e+002, 4.297368e+001
8.647715e+002, 4.285513e+001
8.652537e+002, 4.319983e+001
8.657358e+002, 4.317256e+001
8.662179e+002, 4.265773e+001
8.667000e+002, 4.214028e+001
8.671821e+002, 4.224486e+001
8.676642e+002, 4.260372e+001
8.681464e+002, 4.266838e+001
8.686285e+002, 4.232262e+001
8.691106e+002, 4.192449e+001
8.695927e+002, 4.138868e+001
8.700748e+002, 4.103686e+001
8.705569e+002, 4.116428e+001
8.710391e+002, 4.190871e+001
8.715212e+002, 4.210568e+001
8.720033e+002, 4.163818e+001
8.724854e+002, 4.107436e+001
8.729675e+002, 4.074803e+001
8.734496e+002, 4.066610e+001
8.739318e+002, 4.106269e+001
8.744139e+002, 4.187402e+001
8.748960e+002, 4.234277e+001
8.753781e+002, 4.184148e+001
8.758602e+002, 4.101429e+001
8.763423e+002, 4.007737e+001
8.768245e+002, 3.908337e+001
8.773066e+002, 3.860436e+001
8.777887e+002, 3.871503e+001
8.782708e+002, 3.920508e+001
8.787529e+002, 4.018653e+001
8.792350e+002, 4.139785e+001
8.797172e+002, 4.189499e+001
8.801993e+002, 4.175721e+001
8.806814e+002, 4.153952e+001
8.811635e+002, 4.177829e+001
8.816456e+002, 4.183695e+001
8.821277e+002, 4.090261e+001
8.826099e+002, 3.938133e+001
8.830920e+002, 3.849647e+001
8.835741e+002, 3.906165e+001
8.840562e+002, 3.946293e+001
8.845383e+002, 3.941801e+001
8.850204e+002, 3.908831e+001
8.855026e+002, 3.874108e+001
8.859847e+002, 3.839058e+001
8.864668e+002, 3.831029e+001
8.869489e+002, 3.871640e+001
8.874310e+002, 3.910072e+001
8.879131e+002, 3.865671e+001
8.883953e+002, 3.789662e+001
8.888774e+002, 3.760256e+001
8.893595e+002, 3.844675e+001
8.898416e+002, 3.908518e+001
8.903237e+002, 3.930959e+001
8.908058e+002, 3.927601e+001
8.912880e+002, 3.911591e+001
8.917701e+002, 3.882341e+001
8.922522e+002, 3.843995e+001
8.927343e+002, 3.793419e+001
8.932164e+002, 3.754380e+001
8.936985e+002, 3.775726e+001
8.941807e+002, 3.814282e+001
8.946628e+002, 3.804979e+001
8.951449e+002, 3.733402e+001
8.956270e+002, 3.646510e+001
8.961091e+002, 3.508027e+001
8.965912e+002, 3.406922e+001
8.970734e+002, 3.403949e+001
8.975555e+002, 3.509224e+001
8.980376e+002, 3.593555e+001
8.985197e+002, 3.658769e+001
8.990018e+002, 3.688565e+001
8.994839e+002, 3.667567e+001
8.999661e+002, 3.604373e+001
9.004482e+002, 3.482238e+001
9.009303e+002, 3.317665e+001
9.014124e+002, 3.216433e+001
9.018945e+002, 3.290662e+001
9.023766e+002, 3.379636e+001
9.028588e+002, 3.399396e+001
9.033409e+002, 3.366157e+001
9.038230e+002, 3.362868e+001
9.043051e+002, 3.397512e+001
9.047872e+002, 3.431129e+001
9.052693e+002, 3.453130e+001
9.057515e+002, 3.464081e+001
9.062336e+002, 3.481536e+001
9.067157e+002, 3.490191e+001
9.071978e+002, 3.442420e+001
9.076799e+002, 3.214852e+001
9.081620e+002, 3.058329e+001
9.086442e+002, 3.167946e+001
9.091263e+002, 3.393646e+001
9.096084e+002, 3.482611e+001
9.100905e+002, 3.381224e+001
9.105726e+002, 3.267037e+001
9.110547e+002, 3.139586e+001
9.115369e+002, 3.039432e+001
9.120190e+002, 3.028523e+001
9.125011e+002, 3.087322e+001
9.129832e+002, 3.180541e+001
9.134653e+002, 3.316005e+001
9.139474e+002, 3.389845e+001
9.144296e+002, 3.262111e+001
9.149117e+002, 3.093740e+001
9.153938e+002, 3.032223e+001
9.158759e+002, 3.121711e+001
9.163580e+002, 3.154061e+001
9.168401e+002, 3.095060e+001
9.173223e+002, 3.063429e+001
9.178044e+002, 3.187939e+001
9.182865e+002, 3.406445e+001
9.187686e+002, 3.480669e+001
9.192507e+002, 3.419684e+001
9.197328e+002, 3.327940e+001
9.202150e+002, 3.230727e+001
9.206971e+002, 3.159599e+001
9.211792e+002, 3.148948e+001
9.216613e+002, 3.189667e+001
9.221434e+002, 3.204605e+001
9.226255e+002, 3.180846e+001
9.231077e+002, 3.157040e+001
9.235898e+002, 3.142054e+001
9.240719e+002, 3.136185e+001
9.245540e+002, 3.151040e+001
9.250361e+002, 3.177823e+001
9.255182e+002, 3.176940e+001
9.260004e+002, 3.103559e+001
9.264825e+002, 3.048176e+001
9.269646e+002, 3.094265e+001
9.274467e+002, 3.184775e+001
9.279288e+002, 3.231890e+001
9.284109e+002, 3.209690e+001
9.288931e+002, 3.185746e+001
9.293752e+002, 3.161784e+001
9.298573e+002, 3.139772e+001
9.303394e+002, 3.137960e+001
9.308215e+002, 3.140916e+001
9.313036e+002, 3.064536e+001
9.317858e+002, 2.890299e+001
9.322679e+002, 2.776881e+001
9.327500e+002, 2.915029e+001
9.332321e+002, 3.096949e+001
9.337142e+002, 3.159722e+001
9.341964e+002, 3.071954e+001
9.346785e+002, 2.986833e+001
9.351606e+002, 2.882767e+001
9.356427e+002, 2.837627e+001
9.361248e+002, 2.915987e+001
9.366069e+002, 3.078774e+001
9.370891e+002, 3.222800e+001
9.375712e+002, 3.337766e+001
9.380533e+002, 3.360512e+001
9.385354e+002, 3.140185e+001
9.390175e+002, 2.934857e+001
9.394996e+002, 2.924122e+001
9.399818e+002, 3.043301e+001
9.404639e+002, 3.094809e+001
9.409460e+002, 3.033490e+001
9.414281e+002, 3.010355e+001
9.419102e+002, 3.064434e+001
9.423923e+002, 3.143388e+001
9.428745e+002, 3.162454e+001
9.433566e+002, 3.136476e+001
9.438387e+002, 3.099887e+001
9.443208e+002, 3.049253e+001
9.448029e+002, 3.034146e+001
9.452850e+002, 3.144428e+001
9.457672e+002, 3.264347e+001
9.462493e+002, 3.277422e+001
9.467314e+002, 3.154068e+001
9.472135e+002, 3.027481e+001
9.476956e+002, 2.878018e+001
9.481777e+002, 2.792562e+001
9.486599e+002, 2.905084e+001
9.491420e+002, 3.116731e+001
9.496241e+002, 3.173676e+001
9.501062e+002, 3.086103e+001
9.505883e+002, 2.991082e+001
9.510704e+002, 2.931421e+001
9.515526e+002, 2.912730e+001
9.520347e+002, 2.968386e+001
9.525168e+002, 3.070558e+001
9.529989e+002, 3.111625e+001
9.534810e+002, 3.075840e+001
9.539631e+002, 3.053571e+001
9.544453e+002, 3.072360e+001
9.549274e+002, 3.114595e+001
9.554095e+002, 3.170243e+001
9.558916e+002, 3.224137e+001
9.563737e+002, 3.242187e+001
9.568558e+002, 3.192492e+001
9.573380e+002, 3.145731e+001
9.578201e+002, 3.113925e+001
9.583022e+002, 3.104686e+001
9.587843e+002, 3.133737e+001
9.592664e+002, 3.215436e+001
9.597485e+002, 3.243797e+001
9.602307e+002, 3.207591e+001
9.607128e+002, 3.178126e+001
9.611949e+002, 3.260105e+001
9.616770e+002, 3.366985e+001
9.621591e+002, 3.352934e+001
9.626412e+002, 3.216962e+001
9.631234e+002, 3.114219e+001
9.636055e+002, 3.163747e+001
9.640876e+002, 3.178484e+001
9.645697e+002, 3.055934e+001
9.650518e+002, 2.850342e+001
9.655339e+002, 2.823147e+001
9.660161e+002, 2.974394e+001
9.664982e+002, 3.109999e+001
9.669803e+002, 3.156495e+001
9.674624e+002, 3.153215e+001
9.679445e+002, 3.089685e+001
9.684266e+002, 3.020563e+001
9.689088e+002, 3.037280e+001
9.693909e+002, 3.330830e+001
9.698730e+002, 3.462922e+001
9.703551e+002, 3.333086e+001
9.708372e+002, 3.133514e+001
9.713193e+002, 3.071261e+001
9.718015e+002, 3.129624e+001
9.722836e+002, 3.138300e+001
9.727657e+002, 3.082953e+001
9.732478e+002, 3.028149e+001
9.737299e+002, 3.033775e+001
9.742120e+002, 3.053937e+001
9.746942e+002, 3.046834e+001
9.751763e+002, 3.009156e+001
9.756584e+002, 2.987785e+001
9.761405e+002, 2.991957e+001
9.766226e+002, 2.994000e+001
9.771047e+002, 2.972491e+001
9.775869e+002, 2.951087e+001
9.780690e+002, 3.027005e+001
9.785511e+002, 3.166567e+001
9.790332e+002, 3.241847e+001
9.795153e+002, 3.144731e+001
9.799974e+002, 3.054406e+001
9.804796e+002, 3.079476e+001
9.809617e+002, 3.164023e+001
9.814438e+002, 3.231852e+001
9.819259e+002, 3.289887e+001
9.824080e+002, 3.300675e+001
9.828901e+002, 3.254957e+001
9.833723e+002, 3.191594e+001
9.838544e+002, 3.146681e+001
9.843365e+002, 3.112929e+001
9.848186e+002, 3.072063e+001
9.853007e+002, 3.023231e+001
9.857828e+002, 2.992682e+001
9.862650e+002, 2.970058e+001
9.867471e+002, 2.995516e+001
9.872292e+002, 3.120026e+001
9.877113e+002, 3.307048e+001
9.881934e+002, 3.337784e+001
9.886755e+002, 3.204090e+001
9.891577e+002, 3.110136e+001
9.896398e+002, 3.160324e+001
9.901219e+002, 3.243251e+001
9.906040e+002, 3.206197e+001
9.910861e+002, 3.112854e+001
9.915682e+002, 3.071556e+001
9.920504e+002, 3.163484e+001
9.925325e+002, 3.233138e+001
9.930146e+002, 3.273664e+001
9.934967e+002, 3.282595e+001
9.939788e+002, 3.234597e+001
9.944609e+002, 3.142584e+001
9.949431e+002, 3.139268e+001
9.954252e+002, 3.231039e+001
9.959073e+002, 3.306962e+001
9.963894e+002, 3.275520e+001
9.968715e+002, 3.206321e+001
9.973536e+002, 3.121039e+001
9.978358e+002, 3.034026e+001
9.983179e+002, 3.055296e+001
9.988000e+002, 3.258369e+001
9.992821e+002, 3.371428e+001
9.997642e+002, 3.283024e+001
1.000246e+003, 3.108188e+001
1.000728e+003, 3.080550e+001
1.001211e+003, 3.156850e+001
1.001693e+003, 3.230687e+001
1.002175e+003, 3.274232e+001
1.002657e+003, 3.300388e+001
1.003139e+003, 3.331210e+001
1.003621e+003, 3.333095e+001
1.004103e+003, 3.265971e+001
1.004585e+003, 3.107291e+001
1.005068e+003, 3.014162e+001
1.005550e+003, 2.989734e+001
1.006032e+003, 2.992978e+001
1.006514e+003, 2.996808e+001
1.006996e+003, 3.007175e+001
1.007478e+003, 3.041176e+001
1.007960e+003, 3.092370e+001
1.008442e+003, 3.123849e+001
1.008924e+003, 3.093461e+001
1.009407e+003, 3.087182e+001
1.009889e+003, 3.138792e+001
1.010371e+003, 3.208490e+001
1.010853e+003, 3.214973e+001
1.011335e+003, 3.163294e+001
1.011817e+003, 3.073153e+001
1.012299e+003, 2.930332e+001
1.012781e+003, 2.830524e+001
1.013263e+003, 2.857388e+001
1.013746e+003, 2.953997e+001
1.014228e+003, 3.091255e+001
1.014710e+003, 3.296775e+001
1.015192e+003, 3.342830e+001
1.015674e+003, 3.178918e+001
1.016156e+003, 3.019763e+001
1.016638e+003, 3.007771e+001
1.017120e+003, 3.084475e+001
1.017603e+003, 3.138781e+001
1.018085e+003, 3.172094e+001
1.018567e+003, 3.187650e+001
1.019049e+003, 3.152430e+001
1.019531e+003, 3.142029e+001
1.020013e+003, 3.191300e+001
1.020495e+003, 3.268742e+001
1.020977e+003, 3.346537e+001
1.021459e+003, 3.426320e+001
1.021942e+003, 3.409340e+001
1.022424e+003, 3.270575e+001
1.022906e+003, 3.132922e+001
1.023388e+003, 3.147593e+001
1.023870e+003, 3.195178e+001
1.024352e+003, 3.126190e+001
1.024834e+003, 2.911766e+001
1.025316e+003, 2.828446e+001
1.025799e+003, 2.948386e+001
1.026281e+003, 3.082268e+001
1.026763e+003, 3.162081e+001
1.027245e+003, 3.199852e+001
1.027727e+003, 3.225791e+001
1.028209e+003, 3.239933e+001
1.028691e+003, 3.240324e+001
1.029173e+003, 3.204906e+001
1.029656e+003, 3.189708e+001
1.030138e+003, 3.241608e+001
1.030620e+003, 3.313987e+001
1.031102e+003, 3.357340e+001
1.031584e+003, 3.366505e+001
1.032066e+003, 3.382169e+001
1.032548e+003, 3.408761e+001
1.033030e+003, 3.408099e+001
1.033512e+003, 3.307400e+001
1.033995e+003, 3.188986e+001
1.034477e+003, 3.159138e+001
1.034959e+003, 3.209744e+001
1.035441e+003, 3.258550e+001
1.035923e+003, 3.273267e+001
1.036405e+003, 3.311195e+001
1.036887e+003, 3.404638e+001
1.037369e+003, 3.502502e+001
1.037851e+003, 3.494012e+001
1.038334e+003, 3.402226e+001
1.038816e+003, 3.310119e+001
1.039298e+003, 3.232167e+001
1.039780e+003, 3.174344e+001
1.040262e+003, 3.159921e+001
1.040744e+003, 3.150927e+001
1.041226e+003, 3.106625e+001
1.041708e+003, 3.021105e+001
1.042191e+003, 3.006830e+001
1.042673e+003, 3.072464e+001
1.043155e+003, 3.131922e+001
1.043637e+003, 3.121000e+001
1.044119e+003, 3.093160e+001
1.044601e+003, 3.146835e+001
1.045083e+003, 3.239915e+001
1.045565e+003, 3.274184e+001
1.046047e+003, 3.132191e+001
1.046530e+003, 3.060197e+001
1.047012e+003, 3.094497e+001
1.047494e+003, 3.180637e+001
1.047976e+003, 3.295939e+001
1.048458e+003, 3.416793e+001
1.048940e+003, 3.385909e+001
1.049422e+003, 3.197188e+001
1.049904e+003, 3.052199e+001
1.050386e+003, 3.121641e+001
1.050869e+003, 3.231424e+001
1.051351e+003, 3.288292e+001
1.051833e+003, 3.295917e+001
1.052315e+003, 3.268201e+001
1.052797e+003, 3.198974e+001
1.053279e+003, 3.134793e+001
1.053761e+003, 3.076908e+001
1.054243e+003, 3.056682e+001
1.054726e+003, 3.183338e+001
1.055208e+003, 3.342677e+001
1.055690e+003, 3.354742e+001
1.056172e+003, 3.107065e+001
1.056654e+003, 2.963136e+001
1.057136e+003, 2.985898e+001
1.057618e+003, 3.050360e+001
1.058100e+003, 3.090408e+001
1.058583e+003, 3.110624e+001
1.059065e+003, 3.136951e+001
1.059547e+003, 3.162536e+001
1.060029e+003, 3.155493e+001
1.060511e+003, 3.056900e+001
1.060993e+003, 2.971530e+001
1.061475e+003, 2.930689e+001
1.061957e+003, 2.936703e+001
1.062439e+003, 3.013544e+001
1.062922e+003, 3.178693e+001
1.063404e+003, 3.246743e+001
1.063886e+003, 3.195756e+001
1.064368e+003, 3.116508e+001
1.064850e+003, 3.085818e+001
1.065332e+003, 3.069767e+001
1.065814e+003, 3.018786e+001
1.066296e+003, 2.937354e+001
1.066778e+003, 2.923223e+001
1.067261e+003, 3.023458e+001
1.067743e+003, 3.097680e+001
1.068225e+003, 3.103320e+001
1.068707e+003, 3.075815e+001
1.069189e+003, 3.079302e+001
1.069671e+003, 3.101215e+001
1.070153e+003, 3.103749e+001
1.070635e+003, 3.060510e+001
1.071118e+003, 3.063612e+001
1.071600e+003, 3.231018e+001
1.072082e+003, 3.376985e+001
1.072564e+003, 3.384413e+001
1.073046e+003, 3.266042e+001
1.073528e+003, 3.162541e+001
1.074010e+003, 3.077183e+001
1.074492e+003, 3.046922e+001
1.074974e+003, 3.144635e+001
1.075457e+003, 3.245186e+001
1.075939e+003, 3.260173e+001
1.076421e+003, 3.213438e+001
1.076903e+003, 3.135790e+001
1.077385e+003, 2.990759e+001
1.077867e+003, 2.950390e+001
1.078349e+003, 3.043393e+001
1.078831e+003, 3.151010e+001
1.079313e+003, 3.160934e+001
1.079796e+003, 3.116745e+001
1.080278e+003, 3.078932e+001
1.080760e+003, 3.049225e+001
1.081242e+003, 3.015589e+001
1.081724e+003, 2.920976e+001
1.082206e+003, 2.902940e+001
1.082688e+003, 3.023252e+001
1.083170e+003, 3.191981e+001
1.083652e+003, 3.229386e+001
1.084135e+003, 3.170189e+001
1.084617e+003, 3.153554e+001
1.085099e+003, 3.214481e+001
1.085581e+003, 3.249882e+001
1.086063e+003, 3.153051e+001
1.086545e+003, 3.055033e+001
1.087027e+003, 3.054218e+001
1.087509e+003, 3.135340e+001
1.087992e+003, 3.127391e+001
1.088474e+003, 3.029364e+001
1.088956e+003, 2.925867e+001
1.089438e+003, 2.828852e+001
1.089920e+003, 2.779545e+001
1.090402e+003, 2.856391e+001
1.090884e+003, 2.988488e+001
1.091366e+003, 3.078067e+001
1.091849e+003, 3.099357e+001
1.092331e+003, 3.112399e+001
1.092813e+003, 3.116437e+001
1.093295e+003, 3.114776e+001
1.093777e+003, 3.117182e+001
1.094259e+003, 3.111921e+001
1.094741e+003, 3.039122e+001
1.095223e+003, 2.933820e+001
1.095705e+003, 2.917938e+001
1.096188e+003, 3.201835e+001
1.096670e+003, 3.341952e+001
1.097152e+003, 3.211105e+001
1.097634e+003, 2.988600e+001
1.098116e+003, 2.894113e+001
1.098598e+003, 2.909704e+001
1.099080e+003, 2.971598e+001
1.099562e+003, 3.072503e+001
1.100044e+003, 3.145783e+001
1.100527e+003, 3.105173e+001
1.101009e+003, 3.072485e+001
1.101491e+003, 3.143563e+001
1.101973e+003, 3.269960e+001
1.102455e+003, 3.276217e+001
1.102937e+003, 3.160770e+001
1.103419e+003, 3.108770e+001
1.103901e+003, 3.185701e+001
1.104384e+003, 3.258833e+001
1.104866e+003, 3.168583e+001
1.105348e+003, 3.029877e+001
1.105830e+003, 2.958868e+001
1.106312e+003, 2.976055e+001
1.106794e+003, 2.996250e+001
1.107276e+003, 3.024157e+001
1.107758e+003, 3.032888e+001
1.108240e+003, 2.987839e+001
1.108723e+003, 2.944548e+001
1.109205e+003, 3.045546e+001
1.109687e+003, 3.201841e+001
1.110169e+003, 3.235932e+001
1.110651e+003, 2.962989e+001
1.111133e+003, 2.827324e+001
1.111615e+003, 2.919374e+001
1.112097e+003, 3.039422e+001
1.112579e+003, 3.009834e+001
1.113062e+003, 2.885229e+001
1.113544e+003, 2.873102e+001
1.114026e+003, 2.951394e+001
1.114508e+003, 3.006072e+001
1.114990e+003, 2.949472e+001
1.115472e+003, 2.900714e+001
1.115954e+003, 2.904870e+001
1.116436e+003, 2.930011e+001
1.116919e+003, 2.925745e+001
1.117401e+003, 2.897365e+001
1.117883e+003, 2.942185e+001
1.118365e+003, 3.068851e+001
1.118847e+003, 3.154135e+001
1.119329e+003, 3.032344e+001
1.119811e+003, 2.912030e+001
1.120293e+003, 2.970298e+001
1.120776e+003, 3.145126e+001
1.121258e+003, 3.211698e+001
1.121740e+003, 3.158706e+001
1.122222e+003, 3.109806e+001
1.122704e+003, 3.093826e+001
1.123186e+003, 3.074284e+001
1.123668e+003, 2.959384e+001
1.124150e+003, 2.854977e+001
1.124632e+003, 2.907821e+001
1.125115e+003, 3.155824e+001
1.125597e+003, 3.262170e+001
1.126079e+003, 3.190659e+001
1.126561e+003, 3.081483e+001
1.127043e+003, 2.967320e+001
1.127525e+003, 2.875836e+001
1.128007e+003, 2.859195e+001
1.128489e+003, 2.894615e+001
1.128971e+003, 2.951301e+001
1.129454e+003, 3.051888e+001
1.129936e+003, 3.086436e+001
1.130418e+003, 3.031623e+001
1.130900e+003, 2.940343e+001
1.131382e+003, 2.807209e+001
1.131864e+003, 2.676412e+001
1.132346e+003, 2.713303e+001
1.132828e+003, 2.871877e+001
1.133311e+003, 3.000366e+001
1.133793e+003, 2.995388e+001
1.134275e+003, 3.005099e+001
1.134757e+003, 3.107443e+001
1.135239e+003, 3.190745e+001
1.135721e+003, 3.122112e+001
1.136203e+003, 2.925673e+001
1.136685e+003, 2.805884e+001
1.137167e+003, 2.763433e+001
1.137650e+003, 2.743348e+001
1.138132e+003, 2.683973e+001
1.138614e+003, 2.669650e+001
1.139096e+003, 2.801715e+001
1.139578e+003, 2.978109e+001
1.140060e+003, 3.022499e+001
1.140542e+003, 2.931806e+001
1.141024e+003, 2.881113e+001
1.141506e+003, 2.889909e+001
1.141989e+003, 2.916310e+001
1.142471e+003, 2.938127e+001
1.142953e+003, 2.954930e+001
1.143435e+003, 2.958871e+001
1.143917e+003, 2.956611e+001
1.144399e+003, 2.983782e+001
1.144881e+003, 3.047796e+001
1.145363e+003, 3.088865e+001
1.145846e+003, 3.091594e+001
1.146328e+003, 3.075256e+001
1.146810e+003, 3.028050e+001
1.147292e+003, 2.993996e+001
1.147774e+003, 3.050480e+001
1.148256e+003, 3.216279e+001
1.148738e+003, 3.228485e+001
1.149220e+003, 3.021409e+001
1.149703e+003, 2.892798e+001
1.150185e+003, 2.973778e+001
1.150667e+003, 3.129574e+001
1.151149e+003, 3.183959e+001
1.151631e+003, 3.167760e+001
1.152113e+003, 3.119379e+001
1.152595e+003, 3.021036e+001
1.153077e+003, 2.994691e+001
1.153559e+003, 3.081373e+001
1.154042e+003, 3.157667e+001
1.154524e+003, 3.162066e+001
1.155006e+003, 3.110089e+001
1.155488e+003, 2.980527e+001
1.155970e+003, 2.827405e+001
1.156452e+003, 2.795737e+001
1.156934e+003, 3.094363e+001
1.157416e+003, 3.199860e+001
1.157898e+003, 2.941716e+001
1.158381e+003, 2.670930e+001
1.158863e+003, 2.698810e+001
1.159345e+003, 2.931142e+001
1.159827e+003, 2.971787e+001
1.160309e+003, 2.865550e+001
1.160791e+003, 2.793129e+001
1.161273e+003, 2.898167e+001
1.161755e+003, 2.963845e+001
1.162238e+003, 2.896087e+001
1.162720e+003, 2.812015e+001
1.163202e+003, 2.863060e+001
1.163684e+003, 3.018275e+001
1.164166e+003, 3.075108e+001
1.164648e+003, 3.030931e+001
1.165130e+003, 2.949694e+001
1.165612e+003, 2.808245e+001
1.166094e+003, 2.707333e+001
1.166577e+003, 2.717632e+001
1.167059e+003, 2.774882e+001
1.167541e+003, 2.774281e+001
1.168023e+003, 2.722686e+001
1.168505e+003, 2.709705e+001
1.168987e+003, 2.744598e+001
1.169469e+003, 2.793290e+001
1.169951e+003, 2.844006e+001
1.170433e+003, 2.889652e+001
1.170916e+003, 2.933924e+001
1.171398e+003, 2.968289e+001
1.171880e+003, 2.963438e+001
1.172362e+003, 2.919971e+001
1.172844e+003, 2.879823e+001
1.173326e+003, 2.849610e+001
1.173808e+003, 2.834468e+001
1.174290e+003, 2.848827e+001
1.174773e+003, 2.871892e+001
1.175255e+003, 2.905820e+001
1.175737e+003, 2.937758e+001
1.176219e+003, 2.864722e+001
1.176701e+003, 2.676205e+001
1.177183e+003, 2.608805e+001
1.177665e+003, 2.754699e+001
1.178147e+003, 2.937662e+001
1.178630e+003, 3.017123e+001
1.179112e+003, 3.031165e+001
1.179594e+003, 2.995489e+001
1.180076e+003, 2.913963e+001
1.180558e+003, 2.891869e+001
1.181040e+003, 2.935047e+001
1.181522e+003, 2.985156e+001
1.182004e+003, 3.037972e+001
1.182486e+003, 3.049396e+001
1.182969e+003, 2.913825e+001
1.183451e+003, 2.741561e+001
1.183933e+003, 2.672619e+001
1.184415e+003, 2.735218e+001
1.184897e+003, 2.806720e+001
1.185379e+003, 2.891894e+001
1.185861e+003, 2.959890e+001
1.186343e+003, 2.999520e+001
1.186825e+003, 3.007234e+001
1.187308e+003, 2.957837e+001
1.187790e+003, 2.881214e+001
1.188272e+003, 2.823187e+001
1.188754e+003, 2.785491e+001
1.189236e+003, 2.786669e+001
1.189718e+003, 2.834520e+001
1.190200e+003, 2.880957e+001
1.190682e+003, 2.891000e+001
1.191165e+003, 2.885415e+001
1.191647e+003, 2.907281e+001
1.192129e+003, 2.930412e+001
1.192611e+003, 2.894262e+001
1.193093e+003, 2.712714e+001
1.193575e+003, 2.657754e+001
1.194057e+003, 2.758479e+001
1.194539e+003, 2.881963e+001
1.195021e+003, 2.946593e+001
1.195504e+003, 2.956651e+001
1.195986e+003, 2.895075e+001
1.196468e+003, 2.783969e+001
1.196950e+003, 2.681749e+001
1.197432e+003, 2.534999e+001
1.197914e+003, 2.567448e+001
1.198396e+003, 2.848979e+001
1.198878e+003, 3.105898e+001
1.199360e+003, 3.010943e+001
1.199843e+003, 2.770560e+001
1.200325e+003, 2.663845e+001
1.200807e+003, 2.680236e+001
1.201289e+003, 2.733297e+001
1.201771e+003, 2.823287e+001
1.202253e+003, 2.920534e+001
1.202735e+003, 3.038406e+001
1.203217e+003, 3.108410e+001
1.203700e+003, 2.996265e+001
1.204182e+003, 2.822349e+001
1.204664e+003, 2.768762e+001
1.205146e+003, 2.829240e+001
1.205628e+003, 2.874225e+001
1.206110e+003, 2.861464e+001
1.206592e+003, 2.892857e+001
1.207074e+003, 3.009088e+001
1.207557e+003, 3.102116e+001
1.208039e+003, 2.988029e+001
1.208521e+003, 2.791601e+001
1.209003e+003, 2.673517e+001
1.209485e+003, 2.649872e+001
1.209967e+003, 2.734193e+001
1.210449e+003, 3.022530e+001
1.210931e+003, 3.167207e+001
1.211413e+003, 3.066914e+001
1.211896e+003, 2.877631e+001
1.212378e+003, 2.763582e+001
1.212860e+003, 2.719705e+001
1.213342e+003, 2.768381e+001
1.213824e+003, 2.911089e+001
1.214306e+003, 2.992280e+001
1.214788e+003, 2.989665e+001
1.215270e+003, 2.946518e+001
1.215752e+003, 2.860359e+001
1.216235e+003, 2.774273e+001
1.216717e+003, 2.749939e+001
1.217199e+003, 2.765084e+001
1.217681e+003, 2.791077e+001
1.218163e+003, 2.824965e+001
1.218645e+003, 2.858621e+001
1.219127e+003, 2.893501e+001
1.219609e+003, 2.922204e+001
1.220092e+003, 2.941750e+001
1.220574e+003, 2.956156e+001
1.221056e+003, 2.983037e+001
1.221538e+003, 3.003117e+001
1.222020e+003, 2.986716e+001
1.222502e+003, 2.925123e+001
1.222984e+003, 2.841848e+001
1.223466e+003, 2.712176e+001
1.223948e+003, 2.655013e+001
1.224431e+003, 2.734383e+001
1.224913e+003, 2.864733e+001
1.225395e+003, 2.973337e+001
1.225877e+003, 3.027526e+001
1.226359e+003, 2.954749e+001
1.226841e+003, 2.694551e+001
1.227323e+003, 2.587893e+001
1.227805e+003, 2.670042e+001
1.228287e+003, 2.772302e+001
1.228770e+003, 2.831999e+001
1.229252e+003, 2.863112e+001
1.229734e+003, 2.878205e+001
1.230216e+003, 2.879545e+001
1.230698e+003, 2.866426e+001
1.231180e+003, 2.833396e+001
1.231662e+003, 2.818412e+001
1.232144e+003, 2.825576e+001
1.232627e+003, 2.823745e+001
1.233109e+003, 2.781380e+001
1.233591e+003, 2.752691e+001
1.234073e+003, 2.835226e+001
1.234555e+003, 2.954975e+001
1.235037e+003, 3.008432e+001
1.235519e+003, 2.976791e+001
1.236001e+003, 2.938371e+001
1.236484e+003, 2.891638e+001
1.236966e+003, 2.853730e+001
1.237448e+003, 2.827306e+001
1.237930e+003, 2.823317e+001
1.238412e+003, 2.873485e+001
1.238894e+003, 2.942400e+001
1.239376e+003, 2.981926e+001
1.239858e+003, 2.989686e+001
1.240340e+003, 2.972742e+001
1.240823e+003, 2.929910e+001
1.241305e+003, 2.892830e+001
1.241787e+003, 2.873574e+001
1.242269e+003, 2.873997e+001
1.242751e+003, 2.920086e+001
1.243233e+003, 2.972413e+001
1.243715e+003, 2.976684e+001
1.244197e+003, 2.925562e+001
1.244679e+003, 2.907030e+001
1.245162e+003, 2.919957e+001
1.245644e+003, 2.914020e+001
1.246126e+003, 2.810205e+001
1.246608e+003, 2.747275e+001
1.247090e+003, 2.901655e+001
1.247572e+003, 3.090202e+001
1.248054e+003, 3.086143e+001
1.248536e+003, 2.879030e+001
1.249019e+003, 2.796896e+001
1.249501e+003, 2.830399e+001
1.249983e+003, 2.877093e+001
1.250465e+003, 2.886265e+001
1.250947e+003, 2.887230e+001
1.251429e+003, 2.913635e+001
1.251911e+003, 2.922484e+001
1.252393e+003, 2.849148e+001
1.252875e+003, 2.703265e+001
1.253358e+003, 2.700962e+001
1.253840e+003, 2.818724e+001
1.254322e+003, 2.899090e+001
1.254804e+003, 2.813981e+001
1.255286e+003, 2.736592e+001
1.255768e+003, 2.724482e+001
1.256250e+003, 2.745660e+001
1.256732e+003, 2.797979e+001
1.257214e+003, 2.866014e+001
1.257697e+003, 2.810129e+001
1.258179e+003, 2.669629e+001
1.258661e+003, 2.625797e+001
1.259143e+003, 2.894899e+001
1.259625e+003, 3.071391e+001
1.260107e+003, 3.048262e+001
1.260589e+003, 2.970957e+001
1.261071e+003, 2.968314e+001
1.261554e+003, 3.008237e+001
1.262036e+003, 2.980886e+001
1.262518e+003, 2.903976e+001
1.263000e+003, 2.839851e+001
1.263482e+003, 2.801951e+001
1.263964e+003, 2.798643e+001
1.264446e+003, 2.840152e+001
1.264928e+003, 2.890316e+001
1.265411e+003, 2.908166e+001
1.265893e+003, 2.919140e+001
1.266375e+003, 3.003340e+001
1.266857e+003, 3.120834e+001
1.267339e+003, 3.161787e+001
1.267821e+003, 3.045333e+001
1.268303e+003, 2.937329e+001
1.268785e+003, 2.833645e+001
1.269267e+003, 2.766810e+001
1.269750e+003, 2.766117e+001
1.270232e+003, 2.815098e+001
1.270714e+003, 2.945390e+001
1.271196e+003, 3.099480e+001
1.271678e+003, 3.131119e+001
1.272160e+003, 2.981224e+001
1.272642e+003, 2.878508e+001
1.273124e+003, 2.832382e+001
1.273606e+003, 2.801126e+001
1.274089e+003, 2.732558e+001
1.274571e+003, 2.686557e+001
1.275053e+003, 2.739625e+001
1.275535e+003, 2.844965e+001
1.276017e+003, 2.922125e+001
1.276499e+003, 2.968880e+001
1.276981e+003, 2.980117e+001
1.277463e+003, 2.956301e+001
1.277946e+003, 2.932417e+001
1.278428e+003, 2.939737e+001
1.278910e+003, 2.944959e+001
1.279392e+003, 2.919797e+001
1.279874e+003, 2.886438e+001
1.280356e+003, 2.863238e+001
1.280838e+003, 2.851181e+001
1.281320e+003, 2.921279e+001
1.281802e+003, 3.055115e+001
1.282285e+003, 3.095268e+001
1.282767e+003, 2.809689e+001
1.283249e+003, 2.606466e+001
1.283731e+003, 2.687503e+001
1.284213e+003, 2.849586e+001
1.284695e+003, 2.935647e+001
1.285177e+003, 2.952901e+001
1.285659e+003, 2.901911e+001
1.286141e+003, 2.807753e+001
1.286624e+003, 2.771554e+001
1.287106e+003, 2.903796e+001
1.287588e+003, 2.998956e+001
1.288070e+003, 3.031934e+001
1.288552e+003, 3.021796e+001
1.289034e+003, 2.950800e+001
1.289516e+003, 2.862530e+001
1.289998e+003, 2.885552e+001
1.290481e+003, 2.971289e+001
1.290963e+003, 2.992912e+001
1.291445e+003, 2.807959e+001
1.291927e+003, 2.768442e+001
1.292409e+003, 2.913912e+001
1.292891e+003, 3.054008e+001
1.293373e+003, 3.013480e+001
1.293855e+003, 2.921644e+001
1.294338e+003, 2.964866e+001
1.294820e+003, 3.070809e+001
1.295302e+003, 3.093200e+001
1.295784e+003, 2.993490e+001
1.296266e+003, 2.941681e+001
1.296748e+003, 2.940323e+001
1.297230e+003, 2.940297e+001
1.297712e+003, 2.874431e+001
1.298194e+003, 2.841885e+001
1.298677e+003, 2.976403e+001
1.299159e+003, 3.153219e+001
1.299641e+003, 3.217962e+001
1.300123e+003, 3.168249e+001
1.300605e+003, 3.103354e+001
1.301087e+003, 3.027489e+001
1.301569e+003, 2.979912e+001
1.302051e+003, 3.006921e+001
1.302533e+003, 3.024838e+001
1.303016e+003, 3.005953e+001
##END=



