##NAMES=Chalcanthite
##RRUFFID=R050293
##IDEAL CHEMISTRY=Cu^2+^S^6+^O_4_&#183;5H_2_O
##LOCALITY=79 mine, 4th level, Hayden, Gila County, Arizona, USA
##OWNER=RRUFF
##SOURCE=George Godas, John Callahan
##DESCRIPTION=Blue fibrous crust
##STATUS=The identification of this mineral has been confirmed by X-ray diffraction and chemical analysis
##URL=rruff.info/R050293
##MEASURED CHEMISTRY=Cu_1.00_S_1.00_O_4_Â·5H_2_O
92.35352, 12.94151
92.83563, 12.30650
93.31775, 12.03627
93.79987, 12.32271
94.28198, 12.99943
94.76410, 13.56630
95.24622, 13.84921
95.72833, 14.04721
96.21045, 14.53396
96.69257, 15.31159
97.17468, 16.35803
97.65680, 17.64832
98.13892, 19.18633
98.62103, 20.97869
99.10315, 23.02944
99.58527, 25.32674
100.0674, 27.68705
100.5495, 30.07461
101.0316, 32.55959
101.5137, 35.09705
101.9958, 37.58264
102.4780, 40.55788
102.9601, 44.31806
103.4422, 49.03141
103.9243, 53.33978
104.4064, 56.95984
104.8885, 60.37793
105.3707, 64.65726
105.8528, 70.45681
106.3349, 76.14025
106.8170, 80.99516
107.2991, 84.32568
107.7813, 88.15805
108.2634, 92.84543
108.7455, 98.10693
109.2276, 102.8283
109.7097, 106.8222
110.1918, 110.4495
110.6740, 113.8648
111.1561, 115.7979
111.6382, 118.9498
112.1203, 123.8684
112.6024, 130.3749
113.0845, 137.1161
113.5667, 143.6403
114.0488, 150.4315
114.5309, 157.8957
115.0130, 166.2518
115.4951, 175.0989
115.9772, 184.6201
116.4594, 194.8656
116.9415, 204.8230
117.4236, 213.5408
117.9057, 221.9758
118.3878, 231.1120
118.8699, 242.4518
119.3521, 253.8428
119.8342, 264.2137
120.3163, 273.4587
120.7984, 282.0792
121.2805, 290.1842
121.7626, 297.8836
122.2448, 305.3647
122.7269, 313.9386
123.2090, 321.7454
123.6911, 326.5230
124.1732, 327.5416
124.6553, 327.5900
125.1375, 329.2253
125.6196, 332.0253
126.1017, 334.6543
126.5838, 336.1684
127.0659, 337.0050
127.5480, 337.8522
128.0302, 338.6661
128.5123, 339.8343
128.9944, 341.7842
129.4765, 344.5220
129.9586, 348.1028
130.4407, 352.8492
130.9229, 358.5565
131.4050, 364.5567
131.8871, 370.9052
132.3692, 377.1523
132.8513, 381.8135
133.3334, 384.1626
133.8156, 384.6374
134.2977, 385.5739
134.7798, 388.2185
135.2619, 389.5587
135.7440, 388.6283
136.2261, 385.9455
136.7083, 383.7730
137.1904, 382.2034
137.6725, 380.8424
138.1546, 379.3951
138.6367, 377.9425
139.1188, 375.9621
139.6010, 373.0435
140.0831, 369.1935
140.5652, 366.2571
141.0473, 364.3550
141.5294, 363.1035
142.0115, 362.1335
142.4937, 361.6516
142.9758, 360.9211
143.4579, 359.6649
143.9400, 357.7677
144.4221, 355.8697
144.9042, 353.8576
145.3864, 351.8809
145.8685, 350.2427
146.3506, 348.9610
146.8327, 347.9452
147.3148, 347.1704
147.7969, 346.7161
148.2791, 346.3452
148.7612, 346.4069
149.2433, 346.5320
149.7254, 345.8325
150.2075, 343.1647
150.6896, 340.6861
151.1718, 339.2336
151.6539, 339.8577
152.1360, 339.9672
152.6181, 339.0777
153.1002, 337.5761
153.5823, 336.6198
154.0645, 337.1794
154.5466, 337.6410
155.0287, 337.2455
155.5108, 335.0036
155.9929, 332.9821
156.4750, 331.9318
156.9572, 331.4928
157.4393, 330.2208
157.9214, 326.1859
158.4035, 322.1836
158.8856, 319.9411
159.3677, 321.7233
159.8499, 323.4016
160.3320, 323.8920
160.8141, 323.3110
161.2962, 322.2882
161.7783, 320.2349
162.2604, 318.2213
162.7426, 317.1298
163.2247, 318.4151
163.7068, 319.6300
164.1889, 319.3846
164.6710, 317.7926
165.1531, 316.5570
165.6353, 316.9307
166.1174, 317.9531
166.5995, 318.5900
167.0816, 318.1806
167.5637, 317.4799
168.0458, 316.8521
168.5280, 316.3106
169.0101, 315.9956
169.4922, 316.4083
169.9743, 317.0272
170.4564, 317.1201
170.9385, 315.4920
171.4207, 313.7432
171.9028, 313.5490
172.3849, 315.0381
172.8670, 316.5989
173.3491, 316.8156
173.8312, 316.2330
174.3134, 315.8924
174.7955, 316.6426
175.2776, 317.7281
175.7597, 318.1679
176.2418, 317.8551
176.7239, 317.4388
177.2061, 317.3709
177.6882, 317.6571
178.1703, 318.3057
178.6524, 319.7044
179.1345, 321.3812
179.6166, 322.4293
180.0988, 322.7219
180.5809, 322.8515
181.0630, 323.6254
181.5451, 324.8739
182.0272, 325.8834
182.5093, 325.9357
182.9915, 325.4994
183.4736, 325.7331
183.9557, 326.7744
184.4378, 328.2657
184.9199, 330.0390
185.4020, 331.9821
185.8842, 333.5361
186.3663, 334.1640
186.8484, 334.1007
187.3305, 334.0707
187.8126, 334.0322
188.2947, 334.2931
188.7769, 335.5182
189.2590, 337.6680
189.7411, 339.8971
190.2232, 341.8027
190.7053, 343.4012
191.1874, 344.8301
191.6696, 346.1018
192.1517, 347.2416
192.6338, 348.1428
193.1159, 348.7842
193.5980, 349.7576
194.0801, 351.7139
194.5623, 354.5419
195.0444, 356.7756
195.5265, 358.2337
196.0086, 359.0799
196.4907, 359.2395
196.9728, 358.5323
197.4550, 358.6153
197.9371, 361.4634
198.4192, 367.1613
198.9013, 369.9688
199.3834, 368.6409
199.8655, 364.9321
200.3477, 363.1329
200.8298, 363.5721
201.3119, 364.4754
201.7940, 364.7885
202.2761, 364.4546
202.7582, 364.1708
203.2404, 363.9368
203.7225, 363.8394
204.2046, 364.2234
204.6867, 365.2421
205.1688, 366.2304
205.6509, 366.6354
206.1331, 366.3024
206.6152, 366.5050
207.0973, 367.6107
207.5794, 369.1885
208.0615, 369.7672
208.5436, 368.9904
209.0258, 368.1529
209.5079, 368.1917
209.9900, 369.3913
210.4721, 370.1290
210.9542, 370.2757
211.4363, 369.8694
211.9185, 368.8549
212.4006, 366.8113
212.8827, 365.0530
213.3648, 364.6927
213.8469, 366.3926
214.3290, 366.9265
214.8112, 365.5595
215.2933, 362.9598
215.7754, 361.6117
216.2575, 362.1185
216.7396, 362.7301
217.2217, 362.3214
217.7038, 360.4648
218.1860, 358.8917
218.6681, 357.7142
219.1502, 356.9094
219.6323, 356.4875
220.1144, 356.6839
220.5965, 356.8731
221.0787, 356.5615
221.5608, 355.2436
222.0429, 354.8704
222.5250, 355.9194
223.0071, 357.9655
223.4892, 359.4430
223.9714, 360.3651
224.4535, 360.7344
224.9356, 360.3035
225.4177, 358.1107
225.8998, 357.5535
226.3819, 359.3975
226.8641, 362.9196
227.3462, 365.5390
227.8283, 366.8307
228.3104, 367.8614
228.7925, 369.1255
229.2746, 370.6456
229.7568, 372.3511
230.2389, 374.0737
230.7210, 376.0139
231.2031, 378.8972
231.6852, 383.4792
232.1673, 387.8745
232.6495, 391.0136
233.1316, 392.0430
233.6137, 393.6814
234.0958, 395.8150
234.5779, 398.6096
235.0600, 402.7136
235.5422, 409.3925
236.0243, 415.6195
236.5064, 419.9010
236.9885, 420.9952
237.4706, 422.9032
237.9527, 425.8268
238.4349, 429.4922
238.9170, 433.1657
239.3991, 436.5946
239.8812, 440.4099
240.3633, 445.0467
240.8454, 451.2603
241.3276, 456.3990
241.8097, 460.1688
242.2918, 462.9055
242.7739, 465.1601
243.2560, 466.2995
243.7381, 467.9448
244.2203, 470.9218
244.7024, 476.1022
245.1845, 480.1525
245.6666, 482.8527
246.1487, 484.5230
246.6308, 485.8032
247.1130, 486.6735
247.5951, 487.1873
248.0772, 487.3784
248.5593, 487.2980
249.0414, 486.7091
249.5235, 485.5438
250.0057, 483.9086
250.4878, 481.8525
250.9699, 478.9287
251.4520, 476.3859
251.9341, 474.9102
252.4162, 474.9774
252.8984, 473.5946
253.3805, 469.9871
253.8626, 465.4982
254.3447, 462.2163
254.8268, 460.5121
255.3089, 459.1705
255.7911, 458.0167
256.2732, 457.1369
256.7553, 455.6493
257.2374, 453.3263
257.7195, 450.6116
258.2017, 447.9435
258.6838, 445.0391
259.1659, 442.8129
259.6480, 441.7602
260.1301, 441.9688
260.6122, 441.2000
261.0944, 439.0870
261.5765, 436.4428
262.0586, 434.0826
262.5407, 432.0493
263.0228, 430.2036
263.5049, 428.5491
263.9871, 427.0719
264.4692, 425.7506
264.9513, 424.6118
265.4334, 423.5720
265.9155, 422.5278
266.3976, 421.4752
266.8798, 420.5047
267.3619, 419.6968
267.8440, 419.0038
268.3261, 418.0105
268.8082, 416.4973
269.2903, 415.1447
269.7725, 414.6656
270.2546, 415.3341
270.7367, 415.6008
271.2188, 415.1121
271.7009, 414.0814
272.1830, 413.3939
272.6652, 413.0984
273.1473, 413.0223
273.6294, 413.1170
274.1115, 413.4328
274.5936, 413.6134
275.0757, 413.6625
275.5579, 413.5264
276.0400, 413.0163
276.5221, 412.0803
277.0042, 410.9669
277.4863, 409.9158
277.9684, 408.9688
278.4506, 407.4027
278.9327, 404.9899
279.4148, 402.1629
279.8969, 399.9047
280.3790, 398.3068
280.8611, 396.6563
281.3433, 394.5819
281.8254, 392.0782
282.3075, 389.5293
282.7896, 387.0016
283.2717, 384.2885
283.7538, 380.8870
284.2360, 376.7657
284.7181, 372.8075
285.2002, 369.4390
285.6823, 366.6071
286.1644, 363.8379
286.6465, 361.1571
287.1287, 358.5337
287.6108, 355.9799
288.0929, 353.4866
288.5750, 350.9169
289.0571, 348.0351
289.5392, 345.0178
290.0214, 342.7073
290.5035, 341.1635
290.9856, 339.8937
291.4677, 338.5882
291.9498, 337.1894
292.4319, 335.3401
292.9141, 332.6011
293.3962, 329.5104
293.8783, 327.4652
294.3604, 326.4913
294.8425, 325.6764
295.3246, 323.9326
295.8068, 321.6405
296.2889, 320.1690
296.7710, 320.1115
297.2531, 320.6911
297.7352, 320.6315
298.2173, 319.9921
298.6995, 319.2640
299.1816, 318.9295
299.6637, 318.7520
300.1458, 318.1219
300.6279, 316.6750
301.1100, 315.2795
301.5922, 315.3607
302.0743, 316.5660
302.5564, 317.4782
303.0385, 316.6226
303.5206, 315.1606
304.0027, 315.0184
304.4849, 316.7604
304.9670, 318.4977
305.4491, 318.0244
305.9312, 316.1062
306.4133, 314.5795
306.8954, 314.8372
307.3776, 315.6841
307.8597, 315.7726
308.3418, 314.9411
308.8239, 314.3055
309.3060, 314.9019
309.7881, 316.2145
310.2703, 317.4051
310.7524, 318.1390
311.2345, 318.6439
311.7166, 318.9454
312.1987, 319.0622
312.6808, 319.3575
313.1630, 320.1475
313.6451, 321.1814
314.1272, 322.1957
314.6093, 323.0124
315.0914, 323.8541
315.5735, 324.9997
316.0557, 326.3351
316.5378, 327.2641
317.0199, 326.8755
317.5020, 326.3634
317.9841, 326.6603
318.4662, 328.6380
318.9484, 330.4468
319.4305, 331.2965
319.9126, 331.5005
320.3947, 331.8804
320.8768, 332.7534
321.3589, 333.8044
321.8411, 334.9542
322.3232, 336.3764
322.8053, 337.4100
323.2874, 337.6519
323.7695, 337.4775
324.2516, 337.4814
324.7338, 337.6539
325.2159, 338.1077
325.6980, 339.0350
326.1801, 340.6572
326.6622, 341.7802
327.1443, 342.3913
327.6265, 342.4503
328.1086, 341.8981
328.5907, 339.1837
329.0728, 337.6266
329.5549, 338.3250
330.0370, 341.3166
330.5192, 343.0554
331.0013, 342.9646
331.4834, 342.1310
331.9655, 341.2432
332.4476, 340.0435
332.9297, 339.2504
333.4119, 339.1318
333.8940, 339.4889
334.3761, 339.4269
334.8582, 338.7360
335.3403, 337.9566
335.8224, 337.3588
336.3046, 336.9916
336.7867, 336.6559
337.2688, 336.3874
337.7509, 336.1116
338.2330, 335.6358
338.7151, 334.8846
339.1973, 334.1847
339.6794, 333.7184
340.1615, 333.5135
340.6436, 333.0136
341.1257, 332.1140
341.6078, 331.1757
342.0899, 330.7444
342.5721, 330.8774
343.0542, 330.8790
343.5363, 330.3933
344.0184, 329.6328
344.5005, 329.7004
344.9826, 330.7147
345.4648, 331.7001
345.9469, 331.5543
346.4290, 330.4409
346.9111, 329.6112
347.3932, 329.1752
347.8753, 329.2973
348.3575, 330.9053
348.8396, 333.8122
349.3217, 335.9997
349.8038, 335.3129
350.2859, 332.9018
350.7680, 331.6183
351.2502, 331.9131
351.7323, 332.8934
352.2144, 333.8594
352.6965, 334.7340
353.1786, 335.2544
353.6607, 334.6094
354.1429, 333.8617
354.6250, 334.6454
355.1071, 337.0793
355.5892, 339.4732
356.0713, 340.6682
356.5534, 340.9610
357.0356, 340.7743
357.5177, 339.6129
357.9998, 338.5766
358.4819, 338.6071
358.9640, 339.5521
359.4461, 340.5714
359.9283, 341.0748
360.4104, 341.5404
360.8925, 342.4604
361.3746, 344.5063
361.8567, 346.0342
362.3388, 345.7161
362.8210, 344.3669
363.3031, 343.8325
363.7852, 345.5858
364.2673, 347.5626
364.7494, 348.8777
365.2315, 349.4221
365.7137, 349.3562
366.1958, 347.9146
366.6779, 346.1561
367.1600, 345.3129
367.6421, 346.5866
368.1242, 347.6870
368.6064, 348.0673
369.0885, 347.6812
369.5706, 347.4250
370.0527, 347.3970
370.5348, 347.4254
371.0169, 347.4077
371.4991, 347.4000
371.9812, 347.2365
372.4633, 346.7013
372.9454, 346.0117
373.4275, 345.9948
373.9096, 347.0138
374.3918, 348.0814
374.8739, 348.8319
375.3560, 349.3694
375.8381, 349.0468
376.3202, 347.4775
376.8023, 345.5529
377.2845, 344.5972
377.7666, 344.6790
378.2487, 345.4435
378.7308, 347.1266
379.2129, 349.4835
379.6950, 350.5727
380.1772, 350.2444
380.6593, 349.4574
381.1414, 349.0337
381.6235, 348.9440
382.1056, 348.8906
382.5877, 348.8271
383.0699, 348.7528
383.5520, 348.5841
384.0341, 348.3461
384.5162, 348.2995
384.9983, 348.8232
385.4804, 349.6302
385.9626, 350.0045
386.4447, 349.7895
386.9268, 349.6035
387.4089, 350.1541
387.8910, 351.2183
388.3731, 352.2847
388.8553, 353.2398
389.3374, 354.0202
389.8195, 354.3836
390.3016, 354.3636
390.7837, 354.5714
391.2658, 355.6579
391.7480, 357.0536
392.2301, 358.1193
392.7122, 358.1485
393.1943, 358.5560
393.6764, 360.4830
394.1585, 363.3908
394.6407, 365.7043
395.1228, 366.6494
395.6049, 367.0794
396.0870, 367.1913
396.5691, 366.6103
397.0512, 367.0410
397.5334, 369.5729
398.0155, 373.0540
398.4976, 376.0053
398.9797, 377.5888
399.4618, 379.3902
399.9439, 381.7758
400.4261, 384.7378
400.9082, 387.6206
401.3903, 390.3635
401.8724, 393.0731
402.3545, 395.8599
402.8366, 398.8872
403.3188, 401.5140
403.8009, 403.4185
404.2830, 405.0247
404.7651, 407.5013
405.2472, 411.0871
405.7293, 414.7974
406.2115, 418.2729
406.6936, 421.4825
407.1757, 424.4999
407.6578, 427.2146
408.1399, 430.0674
408.6220, 433.8806
409.1042, 438.6237
409.5863, 442.7595
410.0684, 445.5957
410.5505, 447.7856
411.0326, 451.0255
411.5147, 455.3135
411.9969, 460.0324
412.4790, 464.9848
412.9611, 470.0854
413.4432, 474.9971
413.9253, 479.6741
414.4074, 484.3798
414.8896, 489.5143
415.3717, 494.9214
415.8538, 500.2018
416.3359, 505.1929
416.8180, 509.9132
417.3001, 514.2390
417.7823, 518.2297
418.2644, 522.0480
418.7465, 525.7458
419.2286, 529.4317
419.7107, 533.1572
420.1928, 536.9143
420.6750, 540.7977
421.1571, 545.0637
421.6392, 549.5178
422.1213, 553.5494
422.6034, 557.1937
423.0855, 560.2059
423.5677, 562.2734
424.0498, 562.8964
424.5319, 564.2667
425.0140, 567.1205
425.4961, 570.5590
425.9782, 573.7299
426.4604, 577.0917
426.9425, 579.4998
427.4246, 580.3781
427.9067, 580.0320
428.3888, 580.5782
428.8709, 582.4156
429.3531, 584.4377
429.8352, 586.1243
430.3173, 587.4645
430.7994, 588.2405
431.2815, 588.1526
431.7636, 587.9515
432.2458, 589.0953
432.7279, 591.6762
433.2100, 593.8984
433.6921, 594.8698
434.1742, 595.0276
434.6563, 595.9748
435.1385, 597.7328
435.6206, 599.8300
436.1027, 602.1152
436.5848, 604.4372
437.0669, 606.3729
437.5490, 607.8245
438.0312, 608.9410
438.5133, 609.6139
438.9954, 610.0724
439.4775, 610.9408
439.9596, 613.2790
440.4417, 615.7179
440.9239, 616.6902
441.4060, 616.1109
441.8881, 615.9455
442.3702, 617.7244
442.8523, 620.2744
443.3344, 622.4870
443.8166, 624.0823
444.2987, 625.2711
444.7808, 625.8881
445.2629, 626.1080
445.7450, 626.4548
446.2271, 627.3604
446.7093, 628.1039
447.1914, 628.3528
447.6735, 627.9062
448.1556, 627.5577
448.6377, 627.2438
449.1198, 627.0696
449.6020, 627.1710
450.0841, 627.6946
450.5662, 628.1674
451.0483, 628.4047
451.5304, 628.5477
452.0125, 629.2996
452.4947, 630.8610
452.9768, 632.4314
453.4589, 633.5248
453.9410, 634.1320
454.4231, 634.8962
454.9052, 635.8898
455.3874, 636.8666
455.8695, 637.5621
456.3516, 637.9797
456.8337, 638.0908
457.3158, 637.5255
457.7979, 636.9536
458.2801, 637.9700
458.7622, 640.3378
459.2443, 642.4100
459.7264, 642.6738
460.2085, 642.1166
460.6906, 642.0154
461.1728, 642.6081
461.6549, 643.4431
462.1370, 644.2547
462.6191, 645.0892
463.1012, 645.9941
463.5833, 647.0255
464.0655, 648.0941
464.5476, 649.6576
465.0297, 651.4977
465.5118, 651.9135
465.9939, 649.3113
466.4760, 645.9590
466.9582, 643.0760
467.4403, 640.8858
467.9224, 638.9177
468.4045, 638.2989
468.8866, 637.4252
469.3687, 633.8224
469.8509, 626.3271
470.3330, 618.2811
470.8151, 610.1473
471.2972, 602.0089
471.7793, 595.0126
472.2614, 589.6584
472.7436, 583.9102
473.2257, 575.5782
473.7078, 564.5537
474.1899, 556.2830
474.6720, 551.6869
475.1541, 548.3578
475.6363, 542.5744
476.1184, 534.7050
476.6005, 527.1327
477.0826, 521.0734
477.5647, 515.7341
478.0468, 509.6082
478.5290, 502.7794
479.0111, 496.0097
479.4932, 489.8835
479.9753, 484.0986
480.4574, 478.1962
480.9395, 471.9085
481.4217, 466.0839
481.9038, 461.6751
482.3859, 458.0537
482.8680, 454.3574
483.3501, 450.0189
483.8322, 445.8266
484.3144, 442.5191
484.7965, 439.9804
485.2786, 436.1440
485.7607, 428.9067
486.2428, 421.7570
486.7249, 416.4941
487.2071, 414.3034
487.6892, 411.5500
488.1713, 407.8190
488.6534, 403.8268
489.1355, 400.5863
489.6176, 398.2855
490.0998, 396.2007
490.5819, 394.2578
491.0640, 392.3591
491.5461, 389.9848
492.0282, 387.0802
492.5103, 384.0649
492.9925, 381.0803
493.4746, 378.1772
493.9567, 375.8847
494.4388, 374.2451
494.9209, 372.9773
495.4030, 371.9969
495.8852, 371.1252
496.3673, 369.8663
496.8494, 367.6769
497.3315, 365.3629
497.8136, 363.6129
498.2957, 362.3694
498.7779, 361.4849
499.2600, 361.3779
499.7421, 361.2408
500.2242, 360.4326
500.7063, 358.7151
501.1884, 357.0347
501.6706, 355.5552
502.1527, 354.3225
502.6348, 353.4114
503.1169, 353.2849
503.5990, 352.9497
504.0811, 352.1922
504.5633, 351.1477
505.0454, 350.3082
505.5275, 349.8293
506.0096, 349.3052
506.4917, 348.4572
506.9738, 347.1978
507.4560, 346.7374
507.9381, 347.3479
508.4202, 348.0192
508.9023, 347.5906
509.3844, 346.1271
509.8665, 344.7446
510.3487, 343.6232
510.8308, 342.7253
511.3129, 341.9291
511.7950, 341.2787
512.2772, 340.9745
512.7593, 341.5797
513.2414, 342.3478
513.7235, 342.3009
514.2056, 341.4468
514.6877, 340.4475
515.1699, 339.4437
515.6520, 338.6317
516.1341, 338.2386
516.6162, 338.5581
517.0983, 338.8089
517.5804, 338.6577
518.0626, 338.2853
518.5447, 337.9900
519.0268, 337.9427
519.5089, 337.8378
519.9910, 337.5874
520.4731, 337.2006
520.9553, 336.8498
521.4374, 336.6017
521.9195, 336.3007
522.4016, 335.8749
522.8837, 335.3396
523.3658, 334.5383
523.8480, 333.2872
524.3301, 332.1691
524.8122, 332.2336
525.2943, 333.3917
525.7764, 334.1267
526.2585, 333.8764
526.7407, 333.1553
527.2228, 332.8109
527.7049, 332.8203
528.1870, 333.0458
528.6691, 333.8342
529.1512, 334.5708
529.6334, 334.2558
530.1155, 332.7725
530.5976, 331.6608
531.0797, 332.3952
531.5618, 333.6768
532.0439, 334.1689
532.5261, 332.6374
533.0082, 331.5869
533.4903, 332.1343
533.9724, 333.5429
534.4545, 334.2459
534.9366, 333.4773
535.4188, 332.7128
535.9009, 332.3590
536.3830, 332.4020
536.8651, 332.0017
537.3472, 330.8033
537.8293, 329.8737
538.3115, 330.1966
538.7936, 331.9200
539.2757, 332.7563
539.7578, 332.4544
540.2399, 331.6519
540.7220, 331.1531
541.2042, 330.9074
541.6863, 330.5592
542.1684, 329.8421
542.6505, 329.1466
543.1326, 329.0795
543.6147, 329.5319
544.0969, 330.1005
544.5790, 330.6089
545.0611, 331.0797
545.5432, 331.5910
546.0253, 332.1582
546.5074, 332.4850
546.9896, 332.0902
547.4717, 331.5995
547.9538, 331.5266
548.4359, 332.4239
548.9180, 333.1044
549.4001, 333.0963
549.8823, 332.9380
550.3644, 333.6717
550.8465, 336.2290
551.3286, 337.9092
551.8107, 337.7872
552.2928, 336.1512
552.7750, 335.1567
553.2571, 334.8975
553.7392, 334.7914
554.2213, 334.2095
554.7034, 333.3623
555.1855, 333.7095
555.6677, 335.4647
556.1498, 337.3195
556.6319, 337.7275
557.1140, 337.2171
557.5961, 336.8513
558.0782, 336.9210
558.5604, 337.2472
559.0425, 337.8111
559.5246, 338.5186
560.0067, 339.1591
560.4888, 339.7855
560.9709, 340.1929
561.4531, 340.0811
561.9352, 339.4521
562.4173, 339.2864
562.8994, 340.0029
563.3815, 340.9923
563.8636, 342.0338
564.3458, 343.3506
564.8279, 344.0122
565.3100, 343.6356
565.7921, 343.0997
566.2742, 343.7359
566.7563, 345.7193
567.2385, 347.1393
567.7206, 347.3973
568.2027, 347.0955
568.6848, 347.5865
569.1669, 348.7755
569.6490, 349.9082
570.1312, 350.2740
570.6133, 350.4920
571.0954, 351.6746
571.5775, 353.7825
572.0596, 355.6481
572.5417, 356.3573
573.0239, 356.6115
573.5060, 356.9344
573.9881, 357.2962
574.4702, 358.0837
574.9523, 359.8877
575.4344, 362.0232
575.9166, 363.5980
576.3987, 364.0113
576.8808, 364.6161
577.3629, 365.5712
577.8450, 366.8228
578.3271, 368.2387
578.8093, 369.8766
579.2914, 371.4793
579.7735, 372.8605
580.2556, 374.0589
580.7377, 375.6796
581.2198, 377.7636
581.7020, 379.6796
582.1841, 380.6042
582.6662, 380.9809
583.1483, 382.0086
583.6304, 383.9382
584.1125, 385.9121
584.5947, 387.2894
585.0768, 388.1965
585.5589, 388.7971
586.0410, 388.2208
586.5231, 388.4059
587.0052, 390.9150
587.4873, 394.8703
587.9694, 397.8568
588.4515, 398.8834
588.9337, 399.4557
589.4158, 399.7960
589.8979, 399.9010
590.3800, 400.7110
590.8621, 402.5770
591.3442, 404.5247
591.8264, 405.7110
592.3085, 406.0272
592.7906, 407.4066
593.2727, 410.0973
593.7548, 413.1538
594.2369, 415.4365
594.7191, 417.1552
595.2012, 419.1101
595.6833, 421.6114
596.1654, 424.2222
596.6475, 426.4224
597.1296, 428.3506
597.6118, 430.3801
598.0939, 432.8119
598.5760, 435.2799
599.0581, 437.4346
599.5402, 439.3288
600.0223, 441.7336
600.5045, 445.4247
600.9866, 449.1551
601.4687, 452.4857
601.9508, 455.4930
602.4329, 457.6711
602.9150, 458.4331
603.3972, 459.1615
603.8793, 461.2274
604.3614, 464.7826
604.8435, 468.2231
605.3256, 471.5019
605.8077, 474.1911
606.2899, 475.3121
606.7720, 475.1092
607.2541, 474.6913
607.7362, 474.3906
608.2183, 474.1500
608.7004, 473.8514
609.1826, 473.5460
609.6647, 473.4245
610.1468, 474.1168
610.6289, 474.5938
611.1110, 474.4357
611.5931, 473.6320
612.0753, 471.6573
612.5574, 466.9399
613.0395, 462.1537
613.5216, 458.9479
614.0037, 458.3078
614.4858, 456.5782
614.9680, 453.3850
615.4501, 449.6022
615.9322, 446.2263
616.4143, 443.2827
616.8964, 440.4942
617.3785, 437.9992
617.8607, 435.3184
618.3428, 431.3552
618.8249, 426.3902
619.3070, 421.5993
619.7891, 417.4865
620.2712, 413.8465
620.7534, 410.7230
621.2355, 407.9671
621.7176, 405.0030
622.1997, 401.2647
622.6818, 397.4793
623.1639, 393.9553
623.6461, 390.7010
624.1282, 387.8979
624.6103, 385.8726
625.0924, 384.0258
625.5745, 381.9648
626.0566, 379.4813
626.5388, 377.2222
627.0209, 375.0468
627.5030, 373.3790
627.9851, 373.3209
628.4672, 374.7460
628.9493, 375.0226
629.4315, 373.2150
629.9136, 370.5374
630.3957, 368.8425
630.8778, 367.8555
631.3599, 366.7795
631.8420, 364.5928
632.3242, 362.6898
632.8063, 362.6254
633.2884, 364.0081
633.7705, 364.6256
634.2526, 362.8712
634.7347, 360.8931
635.2169, 359.7434
635.6990, 359.6323
636.1811, 359.4203
636.6632, 359.1837
637.1453, 358.7442
637.6274, 358.0133
638.1096, 357.0025
638.5917, 355.4265
639.0738, 353.0733
639.5559, 350.6923
640.0380, 349.2338
640.5201, 348.5535
641.0023, 348.1280
641.4844, 348.0114
641.9665, 347.7011
642.4486, 346.2996
642.9307, 344.3003
643.4128, 342.7966
643.8950, 342.8789
644.3771, 342.9420
644.8592, 342.0166
645.3413, 340.3350
645.8234, 339.1505
646.3055, 339.4823
646.7877, 339.5006
647.2698, 338.4338
647.7519, 336.2112
648.2340, 334.8406
648.7161, 334.5635
649.1982, 334.4732
649.6804, 333.9035
650.1625, 332.9047
650.6446, 331.8891
651.1267, 330.8445
651.6088, 330.0605
652.0909, 330.0974
652.5731, 330.5596
653.0552, 330.7614
653.5373, 330.5330
654.0194, 330.0239
654.5015, 329.0651
654.9836, 327.9572
655.4658, 327.1342
655.9479, 326.9524
656.4300, 326.7946
656.9121, 326.4792
657.3942, 326.1039
657.8763, 325.9697
658.3585, 326.2264
658.8406, 326.3390
659.3227, 326.0025
659.8048, 325.3805
660.2869, 325.5536
660.7690, 326.5539
661.2512, 327.2881
661.7333, 326.6979
662.2154, 325.4482
662.6975, 324.7639
663.1796, 324.6842
663.6617, 324.9677
664.1439, 326.1458
664.6260, 327.1957
665.1081, 326.9609
665.5902, 324.6775
666.0723, 323.1638
666.5544, 323.8806
667.0366, 325.2386
667.5187, 325.7577
668.0008, 325.0230
668.4829, 324.2896
668.9650, 323.5090
669.4471, 322.9160
669.9293, 323.1697
670.4114, 324.2900
670.8935, 324.5289
671.3756, 323.0005
671.8577, 321.0057
672.3398, 320.8786
672.8220, 322.1580
673.3041, 323.2748
673.7862, 323.3589
674.2683, 323.0631
674.7504, 322.7398
675.2325, 322.4077
675.7147, 322.1331
676.1968, 321.9363
676.6789, 321.7927
677.1610, 321.6747
677.6431, 321.5726
678.1252, 321.6350
678.6074, 321.9265
679.0895, 322.2628
679.5716, 322.5190
680.0537, 322.6983
680.5358, 322.9597
681.0179, 323.3269
681.5001, 323.6223
681.9822, 323.6065
682.4643, 323.3989
682.9464, 323.2581
683.4285, 323.2573
683.9106, 323.2063
684.3928, 322.6996
684.8749, 322.1707
685.3570, 322.1354
685.8391, 323.5572
686.3212, 324.4558
686.8033, 324.1403
687.2855, 323.2515
687.7676, 322.8232
688.2497, 323.1382
688.7318, 323.1594
689.2139, 322.5348
689.6960, 321.6072
690.1782, 321.3278
690.6603, 321.6753
691.1424, 322.2200
691.6245, 323.0918
692.1066, 323.8385
692.5887, 323.4393
693.0709, 322.1779
693.5530, 321.2853
694.0351, 321.7509
694.5172, 322.5469
694.9993, 323.0465
695.4814, 323.1957
695.9636, 323.4176
696.4457, 323.8702
696.9278, 324.3062
697.4099, 324.5724
697.8920, 324.6074
698.3741, 324.9437
698.8563, 325.7074
699.3384, 326.3818
699.8205, 326.3365
700.3026, 325.7618
700.7847, 325.6334
701.2668, 326.1123
701.7490, 326.5895
702.2311, 326.4224
702.7132, 325.9153
703.1953, 325.4553
703.6774, 325.0325
704.1595, 324.9024
704.6417, 325.4793
705.1238, 326.2957
705.6059, 326.6813
706.0880, 326.3326
706.5701, 326.0074
707.0522, 325.7593
707.5344, 325.5812
708.0165, 325.4572
708.4986, 325.3851
708.9807, 325.4302
709.4628, 325.7589
709.9449, 326.0347
710.4271, 325.2243
710.9092, 323.7105
711.3913, 322.8850
711.8734, 324.2971
712.3555, 325.9637
712.8376, 326.3730
713.3198, 325.7523
713.8019, 325.3323
714.2840, 325.5166
714.7661, 325.9086
715.2482, 326.4974
715.7303, 327.2611
716.2125, 327.4992
716.6946, 327.0768
717.1767, 326.5038
717.6588, 325.9651
718.1409, 325.4933
718.6230, 325.5495
719.1052, 326.1524
719.5873, 326.5307
720.0694, 325.5329
720.5515, 324.2050
721.0336, 324.1259
721.5157, 325.6530
721.9979, 326.8246
722.4800, 326.3260
722.9621, 325.3535
723.4442, 324.8957
723.9263, 325.4630
724.4084, 325.6066
724.8906, 325.0823
725.3727, 324.4197
725.8548, 324.1318
726.3369, 324.2277
726.8190, 324.5560
727.3011, 325.1422
727.7833, 325.7801
728.2654, 326.3329
728.7475, 326.7129
729.2296, 326.7021
729.7117, 326.1935
730.1938, 325.3818
730.6760, 323.9776
731.1581, 322.4757
731.6402, 321.6131
732.1223, 322.3661
732.6044, 322.7762
733.0865, 322.3867
733.5687, 321.5600
734.0508, 321.0156
734.5329, 320.7576
735.0150, 320.8350
735.4971, 321.4467
735.9792, 322.1937
736.4614, 322.0143
736.9435, 321.0799
737.4256, 320.2702
737.9077, 319.8395
738.3898, 319.8706
738.8719, 320.7372
739.3541, 322.1897
739.8362, 323.3441
740.3183, 323.8820
740.8004, 324.0614
741.2825, 323.8627
741.7646, 323.3364
742.2468, 322.8301
742.7289, 322.3221
743.2110, 321.8869
743.6931, 321.5674
744.1752, 321.3511
744.6573, 321.1434
745.1395, 320.9497
745.6216, 320.8802
746.1037, 321.1964
746.5858, 321.5830
747.0679, 321.5178
747.5500, 321.0092
748.0322, 320.7746
748.5143, 321.7642
748.9964, 322.6375
749.4785, 322.4966
749.9606, 321.0648
750.4427, 319.7096
750.9249, 318.2257
751.4070, 317.1231
751.8891, 316.9032
752.3712, 317.5480
752.8533, 318.1159
753.3354, 318.6102
753.8176, 318.8027
754.2997, 318.1536
754.7818, 317.1870
755.2639, 316.7198
755.7460, 316.9230
756.2281, 317.3630
756.7103, 318.3546
757.1924, 319.1630
757.6745, 319.0579
758.1566, 317.0274
758.6387, 315.9673
759.1208, 316.2560
759.6030, 317.0424
760.0851, 317.5283
760.5672, 317.7132
761.0493, 317.5471
761.5314, 316.9373
762.0135, 316.3318
762.4957, 316.4326
762.9778, 316.8885
763.4599, 316.9626
763.9420, 316.2072
764.4241, 315.6996
764.9063, 316.4461
765.3884, 317.6093
765.8705, 318.1574
766.3526, 317.4741
766.8347, 316.8344
767.3168, 316.2146
767.7990, 315.7296
768.2811, 315.6128
768.7632, 315.8860
769.2453, 316.1094
769.7274, 316.2137
770.2095, 316.1839
770.6917, 316.0567
771.1738, 315.7740
771.6559, 315.1658
772.1380, 313.7726
772.6201, 312.6074
773.1022, 312.2572
773.5844, 312.4918
774.0665, 312.9370
774.5486, 314.1071
775.0307, 314.6138
775.5128, 313.9916
775.9949, 312.8102
776.4771, 312.4220
776.9592, 312.8595
777.4413, 313.1021
777.9234, 312.7872
778.4055, 312.2353
778.8876, 311.7815
779.3698, 311.4849
779.8519, 311.4964
780.3340, 312.2204
780.8161, 312.9189
781.2982, 313.2021
781.7803, 313.1985
782.2625, 313.2834
782.7446, 313.8063
783.2267, 313.8412
783.7088, 312.9400
784.1909, 311.5701
784.6730, 311.2241
785.1552, 311.8876
785.6373, 312.3163
786.1194, 311.7519
786.6015, 310.9888
787.0836, 311.3873
787.5657, 312.5679
788.0479, 313.4809
788.5300, 313.6825
789.0121, 313.4460
789.4942, 312.5061
789.9763, 311.1569
790.4584, 310.5531
790.9406, 311.1329
791.4227, 311.6422
791.9048, 311.7318
792.3869, 311.5151
792.8690, 311.3315
793.3511, 311.1787
793.8333, 311.0406
794.3154, 310.9476
794.7975, 310.8361
795.2796, 310.4769
795.7617, 310.0134
796.2438, 309.9131
796.7260, 310.8680
797.2081, 311.7023
797.6902, 311.9653
798.1723, 311.7363
798.6544, 311.2525
799.1365, 310.3442
799.6187, 309.6311
800.1008, 309.2664
800.5829, 309.2686
801.0650, 309.9288
801.5471, 311.1194
802.0292, 312.0417
802.5114, 312.0962
802.9935, 311.8111
803.4756, 311.4910
803.9577, 311.2075
804.4398, 311.1996
804.9219, 311.9424
805.4041, 312.5107
805.8862, 312.5583
806.3683, 312.2221
806.8504, 312.0928
807.3325, 312.2231
807.8146, 312.2930
808.2968, 312.1245
808.7789, 311.8679
809.2610, 311.8415
809.7431, 312.0246
810.2252, 312.3292
810.7073, 312.9902
811.1895, 313.5014
811.6716, 313.4488
812.1537, 312.9682
812.6358, 312.5665
813.1179, 312.3808
813.6000, 312.1924
814.0822, 311.8951
814.5643, 311.5776
815.0464, 311.6309
815.5285, 312.0626
816.0106, 312.4230
816.4927, 312.4601
816.9749, 312.3940
817.4570, 312.5101
817.9391, 312.7959
818.4212, 313.2192
818.9033, 314.0817
819.3854, 314.7388
819.8676, 314.7198
820.3497, 314.2581
820.8318, 314.1632
821.3139, 314.5470
821.7960, 315.0719
822.2781, 315.8212
822.7603, 316.4972
823.2424, 316.1881
823.7245, 315.0539
824.2066, 314.1600
824.6887, 314.1244
825.1708, 314.2665
825.6530, 313.7878
826.1351, 313.0202
826.6172, 312.7110
827.0993, 313.6518
827.5814, 314.3645
828.0635, 314.4337
828.5457, 314.1683
829.0278, 314.2249
829.5099, 314.6530
829.9920, 315.1109
830.4741, 315.5519
830.9562, 315.9165
831.4384, 316.1270
831.9205, 316.1853
832.4026, 316.0909
832.8847, 315.7354
833.3668, 315.3765
833.8489, 315.0019
834.3311, 314.7414
834.8132, 314.8381
835.2953, 315.3584
835.7774, 316.1357
836.2595, 317.3579
836.7416, 318.5499
837.2238, 318.8639
837.7059, 318.3780
838.1880, 317.7351
838.6701, 316.9728
839.1522, 316.4282
839.6343, 316.5752
840.1165, 317.1159
840.5986, 317.6342
841.0807, 318.0601
841.5628, 318.3854
842.0449, 318.5138
842.5270, 318.6060
843.0092, 318.9506
843.4913, 319.7350
843.9734, 319.5047
844.4555, 317.8687
844.9376, 316.1938
845.4197, 316.4757
845.9019, 317.8627
846.3840, 318.4769
846.8661, 317.8030
847.3482, 317.1496
847.8303, 317.1996
848.3124, 317.6418
848.7946, 318.2623
849.2767, 319.2633
849.7588, 319.7701
850.2409, 319.5629
850.7230, 319.2742
851.2051, 319.7002
851.6873, 320.6293
852.1694, 320.4488
852.6515, 319.0020
853.1336, 317.7355
853.6157, 317.9160
854.0978, 318.7914
854.5800, 319.8416
855.0621, 321.0899
855.5442, 321.6392
856.0263, 320.6477
856.5084, 319.6020
856.9905, 319.2199
857.4727, 319.5043
857.9548, 319.9110
858.4369, 320.4708
858.9190, 320.8719
859.4011, 320.7874
859.8832, 320.4663
860.3654, 320.2026
860.8475, 320.0368
861.3296, 320.1524
861.8117, 320.7084
862.2938, 321.4951
862.7759, 322.6452
863.2581, 324.0365
863.7402, 324.7242
864.2223, 324.4990
864.7044, 324.2610
865.1865, 324.4420
865.6686, 324.8250
866.1508, 324.7150
866.6329, 324.2569
867.1150, 324.0867
867.5971, 324.8908
868.0792, 325.7359
868.5613, 326.0494
869.0435, 325.9563
869.5256, 325.8460
870.0077, 325.7379
870.4898, 325.6505
870.9719, 325.5977
871.4540, 325.5579
871.9362, 325.5426
872.4183, 325.5269
872.9004, 325.2352
873.3825, 324.3694
873.8646, 323.6589
874.3467, 324.1220
874.8289, 325.1152
875.3110, 325.6581
875.7931, 325.0614
876.2752, 324.5296
876.7573, 324.0019
877.2394, 323.7307
877.7216, 324.2626
878.2037, 325.6863
878.6858, 326.1370
879.1679, 325.2533
879.6500, 324.1037
880.1321, 323.9336
880.6143, 324.2086
881.0964, 324.0973
881.5785, 323.3382
882.0606, 322.7187
882.5427, 322.4382
883.0248, 322.4771
883.5070, 322.9389
883.9891, 324.0205
884.4712, 324.2172
884.9533, 323.3810
885.4354, 322.3986
885.9175, 321.9552
886.3997, 321.8650
886.8818, 321.7502
887.3639, 321.6012
887.8460, 321.5750
888.3281, 322.0252
888.8102, 322.3762
889.2924, 322.1371
889.7745, 321.3694
890.2566, 321.1490
890.7387, 321.6673
891.2208, 322.1797
891.7029, 322.4658
892.1851, 322.4807
892.6672, 322.0211
893.1493, 321.1600
893.6314, 320.2234
894.1135, 319.1631
894.5956, 318.2806
895.0778, 317.8258
895.5599, 317.6727
896.0420, 317.5110
896.5241, 317.3163
897.0062, 317.0947
897.4883, 316.7852
897.9705, 316.5402
898.4526, 316.7942
898.9347, 317.4052
899.4168, 317.6721
899.8989, 317.3246
900.3810, 316.8932
900.8632, 316.7408
901.3453, 316.7688
901.8274, 316.8796
902.3095, 317.2761
902.7916, 317.2951
903.2737, 316.7410
903.7559, 316.0873
904.2380, 315.7664
904.7201, 315.7437
905.2022, 315.6985
905.6843, 315.6069
906.1664, 315.6557
906.6486, 316.4562
907.1307, 317.1522
907.6128, 316.6937
908.0949, 314.9012
908.5770, 313.8359
909.0591, 314.3758
909.5413, 314.8324
910.0234, 314.3861
910.5055, 313.2624
910.9876, 312.9361
911.4697, 313.3695
911.9518, 313.8224
912.4340, 313.6820
912.9161, 313.5197
913.3982, 314.1519
913.8803, 315.2406
914.3624, 315.8398
914.8445, 315.2328
915.3267, 314.6666
915.8088, 314.3008
916.2909, 314.1303
916.7730, 314.2690
917.2551, 314.7018
917.7372, 314.7653
918.2194, 314.1952
918.7015, 313.5839
919.1836, 313.6595
919.6657, 314.0665
920.1478, 314.3168
920.6299, 314.2284
921.1121, 314.1229
921.5942, 313.9255
922.0763, 313.8600
922.5584, 314.1193
923.0405, 314.7114
923.5226, 315.5402
924.0048, 316.6295
924.4869, 317.4608
924.9690, 317.5411
925.4511, 317.1827
925.9332, 316.4922
926.4153, 315.5310
926.8975, 315.1639
927.3796, 316.3973
927.8617, 317.4092
928.3438, 317.5495
928.8259, 316.9763
929.3080, 316.4105
929.7902, 315.8535
930.2723, 315.6191
930.7544, 315.9897
931.2365, 316.5883
931.7186, 317.0743
932.2007, 317.4463
932.6829, 317.6985
933.1650, 317.8795
933.6471, 317.8530
934.1292, 317.4029
934.6113, 316.9377
935.0934, 317.1575
935.5756, 318.0553
936.0577, 318.6054
936.5398, 318.6305
937.0219, 318.5102
937.5040, 318.7661
937.9861, 319.0033
938.4683, 318.5650
938.9504, 317.0686
939.4325, 316.4412
939.9146, 317.6492
940.3967, 318.9247
940.8788, 319.2039
941.3610, 318.6132
941.8431, 319.0090
942.3252, 320.3557
942.8073, 321.5517
943.2894, 321.8761
943.7715, 321.7336
944.2537, 321.1182
944.7358, 320.2932
945.2179, 320.1682
945.7000, 320.9882
946.1821, 322.6089
946.6642, 325.6133
947.1464, 328.8915
947.6285, 329.8505
948.1106, 328.7748
948.5927, 327.6064
949.0748, 326.6103
949.5569, 326.3788
950.0391, 328.0982
950.5212, 330.5512
951.0033, 332.3089
951.4854, 332.7802
951.9675, 333.3374
952.4496, 333.9677
952.9318, 334.7398
953.4139, 335.7827
953.8960, 337.0317
954.3781, 338.0195
954.8602, 338.7596
955.3423, 339.7365
955.8245, 341.1964
956.3066, 343.0724
956.7887, 345.4716
957.2708, 348.3287
957.7529, 351.0782
958.2350, 353.8371
958.7172, 356.1354
959.1993, 357.5868
959.6814, 358.8903
960.1635, 361.5866
960.6456, 365.3997
961.1277, 369.4295
961.6099, 373.3929
962.0920, 377.5229
962.5741, 381.4137
963.0562, 385.8656
963.5383, 391.7711
964.0204, 399.5993
964.5026, 407.2741
964.9847, 414.2571
965.4668, 422.6923
965.9489, 434.4474
966.4310, 449.0374
966.9131, 465.9663
967.3953, 485.0844
967.8774, 506.8363
968.3595, 529.5515
968.8416, 556.7585
969.3237, 591.6685
969.8058, 632.3963
970.2880, 670.9861
970.7701, 707.5791
971.2522, 743.4529
971.7343, 779.6598
972.2164, 814.9885
972.6985, 846.9962
973.1807, 877.6666
973.6628, 910.3909
974.1449, 946.6835
974.6270, 985.1680
975.1091, 1023.384
975.5912, 1066.125
976.0734, 1117.432
976.5555, 1177.023
977.0376, 1245.313
977.5197, 1321.245
978.0018, 1410.928
978.4839, 1520.924
978.9661, 1647.085
979.4482, 1789.717
979.9303, 1947.712
980.4124, 2105.134
980.8945, 2270.253
981.3766, 2423.410
981.8588, 2570.177
982.3409, 2694.559
982.8230, 2761.656
983.3051, 2768.254
983.7872, 2694.194
984.2693, 2515.458
984.7515, 2286.787
985.2336, 2009.178
985.7157, 1720.609
986.1978, 1471.504
986.6799, 1264.573
987.1620, 1095.679
987.6442, 968.4457
988.1263, 868.7666
988.6084, 789.8849
989.0905, 728.1437
989.5726, 677.9711
990.0547, 638.4824
990.5369, 607.2238
991.0190, 586.0524
991.5011, 569.7539
991.9832, 555.9152
992.4653, 544.8661
992.9474, 538.4042
993.4296, 536.7869
993.9117, 537.9354
994.3938, 541.6079
994.8759, 546.9676
995.3580, 553.1513
995.8401, 560.1418
996.3223, 568.1556
996.8044, 577.5837
997.2865, 587.3134
997.7686, 596.9395
998.2507, 607.1526
998.7328, 618.4207
999.2150, 630.6619
999.6971, 644.1661
1000.179, 658.7350
1000.661, 674.7524
1001.143, 691.4728
1001.626, 710.5360
1002.108, 733.4152
1002.590, 759.8886
1003.072, 789.8098
1003.554, 823.2076
1004.036, 858.2164
1004.518, 894.3806
1005.000, 931.4701
1005.482, 970.9177
1005.965, 1010.408
1006.447, 1043.718
1006.929, 1070.545
1007.411, 1086.435
1007.893, 1092.279
1008.375, 1083.079
1008.857, 1055.768
1009.339, 1009.385
1009.822, 954.2379
1010.304, 889.8127
1010.786, 824.3555
1011.268, 761.6005
1011.750, 703.5658
1012.232, 652.4756
1012.714, 608.1076
1013.196, 569.1009
1013.678, 535.5515
1014.161, 507.2443
1014.643, 485.4167
1015.125, 467.7640
1015.607, 451.2574
1016.089, 436.1127
1016.571, 423.3285
1017.053, 413.1851
1017.535, 404.8163
1018.018, 398.5536
1018.500, 393.0511
1018.982, 387.1743
1019.464, 380.8358
1019.946, 374.7784
1020.428, 368.8072
1020.910, 363.9031
1021.392, 360.8416
1021.874, 358.7003
1022.357, 355.6034
1022.839, 352.0373
1023.321, 349.1896
1023.803, 348.1903
1024.285, 346.9403
1024.767, 344.4825
1025.249, 341.9239
1025.731, 340.4694
1026.214, 340.1262
1026.696, 339.2946
1027.178, 337.8882
1027.660, 336.3914
1028.142, 334.8756
1028.624, 333.6683
1029.106, 333.3861
1029.588, 333.8488
1030.070, 333.4337
1030.553, 331.4536
1031.035, 330.0815
1031.517, 330.0381
1031.999, 330.5264
1032.481, 329.9006
1032.963, 328.6641
1033.445, 328.1966
1033.927, 329.0718
1034.410, 329.8178
1034.892, 329.6242
1035.374, 329.1822
1035.856, 328.9850
1036.338, 329.0396
1036.820, 328.9489
1037.302, 328.7171
1037.784, 328.2531
1038.266, 326.9646
1038.749, 325.8705
1039.231, 326.4456
1039.713, 327.9961
1040.195, 328.8135
1040.677, 327.9551
1041.159, 327.4980
1041.641, 327.7002
1042.123, 328.1745
1042.605, 328.4677
1043.088, 328.6481
1043.570, 328.7999
1044.052, 328.9336
1044.534, 329.4700
1045.016, 331.5024
1045.498, 333.0950
1045.980, 332.8648
1046.462, 331.3603
1046.945, 331.2045
1047.427, 332.4474
1047.909, 333.6085
1048.391, 334.1447
1048.873, 334.5251
1049.355, 335.4405
1049.837, 336.4330
1050.319, 336.8040
1050.802, 335.7612
1051.284, 335.8062
1051.766, 337.4457
1052.248, 339.0811
1052.730, 339.1380
1053.212, 338.3478
1053.694, 339.2751
1054.176, 341.5687
1054.658, 343.5798
1055.141, 344.6063
1055.623, 345.0573
1056.105, 344.7366
1056.587, 344.1352
1057.069, 343.9987
1057.551, 344.3423
1058.033, 344.4922
1058.515, 344.3208
1058.997, 344.3633
1059.480, 345.5733
1059.962, 346.8900
1060.444, 347.2791
1060.926, 346.6250
1061.408, 345.8457
1061.890, 344.8976
1062.372, 344.0401
1062.854, 343.3257
1063.337, 342.8195
1063.819, 342.7294
1064.301, 342.9418
1064.783, 343.2591
1065.265, 343.8136
1065.747, 344.0001
1066.229, 343.5429
1066.711, 342.7266
1067.193, 341.4522
1067.676, 339.8006
1068.158, 339.5007
1068.640, 340.4553
1069.122, 341.2401
1069.604, 340.8756
1070.086, 340.1599
1070.568, 339.4616
1071.050, 338.8354
1071.532, 338.4037
1072.015, 338.2578
1072.497, 337.8962
1072.979, 337.1718
1073.461, 336.6497
1073.943, 337.1944
1074.425, 338.1755
1074.907, 338.5515
1075.389, 338.2837
1075.872, 338.6223
1076.354, 340.8707
1076.836, 342.2468
1077.318, 341.5784
1077.800, 339.9994
1078.282, 340.3075
1078.764, 341.9612
1079.246, 342.8980
1079.729, 342.3927
1080.211, 341.8167
1080.693, 341.6663
1081.175, 341.9699
1081.657, 342.7803
1082.139, 344.0956
1082.621, 345.2738
1083.103, 346.3203
1083.585, 347.4980
1084.068, 349.1410
1084.550, 350.7863
1085.032, 351.8763
1085.514, 352.6734
1085.996, 353.5988
1086.478, 354.5512
1086.960, 356.0748
1087.442, 358.3857
1087.924, 360.6438
1088.406, 361.9070
1088.889, 362.6367
1089.371, 363.7966
1089.853, 365.3261
1090.335, 366.5407
1090.817, 366.8407
1091.299, 367.2094
1091.781, 367.7126
1092.263, 368.5840
1092.746, 370.6617
1093.228, 373.5714
1093.710, 375.4064
1094.192, 375.7791
1094.674, 375.6586
1095.156, 375.3841
1095.638, 375.0736
1096.120, 374.8522
1096.603, 374.6810
1097.085, 374.0864
1097.567, 373.0251
1098.049, 372.6774
1098.531, 373.9150
1099.013, 375.0976
1099.495, 374.1616
1099.977, 372.3072
1100.459, 371.0751
1100.942, 370.9107
1101.424, 370.7769
1101.906, 370.7162
1102.388, 370.5544
1102.870, 370.1734
1103.352, 369.6173
1103.834, 368.9513
1104.316, 368.1787
1104.798, 367.3250
1105.281, 366.1052
1105.763, 365.1964
1106.245, 364.5489
1106.727, 364.4140
1107.209, 365.3940
1107.691, 367.1606
1108.173, 368.2083
1108.655, 368.5033
1109.138, 368.7695
1109.620, 369.4653
1110.102, 370.1728
1110.584, 370.3098
1111.066, 370.4951
1111.548, 372.3853
1112.030, 375.9516
1112.512, 378.8882
1112.995, 380.7564
1113.477, 382.2772
1113.959, 384.0973
1114.441, 385.8365
1114.923, 386.9689
1115.405, 387.5252
1115.887, 388.8704
1116.369, 391.1830
1116.851, 393.3106
1117.333, 394.7518
1117.816, 396.0275
1118.298, 397.8623
1118.780, 399.9719
1119.262, 401.9174
1119.744, 403.4706
1120.226, 405.3676
1120.708, 407.8394
1121.190, 410.1652
1121.673, 412.2295
1122.155, 413.6841
1122.637, 413.1197
1123.119, 411.2975
1123.601, 410.3179
1124.083, 412.4238
1124.565, 413.3825
1125.047, 412.1151
1125.530, 410.1419
1126.012, 409.0124
1126.494, 408.4431
1126.976, 406.6626
1127.458, 403.7599
1127.940, 400.9638
1128.422, 399.0323
1128.904, 397.2849
1129.386, 395.4307
1129.869, 393.5628
1130.351, 391.9546
1130.833, 390.5920
1131.315, 388.7277
1131.797, 386.2505
1132.279, 383.5173
1132.761, 380.3142
1133.243, 377.3985
1133.725, 375.4262
1134.208, 374.2915
1134.690, 373.2757
1135.172, 372.3437
1135.654, 371.8810
1136.136, 372.1187
1136.618, 372.3096
1137.100, 371.4479
1137.582, 370.2064
1138.065, 369.4059
1138.547, 369.2646
1139.029, 368.4747
1139.511, 366.7622
1139.993, 365.3195
1140.475, 364.7838
1140.957, 364.5025
1141.439, 363.3870
1141.922, 361.7954
1142.404, 360.2385
1142.886, 358.5450
1143.368, 357.9854
1143.850, 359.5269
1144.332, 360.2267
1144.814, 357.6582
1145.296, 353.2587
1145.778, 350.6109
1146.260, 349.3090
1146.743, 348.0889
1147.225, 346.8516
1147.707, 345.0447
1148.189, 342.1859
1148.671, 339.3006
1149.153, 337.4724
1149.635, 336.4276
1150.117, 334.6236
1150.600, 332.1701
1151.082, 330.0764
1151.564, 329.2540
1152.046, 328.3867
1152.528, 326.8048
1153.010, 325.1009
1153.492, 324.2502
1153.974, 324.1405
1154.457, 323.3403
1154.939, 321.7433
1155.421, 320.0948
1155.903, 318.7511
1156.385, 317.6520
1156.867, 316.7625
1157.349, 316.0933
1157.831, 315.9596
1158.313, 316.3768
1158.796, 315.7180
1159.278, 313.5948
1159.760, 311.3210
1160.242, 309.4449
1160.724, 308.3405
1161.206, 308.7494
1161.688, 310.3924
1162.170, 311.2949
1162.652, 311.4345
1163.135, 311.0973
1163.617, 310.2741
1164.099, 309.2954
1164.581, 308.2446
1165.063, 307.3767
1165.545, 307.1062
1166.027, 307.5502
1166.509, 307.4528
1166.992, 306.7145
1167.474, 305.9657
1167.956, 305.4046
1168.438, 305.0512
1168.920, 305.0822
1169.402, 305.2631
1169.884, 305.2305
1170.366, 304.7872
1170.849, 304.6068
1171.331, 304.7750
1171.813, 304.9286
1172.295, 305.0069
1172.777, 304.8130
1173.259, 303.6991
1173.741, 302.1400
1174.223, 301.1014
1174.705, 301.2086
1175.188, 301.2071
1175.670, 301.0459
1176.152, 300.8601
1176.634, 300.7359
1177.116, 300.6609
1177.598, 300.6010
1178.080, 300.5627
1178.562, 300.5706
1179.044, 300.9688
1179.527, 300.8374
1180.009, 299.9379
1180.491, 298.8535
1180.973, 298.1122
1181.455, 297.6100
1181.937, 297.1640
1182.419, 296.7588
1182.901, 296.3442
1183.384, 295.6143
1183.866, 295.3935
1184.348, 296.1259
1184.830, 296.8629
1185.312, 296.0534
1185.794, 294.3795
1186.276, 293.7358
1186.758, 294.1726
1187.240, 294.6185
1187.723, 294.4648
1188.205, 294.4713
1188.687, 294.8725
1189.169, 295.4316
1189.651, 295.7890
1190.133, 295.9775
1190.615, 296.1065
1191.097, 296.1877
1191.579, 296.1360
1192.062, 295.9399
1192.544, 295.5345
1193.026, 294.7957
1193.508, 293.9571
1193.990, 293.7473
1194.472, 293.8852
1194.954, 293.1307
1195.436, 291.0895
1195.919, 289.8075
1196.401, 290.8650
1196.883, 292.1899
1197.365, 293.0799
1197.847, 293.5197
1198.329, 293.2302
1198.811, 292.4206
1199.293, 291.9148
1199.776, 291.9620
1200.258, 292.0882
1200.740, 292.3067
1201.222, 292.2593
1201.704, 291.6173
1202.186, 290.6285
1202.668, 290.2154
1203.150, 290.3513
1203.632, 291.0911
1204.115, 292.9081
1204.597, 293.9976
1205.079, 292.6779
1205.561, 291.2131
1206.043, 290.9971
1206.525, 291.7369
1207.007, 292.0176
1207.489, 291.9035
1207.971, 291.6893
1208.454, 291.4780
1208.936, 291.2050
1209.418, 290.6455
1209.900, 290.2095
1210.382, 290.2217
1210.864, 290.6049
1211.346, 290.9696
1211.828, 291.2545
1212.311, 291.1317
1212.793, 290.0000
1213.275, 289.1280
1213.757, 288.8629
1214.239, 289.1649
1214.721, 290.3707
1215.203, 292.2481
1215.685, 292.9409
1216.167, 292.5885
1216.650, 291.9603
1217.132, 291.2926
1217.614, 290.5930
1218.096, 289.7455
1218.578, 288.9933
1219.060, 288.6712
1219.542, 288.6722
1220.024, 287.9940
1220.506, 286.8299
1220.989, 286.3120
1221.471, 287.5531
1221.953, 288.8253
1222.435, 289.8290
1222.917, 290.4421
1223.399, 290.3488
1223.881, 289.7230
1224.363, 289.5027
1224.846, 289.6338
1225.328, 289.5938
1225.810, 288.7159
1226.292, 288.2254
1226.774, 288.6529
1227.256, 289.2328
1227.738, 288.8193
1228.220, 287.8114
1228.703, 287.9476
1229.185, 289.0845
1229.667, 289.6161
1230.149, 287.8322
1230.631, 286.6965
1231.113, 286.9162
1231.595, 287.9055
1232.077, 289.3553
1232.559, 290.8788
1233.042, 291.1449
1233.524, 290.2240
1234.006, 289.4366
1234.488, 289.4694
1234.970, 289.5168
1235.452, 289.4816
1235.934, 289.3023
1236.416, 288.7319
1236.898, 288.0131
1237.381, 287.7914
1237.863, 288.0582
1238.345, 288.1597
1238.827, 287.7550
1239.309, 287.3739
1239.791, 287.1241
1240.273, 286.8866
1240.755, 286.3753
1241.238, 285.8121
1241.720, 285.6733
1242.202, 285.9631
1242.684, 286.1828
1243.166, 286.1496
1243.648, 286.2154
1244.130, 286.4544
1244.612, 286.7832
1245.094, 287.1403
1245.577, 287.4916
1246.059, 287.8106
1246.541, 288.0869
1247.023, 288.2098
1247.505, 288.1994
1247.987, 287.9188
1248.469, 287.2428
1248.951, 286.6236
1249.433, 286.5257
1249.916, 286.8860
1250.398, 288.0824
1250.880, 289.9493
1251.362, 290.0702
1251.844, 287.8089
1252.326, 286.4995
1252.808, 287.0312
1253.290, 288.0596
1253.773, 288.3005
1254.255, 288.1723
1254.737, 288.1297
1255.219, 288.1435
1255.701, 287.5309
1256.183, 286.1076
1256.665, 285.8698
1257.147, 287.4883
1257.630, 289.1515
1258.112, 289.1610
1258.594, 288.5060
1259.076, 287.7320
1259.558, 287.0192
1260.040, 287.2440
1260.522, 288.3854
1261.004, 288.6969
1261.486, 287.6818
1261.969, 286.5773
1262.451, 286.2069
1262.933, 286.1928
1263.415, 286.3820
1263.897, 286.6777
1264.379, 286.8155
1264.861, 286.7970
1265.343, 286.6117
1265.825, 286.2459
1266.308, 285.8180
1266.790, 285.1642
1267.272, 284.7477
1267.754, 284.8137
1268.236, 285.2236
1268.718, 285.8208
1269.200, 286.4556
1269.682, 286.4234
1270.165, 285.4921
1270.647, 284.9160
1271.129, 285.3885
1271.611, 286.1880
1272.093, 287.3482
1272.575, 288.3565
1273.057, 287.8790
1273.539, 286.5433
1274.021, 285.8036
1274.504, 285.9544
1274.986, 285.9729
1275.468, 285.6855
1275.950, 285.1605
1276.432, 284.2855
1276.914, 283.4608
1277.396, 283.3434
1277.878, 283.6630
1278.360, 284.0512
1278.843, 284.4597
1279.325, 284.8662
1279.807, 285.2916
1280.289, 285.6007
1280.771, 285.7026
1281.253, 285.8628
1281.735, 286.5984
1282.217, 287.4360
1282.700, 287.8438
1283.182, 287.7995
1283.664, 287.7694
1284.146, 287.7890
1284.628, 287.2000
1285.110, 285.6126
1285.592, 284.4503
1286.074, 285.6428
1286.557, 287.1515
1287.039, 287.1407
1287.521, 286.0988
1288.003, 286.0379
1288.485, 286.8493
1288.967, 287.0982
1289.449, 286.3590
1289.931, 286.0510
1290.413, 288.1633
1290.896, 289.6041
1291.378, 288.4840
1291.860, 286.0778
1292.342, 285.6477
1292.824, 286.6950
1293.306, 287.5832
1293.788, 288.0435
1294.270, 288.0909
1294.752, 287.2733
1295.235, 286.6478
1295.717, 286.5590
1296.199, 286.6899
1296.681, 286.4897
1297.163, 286.1214
1297.645, 285.8253
1298.127, 285.6360
1298.609, 285.7153
1299.092, 285.9551
1299.574, 286.8264
1300.056, 288.7132
1300.538, 290.3776
1301.020, 289.8920
1301.502, 288.6697
1301.984, 288.5900
1302.466, 287.7839
1302.948, 289.0947
1303.431, 286.8922
1303.913, 285.5792
1304.395, 285.6289
1304.877, 286.8725
##END=



