##NAMES=Changoite
##RRUFFID=R110213
##IDEAL CHEMISTRY=Na_2_Zn^2+^(S^6+^O_4_)_2_&#183;4H_2_O
##LOCALITY=La Compania mine, Caracoles, Sierra Gorda, II Region, Atacama Desert, Chile
##OWNER=RRUFF
##SOURCE=Gunnar Farber
##DESCRIPTION=Pale yellow transparent anhedral crystals associated with krohnkite and caracolite
##STATUS=The identification of this mineral has been confirmed only by single crystal X-ray diffraction.
##URL=rruff.info/R110213
9.001007e+001, 0.000000e+000
9.049219e+001, 6.048669e+001
9.097430e+001, 6.181170e+001
9.145642e+001, 6.139899e+001
9.193854e+001, 5.941408e+001
9.242065e+001, 5.723817e+001
9.290277e+001, 5.600627e+001
9.338489e+001, 5.541758e+001
9.386700e+001, 5.476184e+001
9.434912e+001, 5.340684e+001
9.483124e+001, 5.194767e+001
9.531335e+001, 5.187287e+001
9.579547e+001, 5.332335e+001
9.627759e+001, 5.515740e+001
9.675970e+001, 5.619635e+001
9.724182e+001, 5.645892e+001
9.772394e+001, 5.631107e+001
9.820605e+001, 5.570423e+001
9.868817e+001, 5.469233e+001
9.917029e+001, 5.393297e+001
9.965240e+001, 5.338186e+001
1.001345e+002, 5.315985e+001
1.006166e+002, 5.377123e+001
1.010988e+002, 5.549910e+001
1.015809e+002, 5.684529e+001
1.020630e+002, 5.664253e+001
1.025451e+002, 5.434239e+001
1.030272e+002, 5.332770e+001
1.035093e+002, 5.425949e+001
1.039915e+002, 5.658315e+001
1.044736e+002, 5.804675e+001
1.049557e+002, 5.855383e+001
1.054378e+002, 5.831522e+001
1.059199e+002, 5.727825e+001
1.064020e+002, 5.439143e+001
1.068842e+002, 5.268827e+001
1.073663e+002, 5.312947e+001
1.078484e+002, 5.575788e+001
1.083305e+002, 5.687152e+001
1.088126e+002, 5.510846e+001
1.092947e+002, 5.259223e+001
1.097769e+002, 5.127097e+001
1.102590e+002, 5.215596e+001
1.107411e+002, 5.321626e+001
1.112232e+002, 5.409859e+001
1.117053e+002, 5.471686e+001
1.121874e+002, 5.550785e+001
1.126696e+002, 5.699594e+001
1.131517e+002, 5.854445e+001
1.136338e+002, 5.932837e+001
1.141159e+002, 5.874833e+001
1.145980e+002, 5.777662e+001
1.150801e+002, 5.656384e+001
1.155623e+002, 5.469082e+001
1.160444e+002, 5.367891e+001
1.165265e+002, 5.473604e+001
1.170086e+002, 5.696032e+001
1.174907e+002, 5.844199e+001
1.179728e+002, 5.763481e+001
1.184550e+002, 5.641842e+001
1.189371e+002, 5.601796e+001
1.194192e+002, 5.709879e+001
1.199013e+002, 5.840057e+001
1.203834e+002, 5.995574e+001
1.208655e+002, 6.142959e+001
1.213477e+002, 6.151115e+001
1.218298e+002, 5.728403e+001
1.223119e+002, 5.206456e+001
1.227940e+002, 4.950662e+001
1.232761e+002, 5.289973e+001
1.237582e+002, 5.740133e+001
1.242404e+002, 5.839423e+001
1.247225e+002, 5.616150e+001
1.252046e+002, 5.419636e+001
1.256867e+002, 5.634392e+001
1.261688e+002, 6.058321e+001
1.266509e+002, 6.322752e+001
1.271331e+002, 6.128975e+001
1.276152e+002, 5.746789e+001
1.280973e+002, 5.589006e+001
1.285794e+002, 5.667986e+001
1.290615e+002, 5.821801e+001
1.295436e+002, 5.902586e+001
1.300258e+002, 5.919605e+001
1.305079e+002, 5.912541e+001
1.309900e+002, 5.891308e+001
1.314721e+002, 5.859569e+001
1.319542e+002, 5.814476e+001
1.324363e+002, 5.743898e+001
1.329185e+002, 5.698106e+001
1.334006e+002, 5.791521e+001
1.338827e+002, 6.024506e+001
1.343648e+002, 6.216498e+001
1.348469e+002, 6.223811e+001
1.353290e+002, 6.065269e+001
1.358112e+002, 6.021391e+001
1.362933e+002, 6.128907e+001
1.367754e+002, 6.340609e+001
1.372575e+002, 6.593687e+001
1.377396e+002, 6.920628e+001
1.382217e+002, 7.144787e+001
1.387039e+002, 7.115891e+001
1.391860e+002, 6.790112e+001
1.396681e+002, 6.509129e+001
1.401502e+002, 6.286420e+001
1.406323e+002, 6.138877e+001
1.411144e+002, 6.168222e+001
1.415966e+002, 6.464191e+001
1.420787e+002, 6.766316e+001
1.425608e+002, 6.853448e+001
1.430429e+002, 6.630132e+001
1.435250e+002, 6.460104e+001
1.440071e+002, 6.395729e+001
1.444893e+002, 6.435225e+001
1.449714e+002, 6.527660e+001
1.454535e+002, 6.687442e+001
1.459356e+002, 6.886398e+001
1.464177e+002, 7.091431e+001
1.468998e+002, 7.287082e+001
1.473820e+002, 7.515738e+001
1.478641e+002, 7.761515e+001
1.483462e+002, 8.002381e+001
1.488283e+002, 8.409050e+001
1.493104e+002, 9.027202e+001
1.497925e+002, 9.790547e+001
1.502747e+002, 1.063796e+002
1.507568e+002, 1.146254e+002
1.512389e+002, 1.245842e+002
1.517210e+002, 1.367415e+002
1.522031e+002, 1.510867e+002
1.526852e+002, 1.673615e+002
1.531674e+002, 1.865623e+002
1.536495e+002, 2.075768e+002
1.541316e+002, 2.288991e+002
1.546137e+002, 2.485366e+002
1.550958e+002, 2.700817e+002
1.555779e+002, 2.941303e+002
1.560601e+002, 3.191896e+002
1.565422e+002, 3.502072e+002
1.570243e+002, 3.896790e+002
1.575064e+002, 4.353803e+002
1.579885e+002, 4.830016e+002
1.584706e+002, 5.309661e+002
1.589528e+002, 5.811205e+002
1.594349e+002, 6.340527e+002
1.599170e+002, 6.886682e+002
1.603991e+002, 7.481812e+002
1.608812e+002, 8.155842e+002
1.613633e+002, 8.888351e+002
1.618455e+002, 9.625720e+002
1.623276e+002, 1.035137e+003
1.628097e+002, 1.107030e+003
1.632918e+002, 1.180487e+003
1.637739e+002, 1.258875e+003
1.642560e+002, 1.333872e+003
1.647382e+002, 1.401765e+003
1.652203e+002, 1.463228e+003
1.657024e+002, 1.520843e+003
1.661845e+002, 1.576686e+003
1.666666e+002, 1.629067e+003
1.671487e+002, 1.675715e+003
1.676309e+002, 1.714172e+003
1.681130e+002, 1.749436e+003
1.685951e+002, 1.782807e+003
1.690772e+002, 1.814778e+003
1.695593e+002, 1.847477e+003
1.700414e+002, 1.881126e+003
1.705236e+002, 1.916673e+003
1.710057e+002, 1.954784e+003
1.714878e+002, 1.996674e+003
1.719699e+002, 2.041006e+003
1.724520e+002, 2.084227e+003
1.729341e+002, 2.127003e+003
1.734163e+002, 2.175784e+003
1.738984e+002, 2.238789e+003
1.743805e+002, 2.311109e+003
1.748626e+002, 2.382495e+003
1.753447e+002, 2.447055e+003
1.758268e+002, 2.511197e+003
1.763090e+002, 2.583235e+003
1.767911e+002, 2.662609e+003
1.772732e+002, 2.744039e+003
1.777553e+002, 2.812472e+003
1.782374e+002, 2.866263e+003
1.787195e+002, 2.914941e+003
1.792017e+002, 2.961894e+003
1.796838e+002, 3.007464e+003
1.801659e+002, 3.051925e+003
1.806480e+002, 3.096004e+003
1.811301e+002, 3.136662e+003
1.816122e+002, 3.171270e+003
1.820944e+002, 3.200755e+003
1.825765e+002, 3.227075e+003
1.830586e+002, 3.251932e+003
1.835407e+002, 3.274337e+003
1.840228e+002, 3.292964e+003
1.845049e+002, 3.307502e+003
1.849871e+002, 3.319423e+003
1.854692e+002, 3.329158e+003
1.859513e+002, 3.337144e+003
1.864334e+002, 3.345363e+003
1.869155e+002, 3.355262e+003
1.873976e+002, 3.366154e+003
1.878798e+002, 3.375756e+003
1.883619e+002, 3.383648e+003
1.888440e+002, 3.391215e+003
1.893261e+002, 3.400154e+003
1.898082e+002, 3.410452e+003
1.902903e+002, 3.421308e+003
1.907725e+002, 3.433315e+003
1.912546e+002, 3.446053e+003
1.917367e+002, 3.455235e+003
1.922188e+002, 3.459700e+003
1.927009e+002, 3.463238e+003
1.931830e+002, 3.472429e+003
1.936652e+002, 3.487216e+003
1.941473e+002, 3.503045e+003
1.946294e+002, 3.516758e+003
1.951115e+002, 3.528663e+003
1.955936e+002, 3.543215e+003
1.960757e+002, 3.561105e+003
1.965579e+002, 3.580913e+003
1.970400e+002, 3.600456e+003
1.975221e+002, 3.619830e+003
1.980042e+002, 3.637987e+003
1.984863e+002, 3.654292e+003
1.989684e+002, 3.668676e+003
1.994506e+002, 3.682872e+003
1.999327e+002, 3.696904e+003
2.004148e+002, 3.710777e+003
2.008969e+002, 3.724497e+003
2.013790e+002, 3.738357e+003
2.018611e+002, 3.751388e+003
2.023433e+002, 3.763578e+003
2.028254e+002, 3.775142e+003
2.033075e+002, 3.783435e+003
2.037896e+002, 3.787433e+003
2.042717e+002, 3.788695e+003
2.047538e+002, 3.790787e+003
2.052360e+002, 3.793567e+003
2.057181e+002, 3.797417e+003
2.062002e+002, 3.802958e+003
2.066823e+002, 3.810525e+003
2.071644e+002, 3.817027e+003
2.076465e+002, 3.821818e+003
2.081287e+002, 3.825504e+003
2.086108e+002, 3.830372e+003
2.090929e+002, 3.836989e+003
2.095750e+002, 3.843134e+003
2.100571e+002, 3.847387e+003
2.105392e+002, 3.849589e+003
2.110214e+002, 3.850791e+003
2.115035e+002, 3.850811e+003
2.119856e+002, 3.850058e+003
2.124677e+002, 3.849409e+003
2.129498e+002, 3.848062e+003
2.134319e+002, 3.848839e+003
2.139140e+002, 3.854388e+003
2.143962e+002, 3.866798e+003
2.148783e+002, 3.876758e+003
2.153604e+002, 3.882950e+003
2.158425e+002, 3.886224e+003
2.163246e+002, 3.889537e+003
2.168067e+002, 3.892864e+003
2.172889e+002, 3.896266e+003
2.177710e+002, 3.899842e+003
2.182531e+002, 3.903706e+003
2.187352e+002, 3.907142e+003
2.192173e+002, 3.909604e+003
2.196994e+002, 3.911522e+003
2.201816e+002, 3.914968e+003
2.206637e+002, 3.920262e+003
2.211458e+002, 3.926391e+003
2.216279e+002, 3.932963e+003
2.221100e+002, 3.940851e+003
2.225921e+002, 3.946974e+003
2.230743e+002, 3.951292e+003
2.235564e+002, 3.953724e+003
2.240385e+002, 3.953192e+003
2.245206e+002, 3.946853e+003
2.250027e+002, 3.942189e+003
2.254848e+002, 3.945053e+003
2.259670e+002, 3.961069e+003
2.264491e+002, 3.970946e+003
2.269312e+002, 3.971324e+003
2.274133e+002, 3.964371e+003
2.278954e+002, 3.960431e+003
2.283775e+002, 3.960913e+003
2.288597e+002, 3.962509e+003
2.293418e+002, 3.963340e+003
2.298239e+002, 3.963348e+003
2.303060e+002, 3.962477e+003
2.307881e+002, 3.959641e+003
2.312702e+002, 3.955694e+003
2.317524e+002, 3.955229e+003
2.322345e+002, 3.959766e+003
2.327166e+002, 3.965391e+003
2.331987e+002, 3.969905e+003
2.336808e+002, 3.973269e+003
2.341629e+002, 3.975271e+003
2.346451e+002, 3.975120e+003
2.351272e+002, 3.973473e+003
2.356093e+002, 3.973390e+003
2.360914e+002, 3.975497e+003
2.365735e+002, 3.978305e+003
2.370556e+002, 3.981306e+003
2.375378e+002, 3.985720e+003
2.380199e+002, 3.987720e+003
2.385020e+002, 3.986312e+003
2.389841e+002, 3.982438e+003
2.394662e+002, 3.979646e+003
2.399483e+002, 3.977760e+003
2.404305e+002, 3.977430e+003
2.409126e+002, 3.979507e+003
2.413947e+002, 3.986498e+003
2.418768e+002, 3.990446e+003
2.423589e+002, 3.989687e+003
2.428410e+002, 3.985779e+003
2.433232e+002, 3.983921e+003
2.438053e+002, 3.983495e+003
2.442874e+002, 3.985964e+003
2.447695e+002, 3.993013e+003
2.452516e+002, 4.009604e+003
2.457337e+002, 4.019178e+003
2.462159e+002, 4.018147e+003
2.466980e+002, 4.010034e+003
2.471801e+002, 4.006329e+003
2.476622e+002, 4.008582e+003
2.481443e+002, 4.012671e+003
2.486264e+002, 4.016859e+003
2.491086e+002, 4.021641e+003
2.495907e+002, 4.025320e+003
2.500728e+002, 4.027671e+003
2.505549e+002, 4.029001e+003
2.510370e+002, 4.029869e+003
2.515191e+002, 4.029318e+003
2.520013e+002, 4.029976e+003
2.524834e+002, 4.033319e+003
2.529655e+002, 4.040673e+003
2.534476e+002, 4.047444e+003
2.539297e+002, 4.053997e+003
2.544118e+002, 4.059867e+003
2.548940e+002, 4.063947e+003
2.553761e+002, 4.065458e+003
2.558582e+002, 4.066538e+003
2.563403e+002, 4.067878e+003
2.568224e+002, 4.069246e+003
2.573046e+002, 4.071490e+003
2.577867e+002, 4.075024e+003
2.582688e+002, 4.079011e+003
2.587509e+002, 4.081620e+003
2.592330e+002, 4.081792e+003
2.597151e+002, 4.082527e+003
2.601973e+002, 4.085060e+003
2.606794e+002, 4.089683e+003
2.611615e+002, 4.094876e+003
2.616436e+002, 4.101908e+003
2.621257e+002, 4.108419e+003
2.626078e+002, 4.109594e+003
2.630900e+002, 4.102889e+003
2.635721e+002, 4.097212e+003
2.640542e+002, 4.096530e+003
2.645363e+002, 4.102187e+003
2.650184e+002, 4.103918e+003
2.655005e+002, 4.099997e+003
2.659827e+002, 4.094394e+003
2.664648e+002, 4.093334e+003
2.669469e+002, 4.098800e+003
2.674290e+002, 4.103144e+003
2.679111e+002, 4.103857e+003
2.683932e+002, 4.100694e+003
2.688754e+002, 4.096744e+003
2.693575e+002, 4.090972e+003
2.698396e+002, 4.085819e+003
2.703217e+002, 4.084974e+003
2.708038e+002, 4.089484e+003
2.712859e+002, 4.093803e+003
2.717681e+002, 4.095933e+003
2.722502e+002, 4.095944e+003
2.727323e+002, 4.098139e+003
2.732144e+002, 4.103109e+003
2.736965e+002, 4.108924e+003
2.741786e+002, 4.114130e+003
2.746608e+002, 4.119198e+003
2.751429e+002, 4.121245e+003
2.756250e+002, 4.118696e+003
2.761071e+002, 4.112319e+003
2.765892e+002, 4.107394e+003
2.770714e+002, 4.103870e+003
2.775535e+002, 4.102197e+003
2.780356e+002, 4.103939e+003
2.785177e+002, 4.109634e+003
2.789998e+002, 4.112593e+003
2.794819e+002, 4.110171e+003
2.799641e+002, 4.104192e+003
2.804462e+002, 4.103815e+003
2.809283e+002, 4.110406e+003
2.814104e+002, 4.116657e+003
2.818925e+002, 4.115748e+003
2.823746e+002, 4.107589e+003
2.828568e+002, 4.100600e+003
2.833389e+002, 4.096388e+003
2.838210e+002, 4.094191e+003
2.843031e+002, 4.091767e+003
2.847852e+002, 4.089109e+003
2.852673e+002, 4.087146e+003
2.857495e+002, 4.087778e+003
2.862316e+002, 4.090668e+003
2.867137e+002, 4.089428e+003
2.871958e+002, 4.081307e+003
2.876779e+002, 4.071676e+003
2.881600e+002, 4.073608e+003
2.886422e+002, 4.087282e+003
2.891243e+002, 4.100352e+003
2.896064e+002, 4.103835e+003
2.900885e+002, 4.099441e+003
2.905706e+002, 4.095358e+003
2.910527e+002, 4.091758e+003
2.915349e+002, 4.089798e+003
2.920170e+002, 4.092583e+003
2.924991e+002, 4.099594e+003
2.929812e+002, 4.105979e+003
2.934633e+002, 4.107796e+003
2.939454e+002, 4.106726e+003
2.944276e+002, 4.108486e+003
2.949097e+002, 4.113761e+003
2.953918e+002, 4.120139e+003
2.958739e+002, 4.125106e+003
2.963560e+002, 4.128685e+003
2.968381e+002, 4.131143e+003
2.973203e+002, 4.132692e+003
2.978024e+002, 4.133191e+003
2.982845e+002, 4.131575e+003
2.987666e+002, 4.127569e+003
2.992487e+002, 4.124141e+003
2.997308e+002, 4.124673e+003
3.002130e+002, 4.128244e+003
3.006951e+002, 4.132188e+003
3.011772e+002, 4.135529e+003
3.016593e+002, 4.138559e+003
3.021414e+002, 4.141918e+003
3.026235e+002, 4.145546e+003
3.031057e+002, 4.148731e+003
3.035878e+002, 4.150303e+003
3.040699e+002, 4.151042e+003
3.045520e+002, 4.152456e+003
3.050341e+002, 4.156092e+003
3.055162e+002, 4.159658e+003
3.059984e+002, 4.160513e+003
3.064805e+002, 4.158931e+003
3.069626e+002, 4.156803e+003
3.074447e+002, 4.154390e+003
3.079268e+002, 4.152524e+003
3.084089e+002, 4.152592e+003
3.088911e+002, 4.156243e+003
3.093732e+002, 4.159928e+003
3.098553e+002, 4.160125e+003
3.103374e+002, 4.157795e+003
3.108195e+002, 4.156179e+003
3.113016e+002, 4.158456e+003
3.117838e+002, 4.161571e+003
3.122659e+002, 4.162540e+003
3.127480e+002, 4.159866e+003
3.132301e+002, 4.157131e+003
3.137122e+002, 4.155086e+003
3.141943e+002, 4.154472e+003
3.146765e+002, 4.156934e+003
3.151586e+002, 4.167589e+003
3.156407e+002, 4.178465e+003
3.161228e+002, 4.184173e+003
3.166049e+002, 4.182980e+003
3.170870e+002, 4.181055e+003
3.175692e+002, 4.180323e+003
3.180513e+002, 4.180712e+003
3.185334e+002, 4.182133e+003
3.190155e+002, 4.187316e+003
3.194976e+002, 4.191182e+003
3.199797e+002, 4.190175e+003
3.204619e+002, 4.183493e+003
3.209440e+002, 4.179333e+003
3.214261e+002, 4.182696e+003
3.219082e+002, 4.188578e+003
3.223903e+002, 4.192230e+003
3.228724e+002, 4.189823e+003
3.233546e+002, 4.187829e+003
3.238367e+002, 4.188069e+003
3.243188e+002, 4.190494e+003
3.248009e+002, 4.192947e+003
3.252830e+002, 4.196033e+003
3.257651e+002, 4.198499e+003
3.262473e+002, 4.199546e+003
3.267294e+002, 4.199562e+003
3.272115e+002, 4.197819e+003
3.276936e+002, 4.191665e+003
3.281757e+002, 4.182890e+003
3.286578e+002, 4.179861e+003
3.291400e+002, 4.187724e+003
3.296221e+002, 4.197260e+003
3.301042e+002, 4.204718e+003
3.305863e+002, 4.209208e+003
3.310684e+002, 4.213179e+003
3.315505e+002, 4.216850e+003
3.320327e+002, 4.219864e+003
3.325148e+002, 4.221193e+003
3.329969e+002, 4.218501e+003
3.334790e+002, 4.216937e+003
3.339611e+002, 4.217909e+003
3.344432e+002, 4.221221e+003
3.349254e+002, 4.227894e+003
3.354075e+002, 4.240838e+003
3.358896e+002, 4.254377e+003
3.363717e+002, 4.259603e+003
3.368538e+002, 4.252075e+003
3.373359e+002, 4.246845e+003
3.378180e+002, 4.249345e+003
3.383001e+002, 4.259385e+003
3.387823e+002, 4.263686e+003
3.392644e+002, 4.260438e+003
3.397465e+002, 4.255162e+003
3.402286e+002, 4.253034e+003
3.407107e+002, 4.254450e+003
3.411928e+002, 4.257618e+003
3.416750e+002, 4.263255e+003
3.421571e+002, 4.270178e+003
3.426392e+002, 4.272882e+003
3.431213e+002, 4.270890e+003
3.436034e+002, 4.267598e+003
3.440855e+002, 4.264480e+003
3.445677e+002, 4.261670e+003
3.450498e+002, 4.262110e+003
3.455319e+002, 4.267076e+003
3.460140e+002, 4.273949e+003
3.464961e+002, 4.276713e+003
3.469782e+002, 4.275578e+003
3.474604e+002, 4.276268e+003
3.479425e+002, 4.283751e+003
3.484246e+002, 4.295972e+003
3.489067e+002, 4.304984e+003
3.493888e+002, 4.310043e+003
3.498709e+002, 4.313541e+003
3.503531e+002, 4.318809e+003
3.508352e+002, 4.325098e+003
3.513173e+002, 4.329632e+003
3.517994e+002, 4.328737e+003
3.522815e+002, 4.326151e+003
3.527636e+002, 4.328448e+003
3.532458e+002, 4.335586e+003
3.537279e+002, 4.344326e+003
3.542100e+002, 4.352750e+003
3.546921e+002, 4.360728e+003
3.551742e+002, 4.368199e+003
3.556563e+002, 4.376535e+003
3.561385e+002, 4.382896e+003
3.566206e+002, 4.382810e+003
3.571027e+002, 4.377550e+003
3.575848e+002, 4.373543e+003
3.580669e+002, 4.375979e+003
3.585490e+002, 4.380798e+003
3.590312e+002, 4.384084e+003
3.595133e+002, 4.384579e+003
3.599954e+002, 4.384759e+003
3.604775e+002, 4.385284e+003
3.609596e+002, 4.386614e+003
3.614417e+002, 4.389654e+003
3.619239e+002, 4.398747e+003
3.624060e+002, 4.406706e+003
3.628881e+002, 4.408396e+003
3.633702e+002, 4.401798e+003
3.638523e+002, 4.397148e+003
3.643344e+002, 4.399930e+003
3.648166e+002, 4.405669e+003
3.652987e+002, 4.409292e+003
3.657808e+002, 4.407890e+003
3.662629e+002, 4.405903e+003
3.667450e+002, 4.404811e+003
3.672271e+002, 4.404617e+003
3.677093e+002, 4.402932e+003
3.681914e+002, 4.396474e+003
3.686735e+002, 4.390256e+003
3.691556e+002, 4.387539e+003
3.696377e+002, 4.392314e+003
3.701198e+002, 4.395682e+003
3.706020e+002, 4.396197e+003
3.710841e+002, 4.394845e+003
3.715662e+002, 4.395617e+003
3.720483e+002, 4.402391e+003
3.725304e+002, 4.406448e+003
3.730125e+002, 4.403097e+003
3.734947e+002, 4.387757e+003
3.739768e+002, 4.378544e+003
3.744589e+002, 4.378226e+003
3.749410e+002, 4.381710e+003
3.754231e+002, 4.380476e+003
3.759052e+002, 4.372573e+003
3.763874e+002, 4.365637e+003
3.768695e+002, 4.362311e+003
3.773516e+002, 4.362542e+003
3.778337e+002, 4.362375e+003
3.783158e+002, 4.361641e+003
3.787979e+002, 4.361268e+003
3.792801e+002, 4.362240e+003
3.797622e+002, 4.364645e+003
3.802443e+002, 4.367854e+003
3.807264e+002, 4.372627e+003
3.812085e+002, 4.377447e+003
3.816906e+002, 4.377463e+003
3.821728e+002, 4.372555e+003
3.826549e+002, 4.367217e+003
3.831370e+002, 4.363692e+003
3.836191e+002, 4.362016e+003
3.841012e+002, 4.363004e+003
3.845833e+002, 4.367035e+003
3.850655e+002, 4.372365e+003
3.855476e+002, 4.377388e+003
3.860297e+002, 4.381908e+003
3.865118e+002, 4.385089e+003
3.869939e+002, 4.385386e+003
3.874760e+002, 4.384618e+003
3.879582e+002, 4.386025e+003
3.884403e+002, 4.389746e+003
3.889224e+002, 4.392724e+003
3.894045e+002, 4.391580e+003
3.898866e+002, 4.388448e+003
3.903687e+002, 4.386348e+003
3.908509e+002, 4.387197e+003
3.913330e+002, 4.388549e+003
3.918151e+002, 4.389103e+003
3.922972e+002, 4.388858e+003
3.927793e+002, 4.387734e+003
3.932614e+002, 4.383394e+003
3.937436e+002, 4.379622e+003
3.942257e+002, 4.379526e+003
3.947078e+002, 4.385417e+003
3.951899e+002, 4.390568e+003
3.956720e+002, 4.391187e+003
3.961541e+002, 4.389735e+003
3.966363e+002, 4.390201e+003
3.971184e+002, 4.396318e+003
3.976005e+002, 4.401869e+003
3.980826e+002, 4.403993e+003
3.985647e+002, 4.401917e+003
3.990468e+002, 4.401911e+003
3.995290e+002, 4.407501e+003
4.000111e+002, 4.413744e+003
4.004932e+002, 4.416632e+003
4.009753e+002, 4.412468e+003
4.014574e+002, 4.409951e+003
4.019395e+002, 4.410459e+003
4.024217e+002, 4.413363e+003
4.029038e+002, 4.415625e+003
4.033859e+002, 4.416854e+003
4.038680e+002, 4.418053e+003
4.043501e+002, 4.419711e+003
4.048322e+002, 4.421924e+003
4.053144e+002, 4.424254e+003
4.057965e+002, 4.426719e+003
4.062786e+002, 4.429231e+003
4.067607e+002, 4.431548e+003
4.072428e+002, 4.433573e+003
4.077249e+002, 4.435892e+003
4.082071e+002, 4.438685e+003
4.086892e+002, 4.441911e+003
4.091713e+002, 4.445303e+003
4.096534e+002, 4.448855e+003
4.101355e+002, 4.452567e+003
4.106176e+002, 4.456833e+003
4.110998e+002, 4.461417e+003
4.115819e+002, 4.464456e+003
4.120640e+002, 4.464561e+003
4.125461e+002, 4.464666e+003
4.130282e+002, 4.472365e+003
4.135103e+002, 4.485864e+003
4.139925e+002, 4.494857e+003
4.144746e+002, 4.488417e+003
4.149567e+002, 4.475304e+003
4.154388e+002, 4.470128e+003
4.159209e+002, 4.474709e+003
4.164030e+002, 4.480550e+003
4.168852e+002, 4.480042e+003
4.173673e+002, 4.476147e+003
4.178494e+002, 4.473697e+003
4.183315e+002, 4.477611e+003
4.188136e+002, 4.481125e+003
4.192957e+002, 4.477914e+003
4.197779e+002, 4.469382e+003
4.202600e+002, 4.464376e+003
4.207421e+002, 4.470021e+003
4.212242e+002, 4.478992e+003
4.217063e+002, 4.485798e+003
4.221884e+002, 4.488246e+003
4.226706e+002, 4.491116e+003
4.231527e+002, 4.496368e+003
4.236348e+002, 4.502781e+003
4.241169e+002, 4.508063e+003
4.245990e+002, 4.512213e+003
4.250811e+002, 4.514867e+003
4.255633e+002, 4.515040e+003
4.260454e+002, 4.512002e+003
4.265275e+002, 4.511201e+003
4.270096e+002, 4.512164e+003
4.274917e+002, 4.515586e+003
4.279738e+002, 4.522547e+003
4.284560e+002, 4.535881e+003
4.289381e+002, 4.546569e+003
4.294202e+002, 4.553208e+003
4.299023e+002, 4.556435e+003
4.303844e+002, 4.558366e+003
4.308665e+002, 4.558419e+003
4.313487e+002, 4.558800e+003
4.318308e+002, 4.560302e+003
4.323129e+002, 4.562878e+003
4.327950e+002, 4.567938e+003
4.332771e+002, 4.576023e+003
4.337592e+002, 4.585284e+003
4.342414e+002, 4.593532e+003
4.347235e+002, 4.600874e+003
4.352056e+002, 4.608288e+003
4.356877e+002, 4.616270e+003
4.361698e+002, 4.624441e+003
4.366519e+002, 4.631714e+003
4.371341e+002, 4.638209e+003
4.376162e+002, 4.645418e+003
4.380983e+002, 4.655724e+003
4.385804e+002, 4.667298e+003
4.390625e+002, 4.676174e+003
4.395446e+002, 4.680535e+003
4.400268e+002, 4.686157e+003
4.405089e+002, 4.699417e+003
4.409910e+002, 4.717751e+003
4.414731e+002, 4.735677e+003
4.419552e+002, 4.751150e+003
4.424373e+002, 4.765195e+003
4.429195e+002, 4.777178e+003
4.434016e+002, 4.787238e+003
4.438837e+002, 4.800344e+003
4.443658e+002, 4.821414e+003
4.448479e+002, 4.844715e+003
4.453300e+002, 4.865555e+003
4.458122e+002, 4.882976e+003
4.462943e+002, 4.898064e+003
4.467764e+002, 4.909009e+003
4.472585e+002, 4.917716e+003
4.477406e+002, 4.929119e+003
4.482227e+002, 4.950395e+003
4.487049e+002, 4.967557e+003
4.491870e+002, 4.975627e+003
4.496691e+002, 4.972696e+003
4.501512e+002, 4.972375e+003
4.506333e+002, 4.977655e+003
4.511154e+002, 4.982437e+003
4.515976e+002, 4.980297e+003
4.520797e+002, 4.969119e+003
4.525618e+002, 4.958541e+003
4.530439e+002, 4.950208e+003
4.535260e+002, 4.943489e+003
4.540081e+002, 4.936198e+003
4.544903e+002, 4.928464e+003
4.549724e+002, 4.919288e+003
4.554545e+002, 4.905964e+003
4.559366e+002, 4.889753e+003
4.564187e+002, 4.879881e+003
4.569008e+002, 4.877456e+003
4.573830e+002, 4.876991e+003
4.578651e+002, 4.873141e+003
4.583472e+002, 4.866122e+003
4.588293e+002, 4.856592e+003
4.593114e+002, 4.842417e+003
4.597935e+002, 4.828013e+003
4.602757e+002, 4.820000e+003
4.607578e+002, 4.817152e+003
4.612399e+002, 4.813276e+003
4.617220e+002, 4.801913e+003
4.622041e+002, 4.789128e+003
4.626862e+002, 4.781161e+003
4.631684e+002, 4.779713e+003
4.636505e+002, 4.779663e+003
4.641326e+002, 4.780092e+003
4.646147e+002, 4.780004e+003
4.650968e+002, 4.778073e+003
4.655789e+002, 4.770493e+003
4.660611e+002, 4.764690e+003
4.665432e+002, 4.764505e+003
4.670253e+002, 4.769328e+003
4.675074e+002, 4.771318e+003
4.679895e+002, 4.766329e+003
4.684716e+002, 4.761013e+003
4.689538e+002, 4.758510e+003
4.694359e+002, 4.759829e+003
4.699180e+002, 4.761845e+003
4.704001e+002, 4.765242e+003
4.708822e+002, 4.768788e+003
4.713643e+002, 4.770914e+003
4.718465e+002, 4.771896e+003
4.723286e+002, 4.770111e+003
4.728107e+002, 4.763416e+003
4.732928e+002, 4.753433e+003
4.737749e+002, 4.750567e+003
4.742570e+002, 4.756076e+003
4.747392e+002, 4.762017e+003
4.752213e+002, 4.762015e+003
4.757034e+002, 4.756910e+003
4.761855e+002, 4.752523e+003
4.766676e+002, 4.749650e+003
4.771497e+002, 4.747067e+003
4.776319e+002, 4.743405e+003
4.781140e+002, 4.738777e+003
4.785961e+002, 4.733493e+003
4.790782e+002, 4.726972e+003
4.795603e+002, 4.720346e+003
4.800424e+002, 4.715065e+003
4.805246e+002, 4.710971e+003
4.810067e+002, 4.707014e+003
4.814888e+002, 4.701700e+003
4.819709e+002, 4.696631e+003
4.824530e+002, 4.693328e+003
4.829352e+002, 4.692458e+003
4.834173e+002, 4.692303e+003
4.838994e+002, 4.692742e+003
4.843815e+002, 4.693286e+003
4.848636e+002, 4.693205e+003
4.853457e+002, 4.694009e+003
4.858279e+002, 4.692425e+003
4.863100e+002, 4.685723e+003
4.867921e+002, 4.673938e+003
4.872742e+002, 4.666890e+003
4.877563e+002, 4.668376e+003
4.882384e+002, 4.670822e+003
4.887206e+002, 4.669781e+003
4.892027e+002, 4.663202e+003
4.896848e+002, 4.658981e+003
4.901669e+002, 4.657684e+003
4.906490e+002, 4.658367e+003
4.911311e+002, 4.660005e+003
4.916133e+002, 4.662881e+003
4.920954e+002, 4.664529e+003
4.925775e+002, 4.663229e+003
4.930596e+002, 4.660328e+003
4.935417e+002, 4.661327e+003
4.940238e+002, 4.666206e+003
4.945060e+002, 4.671865e+003
4.949881e+002, 4.677398e+003
4.954702e+002, 4.681743e+003
4.959523e+002, 4.681423e+003
4.964344e+002, 4.674927e+003
4.969165e+002, 4.668292e+003
4.973987e+002, 4.667766e+003
4.978808e+002, 4.671378e+003
4.983629e+002, 4.675464e+003
4.988450e+002, 4.681061e+003
4.993271e+002, 4.684531e+003
4.998092e+002, 4.682087e+003
5.002914e+002, 4.674791e+003
5.007735e+002, 4.668497e+003
5.012556e+002, 4.665722e+003
5.017377e+002, 4.664475e+003
5.022198e+002, 4.663938e+003
5.027019e+002, 4.664876e+003
5.031841e+002, 4.664433e+003
5.036662e+002, 4.660705e+003
5.041483e+002, 4.656136e+003
5.046304e+002, 4.653547e+003
5.051125e+002, 4.653491e+003
5.055946e+002, 4.654604e+003
5.060768e+002, 4.657054e+003
5.065589e+002, 4.660521e+003
5.070410e+002, 4.663722e+003
5.075231e+002, 4.666951e+003
5.080052e+002, 4.668947e+003
5.084873e+002, 4.668474e+003
5.089695e+002, 4.665475e+003
5.094516e+002, 4.663250e+003
5.099337e+002, 4.661644e+003
5.104158e+002, 4.661330e+003
5.108979e+002, 4.664308e+003
5.113800e+002, 4.669624e+003
5.118622e+002, 4.672828e+003
5.123443e+002, 4.672182e+003
5.128264e+002, 4.669701e+003
5.133085e+002, 4.667005e+003
5.137906e+002, 4.664533e+003
5.142728e+002, 4.663818e+003
5.147549e+002, 4.668576e+003
5.152370e+002, 4.673680e+003
5.157191e+002, 4.674465e+003
5.162012e+002, 4.670459e+003
5.166833e+002, 4.665396e+003
5.171655e+002, 4.659795e+003
5.176476e+002, 4.654600e+003
5.181297e+002, 4.650622e+003
5.186118e+002, 4.648745e+003
5.190939e+002, 4.647260e+003
5.195760e+002, 4.644570e+003
5.200582e+002, 4.642219e+003
5.205403e+002, 4.643870e+003
5.210224e+002, 4.653188e+003
5.215045e+002, 4.661320e+003
5.219866e+002, 4.665747e+003
5.224688e+002, 4.666445e+003
5.229509e+002, 4.666169e+003
5.234330e+002, 4.664045e+003
5.239151e+002, 4.662801e+003
5.243972e+002, 4.664987e+003
5.248793e+002, 4.670639e+003
5.253615e+002, 4.675803e+003
5.258436e+002, 4.680048e+003
5.263257e+002, 4.683893e+003
5.268078e+002, 4.688750e+003
5.272899e+002, 4.694101e+003
5.277720e+002, 4.697369e+003
5.282542e+002, 4.696501e+003
5.287363e+002, 4.693756e+003
5.292184e+002, 4.691400e+003
5.297005e+002, 4.689609e+003
5.301826e+002, 4.689247e+003
5.306647e+002, 4.693022e+003
5.311469e+002, 4.697194e+003
5.316290e+002, 4.698473e+003
5.321111e+002, 4.696057e+003
5.325932e+002, 4.692667e+003
5.330753e+002, 4.687653e+003
5.335574e+002, 4.683035e+003
5.340396e+002, 4.680996e+003
5.345217e+002, 4.686044e+003
5.350038e+002, 4.688905e+003
5.354859e+002, 4.686271e+003
5.359680e+002, 4.680452e+003
5.364501e+002, 4.678925e+003
5.369323e+002, 4.684075e+003
5.374144e+002, 4.689491e+003
5.378965e+002, 4.692770e+003
5.383786e+002, 4.693822e+003
5.388607e+002, 4.695250e+003
5.393428e+002, 4.697108e+003
5.398250e+002, 4.698958e+003
5.403071e+002, 4.699644e+003
5.407892e+002, 4.699442e+003
5.412713e+002, 4.702057e+003
5.417534e+002, 4.708820e+003
5.422355e+002, 4.716278e+003
5.427177e+002, 4.719380e+003
5.431998e+002, 4.719114e+003
5.436819e+002, 4.718536e+003
5.441640e+002, 4.719995e+003
5.446461e+002, 4.721159e+003
5.451282e+002, 4.718519e+003
5.456104e+002, 4.712936e+003
5.460925e+002, 4.709597e+003
5.465746e+002, 4.714396e+003
5.470567e+002, 4.720144e+003
5.475388e+002, 4.721183e+003
5.480209e+002, 4.714396e+003
5.485031e+002, 4.710931e+003
5.489852e+002, 4.716396e+003
5.494673e+002, 4.724703e+003
5.499494e+002, 4.729353e+003
5.504315e+002, 4.727295e+003
5.509136e+002, 4.726049e+003
5.513958e+002, 4.726222e+003
5.518779e+002, 4.727682e+003
5.523600e+002, 4.730427e+003
5.528421e+002, 4.735016e+003
5.533242e+002, 4.738869e+003
5.538063e+002, 4.740749e+003
5.542885e+002, 4.740876e+003
5.547706e+002, 4.740784e+003
5.552527e+002, 4.740435e+003
5.557348e+002, 4.740412e+003
5.562169e+002, 4.741648e+003
5.566990e+002, 4.743625e+003
5.571812e+002, 4.744958e+003
5.576633e+002, 4.745382e+003
5.581454e+002, 4.745501e+003
5.586275e+002, 4.746729e+003
5.591096e+002, 4.747976e+003
5.595917e+002, 4.747312e+003
5.600739e+002, 4.739626e+003
5.605560e+002, 4.733983e+003
5.610381e+002, 4.737579e+003
5.615202e+002, 4.747911e+003
5.620023e+002, 4.754024e+003
5.624844e+002, 4.747983e+003
5.629666e+002, 4.741493e+003
5.634487e+002, 4.740284e+003
5.639308e+002, 4.745868e+003
5.644129e+002, 4.749347e+003
5.648950e+002, 4.750218e+003
5.653771e+002, 4.749446e+003
5.658593e+002, 4.746964e+003
5.663414e+002, 4.741406e+003
5.668235e+002, 4.740411e+003
5.673056e+002, 4.746076e+003
5.677877e+002, 4.754500e+003
5.682698e+002, 4.758474e+003
5.687520e+002, 4.758277e+003
5.692341e+002, 4.757721e+003
5.697162e+002, 4.758368e+003
5.701983e+002, 4.759600e+003
5.706804e+002, 4.761186e+003
5.711625e+002, 4.762836e+003
5.716447e+002, 4.762259e+003
5.721268e+002, 4.754579e+003
5.726089e+002, 4.745986e+003
5.730910e+002, 4.742526e+003
5.735731e+002, 4.745111e+003
5.740552e+002, 4.750938e+003
5.745374e+002, 4.764444e+003
5.750195e+002, 4.777760e+003
5.755016e+002, 4.783576e+003
5.759837e+002, 4.767819e+003
5.764658e+002, 4.760111e+003
5.769479e+002, 4.768672e+003
5.774301e+002, 4.785443e+003
5.779122e+002, 4.794453e+003
5.783943e+002, 4.791585e+003
5.788764e+002, 4.788931e+003
5.793585e+002, 4.789752e+003
5.798406e+002, 4.793490e+003
5.803228e+002, 4.797234e+003
5.808049e+002, 4.801323e+003
5.812870e+002, 4.803153e+003
5.817691e+002, 4.798486e+003
5.822512e+002, 4.789774e+003
5.827333e+002, 4.787826e+003
5.832155e+002, 4.793885e+003
5.836975e+002, 4.801278e+003
5.841796e+002, 4.803981e+003
5.846617e+002, 4.803884e+003
5.851439e+002, 4.803812e+003
5.856260e+002, 4.803513e+003
5.861081e+002, 4.805463e+003
5.865902e+002, 4.814881e+003
5.870723e+002, 4.827289e+003
5.875544e+002, 4.833888e+003
5.880366e+002, 4.825375e+003
5.885187e+002, 4.817615e+003
5.890008e+002, 4.816929e+003
5.894829e+002, 4.822836e+003
5.899650e+002, 4.824648e+003
5.904471e+002, 4.818369e+003
5.909293e+002, 4.812896e+003
5.914114e+002, 4.812533e+003
5.918935e+002, 4.817817e+003
5.923756e+002, 4.824501e+003
5.928577e+002, 4.833558e+003
5.933398e+002, 4.841330e+003
5.938220e+002, 4.843476e+003
5.943041e+002, 4.840617e+003
5.947862e+002, 4.837112e+003
5.952683e+002, 4.833296e+003
5.957504e+002, 4.830478e+003
5.962325e+002, 4.830709e+003
5.967147e+002, 4.833351e+003
5.971968e+002, 4.836625e+003
5.976789e+002, 4.839538e+003
5.981610e+002, 4.843101e+003
5.986431e+002, 4.848479e+003
5.991252e+002, 4.855322e+003
5.996074e+002, 4.861955e+003
6.000895e+002, 4.869537e+003
6.005716e+002, 4.875333e+003
6.010537e+002, 4.876794e+003
6.015358e+002, 4.871879e+003
6.020179e+002, 4.871913e+003
6.025001e+002, 4.880118e+003
6.029822e+002, 4.890214e+003
6.034643e+002, 4.897300e+003
6.039464e+002, 4.900183e+003
6.044285e+002, 4.905110e+003
6.049106e+002, 4.912850e+003
6.053928e+002, 4.922109e+003
6.058749e+002, 4.931175e+003
6.063570e+002, 4.940106e+003
6.068391e+002, 4.949366e+003
6.073212e+002, 4.959580e+003
6.078033e+002, 4.969516e+003
6.082855e+002, 4.975810e+003
6.087676e+002, 4.979778e+003
6.092497e+002, 4.986617e+003
6.097318e+002, 5.003004e+003
6.102139e+002, 5.020451e+003
6.106960e+002, 5.031186e+003
6.111782e+002, 5.035087e+003
6.116603e+002, 5.040168e+003
6.121424e+002, 5.051519e+003
6.126245e+002, 5.063357e+003
6.131066e+002, 5.072105e+003
6.135887e+002, 5.076686e+003
6.140709e+002, 5.080398e+003
6.145530e+002, 5.083794e+003
6.150351e+002, 5.086009e+003
6.155172e+002, 5.086412e+003
6.159993e+002, 5.085276e+003
6.164814e+002, 5.081226e+003
6.169636e+002, 5.073905e+003
6.174457e+002, 5.063881e+003
6.179278e+002, 5.050586e+003
6.184099e+002, 5.034474e+003
6.188920e+002, 5.020540e+003
6.193741e+002, 5.011697e+003
6.198563e+002, 5.005303e+003
6.203384e+002, 4.997685e+003
6.208205e+002, 4.989102e+003
6.213026e+002, 4.981034e+003
6.217847e+002, 4.974778e+003
6.222668e+002, 4.968968e+003
6.227490e+002, 4.962321e+003
6.232311e+002, 4.954490e+003
6.237132e+002, 4.948451e+003
6.241953e+002, 4.946712e+003
6.246774e+002, 4.946016e+003
6.251595e+002, 4.944151e+003
6.256417e+002, 4.940893e+003
6.261238e+002, 4.937109e+003
6.266059e+002, 4.932854e+003
6.270880e+002, 4.928261e+003
6.275701e+002, 4.922886e+003
6.280522e+002, 4.916421e+003
6.285344e+002, 4.912553e+003
6.290165e+002, 4.912158e+003
6.294986e+002, 4.914599e+003
6.299807e+002, 4.921288e+003
6.304628e+002, 4.930789e+003
6.309449e+002, 4.935404e+003
6.314271e+002, 4.926053e+003
6.319092e+002, 4.913240e+003
6.323913e+002, 4.909210e+003
6.328734e+002, 4.912656e+003
6.333555e+002, 4.915362e+003
6.338376e+002, 4.910917e+003
6.343198e+002, 4.906143e+003
6.348019e+002, 4.906008e+003
6.352840e+002, 4.912451e+003
6.357661e+002, 4.915508e+003
6.362482e+002, 4.910138e+003
6.367303e+002, 4.904455e+003
6.372125e+002, 4.904667e+003
6.376946e+002, 4.914402e+003
6.381767e+002, 4.919404e+003
6.386588e+002, 4.918236e+003
6.391409e+002, 4.913949e+003
6.396230e+002, 4.910256e+003
6.401052e+002, 4.907197e+003
6.405873e+002, 4.905319e+003
6.410694e+002, 4.905186e+003
6.415515e+002, 4.905679e+003
6.420336e+002, 4.905421e+003
6.425157e+002, 4.904427e+003
6.429979e+002, 4.902696e+003
6.434800e+002, 4.898249e+003
6.439621e+002, 4.894681e+003
6.444442e+002, 4.895266e+003
6.449263e+002, 4.899343e+003
6.454084e+002, 4.902984e+003
6.458906e+002, 4.904936e+003
6.463727e+002, 4.906156e+003
6.468548e+002, 4.907210e+003
6.473369e+002, 4.908290e+003
6.478190e+002, 4.908077e+003
6.483011e+002, 4.906382e+003
6.487833e+002, 4.903693e+003
6.492654e+002, 4.899570e+003
6.497475e+002, 4.893591e+003
6.502296e+002, 4.891179e+003
6.507117e+002, 4.892911e+003
6.511938e+002, 4.897021e+003
6.516760e+002, 4.902948e+003
6.521581e+002, 4.909606e+003
6.526402e+002, 4.912956e+003
6.531223e+002, 4.910265e+003
6.536044e+002, 4.907442e+003
6.540865e+002, 4.911681e+003
6.545687e+002, 4.919374e+003
6.550508e+002, 4.923624e+003
6.555329e+002, 4.918566e+003
6.560150e+002, 4.913029e+003
6.564971e+002, 4.909884e+003
6.569792e+002, 4.908959e+003
6.574614e+002, 4.908930e+003
6.579435e+002, 4.909765e+003
6.584256e+002, 4.911448e+003
6.589077e+002, 4.914734e+003
6.593898e+002, 4.919420e+003
6.598719e+002, 4.920571e+003
6.603541e+002, 4.917904e+003
6.608362e+002, 4.913017e+003
6.613183e+002, 4.904422e+003
6.618004e+002, 4.894226e+003
6.622825e+002, 4.892013e+003
6.627646e+002, 4.898768e+003
6.632468e+002, 4.905440e+003
6.637289e+002, 4.902422e+003
6.642110e+002, 4.895188e+003
6.646931e+002, 4.891330e+003
6.651752e+002, 4.894329e+003
6.656573e+002, 4.896076e+003
6.661395e+002, 4.890017e+003
6.666216e+002, 4.881939e+003
6.671037e+002, 4.878945e+003
6.675858e+002, 4.889458e+003
6.680679e+002, 4.895469e+003
6.685500e+002, 4.893118e+003
6.690322e+002, 4.886581e+003
6.695143e+002, 4.886071e+003
6.699964e+002, 4.893519e+003
6.704785e+002, 4.897029e+003
6.709606e+002, 4.891063e+003
6.714427e+002, 4.879976e+003
6.719249e+002, 4.876415e+003
6.724070e+002, 4.879583e+003
6.728891e+002, 4.883443e+003
6.733712e+002, 4.884470e+003
6.738533e+002, 4.884221e+003
6.743354e+002, 4.884871e+003
6.748176e+002, 4.886271e+003
6.752997e+002, 4.886206e+003
6.757818e+002, 4.880505e+003
6.762639e+002, 4.875356e+003
6.767460e+002, 4.875313e+003
6.772281e+002, 4.882782e+003
6.777103e+002, 4.887765e+003
6.781924e+002, 4.888335e+003
6.786745e+002, 4.887917e+003
6.791566e+002, 4.889306e+003
6.796387e+002, 4.893260e+003
6.801208e+002, 4.895144e+003
6.806030e+002, 4.894336e+003
6.810851e+002, 4.892402e+003
6.815672e+002, 4.890789e+003
6.820493e+002, 4.889602e+003
6.825314e+002, 4.889417e+003
6.830135e+002, 4.890523e+003
6.834957e+002, 4.892229e+003
6.839778e+002, 4.894367e+003
6.844599e+002, 4.896506e+003
6.849420e+002, 4.897779e+003
6.854241e+002, 4.898248e+003
6.859063e+002, 4.897450e+003
6.863884e+002, 4.893844e+003
6.868705e+002, 4.888678e+003
6.873526e+002, 4.886227e+003
6.878347e+002, 4.887963e+003
6.883168e+002, 4.890710e+003
6.887990e+002, 4.894247e+003
6.892811e+002, 4.898274e+003
6.897632e+002, 4.900445e+003
6.902453e+002, 4.900819e+003
6.907274e+002, 4.899179e+003
6.912095e+002, 4.893048e+003
6.916917e+002, 4.884964e+003
6.921738e+002, 4.883875e+003
6.926559e+002, 4.889536e+003
6.931380e+002, 4.894523e+003
6.936201e+002, 4.891161e+003
6.941022e+002, 4.885718e+003
6.945844e+002, 4.884915e+003
6.950665e+002, 4.890427e+003
6.955486e+002, 4.894580e+003
6.960307e+002, 4.893630e+003
6.965128e+002, 4.890889e+003
6.969949e+002, 4.888928e+003
6.974771e+002, 4.887964e+003
6.979592e+002, 4.887614e+003
6.984413e+002, 4.888364e+003
6.989234e+002, 4.889228e+003
6.994055e+002, 4.889494e+003
6.998876e+002, 4.889266e+003
7.003698e+002, 4.886220e+003
7.008519e+002, 4.879198e+003
7.013340e+002, 4.871688e+003
7.018161e+002, 4.868730e+003
7.022982e+002, 4.869247e+003
7.027803e+002, 4.870468e+003
7.032625e+002, 4.871697e+003
7.037446e+002, 4.872967e+003
7.042267e+002, 4.875116e+003
7.047088e+002, 4.877263e+003
7.051909e+002, 4.877432e+003
7.056730e+002, 4.869025e+003
7.061552e+002, 4.865459e+003
7.066373e+002, 4.872403e+003
7.071194e+002, 4.886917e+003
7.076015e+002, 4.895469e+003
7.080836e+002, 4.896515e+003
7.085657e+002, 4.895651e+003
7.090479e+002, 4.894549e+003
7.095300e+002, 4.893348e+003
7.100121e+002, 4.892978e+003
7.104942e+002, 4.893365e+003
7.109763e+002, 4.893685e+003
7.114584e+002, 4.893687e+003
7.119406e+002, 4.893127e+003
7.124227e+002, 4.891322e+003
7.129048e+002, 4.888325e+003
7.133869e+002, 4.885930e+003
7.138690e+002, 4.888042e+003
7.143511e+002, 4.888944e+003
7.148333e+002, 4.883987e+003
7.153154e+002, 4.869623e+003
7.157975e+002, 4.859958e+003
7.162796e+002, 4.856252e+003
7.167617e+002, 4.855901e+003
7.172438e+002, 4.857333e+003
7.177260e+002, 4.860749e+003
7.182081e+002, 4.864906e+003
7.186902e+002, 4.870242e+003
7.191723e+002, 4.874305e+003
7.196544e+002, 4.873157e+003
7.201365e+002, 4.868462e+003
7.206187e+002, 4.864003e+003
7.211008e+002, 4.859966e+003
7.215829e+002, 4.858071e+003
7.220650e+002, 4.860884e+003
7.225471e+002, 4.866079e+003
7.230292e+002, 4.870624e+003
7.235114e+002, 4.872835e+003
7.239935e+002, 4.875067e+003
7.244756e+002, 4.877418e+003
7.249577e+002, 4.879989e+003
7.254398e+002, 4.883213e+003
7.259219e+002, 4.887456e+003
7.264041e+002, 4.890939e+003
7.268862e+002, 4.893084e+003
7.273683e+002, 4.894396e+003
7.278504e+002, 4.895874e+003
7.283325e+002, 4.897525e+003
7.288146e+002, 4.899540e+003
7.292968e+002, 4.903735e+003
7.297789e+002, 4.906819e+003
7.302610e+002, 4.903182e+003
7.307431e+002, 4.894929e+003
7.312252e+002, 4.889042e+003
7.317073e+002, 4.890742e+003
7.321895e+002, 4.893314e+003
7.326716e+002, 4.893797e+003
7.331537e+002, 4.892287e+003
7.336358e+002, 4.891780e+003
7.341179e+002, 4.893322e+003
7.346000e+002, 4.894203e+003
7.350822e+002, 4.893464e+003
7.355643e+002, 4.891173e+003
7.360464e+002, 4.886505e+003
7.365285e+002, 4.879260e+003
7.370106e+002, 4.874218e+003
7.374927e+002, 4.877928e+003
7.379749e+002, 4.884955e+003
7.384570e+002, 4.884896e+003
7.389391e+002, 4.877463e+003
7.394212e+002, 4.870706e+003
7.399033e+002, 4.869582e+003
7.403854e+002, 4.870725e+003
7.408676e+002, 4.871963e+003
7.413497e+002, 4.873133e+003
7.418318e+002, 4.873812e+003
7.423139e+002, 4.873813e+003
7.427960e+002, 4.873468e+003
7.432781e+002, 4.872915e+003
7.437603e+002, 4.872095e+003
7.442424e+002, 4.871300e+003
7.447245e+002, 4.870347e+003
7.452066e+002, 4.870390e+003
7.456887e+002, 4.874251e+003
7.461708e+002, 4.880028e+003
7.466530e+002, 4.881984e+003
7.471351e+002, 4.878430e+003
7.476172e+002, 4.875077e+003
7.480993e+002, 4.876977e+003
7.485814e+002, 4.881065e+003
7.490635e+002, 4.883843e+003
7.495457e+002, 4.883302e+003
7.500278e+002, 4.883368e+003
7.505099e+002, 4.884273e+003
7.509920e+002, 4.886058e+003
7.514741e+002, 4.889149e+003
7.519562e+002, 4.894079e+003
7.524384e+002, 4.897268e+003
7.529205e+002, 4.897669e+003
7.534026e+002, 4.896992e+003
7.538847e+002, 4.897846e+003
7.543668e+002, 4.899933e+003
7.548489e+002, 4.902450e+003
7.553311e+002, 4.905781e+003
7.558132e+002, 4.908183e+003
7.562953e+002, 4.906564e+003
7.567774e+002, 4.903211e+003
7.572595e+002, 4.902174e+003
7.577416e+002, 4.908935e+003
7.582238e+002, 4.913274e+003
7.587059e+002, 4.910596e+003
7.591880e+002, 4.904687e+003
7.596701e+002, 4.903584e+003
7.601522e+002, 4.908816e+003
7.606343e+002, 4.914740e+003
7.611165e+002, 4.921712e+003
7.615986e+002, 4.926884e+003
7.620807e+002, 4.919671e+003
7.625628e+002, 4.902642e+003
7.630449e+002, 4.890755e+003
7.635270e+002, 4.895393e+003
7.640092e+002, 4.904297e+003
7.644913e+002, 4.904875e+003
7.649734e+002, 4.900004e+003
7.654555e+002, 4.898706e+003
7.659376e+002, 4.909201e+003
7.664197e+002, 4.918493e+003
7.669019e+002, 4.921489e+003
7.673840e+002, 4.919319e+003
7.678661e+002, 4.916817e+003
7.683482e+002, 4.913509e+003
7.688303e+002, 4.911150e+003
7.693124e+002, 4.910619e+003
7.697946e+002, 4.911510e+003
7.702767e+002, 4.912899e+003
7.707588e+002, 4.914651e+003
7.712409e+002, 4.915554e+003
7.717230e+002, 4.914430e+003
7.722051e+002, 4.912444e+003
7.726873e+002, 4.910422e+003
7.731694e+002, 4.908488e+003
7.736515e+002, 4.907180e+003
7.741336e+002, 4.907120e+003
7.746157e+002, 4.907354e+003
7.750978e+002, 4.907306e+003
7.755800e+002, 4.907036e+003
7.760621e+002, 4.908358e+003
7.765442e+002, 4.912357e+003
7.770263e+002, 4.914896e+003
7.775084e+002, 4.912237e+003
7.779905e+002, 4.906041e+003
7.784727e+002, 4.904470e+003
7.789548e+002, 4.907327e+003
7.794369e+002, 4.911589e+003
7.799190e+002, 4.916797e+003
7.804011e+002, 4.921159e+003
7.808832e+002, 4.922333e+003
7.813654e+002, 4.920181e+003
7.818475e+002, 4.918509e+003
7.823296e+002, 4.919096e+003
7.828117e+002, 4.919938e+003
7.832938e+002, 4.920259e+003
7.837759e+002, 4.920147e+003
7.842581e+002, 4.918461e+003
7.847402e+002, 4.914623e+003
7.852223e+002, 4.911313e+003
7.857044e+002, 4.911153e+003
7.861865e+002, 4.913209e+003
7.866686e+002, 4.913384e+003
7.871508e+002, 4.911628e+003
7.876329e+002, 4.909799e+003
7.881150e+002, 4.909184e+003
7.885971e+002, 4.909209e+003
7.890792e+002, 4.908899e+003
7.895613e+002, 4.907857e+003
7.900435e+002, 4.908946e+003
7.905256e+002, 4.913938e+003
7.910077e+002, 4.920182e+003
7.914898e+002, 4.926764e+003
7.919719e+002, 4.933915e+003
7.924540e+002, 4.938507e+003
7.929362e+002, 4.940074e+003
7.934183e+002, 4.940330e+003
7.939004e+002, 4.941452e+003
7.943825e+002, 4.942267e+003
7.948646e+002, 4.938225e+003
7.953467e+002, 4.928909e+003
7.958289e+002, 4.920987e+003
7.963110e+002, 4.920247e+003
7.967931e+002, 4.922535e+003
7.972752e+002, 4.924814e+003
7.977573e+002, 4.926939e+003
7.982394e+002, 4.928311e+003
7.987216e+002, 4.929130e+003
7.992037e+002, 4.929135e+003
7.996858e+002, 4.928089e+003
8.001679e+002, 4.925932e+003
8.006500e+002, 4.923306e+003
8.011321e+002, 4.920028e+003
8.016143e+002, 4.917347e+003
8.020964e+002, 4.916132e+003
8.025785e+002, 4.916367e+003
8.030606e+002, 4.918851e+003
8.035427e+002, 4.923861e+003
8.040248e+002, 4.927303e+003
8.045070e+002, 4.923542e+003
8.049891e+002, 4.919408e+003
8.054712e+002, 4.920919e+003
8.059533e+002, 4.931985e+003
8.064354e+002, 4.937570e+003
8.069175e+002, 4.934431e+003
8.073997e+002, 4.930346e+003
8.078818e+002, 4.931800e+003
8.083639e+002, 4.938591e+003
8.088460e+002, 4.942088e+003
8.093281e+002, 4.941821e+003
8.098102e+002, 4.940552e+003
8.102924e+002, 4.941228e+003
8.107745e+002, 4.942262e+003
8.112566e+002, 4.940491e+003
8.117387e+002, 4.935000e+003
8.122208e+002, 4.932514e+003
8.127029e+002, 4.938374e+003
8.131851e+002, 4.946414e+003
8.136672e+002, 4.952875e+003
8.141493e+002, 4.958178e+003
8.146314e+002, 4.959336e+003
8.151135e+002, 4.954869e+003
8.155956e+002, 4.949921e+003
8.160778e+002, 4.948082e+003
8.165599e+002, 4.949187e+003
8.170420e+002, 4.954144e+003
8.175241e+002, 4.963081e+003
8.180062e+002, 4.969829e+003
8.184883e+002, 4.967680e+003
8.189705e+002, 4.962113e+003
8.194526e+002, 4.957717e+003
8.199347e+002, 4.954828e+003
8.204168e+002, 4.954835e+003
8.208989e+002, 4.963132e+003
8.213810e+002, 4.969591e+003
8.218632e+002, 4.967669e+003
8.223453e+002, 4.955871e+003
8.228274e+002, 4.952503e+003
8.233095e+002, 4.959253e+003
8.237916e+002, 4.964985e+003
8.242737e+002, 4.958143e+003
8.247559e+002, 4.944837e+003
8.252380e+002, 4.936924e+003
8.257201e+002, 4.935208e+003
8.262022e+002, 4.936782e+003
8.266843e+002, 4.944126e+003
8.271664e+002, 4.950939e+003
8.276486e+002, 4.951940e+003
8.281307e+002, 4.945416e+003
8.286128e+002, 4.942681e+003
8.290949e+002, 4.945471e+003
8.295770e+002, 4.948986e+003
8.300591e+002, 4.950625e+003
8.305413e+002, 4.950511e+003
8.310234e+002, 4.950269e+003
8.315055e+002, 4.949871e+003
8.319876e+002, 4.949968e+003
8.324697e+002, 4.952937e+003
8.329518e+002, 4.955413e+003
8.334340e+002, 4.951772e+003
8.339161e+002, 4.942442e+003
8.343982e+002, 4.937245e+003
8.348803e+002, 4.944361e+003
8.353624e+002, 4.951730e+003
8.358445e+002, 4.953947e+003
8.363267e+002, 4.951256e+003
8.368088e+002, 4.949208e+003
8.372909e+002, 4.948119e+003
8.377730e+002, 4.946356e+003
8.382551e+002, 4.941995e+003
8.387372e+002, 4.936657e+003
8.392194e+002, 4.934329e+003
8.397015e+002, 4.934813e+003
8.401836e+002, 4.936896e+003
8.406657e+002, 4.941261e+003
8.411478e+002, 4.945744e+003
8.416299e+002, 4.949056e+003
8.421121e+002, 4.951187e+003
8.425942e+002, 4.952597e+003
8.430763e+002, 4.952308e+003
8.435584e+002, 4.953135e+003
8.440405e+002, 4.956552e+003
8.445226e+002, 4.961509e+003
8.450048e+002, 4.963471e+003
8.454869e+002, 4.962617e+003
8.459690e+002, 4.962209e+003
8.464511e+002, 4.964225e+003
8.469332e+002, 4.967217e+003
8.474153e+002, 4.969776e+003
8.478975e+002, 4.972081e+003
8.483796e+002, 4.974583e+003
8.488617e+002, 4.980238e+003
8.493438e+002, 4.982835e+003
8.498259e+002, 4.977666e+003
8.503080e+002, 4.969128e+003
8.507902e+002, 4.969842e+003
8.512723e+002, 4.981763e+003
8.517544e+002, 4.991234e+003
8.522365e+002, 4.993971e+003
8.527186e+002, 4.992909e+003
8.532007e+002, 4.991617e+003
8.536829e+002, 4.990745e+003
8.541650e+002, 4.992066e+003
8.546471e+002, 4.997436e+003
8.551292e+002, 5.003557e+003
8.556113e+002, 5.009970e+003
8.560934e+002, 5.015697e+003
8.565756e+002, 5.018913e+003
8.570577e+002, 5.017672e+003
8.575398e+002, 5.018064e+003
8.580219e+002, 5.021577e+003
8.585040e+002, 5.025653e+003
8.589861e+002, 5.025281e+003
8.594683e+002, 5.021417e+003
8.599504e+002, 5.019762e+003
8.604325e+002, 5.022505e+003
8.609146e+002, 5.024877e+003
8.613967e+002, 5.022007e+003
8.618788e+002, 5.016431e+003
8.623610e+002, 5.011097e+003
8.628431e+002, 5.005499e+003
8.633252e+002, 5.002669e+003
8.638073e+002, 5.005241e+003
8.642894e+002, 5.008162e+003
8.647715e+002, 5.006026e+003
8.652537e+002, 4.998603e+003
8.657358e+002, 4.992142e+003
8.662179e+002, 4.987110e+003
8.667000e+002, 4.983277e+003
8.671821e+002, 4.980050e+003
8.676642e+002, 4.978089e+003
8.681464e+002, 4.978907e+003
8.686285e+002, 4.983227e+003
8.691106e+002, 4.987156e+003
8.695927e+002, 4.989736e+003
8.700748e+002, 4.990939e+003
8.705569e+002, 4.990245e+003
8.710391e+002, 4.986930e+003
8.715212e+002, 4.985917e+003
8.720033e+002, 4.987108e+003
8.724854e+002, 4.990381e+003
8.729675e+002, 4.998527e+003
8.734496e+002, 5.007828e+003
8.739318e+002, 5.007345e+003
8.744139e+002, 4.997539e+003
8.748960e+002, 4.988720e+003
8.753781e+002, 4.987199e+003
8.758602e+002, 4.988343e+003
8.763423e+002, 4.990839e+003
8.768245e+002, 4.994397e+003
8.773066e+002, 4.993472e+003
8.777887e+002, 4.985304e+003
8.782708e+002, 4.979708e+003
8.787529e+002, 4.982626e+003
8.792350e+002, 4.990537e+003
8.797172e+002, 4.990129e+003
8.801993e+002, 4.982737e+003
8.806814e+002, 4.976297e+003
8.811635e+002, 4.975704e+003
8.816456e+002, 4.977202e+003
8.821277e+002, 4.977686e+003
8.826099e+002, 4.977911e+003
8.830920e+002, 4.980312e+003
8.835741e+002, 4.988198e+003
8.840562e+002, 4.993802e+003
8.845383e+002, 4.994927e+003
8.850204e+002, 4.993643e+003
8.855026e+002, 4.994181e+003
8.859847e+002, 4.996426e+003
8.864668e+002, 5.000651e+003
8.869489e+002, 5.008221e+003
8.874310e+002, 5.014624e+003
8.879131e+002, 5.014019e+003
8.883953e+002, 5.009235e+003
8.888774e+002, 5.004490e+003
8.893595e+002, 5.000334e+003
8.898416e+002, 4.997500e+003
8.903237e+002, 4.996871e+003
8.908058e+002, 4.997040e+003
8.912880e+002, 4.996686e+003
8.917701e+002, 4.995849e+003
8.922522e+002, 4.994149e+003
8.927343e+002, 4.991381e+003
8.932164e+002, 4.988829e+003
8.936985e+002, 4.987033e+003
8.941807e+002, 4.986625e+003
8.946628e+002, 4.989595e+003
8.951449e+002, 4.997052e+003
8.956270e+002, 5.001503e+003
8.961091e+002, 4.997912e+003
8.965912e+002, 4.992497e+003
8.970734e+002, 4.989152e+003
8.975555e+002, 4.988229e+003
8.980376e+002, 4.985022e+003
8.985197e+002, 4.978845e+003
8.990018e+002, 4.975157e+003
8.994839e+002, 4.980962e+003
8.999661e+002, 4.990702e+003
9.004482e+002, 4.993392e+003
9.009303e+002, 4.989779e+003
9.014124e+002, 4.985854e+003
9.018945e+002, 4.982272e+003
9.023766e+002, 4.981232e+003
9.028588e+002, 4.986091e+003
9.033409e+002, 4.994769e+003
9.038230e+002, 4.997339e+003
9.043051e+002, 4.991507e+003
9.047872e+002, 4.988633e+003
9.052693e+002, 4.993933e+003
9.057515e+002, 5.002405e+003
9.062336e+002, 5.002831e+003
9.067157e+002, 4.997818e+003
9.071978e+002, 4.995044e+003
9.076799e+002, 4.999176e+003
9.081620e+002, 5.004315e+003
9.086442e+002, 5.009693e+003
9.091263e+002, 5.013784e+003
9.096084e+002, 5.013962e+003
9.100905e+002, 5.008326e+003
9.105726e+002, 5.003817e+003
9.110547e+002, 5.000550e+003
9.115369e+002, 4.999817e+003
9.120190e+002, 5.005129e+003
9.125011e+002, 5.014268e+003
9.129832e+002, 5.021367e+003
9.134653e+002, 5.025649e+003
9.139474e+002, 5.026302e+003
9.144296e+002, 5.018548e+003
9.149117e+002, 5.009745e+003
9.153938e+002, 5.006725e+003
9.158759e+002, 5.011594e+003
9.163580e+002, 5.014354e+003
9.168401e+002, 5.014438e+003
9.173223e+002, 5.013599e+003
9.178044e+002, 5.012344e+003
9.182865e+002, 5.011146e+003
9.187686e+002, 5.012583e+003
9.192507e+002, 5.016312e+003
9.197328e+002, 5.018902e+003
9.202150e+002, 5.017569e+003
9.206971e+002, 5.015107e+003
9.211792e+002, 5.012493e+003
9.216613e+002, 5.010173e+003
9.221434e+002, 5.010119e+003
9.226255e+002, 5.012901e+003
9.231077e+002, 5.017000e+003
9.235898e+002, 5.022913e+003
9.240719e+002, 5.028867e+003
9.245540e+002, 5.030029e+003
9.250361e+002, 5.027407e+003
9.255182e+002, 5.025210e+003
9.260004e+002, 5.025077e+003
9.264825e+002, 5.025432e+003
9.269646e+002, 5.025063e+003
9.274467e+002, 5.024498e+003
9.279288e+002, 5.024728e+003
9.284109e+002, 5.027226e+003
9.288931e+002, 5.027307e+003
9.293752e+002, 5.024238e+003
9.298573e+002, 5.019787e+003
9.303394e+002, 5.015571e+003
9.308215e+002, 5.011688e+003
9.313036e+002, 5.007837e+003
9.317858e+002, 5.003922e+003
9.322679e+002, 5.002104e+003
9.327500e+002, 5.006420e+003
9.332321e+002, 5.011675e+003
9.337142e+002, 5.014182e+003
9.341964e+002, 5.013479e+003
9.346785e+002, 5.010787e+003
9.351606e+002, 5.005220e+003
9.356427e+002, 5.000024e+003
9.361248e+002, 4.996331e+003
9.366069e+002, 4.994500e+003
9.370891e+002, 4.996843e+003
9.375712e+002, 5.002623e+003
9.380533e+002, 5.008120e+003
9.385354e+002, 5.010834e+003
9.390175e+002, 5.013024e+003
9.394996e+002, 5.016700e+003
9.399818e+002, 5.020642e+003
9.404639e+002, 5.020899e+003
9.409460e+002, 5.014170e+003
9.414281e+002, 5.012636e+003
9.419102e+002, 5.020390e+003
9.423923e+002, 5.030319e+003
9.428745e+002, 5.029232e+003
9.433566e+002, 5.020841e+003
9.438387e+002, 5.015899e+003
9.443208e+002, 5.017374e+003
9.448029e+002, 5.021396e+003
9.452850e+002, 5.027665e+003
9.457672e+002, 5.034394e+003
9.462493e+002, 5.040472e+003
9.467314e+002, 5.047108e+003
9.472135e+002, 5.047569e+003
9.476956e+002, 5.040129e+003
9.481777e+002, 5.032609e+003
9.486599e+002, 5.031536e+003
9.491420e+002, 5.034880e+003
9.496241e+002, 5.038942e+003
9.501062e+002, 5.043244e+003
9.505883e+002, 5.045389e+003
9.510704e+002, 5.041264e+003
9.515526e+002, 5.037330e+003
9.520347e+002, 5.037271e+003
9.525168e+002, 5.040158e+003
9.529989e+002, 5.042679e+003
9.534810e+002, 5.044725e+003
9.539631e+002, 5.046971e+003
9.544453e+002, 5.049953e+003
9.549274e+002, 5.052611e+003
9.554095e+002, 5.053191e+003
9.558916e+002, 5.052130e+003
9.563737e+002, 5.050158e+003
9.568558e+002, 5.046231e+003
9.573380e+002, 5.043967e+003
9.578201e+002, 5.047891e+003
9.583022e+002, 5.051869e+003
9.587843e+002, 5.048990e+003
9.592664e+002, 5.036810e+003
9.597485e+002, 5.032389e+003
9.602307e+002, 5.036837e+003
9.607128e+002, 5.044501e+003
9.611949e+002, 5.051958e+003
9.616770e+002, 5.058719e+003
9.621591e+002, 5.063540e+003
9.626412e+002, 5.066510e+003
9.631234e+002, 5.069860e+003
9.636055e+002, 5.073307e+003
9.640876e+002, 5.078555e+003
9.645697e+002, 5.087258e+003
9.650518e+002, 5.097973e+003
9.655339e+002, 5.104740e+003
9.660161e+002, 5.107519e+003
9.664982e+002, 5.108045e+003
9.669803e+002, 5.105055e+003
9.674624e+002, 5.103189e+003
9.679445e+002, 5.109169e+003
9.684266e+002, 5.119520e+003
9.689088e+002, 5.128393e+003
9.693909e+002, 5.134407e+003
9.698730e+002, 5.138417e+003
9.703551e+002, 5.139112e+003
9.708372e+002, 5.139878e+003
9.713193e+002, 5.144433e+003
9.718015e+002, 5.152511e+003
9.722836e+002, 5.161315e+003
9.727657e+002, 5.170624e+003
9.732478e+002, 5.181845e+003
9.737299e+002, 5.195509e+003
9.742120e+002, 5.212214e+003
9.746942e+002, 5.232039e+003
9.751763e+002, 5.255169e+003
9.756584e+002, 5.283585e+003
9.761405e+002, 5.317751e+003
9.766226e+002, 5.356583e+003
9.771047e+002, 5.400251e+003
9.775869e+002, 5.447845e+003
9.780690e+002, 5.495546e+003
9.785511e+002, 5.543686e+003
9.790332e+002, 5.595026e+003
9.795153e+002, 5.651606e+003
9.799974e+002, 5.710997e+003
9.804796e+002, 5.772649e+003
9.809617e+002, 5.836125e+003
9.814438e+002, 5.899701e+003
9.819259e+002, 5.960634e+003
9.824080e+002, 6.032549e+003
9.828901e+002, 6.117153e+003
9.833723e+002, 6.210204e+003
9.838544e+002, 6.306310e+003
9.843365e+002, 6.408313e+003
9.848186e+002, 6.524128e+003
9.853007e+002, 6.654522e+003
9.857828e+002, 6.784804e+003
9.862650e+002, 6.923241e+003
9.867471e+002, 7.046219e+003
9.872292e+002, 7.152005e+003
9.877113e+002, 7.235668e+003
9.881934e+002, 7.274501e+003
9.886755e+002, 7.268804e+003
9.891577e+002, 7.206009e+003
9.896398e+002, 7.070936e+003
9.901219e+002, 6.894968e+003
9.906040e+002, 6.696932e+003
9.910861e+002, 6.489764e+003
9.915682e+002, 6.295119e+003
9.920504e+002, 6.110656e+003
9.925325e+002, 5.953831e+003
9.930146e+002, 5.827059e+003
9.934967e+002, 5.724026e+003
9.939788e+002, 5.639256e+003
9.944609e+002, 5.571578e+003
9.949431e+002, 5.511003e+003
9.954252e+002, 5.456834e+003
9.959073e+002, 5.409452e+003
9.963894e+002, 5.369728e+003
9.968715e+002, 5.335705e+003
9.973536e+002, 5.305610e+003
9.978358e+002, 5.279866e+003
9.983179e+002, 5.258422e+003
9.988000e+002, 5.240950e+003
9.992821e+002, 5.228988e+003
9.997642e+002, 5.224740e+003
1.000246e+003, 5.223455e+003
1.000728e+003, 5.214885e+003
1.001211e+003, 5.201603e+003
1.001693e+003, 5.190798e+003
1.002175e+003, 5.186526e+003
1.002657e+003, 5.180784e+003
1.003139e+003, 5.165382e+003
1.003621e+003, 5.150481e+003
1.004103e+003, 5.146628e+003
1.004585e+003, 5.157122e+003
1.005068e+003, 5.157820e+003
1.005550e+003, 5.147583e+003
1.006032e+003, 5.138308e+003
1.006514e+003, 5.140810e+003
1.006996e+003, 5.148130e+003
1.007478e+003, 5.152444e+003
1.007960e+003, 5.153615e+003
1.008442e+003, 5.153300e+003
1.008924e+003, 5.150819e+003
1.009407e+003, 5.148203e+003
1.009889e+003, 5.145937e+003
1.010371e+003, 5.143609e+003
1.010853e+003, 5.140133e+003
1.011335e+003, 5.135720e+003
1.011817e+003, 5.132026e+003
1.012299e+003, 5.129687e+003
1.012781e+003, 5.127369e+003
1.013263e+003, 5.123094e+003
1.013746e+003, 5.119152e+003
1.014228e+003, 5.118151e+003
1.014710e+003, 5.121017e+003
1.015192e+003, 5.123341e+003
1.015674e+003, 5.125282e+003
1.016156e+003, 5.126365e+003
1.016638e+003, 5.125654e+003
1.017120e+003, 5.124156e+003
1.017603e+003, 5.124229e+003
1.018085e+003, 5.125419e+003
1.018567e+003, 5.126276e+003
1.019049e+003, 5.125166e+003
1.019531e+003, 5.124506e+003
1.020013e+003, 5.124603e+003
1.020495e+003, 5.125486e+003
1.020977e+003, 5.127471e+003
1.021459e+003, 5.130497e+003
1.021942e+003, 5.133755e+003
1.022424e+003, 5.137282e+003
1.022906e+003, 5.139728e+003
1.023388e+003, 5.140161e+003
1.023870e+003, 5.138818e+003
1.024352e+003, 5.135465e+003
1.024834e+003, 5.130013e+003
1.025316e+003, 5.125462e+003
1.025799e+003, 5.121589e+003
1.026281e+003, 5.119857e+003
1.026763e+003, 5.121288e+003
1.027245e+003, 5.125063e+003
1.027727e+003, 5.130441e+003
1.028209e+003, 5.136454e+003
1.028691e+003, 5.139560e+003
1.029173e+003, 5.136365e+003
1.029656e+003, 5.133187e+003
1.030138e+003, 5.132062e+003
1.030620e+003, 5.132961e+003
1.031102e+003, 5.136466e+003
1.031584e+003, 5.143740e+003
1.032066e+003, 5.145885e+003
1.032548e+003, 5.142221e+003
1.033030e+003, 5.137615e+003
1.033512e+003, 5.133432e+003
1.033995e+003, 5.132290e+003
1.034477e+003, 5.140898e+003
1.034959e+003, 5.157002e+003
1.035441e+003, 5.165765e+003
1.035923e+003, 5.156916e+003
1.036405e+003, 5.150999e+003
1.036887e+003, 5.153106e+003
1.037369e+003, 5.159023e+003
1.037851e+003, 5.161396e+003
1.038334e+003, 5.160500e+003
1.038816e+003, 5.156794e+003
1.039298e+003, 5.149597e+003
1.039780e+003, 5.143407e+003
1.040262e+003, 5.140932e+003
1.040744e+003, 5.140708e+003
1.041226e+003, 5.141987e+003
1.041708e+003, 5.144879e+003
1.042191e+003, 5.146646e+003
1.042673e+003, 5.147263e+003
1.043155e+003, 5.147374e+003
1.043637e+003, 5.147206e+003
1.044119e+003, 5.146862e+003
1.044601e+003, 5.145400e+003
1.045083e+003, 5.143961e+003
1.045565e+003, 5.145182e+003
1.046047e+003, 5.155076e+003
1.046530e+003, 5.159516e+003
1.047012e+003, 5.154608e+003
1.047494e+003, 5.147978e+003
1.047976e+003, 5.148672e+003
1.048458e+003, 5.155229e+003
1.048940e+003, 5.161554e+003
1.049422e+003, 5.167087e+003
1.049904e+003, 5.169502e+003
1.050386e+003, 5.163881e+003
1.050869e+003, 5.157900e+003
1.051351e+003, 5.156148e+003
1.051833e+003, 5.158003e+003
1.052315e+003, 5.161368e+003
1.052797e+003, 5.166479e+003
1.053279e+003, 5.171339e+003
1.053761e+003, 5.175864e+003
1.054243e+003, 5.178873e+003
1.054726e+003, 5.176612e+003
1.055208e+003, 5.172894e+003
1.055690e+003, 5.173415e+003
1.056172e+003, 5.180964e+003
1.056654e+003, 5.187873e+003
1.057136e+003, 5.194920e+003
1.057618e+003, 5.198679e+003
1.058100e+003, 5.195358e+003
1.058583e+003, 5.187416e+003
1.059065e+003, 5.184416e+003
1.059547e+003, 5.185708e+003
1.060029e+003, 5.188268e+003
1.060511e+003, 5.191831e+003
1.060993e+003, 5.194831e+003
1.061475e+003, 5.195643e+003
1.061957e+003, 5.196022e+003
1.062439e+003, 5.198236e+003
1.062922e+003, 5.202346e+003
1.063404e+003, 5.209239e+003
1.063886e+003, 5.219578e+003
1.064368e+003, 5.226763e+003
1.064850e+003, 5.222615e+003
1.065332e+003, 5.214113e+003
1.065814e+003, 5.206850e+003
1.066296e+003, 5.201515e+003
1.066778e+003, 5.200405e+003
1.067261e+003, 5.206471e+003
1.067743e+003, 5.209630e+003
1.068225e+003, 5.206030e+003
1.068707e+003, 5.200242e+003
1.069189e+003, 5.202658e+003
1.069671e+003, 5.209287e+003
1.070153e+003, 5.209853e+003
1.070635e+003, 5.199603e+003
1.071118e+003, 5.191701e+003
1.071600e+003, 5.195345e+003
1.072082e+003, 5.199351e+003
1.072564e+003, 5.196821e+003
1.073046e+003, 5.188545e+003
1.073528e+003, 5.183505e+003
1.074010e+003, 5.181641e+003
1.074492e+003, 5.180588e+003
1.074974e+003, 5.180125e+003
1.075457e+003, 5.179006e+003
1.075939e+003, 5.173318e+003
1.076421e+003, 5.167415e+003
1.076903e+003, 5.169680e+003
1.077385e+003, 5.185447e+003
1.077867e+003, 5.192716e+003
1.078349e+003, 5.189016e+003
1.078831e+003, 5.182896e+003
1.079313e+003, 5.182256e+003
1.079796e+003, 5.184143e+003
1.080278e+003, 5.184096e+003
1.080760e+003, 5.182132e+003
1.081242e+003, 5.180484e+003
1.081724e+003, 5.179548e+003
1.082206e+003, 5.179485e+003
1.082688e+003, 5.180871e+003
1.083170e+003, 5.182545e+003
1.083652e+003, 5.181410e+003
1.084135e+003, 5.178650e+003
1.084617e+003, 5.179319e+003
1.085099e+003, 5.184922e+003
1.085581e+003, 5.189934e+003
1.086063e+003, 5.190709e+003
1.086545e+003, 5.190239e+003
1.087027e+003, 5.190372e+003
1.087509e+003, 5.191081e+003
1.087992e+003, 5.191750e+003
1.088474e+003, 5.192389e+003
1.088956e+003, 5.192942e+003
1.089438e+003, 5.193220e+003
1.089920e+003, 5.193676e+003
1.090402e+003, 5.195383e+003
1.090884e+003, 5.197267e+003
1.091366e+003, 5.197584e+003
1.091849e+003, 5.194391e+003
1.092331e+003, 5.194622e+003
1.092813e+003, 5.198976e+003
1.093295e+003, 5.204383e+003
1.093777e+003, 5.208874e+003
1.094259e+003, 5.212705e+003
1.094741e+003, 5.216221e+003
1.095223e+003, 5.219520e+003
1.095705e+003, 5.223015e+003
1.096188e+003, 5.226899e+003
1.096670e+003, 5.230831e+003
1.097152e+003, 5.235359e+003
1.097634e+003, 5.238965e+003
1.098116e+003, 5.238610e+003
1.098598e+003, 5.235444e+003
1.099080e+003, 5.235210e+003
1.099562e+003, 5.238400e+003
1.100044e+003, 5.242325e+003
1.100527e+003, 5.247936e+003
1.101009e+003, 5.251252e+003
1.101491e+003, 5.249196e+003
1.101973e+003, 5.243521e+003
1.102455e+003, 5.239128e+003
1.102937e+003, 5.236071e+003
1.103419e+003, 5.233776e+003
1.103901e+003, 5.232209e+003
1.104384e+003, 5.231277e+003
1.104866e+003, 5.232408e+003
1.105348e+003, 5.233202e+003
1.105830e+003, 5.230377e+003
1.106312e+003, 5.222907e+003
1.106794e+003, 5.219268e+003
1.107276e+003, 5.220339e+003
1.107758e+003, 5.221479e+003
1.108240e+003, 5.219791e+003
1.108723e+003, 5.217834e+003
1.109205e+003, 5.220621e+003
1.109687e+003, 5.225940e+003
1.110169e+003, 5.229537e+003
1.110651e+003, 5.228924e+003
1.111133e+003, 5.228869e+003
1.111615e+003, 5.230011e+003
1.112097e+003, 5.231170e+003
1.112579e+003, 5.231320e+003
1.113062e+003, 5.230719e+003
1.113544e+003, 5.230485e+003
1.114026e+003, 5.230456e+003
1.114508e+003, 5.229867e+003
1.114990e+003, 5.228222e+003
1.115472e+003, 5.226065e+003
1.115954e+003, 5.222634e+003
1.116436e+003, 5.219693e+003
1.116919e+003, 5.220416e+003
1.117401e+003, 5.224455e+003
1.117883e+003, 5.225828e+003
1.118365e+003, 5.224062e+003
1.118847e+003, 5.222052e+003
1.119329e+003, 5.222157e+003
1.119811e+003, 5.222511e+003
1.120293e+003, 5.222010e+003
1.120776e+003, 5.220702e+003
1.121258e+003, 5.218115e+003
1.121740e+003, 5.213718e+003
1.122222e+003, 5.213726e+003
1.122704e+003, 5.220572e+003
1.123186e+003, 5.226738e+003
1.123668e+003, 5.221870e+003
1.124150e+003, 5.213882e+003
1.124632e+003, 5.212111e+003
1.125115e+003, 5.218418e+003
1.125597e+003, 5.219410e+003
1.126079e+003, 5.213076e+003
1.126561e+003, 5.207780e+003
1.127043e+003, 5.207260e+003
1.127525e+003, 5.208689e+003
1.128007e+003, 5.208514e+003
1.128489e+003, 5.206686e+003
1.128971e+003, 5.202658e+003
1.129454e+003, 5.194730e+003
1.129936e+003, 5.189609e+003
1.130418e+003, 5.189367e+003
1.130900e+003, 5.189289e+003
1.131382e+003, 5.185500e+003
1.131864e+003, 5.180139e+003
1.132346e+003, 5.179843e+003
1.132828e+003, 5.183567e+003
1.133311e+003, 5.187884e+003
1.133793e+003, 5.191246e+003
1.134275e+003, 5.194952e+003
1.134757e+003, 5.199486e+003
1.135239e+003, 5.204049e+003
1.135721e+003, 5.208073e+003
1.136203e+003, 5.211375e+003
1.136685e+003, 5.212583e+003
1.137167e+003, 5.211931e+003
1.137650e+003, 5.212896e+003
1.138132e+003, 5.221212e+003
1.138614e+003, 5.227620e+003
1.139096e+003, 5.226214e+003
1.139578e+003, 5.220646e+003
1.140060e+003, 5.215582e+003
1.140542e+003, 5.210997e+003
1.141024e+003, 5.211417e+003
1.141506e+003, 5.217703e+003
1.141989e+003, 5.223355e+003
1.142471e+003, 5.223333e+003
1.142953e+003, 5.220756e+003
1.143435e+003, 5.216663e+003
1.143917e+003, 5.212035e+003
1.144399e+003, 5.210200e+003
1.144881e+003, 5.211259e+003
1.145363e+003, 5.215081e+003
1.145846e+003, 5.222153e+003
1.146328e+003, 5.229222e+003
1.146810e+003, 5.231675e+003
1.147292e+003, 5.232665e+003
1.147774e+003, 5.235978e+003
1.148256e+003, 5.242223e+003
1.148738e+003, 5.246041e+003
1.149220e+003, 5.246699e+003
1.149703e+003, 5.246832e+003
1.150185e+003, 5.246597e+003
1.150667e+003, 5.247729e+003
1.151149e+003, 5.253762e+003
1.151631e+003, 5.262597e+003
1.152113e+003, 5.271029e+003
1.152595e+003, 5.278351e+003
1.153077e+003, 5.285529e+003
1.153559e+003, 5.293061e+003
1.154042e+003, 5.299740e+003
1.154524e+003, 5.305479e+003
1.155006e+003, 5.309562e+003
1.155488e+003, 5.308786e+003
1.155970e+003, 5.305194e+003
1.156452e+003, 5.303666e+003
1.156934e+003, 5.305443e+003
1.157416e+003, 5.310529e+003
1.157898e+003, 5.320331e+003
1.158381e+003, 5.330664e+003
1.158863e+003, 5.338543e+003
1.159345e+003, 5.344383e+003
1.159827e+003, 5.350268e+003
1.160309e+003, 5.355612e+003
1.160791e+003, 5.357944e+003
1.161273e+003, 5.353427e+003
1.161755e+003, 5.349124e+003
1.162238e+003, 5.346833e+003
1.162720e+003, 5.345289e+003
1.163202e+003, 5.342840e+003
1.163684e+003, 5.339804e+003
1.164166e+003, 5.339517e+003
1.164648e+003, 5.341551e+003
1.165130e+003, 5.340873e+003
1.165612e+003, 5.332872e+003
1.166094e+003, 5.323425e+003
1.166577e+003, 5.314386e+003
1.167059e+003, 5.305986e+003
1.167541e+003, 5.298421e+003
1.168023e+003, 5.291799e+003
1.168505e+003, 5.288922e+003
1.168987e+003, 5.290146e+003
1.169469e+003, 5.288756e+003
1.169951e+003, 5.274726e+003
1.170433e+003, 5.262011e+003
1.170916e+003, 5.260361e+003
1.171398e+003, 5.266028e+003
1.171880e+003, 5.270091e+003
1.172362e+003, 5.272585e+003
1.172844e+003, 5.277599e+003
1.173326e+003, 5.286307e+003
1.173808e+003, 5.293735e+003
1.174290e+003, 5.295283e+003
1.174773e+003, 5.294088e+003
1.175255e+003, 5.290564e+003
1.175737e+003, 5.286044e+003
1.176219e+003, 5.288728e+003
1.176701e+003, 5.299123e+003
1.177183e+003, 5.306167e+003
1.177665e+003, 5.306154e+003
1.178147e+003, 5.304824e+003
1.178630e+003, 5.307330e+003
1.179112e+003, 5.311529e+003
1.179594e+003, 5.315158e+003
1.180076e+003, 5.318116e+003
1.180558e+003, 5.323275e+003
1.181040e+003, 5.330747e+003
1.181522e+003, 5.340679e+003
1.182004e+003, 5.354979e+003
1.182486e+003, 5.367790e+003
1.182969e+003, 5.369205e+003
1.183451e+003, 5.367379e+003
1.183933e+003, 5.372967e+003
1.184415e+003, 5.388283e+003
1.184897e+003, 5.401098e+003
1.185379e+003, 5.410880e+003
1.185861e+003, 5.421967e+003
1.186343e+003, 5.437903e+003
1.186825e+003, 5.454226e+003
1.187308e+003, 5.467073e+003
1.187790e+003, 5.476131e+003
1.188272e+003, 5.480227e+003
1.188754e+003, 5.477869e+003
1.189236e+003, 5.474423e+003
1.189718e+003, 5.469388e+003
1.190200e+003, 5.466279e+003
1.190682e+003, 5.471209e+003
1.191165e+003, 5.476286e+003
1.191647e+003, 5.469328e+003
1.192129e+003, 5.455286e+003
1.192611e+003, 5.444173e+003
1.193093e+003, 5.441669e+003
1.193575e+003, 5.433149e+003
1.194057e+003, 5.417184e+003
1.194539e+003, 5.400201e+003
1.195021e+003, 5.386416e+003
1.195504e+003, 5.374964e+003
1.195986e+003, 5.365204e+003
1.196468e+003, 5.356680e+003
1.196950e+003, 5.348443e+003
1.197432e+003, 5.340343e+003
1.197914e+003, 5.332015e+003
1.198396e+003, 5.323280e+003
1.198878e+003, 5.314636e+003
1.199360e+003, 5.305274e+003
1.199843e+003, 5.297205e+003
1.200325e+003, 5.295868e+003
1.200807e+003, 5.299058e+003
1.201289e+003, 5.296994e+003
1.201771e+003, 5.285337e+003
1.202253e+003, 5.274389e+003
1.202735e+003, 5.264446e+003
1.203217e+003, 5.258535e+003
1.203700e+003, 5.264083e+003
1.204182e+003, 5.273468e+003
1.204664e+003, 5.274468e+003
1.205146e+003, 5.267827e+003
1.205628e+003, 5.264171e+003
1.206110e+003, 5.265828e+003
1.206592e+003, 5.268740e+003
1.207074e+003, 5.272688e+003
1.207557e+003, 5.276092e+003
1.208039e+003, 5.275845e+003
1.208521e+003, 5.274341e+003
1.209003e+003, 5.275991e+003
1.209485e+003, 5.280742e+003
1.209967e+003, 5.281899e+003
1.210449e+003, 5.276182e+003
1.210931e+003, 5.273222e+003
1.211413e+003, 5.275729e+003
1.211896e+003, 5.279908e+003
1.212378e+003, 5.281745e+003
1.212860e+003, 5.281479e+003
1.213342e+003, 5.279022e+003
1.213824e+003, 5.274426e+003
1.214306e+003, 5.269817e+003
1.214788e+003, 5.265970e+003
1.215270e+003, 5.260767e+003
1.215752e+003, 5.253018e+003
1.216235e+003, 5.245482e+003
1.216717e+003, 5.241667e+003
1.217199e+003, 5.240821e+003
1.217681e+003, 5.242650e+003
1.218163e+003, 5.247429e+003
1.218645e+003, 5.250070e+003
1.219127e+003, 5.250391e+003
1.219609e+003, 5.247977e+003
1.220092e+003, 5.241382e+003
1.220574e+003, 5.234927e+003
1.221056e+003, 5.235877e+003
1.221538e+003, 5.240657e+003
1.222020e+003, 5.244369e+003
1.222502e+003, 5.246029e+003
1.222984e+003, 5.246961e+003
1.223466e+003, 5.246773e+003
1.223948e+003, 5.247070e+003
1.224431e+003, 5.248388e+003
1.224913e+003, 5.250405e+003
1.225395e+003, 5.253312e+003
1.225877e+003, 5.256294e+003
1.226359e+003, 5.258267e+003
1.226841e+003, 5.258872e+003
1.227323e+003, 5.258942e+003
1.227805e+003, 5.258264e+003
1.228287e+003, 5.258134e+003
1.228770e+003, 5.259731e+003
1.229252e+003, 5.260972e+003
1.229734e+003, 5.256416e+003
1.230216e+003, 5.250997e+003
1.230698e+003, 5.253265e+003
1.231180e+003, 5.267826e+003
1.231662e+003, 5.269498e+003
1.232144e+003, 5.255837e+003
1.232627e+003, 5.243808e+003
1.233109e+003, 5.242424e+003
1.233591e+003, 5.244321e+003
1.234073e+003, 5.241240e+003
1.234555e+003, 5.235706e+003
1.235037e+003, 5.230539e+003
1.235519e+003, 5.225515e+003
1.236001e+003, 5.225847e+003
1.236484e+003, 5.232406e+003
1.236966e+003, 5.237128e+003
1.237448e+003, 5.235047e+003
1.237930e+003, 5.230786e+003
1.238412e+003, 5.226014e+003
1.238894e+003, 5.223406e+003
1.239376e+003, 5.227639e+003
1.239858e+003, 5.239673e+003
1.240340e+003, 5.249943e+003
1.240823e+003, 5.258252e+003
1.241305e+003, 5.263072e+003
1.241787e+003, 5.261794e+003
1.242269e+003, 5.258831e+003
1.242751e+003, 5.257377e+003
1.243233e+003, 5.256596e+003
1.243715e+003, 5.255063e+003
1.244197e+003, 5.252325e+003
1.244679e+003, 5.253309e+003
1.245162e+003, 5.257987e+003
1.245644e+003, 5.263835e+003
1.246126e+003, 5.271882e+003
1.246608e+003, 5.277744e+003
1.247090e+003, 5.277159e+003
1.247572e+003, 5.273826e+003
1.248054e+003, 5.272606e+003
1.248536e+003, 5.273788e+003
1.249019e+003, 5.270557e+003
1.249501e+003, 5.263563e+003
1.249983e+003, 5.258884e+003
1.250465e+003, 5.262124e+003
1.250947e+003, 5.265807e+003
1.251429e+003, 5.265430e+003
1.251911e+003, 5.264128e+003
1.252393e+003, 5.264854e+003
1.252875e+003, 5.267377e+003
1.253358e+003, 5.268709e+003
1.253840e+003, 5.269044e+003
1.254322e+003, 5.270330e+003
1.254804e+003, 5.276685e+003
1.255286e+003, 5.279778e+003
1.255768e+003, 5.273471e+003
1.256250e+003, 5.266100e+003
1.256732e+003, 5.265024e+003
1.257214e+003, 5.269211e+003
1.257697e+003, 5.273131e+003
1.258179e+003, 5.276587e+003
1.258661e+003, 5.278529e+003
1.259143e+003, 5.276659e+003
1.259625e+003, 5.276252e+003
1.260107e+003, 5.279083e+003
1.260589e+003, 5.282480e+003
1.261071e+003, 5.283725e+003
1.261554e+003, 5.283823e+003
1.262036e+003, 5.287534e+003
1.262518e+003, 5.293026e+003
1.263000e+003, 5.294225e+003
1.263482e+003, 5.281407e+003
1.263964e+003, 5.276067e+003
1.264446e+003, 5.282277e+003
1.264928e+003, 5.290318e+003
1.265411e+003, 5.291245e+003
1.265893e+003, 5.288778e+003
1.266375e+003, 5.291397e+003
1.266857e+003, 5.296685e+003
1.267339e+003, 5.297769e+003
1.267821e+003, 5.286637e+003
1.268303e+003, 5.284068e+003
1.268785e+003, 5.292753e+003
1.269267e+003, 5.301947e+003
1.269750e+003, 5.301773e+003
1.270232e+003, 5.298292e+003
1.270714e+003, 5.300562e+003
1.271196e+003, 5.305516e+003
1.271678e+003, 5.305102e+003
1.272160e+003, 5.295381e+003
1.272642e+003, 5.291194e+003
1.273124e+003, 5.293216e+003
1.273606e+003, 5.297425e+003
1.274089e+003, 5.302559e+003
1.274571e+003, 5.306838e+003
1.275053e+003, 5.307500e+003
1.275535e+003, 5.306538e+003
1.276017e+003, 5.307935e+003
1.276499e+003, 5.312500e+003
1.276981e+003, 5.314108e+003
1.277463e+003, 5.312697e+003
1.277946e+003, 5.310292e+003
1.278428e+003, 5.307834e+003
1.278910e+003, 5.305413e+003
1.279392e+003, 5.302372e+003
1.279874e+003, 5.300145e+003
1.280356e+003, 5.301380e+003
1.280838e+003, 5.305940e+003
1.281320e+003, 5.303944e+003
1.281802e+003, 5.296338e+003
1.282285e+003, 5.292071e+003
1.282767e+003, 5.299613e+003
1.283249e+003, 5.306684e+003
1.283731e+003, 5.309038e+003
1.284213e+003, 5.308813e+003
1.284695e+003, 5.306245e+003
1.285177e+003, 5.302463e+003
1.285659e+003, 5.304014e+003
1.286141e+003, 5.309705e+003
1.286624e+003, 5.314589e+003
1.287106e+003, 5.315589e+003
1.287588e+003, 5.317157e+003
1.288070e+003, 5.320847e+003
1.288552e+003, 5.323279e+003
1.289034e+003, 5.320065e+003
1.289516e+003, 5.314291e+003
1.289998e+003, 5.313092e+003
1.290481e+003, 5.315164e+003
1.290963e+003, 5.317067e+003
1.291445e+003, 5.318077e+003
1.291927e+003, 5.318211e+003
1.292409e+003, 5.317033e+003
1.292891e+003, 5.316751e+003
1.293373e+003, 5.321076e+003
1.293855e+003, 5.325500e+003
1.294338e+003, 5.321916e+003
1.294820e+003, 5.314913e+003
1.295302e+003, 5.313969e+003
1.295784e+003, 5.321951e+003
1.296266e+003, 5.326102e+003
1.296748e+003, 5.326355e+003
1.297230e+003, 5.323783e+003
1.297712e+003, 5.314788e+003
1.298194e+003, 5.308100e+003
1.298677e+003, 5.313846e+003
1.299159e+003, 5.323665e+003
1.299641e+003, 5.326663e+003
1.300123e+003, 5.322555e+003
1.300605e+003, 5.320213e+003
1.301087e+003, 5.319283e+003
1.301569e+003, 5.316825e+003
1.302051e+003, 5.309944e+003
1.302533e+003, 5.302262e+003
1.303016e+003, 5.294756e+003
##END=



