##NAMES=Charoite
##RRUFFID=R060376
##IDEAL CHEMISTRY=(K,Sr,Ba,Mn^2+^)_15-16_(Ca,Na)_32_Si_70_(O,OH)_180_(OH,F)_4_&#183;nH_2_O
##LOCALITY=Chara River area, Murun Massif, northwest Aldan, Siberia, U.S.S.R.
##OWNER=RRUFF
##SOURCE=Michael Scott
##DESCRIPTION=Purple flaky and massive associated with tan colored tinaksite, R060375
##STATUS=The identification of this mineral is not yet confirmed.
##URL=rruff.info/R060376
9.001007e+001, 0.000000e+000
9.049219e+001, 2.876459e+001
9.097430e+001, 2.882677e+001
9.145642e+001, 2.881578e+001
9.193854e+001, 2.873703e+001
9.242065e+001, 2.863571e+001
9.290277e+001, 2.863386e+001
9.338489e+001, 2.864360e+001
9.386700e+001, 2.844900e+001
9.434912e+001, 2.783798e+001
9.483124e+001, 2.701755e+001
9.531335e+001, 2.642334e+001
9.579547e+001, 2.606767e+001
9.627759e+001, 2.583924e+001
9.675970e+001, 2.561018e+001
9.724182e+001, 2.538561e+001
9.772394e+001, 2.521939e+001
9.820605e+001, 2.514147e+001
9.868817e+001, 2.514773e+001
9.917029e+001, 2.521375e+001
9.965240e+001, 2.537805e+001
1.001345e+002, 2.553899e+001
1.006166e+002, 2.549234e+001
1.010988e+002, 2.521276e+001
1.015809e+002, 2.483311e+001
1.020630e+002, 2.436357e+001
1.025451e+002, 2.373734e+001
1.030272e+002, 2.335395e+001
1.035093e+002, 2.331400e+001
1.039915e+002, 2.352638e+001
1.044736e+002, 2.359703e+001
1.049557e+002, 2.345311e+001
1.054378e+002, 2.327161e+001
1.059199e+002, 2.318749e+001
1.064020e+002, 2.331266e+001
1.068842e+002, 2.332705e+001
1.073663e+002, 2.318734e+001
1.078484e+002, 2.289424e+001
1.083305e+002, 2.250525e+001
1.088126e+002, 2.183751e+001
1.092947e+002, 2.118066e+001
1.097769e+002, 2.080089e+001
1.102590e+002, 2.089573e+001
1.107411e+002, 2.106893e+001
1.112232e+002, 2.131627e+001
1.117053e+002, 2.170413e+001
1.121874e+002, 2.187064e+001
1.126696e+002, 2.158490e+001
1.131517e+002, 2.111481e+001
1.136338e+002, 2.080755e+001
1.141159e+002, 2.110332e+001
1.145980e+002, 2.125267e+001
1.150801e+002, 2.087418e+001
1.155623e+002, 1.955301e+001
1.160444e+002, 1.861489e+001
1.165265e+002, 1.867562e+001
1.170086e+002, 1.936960e+001
1.174907e+002, 1.993619e+001
1.179728e+002, 1.995288e+001
1.184550e+002, 1.985373e+001
1.189371e+002, 1.995773e+001
1.194192e+002, 2.061665e+001
1.199013e+002, 2.104804e+001
1.203834e+002, 2.049823e+001
1.208655e+002, 1.925184e+001
1.213477e+002, 1.841977e+001
1.218298e+002, 1.904673e+001
1.223119e+002, 2.025989e+001
1.227940e+002, 2.112795e+001
1.232761e+002, 2.112706e+001
1.237582e+002, 2.089475e+001
1.242404e+002, 2.105163e+001
1.247225e+002, 2.155737e+001
1.252046e+002, 2.191437e+001
1.256867e+002, 2.152072e+001
1.261688e+002, 2.072064e+001
1.266509e+002, 2.014125e+001
1.271331e+002, 2.006726e+001
1.276152e+002, 2.033990e+001
1.280973e+002, 2.086349e+001
1.285794e+002, 2.166907e+001
1.290615e+002, 2.234908e+001
1.295436e+002, 2.242536e+001
1.300258e+002, 2.198338e+001
1.305079e+002, 2.140437e+001
1.309900e+002, 2.062566e+001
1.314721e+002, 1.982385e+001
1.319542e+002, 1.961588e+001
1.324363e+002, 2.012602e+001
1.329185e+002, 2.090294e+001
1.334006e+002, 2.130339e+001
1.338827e+002, 2.132881e+001
1.343648e+002, 2.122222e+001
1.348469e+002, 2.107513e+001
1.353290e+002, 2.089164e+001
1.358112e+002, 2.069497e+001
1.362933e+002, 2.042423e+001
1.367754e+002, 2.021905e+001
1.372575e+002, 2.051113e+001
1.377396e+002, 2.142081e+001
1.382217e+002, 2.229539e+001
1.387039e+002, 2.272410e+001
1.391860e+002, 2.265808e+001
1.396681e+002, 2.245560e+001
1.401502e+002, 2.204505e+001
1.406323e+002, 2.154374e+001
1.411144e+002, 2.156058e+001
1.415966e+002, 2.239615e+001
1.420787e+002, 2.317541e+001
1.425608e+002, 2.308054e+001
1.430429e+002, 2.161036e+001
1.435250e+002, 2.070401e+001
1.440071e+002, 2.081993e+001
1.444893e+002, 2.190690e+001
1.449714e+002, 2.268529e+001
1.454535e+002, 2.301414e+001
1.459356e+002, 2.316568e+001
1.464177e+002, 2.339318e+001
1.468998e+002, 2.382580e+001
1.473820e+002, 2.414152e+001
1.478641e+002, 2.433057e+001
1.483462e+002, 2.442265e+001
1.488283e+002, 2.414581e+001
1.493104e+002, 2.308319e+001
1.497925e+002, 2.184594e+001
1.502747e+002, 2.112209e+001
1.507568e+002, 2.099968e+001
1.512389e+002, 2.131345e+001
1.517210e+002, 2.223019e+001
1.522031e+002, 2.415136e+001
1.526852e+002, 2.538320e+001
1.531674e+002, 2.535688e+001
1.536495e+002, 2.475305e+001
1.541316e+002, 2.455892e+001
1.546137e+002, 2.519479e+001
1.550958e+002, 2.595258e+001
1.555779e+002, 2.659156e+001
1.560601e+002, 2.696636e+001
1.565422e+002, 2.751790e+001
1.570243e+002, 2.829779e+001
1.575064e+002, 2.929373e+001
1.579885e+002, 3.048183e+001
1.584706e+002, 3.191604e+001
1.589528e+002, 3.349812e+001
1.594349e+002, 3.517626e+001
1.599170e+002, 3.689870e+001
1.603991e+002, 3.879498e+001
1.608812e+002, 4.082296e+001
1.613633e+002, 4.304112e+001
1.618455e+002, 4.560291e+001
1.623276e+002, 4.834612e+001
1.628097e+002, 5.156323e+001
1.632918e+002, 5.556242e+001
1.637739e+002, 6.094044e+001
1.642560e+002, 6.633907e+001
1.647382e+002, 7.073875e+001
1.652203e+002, 7.452459e+001
1.657024e+002, 7.917009e+001
1.661845e+002, 8.604904e+001
1.666666e+002, 9.383298e+001
1.671487e+002, 1.012395e+002
1.676309e+002, 1.075584e+002
1.681130e+002, 1.138935e+002
1.685951e+002, 1.210850e+002
1.690772e+002, 1.289919e+002
1.695593e+002, 1.365721e+002
1.700414e+002, 1.428922e+002
1.705236e+002, 1.486556e+002
1.710057e+002, 1.546289e+002
1.714878e+002, 1.615016e+002
1.719699e+002, 1.684361e+002
1.724520e+002, 1.746756e+002
1.729341e+002, 1.802722e+002
1.734163e+002, 1.855091e+002
1.738984e+002, 1.903491e+002
1.743805e+002, 1.950344e+002
1.748626e+002, 1.998149e+002
1.753447e+002, 2.048735e+002
1.758268e+002, 2.101183e+002
1.763090e+002, 2.155591e+002
1.767911e+002, 2.211516e+002
1.772732e+002, 2.266643e+002
1.777553e+002, 2.305699e+002
1.782374e+002, 2.331365e+002
1.787195e+002, 2.360643e+002
1.792017e+002, 2.401942e+002
1.796838e+002, 2.450977e+002
1.801659e+002, 2.500671e+002
1.806480e+002, 2.551356e+002
1.811301e+002, 2.603659e+002
1.816122e+002, 2.658056e+002
1.820944e+002, 2.715230e+002
1.825765e+002, 2.776086e+002
1.830586e+002, 2.843979e+002
1.835407e+002, 2.915395e+002
1.840228e+002, 2.986303e+002
1.845049e+002, 3.055993e+002
1.849871e+002, 3.125484e+002
1.854692e+002, 3.197388e+002
1.859513e+002, 3.270905e+002
1.864334e+002, 3.337460e+002
1.869155e+002, 3.389735e+002
1.873976e+002, 3.431962e+002
1.878798e+002, 3.479433e+002
1.883619e+002, 3.533143e+002
1.888440e+002, 3.589478e+002
1.893261e+002, 3.644337e+002
1.898082e+002, 3.697962e+002
1.902903e+002, 3.746605e+002
1.907725e+002, 3.787653e+002
1.912546e+002, 3.822321e+002
1.917367e+002, 3.853098e+002
1.922188e+002, 3.879238e+002
1.927009e+002, 3.904247e+002
1.931830e+002, 3.933743e+002
1.936652e+002, 3.967595e+002
1.941473e+002, 4.002141e+002
1.946294e+002, 4.035673e+002
1.951115e+002, 4.068141e+002
1.955936e+002, 4.098438e+002
1.960757e+002, 4.125826e+002
1.965579e+002, 4.152181e+002
1.970400e+002, 4.181173e+002
1.975221e+002, 4.212953e+002
1.980042e+002, 4.245484e+002
1.984863e+002, 4.278027e+002
1.989684e+002, 4.310449e+002
1.994506e+002, 4.344051e+002
1.999327e+002, 4.379535e+002
2.004148e+002, 4.415047e+002
2.008969e+002, 4.445412e+002
2.013790e+002, 4.470178e+002
2.018611e+002, 4.494072e+002
2.023433e+002, 4.519750e+002
2.028254e+002, 4.547324e+002
2.033075e+002, 4.575406e+002
2.037896e+002, 4.603104e+002
2.042717e+002, 4.631561e+002
2.047538e+002, 4.664549e+002
2.052360e+002, 4.703524e+002
2.057181e+002, 4.741376e+002
2.062002e+002, 4.771647e+002
2.066823e+002, 4.791899e+002
2.071644e+002, 4.820888e+002
2.076465e+002, 4.863613e+002
2.081287e+002, 4.913873e+002
2.086108e+002, 4.954938e+002
2.090929e+002, 4.986151e+002
2.095750e+002, 5.010115e+002
2.100571e+002, 5.027147e+002
2.105392e+002, 5.036201e+002
2.110214e+002, 5.043790e+002
2.115035e+002, 5.050149e+002
2.119856e+002, 5.055606e+002
2.124677e+002, 5.061703e+002
2.129498e+002, 5.069323e+002
2.134319e+002, 5.075969e+002
2.139140e+002, 5.080597e+002
2.143962e+002, 5.083727e+002
2.148783e+002, 5.082925e+002
2.153604e+002, 5.075997e+002
2.158425e+002, 5.065304e+002
2.163246e+002, 5.061046e+002
2.168067e+002, 5.065517e+002
2.172889e+002, 5.071792e+002
2.177710e+002, 5.074665e+002
2.182531e+002, 5.070800e+002
2.187352e+002, 5.073380e+002
2.192173e+002, 5.084583e+002
2.196994e+002, 5.103071e+002
2.201816e+002, 5.122859e+002
2.206637e+002, 5.146467e+002
2.211458e+002, 5.167347e+002
2.216279e+002, 5.179391e+002
2.221100e+002, 5.176136e+002
2.225921e+002, 5.181832e+002
2.230743e+002, 5.202043e+002
2.235564e+002, 5.232854e+002
2.240385e+002, 5.257124e+002
2.245206e+002, 5.273668e+002
2.250027e+002, 5.285071e+002
2.254848e+002, 5.291650e+002
2.259670e+002, 5.289475e+002
2.264491e+002, 5.292320e+002
2.269312e+002, 5.302507e+002
2.274133e+002, 5.318688e+002
2.278954e+002, 5.334886e+002
2.283775e+002, 5.350533e+002
2.288597e+002, 5.366646e+002
2.293418e+002, 5.383705e+002
2.298239e+002, 5.402010e+002
2.303060e+002, 5.420484e+002
2.307881e+002, 5.439542e+002
2.312702e+002, 5.458660e+002
2.317524e+002, 5.474553e+002
2.322345e+002, 5.485298e+002
2.327166e+002, 5.494990e+002
2.331987e+002, 5.506317e+002
2.336808e+002, 5.522018e+002
2.341629e+002, 5.532509e+002
2.346451e+002, 5.533996e+002
2.351272e+002, 5.529508e+002
2.356093e+002, 5.532963e+002
2.360914e+002, 5.548248e+002
2.365735e+002, 5.566114e+002
2.370556e+002, 5.581007e+002
2.375378e+002, 5.589378e+002
2.380199e+002, 5.602996e+002
2.385020e+002, 5.624677e+002
2.389841e+002, 5.652354e+002
2.394662e+002, 5.677055e+002
2.399483e+002, 5.700382e+002
2.404305e+002, 5.718974e+002
2.409126e+002, 5.729381e+002
2.413947e+002, 5.722185e+002
2.418768e+002, 5.728605e+002
2.423589e+002, 5.756250e+002
2.428410e+002, 5.798043e+002
2.433232e+002, 5.828737e+002
2.438053e+002, 5.841257e+002
2.442874e+002, 5.852130e+002
2.447695e+002, 5.870612e+002
2.452516e+002, 5.904574e+002
2.457337e+002, 5.928679e+002
2.462159e+002, 5.942299e+002
2.466980e+002, 5.945364e+002
2.471801e+002, 5.936497e+002
2.476622e+002, 5.908799e+002
2.481443e+002, 5.879242e+002
2.486264e+002, 5.856451e+002
2.491086e+002, 5.844130e+002
2.495907e+002, 5.828547e+002
2.500728e+002, 5.805038e+002
2.505549e+002, 5.779437e+002
2.510370e+002, 5.768787e+002
2.515191e+002, 5.782372e+002
2.520013e+002, 5.796404e+002
2.524834e+002, 5.800186e+002
2.529655e+002, 5.789564e+002
2.534476e+002, 5.779784e+002
2.539297e+002, 5.771190e+002
2.544118e+002, 5.763406e+002
2.548940e+002, 5.755203e+002
2.553761e+002, 5.745909e+002
2.558582e+002, 5.737289e+002
2.563403e+002, 5.729753e+002
2.568224e+002, 5.722573e+002
2.573046e+002, 5.719094e+002
2.577867e+002, 5.721789e+002
2.582688e+002, 5.726456e+002
2.587509e+002, 5.723840e+002
2.592330e+002, 5.709164e+002
2.597151e+002, 5.696818e+002
2.601973e+002, 5.692959e+002
2.606794e+002, 5.699810e+002
2.611615e+002, 5.705521e+002
2.616436e+002, 5.710233e+002
2.621257e+002, 5.713701e+002
2.626078e+002, 5.715219e+002
2.630900e+002, 5.714141e+002
2.635721e+002, 5.712946e+002
2.640542e+002, 5.712155e+002
2.645363e+002, 5.711559e+002
2.650184e+002, 5.714012e+002
2.655005e+002, 5.720983e+002
2.659827e+002, 5.729567e+002
2.664648e+002, 5.735113e+002
2.669469e+002, 5.735966e+002
2.674290e+002, 5.738776e+002
2.679111e+002, 5.747386e+002
2.683932e+002, 5.762530e+002
2.688754e+002, 5.768852e+002
2.693575e+002, 5.763445e+002
2.698396e+002, 5.753463e+002
2.703217e+002, 5.747651e+002
2.708038e+002, 5.746442e+002
2.712859e+002, 5.747148e+002
2.717681e+002, 5.748701e+002
2.722502e+002, 5.751085e+002
2.727323e+002, 5.757903e+002
2.732144e+002, 5.771271e+002
2.736965e+002, 5.784442e+002
2.741786e+002, 5.788956e+002
2.746608e+002, 5.783011e+002
2.751429e+002, 5.778183e+002
2.756250e+002, 5.776070e+002
2.761071e+002, 5.777138e+002
2.765892e+002, 5.787869e+002
2.770714e+002, 5.811866e+002
2.775535e+002, 5.834783e+002
2.780356e+002, 5.839824e+002
2.785177e+002, 5.824628e+002
2.789998e+002, 5.816118e+002
2.794819e+002, 5.821530e+002
2.799641e+002, 5.837391e+002
2.804462e+002, 5.848970e+002
2.809283e+002, 5.855973e+002
2.814104e+002, 5.859973e+002
2.818925e+002, 5.860130e+002
2.823746e+002, 5.856335e+002
2.828568e+002, 5.859241e+002
2.833389e+002, 5.873911e+002
2.838210e+002, 5.893990e+002
2.843031e+002, 5.899548e+002
2.847852e+002, 5.889175e+002
2.852673e+002, 5.877715e+002
2.857495e+002, 5.876077e+002
2.862316e+002, 5.883660e+002
2.867137e+002, 5.891520e+002
2.871958e+002, 5.898459e+002
2.876779e+002, 5.905399e+002
2.881600e+002, 5.913700e+002
2.886422e+002, 5.923328e+002
2.891243e+002, 5.935253e+002
2.896064e+002, 5.951900e+002
2.900885e+002, 5.971877e+002
2.905706e+002, 5.986899e+002
2.910527e+002, 5.995214e+002
2.915349e+002, 6.000394e+002
2.920170e+002, 6.007486e+002
2.924991e+002, 6.016285e+002
2.929812e+002, 6.026324e+002
2.934633e+002, 6.039745e+002
2.939454e+002, 6.054322e+002
2.944276e+002, 6.061080e+002
2.949097e+002, 6.058000e+002
2.953918e+002, 6.053806e+002
2.958739e+002, 6.062371e+002
2.963560e+002, 6.080731e+002
2.968381e+002, 6.095120e+002
2.973203e+002, 6.093664e+002
2.978024e+002, 6.084650e+002
2.982845e+002, 6.086622e+002
2.987666e+002, 6.100832e+002
2.992487e+002, 6.117270e+002
2.997308e+002, 6.125057e+002
3.002130e+002, 6.126910e+002
3.006951e+002, 6.130533e+002
3.011772e+002, 6.140668e+002
3.016593e+002, 6.153467e+002
3.021414e+002, 6.163895e+002
3.026235e+002, 6.171862e+002
3.031057e+002, 6.178204e+002
3.035878e+002, 6.183095e+002
3.040699e+002, 6.186837e+002
3.045520e+002, 6.189757e+002
3.050341e+002, 6.190534e+002
3.055162e+002, 6.191893e+002
3.059984e+002, 6.197354e+002
3.064805e+002, 6.206425e+002
3.069626e+002, 6.216038e+002
3.074447e+002, 6.223817e+002
3.079268e+002, 6.230925e+002
3.084089e+002, 6.239142e+002
3.088911e+002, 6.250818e+002
3.093732e+002, 6.260839e+002
3.098553e+002, 6.262297e+002
3.103374e+002, 6.257899e+002
3.108195e+002, 6.256819e+002
3.113016e+002, 6.266933e+002
3.117838e+002, 6.281270e+002
3.122659e+002, 6.293951e+002
3.127480e+002, 6.303778e+002
3.132301e+002, 6.311724e+002
3.137122e+002, 6.316337e+002
3.141943e+002, 6.319548e+002
3.146765e+002, 6.325357e+002
3.151586e+002, 6.340123e+002
3.156407e+002, 6.354849e+002
3.161228e+002, 6.363566e+002
3.166049e+002, 6.364413e+002
3.170870e+002, 6.363865e+002
3.175692e+002, 6.364350e+002
3.180513e+002, 6.365303e+002
3.185334e+002, 6.365927e+002
3.190155e+002, 6.368279e+002
3.194976e+002, 6.368300e+002
3.199797e+002, 6.360302e+002
3.204619e+002, 6.342490e+002
3.209440e+002, 6.335432e+002
3.214261e+002, 6.357112e+002
3.219082e+002, 6.387233e+002
3.223903e+002, 6.406488e+002
3.228724e+002, 6.400433e+002
3.233546e+002, 6.393392e+002
3.238367e+002, 6.391369e+002
3.243188e+002, 6.394346e+002
3.248009e+002, 6.397704e+002
3.252830e+002, 6.401364e+002
3.257651e+002, 6.404837e+002
3.262473e+002, 6.407836e+002
3.267294e+002, 6.409185e+002
3.272115e+002, 6.411667e+002
3.276936e+002, 6.416859e+002
3.281757e+002, 6.424035e+002
3.286578e+002, 6.429278e+002
3.291400e+002, 6.426877e+002
3.296221e+002, 6.427534e+002
3.301042e+002, 6.436395e+002
3.305863e+002, 6.462888e+002
3.310684e+002, 6.482042e+002
3.315505e+002, 6.490149e+002
3.320327e+002, 6.491403e+002
3.325148e+002, 6.494474e+002
3.329969e+002, 6.496033e+002
3.334790e+002, 6.503726e+002
3.339611e+002, 6.523722e+002
3.344432e+002, 6.563740e+002
3.349254e+002, 6.582484e+002
3.354075e+002, 6.568870e+002
3.358896e+002, 6.542794e+002
3.363717e+002, 6.531533e+002
3.368538e+002, 6.538803e+002
3.373359e+002, 6.552432e+002
3.378180e+002, 6.572295e+002
3.383001e+002, 6.598112e+002
3.387823e+002, 6.612785e+002
3.392644e+002, 6.613517e+002
3.397465e+002, 6.608712e+002
3.402286e+002, 6.606406e+002
3.407107e+002, 6.607390e+002
3.411928e+002, 6.606768e+002
3.416750e+002, 6.602281e+002
3.421571e+002, 6.596100e+002
3.426392e+002, 6.598596e+002
3.431213e+002, 6.611646e+002
3.436034e+002, 6.623868e+002
3.440855e+002, 6.624941e+002
3.445677e+002, 6.615490e+002
3.450498e+002, 6.611093e+002
3.455319e+002, 6.614395e+002
3.460140e+002, 6.622323e+002
3.464961e+002, 6.630416e+002
3.469782e+002, 6.638557e+002
3.474604e+002, 6.644379e+002
3.479425e+002, 6.644905e+002
3.484246e+002, 6.641736e+002
3.489067e+002, 6.640894e+002
3.493888e+002, 6.642982e+002
3.498709e+002, 6.645981e+002
3.503531e+002, 6.646110e+002
3.508352e+002, 6.644655e+002
3.513173e+002, 6.646416e+002
3.517994e+002, 6.656227e+002
3.522815e+002, 6.669569e+002
3.527636e+002, 6.678724e+002
3.532458e+002, 6.683623e+002
3.537279e+002, 6.687427e+002
3.542100e+002, 6.691669e+002
3.546921e+002, 6.696708e+002
3.551742e+002, 6.703640e+002
3.556563e+002, 6.716673e+002
3.561385e+002, 6.727559e+002
3.566206e+002, 6.724608e+002
3.571027e+002, 6.710779e+002
3.575848e+002, 6.701003e+002
3.580669e+002, 6.707003e+002
3.585490e+002, 6.719807e+002
3.590312e+002, 6.731243e+002
3.595133e+002, 6.740045e+002
3.599954e+002, 6.746929e+002
3.604775e+002, 6.751493e+002
3.609596e+002, 6.754587e+002
3.614417e+002, 6.757875e+002
3.619239e+002, 6.762253e+002
3.624060e+002, 6.767018e+002
3.628881e+002, 6.771944e+002
3.633702e+002, 6.777128e+002
3.638523e+002, 6.781999e+002
3.643344e+002, 6.783788e+002
3.648166e+002, 6.786080e+002
3.652987e+002, 6.793019e+002
3.657808e+002, 6.810389e+002
3.662629e+002, 6.827527e+002
3.667450e+002, 6.841882e+002
3.672271e+002, 6.853360e+002
3.677093e+002, 6.863227e+002
3.681914e+002, 6.870494e+002
3.686735e+002, 6.876803e+002
3.691556e+002, 6.883232e+002
3.696377e+002, 6.888875e+002
3.701198e+002, 6.895498e+002
3.706020e+002, 6.903152e+002
3.710841e+002, 6.911731e+002
3.715662e+002, 6.921394e+002
3.720483e+002, 6.935405e+002
3.725304e+002, 6.946230e+002
3.730125e+002, 6.949819e+002
3.734947e+002, 6.942175e+002
3.739768e+002, 6.938586e+002
3.744589e+002, 6.939980e+002
3.749410e+002, 6.944637e+002
3.754231e+002, 6.950626e+002
3.759052e+002, 6.959650e+002
3.763874e+002, 6.965485e+002
3.768695e+002, 6.964617e+002
3.773516e+002, 6.957452e+002
3.778337e+002, 6.957760e+002
3.783158e+002, 6.967564e+002
3.787979e+002, 6.979646e+002
3.792801e+002, 6.985880e+002
3.797622e+002, 6.985989e+002
3.802443e+002, 6.989224e+002
3.807264e+002, 6.998239e+002
3.812085e+002, 7.010870e+002
3.816906e+002, 7.021393e+002
3.821728e+002, 7.029666e+002
3.826549e+002, 7.037704e+002
3.831370e+002, 7.046503e+002
3.836191e+002, 7.055953e+002
3.841012e+002, 7.065770e+002
3.845833e+002, 7.076075e+002
3.850655e+002, 7.085948e+002
3.855476e+002, 7.092763e+002
3.860297e+002, 7.097655e+002
3.865118e+002, 7.104645e+002
3.869939e+002, 7.118599e+002
3.874760e+002, 7.134733e+002
3.879582e+002, 7.145128e+002
3.884403e+002, 7.149720e+002
3.889224e+002, 7.154732e+002
3.894045e+002, 7.168452e+002
3.898866e+002, 7.185010e+002
3.903687e+002, 7.195961e+002
3.908509e+002, 7.195197e+002
3.913330e+002, 7.191647e+002
3.918151e+002, 7.191067e+002
3.922972e+002, 7.193011e+002
3.927793e+002, 7.195420e+002
3.932614e+002, 7.197073e+002
3.937436e+002, 7.198928e+002
3.942257e+002, 7.201479e+002
3.947078e+002, 7.204269e+002
3.951899e+002, 7.208925e+002
3.956720e+002, 7.217841e+002
3.961541e+002, 7.228561e+002
3.966363e+002, 7.237186e+002
3.971184e+002, 7.236415e+002
3.976005e+002, 7.239212e+002
3.980826e+002, 7.253029e+002
3.985647e+002, 7.280387e+002
3.990468e+002, 7.299442e+002
3.995290e+002, 7.302840e+002
4.000111e+002, 7.300038e+002
4.004932e+002, 7.298482e+002
4.009753e+002, 7.295084e+002
4.014574e+002, 7.297415e+002
4.019395e+002, 7.308945e+002
4.024217e+002, 7.327360e+002
4.029038e+002, 7.340984e+002
4.033859e+002, 7.346020e+002
4.038680e+002, 7.351913e+002
4.043501e+002, 7.364277e+002
4.048322e+002, 7.386346e+002
4.053144e+002, 7.402471e+002
4.057965e+002, 7.409782e+002
4.062786e+002, 7.414329e+002
4.067607e+002, 7.427458e+002
4.072428e+002, 7.451514e+002
4.077249e+002, 7.470973e+002
4.082071e+002, 7.478017e+002
4.086892e+002, 7.475412e+002
4.091713e+002, 7.481125e+002
4.096534e+002, 7.495991e+002
4.101355e+002, 7.514389e+002
4.106176e+002, 7.531605e+002
4.110998e+002, 7.547933e+002
4.115819e+002, 7.565465e+002
4.120640e+002, 7.586066e+002
4.125461e+002, 7.605523e+002
4.130282e+002, 7.615716e+002
4.135103e+002, 7.617909e+002
4.139925e+002, 7.619933e+002
4.144746e+002, 7.628626e+002
4.149567e+002, 7.639337e+002
4.154388e+002, 7.644265e+002
4.159209e+002, 7.642462e+002
4.164030e+002, 7.638497e+002
4.168852e+002, 7.633633e+002
4.173673e+002, 7.629642e+002
4.178494e+002, 7.629338e+002
4.183315e+002, 7.636497e+002
4.188136e+002, 7.645588e+002
4.192957e+002, 7.653544e+002
4.197779e+002, 7.660507e+002
4.202600e+002, 7.667612e+002
4.207421e+002, 7.673165e+002
4.212242e+002, 7.680551e+002
4.217063e+002, 7.691362e+002
4.221884e+002, 7.702742e+002
4.226706e+002, 7.723893e+002
4.231527e+002, 7.769753e+002
4.236348e+002, 7.825637e+002
4.241169e+002, 7.864123e+002
4.245990e+002, 7.865435e+002
4.250811e+002, 7.864299e+002
4.255633e+002, 7.870706e+002
4.260454e+002, 7.885668e+002
4.265275e+002, 7.901065e+002
4.270096e+002, 7.916573e+002
4.274917e+002, 7.932667e+002
4.279738e+002, 7.949960e+002
4.284560e+002, 7.969412e+002
4.289381e+002, 7.987580e+002
4.294202e+002, 8.003638e+002
4.299023e+002, 8.017910e+002
4.303844e+002, 8.032197e+002
4.308665e+002, 8.046044e+002
4.313487e+002, 8.060964e+002
4.318308e+002, 8.079005e+002
4.323129e+002, 8.100509e+002
4.327950e+002, 8.116965e+002
4.332771e+002, 8.127275e+002
4.337592e+002, 8.135307e+002
4.342414e+002, 8.148220e+002
4.347235e+002, 8.165233e+002
4.352056e+002, 8.175717e+002
4.356877e+002, 8.173314e+002
4.361698e+002, 8.164521e+002
4.366519e+002, 8.162972e+002
4.371341e+002, 8.168497e+002
4.376162e+002, 8.176436e+002
4.380983e+002, 8.186739e+002
4.385804e+002, 8.196459e+002
4.390625e+002, 8.200163e+002
4.395446e+002, 8.196363e+002
4.400268e+002, 8.188555e+002
4.405089e+002, 8.174808e+002
4.409910e+002, 8.159422e+002
4.414731e+002, 8.151373e+002
4.419552e+002, 8.160077e+002
4.424373e+002, 8.172928e+002
4.429195e+002, 8.182140e+002
4.434016e+002, 8.187419e+002
4.438837e+002, 8.192529e+002
4.443658e+002, 8.197249e+002
4.448479e+002, 8.203241e+002
4.453300e+002, 8.211895e+002
4.458122e+002, 8.228447e+002
4.462943e+002, 8.241039e+002
4.467764e+002, 8.242747e+002
4.472585e+002, 8.238860e+002
4.477406e+002, 8.243014e+002
4.482227e+002, 8.267751e+002
4.487049e+002, 8.289071e+002
4.491870e+002, 8.299304e+002
4.496691e+002, 8.296264e+002
4.501512e+002, 8.294880e+002
4.506333e+002, 8.294127e+002
4.511154e+002, 8.296359e+002
4.515976e+002, 8.305410e+002
4.520797e+002, 8.324939e+002
4.525618e+002, 8.338899e+002
4.530439e+002, 8.343181e+002
4.535260e+002, 8.341348e+002
4.540081e+002, 8.344301e+002
4.544903e+002, 8.352465e+002
4.549724e+002, 8.363157e+002
4.554545e+002, 8.375857e+002
4.559366e+002, 8.390103e+002
4.564187e+002, 8.401771e+002
4.569008e+002, 8.409345e+002
4.573830e+002, 8.421072e+002
4.578651e+002, 8.451682e+002
4.583472e+002, 8.495124e+002
4.588293e+002, 8.529951e+002
4.593114e+002, 8.543948e+002
4.597935e+002, 8.551494e+002
4.602757e+002, 8.570127e+002
4.607578e+002, 8.598530e+002
4.612399e+002, 8.630638e+002
4.617220e+002, 8.668510e+002
4.622041e+002, 8.705157e+002
4.626862e+002, 8.734515e+002
4.631684e+002, 8.756353e+002
4.636505e+002, 8.768209e+002
4.641326e+002, 8.762790e+002
4.646147e+002, 8.748440e+002
4.650968e+002, 8.735778e+002
4.655789e+002, 8.734914e+002
4.660611e+002, 8.729716e+002
4.665432e+002, 8.714586e+002
4.670253e+002, 8.690164e+002
4.675074e+002, 8.663586e+002
4.679895e+002, 8.633564e+002
4.684716e+002, 8.603340e+002
4.689538e+002, 8.573580e+002
4.694359e+002, 8.539036e+002
4.699180e+002, 8.517703e+002
4.704001e+002, 8.515822e+002
4.708822e+002, 8.522469e+002
4.713643e+002, 8.520064e+002
4.718465e+002, 8.503605e+002
4.723286e+002, 8.492357e+002
4.728107e+002, 8.492081e+002
4.732928e+002, 8.501056e+002
4.737749e+002, 8.510778e+002
4.742570e+002, 8.521633e+002
4.747392e+002, 8.530600e+002
4.752213e+002, 8.533426e+002
4.757034e+002, 8.531432e+002
4.761855e+002, 8.534520e+002
4.766676e+002, 8.544791e+002
4.771497e+002, 8.556900e+002
4.776319e+002, 8.563292e+002
4.781140e+002, 8.565449e+002
4.785961e+002, 8.567949e+002
4.790782e+002, 8.574801e+002
4.795603e+002, 8.581861e+002
4.800424e+002, 8.582372e+002
4.805246e+002, 8.577343e+002
4.810067e+002, 8.574977e+002
4.814888e+002, 8.580241e+002
4.819709e+002, 8.590429e+002
4.824530e+002, 8.604156e+002
4.829352e+002, 8.623694e+002
4.834173e+002, 8.640121e+002
4.838994e+002, 8.648870e+002
4.843815e+002, 8.652435e+002
4.848636e+002, 8.654567e+002
4.853457e+002, 8.653401e+002
4.858279e+002, 8.653597e+002
4.863100e+002, 8.656697e+002
4.867921e+002, 8.662816e+002
4.872742e+002, 8.669470e+002
4.877563e+002, 8.678383e+002
4.882384e+002, 8.686445e+002
4.887206e+002, 8.691263e+002
4.892027e+002, 8.689880e+002
4.896848e+002, 8.694109e+002
4.901669e+002, 8.706451e+002
4.906490e+002, 8.722098e+002
4.911311e+002, 8.733167e+002
4.916133e+002, 8.738799e+002
4.920954e+002, 8.745084e+002
4.925775e+002, 8.753447e+002
4.930596e+002, 8.763922e+002
4.935417e+002, 8.777628e+002
4.940238e+002, 8.794451e+002
4.945060e+002, 8.811254e+002
4.949881e+002, 8.825649e+002
4.954702e+002, 8.837941e+002
4.959523e+002, 8.849533e+002
4.964344e+002, 8.860482e+002
4.969165e+002, 8.870273e+002
4.973987e+002, 8.876225e+002
4.978808e+002, 8.880853e+002
4.983629e+002, 8.888835e+002
4.988450e+002, 8.909329e+002
4.993271e+002, 8.927836e+002
4.998092e+002, 8.932297e+002
5.002914e+002, 8.925255e+002
5.007735e+002, 8.920209e+002
5.012556e+002, 8.925599e+002
5.017377e+002, 8.932430e+002
5.022198e+002, 8.934893e+002
5.027019e+002, 8.929565e+002
5.031841e+002, 8.927572e+002
5.036662e+002, 8.930732e+002
5.041483e+002, 8.937955e+002
5.046304e+002, 8.948610e+002
5.051125e+002, 8.970500e+002
5.055946e+002, 8.982476e+002
5.060768e+002, 8.976431e+002
5.065589e+002, 8.957410e+002
5.070410e+002, 8.951868e+002
5.075231e+002, 8.963441e+002
5.080052e+002, 8.977930e+002
5.084873e+002, 8.988136e+002
5.089695e+002, 8.993823e+002
5.094516e+002, 8.999756e+002
5.099337e+002, 9.005550e+002
5.104158e+002, 9.012943e+002
5.108979e+002, 9.026481e+002
5.113800e+002, 9.044182e+002
5.118622e+002, 9.056346e+002
5.123443e+002, 9.058731e+002
5.128264e+002, 9.056874e+002
5.133085e+002, 9.057311e+002
5.137906e+002, 9.059749e+002
5.142728e+002, 9.063073e+002
5.147549e+002, 9.070607e+002
5.152370e+002, 9.076316e+002
5.157191e+002, 9.071743e+002
5.162012e+002, 9.055578e+002
5.166833e+002, 9.045927e+002
5.171655e+002, 9.057134e+002
5.176476e+002, 9.075425e+002
5.181297e+002, 9.088987e+002
5.186118e+002, 9.089107e+002
5.190939e+002, 9.092299e+002
5.195760e+002, 9.105214e+002
5.200582e+002, 9.122673e+002
5.205403e+002, 9.132536e+002
5.210224e+002, 9.129501e+002
5.215045e+002, 9.125783e+002
5.219866e+002, 9.122364e+002
5.224688e+002, 9.119233e+002
5.229509e+002, 9.128870e+002
5.234330e+002, 9.156032e+002
5.239151e+002, 9.184695e+002
5.243972e+002, 9.202955e+002
5.248793e+002, 9.210497e+002
5.253615e+002, 9.212286e+002
5.258436e+002, 9.206790e+002
5.263257e+002, 9.200909e+002
5.268078e+002, 9.206498e+002
5.272899e+002, 9.221406e+002
5.277720e+002, 9.235700e+002
5.282542e+002, 9.246013e+002
5.287363e+002, 9.252956e+002
5.292184e+002, 9.255565e+002
5.297005e+002, 9.254756e+002
5.301826e+002, 9.255677e+002
5.306647e+002, 9.262697e+002
5.311469e+002, 9.272181e+002
5.316290e+002, 9.281691e+002
5.321111e+002, 9.291275e+002
5.325932e+002, 9.299177e+002
5.330753e+002, 9.304171e+002
5.335574e+002, 9.307584e+002
5.340396e+002, 9.310701e+002
5.345217e+002, 9.310839e+002
5.350038e+002, 9.314421e+002
5.354859e+002, 9.325539e+002
5.359680e+002, 9.341049e+002
5.364501e+002, 9.350482e+002
5.369323e+002, 9.349257e+002
5.374144e+002, 9.349771e+002
5.378965e+002, 9.356918e+002
5.383786e+002, 9.370775e+002
5.388607e+002, 9.384305e+002
5.393428e+002, 9.397482e+002
5.398250e+002, 9.409713e+002
5.403071e+002, 9.420204e+002
5.407892e+002, 9.428855e+002
5.412713e+002, 9.436985e+002
5.417534e+002, 9.445300e+002
5.422355e+002, 9.451326e+002
5.427177e+002, 9.447761e+002
5.431998e+002, 9.438285e+002
5.436819e+002, 9.434775e+002
5.441640e+002, 9.447327e+002
5.446461e+002, 9.465088e+002
5.451282e+002, 9.480748e+002
5.456104e+002, 9.493688e+002
5.460925e+002, 9.500703e+002
5.465746e+002, 9.494232e+002
5.470567e+002, 9.485499e+002
5.475388e+002, 9.480421e+002
5.480209e+002, 9.477875e+002
5.485031e+002, 9.486161e+002
5.489852e+002, 9.519975e+002
5.494673e+002, 9.559306e+002
5.499494e+002, 9.582746e+002
5.504315e+002, 9.578451e+002
5.509136e+002, 9.576062e+002
5.513958e+002, 9.578710e+002
5.518779e+002, 9.585063e+002
5.523600e+002, 9.591486e+002
5.528421e+002, 9.598162e+002
5.533242e+002, 9.604133e+002
5.538063e+002, 9.608363e+002
5.542885e+002, 9.611301e+002
5.547706e+002, 9.616989e+002
5.552527e+002, 9.625675e+002
5.557348e+002, 9.634739e+002
5.562169e+002, 9.641318e+002
5.566990e+002, 9.646564e+002
5.571812e+002, 9.654085e+002
5.576633e+002, 9.665194e+002
5.581454e+002, 9.676053e+002
5.586275e+002, 9.681292e+002
5.591096e+002, 9.683984e+002
5.595917e+002, 9.689621e+002
5.600739e+002, 9.707469e+002
5.605560e+002, 9.722111e+002
5.610381e+002, 9.721243e+002
5.615202e+002, 9.709089e+002
5.620023e+002, 9.704408e+002
5.624844e+002, 9.724471e+002
5.629666e+002, 9.742115e+002
5.634487e+002, 9.742376e+002
5.639308e+002, 9.719713e+002
5.644129e+002, 9.706417e+002
5.648950e+002, 9.703455e+002
5.653771e+002, 9.708649e+002
5.658593e+002, 9.722150e+002
5.663414e+002, 9.747053e+002
5.668235e+002, 9.766448e+002
5.673056e+002, 9.777543e+002
5.677877e+002, 9.784484e+002
5.682698e+002, 9.795946e+002
5.687520e+002, 9.811619e+002
5.692341e+002, 9.823832e+002
5.697162e+002, 9.828632e+002
5.701983e+002, 9.829222e+002
5.706804e+002, 9.829752e+002
5.711625e+002, 9.830814e+002
5.716447e+002, 9.835713e+002
5.721268e+002, 9.847260e+002
5.726089e+002, 9.863492e+002
5.730910e+002, 9.883420e+002
5.735731e+002, 9.907727e+002
5.740552e+002, 9.931093e+002
5.745374e+002, 9.954871e+002
5.750195e+002, 9.974911e+002
5.755016e+002, 9.987413e+002
5.759837e+002, 9.979221e+002
5.764658e+002, 9.978510e+002
5.769479e+002, 9.991544e+002
5.774301e+002, 1.001240e+003
5.779122e+002, 1.002930e+003
5.783943e+002, 1.003828e+003
5.788764e+002, 1.005113e+003
5.793585e+002, 1.007285e+003
5.798406e+002, 1.010136e+003
5.803228e+002, 1.012270e+003
5.808049e+002, 1.013628e+003
5.812870e+002, 1.014623e+003
5.817691e+002, 1.015491e+003
5.822512e+002, 1.016241e+003
5.827333e+002, 1.016964e+003
5.832155e+002, 1.017708e+003
5.836975e+002, 1.018207e+003
5.841796e+002, 1.017970e+003
5.846617e+002, 1.017409e+003
5.851439e+002, 1.017163e+003
5.856260e+002, 1.017302e+003
5.861081e+002, 1.018021e+003
5.865902e+002, 1.020207e+003
5.870723e+002, 1.022991e+003
5.875544e+002, 1.024656e+003
5.880366e+002, 1.023413e+003
5.885187e+002, 1.022314e+003
5.890008e+002, 1.022392e+003
5.894829e+002, 1.023604e+003
5.899650e+002, 1.024750e+003
5.904471e+002, 1.025898e+003
5.909293e+002, 1.026832e+003
5.914114e+002, 1.027362e+003
5.918935e+002, 1.027393e+003
5.923756e+002, 1.027555e+003
5.928577e+002, 1.027757e+003
5.933398e+002, 1.028327e+003
5.938220e+002, 1.030132e+003
5.943041e+002, 1.032899e+003
5.947862e+002, 1.034232e+003
5.952683e+002, 1.033291e+003
5.957504e+002, 1.031897e+003
5.962325e+002, 1.032620e+003
5.967147e+002, 1.034816e+003
5.971968e+002, 1.036766e+003
5.976789e+002, 1.037525e+003
5.981610e+002, 1.037961e+003
5.986431e+002, 1.038687e+003
5.991252e+002, 1.039640e+003
5.996074e+002, 1.040489e+003
6.000895e+002, 1.040719e+003
6.005716e+002, 1.041161e+003
6.010537e+002, 1.042346e+003
6.015358e+002, 1.044530e+003
6.020179e+002, 1.046317e+003
6.025001e+002, 1.047497e+003
6.029822e+002, 1.048474e+003
6.034643e+002, 1.049442e+003
6.039464e+002, 1.050250e+003
6.044285e+002, 1.051825e+003
6.049106e+002, 1.054545e+003
6.053928e+002, 1.057488e+003
6.058749e+002, 1.058985e+003
6.063570e+002, 1.059184e+003
6.068391e+002, 1.060006e+003
6.073212e+002, 1.062358e+003
6.078033e+002, 1.065207e+003
6.082855e+002, 1.067028e+003
6.087676e+002, 1.067981e+003
6.092497e+002, 1.068747e+003
6.097318e+002, 1.069707e+003
6.102139e+002, 1.070588e+003
6.106960e+002, 1.071198e+003
6.111782e+002, 1.071519e+003
6.116603e+002, 1.071555e+003
6.121424e+002, 1.070599e+003
6.126245e+002, 1.069877e+003
6.131066e+002, 1.070221e+003
6.135887e+002, 1.072254e+003
6.140709e+002, 1.074139e+003
6.145530e+002, 1.076173e+003
6.150351e+002, 1.077842e+003
6.155172e+002, 1.078362e+003
6.159993e+002, 1.077268e+003
6.164814e+002, 1.077278e+003
6.169636e+002, 1.078987e+003
6.174457e+002, 1.081664e+003
6.179278e+002, 1.083932e+003
6.184099e+002, 1.085850e+003
6.188920e+002, 1.088059e+003
6.193741e+002, 1.091093e+003
6.198563e+002, 1.094377e+003
6.203384e+002, 1.096854e+003
6.208205e+002, 1.098692e+003
6.213026e+002, 1.100763e+003
6.217847e+002, 1.103307e+003
6.222668e+002, 1.106474e+003
6.227490e+002, 1.110528e+003
6.232311e+002, 1.115596e+003
6.237132e+002, 1.120484e+003
6.241953e+002, 1.124714e+003
6.246774e+002, 1.128793e+003
6.251595e+002, 1.133061e+003
6.256417e+002, 1.137350e+003
6.261238e+002, 1.142308e+003
6.266059e+002, 1.148260e+003
6.270880e+002, 1.154504e+003
6.275701e+002, 1.159781e+003
6.280522e+002, 1.163885e+003
6.285344e+002, 1.169249e+003
6.290165e+002, 1.176738e+003
6.294986e+002, 1.185230e+003
6.299807e+002, 1.192641e+003
6.304628e+002, 1.199122e+003
6.309449e+002, 1.205294e+003
6.314271e+002, 1.211058e+003
6.319092e+002, 1.216984e+003
6.323913e+002, 1.223938e+003
6.328734e+002, 1.231760e+003
6.333555e+002, 1.239285e+003
6.338376e+002, 1.245851e+003
6.343198e+002, 1.252047e+003
6.348019e+002, 1.258471e+003
6.352840e+002, 1.265451e+003
6.357661e+002, 1.271217e+003
6.362482e+002, 1.274768e+003
6.367303e+002, 1.277811e+003
6.372125e+002, 1.281577e+003
6.376946e+002, 1.286598e+003
6.381767e+002, 1.291063e+003
6.386588e+002, 1.295297e+003
6.391409e+002, 1.298321e+003
6.396230e+002, 1.298122e+003
6.401052e+002, 1.294920e+003
6.405873e+002, 1.291854e+003
6.410694e+002, 1.289920e+003
6.415515e+002, 1.288213e+003
6.420336e+002, 1.285437e+003
6.425157e+002, 1.281800e+003
6.429979e+002, 1.277844e+003
6.434800e+002, 1.272837e+003
6.439621e+002, 1.268466e+003
6.444442e+002, 1.266232e+003
6.449263e+002, 1.265856e+003
6.454084e+002, 1.265707e+003
6.458906e+002, 1.265606e+003
6.463727e+002, 1.265330e+003
6.468548e+002, 1.264649e+003
6.473369e+002, 1.263460e+003
6.478190e+002, 1.262827e+003
6.483011e+002, 1.263309e+003
6.487833e+002, 1.263521e+003
6.492654e+002, 1.262298e+003
6.497475e+002, 1.259496e+003
6.502296e+002, 1.256775e+003
6.507117e+002, 1.254221e+003
6.511938e+002, 1.251746e+003
6.516760e+002, 1.249030e+003
6.521581e+002, 1.246296e+003
6.526402e+002, 1.244397e+003
6.531223e+002, 1.243798e+003
6.536044e+002, 1.243550e+003
6.540865e+002, 1.242737e+003
6.545687e+002, 1.241642e+003
6.550508e+002, 1.240816e+003
6.555329e+002, 1.240419e+003
6.560150e+002, 1.240358e+003
6.564971e+002, 1.240643e+003
6.569792e+002, 1.241253e+003
6.574614e+002, 1.242047e+003
6.579435e+002, 1.242687e+003
6.584256e+002, 1.243956e+003
6.589077e+002, 1.246210e+003
6.593898e+002, 1.249411e+003
6.598719e+002, 1.252716e+003
6.603541e+002, 1.256152e+003
6.608362e+002, 1.259535e+003
6.613183e+002, 1.262674e+003
6.618004e+002, 1.265648e+003
6.622825e+002, 1.268705e+003
6.627646e+002, 1.271814e+003
6.632468e+002, 1.275833e+003
6.637289e+002, 1.281714e+003
6.642110e+002, 1.288894e+003
6.646931e+002, 1.296922e+003
6.651752e+002, 1.306434e+003
6.656573e+002, 1.314908e+003
6.661395e+002, 1.320020e+003
6.666216e+002, 1.324042e+003
6.671037e+002, 1.329763e+003
6.675858e+002, 1.338962e+003
6.680679e+002, 1.348247e+003
6.685500e+002, 1.357587e+003
6.690322e+002, 1.366729e+003
6.695143e+002, 1.374981e+003
6.699964e+002, 1.382436e+003
6.704785e+002, 1.388591e+003
6.709606e+002, 1.392649e+003
6.714427e+002, 1.395757e+003
6.719249e+002, 1.401009e+003
6.724070e+002, 1.408270e+003
6.728891e+002, 1.416407e+003
6.733712e+002, 1.426246e+003
6.738533e+002, 1.435660e+003
6.743354e+002, 1.442177e+003
6.748176e+002, 1.445826e+003
6.752997e+002, 1.447338e+003
6.757818e+002, 1.446343e+003
6.762639e+002, 1.443877e+003
6.767460e+002, 1.440533e+003
6.772281e+002, 1.436477e+003
6.777103e+002, 1.431270e+003
6.781924e+002, 1.424492e+003
6.786745e+002, 1.417020e+003
6.791566e+002, 1.409463e+003
6.796387e+002, 1.401915e+003
6.801208e+002, 1.393609e+003
6.806030e+002, 1.384278e+003
6.810851e+002, 1.374521e+003
6.815672e+002, 1.364867e+003
6.820493e+002, 1.355259e+003
6.825314e+002, 1.344873e+003
6.830135e+002, 1.333217e+003
6.834957e+002, 1.321660e+003
6.839778e+002, 1.312010e+003
6.844599e+002, 1.303508e+003
6.849420e+002, 1.295107e+003
6.854241e+002, 1.285594e+003
6.859063e+002, 1.276757e+003
6.863884e+002, 1.269101e+003
6.868705e+002, 1.262608e+003
6.873526e+002, 1.257086e+003
6.878347e+002, 1.252840e+003
6.883168e+002, 1.248980e+003
6.887990e+002, 1.245411e+003
6.892811e+002, 1.242061e+003
6.897632e+002, 1.238667e+003
6.902453e+002, 1.235215e+003
6.907274e+002, 1.231947e+003
6.912095e+002, 1.229088e+003
6.916917e+002, 1.226548e+003
6.921738e+002, 1.223869e+003
6.926559e+002, 1.221097e+003
6.931380e+002, 1.218745e+003
6.936201e+002, 1.217244e+003
6.941022e+002, 1.216301e+003
6.945844e+002, 1.215650e+003
6.950665e+002, 1.215257e+003
6.955486e+002, 1.215072e+003
6.960307e+002, 1.215066e+003
6.965128e+002, 1.215249e+003
6.969949e+002, 1.215761e+003
6.974771e+002, 1.217763e+003
6.979592e+002, 1.217457e+003
6.984413e+002, 1.213715e+003
6.989234e+002, 1.209146e+003
6.994055e+002, 1.207184e+003
6.998876e+002, 1.207902e+003
7.003698e+002, 1.208066e+003
7.008519e+002, 1.207039e+003
7.013340e+002, 1.205571e+003
7.018161e+002, 1.204901e+003
7.022982e+002, 1.204641e+003
7.027803e+002, 1.203736e+003
7.032625e+002, 1.200965e+003
7.037446e+002, 1.198455e+003
7.042267e+002, 1.197697e+003
7.047088e+002, 1.198247e+003
7.051909e+002, 1.199156e+003
7.056730e+002, 1.200939e+003
7.061552e+002, 1.202123e+003
7.066373e+002, 1.201866e+003
7.071194e+002, 1.200633e+003
7.076015e+002, 1.200758e+003
7.080836e+002, 1.202651e+003
7.085657e+002, 1.204568e+003
7.090479e+002, 1.205746e+003
7.095300e+002, 1.206362e+003
7.100121e+002, 1.207391e+003
7.104942e+002, 1.208790e+003
7.109763e+002, 1.209682e+003
7.114584e+002, 1.208620e+003
7.119406e+002, 1.207182e+003
7.124227e+002, 1.207771e+003
7.129048e+002, 1.210436e+003
7.133869e+002, 1.212512e+003
7.138690e+002, 1.212491e+003
7.143511e+002, 1.211626e+003
7.148333e+002, 1.210596e+003
7.153154e+002, 1.209244e+003
7.157975e+002, 1.208674e+003
7.162796e+002, 1.209294e+003
7.167617e+002, 1.210252e+003
7.172438e+002, 1.210991e+003
7.177260e+002, 1.211541e+003
7.182081e+002, 1.211610e+003
7.186902e+002, 1.211109e+003
7.191723e+002, 1.210490e+003
7.196544e+002, 1.210196e+003
7.201365e+002, 1.210209e+003
7.206187e+002, 1.210464e+003
7.211008e+002, 1.210912e+003
7.215829e+002, 1.211674e+003
7.220650e+002, 1.213080e+003
7.225471e+002, 1.214759e+003
7.230292e+002, 1.216246e+003
7.235114e+002, 1.217064e+003
7.239935e+002, 1.218024e+003
7.244756e+002, 1.219458e+003
7.249577e+002, 1.221008e+003
7.254398e+002, 1.221998e+003
7.259219e+002, 1.222050e+003
7.264041e+002, 1.222656e+003
7.268862e+002, 1.224203e+003
7.273683e+002, 1.226410e+003
7.278504e+002, 1.228973e+003
7.283325e+002, 1.231724e+003
7.288146e+002, 1.233449e+003
7.292968e+002, 1.232677e+003
7.297789e+002, 1.231368e+003
7.302610e+002, 1.232068e+003
7.307431e+002, 1.234176e+003
7.312252e+002, 1.235694e+003
7.317073e+002, 1.234965e+003
7.321895e+002, 1.234238e+003
7.326716e+002, 1.234618e+003
7.331537e+002, 1.236058e+003
7.336358e+002, 1.237176e+003
7.341179e+002, 1.238161e+003
7.346000e+002, 1.238506e+003
7.350822e+002, 1.237595e+003
7.355643e+002, 1.235694e+003
7.360464e+002, 1.235670e+003
7.365285e+002, 1.237614e+003
7.370106e+002, 1.239777e+003
7.374927e+002, 1.241031e+003
7.379749e+002, 1.241641e+003
7.384570e+002, 1.241883e+003
7.389391e+002, 1.241794e+003
7.394212e+002, 1.241891e+003
7.399033e+002, 1.243017e+003
7.403854e+002, 1.244051e+003
7.408676e+002, 1.243874e+003
7.413497e+002, 1.241692e+003
7.418318e+002, 1.241098e+003
7.423139e+002, 1.243437e+003
7.427960e+002, 1.246080e+003
7.432781e+002, 1.247048e+003
7.437603e+002, 1.245949e+003
7.442424e+002, 1.246119e+003
7.447245e+002, 1.247857e+003
7.452066e+002, 1.250023e+003
7.456887e+002, 1.251221e+003
7.461708e+002, 1.251955e+003
7.466530e+002, 1.253722e+003
7.471351e+002, 1.257006e+003
7.476172e+002, 1.260102e+003
7.480993e+002, 1.262083e+003
7.485814e+002, 1.263041e+003
7.490635e+002, 1.262972e+003
7.495457e+002, 1.260481e+003
7.500278e+002, 1.259188e+003
7.505099e+002, 1.259693e+003
7.509920e+002, 1.261479e+003
7.514741e+002, 1.264364e+003
7.519562e+002, 1.268885e+003
7.524384e+002, 1.271905e+003
7.529205e+002, 1.272696e+003
7.534026e+002, 1.272344e+003
7.538847e+002, 1.272036e+003
7.543668e+002, 1.271954e+003
7.548489e+002, 1.272988e+003
7.553311e+002, 1.275966e+003
7.558132e+002, 1.279070e+003
7.562953e+002, 1.280717e+003
7.567774e+002, 1.281357e+003
7.572595e+002, 1.281743e+003
7.577416e+002, 1.281689e+003
7.582238e+002, 1.281942e+003
7.587059e+002, 1.282932e+003
7.591880e+002, 1.284322e+003
7.596701e+002, 1.285395e+003
7.601522e+002, 1.286104e+003
7.606343e+002, 1.286744e+003
7.611165e+002, 1.287335e+003
7.615986e+002, 1.288008e+003
7.620807e+002, 1.289256e+003
7.625628e+002, 1.290959e+003
7.630449e+002, 1.292375e+003
7.635270e+002, 1.292942e+003
7.640092e+002, 1.293256e+003
7.644913e+002, 1.293822e+003
7.649734e+002, 1.294588e+003
7.654555e+002, 1.295405e+003
7.659376e+002, 1.295907e+003
7.664197e+002, 1.296749e+003
7.669019e+002, 1.298359e+003
7.673840e+002, 1.300520e+003
7.678661e+002, 1.302309e+003
7.683482e+002, 1.303661e+003
7.688303e+002, 1.304772e+003
7.693124e+002, 1.305605e+003
7.697946e+002, 1.306272e+003
7.702767e+002, 1.307271e+003
7.707588e+002, 1.308559e+003
7.712409e+002, 1.309755e+003
7.717230e+002, 1.310498e+003
7.722051e+002, 1.311136e+003
7.726873e+002, 1.312406e+003
7.731694e+002, 1.314107e+003
7.736515e+002, 1.314711e+003
7.741336e+002, 1.312111e+003
7.746157e+002, 1.309852e+003
7.750978e+002, 1.309677e+003
7.755800e+002, 1.311505e+003
7.760621e+002, 1.312868e+003
7.765442e+002, 1.313602e+003
7.770263e+002, 1.314358e+003
7.775084e+002, 1.315428e+003
7.779905e+002, 1.316798e+003
7.784727e+002, 1.318527e+003
7.789548e+002, 1.320582e+003
7.794369e+002, 1.322515e+003
7.799190e+002, 1.323978e+003
7.804011e+002, 1.325159e+003
7.808832e+002, 1.326391e+003
7.813654e+002, 1.327664e+003
7.818475e+002, 1.328303e+003
7.823296e+002, 1.327615e+003
7.828117e+002, 1.326643e+003
7.832938e+002, 1.325818e+003
7.837759e+002, 1.325122e+003
7.842581e+002, 1.324882e+003
7.847402e+002, 1.325150e+003
7.852223e+002, 1.325787e+003
7.857044e+002, 1.327216e+003
7.861865e+002, 1.329006e+003
7.866686e+002, 1.329187e+003
7.871508e+002, 1.327735e+003
7.876329e+002, 1.326131e+003
7.881150e+002, 1.324848e+003
7.885971e+002, 1.324332e+003
7.890792e+002, 1.325196e+003
7.895613e+002, 1.327617e+003
7.900435e+002, 1.330225e+003
7.905256e+002, 1.333465e+003
7.910077e+002, 1.336075e+003
7.914898e+002, 1.337142e+003
7.919719e+002, 1.336265e+003
7.924540e+002, 1.336628e+003
7.929362e+002, 1.338504e+003
7.934183e+002, 1.340367e+003
7.939004e+002, 1.340512e+003
7.943825e+002, 1.339652e+003
7.948646e+002, 1.339974e+003
7.953467e+002, 1.341651e+003
7.958289e+002, 1.343321e+003
7.963110e+002, 1.343442e+003
7.967931e+002, 1.343507e+003
7.972752e+002, 1.345266e+003
7.977573e+002, 1.349868e+003
7.982394e+002, 1.351937e+003
7.987216e+002, 1.349190e+003
7.992037e+002, 1.345732e+003
7.996858e+002, 1.344083e+003
8.001679e+002, 1.344459e+003
8.006500e+002, 1.345172e+003
8.011321e+002, 1.346272e+003
8.016143e+002, 1.347505e+003
8.020964e+002, 1.348655e+003
8.025785e+002, 1.349761e+003
8.030606e+002, 1.350971e+003
8.035427e+002, 1.352308e+003
8.040248e+002, 1.353460e+003
8.045070e+002, 1.354171e+003
8.049891e+002, 1.354662e+003
8.054712e+002, 1.355026e+003
8.059533e+002, 1.355101e+003
8.064354e+002, 1.355575e+003
8.069175e+002, 1.356372e+003
8.073997e+002, 1.357658e+003
8.078818e+002, 1.359976e+003
8.083639e+002, 1.363254e+003
8.088460e+002, 1.365125e+003
8.093281e+002, 1.365480e+003
8.098102e+002, 1.364815e+003
8.102924e+002, 1.362045e+003
8.107745e+002, 1.359234e+003
8.112566e+002, 1.359773e+003
8.117387e+002, 1.364476e+003
8.122208e+002, 1.368711e+003
8.127029e+002, 1.370816e+003
8.131851e+002, 1.371605e+003
8.136672e+002, 1.371367e+003
8.141493e+002, 1.369629e+003
8.146314e+002, 1.369193e+003
8.151135e+002, 1.370266e+003
8.155956e+002, 1.372129e+003
8.160778e+002, 1.374518e+003
8.165599e+002, 1.377241e+003
8.170420e+002, 1.379483e+003
8.175241e+002, 1.381197e+003
8.180062e+002, 1.382137e+003
8.184883e+002, 1.381072e+003
8.189705e+002, 1.379776e+003
8.194526e+002, 1.380168e+003
8.199347e+002, 1.382711e+003
8.204168e+002, 1.385025e+003
8.208989e+002, 1.387022e+003
8.213810e+002, 1.388246e+003
8.218632e+002, 1.388102e+003
8.223453e+002, 1.386297e+003
8.228274e+002, 1.386510e+003
8.233095e+002, 1.389107e+003
8.237916e+002, 1.391618e+003
8.242737e+002, 1.391537e+003
8.247559e+002, 1.390132e+003
8.252380e+002, 1.390158e+003
8.257201e+002, 1.391742e+003
8.262022e+002, 1.393084e+003
8.266843e+002, 1.392939e+003
8.271664e+002, 1.392305e+003
8.276486e+002, 1.391648e+003
8.281307e+002, 1.390909e+003
8.286128e+002, 1.391049e+003
8.290949e+002, 1.392223e+003
8.295770e+002, 1.393995e+003
8.300591e+002, 1.396594e+003
8.305413e+002, 1.399796e+003
8.310234e+002, 1.400884e+003
8.315055e+002, 1.399878e+003
8.319876e+002, 1.399055e+003
8.324697e+002, 1.400691e+003
8.329518e+002, 1.402947e+003
8.334340e+002, 1.403549e+003
8.339161e+002, 1.402516e+003
8.343982e+002, 1.402045e+003
8.348803e+002, 1.403805e+003
8.353624e+002, 1.405394e+003
8.358445e+002, 1.405525e+003
8.363267e+002, 1.404303e+003
8.368088e+002, 1.404233e+003
8.372909e+002, 1.405510e+003
8.377730e+002, 1.407102e+003
8.382551e+002, 1.408613e+003
8.387372e+002, 1.409985e+003
8.392194e+002, 1.410846e+003
8.397015e+002, 1.411326e+003
8.401836e+002, 1.412161e+003
8.406657e+002, 1.414492e+003
8.411478e+002, 1.416665e+003
8.416299e+002, 1.417271e+003
8.421121e+002, 1.416520e+003
8.425942e+002, 1.416718e+003
8.430763e+002, 1.418963e+003
8.435584e+002, 1.420352e+003
8.440405e+002, 1.419420e+003
8.445226e+002, 1.417101e+003
8.450048e+002, 1.417541e+003
8.454869e+002, 1.420539e+003
8.459690e+002, 1.423144e+003
8.464511e+002, 1.423199e+003
8.469332e+002, 1.422662e+003
8.474153e+002, 1.423960e+003
8.478975e+002, 1.426441e+003
8.483796e+002, 1.428249e+003
8.488617e+002, 1.428030e+003
8.493438e+002, 1.427906e+003
8.498259e+002, 1.428592e+003
8.503080e+002, 1.429782e+003
8.507902e+002, 1.430644e+003
8.512723e+002, 1.431114e+003
8.517544e+002, 1.431641e+003
8.522365e+002, 1.432257e+003
8.527186e+002, 1.433160e+003
8.532007e+002, 1.435182e+003
8.536829e+002, 1.437791e+003
8.541650e+002, 1.439511e+003
8.546471e+002, 1.438740e+003
8.551292e+002, 1.438258e+003
8.556113e+002, 1.439816e+003
8.560934e+002, 1.442428e+003
8.565756e+002, 1.444337e+003
8.570577e+002, 1.445380e+003
8.575398e+002, 1.445727e+003
8.580219e+002, 1.444965e+003
8.585040e+002, 1.444184e+003
8.589861e+002, 1.445498e+003
8.594683e+002, 1.448500e+003
8.599504e+002, 1.451142e+003
8.604325e+002, 1.453073e+003
8.609146e+002, 1.453992e+003
8.613967e+002, 1.452502e+003
8.618788e+002, 1.450290e+003
8.623610e+002, 1.449481e+003
8.628431e+002, 1.451599e+003
8.633252e+002, 1.453334e+003
8.638073e+002, 1.454252e+003
8.642894e+002, 1.454860e+003
8.647715e+002, 1.455619e+003
8.652537e+002, 1.456555e+003
8.657358e+002, 1.457743e+003
8.662179e+002, 1.459355e+003
8.667000e+002, 1.460343e+003
8.671821e+002, 1.458804e+003
8.676642e+002, 1.456356e+003
8.681464e+002, 1.455320e+003
8.686285e+002, 1.456129e+003
8.691106e+002, 1.457844e+003
8.695927e+002, 1.461407e+003
8.700748e+002, 1.464676e+003
8.705569e+002, 1.466020e+003
8.710391e+002, 1.464983e+003
8.715212e+002, 1.464998e+003
8.720033e+002, 1.466198e+003
8.724854e+002, 1.467716e+003
8.729675e+002, 1.468561e+003
8.734496e+002, 1.469244e+003
8.739318e+002, 1.471488e+003
8.744139e+002, 1.475129e+003
8.748960e+002, 1.477980e+003
8.753781e+002, 1.478244e+003
8.758602e+002, 1.477747e+003
8.763423e+002, 1.477594e+003
8.768245e+002, 1.477851e+003
8.773066e+002, 1.477615e+003
8.777887e+002, 1.476525e+003
8.782708e+002, 1.475941e+003
8.787529e+002, 1.476637e+003
8.792350e+002, 1.478242e+003
8.797172e+002, 1.479614e+003
8.801993e+002, 1.480744e+003
8.806814e+002, 1.481486e+003
8.811635e+002, 1.480915e+003
8.816456e+002, 1.480702e+003
8.821277e+002, 1.482847e+003
8.826099e+002, 1.486387e+003
8.830920e+002, 1.488420e+003
8.835741e+002, 1.486359e+003
8.840562e+002, 1.485599e+003
8.845383e+002, 1.487451e+003
8.850204e+002, 1.490605e+003
8.855026e+002, 1.491993e+003
8.859847e+002, 1.491738e+003
8.864668e+002, 1.492163e+003
8.869489e+002, 1.494084e+003
8.874310e+002, 1.496540e+003
8.879131e+002, 1.499127e+003
8.883953e+002, 1.501337e+003
8.888774e+002, 1.502400e+003
8.893595e+002, 1.501141e+003
8.898416e+002, 1.500218e+003
8.903237e+002, 1.499998e+003
8.908058e+002, 1.500306e+003
8.912880e+002, 1.501147e+003
8.917701e+002, 1.502607e+003
8.922522e+002, 1.503399e+003
8.927343e+002, 1.503293e+003
8.932164e+002, 1.503322e+003
8.936985e+002, 1.505082e+003
8.941807e+002, 1.507435e+003
8.946628e+002, 1.508594e+003
8.951449e+002, 1.508088e+003
8.956270e+002, 1.507764e+003
8.961091e+002, 1.508449e+003
8.965912e+002, 1.509395e+003
8.970734e+002, 1.510254e+003
8.975555e+002, 1.511067e+003
8.980376e+002, 1.511265e+003
8.985197e+002, 1.510768e+003
8.990018e+002, 1.510281e+003
8.994839e+002, 1.510189e+003
8.999661e+002, 1.510519e+003
9.004482e+002, 1.511453e+003
9.009303e+002, 1.512921e+003
9.014124e+002, 1.514384e+003
9.018945e+002, 1.515519e+003
9.023766e+002, 1.516652e+003
9.028588e+002, 1.518055e+003
9.033409e+002, 1.519591e+003
9.038230e+002, 1.520698e+003
9.043051e+002, 1.521267e+003
9.047872e+002, 1.521706e+003
9.052693e+002, 1.521946e+003
9.057515e+002, 1.522351e+003
9.062336e+002, 1.524030e+003
9.067157e+002, 1.526522e+003
9.071978e+002, 1.528523e+003
9.076799e+002, 1.529327e+003
9.081620e+002, 1.529726e+003
9.086442e+002, 1.529612e+003
9.091263e+002, 1.529506e+003
9.096084e+002, 1.530344e+003
9.100905e+002, 1.532766e+003
9.105726e+002, 1.534402e+003
9.110547e+002, 1.534843e+003
9.115369e+002, 1.535037e+003
9.120190e+002, 1.536488e+003
9.125011e+002, 1.538707e+003
9.129832e+002, 1.540157e+003
9.134653e+002, 1.540446e+003
9.139474e+002, 1.540839e+003
9.144296e+002, 1.542484e+003
9.149117e+002, 1.544332e+003
9.153938e+002, 1.545365e+003
9.158759e+002, 1.545200e+003
9.163580e+002, 1.545666e+003
9.168401e+002, 1.547098e+003
9.173223e+002, 1.548265e+003
9.178044e+002, 1.547820e+003
9.182865e+002, 1.546410e+003
9.187686e+002, 1.546685e+003
9.192507e+002, 1.548505e+003
9.197328e+002, 1.550327e+003
9.202150e+002, 1.551540e+003
9.206971e+002, 1.552163e+003
9.211792e+002, 1.551760e+003
9.216613e+002, 1.550615e+003
9.221434e+002, 1.550614e+003
9.226255e+002, 1.552167e+003
9.231077e+002, 1.554080e+003
9.235898e+002, 1.556226e+003
9.240719e+002, 1.558297e+003
9.245540e+002, 1.559651e+003
9.250361e+002, 1.560318e+003
9.255182e+002, 1.560371e+003
9.260004e+002, 1.559311e+003
9.264825e+002, 1.558447e+003
9.269646e+002, 1.558089e+003
9.274467e+002, 1.558578e+003
9.279288e+002, 1.560664e+003
9.284109e+002, 1.566266e+003
9.288931e+002, 1.569234e+003
9.293752e+002, 1.568558e+003
9.298573e+002, 1.566646e+003
9.303394e+002, 1.566059e+003
9.308215e+002, 1.566541e+003
9.313036e+002, 1.567218e+003
9.317858e+002, 1.568024e+003
9.322679e+002, 1.568785e+003
9.327500e+002, 1.569329e+003
9.332321e+002, 1.569880e+003
9.337142e+002, 1.570741e+003
9.341964e+002, 1.572045e+003
9.346785e+002, 1.572770e+003
9.351606e+002, 1.572636e+003
9.356427e+002, 1.572648e+003
9.361248e+002, 1.573304e+003
9.366069e+002, 1.574518e+003
9.370891e+002, 1.575932e+003
9.375712e+002, 1.577584e+003
9.380533e+002, 1.579616e+003
9.385354e+002, 1.582673e+003
9.390175e+002, 1.585521e+003
9.394996e+002, 1.587228e+003
9.399818e+002, 1.588124e+003
9.404639e+002, 1.589170e+003
9.409460e+002, 1.590264e+003
9.414281e+002, 1.591723e+003
9.419102e+002, 1.593627e+003
9.423923e+002, 1.595792e+003
9.428745e+002, 1.598258e+003
9.433566e+002, 1.600754e+003
9.438387e+002, 1.602300e+003
9.443208e+002, 1.602401e+003
9.448029e+002, 1.602493e+003
9.452850e+002, 1.603287e+003
9.457672e+002, 1.604552e+003
9.462493e+002, 1.606238e+003
9.467314e+002, 1.608682e+003
9.472135e+002, 1.610160e+003
9.476956e+002, 1.610602e+003
9.481777e+002, 1.610384e+003
9.486599e+002, 1.608898e+003
9.491420e+002, 1.607194e+003
9.496241e+002, 1.608244e+003
9.501062e+002, 1.611811e+003
9.505883e+002, 1.615477e+003
9.510704e+002, 1.618343e+003
9.515526e+002, 1.620575e+003
9.520347e+002, 1.621998e+003
9.525168e+002, 1.622808e+003
9.529989e+002, 1.623472e+003
9.534810e+002, 1.623780e+003
9.539631e+002, 1.625160e+003
9.544453e+002, 1.628742e+003
9.549274e+002, 1.632284e+003
9.554095e+002, 1.631046e+003
9.558916e+002, 1.627072e+003
9.563737e+002, 1.624913e+003
9.568558e+002, 1.627691e+003
9.573380e+002, 1.629293e+003
9.578201e+002, 1.626445e+003
9.583022e+002, 1.622284e+003
9.587843e+002, 1.619556e+003
9.592664e+002, 1.618332e+003
9.597485e+002, 1.618495e+003
9.602307e+002, 1.620207e+003
9.607128e+002, 1.622075e+003
9.611949e+002, 1.622961e+003
9.616770e+002, 1.623179e+003
9.621591e+002, 1.623161e+003
9.626412e+002, 1.622927e+003
9.631234e+002, 1.622284e+003
9.636055e+002, 1.619880e+003
9.640876e+002, 1.618497e+003
9.645697e+002, 1.619387e+003
9.650518e+002, 1.621978e+003
9.655339e+002, 1.623964e+003
9.660161e+002, 1.625330e+003
9.664982e+002, 1.626143e+003
9.669803e+002, 1.626049e+003
9.674624e+002, 1.626004e+003
9.679445e+002, 1.627484e+003
9.684266e+002, 1.629653e+003
9.689088e+002, 1.631111e+003
9.693909e+002, 1.630971e+003
9.698730e+002, 1.630832e+003
9.703551e+002, 1.630832e+003
9.708372e+002, 1.630884e+003
9.713193e+002, 1.630898e+003
9.718015e+002, 1.630900e+003
9.722836e+002, 1.630888e+003
9.727657e+002, 1.630869e+003
9.732478e+002, 1.631233e+003
9.737299e+002, 1.633038e+003
9.742120e+002, 1.634811e+003
9.746942e+002, 1.634953e+003
9.751763e+002, 1.633355e+003
9.756584e+002, 1.632920e+003
9.761405e+002, 1.634002e+003
9.766226e+002, 1.635720e+003
9.771047e+002, 1.637863e+003
9.775869e+002, 1.640303e+003
9.780690e+002, 1.642694e+003
9.785511e+002, 1.645021e+003
9.790332e+002, 1.647394e+003
9.795153e+002, 1.650530e+003
9.799974e+002, 1.652741e+003
9.804796e+002, 1.652335e+003
9.809617e+002, 1.650789e+003
9.814438e+002, 1.650194e+003
9.819259e+002, 1.650838e+003
9.824080e+002, 1.651672e+003
9.828901e+002, 1.652612e+003
9.833723e+002, 1.653932e+003
9.838544e+002, 1.656046e+003
9.843365e+002, 1.658706e+003
9.848186e+002, 1.661522e+003
9.853007e+002, 1.664473e+003
9.857828e+002, 1.667337e+003
9.862650e+002, 1.669902e+003
9.867471e+002, 1.672545e+003
9.872292e+002, 1.675638e+003
9.877113e+002, 1.678955e+003
9.881934e+002, 1.681209e+003
9.886755e+002, 1.682348e+003
9.891577e+002, 1.683451e+003
9.896398e+002, 1.685390e+003
9.901219e+002, 1.686647e+003
9.906040e+002, 1.684765e+003
9.910861e+002, 1.681058e+003
9.915682e+002, 1.677741e+003
9.920504e+002, 1.674516e+003
9.925325e+002, 1.673322e+003
9.930146e+002, 1.675397e+003
9.934967e+002, 1.677960e+003
9.939788e+002, 1.678131e+003
9.944609e+002, 1.676264e+003
9.949431e+002, 1.675250e+003
9.954252e+002, 1.675256e+003
9.959073e+002, 1.676117e+003
9.963894e+002, 1.678943e+003
9.968715e+002, 1.681561e+003
9.973536e+002, 1.682102e+003
9.978358e+002, 1.680637e+003
9.983179e+002, 1.679734e+003
9.988000e+002, 1.679896e+003
9.992821e+002, 1.679294e+003
9.997642e+002, 1.676844e+003
1.000246e+003, 1.674124e+003
1.000728e+003, 1.674625e+003
1.001211e+003, 1.677459e+003
1.001693e+003, 1.680484e+003
1.002175e+003, 1.683539e+003
1.002657e+003, 1.685648e+003
1.003139e+003, 1.685201e+003
1.003621e+003, 1.684432e+003
1.004103e+003, 1.685550e+003
1.004585e+003, 1.689110e+003
1.005068e+003, 1.691229e+003
1.005550e+003, 1.691817e+003
1.006032e+003, 1.691832e+003
1.006514e+003, 1.691482e+003
1.006996e+003, 1.691286e+003
1.007478e+003, 1.692102e+003
1.007960e+003, 1.693744e+003
1.008442e+003, 1.695113e+003
1.008924e+003, 1.694934e+003
1.009407e+003, 1.695836e+003
1.009889e+003, 1.699056e+003
1.010371e+003, 1.702983e+003
1.010853e+003, 1.704052e+003
1.011335e+003, 1.702665e+003
1.011817e+003, 1.701243e+003
1.012299e+003, 1.700265e+003
1.012781e+003, 1.699809e+003
1.013263e+003, 1.700167e+003
1.013746e+003, 1.700989e+003
1.014228e+003, 1.702106e+003
1.014710e+003, 1.703718e+003
1.015192e+003, 1.704485e+003
1.015674e+003, 1.704166e+003
1.016156e+003, 1.703856e+003
1.016638e+003, 1.703724e+003
1.017120e+003, 1.704282e+003
1.017603e+003, 1.707222e+003
1.018085e+003, 1.711927e+003
1.018567e+003, 1.716174e+003
1.019049e+003, 1.719270e+003
1.019531e+003, 1.721258e+003
1.020013e+003, 1.721602e+003
1.020495e+003, 1.721169e+003
1.020977e+003, 1.721072e+003
1.021459e+003, 1.721280e+003
1.021942e+003, 1.722146e+003
1.022424e+003, 1.723854e+003
1.022906e+003, 1.725036e+003
1.023388e+003, 1.723494e+003
1.023870e+003, 1.721457e+003
1.024352e+003, 1.721338e+003
1.024834e+003, 1.723569e+003
1.025316e+003, 1.725734e+003
1.025799e+003, 1.728066e+003
1.026281e+003, 1.729513e+003
1.026763e+003, 1.729158e+003
1.027245e+003, 1.728110e+003
1.027727e+003, 1.729650e+003
1.028209e+003, 1.733038e+003
1.028691e+003, 1.735742e+003
1.029173e+003, 1.736443e+003
1.029656e+003, 1.736789e+003
1.030138e+003, 1.737084e+003
1.030620e+003, 1.737658e+003
1.031102e+003, 1.738912e+003
1.031584e+003, 1.740998e+003
1.032066e+003, 1.742718e+003
1.032548e+003, 1.743990e+003
1.033030e+003, 1.745275e+003
1.033512e+003, 1.746760e+003
1.033995e+003, 1.748561e+003
1.034477e+003, 1.751278e+003
1.034959e+003, 1.754605e+003
1.035441e+003, 1.756686e+003
1.035923e+003, 1.756066e+003
1.036405e+003, 1.755781e+003
1.036887e+003, 1.756787e+003
1.037369e+003, 1.758019e+003
1.037851e+003, 1.756806e+003
1.038334e+003, 1.753952e+003
1.038816e+003, 1.752556e+003
1.039298e+003, 1.753567e+003
1.039780e+003, 1.754997e+003
1.040262e+003, 1.755656e+003
1.040744e+003, 1.756250e+003
1.041226e+003, 1.757312e+003
1.041708e+003, 1.758873e+003
1.042191e+003, 1.761057e+003
1.042673e+003, 1.764035e+003
1.043155e+003, 1.766479e+003
1.043637e+003, 1.767617e+003
1.044119e+003, 1.767899e+003
1.044601e+003, 1.767248e+003
1.045083e+003, 1.766308e+003
1.045565e+003, 1.766569e+003
1.046047e+003, 1.769930e+003
1.046530e+003, 1.772332e+003
1.047012e+003, 1.772949e+003
1.047494e+003, 1.773203e+003
1.047976e+003, 1.774741e+003
1.048458e+003, 1.777336e+003
1.048940e+003, 1.779827e+003
1.049422e+003, 1.782131e+003
1.049904e+003, 1.784429e+003
1.050386e+003, 1.787356e+003
1.050869e+003, 1.789845e+003
1.051351e+003, 1.790803e+003
1.051833e+003, 1.790712e+003
1.052315e+003, 1.791543e+003
1.052797e+003, 1.793399e+003
1.053279e+003, 1.795372e+003
1.053761e+003, 1.797314e+003
1.054243e+003, 1.799083e+003
1.054726e+003, 1.800121e+003
1.055208e+003, 1.801054e+003
1.055690e+003, 1.802935e+003
1.056172e+003, 1.806602e+003
1.056654e+003, 1.809136e+003
1.057136e+003, 1.809990e+003
1.057618e+003, 1.810341e+003
1.058100e+003, 1.810621e+003
1.058583e+003, 1.811016e+003
1.059065e+003, 1.812656e+003
1.059547e+003, 1.815204e+003
1.060029e+003, 1.817088e+003
1.060511e+003, 1.817234e+003
1.060993e+003, 1.816815e+003
1.061475e+003, 1.815690e+003
1.061957e+003, 1.814609e+003
1.062439e+003, 1.814885e+003
1.062922e+003, 1.816827e+003
1.063404e+003, 1.817302e+003
1.063886e+003, 1.815986e+003
1.064368e+003, 1.814015e+003
1.064850e+003, 1.811787e+003
1.065332e+003, 1.809838e+003
1.065814e+003, 1.808783e+003
1.066296e+003, 1.808619e+003
1.066778e+003, 1.808703e+003
1.067261e+003, 1.809487e+003
1.067743e+003, 1.809117e+003
1.068225e+003, 1.806498e+003
1.068707e+003, 1.803496e+003
1.069189e+003, 1.804442e+003
1.069671e+003, 1.807623e+003
1.070153e+003, 1.808856e+003
1.070635e+003, 1.806590e+003
1.071118e+003, 1.804313e+003
1.071600e+003, 1.803002e+003
1.072082e+003, 1.802627e+003
1.072564e+003, 1.803674e+003
1.073046e+003, 1.805913e+003
1.073528e+003, 1.805722e+003
1.074010e+003, 1.803349e+003
1.074492e+003, 1.802054e+003
1.074974e+003, 1.804763e+003
1.075457e+003, 1.807878e+003
1.075939e+003, 1.808558e+003
1.076421e+003, 1.807902e+003
1.076903e+003, 1.807851e+003
1.077385e+003, 1.808958e+003
1.077867e+003, 1.808988e+003
1.078349e+003, 1.807462e+003
1.078831e+003, 1.806413e+003
1.079313e+003, 1.808332e+003
1.079796e+003, 1.811559e+003
1.080278e+003, 1.813717e+003
1.080760e+003, 1.814769e+003
1.081242e+003, 1.815440e+003
1.081724e+003, 1.815381e+003
1.082206e+003, 1.815773e+003
1.082688e+003, 1.817206e+003
1.083170e+003, 1.818777e+003
1.083652e+003, 1.818408e+003
1.084135e+003, 1.816706e+003
1.084617e+003, 1.816069e+003
1.085099e+003, 1.817092e+003
1.085581e+003, 1.818186e+003
1.086063e+003, 1.818914e+003
1.086545e+003, 1.818932e+003
1.087027e+003, 1.817536e+003
1.087509e+003, 1.815060e+003
1.087992e+003, 1.815311e+003
1.088474e+003, 1.818332e+003
1.088956e+003, 1.820578e+003
1.089438e+003, 1.820323e+003
1.089920e+003, 1.819208e+003
1.090402e+003, 1.817976e+003
1.090884e+003, 1.817270e+003
1.091366e+003, 1.818234e+003
1.091849e+003, 1.822433e+003
1.092331e+003, 1.824070e+003
1.092813e+003, 1.822361e+003
1.093295e+003, 1.820748e+003
1.093777e+003, 1.822107e+003
1.094259e+003, 1.825093e+003
1.094741e+003, 1.827685e+003
1.095223e+003, 1.829730e+003
1.095705e+003, 1.830854e+003
1.096188e+003, 1.828705e+003
1.096670e+003, 1.828794e+003
1.097152e+003, 1.833027e+003
1.097634e+003, 1.838324e+003
1.098116e+003, 1.840658e+003
1.098598e+003, 1.840564e+003
1.099080e+003, 1.840240e+003
1.099562e+003, 1.839909e+003
1.100044e+003, 1.840299e+003
1.100527e+003, 1.843061e+003
1.101009e+003, 1.845469e+003
1.101491e+003, 1.845415e+003
1.101973e+003, 1.844004e+003
1.102455e+003, 1.845064e+003
1.102937e+003, 1.848657e+003
1.103419e+003, 1.851035e+003
1.103901e+003, 1.851072e+003
1.104384e+003, 1.850500e+003
1.104866e+003, 1.850732e+003
1.105348e+003, 1.851372e+003
1.105830e+003, 1.851940e+003
1.106312e+003, 1.852304e+003
1.106794e+003, 1.853510e+003
1.107276e+003, 1.855730e+003
1.107758e+003, 1.858053e+003
1.108240e+003, 1.859902e+003
1.108723e+003, 1.861826e+003
1.109205e+003, 1.865690e+003
1.109687e+003, 1.870127e+003
1.110169e+003, 1.872459e+003
1.110651e+003, 1.870113e+003
1.111133e+003, 1.869006e+003
1.111615e+003, 1.869893e+003
1.112097e+003, 1.871399e+003
1.112579e+003, 1.872556e+003
1.113062e+003, 1.873445e+003
1.113544e+003, 1.874492e+003
1.114026e+003, 1.875605e+003
1.114508e+003, 1.876311e+003
1.114990e+003, 1.876083e+003
1.115472e+003, 1.875786e+003
1.115954e+003, 1.875720e+003
1.116436e+003, 1.875737e+003
1.116919e+003, 1.875501e+003
1.117401e+003, 1.875094e+003
1.117883e+003, 1.875482e+003
1.118365e+003, 1.876771e+003
1.118847e+003, 1.878414e+003
1.119329e+003, 1.880791e+003
1.119811e+003, 1.882697e+003
1.120293e+003, 1.882938e+003
1.120776e+003, 1.882033e+003
1.121258e+003, 1.881508e+003
1.121740e+003, 1.881249e+003
1.122222e+003, 1.882672e+003
1.122704e+003, 1.886480e+003
1.123186e+003, 1.890127e+003
1.123668e+003, 1.890114e+003
1.124150e+003, 1.889148e+003
1.124632e+003, 1.890442e+003
1.125115e+003, 1.894646e+003
1.125597e+003, 1.896984e+003
1.126079e+003, 1.896511e+003
1.126561e+003, 1.897270e+003
1.127043e+003, 1.901323e+003
1.127525e+003, 1.906634e+003
1.128007e+003, 1.910254e+003
1.128489e+003, 1.912650e+003
1.128971e+003, 1.914386e+003
1.129454e+003, 1.914918e+003
1.129936e+003, 1.917039e+003
1.130418e+003, 1.922048e+003
1.130900e+003, 1.926676e+003
1.131382e+003, 1.928542e+003
1.131864e+003, 1.928733e+003
1.132346e+003, 1.930522e+003
1.132828e+003, 1.933565e+003
1.133311e+003, 1.936736e+003
1.133793e+003, 1.939511e+003
1.134275e+003, 1.942338e+003
1.134757e+003, 1.945355e+003
1.135239e+003, 1.948379e+003
1.135721e+003, 1.951289e+003
1.136203e+003, 1.954013e+003
1.136685e+003, 1.956295e+003
1.137167e+003, 1.958163e+003
1.137650e+003, 1.960190e+003
1.138132e+003, 1.962914e+003
1.138614e+003, 1.965646e+003
1.139096e+003, 1.968388e+003
1.139578e+003, 1.970802e+003
1.140060e+003, 1.971974e+003
1.140542e+003, 1.971895e+003
1.141024e+003, 1.973311e+003
1.141506e+003, 1.976655e+003
1.141989e+003, 1.979408e+003
1.142471e+003, 1.979393e+003
1.142953e+003, 1.978243e+003
1.143435e+003, 1.977510e+003
1.143917e+003, 1.976807e+003
1.144399e+003, 1.973658e+003
1.144881e+003, 1.967569e+003
1.145363e+003, 1.962757e+003
1.145846e+003, 1.960494e+003
1.146328e+003, 1.958479e+003
1.146810e+003, 1.954449e+003
1.147292e+003, 1.949200e+003
1.147774e+003, 1.942954e+003
1.148256e+003, 1.935630e+003
1.148738e+003, 1.930642e+003
1.149220e+003, 1.928616e+003
1.149703e+003, 1.926674e+003
1.150185e+003, 1.923610e+003
1.150667e+003, 1.920531e+003
1.151149e+003, 1.918865e+003
1.151631e+003, 1.918371e+003
1.152113e+003, 1.918902e+003
1.152595e+003, 1.921068e+003
1.153077e+003, 1.921906e+003
1.153559e+003, 1.921060e+003
1.154042e+003, 1.919364e+003
1.154524e+003, 1.916573e+003
1.155006e+003, 1.913830e+003
1.155488e+003, 1.914466e+003
1.155970e+003, 1.917149e+003
1.156452e+003, 1.918562e+003
1.156934e+003, 1.916358e+003
1.157416e+003, 1.915297e+003
1.157898e+003, 1.916621e+003
1.158381e+003, 1.918106e+003
1.158863e+003, 1.917692e+003
1.159345e+003, 1.916074e+003
1.159827e+003, 1.916199e+003
1.160309e+003, 1.917692e+003
1.160791e+003, 1.919046e+003
1.161273e+003, 1.919116e+003
1.161755e+003, 1.919536e+003
1.162238e+003, 1.920895e+003
1.162720e+003, 1.922502e+003
1.163202e+003, 1.923644e+003
1.163684e+003, 1.924364e+003
1.164166e+003, 1.925318e+003
1.164648e+003, 1.926404e+003
1.165130e+003, 1.926461e+003
1.165612e+003, 1.922954e+003
1.166094e+003, 1.920454e+003
1.166577e+003, 1.921487e+003
1.167059e+003, 1.924312e+003
1.167541e+003, 1.926806e+003
1.168023e+003, 1.928904e+003
1.168505e+003, 1.928711e+003
1.168987e+003, 1.926035e+003
1.169469e+003, 1.923977e+003
1.169951e+003, 1.924877e+003
1.170433e+003, 1.926897e+003
1.170916e+003, 1.929653e+003
1.171398e+003, 1.932510e+003
1.171880e+003, 1.933782e+003
1.172362e+003, 1.933489e+003
1.172844e+003, 1.933337e+003
1.173326e+003, 1.933660e+003
1.173808e+003, 1.933910e+003
1.174290e+003, 1.932989e+003
1.174773e+003, 1.932316e+003
1.175255e+003, 1.933393e+003
1.175737e+003, 1.935797e+003
1.176219e+003, 1.937421e+003
1.176701e+003, 1.938267e+003
1.177183e+003, 1.938397e+003
1.177665e+003, 1.937592e+003
1.178147e+003, 1.936998e+003
1.178630e+003, 1.938296e+003
1.179112e+003, 1.939952e+003
1.179594e+003, 1.940342e+003
1.180076e+003, 1.939412e+003
1.180558e+003, 1.938513e+003
1.181040e+003, 1.937481e+003
1.181522e+003, 1.938459e+003
1.182004e+003, 1.943362e+003
1.182486e+003, 1.948227e+003
1.182969e+003, 1.948171e+003
1.183451e+003, 1.945915e+003
1.183933e+003, 1.944636e+003
1.184415e+003, 1.944708e+003
1.184897e+003, 1.945372e+003
1.185379e+003, 1.946704e+003
1.185861e+003, 1.948049e+003
1.186343e+003, 1.949086e+003
1.186825e+003, 1.949913e+003
1.187308e+003, 1.950548e+003
1.187790e+003, 1.951085e+003
1.188272e+003, 1.951687e+003
1.188754e+003, 1.952504e+003
1.189236e+003, 1.953053e+003
1.189718e+003, 1.953369e+003
1.190200e+003, 1.953293e+003
1.190682e+003, 1.952160e+003
1.191165e+003, 1.951080e+003
1.191647e+003, 1.952023e+003
1.192129e+003, 1.954005e+003
1.192611e+003, 1.954990e+003
1.193093e+003, 1.954178e+003
1.193575e+003, 1.953270e+003
1.194057e+003, 1.952107e+003
1.194539e+003, 1.951626e+003
1.195021e+003, 1.952841e+003
1.195504e+003, 1.954953e+003
1.195986e+003, 1.957054e+003
1.196468e+003, 1.959111e+003
1.196950e+003, 1.961116e+003
1.197432e+003, 1.963531e+003
1.197914e+003, 1.964703e+003
1.198396e+003, 1.964268e+003
1.198878e+003, 1.963466e+003
1.199360e+003, 1.963310e+003
1.199843e+003, 1.963631e+003
1.200325e+003, 1.964412e+003
1.200807e+003, 1.965510e+003
1.201289e+003, 1.966320e+003
1.201771e+003, 1.966668e+003
1.202253e+003, 1.966981e+003
1.202735e+003, 1.967299e+003
1.203217e+003, 1.967753e+003
1.203700e+003, 1.968488e+003
1.204182e+003, 1.969453e+003
1.204664e+003, 1.970400e+003
1.205146e+003, 1.971411e+003
1.205628e+003, 1.973331e+003
1.206110e+003, 1.977249e+003
1.206592e+003, 1.979573e+003
1.207074e+003, 1.979327e+003
1.207557e+003, 1.978399e+003
1.208039e+003, 1.979101e+003
1.208521e+003, 1.980631e+003
1.209003e+003, 1.982021e+003
1.209485e+003, 1.983137e+003
1.209967e+003, 1.983679e+003
1.210449e+003, 1.983330e+003
1.210931e+003, 1.983164e+003
1.211413e+003, 1.983419e+003
1.211896e+003, 1.983968e+003
1.212378e+003, 1.985291e+003
1.212860e+003, 1.986497e+003
1.213342e+003, 1.986000e+003
1.213824e+003, 1.983651e+003
1.214306e+003, 1.981604e+003
1.214788e+003, 1.979668e+003
1.215270e+003, 1.979354e+003
1.215752e+003, 1.981542e+003
1.216235e+003, 1.984342e+003
1.216717e+003, 1.985236e+003
1.217199e+003, 1.984925e+003
1.217681e+003, 1.984114e+003
1.218163e+003, 1.982833e+003
1.218645e+003, 1.982754e+003
1.219127e+003, 1.984359e+003
1.219609e+003, 1.985964e+003
1.220092e+003, 1.987104e+003
1.220574e+003, 1.987865e+003
1.221056e+003, 1.988194e+003
1.221538e+003, 1.988310e+003
1.222020e+003, 1.988467e+003
1.222502e+003, 1.988666e+003
1.222984e+003, 1.989183e+003
1.223466e+003, 1.990158e+003
1.223948e+003, 1.990745e+003
1.224431e+003, 1.990242e+003
1.224913e+003, 1.989950e+003
1.225395e+003, 1.992508e+003
1.225877e+003, 1.996128e+003
1.226359e+003, 1.998466e+003
1.226841e+003, 1.998985e+003
1.227323e+003, 1.998224e+003
1.227805e+003, 1.995739e+003
1.228287e+003, 1.993836e+003
1.228770e+003, 1.993450e+003
1.229252e+003, 1.994177e+003
1.229734e+003, 1.996569e+003
1.230216e+003, 1.999176e+003
1.230698e+003, 1.999700e+003
1.231180e+003, 1.997166e+003
1.231662e+003, 1.996320e+003
1.232144e+003, 1.997551e+003
1.232627e+003, 1.998177e+003
1.233109e+003, 1.996384e+003
1.233591e+003, 1.994449e+003
1.234073e+003, 1.996510e+003
1.234555e+003, 1.999432e+003
1.235037e+003, 1.998166e+003
1.235519e+003, 1.991039e+003
1.236001e+003, 1.988594e+003
1.236484e+003, 1.991381e+003
1.236966e+003, 1.994333e+003
1.237448e+003, 1.994676e+003
1.237930e+003, 1.994435e+003
1.238412e+003, 1.995672e+003
1.238894e+003, 1.997565e+003
1.239376e+003, 1.998851e+003
1.239858e+003, 1.999237e+003
1.240340e+003, 2.000729e+003
1.240823e+003, 2.003328e+003
1.241305e+003, 2.005565e+003
1.241787e+003, 2.006283e+003
1.242269e+003, 2.006729e+003
1.242751e+003, 2.007771e+003
1.243233e+003, 2.009217e+003
1.243715e+003, 2.011102e+003
1.244197e+003, 2.013643e+003
1.244679e+003, 2.013551e+003
1.245162e+003, 2.010893e+003
1.245644e+003, 2.008733e+003
1.246126e+003, 2.008963e+003
1.246608e+003, 2.009969e+003
1.247090e+003, 2.011615e+003
1.247572e+003, 2.012858e+003
1.248054e+003, 2.012393e+003
1.248536e+003, 2.010165e+003
1.249019e+003, 2.009208e+003
1.249501e+003, 2.009431e+003
1.249983e+003, 2.009468e+003
1.250465e+003, 2.006907e+003
1.250947e+003, 2.006083e+003
1.251429e+003, 2.011713e+003
1.251911e+003, 2.018155e+003
1.252393e+003, 2.019617e+003
1.252875e+003, 2.016427e+003
1.253358e+003, 2.015879e+003
1.253840e+003, 2.017569e+003
1.254322e+003, 2.018988e+003
1.254804e+003, 2.018123e+003
1.255286e+003, 2.017611e+003
1.255768e+003, 2.018969e+003
1.256250e+003, 2.020357e+003
1.256732e+003, 2.019817e+003
1.257214e+003, 2.017867e+003
1.257697e+003, 2.017762e+003
1.258179e+003, 2.019242e+003
1.258661e+003, 2.020942e+003
1.259143e+003, 2.021936e+003
1.259625e+003, 2.023797e+003
1.260107e+003, 2.027750e+003
1.260589e+003, 2.031199e+003
1.261071e+003, 2.031202e+003
1.261554e+003, 2.029095e+003
1.262036e+003, 2.029448e+003
1.262518e+003, 2.031505e+003
1.263000e+003, 2.032612e+003
1.263482e+003, 2.030413e+003
1.263964e+003, 2.029217e+003
1.264446e+003, 2.029428e+003
1.264928e+003, 2.030441e+003
1.265411e+003, 2.032722e+003
1.265893e+003, 2.034912e+003
1.266375e+003, 2.033612e+003
1.266857e+003, 2.030084e+003
1.267339e+003, 2.027787e+003
1.267821e+003, 2.028421e+003
1.268303e+003, 2.028990e+003
1.268785e+003, 2.029390e+003
1.269267e+003, 2.030059e+003
1.269750e+003, 2.032145e+003
1.270232e+003, 2.034110e+003
1.270714e+003, 2.033316e+003
1.271196e+003, 2.030942e+003
1.271678e+003, 2.029851e+003
1.272160e+003, 2.030882e+003
1.272642e+003, 2.030714e+003
1.273124e+003, 2.028934e+003
1.273606e+003, 2.028605e+003
1.274089e+003, 2.033676e+003
1.274571e+003, 2.039435e+003
1.275053e+003, 2.041787e+003
1.275535e+003, 2.041710e+003
1.276017e+003, 2.041030e+003
1.276499e+003, 2.039583e+003
1.276981e+003, 2.039395e+003
1.277463e+003, 2.040494e+003
1.277946e+003, 2.041237e+003
1.278428e+003, 2.040143e+003
1.278910e+003, 2.038880e+003
1.279392e+003, 2.038898e+003
1.279874e+003, 2.039089e+003
1.280356e+003, 2.037517e+003
1.280838e+003, 2.034330e+003
1.281320e+003, 2.035452e+003
1.281802e+003, 2.040400e+003
1.282285e+003, 2.044283e+003
1.282767e+003, 2.043391e+003
1.283249e+003, 2.042314e+003
1.283731e+003, 2.042628e+003
1.284213e+003, 2.043462e+003
1.284695e+003, 2.044089e+003
1.285177e+003, 2.044566e+003
1.285659e+003, 2.045456e+003
1.286141e+003, 2.046549e+003
1.286624e+003, 2.047017e+003
1.287106e+003, 2.045439e+003
1.287588e+003, 2.044822e+003
1.288070e+003, 2.045703e+003
1.288552e+003, 2.047189e+003
1.289034e+003, 2.048719e+003
1.289516e+003, 2.050248e+003
1.289998e+003, 2.051483e+003
1.290481e+003, 2.052649e+003
1.290963e+003, 2.054333e+003
1.291445e+003, 2.057536e+003
1.291927e+003, 2.059683e+003
1.292409e+003, 2.060573e+003
1.292891e+003, 2.061173e+003
1.293373e+003, 2.062688e+003
1.293855e+003, 2.063906e+003
1.294338e+003, 2.062275e+003
1.294820e+003, 2.059513e+003
1.295302e+003, 2.059222e+003
1.295784e+003, 2.062616e+003
1.296266e+003, 2.063796e+003
1.296748e+003, 2.062616e+003
1.297230e+003, 2.061833e+003
1.297712e+003, 2.063646e+003
1.298194e+003, 2.065867e+003
1.298677e+003, 2.066493e+003
1.299159e+003, 2.066639e+003
1.299641e+003, 2.067672e+003
1.300123e+003, 2.069602e+003
1.300605e+003, 2.070847e+003
1.301087e+003, 2.071344e+003
1.301569e+003, 2.070584e+003
1.302051e+003, 2.067533e+003
1.302533e+003, 2.063917e+003
1.303016e+003, 2.060190e+003
##END=



