##NAMES=Charoite
##RRUFFID=R060557
##IDEAL CHEMISTRY=(K,Sr,Ba,Mn^2+^)_15-16_(Ca,Na)_32_Si_70_(O,OH)_180_(OH,F)_4_&#183;nH_2_O
##LOCALITY=Russia
##OWNER=RRUFF
##SOURCE=Gemological Institute of America
##DESCRIPTION=Purple massive
##STATUS=The identification of this mineral has been confirmed by X-ray diffraction and chemical analysis
##URL=rruff.info/R060557
##MEASURED CHEMISTRY=(K_15.13_Ba_1.37_Sr_0.57_Mn_0.20_Fe_0.02_)_Σ=17.29_(Ca_26.56_Na_2.60_)_Σ=29.16_(Si_69.97_Al_0.03_)_Σ=70.00_(O_179.73_F_0.27_)_Σ=180.00_F_4.05_·16H_2_O ; lighter phase : K_1.00_Al_1.00_Si_3.00_O_8_ darker phase
9.112140e+001, 0.000000e+000
9.160352e+001, 2.012730e+002
9.208563e+001, 1.976246e+002
9.256775e+001, 1.971567e+002
9.304987e+001, 2.014393e+002
9.353198e+001, 2.069140e+002
9.401410e+001, 2.101109e+002
9.449622e+001, 2.111105e+002
9.497833e+001, 2.108986e+002
9.546045e+001, 2.102132e+002
9.594257e+001, 2.090069e+002
9.642468e+001, 2.083464e+002
9.690680e+001, 2.085517e+002
9.738892e+001, 2.090996e+002
9.787103e+001, 2.099720e+002
9.835315e+001, 2.108236e+002
9.883527e+001, 2.113816e+002
9.931738e+001, 2.119958e+002
9.979950e+001, 2.128432e+002
1.002816e+002, 2.133819e+002
1.007637e+002, 2.134029e+002
1.012458e+002, 2.131933e+002
1.017280e+002, 2.127696e+002
1.022101e+002, 2.120527e+002
1.026922e+002, 2.116622e+002
1.031743e+002, 2.129394e+002
1.036564e+002, 2.158557e+002
1.041385e+002, 2.187351e+002
1.046207e+002, 2.211577e+002
1.051028e+002, 2.231131e+002
1.055849e+002, 2.246980e+002
1.060670e+002, 2.264144e+002
1.065491e+002, 2.270530e+002
1.070313e+002, 2.256210e+002
1.075134e+002, 2.219765e+002
1.079955e+002, 2.168211e+002
1.084776e+002, 2.104023e+002
1.089597e+002, 2.022677e+002
1.094418e+002, 1.948171e+002
1.099240e+002, 1.886524e+002
1.104061e+002, 1.834079e+002
1.108882e+002, 1.789198e+002
1.113703e+002, 1.751082e+002
1.118524e+002, 1.720614e+002
1.123345e+002, 1.700598e+002
1.128167e+002, 1.696664e+002
1.132988e+002, 1.697302e+002
1.137809e+002, 1.700949e+002
1.142630e+002, 1.707612e+002
1.147451e+002, 1.717736e+002
1.152272e+002, 1.731619e+002
1.157094e+002, 1.749229e+002
1.161915e+002, 1.767978e+002
1.166736e+002, 1.786442e+002
1.171557e+002, 1.807262e+002
1.176378e+002, 1.831125e+002
1.181199e+002, 1.858102e+002
1.186021e+002, 1.888024e+002
1.190842e+002, 1.920533e+002
1.195663e+002, 1.956100e+002
1.200484e+002, 1.995396e+002
1.205305e+002, 2.038313e+002
1.210126e+002, 2.084977e+002
1.214948e+002, 2.136991e+002
1.219769e+002, 2.195132e+002
1.224590e+002, 2.253643e+002
1.229411e+002, 2.308399e+002
1.234232e+002, 2.359415e+002
1.239053e+002, 2.402630e+002
1.243875e+002, 2.435629e+002
1.248696e+002, 2.459617e+002
1.253517e+002, 2.478540e+002
1.258338e+002, 2.496489e+002
1.263159e+002, 2.502548e+002
1.267980e+002, 2.491649e+002
1.272802e+002, 2.464841e+002
1.277623e+002, 2.427407e+002
1.282444e+002, 2.379752e+002
1.287265e+002, 2.320745e+002
1.292086e+002, 2.265737e+002
1.296907e+002, 2.220254e+002
1.301729e+002, 2.175918e+002
1.306550e+002, 2.127278e+002
1.311371e+002, 2.074538e+002
1.316192e+002, 2.023532e+002
1.321013e+002, 1.982748e+002
1.325834e+002, 1.956174e+002
1.330656e+002, 1.932471e+002
1.335477e+002, 1.913382e+002
1.340298e+002, 1.895386e+002
1.345119e+002, 1.874920e+002
1.349940e+002, 1.851041e+002
1.354761e+002, 1.826400e+002
1.359583e+002, 1.807332e+002
1.364404e+002, 1.799472e+002
1.369225e+002, 1.790658e+002
1.374046e+002, 1.778991e+002
1.378867e+002, 1.766237e+002
1.383688e+002, 1.755309e+002
1.388510e+002, 1.747741e+002
1.393331e+002, 1.742277e+002
1.398152e+002, 1.734713e+002
1.402973e+002, 1.722740e+002
1.407794e+002, 1.712308e+002
1.412615e+002, 1.706588e+002
1.417437e+002, 1.704834e+002
1.422258e+002, 1.703443e+002
1.427079e+002, 1.699868e+002
1.431900e+002, 1.696018e+002
1.436721e+002, 1.695306e+002
1.441542e+002, 1.697954e+002
1.446364e+002, 1.703714e+002
1.451185e+002, 1.713244e+002
1.456006e+002, 1.727128e+002
1.460827e+002, 1.741200e+002
1.465648e+002, 1.757150e+002
1.470469e+002, 1.771024e+002
1.475291e+002, 1.777998e+002
1.480112e+002, 1.775905e+002
1.484933e+002, 1.766452e+002
1.489754e+002, 1.752945e+002
1.494575e+002, 1.733488e+002
1.499396e+002, 1.712715e+002
1.504218e+002, 1.691179e+002
1.509039e+002, 1.669636e+002
1.513860e+002, 1.649049e+002
1.518681e+002, 1.629763e+002
1.523502e+002, 1.611791e+002
1.528323e+002, 1.596305e+002
1.533145e+002, 1.586013e+002
1.537966e+002, 1.575777e+002
1.542787e+002, 1.564319e+002
1.547608e+002, 1.552062e+002
1.552429e+002, 1.539844e+002
1.557250e+002, 1.528121e+002
1.562072e+002, 1.516825e+002
1.566893e+002, 1.507654e+002
1.571714e+002, 1.501905e+002
1.576535e+002, 1.496568e+002
1.581356e+002, 1.490077e+002
1.586177e+002, 1.482640e+002
1.590999e+002, 1.475758e+002
1.595820e+002, 1.471163e+002
1.600641e+002, 1.469428e+002
1.605462e+002, 1.464856e+002
1.610283e+002, 1.455789e+002
1.615104e+002, 1.445226e+002
1.619926e+002, 1.434341e+002
1.624747e+002, 1.423398e+002
1.629568e+002, 1.414524e+002
1.634389e+002, 1.411269e+002
1.639210e+002, 1.413302e+002
1.644031e+002, 1.414237e+002
1.648853e+002, 1.412610e+002
1.653674e+002, 1.409399e+002
1.658495e+002, 1.406062e+002
1.663316e+002, 1.402889e+002
1.668137e+002, 1.399297e+002
1.672958e+002, 1.393192e+002
1.677780e+002, 1.385535e+002
1.682601e+002, 1.380901e+002
1.687422e+002, 1.381490e+002
1.692243e+002, 1.386880e+002
1.697064e+002, 1.395703e+002
1.701885e+002, 1.409499e+002
1.706707e+002, 1.424875e+002
1.711528e+002, 1.439751e+002
1.716349e+002, 1.454152e+002
1.721170e+002, 1.468497e+002
1.725991e+002, 1.482181e+002
1.730812e+002, 1.495010e+002
1.735634e+002, 1.511333e+002
1.740455e+002, 1.536863e+002
1.745276e+002, 1.561828e+002
1.750097e+002, 1.582610e+002
1.754918e+002, 1.598934e+002
1.759739e+002, 1.611953e+002
1.764561e+002, 1.623161e+002
1.769382e+002, 1.633651e+002
1.774203e+002, 1.638406e+002
1.779024e+002, 1.632687e+002
1.783845e+002, 1.625614e+002
1.788666e+002, 1.621405e+002
1.793488e+002, 1.620871e+002
1.798309e+002, 1.622716e+002
1.803130e+002, 1.625327e+002
1.807951e+002, 1.629025e+002
1.812772e+002, 1.632851e+002
1.817593e+002, 1.634975e+002
1.822415e+002, 1.638316e+002
1.827236e+002, 1.645176e+002
1.832057e+002, 1.656041e+002
1.836878e+002, 1.669705e+002
1.841699e+002, 1.684753e+002
1.846520e+002, 1.704156e+002
1.851342e+002, 1.718375e+002
1.856163e+002, 1.725237e+002
1.860984e+002, 1.727660e+002
1.865805e+002, 1.728240e+002
1.870626e+002, 1.727667e+002
1.875447e+002, 1.726292e+002
1.880269e+002, 1.724956e+002
1.885090e+002, 1.724396e+002
1.889911e+002, 1.721317e+002
1.894732e+002, 1.712881e+002
1.899553e+002, 1.701746e+002
1.904374e+002, 1.691862e+002
1.909196e+002, 1.683395e+002
1.914017e+002, 1.678626e+002
1.918838e+002, 1.682299e+002
1.923659e+002, 1.694826e+002
1.928480e+002, 1.706369e+002
1.933301e+002, 1.711208e+002
1.938123e+002, 1.711091e+002
1.942944e+002, 1.712733e+002
1.947765e+002, 1.718816e+002
1.952586e+002, 1.725965e+002
1.957407e+002, 1.731650e+002
1.962228e+002, 1.735889e+002
1.967050e+002, 1.736776e+002
1.971871e+002, 1.733223e+002
1.976692e+002, 1.725235e+002
1.981513e+002, 1.712715e+002
1.986334e+002, 1.694643e+002
1.991155e+002, 1.672226e+002
1.995977e+002, 1.644123e+002
2.000798e+002, 1.610820e+002
2.005619e+002, 1.578831e+002
2.010440e+002, 1.555538e+002
2.015261e+002, 1.542384e+002
2.020082e+002, 1.527469e+002
2.024904e+002, 1.503765e+002
2.029725e+002, 1.481925e+002
2.034546e+002, 1.468468e+002
2.039367e+002, 1.463642e+002
2.044188e+002, 1.462018e+002
2.049009e+002, 1.455960e+002
2.053831e+002, 1.441780e+002
2.058652e+002, 1.434848e+002
2.063473e+002, 1.441516e+002
2.068294e+002, 1.450476e+002
2.073115e+002, 1.455293e+002
2.077936e+002, 1.454962e+002
2.082758e+002, 1.452678e+002
2.087579e+002, 1.452742e+002
2.092400e+002, 1.455659e+002
2.097221e+002, 1.460156e+002
2.102042e+002, 1.469451e+002
2.106863e+002, 1.477840e+002
2.111685e+002, 1.481548e+002
2.116506e+002, 1.479820e+002
2.121327e+002, 1.474355e+002
2.126148e+002, 1.467392e+002
2.130969e+002, 1.458218e+002
2.135790e+002, 1.448952e+002
2.140612e+002, 1.440055e+002
2.145433e+002, 1.430836e+002
2.150254e+002, 1.419550e+002
2.155075e+002, 1.406173e+002
2.159896e+002, 1.393646e+002
2.164717e+002, 1.386508e+002
2.169539e+002, 1.387830e+002
2.174360e+002, 1.387614e+002
2.179181e+002, 1.385356e+002
2.184002e+002, 1.381665e+002
2.188823e+002, 1.376258e+002
2.193644e+002, 1.369057e+002
2.198466e+002, 1.362393e+002
2.203287e+002, 1.360055e+002
2.208108e+002, 1.363002e+002
2.212929e+002, 1.364583e+002
2.217750e+002, 1.363702e+002
2.222571e+002, 1.361080e+002
2.227393e+002, 1.356655e+002
2.232214e+002, 1.349973e+002
2.237035e+002, 1.344179e+002
2.241856e+002, 1.344278e+002
2.246677e+002, 1.349729e+002
2.251498e+002, 1.355129e+002
2.256320e+002, 1.360309e+002
2.261141e+002, 1.364308e+002
2.265962e+002, 1.364399e+002
2.270783e+002, 1.358656e+002
2.275604e+002, 1.353412e+002
2.280425e+002, 1.355919e+002
2.285247e+002, 1.364544e+002
2.290068e+002, 1.373901e+002
2.294889e+002, 1.381994e+002
2.299710e+002, 1.389322e+002
2.304531e+002, 1.396809e+002
2.309352e+002, 1.404017e+002
2.314174e+002, 1.412506e+002
2.318995e+002, 1.424270e+002
2.323816e+002, 1.438246e+002
2.328637e+002, 1.451566e+002
2.333458e+002, 1.462357e+002
2.338279e+002, 1.471379e+002
2.343101e+002, 1.481272e+002
2.347922e+002, 1.492172e+002
2.352743e+002, 1.503757e+002
2.357564e+002, 1.513854e+002
2.362385e+002, 1.524273e+002
2.367206e+002, 1.539129e+002
2.372028e+002, 1.562514e+002
2.376849e+002, 1.592229e+002
2.381670e+002, 1.618963e+002
2.386491e+002, 1.639941e+002
2.391312e+002, 1.662057e+002
2.396133e+002, 1.688276e+002
2.400955e+002, 1.717420e+002
2.405776e+002, 1.747881e+002
2.410597e+002, 1.778685e+002
2.415418e+002, 1.809974e+002
2.420239e+002, 1.842095e+002
2.425060e+002, 1.878210e+002
2.429882e+002, 1.910632e+002
2.434703e+002, 1.937249e+002
2.439524e+002, 1.959263e+002
2.444345e+002, 1.978876e+002
2.449166e+002, 1.997659e+002
2.453987e+002, 2.014660e+002
2.458809e+002, 2.024912e+002
2.463630e+002, 2.025481e+002
2.468451e+002, 2.022108e+002
2.473272e+002, 2.017063e+002
2.478093e+002, 2.008841e+002
2.482914e+002, 1.994953e+002
2.487736e+002, 1.973820e+002
2.492557e+002, 1.946917e+002
2.497378e+002, 1.920363e+002
2.502199e+002, 1.891852e+002
2.507020e+002, 1.866772e+002
2.511841e+002, 1.846070e+002
2.516663e+002, 1.829084e+002
2.521484e+002, 1.815283e+002
2.526305e+002, 1.804332e+002
2.531126e+002, 1.796174e+002
2.535947e+002, 1.790470e+002
2.540768e+002, 1.791172e+002
2.545590e+002, 1.789704e+002
2.550411e+002, 1.781352e+002
2.555232e+002, 1.772189e+002
2.560053e+002, 1.769947e+002
2.564874e+002, 1.777860e+002
2.569695e+002, 1.791465e+002
2.574517e+002, 1.799958e+002
2.579338e+002, 1.795223e+002
2.584159e+002, 1.794957e+002
2.588980e+002, 1.801891e+002
2.593801e+002, 1.812206e+002
2.598622e+002, 1.821695e+002
2.603444e+002, 1.828929e+002
2.608265e+002, 1.835908e+002
2.613086e+002, 1.846506e+002
2.617907e+002, 1.865117e+002
2.622728e+002, 1.880546e+002
2.627549e+002, 1.893062e+002
2.632371e+002, 1.902200e+002
2.637192e+002, 1.907895e+002
2.642013e+002, 1.910096e+002
2.646834e+002, 1.907776e+002
2.651655e+002, 1.899144e+002
2.656476e+002, 1.882117e+002
2.661298e+002, 1.862572e+002
2.666119e+002, 1.840431e+002
2.670940e+002, 1.815840e+002
2.675761e+002, 1.787732e+002
2.680582e+002, 1.756019e+002
2.685403e+002, 1.724553e+002
2.690225e+002, 1.698021e+002
2.695046e+002, 1.677881e+002
2.699867e+002, 1.656967e+002
2.704688e+002, 1.632450e+002
2.709509e+002, 1.608857e+002
2.714330e+002, 1.590551e+002
2.719152e+002, 1.577944e+002
2.723973e+002, 1.567603e+002
2.728794e+002, 1.556260e+002
2.733615e+002, 1.543869e+002
2.738436e+002, 1.534281e+002
2.743257e+002, 1.526143e+002
2.748079e+002, 1.521751e+002
2.752900e+002, 1.524318e+002
2.757721e+002, 1.533596e+002
2.762542e+002, 1.544491e+002
2.767363e+002, 1.553257e+002
2.772184e+002, 1.560249e+002
2.777006e+002, 1.569150e+002
2.781827e+002, 1.580582e+002
2.786648e+002, 1.593369e+002
2.791469e+002, 1.606504e+002
2.796290e+002, 1.620057e+002
2.801111e+002, 1.635151e+002
2.805933e+002, 1.653286e+002
2.810754e+002, 1.673238e+002
2.815575e+002, 1.691198e+002
2.820396e+002, 1.709531e+002
2.825217e+002, 1.723121e+002
2.830038e+002, 1.727163e+002
2.834860e+002, 1.722976e+002
2.839681e+002, 1.717708e+002
2.844502e+002, 1.715213e+002
2.849323e+002, 1.712796e+002
2.854144e+002, 1.705825e+002
2.858965e+002, 1.694816e+002
2.863787e+002, 1.678653e+002
2.868608e+002, 1.653477e+002
2.873429e+002, 1.621905e+002
2.878250e+002, 1.593135e+002
2.883071e+002, 1.570603e+002
2.887892e+002, 1.551706e+002
2.892714e+002, 1.532672e+002
2.897535e+002, 1.513563e+002
2.902356e+002, 1.494290e+002
2.907177e+002, 1.473318e+002
2.911998e+002, 1.452076e+002
2.916819e+002, 1.434499e+002
2.921641e+002, 1.422356e+002
2.926462e+002, 1.412341e+002
2.931283e+002, 1.400677e+002
2.936104e+002, 1.387621e+002
2.940925e+002, 1.375171e+002
2.945746e+002, 1.364023e+002
2.950568e+002, 1.354073e+002
2.955389e+002, 1.344854e+002
2.960210e+002, 1.335954e+002
2.965031e+002, 1.328902e+002
2.969852e+002, 1.327079e+002
2.974673e+002, 1.328496e+002
2.979495e+002, 1.327504e+002
2.984316e+002, 1.320547e+002
2.989137e+002, 1.310818e+002
2.993958e+002, 1.303292e+002
2.998779e+002, 1.298546e+002
3.003600e+002, 1.293683e+002
3.008422e+002, 1.284874e+002
3.013243e+002, 1.274940e+002
3.018064e+002, 1.269224e+002
3.022885e+002, 1.270474e+002
3.027706e+002, 1.274808e+002
3.032527e+002, 1.278678e+002
3.037349e+002, 1.282207e+002
3.042170e+002, 1.283588e+002
3.046991e+002, 1.279769e+002
3.051812e+002, 1.274333e+002
3.056633e+002, 1.272311e+002
3.061454e+002, 1.275142e+002
3.066276e+002, 1.279392e+002
3.071097e+002, 1.281885e+002
3.075918e+002, 1.282767e+002
3.080739e+002, 1.284954e+002
3.085560e+002, 1.291123e+002
3.090381e+002, 1.297354e+002
3.095203e+002, 1.298479e+002
3.100024e+002, 1.293818e+002
3.104845e+002, 1.289923e+002
3.109666e+002, 1.292028e+002
3.114487e+002, 1.298980e+002
3.119308e+002, 1.305221e+002
3.124130e+002, 1.309833e+002
3.128951e+002, 1.313121e+002
3.133772e+002, 1.314779e+002
3.138593e+002, 1.315125e+002
3.143414e+002, 1.316332e+002
3.148235e+002, 1.319813e+002
3.153057e+002, 1.324933e+002
3.157878e+002, 1.330704e+002
3.162699e+002, 1.338112e+002
3.167520e+002, 1.343485e+002
3.172341e+002, 1.340723e+002
3.177162e+002, 1.333803e+002
3.181984e+002, 1.331844e+002
3.186805e+002, 1.342110e+002
3.191626e+002, 1.357381e+002
3.196447e+002, 1.365561e+002
3.201268e+002, 1.365254e+002
3.206089e+002, 1.364901e+002
3.210911e+002, 1.370071e+002
3.215732e+002, 1.377979e+002
3.220553e+002, 1.384839e+002
3.225374e+002, 1.389554e+002
3.230195e+002, 1.393653e+002
3.235016e+002, 1.399346e+002
3.239838e+002, 1.406698e+002
3.244659e+002, 1.411924e+002
3.249480e+002, 1.412913e+002
3.254301e+002, 1.411297e+002
3.259122e+002, 1.408870e+002
3.263943e+002, 1.405449e+002
3.268765e+002, 1.402577e+002
3.273586e+002, 1.401619e+002
3.278407e+002, 1.402279e+002
3.283228e+002, 1.403197e+002
3.288049e+002, 1.404945e+002
3.292870e+002, 1.405529e+002
3.297692e+002, 1.402450e+002
3.302513e+002, 1.396048e+002
3.307334e+002, 1.389880e+002
3.312155e+002, 1.386285e+002
3.316976e+002, 1.384105e+002
3.321797e+002, 1.379883e+002
3.326619e+002, 1.371961e+002
3.331440e+002, 1.365668e+002
3.336261e+002, 1.368026e+002
3.341082e+002, 1.375611e+002
3.345903e+002, 1.380304e+002
3.350724e+002, 1.377936e+002
3.355546e+002, 1.372233e+002
3.360367e+002, 1.368101e+002
3.365188e+002, 1.365794e+002
3.370009e+002, 1.362597e+002
3.374830e+002, 1.355140e+002
3.379651e+002, 1.346386e+002
3.384473e+002, 1.342064e+002
3.389294e+002, 1.344559e+002
3.394115e+002, 1.348795e+002
3.398936e+002, 1.351323e+002
3.403757e+002, 1.352229e+002
3.408578e+002, 1.352067e+002
3.413400e+002, 1.351008e+002
3.418221e+002, 1.348899e+002
3.423042e+002, 1.345255e+002
3.427863e+002, 1.339615e+002
3.432684e+002, 1.334922e+002
3.437505e+002, 1.333893e+002
3.442327e+002, 1.334827e+002
3.447148e+002, 1.333157e+002
3.451969e+002, 1.327161e+002
3.456790e+002, 1.320442e+002
3.461611e+002, 1.317594e+002
3.466432e+002, 1.317977e+002
3.471254e+002, 1.318131e+002
3.476075e+002, 1.318660e+002
3.480896e+002, 1.317758e+002
3.485717e+002, 1.312587e+002
3.490538e+002, 1.302781e+002
3.495359e+002, 1.291739e+002
3.500181e+002, 1.281876e+002
3.505002e+002, 1.272765e+002
3.509823e+002, 1.262528e+002
3.514644e+002, 1.251093e+002
3.519465e+002, 1.238536e+002
3.524286e+002, 1.224079e+002
3.529108e+002, 1.208232e+002
3.533929e+002, 1.193184e+002
3.538750e+002, 1.180215e+002
3.543571e+002, 1.168596e+002
3.548392e+002, 1.156459e+002
3.553214e+002, 1.143643e+002
3.558035e+002, 1.130807e+002
3.562856e+002, 1.117183e+002
3.567677e+002, 1.103920e+002
3.572498e+002, 1.093276e+002
3.577319e+002, 1.086016e+002
3.582141e+002, 1.080764e+002
3.586962e+002, 1.075669e+002
3.591783e+002, 1.070595e+002
3.596604e+002, 1.066530e+002
3.601425e+002, 1.063524e+002
3.606246e+002, 1.061599e+002
3.611068e+002, 1.060981e+002
3.615889e+002, 1.061622e+002
3.620710e+002, 1.062790e+002
3.625531e+002, 1.063502e+002
3.630352e+002, 1.063960e+002
3.635173e+002, 1.067786e+002
3.639995e+002, 1.076886e+002
3.644816e+002, 1.087121e+002
3.649637e+002, 1.097393e+002
3.654458e+002, 1.107266e+002
3.659279e+002, 1.115005e+002
3.664100e+002, 1.118972e+002
3.668922e+002, 1.121903e+002
3.673743e+002, 1.133206e+002
3.678564e+002, 1.166548e+002
3.683385e+002, 1.188475e+002
3.688206e+002, 1.187924e+002
3.693027e+002, 1.176651e+002
3.697849e+002, 1.167517e+002
3.702670e+002, 1.164237e+002
3.707491e+002, 1.163347e+002
3.712312e+002, 1.160348e+002
3.717133e+002, 1.155305e+002
3.721954e+002, 1.147319e+002
3.726776e+002, 1.134707e+002
3.731597e+002, 1.120870e+002
3.736418e+002, 1.107531e+002
3.741239e+002, 1.094860e+002
3.746060e+002, 1.082043e+002
3.750881e+002, 1.067900e+002
3.755703e+002, 1.052667e+002
3.760524e+002, 1.042414e+002
3.765345e+002, 1.041893e+002
3.770166e+002, 1.040731e+002
3.774987e+002, 1.035389e+002
3.779808e+002, 1.028272e+002
3.784630e+002, 1.022698e+002
3.789451e+002, 1.020187e+002
3.794272e+002, 1.020501e+002
3.799093e+002, 1.023269e+002
3.803914e+002, 1.030494e+002
3.808735e+002, 1.036965e+002
3.813557e+002, 1.041832e+002
3.818378e+002, 1.046410e+002
3.823199e+002, 1.051539e+002
3.828020e+002, 1.057429e+002
3.832841e+002, 1.063925e+002
3.837662e+002, 1.070753e+002
3.842484e+002, 1.077834e+002
3.847305e+002, 1.085966e+002
3.852126e+002, 1.095741e+002
3.856947e+002, 1.106094e+002
3.861768e+002, 1.116386e+002
3.866589e+002, 1.127037e+002
3.871411e+002, 1.139555e+002
3.876232e+002, 1.155691e+002
3.881053e+002, 1.173149e+002
3.885874e+002, 1.182981e+002
3.890695e+002, 1.180700e+002
3.895516e+002, 1.179038e+002
3.900338e+002, 1.182296e+002
3.905159e+002, 1.186696e+002
3.909980e+002, 1.189140e+002
3.914801e+002, 1.188746e+002
3.919622e+002, 1.185869e+002
3.924443e+002, 1.179527e+002
3.929265e+002, 1.168976e+002
3.934086e+002, 1.162315e+002
3.938907e+002, 1.162446e+002
3.943728e+002, 1.165249e+002
3.948549e+002, 1.169940e+002
3.953370e+002, 1.175571e+002
3.958192e+002, 1.179242e+002
3.963013e+002, 1.177635e+002
3.967834e+002, 1.172687e+002
3.972655e+002, 1.171454e+002
3.977476e+002, 1.175851e+002
3.982297e+002, 1.178986e+002
3.987119e+002, 1.174268e+002
3.991940e+002, 1.167010e+002
3.996761e+002, 1.164702e+002
4.001582e+002, 1.170931e+002
4.006403e+002, 1.178728e+002
4.011224e+002, 1.180570e+002
4.016046e+002, 1.176820e+002
4.020867e+002, 1.173537e+002
4.025688e+002, 1.172922e+002
4.030509e+002, 1.173061e+002
4.035330e+002, 1.171456e+002
4.040151e+002, 1.168067e+002
4.044973e+002, 1.165021e+002
4.049794e+002, 1.163053e+002
4.054615e+002, 1.162083e+002
4.059436e+002, 1.161572e+002
4.064257e+002, 1.161265e+002
4.069078e+002, 1.163083e+002
4.073900e+002, 1.169923e+002
4.078721e+002, 1.180612e+002
4.083542e+002, 1.188841e+002
4.088363e+002, 1.190352e+002
4.093184e+002, 1.192720e+002
4.098005e+002, 1.203206e+002
4.102827e+002, 1.219165e+002
4.107648e+002, 1.230987e+002
4.112469e+002, 1.234004e+002
4.117290e+002, 1.231425e+002
4.122111e+002, 1.230907e+002
4.126932e+002, 1.236134e+002
4.131754e+002, 1.234312e+002
4.136575e+002, 1.218655e+002
4.141396e+002, 1.197364e+002
4.146217e+002, 1.178428e+002
4.151038e+002, 1.163369e+002
4.155859e+002, 1.149958e+002
4.160681e+002, 1.136184e+002
4.165502e+002, 1.122063e+002
4.170323e+002, 1.107250e+002
4.175144e+002, 1.089221e+002
4.179965e+002, 1.073207e+002
4.184786e+002, 1.062177e+002
4.189608e+002, 1.054648e+002
4.194429e+002, 1.047035e+002
4.199250e+002, 1.037380e+002
4.204071e+002, 1.027608e+002
4.208892e+002, 1.023191e+002
4.213713e+002, 1.028180e+002
4.218535e+002, 1.032781e+002
4.223356e+002, 1.036703e+002
4.228177e+002, 1.040165e+002
4.232998e+002, 1.042373e+002
4.237819e+002, 1.043819e+002
4.242640e+002, 1.046879e+002
4.247462e+002, 1.054477e+002
4.252283e+002, 1.067051e+002
4.257104e+002, 1.078053e+002
4.261925e+002, 1.086119e+002
4.266746e+002, 1.093978e+002
4.271567e+002, 1.101000e+002
4.276389e+002, 1.108649e+002
4.281210e+002, 1.119669e+002
4.286031e+002, 1.135917e+002
4.290852e+002, 1.154006e+002
4.295673e+002, 1.165702e+002
4.300494e+002, 1.167930e+002
4.305316e+002, 1.174928e+002
4.310137e+002, 1.194907e+002
4.314958e+002, 1.217492e+002
4.319779e+002, 1.236328e+002
4.324600e+002, 1.251007e+002
4.329421e+002, 1.264639e+002
4.334243e+002, 1.279281e+002
4.339064e+002, 1.294766e+002
4.343885e+002, 1.311109e+002
4.348706e+002, 1.329877e+002
4.353527e+002, 1.345950e+002
4.358348e+002, 1.352596e+002
4.363170e+002, 1.354931e+002
4.367991e+002, 1.361955e+002
4.372812e+002, 1.378086e+002
4.377633e+002, 1.396372e+002
4.382454e+002, 1.410435e+002
4.387275e+002, 1.420804e+002
4.392097e+002, 1.430684e+002
4.396918e+002, 1.440903e+002
4.401739e+002, 1.451404e+002
4.406560e+002, 1.461476e+002
4.411381e+002, 1.470766e+002
4.416202e+002, 1.482776e+002
4.421024e+002, 1.499654e+002
4.425845e+002, 1.519085e+002
4.430666e+002, 1.537094e+002
4.435487e+002, 1.553742e+002
4.440308e+002, 1.574454e+002
4.445129e+002, 1.604048e+002
4.449951e+002, 1.641546e+002
4.454772e+002, 1.678151e+002
4.459593e+002, 1.713419e+002
4.464414e+002, 1.748227e+002
4.469235e+002, 1.782326e+002
4.474056e+002, 1.816282e+002
4.478878e+002, 1.852485e+002
4.483699e+002, 1.891586e+002
4.488520e+002, 1.928909e+002
4.493341e+002, 1.957721e+002
4.498162e+002, 1.977390e+002
4.502983e+002, 1.988753e+002
4.507805e+002, 1.993387e+002
4.512626e+002, 1.989733e+002
4.517447e+002, 1.977204e+002
4.522268e+002, 1.955689e+002
4.527089e+002, 1.924279e+002
4.531910e+002, 1.881799e+002
4.536732e+002, 1.830501e+002
4.541553e+002, 1.779351e+002
4.546374e+002, 1.723826e+002
4.551195e+002, 1.676726e+002
4.556016e+002, 1.643065e+002
4.560837e+002, 1.615530e+002
4.565659e+002, 1.587845e+002
4.570480e+002, 1.558815e+002
4.575301e+002, 1.532893e+002
4.580122e+002, 1.514262e+002
4.584943e+002, 1.502822e+002
4.589764e+002, 1.497098e+002
4.594586e+002, 1.498251e+002
4.599407e+002, 1.503731e+002
4.604228e+002, 1.512012e+002
4.609049e+002, 1.523116e+002
4.613870e+002, 1.537316e+002
4.618691e+002, 1.555159e+002
4.623513e+002, 1.575362e+002
4.628334e+002, 1.597705e+002
4.633155e+002, 1.621996e+002
4.637976e+002, 1.643563e+002
4.642797e+002, 1.662300e+002
4.647618e+002, 1.675810e+002
4.652440e+002, 1.680809e+002
4.657261e+002, 1.677427e+002
4.662082e+002, 1.671147e+002
4.666903e+002, 1.661693e+002
4.671724e+002, 1.651449e+002
4.676545e+002, 1.642722e+002
4.681367e+002, 1.635830e+002
4.686188e+002, 1.631576e+002
4.691009e+002, 1.630874e+002
4.695830e+002, 1.633222e+002
4.700651e+002, 1.636003e+002
4.705472e+002, 1.639868e+002
4.710294e+002, 1.643261e+002
4.715115e+002, 1.646806e+002
4.719936e+002, 1.649236e+002
4.724757e+002, 1.649460e+002
4.729578e+002, 1.647040e+002
4.734399e+002, 1.641211e+002
4.739221e+002, 1.631318e+002
4.744042e+002, 1.617807e+002
4.748863e+002, 1.597155e+002
4.753684e+002, 1.565685e+002
4.758505e+002, 1.531730e+002
4.763326e+002, 1.496739e+002
4.768148e+002, 1.461759e+002
4.772969e+002, 1.428093e+002
4.777790e+002, 1.396612e+002
4.782611e+002, 1.366444e+002
4.787432e+002, 1.335600e+002
4.792253e+002, 1.302461e+002
4.797075e+002, 1.273677e+002
4.801896e+002, 1.251716e+002
4.806717e+002, 1.233019e+002
4.811538e+002, 1.216256e+002
4.816359e+002, 1.201224e+002
4.821180e+002, 1.187855e+002
4.826002e+002, 1.176378e+002
4.830823e+002, 1.166483e+002
4.835644e+002, 1.157334e+002
4.840465e+002, 1.149232e+002
4.845286e+002, 1.140892e+002
4.850107e+002, 1.130653e+002
4.854929e+002, 1.120493e+002
4.859750e+002, 1.113008e+002
4.864571e+002, 1.108940e+002
4.869392e+002, 1.105318e+002
4.874213e+002, 1.098055e+002
4.879034e+002, 1.090264e+002
4.883856e+002, 1.089999e+002
4.888677e+002, 1.099201e+002
4.893498e+002, 1.110390e+002
4.898319e+002, 1.116508e+002
4.903140e+002, 1.118329e+002
4.907961e+002, 1.125040e+002
4.912783e+002, 1.140241e+002
4.917604e+002, 1.156527e+002
4.922425e+002, 1.168847e+002
4.927246e+002, 1.180247e+002
4.932067e+002, 1.197166e+002
4.936888e+002, 1.221793e+002
4.941710e+002, 1.250152e+002
4.946531e+002, 1.275655e+002
4.951352e+002, 1.296476e+002
4.956173e+002, 1.320282e+002
4.960994e+002, 1.347139e+002
4.965815e+002, 1.376409e+002
4.970637e+002, 1.408070e+002
4.975458e+002, 1.441791e+002
4.980279e+002, 1.477646e+002
4.985100e+002, 1.516049e+002
4.989921e+002, 1.554855e+002
4.994742e+002, 1.588195e+002
4.999564e+002, 1.611474e+002
5.004385e+002, 1.640922e+002
5.009206e+002, 1.681839e+002
5.014027e+002, 1.727386e+002
5.018848e+002, 1.773956e+002
5.023669e+002, 1.821323e+002
5.028491e+002, 1.869882e+002
5.033312e+002, 1.918543e+002
5.038133e+002, 1.968919e+002
5.042954e+002, 2.026648e+002
5.047775e+002, 2.093220e+002
5.052596e+002, 2.159046e+002
5.057418e+002, 2.218558e+002
5.062239e+002, 2.274986e+002
5.067060e+002, 2.333340e+002
5.071881e+002, 2.394110e+002
5.076702e+002, 2.455190e+002
5.081523e+002, 2.520838e+002
5.086345e+002, 2.584415e+002
5.091166e+002, 2.635259e+002
5.095987e+002, 2.671978e+002
5.100808e+002, 2.697497e+002
5.105629e+002, 2.716653e+002
5.110450e+002, 2.727210e+002
5.115272e+002, 2.709401e+002
5.120093e+002, 2.657423e+002
5.124914e+002, 2.588176e+002
5.129735e+002, 2.498729e+002
5.134556e+002, 2.397947e+002
5.139377e+002, 2.295308e+002
5.144199e+002, 2.194393e+002
5.149020e+002, 2.092674e+002
5.153841e+002, 1.986841e+002
5.158662e+002, 1.874499e+002
5.163483e+002, 1.775706e+002
5.168304e+002, 1.698900e+002
5.173126e+002, 1.627564e+002
5.177947e+002, 1.557894e+002
5.182768e+002, 1.491015e+002
5.187589e+002, 1.428277e+002
5.192410e+002, 1.370062e+002
5.197231e+002, 1.318491e+002
5.202053e+002, 1.277839e+002
5.206874e+002, 1.248872e+002
5.211695e+002, 1.220856e+002
5.216516e+002, 1.191530e+002
5.221337e+002, 1.164204e+002
5.226158e+002, 1.140902e+002
5.230980e+002, 1.121085e+002
5.235801e+002, 1.103294e+002
5.240622e+002, 1.087948e+002
5.245443e+002, 1.073586e+002
5.250264e+002, 1.058910e+002
5.255085e+002, 1.043899e+002
5.259907e+002, 1.028902e+002
5.264728e+002, 1.013592e+002
5.269549e+002, 9.991303e+001
5.274370e+002, 9.872791e+001
5.279191e+002, 9.780076e+001
5.284012e+002, 9.706159e+001
5.288834e+002, 9.678986e+001
5.293655e+002, 9.645950e+001
5.298476e+002, 9.556841e+001
5.303297e+002, 9.429253e+001
5.308118e+002, 9.317171e+001
5.312939e+002, 9.249119e+001
5.317761e+002, 9.216344e+001
5.322582e+002, 9.199684e+001
5.327403e+002, 9.222420e+001
5.332224e+002, 9.217231e+001
5.337045e+002, 9.161452e+001
5.341866e+002, 9.100056e+001
5.346688e+002, 9.055601e+001
5.351509e+002, 9.029077e+001
5.356330e+002, 9.015557e+001
5.361151e+002, 9.016956e+001
5.365972e+002, 9.022411e+001
5.370793e+002, 8.996448e+001
5.375615e+002, 8.927682e+001
5.380436e+002, 8.875245e+001
5.385257e+002, 8.865525e+001
5.390078e+002, 8.873074e+001
5.394899e+002, 8.877452e+001
5.399720e+002, 8.877966e+001
5.404542e+002, 8.879153e+001
5.409363e+002, 8.886244e+001
5.414184e+002, 8.893888e+001
5.419005e+002, 8.890136e+001
5.423826e+002, 8.875742e+001
5.428647e+002, 8.872337e+001
5.433469e+002, 8.896534e+001
5.438290e+002, 8.933458e+001
5.443111e+002, 8.943105e+001
5.447932e+002, 8.915942e+001
5.452753e+002, 8.888662e+001
5.457574e+002, 8.854975e+001
5.462396e+002, 8.831078e+001
5.467217e+002, 8.839010e+001
5.472038e+002, 8.872843e+001
5.476859e+002, 8.902110e+001
5.481680e+002, 8.903776e+001
5.486501e+002, 8.887119e+001
5.491323e+002, 8.894983e+001
5.496144e+002, 8.948535e+001
5.500965e+002, 8.990025e+001
5.505786e+002, 9.011414e+001
5.510607e+002, 9.021763e+001
5.515428e+002, 9.022141e+001
5.520250e+002, 9.016125e+001
5.525071e+002, 9.015522e+001
5.529892e+002, 9.036642e+001
5.534713e+002, 9.066977e+001
5.539534e+002, 9.063113e+001
5.544355e+002, 9.015514e+001
5.549177e+002, 8.983901e+001
5.553998e+002, 9.012889e+001
5.558819e+002, 9.054406e+001
5.563640e+002, 9.036340e+001
5.568461e+002, 8.948631e+001
5.573282e+002, 8.876802e+001
5.578104e+002, 8.865479e+001
5.582925e+002, 8.880486e+001
5.587746e+002, 8.888286e+001
5.592567e+002, 8.884774e+001
5.597388e+002, 8.866426e+001
5.602209e+002, 8.829773e+001
5.607031e+002, 8.778671e+001
5.611852e+002, 8.725197e+001
5.616673e+002, 8.646791e+001
5.621494e+002, 8.598530e+001
5.626315e+002, 8.615373e+001
5.631136e+002, 8.635823e+001
5.635958e+002, 8.611001e+001
5.640779e+002, 8.545790e+001
5.645600e+002, 8.475899e+001
5.650421e+002, 8.425394e+001
5.655242e+002, 8.390508e+001
5.660063e+002, 8.359498e+001
5.664885e+002, 8.333586e+001
5.669706e+002, 8.308394e+001
5.674527e+002, 8.281965e+001
5.679348e+002, 8.256828e+001
5.684169e+002, 8.232078e+001
5.688990e+002, 8.209164e+001
5.693812e+002, 8.195525e+001
5.698633e+002, 8.196757e+001
5.703454e+002, 8.208834e+001
5.708275e+002, 8.230770e+001
5.713096e+002, 8.261352e+001
5.717917e+002, 8.284012e+001
5.722739e+002, 8.290015e+001
5.727560e+002, 8.287660e+001
5.732381e+002, 8.292539e+001
5.737202e+002, 8.308054e+001
5.742023e+002, 8.317227e+001
5.746844e+002, 8.300599e+001
5.751666e+002, 8.292771e+001
5.756487e+002, 8.325485e+001
5.761308e+002, 8.387057e+001
5.766129e+002, 8.447338e+001
5.770950e+002, 8.491463e+001
5.775771e+002, 8.518230e+001
5.780593e+002, 8.521352e+001
5.785414e+002, 8.486735e+001
5.790235e+002, 8.466945e+001
5.795056e+002, 8.458041e+001
5.799877e+002, 8.471075e+001
5.804698e+002, 8.539050e+001
5.809520e+002, 8.631773e+001
5.814341e+002, 8.678204e+001
5.819162e+002, 8.631054e+001
5.823983e+002, 8.556683e+001
5.828804e+002, 8.547881e+001
5.833625e+002, 8.598486e+001
5.838447e+002, 8.646209e+001
5.843268e+002, 8.682192e+001
5.848089e+002, 8.698629e+001
5.852910e+002, 8.672769e+001
5.857731e+002, 8.610924e+001
5.862552e+002, 8.580087e+001
5.867374e+002, 8.617103e+001
5.872195e+002, 8.654013e+001
5.877016e+002, 8.638909e+001
5.881837e+002, 8.604085e+001
5.886658e+002, 8.615017e+001
5.891479e+002, 8.689079e+001
5.896301e+002, 8.775436e+001
5.901122e+002, 8.808855e+001
5.905943e+002, 8.781551e+001
5.910764e+002, 8.775593e+001
5.915585e+002, 8.814891e+001
5.920406e+002, 8.848076e+001
5.925228e+002, 8.842043e+001
5.930049e+002, 8.833353e+001
5.934870e+002, 8.874322e+001
5.939691e+002, 8.976945e+001
5.944512e+002, 9.083904e+001
5.949333e+002, 9.129156e+001
5.954155e+002, 9.131013e+001
5.958976e+002, 9.174648e+001
5.963797e+002, 9.273568e+001
5.968618e+002, 9.374145e+001
5.973439e+002, 9.444748e+001
5.978260e+002, 9.495322e+001
5.983082e+002, 9.549682e+001
5.987903e+002, 9.603772e+001
5.992724e+002, 9.671811e+001
5.997545e+002, 9.768632e+001
6.002366e+002, 9.875408e+001
6.007188e+002, 9.966380e+001
6.012009e+002, 1.004401e+002
6.016830e+002, 1.013536e+002
6.021651e+002, 1.026131e+002
6.026472e+002, 1.040985e+002
6.031293e+002, 1.053551e+002
6.036115e+002, 1.062122e+002
6.040936e+002, 1.071531e+002
6.045757e+002, 1.083025e+002
6.050578e+002, 1.094511e+002
6.055399e+002, 1.105087e+002
6.060220e+002, 1.114512e+002
6.065042e+002, 1.122759e+002
6.069863e+002, 1.129913e+002
6.074684e+002, 1.135631e+002
6.079505e+002, 1.138794e+002
6.084326e+002, 1.139480e+002
6.089147e+002, 1.140845e+002
6.093969e+002, 1.144274e+002
6.098790e+002, 1.147583e+002
6.103611e+002, 1.147420e+002
6.108432e+002, 1.144223e+002
6.113253e+002, 1.143853e+002
6.118074e+002, 1.151018e+002
6.122896e+002, 1.156882e+002
6.127717e+002, 1.153783e+002
6.132538e+002, 1.147079e+002
6.137359e+002, 1.146230e+002
6.142180e+002, 1.153911e+002
6.147001e+002, 1.165522e+002
6.151823e+002, 1.175543e+002
6.156644e+002, 1.183720e+002
6.161465e+002, 1.195477e+002
6.166286e+002, 1.211265e+002
6.171107e+002, 1.230247e+002
6.175928e+002, 1.253335e+002
6.180750e+002, 1.278481e+002
6.185571e+002, 1.303158e+002
6.190392e+002, 1.326951e+002
6.195213e+002, 1.352683e+002
6.200034e+002, 1.383415e+002
6.204855e+002, 1.417330e+002
6.209677e+002, 1.449338e+002
6.214498e+002, 1.478975e+002
6.219319e+002, 1.513761e+002
6.224140e+002, 1.558491e+002
6.228961e+002, 1.609372e+002
6.233782e+002, 1.658744e+002
6.238604e+002, 1.705400e+002
6.243425e+002, 1.754401e+002
6.248246e+002, 1.808179e+002
6.253067e+002, 1.862471e+002
6.257888e+002, 1.912181e+002
6.262709e+002, 1.960173e+002
6.267531e+002, 2.014315e+002
6.272352e+002, 2.078197e+002
6.277173e+002, 2.149261e+002
6.281994e+002, 2.223630e+002
6.286815e+002, 2.302795e+002
6.291636e+002, 2.377389e+002
6.296458e+002, 2.439549e+002
6.301279e+002, 2.506326e+002
6.306100e+002, 2.589438e+002
6.310921e+002, 2.681863e+002
6.315742e+002, 2.770151e+002
6.320563e+002, 2.849074e+002
6.325385e+002, 2.929300e+002
6.330206e+002, 3.021559e+002
6.335027e+002, 3.119635e+002
6.339848e+002, 3.213311e+002
6.344669e+002, 3.300871e+002
6.349490e+002, 3.380479e+002
6.354312e+002, 3.450835e+002
6.359133e+002, 3.512635e+002
6.363954e+002, 3.569892e+002
6.368775e+002, 3.628427e+002
6.373596e+002, 3.673316e+002
6.378417e+002, 3.702725e+002
6.383239e+002, 3.719239e+002
6.388060e+002, 3.725477e+002
6.392881e+002, 3.720513e+002
6.397702e+002, 3.700823e+002
6.402523e+002, 3.663893e+002
6.407344e+002, 3.612303e+002
6.412166e+002, 3.548577e+002
6.416987e+002, 3.471916e+002
6.421808e+002, 3.395098e+002
6.426629e+002, 3.317744e+002
6.431450e+002, 3.244774e+002
6.436271e+002, 3.181019e+002
6.441093e+002, 3.125091e+002
6.445914e+002, 3.074647e+002
6.450735e+002, 3.027802e+002
6.455556e+002, 2.988496e+002
6.460377e+002, 2.962330e+002
6.465198e+002, 2.943286e+002
6.470020e+002, 2.923795e+002
6.474841e+002, 2.902140e+002
6.479662e+002, 2.879697e+002
6.484483e+002, 2.858500e+002
6.489304e+002, 2.837317e+002
6.494125e+002, 2.805833e+002
6.498947e+002, 2.761078e+002
6.503768e+002, 2.711678e+002
6.508589e+002, 2.652584e+002
6.513410e+002, 2.594991e+002
6.518231e+002, 2.548473e+002
6.523052e+002, 2.511622e+002
6.527874e+002, 2.474071e+002
6.532695e+002, 2.428058e+002
6.537516e+002, 2.381233e+002
6.542337e+002, 2.342514e+002
6.547158e+002, 2.311380e+002
6.551979e+002, 2.285036e+002
6.556801e+002, 2.262397e+002
6.561622e+002, 2.246294e+002
6.566443e+002, 2.240814e+002
6.571264e+002, 2.246583e+002
6.576085e+002, 2.251471e+002
6.580906e+002, 2.251074e+002
6.585728e+002, 2.255379e+002
6.590549e+002, 2.266013e+002
6.595370e+002, 2.282979e+002
6.600191e+002, 2.306385e+002
6.605012e+002, 2.336178e+002
6.609833e+002, 2.372070e+002
6.614655e+002, 2.415233e+002
6.619476e+002, 2.463631e+002
6.624297e+002, 2.509003e+002
6.629118e+002, 2.550430e+002
6.633939e+002, 2.595416e+002
6.638760e+002, 2.645779e+002
6.643582e+002, 2.700963e+002
6.648403e+002, 2.759878e+002
6.653224e+002, 2.822342e+002
6.658045e+002, 2.890296e+002
6.662866e+002, 2.966640e+002
6.667687e+002, 3.045826e+002
6.672509e+002, 3.125338e+002
6.677330e+002, 3.205123e+002
6.682151e+002, 3.284859e+002
6.686972e+002, 3.364803e+002
6.691793e+002, 3.445947e+002
6.696614e+002, 3.530433e+002
6.701436e+002, 3.618064e+002
6.706257e+002, 3.705832e+002
6.711078e+002, 3.795391e+002
6.715899e+002, 3.882130e+002
6.720720e+002, 3.965966e+002
6.725541e+002, 4.046386e+002
6.730363e+002, 4.127919e+002
6.735184e+002, 4.208629e+002
6.740005e+002, 4.272115e+002
6.744826e+002, 4.310761e+002
6.749647e+002, 4.330156e+002
6.754468e+002, 4.340294e+002
6.759290e+002, 4.336223e+002
6.764111e+002, 4.300738e+002
6.768932e+002, 4.228415e+002
6.773753e+002, 4.132650e+002
6.778574e+002, 4.028855e+002
6.783395e+002, 3.917216e+002
6.788217e+002, 3.793050e+002
6.793038e+002, 3.650741e+002
6.797859e+002, 3.502198e+002
6.802680e+002, 3.344902e+002
6.807501e+002, 3.186640e+002
6.812322e+002, 3.032303e+002
6.817144e+002, 2.884293e+002
6.821965e+002, 2.743747e+002
6.826786e+002, 2.613470e+002
6.831607e+002, 2.491438e+002
6.836428e+002, 2.375526e+002
6.841249e+002, 2.265452e+002
6.846071e+002, 2.162799e+002
6.850892e+002, 2.067512e+002
6.855713e+002, 1.979814e+002
6.860534e+002, 1.899051e+002
6.865355e+002, 1.825539e+002
6.870176e+002, 1.761298e+002
6.874998e+002, 1.711051e+002
6.879819e+002, 1.663432e+002
6.884640e+002, 1.617137e+002
6.889461e+002, 1.571227e+002
6.894282e+002, 1.521941e+002
6.899103e+002, 1.470891e+002
6.903925e+002, 1.426757e+002
6.908746e+002, 1.397889e+002
6.913567e+002, 1.379058e+002
6.918388e+002, 1.358895e+002
6.923209e+002, 1.337419e+002
6.928030e+002, 1.314031e+002
6.932852e+002, 1.287597e+002
6.937673e+002, 1.260962e+002
6.942494e+002, 1.236239e+002
6.947315e+002, 1.213542e+002
6.952136e+002, 1.194339e+002
6.956957e+002, 1.182922e+002
6.961779e+002, 1.169749e+002
6.966600e+002, 1.149457e+002
6.971421e+002, 1.126948e+002
6.976242e+002, 1.108124e+002
6.981063e+002, 1.093332e+002
6.985884e+002, 1.078514e+002
6.990706e+002, 1.060428e+002
6.995527e+002, 1.040398e+002
7.000348e+002, 1.022455e+002
7.005169e+002, 1.007188e+002
7.009990e+002, 9.898600e+001
7.014811e+002, 9.672118e+001
7.019633e+002, 9.454802e+001
7.024454e+002, 9.303676e+001
7.029275e+002, 9.205286e+001
7.034096e+002, 9.116753e+001
7.038917e+002, 9.042155e+001
7.043738e+002, 8.963380e+001
7.048560e+002, 8.856474e+001
7.053381e+002, 8.749904e+001
7.058202e+002, 8.685885e+001
7.063023e+002, 8.660949e+001
7.067844e+002, 8.631789e+001
7.072665e+002, 8.568602e+001
7.077487e+002, 8.481721e+001
7.082308e+002, 8.395042e+001
7.087129e+002, 8.301957e+001
7.091950e+002, 8.239326e+001
7.096771e+002, 8.207760e+001
7.101592e+002, 8.213536e+001
7.106414e+002, 8.312211e+001
7.111235e+002, 8.442056e+001
7.116056e+002, 8.459490e+001
7.120877e+002, 8.293307e+001
7.125698e+002, 8.126256e+001
7.130519e+002, 8.049664e+001
7.135341e+002, 8.019469e+001
7.140162e+002, 7.985320e+001
7.144983e+002, 7.945743e+001
7.149804e+002, 7.926973e+001
7.154625e+002, 7.946073e+001
7.159446e+002, 7.978690e+001
7.164268e+002, 7.969731e+001
7.169089e+002, 7.907575e+001
7.173910e+002, 7.855652e+001
7.178731e+002, 7.816777e+001
7.183552e+002, 7.786629e+001
7.188373e+002, 7.769649e+001
7.193195e+002, 7.756851e+001
7.198016e+002, 7.732423e+001
7.202837e+002, 7.690573e+001
7.207658e+002, 7.657594e+001
7.212479e+002, 7.646798e+001
7.217300e+002, 7.650581e+001
7.222122e+002, 7.668521e+001
7.226943e+002, 7.694302e+001
7.231764e+002, 7.706304e+001
7.236585e+002, 7.694811e+001
7.241406e+002, 7.680835e+001
7.246227e+002, 7.702833e+001
7.251049e+002, 7.769365e+001
7.255870e+002, 7.786460e+001
7.260691e+002, 7.703431e+001
7.265512e+002, 7.653462e+001
7.270333e+002, 7.715144e+001
7.275154e+002, 7.809985e+001
7.279976e+002, 7.850655e+001
7.284797e+002, 7.831441e+001
7.289618e+002, 7.837660e+001
7.294439e+002, 7.936061e+001
7.299260e+002, 8.048389e+001
7.304081e+002, 8.090159e+001
7.308903e+002, 8.090826e+001
7.313724e+002, 8.129042e+001
7.318545e+002, 8.226046e+001
7.323366e+002, 8.336347e+001
7.328187e+002, 8.412774e+001
7.333008e+002, 8.457781e+001
7.337830e+002, 8.499597e+001
7.342651e+002, 8.523928e+001
7.347472e+002, 8.576277e+001
7.352293e+002, 8.696305e+001
7.357114e+002, 8.823848e+001
7.361935e+002, 8.909718e+001
7.366757e+002, 8.963201e+001
7.371578e+002, 9.033751e+001
7.376399e+002, 9.144193e+001
7.381220e+002, 9.265935e+001
7.386041e+002, 9.371656e+001
7.390862e+002, 9.479322e+001
7.395684e+002, 9.622709e+001
7.400505e+002, 9.802190e+001
7.405326e+002, 9.986502e+001
7.410147e+002, 1.015301e+002
7.414968e+002, 1.030816e+002
7.419789e+002, 1.047486e+002
7.424611e+002, 1.066009e+002
7.429432e+002, 1.083071e+002
7.434253e+002, 1.098601e+002
7.439074e+002, 1.112156e+002
7.443895e+002, 1.125005e+002
7.448716e+002, 1.135503e+002
7.453538e+002, 1.140220e+002
7.458359e+002, 1.137738e+002
7.463180e+002, 1.132396e+002
7.468001e+002, 1.128484e+002
7.472822e+002, 1.121020e+002
7.477643e+002, 1.102205e+002
7.482465e+002, 1.074961e+002
7.487286e+002, 1.048747e+002
7.492107e+002, 1.027950e+002
7.496928e+002, 1.010086e+002
7.501749e+002, 9.919563e+001
7.506570e+002, 9.736236e+001
7.511392e+002, 9.521153e+001
7.516213e+002, 9.241299e+001
7.521034e+002, 9.003667e+001
7.525855e+002, 8.861285e+001
7.530676e+002, 8.776613e+001
7.535497e+002, 8.708337e+001
7.540319e+002, 8.655989e+001
7.545140e+002, 8.611823e+001
7.549961e+002, 8.575572e+001
7.554782e+002, 8.545248e+001
7.559603e+002, 8.522079e+001
7.564424e+002, 8.503249e+001
7.569246e+002, 8.483798e+001
7.574067e+002, 8.463105e+001
7.578888e+002, 8.446021e+001
7.583709e+002, 8.438448e+001
7.588530e+002, 8.435397e+001
7.593351e+002, 8.416602e+001
7.598173e+002, 8.378987e+001
7.602994e+002, 8.351004e+001
7.607815e+002, 8.333949e+001
7.612636e+002, 8.337218e+001
7.617457e+002, 8.381680e+001
7.622278e+002, 8.455883e+001
7.627100e+002, 8.503225e+001
7.631921e+002, 8.500565e+001
7.636742e+002, 8.505099e+001
7.641563e+002, 8.536616e+001
7.646384e+002, 8.574877e+001
7.651205e+002, 8.601524e+001
7.656027e+002, 8.620582e+001
7.660848e+002, 8.649106e+001
7.665669e+002, 8.695775e+001
7.670490e+002, 8.744016e+001
7.675311e+002, 8.773595e+001
7.680132e+002, 8.785722e+001
7.684954e+002, 8.781062e+001
7.689775e+002, 8.756123e+001
7.694596e+002, 8.748656e+001
7.699417e+002, 8.787373e+001
7.704238e+002, 8.838235e+001
7.709059e+002, 8.839034e+001
7.713881e+002, 8.773306e+001
7.718702e+002, 8.721748e+001
7.723523e+002, 8.685289e+001
7.728344e+002, 8.660925e+001
7.733165e+002, 8.664292e+001
7.737986e+002, 8.669536e+001
7.742808e+002, 8.640305e+001
7.747629e+002, 8.577273e+001
7.752450e+002, 8.523283e+001
7.757271e+002, 8.516648e+001
7.762092e+002, 8.526028e+001
7.766913e+002, 8.500581e+001
7.771735e+002, 8.449482e+001
7.776556e+002, 8.408667e+001
7.781377e+002, 8.386008e+001
7.786198e+002, 8.383491e+001
7.791019e+002, 8.410388e+001
7.795840e+002, 8.453570e+001
7.800662e+002, 8.441889e+001
7.805483e+002, 8.329714e+001
7.810304e+002, 8.249259e+001
7.815125e+002, 8.237464e+001
7.819946e+002, 8.229369e+001
7.824767e+002, 8.191165e+001
7.829589e+002, 8.134492e+001
7.834410e+002, 8.084289e+001
7.839231e+002, 8.047582e+001
7.844052e+002, 8.011630e+001
7.848873e+002, 7.957919e+001
7.853694e+002, 7.907925e+001
7.858516e+002, 7.893789e+001
7.863337e+002, 7.908388e+001
7.868158e+002, 7.924955e+001
7.872979e+002, 7.932613e+001
7.877800e+002, 7.929405e+001
7.882621e+002, 7.905851e+001
7.887443e+002, 7.863961e+001
7.892264e+002, 7.870064e+001
7.897085e+002, 7.949651e+001
7.901906e+002, 8.005090e+001
7.906727e+002, 7.989184e+001
7.911548e+002, 7.956314e+001
7.916370e+002, 7.964355e+001
7.921191e+002, 8.006914e+001
7.926012e+002, 8.039261e+001
7.930833e+002, 8.036526e+001
7.935654e+002, 8.045480e+001
7.940475e+002, 8.103281e+001
7.945297e+002, 8.167624e+001
7.950118e+002, 8.183816e+001
7.954939e+002, 8.162698e+001
7.959760e+002, 8.162999e+001
7.964581e+002, 8.219732e+001
7.969402e+002, 8.295000e+001
7.974224e+002, 8.322042e+001
7.979045e+002, 8.312081e+001
7.983866e+002, 8.343258e+001
7.988687e+002, 8.424760e+001
7.993508e+002, 8.521571e+001
7.998329e+002, 8.620432e+001
8.003151e+002, 8.717113e+001
8.007972e+002, 8.802092e+001
8.012793e+002, 8.873356e+001
8.017614e+002, 8.941638e+001
8.022435e+002, 8.995360e+001
8.027256e+002, 9.060758e+001
8.032078e+002, 9.144577e+001
8.036899e+002, 9.244363e+001
8.041720e+002, 9.363413e+001
8.046541e+002, 9.498032e+001
8.051362e+002, 9.630998e+001
8.056183e+002, 9.748032e+001
8.061005e+002, 9.864516e+001
8.065826e+002, 9.995151e+001
8.070647e+002, 1.013709e+002
8.075468e+002, 1.029088e+002
8.080289e+002, 1.045398e+002
8.085110e+002, 1.059912e+002
8.089932e+002, 1.070497e+002
8.094753e+002, 1.078782e+002
8.099574e+002, 1.089903e+002
8.104395e+002, 1.105614e+002
8.109216e+002, 1.116492e+002
8.114037e+002, 1.121725e+002
8.118859e+002, 1.122642e+002
8.123680e+002, 1.120272e+002
8.128501e+002, 1.113662e+002
8.133322e+002, 1.100702e+002
8.138143e+002, 1.080675e+002
8.142964e+002, 1.059080e+002
8.147786e+002, 1.035788e+002
8.152607e+002, 1.012625e+002
8.157428e+002, 9.906526e+001
8.162249e+002, 9.695393e+001
8.167070e+002, 9.481692e+001
8.171891e+002, 9.268825e+001
8.176713e+002, 9.082351e+001
8.181534e+002, 8.945744e+001
8.186355e+002, 8.843427e+001
8.191176e+002, 8.743746e+001
8.195997e+002, 8.649274e+001
8.200818e+002, 8.588392e+001
8.205640e+002, 8.570473e+001
8.210461e+002, 8.545668e+001
8.215282e+002, 8.476465e+001
8.220103e+002, 8.377095e+001
8.224924e+002, 8.290481e+001
8.229745e+002, 8.212264e+001
8.234567e+002, 8.155409e+001
8.239388e+002, 8.141677e+001
8.244209e+002, 8.124004e+001
8.249030e+002, 8.063241e+001
8.253851e+002, 8.000601e+001
8.258672e+002, 8.003204e+001
8.263494e+002, 8.078366e+001
8.268315e+002, 8.129823e+001
8.273136e+002, 8.091199e+001
8.277957e+002, 8.031165e+001
8.282778e+002, 8.003713e+001
8.287599e+002, 7.998204e+001
8.292421e+002, 7.995047e+001
8.297242e+002, 7.989467e+001
8.302063e+002, 7.983377e+001
8.306884e+002, 7.977961e+001
8.311705e+002, 7.973662e+001
8.316526e+002, 7.972724e+001
8.321348e+002, 7.975349e+001
8.326169e+002, 7.971696e+001
8.330990e+002, 7.956258e+001
8.335811e+002, 7.948844e+001
8.340632e+002, 7.963654e+001
8.345453e+002, 7.992227e+001
8.350275e+002, 8.019198e+001
8.355096e+002, 8.052231e+001
8.359917e+002, 8.058084e+001
8.364738e+002, 8.007882e+001
8.369559e+002, 7.964275e+001
8.374380e+002, 7.952995e+001
8.379202e+002, 7.958639e+001
8.384023e+002, 7.964674e+001
8.388844e+002, 7.968436e+001
8.393665e+002, 7.973667e+001
8.398486e+002, 7.983376e+001
8.403307e+002, 7.994405e+001
8.408129e+002, 8.010500e+001
8.412950e+002, 8.023503e+001
8.417771e+002, 8.009964e+001
8.422592e+002, 7.971426e+001
8.427413e+002, 7.939304e+001
8.432234e+002, 7.933965e+001
8.437056e+002, 7.944286e+001
8.441877e+002, 7.951752e+001
8.446698e+002, 7.957675e+001
8.451519e+002, 7.937946e+001
8.456340e+002, 7.873727e+001
8.461161e+002, 7.836871e+001
8.465983e+002, 7.869571e+001
8.470804e+002, 7.933749e+001
8.475625e+002, 7.985988e+001
8.480446e+002, 8.028247e+001
8.485267e+002, 8.027940e+001
8.490089e+002, 7.919688e+001
8.494910e+002, 7.851229e+001
8.499731e+002, 7.892156e+001
8.504552e+002, 7.968213e+001
8.509373e+002, 8.030729e+001
8.514194e+002, 8.066116e+001
8.519016e+002, 8.054988e+001
8.523837e+002, 7.974174e+001
8.528658e+002, 7.899022e+001
8.533479e+002, 7.917775e+001
8.538300e+002, 7.979690e+001
8.543121e+002, 7.987330e+001
8.547943e+002, 7.947022e+001
8.552764e+002, 7.929574e+001
8.557585e+002, 7.965771e+001
8.562406e+002, 8.014906e+001
8.567227e+002, 8.019714e+001
8.572048e+002, 7.985394e+001
8.576870e+002, 7.987184e+001
8.581691e+002, 8.039278e+001
8.586512e+002, 8.069852e+001
8.591333e+002, 8.053536e+001
8.596154e+002, 8.022489e+001
8.600975e+002, 8.001321e+001
8.605797e+002, 7.989207e+001
8.610618e+002, 7.980681e+001
8.615439e+002, 7.983399e+001
8.620260e+002, 7.976946e+001
8.625081e+002, 7.940189e+001
8.629902e+002, 7.912887e+001
8.634724e+002, 7.933243e+001
8.639545e+002, 7.973579e+001
8.644366e+002, 7.984373e+001
8.649187e+002, 7.954305e+001
8.654008e+002, 7.923206e+001
8.658829e+002, 7.910857e+001
8.663651e+002, 7.916454e+001
8.668472e+002, 7.951495e+001
8.673293e+002, 8.001408e+001
8.678114e+002, 8.030494e+001
8.682935e+002, 8.032467e+001
8.687756e+002, 8.028835e+001
8.692578e+002, 8.037125e+001
8.697399e+002, 8.047249e+001
8.702220e+002, 8.028577e+001
8.707041e+002, 7.978976e+001
8.711862e+002, 7.947714e+001
8.716683e+002, 7.942578e+001
8.721505e+002, 7.942414e+001
8.726326e+002, 7.937202e+001
8.731147e+002, 7.929796e+001
8.735968e+002, 7.923210e+001
8.740789e+002, 7.914790e+001
8.745610e+002, 7.921866e+001
8.750432e+002, 7.968503e+001
8.755253e+002, 7.998158e+001
8.760074e+002, 7.989100e+001
8.764895e+002, 7.965224e+001
8.769716e+002, 7.946153e+001
8.774537e+002, 7.930937e+001
8.779359e+002, 7.905752e+001
8.784180e+002, 7.853954e+001
8.789001e+002, 7.821008e+001
8.793822e+002, 7.850205e+001
8.798643e+002, 7.901772e+001
8.803464e+002, 7.938670e+001
8.808286e+002, 7.956950e+001
8.813107e+002, 7.952223e+001
8.817928e+002, 7.925158e+001
8.822749e+002, 7.903078e+001
8.827570e+002, 7.922339e+001
8.832391e+002, 7.966581e+001
8.837213e+002, 7.981555e+001
8.842034e+002, 7.969072e+001
8.846855e+002, 7.958141e+001
8.851676e+002, 7.955050e+001
8.856497e+002, 7.958702e+001
8.861318e+002, 7.971647e+001
8.866140e+002, 7.986781e+001
8.870961e+002, 7.977694e+001
8.875782e+002, 7.928522e+001
8.880603e+002, 7.895578e+001
8.885424e+002, 7.880417e+001
8.890245e+002, 7.879839e+001
8.895067e+002, 7.912055e+001
8.899888e+002, 7.946278e+001
8.904709e+002, 7.936936e+001
8.909530e+002, 7.883111e+001
8.914351e+002, 7.856443e+001
8.919172e+002, 7.896181e+001
8.923994e+002, 7.935022e+001
8.928815e+002, 7.932539e+001
8.933636e+002, 7.926268e+001
8.938457e+002, 7.975575e+001
8.943278e+002, 8.054353e+001
8.948099e+002, 8.066998e+001
8.952921e+002, 7.963725e+001
8.957742e+002, 7.865076e+001
8.962563e+002, 7.912081e+001
8.967384e+002, 8.025557e+001
8.972205e+002, 8.061358e+001
8.977026e+002, 8.034851e+001
8.981848e+002, 8.037467e+001
8.986669e+002, 8.096410e+001
8.991490e+002, 8.157314e+001
8.996311e+002, 8.165295e+001
9.001132e+002, 8.135830e+001
9.005953e+002, 8.130838e+001
9.010775e+002, 8.153940e+001
9.015596e+002, 8.155834e+001
9.020417e+002, 8.120287e+001
9.025238e+002, 8.094953e+001
9.030059e+002, 8.111913e+001
9.034880e+002, 8.152911e+001
9.039702e+002, 8.177988e+001
9.044523e+002, 8.174871e+001
9.049344e+002, 8.205132e+001
9.054165e+002, 8.319038e+001
9.058986e+002, 8.400957e+001
9.063807e+002, 8.413965e+001
9.068629e+002, 8.394268e+001
9.073450e+002, 8.363712e+001
9.078271e+002, 8.327953e+001
9.083092e+002, 8.298351e+001
9.087913e+002, 8.273969e+001
9.092734e+002, 8.263551e+001
9.097556e+002, 8.278014e+001
9.102377e+002, 8.301951e+001
9.107198e+002, 8.324657e+001
9.112019e+002, 8.345158e+001
9.116840e+002, 8.365507e+001
9.121661e+002, 8.385708e+001
9.126483e+002, 8.400615e+001
9.131304e+002, 8.408510e+001
9.136125e+002, 8.406278e+001
9.140946e+002, 8.378429e+001
9.145767e+002, 8.336349e+001
9.150588e+002, 8.322381e+001
9.155410e+002, 8.340685e+001
9.160231e+002, 8.351910e+001
9.165052e+002, 8.328886e+001
9.169873e+002, 8.297951e+001
9.174694e+002, 8.319756e+001
9.179515e+002, 8.397657e+001
9.184337e+002, 8.431406e+001
9.189158e+002, 8.412581e+001
9.193979e+002, 8.383752e+001
9.198800e+002, 8.351040e+001
9.203621e+002, 8.331010e+001
9.208442e+002, 8.347461e+001
9.213264e+002, 8.395393e+001
9.218085e+002, 8.420857e+001
9.222906e+002, 8.398873e+001
9.227727e+002, 8.395565e+001
9.232548e+002, 8.405300e+001
9.237369e+002, 8.442640e+001
9.242191e+002, 8.548521e+001
9.247012e+002, 8.671130e+001
9.251833e+002, 8.723573e+001
9.256654e+002, 8.693047e+001
9.261475e+002, 8.676906e+001
9.266296e+002, 8.696841e+001
9.271118e+002, 8.746580e+001
9.275939e+002, 8.853613e+001
9.280760e+002, 8.967344e+001
9.285581e+002, 9.028753e+001
9.290402e+002, 9.044216e+001
9.295223e+002, 9.054094e+001
9.300045e+002, 9.073933e+001
9.304866e+002, 9.108302e+001
9.309687e+002, 9.170554e+001
9.314508e+002, 9.244661e+001
9.319329e+002, 9.291806e+001
9.324150e+002, 9.328515e+001
9.328972e+002, 9.423766e+001
9.333793e+002, 9.589102e+001
9.338614e+002, 9.741858e+001
9.343435e+002, 9.804179e+001
9.348256e+002, 9.816109e+001
9.353077e+002, 9.872580e+001
9.357899e+002, 9.971640e+001
9.362720e+002, 1.009939e+002
9.367541e+002, 1.025880e+002
9.372362e+002, 1.038104e+002
9.377183e+002, 1.042397e+002
9.382004e+002, 1.043742e+002
9.386826e+002, 1.049424e+002
9.391647e+002, 1.059519e+002
9.396468e+002, 1.071809e+002
9.401289e+002, 1.088979e+002
9.406110e+002, 1.101700e+002
9.410931e+002, 1.106864e+002
9.415753e+002, 1.108736e+002
9.420574e+002, 1.107837e+002
9.425395e+002, 1.106341e+002
9.430216e+002, 1.110509e+002
9.435037e+002, 1.122752e+002
9.439858e+002, 1.133280e+002
9.444680e+002, 1.139838e+002
9.449501e+002, 1.146362e+002
9.454322e+002, 1.153462e+002
9.459143e+002, 1.161907e+002
9.463964e+002, 1.172221e+002
9.468785e+002, 1.184560e+002
9.473607e+002, 1.199223e+002
9.478428e+002, 1.217435e+002
9.483249e+002, 1.235809e+002
9.488070e+002, 1.251117e+002
9.492891e+002, 1.266892e+002
9.497712e+002, 1.289200e+002
9.502534e+002, 1.313692e+002
9.507355e+002, 1.329028e+002
9.512176e+002, 1.333633e+002
9.516997e+002, 1.341084e+002
9.521818e+002, 1.364443e+002
9.526639e+002, 1.392386e+002
9.531461e+002, 1.410157e+002
9.536282e+002, 1.420186e+002
9.541103e+002, 1.427986e+002
9.545924e+002, 1.433973e+002
9.550745e+002, 1.435746e+002
9.555566e+002, 1.432112e+002
9.560388e+002, 1.423999e+002
9.565209e+002, 1.412575e+002
9.570030e+002, 1.397777e+002
9.574851e+002, 1.378526e+002
9.579672e+002, 1.354746e+002
9.584493e+002, 1.331257e+002
9.589315e+002, 1.309281e+002
9.594136e+002, 1.285447e+002
9.598957e+002, 1.256533e+002
9.603778e+002, 1.225171e+002
9.608599e+002, 1.197728e+002
9.613420e+002, 1.174103e+002
9.618242e+002, 1.156237e+002
9.623063e+002, 1.147875e+002
9.627884e+002, 1.135843e+002
9.632705e+002, 1.112981e+002
9.637526e+002, 1.088600e+002
9.642347e+002, 1.071512e+002
9.647169e+002, 1.061194e+002
9.651990e+002, 1.053637e+002
9.656811e+002, 1.051903e+002
9.661632e+002, 1.048266e+002
9.666453e+002, 1.041066e+002
9.671274e+002, 1.033872e+002
9.676096e+002, 1.027334e+002
9.680917e+002, 1.022102e+002
9.685738e+002, 1.020031e+002
9.690559e+002, 1.020859e+002
9.695380e+002, 1.018999e+002
9.700201e+002, 1.010448e+002
9.705023e+002, 1.002514e+002
9.709844e+002, 9.976306e+001
9.714665e+002, 9.944880e+001
9.719486e+002, 9.928108e+001
9.724307e+002, 9.917398e+001
9.729128e+002, 9.891743e+001
9.733950e+002, 9.846687e+001
9.738771e+002, 9.825304e+001
9.743592e+002, 9.888432e+001
9.748413e+002, 9.950468e+001
9.753234e+002, 9.917715e+001
9.758055e+002, 9.845734e+001
9.762877e+002, 9.816079e+001
9.767698e+002, 9.831440e+001
9.772519e+002, 9.857799e+001
9.777340e+002, 9.879930e+001
9.782161e+002, 9.891068e+001
9.786982e+002, 9.875892e+001
9.791804e+002, 9.848857e+001
9.796625e+002, 9.836789e+001
9.801446e+002, 9.837495e+001
9.806267e+002, 9.834431e+001
9.811088e+002, 9.827852e+001
9.815909e+002, 9.856754e+001
9.820731e+002, 9.953514e+001
9.825552e+002, 1.006775e+002
9.830373e+002, 1.010159e+002
9.835194e+002, 1.006655e+002
9.840015e+002, 1.004170e+002
9.844836e+002, 1.002969e+002
9.849658e+002, 1.004428e+002
9.854479e+002, 1.009285e+002
9.859300e+002, 1.014027e+002
9.864121e+002, 1.015139e+002
9.868942e+002, 1.013991e+002
9.873763e+002, 1.015661e+002
9.878585e+002, 1.020637e+002
9.883406e+002, 1.025272e+002
9.888227e+002, 1.029309e+002
9.893048e+002, 1.033423e+002
9.897869e+002, 1.038380e+002
9.902690e+002, 1.042508e+002
9.907512e+002, 1.043400e+002
9.912333e+002, 1.041402e+002
9.917154e+002, 1.040903e+002
9.921975e+002, 1.042523e+002
9.926796e+002, 1.044383e+002
9.931617e+002, 1.047130e+002
9.936439e+002, 1.049011e+002
9.941260e+002, 1.048350e+002
9.946081e+002, 1.046853e+002
9.950902e+002, 1.047338e+002
9.955723e+002, 1.049928e+002
9.960544e+002, 1.050943e+002
9.965366e+002, 1.048344e+002
9.970187e+002, 1.046902e+002
9.975008e+002, 1.049680e+002
9.979829e+002, 1.051489e+002
9.984650e+002, 1.047335e+002
9.989471e+002, 1.040790e+002
9.994293e+002, 1.038311e+002
9.999114e+002, 1.040896e+002
1.000393e+003, 1.043681e+002
1.000876e+003, 1.046716e+002
1.001358e+003, 1.047919e+002
1.001840e+003, 1.044977e+002
1.002322e+003, 1.041028e+002
1.002804e+003, 1.039113e+002
1.003286e+003, 1.038448e+002
1.003768e+003, 1.036214e+002
1.004250e+003, 1.031497e+002
1.004733e+003, 1.028164e+002
1.005215e+003, 1.029000e+002
1.005697e+003, 1.031234e+002
1.006179e+003, 1.034686e+002
1.006661e+003, 1.037095e+002
1.007143e+003, 1.034310e+002
1.007625e+003, 1.027772e+002
1.008107e+003, 1.022972e+002
1.008589e+003, 1.022256e+002
1.009072e+003, 1.023017e+002
1.009554e+003, 1.024264e+002
1.010036e+003, 1.024809e+002
1.010518e+003, 1.021996e+002
1.011000e+003, 1.017824e+002
1.011482e+003, 1.016323e+002
1.011964e+003, 1.017855e+002
1.012446e+003, 1.020619e+002
1.012929e+003, 1.023842e+002
1.013411e+003, 1.026062e+002
1.013893e+003, 1.024295e+002
1.014375e+003, 1.020891e+002
1.014857e+003, 1.020794e+002
1.015339e+003, 1.023380e+002
1.015821e+003, 1.026447e+002
1.016303e+003, 1.029274e+002
1.016785e+003, 1.030976e+002
1.017268e+003, 1.030905e+002
1.017750e+003, 1.029687e+002
1.018232e+003, 1.027725e+002
1.018714e+003, 1.025505e+002
1.019196e+003, 1.025229e+002
1.019678e+003, 1.026786e+002
1.020160e+003, 1.028984e+002
1.020642e+003, 1.031477e+002
1.021125e+003, 1.032307e+002
1.021607e+003, 1.029410e+002
1.022089e+003, 1.025634e+002
1.022571e+003, 1.029146e+002
1.023053e+003, 1.039290e+002
1.023535e+003, 1.041246e+002
1.024017e+003, 1.034047e+002
1.024499e+003, 1.030206e+002
1.024981e+003, 1.033736e+002
1.025464e+003, 1.041314e+002
1.025946e+003, 1.050608e+002
1.026428e+003, 1.060378e+002
1.026910e+003, 1.066236e+002
1.027392e+003, 1.067640e+002
1.027874e+003, 1.070321e+002
1.028356e+003, 1.074535e+002
1.028838e+003, 1.079592e+002
1.029321e+003, 1.085070e+002
1.029803e+003, 1.092123e+002
1.030285e+003, 1.102860e+002
1.030767e+003, 1.115604e+002
1.031249e+003, 1.122330e+002
1.031731e+003, 1.120901e+002
1.032213e+003, 1.121824e+002
1.032695e+003, 1.126292e+002
1.033177e+003, 1.130748e+002
1.033660e+003, 1.133611e+002
1.034142e+003, 1.136278e+002
1.034624e+003, 1.139447e+002
1.035106e+003, 1.143713e+002
1.035588e+003, 1.153022e+002
1.036070e+003, 1.171159e+002
1.036552e+003, 1.185041e+002
1.037034e+003, 1.191553e+002
1.037516e+003, 1.198747e+002
1.037999e+003, 1.209332e+002
1.038481e+003, 1.222205e+002
1.038963e+003, 1.237966e+002
1.039445e+003, 1.255553e+002
1.039927e+003, 1.266530e+002
1.040409e+003, 1.263426e+002
1.040891e+003, 1.266987e+002
1.041373e+003, 1.283340e+002
1.041855e+003, 1.298615e+002
1.042338e+003, 1.306476e+002
1.042820e+003, 1.311679e+002
1.043302e+003, 1.319956e+002
1.043784e+003, 1.330465e+002
1.044266e+003, 1.336779e+002
1.044748e+003, 1.335286e+002
1.045230e+003, 1.335351e+002
1.045712e+003, 1.338229e+002
1.046195e+003, 1.341799e+002
1.046677e+003, 1.344887e+002
1.047159e+003, 1.348502e+002
1.047641e+003, 1.353865e+002
1.048123e+003, 1.360840e+002
1.048605e+003, 1.368358e+002
1.049087e+003, 1.377120e+002
1.049569e+003, 1.384992e+002
1.050052e+003, 1.390885e+002
1.050534e+003, 1.396697e+002
1.051016e+003, 1.404366e+002
1.051498e+003, 1.411635e+002
1.051980e+003, 1.415616e+002
1.052462e+003, 1.416643e+002
1.052944e+003, 1.417943e+002
1.053426e+003, 1.422310e+002
1.053908e+003, 1.422449e+002
1.054391e+003, 1.412949e+002
1.054873e+003, 1.403196e+002
1.055355e+003, 1.400463e+002
1.055837e+003, 1.398260e+002
1.056319e+003, 1.386541e+002
1.056801e+003, 1.367440e+002
1.057283e+003, 1.354735e+002
1.057765e+003, 1.353823e+002
1.058248e+003, 1.354402e+002
1.058730e+003, 1.354440e+002
1.059212e+003, 1.354083e+002
1.059694e+003, 1.354398e+002
1.060176e+003, 1.353685e+002
1.060658e+003, 1.350431e+002
1.061140e+003, 1.344349e+002
1.061622e+003, 1.334436e+002
1.062104e+003, 1.317473e+002
1.062587e+003, 1.305252e+002
1.063069e+003, 1.305419e+002
1.063551e+003, 1.307716e+002
1.064033e+003, 1.309392e+002
1.064515e+003, 1.307671e+002
1.064997e+003, 1.296342e+002
1.065479e+003, 1.278876e+002
1.065961e+003, 1.269035e+002
1.066443e+003, 1.273480e+002
1.066926e+003, 1.275966e+002
1.067408e+003, 1.270537e+002
1.067890e+003, 1.260484e+002
1.068372e+003, 1.241743e+002
1.068854e+003, 1.223755e+002
1.069336e+003, 1.219631e+002
1.069818e+003, 1.225857e+002
1.070300e+003, 1.226936e+002
1.070782e+003, 1.216911e+002
1.071265e+003, 1.209113e+002
1.071747e+003, 1.213404e+002
1.072229e+003, 1.217019e+002
1.072711e+003, 1.210442e+002
1.073193e+003, 1.200512e+002
1.073675e+003, 1.193441e+002
1.074157e+003, 1.190193e+002
1.074639e+003, 1.191221e+002
1.075122e+003, 1.197260e+002
1.075604e+003, 1.202775e+002
1.076086e+003, 1.203781e+002
1.076568e+003, 1.205268e+002
1.077050e+003, 1.212121e+002
1.077532e+003, 1.219369e+002
1.078014e+003, 1.220062e+002
1.078496e+003, 1.217005e+002
1.078979e+003, 1.218579e+002
1.079461e+003, 1.227151e+002
1.079943e+003, 1.235841e+002
1.080425e+003, 1.242131e+002
1.080907e+003, 1.246874e+002
1.081389e+003, 1.250958e+002
1.081871e+003, 1.253319e+002
1.082353e+003, 1.252098e+002
1.082835e+003, 1.248572e+002
1.083318e+003, 1.245084e+002
1.083800e+003, 1.242202e+002
1.084282e+003, 1.240716e+002
1.084764e+003, 1.242288e+002
1.085246e+003, 1.243652e+002
1.085728e+003, 1.242642e+002
1.086210e+003, 1.241225e+002
1.086692e+003, 1.241883e+002
1.087175e+003, 1.243094e+002
1.087657e+003, 1.242097e+002
1.088139e+003, 1.238394e+002
1.088621e+003, 1.233005e+002
1.089103e+003, 1.222248e+002
1.089585e+003, 1.215613e+002
1.090067e+003, 1.219826e+002
1.090549e+003, 1.227091e+002
1.091031e+003, 1.232627e+002
1.091514e+003, 1.236539e+002
1.091996e+003, 1.239614e+002
1.092478e+003, 1.241987e+002
1.092960e+003, 1.243439e+002
1.093442e+003, 1.242569e+002
1.093924e+003, 1.243244e+002
1.094406e+003, 1.248612e+002
1.094888e+003, 1.254165e+002
1.095370e+003, 1.255478e+002
1.095853e+003, 1.256202e+002
1.096335e+003, 1.261010e+002
1.096817e+003, 1.269994e+002
1.097299e+003, 1.280829e+002
1.097781e+003, 1.294239e+002
1.098263e+003, 1.306046e+002
1.098745e+003, 1.312426e+002
1.099227e+003, 1.319857e+002
1.099709e+003, 1.333837e+002
1.100192e+003, 1.349027e+002
1.100674e+003, 1.358985e+002
1.101156e+003, 1.364950e+002
1.101638e+003, 1.373098e+002
1.102120e+003, 1.386190e+002
1.102602e+003, 1.395332e+002
1.103084e+003, 1.394504e+002
1.103566e+003, 1.394299e+002
1.104049e+003, 1.398994e+002
1.104531e+003, 1.405940e+002
1.105013e+003, 1.413392e+002
1.105495e+003, 1.421068e+002
1.105977e+003, 1.429047e+002
1.106459e+003, 1.437652e+002
1.106941e+003, 1.444517e+002
1.107423e+003, 1.446507e+002
1.107906e+003, 1.450545e+002
1.108388e+003, 1.460763e+002
1.108870e+003, 1.471221e+002
1.109352e+003, 1.478568e+002
1.109834e+003, 1.483243e+002
1.110316e+003, 1.486281e+002
1.110798e+003, 1.487810e+002
1.111280e+003, 1.487003e+002
1.111762e+003, 1.483361e+002
1.112245e+003, 1.478085e+002
1.112727e+003, 1.466080e+002
1.113209e+003, 1.458473e+002
1.113691e+003, 1.465802e+002
1.114173e+003, 1.477289e+002
1.114655e+003, 1.478211e+002
1.115137e+003, 1.469492e+002
1.115619e+003, 1.464430e+002
1.116102e+003, 1.465932e+002
1.116584e+003, 1.465865e+002
1.117066e+003, 1.461341e+002
1.117548e+003, 1.459382e+002
1.118030e+003, 1.463414e+002
1.118512e+003, 1.469933e+002
1.118994e+003, 1.476059e+002
1.119476e+003, 1.481839e+002
1.119958e+003, 1.487197e+002
1.120441e+003, 1.490660e+002
1.120923e+003, 1.498599e+002
1.121405e+003, 1.512545e+002
1.121887e+003, 1.527637e+002
1.122369e+003, 1.542945e+002
1.122851e+003, 1.558325e+002
1.123333e+003, 1.573124e+002
1.123815e+003, 1.588465e+002
1.124297e+003, 1.606714e+002
1.124780e+003, 1.627750e+002
1.125262e+003, 1.652192e+002
1.125744e+003, 1.679431e+002
1.126226e+003, 1.712312e+002
1.126708e+003, 1.751954e+002
1.127190e+003, 1.795974e+002
1.127672e+003, 1.844819e+002
1.128154e+003, 1.892754e+002
1.128636e+003, 1.930505e+002
1.129119e+003, 1.959744e+002
1.129601e+003, 1.995216e+002
1.130083e+003, 2.038350e+002
1.130565e+003, 2.073437e+002
1.131047e+003, 2.098244e+002
1.131529e+003, 2.120287e+002
1.132011e+003, 2.142537e+002
1.132493e+003, 2.162405e+002
1.132976e+003, 2.177242e+002
1.133458e+003, 2.187679e+002
1.133940e+003, 2.195388e+002
1.134422e+003, 2.200433e+002
1.134904e+003, 2.201293e+002
1.135386e+003, 2.198465e+002
1.135868e+003, 2.203540e+002
1.136350e+003, 2.219567e+002
1.136833e+003, 2.239010e+002
1.137315e+003, 2.256584e+002
1.137797e+003, 2.274866e+002
1.138279e+003, 2.298319e+002
1.138761e+003, 2.325995e+002
1.139243e+003, 2.356302e+002
1.139725e+003, 2.387806e+002
1.140207e+003, 2.414154e+002
1.140689e+003, 2.434845e+002
1.141172e+003, 2.455320e+002
1.141654e+003, 2.478132e+002
1.142136e+003, 2.494822e+002
1.142618e+003, 2.497962e+002
1.143100e+003, 2.487399e+002
1.143582e+003, 2.463356e+002
1.144064e+003, 2.425039e+002
1.144546e+003, 2.368034e+002
1.145029e+003, 2.295386e+002
1.145511e+003, 2.215291e+002
1.145993e+003, 2.130601e+002
1.146475e+003, 2.042760e+002
1.146957e+003, 1.950198e+002
1.147439e+003, 1.861179e+002
1.147921e+003, 1.783041e+002
1.148403e+003, 1.713575e+002
1.148885e+003, 1.651445e+002
1.149368e+003, 1.596363e+002
1.149850e+003, 1.547406e+002
1.150332e+003, 1.505551e+002
1.150814e+003, 1.474474e+002
1.151296e+003, 1.457234e+002
1.151778e+003, 1.443344e+002
1.152260e+003, 1.428238e+002
1.152742e+003, 1.412560e+002
1.153224e+003, 1.394662e+002
1.153707e+003, 1.377946e+002
1.154189e+003, 1.365902e+002
1.154671e+003, 1.357950e+002
1.155153e+003, 1.352514e+002
1.155635e+003, 1.349274e+002
1.156117e+003, 1.346159e+002
1.156599e+003, 1.341223e+002
1.157081e+003, 1.338159e+002
1.157563e+003, 1.340429e+002
1.158046e+003, 1.342382e+002
1.158528e+003, 1.339727e+002
1.159010e+003, 1.335170e+002
1.159492e+003, 1.332812e+002
1.159974e+003, 1.332418e+002
1.160456e+003, 1.329896e+002
1.160938e+003, 1.321562e+002
1.161420e+003, 1.317656e+002
1.161903e+003, 1.322455e+002
1.162385e+003, 1.326132e+002
1.162867e+003, 1.324714e+002
1.163349e+003, 1.322800e+002
1.163831e+003, 1.324295e+002
1.164313e+003, 1.327716e+002
1.164795e+003, 1.329507e+002
1.165277e+003, 1.329567e+002
1.165760e+003, 1.328477e+002
1.166242e+003, 1.324826e+002
1.166724e+003, 1.324883e+002
1.167206e+003, 1.330610e+002
1.167688e+003, 1.337054e+002
1.168170e+003, 1.342024e+002
1.168652e+003, 1.345413e+002
1.169134e+003, 1.346759e+002
1.169616e+003, 1.346664e+002
1.170099e+003, 1.347844e+002
1.170581e+003, 1.350307e+002
1.171063e+003, 1.354229e+002
1.171545e+003, 1.359645e+002
1.172027e+003, 1.363410e+002
1.172509e+003, 1.364561e+002
1.172991e+003, 1.366098e+002
1.173473e+003, 1.370419e+002
1.173956e+003, 1.375801e+002
1.174438e+003, 1.379753e+002
1.174920e+003, 1.382204e+002
1.175402e+003, 1.381931e+002
1.175884e+003, 1.379966e+002
1.176366e+003, 1.380239e+002
1.176848e+003, 1.382922e+002
1.177330e+003, 1.385464e+002
1.177813e+003, 1.386787e+002
1.178295e+003, 1.387791e+002
1.178777e+003, 1.388400e+002
1.179259e+003, 1.390467e+002
1.179741e+003, 1.399013e+002
1.180223e+003, 1.408538e+002
1.180705e+003, 1.408884e+002
1.181187e+003, 1.404496e+002
1.181669e+003, 1.406849e+002
1.182151e+003, 1.416570e+002
1.182634e+003, 1.423387e+002
1.183116e+003, 1.421258e+002
1.183598e+003, 1.420796e+002
1.184080e+003, 1.431278e+002
1.184562e+003, 1.441925e+002
1.185044e+003, 1.444890e+002
1.185526e+003, 1.444846e+002
1.186008e+003, 1.445990e+002
1.186490e+003, 1.448633e+002
1.186973e+003, 1.452631e+002
1.187455e+003, 1.458075e+002
1.187937e+003, 1.462402e+002
1.188419e+003, 1.465775e+002
1.188901e+003, 1.467019e+002
1.189383e+003, 1.463956e+002
1.189865e+003, 1.461012e+002
1.190347e+003, 1.458671e+002
1.190830e+003, 1.459010e+002
1.191312e+003, 1.465960e+002
1.191794e+003, 1.477657e+002
1.192276e+003, 1.484828e+002
1.192758e+003, 1.486289e+002
1.193240e+003, 1.487141e+002
1.193722e+003, 1.486909e+002
1.194204e+003, 1.487467e+002
1.194687e+003, 1.489209e+002
1.195169e+003, 1.492028e+002
1.195651e+003, 1.496038e+002
1.196133e+003, 1.500659e+002
1.196615e+003, 1.505143e+002
1.197097e+003, 1.509344e+002
1.197579e+003, 1.512157e+002
1.198061e+003, 1.513701e+002
1.198543e+003, 1.516401e+002
1.199026e+003, 1.520313e+002
1.199508e+003, 1.521660e+002
1.199990e+003, 1.519417e+002
1.200472e+003, 1.520061e+002
1.200954e+003, 1.529355e+002
1.201436e+003, 1.541157e+002
1.201918e+003, 1.547269e+002
1.202400e+003, 1.548591e+002
1.202883e+003, 1.544296e+002
1.203365e+003, 1.537645e+002
1.203847e+003, 1.535310e+002
1.204329e+003, 1.538017e+002
1.204811e+003, 1.545403e+002
1.205293e+003, 1.556971e+002
1.205775e+003, 1.565137e+002
1.206257e+003, 1.562509e+002
1.206740e+003, 1.557716e+002
1.207222e+003, 1.556011e+002
1.207704e+003, 1.555933e+002
1.208186e+003, 1.557031e+002
1.208668e+003, 1.558344e+002
1.209150e+003, 1.557477e+002
1.209632e+003, 1.555417e+002
1.210114e+003, 1.557726e+002
1.210596e+003, 1.567088e+002
1.211078e+003, 1.575977e+002
1.211561e+003, 1.584332e+002
1.212043e+003, 1.590147e+002
1.212525e+003, 1.589684e+002
1.213007e+003, 1.589917e+002
1.213489e+003, 1.597576e+002
1.213971e+003, 1.606910e+002
1.214453e+003, 1.607943e+002
1.214935e+003, 1.601362e+002
1.215417e+003, 1.600671e+002
1.215900e+003, 1.608764e+002
1.216382e+003, 1.611034e+002
1.216864e+003, 1.604988e+002
1.217346e+003, 1.601321e+002
1.217828e+003, 1.604182e+002
1.218310e+003, 1.605285e+002
1.218792e+003, 1.597441e+002
1.219274e+003, 1.587414e+002
1.219757e+003, 1.588744e+002
1.220239e+003, 1.598658e+002
1.220721e+003, 1.604053e+002
1.221203e+003, 1.605670e+002
1.221685e+003, 1.606807e+002
1.222167e+003, 1.607960e+002
1.222649e+003, 1.609196e+002
1.223131e+003, 1.610431e+002
1.223614e+003, 1.610223e+002
1.224096e+003, 1.606463e+002
1.224578e+003, 1.603953e+002
1.225060e+003, 1.608665e+002
1.225542e+003, 1.616980e+002
1.226024e+003, 1.627500e+002
1.226506e+003, 1.636774e+002
1.226988e+003, 1.639995e+002
1.227470e+003, 1.637383e+002
1.227953e+003, 1.629823e+002
1.228435e+003, 1.617234e+002
1.228917e+003, 1.610071e+002
1.229399e+003, 1.616726e+002
1.229881e+003, 1.623160e+002
1.230363e+003, 1.624431e+002
1.230845e+003, 1.624596e+002
1.231327e+003, 1.625058e+002
1.231810e+003, 1.626458e+002
1.232292e+003, 1.630235e+002
1.232774e+003, 1.635536e+002
1.233256e+003, 1.639385e+002
1.233738e+003, 1.642812e+002
1.234220e+003, 1.639144e+002
1.234702e+003, 1.623628e+002
1.235184e+003, 1.617597e+002
1.235667e+003, 1.627585e+002
1.236149e+003, 1.636622e+002
1.236631e+003, 1.635345e+002
1.237113e+003, 1.632169e+002
1.237595e+003, 1.637746e+002
1.238077e+003, 1.648237e+002
1.238559e+003, 1.651934e+002
1.239041e+003, 1.650105e+002
1.239523e+003, 1.648424e+002
1.240005e+003, 1.647504e+002
1.240488e+003, 1.649265e+002
1.240970e+003, 1.653489e+002
1.241452e+003, 1.656526e+002
1.241934e+003, 1.656582e+002
1.242416e+003, 1.656113e+002
1.242898e+003, 1.657375e+002
1.243380e+003, 1.659209e+002
1.243862e+003, 1.659858e+002
1.244344e+003, 1.660954e+002
1.244827e+003, 1.664650e+002
1.245309e+003, 1.669998e+002
1.245791e+003, 1.676162e+002
1.246273e+003, 1.682273e+002
1.246755e+003, 1.685232e+002
1.247237e+003, 1.682753e+002
1.247719e+003, 1.682339e+002
1.248201e+003, 1.686730e+002
1.248684e+003, 1.691924e+002
1.249166e+003, 1.698869e+002
1.249648e+003, 1.703775e+002
1.250130e+003, 1.703481e+002
1.250612e+003, 1.700954e+002
1.251094e+003, 1.699697e+002
1.251576e+003, 1.699841e+002
1.252058e+003, 1.702462e+002
1.252541e+003, 1.707967e+002
1.253023e+003, 1.713165e+002
1.253505e+003, 1.718027e+002
1.253987e+003, 1.721680e+002
1.254469e+003, 1.723869e+002
1.254951e+003, 1.728224e+002
1.255433e+003, 1.736983e+002
1.255915e+003, 1.746213e+002
1.256397e+003, 1.751492e+002
1.256880e+003, 1.753523e+002
1.257362e+003, 1.750456e+002
1.257844e+003, 1.746934e+002
1.258326e+003, 1.754915e+002
1.258808e+003, 1.769569e+002
1.259290e+003, 1.777310e+002
1.259772e+003, 1.777317e+002
1.260254e+003, 1.779618e+002
1.260737e+003, 1.788708e+002
1.261219e+003, 1.796642e+002
1.261701e+003, 1.797405e+002
1.262183e+003, 1.798448e+002
1.262665e+003, 1.803159e+002
1.263147e+003, 1.809726e+002
1.263629e+003, 1.817215e+002
1.264111e+003, 1.825430e+002
1.264594e+003, 1.835679e+002
1.265076e+003, 1.846793e+002
1.265558e+003, 1.851918e+002
1.266040e+003, 1.848393e+002
1.266522e+003, 1.848556e+002
1.267004e+003, 1.853102e+002
1.267486e+003, 1.859044e+002
1.267968e+003, 1.866090e+002
1.268450e+003, 1.873309e+002
1.268932e+003, 1.880319e+002
1.269415e+003, 1.886722e+002
1.269897e+003, 1.892053e+002
1.270379e+003, 1.896675e+002
1.270861e+003, 1.900700e+002
1.271343e+003, 1.905036e+002
1.271825e+003, 1.912968e+002
1.272307e+003, 1.923587e+002
1.272789e+003, 1.934832e+002
1.273271e+003, 1.945487e+002
1.273754e+003, 1.952879e+002
1.274236e+003, 1.956104e+002
1.274718e+003, 1.957518e+002
1.275200e+003, 1.956736e+002
1.275682e+003, 1.957545e+002
1.276164e+003, 1.961781e+002
1.276646e+003, 1.968863e+002
1.277128e+003, 1.979260e+002
1.277611e+003, 1.991586e+002
1.278093e+003, 2.005957e+002
1.278575e+003, 2.020774e+002
1.279057e+003, 2.030483e+002
1.279539e+003, 2.034298e+002
1.280021e+003, 2.039322e+002
1.280503e+003, 2.044214e+002
1.280985e+003, 2.053743e+002
1.281468e+003, 2.071070e+002
1.281950e+003, 2.084726e+002
1.282432e+003, 2.089800e+002
1.282914e+003, 2.093353e+002
1.283396e+003, 2.101107e+002
1.283878e+003, 2.112051e+002
1.284360e+003, 2.125508e+002
1.284842e+003, 2.139279e+002
1.285324e+003, 2.147437e+002
##END=



