##NAMES=Charoite
##RRUFFID=R060557
##IDEAL CHEMISTRY=(K,Sr,Ba,Mn^2+^)_15-16_(Ca,Na)_32_Si_70_(O,OH)_180_(OH,F)_4_&#183;nH_2_O
##LOCALITY=Russia
##OWNER=RRUFF
##SOURCE=Gemological Institute of America
##DESCRIPTION=Purple massive
##STATUS=The identification of this mineral has been confirmed by X-ray diffraction and chemical analysis
##URL=rruff.info/R060557
##MEASURED CHEMISTRY=(K_15.13_Ba_1.37_Sr_0.57_Mn_0.20_Fe_0.02_)_Σ=17.29_(Ca_26.56_Na_2.60_)_Σ=29.16_(Si_69.97_Al_0.03_)_Σ=70.00_(O_179.73_F_0.27_)_Σ=180.00_F_4.05_·16H_2_O ; lighter phase : K_1.00_Al_1.00_Si_3.00_O_8_ darker phase
9.001007e+001, 0.000000e+000
9.049219e+001, 4.705568e+001
9.097430e+001, 4.653204e+001
9.145642e+001, 4.669894e+001
9.193854e+001, 4.749080e+001
9.242065e+001, 4.836082e+001
9.290277e+001, 4.916108e+001
9.338489e+001, 4.973275e+001
9.386700e+001, 4.966187e+001
9.434912e+001, 4.836537e+001
9.483124e+001, 4.646608e+001
9.531335e+001, 4.525903e+001
9.579547e+001, 4.477930e+001
9.627759e+001, 4.472645e+001
9.675970e+001, 4.488313e+001
9.724182e+001, 4.523113e+001
9.772394e+001, 4.552618e+001
9.820605e+001, 4.574876e+001
9.868817e+001, 4.587811e+001
9.917029e+001, 4.558951e+001
9.965240e+001, 4.475482e+001
1.001345e+002, 4.370172e+001
1.006166e+002, 4.314027e+001
1.010988e+002, 4.318456e+001
1.015809e+002, 4.319846e+001
1.020630e+002, 4.278889e+001
1.025451e+002, 4.183978e+001
1.030272e+002, 4.100647e+001
1.035093e+002, 4.025780e+001
1.039915e+002, 3.965992e+001
1.044736e+002, 3.955638e+001
1.049557e+002, 4.030769e+001
1.054378e+002, 4.103266e+001
1.059199e+002, 4.104770e+001
1.064020e+002, 3.971582e+001
1.068842e+002, 3.886791e+001
1.073663e+002, 3.890847e+001
1.078484e+002, 3.985289e+001
1.083305e+002, 4.044538e+001
1.088126e+002, 4.082496e+001
1.092947e+002, 4.076617e+001
1.097769e+002, 4.005253e+001
1.102590e+002, 3.741365e+001
1.107411e+002, 3.540928e+001
1.112232e+002, 3.468555e+001
1.117053e+002, 3.560137e+001
1.121874e+002, 3.624520e+001
1.126696e+002, 3.619686e+001
1.131517e+002, 3.588604e+001
1.136338e+002, 3.586959e+001
1.141159e+002, 3.696445e+001
1.145980e+002, 3.776474e+001
1.150801e+002, 3.754666e+001
1.155623e+002, 3.549097e+001
1.160444e+002, 3.421567e+001
1.165265e+002, 3.541268e+001
1.170086e+002, 3.790263e+001
1.174907e+002, 3.919729e+001
1.179728e+002, 3.698569e+001
1.184550e+002, 3.419088e+001
1.189371e+002, 3.275436e+001
1.194192e+002, 3.391448e+001
1.199013e+002, 3.520785e+001
1.203834e+002, 3.504695e+001
1.208655e+002, 3.383406e+001
1.213477e+002, 3.314122e+001
1.218298e+002, 3.455958e+001
1.223119e+002, 3.669701e+001
1.227940e+002, 3.806848e+001
1.232761e+002, 3.788850e+001
1.237582e+002, 3.707900e+001
1.242404e+002, 3.608074e+001
1.247225e+002, 3.494509e+001
1.252046e+002, 3.430473e+001
1.256867e+002, 3.521701e+001
1.261688e+002, 3.693982e+001
1.266509e+002, 3.811932e+001
1.271331e+002, 3.788413e+001
1.276152e+002, 3.692198e+001
1.280973e+002, 3.635522e+001
1.285794e+002, 3.623354e+001
1.290615e+002, 3.590485e+001
1.295436e+002, 3.411639e+001
1.300258e+002, 3.129498e+001
1.305079e+002, 2.934416e+001
1.309900e+002, 2.966078e+001
1.314721e+002, 3.155888e+001
1.319542e+002, 3.300486e+001
1.324363e+002, 3.393629e+001
1.329185e+002, 3.439576e+001
1.334006e+002, 3.416596e+001
1.338827e+002, 3.324809e+001
1.343648e+002, 3.260654e+001
1.348469e+002, 3.296749e+001
1.353290e+002, 3.424310e+001
1.358112e+002, 3.519735e+001
1.362933e+002, 3.578459e+001
1.367754e+002, 3.594504e+001
1.372575e+002, 3.533652e+001
1.377396e+002, 3.377351e+001
1.382217e+002, 3.225685e+001
1.387039e+002, 3.139821e+001
1.391860e+002, 3.126068e+001
1.396681e+002, 3.136542e+001
1.401502e+002, 3.176178e+001
1.406323e+002, 3.234499e+001
1.411144e+002, 3.251717e+001
1.415966e+002, 3.188301e+001
1.420787e+002, 3.160159e+001
1.425608e+002, 3.261044e+001
1.430429e+002, 3.520951e+001
1.435250e+002, 3.837594e+001
1.440071e+002, 4.287247e+001
1.444893e+002, 4.847821e+001
1.449714e+002, 5.003510e+001
1.454535e+002, 4.525161e+001
1.459356e+002, 3.861940e+001
1.464177e+002, 3.444358e+001
1.468998e+002, 3.383501e+001
1.473820e+002, 3.383176e+001
1.478641e+002, 3.407699e+001
1.483462e+002, 3.465063e+001
1.488283e+002, 3.488286e+001
1.493104e+002, 3.434733e+001
1.497925e+002, 3.367092e+001
1.502747e+002, 3.358609e+001
1.507568e+002, 3.474764e+001
1.512389e+002, 3.582526e+001
1.517210e+002, 3.649590e+001
1.522031e+002, 3.658437e+001
1.526852e+002, 3.681256e+001
1.531674e+002, 3.719275e+001
1.536495e+002, 3.771901e+001
1.541316e+002, 3.838332e+001
1.546137e+002, 3.960545e+001
1.550958e+002, 4.060485e+001
1.555779e+002, 4.089711e+001
1.560601e+002, 3.959009e+001
1.565422e+002, 3.959150e+001
1.570243e+002, 4.221664e+001
1.575064e+002, 4.639086e+001
1.579885e+002, 5.003295e+001
1.584706e+002, 5.185091e+001
1.589528e+002, 5.365471e+001
1.594349e+002, 5.626440e+001
1.599170e+002, 5.991462e+001
1.603991e+002, 6.418440e+001
1.608812e+002, 6.893975e+001
1.613633e+002, 7.422531e+001
1.618455e+002, 8.015808e+001
1.623276e+002, 8.659431e+001
1.628097e+002, 9.376284e+001
1.632918e+002, 1.020020e+002
1.637739e+002, 1.118202e+002
1.642560e+002, 1.220255e+002
1.647382e+002, 1.316203e+002
1.652203e+002, 1.410110e+002
1.657024e+002, 1.517527e+002
1.661845e+002, 1.647652e+002
1.666666e+002, 1.794438e+002
1.671487e+002, 1.951214e+002
1.676309e+002, 2.122691e+002
1.681130e+002, 2.299218e+002
1.685951e+002, 2.474715e+002
1.690772e+002, 2.649719e+002
1.695593e+002, 2.822855e+002
1.700414e+002, 2.997496e+002
1.705236e+002, 3.169297e+002
1.710057e+002, 3.330530e+002
1.714878e+002, 3.472147e+002
1.719699e+002, 3.609730e+002
1.724520e+002, 3.755651e+002
1.729341e+002, 3.909782e+002
1.734163e+002, 4.062664e+002
1.738984e+002, 4.211338e+002
1.743805e+002, 4.354933e+002
1.748626e+002, 4.487594e+002
1.753447e+002, 4.600311e+002
1.758268e+002, 4.707359e+002
1.763090e+002, 4.824009e+002
1.767911e+002, 4.949291e+002
1.772732e+002, 5.081463e+002
1.777553e+002, 5.197245e+002
1.782374e+002, 5.294178e+002
1.787195e+002, 5.391140e+002
1.792017e+002, 5.494872e+002
1.796838e+002, 5.605307e+002
1.801659e+002, 5.720629e+002
1.806480e+002, 5.841980e+002
1.811301e+002, 5.966904e+002
1.816122e+002, 6.093199e+002
1.820944e+002, 6.222761e+002
1.825765e+002, 6.358656e+002
1.830586e+002, 6.508697e+002
1.835407e+002, 6.665141e+002
1.840228e+002, 6.821092e+002
1.845049e+002, 6.976160e+002
1.849871e+002, 7.125086e+002
1.854692e+002, 7.251410e+002
1.859513e+002, 7.360901e+002
1.864334e+002, 7.477831e+002
1.869155e+002, 7.620496e+002
1.873976e+002, 7.780848e+002
1.878798e+002, 7.937295e+002
1.883619e+002, 8.090193e+002
1.888440e+002, 8.233346e+002
1.893261e+002, 8.348466e+002
1.898082e+002, 8.438661e+002
1.902903e+002, 8.531073e+002
1.907725e+002, 8.642244e+002
1.912546e+002, 8.769953e+002
1.917367e+002, 8.893503e+002
1.922188e+002, 9.013781e+002
1.927009e+002, 9.126911e+002
1.931830e+002, 9.216101e+002
1.936652e+002, 9.280771e+002
1.941473e+002, 9.355605e+002
1.946294e+002, 9.470079e+002
1.951115e+002, 9.619470e+002
1.955936e+002, 9.741077e+002
1.960757e+002, 9.827556e+002
1.965579e+002, 9.891933e+002
1.970400e+002, 9.959616e+002
1.975221e+002, 1.003182e+003
1.980042e+002, 1.009497e+003
1.984863e+002, 1.014069e+003
1.989684e+002, 1.016873e+003
1.994506e+002, 1.018954e+003
1.999327e+002, 1.019858e+003
2.004148e+002, 1.020714e+003
2.008969e+002, 1.024530e+003
2.013790e+002, 1.031930e+003
2.018611e+002, 1.039164e+003
2.023433e+002, 1.043818e+003
2.028254e+002, 1.045657e+003
2.033075e+002, 1.047728e+003
2.037896e+002, 1.049911e+003
2.042717e+002, 1.052698e+003
2.047538e+002, 1.057686e+003
2.052360e+002, 1.065354e+003
2.057181e+002, 1.073368e+003
2.062002e+002, 1.080199e+003
2.066823e+002, 1.085567e+003
2.071644e+002, 1.091627e+003
2.076465e+002, 1.099067e+003
2.081287e+002, 1.106987e+003
2.086108e+002, 1.112557e+003
2.090929e+002, 1.114974e+003
2.095750e+002, 1.117259e+003
2.100571e+002, 1.121546e+003
2.105392e+002, 1.128524e+003
2.110214e+002, 1.134349e+003
2.115035e+002, 1.138629e+003
2.119856e+002, 1.141578e+003
2.124677e+002, 1.143922e+003
2.129498e+002, 1.145510e+003
2.134319e+002, 1.146926e+003
2.139140e+002, 1.148396e+003
2.143962e+002, 1.149704e+003
2.148783e+002, 1.152008e+003
2.153604e+002, 1.155743e+003
2.158425e+002, 1.160513e+003
2.163246e+002, 1.164641e+003
2.168067e+002, 1.168267e+003
2.172889e+002, 1.171053e+003
2.177710e+002, 1.172398e+003
2.182531e+002, 1.171195e+003
2.187352e+002, 1.171973e+003
2.192173e+002, 1.176048e+003
2.196994e+002, 1.182406e+003
2.201816e+002, 1.185814e+003
2.206637e+002, 1.184670e+003
2.211458e+002, 1.183380e+003
2.216279e+002, 1.184897e+003
2.221100e+002, 1.190495e+003
2.225921e+002, 1.195568e+003
2.230743e+002, 1.199963e+003
2.235564e+002, 1.203580e+003
2.240385e+002, 1.205934e+003
2.245206e+002, 1.206306e+003
2.250027e+002, 1.206527e+003
2.254848e+002, 1.207712e+003
2.259670e+002, 1.210110e+003
2.264491e+002, 1.212947e+003
2.269312e+002, 1.216365e+003
2.274133e+002, 1.220215e+003
2.278954e+002, 1.223948e+003
2.283775e+002, 1.227597e+003
2.288597e+002, 1.230995e+003
2.293418e+002, 1.233912e+003
2.298239e+002, 1.235972e+003
2.303060e+002, 1.238348e+003
2.307881e+002, 1.240901e+003
2.312702e+002, 1.243785e+003
2.317524e+002, 1.247930e+003
2.322345e+002, 1.254504e+003
2.327166e+002, 1.260554e+003
2.331987e+002, 1.263945e+003
2.336808e+002, 1.262616e+003
2.341629e+002, 1.263198e+003
2.346451e+002, 1.266964e+003
2.351272e+002, 1.272996e+003
2.356093e+002, 1.277243e+003
2.360914e+002, 1.278538e+003
2.365735e+002, 1.279649e+003
2.370556e+002, 1.282287e+003
2.375378e+002, 1.287726e+003
2.380199e+002, 1.291890e+003
2.385020e+002, 1.293953e+003
2.389841e+002, 1.294617e+003
2.394662e+002, 1.296604e+003
2.399483e+002, 1.300511e+003
2.404305e+002, 1.305007e+003
2.409126e+002, 1.309391e+003
2.413947e+002, 1.313281e+003
2.418768e+002, 1.318036e+003
2.423589e+002, 1.324199e+003
2.428410e+002, 1.331233e+003
2.433232e+002, 1.337366e+003
2.438053e+002, 1.342428e+003
2.442874e+002, 1.346759e+003
2.447695e+002, 1.350316e+003
2.452516e+002, 1.352374e+003
2.457337e+002, 1.355338e+003
2.462159e+002, 1.359941e+003
2.466980e+002, 1.365382e+003
2.471801e+002, 1.368981e+003
2.476622e+002, 1.370021e+003
2.481443e+002, 1.370306e+003
2.486264e+002, 1.370560e+003
2.491086e+002, 1.370536e+003
2.495907e+002, 1.371028e+003
2.500728e+002, 1.371954e+003
2.505549e+002, 1.373440e+003
2.510370e+002, 1.375916e+003
2.515191e+002, 1.379927e+003
2.520013e+002, 1.384127e+003
2.524834e+002, 1.388098e+003
2.529655e+002, 1.392094e+003
2.534476e+002, 1.395148e+003
2.539297e+002, 1.397033e+003
2.544118e+002, 1.398099e+003
2.548940e+002, 1.399092e+003
2.553761e+002, 1.399847e+003
2.558582e+002, 1.400811e+003
2.563403e+002, 1.402203e+003
2.568224e+002, 1.404175e+003
2.573046e+002, 1.405879e+003
2.577867e+002, 1.406827e+003
2.582688e+002, 1.407749e+003
2.587509e+002, 1.410299e+003
2.592330e+002, 1.415325e+003
2.597151e+002, 1.420119e+003
2.601973e+002, 1.423279e+003
2.606794e+002, 1.423906e+003
2.611615e+002, 1.426944e+003
2.616436e+002, 1.433727e+003
2.621257e+002, 1.441747e+003
2.626078e+002, 1.446543e+003
2.630900e+002, 1.446952e+003
2.635721e+002, 1.446892e+003
2.640542e+002, 1.447585e+003
2.645363e+002, 1.449110e+003
2.650184e+002, 1.451410e+003
2.655005e+002, 1.455372e+003
2.659827e+002, 1.459192e+003
2.664648e+002, 1.460015e+003
2.669469e+002, 1.456890e+003
2.674290e+002, 1.453549e+003
2.679111e+002, 1.451291e+003
2.683932e+002, 1.450251e+003
2.688754e+002, 1.447580e+003
2.693575e+002, 1.442235e+003
2.698396e+002, 1.436799e+003
2.703217e+002, 1.435169e+003
2.708038e+002, 1.438508e+003
2.712859e+002, 1.440945e+003
2.717681e+002, 1.440294e+003
2.722502e+002, 1.436703e+003
2.727323e+002, 1.435331e+003
2.732144e+002, 1.436811e+003
2.736965e+002, 1.439256e+003
2.741786e+002, 1.440308e+003
2.746608e+002, 1.439458e+003
2.751429e+002, 1.440190e+003
2.756250e+002, 1.444038e+003
2.761071e+002, 1.450381e+003
2.765892e+002, 1.454357e+003
2.770714e+002, 1.455335e+003
2.775535e+002, 1.455577e+003
2.780356e+002, 1.457060e+003
2.785177e+002, 1.459839e+003
2.789998e+002, 1.463226e+003
2.794819e+002, 1.467173e+003
2.799641e+002, 1.471602e+003
2.804462e+002, 1.476281e+003
2.809283e+002, 1.481431e+003
2.814104e+002, 1.485920e+003
2.818925e+002, 1.488490e+003
2.823746e+002, 1.489114e+003
2.828568e+002, 1.490342e+003
2.833389e+002, 1.492873e+003
2.838210e+002, 1.496104e+003
2.843031e+002, 1.498607e+003
2.847852e+002, 1.500493e+003
2.852673e+002, 1.501122e+003
2.857495e+002, 1.499650e+003
2.862316e+002, 1.496256e+003
2.867137e+002, 1.492947e+003
2.871958e+002, 1.490027e+003
2.876779e+002, 1.487277e+003
2.881600e+002, 1.483886e+003
2.886422e+002, 1.479824e+003
2.891243e+002, 1.476536e+003
2.896064e+002, 1.476062e+003
2.900885e+002, 1.477552e+003
2.905706e+002, 1.476048e+003
2.910527e+002, 1.470206e+003
2.915349e+002, 1.463351e+003
2.920170e+002, 1.461518e+003
2.924991e+002, 1.464262e+003
2.929812e+002, 1.466647e+003
2.934633e+002, 1.464930e+003
2.939454e+002, 1.460628e+003
2.944276e+002, 1.458877e+003
2.949097e+002, 1.460303e+003
2.953918e+002, 1.462799e+003
2.958739e+002, 1.463728e+003
2.963560e+002, 1.463388e+003
2.968381e+002, 1.463207e+003
2.973203e+002, 1.464213e+003
2.978024e+002, 1.465786e+003
2.982845e+002, 1.466672e+003
2.987666e+002, 1.466831e+003
2.992487e+002, 1.466527e+003
2.997308e+002, 1.465182e+003
3.002130e+002, 1.463456e+003
3.006951e+002, 1.463275e+003
3.011772e+002, 1.466525e+003
3.016593e+002, 1.471189e+003
3.021414e+002, 1.474553e+003
3.026235e+002, 1.476597e+003
3.031057e+002, 1.477900e+003
3.035878e+002, 1.478313e+003
3.040699e+002, 1.478364e+003
3.045520e+002, 1.479042e+003
3.050341e+002, 1.480964e+003
3.055162e+002, 1.483380e+003
3.059984e+002, 1.485662e+003
3.064805e+002, 1.487790e+003
3.069626e+002, 1.489765e+003
3.074447e+002, 1.491817e+003
3.079268e+002, 1.493627e+003
3.084089e+002, 1.494592e+003
3.088911e+002, 1.493803e+003
3.093732e+002, 1.493301e+003
3.098553e+002, 1.495214e+003
3.103374e+002, 1.498910e+003
3.108195e+002, 1.502299e+003
3.113016e+002, 1.503981e+003
3.117838e+002, 1.504891e+003
3.122659e+002, 1.505744e+003
3.127480e+002, 1.506424e+003
3.132301e+002, 1.507644e+003
3.137122e+002, 1.509708e+003
3.141943e+002, 1.512622e+003
3.146765e+002, 1.516365e+003
3.151586e+002, 1.522866e+003
3.156407e+002, 1.528831e+003
3.161228e+002, 1.531973e+003
3.166049e+002, 1.531472e+003
3.170870e+002, 1.530361e+003
3.175692e+002, 1.529301e+003
3.180513e+002, 1.528602e+003
3.185334e+002, 1.528712e+003
3.190155e+002, 1.530699e+003
3.194976e+002, 1.532734e+003
3.199797e+002, 1.533752e+003
3.204619e+002, 1.533549e+003
3.209440e+002, 1.534031e+003
3.214261e+002, 1.535640e+003
3.219082e+002, 1.538220e+003
3.223903e+002, 1.541626e+003
3.228724e+002, 1.547696e+003
3.233546e+002, 1.552667e+003
3.238367e+002, 1.555471e+003
3.243188e+002, 1.556127e+003
3.248009e+002, 1.555847e+003
3.252830e+002, 1.552707e+003
3.257651e+002, 1.550015e+003
3.262473e+002, 1.549932e+003
3.267294e+002, 1.556738e+003
3.272115e+002, 1.561514e+003
3.276936e+002, 1.561880e+003
3.281757e+002, 1.559019e+003
3.286578e+002, 1.558783e+003
3.291400e+002, 1.564895e+003
3.296221e+002, 1.570647e+003
3.301042e+002, 1.573144e+003
3.305863e+002, 1.569738e+003
3.310684e+002, 1.567454e+003
3.315505e+002, 1.566537e+003
3.320327e+002, 1.566675e+003
3.325148e+002, 1.567180e+003
3.329969e+002, 1.567701e+003
3.334790e+002, 1.568974e+003
3.339611e+002, 1.571457e+003
3.344432e+002, 1.575624e+003
3.349254e+002, 1.578824e+003
3.354075e+002, 1.580504e+003
3.358896e+002, 1.581562e+003
3.363717e+002, 1.583359e+003
3.368538e+002, 1.586406e+003
3.373359e+002, 1.588843e+003
3.378180e+002, 1.590008e+003
3.383001e+002, 1.589929e+003
3.387823e+002, 1.590116e+003
3.392644e+002, 1.590719e+003
3.397465e+002, 1.591370e+003
3.402286e+002, 1.591577e+003
3.407107e+002, 1.591197e+003
3.411928e+002, 1.591536e+003
3.416750e+002, 1.593307e+003
3.421571e+002, 1.595883e+003
3.426392e+002, 1.596096e+003
3.431213e+002, 1.593413e+003
3.436034e+002, 1.591301e+003
3.440855e+002, 1.592999e+003
3.445677e+002, 1.598300e+003
3.450498e+002, 1.602191e+003
3.455319e+002, 1.603823e+003
3.460140e+002, 1.604171e+003
3.464961e+002, 1.604933e+003
3.469782e+002, 1.606093e+003
3.474604e+002, 1.607404e+003
3.479425e+002, 1.608709e+003
3.484246e+002, 1.610045e+003
3.489067e+002, 1.611605e+003
3.493888e+002, 1.613468e+003
3.498709e+002, 1.615202e+003
3.503531e+002, 1.616035e+003
3.508352e+002, 1.616215e+003
3.513173e+002, 1.616669e+003
3.517994e+002, 1.618116e+003
3.522815e+002, 1.619966e+003
3.527636e+002, 1.621330e+003
3.532458e+002, 1.622191e+003
3.537279e+002, 1.622546e+003
3.542100e+002, 1.621233e+003
3.546921e+002, 1.619559e+003
3.551742e+002, 1.619990e+003
3.556563e+002, 1.625120e+003
3.561385e+002, 1.630680e+003
3.566206e+002, 1.632252e+003
3.571027e+002, 1.630468e+003
3.575848e+002, 1.628477e+003
3.580669e+002, 1.627903e+003
3.585490e+002, 1.628144e+003
3.590312e+002, 1.628760e+003
3.595133e+002, 1.629981e+003
3.599954e+002, 1.630898e+003
3.604775e+002, 1.630793e+003
3.609596e+002, 1.630029e+003
3.614417e+002, 1.629365e+003
3.619239e+002, 1.627689e+003
3.624060e+002, 1.627303e+003
3.628881e+002, 1.630358e+003
3.633702e+002, 1.638029e+003
3.638523e+002, 1.643976e+003
3.643344e+002, 1.644585e+003
3.648166e+002, 1.642932e+003
3.652987e+002, 1.642529e+003
3.657808e+002, 1.644797e+003
3.662629e+002, 1.647802e+003
3.667450e+002, 1.651604e+003
3.672271e+002, 1.656161e+003
3.677093e+002, 1.659496e+003
3.681914e+002, 1.660079e+003
3.686735e+002, 1.660165e+003
3.691556e+002, 1.661220e+003
3.696377e+002, 1.663649e+003
3.701198e+002, 1.666575e+003
3.706020e+002, 1.670672e+003
3.710841e+002, 1.675321e+003
3.715662e+002, 1.678297e+003
3.720483e+002, 1.678863e+003
3.725304e+002, 1.678583e+003
3.730125e+002, 1.678090e+003
3.734947e+002, 1.677558e+003
3.739768e+002, 1.676134e+003
3.744589e+002, 1.673017e+003
3.749410e+002, 1.669632e+003
3.754231e+002, 1.668506e+003
3.759052e+002, 1.670442e+003
3.763874e+002, 1.672445e+003
3.768695e+002, 1.673608e+003
3.773516e+002, 1.673996e+003
3.778337e+002, 1.674561e+003
3.783158e+002, 1.675209e+003
3.787979e+002, 1.676415e+003
3.792801e+002, 1.679275e+003
3.797622e+002, 1.683980e+003
3.802443e+002, 1.686764e+003
3.807264e+002, 1.686227e+003
3.812085e+002, 1.683902e+003
3.816906e+002, 1.683792e+003
3.821728e+002, 1.685894e+003
3.826549e+002, 1.689096e+003
3.831370e+002, 1.693314e+003
3.836191e+002, 1.698112e+003
3.841012e+002, 1.701506e+003
3.845833e+002, 1.703087e+003
3.850655e+002, 1.703926e+003
3.855476e+002, 1.705107e+003
3.860297e+002, 1.706659e+003
3.865118e+002, 1.708694e+003
3.869939e+002, 1.711666e+003
3.874760e+002, 1.715019e+003
3.879582e+002, 1.717698e+003
3.884403e+002, 1.719710e+003
3.889224e+002, 1.722285e+003
3.894045e+002, 1.727674e+003
3.898866e+002, 1.733933e+003
3.903687e+002, 1.738276e+003
3.908509e+002, 1.738633e+003
3.913330e+002, 1.738027e+003
3.918151e+002, 1.738511e+003
3.922972e+002, 1.739860e+003
3.927793e+002, 1.741108e+003
3.932614e+002, 1.741450e+003
3.937436e+002, 1.741717e+003
3.942257e+002, 1.742457e+003
3.947078e+002, 1.743704e+003
3.951899e+002, 1.745541e+003
3.956720e+002, 1.747950e+003
3.961541e+002, 1.750948e+003
3.966363e+002, 1.754578e+003
3.971184e+002, 1.760368e+003
3.976005e+002, 1.765352e+003
3.980826e+002, 1.768147e+003
3.985647e+002, 1.768371e+003
3.990468e+002, 1.769131e+003
3.995290e+002, 1.772295e+003
4.000111e+002, 1.775223e+003
4.004932e+002, 1.775687e+003
4.009753e+002, 1.768702e+003
4.014574e+002, 1.766100e+003
4.019395e+002, 1.771307e+003
4.024217e+002, 1.782216e+003
4.029038e+002, 1.788530e+003
4.033859e+002, 1.787668e+003
4.038680e+002, 1.786012e+003
4.043501e+002, 1.786786e+003
4.048322e+002, 1.790975e+003
4.053144e+002, 1.794103e+003
4.057965e+002, 1.795910e+003
4.062786e+002, 1.796924e+003
4.067607e+002, 1.797778e+003
4.072428e+002, 1.798356e+003
4.077249e+002, 1.799397e+003
4.082071e+002, 1.801126e+003
4.086892e+002, 1.803512e+003
4.091713e+002, 1.806534e+003
4.096534e+002, 1.810307e+003
4.101355e+002, 1.814073e+003
4.106176e+002, 1.817009e+003
4.110998e+002, 1.819266e+003
4.115819e+002, 1.821822e+003
4.120640e+002, 1.825174e+003
4.125461e+002, 1.828371e+003
4.130282e+002, 1.829716e+003
4.135103e+002, 1.829417e+003
4.139925e+002, 1.828777e+003
4.144746e+002, 1.828389e+003
4.149567e+002, 1.828186e+003
4.154388e+002, 1.828099e+003
4.159209e+002, 1.828131e+003
4.164030e+002, 1.828192e+003
4.168852e+002, 1.828830e+003
4.173673e+002, 1.829352e+003
4.178494e+002, 1.828645e+003
4.183315e+002, 1.824665e+003
4.188136e+002, 1.820683e+003
4.192957e+002, 1.818616e+003
4.197779e+002, 1.818396e+003
4.202600e+002, 1.819256e+003
4.207421e+002, 1.821956e+003
4.212242e+002, 1.824986e+003
4.217063e+002, 1.827174e+003
4.221884e+002, 1.828010e+003
4.226706e+002, 1.828698e+003
4.231527e+002, 1.828749e+003
4.236348e+002, 1.828953e+003
4.241169e+002, 1.830768e+003
4.245990e+002, 1.836396e+003
4.250811e+002, 1.841758e+003
4.255633e+002, 1.845289e+003
4.260454e+002, 1.846551e+003
4.265275e+002, 1.848861e+003
4.270096e+002, 1.852606e+003
4.274917e+002, 1.857058e+003
4.279738e+002, 1.861711e+003
4.284560e+002, 1.866836e+003
4.289381e+002, 1.871505e+003
4.294202e+002, 1.875624e+003
4.299023e+002, 1.879133e+003
4.303844e+002, 1.881954e+003
4.308665e+002, 1.883868e+003
4.313487e+002, 1.885662e+003
4.318308e+002, 1.887322e+003
4.323129e+002, 1.888746e+003
4.327950e+002, 1.892524e+003
4.332771e+002, 1.899370e+003
4.337592e+002, 1.906749e+003
4.342414e+002, 1.911026e+003
4.347235e+002, 1.912497e+003
4.352056e+002, 1.914663e+003
4.356877e+002, 1.919167e+003
4.361698e+002, 1.924702e+003
4.366519e+002, 1.928352e+003
4.371341e+002, 1.930215e+003
4.376162e+002, 1.931911e+003
4.380983e+002, 1.934745e+003
4.385804e+002, 1.938233e+003
4.390625e+002, 1.941424e+003
4.395446e+002, 1.943995e+003
4.400268e+002, 1.946843e+003
4.405089e+002, 1.950831e+003
4.409910e+002, 1.955699e+003
4.414731e+002, 1.960847e+003
4.419552e+002, 1.965838e+003
4.424373e+002, 1.971176e+003
4.429195e+002, 1.977299e+003
4.434016e+002, 1.984188e+003
4.438837e+002, 1.991321e+003
4.443658e+002, 1.998293e+003
4.448479e+002, 2.005510e+003
4.453300e+002, 2.013219e+003
4.458122e+002, 2.022180e+003
4.462943e+002, 2.030746e+003
4.467764e+002, 2.038774e+003
4.472585e+002, 2.046237e+003
4.477406e+002, 2.053079e+003
4.482227e+002, 2.057859e+003
4.487049e+002, 2.063504e+003
4.491870e+002, 2.071855e+003
4.496691e+002, 2.084039e+003
4.501512e+002, 2.091638e+003
4.506333e+002, 2.092673e+003
4.511154e+002, 2.091252e+003
4.515976e+002, 2.091472e+003
4.520797e+002, 2.094430e+003
4.525618e+002, 2.095499e+003
4.530439e+002, 2.093861e+003
4.535260e+002, 2.089991e+003
4.540081e+002, 2.084925e+003
4.544903e+002, 2.078527e+003
4.549724e+002, 2.071764e+003
4.554545e+002, 2.064394e+003
4.559366e+002, 2.056795e+003
4.564187e+002, 2.051470e+003
4.569008e+002, 2.048700e+003
4.573830e+002, 2.047198e+003
4.578651e+002, 2.045876e+003
4.583472e+002, 2.044662e+003
4.588293e+002, 2.043380e+003
4.593114e+002, 2.041468e+003
4.597935e+002, 2.039900e+003
4.602757e+002, 2.039963e+003
4.607578e+002, 2.041485e+003
4.612399e+002, 2.043661e+003
4.617220e+002, 2.046304e+003
4.622041e+002, 2.049193e+003
4.626862e+002, 2.051932e+003
4.631684e+002, 2.054264e+003
4.636505e+002, 2.057398e+003
4.641326e+002, 2.062964e+003
4.646147e+002, 2.069394e+003
4.650968e+002, 2.074745e+003
4.655789e+002, 2.077824e+003
4.660611e+002, 2.080292e+003
4.665432e+002, 2.082384e+003
4.670253e+002, 2.084193e+003
4.675074e+002, 2.086448e+003
4.679895e+002, 2.089426e+003
4.684716e+002, 2.092747e+003
4.689538e+002, 2.096133e+003
4.694359e+002, 2.098992e+003
4.699180e+002, 2.103232e+003
4.704001e+002, 2.110059e+003
4.708822e+002, 2.117434e+003
4.713643e+002, 2.122286e+003
4.718465e+002, 2.124048e+003
4.723286e+002, 2.124750e+003
4.728107e+002, 2.124455e+003
4.732928e+002, 2.123464e+003
4.737749e+002, 2.124002e+003
4.742570e+002, 2.126431e+003
4.747392e+002, 2.128393e+003
4.752213e+002, 2.128189e+003
4.757034e+002, 2.125964e+003
4.761855e+002, 2.122432e+003
4.766676e+002, 2.117421e+003
4.771497e+002, 2.112008e+003
4.776319e+002, 2.107875e+003
4.781140e+002, 2.104646e+003
4.785961e+002, 2.101100e+003
4.790782e+002, 2.095700e+003
4.795603e+002, 2.090348e+003
4.800424e+002, 2.087903e+003
4.805246e+002, 2.087978e+003
4.810067e+002, 2.087523e+003
4.814888e+002, 2.083336e+003
4.819709e+002, 2.078456e+003
4.824530e+002, 2.075676e+003
4.829352e+002, 2.076093e+003
4.834173e+002, 2.077186e+003
4.838994e+002, 2.078425e+003
4.843815e+002, 2.079591e+003
4.848636e+002, 2.080343e+003
4.853457e+002, 2.080737e+003
4.858279e+002, 2.080557e+003
4.863100e+002, 2.079284e+003
4.867921e+002, 2.076941e+003
4.872742e+002, 2.075760e+003
4.877563e+002, 2.075998e+003
4.882384e+002, 2.077194e+003
4.887206e+002, 2.079192e+003
4.892027e+002, 2.082299e+003
4.896848e+002, 2.085490e+003
4.901669e+002, 2.088884e+003
4.906490e+002, 2.092266e+003
4.911311e+002, 2.095073e+003
4.916133e+002, 2.097059e+003
4.920954e+002, 2.100046e+003
4.925775e+002, 2.104803e+003
4.930596e+002, 2.110918e+003
4.935417e+002, 2.116970e+003
4.940238e+002, 2.122906e+003
4.945060e+002, 2.128992e+003
4.949881e+002, 2.134755e+003
4.954702e+002, 2.140767e+003
4.959523e+002, 2.149025e+003
4.964344e+002, 2.160062e+003
4.969165e+002, 2.171719e+003
4.973987e+002, 2.182620e+003
4.978808e+002, 2.192563e+003
4.983629e+002, 2.200962e+003
4.988450e+002, 2.205358e+003
4.993271e+002, 2.210048e+003
4.998092e+002, 2.217895e+003
5.002914e+002, 2.228646e+003
5.007735e+002, 2.240052e+003
5.012556e+002, 2.252761e+003
5.017377e+002, 2.265036e+003
5.022198e+002, 2.275308e+003
5.027019e+002, 2.281580e+003
5.031841e+002, 2.291026e+003
5.036662e+002, 2.306583e+003
5.041483e+002, 2.325019e+003
5.046304e+002, 2.342364e+003
5.051125e+002, 2.357033e+003
5.055946e+002, 2.372881e+003
5.060768e+002, 2.391229e+003
5.065589e+002, 2.411327e+003
5.070410e+002, 2.429885e+003
5.075231e+002, 2.446794e+003
5.080052e+002, 2.462334e+003
5.084873e+002, 2.476583e+003
5.089695e+002, 2.489336e+003
5.094516e+002, 2.502651e+003
5.099337e+002, 2.517166e+003
5.104158e+002, 2.529524e+003
5.108979e+002, 2.535845e+003
5.113800e+002, 2.536667e+003
5.118622e+002, 2.534204e+003
5.123443e+002, 2.529161e+003
5.128264e+002, 2.520915e+003
5.133085e+002, 2.507997e+003
5.137906e+002, 2.490954e+003
5.142728e+002, 2.471714e+003
5.147549e+002, 2.450218e+003
5.152370e+002, 2.427779e+003
5.157191e+002, 2.405011e+003
5.162012e+002, 2.381820e+003
5.166833e+002, 2.360166e+003
5.171655e+002, 2.340259e+003
5.176476e+002, 2.322458e+003
5.181297e+002, 2.307075e+003
5.186118e+002, 2.294503e+003
5.190939e+002, 2.283960e+003
5.195760e+002, 2.276509e+003
5.200582e+002, 2.271023e+003
5.205403e+002, 2.264493e+003
5.210224e+002, 2.255867e+003
5.215045e+002, 2.247704e+003
5.219866e+002, 2.240284e+003
5.224688e+002, 2.233578e+003
5.229509e+002, 2.229672e+003
5.234330e+002, 2.229214e+003
5.239151e+002, 2.229897e+003
5.243972e+002, 2.230053e+003
5.248793e+002, 2.229649e+003
5.253615e+002, 2.229274e+003
5.258436e+002, 2.228897e+003
5.263257e+002, 2.228716e+003
5.268078e+002, 2.229508e+003
5.272899e+002, 2.230930e+003
5.277720e+002, 2.231310e+003
5.282542e+002, 2.229087e+003
5.287363e+002, 2.226156e+003
5.292184e+002, 2.225274e+003
5.297005e+002, 2.226118e+003
5.301826e+002, 2.226890e+003
5.306647e+002, 2.226898e+003
5.311469e+002, 2.226132e+003
5.316290e+002, 2.224106e+003
5.321111e+002, 2.220274e+003
5.325932e+002, 2.217792e+003
5.330753e+002, 2.218983e+003
5.335574e+002, 2.221722e+003
5.340396e+002, 2.223781e+003
5.345217e+002, 2.224065e+003
5.350038e+002, 2.224558e+003
5.354859e+002, 2.225585e+003
5.359680e+002, 2.227050e+003
5.364501e+002, 2.228773e+003
5.369323e+002, 2.231455e+003
5.374144e+002, 2.233156e+003
5.378965e+002, 2.232505e+003
5.383786e+002, 2.229380e+003
5.388607e+002, 2.229148e+003
5.393428e+002, 2.232378e+003
5.398250e+002, 2.236665e+003
5.403071e+002, 2.239858e+003
5.407892e+002, 2.242010e+003
5.412713e+002, 2.244188e+003
5.417534e+002, 2.246567e+003
5.422355e+002, 2.248879e+003
5.427177e+002, 2.250944e+003
5.431998e+002, 2.252677e+003
5.436819e+002, 2.253750e+003
5.441640e+002, 2.252770e+003
5.446461e+002, 2.251928e+003
5.451282e+002, 2.254003e+003
5.456104e+002, 2.258472e+003
5.460925e+002, 2.262088e+003
5.465746e+002, 2.261977e+003
5.470567e+002, 2.261286e+003
5.475388e+002, 2.262337e+003
5.480209e+002, 2.266134e+003
5.485031e+002, 2.269352e+003
5.489852e+002, 2.270707e+003
5.494673e+002, 2.271441e+003
5.499494e+002, 2.272885e+003
5.504315e+002, 2.275748e+003
5.509136e+002, 2.278175e+003
5.513958e+002, 2.279643e+003
5.518779e+002, 2.280613e+003
5.523600e+002, 2.282729e+003
5.528421e+002, 2.286553e+003
5.533242e+002, 2.289516e+003
5.538063e+002, 2.290074e+003
5.542885e+002, 2.288645e+003
5.547706e+002, 2.288883e+003
5.552527e+002, 2.290969e+003
5.557348e+002, 2.292883e+003
5.562169e+002, 2.292173e+003
5.566990e+002, 2.289968e+003
5.571812e+002, 2.289156e+003
5.576633e+002, 2.290298e+003
5.581454e+002, 2.292564e+003
5.586275e+002, 2.295739e+003
5.591096e+002, 2.299404e+003
5.595917e+002, 2.302882e+003
5.600739e+002, 2.306796e+003
5.605560e+002, 2.309577e+003
5.610381e+002, 2.309539e+003
5.615202e+002, 2.307402e+003
5.620023e+002, 2.306348e+003
5.624844e+002, 2.308068e+003
5.629666e+002, 2.310250e+003
5.634487e+002, 2.311912e+003
5.639308e+002, 2.312941e+003
5.644129e+002, 2.313784e+003
5.648950e+002, 2.314292e+003
5.653771e+002, 2.314734e+003
5.658593e+002, 2.315428e+003
5.663414e+002, 2.316547e+003
5.668235e+002, 2.317026e+003
5.673056e+002, 2.316568e+003
5.677877e+002, 2.315719e+003
5.682698e+002, 2.315122e+003
5.687520e+002, 2.314837e+003
5.692341e+002, 2.315913e+003
5.697162e+002, 2.319881e+003
5.701983e+002, 2.324747e+003
5.706804e+002, 2.326349e+003
5.711625e+002, 2.325165e+003
5.716447e+002, 2.324380e+003
5.721268e+002, 2.326109e+003
5.726089e+002, 2.329270e+003
5.730910e+002, 2.333164e+003
5.735731e+002, 2.337938e+003
5.740552e+002, 2.341985e+003
5.745374e+002, 2.344828e+003
5.750195e+002, 2.346511e+003
5.755016e+002, 2.347081e+003
5.759837e+002, 2.343936e+003
5.764658e+002, 2.342836e+003
5.769479e+002, 2.344898e+003
5.774301e+002, 2.349086e+003
5.779122e+002, 2.353710e+003
5.783943e+002, 2.359823e+003
5.788764e+002, 2.364066e+003
5.793585e+002, 2.364749e+003
5.798406e+002, 2.362567e+003
5.803228e+002, 2.362849e+003
5.808049e+002, 2.365909e+003
5.812870e+002, 2.369334e+003
5.817691e+002, 2.371082e+003
5.822512e+002, 2.371819e+003
5.827333e+002, 2.374750e+003
5.832155e+002, 2.380347e+003
5.836975e+002, 2.385728e+003
5.841796e+002, 2.388102e+003
5.846617e+002, 2.388583e+003
5.851439e+002, 2.388975e+003
5.856260e+002, 2.389728e+003
5.861081e+002, 2.390669e+003
5.865902e+002, 2.391852e+003
5.870723e+002, 2.393151e+003
5.875544e+002, 2.394290e+003
5.880366e+002, 2.394846e+003
5.885187e+002, 2.395556e+003
5.890008e+002, 2.396417e+003
5.894829e+002, 2.397449e+003
5.899650e+002, 2.399344e+003
5.904471e+002, 2.402505e+003
5.909293e+002, 2.405884e+003
5.914114e+002, 2.409082e+003
5.918935e+002, 2.412180e+003
5.923756e+002, 2.414288e+003
5.928577e+002, 2.415182e+003
5.933398e+002, 2.415654e+003
5.938220e+002, 2.416524e+003
5.943041e+002, 2.417755e+003
5.947862e+002, 2.418899e+003
5.952683e+002, 2.419766e+003
5.957504e+002, 2.420910e+003
5.962325e+002, 2.423804e+003
5.967147e+002, 2.427655e+003
5.971968e+002, 2.430312e+003
5.976789e+002, 2.429372e+003
5.981610e+002, 2.428198e+003
5.986431e+002, 2.429453e+003
5.991252e+002, 2.432704e+003
5.996074e+002, 2.435813e+003
6.000895e+002, 2.437790e+003
6.005716e+002, 2.439649e+003
6.010537e+002, 2.441809e+003
6.015358e+002, 2.444253e+003
6.020179e+002, 2.447208e+003
6.025001e+002, 2.451587e+003
6.029822e+002, 2.455570e+003
6.034643e+002, 2.457547e+003
6.039464e+002, 2.456774e+003
6.044285e+002, 2.457019e+003
6.049106e+002, 2.458609e+003
6.053928e+002, 2.461104e+003
6.058749e+002, 2.463778e+003
6.063570e+002, 2.466691e+003
6.068391e+002, 2.470627e+003
6.073212e+002, 2.476569e+003
6.078033e+002, 2.482673e+003
6.082855e+002, 2.485771e+003
6.087676e+002, 2.486481e+003
6.092497e+002, 2.487243e+003
6.097318e+002, 2.489321e+003
6.102139e+002, 2.491983e+003
6.106960e+002, 2.494960e+003
6.111782e+002, 2.498177e+003
6.116603e+002, 2.500660e+003
6.121424e+002, 2.501710e+003
6.126245e+002, 2.502207e+003
6.131066e+002, 2.502541e+003
6.135887e+002, 2.502085e+003
6.140709e+002, 2.503238e+003
6.145530e+002, 2.507262e+003
6.150351e+002, 2.511851e+003
6.155172e+002, 2.514231e+003
6.159993e+002, 2.513564e+003
6.164814e+002, 2.514956e+003
6.169636e+002, 2.519809e+003
6.174457e+002, 2.526039e+003
6.179278e+002, 2.529439e+003
6.184099e+002, 2.530256e+003
6.188920e+002, 2.531173e+003
6.193741e+002, 2.533078e+003
6.198563e+002, 2.535843e+003
6.203384e+002, 2.539506e+003
6.208205e+002, 2.543917e+003
6.213026e+002, 2.548406e+003
6.217847e+002, 2.552373e+003
6.222668e+002, 2.556430e+003
6.227490e+002, 2.561273e+003
6.232311e+002, 2.567137e+003
6.237132e+002, 2.572010e+003
6.241953e+002, 2.572309e+003
6.246774e+002, 2.573600e+003
6.251595e+002, 2.580141e+003
6.256417e+002, 2.596991e+003
6.261238e+002, 2.609172e+003
6.266059e+002, 2.614822e+003
6.270880e+002, 2.617814e+003
6.275701e+002, 2.622989e+003
6.280522e+002, 2.630489e+003
6.285344e+002, 2.639101e+003
6.290165e+002, 2.648820e+003
6.294986e+002, 2.659140e+003
6.299807e+002, 2.668776e+003
6.304628e+002, 2.678009e+003
6.309449e+002, 2.688109e+003
6.314271e+002, 2.700372e+003
6.319092e+002, 2.713434e+003
6.323913e+002, 2.725983e+003
6.328734e+002, 2.738042e+003
6.333555e+002, 2.749628e+003
6.338376e+002, 2.760339e+003
6.343198e+002, 2.770961e+003
6.348019e+002, 2.782629e+003
6.352840e+002, 2.796188e+003
6.357661e+002, 2.806837e+003
6.362482e+002, 2.812450e+003
6.367303e+002, 2.816524e+003
6.372125e+002, 2.821380e+003
6.376946e+002, 2.827419e+003
6.381767e+002, 2.833349e+003
6.386588e+002, 2.839379e+003
6.391409e+002, 2.844917e+003
6.396230e+002, 2.849769e+003
6.401052e+002, 2.853818e+003
6.405873e+002, 2.854114e+003
6.410694e+002, 2.849110e+003
6.415515e+002, 2.841439e+003
6.420336e+002, 2.834641e+003
6.425157e+002, 2.828486e+003
6.429979e+002, 2.822165e+003
6.434800e+002, 2.813943e+003
6.439621e+002, 2.806574e+003
6.444442e+002, 2.802106e+003
6.449263e+002, 2.800309e+003
6.454084e+002, 2.799824e+003
6.458906e+002, 2.801188e+003
6.463727e+002, 2.802963e+003
6.468548e+002, 2.804763e+003
6.473369e+002, 2.806753e+003
6.478190e+002, 2.807412e+003
6.483011e+002, 2.806175e+003
6.487833e+002, 2.804454e+003
6.492654e+002, 2.803660e+003
6.497475e+002, 2.803999e+003
6.502296e+002, 2.802095e+003
6.507117e+002, 2.797376e+003
6.511938e+002, 2.791896e+003
6.516760e+002, 2.787868e+003
6.521581e+002, 2.785158e+003
6.526402e+002, 2.783709e+003
6.531223e+002, 2.784117e+003
6.536044e+002, 2.784421e+003
6.540865e+002, 2.781879e+003
6.545687e+002, 2.778046e+003
6.550508e+002, 2.775907e+003
6.555329e+002, 2.778636e+003
6.560150e+002, 2.781108e+003
6.564971e+002, 2.780912e+003
6.569792e+002, 2.778647e+003
6.574614e+002, 2.777586e+003
6.579435e+002, 2.778303e+003
6.584256e+002, 2.779562e+003
6.589077e+002, 2.780784e+003
6.593898e+002, 2.782020e+003
6.598719e+002, 2.784749e+003
6.603541e+002, 2.789007e+003
6.608362e+002, 2.794538e+003
6.613183e+002, 2.802344e+003
6.618004e+002, 2.811427e+003
6.622825e+002, 2.817680e+003
6.627646e+002, 2.820731e+003
6.632468e+002, 2.823662e+003
6.637289e+002, 2.829418e+003
6.642110e+002, 2.836619e+003
6.646931e+002, 2.843560e+003
6.651752e+002, 2.850008e+003
6.656573e+002, 2.855915e+003
6.661395e+002, 2.859302e+003
6.666216e+002, 2.862976e+003
6.671037e+002, 2.870382e+003
6.675858e+002, 2.886507e+003
6.680679e+002, 2.900608e+003
6.685500e+002, 2.910100e+003
6.690322e+002, 2.917841e+003
6.695143e+002, 2.930761e+003
6.699964e+002, 2.950523e+003
6.704785e+002, 2.967383e+003
6.709606e+002, 2.977372e+003
6.714427e+002, 2.983153e+003
6.719249e+002, 2.991762e+003
6.724070e+002, 3.002951e+003
6.728891e+002, 3.014635e+003
6.733712e+002, 3.026659e+003
6.738533e+002, 3.037786e+003
6.743354e+002, 3.046757e+003
6.748176e+002, 3.053522e+003
6.752997e+002, 3.057579e+003
6.757818e+002, 3.056449e+003
6.762639e+002, 3.054198e+003
6.767460e+002, 3.054151e+003
6.772281e+002, 3.058503e+003
6.777103e+002, 3.057331e+003
6.781924e+002, 3.047336e+003
6.786745e+002, 3.034839e+003
6.791566e+002, 3.024459e+003
6.796387e+002, 3.016888e+003
6.801208e+002, 3.007800e+003
6.806030e+002, 2.996552e+003
6.810851e+002, 2.984552e+003
6.815672e+002, 2.973221e+003
6.820493e+002, 2.962434e+003
6.825314e+002, 2.951054e+003
6.830135e+002, 2.938489e+003
6.834957e+002, 2.926228e+003
6.839778e+002, 2.916018e+003
6.844599e+002, 2.907278e+003
6.849420e+002, 2.899310e+003
6.854241e+002, 2.891622e+003
6.859063e+002, 2.884683e+003
6.863884e+002, 2.878413e+003
6.868705e+002, 2.872991e+003
6.873526e+002, 2.868997e+003
6.878347e+002, 2.868028e+003
6.883168e+002, 2.866053e+003
6.887990e+002, 2.861251e+003
6.892811e+002, 2.854405e+003
6.897632e+002, 2.851644e+003
6.902453e+002, 2.853593e+003
6.907274e+002, 2.855476e+003
6.912095e+002, 2.854060e+003
6.916917e+002, 2.850472e+003
6.921738e+002, 2.848133e+003
6.926559e+002, 2.847030e+003
6.931380e+002, 2.845788e+003
6.936201e+002, 2.842388e+003
6.941022e+002, 2.838915e+003
6.945844e+002, 2.837497e+003
6.950665e+002, 2.838608e+003
6.955486e+002, 2.840226e+003
6.960307e+002, 2.841653e+003
6.965128e+002, 2.843267e+003
6.969949e+002, 2.845551e+003
6.974771e+002, 2.850028e+003
6.979592e+002, 2.851778e+003
6.984413e+002, 2.849574e+003
6.989234e+002, 2.846276e+003
6.994055e+002, 2.846020e+003
6.998876e+002, 2.848945e+003
7.003698e+002, 2.849052e+003
7.008519e+002, 2.844412e+003
7.013340e+002, 2.839236e+003
7.018161e+002, 2.840704e+003
7.022982e+002, 2.846394e+003
7.027803e+002, 2.850069e+003
7.032625e+002, 2.847530e+003
7.037446e+002, 2.844578e+003
7.042267e+002, 2.845500e+003
7.047088e+002, 2.848838e+003
7.051909e+002, 2.851395e+003
7.056730e+002, 2.851932e+003
7.061552e+002, 2.851894e+003
7.066373e+002, 2.851156e+003
7.071194e+002, 2.849998e+003
7.076015e+002, 2.849847e+003
7.080836e+002, 2.850733e+003
7.085657e+002, 2.852363e+003
7.090479e+002, 2.854762e+003
7.095300e+002, 2.857741e+003
7.100121e+002, 2.860636e+003
7.104942e+002, 2.863435e+003
7.109763e+002, 2.866118e+003
7.114584e+002, 2.868594e+003
7.119406e+002, 2.871020e+003
7.124227e+002, 2.874131e+003
7.129048e+002, 2.877909e+003
7.133869e+002, 2.880157e+003
7.138690e+002, 2.877991e+003
7.143511e+002, 2.875341e+003
7.148333e+002, 2.875026e+003
7.153154e+002, 2.878485e+003
7.157975e+002, 2.880834e+003
7.162796e+002, 2.882019e+003
7.167617e+002, 2.882286e+003
7.172438e+002, 2.881531e+003
7.177260e+002, 2.879620e+003
7.182081e+002, 2.878519e+003
7.186902e+002, 2.878292e+003
7.191723e+002, 2.879246e+003
7.196544e+002, 2.882192e+003
7.201365e+002, 2.886577e+003
7.206187e+002, 2.891112e+003
7.211008e+002, 2.895717e+003
7.215829e+002, 2.899816e+003
7.220650e+002, 2.902853e+003
7.225471e+002, 2.905152e+003
7.230292e+002, 2.907218e+003
7.235114e+002, 2.908379e+003
7.239935e+002, 2.910151e+003
7.244756e+002, 2.913130e+003
7.249577e+002, 2.916658e+003
7.254398e+002, 2.919719e+003
7.259219e+002, 2.922136e+003
7.264041e+002, 2.924309e+003
7.268862e+002, 2.925828e+003
7.273683e+002, 2.927658e+003
7.278504e+002, 2.933146e+003
7.283325e+002, 2.941593e+003
7.288146e+002, 2.948225e+003
7.292968e+002, 2.949784e+003
7.297789e+002, 2.949304e+003
7.302610e+002, 2.949336e+003
7.307431e+002, 2.950089e+003
7.312252e+002, 2.952261e+003
7.317073e+002, 2.957058e+003
7.321895e+002, 2.962469e+003
7.326716e+002, 2.968115e+003
7.331537e+002, 2.973856e+003
7.336358e+002, 2.978408e+003
7.341179e+002, 2.981997e+003
7.346000e+002, 2.984076e+003
7.350822e+002, 2.983698e+003
7.355643e+002, 2.981329e+003
7.360464e+002, 2.981485e+003
7.365285e+002, 2.984235e+003
7.370106e+002, 2.988444e+003
7.374927e+002, 2.994139e+003
7.379749e+002, 3.000460e+003
7.384570e+002, 3.005996e+003
7.389391e+002, 3.010640e+003
7.394212e+002, 3.014796e+003
7.399033e+002, 3.018053e+003
7.403854e+002, 3.021336e+003
7.408676e+002, 3.025146e+003
7.413497e+002, 3.029368e+003
7.418318e+002, 3.034930e+003
7.423139e+002, 3.042870e+003
7.427960e+002, 3.050986e+003
7.432781e+002, 3.058039e+003
7.437603e+002, 3.064073e+003
7.442424e+002, 3.068467e+003
7.447245e+002, 3.070920e+003
7.452066e+002, 3.073073e+003
7.456887e+002, 3.077832e+003
7.461708e+002, 3.083652e+003
7.466530e+002, 3.085970e+003
7.471351e+002, 3.083516e+003
7.476172e+002, 3.080336e+003
7.480993e+002, 3.079960e+003
7.485814e+002, 3.080267e+003
7.490635e+002, 3.078786e+003
7.495457e+002, 3.072890e+003
7.500278e+002, 3.068428e+003
7.505099e+002, 3.065994e+003
7.509920e+002, 3.065404e+003
7.514741e+002, 3.067145e+003
7.519562e+002, 3.072218e+003
7.524384e+002, 3.074681e+003
7.529205e+002, 3.072917e+003
7.534026e+002, 3.069767e+003
7.538847e+002, 3.069586e+003
7.543668e+002, 3.071912e+003
7.548489e+002, 3.075298e+003
7.553311e+002, 3.080404e+003
7.558132e+002, 3.084285e+003
7.562953e+002, 3.083253e+003
7.567774e+002, 3.079352e+003
7.572595e+002, 3.076194e+003
7.577416e+002, 3.075122e+003
7.582238e+002, 3.074705e+003
7.587059e+002, 3.075104e+003
7.591880e+002, 3.075893e+003
7.596701e+002, 3.075948e+003
7.601522e+002, 3.074750e+003
7.606343e+002, 3.074737e+003
7.611165e+002, 3.076724e+003
7.615986e+002, 3.080153e+003
7.620807e+002, 3.084269e+003
7.625628e+002, 3.088823e+003
7.630449e+002, 3.092251e+003
7.635270e+002, 3.092956e+003
7.640092e+002, 3.092972e+003
7.644913e+002, 3.094220e+003
7.649734e+002, 3.096356e+003
7.654555e+002, 3.098357e+003
7.659376e+002, 3.099037e+003
7.664197e+002, 3.100307e+003
7.669019e+002, 3.103132e+003
7.673840e+002, 3.107116e+003
7.678661e+002, 3.110559e+003
7.683482e+002, 3.113265e+003
7.688303e+002, 3.115959e+003
7.693124e+002, 3.119363e+003
7.697946e+002, 3.122779e+003
7.702767e+002, 3.123058e+003
7.707588e+002, 3.120581e+003
7.712409e+002, 3.118935e+003
7.717230e+002, 3.120431e+003
7.722051e+002, 3.123730e+003
7.726873e+002, 3.128614e+003
7.731694e+002, 3.134623e+003
7.736515e+002, 3.138666e+003
7.741336e+002, 3.138534e+003
7.746157e+002, 3.137348e+003
7.750978e+002, 3.136125e+003
7.755800e+002, 3.134926e+003
7.760621e+002, 3.134541e+003
7.765442e+002, 3.135081e+003
7.770263e+002, 3.136144e+003
7.775084e+002, 3.136925e+003
7.779905e+002, 3.137958e+003
7.784727e+002, 3.142651e+003
7.789548e+002, 3.150777e+003
7.794369e+002, 3.158547e+003
7.799190e+002, 3.164477e+003
7.804011e+002, 3.167870e+003
7.808832e+002, 3.166500e+003
7.813654e+002, 3.160380e+003
7.818475e+002, 3.156956e+003
7.823296e+002, 3.161651e+003
7.828117e+002, 3.166880e+003
7.832938e+002, 3.168488e+003
7.837759e+002, 3.165977e+003
7.842581e+002, 3.165977e+003
7.847402e+002, 3.169136e+003
7.852223e+002, 3.172938e+003
7.857044e+002, 3.176929e+003
7.861865e+002, 3.180303e+003
7.866686e+002, 3.178190e+003
7.871508e+002, 3.170593e+003
7.876329e+002, 3.164994e+003
7.881150e+002, 3.169258e+003
7.885971e+002, 3.176732e+003
7.890792e+002, 3.180545e+003
7.895613e+002, 3.179438e+003
7.900435e+002, 3.179929e+003
7.905256e+002, 3.185023e+003
7.910077e+002, 3.190775e+003
7.914898e+002, 3.195011e+003
7.919719e+002, 3.197276e+003
7.924540e+002, 3.200894e+003
7.929362e+002, 3.206187e+003
7.934183e+002, 3.211013e+003
7.939004e+002, 3.212801e+003
7.943825e+002, 3.212703e+003
7.948646e+002, 3.214288e+003
7.953467e+002, 3.217855e+003
7.958289e+002, 3.220936e+003
7.963110e+002, 3.221082e+003
7.967931e+002, 3.220450e+003
7.972752e+002, 3.221005e+003
7.977573e+002, 3.223480e+003
7.982394e+002, 3.225151e+003
7.987216e+002, 3.224870e+003
7.992037e+002, 3.224753e+003
7.996858e+002, 3.225852e+003
8.001679e+002, 3.228077e+003
8.006500e+002, 3.233368e+003
8.011321e+002, 3.242376e+003
8.016143e+002, 3.250905e+003
8.020964e+002, 3.254414e+003
8.025785e+002, 3.254942e+003
8.030606e+002, 3.255855e+003
8.035427e+002, 3.257432e+003
8.040248e+002, 3.261014e+003
8.045070e+002, 3.269704e+003
8.049891e+002, 3.279077e+003
8.054712e+002, 3.285360e+003
8.059533e+002, 3.286529e+003
8.064354e+002, 3.289973e+003
8.069175e+002, 3.296715e+003
8.073997e+002, 3.304228e+003
8.078818e+002, 3.310354e+003
8.083639e+002, 3.315096e+003
8.088460e+002, 3.322281e+003
8.093281e+002, 3.332313e+003
8.098102e+002, 3.341314e+003
8.102924e+002, 3.345356e+003
8.107745e+002, 3.346440e+003
8.112566e+002, 3.346696e+003
8.117387e+002, 3.346220e+003
8.122208e+002, 3.347101e+003
8.127029e+002, 3.352265e+003
8.131851e+002, 3.357593e+003
8.136672e+002, 3.360190e+003
8.141493e+002, 3.359571e+003
8.146314e+002, 3.358239e+003
8.151135e+002, 3.355907e+003
8.155956e+002, 3.353596e+003
8.160778e+002, 3.352572e+003
8.165599e+002, 3.352348e+003
8.170420e+002, 3.350424e+003
8.175241e+002, 3.346594e+003
8.180062e+002, 3.342763e+003
8.184883e+002, 3.340128e+003
8.189705e+002, 3.338282e+003
8.194526e+002, 3.337004e+003
8.199347e+002, 3.336319e+003
8.204168e+002, 3.335477e+003
8.208989e+002, 3.332948e+003
8.213810e+002, 3.331523e+003
8.218632e+002, 3.333302e+003
8.223453e+002, 3.338932e+003
8.228274e+002, 3.341470e+003
8.233095e+002, 3.340682e+003
8.237916e+002, 3.338364e+003
8.242737e+002, 3.335581e+003
8.247559e+002, 3.332470e+003
8.252380e+002, 3.328239e+003
8.257201e+002, 3.323060e+003
8.262022e+002, 3.320987e+003
8.266843e+002, 3.328237e+003
8.271664e+002, 3.336561e+003
8.276486e+002, 3.339720e+003
8.281307e+002, 3.336106e+003
8.286128e+002, 3.335444e+003
8.290949e+002, 3.338968e+003
8.295770e+002, 3.343304e+003
8.300591e+002, 3.346922e+003
8.305413e+002, 3.349767e+003
8.310234e+002, 3.351172e+003
8.315055e+002, 3.351141e+003
8.319876e+002, 3.351735e+003
8.324697e+002, 3.355251e+003
8.329518e+002, 3.359634e+003
8.334340e+002, 3.362683e+003
8.339161e+002, 3.364330e+003
8.343982e+002, 3.365803e+003
8.348803e+002, 3.368276e+003
8.353624e+002, 3.369862e+003
8.358445e+002, 3.368923e+003
8.363267e+002, 3.365710e+003
8.368088e+002, 3.366875e+003
8.372909e+002, 3.373508e+003
8.377730e+002, 3.379562e+003
8.382551e+002, 3.380870e+003
8.387372e+002, 3.379449e+003
8.392194e+002, 3.380440e+003
8.397015e+002, 3.383507e+003
8.401836e+002, 3.386645e+003
8.406657e+002, 3.388242e+003
8.411478e+002, 3.389947e+003
8.416299e+002, 3.393406e+003
8.421121e+002, 3.398260e+003
8.425942e+002, 3.400960e+003
8.430763e+002, 3.399910e+003
8.435584e+002, 3.399214e+003
8.440405e+002, 3.400219e+003
8.445226e+002, 3.402495e+003
8.450048e+002, 3.404200e+003
8.454869e+002, 3.405398e+003
8.459690e+002, 3.407410e+003
8.464511e+002, 3.411983e+003
8.469332e+002, 3.416759e+003
8.474153e+002, 3.419284e+003
8.478975e+002, 3.419939e+003
8.483796e+002, 3.419766e+003
8.488617e+002, 3.417640e+003
8.493438e+002, 3.416564e+003
8.498259e+002, 3.417661e+003
8.503080e+002, 3.420347e+003
8.507902e+002, 3.423284e+003
8.512723e+002, 3.426535e+003
8.517544e+002, 3.429642e+003
8.522365e+002, 3.432443e+003
8.527186e+002, 3.435098e+003
8.532007e+002, 3.437972e+003
8.536829e+002, 3.440922e+003
8.541650e+002, 3.443563e+003
8.546471e+002, 3.445323e+003
8.551292e+002, 3.447238e+003
8.556113e+002, 3.449634e+003
8.560934e+002, 3.452492e+003
8.565756e+002, 3.455894e+003
8.570577e+002, 3.460161e+003
8.575398e+002, 3.464256e+003
8.580219e+002, 3.468208e+003
8.585040e+002, 3.471777e+003
8.589861e+002, 3.474240e+003
8.594683e+002, 3.475829e+003
8.599504e+002, 3.477858e+003
8.604325e+002, 3.480717e+003
8.609146e+002, 3.483702e+003
8.613967e+002, 3.486684e+003
8.618788e+002, 3.489151e+003
8.623610e+002, 3.490360e+003
8.628431e+002, 3.488253e+003
8.633252e+002, 3.488406e+003
8.638073e+002, 3.492973e+003
8.642894e+002, 3.498177e+003
8.647715e+002, 3.500114e+003
8.652537e+002, 3.498656e+003
8.657358e+002, 3.497299e+003
8.662179e+002, 3.496270e+003
8.667000e+002, 3.495926e+003
8.671821e+002, 3.496905e+003
8.676642e+002, 3.498752e+003
8.681464e+002, 3.500865e+003
8.686285e+002, 3.503256e+003
8.691106e+002, 3.505628e+003
8.695927e+002, 3.507355e+003
8.700748e+002, 3.509492e+003
8.705569e+002, 3.512864e+003
8.710391e+002, 3.517738e+003
8.715212e+002, 3.521052e+003
8.720033e+002, 3.522158e+003
8.724854e+002, 3.523745e+003
8.729675e+002, 3.528462e+003
8.734496e+002, 3.534880e+003
8.739318e+002, 3.539980e+003
8.744139e+002, 3.543545e+003
8.748960e+002, 3.545233e+003
8.753781e+002, 3.542722e+003
8.758602e+002, 3.540084e+003
8.763423e+002, 3.540740e+003
8.768245e+002, 3.544764e+003
8.773066e+002, 3.545259e+003
8.777887e+002, 3.540344e+003
8.782708e+002, 3.536580e+003
8.787529e+002, 3.537015e+003
8.792350e+002, 3.540622e+003
8.797172e+002, 3.544461e+003
8.801993e+002, 3.548397e+003
8.806814e+002, 3.551367e+003
8.811635e+002, 3.551812e+003
8.816456e+002, 3.552000e+003
8.821277e+002, 3.553255e+003
8.826099e+002, 3.555555e+003
8.830920e+002, 3.558858e+003
8.835741e+002, 3.564303e+003
8.840562e+002, 3.568829e+003
8.845383e+002, 3.571449e+003
8.850204e+002, 3.573145e+003
8.855026e+002, 3.575961e+003
8.859847e+002, 3.579817e+003
8.864668e+002, 3.584875e+003
8.869489e+002, 3.592007e+003
8.874310e+002, 3.598314e+003
8.879131e+002, 3.599359e+003
8.883953e+002, 3.597834e+003
8.888774e+002, 3.597935e+003
8.893595e+002, 3.604247e+003
8.898416e+002, 3.607007e+003
8.903237e+002, 3.601729e+003
8.908058e+002, 3.595204e+003
8.912880e+002, 3.595000e+003
8.917701e+002, 3.601738e+003
8.922522e+002, 3.607384e+003
8.927343e+002, 3.611323e+003
8.932164e+002, 3.613960e+003
8.936985e+002, 3.614953e+003
8.941807e+002, 3.615210e+003
8.946628e+002, 3.615941e+003
8.951449e+002, 3.617272e+003
8.956270e+002, 3.619421e+003
8.961091e+002, 3.623810e+003
8.965912e+002, 3.627872e+003
8.970734e+002, 3.629796e+003
8.975555e+002, 3.629279e+003
8.980376e+002, 3.631067e+003
8.985197e+002, 3.635693e+003
8.990018e+002, 3.639675e+003
8.994839e+002, 3.639573e+003
8.999661e+002, 3.637608e+003
9.004482e+002, 3.637556e+003
9.009303e+002, 3.639446e+003
9.014124e+002, 3.642722e+003
9.018945e+002, 3.649508e+003
9.023766e+002, 3.655250e+003
9.028588e+002, 3.656442e+003
9.033409e+002, 3.654398e+003
9.038230e+002, 3.655567e+003
9.043051e+002, 3.660682e+003
9.047872e+002, 3.665945e+003
9.052693e+002, 3.670202e+003
9.057515e+002, 3.673711e+003
9.062336e+002, 3.676966e+003
9.067157e+002, 3.679947e+003
9.071978e+002, 3.682661e+003
9.076799e+002, 3.684736e+003
9.081620e+002, 3.686998e+003
9.086442e+002, 3.690369e+003
9.091263e+002, 3.694040e+003
9.096084e+002, 3.696852e+003
9.100905e+002, 3.699282e+003
9.105726e+002, 3.699072e+003
9.110547e+002, 3.694749e+003
9.115369e+002, 3.690937e+003
9.120190e+002, 3.695617e+003
9.125011e+002, 3.705679e+003
9.129832e+002, 3.712118e+003
9.134653e+002, 3.713098e+003
9.139474e+002, 3.712413e+003
9.144296e+002, 3.710882e+003
9.149117e+002, 3.709754e+003
9.153938e+002, 3.709824e+003
9.158759e+002, 3.710649e+003
9.163580e+002, 3.715329e+003
9.168401e+002, 3.725873e+003
9.173223e+002, 3.735140e+003
9.178044e+002, 3.737288e+003
9.182865e+002, 3.734114e+003
9.187686e+002, 3.731666e+003
9.192507e+002, 3.730120e+003
9.197328e+002, 3.730210e+003
9.202150e+002, 3.735056e+003
9.206971e+002, 3.739359e+003
9.211792e+002, 3.738451e+003
9.216613e+002, 3.733335e+003
9.221434e+002, 3.732257e+003
9.226255e+002, 3.736880e+003
9.231077e+002, 3.742265e+003
9.235898e+002, 3.747588e+003
9.240719e+002, 3.752176e+003
9.245540e+002, 3.753594e+003
9.250361e+002, 3.752727e+003
9.255182e+002, 3.753329e+003
9.260004e+002, 3.757650e+003
9.264825e+002, 3.762251e+003
9.269646e+002, 3.763699e+003
9.274467e+002, 3.764443e+003
9.279288e+002, 3.768599e+003
9.284109e+002, 3.780653e+003
9.288931e+002, 3.786680e+003
9.293752e+002, 3.784178e+003
9.298573e+002, 3.779272e+003
9.303394e+002, 3.779424e+003
9.308215e+002, 3.783084e+003
9.313036e+002, 3.784041e+003
9.317858e+002, 3.781395e+003
9.322679e+002, 3.779707e+003
9.327500e+002, 3.783979e+003
9.332321e+002, 3.789235e+003
9.337142e+002, 3.791454e+003
9.341964e+002, 3.789824e+003
9.346785e+002, 3.789241e+003
9.351606e+002, 3.789372e+003
9.356427e+002, 3.791613e+003
9.361248e+002, 3.797896e+003
9.366069e+002, 3.806532e+003
9.370891e+002, 3.811135e+003
9.375712e+002, 3.812381e+003
9.380533e+002, 3.813405e+003
9.385354e+002, 3.814921e+003
9.390175e+002, 3.817617e+003
9.394996e+002, 3.822612e+003
9.399818e+002, 3.828995e+003
9.404639e+002, 3.833959e+003
9.409460e+002, 3.836167e+003
9.414281e+002, 3.840143e+003
9.419102e+002, 3.847387e+003
9.423923e+002, 3.855168e+003
9.428745e+002, 3.858642e+003
9.433566e+002, 3.859036e+003
9.438387e+002, 3.859446e+003
9.443208e+002, 3.860080e+003
9.448029e+002, 3.862866e+003
9.452850e+002, 3.871678e+003
9.457672e+002, 3.881496e+003
9.462493e+002, 3.887504e+003
9.467314e+002, 3.888889e+003
9.472135e+002, 3.889377e+003
9.476956e+002, 3.888450e+003
9.481777e+002, 3.888538e+003
9.486599e+002, 3.891925e+003
9.491420e+002, 3.897630e+003
9.496241e+002, 3.903775e+003
9.501062e+002, 3.910141e+003
9.505883e+002, 3.915699e+003
9.510704e+002, 3.918157e+003
9.515526e+002, 3.921319e+003
9.520347e+002, 3.927738e+003
9.525168e+002, 3.936495e+003
9.529989e+002, 3.944353e+003
9.534810e+002, 3.951385e+003
9.539631e+002, 3.957066e+003
9.544453e+002, 3.961134e+003
9.549274e+002, 3.963978e+003
9.554095e+002, 3.966192e+003
9.558916e+002, 3.967697e+003
9.563737e+002, 3.968325e+003
9.568558e+002, 3.967852e+003
9.573380e+002, 3.966905e+003
9.578201e+002, 3.965744e+003
9.583022e+002, 3.964229e+003
9.587843e+002, 3.961981e+003
9.592664e+002, 3.958634e+003
9.597485e+002, 3.957187e+003
9.602307e+002, 3.958023e+003
9.607128e+002, 3.958645e+003
9.611949e+002, 3.955650e+003
9.616770e+002, 3.951659e+003
9.621591e+002, 3.950888e+003
9.626412e+002, 3.953392e+003
9.631234e+002, 3.955332e+003
9.636055e+002, 3.953432e+003
9.640876e+002, 3.952971e+003
9.645697e+002, 3.956968e+003
9.650518e+002, 3.963651e+003
9.655339e+002, 3.964780e+003
9.660161e+002, 3.960313e+003
9.664982e+002, 3.955549e+003
9.669803e+002, 3.951475e+003
9.674624e+002, 3.949627e+003
9.679445e+002, 3.954380e+003
9.684266e+002, 3.961910e+003
9.689088e+002, 3.965816e+003
9.693909e+002, 3.960461e+003
9.698730e+002, 3.957057e+003
9.703551e+002, 3.956990e+003
9.708372e+002, 3.958302e+003
9.713193e+002, 3.958723e+003
9.718015e+002, 3.958539e+003
9.722836e+002, 3.960918e+003
9.727657e+002, 3.966238e+003
9.732478e+002, 3.970470e+003
9.737299e+002, 3.968939e+003
9.742120e+002, 3.966221e+003
9.746942e+002, 3.966372e+003
9.751763e+002, 3.969742e+003
9.756584e+002, 3.972252e+003
9.761405e+002, 3.972934e+003
9.766226e+002, 3.974481e+003
9.771047e+002, 3.978199e+003
9.775869e+002, 3.983117e+003
9.780690e+002, 3.986187e+003
9.785511e+002, 3.987939e+003
9.790332e+002, 3.990638e+003
9.795153e+002, 3.996365e+003
9.799974e+002, 4.001505e+003
9.804796e+002, 4.004177e+003
9.809617e+002, 4.005010e+003
9.814438e+002, 4.004666e+003
9.819259e+002, 4.001896e+003
9.824080e+002, 4.002660e+003
9.828901e+002, 4.008227e+003
9.833723e+002, 4.013721e+003
9.838544e+002, 4.012209e+003
9.843365e+002, 4.007921e+003
9.848186e+002, 4.010150e+003
9.853007e+002, 4.019469e+003
9.857828e+002, 4.026446e+003
9.862650e+002, 4.023621e+003
9.867471e+002, 4.021156e+003
9.872292e+002, 4.023962e+003
9.877113e+002, 4.030887e+003
9.881934e+002, 4.035517e+003
9.886755e+002, 4.037656e+003
9.891577e+002, 4.041536e+003
9.896398e+002, 4.050134e+003
9.901219e+002, 4.058739e+003
9.906040e+002, 4.060428e+003
9.910861e+002, 4.058407e+003
9.915682e+002, 4.058148e+003
9.920504e+002, 4.062974e+003
9.925325e+002, 4.066864e+003
9.930146e+002, 4.069224e+003
9.934967e+002, 4.070727e+003
9.939788e+002, 4.071956e+003
9.944609e+002, 4.072948e+003
9.949431e+002, 4.073928e+003
9.954252e+002, 4.074937e+003
9.959073e+002, 4.075711e+003
9.963894e+002, 4.076169e+003
9.968715e+002, 4.076280e+003
9.973536e+002, 4.075929e+003
9.978358e+002, 4.075157e+003
9.983179e+002, 4.074125e+003
9.988000e+002, 4.071784e+003
9.992821e+002, 4.072351e+003
9.997642e+002, 4.078266e+003
1.000246e+003, 4.086063e+003
1.000728e+003, 4.088471e+003
1.001211e+003, 4.086996e+003
1.001693e+003, 4.085179e+003
1.002175e+003, 4.083552e+003
1.002657e+003, 4.083041e+003
1.003139e+003, 4.084704e+003
1.003621e+003, 4.087290e+003
1.004103e+003, 4.089718e+003
1.004585e+003, 4.092039e+003
1.005068e+003, 4.093441e+003
1.005550e+003, 4.093714e+003
1.006032e+003, 4.094886e+003
1.006514e+003, 4.099241e+003
1.006996e+003, 4.104814e+003
1.007478e+003, 4.109930e+003
1.007960e+003, 4.114209e+003
1.008442e+003, 4.116422e+003
1.008924e+003, 4.113318e+003
1.009407e+003, 4.111912e+003
1.009889e+003, 4.114235e+003
1.010371e+003, 4.118397e+003
1.010853e+003, 4.120671e+003
1.011335e+003, 4.121273e+003
1.011817e+003, 4.121088e+003
1.012299e+003, 4.120076e+003
1.012781e+003, 4.119767e+003
1.013263e+003, 4.122654e+003
1.013746e+003, 4.126117e+003
1.014228e+003, 4.127287e+003
1.014710e+003, 4.125352e+003
1.015192e+003, 4.125417e+003
1.015674e+003, 4.128119e+003
1.016156e+003, 4.130969e+003
1.016638e+003, 4.132341e+003
1.017120e+003, 4.132845e+003
1.017603e+003, 4.132751e+003
1.018085e+003, 4.132727e+003
1.018567e+003, 4.135257e+003
1.019049e+003, 4.143912e+003
1.019531e+003, 4.152057e+003
1.020013e+003, 4.157253e+003
1.020495e+003, 4.160972e+003
1.020977e+003, 4.165452e+003
1.021459e+003, 4.170662e+003
1.021942e+003, 4.174737e+003
1.022424e+003, 4.177326e+003
1.022906e+003, 4.179567e+003
1.023388e+003, 4.184282e+003
1.023870e+003, 4.188145e+003
1.024352e+003, 4.186378e+003
1.024834e+003, 4.177985e+003
1.025316e+003, 4.174862e+003
1.025799e+003, 4.180190e+003
1.026281e+003, 4.185925e+003
1.026763e+003, 4.189064e+003
1.027245e+003, 4.190472e+003
1.027727e+003, 4.191812e+003
1.028209e+003, 4.193410e+003
1.028691e+003, 4.196418e+003
1.029173e+003, 4.203287e+003
1.029656e+003, 4.208450e+003
1.030138e+003, 4.207729e+003
1.030620e+003, 4.204836e+003
1.031102e+003, 4.203318e+003
1.031584e+003, 4.202857e+003
1.032066e+003, 4.205869e+003
1.032548e+003, 4.212682e+003
1.033030e+003, 4.219762e+003
1.033512e+003, 4.222951e+003
1.033995e+003, 4.225477e+003
1.034477e+003, 4.232547e+003
1.034959e+003, 4.243137e+003
1.035441e+003, 4.249832e+003
1.035923e+003, 4.247244e+003
1.036405e+003, 4.246298e+003
1.036887e+003, 4.249831e+003
1.037369e+003, 4.255354e+003
1.037851e+003, 4.258169e+003
1.038334e+003, 4.258779e+003
1.038816e+003, 4.258950e+003
1.039298e+003, 4.258802e+003
1.039780e+003, 4.259702e+003
1.040262e+003, 4.263896e+003
1.040744e+003, 4.268476e+003
1.041226e+003, 4.270686e+003
1.041708e+003, 4.270306e+003
1.042191e+003, 4.273088e+003
1.042673e+003, 4.279644e+003
1.043155e+003, 4.284492e+003
1.043637e+003, 4.283211e+003
1.044119e+003, 4.279865e+003
1.044601e+003, 4.279294e+003
1.045083e+003, 4.281163e+003
1.045565e+003, 4.284713e+003
1.046047e+003, 4.293263e+003
1.046530e+003, 4.297936e+003
1.047012e+003, 4.295993e+003
1.047494e+003, 4.292942e+003
1.047976e+003, 4.295464e+003
1.048458e+003, 4.302402e+003
1.048940e+003, 4.308197e+003
1.049422e+003, 4.312435e+003
1.049904e+003, 4.315934e+003
1.050386e+003, 4.318991e+003
1.050869e+003, 4.321690e+003
1.051351e+003, 4.323002e+003
1.051833e+003, 4.323864e+003
1.052315e+003, 4.329636e+003
1.052797e+003, 4.341678e+003
1.053279e+003, 4.347191e+003
1.053761e+003, 4.340667e+003
1.054243e+003, 4.332032e+003
1.054726e+003, 4.335452e+003
1.055208e+003, 4.344095e+003
1.055690e+003, 4.347814e+003
1.056172e+003, 4.341859e+003
1.056654e+003, 4.340068e+003
1.057136e+003, 4.345597e+003
1.057618e+003, 4.351628e+003
1.058100e+003, 4.354267e+003
1.058583e+003, 4.354120e+003
1.059065e+003, 4.352854e+003
1.059547e+003, 4.350777e+003
1.060029e+003, 4.349268e+003
1.060511e+003, 4.348808e+003
1.060993e+003, 4.349385e+003
1.061475e+003, 4.351105e+003
1.061957e+003, 4.353888e+003
1.062439e+003, 4.358239e+003
1.062922e+003, 4.364671e+003
1.063404e+003, 4.367839e+003
1.063886e+003, 4.367084e+003
1.064368e+003, 4.365458e+003
1.064850e+003, 4.366266e+003
1.065332e+003, 4.367155e+003
1.065814e+003, 4.364073e+003
1.066296e+003, 4.357505e+003
1.066778e+003, 4.357246e+003
1.067261e+003, 4.368706e+003
1.067743e+003, 4.375336e+003
1.068225e+003, 4.371384e+003
1.068707e+003, 4.362925e+003
1.069189e+003, 4.360293e+003
1.069671e+003, 4.362156e+003
1.070153e+003, 4.366126e+003
1.070635e+003, 4.372585e+003
1.071118e+003, 4.377250e+003
1.071600e+003, 4.376761e+003
1.072082e+003, 4.375392e+003
1.072564e+003, 4.375662e+003
1.073046e+003, 4.377423e+003
1.073528e+003, 4.378173e+003
1.074010e+003, 4.378045e+003
1.074492e+003, 4.378237e+003
1.074974e+003, 4.380367e+003
1.075457e+003, 4.382030e+003
1.075939e+003, 4.379891e+003
1.076421e+003, 4.376627e+003
1.076903e+003, 4.377208e+003
1.077385e+003, 4.384114e+003
1.077867e+003, 4.386826e+003
1.078349e+003, 4.383640e+003
1.078831e+003, 4.381353e+003
1.079313e+003, 4.388688e+003
1.079796e+003, 4.399523e+003
1.080278e+003, 4.404148e+003
1.080760e+003, 4.402939e+003
1.081242e+003, 4.402118e+003
1.081724e+003, 4.403444e+003
1.082206e+003, 4.405631e+003
1.082688e+003, 4.408667e+003
1.083170e+003, 4.412157e+003
1.083652e+003, 4.415761e+003
1.084135e+003, 4.419261e+003
1.084617e+003, 4.421535e+003
1.085099e+003, 4.422326e+003
1.085581e+003, 4.422574e+003
1.086063e+003, 4.422521e+003
1.086545e+003, 4.422435e+003
1.087027e+003, 4.422348e+003
1.087509e+003, 4.422341e+003
1.087992e+003, 4.422909e+003
1.088474e+003, 4.424052e+003
1.088956e+003, 4.427015e+003
1.089438e+003, 4.434231e+003
1.089920e+003, 4.440087e+003
1.090402e+003, 4.436011e+003
1.090884e+003, 4.428527e+003
1.091366e+003, 4.427062e+003
1.091849e+003, 4.436220e+003
1.092331e+003, 4.441882e+003
1.092813e+003, 4.443124e+003
1.093295e+003, 4.443999e+003
1.093777e+003, 4.448290e+003
1.094259e+003, 4.453801e+003
1.094741e+003, 4.455648e+003
1.095223e+003, 4.454963e+003
1.095705e+003, 4.455906e+003
1.096188e+003, 4.460543e+003
1.096670e+003, 4.466326e+003
1.097152e+003, 4.473685e+003
1.097634e+003, 4.480653e+003
1.098116e+003, 4.484140e+003
1.098598e+003, 4.484961e+003
1.099080e+003, 4.486694e+003
1.099562e+003, 4.489688e+003
1.100044e+003, 4.494073e+003
1.100527e+003, 4.504326e+003
1.101009e+003, 4.511541e+003
1.101491e+003, 4.508398e+003
1.101973e+003, 4.499053e+003
1.102455e+003, 4.497023e+003
1.102937e+003, 4.502439e+003
1.103419e+003, 4.505772e+003
1.103901e+003, 4.504061e+003
1.104384e+003, 4.502273e+003
1.104866e+003, 4.505860e+003
1.105348e+003, 4.511387e+003
1.105830e+003, 4.515589e+003
1.106312e+003, 4.517987e+003
1.106794e+003, 4.519280e+003
1.107276e+003, 4.518696e+003
1.107758e+003, 4.520189e+003
1.108240e+003, 4.526962e+003
1.108723e+003, 4.535064e+003
1.109205e+003, 4.538372e+003
1.109687e+003, 4.538390e+003
1.110169e+003, 4.537944e+003
1.110651e+003, 4.535875e+003
1.111133e+003, 4.537442e+003
1.111615e+003, 4.545231e+003
1.112097e+003, 4.552413e+003
1.112579e+003, 4.551813e+003
1.113062e+003, 4.546489e+003
1.113544e+003, 4.548642e+003
1.114026e+003, 4.556681e+003
1.114508e+003, 4.562458e+003
1.114990e+003, 4.559050e+003
1.115472e+003, 4.556476e+003
1.115954e+003, 4.558463e+003
1.116436e+003, 4.562469e+003
1.116919e+003, 4.565553e+003
1.117401e+003, 4.567811e+003
1.117883e+003, 4.569456e+003
1.118365e+003, 4.570557e+003
1.118847e+003, 4.571786e+003
1.119329e+003, 4.574903e+003
1.119811e+003, 4.577172e+003
1.120293e+003, 4.574899e+003
1.120776e+003, 4.570290e+003
1.121258e+003, 4.571085e+003
1.121740e+003, 4.577694e+003
1.122222e+003, 4.586022e+003
1.122704e+003, 4.596032e+003
1.123186e+003, 4.603657e+003
1.123668e+003, 4.602200e+003
1.124150e+003, 4.597866e+003
1.124632e+003, 4.597138e+003
1.125115e+003, 4.601108e+003
1.125597e+003, 4.605682e+003
1.126079e+003, 4.610819e+003
1.126561e+003, 4.616631e+003
1.127043e+003, 4.623853e+003
1.127525e+003, 4.630847e+003
1.128007e+003, 4.633938e+003
1.128489e+003, 4.635313e+003
1.128971e+003, 4.638909e+003
1.129454e+003, 4.647270e+003
1.129936e+003, 4.653868e+003
1.130418e+003, 4.657950e+003
1.130900e+003, 4.660810e+003
1.131382e+003, 4.662369e+003
1.131864e+003, 4.663728e+003
1.132346e+003, 4.669481e+003
1.132828e+003, 4.678090e+003
1.133311e+003, 4.684515e+003
1.133793e+003, 4.682280e+003
1.134275e+003, 4.683334e+003
1.134757e+003, 4.692806e+003
1.135239e+003, 4.703628e+003
1.135721e+003, 4.708558e+003
1.136203e+003, 4.708344e+003
1.136685e+003, 4.710013e+003
1.137167e+003, 4.713732e+003
1.137650e+003, 4.719436e+003
1.138132e+003, 4.729320e+003
1.138614e+003, 4.738661e+003
1.139096e+003, 4.746323e+003
1.139578e+003, 4.751471e+003
1.140060e+003, 4.750866e+003
1.140542e+003, 4.744344e+003
1.141024e+003, 4.744267e+003
1.141506e+003, 4.752272e+003
1.141989e+003, 4.761560e+003
1.142471e+003, 4.769234e+003
1.142953e+003, 4.774078e+003
1.143435e+003, 4.775240e+003
1.143917e+003, 4.772714e+003
1.144399e+003, 4.765921e+003
1.144881e+003, 4.753763e+003
1.145363e+003, 4.745861e+003
1.145846e+003, 4.745346e+003
1.146328e+003, 4.745534e+003
1.146810e+003, 4.740148e+003
1.147292e+003, 4.730879e+003
1.147774e+003, 4.717711e+003
1.148256e+003, 4.700227e+003
1.148738e+003, 4.689208e+003
1.149220e+003, 4.686453e+003
1.149703e+003, 4.683889e+003
1.150185e+003, 4.678368e+003
1.150667e+003, 4.672296e+003
1.151149e+003, 4.668983e+003
1.151631e+003, 4.667624e+003
1.152113e+003, 4.667205e+003
1.152595e+003, 4.668216e+003
1.153077e+003, 4.667445e+003
1.153559e+003, 4.663748e+003
1.154042e+003, 4.660769e+003
1.154524e+003, 4.660757e+003
1.155006e+003, 4.662524e+003
1.155488e+003, 4.663843e+003
1.155970e+003, 4.664739e+003
1.156452e+003, 4.665215e+003
1.156934e+003, 4.665493e+003
1.157416e+003, 4.664995e+003
1.157898e+003, 4.663510e+003
1.158381e+003, 4.661718e+003
1.158863e+003, 4.659933e+003
1.159345e+003, 4.658274e+003
1.159827e+003, 4.656266e+003
1.160309e+003, 4.654578e+003
1.160791e+003, 4.656024e+003
1.161273e+003, 4.664201e+003
1.161755e+003, 4.672726e+003
1.162238e+003, 4.681685e+003
1.162720e+003, 4.688368e+003
1.163202e+003, 4.688387e+003
1.163684e+003, 4.683003e+003
1.164166e+003, 4.680178e+003
1.164648e+003, 4.680221e+003
1.165130e+003, 4.682739e+003
1.165612e+003, 4.691922e+003
1.166094e+003, 4.698341e+003
1.166577e+003, 4.696078e+003
1.167059e+003, 4.690057e+003
1.167541e+003, 4.687661e+003
1.168023e+003, 4.688674e+003
1.168505e+003, 4.690502e+003
1.168987e+003, 4.692937e+003
1.169469e+003, 4.694186e+003
1.169951e+003, 4.690881e+003
1.170433e+003, 4.688154e+003
1.170916e+003, 4.689341e+003
1.171398e+003, 4.693399e+003
1.171880e+003, 4.698858e+003
1.172362e+003, 4.705672e+003
1.172844e+003, 4.708575e+003
1.173326e+003, 4.705877e+003
1.173808e+003, 4.704195e+003
1.174290e+003, 4.710905e+003
1.174773e+003, 4.719168e+003
1.175255e+003, 4.723111e+003
1.175737e+003, 4.723583e+003
1.176219e+003, 4.725923e+003
1.176701e+003, 4.730342e+003
1.177183e+003, 4.732454e+003
1.177665e+003, 4.730719e+003
1.178147e+003, 4.727796e+003
1.178630e+003, 4.724990e+003
1.179112e+003, 4.723175e+003
1.179594e+003, 4.723433e+003
1.180076e+003, 4.725798e+003
1.180558e+003, 4.729142e+003
1.181040e+003, 4.733666e+003
1.181522e+003, 4.737909e+003
1.182004e+003, 4.741725e+003
1.182486e+003, 4.744175e+003
1.182969e+003, 4.742222e+003
1.183451e+003, 4.739396e+003
1.183933e+003, 4.740360e+003
1.184415e+003, 4.746168e+003
1.184897e+003, 4.751358e+003
1.185379e+003, 4.756081e+003
1.185861e+003, 4.758916e+003
1.186343e+003, 4.757499e+003
1.186825e+003, 4.755948e+003
1.187308e+003, 4.760699e+003
1.187790e+003, 4.768045e+003
1.188272e+003, 4.771956e+003
1.188754e+003, 4.770437e+003
1.189236e+003, 4.769125e+003
1.189718e+003, 4.768159e+003
1.190200e+003, 4.766919e+003
1.190682e+003, 4.764041e+003
1.191165e+003, 4.761549e+003
1.191647e+003, 4.763095e+003
1.192129e+003, 4.766818e+003
1.192611e+003, 4.768797e+003
1.193093e+003, 4.766675e+003
1.193575e+003, 4.766970e+003
1.194057e+003, 4.770305e+003
1.194539e+003, 4.773978e+003
1.195021e+003, 4.775962e+003
1.195504e+003, 4.776955e+003
1.195986e+003, 4.777224e+003
1.196468e+003, 4.777274e+003
1.196950e+003, 4.778612e+003
1.197432e+003, 4.782089e+003
1.197914e+003, 4.785215e+003
1.198396e+003, 4.787663e+003
1.198878e+003, 4.790219e+003
1.199360e+003, 4.793685e+003
1.199843e+003, 4.797685e+003
1.200325e+003, 4.802538e+003
1.200807e+003, 4.807601e+003
1.201289e+003, 4.810073e+003
1.201771e+003, 4.808944e+003
1.202253e+003, 4.806487e+003
1.202735e+003, 4.802394e+003
1.203217e+003, 4.799165e+003
1.203700e+003, 4.800003e+003
1.204182e+003, 4.803243e+003
1.204664e+003, 4.806278e+003
1.205146e+003, 4.809185e+003
1.205628e+003, 4.814252e+003
1.206110e+003, 4.823760e+003
1.206592e+003, 4.830354e+003
1.207074e+003, 4.832135e+003
1.207557e+003, 4.832578e+003
1.208039e+003, 4.836094e+003
1.208521e+003, 4.840961e+003
1.209003e+003, 4.845218e+003
1.209485e+003, 4.848553e+003
1.209967e+003, 4.849786e+003
1.210449e+003, 4.847938e+003
1.210931e+003, 4.846101e+003
1.211413e+003, 4.844495e+003
1.211896e+003, 4.844376e+003
1.212378e+003, 4.848853e+003
1.212860e+003, 4.855201e+003
1.213342e+003, 4.860203e+003
1.213824e+003, 4.863538e+003
1.214306e+003, 4.862106e+003
1.214788e+003, 4.853197e+003
1.215270e+003, 4.847125e+003
1.215752e+003, 4.847074e+003
1.216235e+003, 4.849958e+003
1.216717e+003, 4.853635e+003
1.217199e+003, 4.856286e+003
1.217681e+003, 4.854075e+003
1.218163e+003, 4.845987e+003
1.218645e+003, 4.842101e+003
1.219127e+003, 4.844126e+003
1.219609e+003, 4.847133e+003
1.220092e+003, 4.849937e+003
1.220574e+003, 4.852188e+003
1.221056e+003, 4.852550e+003
1.221538e+003, 4.852405e+003
1.222020e+003, 4.853596e+003
1.222502e+003, 4.856420e+003
1.222984e+003, 4.861002e+003
1.223466e+003, 4.868243e+003
1.223948e+003, 4.873430e+003
1.224431e+003, 4.873830e+003
1.224913e+003, 4.873269e+003
1.225395e+003, 4.878578e+003
1.225877e+003, 4.885873e+003
1.226359e+003, 4.889612e+003
1.226841e+003, 4.887964e+003
1.227323e+003, 4.887042e+003
1.227805e+003, 4.886948e+003
1.228287e+003, 4.887481e+003
1.228770e+003, 4.888941e+003
1.229252e+003, 4.890284e+003
1.229734e+003, 4.890166e+003
1.230216e+003, 4.888986e+003
1.230698e+003, 4.887024e+003
1.231180e+003, 4.883975e+003
1.231662e+003, 4.882231e+003
1.232144e+003, 4.881913e+003
1.232627e+003, 4.882413e+003
1.233109e+003, 4.884032e+003
1.233591e+003, 4.885482e+003
1.234073e+003, 4.885153e+003
1.234555e+003, 4.883835e+003
1.235037e+003, 4.882350e+003
1.235519e+003, 4.880603e+003
1.236001e+003, 4.880253e+003
1.236484e+003, 4.881236e+003
1.236966e+003, 4.885082e+003
1.237448e+003, 4.894697e+003
1.237930e+003, 4.904177e+003
1.238412e+003, 4.906237e+003
1.238894e+003, 4.905174e+003
1.239376e+003, 4.907080e+003
1.239858e+003, 4.912814e+003
1.240340e+003, 4.915596e+003
1.240823e+003, 4.915077e+003
1.241305e+003, 4.916357e+003
1.241787e+003, 4.924286e+003
1.242269e+003, 4.931747e+003
1.242751e+003, 4.930039e+003
1.243233e+003, 4.925734e+003
1.243715e+003, 4.927919e+003
1.244197e+003, 4.937817e+003
1.244679e+003, 4.941486e+003
1.245162e+003, 4.939097e+003
1.245644e+003, 4.936682e+003
1.246126e+003, 4.936890e+003
1.246608e+003, 4.939127e+003
1.247090e+003, 4.946056e+003
1.247572e+003, 4.952888e+003
1.248054e+003, 4.953644e+003
1.248536e+003, 4.948108e+003
1.249019e+003, 4.946932e+003
1.249501e+003, 4.949816e+003
1.249983e+003, 4.952670e+003
1.250465e+003, 4.951600e+003
1.250947e+003, 4.952020e+003
1.251429e+003, 4.959665e+003
1.251911e+003, 4.967677e+003
1.252393e+003, 4.968507e+003
1.252875e+003, 4.962669e+003
1.253358e+003, 4.963106e+003
1.253840e+003, 4.968607e+003
1.254322e+003, 4.971696e+003
1.254804e+003, 4.964505e+003
1.255286e+003, 4.959180e+003
1.255768e+003, 4.960647e+003
1.256250e+003, 4.964726e+003
1.256732e+003, 4.968048e+003
1.257214e+003, 4.971042e+003
1.257697e+003, 4.977479e+003
1.258179e+003, 4.986344e+003
1.258661e+003, 4.992580e+003
1.259143e+003, 4.992040e+003
1.259625e+003, 4.991564e+003
1.260107e+003, 4.992539e+003
1.260589e+003, 4.994060e+003
1.261071e+003, 4.995005e+003
1.261554e+003, 4.995957e+003
1.262036e+003, 4.999258e+003
1.262518e+003, 5.004190e+003
1.263000e+003, 5.008439e+003
1.263482e+003, 5.011601e+003
1.263964e+003, 5.012854e+003
1.264446e+003, 5.011784e+003
1.264928e+003, 5.009547e+003
1.265411e+003, 5.006340e+003
1.265893e+003, 5.003030e+003
1.266375e+003, 5.000573e+003
1.266857e+003, 4.999491e+003
1.267339e+003, 5.001195e+003
1.267821e+003, 5.008417e+003
1.268303e+003, 5.014550e+003
1.268785e+003, 5.019518e+003
1.269267e+003, 5.023697e+003
1.269750e+003, 5.027667e+003
1.270232e+003, 5.030827e+003
1.270714e+003, 5.031487e+003
1.271196e+003, 5.030906e+003
1.271678e+003, 5.032127e+003
1.272160e+003, 5.036229e+003
1.272642e+003, 5.039419e+003
1.273124e+003, 5.041601e+003
1.273606e+003, 5.042111e+003
1.274089e+003, 5.036971e+003
1.274571e+003, 5.033147e+003
1.275053e+003, 5.040247e+003
1.275535e+003, 5.051593e+003
1.276017e+003, 5.054641e+003
1.276499e+003, 5.046996e+003
1.276981e+003, 5.046783e+003
1.277463e+003, 5.054253e+003
1.277946e+003, 5.060685e+003
1.278428e+003, 5.059276e+003
1.278910e+003, 5.056396e+003
1.279392e+003, 5.056542e+003
1.279874e+003, 5.057099e+003
1.280356e+003, 5.053653e+003
1.280838e+003, 5.046532e+003
1.281320e+003, 5.048551e+003
1.281802e+003, 5.058607e+003
1.282285e+003, 5.065633e+003
1.282767e+003, 5.057935e+003
1.283249e+003, 5.053604e+003
1.283731e+003, 5.062071e+003
1.284213e+003, 5.073221e+003
1.284695e+003, 5.078272e+003
1.285177e+003, 5.078374e+003
1.285659e+003, 5.078214e+003
1.286141e+003, 5.078173e+003
1.286624e+003, 5.079683e+003
1.287106e+003, 5.084786e+003
1.287588e+003, 5.089400e+003
1.288070e+003, 5.093119e+003
1.288552e+003, 5.095947e+003
1.289034e+003, 5.097586e+003
1.289516e+003, 5.098433e+003
1.289998e+003, 5.098589e+003
1.290481e+003, 5.098782e+003
1.290963e+003, 5.100899e+003
1.291445e+003, 5.109919e+003
1.291927e+003, 5.111514e+003
1.292409e+003, 5.103173e+003
1.292891e+003, 5.097128e+003
1.293373e+003, 5.106315e+003
1.293855e+003, 5.119423e+003
1.294338e+003, 5.121442e+003
1.294820e+003, 5.116984e+003
1.295302e+003, 5.114720e+003
1.295784e+003, 5.115799e+003
1.296266e+003, 5.116259e+003
1.296748e+003, 5.115867e+003
1.297230e+003, 5.118952e+003
1.297712e+003, 5.132585e+003
1.298194e+003, 5.145454e+003
1.298677e+003, 5.147842e+003
1.299159e+003, 5.144307e+003
1.299641e+003, 5.140033e+003
1.300123e+003, 5.134860e+003
1.300605e+003, 5.132564e+003
1.301087e+003, 5.132753e+003
1.301569e+003, 5.132200e+003
1.302051e+003, 5.128898e+003
1.302533e+003, 5.123900e+003
1.303016e+003, 5.117273e+003
##END=



