##NAMES=Charoite
##RRUFFID=R060376
##IDEAL CHEMISTRY=(K,Sr,Ba,Mn^2+^)_15-16_(Ca,Na)_32_Si_70_(O,OH)_180_(OH,F)_4_&#183;nH_2_O
##LOCALITY=Chara River area, Murun Massif, northwest Aldan, Siberia, U.S.S.R.
##OWNER=RRUFF
##SOURCE=Michael Scott
##DESCRIPTION=Purple flaky and massive associated with tan colored tinaksite, R060375
##STATUS=The identification of this mineral is not yet confirmed.
##URL=rruff.info/R060376
9.112140e+001, 0.000000e+000
9.160352e+001, 1.157315e+002
9.208563e+001, 1.146152e+002
9.256775e+001, 1.144666e+002
9.304987e+001, 1.157198e+002
9.353198e+001, 1.174129e+002
9.401410e+001, 1.181831e+002
9.449622e+001, 1.177713e+002
9.497833e+001, 1.162075e+002
9.546045e+001, 1.134184e+002
9.594257e+001, 1.093500e+002
9.642468e+001, 1.065893e+002
9.690680e+001, 1.061136e+002
9.738892e+001, 1.058000e+002
9.787103e+001, 1.050283e+002
9.835315e+001, 1.036442e+002
9.883527e+001, 1.018531e+002
9.931738e+001, 1.001375e+002
9.979950e+001, 9.852628e+001
1.002816e+002, 9.700760e+001
1.007637e+002, 9.543095e+001
1.012458e+002, 9.396250e+001
1.017280e+002, 9.272153e+001
1.022101e+002, 9.170573e+001
1.026922e+002, 9.097639e+001
1.031743e+002, 9.068919e+001
1.036564e+002, 9.076569e+001
1.041385e+002, 9.112888e+001
1.046207e+002, 9.202189e+001
1.051028e+002, 9.323901e+001
1.055849e+002, 9.409522e+001
1.060670e+002, 9.434952e+001
1.065491e+002, 9.408168e+001
1.070313e+002, 9.341965e+001
1.075134e+002, 9.232290e+001
1.079955e+002, 9.106872e+001
1.084776e+002, 8.991462e+001
1.089597e+002, 8.886379e+001
1.094418e+002, 8.788060e+001
1.099240e+002, 8.683232e+001
1.104061e+002, 8.589861e+001
1.108882e+002, 8.523413e+001
1.113703e+002, 8.489780e+001
1.118524e+002, 8.484716e+001
1.123345e+002, 8.498933e+001
1.128167e+002, 8.552044e+001
1.132988e+002, 8.599789e+001
1.137809e+002, 8.635094e+001
1.142630e+002, 8.661451e+001
1.147451e+002, 8.683939e+001
1.152272e+002, 8.705493e+001
1.157094e+002, 8.726126e+001
1.161915e+002, 8.742782e+001
1.166736e+002, 8.739340e+001
1.171557e+002, 8.747955e+001
1.176378e+002, 8.778805e+001
1.181199e+002, 8.831257e+001
1.186021e+002, 8.902090e+001
1.190842e+002, 8.993435e+001
1.195663e+002, 9.106541e+001
1.200484e+002, 9.197843e+001
1.205305e+002, 9.252581e+001
1.210126e+002, 9.295319e+001
1.214948e+002, 9.345901e+001
1.219769e+002, 9.406908e+001
1.224590e+002, 9.473141e+001
1.229411e+002, 9.550405e+001
1.234232e+002, 9.632877e+001
1.239053e+002, 9.691280e+001
1.243875e+002, 9.692985e+001
1.248696e+002, 9.661380e+001
1.253517e+002, 9.665707e+001
1.258338e+002, 9.738450e+001
1.263159e+002, 9.814575e+001
1.267980e+002, 9.848449e+001
1.272802e+002, 9.845080e+001
1.277623e+002, 9.828690e+001
1.282444e+002, 9.811295e+001
1.287265e+002, 9.791080e+001
1.292086e+002, 9.790095e+001
1.296907e+002, 9.843525e+001
1.301729e+002, 9.892836e+001
1.306550e+002, 9.906519e+001
1.311371e+002, 9.882863e+001
1.316192e+002, 9.845236e+001
1.321013e+002, 9.832629e+001
1.325834e+002, 9.889770e+001
1.330656e+002, 9.877197e+001
1.335477e+002, 9.744272e+001
1.340298e+002, 9.582680e+001
1.345119e+002, 9.464847e+001
1.349940e+002, 9.414520e+001
1.354761e+002, 9.401286e+001
1.359583e+002, 9.356726e+001
1.364404e+002, 9.225881e+001
1.369225e+002, 9.131681e+001
1.374046e+002, 9.090847e+001
1.378867e+002, 9.088136e+001
1.383688e+002, 9.111841e+001
1.388510e+002, 9.163267e+001
1.393331e+002, 9.223094e+001
1.398152e+002, 9.227235e+001
1.402973e+002, 9.163918e+001
1.407794e+002, 9.078438e+001
1.412615e+002, 8.982342e+001
1.417437e+002, 8.877428e+001
1.422258e+002, 8.767715e+001
1.427079e+002, 8.646260e+001
1.431900e+002, 8.528099e+001
1.436721e+002, 8.439957e+001
1.441542e+002, 8.392616e+001
1.446364e+002, 8.363773e+001
1.451185e+002, 8.334499e+001
1.456006e+002, 8.305014e+001
1.460827e+002, 8.273777e+001
1.465648e+002, 8.238215e+001
1.470469e+002, 8.200861e+001
1.475291e+002, 8.163277e+001
1.480112e+002, 8.124244e+001
1.484933e+002, 8.087174e+001
1.489754e+002, 8.064219e+001
1.494575e+002, 8.076665e+001
1.499396e+002, 8.063938e+001
1.504218e+002, 7.988699e+001
1.509039e+002, 7.885166e+001
1.513860e+002, 7.798235e+001
1.518681e+002, 7.754583e+001
1.523502e+002, 7.750159e+001
1.528323e+002, 7.751658e+001
1.533145e+002, 7.782507e+001
1.537966e+002, 7.795549e+001
1.542787e+002, 7.768546e+001
1.547608e+002, 7.715762e+001
1.552429e+002, 7.664471e+001
1.557250e+002, 7.635271e+001
1.562072e+002, 7.629124e+001
1.566893e+002, 7.633950e+001
1.571714e+002, 7.665527e+001
1.576535e+002, 7.691439e+001
1.581356e+002, 7.694704e+001
1.586177e+002, 7.677708e+001
1.590999e+002, 7.655949e+001
1.595820e+002, 7.643699e+001
1.600641e+002, 7.642952e+001
1.605462e+002, 7.638478e+001
1.610283e+002, 7.634959e+001
1.615104e+002, 7.625037e+001
1.619926e+002, 7.600200e+001
1.624747e+002, 7.559649e+001
1.629568e+002, 7.514578e+001
1.634389e+002, 7.476340e+001
1.639210e+002, 7.444588e+001
1.644031e+002, 7.415199e+001
1.648853e+002, 7.405500e+001
1.653674e+002, 7.392592e+001
1.658495e+002, 7.331925e+001
1.663316e+002, 7.199891e+001
1.668137e+002, 7.067735e+001
1.672958e+002, 7.011687e+001
1.677780e+002, 7.014613e+001
1.682601e+002, 7.019848e+001
1.687422e+002, 7.001216e+001
1.692243e+002, 6.963290e+001
1.697064e+002, 6.924136e+001
1.701885e+002, 6.883841e+001
1.706707e+002, 6.845004e+001
1.711528e+002, 6.809341e+001
1.716349e+002, 6.776440e+001
1.721170e+002, 6.744213e+001
1.725991e+002, 6.703548e+001
1.730812e+002, 6.652728e+001
1.735634e+002, 6.630304e+001
1.740455e+002, 6.662950e+001
1.745276e+002, 6.707252e+001
1.750097e+002, 6.750046e+001
1.754918e+002, 6.788904e+001
1.759739e+002, 6.824440e+001
1.764561e+002, 6.856335e+001
1.769382e+002, 6.883293e+001
1.774203e+002, 6.911716e+001
1.779024e+002, 6.944335e+001
1.783845e+002, 6.976067e+001
1.788666e+002, 6.999559e+001
1.793488e+002, 7.016238e+001
1.798309e+002, 7.036797e+001
1.803130e+002, 7.074959e+001
1.807951e+002, 7.132706e+001
1.812772e+002, 7.207701e+001
1.817593e+002, 7.309973e+001
1.822415e+002, 7.420281e+001
1.827236e+002, 7.532692e+001
1.832057e+002, 7.643142e+001
1.836878e+002, 7.737783e+001
1.841699e+002, 7.794081e+001
1.846520e+002, 7.788917e+001
1.851342e+002, 7.786375e+001
1.856163e+002, 7.798980e+001
1.860984e+002, 7.809785e+001
1.865805e+002, 7.794982e+001
1.870626e+002, 7.746156e+001
1.875447e+002, 7.686922e+001
1.880269e+002, 7.661201e+001
1.885090e+002, 7.678551e+001
1.889911e+002, 7.683949e+001
1.894732e+002, 7.655029e+001
1.899553e+002, 7.607825e+001
1.904374e+002, 7.570864e+001
1.909196e+002, 7.553471e+001
1.914017e+002, 7.545490e+001
1.918838e+002, 7.525447e+001
1.923659e+002, 7.489505e+001
1.928480e+002, 7.475833e+001
1.933301e+002, 7.523388e+001
1.938123e+002, 7.612682e+001
1.942944e+002, 7.669238e+001
1.947765e+002, 7.659007e+001
1.952586e+002, 7.627063e+001
1.957407e+002, 7.623692e+001
1.962228e+002, 7.649329e+001
1.967050e+002, 7.678270e+001
1.971871e+002, 7.687991e+001
1.976692e+002, 7.679835e+001
1.981513e+002, 7.685132e+001
1.986334e+002, 7.728498e+001
1.991155e+002, 7.771352e+001
1.995977e+002, 7.782075e+001
2.000798e+002, 7.760561e+001
2.005619e+002, 7.737493e+001
2.010440e+002, 7.743454e+001
2.015261e+002, 7.782340e+001
2.020082e+002, 7.825186e+001
2.024904e+002, 7.871422e+001
2.029725e+002, 7.919139e+001
2.034546e+002, 7.974583e+001
2.039367e+002, 8.035390e+001
2.044188e+002, 8.086077e+001
2.049009e+002, 8.099977e+001
2.053831e+002, 8.055772e+001
2.058652e+002, 8.040991e+001
2.063473e+002, 8.078672e+001
2.068294e+002, 8.128501e+001
2.073115e+002, 8.168246e+001
2.077936e+002, 8.194076e+001
2.082758e+002, 8.216304e+001
2.087579e+002, 8.251552e+001
2.092400e+002, 8.317046e+001
2.097221e+002, 8.355696e+001
2.102042e+002, 8.357026e+001
2.106863e+002, 8.344041e+001
2.111685e+002, 8.332597e+001
2.116506e+002, 8.325663e+001
2.121327e+002, 8.315175e+001
2.126148e+002, 8.288591e+001
2.130969e+002, 8.235946e+001
2.135790e+002, 8.187105e+001
2.140612e+002, 8.150598e+001
2.145433e+002, 8.112630e+001
2.150254e+002, 8.053008e+001
2.155075e+002, 7.969878e+001
2.159896e+002, 7.889578e+001
2.164717e+002, 7.851118e+001
2.169539e+002, 7.874638e+001
2.174360e+002, 7.897618e+001
2.179181e+002, 7.932749e+001
2.184002e+002, 7.960200e+001
2.188823e+002, 7.947324e+001
2.193644e+002, 7.885812e+001
2.198466e+002, 7.823943e+001
2.203287e+002, 7.837127e+001
2.208108e+002, 7.943046e+001
2.212929e+002, 8.020964e+001
2.217750e+002, 8.036028e+001
2.222571e+002, 8.021890e+001
2.227393e+002, 8.020921e+001
2.232214e+002, 8.043187e+001
2.237035e+002, 8.070854e+001
2.241856e+002, 8.079026e+001
2.246677e+002, 8.069370e+001
2.251498e+002, 8.064524e+001
2.256320e+002, 8.077116e+001
2.261141e+002, 8.096438e+001
2.265962e+002, 8.102180e+001
2.270783e+002, 8.086871e+001
2.275604e+002, 8.070445e+001
2.280425e+002, 8.078189e+001
2.285247e+002, 8.104002e+001
2.290068e+002, 8.122938e+001
2.294889e+002, 8.115141e+001
2.299710e+002, 8.094559e+001
2.304531e+002, 8.093343e+001
2.309352e+002, 8.118848e+001
2.314174e+002, 8.155578e+001
2.318995e+002, 8.192461e+001
2.323816e+002, 8.230162e+001
2.328637e+002, 8.271017e+001
2.333458e+002, 8.323145e+001
2.338279e+002, 8.380019e+001
2.343101e+002, 8.418604e+001
2.347922e+002, 8.426608e+001
2.352743e+002, 8.435432e+001
2.357564e+002, 8.463428e+001
2.362385e+002, 8.504956e+001
2.367206e+002, 8.548943e+001
2.372028e+002, 8.585844e+001
2.376849e+002, 8.619800e+001
2.381670e+002, 8.669955e+001
2.386491e+002, 8.742500e+001
2.391312e+002, 8.823744e+001
2.396133e+002, 8.909537e+001
2.400955e+002, 8.998689e+001
2.405776e+002, 9.092004e+001
2.410597e+002, 9.193424e+001
2.415418e+002, 9.298208e+001
2.420239e+002, 9.380444e+001
2.425060e+002, 9.429086e+001
2.429882e+002, 9.468210e+001
2.434703e+002, 9.503336e+001
2.439524e+002, 9.535170e+001
2.444345e+002, 9.565291e+001
2.449166e+002, 9.595511e+001
2.453987e+002, 9.623665e+001
2.458809e+002, 9.640114e+001
2.463630e+002, 9.656430e+001
2.468451e+002, 9.641814e+001
2.473272e+002, 9.576427e+001
2.478093e+002, 9.482530e+001
2.482914e+002, 9.389563e+001
2.487736e+002, 9.314012e+001
2.492557e+002, 9.248304e+001
2.497378e+002, 9.161163e+001
2.502199e+002, 9.008934e+001
2.507020e+002, 8.890238e+001
2.511841e+002, 8.842293e+001
2.516663e+002, 8.826297e+001
2.521484e+002, 8.797044e+001
2.526305e+002, 8.732363e+001
2.531126e+002, 8.643027e+001
2.535947e+002, 8.560877e+001
2.540768e+002, 8.485381e+001
2.545590e+002, 8.420413e+001
2.550411e+002, 8.374133e+001
2.555232e+002, 8.335191e+001
2.560053e+002, 8.296423e+001
2.564874e+002, 8.254704e+001
2.569695e+002, 8.201031e+001
2.574517e+002, 8.113719e+001
2.579338e+002, 7.944331e+001
2.584159e+002, 7.797034e+001
2.588980e+002, 7.672659e+001
2.593801e+002, 7.570261e+001
2.598622e+002, 7.495862e+001
2.603444e+002, 7.450685e+001
2.608265e+002, 7.414584e+001
2.613086e+002, 7.347896e+001
2.617907e+002, 7.195105e+001
2.622728e+002, 7.102158e+001
2.627549e+002, 7.121270e+001
2.632371e+002, 7.176098e+001
2.637192e+002, 7.179571e+001
2.642013e+002, 7.110207e+001
2.646834e+002, 7.030739e+001
2.651655e+002, 7.042708e+001
2.656476e+002, 7.219463e+001
2.661298e+002, 7.304772e+001
2.666119e+002, 7.232685e+001
2.670940e+002, 7.101202e+001
2.675761e+002, 6.995640e+001
2.680582e+002, 6.933183e+001
2.685403e+002, 6.890305e+001
2.690225e+002, 6.840808e+001
2.695046e+002, 6.782635e+001
2.699867e+002, 6.727144e+001
2.704688e+002, 6.673697e+001
2.709509e+002, 6.623795e+001
2.714330e+002, 6.579399e+001
2.719152e+002, 6.540658e+001
2.723973e+002, 6.504637e+001
2.728794e+002, 6.468108e+001
2.733615e+002, 6.431145e+001
2.738436e+002, 6.401269e+001
2.743257e+002, 6.381609e+001
2.748079e+002, 6.366729e+001
2.752900e+002, 6.353179e+001
2.757721e+002, 6.340595e+001
2.762542e+002, 6.329102e+001
2.767363e+002, 6.317442e+001
2.772184e+002, 6.307066e+001
2.777006e+002, 6.304110e+001
2.781827e+002, 6.332049e+001
2.786648e+002, 6.348697e+001
2.791469e+002, 6.300502e+001
2.796290e+002, 6.198742e+001
2.801111e+002, 6.136827e+001
2.805933e+002, 6.190740e+001
2.810754e+002, 6.322151e+001
2.815575e+002, 6.388904e+001
2.820396e+002, 6.348241e+001
2.825217e+002, 6.295860e+001
2.830038e+002, 6.282740e+001
2.834860e+002, 6.306193e+001
2.839681e+002, 6.356740e+001
2.844502e+002, 6.446812e+001
2.849323e+002, 6.547187e+001
2.854144e+002, 6.597609e+001
2.858965e+002, 6.582372e+001
2.863787e+002, 6.558720e+001
2.868608e+002, 6.549963e+001
2.873429e+002, 6.556642e+001
2.878250e+002, 6.583931e+001
2.883071e+002, 6.642282e+001
2.887892e+002, 6.710379e+001
2.892714e+002, 6.754642e+001
2.897535e+002, 6.771947e+001
2.902356e+002, 6.793377e+001
2.907177e+002, 6.844193e+001
2.911998e+002, 6.910531e+001
2.916819e+002, 6.952309e+001
2.921641e+002, 6.951895e+001
2.926462e+002, 6.942387e+001
2.931283e+002, 6.963825e+001
2.936104e+002, 7.012134e+001
2.940925e+002, 7.056790e+001
2.945746e+002, 7.090846e+001
2.950568e+002, 7.112159e+001
2.955389e+002, 7.109694e+001
2.960210e+002, 7.072887e+001
2.965031e+002, 7.040128e+001
2.969852e+002, 7.058103e+001
2.974673e+002, 7.108864e+001
2.979495e+002, 7.143542e+001
2.984316e+002, 7.137444e+001
2.989137e+002, 7.109635e+001
2.993958e+002, 7.090178e+001
2.998779e+002, 7.082918e+001
3.003600e+002, 7.068065e+001
3.008422e+002, 7.014115e+001
3.013243e+002, 6.946215e+001
3.018064e+002, 6.910748e+001
3.022885e+002, 6.930151e+001
3.027706e+002, 6.973717e+001
3.032527e+002, 7.012212e+001
3.037349e+002, 7.046285e+001
3.042170e+002, 7.068078e+001
3.046991e+002, 7.071570e+001
3.051812e+002, 7.060569e+001
3.056633e+002, 7.033163e+001
3.061454e+002, 6.974625e+001
3.066276e+002, 6.935991e+001
3.071097e+002, 6.981779e+001
3.075918e+002, 7.105952e+001
3.080739e+002, 7.201975e+001
3.085560e+002, 7.216211e+001
3.090381e+002, 7.202293e+001
3.095203e+002, 7.223973e+001
3.100024e+002, 7.285925e+001
3.104845e+002, 7.351665e+001
3.109666e+002, 7.405086e+001
3.114487e+002, 7.444140e+001
3.119308e+002, 7.453357e+001
3.124130e+002, 7.412935e+001
3.128951e+002, 7.365725e+001
3.133772e+002, 7.353036e+001
3.138593e+002, 7.370315e+001
3.143414e+002, 7.390260e+001
3.148235e+002, 7.401452e+001
3.153057e+002, 7.405217e+001
3.157878e+002, 7.405413e+001
3.162699e+002, 7.403114e+001
3.167520e+002, 7.395136e+001
3.172341e+002, 7.378556e+001
3.177162e+002, 7.355022e+001
3.181984e+002, 7.326704e+001
3.186805e+002, 7.297005e+001
3.191626e+002, 7.261891e+001
3.196447e+002, 7.207248e+001
3.201268e+002, 7.125969e+001
3.206089e+002, 7.061354e+001
3.210911e+002, 7.058652e+001
3.215732e+002, 7.082376e+001
3.220553e+002, 7.082653e+001
3.225374e+002, 7.041089e+001
3.230195e+002, 6.987362e+001
3.235016e+002, 6.954675e+001
3.239838e+002, 6.943050e+001
3.244659e+002, 6.924102e+001
3.249480e+002, 6.882606e+001
3.254301e+002, 6.831118e+001
3.259122e+002, 6.783472e+001
3.263943e+002, 6.738909e+001
3.268765e+002, 6.703900e+001
3.273586e+002, 6.685927e+001
3.278407e+002, 6.682607e+001
3.283228e+002, 6.682817e+001
3.288049e+002, 6.689516e+001
3.292870e+002, 6.690903e+001
3.297692e+002, 6.670429e+001
3.302513e+002, 6.630413e+001
3.307334e+002, 6.597322e+001
3.312155e+002, 6.589035e+001
3.316976e+002, 6.596426e+001
3.321797e+002, 6.601051e+001
3.326619e+002, 6.604186e+001
3.331440e+002, 6.595491e+001
3.336261e+002, 6.552927e+001
3.341082e+002, 6.490791e+001
3.345903e+002, 6.443499e+001
3.350724e+002, 6.431508e+001
3.355546e+002, 6.435113e+001
3.360367e+002, 6.428806e+001
3.365188e+002, 6.411533e+001
3.370009e+002, 6.394807e+001
3.374830e+002, 6.384447e+001
3.379651e+002, 6.379474e+001
3.384473e+002, 6.377946e+001
3.389294e+002, 6.380526e+001
3.394115e+002, 6.385214e+001
3.398936e+002, 6.395224e+001
3.403757e+002, 6.408603e+001
3.408578e+002, 6.409241e+001
3.413400e+002, 6.386694e+001
3.418221e+002, 6.352488e+001
3.423042e+002, 6.322999e+001
3.427863e+002, 6.297169e+001
3.432684e+002, 6.279626e+001
3.437505e+002, 6.282728e+001
3.442327e+002, 6.295443e+001
3.447148e+002, 6.291376e+001
3.451969e+002, 6.264378e+001
3.456790e+002, 6.221233e+001
3.461611e+002, 6.154309e+001
3.466432e+002, 6.068628e+001
3.471254e+002, 6.010809e+001
3.476075e+002, 6.025377e+001
3.480896e+002, 6.058630e+001
3.485717e+002, 6.040188e+001
3.490538e+002, 5.962757e+001
3.495359e+002, 5.871480e+001
3.500181e+002, 5.793022e+001
3.505002e+002, 5.727956e+001
3.509823e+002, 5.673515e+001
3.514644e+002, 5.639445e+001
3.519465e+002, 5.607864e+001
3.524286e+002, 5.568960e+001
3.529108e+002, 5.522862e+001
3.533929e+002, 5.464582e+001
3.538750e+002, 5.380950e+001
3.543571e+002, 5.295415e+001
3.548392e+002, 5.271637e+001
3.553214e+002, 5.343513e+001
3.558035e+002, 5.392064e+001
3.562856e+002, 5.352757e+001
3.567677e+002, 5.265519e+001
3.572498e+002, 5.203522e+001
3.577319e+002, 5.189408e+001
3.582141e+002, 5.193482e+001
3.586962e+002, 5.171239e+001
3.591783e+002, 5.114793e+001
3.596604e+002, 5.082566e+001
3.601425e+002, 5.094799e+001
3.606246e+002, 5.125581e+001
3.611068e+002, 5.157053e+001
3.615889e+002, 5.185841e+001
3.620710e+002, 5.203729e+001
3.625531e+002, 5.201472e+001
3.630352e+002, 5.179249e+001
3.635173e+002, 5.164922e+001
3.639995e+002, 5.161649e+001
3.644816e+002, 5.162188e+001
3.649637e+002, 5.159701e+001
3.654458e+002, 5.158041e+001
3.659279e+002, 5.168147e+001
3.664100e+002, 5.196607e+001
3.668922e+002, 5.238464e+001
3.673743e+002, 5.277721e+001
3.678564e+002, 5.320612e+001
3.683385e+002, 5.352525e+001
3.688206e+002, 5.363334e+001
3.693027e+002, 5.365676e+001
3.697849e+002, 5.382931e+001
3.702670e+002, 5.419640e+001
3.707491e+002, 5.443167e+001
3.712312e+002, 5.400718e+001
3.717133e+002, 5.247866e+001
3.721954e+002, 5.169433e+001
3.726776e+002, 5.215079e+001
3.731597e+002, 5.287260e+001
3.736418e+002, 5.341772e+001
3.741239e+002, 5.369303e+001
3.746060e+002, 5.364949e+001
3.750881e+002, 5.318878e+001
3.755703e+002, 5.233595e+001
3.760524e+002, 5.190429e+001
3.765345e+002, 5.241791e+001
3.770166e+002, 5.274161e+001
3.774987e+002, 5.243909e+001
3.779808e+002, 5.183508e+001
3.784630e+002, 5.143336e+001
3.789451e+002, 5.146721e+001
3.794272e+002, 5.174690e+001
3.799093e+002, 5.180367e+001
3.803914e+002, 5.133246e+001
3.808735e+002, 5.115913e+001
3.813557e+002, 5.149383e+001
3.818378e+002, 5.197369e+001
3.823199e+002, 5.236928e+001
3.828020e+002, 5.263005e+001
3.832841e+002, 5.279548e+001
3.837662e+002, 5.288174e+001
3.842484e+002, 5.285963e+001
3.847305e+002, 5.296538e+001
3.852126e+002, 5.337220e+001
3.856947e+002, 5.374417e+001
3.861768e+002, 5.390459e+001
3.866589e+002, 5.395268e+001
3.871411e+002, 5.412083e+001
3.876232e+002, 5.458538e+001
3.881053e+002, 5.521623e+001
3.885874e+002, 5.550494e+001
3.890695e+002, 5.517809e+001
3.895516e+002, 5.502597e+001
3.900338e+002, 5.543195e+001
3.905159e+002, 5.595996e+001
3.909980e+002, 5.620613e+001
3.914801e+002, 5.605940e+001
3.919622e+002, 5.571429e+001
3.924443e+002, 5.534539e+001
3.929265e+002, 5.493306e+001
3.934086e+002, 5.469749e+001
3.938907e+002, 5.480451e+001
3.943728e+002, 5.497475e+001
3.948549e+002, 5.508218e+001
3.953370e+002, 5.511834e+001
3.958192e+002, 5.508565e+001
3.963013e+002, 5.494020e+001
3.967834e+002, 5.472795e+001
3.972655e+002, 5.461700e+001
3.977476e+002, 5.465275e+001
3.982297e+002, 5.467226e+001
3.987119e+002, 5.454640e+001
3.991940e+002, 5.436589e+001
3.996761e+002, 5.423384e+001
4.001582e+002, 5.415287e+001
4.006403e+002, 5.417808e+001
4.011224e+002, 5.444602e+001
4.016046e+002, 5.493776e+001
4.020867e+002, 5.528731e+001
4.025688e+002, 5.533139e+001
4.030509e+002, 5.524207e+001
4.035330e+002, 5.517313e+001
4.040151e+002, 5.511704e+001
4.044973e+002, 5.524615e+001
4.049794e+002, 5.581639e+001
4.054615e+002, 5.657010e+001
4.059436e+002, 5.701215e+001
4.064257e+002, 5.705017e+001
4.069078e+002, 5.705000e+001
4.073900e+002, 5.730870e+001
4.078721e+002, 5.778811e+001
4.083542e+002, 5.825607e+001
4.088363e+002, 5.871224e+001
4.093184e+002, 5.913872e+001
4.098005e+002, 5.944785e+001
4.102827e+002, 5.969928e+001
4.107648e+002, 6.013670e+001
4.112469e+002, 6.092445e+001
4.117290e+002, 6.184499e+001
4.122111e+002, 6.239147e+001
4.126932e+002, 6.252213e+001
4.131754e+002, 6.246631e+001
4.136575e+002, 6.209499e+001
4.141396e+002, 6.164466e+001
4.146217e+002, 6.136479e+001
4.151038e+002, 6.129563e+001
4.155859e+002, 6.132747e+001
4.160681e+002, 6.137584e+001
4.165502e+002, 6.145419e+001
4.170323e+002, 6.136447e+001
4.175144e+002, 6.094877e+001
4.179965e+002, 6.055818e+001
4.184786e+002, 6.036737e+001
4.189608e+002, 6.030288e+001
4.194429e+002, 6.016066e+001
4.199250e+002, 5.982384e+001
4.204071e+002, 5.945112e+001
4.208892e+002, 5.949769e+001
4.213713e+002, 6.034938e+001
4.218535e+002, 6.105421e+001
4.223356e+002, 6.146181e+001
4.228177e+002, 6.181008e+001
4.232998e+002, 6.223254e+001
4.237819e+002, 6.277533e+001
4.242640e+002, 6.347331e+001
4.247462e+002, 6.442138e+001
4.252283e+002, 6.566009e+001
4.257104e+002, 6.659419e+001
4.261925e+002, 6.689893e+001
4.266746e+002, 6.723486e+001
4.271567e+002, 6.775965e+001
4.276389e+002, 6.844585e+001
4.281210e+002, 6.924696e+001
4.286031e+002, 7.015349e+001
4.290852e+002, 7.111555e+001
4.295673e+002, 7.205992e+001
4.300494e+002, 7.303479e+001
4.305316e+002, 7.382615e+001
4.310137e+002, 7.423982e+001
4.314958e+002, 7.453844e+001
4.319779e+002, 7.488760e+001
4.324600e+002, 7.529472e+001
4.329421e+002, 7.564109e+001
4.334243e+002, 7.578197e+001
4.339064e+002, 7.577543e+001
4.343885e+002, 7.591199e+001
4.348706e+002, 7.630527e+001
4.353527e+002, 7.660782e+001
4.358348e+002, 7.653988e+001
4.363170e+002, 7.624165e+001
4.367991e+002, 7.592771e+001
4.372812e+002, 7.567075e+001
4.377633e+002, 7.538512e+001
4.382454e+002, 7.501557e+001
4.387275e+002, 7.455552e+001
4.392097e+002, 7.397866e+001
4.396918e+002, 7.330058e+001
4.401739e+002, 7.246675e+001
4.406560e+002, 7.126949e+001
4.411381e+002, 6.964607e+001
4.416202e+002, 6.834926e+001
4.421024e+002, 6.771171e+001
4.425845e+002, 6.744289e+001
4.430666e+002, 6.728445e+001
4.435487e+002, 6.719469e+001
4.440308e+002, 6.710398e+001
4.445129e+002, 6.694747e+001
4.449951e+002, 6.674143e+001
4.454772e+002, 6.663054e+001
4.459593e+002, 6.666342e+001
4.464414e+002, 6.671981e+001
4.469235e+002, 6.677388e+001
4.474056e+002, 6.682591e+001
4.478878e+002, 6.685645e+001
4.483699e+002, 6.686127e+001
4.488520e+002, 6.690605e+001
4.493341e+002, 6.710567e+001
4.498162e+002, 6.755278e+001
4.502983e+002, 6.788996e+001
4.507805e+002, 6.816826e+001
4.512626e+002, 6.830923e+001
4.517447e+002, 6.816446e+001
4.522268e+002, 6.784144e+001
4.527089e+002, 6.762227e+001
4.531910e+002, 6.771789e+001
4.536732e+002, 6.801942e+001
4.541553e+002, 6.802818e+001
4.546374e+002, 6.735680e+001
4.551195e+002, 6.706857e+001
4.556016e+002, 6.757569e+001
4.560837e+002, 6.832273e+001
4.565659e+002, 6.878542e+001
4.570480e+002, 6.889598e+001
4.575301e+002, 6.905254e+001
4.580122e+002, 6.978658e+001
4.584943e+002, 7.108363e+001
4.589764e+002, 7.197851e+001
4.594586e+002, 7.203406e+001
4.599407e+002, 7.230729e+001
4.604228e+002, 7.359712e+001
4.609049e+002, 7.541164e+001
4.613870e+002, 7.686645e+001
4.618691e+002, 7.758103e+001
4.623513e+002, 7.793208e+001
4.628334e+002, 7.839816e+001
4.633155e+002, 7.896534e+001
4.637976e+002, 7.928377e+001
4.642797e+002, 7.930323e+001
4.647618e+002, 7.893809e+001
4.652440e+002, 7.808784e+001
4.657261e+002, 7.676395e+001
4.662082e+002, 7.516532e+001
4.666903e+002, 7.312186e+001
4.671724e+002, 7.096058e+001
4.676545e+002, 6.899242e+001
4.681367e+002, 6.726444e+001
4.686188e+002, 6.592392e+001
4.691009e+002, 6.520012e+001
4.695830e+002, 6.492435e+001
4.700651e+002, 6.421361e+001
4.705472e+002, 6.266064e+001
4.710294e+002, 6.125789e+001
4.715115e+002, 6.016493e+001
4.719936e+002, 5.939845e+001
4.724757e+002, 5.907259e+001
4.729578e+002, 5.918888e+001
4.734399e+002, 5.945119e+001
4.739221e+002, 5.950130e+001
4.744042e+002, 5.928826e+001
4.748863e+002, 5.915649e+001
4.753684e+002, 5.915019e+001
4.758505e+002, 5.916634e+001
4.763326e+002, 5.925741e+001
4.768148e+002, 5.932671e+001
4.772969e+002, 5.919865e+001
4.777790e+002, 5.878428e+001
4.782611e+002, 5.821362e+001
4.787432e+002, 5.775469e+001
4.792253e+002, 5.741905e+001
4.797075e+002, 5.717036e+001
4.801896e+002, 5.706678e+001
4.806717e+002, 5.700000e+001
4.811538e+002, 5.691392e+001
4.816359e+002, 5.681090e+001
4.821180e+002, 5.672781e+001
4.826002e+002, 5.673338e+001
4.830823e+002, 5.676394e+001
4.835644e+002, 5.656587e+001
4.840465e+002, 5.602404e+001
4.845286e+002, 5.568713e+001
4.850107e+002, 5.595256e+001
4.854929e+002, 5.648103e+001
4.859750e+002, 5.692799e+001
4.864571e+002, 5.728540e+001
4.869392e+002, 5.741278e+001
4.874213e+002, 5.701431e+001
4.879034e+002, 5.635299e+001
4.883856e+002, 5.605284e+001
4.888677e+002, 5.623941e+001
4.893498e+002, 5.655226e+001
4.898319e+002, 5.669862e+001
4.903140e+002, 5.668716e+001
4.907961e+002, 5.671047e+001
4.912783e+002, 5.686818e+001
4.917604e+002, 5.695554e+001
4.922425e+002, 5.678137e+001
4.927246e+002, 5.648949e+001
4.932067e+002, 5.634299e+001
4.936888e+002, 5.643406e+001
4.941710e+002, 5.669053e+001
4.946531e+002, 5.702154e+001
4.951352e+002, 5.750116e+001
4.956173e+002, 5.781096e+001
4.960994e+002, 5.798510e+001
4.965815e+002, 5.798476e+001
4.970637e+002, 5.763269e+001
4.975458e+002, 5.710172e+001
4.980279e+002, 5.674541e+001
4.985100e+002, 5.677155e+001
4.989921e+002, 5.704633e+001
4.994742e+002, 5.723759e+001
4.999564e+002, 5.731599e+001
5.004385e+002, 5.738214e+001
5.009206e+002, 5.752026e+001
5.014027e+002, 5.759521e+001
5.018848e+002, 5.745582e+001
5.023669e+002, 5.714331e+001
5.028491e+002, 5.689065e+001
5.033312e+002, 5.690800e+001
5.038133e+002, 5.708932e+001
5.042954e+002, 5.713960e+001
5.047775e+002, 5.703467e+001
5.052596e+002, 5.691534e+001
5.057418e+002, 5.687682e+001
5.062239e+002, 5.684186e+001
5.067060e+002, 5.666739e+001
5.071881e+002, 5.629061e+001
5.076702e+002, 5.601386e+001
5.081523e+002, 5.611385e+001
5.086345e+002, 5.637136e+001
5.091166e+002, 5.636137e+001
5.095987e+002, 5.601991e+001
5.100808e+002, 5.574074e+001
5.105629e+002, 5.593655e+001
5.110450e+002, 5.652235e+001
5.115272e+002, 5.653652e+001
5.120093e+002, 5.548218e+001
5.124914e+002, 5.452740e+001
5.129735e+002, 5.408537e+001
5.134556e+002, 5.390609e+001
5.139377e+002, 5.365286e+001
5.144199e+002, 5.323677e+001
5.149020e+002, 5.278167e+001
5.153841e+002, 5.244283e+001
5.158662e+002, 5.222890e+001
5.163483e+002, 5.207509e+001
5.168304e+002, 5.214516e+001
5.173126e+002, 5.210013e+001
5.177947e+002, 5.168512e+001
5.182768e+002, 5.114340e+001
5.187589e+002, 5.086237e+001
5.192410e+002, 5.100560e+001
5.197231e+002, 5.129447e+001
5.202053e+002, 5.136653e+001
5.206874e+002, 5.121865e+001
5.211695e+002, 5.086393e+001
5.216516e+002, 5.011951e+001
5.221337e+002, 4.940329e+001
5.226158e+002, 4.897512e+001
5.230980e+002, 4.879163e+001
5.235801e+002, 4.873698e+001
5.240622e+002, 4.882244e+001
5.245443e+002, 4.896917e+001
5.250264e+002, 4.913116e+001
5.255085e+002, 4.929598e+001
5.259907e+002, 4.938061e+001
5.264728e+002, 4.935386e+001
5.269549e+002, 4.924110e+001
5.274370e+002, 4.906178e+001
5.279191e+002, 4.880109e+001
5.284012e+002, 4.856500e+001
5.288834e+002, 4.829476e+001
5.293655e+002, 4.811163e+001
5.298476e+002, 4.818502e+001
5.303297e+002, 4.842405e+001
5.308118e+002, 4.854440e+001
5.312939e+002, 4.838159e+001
5.317761e+002, 4.808223e+001
5.322582e+002, 4.804810e+001
5.327403e+002, 4.863098e+001
5.332224e+002, 4.881807e+001
5.337045e+002, 4.818871e+001
5.341866e+002, 4.756427e+001
5.346688e+002, 4.746791e+001
5.351509e+002, 4.782011e+001
5.356330e+002, 4.825642e+001
5.361151e+002, 4.858867e+001
5.365972e+002, 4.877908e+001
5.370793e+002, 4.866822e+001
5.375615e+002, 4.815832e+001
5.380436e+002, 4.774902e+001
5.385257e+002, 4.754742e+001
5.390078e+002, 4.754819e+001
5.394899e+002, 4.788624e+001
5.399720e+002, 4.852788e+001
5.404542e+002, 4.891295e+001
5.409363e+002, 4.857685e+001
5.414184e+002, 4.791896e+001
5.419005e+002, 4.747615e+001
5.423826e+002, 4.726619e+001
5.428647e+002, 4.718387e+001
5.433469e+002, 4.721142e+001
5.438290e+002, 4.729310e+001
5.443111e+002, 4.727580e+001
5.447932e+002, 4.710564e+001
5.452753e+002, 4.697837e+001
5.457574e+002, 4.692780e+001
5.462396e+002, 4.692525e+001
5.467217e+002, 4.694614e+001
5.472038e+002, 4.699023e+001
5.476859e+002, 4.710225e+001
5.481680e+002, 4.734164e+001
5.486501e+002, 4.762036e+001
5.491323e+002, 4.749597e+001
5.496144e+002, 4.643464e+001
5.500965e+002, 4.591469e+001
5.505786e+002, 4.654239e+001
5.510607e+002, 4.735087e+001
5.515428e+002, 4.759365e+001
5.520250e+002, 4.727895e+001
5.525071e+002, 4.694554e+001
5.529892e+002, 4.699846e+001
5.534713e+002, 4.731782e+001
5.539534e+002, 4.758813e+001
5.544355e+002, 4.782500e+001
5.549177e+002, 4.790800e+001
5.553998e+002, 4.757824e+001
5.558819e+002, 4.722889e+001
5.563640e+002, 4.749458e+001
5.568461e+002, 4.849413e+001
5.573282e+002, 4.919018e+001
5.578104e+002, 4.892698e+001
5.582925e+002, 4.829913e+001
5.587746e+002, 4.802982e+001
5.592567e+002, 4.812588e+001
5.597388e+002, 4.818947e+001
5.602209e+002, 4.797240e+001
5.607031e+002, 4.756559e+001
5.611852e+002, 4.725802e+001
5.616673e+002, 4.702272e+001
5.621494e+002, 4.693418e+001
5.626315e+002, 4.724442e+001
5.631136e+002, 4.750568e+001
5.635958e+002, 4.725519e+001
5.640779e+002, 4.661647e+001
5.645600e+002, 4.614286e+001
5.650421e+002, 4.626119e+001
5.655242e+002, 4.676620e+001
5.660063e+002, 4.692815e+001
5.664885e+002, 4.656813e+001
5.669706e+002, 4.638597e+001
5.674527e+002, 4.677445e+001
5.679348e+002, 4.722632e+001
5.684169e+002, 4.739661e+001
5.688990e+002, 4.728877e+001
5.693812e+002, 4.710431e+001
5.698633e+002, 4.678782e+001
5.703454e+002, 4.654028e+001
5.708275e+002, 4.675352e+001
5.713096e+002, 4.739370e+001
5.717917e+002, 4.793671e+001
5.722739e+002, 4.813429e+001
5.727560e+002, 4.817263e+001
5.732381e+002, 4.841102e+001
5.737202e+002, 4.894249e+001
5.742023e+002, 4.930096e+001
5.746844e+002, 4.926155e+001
5.751666e+002, 4.919577e+001
5.756487e+002, 4.935682e+001
5.761308e+002, 4.970752e+001
5.766129e+002, 5.009959e+001
5.770950e+002, 5.045774e+001
5.775771e+002, 5.081112e+001
5.780593e+002, 5.125941e+001
5.785414e+002, 5.193138e+001
5.790235e+002, 5.234370e+001
5.795056e+002, 5.236415e+001
5.799877e+002, 5.221397e+001
5.804698e+002, 5.183582e+001
5.809520e+002, 5.136931e+001
5.814341e+002, 5.111279e+001
5.819162e+002, 5.125202e+001
5.823983e+002, 5.154814e+001
5.828804e+002, 5.167220e+001
5.833625e+002, 5.164470e+001
5.838447e+002, 5.168809e+001
5.843268e+002, 5.187303e+001
5.848089e+002, 5.210208e+001
5.852910e+002, 5.237450e+001
5.857731e+002, 5.265549e+001
5.862552e+002, 5.255361e+001
5.867374e+002, 5.151070e+001
5.872195e+002, 5.062574e+001
5.877016e+002, 5.060836e+001
5.881837e+002, 5.110270e+001
5.886658e+002, 5.149298e+001
5.891479e+002, 5.159079e+001
5.896301e+002, 5.158449e+001
5.901122e+002, 5.173017e+001
5.905943e+002, 5.207051e+001
5.910764e+002, 5.213950e+001
5.915585e+002, 5.145911e+001
5.920406e+002, 5.107029e+001
5.925228e+002, 5.157484e+001
5.930049e+002, 5.233166e+001
5.934870e+002, 5.250798e+001
5.939691e+002, 5.190437e+001
5.944512e+002, 5.117931e+001
5.949333e+002, 5.092221e+001
5.954155e+002, 5.106454e+001
5.958976e+002, 5.135220e+001
5.963797e+002, 5.181227e+001
5.968618e+002, 5.222015e+001
5.973439e+002, 5.232774e+001
5.978260e+002, 5.234332e+001
5.983082e+002, 5.281056e+001
5.987903e+002, 5.403850e+001
5.992724e+002, 5.493657e+001
5.997545e+002, 5.490258e+001
6.002366e+002, 5.452240e+001
6.007188e+002, 5.435839e+001
6.012009e+002, 5.447505e+001
6.016830e+002, 5.475859e+001
6.021651e+002, 5.514905e+001
6.026472e+002, 5.560785e+001
6.031293e+002, 5.597160e+001
6.036115e+002, 5.603144e+001
6.040936e+002, 5.639274e+001
6.045757e+002, 5.742827e+001
6.050578e+002, 5.845041e+001
6.055399e+002, 5.907200e+001
6.060220e+002, 5.930412e+001
6.065042e+002, 5.930288e+001
6.069863e+002, 5.905849e+001
6.074684e+002, 5.877079e+001
6.079505e+002, 5.882151e+001
6.084326e+002, 5.920029e+001
6.089147e+002, 5.946394e+001
6.093969e+002, 5.945007e+001
6.098790e+002, 5.937327e+001
6.103611e+002, 5.948383e+001
6.108432e+002, 5.976402e+001
6.113253e+002, 5.999009e+001
6.118074e+002, 6.004799e+001
6.122896e+002, 6.014141e+001
6.127717e+002, 6.049190e+001
6.132538e+002, 6.091817e+001
6.137359e+002, 6.103648e+001
6.142180e+002, 6.075826e+001
6.147001e+002, 6.045301e+001
6.151823e+002, 6.056464e+001
6.156644e+002, 6.111208e+001
6.161465e+002, 6.167469e+001
6.166286e+002, 6.212818e+001
6.171107e+002, 6.277685e+001
6.175928e+002, 6.393620e+001
6.180750e+002, 6.517460e+001
6.185571e+002, 6.589723e+001
6.190392e+002, 6.602615e+001
6.195213e+002, 6.637917e+001
6.200034e+002, 6.776209e+001
6.204855e+002, 6.976236e+001
6.209677e+002, 7.145383e+001
6.214498e+002, 7.278565e+001
6.219319e+002, 7.411617e+001
6.224140e+002, 7.558725e+001
6.228961e+002, 7.719709e+001
6.233782e+002, 7.895863e+001
6.238604e+002, 8.085036e+001
6.243425e+002, 8.292871e+001
6.248246e+002, 8.538851e+001
6.253067e+002, 8.785604e+001
6.257888e+002, 9.008586e+001
6.262709e+002, 9.211353e+001
6.267531e+002, 9.403848e+001
6.272352e+002, 9.588990e+001
6.277173e+002, 9.788979e+001
6.281994e+002, 1.005139e+002
6.286815e+002, 1.039223e+002
6.291636e+002, 1.070897e+002
6.296458e+002, 1.097513e+002
6.301279e+002, 1.124176e+002
6.306100e+002, 1.153445e+002
6.310921e+002, 1.184581e+002
6.315742e+002, 1.216591e+002
6.320563e+002, 1.250093e+002
6.325385e+002, 1.281833e+002
6.330206e+002, 1.307592e+002
6.335027e+002, 1.330358e+002
6.339848e+002, 1.357132e+002
6.344669e+002, 1.388799e+002
6.349490e+002, 1.420027e+002
6.354312e+002, 1.447840e+002
6.359133e+002, 1.471684e+002
6.363954e+002, 1.489112e+002
6.368775e+002, 1.495205e+002
6.373596e+002, 1.501038e+002
6.378417e+002, 1.510048e+002
6.383239e+002, 1.516334e+002
6.388060e+002, 1.516636e+002
6.392881e+002, 1.510376e+002
6.397702e+002, 1.497045e+002
6.402523e+002, 1.475339e+002
6.407344e+002, 1.449055e+002
6.412166e+002, 1.425288e+002
6.416987e+002, 1.404002e+002
6.421808e+002, 1.384094e+002
6.426629e+002, 1.365729e+002
6.431450e+002, 1.347878e+002
6.436271e+002, 1.328493e+002
6.441093e+002, 1.308515e+002
6.445914e+002, 1.292272e+002
6.450735e+002, 1.281175e+002
6.455556e+002, 1.273079e+002
6.460377e+002, 1.269706e+002
6.465198e+002, 1.267609e+002
6.470020e+002, 1.261411e+002
6.474841e+002, 1.250420e+002
6.479662e+002, 1.238126e+002
6.484483e+002, 1.227568e+002
6.489304e+002, 1.218531e+002
6.494125e+002, 1.209141e+002
6.498947e+002, 1.200122e+002
6.503768e+002, 1.189440e+002
6.508589e+002, 1.175645e+002
6.513410e+002, 1.161084e+002
6.518231e+002, 1.147617e+002
6.523052e+002, 1.135029e+002
6.527874e+002, 1.121374e+002
6.532695e+002, 1.103419e+002
6.537516e+002, 1.086068e+002
6.542337e+002, 1.076452e+002
6.547158e+002, 1.073172e+002
6.551979e+002, 1.069493e+002
6.556801e+002, 1.063270e+002
6.561622e+002, 1.057634e+002
6.566443e+002, 1.056389e+002
6.571264e+002, 1.059857e+002
6.576085e+002, 1.061614e+002
6.580906e+002, 1.057359e+002
6.585728e+002, 1.056985e+002
6.590549e+002, 1.063691e+002
6.595370e+002, 1.074904e+002
6.600191e+002, 1.088539e+002
6.605012e+002, 1.103931e+002
6.609833e+002, 1.120548e+002
6.614655e+002, 1.137807e+002
6.619476e+002, 1.156096e+002
6.624297e+002, 1.176505e+002
6.629118e+002, 1.199257e+002
6.633939e+002, 1.221922e+002
6.638760e+002, 1.242738e+002
6.643582e+002, 1.264253e+002
6.648403e+002, 1.289652e+002
6.653224e+002, 1.318620e+002
6.658045e+002, 1.348630e+002
6.662866e+002, 1.379188e+002
6.667687e+002, 1.410781e+002
6.672509e+002, 1.444722e+002
6.677330e+002, 1.479400e+002
6.682151e+002, 1.512092e+002
6.686972e+002, 1.542220e+002
6.691793e+002, 1.571163e+002
6.696614e+002, 1.600720e+002
6.701436e+002, 1.630786e+002
6.706257e+002, 1.659701e+002
6.711078e+002, 1.687020e+002
6.715899e+002, 1.714264e+002
6.720720e+002, 1.744097e+002
6.725541e+002, 1.772673e+002
6.730363e+002, 1.798506e+002
6.735184e+002, 1.820936e+002
6.740005e+002, 1.836504e+002
6.744826e+002, 1.842630e+002
6.749647e+002, 1.842267e+002
6.754468e+002, 1.839043e+002
6.759290e+002, 1.831864e+002
6.764111e+002, 1.817383e+002
6.768932e+002, 1.794604e+002
6.773753e+002, 1.764491e+002
6.778574e+002, 1.728239e+002
6.783395e+002, 1.685855e+002
6.788217e+002, 1.637175e+002
6.793038e+002, 1.575317e+002
6.797859e+002, 1.515782e+002
6.802680e+002, 1.464337e+002
6.807501e+002, 1.414665e+002
6.812322e+002, 1.360212e+002
6.817144e+002, 1.301290e+002
6.821965e+002, 1.243213e+002
6.826786e+002, 1.189843e+002
6.831607e+002, 1.139800e+002
6.836428e+002, 1.091256e+002
6.841249e+002, 1.044166e+002
6.846071e+002, 9.997658e+001
6.850892e+002, 9.581329e+001
6.855713e+002, 9.195887e+001
6.860534e+002, 8.842074e+001
6.865355e+002, 8.521809e+001
6.870176e+002, 8.232285e+001
6.874998e+002, 7.984045e+001
6.879819e+002, 7.751196e+001
6.884640e+002, 7.531937e+001
6.889461e+002, 7.322411e+001
6.894282e+002, 7.112607e+001
6.899103e+002, 6.905701e+001
6.903925e+002, 6.719164e+001
6.908746e+002, 6.567722e+001
6.913567e+002, 6.445680e+001
6.918388e+002, 6.351384e+001
6.923209e+002, 6.286913e+001
6.928030e+002, 6.192999e+001
6.932852e+002, 6.039725e+001
6.937673e+002, 5.878709e+001
6.942494e+002, 5.759681e+001
6.947315e+002, 5.681574e+001
6.952136e+002, 5.619875e+001
6.956957e+002, 5.593256e+001
6.961779e+002, 5.558794e+001
6.966600e+002, 5.493570e+001
6.971421e+002, 5.417711e+001
6.976242e+002, 5.360230e+001
6.981063e+002, 5.319546e+001
6.985884e+002, 5.263438e+001
6.990706e+002, 5.163391e+001
6.995527e+002, 5.037480e+001
7.000348e+002, 4.933867e+001
7.005169e+002, 4.852757e+001
7.009990e+002, 4.797375e+001
7.014811e+002, 4.788059e+001
7.019633e+002, 4.776777e+001
7.024454e+002, 4.715720e+001
7.029275e+002, 4.618288e+001
7.034096e+002, 4.525440e+001
7.038917e+002, 4.430013e+001
7.043738e+002, 4.357281e+001
7.048560e+002, 4.323832e+001
7.053381e+002, 4.314642e+001
7.058202e+002, 4.321315e+001
7.063023e+002, 4.335973e+001
7.067844e+002, 4.337912e+001
7.072665e+002, 4.312368e+001
7.077487e+002, 4.266676e+001
7.082308e+002, 4.216920e+001
7.087129e+002, 4.157729e+001
7.091950e+002, 4.120163e+001
7.096771e+002, 4.114091e+001
7.101592e+002, 4.122552e+001
7.106414e+002, 4.144426e+001
7.111235e+002, 4.170925e+001
7.116056e+002, 4.183452e+001
7.120877e+002, 4.179121e+001
7.125698e+002, 4.160295e+001
7.130519e+002, 4.113709e+001
7.135341e+002, 4.062108e+001
7.140162e+002, 4.032847e+001
7.144983e+002, 4.025990e+001
7.149804e+002, 4.031934e+001
7.154625e+002, 4.047261e+001
7.159446e+002, 4.056842e+001
7.164268e+002, 4.019248e+001
7.169089e+002, 3.913685e+001
7.173910e+002, 3.855143e+001
7.178731e+002, 3.870052e+001
7.183552e+002, 3.900757e+001
7.188373e+002, 3.940828e+001
7.193195e+002, 3.971009e+001
7.198016e+002, 3.954663e+001
7.202837e+002, 3.876996e+001
7.207658e+002, 3.809875e+001
7.212479e+002, 3.799211e+001
7.217300e+002, 3.808086e+001
7.222122e+002, 3.793493e+001
7.226943e+002, 3.761271e+001
7.231764e+002, 3.741233e+001
7.236585e+002, 3.746416e+001
7.241406e+002, 3.766346e+001
7.246227e+002, 3.787795e+001
7.251049e+002, 3.812722e+001
7.255870e+002, 3.821575e+001
7.260691e+002, 3.811187e+001
7.265512e+002, 3.789406e+001
7.270333e+002, 3.737901e+001
7.275154e+002, 3.689508e+001
7.279976e+002, 3.687498e+001
7.284797e+002, 3.733825e+001
7.289618e+002, 3.766599e+001
7.294439e+002, 3.747884e+001
7.299260e+002, 3.714751e+001
7.304081e+002, 3.699225e+001
7.308903e+002, 3.696167e+001
7.313724e+002, 3.691459e+001
7.318545e+002, 3.680959e+001
7.323366e+002, 3.668833e+001
7.328187e+002, 3.659676e+001
7.333008e+002, 3.653032e+001
7.337830e+002, 3.641999e+001
7.342651e+002, 3.620463e+001
7.347472e+002, 3.607872e+001
7.352293e+002, 3.618583e+001
7.357114e+002, 3.631530e+001
7.361935e+002, 3.634119e+001
7.366757e+002, 3.626206e+001
7.371578e+002, 3.609077e+001
7.376399e+002, 3.565354e+001
7.381220e+002, 3.535744e+001
7.386041e+002, 3.564885e+001
7.390862e+002, 3.618876e+001
7.395684e+002, 3.640310e+001
7.400505e+002, 3.623944e+001
7.405326e+002, 3.603356e+001
7.410147e+002, 3.602409e+001
7.414968e+002, 3.616028e+001
7.419789e+002, 3.632780e+001
7.424611e+002, 3.660535e+001
7.429432e+002, 3.659678e+001
7.434253e+002, 3.591957e+001
7.439074e+002, 3.538976e+001
7.443895e+002, 3.556990e+001
7.448716e+002, 3.617912e+001
7.453538e+002, 3.674054e+001
7.458359e+002, 3.723141e+001
7.463180e+002, 3.750588e+001
7.468001e+002, 3.735921e+001
7.472822e+002, 3.706405e+001
7.477643e+002, 3.684441e+001
7.482465e+002, 3.673237e+001
7.487286e+002, 3.676134e+001
7.492107e+002, 3.694714e+001
7.496928e+002, 3.716101e+001
7.501749e+002, 3.718395e+001
7.506570e+002, 3.700160e+001
7.511392e+002, 3.696391e+001
7.516213e+002, 3.719576e+001
7.521034e+002, 3.727330e+001
7.525855e+002, 3.677680e+001
7.530676e+002, 3.621735e+001
7.535497e+002, 3.632093e+001
7.540319e+002, 3.711876e+001
7.545140e+002, 3.766724e+001
7.549961e+002, 3.751062e+001
7.554782e+002, 3.728260e+001
7.559603e+002, 3.737215e+001
7.564424e+002, 3.763629e+001
7.569246e+002, 3.782476e+001
7.574067e+002, 3.789543e+001
7.578888e+002, 3.801069e+001
7.583709e+002, 3.835584e+001
7.588530e+002, 3.880465e+001
7.593351e+002, 3.883425e+001
7.598173e+002, 3.835861e+001
7.602994e+002, 3.823022e+001
7.607815e+002, 3.877676e+001
7.612636e+002, 3.944872e+001
7.617457e+002, 3.982774e+001
7.622278e+002, 3.993836e+001
7.627100e+002, 3.992981e+001
7.631921e+002, 3.959131e+001
7.636742e+002, 3.946538e+001
7.641563e+002, 3.986983e+001
7.646384e+002, 4.037749e+001
7.651205e+002, 4.064342e+001
7.656027e+002, 4.070490e+001
7.660848e+002, 4.074703e+001
7.665669e+002, 4.085290e+001
7.670490e+002, 4.101922e+001
7.675311e+002, 4.129245e+001
7.680132e+002, 4.163583e+001
7.684954e+002, 4.181706e+001
7.689775e+002, 4.180204e+001
7.694596e+002, 4.181770e+001
7.699417e+002, 4.201937e+001
7.704238e+002, 4.224424e+001
7.709059e+002, 4.217876e+001
7.713881e+002, 4.170509e+001
7.718702e+002, 4.141484e+001
7.723523e+002, 4.136816e+001
7.728344e+002, 4.142384e+001
7.733165e+002, 4.163253e+001
7.737986e+002, 4.185997e+001
7.742808e+002, 4.191638e+001
7.747629e+002, 4.180742e+001
7.752450e+002, 4.177792e+001
7.757271e+002, 4.211831e+001
7.762092e+002, 4.250692e+001
7.766913e+002, 4.234386e+001
7.771735e+002, 4.178673e+001
7.776556e+002, 4.152978e+001
7.781377e+002, 4.174023e+001
7.786198e+002, 4.203494e+001
7.791019e+002, 4.210749e+001
7.795840e+002, 4.197435e+001
7.800662e+002, 4.169216e+001
7.805483e+002, 4.101482e+001
7.810304e+002, 4.065962e+001
7.815125e+002, 4.090202e+001
7.819946e+002, 4.123539e+001
7.824767e+002, 4.161167e+001
7.829589e+002, 4.185411e+001
7.834410e+002, 4.157533e+001
7.839231e+002, 4.056655e+001
7.844052e+002, 3.962495e+001
7.848873e+002, 3.922572e+001
7.853694e+002, 3.915693e+001
7.858516e+002, 3.929869e+001
7.863337e+002, 3.954562e+001
7.868158e+002, 3.959589e+001
7.872979e+002, 3.933178e+001
7.877800e+002, 3.900042e+001
7.882621e+002, 3.896377e+001
7.887443e+002, 3.920501e+001
7.892264e+002, 3.913227e+001
7.897085e+002, 3.858413e+001
7.901906e+002, 3.817353e+001
7.906727e+002, 3.812687e+001
7.911548e+002, 3.824073e+001
7.916370e+002, 3.832039e+001
7.921191e+002, 3.837486e+001
7.926012e+002, 3.846842e+001
7.930833e+002, 3.883496e+001
7.935654e+002, 3.896292e+001
7.940475e+002, 3.833913e+001
7.945297e+002, 3.760428e+001
7.950118e+002, 3.750674e+001
7.954939e+002, 3.795431e+001
7.959760e+002, 3.832271e+001
7.964581e+002, 3.825906e+001
7.969402e+002, 3.801723e+001
7.974224e+002, 3.797015e+001
7.979045e+002, 3.809013e+001
7.983866e+002, 3.818641e+001
7.988687e+002, 3.823623e+001
7.993508e+002, 3.834975e+001
7.998329e+002, 3.864769e+001
8.003151e+002, 3.893903e+001
8.007972e+002, 3.883727e+001
8.012793e+002, 3.819462e+001
8.017614e+002, 3.773999e+001
8.022435e+002, 3.740100e+001
8.027256e+002, 3.731680e+001
8.032078e+002, 3.779563e+001
8.036899e+002, 3.837615e+001
8.041720e+002, 3.854706e+001
8.046541e+002, 3.829889e+001
8.051362e+002, 3.803431e+001
8.056183e+002, 3.788600e+001
8.061005e+002, 3.791442e+001
8.065826e+002, 3.837897e+001
8.070647e+002, 3.902811e+001
8.075468e+002, 3.923726e+001
8.080289e+002, 3.893388e+001
8.085110e+002, 3.853118e+001
8.089932e+002, 3.830883e+001
8.094753e+002, 3.822946e+001
8.099574e+002, 3.820043e+001
8.104395e+002, 3.822969e+001
8.109216e+002, 3.828901e+001
8.114037e+002, 3.848127e+001
8.118859e+002, 3.852895e+001
8.123680e+002, 3.817522e+001
8.128501e+002, 3.764587e+001
8.133322e+002, 3.723029e+001
8.138143e+002, 3.693085e+001
8.142964e+002, 3.682230e+001
8.147786e+002, 3.713405e+001
8.152607e+002, 3.741428e+001
8.157428e+002, 3.734781e+001
8.162249e+002, 3.710916e+001
8.167070e+002, 3.688727e+001
8.171891e+002, 3.676178e+001
8.176713e+002, 3.686379e+001
8.181534e+002, 3.739375e+001
8.186355e+002, 3.805861e+001
8.191176e+002, 3.821071e+001
8.195997e+002, 3.792685e+001
8.200818e+002, 3.782338e+001
8.205640e+002, 3.801836e+001
8.210461e+002, 3.832493e+001
8.215282e+002, 3.866175e+001
8.220103e+002, 3.895734e+001
8.224924e+002, 3.897190e+001
8.229745e+002, 3.846174e+001
8.234567e+002, 3.821498e+001
8.239388e+002, 3.840300e+001
8.244209e+002, 3.865503e+001
8.249030e+002, 3.895757e+001
8.253851e+002, 3.919035e+001
8.258672e+002, 3.915042e+001
8.263494e+002, 3.881834e+001
8.268315e+002, 3.854711e+001
8.273136e+002, 3.856227e+001
8.277957e+002, 3.864808e+001
8.282778e+002, 3.868964e+001
8.287599e+002, 3.864847e+001
8.292421e+002, 3.836412e+001
8.297242e+002, 3.787133e+001
8.302063e+002, 3.756005e+001
8.306884e+002, 3.776500e+001
8.311705e+002, 3.824593e+001
8.316526e+002, 3.836504e+001
8.321348e+002, 3.810532e+001
8.326169e+002, 3.801097e+001
8.330990e+002, 3.819399e+001
8.335811e+002, 3.838232e+001
8.340632e+002, 3.840632e+001
8.345453e+002, 3.833680e+001
8.350275e+002, 3.832571e+001
8.355096e+002, 3.838029e+001
8.359917e+002, 3.847602e+001
8.364738e+002, 3.873009e+001
8.369559e+002, 3.888688e+001
8.374380e+002, 3.877306e+001
8.379202e+002, 3.856210e+001
8.384023e+002, 3.843111e+001
8.388844e+002, 3.840817e+001
8.393665e+002, 3.845405e+001
8.398486e+002, 3.862931e+001
8.403307e+002, 3.876283e+001
8.408129e+002, 3.862460e+001
8.412950e+002, 3.833534e+001
8.417771e+002, 3.807216e+001
8.422592e+002, 3.789484e+001
8.427413e+002, 3.799780e+001
8.432234e+002, 3.854216e+001
8.437056e+002, 3.918845e+001
8.441877e+002, 3.912892e+001
8.446698e+002, 3.827244e+001
8.451519e+002, 3.788975e+001
8.456340e+002, 3.817055e+001
8.461161e+002, 3.849186e+001
8.465983e+002, 3.860984e+001
8.470804e+002, 3.861992e+001
8.475625e+002, 3.867099e+001
8.480446e+002, 3.877300e+001
8.485267e+002, 3.874495e+001
8.490089e+002, 3.832478e+001
8.494910e+002, 3.810176e+001
8.499731e+002, 3.841690e+001
8.504552e+002, 3.886181e+001
8.509373e+002, 3.908906e+001
8.514194e+002, 3.910390e+001
8.519016e+002, 3.906994e+001
8.523837e+002, 3.905742e+001
8.528658e+002, 3.901832e+001
8.533479e+002, 3.891109e+001
8.538300e+002, 3.874618e+001
8.543121e+002, 3.851208e+001
8.547943e+002, 3.823164e+001
8.552764e+002, 3.796087e+001
8.557585e+002, 3.772369e+001
8.562406e+002, 3.765864e+001
8.567227e+002, 3.802610e+001
8.572048e+002, 3.876651e+001
8.576870e+002, 3.907528e+001
8.581691e+002, 3.883442e+001
8.586512e+002, 3.861802e+001
8.591333e+002, 3.857150e+001
8.596154e+002, 3.858564e+001
8.600975e+002, 3.861086e+001
8.605797e+002, 3.862193e+001
8.610618e+002, 3.848068e+001
8.615439e+002, 3.797569e+001
8.620260e+002, 3.767532e+001
8.625081e+002, 3.775924e+001
8.629902e+002, 3.794157e+001
8.634724e+002, 3.813456e+001
8.639545e+002, 3.827796e+001
8.644366e+002, 3.826781e+001
8.649187e+002, 3.808480e+001
8.654008e+002, 3.793086e+001
8.658829e+002, 3.804351e+001
8.663651e+002, 3.817166e+001
8.668472e+002, 3.791446e+001
8.673293e+002, 3.746037e+001
8.678114e+002, 3.730191e+001
8.682935e+002, 3.751910e+001
8.687756e+002, 3.780530e+001
8.692578e+002, 3.793962e+001
8.697399e+002, 3.794046e+001
8.702220e+002, 3.784568e+001
8.707041e+002, 3.765404e+001
8.711862e+002, 3.733913e+001
8.716683e+002, 3.681308e+001
8.721505e+002, 3.649299e+001
8.726326e+002, 3.667165e+001
8.731147e+002, 3.709198e+001
8.735968e+002, 3.733179e+001
8.740789e+002, 3.736267e+001
8.745610e+002, 3.736074e+001
8.750432e+002, 3.726131e+001
8.755253e+002, 3.721542e+001
8.760074e+002, 3.737497e+001
8.764895e+002, 3.750741e+001
8.769716e+002, 3.733624e+001
8.774537e+002, 3.695149e+001
8.779359e+002, 3.673973e+001
8.784180e+002, 3.691326e+001
8.789001e+002, 3.707433e+001
8.793822e+002, 3.682310e+001
8.798643e+002, 3.654264e+001
8.803464e+002, 3.676025e+001
8.808286e+002, 3.732884e+001
8.813107e+002, 3.779618e+001
8.817928e+002, 3.798962e+001
8.822749e+002, 3.797305e+001
8.827570e+002, 3.774889e+001
8.832391e+002, 3.739684e+001
8.837213e+002, 3.716018e+001
8.842034e+002, 3.703613e+001
8.846855e+002, 3.700567e+001
8.851676e+002, 3.707949e+001
8.856497e+002, 3.713897e+001
8.861318e+002, 3.708734e+001
8.866140e+002, 3.695471e+001
8.870961e+002, 3.683982e+001
8.875782e+002, 3.673468e+001
8.880603e+002, 3.666795e+001
8.885424e+002, 3.665224e+001
8.890245e+002, 3.665773e+001
8.895067e+002, 3.672569e+001
8.899888e+002, 3.677622e+001
8.904709e+002, 3.666667e+001
8.909530e+002, 3.639553e+001
8.914351e+002, 3.627142e+001
8.919172e+002, 3.651976e+001
8.923994e+002, 3.672395e+001
8.928815e+002, 3.661897e+001
8.933636e+002, 3.646320e+001
8.938457e+002, 3.653900e+001
8.943278e+002, 3.679829e+001
8.948099e+002, 3.703740e+001
8.952921e+002, 3.717879e+001
8.957742e+002, 3.720470e+001
8.962563e+002, 3.695684e+001
8.967384e+002, 3.665570e+001
8.972205e+002, 3.678349e+001
8.977026e+002, 3.722866e+001
8.981848e+002, 3.746661e+001
8.986669e+002, 3.734084e+001
8.991490e+002, 3.712417e+001
8.996311e+002, 3.707425e+001
9.001132e+002, 3.715649e+001
9.005953e+002, 3.727848e+001
9.010775e+002, 3.745879e+001
9.015596e+002, 3.742820e+001
9.020417e+002, 3.706709e+001
9.025238e+002, 3.677049e+001
9.030059e+002, 3.680806e+001
9.034880e+002, 3.702216e+001
9.039702e+002, 3.707257e+001
9.044523e+002, 3.687127e+001
9.049344e+002, 3.686071e+001
9.054165e+002, 3.717321e+001
9.058986e+002, 3.750438e+001
9.063807e+002, 3.803233e+001
9.068629e+002, 3.836026e+001
9.073450e+002, 3.794292e+001
9.078271e+002, 3.698576e+001
9.083092e+002, 3.638921e+001
9.087913e+002, 3.656738e+001
9.092734e+002, 3.674277e+001
9.097556e+002, 3.639519e+001
9.102377e+002, 3.604490e+001
9.107198e+002, 3.627291e+001
9.112019e+002, 3.682931e+001
9.116840e+002, 3.718688e+001
9.121661e+002, 3.718419e+001
9.126483e+002, 3.697186e+001
9.131304e+002, 3.655793e+001
9.136125e+002, 3.611455e+001
9.140946e+002, 3.595442e+001
9.145767e+002, 3.600463e+001
9.150588e+002, 3.602171e+001
9.155410e+002, 3.597162e+001
9.160231e+002, 3.600066e+001
9.165052e+002, 3.621567e+001
9.169873e+002, 3.648092e+001
9.174694e+002, 3.648705e+001
9.179515e+002, 3.621741e+001
9.184337e+002, 3.618399e+001
9.189158e+002, 3.644603e+001
9.193979e+002, 3.669001e+001
9.198800e+002, 3.683167e+001
9.203621e+002, 3.686897e+001
9.208442e+002, 3.678343e+001
9.213264e+002, 3.658474e+001
9.218085e+002, 3.637551e+001
9.222906e+002, 3.601538e+001
9.227727e+002, 3.587648e+001
9.232548e+002, 3.607857e+001
9.237369e+002, 3.638175e+001
9.242191e+002, 3.674800e+001
9.247012e+002, 3.711173e+001
9.251833e+002, 3.740054e+001
9.256654e+002, 3.760949e+001
9.261475e+002, 3.767050e+001
9.266296e+002, 3.736317e+001
9.271118e+002, 3.713803e+001
9.275939e+002, 3.736052e+001
9.280760e+002, 3.768699e+001
9.285581e+002, 3.764136e+001
9.290402e+002, 3.733218e+001
9.295223e+002, 3.728440e+001
9.300045e+002, 3.775966e+001
9.304866e+002, 3.833447e+001
9.309687e+002, 3.870403e+001
9.314508e+002, 3.888089e+001
9.319329e+002, 3.874974e+001
9.324150e+002, 3.844640e+001
9.328972e+002, 3.842932e+001
9.333793e+002, 3.879594e+001
9.338614e+002, 3.915764e+001
9.343435e+002, 3.915955e+001
9.348256e+002, 3.895967e+001
9.353077e+002, 3.890587e+001
9.357899e+002, 3.900011e+001
9.362720e+002, 3.933607e+001
9.367541e+002, 3.994898e+001
9.372362e+002, 4.047989e+001
9.377183e+002, 4.074217e+001
9.382004e+002, 4.086259e+001
9.386826e+002, 4.103020e+001
9.391647e+002, 4.124767e+001
9.396468e+002, 4.140271e+001
9.401289e+002, 4.148792e+001
9.406110e+002, 4.151827e+001
9.410931e+002, 4.137893e+001
9.415753e+002, 4.133883e+001
9.420574e+002, 4.165385e+001
9.425395e+002, 4.220030e+001
9.430216e+002, 4.265592e+001
9.435037e+002, 4.303362e+001
9.439858e+002, 4.327696e+001
9.444680e+002, 4.327752e+001
9.449501e+002, 4.326988e+001
9.454322e+002, 4.328435e+001
9.459143e+002, 4.337488e+001
9.463964e+002, 4.362284e+001
9.468785e+002, 4.400233e+001
9.473607e+002, 4.438830e+001
9.478428e+002, 4.480234e+001
9.483249e+002, 4.508553e+001
9.488070e+002, 4.500978e+001
9.492891e+002, 4.488493e+001
9.497712e+002, 4.503583e+001
9.502534e+002, 4.535759e+001
9.507355e+002, 4.558609e+001
9.512176e+002, 4.566286e+001
9.516997e+002, 4.576400e+001
9.521818e+002, 4.604059e+001
9.526639e+002, 4.638742e+001
9.531461e+002, 4.673174e+001
9.536282e+002, 4.701452e+001
9.541103e+002, 4.712107e+001
9.545924e+002, 4.702417e+001
9.550745e+002, 4.661176e+001
9.555566e+002, 4.581837e+001
9.560388e+002, 4.501868e+001
9.565209e+002, 4.481746e+001
9.570030e+002, 4.504374e+001
9.574851e+002, 4.475237e+001
9.579672e+002, 4.394580e+001
9.584493e+002, 4.331415e+001
9.589315e+002, 4.303522e+001
9.594136e+002, 4.274153e+001
9.598957e+002, 4.214184e+001
9.603778e+002, 4.137298e+001
9.608599e+002, 4.078425e+001
9.613420e+002, 4.040175e+001
9.618242e+002, 4.009956e+001
9.623063e+002, 3.997303e+001
9.627884e+002, 3.966722e+001
9.632705e+002, 3.886024e+001
9.637526e+002, 3.810740e+001
9.642347e+002, 3.808007e+001
9.647169e+002, 3.864689e+001
9.651990e+002, 3.883950e+001
9.656811e+002, 3.835834e+001
9.661632e+002, 3.795737e+001
9.666453e+002, 3.769261e+001
9.671274e+002, 3.744563e+001
9.676096e+002, 3.711616e+001
9.680917e+002, 3.680460e+001
9.685738e+002, 3.662754e+001
9.690559e+002, 3.659379e+001
9.695380e+002, 3.667750e+001
9.700201e+002, 3.708689e+001
9.705023e+002, 3.732705e+001
9.709844e+002, 3.706061e+001
9.714665e+002, 3.670465e+001
9.719486e+002, 3.659378e+001
9.724307e+002, 3.665844e+001
9.729128e+002, 3.667485e+001
9.733950e+002, 3.658807e+001
9.738771e+002, 3.661155e+001
9.743592e+002, 3.696911e+001
9.748413e+002, 3.739451e+001
9.753234e+002, 3.769054e+001
9.758055e+002, 3.788419e+001
9.762877e+002, 3.802706e+001
9.767698e+002, 3.811320e+001
9.772519e+002, 3.805599e+001
9.777340e+002, 3.780785e+001
9.782161e+002, 3.760515e+001
9.786982e+002, 3.781255e+001
9.791804e+002, 3.818316e+001
9.796625e+002, 3.812246e+001
9.801446e+002, 3.780581e+001
9.806267e+002, 3.792919e+001
9.811088e+002, 3.859189e+001
9.815909e+002, 3.925537e+001
9.820731e+002, 3.955355e+001
9.825552e+002, 3.962293e+001
9.830373e+002, 3.962969e+001
9.835194e+002, 3.961153e+001
9.840015e+002, 3.985785e+001
9.844836e+002, 4.037780e+001
9.849658e+002, 4.099495e+001
9.854479e+002, 4.164832e+001
9.859300e+002, 4.245152e+001
9.864121e+002, 4.353292e+001
9.868942e+002, 4.480983e+001
9.873763e+002, 4.612587e+001
9.878585e+002, 4.766047e+001
9.883406e+002, 4.793013e+001
9.888227e+002, 4.654527e+001
9.893048e+002, 4.499387e+001
9.897869e+002, 4.394788e+001
9.902690e+002, 4.285817e+001
9.907512e+002, 4.087149e+001
9.912333e+002, 3.814617e+001
9.917154e+002, 3.678305e+001
9.921975e+002, 3.757810e+001
9.926796e+002, 3.804478e+001
9.931617e+002, 3.776136e+001
9.936439e+002, 3.748480e+001
9.941260e+002, 3.762143e+001
9.946081e+002, 3.794133e+001
9.950902e+002, 3.813036e+001
9.955723e+002, 3.818609e+001
9.960544e+002, 3.819653e+001
9.965366e+002, 3.811884e+001
9.970187e+002, 3.806280e+001
9.975008e+002, 3.794631e+001
9.979829e+002, 3.795805e+001
9.984650e+002, 3.836714e+001
9.989471e+002, 3.892028e+001
9.994293e+002, 3.915289e+001
9.999114e+002, 3.898958e+001
1.000393e+003, 3.886823e+001
1.000876e+003, 3.886121e+001
1.001358e+003, 3.897994e+001
1.001840e+003, 3.945517e+001
1.002322e+003, 3.986628e+001
1.002804e+003, 3.978103e+001
1.003286e+003, 3.933848e+001
1.003768e+003, 3.888355e+001
1.004250e+003, 3.850450e+001
1.004733e+003, 3.825672e+001
1.005215e+003, 3.818144e+001
1.005697e+003, 3.823861e+001
1.006179e+003, 3.857433e+001
1.006661e+003, 3.891344e+001
1.007143e+003, 3.885615e+001
1.007625e+003, 3.846142e+001
1.008107e+003, 3.801587e+001
1.008589e+003, 3.762188e+001
1.009072e+003, 3.744224e+001
1.009554e+003, 3.782505e+001
1.010036e+003, 3.832285e+001
1.010518e+003, 3.829917e+001
1.011000e+003, 3.801319e+001
1.011482e+003, 3.806690e+001
1.011964e+003, 3.847257e+001
1.012446e+003, 3.875449e+001
1.012929e+003, 3.864944e+001
1.013411e+003, 3.837282e+001
1.013893e+003, 3.811751e+001
1.014375e+003, 3.791014e+001
1.014857e+003, 3.778794e+001
1.015339e+003, 3.776219e+001
1.015821e+003, 3.792599e+001
1.016303e+003, 3.826396e+001
1.016785e+003, 3.849272e+001
1.017268e+003, 3.840389e+001
1.017750e+003, 3.820102e+001
1.018232e+003, 3.823411e+001
1.018714e+003, 3.844123e+001
1.019196e+003, 3.858292e+001
1.019678e+003, 3.865026e+001
1.020160e+003, 3.860937e+001
1.020642e+003, 3.845309e+001
1.021125e+003, 3.840372e+001
1.021607e+003, 3.867210e+001
1.022089e+003, 3.904717e+001
1.022571e+003, 3.901507e+001
1.023053e+003, 3.859804e+001
1.023535e+003, 3.817487e+001
1.024017e+003, 3.774770e+001
1.024499e+003, 3.761065e+001
1.024981e+003, 3.786900e+001
1.025464e+003, 3.837952e+001
1.025946e+003, 3.907967e+001
1.026428e+003, 3.980848e+001
1.026910e+003, 3.997113e+001
1.027392e+003, 3.947540e+001
1.027874e+003, 3.932328e+001
1.028356e+003, 3.960608e+001
1.028838e+003, 3.996781e+001
1.029321e+003, 4.032492e+001
1.029803e+003, 4.059858e+001
1.030285e+003, 4.068516e+001
1.030767e+003, 4.064405e+001
1.031249e+003, 4.076164e+001
1.031731e+003, 4.111763e+001
1.032213e+003, 4.133760e+001
1.032695e+003, 4.143624e+001
1.033177e+003, 4.130864e+001
1.033660e+003, 4.078617e+001
1.034142e+003, 4.023018e+001
1.034624e+003, 3.999516e+001
1.035106e+003, 4.005861e+001
1.035588e+003, 4.033475e+001
1.036070e+003, 4.117901e+001
1.036552e+003, 4.132804e+001
1.037034e+003, 4.012338e+001
1.037516e+003, 3.933614e+001
1.037999e+003, 3.992197e+001
1.038481e+003, 4.091250e+001
1.038963e+003, 4.125211e+001
1.039445e+003, 4.104365e+001
1.039927e+003, 4.108706e+001
1.040409e+003, 4.157845e+001
1.040891e+003, 4.197851e+001
1.041373e+003, 4.239454e+001
1.041855e+003, 4.257705e+001
1.042338e+003, 4.216846e+001
1.042820e+003, 4.167404e+001
1.043302e+003, 4.162826e+001
1.043784e+003, 4.198368e+001
1.044266e+003, 4.235688e+001
1.044748e+003, 4.274005e+001
1.045230e+003, 4.313456e+001
1.045712e+003, 4.367298e+001
1.046195e+003, 4.406172e+001
1.046677e+003, 4.397962e+001
1.047159e+003, 4.383695e+001
1.047641e+003, 4.411023e+001
1.048123e+003, 4.475632e+001
1.048605e+003, 4.537316e+001
1.049087e+003, 4.604351e+001
1.049569e+003, 4.645826e+001
1.050052e+003, 4.635565e+001
1.050534e+003, 4.624236e+001
1.051016e+003, 4.625909e+001
1.051498e+003, 4.644783e+001
1.051980e+003, 4.694971e+001
1.052462e+003, 4.768766e+001
1.052944e+003, 4.822987e+001
1.053426e+003, 4.844490e+001
1.053908e+003, 4.857713e+001
1.054391e+003, 4.844761e+001
1.054873e+003, 4.851575e+001
1.055355e+003, 4.931966e+001
1.055837e+003, 5.023425e+001
1.056319e+003, 5.040627e+001
1.056801e+003, 4.996635e+001
1.057283e+003, 4.990539e+001
1.057765e+003, 5.066803e+001
1.058248e+003, 5.131124e+001
1.058730e+003, 5.155052e+001
1.059212e+003, 5.161249e+001
1.059694e+003, 5.150077e+001
1.060176e+003, 5.136678e+001
1.060658e+003, 5.145075e+001
1.061140e+003, 5.167902e+001
1.061622e+003, 5.167125e+001
1.062104e+003, 5.126231e+001
1.062587e+003, 5.079292e+001
1.063069e+003, 5.042738e+001
1.063551e+003, 4.999028e+001
1.064033e+003, 4.934999e+001
1.064515e+003, 4.860239e+001
1.064997e+003, 4.774076e+001
1.065479e+003, 4.687577e+001
1.065961e+003, 4.638976e+001
1.066443e+003, 4.657042e+001
1.066926e+003, 4.649397e+001
1.067408e+003, 4.550047e+001
1.067890e+003, 4.446566e+001
1.068372e+003, 4.385519e+001
1.068854e+003, 4.352566e+001
1.069336e+003, 4.336158e+001
1.069818e+003, 4.329523e+001
1.070300e+003, 4.319861e+001
1.070782e+003, 4.302027e+001
1.071265e+003, 4.288103e+001
1.071747e+003, 4.300248e+001
1.072229e+003, 4.298289e+001
1.072711e+003, 4.243004e+001
1.073193e+003, 4.172257e+001
1.073675e+003, 4.108588e+001
1.074157e+003, 4.069887e+001
1.074639e+003, 4.105438e+001
1.075122e+003, 4.244891e+001
1.075604e+003, 4.332018e+001
1.076086e+003, 4.245385e+001
1.076568e+003, 4.145366e+001
1.077050e+003, 4.128967e+001
1.077532e+003, 4.144078e+001
1.078014e+003, 4.137114e+001
1.078496e+003, 4.112255e+001
1.078979e+003, 4.093760e+001
1.079461e+003, 4.087495e+001
1.079943e+003, 4.094085e+001
1.080425e+003, 4.122157e+001
1.080907e+003, 4.153002e+001
1.081389e+003, 4.193444e+001
1.081871e+003, 4.217037e+001
1.082353e+003, 4.175182e+001
1.082835e+003, 4.103662e+001
1.083318e+003, 4.089147e+001
1.083800e+003, 4.150078e+001
1.084282e+003, 4.189799e+001
1.084764e+003, 4.144965e+001
1.085246e+003, 4.096673e+001
1.085728e+003, 4.078096e+001
1.086210e+003, 4.080083e+001
1.086692e+003, 4.116912e+001
1.087175e+003, 4.158707e+001
1.087657e+003, 4.146733e+001
1.088139e+003, 4.074914e+001
1.088621e+003, 4.015544e+001
1.089103e+003, 4.001971e+001
1.089585e+003, 3.999952e+001
1.090067e+003, 3.993621e+001
1.090549e+003, 3.994346e+001
1.091031e+003, 4.021392e+001
1.091514e+003, 4.055711e+001
1.091996e+003, 4.070395e+001
1.092478e+003, 4.061816e+001
1.092960e+003, 4.036658e+001
1.093442e+003, 3.970018e+001
1.093924e+003, 3.937856e+001
1.094406e+003, 4.009674e+001
1.094888e+003, 4.080281e+001
1.095370e+003, 4.065734e+001
1.095853e+003, 4.019142e+001
1.096335e+003, 4.002993e+001
1.096817e+003, 4.024482e+001
1.097299e+003, 4.077696e+001
1.097781e+003, 4.184534e+001
1.098263e+003, 4.262460e+001
1.098745e+003, 4.266086e+001
1.099227e+003, 4.257149e+001
1.099709e+003, 4.265761e+001
1.100192e+003, 4.280100e+001
1.100674e+003, 4.280747e+001
1.101156e+003, 4.274459e+001
1.101638e+003, 4.285838e+001
1.102120e+003, 4.318724e+001
1.102602e+003, 4.372615e+001
1.103084e+003, 4.494344e+001
1.103566e+003, 4.576921e+001
1.104049e+003, 4.538864e+001
1.104531e+003, 4.479450e+001
1.105013e+003, 4.483434e+001
1.105495e+003, 4.533702e+001
1.105977e+003, 4.578343e+001
1.106459e+003, 4.609955e+001
1.106941e+003, 4.644917e+001
1.107423e+003, 4.700934e+001
1.107906e+003, 4.739759e+001
1.108388e+003, 4.734898e+001
1.108870e+003, 4.726338e+001
1.109352e+003, 4.744456e+001
1.109834e+003, 4.774891e+001
1.110316e+003, 4.791507e+001
1.110798e+003, 4.792487e+001
1.111280e+003, 4.791417e+001
1.111762e+003, 4.782629e+001
1.112245e+003, 4.782158e+001
1.112727e+003, 4.801538e+001
1.113209e+003, 4.818716e+001
1.113691e+003, 4.821993e+001
1.114173e+003, 4.817765e+001
1.114655e+003, 4.808769e+001
1.115137e+003, 4.796666e+001
1.115619e+003, 4.804476e+001
1.116102e+003, 4.857426e+001
1.116584e+003, 4.885225e+001
1.117066e+003, 4.874517e+001
1.117548e+003, 4.856418e+001
1.118030e+003, 4.830593e+001
1.118512e+003, 4.814013e+001
1.118994e+003, 4.832175e+001
1.119476e+003, 4.871594e+001
1.119958e+003, 4.872937e+001
1.120441e+003, 4.804791e+001
1.120923e+003, 4.802975e+001
1.121405e+003, 4.903962e+001
1.121887e+003, 4.991288e+001
1.122369e+003, 5.033319e+001
1.122851e+003, 5.055802e+001
1.123333e+003, 5.067392e+001
1.123815e+003, 5.083232e+001
1.124297e+003, 5.140321e+001
1.124780e+003, 5.242670e+001
1.125262e+003, 5.326576e+001
1.125744e+003, 5.374879e+001
1.126226e+003, 5.474814e+001
1.126708e+003, 5.659895e+001
1.127190e+003, 5.832091e+001
1.127672e+003, 5.928207e+001
1.128154e+003, 6.007454e+001
1.128636e+003, 6.164559e+001
1.129119e+003, 6.384144e+001
1.129601e+003, 6.530679e+001
1.130083e+003, 6.599020e+001
1.130565e+003, 6.656879e+001
1.131047e+003, 6.709582e+001
1.131529e+003, 6.761385e+001
1.132011e+003, 6.813527e+001
1.132493e+003, 6.866966e+001
1.132976e+003, 6.923543e+001
1.133458e+003, 6.980226e+001
1.133940e+003, 7.029328e+001
1.134422e+003, 7.070886e+001
1.134904e+003, 7.102064e+001
1.135386e+003, 7.123260e+001
1.135868e+003, 7.140871e+001
1.136350e+003, 7.157201e+001
1.136833e+003, 7.192752e+001
1.137315e+003, 7.262130e+001
1.137797e+003, 7.360229e+001
1.138279e+003, 7.497954e+001
1.138761e+003, 7.653033e+001
1.139243e+003, 7.736401e+001
1.139725e+003, 7.764616e+001
1.140207e+003, 7.814504e+001
1.140689e+003, 7.893295e+001
1.141172e+003, 7.956599e+001
1.141654e+003, 7.983350e+001
1.142136e+003, 7.979067e+001
1.142618e+003, 7.951262e+001
1.143100e+003, 7.894372e+001
1.143582e+003, 7.808282e+001
1.144064e+003, 7.681528e+001
1.144546e+003, 7.479363e+001
1.145029e+003, 7.214463e+001
1.145511e+003, 6.912266e+001
1.145993e+003, 6.591216e+001
1.146475e+003, 6.323473e+001
1.146957e+003, 6.171047e+001
1.147439e+003, 6.056568e+001
1.147921e+003, 5.913318e+001
1.148403e+003, 5.756713e+001
1.148885e+003, 5.593327e+001
1.149368e+003, 5.438317e+001
1.149850e+003, 5.316906e+001
1.150332e+003, 5.229454e+001
1.150814e+003, 5.155134e+001
1.151296e+003, 5.085252e+001
1.151778e+003, 5.033693e+001
1.152260e+003, 5.017355e+001
1.152742e+003, 5.012773e+001
1.153224e+003, 5.012999e+001
1.153707e+003, 5.009170e+001
1.154189e+003, 4.987991e+001
1.154671e+003, 4.956930e+001
1.155153e+003, 4.933860e+001
1.155635e+003, 4.922351e+001
1.156117e+003, 4.913472e+001
1.156599e+003, 4.901867e+001
1.157081e+003, 4.896098e+001
1.157563e+003, 4.901338e+001
1.158046e+003, 4.910447e+001
1.158528e+003, 4.921235e+001
1.159010e+003, 4.931828e+001
1.159492e+003, 4.945298e+001
1.159974e+003, 4.958802e+001
1.160456e+003, 4.948872e+001
1.160938e+003, 4.870135e+001
1.161420e+003, 4.853037e+001
1.161903e+003, 4.983044e+001
1.162385e+003, 5.059658e+001
1.162867e+003, 4.996740e+001
1.163349e+003, 4.896679e+001
1.163831e+003, 4.817582e+001
1.164313e+003, 4.771531e+001
1.164795e+003, 4.795285e+001
1.165277e+003, 4.899668e+001
1.165760e+003, 4.988824e+001
1.166242e+003, 5.077746e+001
1.166724e+003, 5.092622e+001
1.167206e+003, 4.991700e+001
1.167688e+003, 4.915529e+001
1.168170e+003, 4.941264e+001
1.168652e+003, 5.014998e+001
1.169134e+003, 5.075529e+001
1.169616e+003, 5.117084e+001
1.170099e+003, 5.097514e+001
1.170581e+003, 5.015549e+001
1.171063e+003, 4.985204e+001
1.171545e+003, 5.013661e+001
1.172027e+003, 5.055158e+001
1.172509e+003, 5.096384e+001
1.172991e+003, 5.114679e+001
1.173473e+003, 5.088189e+001
1.173956e+003, 5.056279e+001
1.174438e+003, 5.095881e+001
1.174920e+003, 5.183339e+001
1.175402e+003, 5.254009e+001
1.175884e+003, 5.302277e+001
1.176366e+003, 5.296210e+001
1.176848e+003, 5.245494e+001
1.177330e+003, 5.222593e+001
1.177813e+003, 5.256943e+001
1.178295e+003, 5.290696e+001
1.178777e+003, 5.261964e+001
1.179259e+003, 5.221441e+001
1.179741e+003, 5.233306e+001
1.180223e+003, 5.273008e+001
1.180705e+003, 5.314301e+001
1.181187e+003, 5.351078e+001
1.181669e+003, 5.373772e+001
1.182151e+003, 5.384227e+001
1.182634e+003, 5.401796e+001
1.183116e+003, 5.439794e+001
1.183598e+003, 5.468318e+001
1.184080e+003, 5.469690e+001
1.184562e+003, 5.455716e+001
1.185044e+003, 5.407252e+001
1.185526e+003, 5.369896e+001
1.186008e+003, 5.412412e+001
1.186490e+003, 5.498157e+001
1.186973e+003, 5.525679e+001
1.187455e+003, 5.473561e+001
1.187937e+003, 5.455818e+001
1.188419e+003, 5.529304e+001
1.188901e+003, 5.587348e+001
1.189383e+003, 5.591850e+001
1.189865e+003, 5.596976e+001
1.190347e+003, 5.638500e+001
1.190830e+003, 5.687456e+001
1.191312e+003, 5.707966e+001
1.191794e+003, 5.708442e+001
1.192276e+003, 5.735149e+001
1.192758e+003, 5.814088e+001
1.193240e+003, 5.822358e+001
1.193722e+003, 5.719010e+001
1.194204e+003, 5.673777e+001
1.194687e+003, 5.744545e+001
1.195169e+003, 5.817443e+001
1.195651e+003, 5.816529e+001
1.196133e+003, 5.788531e+001
1.196615e+003, 5.809295e+001
1.197097e+003, 5.869978e+001
1.197579e+003, 5.927118e+001
1.198061e+003, 5.978630e+001
1.198543e+003, 5.963357e+001
1.199026e+003, 5.882133e+001
1.199508e+003, 5.836376e+001
1.199990e+003, 5.859180e+001
1.200472e+003, 5.897051e+001
1.200954e+003, 5.906910e+001
1.201436e+003, 5.912206e+001
1.201918e+003, 5.963350e+001
1.202400e+003, 6.027015e+001
1.202883e+003, 6.022436e+001
1.203365e+003, 5.979902e+001
1.203847e+003, 5.975366e+001
1.204329e+003, 6.008691e+001
1.204811e+003, 6.033645e+001
1.205293e+003, 6.033326e+001
1.205775e+003, 6.030108e+001
1.206257e+003, 6.041063e+001
1.206740e+003, 6.052113e+001
1.207222e+003, 6.052935e+001
1.207704e+003, 6.049405e+001
1.208186e+003, 6.049347e+001
1.208668e+003, 6.047053e+001
1.209150e+003, 6.026898e+001
1.209632e+003, 5.994481e+001
1.210114e+003, 5.982013e+001
1.210596e+003, 6.002718e+001
1.211078e+003, 6.023303e+001
1.211561e+003, 6.029076e+001
1.212043e+003, 6.045242e+001
1.212525e+003, 6.089336e+001
1.213007e+003, 6.135612e+001
1.213489e+003, 6.172493e+001
1.213971e+003, 6.198314e+001
1.214453e+003, 6.214620e+001
1.214935e+003, 6.219711e+001
1.215417e+003, 6.175113e+001
1.215900e+003, 6.051539e+001
1.216382e+003, 5.994997e+001
1.216864e+003, 6.028199e+001
1.217346e+003, 6.063897e+001
1.217828e+003, 6.075447e+001
1.218310e+003, 6.082483e+001
1.218792e+003, 6.103069e+001
1.219274e+003, 6.116026e+001
1.219757e+003, 6.065136e+001
1.220239e+003, 5.975525e+001
1.220721e+003, 5.986045e+001
1.221203e+003, 6.071418e+001
1.221685e+003, 6.103549e+001
1.222167e+003, 6.074690e+001
1.222649e+003, 6.042213e+001
1.223131e+003, 6.026299e+001
1.223614e+003, 6.009515e+001
1.224096e+003, 5.981777e+001
1.224578e+003, 5.937759e+001
1.225060e+003, 5.836877e+001
1.225542e+003, 5.747339e+001
1.226024e+003, 5.777459e+001
1.226506e+003, 5.860205e+001
1.226988e+003, 5.891128e+001
1.227470e+003, 5.871215e+001
1.227953e+003, 5.849572e+001
1.228435e+003, 5.839738e+001
1.228917e+003, 5.826902e+001
1.229399e+003, 5.798236e+001
1.229881e+003, 5.776084e+001
1.230363e+003, 5.789450e+001
1.230845e+003, 5.786357e+001
1.231327e+003, 5.707455e+001
1.231810e+003, 5.616811e+001
1.232292e+003, 5.608353e+001
1.232774e+003, 5.654285e+001
1.233256e+003, 5.636144e+001
1.233738e+003, 5.525084e+001
1.234220e+003, 5.476278e+001
1.234702e+003, 5.505958e+001
1.235184e+003, 5.552576e+001
1.235667e+003, 5.618645e+001
1.236149e+003, 5.641492e+001
1.236631e+003, 5.580441e+001
1.237113e+003, 5.500133e+001
1.237595e+003, 5.479153e+001
1.238077e+003, 5.496557e+001
1.238559e+003, 5.489403e+001
1.239041e+003, 5.463021e+001
1.239523e+003, 5.443668e+001
1.240005e+003, 5.431551e+001
1.240488e+003, 5.428262e+001
1.240970e+003, 5.428580e+001
1.241452e+003, 5.393775e+001
1.241934e+003, 5.303788e+001
1.242416e+003, 5.238147e+001
1.242898e+003, 5.292052e+001
1.243380e+003, 5.379909e+001
1.243862e+003, 5.441621e+001
1.244344e+003, 5.468032e+001
1.244827e+003, 5.425284e+001
1.245309e+003, 5.352858e+001
1.245791e+003, 5.312556e+001
1.246273e+003, 5.310004e+001
1.246755e+003, 5.322049e+001
1.247237e+003, 5.351904e+001
1.247719e+003, 5.364422e+001
1.248201e+003, 5.312520e+001
1.248684e+003, 5.297446e+001
1.249166e+003, 5.411365e+001
1.249648e+003, 5.496626e+001
1.250130e+003, 5.441142e+001
1.250612e+003, 5.331581e+001
1.251094e+003, 5.286956e+001
1.251576e+003, 5.292822e+001
1.252058e+003, 5.246599e+001
1.252541e+003, 5.131827e+001
1.253023e+003, 5.095892e+001
1.253505e+003, 5.150845e+001
1.253987e+003, 5.178167e+001
1.254469e+003, 5.149492e+001
1.254951e+003, 5.134519e+001
1.255433e+003, 5.174636e+001
1.255915e+003, 5.222771e+001
1.256397e+003, 5.218601e+001
1.256880e+003, 5.188155e+001
1.257362e+003, 5.187673e+001
1.257844e+003, 5.196179e+001
1.258326e+003, 5.157421e+001
1.258808e+003, 5.096336e+001
1.259290e+003, 5.078552e+001
1.259772e+003, 5.110792e+001
1.260254e+003, 5.163021e+001
1.260737e+003, 5.228505e+001
1.261219e+003, 5.268542e+001
1.261701e+003, 5.246759e+001
1.262183e+003, 5.216027e+001
1.262665e+003, 5.183612e+001
1.263147e+003, 5.170914e+001
1.263629e+003, 5.213287e+001
1.264111e+003, 5.271710e+001
1.264594e+003, 5.290203e+001
1.265076e+003, 5.273079e+001
1.265558e+003, 5.252876e+001
1.266040e+003, 5.217377e+001
1.266522e+003, 5.227168e+001
1.267004e+003, 5.297966e+001
1.267486e+003, 5.357773e+001
1.267968e+003, 5.390639e+001
1.268450e+003, 5.428909e+001
1.268932e+003, 5.494501e+001
1.269415e+003, 5.532273e+001
1.269897e+003, 5.467743e+001
1.270379e+003, 5.359004e+001
1.270861e+003, 5.349915e+001
1.271343e+003, 5.411595e+001
1.271825e+003, 5.459292e+001
1.272307e+003, 5.498224e+001
1.272789e+003, 5.557233e+001
1.273271e+003, 5.637978e+001
1.273754e+003, 5.730513e+001
1.274236e+003, 5.830253e+001
1.274718e+003, 5.903243e+001
1.275200e+003, 5.904168e+001
1.275682e+003, 5.906808e+001
1.276164e+003, 5.968165e+001
1.276646e+003, 6.032046e+001
1.277128e+003, 6.058334e+001
1.277611e+003, 6.064388e+001
1.278093e+003, 6.068697e+001
1.278575e+003, 6.072372e+001
1.279057e+003, 6.069643e+001
1.279539e+003, 6.056378e+001
1.280021e+003, 6.076064e+001
1.280503e+003, 6.154573e+001
1.280985e+003, 6.181176e+001
1.281468e+003, 6.124724e+001
1.281950e+003, 6.099685e+001
1.282432e+003, 6.148800e+001
1.282914e+003, 6.242481e+001
1.283396e+003, 6.365463e+001
1.283878e+003, 6.479998e+001
1.284360e+003, 6.495951e+001
1.284842e+003, 6.453031e+001
1.285324e+003, 6.463871e+001
##END=



