##NAMES=Chayesite
##RRUFFID=R070367
##IDEAL CHEMISTRY=KMg_4_Fe^3+^[Si_12_O_30_]
##LOCALITY=Moon Canyon, Woodland, Summit County, Utah, USA
##OWNER=RRUFF
##SOURCE=Michael Scott
##DESCRIPTION=Blue transparent tabular crystals in vugs, co-type sample
##STATUS=The identification of this mineral has been confirmed by single-crystal X-ray diffraction.
##URL=rruff.info/R070367
174.2498, 154250.5
174.7319, 154745.5
175.2140, 155120.3
175.6961, 155451.6
176.1783, 155877.9
176.6604, 156474.2
177.1425, 157073.5
177.6246, 157439.8
178.1067, 157598.0
178.5888, 157735.2
179.0710, 158001.4
179.5531, 158343.0
180.0352, 158636.0
180.5173, 158834.4
180.9994, 158984.1
181.4815, 159137.5
181.9637, 159297.0
182.4458, 159486.8
182.9279, 159742.1
183.4100, 160050.1
183.8921, 160369.3
184.3742, 160702.9
184.8564, 161034.1
185.3385, 161301.3
185.8206, 161502.2
186.3027, 161693.5
186.7848, 161926.2
187.2669, 162199.0
187.7491, 162511.5
188.2312, 162894.9
188.7133, 163317.8
189.1954, 163658.1
189.6775, 163900.3
190.1596, 164120.4
190.6418, 164448.1
191.1239, 164877.6
191.6060, 165232.1
192.0881, 165375.6
192.5702, 165344.1
193.0524, 165471.5
193.5345, 165783.4
194.0166, 166185.6
194.4987, 166536.8
194.9808, 166834.1
195.4629, 167124.5
195.9451, 167431.3
196.4272, 167757.5
196.9093, 168057.1
197.3914, 168326.3
197.8735, 168572.5
198.3556, 168800.5
198.8378, 169004.6
199.3199, 169222.0
199.8020, 169473.3
200.2841, 169757.9
200.7662, 170059.7
201.2483, 170390.6
201.7305, 170726.5
202.2126, 171000.9
202.6947, 171202.0
203.1768, 171386.7
203.6589, 171581.4
204.1410, 171781.4
204.6232, 172023.9
205.1053, 172341.4
205.5874, 172690.8
206.0695, 172906.7
206.5516, 172943.4
207.0337, 172967.2
207.5159, 173100.6
207.9980, 173366.0
208.4801, 173621.8
208.9622, 173844.8
209.4443, 174045.0
209.9264, 174280.9
210.4086, 174577.6
210.8907, 174860.7
211.3728, 175056.6
211.8549, 175132.3
212.3370, 175240.9
212.8191, 175413.1
213.3013, 175639.9
213.7834, 175860.2
214.2655, 176072.6
214.7476, 176281.3
215.2297, 176483.4
215.7118, 176671.3
216.1940, 176878.7
216.6761, 177110.4
217.1582, 177366.8
217.6403, 177651.3
218.1224, 177982.5
218.6045, 178312.0
219.0867, 178590.6
219.5688, 178799.1
220.0509, 178998.7
220.5330, 179205.8
221.0151, 179424.4
221.4972, 179582.5
221.9794, 179646.6
222.4615, 179689.0
222.9436, 179788.9
223.4257, 179966.4
223.9078, 180163.7
224.3899, 180373.3
224.8721, 180600.6
225.3542, 180798.0
225.8363, 180940.4
226.3184, 181078.1
226.8005, 181279.9
227.2827, 181583.2
227.7648, 181877.5
228.2469, 182136.5
228.7290, 182357.0
229.2111, 182560.5
229.6932, 182740.1
230.1754, 182905.8
230.6575, 183072.1
231.1396, 183236.8
231.6217, 183404.8
232.1038, 183587.5
232.5859, 183798.5
233.0681, 183946.8
233.5502, 184004.0
234.0323, 184018.4
234.5144, 184051.4
234.9965, 184070.9
235.4786, 184165.1
235.9608, 184383.7
236.4429, 184763.9
236.9250, 185080.1
237.4071, 185312.4
237.8892, 185490.4
238.3713, 185657.3
238.8535, 185803.5
239.3356, 185953.7
239.8177, 186098.9
240.2998, 186207.4
240.7819, 186451.3
241.2640, 186937.8
241.7462, 187501.3
242.2283, 187844.6
242.7104, 187835.7
243.1925, 187823.1
243.6746, 187918.4
244.1567, 188142.3
244.6389, 188415.0
245.1210, 188778.1
245.6031, 189164.3
246.0852, 189446.6
246.5673, 189580.1
247.0494, 189685.6
247.5316, 189801.9
248.0137, 189930.3
248.4958, 190064.4
248.9779, 190197.3
249.4600, 190339.2
249.9421, 190512.7
250.4243, 190749.9
250.9064, 190962.1
251.3885, 191096.5
251.8706, 191094.9
252.3527, 191224.5
252.8348, 191552.7
253.3170, 191969.6
253.7991, 192249.5
254.2812, 192301.8
254.7633, 192385.0
255.2454, 192607.7
255.7275, 193012.9
256.2097, 193395.6
256.6918, 193765.9
257.1739, 194102.8
257.6560, 194359.4
258.1381, 194494.6
258.6202, 194635.5
259.1024, 194832.8
259.5845, 195094.8
260.0666, 195375.4
260.5487, 195696.1
261.0308, 196018.4
261.5129, 196268.0
261.9951, 196392.2
262.4772, 196564.5
262.9593, 196869.3
263.4414, 197350.1
263.9235, 197767.6
264.4056, 198115.1
264.8878, 198410.2
265.3699, 198676.4
265.8520, 198891.9
266.3341, 199147.9
266.8162, 199498.8
267.2983, 199962.4
267.7805, 200390.8
268.2626, 200784.3
268.7447, 201138.2
269.2268, 201449.9
269.7089, 201724.9
270.1910, 201935.9
270.6732, 202047.3
271.1553, 202041.2
271.6374, 202118.1
272.1195, 202305.6
272.6016, 202536.2
273.0837, 202713.7
273.5659, 202847.1
274.0480, 202886.5
274.5301, 202758.1
275.0122, 202451.5
275.4943, 202322.8
275.9764, 202418.2
276.4586, 202604.8
276.9407, 202683.5
277.4228, 202642.4
277.9049, 202590.6
278.3870, 202565.9
278.8691, 202567.5
279.3513, 202575.7
279.8334, 202586.7
280.3155, 202613.8
280.7976, 202687.8
281.2798, 202810.9
281.7619, 202917.8
282.2440, 202978.0
282.7261, 202997.7
283.2082, 203026.5
283.6903, 203068.3
284.1725, 203104.7
284.6546, 203082.0
285.1367, 203005.3
285.6188, 203003.9
286.1009, 203161.2
286.5830, 203434.5
287.0652, 203637.4
287.5473, 203760.9
288.0294, 203855.8
288.5115, 203964.7
288.9936, 204089.2
289.4757, 204238.9
289.9579, 204441.9
290.4400, 204666.8
290.9221, 204837.4
291.4042, 204953.3
291.8863, 205019.5
292.3684, 204974.7
292.8506, 204862.2
293.3327, 204877.7
293.8148, 205171.2
294.2969, 205579.4
294.7790, 205758.8
295.2611, 205709.4
295.7433, 205633.8
296.2254, 205730.9
296.7075, 205945.7
297.1896, 206114.6
297.6717, 206156.0
298.1538, 206161.3
298.6360, 206283.3
299.1181, 206513.7
299.6002, 206745.2
300.0823, 206871.3
300.5644, 206944.6
301.0465, 207072.5
301.5287, 207319.0
302.0108, 207586.2
302.4929, 207758.1
302.9750, 207847.0
303.4571, 207913.4
303.9392, 207955.7
304.4214, 208013.6
304.9035, 208156.3
305.3856, 208451.5
305.8677, 208747.5
306.3498, 208869.8
306.8319, 208865.4
307.3141, 208903.0
307.7962, 209133.3
308.2783, 209428.8
308.7604, 209665.4
309.2425, 209796.7
309.7246, 209902.5
310.2068, 210022.4
310.6889, 210155.8
311.1710, 210302.0
311.6531, 210459.4
312.1352, 210630.7
312.6173, 210820.2
313.0995, 211034.3
313.5816, 211244.6
314.0637, 211434.1
314.5458, 211611.8
315.0279, 211796.1
315.5100, 212027.1
315.9922, 212241.6
316.4743, 212394.3
316.9564, 212461.3
317.4385, 212544.2
317.9206, 212655.6
318.4027, 212807.5
318.8849, 213016.9
319.3670, 213391.3
319.8491, 213733.3
320.3312, 213940.5
320.8133, 213974.0
321.2954, 214071.6
321.7776, 214340.5
322.2597, 214673.3
322.7418, 214955.8
323.2239, 215121.5
323.7060, 215285.2
324.1881, 215479.0
324.6703, 215708.2
325.1524, 215916.5
325.6345, 216109.4
326.1166, 216272.9
326.5987, 216396.7
327.0808, 216406.9
327.5630, 216464.8
328.0451, 216616.2
328.5272, 216854.8
329.0093, 217038.8
329.4914, 217135.6
329.9735, 217203.7
330.4557, 217280.0
330.9378, 217373.8
331.4199, 217454.7
331.9020, 217482.1
332.3841, 217488.6
332.8662, 217652.5
333.3484, 218072.4
333.8305, 218497.6
334.3126, 218783.4
334.7947, 218870.2
335.2768, 218993.4
335.7589, 219172.5
336.2411, 219389.6
336.7232, 219623.5
337.2053, 219903.1
337.6874, 220110.1
338.1695, 220135.8
338.6516, 219939.3
339.1338, 219943.4
339.6159, 220211.5
340.0980, 220592.2
340.5801, 220827.2
341.0622, 220907.9
341.5443, 220943.2
342.0265, 220954.3
342.5086, 220948.7
342.9907, 220992.5
343.4728, 221083.0
343.9549, 221232.6
344.4370, 221513.8
344.9192, 221904.0
345.4013, 222191.2
345.8834, 222240.9
346.3655, 222147.4
346.8476, 222149.1
347.3297, 222246.9
347.8119, 222400.6
348.2940, 222582.9
348.7761, 222792.4
349.2582, 223023.3
349.7403, 223293.9
350.2225, 223570.4
350.7046, 223805.6
351.1867, 224003.8
351.6688, 224182.4
352.1509, 224350.9
352.6331, 224509.3
353.1152, 224661.6
353.5973, 224822.3
354.0794, 224952.0
354.5615, 224957.7
355.0436, 224891.0
355.5258, 224908.5
356.0079, 225167.0
356.4900, 225508.3
356.9721, 225806.3
357.4542, 226047.6
357.9363, 226225.3
358.4185, 226298.9
358.9006, 226310.0
359.3827, 226330.9
359.8648, 226323.0
360.3469, 226385.0
360.8290, 226610.2
361.3112, 227038.0
361.7933, 227398.0
362.2754, 227555.4
362.7575, 227621.9
363.2396, 227719.2
363.7217, 227917.3
364.2039, 228104.5
364.6860, 228222.7
365.1681, 228270.7
365.6502, 228401.7
366.1323, 228753.4
366.6144, 229121.6
367.0966, 229365.1
367.5787, 229289.0
368.0608, 229320.4
368.5429, 229545.6
369.0250, 229919.2
369.5071, 230200.7
369.9893, 230322.3
370.4714, 230429.9
370.9535, 230591.8
371.4356, 230816.1
371.9177, 231078.8
372.3998, 231412.0
372.8820, 231768.3
373.3641, 232026.3
373.8462, 232146.2
374.3283, 232270.4
374.8104, 232456.0
375.2925, 232710.4
375.7747, 232974.6
376.2568, 233273.8
376.7389, 233537.7
377.2210, 233628.5
377.7031, 233529.8
378.1852, 233495.0
378.6674, 233622.6
379.1495, 233874.6
379.6316, 234104.8
380.1137, 234311.7
380.5958, 234491.9
381.0779, 234642.1
381.5601, 234762.8
382.0422, 234838.6
382.5243, 234845.7
383.0064, 234835.9
383.4885, 234909.1
383.9706, 235055.3
384.4528, 235196.7
384.9349, 235273.8
385.4170, 235313.9
385.8991, 235354.8
386.3812, 235392.1
386.8633, 235464.6
387.3455, 235632.8
387.8276, 235864.3
388.3097, 236087.3
388.7918, 236249.7
389.2739, 236397.1
389.7560, 236570.7
390.2382, 236776.2
390.7203, 236975.3
391.2024, 237179.0
391.6845, 237353.9
392.1666, 237463.4
392.6487, 237363.3
393.1309, 237318.0
393.6130, 237466.1
394.0951, 237791.7
394.5772, 238092.2
395.0593, 238346.1
395.5414, 238540.1
396.0236, 238662.8
396.5057, 238580.1
396.9878, 238583.9
397.4699, 238753.0
397.9520, 239035.0
398.4341, 239264.5
398.9163, 239420.9
399.3984, 239545.2
399.8805, 239638.1
400.3626, 239659.8
400.8447, 239774.0
401.3268, 240027.1
401.8090, 240338.2
402.2911, 240599.1
402.7732, 240796.5
403.2553, 240969.8
403.7374, 241112.0
404.2195, 241228.2
404.7017, 241427.7
405.1838, 241743.4
405.6659, 242055.4
406.1480, 242229.9
406.6301, 242264.9
407.1122, 242351.7
407.5944, 242537.5
408.0765, 242782.1
408.5586, 242995.2
409.0407, 243178.0
409.5228, 243337.8
410.0049, 243448.5
410.4871, 243537.6
410.9692, 243696.9
411.4513, 243950.3
411.9334, 244217.1
412.4155, 244391.6
412.8976, 244506.0
413.3798, 244646.4
413.8619, 244929.9
414.3440, 245217.0
414.8261, 245318.6
415.3082, 245233.2
415.7903, 245197.4
416.2725, 245420.4
416.7546, 245758.2
417.2367, 246052.7
417.7188, 246209.1
418.2009, 246354.5
418.6830, 246571.7
419.1652, 246832.1
419.6473, 247022.7
420.1294, 247013.4
420.6115, 246994.1
421.0937, 247076.2
421.5758, 247329.8
422.0579, 247561.9
422.5400, 247742.6
423.0221, 247888.4
423.5042, 248029.6
423.9864, 248156.8
424.4685, 248289.6
424.9506, 248433.2
425.4327, 248586.1
425.9148, 248751.6
426.3969, 248945.8
426.8791, 249134.2
427.3612, 249274.2
427.8433, 249335.2
428.3254, 249446.3
428.8075, 249638.1
429.2896, 249887.2
429.7718, 250113.5
430.2539, 250316.2
430.7360, 250501.9
431.2181, 250670.3
431.7002, 250821.7
432.1823, 250950.0
432.6645, 251039.5
433.1466, 251157.0
433.6287, 251459.1
434.1108, 251896.3
434.5929, 252217.4
435.0750, 252211.6
435.5572, 252068.5
436.0393, 252124.4
436.5214, 252373.0
437.0035, 252682.6
437.4856, 252964.8
437.9677, 253237.1
438.4499, 253530.3
438.9320, 253889.5
439.4141, 254207.5
439.8962, 254323.9
440.3783, 254330.5
440.8604, 254468.5
441.3426, 254966.1
441.8247, 255530.9
442.3068, 255999.1
442.7889, 256337.9
443.2710, 256652.1
443.7531, 256929.6
444.2353, 257211.5
444.7174, 257547.9
445.1995, 258000.2
445.6816, 258443.2
446.1637, 258827.4
446.6458, 259162.1
447.1280, 259593.8
447.6101, 260152.3
448.0922, 260777.8
448.5743, 261445.4
449.0564, 262206.0
449.5385, 262874.1
450.0207, 263380.4
450.5028, 263848.5
450.9849, 264542.6
451.4670, 265505.8
451.9491, 266445.0
452.4312, 267245.7
452.9134, 267920.4
453.3955, 268575.1
453.8776, 269199.0
454.3597, 269862.5
454.8418, 270650.1
455.3239, 271539.4
455.8061, 272403.7
456.2882, 273217.2
456.7703, 274006.1
457.2524, 274819.0
457.7345, 275643.7
458.2166, 276450.7
458.6988, 277202.7
459.1809, 277929.9
459.6630, 278682.3
460.1451, 279490.8
460.6272, 280186.9
461.1093, 280639.4
461.5915, 280923.6
462.0736, 281122.2
462.5557, 281292.4
463.0378, 281354.1
463.5199, 281317.6
464.0020, 281167.3
464.4842, 280785.3
464.9663, 279994.8
465.4484, 279079.9
465.9305, 278187.5
466.4126, 277366.7
466.8947, 276471.9
467.3769, 275456.9
467.8590, 274392.2
468.3411, 273373.0
468.8232, 272395.6
469.3053, 271479.2
469.7874, 270613.8
470.2696, 269802.0
470.7517, 269089.6
471.2338, 268476.0
471.7159, 267967.6
472.1980, 267606.1
472.6801, 267387.0
473.1623, 267169.6
473.6444, 266927.7
474.1265, 266687.1
474.6086, 266497.3
475.0907, 266352.5
475.5728, 266215.6
476.0550, 266031.6
476.5371, 265854.5
477.0192, 265790.4
477.5013, 265843.1
477.9834, 265920.2
478.4655, 265993.9
478.9477, 266035.6
479.4298, 266001.3
479.9119, 265797.1
480.3940, 265615.7
480.8761, 265545.5
481.3582, 265575.9
481.8404, 265679.5
482.3225, 265925.4
482.8046, 266178.0
483.2867, 266352.6
483.7688, 266383.5
484.2509, 266540.9
484.7331, 267044.9
485.2152, 267582.3
485.6973, 267860.0
486.1794, 267712.3
486.6615, 267584.1
487.1436, 267524.8
487.6258, 267531.1
488.1079, 267592.4
488.5900, 267715.3
489.0721, 267874.8
489.5542, 268077.9
490.0363, 268326.3
490.5185, 268508.4
491.0006, 268609.0
491.4827, 268679.6
491.9648, 268786.5
492.4470, 268922.6
492.9291, 269045.3
493.4112, 269127.8
493.8933, 269197.3
494.3754, 269281.9
494.8575, 269384.8
495.3397, 269519.2
495.8218, 269716.2
496.3039, 269940.8
496.7860, 270166.4
497.2681, 270408.4
497.7502, 270588.0
498.2324, 270615.0
498.7145, 270569.6
499.1966, 270561.3
499.6787, 270575.3
500.1608, 270678.7
500.6429, 270958.8
501.1251, 271397.1
501.6072, 271707.6
502.0893, 271772.9
502.5714, 271796.8
503.0535, 271863.6
503.5356, 271947.4
504.0178, 272151.3
504.4999, 272557.8
504.9820, 273007.0
505.4641, 273223.7
505.9462, 273147.5
506.4283, 273155.3
506.9105, 273388.8
507.3926, 273780.5
507.8747, 274055.6
508.3568, 274209.5
508.8389, 274343.6
509.3210, 274534.9
509.8032, 274767.3
510.2853, 275003.1
510.7674, 275241.3
511.2495, 275466.6
511.7316, 275666.2
512.2137, 275841.6
512.6959, 275993.1
513.1780, 276120.3
513.6601, 276225.9
514.1422, 276263.3
514.6243, 276255.8
515.1064, 276357.3
515.5886, 276779.8
516.0707, 277225.0
516.5528, 277490.2
517.0349, 277417.4
517.5170, 277447.3
517.9991, 277672.3
518.4813, 278002.2
518.9634, 278335.2
519.4455, 278723.8
519.9276, 279019.1
520.4097, 279148.2
520.8918, 279147.0
521.3740, 279279.3
521.8561, 279574.4
522.3382, 279905.3
522.8203, 280203.1
523.3024, 280465.8
523.7845, 280685.4
524.2667, 280849.0
524.7488, 281022.1
525.2309, 281316.9
525.7130, 281700.4
526.1951, 282049.2
526.6772, 282301.2
527.1594, 282521.6
527.6415, 282784.5
528.1236, 283080.3
528.6057, 283374.0
529.0878, 283581.0
529.5699, 283817.8
530.0521, 284206.4
530.5342, 284821.6
531.0163, 285333.6
531.4984, 285538.3
531.9805, 285633.8
532.4626, 285831.8
532.9448, 286322.4
533.4269, 286719.6
533.9090, 286921.1
534.3911, 286991.4
534.8732, 287180.3
535.3553, 287550.6
535.8375, 287927.8
536.3196, 288235.1
536.8017, 288473.9
537.2838, 288694.3
537.7659, 288900.2
538.2480, 289081.7
538.7302, 289213.5
539.2123, 289305.4
539.6944, 289425.5
540.1765, 289610.9
540.6586, 289789.8
541.1407, 289815.9
541.6229, 289738.9
542.1050, 289736.5
542.5871, 290069.3
543.0692, 290411.5
543.5513, 290381.2
544.0334, 289964.1
544.5156, 289670.4
544.9977, 289879.5
545.4798, 290229.5
545.9619, 290433.2
546.4440, 290359.1
546.9261, 290252.8
547.4083, 290123.0
547.8904, 289985.5
548.3725, 289869.1
548.8546, 289759.9
549.3367, 289693.4
549.8188, 289685.8
550.3010, 289732.9
550.7831, 289788.2
551.2652, 289858.2
551.7473, 289915.4
552.2294, 289918.6
552.7115, 289877.8
553.1937, 289913.8
553.6758, 290052.8
554.1579, 290198.7
554.6400, 290184.8
555.1221, 290076.4
555.6042, 290066.8
556.0864, 290317.9
556.5685, 290603.1
557.0506, 290655.1
557.5327, 290540.8
558.0148, 290507.7
558.4969, 290822.8
558.9791, 291146.7
559.4612, 291234.9
559.9433, 291001.3
560.4254, 290852.7
560.9075, 290897.4
561.3896, 291040.6
561.8718, 291197.4
562.3539, 291369.8
562.8360, 291554.2
563.3181, 291759.4
563.8002, 291970.3
564.2823, 292164.7
564.7645, 292351.6
565.2466, 292471.8
565.7287, 292483.8
566.2108, 292407.8
566.6929, 292316.2
567.1750, 292206.4
567.6572, 292157.4
568.1393, 292287.4
568.6214, 292518.1
569.1035, 292673.2
569.5856, 292702.8
570.0677, 292753.3
570.5499, 293016.5
571.0320, 293367.7
571.5141, 293611.7
571.9962, 293552.6
572.4783, 293496.5
572.9604, 293584.1
573.4426, 293787.5
573.9247, 293957.3
574.4068, 294024.2
574.8889, 294093.1
575.3710, 294204.7
575.8531, 294365.1
576.3353, 294525.4
576.8174, 294675.7
577.2995, 294838.3
577.7816, 295054.5
578.2637, 295333.8
578.7458, 295547.7
579.2280, 295665.0
579.7101, 295731.7
580.1922, 295808.3
580.6743, 295899.2
581.1564, 296029.1
581.6385, 296251.3
582.1207, 296496.6
582.6028, 296635.3
583.0849, 296686.7
583.5670, 296807.7
584.0491, 297169.4
584.5313, 297587.4
585.0134, 297917.5
585.4955, 298117.9
585.9776, 298293.5
586.4597, 298462.3
586.9418, 298621.7
587.4240, 298766.9
587.9061, 298896.4
588.3882, 299016.5
588.8703, 299130.3
589.3524, 299234.2
589.8345, 299309.8
590.3167, 299344.8
590.7988, 299399.8
591.2809, 299509.9
591.7630, 299662.4
592.2451, 299778.6
592.7272, 299856.6
593.2094, 299947.9
593.6915, 300095.1
594.1736, 300286.3
594.6557, 300520.1
595.1378, 300813.3
595.6199, 301056.6
596.1021, 301124.5
596.5842, 301101.0
597.0663, 301106.1
597.5485, 301174.9
598.0306, 301283.6
598.5127, 301435.3
598.9948, 301623.5
599.4769, 301826.4
599.9590, 302144.1
600.4412, 302353.6
600.9233, 302318.5
601.4054, 302007.0
601.8875, 301996.7
602.3696, 302399.5
602.8517, 302828.7
603.3339, 302885.8
603.8160, 302609.2
604.2981, 302515.4
604.7802, 302687.9
605.2623, 302962.6
605.7444, 303153.0
606.2266, 303277.2
606.7087, 303372.0
607.1908, 303389.8
607.6729, 303450.2
608.1550, 303705.3
608.6371, 304091.8
609.1193, 304413.7
609.6014, 304570.3
610.0835, 304660.0
610.5656, 304711.8
611.0477, 304721.8
611.5298, 304742.4
612.0120, 304741.4
612.4941, 304784.2
612.9762, 304932.1
613.4583, 305235.5
613.9404, 305448.9
614.4225, 305531.8
614.9047, 305575.2
615.3868, 305721.8
615.8689, 305964.2
616.3510, 306191.2
616.8331, 306379.9
617.3152, 306524.1
617.7974, 306562.6
618.2795, 306533.8
618.7616, 306587.2
619.2437, 306881.0
619.7258, 307230.8
620.2079, 307508.1
620.6901, 307704.3
621.1722, 307874.1
621.6543, 308054.0
622.1364, 308201.4
622.6185, 308276.3
623.1006, 308208.1
623.5828, 308223.8
624.0649, 308351.5
624.5470, 308537.4
625.0291, 308716.2
625.5112, 308881.1
625.9933, 309081.8
626.4755, 309341.5
626.9576, 309619.5
627.4397, 309828.7
627.9218, 309974.7
628.4039, 310100.8
628.8860, 310189.8
629.3682, 310291.9
629.8503, 310493.1
630.3324, 310781.8
630.8145, 311067.3
631.2966, 311289.9
631.7787, 311492.1
632.2609, 311725.8
632.7430, 312037.9
633.2251, 312221.3
633.7072, 312052.4
634.1893, 311849.5
634.6714, 311891.0
635.1536, 312341.8
635.6357, 312664.3
636.1178, 312769.9
636.5999, 312779.1
637.0820, 312933.8
637.5641, 313241.6
638.0463, 313483.4
638.5284, 313542.6
639.0105, 313534.1
639.4926, 313725.1
639.9747, 314081.3
640.4568, 314398.6
640.9390, 314481.4
641.4211, 314519.2
641.9032, 314739.4
642.3853, 315156.4
642.8674, 315453.5
643.3495, 315411.3
643.8317, 315266.5
644.3138, 315170.1
644.7959, 315076.1
645.2780, 315171.0
645.7601, 315569.3
646.2422, 316055.3
646.7244, 316379.9
647.2065, 316517.2
647.6886, 316605.0
648.1707, 316647.1
648.6528, 316677.9
649.1349, 316775.2
649.6171, 316930.7
650.0992, 317086.8
650.5813, 317222.2
651.0634, 317340.4
651.5455, 317426.5
652.0276, 317491.7
652.5098, 317591.1
652.9919, 317799.6
653.4740, 318016.8
653.9561, 318175.0
654.4382, 318256.9
654.9203, 318346.2
655.4025, 318479.9
655.8846, 318602.5
656.3667, 318664.1
656.8488, 318618.2
657.3309, 318658.7
657.8130, 318810.8
658.2952, 319017.2
658.7773, 319212.4
659.2594, 319396.4
659.7415, 319547.2
660.2236, 319657.4
660.7057, 319735.3
661.1879, 319761.8
661.6700, 319761.8
662.1521, 319806.1
662.6342, 319977.2
663.1163, 320161.6
663.5984, 320277.3
664.0806, 320333.6
664.5627, 320419.8
665.0448, 320641.2
665.5269, 320817.6
666.0090, 320845.5
666.4911, 320688.2
666.9733, 320660.3
667.4554, 320800.4
667.9375, 320993.2
668.4196, 321158.0
668.9017, 321295.1
669.3839, 321382.8
669.8660, 321406.6
670.3481, 321438.4
670.8302, 321578.8
671.3123, 321789.1
671.7944, 321991.3
672.2766, 322185.9
672.7587, 322323.3
673.2408, 322284.9
673.7229, 322176.5
674.2050, 322204.7
674.6871, 322624.3
675.1693, 322972.8
675.6514, 323090.0
676.1335, 323023.8
676.6156, 323009.9
677.0977, 323045.8
677.5798, 323142.9
678.0620, 323346.5
678.5441, 323634.9
679.0262, 323746.4
679.5083, 323671.6
679.9904, 323589.5
680.4725, 323679.0
680.9547, 323848.3
681.4368, 323905.6
681.9189, 323809.8
682.4010, 323779.8
682.8831, 324063.1
683.3652, 324437.7
683.8474, 324671.8
684.3295, 324598.3
684.8116, 324566.9
685.2937, 324685.4
685.7758, 324847.9
686.2579, 324913.3
686.7401, 324850.4
687.2222, 324761.7
687.7043, 324619.0
688.1864, 324505.7
688.6685, 324685.9
689.1506, 325139.3
689.6328, 325537.9
690.1149, 325711.5
690.5970, 325763.5
691.0791, 325842.1
691.5612, 325939.5
692.0433, 326013.8
692.5255, 325994.6
693.0076, 325984.9
693.4897, 326061.8
693.9718, 326239.0
694.4539, 326400.0
694.9360, 326557.7
695.4182, 326667.7
695.9003, 326694.0
696.3824, 326606.8
696.8645, 326564.8
697.3466, 326578.9
697.8287, 326609.0
698.3109, 326615.1
698.7930, 326600.0
699.2751, 326560.3
699.7572, 326475.6
700.2393, 326442.0
700.7214, 326575.4
701.2036, 326826.1
701.6857, 327114.4
702.1678, 327522.5
702.6499, 327834.0
703.1320, 327900.5
703.6141, 327811.9
704.0963, 327795.6
704.5784, 327887.0
705.0605, 328019.5
705.5426, 328208.7
706.0247, 328426.6
706.5068, 328543.8
706.9890, 328555.9
707.4711, 328509.2
707.9532, 328370.1
708.4353, 328202.3
708.9174, 328179.7
709.3995, 328294.2
709.8817, 328474.7
710.3638, 328729.8
710.8459, 328990.8
711.3280, 329198.1
711.8101, 329345.5
712.2922, 329449.5
712.7744, 329469.7
713.2565, 329482.0
713.7386, 329535.3
714.2207, 329631.9
714.7028, 329777.7
715.1849, 330012.0
715.6671, 330229.5
716.1492, 330275.3
716.6313, 330169.3
717.1134, 330170.3
717.5955, 330344.7
718.0776, 330565.4
718.5598, 330682.6
719.0419, 330731.1
719.5240, 330778.4
720.0061, 330861.7
720.4882, 330933.8
720.9703, 330946.5
721.4525, 330934.6
721.9346, 330977.6
722.4167, 331131.7
722.8988, 331282.0
723.3809, 331398.6
723.8630, 331496.8
724.3452, 331647.5
724.8273, 331859.3
725.3094, 332057.6
725.7915, 332191.6
726.2736, 332290.7
726.7557, 332450.1
727.2379, 332658.3
727.7200, 332824.9
728.2021, 332850.2
728.6842, 332837.9
729.1663, 332873.1
729.6484, 332963.7
730.1306, 333062.8
730.6127, 333156.0
731.0948, 333255.7
731.5769, 333373.8
732.0590, 333524.7
732.5411, 333636.1
733.0233, 333699.9
733.5054, 333742.8
733.9875, 333760.1
734.4696, 333765.9
734.9517, 333887.0
735.4338, 334155.3
735.9160, 334432.6
736.3981, 334605.6
736.8802, 334688.7
737.3623, 334690.3
737.8444, 334546.5
738.3266, 334450.8
738.8087, 334426.2
739.2908, 334510.8
739.7729, 334777.1
740.2551, 335427.1
740.7372, 335888.1
741.2193, 336067.5
741.7014, 336046.9
742.1835, 335953.0
742.6656, 335785.0
743.1478, 335689.2
743.6299, 335742.6
744.1120, 335854.9
744.5941, 335858.5
745.0762, 335796.7
745.5583, 335804.1
746.0405, 336036.0
746.5226, 336272.8
747.0047, 336343.3
747.4868, 336289.6
747.9689, 336371.4
748.4510, 336755.4
748.9332, 337100.4
749.4153, 337289.4
749.8974, 337335.9
750.3795, 337421.8
750.8616, 337554.6
751.3438, 337666.3
751.8259, 337677.3
752.3080, 337642.9
752.7901, 337706.5
753.2722, 337866.9
753.7543, 338042.5
754.2365, 338181.4
754.7186, 338311.3
755.2007, 338475.6
755.6828, 338704.7
756.1649, 338816.5
756.6470, 338663.8
757.1292, 338489.5
757.6113, 338440.0
758.0934, 338542.7
758.5755, 338655.5
759.0576, 338787.0
759.5397, 338903.0
760.0219, 338933.8
760.5040, 338918.9
760.9861, 338997.6
761.4682, 339206.6
761.9503, 339421.6
762.4324, 339522.1
762.9146, 339583.5
763.3967, 339695.7
763.8788, 339907.0
764.3609, 340127.4
764.8430, 340402.8
765.3251, 340643.8
765.8073, 340733.3
766.2894, 340625.4
766.7715, 340544.7
767.2536, 340523.3
767.7357, 340539.2
768.2178, 340553.6
768.7000, 340572.5
769.1821, 340616.3
769.6642, 340677.1
770.1463, 340789.1
770.6284, 341018.3
771.1105, 341315.1
771.5927, 341584.2
772.0748, 341872.2
772.5569, 342036.6
773.0390, 341966.7
773.5211, 341766.9
774.0032, 341696.7
774.4854, 341772.7
774.9675, 341920.0
775.4496, 342134.8
775.9317, 342390.2
776.4138, 342676.5
776.8959, 342963.5
777.3781, 343101.5
777.8602, 342806.6
778.3423, 342493.8
778.8244, 342576.5
779.3065, 342963.3
779.7886, 343252.9
780.2708, 343244.2
780.7529, 343199.4
781.2350, 343193.1
781.7171, 343225.0
782.1992, 343294.3
782.6813, 343400.7
783.1635, 343544.3
783.6456, 343758.2
784.1277, 344003.7
784.6098, 344141.1
785.0919, 344180.8
785.5740, 344230.1
786.0562, 344387.8
786.5383, 344564.7
787.0204, 344680.9
787.5025, 344732.8
787.9846, 344784.6
788.4667, 344825.7
788.9489, 344896.7
789.4310, 345033.3
789.9131, 345242.0
790.3952, 345369.7
790.8773, 345406.9
791.3594, 345402.5
791.8416, 345333.7
792.3237, 345258.4
792.8058, 345359.6
793.2879, 345644.3
793.7700, 345942.3
794.2521, 346164.1
794.7343, 346330.7
795.2164, 346439.8
795.6985, 346470.6
796.1806, 346552.1
796.6627, 346730.3
797.1448, 346925.8
797.6270, 347092.4
798.1091, 347230.8
798.5912, 347329.8
799.0733, 347385.8
799.5554, 347427.0
800.0375, 347431.3
800.5197, 347452.4
801.0018, 347652.3
801.4839, 348085.6
801.9660, 348401.1
802.4481, 348264.9
802.9302, 347992.7
803.4124, 347856.5
803.8945, 347987.1
804.3766, 348043.2
804.8587, 347990.5
805.3408, 347908.7
805.8229, 347825.3
806.3051, 347741.4
806.7872, 347912.0
807.2693, 348399.3
807.7514, 348896.6
808.2335, 349050.3
808.7156, 349024.5
809.1978, 349073.4
809.6799, 349275.9
810.1620, 349465.8
810.6441, 349590.9
811.1262, 349660.4
811.6083, 349671.6
812.0905, 349540.8
812.5726, 349555.0
813.0547, 349749.7
813.5368, 350030.7
814.0189, 350340.8
814.5010, 350656.6
814.9832, 350801.2
815.4653, 350706.0
815.9474, 350630.9
816.4295, 350949.3
816.9116, 351373.3
817.3937, 351520.6
817.8759, 351092.0
818.3580, 350787.7
818.8401, 350797.6
819.3222, 350965.4
819.8043, 351162.8
820.2864, 351392.5
820.7686, 351654.7
821.2507, 351966.4
821.7328, 352252.5
822.2149, 352407.7
822.6970, 352456.9
823.1791, 352446.6
823.6613, 352357.6
824.1434, 352309.6
824.6255, 352418.6
825.1076, 352595.7
825.5897, 352739.9
826.0718, 352754.9
826.5540, 352864.0
827.0361, 353142.5
827.5182, 353431.2
828.0003, 353512.9
828.4824, 353390.2
828.9645, 353327.7
829.4467, 353366.4
829.9288, 353464.4
830.4109, 353644.0
830.8930, 353828.9
831.3751, 353884.4
831.8572, 353690.6
832.3394, 353559.7
832.8215, 353629.6
833.3036, 353803.0
833.7857, 353977.6
834.2678, 354180.6
834.7499, 354279.8
835.2321, 354223.2
835.7142, 354162.2
836.1963, 354332.8
836.6784, 354666.8
837.1605, 354903.0
837.6426, 354976.8
838.1248, 355008.9
838.6069, 355125.0
839.0890, 355234.8
839.5711, 355221.8
840.0532, 354875.9
840.5353, 354763.4
841.0175, 355032.1
841.4996, 355419.3
841.9817, 355640.2
842.4638, 355686.0
842.9459, 355836.1
843.4280, 356137.6
843.9102, 356436.7
844.3923, 356566.2
844.8744, 356579.6
845.3565, 356545.8
845.8386, 356453.9
846.3207, 356407.8
846.8029, 356476.1
847.2850, 356592.4
847.7671, 356691.7
848.2492, 356735.2
848.7313, 356889.6
849.2134, 357209.9
849.6956, 357497.8
850.1777, 357459.8
850.6598, 357219.0
851.1419, 357263.4
851.6240, 357681.8
852.1061, 358063.4
852.5883, 358001.3
853.0704, 357817.9
853.5525, 357831.9
854.0346, 358198.4
854.5167, 358413.3
854.9988, 358326.4
855.4810, 358241.7
855.9631, 358441.4
856.4452, 358934.3
856.9273, 359099.4
857.4094, 358900.2
857.8915, 358675.5
858.3737, 358673.1
858.8558, 358846.6
859.3379, 359222.2
859.8200, 359823.7
860.3021, 360241.0
860.7842, 360119.1
861.2664, 359932.7
861.7485, 359974.9
862.2306, 360285.3
862.7127, 360384.3
863.1948, 360213.8
863.6769, 360091.1
864.1591, 360324.4
864.6412, 360754.2
865.1233, 360977.6
865.6054, 361000.7
866.0875, 361054.5
866.5696, 361367.4
867.0518, 361681.8
867.5339, 361826.6
868.0160, 361781.5
868.4981, 361726.3
868.9802, 361649.4
869.4623, 361588.0
869.9445, 361558.3
870.4266, 361558.9
870.9087, 361548.6
871.3908, 361540.1
871.8729, 361662.1
872.3550, 362179.4
872.8372, 362710.0
873.3193, 362890.7
873.8014, 362775.2
874.2835, 362702.6
874.7656, 362770.9
875.2477, 362867.3
875.7299, 362971.6
876.2120, 363081.7
876.6941, 363200.7
877.1762, 363328.3
877.6583, 363424.0
878.1404, 363413.5
878.6226, 363420.1
879.1047, 363686.3
879.5869, 364101.6
880.0690, 364388.3
880.5511, 364325.8
881.0332, 364251.3
881.5153, 364239.8
881.9974, 364287.0
882.4796, 364410.8
882.9617, 364638.8
883.4438, 364768.0
883.9259, 364703.2
884.4080, 364612.5
884.8901, 364792.3
885.3723, 365152.9
885.8544, 365493.0
886.3365, 365785.5
886.8186, 365969.7
887.3007, 365924.5
887.7828, 365790.6
888.2650, 365762.0
888.7471, 365858.5
889.2292, 366037.0
889.7113, 366342.9
890.1934, 366620.6
890.6755, 366596.6
891.1577, 366378.2
891.6398, 366313.9
892.1219, 366490.5
892.6040, 366714.4
893.0861, 366825.0
893.5682, 366932.5
894.0504, 367163.1
894.5325, 367659.0
895.0146, 367934.1
895.4967, 367909.2
895.9788, 367809.8
896.4609, 367789.7
896.9431, 367852.3
897.4252, 368071.3
897.9073, 368452.9
898.3894, 368783.3
898.8715, 368823.4
899.3536, 368803.7
899.8358, 368937.2
900.3179, 369257.8
900.8000, 369536.0
901.2821, 369738.6
901.7642, 369907.8
902.2463, 370064.1
902.7285, 370203.4
903.2106, 370307.7
903.6927, 370377.5
904.1748, 370441.5
904.6569, 370438.6
905.1390, 370498.7
905.6212, 370844.3
906.1033, 371391.0
906.5854, 371787.8
907.0675, 371808.7
907.5496, 371811.8
908.0317, 371876.9
908.5139, 371984.2
908.9960, 372057.1
909.4781, 372095.1
909.9602, 372207.4
910.4423, 372433.2
910.9244, 372747.3
911.4066, 373217.0
911.8887, 373732.8
912.3708, 374099.8
912.8529, 374065.8
913.3350, 374114.2
913.8171, 374426.9
914.2993, 374792.6
914.7814, 374877.5
915.2635, 374646.6
915.7456, 374641.4
916.2277, 374989.5
916.7098, 375354.0
917.1920, 375205.6
917.6741, 374872.1
918.1562, 374867.2
918.6383, 375390.4
919.1204, 375897.3
919.6025, 376265.7
920.0847, 376526.0
920.5668, 376685.0
921.0489, 376730.3
921.5310, 376745.7
922.0131, 376722.5
922.4952, 376737.8
922.9774, 376895.7
923.4595, 377111.3
923.9416, 377262.2
924.4237, 377342.0
924.9058, 377394.0
925.3879, 377417.4
925.8701, 377433.0
926.3522, 377419.6
926.8343, 377396.1
927.3164, 377559.1
927.7985, 377939.8
928.2806, 378221.3
928.7628, 378178.2
929.2449, 378025.1
929.7270, 378116.7
930.2091, 378376.9
930.6912, 378603.0
931.1733, 378681.7
931.6555, 378746.1
932.1376, 378803.4
932.6197, 378883.9
933.1018, 379061.8
933.5839, 379360.8
934.0660, 379574.4
934.5482, 379644.0
935.0303, 379690.6
935.5124, 379930.5
935.9945, 380243.1
936.4766, 380390.0
936.9587, 380223.5
937.4409, 380154.5
937.9230, 380342.3
938.4051, 380662.8
938.8872, 381034.7
939.3693, 381473.9
939.8514, 381904.9
940.3336, 382330.6
940.8157, 382696.4
941.2978, 382908.2
941.7799, 383057.7
942.2620, 383292.9
942.7441, 383615.6
943.2263, 383911.8
943.7084, 384140.5
944.1905, 384318.4
944.6726, 384423.4
945.1547, 384480.2
945.6368, 384654.8
946.1190, 384955.0
946.6011, 385269.2
947.0832, 385575.8
947.5653, 385838.4
948.0474, 385991.8
948.5295, 386067.7
949.0117, 386139.4
949.4938, 386261.7
949.9759, 386342.3
950.4580, 386345.3
950.9401, 386314.7
951.4222, 386331.6
951.9044, 386398.2
952.3865, 386382.8
952.8686, 386250.9
953.3507, 386098.2
953.8328, 386023.8
954.3149, 385990.5
954.7971, 385952.1
955.2792, 385899.7
955.7613, 385849.8
956.2434, 385847.8
956.7255, 385796.6
957.2076, 385582.5
957.6898, 385215.9
958.1719, 385148.4
958.6540, 385374.3
959.1361, 385562.0
959.6182, 385453.3
960.1003, 385226.4
960.5825, 384958.4
961.0646, 384691.6
961.5467, 384640.8
962.0288, 385046.7
962.5109, 385362.2
962.9930, 385446.6
963.4752, 385368.9
963.9573, 385235.6
964.4394, 385071.6
964.9215, 385050.2
965.4036, 385332.1
965.8857, 385563.4
966.3679, 385357.2
966.8500, 384973.3
967.3321, 384753.9
967.8142, 384861.2
968.2963, 384926.2
968.7784, 384926.3
969.2606, 384925.8
969.7427, 384999.5
970.2248, 385127.0
970.7069, 385246.8
971.1890, 385353.2
971.6711, 385413.1
972.1533, 385318.7
972.6354, 385241.3
973.1175, 385309.9
973.5996, 385526.3
974.0817, 385747.3
974.5638, 385982.0
975.0460, 386186.8
975.5281, 386335.1
976.0102, 386452.8
976.4923, 386606.4
976.9744, 386778.2
977.4565, 386917.5
977.9387, 387040.9
978.4208, 387082.3
978.9029, 386861.7
979.3850, 386622.9
979.8671, 386738.9
980.3492, 387292.7
980.8314, 387718.9
981.3135, 387955.1
981.7956, 388064.1
982.2777, 388067.8
982.7598, 388013.1
983.2419, 387944.3
983.7241, 387856.2
984.2062, 387859.0
984.6883, 388049.3
985.1704, 388277.8
985.6525, 388493.9
986.1346, 388695.1
986.6168, 388837.1
987.0989, 388922.6
987.5810, 389030.5
988.0631, 389215.3
988.5452, 389436.7
989.0273, 389729.4
989.5095, 390025.3
989.9916, 390141.2
990.4737, 389853.4
990.9558, 389674.5
991.4379, 389659.6
991.9200, 389785.0
992.4022, 390111.1
992.8843, 390562.7
993.3664, 390779.3
993.8485, 390650.0
994.3306, 390555.4
994.8127, 390854.8
995.2949, 391239.3
995.7770, 391420.4
996.2591, 391351.1
996.7412, 391330.1
997.2233, 391357.6
997.7054, 391433.6
998.1876, 391599.2
998.6697, 391796.7
999.1518, 391866.7
999.6339, 391847.8
1000.116, 391895.3
1000.598, 392312.3
1001.080, 392531.3
1001.562, 392109.8
1002.044, 391483.6
1002.527, 391497.8
1003.009, 392204.6
1003.491, 392809.1
1003.973, 393163.2
1004.455, 393364.9
1004.937, 393469.1
1005.419, 393503.2
1005.901, 393484.2
1006.384, 393389.3
1006.866, 393354.6
1007.348, 393400.3
1007.830, 393498.7
1008.312, 393666.3
1008.794, 393877.1
1009.276, 393957.6
1009.758, 393922.0
1010.240, 393893.8
1010.723, 393917.4
1011.205, 393998.2
1011.687, 394198.4
1012.169, 394452.9
1012.651, 394570.1
1013.133, 394446.2
1013.615, 394513.1
1014.097, 394893.8
1014.580, 395328.1
1015.062, 395412.3
1015.544, 395297.4
1016.026, 395285.6
1016.508, 395457.4
1016.990, 395582.1
1017.472, 395466.6
1017.954, 395373.1
1018.436, 395472.0
1018.919, 395750.4
1019.401, 395928.9
1019.883, 396007.3
1020.365, 396095.5
1020.847, 396304.3
1021.329, 396513.5
1021.811, 396561.7
1022.293, 396518.5
1022.776, 396559.3
1023.258, 396808.2
1023.740, 396986.1
1024.222, 397039.5
1024.704, 397057.7
1025.186, 397210.8
1025.668, 397433.0
1026.150, 397440.7
1026.632, 397173.1
1027.115, 396997.9
1027.597, 397290.3
1028.079, 397621.3
1028.561, 397645.3
1029.043, 397380.9
1029.525, 397371.4
1030.007, 397643.7
1030.489, 397952.9
1030.972, 398224.7
1031.454, 398427.8
1031.936, 398494.2
1032.418, 398465.7
1032.900, 398431.1
1033.382, 398390.2
1033.864, 398385.9
1034.346, 398420.4
1034.828, 398492.0
1035.311, 398603.0
1035.793, 398751.1
1036.275, 398915.9
1036.757, 399097.3
1037.239, 399295.6
1037.721, 399556.3
1038.203, 399795.8
1038.685, 399949.7
1039.167, 400020.3
1039.650, 400061.7
1040.132, 400074.0
1040.614, 400041.8
1041.096, 399915.8
1041.578, 399819.1
1042.060, 400001.4
1042.542, 400346.3
1043.024, 400639.0
1043.507, 400796.6
1043.989, 400931.8
1044.471, 401092.0
1044.953, 401210.0
1045.435, 401198.2
1045.917, 401073.8
1046.399, 401058.4
1046.881, 401155.7
1047.364, 401343.3
1047.846, 401787.1
1048.328, 402149.1
1048.810, 402074.4
1049.292, 401697.6
1049.774, 401655.0
1050.256, 402081.4
1050.738, 402366.8
1051.220, 402358.8
1051.703, 402247.0
1052.185, 402317.2
1052.667, 402467.3
1053.149, 402489.9
1053.631, 402283.8
1054.113, 402243.0
1054.595, 402559.4
1055.077, 402975.9
1055.559, 403454.3
1056.042, 403935.5
1056.524, 403929.2
1057.006, 403496.8
1057.488, 403139.4
1057.970, 403091.2
1058.452, 403244.5
1058.934, 403661.7
1059.416, 404198.5
1059.899, 404579.2
1060.381, 404773.5
1060.863, 404908.4
1061.345, 404993.3
1061.827, 405023.8
1062.309, 404929.9
1062.791, 404812.3
1063.273, 404853.9
1063.755, 405064.5
1064.238, 405216.4
1064.720, 405125.7
1065.202, 405132.5
1065.684, 405360.8
1066.166, 405735.7
1066.648, 406116.6
1067.130, 406465.4
1067.612, 406599.9
1068.094, 406335.9
1068.577, 406148.6
1069.059, 406446.0
1069.541, 406876.0
1070.023, 407083.3
1070.505, 407011.6
1070.987, 407024.3
1071.469, 407126.4
1071.951, 407264.5
1072.434, 407436.5
1072.916, 407599.8
1073.398, 407697.3
1073.880, 407743.3
1074.362, 407790.2
1074.844, 407844.8
1075.326, 407899.9
1075.808, 407925.8
1076.291, 408005.0
1076.773, 408344.9
1077.255, 408824.9
1077.737, 409060.3
1078.219, 408983.3
1078.701, 408902.1
1079.183, 408948.0
1079.665, 409058.4
1080.147, 409222.6
1080.630, 409421.0
1081.112, 409517.1
1081.594, 409515.7
1082.076, 409573.7
1082.558, 409774.2
1083.040, 410009.1
1083.522, 410191.3
1084.004, 410344.7
1084.486, 410505.6
1084.969, 410718.0
1085.451, 410794.3
1085.933, 410670.2
1086.415, 410650.2
1086.897, 411129.3
1087.379, 411786.8
1087.861, 412025.0
1088.343, 411918.3
1088.826, 411833.5
1089.308, 411858.8
1089.790, 411990.4
1090.272, 412274.8
1090.754, 412601.6
1091.236, 412768.6
1091.718, 412819.9
1092.200, 412972.3
1092.682, 413263.2
1093.165, 413560.2
1093.647, 413830.8
1094.129, 414031.5
1094.611, 414100.6
1095.093, 414068.8
1095.575, 414165.5
1096.057, 414397.2
1096.539, 414594.7
1097.022, 414673.7
1097.504, 414729.8
1097.986, 414861.3
1098.468, 415030.5
1098.950, 415177.6
1099.432, 415255.6
1099.914, 415423.9
1100.396, 415691.8
1100.879, 416009.7
1101.361, 416443.1
1101.843, 416853.7
1102.325, 416863.9
1102.807, 416596.7
1103.289, 416515.8
1103.771, 416993.9
1104.253, 417404.2
1104.735, 417613.2
1105.218, 417747.5
1105.700, 417980.9
1106.182, 418295.3
1106.664, 418601.1
1107.146, 418892.4
1107.628, 419154.2
1108.110, 419390.7
1108.592, 419584.5
1109.074, 419701.8
1109.557, 419769.5
1110.039, 419877.2
1110.521, 420025.3
1111.003, 420245.7
1111.485, 420556.2
1111.967, 420907.7
1112.449, 421316.4
1112.931, 421697.6
1113.414, 421952.8
1113.896, 422053.0
1114.378, 422098.6
1114.860, 422055.6
1115.342, 422113.1
1115.824, 422521.8
1116.306, 422972.6
1116.788, 422831.4
1117.271, 422362.5
1117.753, 422154.5
1118.235, 422765.3
1118.717, 423066.8
1119.199, 422877.3
1119.681, 422582.5
1120.163, 422583.5
1120.645, 422783.5
1121.127, 422893.8
1121.609, 422912.0
1122.092, 422950.6
1122.574, 423085.2
1123.056, 423227.4
1123.538, 423357.5
1124.020, 423469.7
1124.502, 423529.3
1124.984, 423549.1
1125.466, 423675.6
1125.949, 423956.2
1126.431, 424141.3
1126.913, 423914.5
1127.395, 423647.4
1127.877, 423649.2
1128.359, 423877.6
1128.841, 423940.4
1129.323, 423823.1
1129.806, 423815.5
1130.288, 424062.6
1130.770, 424375.3
1131.252, 424645.6
1131.734, 424825.9
1132.216, 424814.8
1132.698, 424500.2
1133.180, 424412.9
1133.662, 424610.7
1134.145, 424794.8
1134.627, 424675.9
1135.109, 424493.1
1135.591, 424717.0
1136.073, 425180.0
1136.555, 425451.6
1137.037, 425166.1
1137.519, 425067.7
1138.001, 425271.0
1138.484, 425517.9
1138.966, 425498.0
1139.448, 425324.4
1139.930, 425240.5
1140.412, 425264.3
1140.894, 425410.3
1141.376, 425870.1
1141.858, 426212.3
1142.341, 426302.2
1142.823, 426247.3
1143.305, 426209.8
1143.787, 426198.6
1144.269, 426264.0
1144.751, 426420.4
1145.233, 426585.7
1145.715, 426780.6
1146.198, 426898.5
1146.680, 426860.3
1147.162, 426706.8
1147.644, 426619.4
1148.126, 426596.7
1148.608, 426615.7
1149.090, 426653.3
1149.572, 426772.2
1150.054, 427186.0
1150.536, 427583.3
1151.019, 427620.3
1151.501, 427256.3
1151.983, 427090.8
1152.465, 427126.3
1152.947, 427264.1
1153.429, 427505.5
1153.911, 427763.4
1154.393, 427979.5
1154.876, 428144.3
1155.358, 428227.1
1155.840, 428182.9
1156.322, 428201.8
1156.804, 428290.9
1157.286, 428422.6
1157.768, 428585.0
1158.250, 428770.2
1158.733, 428999.1
1159.215, 429245.4
1159.697, 429421.4
1160.179, 429553.6
1160.661, 429503.6
1161.143, 429185.9
1161.625, 428880.7
1162.107, 428969.4
1162.589, 429262.6
1163.072, 429432.7
1163.554, 429463.9
1164.036, 429557.4
1164.518, 429788.1
1165.000, 430051.9
1165.482, 430365.8
1165.964, 430636.0
1166.446, 430616.5
1166.928, 430436.3
1167.411, 430396.1
1167.893, 430570.8
1168.375, 430742.5
1168.857, 430876.6
1169.339, 430947.8
1169.821, 430934.9
1170.303, 430857.7
1170.785, 430692.8
1171.268, 430508.0
1171.750, 430547.0
1172.232, 430991.6
1172.714, 431392.7
1173.196, 431502.3
1173.678, 431579.4
1174.160, 431804.8
1174.642, 432135.1
1175.125, 432223.8
1175.607, 432115.5
1176.089, 432049.7
1176.571, 432138.3
1177.053, 432296.4
1177.535, 432608.3
1178.017, 432878.8
1178.499, 432885.9
1178.981, 432634.1
1179.464, 432530.2
1179.946, 432569.1
1180.428, 432592.8
1180.910, 432319.5
1181.392, 432203.3
1181.874, 432660.5
1182.356, 433346.0
1182.838, 433723.4
1183.320, 433784.3
1183.803, 433888.4
1184.285, 434067.1
1184.767, 434193.1
1185.249, 434012.9
1185.731, 433898.4
1186.213, 434241.8
1186.695, 434837.1
1187.177, 435069.4
1187.660, 434909.2
1188.142, 434829.7
1188.624, 434906.0
1189.106, 435086.8
1189.588, 435446.0
1190.070, 435792.4
1190.552, 435930.5
1191.034, 435892.9
1191.516, 435992.0
1191.999, 436258.7
1192.481, 436311.5
1192.963, 435968.2
1193.445, 435711.2
1193.927, 436259.8
1194.409, 436977.5
1194.891, 437140.3
1195.373, 436690.2
1195.855, 436547.0
1196.338, 436747.6
1196.820, 436931.1
1197.302, 436961.5
1197.784, 436906.2
1198.266, 436728.3
1198.748, 436566.0
1199.230, 436637.1
1199.712, 437018.8
1200.195, 437207.4
1200.677, 437168.6
1201.159, 437181.2
1201.641, 437429.1
1202.123, 437757.2
1202.605, 437987.7
1203.087, 438174.4
1203.569, 438439.9
1204.052, 438947.1
1204.534, 438999.4
1205.016, 438502.6
1205.498, 438117.7
1205.980, 438463.0
1206.462, 439033.4
1206.944, 439249.8
1207.426, 439238.3
1207.908, 439290.0
1208.391, 439471.3
1208.873, 439597.5
1209.355, 439644.5
1209.837, 439731.4
1210.319, 440037.0
1210.801, 440376.8
1211.283, 440512.6
1211.765, 440495.2
1212.247, 440530.3
1212.730, 440696.3
1213.212, 440699.3
1213.694, 440473.3
1214.176, 440255.0
1214.658, 440251.4
1215.140, 440395.3
1215.622, 440670.8
1216.104, 441039.9
1216.587, 441282.5
1217.069, 441307.0
1217.551, 441525.5
1218.033, 442065.0
1218.515, 442551.3
1218.997, 442462.3
1219.479, 442161.6
1219.961, 442040.6
1220.443, 442128.6
1220.926, 442252.7
1221.408, 442397.8
1221.890, 442628.4
1222.372, 443009.3
1222.854, 443303.2
1223.336, 443117.9
1223.818, 442755.4
1224.300, 442516.4
1224.782, 442449.2
1225.265, 442639.2
1225.747, 443162.9
1226.229, 443555.5
1226.711, 443636.3
1227.193, 443634.8
1227.675, 443813.0
1228.157, 444078.1
1228.639, 444340.0
1229.122, 444595.4
1229.604, 444721.7
1230.086, 444693.8
1230.568, 444721.2
1231.050, 444940.9
1231.532, 445131.2
1232.014, 444948.1
1232.496, 444635.8
1232.979, 444455.3
1233.461, 444405.6
1233.943, 444786.8
1234.425, 445657.2
1234.907, 446340.0
1235.389, 446454.8
1235.871, 446345.0
1236.353, 446165.3
1236.835, 446073.4
1237.318, 446378.7
1237.800, 447201.3
1238.282, 447372.5
1238.764, 446854.9
1239.246, 446426.4
1239.728, 446566.1
1240.210, 446914.8
1240.692, 447275.5
1241.175, 447608.9
1241.657, 447856.3
1242.139, 448008.5
1242.621, 448172.2
1243.103, 448349.6
1243.585, 448423.7
1244.067, 448202.3
1244.549, 447986.3
1245.031, 447960.7
1245.514, 448081.0
1245.996, 448276.3
1246.478, 448555.2
1246.960, 448859.5
1247.442, 449183.8
1247.924, 449431.5
1248.406, 449424.7
1248.888, 449448.1
1249.370, 449773.7
1249.853, 450154.4
1250.335, 450214.5
1250.817, 449970.0
1251.299, 449961.6
1251.781, 450201.7
1252.263, 450512.1
1252.745, 450949.6
1253.227, 451231.7
1253.710, 451126.1
1254.192, 450883.4
1254.674, 450795.6
1255.156, 450848.2
1255.638, 450951.3
1256.120, 451096.0
1256.602, 451251.4
1257.084, 451420.0
1257.567, 451566.0
1258.049, 451632.4
1258.531, 451724.9
1259.013, 452048.0
1259.495, 452521.1
1259.977, 452853.2
1260.459, 453027.8
1260.941, 453140.2
1261.423, 453228.6
1261.906, 453238.0
1262.388, 453076.0
1262.870, 452965.7
1263.352, 453349.8
1263.834, 453996.8
1264.316, 454370.8
1264.798, 454434.8
1265.280, 454424.3
1265.762, 454279.2
1266.245, 454305.0
1266.727, 454626.3
1267.209, 454975.6
1267.691, 454894.3
1268.173, 454635.8
1268.655, 454629.8
1269.137, 454901.9
1269.619, 455177.8
1270.102, 455396.3
1270.584, 455716.1
1271.066, 456225.7
1271.548, 456648.3
1272.030, 456489.4
1272.512, 456132.2
1272.994, 456040.4
1273.476, 456238.3
1273.958, 456346.7
1274.441, 456313.8
1274.923, 456401.2
1275.405, 456687.9
1275.887, 457005.2
1276.369, 457170.0
1276.851, 457286.1
1277.333, 457457.2
1277.815, 457672.2
1278.297, 457838.9
1278.780, 457956.4
1279.262, 457985.2
1279.744, 457885.0
1280.226, 457882.4
1280.708, 458289.7
1281.190, 458745.8
1281.672, 458972.8
1282.154, 459037.0
1282.637, 459203.2
1283.119, 459448.3
1283.601, 459496.3
1284.083, 459243.3
1284.565, 459141.3
1285.047, 459680.1
1285.529, 460201.7
1286.011, 460388.6
1286.494, 460327.6
1286.976, 460201.0
1287.458, 460033.2
1287.940, 459889.3
1288.422, 459770.3
1288.904, 459780.8
1289.386, 460079.4
1289.868, 460360.3
1290.350, 460533.8
1290.833, 460618.1
1291.315, 460566.1
1291.797, 460477.0
1292.279, 460566.5
1292.761, 460895.7
1293.243, 461213.7
1293.725, 461526.0
1294.207, 461720.8
1294.689, 461731.1
1295.172, 461682.7
1295.654, 461711.2
1296.136, 461820.6
1296.618, 462075.0
1297.100, 462504.2
1297.582, 462661.0
1298.064, 462522.5
1298.546, 462222.9
1299.029, 461711.6
1299.511, 461351.7
1299.993, 461701.8
1300.475, 462261.3
1300.957, 462519.7
1301.439, 462513.1
1301.921, 462633.5
1302.403, 462872.3
1302.885, 462933.7
1303.368, 462673.5
1303.850, 462498.1
1304.332, 462772.0
1304.814, 463154.9
1305.296, 463474.3
1305.778, 463705.8
1306.260, 463680.1
1306.742, 463486.3
1307.224, 463508.4
1307.707, 463882.3
1308.189, 464231.8
1308.671, 464444.7
1309.153, 464529.9
1309.635, 464439.3
1310.117, 464280.4
1310.599, 464274.6
1311.081, 464375.8
1311.564, 464509.1
1312.046, 464669.2
1312.528, 464758.8
1313.010, 464714.3
1313.492, 464779.9
1313.974, 465079.3
1314.456, 465421.8
1314.938, 465567.4
##END=



