##NAMES=Chernovite-(Y)
##RRUFFID=R070368
##IDEAL CHEMISTRY=YAs^5+^O_4_
##LOCALITY=Squaw Creek mine, Taylor Creek Tin District (Black Range Tin District), Sierra County, New Mexico, USA
##OWNER=RRUFF
##SOURCE=Michael Scott
##DESCRIPTION=Pale yellow pseudo-octahedral crystals associated with quartz and cassiterite
##STATUS=The identification of this mineral has been confirmed only by single crystal X-ray diffraction.
##URL=rruff.info/R070368
121.0194, 10508.42
121.5015, 11153.25
121.9836, 11854.39
122.4658, 12591.20
122.9479, 13389.37
123.4300, 14276.71
123.9121, 15269.00
124.3942, 16355.33
124.8763, 17500.91
125.3585, 18726.73
125.8406, 20003.54
126.3227, 21337.72
126.8048, 22705.97
127.2869, 24094.97
127.7690, 25487.69
128.2512, 26895.57
128.7333, 28315.54
129.2154, 29754.44
129.6975, 31197.41
130.1796, 32619.76
130.6617, 34045.80
131.1439, 35510.43
131.6260, 37044.92
132.1081, 38629.05
132.5902, 40102.46
133.0723, 41421.27
133.5544, 42665.15
134.0366, 43808.25
134.5187, 44883.62
135.0008, 45933.93
135.4829, 46974.68
135.9650, 48010.05
136.4471, 49148.82
136.9293, 50305.25
137.4114, 51634.22
137.8935, 53184.14
138.3756, 54946.79
138.8577, 56910.48
139.3398, 59067.70
139.8220, 61424.40
140.3041, 63975.77
140.7862, 66647.02
141.2683, 69526.10
141.7504, 72667.45
142.2325, 76043.94
142.7147, 79560.40
143.1968, 83175.02
143.6789, 86878.12
144.1610, 90641.05
144.6431, 94545.98
145.1252, 98419.99
145.6074, 102167.4
146.0895, 105788.7
146.5716, 109341.1
147.0537, 112891.6
147.5358, 116420.0
148.0179, 119729.9
148.5001, 122885.0
148.9822, 125780.2
149.4643, 128327.9
149.9464, 130542.4
150.4285, 132509.2
150.9106, 134280.6
151.3928, 135841.5
151.8749, 137282.4
152.3570, 138553.5
152.8391, 139737.2
153.3212, 140902.4
153.8033, 142050.3
154.2855, 143191.8
154.7676, 144303.0
155.2497, 145415.1
155.7318, 146646.0
156.2139, 148016.5
156.6960, 149514.5
157.1782, 151106.9
157.6603, 152777.5
158.1424, 154619.5
158.6245, 156731.3
159.1066, 159069.3
159.5887, 161574.6
160.0709, 164233.3
160.5530, 167045.5
161.0351, 170011.4
161.5172, 173139.2
161.9993, 176339.5
162.4814, 179561.7
162.9636, 182795.9
163.4457, 186099.1
163.9278, 189510.2
164.4099, 192977.8
164.8920, 196383.4
165.3741, 199717.4
165.8563, 202993.4
166.3384, 206218.3
166.8205, 209394.2
167.3026, 212521.9
167.7847, 215600.2
168.2668, 218643.2
168.7490, 221715.8
169.2311, 224896.6
169.7132, 227950.8
170.1953, 230722.8
170.6774, 233309.7
171.1595, 235848.3
171.6417, 238378.9
172.1238, 240910.1
172.6059, 243459.2
173.0880, 246021.5
173.5701, 248619.2
174.0522, 251259.2
174.5344, 253955.6
175.0165, 256700.5
175.4986, 259524.4
175.9807, 262389.4
176.4628, 265192.7
176.9449, 267790.9
177.4271, 270615.8
177.9092, 273948.7
178.3913, 277536.5
178.8734, 281015.6
179.3555, 284203.7
179.8376, 287221.3
180.3197, 290477.2
180.8019, 294109.3
181.2840, 297744.9
181.7661, 301273.1
182.2482, 304740.3
182.7303, 308176.5
183.2124, 311594.5
183.6946, 315000.8
184.1767, 318411.7
184.6588, 321765.1
185.1409, 325203.3
185.6230, 328847.3
186.1051, 332533.7
186.5873, 336079.5
187.0694, 339384.8
187.5515, 342538.3
188.0336, 345862.5
188.5157, 349447.2
188.9978, 353013.3
189.4800, 356507.8
189.9621, 359926.5
190.4442, 363296.3
190.9263, 366600.2
191.4084, 369863.5
191.8905, 373151.0
192.3727, 376540.8
192.8548, 379829.8
193.3369, 382982.4
193.8190, 386049.4
194.3011, 389079.4
194.7832, 392090.9
195.2654, 395089.3
195.7475, 398062.2
196.2296, 401059.6
196.7117, 403971.5
197.1938, 406757.3
197.6759, 409487.5
198.1581, 412258.3
198.6402, 415104.3
199.1223, 417875.3
199.6044, 420269.3
200.0865, 422105.6
200.5686, 423908.0
201.0508, 425861.3
201.5329, 427732.3
202.0150, 429308.7
202.4971, 430544.9
202.9792, 431549.1
203.4613, 432505.2
203.9435, 433475.4
204.4256, 434233.9
204.9077, 434770.8
205.3898, 435135.8
205.8719, 435318.6
206.3540, 435336.1
206.8362, 435275.0
207.3183, 435286.1
207.8004, 435508.5
208.2825, 435429.1
208.7646, 434972.8
209.2467, 434315.2
209.7289, 433498.3
210.2110, 432559.9
210.6931, 431567.3
211.1752, 430595.2
211.6573, 429656.3
212.1395, 428711.8
212.6216, 427854.5
213.1037, 426920.4
213.5858, 425784.2
214.0679, 424478.8
214.5500, 423151.4
215.0322, 421958.8
215.5143, 420936.8
215.9964, 419830.9
216.4785, 418578.6
216.9606, 417296.5
217.4427, 416038.9
217.9249, 414788.3
218.4070, 413474.1
218.8891, 412020.7
219.3712, 410422.0
219.8533, 408906.8
220.3354, 407591.8
220.8176, 406248.0
221.2997, 404818.9
221.7818, 403312.6
222.2639, 401758.3
222.7460, 400190.8
223.2281, 398592.3
223.7103, 396912.5
224.1924, 395092.5
224.6745, 393238.6
225.1566, 391313.0
225.6387, 389374.8
226.1208, 387505.4
226.6030, 385760.4
227.0851, 384117.0
227.5672, 382478.6
228.0493, 380778.4
228.5314, 379172.8
229.0135, 377652.5
229.4957, 376250.8
229.9778, 375008.5
230.4599, 373945.1
230.9420, 373037.9
231.4241, 372220.2
231.9062, 371461.1
232.3884, 370872.4
232.8705, 370448.7
233.3526, 370181.8
233.8347, 370175.9
234.3168, 370446.3
234.7989, 370691.6
235.2811, 370418.0
235.7632, 369595.1
236.2453, 368271.6
236.7274, 366158.8
237.2095, 363812.2
237.6916, 361521.9
238.1738, 359373.1
238.6559, 357345.7
239.1380, 355368.4
239.6201, 353364.6
240.1022, 351696.9
240.5843, 350542.9
241.0665, 349593.3
241.5486, 348716.9
242.0307, 347903.5
242.5128, 347213.7
242.9949, 346755.3
243.4770, 346557.4
243.9592, 346228.7
244.4413, 345591.3
244.9234, 344981.8
245.4055, 344533.6
245.8876, 344217.4
246.3697, 343937.8
246.8519, 343618.7
247.3340, 343269.7
247.8161, 342994.4
248.2982, 342791.9
248.7803, 342675.9
249.2624, 342726.4
249.7446, 342844.2
250.2267, 342848.1
250.7088, 342587.5
251.1909, 342209.2
251.6730, 342167.7
252.1551, 342644.2
252.6373, 343096.7
253.1194, 343267.1
253.6015, 343358.2
254.0836, 343605.7
254.5657, 344114.0
255.0478, 344731.6
255.5300, 345201.0
256.0121, 345464.8
256.4942, 345794.7
256.9763, 346279.9
257.4584, 346855.8
257.9406, 347502.8
258.4227, 348218.5
258.9048, 348963.5
259.3869, 349734.2
259.8690, 350537.2
260.3511, 351225.1
260.8333, 351629.7
261.3154, 352042.5
261.7975, 352677.6
262.2796, 353535.9
262.7617, 354480.0
263.2438, 355459.3
263.7260, 356461.3
264.2081, 357388.9
264.6902, 358175.6
265.1723, 358974.8
265.6544, 359890.2
266.1365, 360907.0
266.6187, 361971.9
267.1008, 363076.4
267.5829, 364209.9
268.0650, 365343.4
268.5471, 366464.0
269.0292, 367619.8
269.5114, 368878.1
269.9935, 370186.1
270.4756, 371463.5
270.9577, 372643.1
271.4398, 373821.0
271.9219, 375132.8
272.4041, 376585.8
272.8862, 378007.1
273.3683, 379291.7
273.8504, 380497.6
274.3325, 381733.0
274.8146, 383008.5
275.2968, 384308.5
275.7789, 385662.2
276.2610, 387042.1
276.7431, 388344.3
277.2252, 389524.5
277.7073, 390618.9
278.1895, 391672.8
278.6716, 392661.7
279.1537, 393714.8
279.6358, 394986.6
280.1179, 396327.3
280.6000, 397472.3
281.0822, 398362.6
281.5643, 399079.0
282.0464, 399674.6
282.5285, 400132.5
283.0106, 400646.1
283.4927, 401361.6
283.9749, 402062.1
284.4570, 402553.5
284.9391, 402822.7
285.4212, 402965.5
285.9033, 403042.5
286.3854, 403051.9
286.8676, 403044.0
287.3497, 403036.3
287.8318, 402996.5
288.3139, 402926.9
288.7960, 402814.0
289.2781, 402618.1
289.7603, 402309.2
290.2424, 401913.7
290.7245, 401548.2
291.2066, 401161.1
291.6887, 400863.2
292.1708, 400759.2
292.6530, 400722.7
293.1351, 400596.6
293.6172, 400326.1
294.0993, 399963.8
294.5814, 399596.2
295.0635, 399161.7
295.5457, 398848.7
296.0278, 398710.6
296.5099, 398646.7
296.9920, 398620.9
297.4741, 398609.5
297.9562, 398558.5
298.4384, 398381.2
298.9205, 398023.1
299.4026, 397928.3
299.8847, 398321.6
300.3668, 398744.6
300.8489, 399091.6
301.3310, 399345.3
301.8131, 399497.5
302.2953, 399530.5
302.7774, 399471.2
303.2595, 399461.3
303.7416, 399566.2
304.2237, 399622.2
304.7058, 399708.7
305.1880, 399687.8
305.6701, 399371.2
306.1522, 398682.3
306.6343, 397815.6
307.1164, 397091.8
307.5985, 396561.2
308.0807, 395996.9
308.5628, 395446.9
309.0449, 394786.9
309.5270, 393909.4
310.0091, 392813.8
310.4912, 391640.3
310.9734, 390597.9
311.4555, 389644.6
311.9376, 388295.9
312.4197, 386334.3
312.9018, 384229.6
313.3839, 382255.0
313.8661, 380375.6
314.3482, 378527.0
314.8303, 376728.9
315.3124, 374921.0
315.7945, 372978.9
316.2766, 370887.3
316.7588, 368766.3
317.2409, 366674.9
317.7230, 364615.4
318.2051, 362605.3
318.6872, 360694.2
319.1693, 358770.7
319.6515, 356709.8
320.1336, 354563.5
320.6157, 352533.1
321.0978, 350718.7
321.5799, 349023.3
322.0620, 347264.0
322.5442, 345436.1
323.0263, 343641.6
323.5084, 341898.2
323.9905, 340201.5
324.4726, 338542.1
324.9547, 336911.3
325.4369, 335327.7
325.9190, 333815.6
326.4011, 332384.3
326.8832, 330934.8
327.3653, 329392.7
327.8474, 327893.7
328.3296, 326493.3
328.8117, 325194.0
329.2938, 324020.7
329.7759, 323003.1
330.2580, 322082.6
330.7401, 321026.1
331.2223, 319715.5
331.7044, 318407.4
332.1865, 317042.6
332.6686, 315727.9
333.1507, 314588.7
333.6328, 313661.2
334.1150, 312866.5
334.5971, 312101.3
335.0792, 311425.3
335.5613, 310618.2
336.0434, 309577.4
336.5255, 308514.5
337.0077, 307497.4
337.4898, 306554.4
337.9719, 305715.8
338.4540, 305027.5
338.9361, 304471.8
339.4182, 303889.2
339.9004, 303279.1
340.3825, 302645.0
340.8646, 301932.0
341.3467, 301215.2
341.8288, 300594.5
342.3109, 300109.7
342.7931, 299708.8
343.2752, 299304.5
343.7573, 298883.3
344.2394, 298557.5
344.7215, 298460.1
345.2036, 298382.7
345.6858, 298155.5
346.1679, 297771.3
346.6500, 297340.5
347.1321, 296880.6
347.6142, 296428.0
348.0963, 296091.9
348.5785, 295902.2
349.0606, 295767.6
349.5427, 295620.3
350.0248, 295471.1
350.5069, 295356.8
350.9890, 295301.9
351.4712, 295269.1
351.9533, 295255.7
352.4354, 295248.3
352.9175, 295170.9
353.3996, 294972.0
353.8817, 294699.2
354.3639, 294472.9
354.8460, 294292.6
355.3281, 294147.2
355.8102, 294078.3
356.2923, 294023.5
356.7744, 293915.0
357.2566, 293736.8
357.7387, 293499.5
358.2208, 293198.9
358.7029, 292801.5
359.1850, 292535.0
359.6671, 292515.7
360.1493, 292492.2
360.6314, 292367.4
361.1135, 292149.3
361.5956, 291859.1
362.0777, 291497.8
362.5598, 291107.8
363.0420, 290846.3
363.5241, 290809.4
364.0062, 290752.5
364.4883, 290735.9
364.9704, 290635.8
365.4525, 290273.4
365.9347, 289643.0
366.4168, 289007.6
366.8989, 288707.7
367.3810, 288766.8
367.8631, 288723.7
368.3452, 288485.2
368.8274, 288230.4
369.3095, 288038.9
369.7916, 287901.8
370.2737, 287803.4
370.7558, 287793.8
371.2379, 287771.4
371.7201, 287503.3
372.2022, 286953.2
372.6843, 286518.5
373.1664, 286476.2
373.6485, 286580.2
374.1306, 286456.5
374.6128, 286056.0
375.0949, 285565.8
375.5770, 285029.8
376.0591, 284483.8
376.5412, 284009.8
377.0233, 283629.4
377.5055, 283286.3
377.9876, 282936.9
378.4697, 282582.7
378.9518, 282168.7
379.4339, 281677.1
379.9160, 281141.8
380.3982, 280548.6
380.8803, 279927.5
381.3624, 279361.3
381.8445, 278896.7
382.3266, 278509.4
382.8087, 278118.1
383.2909, 277744.2
383.7730, 277339.1
384.2551, 276889.3
384.7372, 276417.9
385.2193, 275931.4
385.7014, 275437.6
386.1836, 274951.9
386.6657, 274482.3
387.1478, 274028.2
387.6299, 273639.1
388.1120, 273355.7
388.5941, 273091.9
389.0763, 272801.3
389.5584, 272515.6
390.0405, 272296.5
390.5226, 272179.0
391.0047, 272105.4
391.4868, 271975.4
391.9690, 271781.0
392.4511, 271616.8
392.9332, 271558.7
393.4153, 271493.0
393.8974, 271305.1
394.3795, 270994.3
394.8617, 270672.3
395.3438, 270363.8
395.8259, 270089.1
396.3080, 269913.8
396.7901, 269851.7
397.2722, 269748.5
397.7544, 269488.5
398.2365, 269092.8
398.7186, 268703.3
399.2007, 268323.4
399.6828, 267949.9
400.1649, 267540.5
400.6471, 267146.9
401.1292, 266880.5
401.6113, 266777.1
402.0934, 266720.1
402.5755, 266526.0
403.0576, 266115.7
403.5398, 265813.8
404.0219, 265811.0
404.5040, 265722.5
404.9861, 265272.6
405.4682, 264566.7
405.9503, 263886.3
406.4325, 263403.7
406.9146, 263089.6
407.3967, 262863.6
407.8788, 262788.6
408.3609, 262672.7
408.8430, 262471.9
409.3252, 262223.2
409.8073, 261961.2
410.2894, 261688.6
410.7715, 261366.8
411.2536, 260914.0
411.7357, 260367.7
412.2179, 259963.7
412.7000, 259788.2
413.1821, 259586.9
413.6642, 259089.9
414.1463, 258447.3
414.6284, 257985.7
415.1106, 257955.0
415.5927, 257885.7
416.0748, 257378.4
416.5569, 256545.4
417.0390, 255727.7
417.5211, 255039.1
418.0033, 254423.1
418.4854, 253805.6
418.9675, 253199.8
419.4496, 252544.9
419.9317, 251828.3
420.4138, 251075.3
420.8960, 250286.2
421.3781, 249471.3
421.8602, 248664.9
422.3423, 247891.7
422.8244, 247124.7
423.3065, 246248.9
423.7887, 245213.0
424.2708, 244135.8
424.7529, 243032.0
425.2350, 241893.6
425.7171, 240707.2
426.1992, 239472.4
426.6814, 238230.0
427.1635, 237009.7
427.6456, 235804.2
428.1277, 234644.6
428.6098, 233537.1
429.0919, 232467.2
429.5741, 231481.5
430.0562, 230507.2
430.5383, 229418.8
431.0204, 228130.0
431.5025, 226844.5
431.9846, 225793.5
432.4668, 224897.0
432.9489, 223853.7
433.4310, 222566.3
433.9131, 221180.3
434.3952, 219836.8
434.8773, 218540.1
435.3595, 217345.4
435.8416, 216350.1
436.3237, 215378.3
436.8058, 214326.4
437.2879, 213206.9
437.7701, 212045.6
438.2522, 210852.3
438.7343, 209653.7
439.2164, 208527.2
439.6985, 207508.3
440.1806, 206506.5
440.6628, 205551.6
441.1449, 204576.0
441.6270, 203510.2
442.1091, 202375.5
442.5912, 201249.0
443.0733, 200176.2
443.5555, 199167.7
444.0376, 198287.9
444.5197, 197591.8
445.0018, 196868.8
445.4839, 195986.6
445.9660, 195057.2
446.4482, 194188.2
446.9303, 193401.6
447.4124, 192633.6
447.8945, 191838.6
448.3766, 191035.2
448.8587, 190257.3
449.3409, 189503.8
449.8230, 188815.3
450.3051, 188255.2
450.7872, 187797.7
451.2693, 187202.0
451.7514, 186268.7
452.2336, 185440.2
452.7157, 184970.7
453.1978, 184655.8
453.6799, 184204.8
454.1620, 183537.1
454.6441, 182788.8
455.1263, 182135.2
455.6084, 181595.8
456.0905, 181044.3
456.5726, 180408.0
457.0547, 179841.0
457.5368, 179462.8
458.0190, 179168.6
458.5011, 178778.3
458.9832, 178201.9
459.4653, 177568.9
459.9474, 177050.3
460.4295, 176648.8
460.9117, 176309.8
461.3938, 176047.4
461.8759, 175813.5
462.3580, 175584.9
462.8401, 175354.0
463.3222, 175069.3
463.8044, 174666.0
464.2865, 174241.2
464.7686, 173899.9
465.2507, 173618.7
465.7328, 173291.7
466.2149, 172866.1
466.6971, 172396.9
467.1792, 172003.0
467.6613, 171762.8
468.1434, 171427.2
468.6255, 170902.1
469.1076, 170364.5
469.5898, 169932.1
470.0719, 169587.8
470.5540, 169262.4
471.0361, 168914.5
471.5182, 168545.2
472.0003, 168141.2
472.4825, 167681.6
472.9646, 167251.5
473.4467, 166924.8
473.9288, 166594.5
474.4109, 166167.4
474.8930, 165652.8
475.3752, 165168.2
475.8573, 164803.8
476.3394, 164503.6
476.8215, 164170.7
477.3036, 163803.2
477.7857, 163435.3
478.2679, 163084.9
478.7500, 162745.0
479.2321, 162395.2
479.7142, 162040.1
480.1963, 161672.9
480.6784, 161251.1
481.1606, 160844.3
481.6427, 160527.7
482.1248, 160295.7
482.6069, 160088.1
483.0890, 159862.0
483.5711, 159618.2
484.0533, 159351.1
484.5354, 159019.8
485.0175, 158733.9
485.4996, 158530.9
485.9817, 158358.1
486.4638, 158163.6
486.9460, 157947.5
487.4281, 157768.0
487.9102, 157730.2
488.3923, 157761.1
488.8744, 157608.2
489.3565, 157235.3
489.8387, 156879.9
490.3208, 156668.8
490.8029, 156549.4
491.2850, 156405.2
491.7671, 156224.3
492.2492, 156051.9
492.7314, 155931.3
493.2135, 155812.7
493.6956, 155614.0
494.1777, 155343.6
494.6598, 155114.2
495.1419, 155025.7
495.6241, 155043.3
496.1062, 154932.8
496.5883, 154531.3
497.0704, 154231.1
497.5525, 154137.8
498.0346, 154108.9
498.5168, 154052.5
498.9989, 153944.5
499.4810, 153773.8
499.9631, 153497.5
500.4452, 153152.2
500.9273, 152899.3
501.4095, 152768.0
501.8916, 152602.8
502.3737, 152318.3
502.8558, 151968.0
503.3379, 151641.1
503.8200, 151346.5
504.3022, 151049.8
504.7843, 150772.6
505.2664, 150467.9
505.7485, 150069.3
506.2306, 149580.9
506.7127, 149074.0
507.1949, 148589.1
507.6770, 148127.3
508.1591, 147699.0
508.6412, 147352.0
509.1233, 146965.0
509.6054, 146543.3
510.0876, 146072.7
510.5697, 145516.5
511.0518, 144894.6
511.5339, 144286.8
512.0161, 143752.0
512.4982, 143272.4
512.9803, 142800.3
513.4624, 142341.5
513.9445, 141871.0
514.4266, 141375.7
514.9088, 140868.3
515.3909, 140365.1
515.8730, 139865.9
516.3551, 139365.4
516.8372, 138856.1
517.3193, 138348.0
517.8015, 137838.9
518.2836, 137335.0
518.7657, 136850.0
519.2478, 136395.3
519.7299, 135952.8
520.2120, 135476.5
520.6942, 134926.9
521.1763, 134416.5
521.6584, 134000.7
522.1405, 133569.4
522.6226, 133057.3
523.1047, 132478.5
523.5869, 131879.0
524.0690, 131260.8
524.5511, 130675.4
525.0332, 130240.8
525.5153, 129955.9
525.9974, 129610.6
526.4796, 129141.3
526.9617, 128619.1
527.4438, 128107.7
527.9259, 127605.6
528.4080, 127124.9
528.8901, 126656.4
529.3723, 126219.5
529.8544, 125846.3
530.3365, 125507.9
530.8186, 125157.7
531.3007, 124777.2
531.7828, 124372.6
532.2650, 123953.8
532.7471, 123523.7
533.2292, 123051.1
533.7113, 122443.1
534.1934, 121898.5
534.6755, 121544.2
535.1577, 121263.0
535.6398, 120878.7
536.1219, 120330.4
536.6040, 119763.8
537.0861, 119323.4
537.5682, 118974.8
538.0504, 118613.3
538.5325, 118229.7
539.0146, 117828.8
539.4967, 117421.4
539.9788, 117001.4
540.4609, 116548.9
540.9431, 116033.6
541.4252, 115525.4
541.9073, 115020.8
542.3894, 114541.1
542.8715, 114115.4
543.3536, 113737.7
543.8358, 113368.8
544.3179, 112976.7
544.8000, 112568.4
545.2821, 112175.7
545.7642, 111805.4
546.2463, 111433.5
546.7285, 111056.4
547.2106, 110675.3
547.6926, 110289.0
548.1747, 109898.3
548.6569, 109503.4
549.1390, 109103.2
549.6211, 108702.9
550.1032, 108317.2
550.5853, 107939.6
551.0674, 107542.9
551.5496, 107107.7
552.0317, 106669.6
552.5138, 106284.3
552.9959, 105960.3
553.4780, 105657.9
553.9601, 105402.8
554.4423, 105137.3
554.9244, 104838.8
555.4065, 104514.1
555.8886, 104172.3
556.3707, 103814.9
556.8528, 103455.1
557.3350, 103090.3
557.8171, 102728.4
558.2992, 102452.4
558.7813, 102305.3
559.2634, 102130.4
559.7455, 101802.5
560.2277, 101368.4
560.7098, 100990.7
561.1919, 100703.2
561.6740, 100413.8
562.1561, 100095.0
562.6382, 99759.59
563.1204, 99404.66
563.6025, 99040.34
564.0846, 98704.52
564.5667, 98426.59
565.0488, 98187.78
565.5309, 97910.15
566.0131, 97585.81
566.4952, 97242.98
566.9773, 96854.27
567.4594, 96472.63
567.9415, 96131.19
568.4236, 95827.30
568.9058, 95541.12
569.3879, 95262.89
569.8700, 94998.22
570.3521, 94732.21
570.8342, 94480.40
571.3163, 94313.25
571.7985, 94259.11
572.2806, 94229.95
572.7627, 94131.80
573.2448, 93968.45
573.7269, 93691.80
574.2090, 93169.48
574.6912, 92693.95
575.1733, 92367.66
575.6554, 92110.70
576.1375, 91815.59
576.6196, 91464.33
577.1017, 91150.26
577.5839, 90993.35
578.0660, 90940.55
578.5481, 90808.45
579.0302, 90587.59
579.5123, 90348.88
579.9944, 90117.25
580.4766, 89893.52
580.9587, 89673.75
581.4408, 89441.77
581.9229, 89270.73
582.4050, 89234.60
582.8871, 89206.40
583.3693, 89097.24
583.8514, 88929.78
584.3335, 88763.36
584.8156, 88626.05
585.2977, 88501.55
585.7798, 88365.60
586.2620, 88218.52
586.7441, 88056.70
587.2262, 87862.03
587.7083, 87679.79
588.1904, 87544.66
588.6725, 87435.99
589.1547, 87317.97
589.6368, 87172.70
590.1189, 87051.50
590.6010, 86994.50
591.0831, 86966.89
591.5652, 86930.85
592.0474, 86880.65
592.5295, 86812.60
593.0116, 86719.56
593.4937, 86621.48
593.9758, 86586.16
594.4579, 86656.39
594.9401, 86688.05
595.4222, 86604.47
595.9043, 86539.34
596.3864, 86576.85
596.8685, 86686.20
597.3506, 86781.48
597.8328, 86820.38
598.3149, 86855.95
598.7970, 86949.80
599.2791, 87076.83
599.7612, 87163.30
600.2433, 87195.14
600.7255, 87231.70
601.2076, 87323.50
601.6897, 87464.91
602.1718, 87610.31
602.6539, 87767.84
603.1360, 87918.02
603.6182, 88017.05
604.1003, 88141.41
604.5824, 88380.81
605.0645, 88707.68
605.5466, 88994.53
606.0287, 89156.05
606.5109, 89256.88
606.9930, 89376.03
607.4751, 89517.41
607.9572, 89717.17
608.4393, 89994.91
608.9214, 90295.34
609.4036, 90560.15
609.8857, 90789.57
610.3678, 91053.94
610.8499, 91368.23
611.3320, 91693.45
611.8141, 92021.93
612.2963, 92357.09
612.7784, 92700.43
613.2605, 93051.98
613.7426, 93405.11
614.2247, 93745.46
614.7068, 94091.61
615.1890, 94490.66
615.6711, 94943.68
616.1532, 95431.86
616.6353, 95961.57
617.1174, 96498.86
617.5995, 96996.88
618.0817, 97455.95
618.5638, 97947.97
619.0459, 98453.38
619.5280, 99016.77
620.0101, 99690.53
620.4922, 100414.9
620.9744, 101122.1
621.4565, 101797.0
621.9386, 102457.2
622.4207, 103108.5
622.9028, 103762.8
623.3849, 104473.6
623.8671, 105259.4
624.3492, 105983.2
624.8313, 106540.5
625.3134, 107091.6
625.7955, 107842.3
626.2776, 108780.3
626.7598, 109711.7
627.2419, 110622.3
627.7240, 111503.4
628.2061, 112333.3
628.6882, 113130.6
629.1703, 113893.5
629.6525, 114632.9
630.1346, 115416.9
630.6167, 116333.5
631.0988, 117348.0
631.5809, 118257.4
632.0630, 119026.4
632.5452, 119845.6
633.0273, 120818.0
633.5094, 121827.1
633.9915, 122738.9
634.4736, 123557.2
634.9557, 124392.0
635.4379, 125228.3
635.9200, 126115.5
636.4021, 127141.4
636.8842, 128213.4
637.3663, 129178.1
637.8484, 130005.7
638.3306, 130790.4
638.8127, 131609.7
639.2948, 132468.3
639.7769, 133401.5
640.2590, 134467.9
640.7411, 135404.1
641.2233, 136060.2
641.7054, 136619.3
642.1875, 137268.5
642.6696, 138002.3
643.1517, 138746.1
643.6339, 139539.1
644.1160, 140280.4
644.5981, 140874.3
645.0802, 141397.4
645.5623, 141981.5
646.0444, 142642.6
646.5266, 143265.3
647.0087, 143732.3
647.4908, 144073.0
647.9729, 144432.9
648.4550, 144829.2
648.9371, 145163.2
649.4193, 145380.3
649.9014, 145556.9
650.3835, 145774.4
650.8656, 146023.7
651.3477, 146243.1
651.8298, 146476.5
652.3120, 146617.7
652.7941, 146598.7
653.2762, 146467.4
653.7583, 146275.7
654.2404, 146039.3
654.7225, 145768.2
655.2047, 145476.5
655.6868, 145149.3
656.1689, 144733.5
656.6510, 144218.1
657.1331, 143687.4
657.6152, 143193.0
658.0974, 142644.1
658.5795, 141938.8
659.0616, 141104.1
659.5437, 140262.6
660.0258, 139435.7
660.5079, 138587.0
660.9901, 137721.0
661.4722, 136817.4
661.9543, 135830.8
662.4364, 134777.1
662.9185, 133720.4
663.4006, 132709.3
663.8828, 131703.6
664.3649, 130599.0
664.8470, 129391.8
665.3291, 128205.4
665.8112, 127050.8
666.2933, 125928.1
666.7755, 124869.5
667.2576, 123844.4
667.7397, 122708.0
668.2218, 121383.2
668.7039, 120080.3
669.1860, 118857.8
669.6682, 117659.6
670.1503, 116425.8
670.6324, 115165.6
671.1145, 113923.0
671.5966, 112714.0
672.0787, 111523.9
672.5609, 110316.2
673.0430, 109095.3
673.5251, 107913.3
674.0072, 106771.5
674.4893, 105661.3
674.9714, 104583.7
675.4536, 103527.6
675.9357, 102479.8
676.4178, 101442.0
676.8999, 100396.9
677.3820, 99341.95
677.8641, 98279.84
678.3463, 97204.79
678.8284, 96134.69
679.3105, 95106.37
679.7926, 94133.31
680.2747, 93166.77
680.7568, 92150.95
681.2390, 91120.00
681.7211, 90161.86
682.2032, 89281.39
682.6853, 88435.65
683.1674, 87610.70
683.6495, 86795.39
684.1317, 85958.95
684.6138, 85087.93
685.0959, 84280.33
685.5780, 83596.91
686.0601, 82893.66
686.5422, 82110.48
687.0244, 81305.46
687.5065, 80537.13
687.9886, 79810.78
688.4707, 79109.16
688.9528, 78424.17
689.4349, 77756.66
689.9171, 77108.26
690.3992, 76478.20
690.8813, 75865.40
691.3634, 75269.44
691.8455, 74684.47
692.3276, 74105.41
692.8098, 73534.27
693.2919, 72999.14
693.7740, 72506.79
694.2561, 72035.40
694.7382, 71618.91
695.2203, 71185.66
695.7025, 70662.74
696.1846, 70075.75
696.6667, 69528.02
697.1488, 69069.13
697.6309, 68618.49
698.1130, 68115.46
698.5952, 67609.15
699.0773, 67181.20
699.5594, 66819.45
700.0415, 66426.70
700.5236, 65935.18
701.0057, 65408.42
701.4879, 64986.32
701.9700, 64673.37
702.4521, 64356.57
702.9342, 64033.88
703.4163, 63684.59
703.8984, 63269.77
704.3806, 62831.07
704.8627, 62469.10
705.3448, 62214.95
705.8269, 61941.43
706.3090, 61615.37
706.7911, 61279.39
707.2733, 60959.43
707.7554, 60646.41
708.2375, 60325.81
708.7196, 59991.65
709.2017, 59650.14
709.6838, 59290.16
710.1660, 58930.82
710.6481, 58632.99
711.1302, 58393.32
711.6123, 58138.05
712.0944, 57836.64
712.5765, 57529.30
713.0587, 57268.50
713.5408, 57057.08
714.0229, 56830.77
714.5050, 56579.05
714.9871, 56328.08
715.4692, 56065.76
715.9514, 55818.09
716.4335, 55632.03
716.9156, 55487.64
717.3977, 55289.45
717.8798, 54963.45
718.3619, 54621.79
718.8441, 54357.82
719.3262, 54136.89
719.8083, 53900.39
720.2904, 53642.25
720.7725, 53382.34
721.2546, 53132.61
721.7368, 52900.88
722.2189, 52711.82
722.7010, 52572.67
723.1831, 52429.34
723.6652, 52289.11
724.1473, 52121.67
724.6295, 51899.41
725.1116, 51642.97
725.5937, 51393.18
726.0758, 51149.94
726.5579, 50918.77
727.0400, 50682.73
727.5222, 50476.24
728.0043, 50338.55
728.4864, 50236.00
728.9685, 50116.60
729.4506, 49966.46
729.9327, 49805.83
730.4149, 49665.72
730.8970, 49523.80
731.3791, 49302.92
731.8612, 49016.56
732.3433, 48804.66
732.8254, 48715.64
733.3076, 48656.17
733.7897, 48532.91
734.2718, 48350.06
734.7539, 48154.59
735.2360, 47909.11
735.7181, 47712.89
736.2003, 47623.55
736.6824, 47540.70
737.1645, 47397.11
737.6466, 47209.15
738.1287, 47026.87
738.6108, 46853.64
739.0930, 46710.29
739.5751, 46640.30
740.0572, 46584.96
740.5393, 46463.88
741.0214, 46292.85
741.5035, 46144.93
741.9857, 46055.62
742.4678, 45986.98
742.9499, 45881.94
743.4320, 45744.11
743.9141, 45622.98
744.3962, 45521.43
744.8784, 45424.56
745.3605, 45331.22
745.8426, 45230.38
746.3247, 45097.80
746.8068, 44924.16
747.2889, 44807.25
747.7711, 44815.38
748.2532, 44787.36
748.7353, 44660.21
749.2174, 44499.39
749.6995, 44353.16
750.1816, 44229.13
750.6638, 44126.24
751.1459, 44049.66
751.6280, 43984.13
752.1101, 43921.72
752.5922, 43858.09
753.0743, 43790.82
753.5565, 43716.52
754.0386, 43614.83
754.5207, 43471.48
755.0028, 43314.53
755.4849, 43203.19
755.9670, 43144.13
756.4492, 43066.79
756.9313, 42960.81
757.4134, 42857.91
757.8955, 42763.86
758.3776, 42685.41
758.8597, 42641.65
759.3419, 42638.30
759.8240, 42607.29
760.3061, 42514.20
760.7882, 42427.14
761.2703, 42379.50
761.7524, 42345.67
762.2346, 42298.64
762.7167, 42235.99
763.1988, 42169.43
763.6809, 42106.28
764.1630, 42040.98
764.6451, 41965.61
765.1273, 41883.00
765.6094, 41795.45
766.0915, 41705.42
766.5736, 41627.75
767.0557, 41572.79
767.5378, 41530.81
768.0200, 41483.83
768.5021, 41434.66
768.9842, 41359.77
769.4663, 41237.61
769.9484, 41136.09
770.4305, 41094.06
770.9127, 41082.58
771.3948, 41065.48
771.8769, 41044.37
772.3590, 41001.23
772.8411, 40926.71
773.3232, 40838.75
773.8054, 40717.61
774.2875, 40604.12
774.7696, 40559.53
775.2517, 40570.87
775.7338, 40552.69
776.2159, 40442.48
776.6981, 40317.23
777.1802, 40284.50
777.6623, 40297.46
778.1444, 40230.84
778.6265, 40082.44
779.1086, 39963.14
779.5908, 39938.14
780.0729, 39958.29
780.5550, 39931.07
781.0371, 39850.39
781.5192, 39787.63
782.0013, 39757.66
782.4835, 39703.44
782.9656, 39583.77
783.4477, 39448.18
783.9298, 39360.26
784.4119, 39320.64
784.8940, 39290.51
785.3762, 39268.38
785.8583, 39255.74
786.3404, 39258.75
786.8225, 39266.91
787.3046, 39282.70
787.7867, 39295.61
788.2689, 39277.74
788.7510, 39213.39
789.2331, 39128.52
789.7152, 39026.63
790.1973, 38927.26
790.6794, 38865.55
791.1616, 38837.00
791.6437, 38812.17
792.1258, 38778.13
792.6079, 38739.82
793.0900, 38697.38
793.5721, 38654.50
794.0543, 38664.43
794.5364, 38744.71
795.0185, 38760.17
795.5006, 38649.77
795.9827, 38510.20
796.4648, 38437.90
796.9470, 38424.86
797.4291, 38387.75
797.9112, 38316.50
798.3933, 38235.12
798.8754, 38076.69
799.3575, 37975.72
799.8397, 38082.60
800.3218, 38281.53
800.8039, 38332.98
801.2860, 38157.74
801.7681, 38011.83
802.2502, 38099.38
802.7324, 38205.31
803.2145, 38106.79
803.6966, 37887.89
804.1787, 37712.71
804.6608, 37626.55
805.1429, 37595.63
805.6251, 37608.34
806.1072, 37634.60
806.5893, 37600.40
807.0714, 37514.77
807.5535, 37450.31
808.0356, 37420.61
808.5178, 37385.02
808.9999, 37310.09
809.4820, 37224.31
809.9641, 37212.16
810.4462, 37318.88
810.9283, 37324.44
811.4105, 37129.13
811.8926, 36996.11
812.3747, 37105.17
812.8568, 37275.99
813.3389, 37287.13
813.8210, 37137.50
814.3032, 37025.19
814.7853, 36991.05
815.2674, 36983.22
815.7495, 36997.99
816.2316, 37020.57
816.7137, 37054.55
817.1959, 37084.08
817.6780, 37059.05
818.1601, 36941.74
818.6422, 36846.09
819.1243, 36903.08
819.6064, 37024.08
820.0886, 37072.82
820.5707, 37057.23
821.0528, 37036.03
821.5349, 37030.85
822.0170, 37035.03
822.4991, 37042.19
822.9813, 37051.97
823.4634, 37060.40
823.9455, 37066.84
824.4276, 37087.05
824.9097, 37125.41
825.3918, 37174.45
825.8740, 37231.43
826.3561, 37292.61
826.8382, 37343.17
827.3203, 37367.57
827.8024, 37417.35
828.2845, 37504.13
828.7667, 37602.58
829.2488, 37710.05
829.7309, 37820.30
830.2130, 37931.72
830.6951, 38043.86
831.1772, 38129.32
831.6594, 38145.53
832.1415, 38177.89
832.6236, 38284.30
833.1057, 38409.69
833.5878, 38507.82
834.0699, 38572.16
834.5521, 38604.94
835.0342, 38603.92
835.5163, 38590.57
835.9984, 38577.58
836.4805, 38569.06
836.9626, 38575.38
837.4448, 38592.73
837.9269, 38622.75
838.4090, 38661.74
838.8911, 38644.68
839.3732, 38485.25
839.8553, 38230.14
840.3375, 38049.86
840.8196, 37945.62
841.3017, 37854.78
841.7838, 37766.77
842.2659, 37690.64
842.7480, 37637.01
843.2302, 37592.94
843.7123, 37523.92
844.1944, 37420.90
844.6765, 37322.27
845.1586, 37224.79
845.6407, 37136.63
846.1229, 37040.90
846.6050, 36969.39
847.0871, 36967.58
847.5692, 37029.28
848.0513, 37074.21
848.5334, 37077.03
849.0156, 37081.63
849.4977, 37111.39
849.9798, 37137.07
850.4619, 37114.13
850.9440, 37074.04
851.4261, 37087.56
851.9083, 37178.17
852.3904, 37293.91
852.8725, 37414.89
853.3546, 37532.97
853.8367, 37645.21
854.3188, 37747.13
854.8010, 37819.05
855.2831, 37865.54
855.7652, 37933.49
856.2473, 38060.87
856.7294, 38217.69
857.2115, 38347.04
857.6937, 38458.50
858.1758, 38597.07
858.6579, 38766.75
859.1400, 38946.69
859.6221, 39125.78
860.1042, 39325.55
860.5864, 39584.16
861.0685, 39897.68
861.5506, 40187.90
862.0327, 40439.26
862.5148, 40728.47
862.9969, 41073.41
863.4791, 41465.10
863.9612, 41906.94
864.4433, 42388.77
864.9254, 42865.93
865.4075, 43326.07
865.8896, 43810.97
866.3718, 44312.15
866.8539, 44850.53
867.3360, 45413.49
867.8181, 46030.73
868.3002, 46744.66
868.7823, 47552.22
869.2645, 48381.04
869.7466, 49208.85
870.2287, 50053.77
870.7108, 50920.80
871.1929, 51806.36
871.6750, 52692.88
872.1572, 53594.54
872.6393, 54549.86
873.1214, 55575.68
873.6035, 56595.58
874.0856, 57545.89
874.5677, 58474.65
875.0499, 59459.28
875.5320, 60465.53
876.0141, 61404.04
876.4962, 62268.25
876.9783, 63131.04
877.4604, 64040.83
877.9426, 64973.46
878.4247, 65876.63
878.9068, 66763.55
879.3889, 67684.21
879.8710, 68639.31
880.3531, 69630.63
880.8353, 70655.91
881.3174, 71644.86
881.7995, 72492.32
882.2816, 73234.69
882.7637, 74118.95
883.2458, 75163.72
883.7280, 76181.77
884.2101, 77120.33
884.6922, 78088.63
885.1743, 79159.05
885.6564, 80286.46
886.1385, 81387.98
886.6207, 82472.71
887.1028, 83474.88
887.5849, 84410.90
888.0670, 85234.46
888.5491, 86016.30
889.0313, 86604.06
889.5134, 86939.92
889.9955, 86989.61
890.4776, 86601.63
890.9597, 85718.20
891.4418, 84487.69
891.9240, 82916.28
892.4061, 81009.96
892.8882, 78659.11
893.3703, 76023.77
893.8524, 73273.56
894.3345, 70443.95
894.8167, 67646.73
895.2988, 64912.20
895.7809, 62256.79
896.2630, 59623.80
896.7451, 57108.37
897.2272, 54814.31
897.7094, 52734.76
898.1915, 50825.81
898.6736, 49074.90
899.1557, 47474.79
899.6378, 46040.40
900.1199, 44749.59
900.6021, 43580.51
901.0842, 42532.05
901.5663, 41621.66
902.0484, 40838.31
902.5305, 40118.84
903.0126, 39427.27
903.4948, 38781.01
903.9769, 38220.41
904.4590, 37726.67
904.9411, 37248.14
905.4232, 36787.41
905.9053, 36401.32
906.3875, 36108.23
906.8696, 35859.24
907.3517, 35611.75
907.8338, 35365.64
908.3159, 35116.39
908.7980, 34864.32
909.2802, 34619.72
909.7623, 34379.16
910.2444, 34191.80
910.7265, 34094.49
911.2086, 34024.25
911.6907, 33884.12
912.1729, 33675.55
912.6550, 33520.25
913.1371, 33439.09
913.6192, 33342.87
914.1013, 33209.06
914.5834, 33069.12
915.0656, 32926.20
915.5477, 32802.26
916.0298, 32758.27
916.5119, 32838.09
916.9940, 32831.37
917.4761, 32654.96
917.9583, 32509.86
918.4404, 32475.78
918.9225, 32460.79
919.4046, 32389.71
919.8867, 32276.56
920.3688, 32173.77
920.8510, 32067.10
921.3331, 32010.57
921.8152, 32053.82
922.2973, 32100.39
922.7794, 32127.34
923.2615, 32119.59
923.7437, 32029.51
924.2258, 31876.29
924.7079, 31799.94
925.1900, 31910.29
925.6721, 31991.25
926.1542, 31935.63
926.6364, 31834.34
927.1185, 31736.12
927.6006, 31654.73
928.0827, 31603.06
928.5648, 31582.84
929.0469, 31576.97
929.5291, 31578.64
930.0112, 31588.03
930.4933, 31621.95
930.9754, 31652.41
931.4575, 31636.00
931.9396, 31584.71
932.4218, 31543.09
932.9039, 31526.84
933.3860, 31509.71
933.8681, 31470.72
934.3502, 31416.91
934.8323, 31348.55
935.3145, 31275.51
935.7966, 31210.75
936.2787, 31162.07
936.7608, 31156.49
937.2429, 31211.32
937.7250, 31267.33
938.2072, 31243.86
938.6893, 31171.16
939.1714, 31108.95
939.6535, 31060.71
940.1356, 31045.52
940.6177, 31061.70
941.0999, 31050.47
941.5820, 30965.29
942.0641, 30856.34
942.5462, 30822.05
943.0283, 30846.09
943.5104, 30837.27
943.9926, 30795.75
944.4747, 30779.88
944.9568, 30808.37
945.4389, 30836.84
945.9210, 30824.93
946.4031, 30784.62
946.8853, 30746.88
947.3674, 30711.66
947.8495, 30680.16
948.3316, 30652.88
948.8137, 30620.91
949.2958, 30577.47
949.7780, 30547.42
950.2601, 30566.36
950.7422, 30617.58
951.2243, 30601.12
951.7064, 30499.62
952.1885, 30447.03
952.6707, 30466.56
953.1528, 30498.63
953.6349, 30523.24
954.1170, 30529.30
954.5991, 30493.34
955.0812, 30419.48
955.5634, 30400.38
956.0455, 30460.88
956.5276, 30498.32
957.0097, 30489.91
957.4918, 30479.26
957.9739, 30489.55
958.4561, 30511.97
958.9382, 30534.28
959.4203, 30557.45
959.9024, 30567.17
960.3845, 30557.79
960.8666, 30544.94
961.3488, 30513.41
961.8309, 30504.36
962.3130, 30575.84
962.7951, 30669.64
963.2772, 30657.56
963.7593, 30505.67
964.2415, 30429.73
964.7236, 30486.93
965.2057, 30536.97
965.6878, 30560.21
966.1699, 30565.73
966.6520, 30542.03
967.1342, 30508.74
967.6163, 30513.07
968.0984, 30566.00
968.5805, 30616.50
969.0626, 30679.01
969.5447, 30716.43
970.0269, 30699.97
970.5090, 30672.82
970.9911, 30669.76
971.4732, 30681.91
971.9553, 30680.49
972.4374, 30653.67
972.9196, 30646.34
973.4017, 30668.23
973.8838, 30705.87
974.3659, 30762.90
974.8480, 30826.68
975.3301, 30892.93
975.8123, 30956.28
976.2944, 30999.83
976.7765, 31013.65
977.2586, 31032.15
977.7407, 31079.80
978.2228, 31113.06
978.7050, 31083.10
979.1871, 31052.59
979.6692, 31090.13
980.1513, 31183.28
980.6334, 31275.50
981.1155, 31362.03
981.5977, 31423.49
982.0798, 31436.41
982.5619, 31443.60
983.0440, 31468.16
983.5261, 31497.88
984.0082, 31507.99
984.4904, 31508.79
984.9725, 31546.76
985.4546, 31650.23
985.9367, 31743.32
986.4188, 31807.06
986.9009, 31843.84
987.3831, 31830.94
987.8652, 31808.57
988.3473, 31825.90
988.8294, 31879.06
989.3115, 31927.83
989.7936, 31955.01
990.2758, 31991.95
990.7579, 32060.15
991.2400, 32132.60
991.7221, 32190.89
992.2042, 32243.90
992.6863, 32304.89
993.1685, 32373.20
993.6506, 32439.65
994.1327, 32501.76
994.6148, 32559.21
995.0969, 32614.57
995.5790, 32662.31
996.0612, 32674.98
996.5433, 32692.79
997.0254, 32787.78
997.5075, 32941.84
997.9896, 33042.92
998.4717, 33027.52
998.9539, 33032.40
999.4360, 33152.98
999.9181, 33281.67
1000.400, 33342.44
1000.882, 33366.55
1001.364, 33380.13
1001.847, 33399.22
1002.329, 33466.23
1002.811, 33621.04
1003.293, 33745.56
1003.775, 33753.76
1004.257, 33746.55
1004.739, 33781.85
1005.221, 33849.85
1005.703, 33951.59
1006.186, 34070.16
1006.668, 34149.61
1007.150, 34152.73
1007.632, 34176.65
1008.114, 34302.91
1008.596, 34423.23
1009.078, 34449.86
1009.560, 34441.80
1010.043, 34472.84
1010.525, 34541.78
1011.007, 34606.17
1011.489, 34651.28
1011.971, 34698.66
1012.453, 34760.96
1012.935, 34824.92
1013.417, 34880.14
1013.899, 34934.01
1014.382, 34998.14
1014.864, 35068.42
1015.346, 35128.14
1015.828, 35168.96
1016.310, 35214.40
1016.792, 35269.06
1017.274, 35336.05
1017.756, 35423.78
1018.239, 35519.34
1018.721, 35622.66
1019.203, 35720.75
1019.685, 35773.12
1020.167, 35754.16
1020.649, 35773.19
1021.131, 35906.72
1021.613, 36035.51
1022.095, 36083.08
1022.578, 36119.50
1023.060, 36228.86
1023.542, 36378.50
1024.024, 36467.05
1024.506, 36462.25
1024.988, 36485.91
1025.470, 36601.56
1025.952, 36708.71
1026.435, 36763.84
1026.917, 36800.98
1027.399, 36845.50
1027.881, 36894.06
1028.363, 36933.57
1028.845, 36960.20
1029.327, 36996.06
1029.809, 37030.60
1030.292, 37094.89
1030.774, 37232.05
1031.256, 37367.11
1031.738, 37434.73
1032.220, 37471.04
1032.702, 37549.45
1033.184, 37680.00
1033.666, 37781.93
1034.148, 37831.25
1034.630, 37874.13
1035.113, 37912.91
1035.595, 37952.57
1036.077, 37984.94
1036.559, 38025.34
1037.041, 38108.99
1037.523, 38238.80
1038.005, 38319.88
1038.487, 38307.39
1038.970, 38317.53
1039.452, 38365.36
1039.934, 38426.64
1040.416, 38505.85
1040.898, 38579.70
1041.380, 38609.45
1041.862, 38601.99
1042.344, 38637.68
1042.826, 38746.27
1043.309, 38831.52
1043.791, 38881.40
1044.273, 38923.31
1044.755, 38960.08
1045.237, 39004.66
1045.719, 39077.20
1046.201, 39167.46
1046.683, 39225.05
1047.166, 39233.29
1047.648, 39267.53
1048.130, 39332.75
1048.612, 39417.35
1049.094, 39537.61
1049.576, 39620.69
1050.058, 39586.83
1050.540, 39493.83
1051.022, 39506.75
1051.505, 39640.26
1051.987, 39732.30
1052.469, 39777.01
1052.951, 39813.44
1053.433, 39850.77
1053.915, 39881.35
1054.397, 39901.41
1054.879, 39907.38
1055.361, 39883.82
1055.844, 39836.93
1056.326, 39842.59
1056.808, 39900.71
1057.290, 39980.75
1057.772, 40077.98
1058.254, 40148.97
1058.736, 40168.38
1059.218, 40180.67
1059.701, 40251.02
1060.183, 40355.60
1060.665, 40414.61
1061.147, 40433.58
1061.629, 40421.09
1062.111, 40389.84
1062.593, 40437.15
1063.075, 40596.71
1063.557, 40748.50
1064.040, 40761.54
1064.522, 40724.30
1065.004, 40812.86
1065.486, 40972.81
1065.968, 41072.81
1066.450, 41116.83
1066.932, 41154.69
1067.414, 41201.90
1067.896, 41252.69
1068.379, 41299.73
1068.861, 41361.24
1069.343, 41469.53
1069.825, 41596.01
1070.307, 41711.17
1070.789, 41809.33
1071.271, 41877.13
1071.753, 41920.34
1072.236, 41966.74
1072.718, 42027.65
1073.200, 42103.93
1073.682, 42211.62
1074.164, 42318.84
1074.646, 42387.29
1075.128, 42448.72
1075.610, 42548.94
1076.093, 42676.34
1076.575, 42783.98
1077.057, 42858.45
1077.539, 42955.55
1078.021, 43138.69
1078.503, 43297.39
1078.985, 43337.35
1079.467, 43377.25
1079.949, 43533.22
1080.432, 43741.76
1080.914, 43887.45
1081.396, 43959.91
1081.878, 44042.80
1082.360, 44176.44
1082.842, 44283.26
1083.324, 44303.29
1083.806, 44351.68
1084.288, 44528.88
1084.771, 44723.58
1085.253, 44780.61
1085.735, 44741.54
1086.217, 44818.38
1086.699, 45073.91
1087.181, 45276.61
1087.663, 45402.67
1088.145, 45519.22
1088.628, 45622.32
1089.110, 45763.07
1089.592, 45999.55
1090.074, 46275.89
1090.556, 46468.75
1091.038, 46574.75
1091.520, 46684.97
1092.002, 46797.75
1092.484, 46920.47
1092.967, 47053.65
1093.449, 47201.71
1093.931, 47367.90
1094.413, 47554.37
1094.895, 47769.64
1095.377, 48001.70
1095.859, 48200.72
1096.341, 48371.07
1096.823, 48541.07
1097.306, 48713.80
1097.788, 48904.45
1098.270, 49114.41
1098.752, 49286.09
1099.234, 49358.87
1099.716, 49428.31
1100.198, 49679.25
1100.680, 50013.03
1101.163, 50214.34
1101.645, 50329.08
1102.127, 50494.48
1102.609, 50723.93
1103.091, 50956.98
1103.573, 51164.80
1104.055, 51350.36
1104.537, 51487.60
1105.020, 51632.20
1105.502, 51838.70
1105.984, 52079.90
1106.466, 52335.89
1106.948, 52594.08
1107.430, 52833.98
1107.912, 53052.75
1108.394, 53265.64
1108.876, 53485.30
1109.359, 53691.02
1109.841, 53861.62
1110.323, 54029.76
1110.805, 54188.32
1111.287, 54373.76
1111.769, 54647.63
1112.251, 54991.16
1112.733, 55299.54
1113.215, 55554.47
1113.698, 55792.27
1114.180, 55999.64
1114.662, 56210.27
1115.144, 56422.78
1115.626, 56657.34
1116.108, 56937.66
1116.590, 57238.89
1117.072, 57514.91
1117.555, 57766.01
1118.037, 58025.51
1118.519, 58292.60
1119.001, 58574.59
1119.483, 58874.33
1119.965, 59175.52
1120.447, 59471.05
1120.929, 59769.23
1121.411, 60079.73
1121.894, 60391.27
1122.376, 60665.39
1122.858, 60908.91
1123.340, 61152.26
1123.822, 61402.02
1124.304, 61706.08
1124.786, 62064.11
1125.268, 62395.70
1125.750, 62651.95
1126.233, 62903.14
1126.715, 63236.01
1127.197, 63599.34
1127.679, 63927.52
1128.161, 64233.13
1128.643, 64539.32
1129.125, 64843.98
1129.607, 65119.36
1130.090, 65366.43
1130.572, 65662.36
1131.054, 66109.48
1131.536, 66503.98
1132.018, 66667.08
1132.500, 66824.66
1132.982, 67155.94
1133.464, 67553.86
1133.947, 67887.24
1134.429, 68160.84
1134.911, 68439.41
1135.393, 68718.29
1135.875, 69042.25
1136.357, 69470.68
1136.839, 69859.48
1137.321, 70190.23
1137.803, 70463.00
1138.286, 70642.70
1138.768, 70808.18
1139.250, 71080.43
1139.732, 71448.05
1140.214, 71820.87
1140.696, 72208.16
1141.178, 72535.88
1141.660, 72795.13
1142.142, 73041.65
1142.625, 73289.43
1143.107, 73578.45
1143.589, 73946.75
1144.071, 74339.02
1144.553, 74634.43
1145.035, 74884.45
1145.517, 75287.91
1145.999, 75773.65
1146.482, 76089.95
1146.964, 76250.91
1147.446, 76467.74
1147.928, 76817.58
1148.410, 77208.51
1148.892, 77590.89
1149.374, 77955.72
1149.856, 78261.73
1150.339, 78572.40
1150.821, 78983.60
1151.303, 79421.30
1151.785, 79754.93
1152.267, 80002.09
1152.749, 80315.37
1153.231, 80749.30
1153.713, 81174.09
1154.195, 81584.90
1154.677, 81953.52
1155.160, 82227.29
1155.642, 82505.27
1156.124, 82840.33
1156.606, 83222.46
1157.088, 83643.67
1157.570, 84099.53
1158.052, 84539.05
1158.534, 84962.95
1159.017, 85366.08
1159.499, 85746.70
1159.981, 86093.62
1160.463, 86398.02
1160.945, 86717.60
1161.427, 87100.47
1161.909, 87509.98
1162.391, 87902.01
1162.874, 88267.80
1163.356, 88538.63
1163.838, 88767.65
1164.320, 89136.77
1164.802, 89633.39
1165.284, 90128.56
1165.766, 90578.41
1166.248, 90994.79
1166.730, 91389.44
1167.213, 91744.73
1167.695, 91998.52
1168.177, 92255.95
1168.659, 92609.34
1169.141, 93021.78
1169.623, 93447.86
1170.105, 93887.14
1170.587, 94375.88
1171.069, 94938.86
1171.552, 95398.85
1172.034, 95603.88
1172.516, 95896.70
1172.998, 96404.11
1173.480, 96902.81
1173.962, 97305.88
1174.444, 97642.25
1174.926, 97914.64
1175.409, 98166.29
1175.891, 98561.76
1176.373, 99116.64
1176.855, 99581.77
1177.337, 99956.09
1177.819, 100351.2
1178.301, 100789.2
1178.783, 101270.2
1179.266, 101795.0
1179.748, 102325.7
1180.230, 102834.2
1180.712, 103290.9
1181.194, 103590.9
1181.676, 103838.4
1182.158, 104189.2
1182.640, 104635.9
1183.122, 105175.1
1183.604, 105768.1
1184.087, 106292.4
1184.569, 106697.1
1185.051, 107071.3
1185.533, 107396.1
1186.015, 107779.5
1186.497, 108345.1
1186.979, 108904.2
1187.461, 109318.9
1187.944, 109651.5
1188.426, 109979.1
1188.908, 110312.2
1189.390, 110696.5
1189.872, 111142.7
1190.354, 111606.3
1190.836, 112084.0
1191.318, 112603.6
1191.801, 113174.2
1192.283, 113758.5
1192.765, 114336.6
1193.247, 114890.3
1193.729, 115385.4
1194.211, 115862.1
1194.693, 116435.8
1195.175, 117070.7
1195.657, 117685.2
1196.140, 118274.1
1196.622, 118842.1
1197.104, 119392.0
1197.586, 119930.9
1198.068, 120463.0
1198.550, 120970.0
1199.032, 121399.4
1199.514, 121853.4
1199.996, 122393.7
1200.479, 122981.1
1200.961, 123627.1
1201.443, 124274.8
1201.925, 124809.5
1202.407, 125256.8
1202.889, 125846.8
1203.371, 126596.7
1203.853, 127444.3
1204.336, 128444.0
1204.818, 129365.9
1205.300, 130167.8
1205.782, 130871.3
1206.264, 131468.6
1206.746, 132078.0
1207.228, 132854.3
1207.710, 133724.5
1208.193, 134485.0
1208.675, 135194.5
1209.157, 136041.4
1209.639, 136978.5
1210.121, 137802.3
1210.603, 138519.7
1211.085, 139299.8
1211.567, 140213.3
1212.049, 141197.9
1212.531, 142302.3
1213.014, 143357.5
1213.496, 144219.6
1213.978, 145063.3
1214.460, 145954.2
1214.942, 146933.6
1215.424, 148087.6
1215.906, 149358.7
1216.388, 150542.6
1216.871, 151623.8
1217.353, 152704.4
1217.835, 153782.2
1218.317, 154863.8
1218.799, 155936.9
1219.281, 157130.8
1219.763, 158510.3
1220.245, 159955.3
1220.728, 161369.7
1221.210, 162759.5
1221.692, 164106.5
1222.174, 165444.5
1222.656, 166803.2
1223.138, 168229.0
1223.620, 169846.7
1224.102, 171596.3
1224.584, 173282.4
1225.067, 174855.3
1225.549, 176425.5
1226.031, 177975.0
1226.513, 179629.8
1226.995, 181472.2
1227.477, 183373.5
1227.959, 185326.8
1228.441, 187287.4
1228.923, 189224.0
1229.406, 191168.3
1229.888, 193175.4
1230.370, 195254.3
1230.852, 197343.9
1231.334, 199441.3
1231.816, 201625.5
1232.298, 203897.7
##END=



