##NAMES=Chiavennite
##RRUFFID=R070349
##IDEAL CHEMISTRY=CaMn^2+^(BeOH)_2_Si_5_O_13_&#183;2H_2_O
##LOCALITY=Tvedalen, Larvik, Vestfold, Norway
##OWNER=RRUFF
##SOURCE=Michael Scott
##DESCRIPTION=Aggregate of pale yellow to orange thin spearhead-shaped blades associated with orthoclase and intimately with analcime
##STATUS=The identification of this mineral is confirmed by single-crystal X-ray diffraction and chemical analysis.
##URL=rruff.info/R070349
##MEASURED CHEMISTRY=(Ca_0.91_Na_0.09_)_Σ=1_(Mn^2+^_0.80_Fe^2+^_0.20_)_Σ=1_((Be_0.94_Al_0.06_)_Σ=1_OH)_2_(Si_4.61_Al_0.39_)_Σ=5_(O_12.76_(OH)_0.24_)_Σ=13_·2H_2_O ; light phase: Be by charge balance; dark: (Na_0.99_Mn_0.01_)_Σ=1_(Si_1.99_Al_2.01_)_Σ=3_O_6_·H_2_O is an
170.3929, 2071.983
170.8750, 2082.457
171.3571, 2084.258
171.8392, 2082.652
172.3213, 2082.625
172.8034, 2084.350
173.2856, 2089.132
173.7677, 2102.196
174.2498, 2120.631
174.7319, 2134.245
175.2140, 2131.928
175.6961, 2122.074
176.1783, 2117.638
176.6604, 2121.975
177.1425, 2130.658
177.6246, 2141.112
178.1067, 2152.500
178.5888, 2160.043
179.0710, 2154.823
179.5531, 2143.104
180.0352, 2139.804
180.5173, 2152.594
180.9994, 2171.263
181.4815, 2176.585
181.9637, 2169.055
182.4458, 2162.689
182.9279, 2174.024
183.4100, 2197.786
183.8921, 2213.838
184.3742, 2212.619
184.8564, 2201.704
185.3385, 2198.260
185.8206, 2202.526
186.3027, 2210.998
186.7848, 2220.631
187.2669, 2231.499
187.7491, 2244.533
188.2312, 2262.135
188.7133, 2282.181
189.1954, 2297.658
189.6775, 2308.543
190.1596, 2314.420
190.6418, 2312.589
191.1239, 2303.258
191.6060, 2294.827
192.0881, 2288.103
192.5702, 2283.929
193.0524, 2291.831
193.5345, 2314.343
194.0166, 2342.242
194.4987, 2361.305
194.9808, 2371.125
195.4629, 2378.283
195.9451, 2384.869
196.4272, 2390.991
196.9093, 2398.877
197.3914, 2409.917
197.8735, 2420.645
198.3556, 2423.022
198.8378, 2415.696
199.3199, 2408.606
199.8020, 2407.529
200.2841, 2412.889
200.7662, 2417.841
201.2483, 2421.410
201.7305, 2424.894
202.2126, 2432.217
202.6947, 2444.450
203.1768, 2456.523
203.6589, 2465.814
204.1410, 2472.260
204.6232, 2475.815
205.1053, 2476.432
205.5874, 2474.170
206.0695, 2467.675
206.5516, 2454.386
207.0337, 2443.593
207.5159, 2443.377
207.9980, 2456.684
208.4801, 2466.378
208.9622, 2469.443
209.4443, 2467.317
209.9264, 2467.421
210.4086, 2471.062
210.8907, 2474.312
211.3728, 2473.348
211.8549, 2466.204
212.3370, 2461.358
212.8191, 2459.275
213.3013, 2460.260
213.7834, 2467.818
214.2655, 2484.927
214.7476, 2503.882
215.2297, 2518.310
215.7118, 2528.188
216.1940, 2533.646
216.6761, 2533.057
217.1582, 2526.851
217.6403, 2525.750
218.1224, 2533.889
218.6045, 2541.631
219.0867, 2536.993
219.5688, 2509.983
220.0509, 2494.784
220.5330, 2501.949
221.0151, 2532.168
221.4972, 2556.140
221.9794, 2574.339
222.4615, 2586.026
222.9436, 2589.201
223.4257, 2578.269
223.9078, 2570.209
224.3899, 2568.296
224.8721, 2572.500
225.3542, 2583.220
225.8363, 2603.076
226.3184, 2627.032
226.8005, 2650.441
227.2827, 2676.038
227.7648, 2695.276
228.2469, 2703.811
228.7290, 2699.402
229.2111, 2701.834
229.6932, 2714.330
230.1754, 2731.015
230.6575, 2744.336
231.1396, 2752.420
231.6217, 2760.260
232.1038, 2769.080
232.5859, 2778.941
233.0681, 2789.919
233.5502, 2804.491
234.0323, 2818.375
234.5144, 2824.578
234.9965, 2817.281
235.4786, 2812.113
235.9608, 2814.758
236.4429, 2827.671
236.9250, 2836.646
237.4071, 2840.042
237.8892, 2840.441
238.3713, 2841.895
238.8535, 2845.007
239.3356, 2848.155
239.8177, 2850.696
240.2998, 2852.252
240.7819, 2854.915
241.2640, 2860.225
241.7462, 2865.792
242.2283, 2867.293
242.7104, 2862.716
243.1925, 2857.312
243.6746, 2851.783
244.1567, 2844.061
244.6389, 2843.744
245.1210, 2853.404
245.6031, 2868.887
246.0852, 2884.107
246.5673, 2903.572
247.0494, 2914.940
247.5316, 2911.092
248.0137, 2884.105
248.4958, 2869.396
248.9779, 2872.450
249.4600, 2884.800
249.9421, 2890.423
250.4243, 2885.781
250.9064, 2880.865
251.3885, 2880.166
251.8706, 2886.662
252.3527, 2886.762
252.8348, 2877.093
253.3170, 2863.143
253.7991, 2855.251
254.2812, 2854.628
254.7633, 2857.923
255.2454, 2865.213
255.7275, 2878.873
256.2097, 2887.179
256.6918, 2888.282
257.1739, 2885.217
257.6560, 2883.932
258.1381, 2886.213
258.6202, 2886.548
259.1024, 2882.156
259.5845, 2871.455
260.0666, 2863.375
260.5487, 2860.472
261.0308, 2858.254
261.5129, 2846.048
261.9951, 2817.527
262.4772, 2794.490
262.9593, 2788.959
263.4414, 2807.347
263.9235, 2810.877
264.4056, 2793.163
264.8878, 2766.555
265.3699, 2753.981
265.8520, 2760.865
266.3341, 2765.983
266.8162, 2759.830
267.2983, 2740.088
267.7805, 2723.928
268.2626, 2711.161
268.7447, 2702.380
269.2268, 2700.674
269.7089, 2709.068
270.1910, 2713.632
270.6732, 2706.796
271.1553, 2686.764
271.6374, 2673.575
272.1195, 2668.521
272.6016, 2668.407
273.0837, 2668.854
273.5659, 2670.069
274.0480, 2670.752
274.5301, 2669.243
275.0122, 2665.317
275.4943, 2668.372
275.9764, 2682.256
276.4586, 2695.876
276.9407, 2686.952
277.4228, 2651.822
277.9049, 2626.892
278.3870, 2632.830
278.8691, 2667.676
279.3513, 2684.885
279.8334, 2681.456
280.3155, 2668.112
280.7976, 2657.693
281.2798, 2650.331
281.7619, 2644.787
282.2440, 2639.505
282.7261, 2635.178
283.2082, 2639.269
283.6903, 2653.889
284.1725, 2669.156
284.6546, 2670.148
285.1367, 2657.510
285.6188, 2648.507
286.1009, 2651.710
286.5830, 2663.731
287.0652, 2668.802
287.5473, 2665.808
288.0294, 2662.256
288.5115, 2668.381
288.9936, 2682.831
289.4757, 2694.181
289.9579, 2698.017
290.4400, 2696.228
290.9221, 2692.606
291.4042, 2686.850
291.8863, 2683.068
292.3684, 2688.221
292.8506, 2699.855
293.3327, 2707.057
293.8148, 2702.851
294.2969, 2694.176
294.7790, 2696.796
295.2611, 2710.755
295.7433, 2723.967
296.2254, 2722.366
296.7075, 2711.337
297.1896, 2706.498
297.6717, 2716.062
298.1538, 2730.781
298.6360, 2736.756
299.1181, 2734.499
299.6002, 2729.450
300.0823, 2724.513
300.5644, 2719.862
301.0465, 2715.654
301.5287, 2711.359
302.0108, 2708.242
302.4929, 2708.453
302.9750, 2711.543
303.4571, 2714.934
303.9392, 2716.261
304.4214, 2717.038
304.9035, 2719.651
305.3856, 2725.866
305.8677, 2732.025
306.3498, 2732.544
306.8319, 2729.529
307.3141, 2730.494
307.7962, 2747.006
308.2783, 2766.300
308.7604, 2774.823
309.2425, 2765.477
309.7246, 2754.254
310.2068, 2751.569
310.6889, 2755.000
311.1710, 2758.193
311.6531, 2754.785
312.1352, 2751.972
312.6173, 2757.478
313.0995, 2777.656
313.5816, 2790.922
314.0637, 2778.689
314.5458, 2753.031
315.0279, 2736.599
315.5100, 2744.738
315.9922, 2759.360
316.4743, 2771.948
316.9564, 2781.855
317.4385, 2788.289
317.9206, 2789.724
318.4027, 2787.813
318.8849, 2784.868
319.3670, 2778.917
319.8491, 2774.313
320.3312, 2773.076
320.8133, 2775.872
321.2954, 2778.852
321.7776, 2781.487
322.2597, 2783.872
322.7418, 2786.113
323.2239, 2788.817
323.7060, 2790.786
324.1881, 2792.742
324.6703, 2795.041
325.1524, 2792.766
325.6345, 2775.804
326.1166, 2759.344
326.5987, 2755.583
327.0808, 2780.546
327.5630, 2799.397
328.0451, 2806.311
328.5272, 2801.864
329.0093, 2798.520
329.4914, 2796.605
329.9735, 2795.567
330.4557, 2794.980
330.9378, 2794.020
331.4199, 2795.036
331.9020, 2798.897
332.3841, 2804.990
332.8662, 2810.177
333.3484, 2813.376
333.8305, 2817.231
334.3126, 2823.311
334.7947, 2832.031
335.2768, 2842.243
335.7589, 2856.732
336.2411, 2871.089
336.7232, 2872.509
337.2053, 2856.469
337.6874, 2840.664
338.1695, 2834.515
338.6516, 2839.584
339.1338, 2839.775
339.6159, 2831.919
340.0980, 2823.747
340.5801, 2832.081
341.0622, 2859.398
341.5443, 2881.121
342.0265, 2884.807
342.5086, 2872.572
342.9907, 2864.490
343.4728, 2861.118
343.9549, 2860.001
344.4370, 2855.843
344.9192, 2849.641
345.4013, 2851.606
345.8834, 2870.322
346.3655, 2898.388
346.8476, 2915.734
347.3297, 2922.152
347.8119, 2922.944
348.2940, 2917.602
348.7761, 2909.800
349.2582, 2911.414
349.7403, 2931.226
350.2225, 2956.436
350.7046, 2968.839
351.1867, 2969.564
351.6688, 2966.457
352.1509, 2961.832
352.6331, 2957.855
353.1152, 2958.431
353.5973, 2966.561
354.0794, 2975.415
354.5615, 2978.458
355.0436, 2977.115
355.5258, 2975.720
356.0079, 2977.479
356.4900, 2979.773
356.9721, 2978.504
357.4542, 2970.052
357.9363, 2968.189
358.4185, 2990.214
358.9006, 3023.055
359.3827, 3044.097
359.8648, 3035.556
360.3469, 3020.053
360.8290, 3008.009
361.3112, 3000.351
361.7933, 2996.050
362.2754, 2997.140
362.7575, 3000.463
363.2396, 3002.599
363.7217, 2999.960
364.2039, 2998.848
364.6860, 3002.739
365.1681, 3011.742
365.6502, 3016.263
366.1323, 3009.208
366.6144, 3001.003
367.0966, 2998.824
367.5787, 3004.554
368.0608, 3014.499
368.5429, 3033.916
369.0250, 3059.167
369.5071, 3070.865
369.9893, 3061.087
370.4714, 3047.012
370.9535, 3037.029
371.4356, 3034.616
371.9177, 3027.674
372.3998, 3010.868
372.8820, 2992.078
373.3641, 2991.655
373.8462, 3017.961
374.3283, 3040.826
374.8104, 3045.788
375.2925, 3030.729
375.7747, 3023.568
376.2568, 3025.660
376.7389, 3032.838
377.2210, 3041.487
377.7031, 3052.050
378.1852, 3057.455
378.6674, 3053.571
379.1495, 3042.926
379.6316, 3035.094
380.1137, 3029.951
380.5958, 3029.344
381.0779, 3037.568
381.5601, 3052.872
382.0422, 3066.351
382.5243, 3077.295
383.0064, 3084.182
383.4885, 3078.472
383.9706, 3062.733
384.4528, 3056.231
384.9349, 3084.585
385.4170, 3127.559
385.8991, 3150.207
386.3812, 3143.435
386.8633, 3129.388
387.3455, 3126.417
387.8276, 3131.905
388.3097, 3139.886
388.7918, 3148.314
389.2739, 3157.382
389.7560, 3169.532
390.2382, 3185.743
390.7203, 3195.321
391.2024, 3182.302
391.6845, 3162.928
392.1666, 3155.798
392.6487, 3181.506
393.1309, 3207.201
393.6130, 3218.632
394.0951, 3216.837
394.5772, 3215.756
395.0593, 3218.993
395.5414, 3224.026
396.0236, 3229.256
396.5057, 3234.889
396.9878, 3240.230
397.4699, 3243.564
397.9520, 3246.323
398.4341, 3253.049
398.9163, 3268.688
399.3984, 3283.176
399.8805, 3293.074
400.3626, 3297.888
400.8447, 3299.154
401.3268, 3294.228
401.8090, 3287.710
402.2911, 3286.078
402.7732, 3290.366
403.2553, 3297.053
403.7374, 3306.413
404.2195, 3318.104
404.7017, 3325.614
405.1838, 3328.231
405.6659, 3328.599
406.1480, 3328.015
406.6301, 3326.412
407.1122, 3327.959
407.5944, 3334.281
408.0765, 3343.301
408.5586, 3349.751
409.0407, 3353.712
409.5228, 3357.854
410.0049, 3364.581
410.4871, 3372.818
410.9692, 3379.372
411.4513, 3383.620
411.9334, 3387.470
412.4155, 3392.269
412.8976, 3398.423
413.3798, 3406.803
413.8619, 3421.374
414.3440, 3436.441
414.8261, 3445.187
415.3082, 3447.534
415.7903, 3449.888
416.2725, 3454.827
416.7546, 3462.725
417.2367, 3474.533
417.7188, 3499.733
418.2009, 3518.459
418.6830, 3510.359
419.1652, 3485.101
419.6473, 3478.481
420.1294, 3527.928
420.6115, 3580.311
421.0937, 3604.450
421.5758, 3576.748
422.0579, 3561.922
422.5400, 3579.492
423.0221, 3612.569
423.5042, 3633.718
423.9864, 3628.706
424.4685, 3626.604
424.9506, 3637.045
425.4327, 3661.825
425.9148, 3673.143
426.3969, 3662.999
426.8791, 3648.523
427.3612, 3645.266
427.8433, 3657.344
428.3254, 3667.454
428.8075, 3672.075
429.2896, 3673.550
429.7718, 3680.537
430.2539, 3694.120
430.7360, 3707.492
431.2181, 3716.718
431.7002, 3721.956
432.1823, 3725.365
432.6645, 3726.947
433.1466, 3727.048
433.6287, 3722.516
434.1108, 3715.405
434.5929, 3716.553
435.0750, 3738.368
435.5572, 3767.813
436.0393, 3778.543
436.5214, 3771.491
437.0035, 3766.481
437.4856, 3786.509
437.9677, 3816.023
438.4499, 3831.529
438.9320, 3817.801
439.4141, 3804.490
439.8962, 3814.467
440.3783, 3841.464
440.8604, 3869.631
441.3426, 3892.418
441.8247, 3913.710
442.3068, 3937.047
442.7889, 3964.635
443.2710, 3985.412
443.7531, 3989.520
444.2353, 3987.968
444.7174, 3993.005
445.1995, 4014.183
445.6816, 4033.387
446.1637, 4044.731
446.6458, 4049.446
447.1280, 4062.344
447.6101, 4086.315
448.0922, 4115.415
448.5743, 4147.420
449.0564, 4186.716
449.5385, 4217.366
450.0207, 4236.028
450.5028, 4248.485
450.9849, 4266.767
451.4670, 4292.747
451.9491, 4313.871
452.4312, 4320.999
452.9134, 4317.386
453.3955, 4330.844
453.8776, 4362.974
454.3597, 4400.141
454.8418, 4432.647
455.3239, 4459.727
455.8061, 4475.342
456.2882, 4473.733
456.7703, 4467.313
457.2524, 4475.415
457.7345, 4494.851
458.2166, 4512.848
458.6988, 4522.741
459.1809, 4526.599
459.6630, 4524.787
460.1451, 4516.424
460.6272, 4509.271
461.1093, 4514.389
461.5915, 4521.725
462.0736, 4518.625
462.5557, 4488.904
463.0378, 4459.817
463.5199, 4442.489
464.0020, 4435.692
464.4842, 4428.438
464.9663, 4421.114
465.4484, 4410.893
465.9305, 4395.770
466.4126, 4369.800
466.8947, 4348.957
467.3769, 4334.019
467.8590, 4323.902
468.3411, 4318.000
468.8232, 4321.854
469.3053, 4318.290
469.7874, 4298.659
470.2696, 4264.539
470.7517, 4246.156
471.2338, 4246.065
471.7159, 4253.859
472.1980, 4264.603
472.6801, 4278.025
473.1623, 4280.982
473.6444, 4269.771
474.1265, 4251.084
474.6086, 4234.197
475.0907, 4219.299
475.5728, 4207.618
476.0550, 4204.731
476.5371, 4203.728
477.0192, 4190.171
477.5013, 4163.322
477.9834, 4139.950
478.4655, 4135.064
478.9477, 4140.781
479.4298, 4147.260
479.9119, 4155.949
480.3940, 4159.258
480.8761, 4147.194
481.3582, 4125.768
481.8404, 4112.440
482.3225, 4127.383
482.8046, 4139.774
483.2867, 4133.500
483.7688, 4100.496
484.2509, 4072.141
484.7331, 4052.374
485.2152, 4037.863
485.6973, 4025.406
486.1794, 4016.122
486.6615, 4007.147
487.1436, 3999.203
487.6258, 3991.281
488.1079, 3976.680
488.5900, 3951.549
489.0721, 3930.673
489.5542, 3926.246
490.0363, 3938.474
490.5185, 3937.636
491.0006, 3920.688
491.4827, 3898.316
491.9648, 3885.301
492.4470, 3879.773
492.9291, 3871.429
493.4112, 3854.449
493.8933, 3834.971
494.3754, 3822.462
494.8575, 3816.330
495.3397, 3813.586
495.8218, 3814.158
496.3039, 3816.108
496.7860, 3816.776
497.2681, 3814.904
497.7502, 3815.184
498.2324, 3822.955
498.7145, 3833.577
499.1966, 3840.888
499.6787, 3839.175
500.1608, 3837.727
500.6429, 3841.903
501.1251, 3850.946
501.6072, 3852.176
502.0893, 3838.485
502.5714, 3822.342
503.0535, 3808.685
503.5356, 3795.071
504.0178, 3789.887
504.4999, 3794.085
504.9820, 3805.978
505.4641, 3827.150
505.9462, 3861.699
506.4283, 3883.565
506.9105, 3882.361
507.3926, 3863.245
507.8747, 3841.965
508.3568, 3817.799
508.8389, 3804.306
509.3210, 3822.014
509.8032, 3857.961
510.2853, 3874.240
510.7674, 3863.013
511.2495, 3845.414
511.7316, 3841.678
512.2137, 3847.656
512.6959, 3854.894
513.1780, 3867.131
513.6601, 3873.440
514.1422, 3860.667
514.6243, 3832.281
515.1064, 3812.021
515.5886, 3814.531
516.0707, 3824.286
516.5528, 3832.334
517.0349, 3838.095
517.5170, 3841.099
517.9991, 3838.791
518.4813, 3834.647
518.9634, 3833.480
519.4455, 3839.719
519.9276, 3840.934
520.4097, 3831.734
520.8918, 3814.805
521.3740, 3808.824
521.8561, 3817.490
522.3382, 3824.851
522.8203, 3817.594
523.3024, 3797.004
523.7845, 3784.024
524.2667, 3779.913
524.7488, 3782.956
525.2309, 3796.631
525.7130, 3816.784
526.1951, 3828.367
526.6772, 3821.255
527.1594, 3807.892
527.6415, 3803.332
528.1236, 3805.661
528.6057, 3806.351
529.0878, 3795.902
529.5699, 3785.013
530.0521, 3782.804
530.5342, 3792.393
531.0163, 3801.600
531.4984, 3807.110
531.9805, 3810.097
532.4626, 3811.855
532.9448, 3812.177
533.4269, 3811.856
533.9090, 3814.254
534.3911, 3816.436
534.8732, 3804.742
535.3553, 3767.993
535.8375, 3738.066
536.3196, 3730.597
536.8017, 3746.539
537.2838, 3763.889
537.7659, 3784.350
538.2480, 3801.112
538.7302, 3803.296
539.2123, 3793.432
539.6944, 3789.157
540.1765, 3795.401
540.6586, 3806.841
541.1407, 3816.429
541.6229, 3824.971
542.1050, 3835.480
542.5871, 3859.504
543.0692, 3879.749
543.5513, 3872.341
544.0334, 3836.559
544.5156, 3813.772
544.9977, 3834.837
545.4798, 3870.277
545.9619, 3896.912
546.4440, 3907.359
546.9261, 3913.385
547.4083, 3909.550
547.8904, 3903.705
548.3725, 3911.275
548.8546, 3947.260
549.3367, 3971.460
549.8188, 3968.591
550.3010, 3942.175
550.7831, 3935.057
551.2652, 3951.252
551.7473, 3973.429
552.2294, 3991.522
552.7115, 4005.453
553.1937, 4011.558
553.6758, 4007.865
554.1579, 4003.342
554.6400, 4010.660
555.1221, 4026.369
555.6042, 4040.653
556.0864, 4052.215
556.5685, 4058.804
557.0506, 4054.848
557.5327, 4043.096
558.0148, 4033.815
558.4969, 4031.701
558.9791, 4033.838
559.4612, 4041.041
559.9433, 4056.003
560.4254, 4062.075
560.9075, 4045.039
561.3896, 4024.117
561.8718, 4016.410
562.3539, 4032.597
562.8360, 4043.773
563.3181, 4046.197
563.8002, 4043.033
564.2823, 4043.402
564.7645, 4049.629
565.2466, 4048.366
565.7287, 4028.795
566.2108, 3997.000
566.6929, 3988.691
567.1750, 4005.108
567.6572, 4018.439
568.1393, 3991.907
568.6214, 3947.672
569.1035, 3936.275
569.5856, 3973.222
570.0677, 4011.521
570.5499, 4012.130
571.0320, 3988.569
571.5141, 3962.384
571.9962, 3932.302
572.4783, 3910.192
572.9604, 3904.752
573.4426, 3913.040
573.9247, 3919.647
574.4068, 3924.081
574.8889, 3924.407
575.3710, 3918.281
575.8531, 3903.336
576.3353, 3895.662
576.8174, 3899.595
577.2995, 3904.479
577.7816, 3897.335
578.2637, 3876.215
578.7458, 3866.070
579.2280, 3873.947
579.7101, 3888.016
580.1922, 3885.279
580.6743, 3868.589
581.1564, 3854.047
581.6385, 3849.493
582.1207, 3851.074
582.6028, 3859.207
583.0849, 3871.897
583.5670, 3874.194
584.0491, 3834.534
584.5313, 3795.469
585.0134, 3798.090
585.4955, 3869.079
585.9776, 3914.033
586.4597, 3885.810
586.9418, 3828.663
587.4240, 3793.094
587.9061, 3794.510
588.3882, 3795.470
588.8703, 3790.192
589.3524, 3782.396
589.8345, 3785.449
590.3167, 3803.627
590.7988, 3815.984
591.2809, 3809.910
591.7630, 3789.940
592.2451, 3779.651
592.7272, 3779.269
593.2094, 3783.059
593.6915, 3789.672
594.1736, 3796.369
594.6557, 3797.020
595.1378, 3789.458
595.6199, 3780.867
596.1021, 3771.791
596.5842, 3766.371
597.0663, 3770.536
597.5485, 3803.685
598.0306, 3828.264
598.5127, 3823.373
598.9948, 3797.542
599.4769, 3788.555
599.9590, 3815.493
600.4412, 3839.090
600.9233, 3846.460
601.4054, 3836.858
601.8875, 3821.476
602.3696, 3796.217
602.8517, 3775.547
603.3339, 3773.021
603.8160, 3787.590
604.2981, 3810.533
604.7802, 3844.177
605.2623, 3873.617
605.7444, 3874.516
606.2266, 3855.094
606.7087, 3837.181
607.1908, 3825.709
607.6729, 3821.778
608.1550, 3831.784
608.6371, 3850.963
609.1193, 3864.172
609.6014, 3861.663
610.0835, 3854.780
610.5656, 3845.240
611.0477, 3831.105
611.5298, 3832.431
612.0120, 3863.038
612.4941, 3895.856
612.9762, 3912.718
613.4583, 3910.110
613.9404, 3903.260
614.4225, 3890.886
614.9047, 3877.681
615.3868, 3870.021
615.8689, 3867.649
616.3510, 3868.510
616.8331, 3873.883
617.3152, 3879.702
617.7974, 3878.547
618.2795, 3872.029
618.7616, 3866.365
619.2437, 3864.214
619.7258, 3864.798
620.2079, 3867.500
620.6901, 3872.297
621.1722, 3879.672
621.6543, 3895.530
622.1364, 3910.035
622.6185, 3917.189
623.1006, 3918.852
623.5828, 3906.966
624.0649, 3868.573
624.5470, 3828.518
625.0291, 3820.774
625.5112, 3852.996
625.9933, 3876.331
626.4755, 3880.710
626.9576, 3872.988
627.4397, 3862.904
627.9218, 3851.521
628.4039, 3846.943
628.8860, 3860.740
629.3682, 3879.699
629.8503, 3885.295
630.3324, 3878.743
630.8145, 3869.395
631.2966, 3859.437
631.7787, 3850.999
632.2609, 3846.466
632.7430, 3847.688
633.2251, 3846.613
633.7072, 3834.890
634.1893, 3824.529
634.6714, 3826.572
635.1536, 3850.694
635.6357, 3865.862
636.1178, 3868.760
636.5999, 3862.731
637.0820, 3852.007
637.5641, 3836.402
638.0463, 3821.119
638.5284, 3804.716
639.0105, 3792.252
639.4926, 3798.347
639.9747, 3819.803
640.4568, 3837.862
640.9390, 3838.927
641.4211, 3832.984
641.9032, 3828.520
642.3853, 3826.169
642.8674, 3824.480
643.3495, 3823.914
643.8317, 3823.124
644.3138, 3820.249
644.7959, 3807.064
645.2780, 3808.776
645.7601, 3835.896
646.2422, 3868.646
646.7244, 3882.585
647.2065, 3873.707
647.6886, 3866.194
648.1707, 3864.626
648.6528, 3866.020
649.1349, 3863.689
649.6171, 3858.345
650.0992, 3854.982
650.5813, 3863.610
651.0634, 3870.718
651.5455, 3852.000
652.0276, 3813.152
652.5098, 3785.715
652.9919, 3791.485
653.4740, 3809.984
653.9561, 3832.932
654.4382, 3862.454
654.9203, 3877.512
655.4025, 3862.676
655.8846, 3843.145
656.3667, 3836.074
656.8488, 3846.435
657.3309, 3854.339
657.8130, 3858.702
658.2952, 3861.267
658.7773, 3864.987
659.2594, 3869.607
659.7415, 3870.508
660.2236, 3862.882
660.7057, 3857.044
661.1879, 3875.626
661.6700, 3909.010
662.1521, 3930.091
662.6342, 3915.193
663.1163, 3892.903
663.5984, 3879.354
664.0806, 3874.271
664.5627, 3871.062
665.0448, 3867.795
665.5269, 3866.524
666.0090, 3868.531
666.4911, 3874.354
666.9733, 3878.980
667.4554, 3881.296
667.9375, 3884.627
668.4196, 3892.862
668.9017, 3905.794
669.3839, 3916.158
669.8660, 3923.425
670.3481, 3927.433
670.8302, 3928.198
671.3123, 3925.501
671.7944, 3918.315
672.2766, 3903.274
672.7587, 3888.744
673.2408, 3878.925
673.7229, 3873.632
674.2050, 3872.277
674.6871, 3879.515
675.1693, 3885.473
675.6514, 3885.169
676.1335, 3880.702
676.6156, 3883.918
677.0977, 3898.498
677.5798, 3912.412
678.0620, 3920.650
678.5441, 3923.546
679.0262, 3922.191
679.5083, 3916.230
679.9904, 3911.674
680.4725, 3915.732
680.9547, 3923.745
681.4368, 3926.877
681.9189, 3923.591
682.4010, 3920.209
682.8831, 3922.382
683.3652, 3925.931
683.8474, 3926.606
684.3295, 3922.240
684.8116, 3916.897
685.2937, 3910.307
685.7758, 3903.425
686.2579, 3896.884
686.7401, 3888.612
687.2222, 3887.279
687.7043, 3897.546
688.1864, 3912.719
688.6685, 3915.914
689.1506, 3907.724
689.6328, 3897.541
690.1149, 3885.184
690.5970, 3876.059
691.0791, 3882.300
691.5612, 3900.786
692.0433, 3915.427
692.5255, 3917.073
693.0076, 3912.812
693.4897, 3906.605
693.9718, 3898.798
694.4539, 3888.842
694.9360, 3869.871
695.4182, 3855.087
695.9003, 3852.479
696.3824, 3865.380
696.8645, 3877.066
697.3466, 3887.952
697.8287, 3896.532
698.3109, 3901.385
698.7930, 3902.556
699.2751, 3898.443
699.7572, 3886.561
700.2393, 3877.661
700.7214, 3887.519
701.2036, 3907.150
701.6857, 3921.511
702.1678, 3920.168
702.6499, 3918.579
703.1320, 3926.735
703.6141, 3938.773
704.0963, 3939.251
704.5784, 3915.661
705.0605, 3899.016
705.5426, 3898.591
706.0247, 3909.958
706.5068, 3912.898
706.9890, 3906.570
707.4711, 3899.050
707.9532, 3892.264
708.4353, 3887.861
708.9174, 3894.342
709.3995, 3910.199
709.8817, 3920.244
710.3638, 3907.216
710.8459, 3888.100
711.3280, 3878.984
711.8101, 3882.812
712.2922, 3884.415
712.7744, 3876.036
713.2565, 3866.559
713.7386, 3861.685
714.2207, 3861.991
714.7028, 3866.030
715.1849, 3875.454
715.6671, 3885.814
716.1492, 3894.041
716.6313, 3899.710
717.1134, 3897.682
717.5955, 3885.986
718.0776, 3869.918
718.5598, 3850.544
719.0419, 3832.352
719.5240, 3824.242
720.0061, 3834.922
720.4882, 3849.482
720.9703, 3864.326
721.4525, 3877.917
721.9346, 3886.915
722.4167, 3892.815
722.8988, 3891.012
723.3809, 3875.472
723.8630, 3852.075
724.3452, 3846.686
724.8273, 3861.739
725.3094, 3877.391
725.7915, 3884.925
726.2736, 3886.119
726.7557, 3884.420
727.2379, 3880.106
727.7200, 3875.354
728.2021, 3866.856
728.6842, 3861.865
729.1663, 3870.547
729.6484, 3894.248
730.1306, 3908.752
730.6127, 3896.896
731.0948, 3882.383
731.5769, 3878.580
732.0590, 3888.487
732.5411, 3896.527
733.0233, 3902.308
733.5054, 3907.098
733.9875, 3915.611
734.4696, 3925.819
734.9517, 3918.544
735.4338, 3888.588
735.9160, 3859.659
736.3981, 3859.670
736.8802, 3875.061
737.3623, 3885.902
737.8444, 3885.428
738.3266, 3882.575
738.8087, 3877.780
739.2908, 3873.640
739.7729, 3874.429
740.2551, 3885.799
740.7372, 3891.544
741.2193, 3887.454
741.7014, 3878.752
742.1835, 3877.699
742.6656, 3884.411
743.1478, 3887.917
743.6299, 3883.550
744.1120, 3875.546
744.5941, 3866.342
745.0762, 3858.547
745.5583, 3859.989
746.0405, 3886.630
746.5226, 3912.358
747.0047, 3921.859
747.4868, 3917.128
747.9689, 3910.812
748.4510, 3899.573
748.9332, 3893.693
749.4153, 3900.461
749.8974, 3917.574
750.3795, 3915.102
750.8616, 3890.493
751.3438, 3866.326
751.8259, 3856.641
752.3080, 3857.972
752.7901, 3862.909
753.2722, 3871.188
753.7543, 3881.655
754.2365, 3903.294
754.7186, 3920.092
755.2007, 3912.964
755.6828, 3872.766
756.1649, 3851.883
756.6470, 3875.930
757.1292, 3906.635
757.6113, 3921.065
758.0934, 3915.038
758.5755, 3912.628
759.0576, 3915.824
759.5397, 3915.914
760.0219, 3896.489
760.5040, 3866.112
760.9861, 3855.579
761.4682, 3873.058
761.9503, 3892.176
762.4324, 3885.147
762.9146, 3870.997
763.3967, 3873.177
763.8788, 3914.686
764.3609, 3944.438
764.8430, 3949.791
765.3251, 3941.486
765.8073, 3929.032
766.2894, 3909.536
766.7715, 3898.512
767.2536, 3900.811
767.7357, 3907.506
768.2178, 3899.884
768.7000, 3882.548
769.1821, 3876.001
769.6642, 3894.101
770.1463, 3913.445
770.6284, 3911.733
771.1105, 3897.005
771.5927, 3884.802
772.0748, 3880.339
772.5569, 3878.492
773.0390, 3879.890
773.5211, 3882.688
774.0032, 3879.889
774.4854, 3866.821
774.9675, 3867.649
775.4496, 3897.736
775.9317, 3939.218
776.4138, 3941.620
776.8959, 3911.592
777.3781, 3885.326
777.8602, 3887.083
778.3423, 3896.390
778.8244, 3893.416
779.3065, 3882.158
779.7886, 3880.317
780.2708, 3901.508
780.7529, 3924.738
781.2350, 3946.603
781.7171, 3965.921
782.1992, 3968.131
782.6813, 3947.838
783.1635, 3932.076
783.6456, 3942.609
784.1277, 3967.102
784.6098, 3957.689
785.0919, 3918.300
785.5740, 3887.550
786.0562, 3896.861
786.5383, 3920.484
787.0204, 3941.199
787.5025, 3957.689
787.9846, 3963.443
788.4667, 3942.360
788.9489, 3924.426
789.4310, 3925.609
789.9131, 3947.827
790.3952, 3949.607
790.8773, 3926.592
791.3594, 3903.401
791.8416, 3899.427
792.3237, 3909.415
792.8058, 3921.158
793.2879, 3934.059
793.7700, 3945.207
794.2521, 3956.742
794.7343, 3962.934
795.2164, 3955.149
795.6985, 3926.295
796.1806, 3912.481
796.6627, 3924.426
797.1448, 3943.894
797.6270, 3961.958
798.1091, 3979.938
798.5912, 3983.107
799.0733, 3969.007
799.5554, 3953.005
800.0375, 3951.133
800.5197, 3957.765
801.0018, 3961.715
801.4839, 3960.944
801.9660, 3962.013
802.4481, 3970.894
802.9302, 3982.124
803.4124, 3990.922
803.8945, 3994.582
804.3766, 4001.134
804.8587, 4014.960
805.3408, 4025.881
805.8229, 4021.461
806.3051, 4001.847
806.7872, 3989.480
807.2693, 3986.114
807.7514, 3990.980
808.2335, 4013.802
808.7156, 4040.635
809.1978, 4047.114
809.6799, 4020.403
810.1620, 3999.580
810.6441, 4006.500
811.1262, 4023.897
811.6083, 4034.724
812.0905, 4035.175
812.5726, 4037.184
813.0547, 4042.178
813.5368, 4046.398
814.0189, 4044.491
814.5010, 4037.483
814.9832, 4031.090
815.4653, 4026.085
815.9474, 4022.681
816.4295, 4020.886
816.9116, 4020.847
817.3937, 4023.187
817.8759, 4030.817
818.3580, 4035.318
818.8401, 4032.392
819.3222, 4027.239
819.8043, 4024.137
820.2864, 4022.786
820.7686, 4025.638
821.2507, 4033.955
821.7328, 4043.278
822.2149, 4048.552
822.6970, 4050.133
823.1791, 4047.913
823.6613, 4040.107
824.1434, 4034.488
824.6255, 4040.421
825.1076, 4049.495
825.5897, 4052.252
826.0718, 4031.991
826.5540, 4028.416
827.0361, 4049.988
827.5182, 4078.539
828.0003, 4093.136
828.4824, 4093.783
828.9645, 4088.768
829.4467, 4077.775
829.9288, 4067.696
830.4109, 4068.167
830.8930, 4074.175
831.3751, 4077.729
831.8572, 4075.002
832.3394, 4073.690
832.8215, 4078.131
833.3036, 4084.449
833.7857, 4088.250
834.2678, 4088.431
834.7499, 4089.851
835.2321, 4094.146
835.7142, 4096.548
836.1963, 4088.217
836.6784, 4072.523
837.1605, 4061.753
837.6426, 4058.259
838.1248, 4060.228
838.6069, 4072.421
839.0890, 4086.396
839.5711, 4092.119
840.0532, 4079.599
840.5353, 4073.538
841.0175, 4077.996
841.4996, 4086.625
841.9817, 4052.983
842.4638, 4073.987
842.9459, 4088.076
843.4280, 4095.547
843.9102, 4080.745
844.3923, 4091.521
844.8744, 4090.100
845.3565, 4086.847
845.8386, 4097.250
846.3207, 4078.538
846.8029, 4085.923
847.2850, 4080.947
847.7671, 4079.603
848.2492, 4065.994
848.7313, 4095.317
849.2134, 4089.723
849.6956, 4084.101
850.1777, 4090.679
850.6598, 4104.718
851.1419, 4108.106
851.6240, 4097.799
852.1061, 4086.194
852.5883, 4080.979
853.0704, 4079.872
853.5525, 4079.934
854.0346, 4078.344
854.5167, 4087.315
854.9988, 4119.155
855.4810, 4146.314
855.9631, 4144.604
856.4452, 4113.359
856.9273, 4097.333
857.4094, 4098.236
857.8915, 4105.626
858.3737, 4115.822
858.8558, 4124.331
859.3379, 4123.696
859.8200, 4112.397
860.3021, 4102.347
860.7842, 4092.527
861.2664, 4090.777
861.7485, 4106.076
862.2306, 4142.726
862.7127, 4148.509
863.1948, 4116.220
863.6769, 4084.993
864.1591, 4086.417
864.6412, 4108.606
865.1233, 4126.318
865.6054, 4138.495
866.0875, 4142.353
866.5696, 4126.502
867.0518, 4110.057
867.5339, 4106.903
868.0160, 4118.696
868.4981, 4124.966
868.9802, 4124.564
869.4623, 4120.860
869.9445, 4114.042
870.4266, 4105.291
870.9087, 4099.813
871.3908, 4097.498
871.8729, 4097.753
872.3550, 4104.293
872.8372, 4109.904
873.3193, 4104.929
873.8014, 4092.082
874.2835, 4087.351
874.7656, 4103.009
875.2477, 4116.758
875.7299, 4121.229
876.2120, 4119.981
876.6941, 4130.506
877.1762, 4152.731
877.6583, 4166.357
878.1404, 4158.283
878.6226, 4141.234
879.1047, 4127.519
879.5869, 4118.438
880.0690, 4116.958
880.5511, 4130.585
881.0332, 4144.750
881.5153, 4156.943
881.9974, 4166.367
882.4796, 4169.912
882.9617, 4165.674
883.4438, 4167.323
883.9259, 4180.389
884.4080, 4195.990
884.8901, 4199.502
885.3723, 4194.500
885.8544, 4189.464
886.3365, 4189.357
886.8186, 4186.466
887.3007, 4167.666
887.7828, 4148.369
888.2650, 4151.723
888.7471, 4190.878
889.2292, 4216.547
889.7113, 4221.721
890.1934, 4219.333
890.6755, 4229.432
891.1577, 4246.044
891.6398, 4247.629
892.1219, 4226.647
892.6040, 4208.877
893.0861, 4215.199
893.5682, 4231.599
894.0504, 4245.709
894.5325, 4257.100
895.0146, 4261.492
895.4967, 4254.771
895.9788, 4248.641
896.4609, 4256.198
896.9431, 4274.215
897.4252, 4276.563
897.9073, 4261.619
898.3894, 4259.598
898.8715, 4317.753
899.3536, 4381.350
899.8358, 4398.462
900.3179, 4359.730
900.8000, 4332.689
901.2821, 4327.916
901.7642, 4330.454
902.2463, 4332.975
902.7285, 4336.670
903.2106, 4355.882
903.6927, 4389.721
904.1748, 4416.884
904.6569, 4422.053
905.1390, 4416.145
905.6212, 4400.665
906.1033, 4381.577
906.5854, 4382.232
907.0675, 4436.826
907.5496, 4478.496
908.0317, 4487.014
908.5139, 4473.613
908.9960, 4472.553
909.4781, 4483.906
909.9602, 4495.111
910.4423, 4500.633
910.9244, 4505.609
911.4066, 4519.279
911.8887, 4536.279
912.3708, 4546.891
912.8529, 4546.931
913.3350, 4540.528
913.8171, 4519.579
914.2993, 4499.156
914.7814, 4503.718
915.2635, 4535.979
915.7456, 4555.502
916.2277, 4554.421
916.7098, 4549.013
917.1920, 4564.645
917.6741, 4585.640
918.1562, 4584.693
918.6383, 4546.573
919.1204, 4521.989
919.6025, 4543.266
920.0847, 4569.426
920.5668, 4571.160
921.0489, 4543.265
921.5310, 4530.238
922.0131, 4534.009
922.4952, 4536.895
922.9774, 4519.563
923.4595, 4494.721
923.9416, 4481.400
924.4237, 4480.302
924.9058, 4482.029
925.3879, 4489.670
925.8701, 4491.901
926.3522, 4480.641
926.8343, 4458.765
927.3164, 4452.203
927.7985, 4462.887
928.2806, 4470.460
928.7628, 4462.086
929.2449, 4448.497
929.7270, 4443.327
930.2091, 4446.737
930.6912, 4459.035
931.1733, 4498.896
931.6555, 4525.832
932.1376, 4522.171
932.6197, 4500.330
933.1018, 4477.948
933.5839, 4454.153
934.0660, 4434.301
934.5482, 4418.116
935.0303, 4409.453
935.5124, 4420.671
935.9945, 4440.697
936.4766, 4447.993
936.9587, 4429.807
937.4409, 4420.686
937.9230, 4443.833
938.4051, 4471.125
938.8872, 4480.684
939.3693, 4469.433
939.8514, 4456.616
940.3336, 4441.400
940.8157, 4432.158
941.2978, 4440.357
941.7799, 4456.678
942.2620, 4467.685
942.7441, 4472.722
943.2263, 4477.807
943.7084, 4488.713
944.1905, 4496.088
944.6726, 4495.564
945.1547, 4488.331
945.6368, 4479.705
946.1190, 4469.102
946.6011, 4466.399
947.0832, 4480.271
947.5653, 4499.715
948.0474, 4510.555
948.5295, 4515.458
949.0117, 4520.630
949.4938, 4536.472
949.9759, 4541.350
950.4580, 4523.528
950.9401, 4498.991
951.4222, 4493.296
951.9044, 4506.721
952.3865, 4521.106
952.8686, 4535.422
953.3507, 4541.177
953.8328, 4513.064
954.3149, 4478.725
954.7971, 4478.591
955.2792, 4534.455
955.7613, 4569.326
956.2434, 4559.854
956.7255, 4540.855
957.2076, 4533.074
957.6898, 4536.020
958.1719, 4529.532
958.6540, 4513.812
959.1361, 4505.721
959.6182, 4526.595
960.1003, 4552.686
960.5825, 4560.178
961.0646, 4551.878
961.5467, 4549.287
962.0288, 4566.627
962.5109, 4573.685
962.9930, 4560.512
963.4752, 4535.145
963.9573, 4515.657
964.4394, 4501.921
964.9215, 4492.479
965.4036, 4488.189
965.8857, 4485.332
966.3679, 4476.902
966.8500, 4469.752
967.3321, 4473.540
967.8142, 4501.875
968.2963, 4518.062
968.7784, 4519.133
969.2606, 4513.476
969.7427, 4506.879
970.2248, 4500.523
970.7069, 4499.880
971.1890, 4505.280
971.6711, 4510.145
972.1533, 4514.148
972.6354, 4512.792
973.1175, 4498.973
973.5996, 4473.278
974.0817, 4458.280
974.5638, 4454.875
975.0460, 4459.349
975.5281, 4472.372
976.0102, 4490.323
976.4923, 4511.419
976.9744, 4531.378
977.4565, 4537.638
977.9387, 4512.912
978.4208, 4487.365
978.9029, 4463.482
979.3850, 4448.965
979.8671, 4459.102
980.3492, 4500.840
980.8314, 4524.563
981.3135, 4522.607
981.7956, 4512.510
982.2777, 4509.743
982.7598, 4512.924
983.2419, 4523.299
983.7241, 4543.046
984.2062, 4552.366
984.6883, 4528.246
985.1704, 4510.279
985.6525, 4520.925
986.1346, 4555.916
986.6168, 4566.021
987.0989, 4552.101
987.5810, 4541.016
988.0631, 4554.749
988.5452, 4572.899
989.0273, 4576.756
989.5095, 4569.672
989.9916, 4559.960
990.4737, 4542.406
990.9558, 4534.030
991.4379, 4540.633
991.9200, 4551.868
992.4022, 4546.209
992.8843, 4530.046
993.3664, 4535.440
993.8485, 4572.427
994.3306, 4604.380
994.8127, 4602.918
995.2949, 4587.346
995.7770, 4571.109
996.2591, 4553.364
996.7412, 4552.752
997.2233, 4575.784
997.7054, 4592.168
998.1876, 4574.266
998.6697, 4540.544
999.1518, 4532.779
999.6339, 4546.205
1000.116, 4561.386
1000.598, 4573.717
1001.080, 4581.710
1001.562, 4586.341
1002.044, 4585.833
1002.527, 4573.390
1003.009, 4547.711
1003.491, 4530.944
1003.973, 4528.424
1004.455, 4531.216
1004.937, 4530.508
1005.419, 4528.873
1005.901, 4530.178
1006.384, 4536.510
1006.866, 4539.259
1007.348, 4533.539
1007.830, 4530.236
1008.312, 4538.765
1008.794, 4555.426
1009.276, 4554.131
1009.758, 4537.458
1010.240, 4526.833
1010.723, 4542.719
1011.205, 4560.746
1011.687, 4563.319
1012.169, 4556.383
1012.651, 4558.553
1013.133, 4578.878
1013.615, 4579.351
1014.097, 4547.258
1014.580, 4512.410
1015.062, 4523.828
1015.544, 4560.442
1016.026, 4581.626
1016.508, 4577.694
1016.990, 4570.613
1017.472, 4563.839
1017.954, 4561.761
1018.436, 4569.009
1018.919, 4584.753
1019.401, 4591.203
1019.883, 4588.342
1020.365, 4582.161
1020.847, 4569.784
1021.329, 4560.998
1021.811, 4570.351
1022.293, 4590.646
1022.776, 4604.267
1023.258, 4604.554
1023.740, 4571.932
1024.222, 4613.683
1024.704, 4638.859
1025.186, 4648.354
1025.668, 4595.193
1026.150, 4622.939
1026.632, 4618.260
1027.115, 4612.261
1027.597, 4651.394
1028.079, 4607.346
1028.561, 4645.763
1029.043, 4651.261
1029.525, 4671.826
1030.007, 4659.766
1030.489, 4657.784
1030.972, 4688.443
1031.454, 4701.024
1031.936, 4685.210
1032.418, 4706.731
1032.900, 4661.545
1033.382, 4674.896
1033.864, 4713.503
1034.346, 4699.329
1034.828, 4695.945
1035.311, 4726.224
1035.793, 4772.492
1036.275, 4783.800
1036.757, 4755.991
1037.239, 4727.718
1037.721, 4726.908
1038.203, 4734.965
1038.685, 4740.906
1039.167, 4744.141
1039.650, 4746.079
1040.132, 4746.897
1040.614, 4744.900
1041.096, 4737.294
1041.578, 4730.452
1042.060, 4737.096
1042.542, 4751.492
1043.024, 4762.546
1043.507, 4762.138
1043.989, 4768.287
1044.471, 4792.305
1044.953, 4814.614
1045.435, 4817.258
1045.917, 4802.209
1046.399, 4795.918
1046.881, 4798.619
1047.364, 4803.956
1047.846, 4812.847
1048.328, 4818.090
1048.810, 4812.052
1049.292, 4797.532
1049.774, 4785.867
1050.256, 4773.375
1050.738, 4780.124
1051.220, 4815.889
1051.703, 4856.684
1052.185, 4867.204
1052.667, 4858.285
1053.149, 4845.239
1053.631, 4828.159
1054.113, 4821.333
1054.595, 4836.150
1055.077, 4853.803
1055.559, 4868.055
1056.042, 4877.405
1056.524, 4866.938
1057.006, 4839.356
1057.488, 4816.761
1057.970, 4816.858
1058.452, 4819.883
1058.934, 4808.591
1059.416, 4793.301
1059.899, 4794.394
1060.381, 4818.052
1060.863, 4838.349
1061.345, 4854.519
1061.827, 4861.617
1062.309, 4848.196
1062.791, 4825.716
1063.273, 4810.986
1063.755, 4805.309
1064.238, 4802.055
1064.720, 4800.075
1065.202, 4799.803
1065.684, 4803.453
1066.166, 4807.429
1066.648, 4798.222
1067.130, 4779.310
1067.612, 4766.814
1068.094, 4769.052
1068.577, 4771.176
1069.059, 4762.661
1069.541, 4750.761
1070.023, 4744.356
1070.505, 4747.042
1070.987, 4727.019
1071.469, 4679.888
1071.951, 4650.231
1072.434, 4690.035
1072.916, 4748.542
1073.398, 4763.126
1073.880, 4744.400
1074.362, 4732.983
1074.844, 4747.666
1075.326, 4752.015
1075.808, 4738.037
1076.291, 4718.479
1076.773, 4713.207
1077.255, 4716.717
1077.737, 4711.119
1078.219, 4693.243
1078.701, 4681.304
1079.183, 4691.540
1079.665, 4703.321
1080.147, 4706.196
1080.630, 4701.571
1081.112, 4695.986
1081.594, 4689.661
1082.076, 4691.088
1082.558, 4711.365
1083.040, 4725.378
1083.522, 4697.068
1084.004, 4654.912
1084.486, 4639.036
1084.969, 4664.970
1085.451, 4684.322
1085.933, 4697.465
1086.415, 4702.068
1086.897, 4687.775
1087.379, 4667.981
1087.861, 4670.905
1088.343, 4690.950
1088.826, 4702.508
1089.308, 4692.547
1089.790, 4676.621
1090.272, 4652.170
1090.754, 4629.928
1091.236, 4630.872
1091.718, 4649.678
1092.200, 4662.059
1092.682, 4664.164
1093.165, 4662.580
1093.647, 4654.165
1094.129, 4650.272
1094.611, 4663.316
1095.093, 4688.784
1095.575, 4691.090
1096.057, 4669.147
1096.539, 4650.534
1097.022, 4644.390
1097.504, 4648.420
1097.986, 4673.855
1098.468, 4702.352
1098.950, 4705.207
1099.432, 4658.055
1099.914, 4643.814
1100.396, 4672.400
1100.879, 4702.437
1101.361, 4699.167
1101.843, 4679.058
1102.325, 4676.869
1102.807, 4687.084
1103.289, 4688.090
1103.771, 4652.647
1104.253, 4634.436
1104.735, 4647.791
1105.218, 4674.274
1105.700, 4689.557
1106.182, 4695.428
1106.664, 4699.853
1107.146, 4703.783
1107.628, 4704.443
1108.110, 4703.405
1108.592, 4695.075
1109.074, 4670.975
1109.557, 4637.358
1110.039, 4617.513
1110.521, 4611.273
1111.003, 4624.943
1111.485, 4667.193
1111.967, 4708.400
1112.449, 4718.866
1112.931, 4713.236
1113.414, 4707.363
1113.896, 4704.331
1114.378, 4691.062
1114.860, 4663.488
1115.342, 4643.583
1115.824, 4647.313
1116.306, 4663.143
1116.788, 4676.671
1117.271, 4687.361
1117.753, 4694.181
1118.235, 4703.066
1118.717, 4695.057
1119.199, 4659.020
1119.681, 4625.246
1120.163, 4632.813
1120.645, 4665.409
1121.127, 4670.245
1121.609, 4648.524
1122.092, 4635.038
1122.574, 4660.140
1123.056, 4680.537
1123.538, 4680.291
1124.020, 4668.415
1124.502, 4661.887
1124.984, 4660.177
1125.466, 4659.178
1125.949, 4658.394
1126.431, 4656.461
1126.913, 4650.408
1127.395, 4644.592
1127.877, 4642.863
1128.359, 4644.570
1128.841, 4643.452
1129.323, 4639.134
1129.806, 4639.391
1130.288, 4649.000
1130.770, 4660.060
1131.252, 4667.172
1131.734, 4669.628
1132.216, 4664.492
1132.698, 4646.007
1133.180, 4641.940
1133.662, 4654.983
1134.145, 4671.340
1134.627, 4689.637
1135.109, 4701.030
1135.591, 4684.303
1136.073, 4649.553
1136.555, 4622.804
1137.037, 4613.919
1137.519, 4610.593
1138.001, 4613.485
1138.484, 4618.768
1138.966, 4625.231
1139.448, 4630.269
1139.930, 4621.996
1140.412, 4602.511
1140.894, 4595.565
1141.376, 4636.589
1141.858, 4656.476
1142.341, 4627.541
1142.823, 4579.213
1143.305, 4566.622
1143.787, 4582.699
1144.269, 4596.096
1144.751, 4601.560
1145.233, 4604.381
1145.715, 4607.995
1146.198, 4609.242
1146.680, 4606.319
1147.162, 4599.869
1147.644, 4590.392
1148.126, 4578.656
1148.608, 4576.472
1149.090, 4591.496
1149.572, 4606.340
1150.054, 4606.784
1150.536, 4601.524
1151.019, 4598.993
1151.501, 4599.788
1151.983, 4598.255
1152.465, 4594.303
1152.947, 4590.009
1153.429, 4583.017
1153.911, 4580.097
1154.393, 4590.503
1154.876, 4608.661
1155.358, 4625.691
1155.840, 4643.490
1156.322, 4651.531
1156.804, 4648.693
1157.286, 4641.201
1157.768, 4629.634
1158.250, 4619.402
1158.733, 4622.059
1159.215, 4632.671
1159.697, 4631.026
1160.179, 4603.295
1160.661, 4589.052
1161.143, 4596.860
1161.625, 4607.621
1162.107, 4591.322
1162.589, 4566.545
1163.072, 4571.781
1163.554, 4607.027
1164.036, 4623.228
1164.518, 4591.297
1165.000, 4568.094
1165.482, 4568.107
1165.964, 4581.628
1166.446, 4599.908
1166.928, 4616.004
1167.411, 4609.181
1167.893, 4570.735
1168.375, 4546.116
1168.857, 4561.399
1169.339, 4579.676
1169.821, 4589.503
1170.303, 4590.856
1170.785, 4576.759
1171.268, 4553.798
1171.750, 4544.435
1172.232, 4561.307
1172.714, 4578.180
1173.196, 4588.394
1173.678, 4591.185
1174.160, 4583.741
1174.642, 4567.868
1175.125, 4553.061
1175.607, 4540.430
1176.089, 4537.015
1176.571, 4556.898
1177.053, 4572.320
1177.535, 4561.957
1178.017, 4548.419
1178.499, 4557.004
1178.981, 4587.274
1179.464, 4589.954
1179.946, 4566.533
1180.428, 4549.062
1180.910, 4563.993
1181.392, 4583.377
1181.874, 4599.119
1182.356, 4606.323
1182.838, 4592.563
1183.320, 4556.397
1183.803, 4543.986
1184.285, 4559.604
1184.767, 4574.601
1185.249, 4564.802
1185.731, 4549.509
1186.213, 4539.901
1186.695, 4535.761
1187.177, 4536.738
1187.660, 4543.497
1188.142, 4543.313
1188.624, 4532.890
1189.106, 4525.414
1189.588, 4537.111
1190.070, 4552.785
1190.552, 4557.688
1191.034, 4553.928
1191.516, 4562.663
1191.999, 4586.074
1192.481, 4601.308
1192.963, 4602.110
1193.445, 4595.637
1193.927, 4581.603
1194.409, 4568.945
1194.891, 4570.554
1195.373, 4587.452
1195.855, 4587.602
1196.338, 4568.487
1196.820, 4555.535
1197.302, 4563.287
1197.784, 4571.742
1198.266, 4553.673
1198.748, 4526.132
1199.230, 4510.941
1199.712, 4512.027
1200.195, 4515.149
1200.677, 4520.560
1201.159, 4526.243
1201.641, 4530.726
1202.123, 4535.357
1202.605, 4543.648
1203.087, 4552.391
1203.569, 4556.117
1204.052, 4552.433
1204.534, 4550.634
1205.016, 4551.675
1205.498, 4548.777
1205.980, 4526.631
1206.462, 4506.562
1206.944, 4523.992
1207.426, 4560.801
1207.908, 4572.277
1208.391, 4540.248
1208.873, 4528.197
1209.355, 4542.374
1209.837, 4556.408
1210.319, 4541.842
1210.801, 4519.565
1211.283, 4513.634
1211.765, 4520.808
1212.247, 4528.312
1212.730, 4538.155
1213.212, 4535.128
1213.694, 4513.917
1214.176, 4497.865
1214.658, 4517.811
1215.140, 4549.270
1215.622, 4568.142
1216.104, 4572.791
1216.587, 4561.388
1217.069, 4524.108
1217.551, 4510.088
1218.033, 4532.123
1218.515, 4558.125
1218.997, 4545.489
1219.479, 4521.759
1219.961, 4520.110
1220.443, 4541.513
1220.926, 4555.054
1221.408, 4556.237
1221.890, 4563.444
1222.372, 4583.264
1222.854, 4602.265
1223.336, 4603.597
1223.818, 4595.589
1224.300, 4588.278
1224.782, 4582.595
1225.265, 4566.178
1225.747, 4533.861
1226.229, 4516.693
1226.711, 4527.586
1227.193, 4548.036
1227.675, 4558.500
1228.157, 4564.047
1228.639, 4570.463
1229.122, 4578.646
1229.604, 4586.707
1230.086, 4596.033
1230.568, 4594.730
1231.050, 4571.928
1231.532, 4549.841
1232.014, 4560.912
1232.496, 4583.839
1232.979, 4590.400
1233.461, 4575.957
1233.943, 4571.003
1234.425, 4576.459
1234.907, 4582.876
1235.389, 4587.700
1235.871, 4588.510
1236.353, 4574.552
1236.835, 4559.746
1237.318, 4566.783
1237.800, 4601.437
1238.282, 4613.027
1238.764, 4600.641
1239.246, 4581.910
1239.728, 4561.860
1240.210, 4545.732
1240.692, 4536.490
1241.175, 4535.356
1241.657, 4545.246
1242.139, 4568.979
1242.621, 4584.556
1243.103, 4592.097
1243.585, 4592.418
1244.067, 4575.415
1244.549, 4563.011
1245.031, 4576.913
1245.514, 4600.796
1245.996, 4611.410
1246.478, 4607.682
1246.960, 4605.112
1247.442, 4603.806
1247.924, 4599.866
1248.406, 4587.704
1248.888, 4575.685
1249.370, 4565.060
1249.853, 4559.599
1250.335, 4567.751
1250.817, 4588.626
1251.299, 4595.455
1251.781, 4587.724
1252.263, 4576.328
1252.745, 4560.636
1253.227, 4551.461
1253.710, 4552.827
1254.192, 4563.961
1254.674, 4592.656
1255.156, 4633.611
1255.638, 4643.003
1256.120, 4621.069
1256.602, 4602.342
1257.084, 4603.553
1257.567, 4615.439
1258.049, 4640.831
1258.531, 4666.647
1259.013, 4672.328
1259.495, 4662.957
1259.977, 4657.708
1260.459, 4657.368
1260.941, 4652.814
1261.423, 4630.970
1261.906, 4617.559
1262.388, 4621.148
1262.870, 4630.508
1263.352, 4625.967
1263.834, 4615.717
1264.316, 4625.296
1264.798, 4653.911
1265.280, 4663.369
1265.762, 4616.715
1266.245, 4594.710
1266.727, 4620.258
1267.209, 4655.298
1267.691, 4638.958
1268.173, 4600.718
1268.655, 4589.802
1269.137, 4609.306
1269.619, 4632.562
1270.102, 4662.423
1270.584, 4676.333
1271.066, 4665.675
1271.548, 4650.693
1272.030, 4660.570
1272.512, 4678.258
1272.994, 4683.579
1273.476, 4675.136
1273.958, 4665.612
1274.441, 4654.066
1274.923, 4647.467
1275.405, 4646.399
1275.887, 4615.085
1276.369, 4653.507
1276.851, 4675.354
1277.333, 4681.520
1277.815, 4625.030
1278.297, 4649.445
1278.780, 4641.439
1279.262, 4632.102
1279.744, 4667.905
1280.226, 4620.528
1280.708, 4655.615
1281.190, 4657.784
1281.672, 4675.019
1282.154, 4659.630
1282.637, 4654.318
1283.119, 4681.640
1283.601, 4690.892
1284.083, 4671.747
1284.565, 4689.939
1285.047, 4641.423
1285.529, 4651.444
1286.011, 4686.722
1286.494, 4669.219
1286.976, 4688.008
1287.458, 4692.974
1287.940, 4635.124
1288.422, 4686.518
1288.904, 4690.668
1289.386, 4679.085
1289.868, 4684.306
1290.350, 4680.845
1290.833, 4673.756
1291.315, 4671.917
1291.797, 4674.431
1292.279, 4680.975
1292.761, 4692.514
1293.243, 4697.945
1293.725, 4692.951
1294.207, 4691.209
1294.689, 4698.622
1295.172, 4707.989
1295.654, 4708.080
1296.136, 4704.061
1296.618, 4702.911
1297.100, 4705.936
1297.582, 4706.716
1298.064, 4704.405
1298.546, 4705.634
1299.029, 4713.445
1299.511, 4722.359
1299.993, 4731.083
1300.475, 4734.729
1300.957, 4724.064
1301.439, 4702.506
1301.921, 4690.514
1302.403, 4687.872
##END=



