##NAMES=Chlorbartonite
##RRUFFID=R070178
##IDEAL CHEMISTRY=K_6_Fe_24_S_26_Cl
##LOCALITY=Coyote Peak, Orick, Humboldt County, California, USA
##OWNER=RRUFF
##SOURCE=Michael Scott
##DESCRIPTION=Brownish black with submetallic luster, associated with bartonite. Note that this is co-type material for bartonite, but there is very little bartonite on this piece.
##STATUS=The identification of this mineral is confirmed by single-crystal X-ray diffraction and chemical analysis.
##URL=rruff.info/R070178
##MEASURED CHEMISTRY=(K_5.70_Na_0.18_)_Σ=5.88_(Fe_19.22_Cu_0.33_Co_0.06_Ni_0.06_)_Σ=19.67_S_26.20_Cl_0.80_
111.6674, 40.91446
112.1495, 45.98925
112.6316, 47.80560
113.1138, 48.91320
113.5959, 50.76233
114.0780, 53.72099
114.5601, 58.45256
115.0422, 66.35066
115.5243, 78.14871
116.0065, 89.75233
116.4886, 100.8403
116.9707, 111.4477
117.4528, 122.2838
117.9349, 134.0447
118.4170, 144.1785
118.8992, 147.9365
119.3813, 145.6003
119.8634, 141.9805
120.3455, 137.7407
120.8276, 133.2670
121.3097, 128.8163
121.7919, 123.3701
122.2740, 120.0677
122.7561, 123.2918
123.2382, 133.1632
123.7203, 144.1087
124.2024, 153.4264
124.6846, 161.4066
125.1667, 169.2723
125.6488, 176.8799
126.1309, 185.0610
126.6130, 193.8522
127.0951, 203.0985
127.5773, 214.7848
128.0594, 231.4974
128.5415, 253.2404
129.0236, 274.0594
129.5057, 287.5132
129.9878, 303.4912
130.4700, 329.7119
130.9521, 367.2467
131.4342, 410.4258
131.9163, 457.2513
132.3984, 510.8418
132.8805, 550.2227
133.3627, 561.7322
133.8448, 562.7050
134.3269, 561.7734
134.8090, 561.0582
135.2911, 559.5638
135.7732, 556.4058
136.2554, 552.4958
136.7375, 543.9485
137.2196, 530.5146
137.7017, 512.6215
138.1838, 488.8956
138.6659, 459.2264
139.1481, 426.8596
139.6302, 397.2025
140.1123, 367.7841
140.5944, 346.3354
141.0765, 334.7823
141.5586, 329.1523
142.0408, 326.8096
142.5229, 326.7003
143.0050, 328.6270
143.4871, 332.1400
143.9692, 336.8473
144.4513, 344.1627
144.9335, 355.9388
145.4156, 369.3064
145.8977, 380.3504
146.3798, 387.5557
146.8619, 394.1642
147.3440, 408.5714
147.8261, 440.8118
148.3083, 469.1573
148.7904, 491.1053
149.2725, 509.1854
149.7546, 527.8077
150.2367, 548.9813
150.7188, 569.0558
151.2010, 577.1032
151.6831, 565.9291
152.1652, 550.4643
152.6473, 529.7021
153.1294, 505.8625
153.6115, 481.0252
154.0937, 456.0095
154.5758, 431.8027
155.0579, 411.4977
155.5400, 397.0253
156.0221, 383.8515
156.5042, 371.9529
156.9864, 360.8811
157.4685, 349.0489
157.9506, 335.1817
158.4327, 321.6656
158.9148, 316.7899
159.3969, 325.9208
159.8791, 334.4712
160.3612, 338.5871
160.8433, 339.6753
161.3254, 340.9281
161.8075, 344.3903
162.2896, 347.7094
162.7718, 343.4185
163.2539, 327.5397
163.7360, 312.4743
164.2181, 303.8736
164.7002, 299.2263
165.1823, 292.2253
165.6645, 279.5172
166.1466, 263.9203
166.6287, 252.3712
167.1108, 245.6805
167.5929, 240.3535
168.0750, 233.8228
168.5572, 227.3055
169.0393, 225.2199
169.5214, 231.2862
170.0035, 240.3415
170.4856, 241.5355
170.9677, 232.0420
171.4499, 222.8002
171.9320, 219.9819
172.4141, 222.0746
172.8962, 223.8008
173.3783, 223.1672
173.8604, 221.3045
174.3426, 220.2430
174.8247, 220.2734
175.3068, 220.0550
175.7889, 219.3800
176.2710, 218.0099
176.7531, 214.9059
177.2353, 209.9319
177.7174, 202.6125
178.1995, 191.4733
178.6816, 175.2300
179.1637, 161.9180
179.6458, 159.4380
180.1280, 165.4598
180.6101, 166.4294
181.0922, 154.9204
181.5743, 140.8708
182.0564, 135.9192
182.5385, 140.7548
183.0207, 147.7337
183.5028, 153.0305
183.9849, 156.6337
184.4670, 158.2296
184.9491, 157.2052
185.4312, 154.5129
185.9134, 150.5635
186.3955, 145.3355
186.8776, 141.5222
187.3597, 141.3620
187.8418, 144.4437
188.3239, 148.3533
188.8061, 154.6277
189.2882, 159.1556
189.7703, 157.7047
190.2524, 150.7336
190.7345, 144.1353
191.2166, 142.5184
191.6988, 145.1156
192.1809, 146.6269
192.6630, 145.5465
193.1451, 144.2465
193.6272, 145.1185
194.1093, 147.6777
194.5915, 149.1021
195.0736, 146.8752
195.5557, 141.5731
196.0378, 136.7806
196.5199, 132.0865
197.0020, 129.0207
197.4842, 129.3031
197.9663, 132.0552
198.4484, 134.1675
198.9305, 133.3162
199.4126, 130.0417
199.8947, 126.9848
200.3769, 123.5630
200.8590, 121.4639
201.3411, 122.3020
201.8232, 125.0389
202.3053, 127.1655
202.7874, 127.6902
203.2696, 126.4879
203.7517, 122.1043
204.2338, 110.3708
204.7159, 102.6189
205.1980, 107.5514
205.6801, 119.5389
206.1623, 127.9156
206.6444, 125.4606
207.1265, 115.7940
207.6086, 110.3291
208.0907, 111.2649
208.5728, 112.3665
209.0549, 111.0193
209.5371, 108.1023
210.0192, 104.7947
210.5013, 101.6061
210.9834, 98.37817
211.4655, 94.16456
211.9476, 87.36761
212.4298, 83.45329
212.9119, 85.43893
213.3940, 90.79146
213.8761, 97.45321
214.3582, 105.4339
214.8403, 112.6606
215.3225, 114.6631
215.8046, 109.6894
216.2867, 104.6333
216.7688, 100.9387
217.2509, 98.58469
217.7330, 97.97723
218.2152, 99.44099
218.6973, 101.6721
219.1794, 103.0146
219.6615, 103.4953
220.1436, 102.9273
220.6257, 101.4771
221.1079, 98.79558
221.5900, 93.67915
222.0721, 85.76926
222.5542, 78.06241
223.0363, 74.12579
223.5184, 74.26021
224.0006, 75.85213
224.4827, 80.64328
224.9648, 85.18710
225.4469, 87.05205
225.9290, 86.03397
226.4111, 84.13773
226.8933, 83.31528
227.3754, 83.61121
227.8575, 83.32835
228.3396, 81.73862
228.8217, 79.96327
229.3038, 78.46297
229.7860, 77.32287
230.2681, 76.72915
230.7502, 76.89278
231.2323, 77.77989
231.7144, 79.13255
232.1965, 81.81482
232.6787, 83.81544
233.1608, 84.17548
233.6429, 83.03145
234.1250, 80.85703
234.6071, 76.64246
235.0892, 71.34049
235.5714, 69.57829
236.0535, 73.44511
236.5356, 77.29057
237.0177, 77.58564
237.4998, 75.81714
237.9819, 74.72591
238.4641, 75.93529
238.9462, 78.46105
239.4283, 80.48285
239.9104, 82.42954
240.3925, 82.61420
240.8746, 76.85970
241.3568, 69.86890
241.8389, 68.10915
242.3210, 75.30358
242.8031, 86.13895
243.2852, 94.69023
243.7673, 101.6166
244.2495, 102.2347
244.7316, 86.68280
245.2137, 67.49939
245.6958, 57.55630
246.1779, 60.66279
246.6600, 68.58835
247.1422, 74.17755
247.6243, 77.43221
248.1064, 79.44969
248.5885, 80.29588
249.0706, 80.12151
249.5527, 78.21563
250.0349, 74.18121
250.5170, 72.32970
250.9991, 78.76205
251.4812, 91.26318
251.9633, 96.78555
252.4454, 89.50940
252.9276, 78.77449
253.4097, 73.65733
253.8918, 73.71673
254.3739, 74.89334
254.8560, 76.11205
255.3382, 76.96837
255.8203, 75.67899
256.3024, 70.73237
256.7845, 67.17793
257.2666, 72.88320
257.7487, 84.52440
258.2308, 90.85261
258.7130, 82.59539
259.1951, 69.89780
259.6772, 68.07906
260.1593, 79.01899
260.6414, 89.24165
261.1235, 88.30197
261.6057, 79.53639
262.0878, 72.85095
262.5699, 71.38951
263.0520, 70.74368
263.5341, 66.96981
264.0162, 60.41994
264.4984, 53.90546
264.9805, 47.79379
265.4626, 43.52670
265.9447, 44.16953
266.4268, 52.08768
266.9089, 60.61582
267.3911, 67.39615
267.8732, 72.29994
268.3553, 74.47211
268.8374, 72.92107
269.3195, 69.84301
269.8016, 70.06535
270.2838, 74.98135
270.7659, 77.38213
271.2480, 72.84862
271.7301, 65.59039
272.2122, 61.11010
272.6943, 60.66295
273.1765, 63.35989
273.6586, 69.31435
274.1407, 80.02190
274.6228, 85.26669
275.1049, 80.89985
275.5870, 73.36112
276.0692, 66.94680
276.5513, 62.34600
277.0334, 59.67268
277.5155, 59.05395
277.9976, 60.60973
278.4797, 63.87120
278.9619, 73.03149
279.4440, 79.62374
279.9261, 77.59265
280.4082, 69.59778
280.8903, 62.92524
281.3724, 61.97941
281.8546, 65.50381
282.3367, 67.20581
282.8188, 66.17468
283.3009, 64.51888
283.7830, 61.80460
284.2651, 58.89260
284.7473, 56.71367
285.2294, 55.64399
285.7115, 55.65580
286.1936, 56.79741
286.6757, 60.39976
287.1578, 62.99314
287.6400, 62.74633
288.1221, 62.78084
288.6042, 66.72705
289.0863, 74.45110
289.5684, 81.59496
290.0505, 82.83298
290.5327, 76.74609
291.0148, 71.18965
291.4969, 65.10406
291.9790, 60.44706
292.4611, 57.75035
292.9432, 57.18388
293.4254, 59.33796
293.9075, 65.48364
294.3896, 74.75264
294.8717, 78.14951
295.3538, 68.65662
295.8359, 62.11499
296.3181, 64.38022
296.8002, 70.89087
297.2823, 75.85297
297.7644, 76.68198
298.2465, 74.71345
298.7286, 72.32705
299.2108, 68.74266
299.6929, 66.84821
300.1750, 68.08423
300.6571, 70.59064
301.1392, 74.12889
301.6213, 78.45842
302.1035, 80.83298
302.5856, 75.69515
303.0677, 62.59524
303.5498, 57.74173
304.0319, 70.42480
304.5140, 83.87833
304.9962, 87.46845
305.4783, 82.46719
305.9604, 75.41978
306.4425, 68.69945
306.9246, 62.89108
307.4067, 59.98548
307.8889, 60.73253
308.3710, 62.56087
308.8531, 64.83002
309.3352, 66.96226
309.8173, 67.69743
310.2994, 65.27327
310.7816, 62.90665
311.2637, 65.42745
311.7458, 72.54640
312.2279, 76.78139
312.7100, 73.42596
313.1921, 66.39813
313.6743, 63.48304
314.1564, 66.56271
314.6385, 68.03630
315.1206, 60.98014
315.6027, 49.95245
316.0848, 45.75839
316.5670, 51.96714
317.0491, 62.08455
317.5312, 68.47573
318.0133, 71.10494
318.4954, 71.66005
318.9775, 68.37762
319.4597, 64.38313
319.9418, 62.42255
320.4239, 62.63966
320.9060, 63.72346
321.3881, 64.72453
321.8702, 65.66281
322.3524, 66.98981
322.8345, 68.79328
323.3166, 70.80766
323.7987, 74.24920
324.2808, 77.67059
324.7629, 78.32060
325.2451, 74.84454
325.7272, 68.44285
326.2093, 61.94899
326.6914, 52.46517
327.1735, 47.18793
327.6556, 48.72003
328.1378, 52.71255
328.6199, 56.40948
329.1020, 58.92033
329.5841, 59.82218
330.0662, 57.94444
330.5483, 51.95025
331.0305, 50.42217
331.5126, 59.34032
331.9947, 66.88533
332.4768, 67.75237
332.9589, 63.88692
333.4410, 60.09256
333.9232, 59.45332
334.4053, 61.14290
334.8874, 61.91622
335.3695, 60.74464
335.8516, 60.65010
336.3337, 64.15200
336.8159, 68.13155
337.2980, 68.90295
337.7801, 65.24366
338.2622, 60.94611
338.7443, 61.39653
339.2264, 66.88777
339.7086, 69.61407
340.1907, 65.84213
340.6728, 61.35366
341.1549, 60.71177
341.6370, 63.55869
342.1191, 66.87542
342.6013, 69.88655
343.0834, 72.11716
343.5655, 72.44451
344.0476, 70.67733
344.5297, 67.61371
345.0118, 62.30955
345.4940, 56.21730
345.9761, 53.15524
346.4582, 55.09803
346.9403, 58.45335
347.4224, 60.62829
347.9045, 62.08675
348.3867, 65.08595
348.8688, 71.30586
349.3509, 77.97915
349.8330, 78.86491
350.3151, 71.83365
350.7972, 66.46854
351.2794, 66.25571
351.7615, 67.50843
352.2436, 66.16003
352.7257, 61.72541
353.2078, 56.63693
353.6899, 53.09284
354.1721, 51.13864
354.6542, 50.54493
355.1363, 53.59189
355.6184, 55.35071
356.1005, 51.93505
356.5826, 46.15425
357.0648, 43.53193
357.5469, 47.04140
358.0290, 54.44573
358.5111, 59.44331
358.9932, 60.99332
359.4753, 61.76242
359.9575, 61.99277
360.4396, 61.62769
360.9217, 60.23559
361.4038, 57.96091
361.8859, 55.84306
362.3680, 55.12336
362.8502, 55.86526
363.3322, 56.14449
363.8144, 54.88931
364.2965, 54.58061
364.7786, 56.62931
365.2607, 60.24079
365.7428, 64.16983
366.2249, 68.48814
366.7071, 71.94421
367.1892, 72.02683
367.6713, 68.40758
368.1534, 64.48081
368.6355, 61.62437
369.1176, 58.85518
369.5998, 54.38477
370.0819, 47.63269
370.5640, 42.60297
371.0461, 41.84686
371.5282, 44.24498
372.0103, 48.14469
372.4925, 53.63382
372.9746, 58.29757
373.4567, 59.72793
373.9388, 57.88890
374.4209, 55.69282
374.9030, 49.39402
375.3852, 46.27002
375.8673, 54.41832
376.3494, 69.76160
376.8315, 80.35068
377.3136, 79.84835
377.7957, 72.06039
378.2779, 66.99979
378.7600, 66.98759
379.2421, 66.72722
379.7242, 67.27762
380.2063, 66.82603
380.6884, 62.53218
381.1706, 54.81398
381.6527, 47.95954
382.1348, 46.61276
382.6169, 51.11481
383.0990, 54.45931
383.5811, 56.13639
384.0633, 57.06966
384.5454, 56.38477
385.0275, 55.39188
385.5096, 55.91919
385.9917, 58.79805
386.4738, 63.39024
386.9560, 70.32690
387.4381, 81.25396
387.9202, 85.12661
388.4023, 72.79314
388.8844, 58.03590
389.3665, 50.68733
389.8487, 50.84975
390.3308, 53.29370
390.8129, 56.62694
391.2950, 59.78141
391.7771, 59.96521
392.2592, 56.57839
392.7414, 53.00611
393.2235, 51.64986
393.7056, 51.76632
394.1877, 50.84085
394.6698, 46.75943
395.1519, 44.26889
395.6341, 48.18263
396.1162, 55.22797
396.5983, 57.59283
397.0804, 52.46256
397.5625, 45.51147
398.0446, 45.59155
398.5268, 57.33773
399.0089, 60.92965
399.4910, 47.46463
399.9731, 33.89042
400.4552, 31.61243
400.9373, 38.31969
401.4195, 44.83725
401.9016, 45.05790
402.3837, 40.77377
402.8658, 39.65294
403.3479, 43.67856
403.8300, 47.96968
404.3122, 54.26257
404.7943, 59.07767
405.2764, 58.01099
405.7585, 50.95100
406.2406, 43.89022
406.7227, 43.58897
407.2049, 49.74678
407.6870, 54.88663
408.1691, 59.57063
408.6512, 61.95134
409.1333, 58.99387
409.6154, 53.57301
410.0976, 51.02590
410.5797, 54.18468
411.0618, 59.04991
411.5439, 62.44155
412.0260, 64.22221
412.5081, 62.61755
412.9903, 55.45338
413.4724, 47.24669
413.9545, 45.60550
414.4366, 50.84970
414.9187, 55.71910
415.4008, 59.63698
415.8830, 62.10117
416.3651, 61.63485
416.8472, 58.85350
417.3293, 57.13503
417.8114, 59.07305
418.2935, 63.69124
418.7757, 65.43653
419.2578, 59.81668
419.7399, 56.90089
420.2220, 59.58525
420.7041, 64.29198
421.1862, 69.15559
421.6684, 73.00692
422.1505, 72.91295
422.6326, 63.19107
423.1147, 42.54813
423.5968, 32.36087
424.0789, 41.52532
424.5611, 50.36007
425.0432, 50.08376
425.5253, 45.04868
426.0074, 42.30124
426.4895, 44.85168
426.9716, 49.51410
427.4538, 51.75244
427.9359, 51.77465
428.4180, 54.98512
428.9001, 65.75014
429.3822, 75.83880
429.8643, 74.26279
430.3465, 62.05347
430.8286, 52.48246
431.3107, 50.10585
431.7928, 51.16958
432.2749, 53.70665
432.7570, 56.90114
433.2392, 57.14989
433.7213, 51.75686
434.2034, 43.17101
434.6855, 39.31068
435.1676, 45.84607
435.6497, 49.09431
436.1319, 46.29975
436.6140, 41.30446
437.0961, 35.16281
437.5782, 29.40844
438.0603, 28.56277
438.5424, 38.31876
439.0246, 57.60781
439.5067, 67.80081
439.9888, 62.11672
440.4709, 56.95737
440.9530, 58.53896
441.4352, 61.88300
441.9173, 60.90272
442.3994, 53.78995
442.8815, 45.73057
443.3636, 42.11849
443.8457, 42.37358
444.3279, 42.29400
444.8100, 40.92793
445.2921, 40.10739
445.7742, 43.09318
446.2563, 48.07368
446.7384, 49.26316
447.2206, 40.68633
447.7027, 32.62424
448.1848, 33.39092
448.6669, 40.10146
449.1490, 45.37606
449.6311, 46.60764
450.1133, 45.44725
450.5954, 44.32327
451.0775, 43.13432
451.5596, 42.34205
452.0417, 42.18052
452.5238, 42.16051
453.0060, 41.90039
453.4881, 41.57201
453.9702, 41.43793
454.4523, 41.56168
454.9344, 42.37229
455.4165, 45.77975
455.8987, 54.23306
456.3808, 58.45700
456.8629, 53.25953
457.3450, 46.06042
457.8271, 39.69823
458.3092, 34.95170
458.7914, 33.64985
459.2735, 39.64079
459.7556, 48.88091
460.2377, 53.62038
460.7198, 53.60458
461.2019, 51.28407
461.6841, 45.59565
462.1662, 39.96356
462.6483, 42.28625
463.1304, 56.09832
463.6125, 67.21294
464.0946, 70.53077
464.5768, 69.83518
465.0589, 68.43565
465.5410, 67.00557
466.0231, 65.76653
466.5052, 64.98635
466.9873, 64.53547
467.4695, 63.20824
467.9516, 58.21301
468.4337, 55.96213
468.9158, 59.84719
469.3979, 65.17914
469.8800, 67.65216
470.3622, 66.47689
470.8443, 63.56409
471.3264, 60.31218
471.8085, 56.81116
472.2906, 53.55455
472.7727, 49.72102
473.2549, 47.97014
473.7370, 52.91338
474.2191, 59.83725
474.7012, 61.89412
475.1833, 56.57522
475.6654, 50.16596
476.1476, 45.15687
476.6297, 42.16359
477.1118, 43.65603
477.5939, 50.24178
478.0760, 56.75556
478.5581, 58.59584
479.0403, 55.70260
479.5224, 51.46518
480.0045, 43.46051
480.4866, 37.19642
480.9687, 33.91508
481.4508, 33.36873
481.9330, 35.93653
482.4151, 41.42980
482.8972, 47.61979
483.3793, 52.79869
483.8614, 57.39594
484.3435, 55.14703
484.8257, 38.38930
485.3078, 25.28375
485.7899, 25.43275
486.2720, 32.76326
486.7541, 38.25485
487.2362, 39.22100
487.7183, 38.04927
488.2004, 34.98807
488.6826, 31.30690
489.1647, 33.04480
489.6468, 42.67701
490.1289, 51.78522
490.6110, 50.99594
491.0931, 40.49173
491.5753, 37.33790
492.0574, 49.13271
492.5395, 59.77342
493.0216, 62.90151
493.5037, 60.67790
493.9858, 55.29135
494.4680, 47.81780
494.9501, 40.81181
495.4322, 37.62537
495.9143, 38.48541
496.3964, 41.58089
496.8785, 50.60548
497.3607, 57.50038
497.8428, 58.36140
498.3249, 55.98449
498.8070, 54.45605
499.2891, 55.24899
499.7712, 56.39602
500.2534, 55.71007
500.7355, 53.55059
501.2176, 51.72585
501.6997, 50.56994
502.1818, 49.56276
502.6639, 47.96523
503.1461, 46.02684
503.6282, 45.46389
504.1103, 46.43428
504.5924, 48.66097
505.0745, 54.24447
505.5566, 60.23026
506.0388, 61.20327
506.5209, 56.17704
507.0030, 50.24463
507.4851, 49.56196
507.9672, 54.62594
508.4493, 58.09812
508.9315, 59.29152
509.4136, 59.64570
509.8957, 61.22567
510.3778, 61.46252
510.8599, 55.14917
511.3420, 40.62066
511.8242, 28.58781
512.3063, 32.74698
512.7884, 48.33806
513.2705, 55.94094
513.7526, 52.33247
514.2347, 46.98895
514.7169, 45.86488
515.1990, 48.25709
515.6811, 50.62616
516.1632, 54.13095
516.6453, 55.95890
517.1274, 53.86028
517.6096, 50.34821
518.0917, 48.15023
518.5738, 47.76512
519.0559, 48.82825
519.5380, 51.85495
520.0201, 56.05983
520.5023, 51.95953
520.9844, 29.12108
521.4665, 15.40870
521.9486, 23.01858
522.4307, 36.74842
522.9128, 42.88184
523.3950, 39.86834
523.8771, 36.46151
524.3592, 38.93543
524.8413, 45.23540
525.3234, 52.59579
525.8055, 61.12999
526.2877, 64.25137
526.7698, 57.10052
527.2519, 43.87020
527.7340, 34.45233
528.2161, 29.00858
528.6982, 25.93043
529.1804, 24.94333
529.6625, 26.26086
530.1446, 30.96059
530.6267, 38.23207
531.1088, 46.28835
531.5909, 54.38085
532.0731, 61.07139
532.5552, 62.16142
533.0373, 56.02580
533.5194, 49.20322
534.0015, 39.30288
534.4836, 32.03971
534.9658, 33.02777
535.4479, 39.99946
535.9300, 44.30053
536.4121, 39.92303
536.8942, 33.79937
537.3763, 34.04290
537.8585, 39.11639
538.3406, 43.01998
538.8227, 43.98089
539.3048, 42.52486
539.7869, 38.39299
540.2690, 30.21097
540.7512, 28.35605
541.2333, 38.13768
541.7154, 47.63695
542.1975, 53.05113
542.6796, 55.31352
543.1617, 55.55384
543.6439, 54.26695
544.1260, 52.51345
544.6081, 51.75409
545.0902, 51.92116
545.5723, 51.11217
546.0544, 48.90974
546.5366, 46.52267
547.0187, 43.00043
547.5008, 40.28333
547.9829, 42.28879
548.4650, 51.66253
548.9471, 59.17942
549.4293, 57.59325
549.9114, 53.30447
550.3935, 56.71650
550.8756, 67.42507
551.3577, 73.95674
551.8398, 67.44682
552.3220, 51.98780
552.8041, 44.63420
553.2862, 52.02364
553.7683, 56.22036
554.2504, 52.97574
554.7325, 49.01816
555.2147, 49.28617
555.6968, 52.96082
556.1789, 55.59698
556.6610, 53.96034
557.1431, 50.85680
557.6252, 50.56725
558.1074, 52.93291
558.5895, 56.38788
559.0716, 61.18595
559.5537, 65.22594
560.0358, 65.99615
560.5179, 63.14590
561.0001, 59.63251
561.4822, 54.68331
561.9643, 49.94924
562.4464, 45.74520
562.9285, 42.32362
563.4106, 39.68636
563.8928, 37.95456
564.3749, 37.97469
564.8570, 41.44492
565.3391, 48.21775
565.8212, 53.07336
566.3033, 55.72943
566.7855, 57.00038
567.2676, 54.90114
567.7497, 52.72154
568.2318, 55.74802
568.7139, 65.85344
569.1960, 71.86996
569.6782, 65.86070
570.1603, 54.82499
570.6424, 45.13400
571.1245, 37.87666
571.6066, 34.89521
572.0887, 37.56375
572.5709, 43.69889
573.0530, 48.15598
573.5351, 50.66856
574.0172, 52.07318
574.4993, 52.20175
574.9814, 51.45805
575.4636, 48.29539
575.9457, 44.66051
576.4278, 45.00151
576.9099, 52.35427
577.3920, 60.00105
577.8741, 59.50266
578.3563, 52.84420
578.8384, 47.74529
579.3205, 45.52065
579.8026, 44.72108
580.2847, 44.24448
580.7668, 44.18245
581.2490, 45.35098
581.7311, 48.12964
582.2132, 51.43756
582.6953, 56.25022
583.1774, 60.69914
583.6595, 63.48851
584.1417, 64.30728
584.6238, 63.02328
585.1059, 59.08612
585.5880, 53.61958
586.0701, 49.07684
586.5522, 45.30293
587.0344, 43.95979
587.5165, 46.82843
587.9986, 50.50383
588.4807, 51.60059
588.9628, 50.41127
589.4449, 48.56431
589.9271, 44.01138
590.4092, 41.31046
590.8913, 44.92290
591.3734, 51.33615
591.8555, 54.08611
592.3376, 51.93070
592.8198, 49.84367
593.3019, 53.90486
593.7840, 63.40390
594.2661, 66.07624
594.7482, 57.43430
595.2303, 50.97369
595.7125, 54.06216
596.1946, 58.97041
596.6767, 59.34317
597.1588, 54.74622
597.6409, 48.09710
598.1230, 35.64083
598.6052, 25.51994
599.0873, 29.30600
599.5694, 43.24438
600.0515, 53.71446
600.5336, 55.42981
601.0157, 52.98108
601.4979, 53.07687
601.9800, 56.54910
602.4621, 57.56124
602.9442, 51.84059
603.4263, 48.74080
603.9084, 53.77295
604.3906, 61.14943
604.8727, 63.69968
605.3548, 59.94431
605.8369, 54.68071
606.3190, 49.93707
606.8011, 46.48605
607.2833, 46.72171
607.7654, 50.36192
608.2475, 52.54182
608.7296, 50.60010
609.2117, 46.95782
609.6938, 46.44042
610.1760, 51.11090
610.6581, 52.98396
611.1402, 50.22622
611.6223, 46.90943
612.1044, 45.19136
612.5865, 43.87434
613.0687, 40.16472
613.5508, 33.13046
614.0329, 27.25562
614.5150, 27.88425
614.9971, 33.36101
615.4792, 38.41333
615.9614, 42.75972
616.4435, 46.26092
616.9256, 48.87286
617.4077, 50.54991
617.8898, 50.93175
618.3719, 48.54785
618.8541, 48.38681
619.3362, 53.98478
619.8183, 58.62046
620.3004, 56.14501
620.7825, 50.32490
621.2646, 49.57568
621.7468, 57.42791
622.2289, 66.45784
622.7110, 66.13029
623.1931, 58.07939
623.6752, 53.37661
624.1573, 53.05606
624.6395, 55.07885
625.1216, 59.86435
625.6037, 65.40632
626.0858, 66.18839
626.5679, 60.80303
627.0500, 55.14635
627.5322, 47.93715
628.0143, 42.59602
628.4964, 43.16425
628.9785, 47.28569
629.4606, 49.58751
629.9427, 47.63284
630.4249, 43.72797
630.9070, 40.64935
631.3891, 38.43015
631.8712, 37.81882
632.3533, 39.39581
632.8354, 40.82063
633.3176, 40.11182
633.7997, 38.63747
634.2818, 39.86429
634.7639, 45.09240
635.2460, 49.35256
635.7281, 51.79736
636.2103, 52.82026
636.6924, 51.54875
637.1745, 49.20585
637.6566, 48.61788
638.1387, 51.08108
638.6208, 54.60893
639.1030, 56.91096
639.5851, 57.95280
640.0672, 55.16215
640.5493, 46.30341
641.0314, 40.03258
641.5135, 42.81790
641.9957, 50.57705
642.4778, 54.07804
642.9599, 51.52075
643.4420, 50.42553
643.9241, 54.14849
644.4063, 58.23489
644.8884, 61.10329
645.3705, 61.48061
645.8526, 55.98420
646.3347, 43.24494
646.8168, 29.70228
647.2990, 24.57399
647.7811, 27.47211
648.2632, 30.98949
648.7453, 34.76455
649.2274, 39.71338
649.7095, 48.30323
650.1917, 57.14212
650.6738, 59.63547
651.1559, 54.73412
651.6380, 48.52531
652.1201, 39.10971
652.6022, 31.40086
653.0844, 28.04900
653.5665, 28.85279
654.0486, 34.65298
654.5307, 45.40589
655.0128, 55.34197
655.4949, 57.17944
655.9771, 51.69025
656.4592, 43.24771
656.9413, 29.97767
657.4234, 23.86418
657.9055, 33.85043
658.3876, 50.27638
658.8698, 56.73418
659.3519, 51.85468
659.8340, 48.05396
660.3161, 45.34690
660.7982, 45.17797
661.2803, 51.17162
661.7625, 58.97168
662.2446, 62.23837
662.7267, 59.39196
663.2088, 53.72054
663.6909, 46.07790
664.1730, 38.44637
664.6552, 39.90160
665.1373, 51.34649
665.6194, 58.52700
666.1015, 55.18960
666.5836, 47.93489
667.0657, 44.55910
667.5479, 45.41535
668.0300, 48.36093
668.5121, 56.66471
668.9942, 63.05111
669.4763, 64.67260
669.9584, 63.58969
670.4406, 61.51914
670.9227, 59.07765
671.4048, 57.11058
671.8868, 56.91181
672.3690, 56.89556
672.8511, 52.55146
673.3332, 44.65466
673.8153, 41.21063
674.2974, 44.71912
674.7795, 51.06758
675.2617, 57.04930
675.7438, 62.50227
676.2259, 64.27672
676.7080, 58.45319
677.1901, 54.20620
677.6722, 53.20302
678.1544, 53.53320
678.6365, 54.26931
679.1186, 55.02293
679.6007, 55.20283
680.0828, 54.41343
680.5649, 53.16336
681.0471, 51.46600
681.5292, 49.80067
682.0113, 50.65034
682.4934, 54.26463
682.9755, 54.62360
683.4576, 46.14360
683.9398, 33.08236
684.4219, 30.66456
684.9040, 46.12810
685.3861, 57.19778
685.8682, 61.15816
686.3503, 62.53736
686.8325, 63.36150
687.3146, 62.99507
687.7967, 59.64706
688.2788, 52.18489
688.7609, 44.75664
689.2430, 38.60352
689.7252, 34.73038
690.2073, 36.29282
690.6894, 41.88441
691.1715, 44.36387
691.6536, 40.13367
692.1357, 35.12944
692.6179, 41.13065
693.1000, 60.49960
693.5821, 70.13190
694.0642, 66.68929
694.5463, 59.85270
695.0284, 49.48485
695.5106, 40.12320
695.9927, 38.32386
696.4748, 44.88545
696.9569, 50.02893
697.4390, 48.17614
697.9211, 47.04037
698.4033, 55.71090
698.8854, 67.03387
699.3675, 67.10226
699.8496, 53.76529
700.3317, 39.85574
700.8138, 37.95753
701.2960, 44.71410
701.7781, 49.07363
702.2602, 51.17954
702.7423, 48.42182
703.2244, 37.24144
703.7065, 27.15658
704.1887, 28.25600
704.6708, 39.94665
705.1529, 49.85785
705.6350, 61.58774
706.1171, 66.73589
706.5992, 57.08388
707.0814, 45.68631
707.5635, 43.26428
708.0456, 48.83795
708.5277, 56.31497
709.0098, 63.71830
709.4919, 68.75922
709.9741, 66.45984
710.4562, 59.74718
710.9383, 58.48137
711.4204, 63.60731
711.9025, 66.92586
712.3846, 62.76520
712.8668, 55.46790
713.3489, 56.27998
713.8310, 70.91819
714.3131, 77.29163
714.7952, 67.11535
715.2773, 58.18824
715.7595, 59.08680
716.2416, 63.72624
716.7237, 62.87691
717.2058, 54.73670
717.6879, 49.89993
718.1700, 58.85864
718.6522, 68.51702
719.1343, 64.58978
719.6164, 52.23588
720.0985, 43.67673
720.5806, 42.50563
721.0627, 44.41910
721.5449, 44.88543
722.0270, 44.65527
722.5091, 49.14862
722.9912, 60.34083
723.4733, 64.96759
723.9554, 57.05549
724.4376, 46.01749
724.9197, 39.91058
725.4018, 38.51794
725.8839, 38.46874
726.3660, 38.52431
726.8481, 41.57470
727.3303, 54.10743
727.8124, 65.02681
728.2945, 62.99810
728.7766, 51.58901
729.2587, 42.53001
729.7408, 41.63780
730.2230, 42.52732
730.7051, 35.89145
731.1872, 25.93867
731.6693, 25.08296
732.1514, 33.79696
732.6335, 42.95354
733.1157, 48.28496
733.5978, 50.03295
734.0799, 47.98866
734.5620, 40.80753
735.0441, 37.05224
735.5262, 38.52379
736.0084, 40.85747
736.4905, 43.58936
736.9726, 45.91887
737.4547, 46.21066
737.9368, 44.57941
738.4189, 45.19614
738.9011, 53.53646
739.3832, 60.13008
739.8653, 57.53704
740.3474, 50.10009
740.8295, 42.89559
741.3116, 37.53241
741.7938, 35.18837
742.2759, 36.97057
742.7580, 41.77728
743.2401, 48.54202
743.7222, 57.03601
744.2043, 61.67380
744.6865, 61.28725
745.1686, 58.32719
745.6507, 52.95709
746.1328, 47.25196
746.6149, 47.53423
747.0970, 58.35629
747.5792, 65.83351
748.0613, 69.56476
748.5434, 70.60804
749.0255, 67.59706
749.5076, 63.01689
749.9897, 60.79357
750.4719, 61.65770
750.9540, 60.92156
751.4361, 52.88433
751.9182, 44.39226
752.4003, 42.56693
752.8824, 46.13918
753.3646, 53.89957
753.8467, 64.58871
754.3288, 70.97246
754.8109, 65.55154
755.2930, 51.53916
755.7751, 39.81773
756.2573, 29.68301
756.7394, 27.83460
757.2215, 38.26027
757.7036, 51.37398
758.1857, 62.36723
758.6678, 70.23934
759.1500, 70.65368
759.6321, 58.06437
760.1142, 49.26967
760.5963, 46.36220
761.0784, 46.78420
761.5605, 52.25920
762.0427, 58.91849
762.5248, 59.84651
763.0069, 53.23796
763.4890, 47.18015
763.9711, 49.94938
764.4532, 54.83735
764.9354, 50.27726
765.4175, 39.93424
765.8996, 37.43969
766.3817, 46.25504
766.8638, 55.85711
767.3459, 55.42895
767.8281, 47.37723
768.3102, 43.44566
768.7923, 44.34587
769.2744, 46.16905
769.7565, 49.52819
770.2386, 51.28440
770.7208, 47.25687
771.2029, 39.89289
771.6850, 38.52728
772.1671, 48.66381
772.6492, 53.50638
773.1313, 45.11548
773.6135, 37.10691
774.0956, 37.62545
774.5777, 43.60197
775.0598, 50.11659
775.5419, 55.79032
776.0240, 59.54612
776.5062, 61.36197
776.9883, 60.32831
777.4704, 52.08821
777.9525, 40.17080
778.4346, 35.31112
778.9167, 39.93116
779.3989, 47.85454
779.8810, 54.33984
780.3631, 58.41136
780.8452, 54.34236
781.3273, 39.85248
781.8094, 34.37751
782.2916, 44.27357
782.7737, 55.29366
783.2558, 57.19207
783.7379, 53.79900
784.2200, 56.46391
784.7021, 70.34748
785.1843, 77.24340
785.6664, 73.83662
786.1485, 66.14607
786.6306, 50.03408
787.1127, 34.74585
787.5948, 34.09002
788.0770, 49.17730
788.5591, 63.28744
789.0412, 67.93097
789.5233, 66.77734
790.0054, 60.07581
790.4875, 51.25964
790.9697, 47.26011
791.4518, 48.75411
791.9339, 51.29935
792.4160, 51.93834
792.8981, 51.12863
793.3802, 48.47926
793.8624, 44.17074
794.3445, 46.63526
794.8266, 58.21615
795.3087, 68.13342
795.7908, 70.81278
796.2729, 68.73123
796.7551, 66.11755
797.2372, 63.01569
797.7193, 59.16324
798.2014, 52.37562
798.6835, 47.63790
799.1656, 46.38316
799.6478, 47.37366
800.1299, 50.55097
800.6120, 55.19278
801.0941, 58.30275
801.5762, 58.38080
802.0583, 57.48936
802.5405, 57.24433
803.0226, 56.23011
803.5047, 50.75401
803.9868, 43.08294
804.4689, 40.88181
804.9510, 47.71267
805.4332, 56.03903
805.9153, 56.30443
806.3974, 51.17001
806.8795, 47.47061
807.3616, 45.58465
807.8438, 48.25463
808.3259, 56.91778
808.8080, 65.50645
809.2901, 67.33064
809.7722, 62.98553
810.2543, 57.84393
810.7365, 52.02807
811.2186, 44.71738
811.7007, 32.69299
812.1828, 23.30266
812.6649, 22.80803
813.1470, 28.41397
813.6292, 33.51678
814.1113, 38.49123
814.5934, 41.47912
815.0755, 39.60699
815.5576, 38.52472
816.0397, 42.10835
816.5219, 47.71388
817.0040, 52.36417
817.4861, 55.24728
817.9682, 55.62129
818.4503, 50.75626
818.9324, 45.63759
819.4146, 46.15931
819.8967, 49.47205
820.3788, 49.89927
820.8609, 47.26360
821.3430, 45.44777
821.8251, 46.78691
822.3073, 50.08681
822.7894, 54.41710
823.2715, 59.31376
823.7536, 59.98830
824.2357, 55.85144
824.7178, 52.13529
825.2000, 50.77641
825.6821, 51.31886
826.1642, 53.89746
826.6463, 58.48760
827.1284, 57.95396
827.6105, 45.64323
828.0927, 40.90639
828.5748, 56.80125
829.0569, 71.16169
829.5390, 65.99370
830.0211, 49.06781
830.5032, 40.38196
830.9854, 45.31040
831.4675, 49.47795
831.9496, 47.79715
832.4317, 46.01447
832.9138, 46.87616
833.3959, 50.26519
833.8781, 56.95378
834.3602, 66.36435
834.8423, 73.65646
835.3244, 76.34670
835.8065, 74.90819
836.2886, 67.35093
836.7708, 56.93339
837.2529, 49.42120
837.7350, 45.72810
838.2171, 45.35308
838.6992, 48.22119
839.1813, 52.25364
839.6635, 53.95522
840.1456, 53.63991
840.6277, 53.82727
841.1098, 54.61926
841.5919, 55.64226
842.0740, 56.99937
842.5562, 57.58652
843.0383, 55.89813
843.5204, 52.18256
844.0025, 49.82690
844.4846, 50.10765
844.9667, 48.68345
845.4489, 43.28655
845.9310, 38.19760
846.4131, 35.56741
846.8952, 35.20813
847.3773, 37.23063
847.8594, 42.47335
848.3416, 46.92681
848.8237, 50.64535
849.3058, 52.73798
849.7879, 51.32568
850.2700, 49.04321
850.7521, 50.05151
851.2343, 53.62440
851.7164, 53.22873
852.1985, 41.68456
852.6806, 33.03964
853.1627, 43.04637
853.6448, 58.31191
854.1270, 60.29473
854.6091, 51.68887
855.0912, 45.95761
855.5733, 48.45193
856.0554, 52.92710
856.5375, 51.61923
857.0197, 47.48785
857.5018, 48.61310
857.9839, 54.11292
858.4660, 59.36601
858.9481, 63.25746
859.4302, 64.19739
859.9124, 60.30309
860.3945, 54.33760
860.8766, 55.08221
861.3587, 63.76825
861.8408, 67.27628
862.3229, 62.78984
862.8051, 60.66338
863.2872, 67.24774
863.7693, 75.73241
864.2514, 76.76495
864.7335, 70.02503
865.2156, 62.19954
865.6978, 48.91584
866.1799, 41.27757
866.6620, 45.92300
867.1441, 51.25356
867.6262, 47.92353
868.1083, 40.32417
868.5905, 39.48445
869.0726, 49.22746
869.5547, 56.39606
870.0368, 54.67194
870.5189, 52.55989
871.0010, 57.11026
871.4832, 62.63001
871.9653, 59.76395
872.4474, 49.27360
872.9295, 42.66810
873.4116, 47.95403
873.8937, 54.51279
874.3759, 53.69231
874.8580, 48.96685
875.3401, 42.87202
875.8222, 37.40011
876.3043, 37.68486
876.7864, 45.37326
877.2686, 53.90696
877.7507, 56.82705
878.2328, 55.50187
878.7149, 51.70313
879.1970, 46.25821
879.6791, 42.19907
880.1613, 40.30618
880.6434, 43.89937
881.1255, 56.23401
881.6076, 70.91894
882.0897, 73.30994
882.5718, 63.01289
883.0540, 55.71058
883.5361, 52.31004
884.0182, 48.40989
884.5003, 41.85974
884.9824, 35.78667
885.4645, 33.70638
885.9467, 35.28977
886.4288, 37.72911
886.9109, 42.27639
887.3930, 44.74068
887.8751, 42.97934
888.3572, 41.55146
888.8394, 43.04019
889.3215, 46.24736
889.8036, 49.32567
890.2857, 52.33031
890.7678, 54.77200
891.2499, 58.02456
891.7321, 58.83850
892.2142, 53.89833
892.6963, 48.25941
893.1784, 46.27485
893.6605, 47.03283
894.1426, 46.83770
894.6248, 43.88160
895.1069, 43.30384
895.5890, 51.10116
896.0711, 58.12496
896.5532, 56.80161
897.0353, 50.91089
897.5175, 44.53962
897.9996, 39.58117
898.4817, 40.19412
898.9638, 52.36797
899.4459, 63.31505
899.9280, 56.90557
900.4102, 44.34213
900.8923, 43.21151
901.3744, 51.24450
901.8565, 55.59895
902.3386, 52.05407
902.8207, 49.22723
903.3029, 57.50691
903.7850, 70.49778
904.2671, 74.24448
904.7492, 70.93997
905.2313, 69.44024
905.7134, 70.80035
906.1956, 68.88918
906.6777, 59.65719
907.1598, 49.73958
907.6419, 52.32585
908.1240, 65.65910
908.6061, 68.95190
909.0883, 61.70635
909.5704, 53.79230
910.0525, 47.28794
910.5346, 44.12406
911.0167, 46.44733
911.4988, 52.63238
911.9810, 57.41162
912.4631, 60.55490
912.9452, 63.57032
913.4273, 67.21786
913.9094, 68.62190
914.3915, 65.29898
914.8737, 61.34537
915.3558, 62.46713
915.8379, 68.11327
916.3200, 68.10256
916.8021, 57.57090
917.2842, 50.18477
917.7664, 47.86523
918.2484, 47.70469
918.7305, 48.41058
919.2126, 50.32728
919.6948, 55.25565
920.1769, 63.95927
920.6590, 67.28632
921.1411, 59.21991
921.6232, 52.71982
922.1053, 51.53942
922.5875, 52.48316
923.0696, 54.08118
923.5517, 55.70015
924.0338, 56.44404
924.5159, 56.15778
924.9980, 54.94955
925.4802, 52.24535
925.9623, 49.31735
926.4444, 45.85437
926.9265, 43.24530
927.4086, 43.70132
927.8907, 46.52560
928.3729, 48.66665
928.8550, 48.80840
929.3371, 48.67884
929.8192, 50.72425
930.3013, 51.75980
930.7834, 45.66970
931.2656, 37.68121
931.7477, 39.45370
932.2298, 50.83024
932.7119, 56.98885
933.1940, 46.31580
933.6761, 33.77245
934.1583, 35.83821
934.6404, 45.46028
935.1225, 54.56925
935.6046, 60.98671
936.0867, 59.46022
936.5688, 49.48034
937.0510, 41.48547
937.5331, 46.02046
938.0152, 55.81927
938.4973, 58.41961
938.9794, 56.38606
939.4615, 58.03402
939.9437, 62.95479
940.4258, 62.16286
940.9079, 51.75880
941.3900, 40.46866
941.8721, 39.11060
942.3542, 44.57278
942.8364, 46.27708
943.3185, 45.33582
943.8006, 50.68927
944.2827, 63.45747
944.7648, 75.64420
945.2469, 82.89828
945.7291, 84.48895
946.2112, 76.97131
946.6933, 62.01875
947.1754, 56.05921
947.6575, 59.51301
948.1396, 59.12038
948.6218, 51.39342
949.1039, 44.19464
949.5860, 43.02432
950.0681, 46.01589
950.5502, 49.49056
951.0323, 53.60549
951.5145, 55.80402
951.9966, 55.66237
952.4787, 56.06816
952.9608, 58.51315
953.4429, 59.20111
953.9250, 53.73377
954.4072, 45.15529
954.8893, 44.21815
955.3714, 53.85268
955.8535, 59.79734
956.3356, 61.81916
956.8177, 59.94644
957.2999, 50.71112
957.7820, 43.61705
958.2641, 50.71141
958.7462, 67.93556
959.2283, 72.41405
959.7104, 57.69864
960.1926, 45.17172
960.6747, 32.78192
961.1568, 26.91742
961.6389, 32.79442
962.1210, 43.69583
962.6031, 53.58985
963.0853, 62.15062
963.5674, 65.69357
964.0495, 59.68719
964.5316, 56.34983
965.0137, 59.06316
965.4958, 60.87971
965.9780, 57.55799
966.4601, 52.57161
966.9422, 50.61231
967.4243, 51.60427
967.9064, 50.73497
968.3885, 46.41808
968.8707, 42.38525
969.3528, 36.41872
969.8349, 33.66360
970.3170, 40.34984
970.7991, 49.87015
971.2813, 50.96192
971.7634, 42.93410
972.2455, 42.04659
972.7276, 62.31136
973.2097, 72.55665
973.6918, 56.42610
974.1740, 39.13047
974.6561, 37.68546
975.1382, 44.69796
975.6203, 46.68385
976.1024, 41.96097
976.5845, 41.52161
977.0667, 53.91918
977.5488, 62.17197
978.0309, 57.77857
978.5130, 51.10733
978.9951, 49.79285
979.4772, 51.50087
979.9594, 50.58946
980.4415, 46.01138
980.9236, 44.05227
981.4057, 49.44738
981.8878, 53.78822
982.3699, 52.88565
982.8521, 50.70847
983.3342, 51.87291
983.8163, 53.77860
984.2984, 48.38657
984.7805, 33.41798
985.2626, 27.81429
985.7448, 47.04226
986.2269, 65.57939
986.7090, 74.05039
987.1911, 75.43436
987.6732, 69.79072
988.1553, 60.15665
988.6375, 50.16189
989.1196, 40.03667
989.6017, 39.34502
990.0838, 61.87439
990.5659, 82.20633
991.0480, 88.18706
991.5302, 85.64093
992.0123, 76.48287
992.4944, 64.48483
992.9765, 56.23948
993.4586, 53.45009
993.9407, 52.59692
994.4229, 53.23454
994.9050, 54.14338
995.3871, 55.12225
995.8692, 55.67884
996.3513, 54.87985
996.8334, 53.37709
997.3156, 52.91833
997.7977, 54.04803
998.2798, 54.57690
998.7619, 53.60242
999.2440, 51.67406
999.7261, 47.92070
1000.208, 44.30609
1000.690, 42.24579
1001.172, 42.09315
1001.655, 44.53497
1002.137, 49.88740
1002.619, 55.27682
1003.101, 61.22372
1003.583, 64.63103
1004.065, 63.10918
1004.547, 58.79779
1005.029, 51.38487
1005.512, 43.59541
1005.994, 41.59077
1006.476, 47.13038
1006.958, 52.38929
1007.440, 53.40783
1007.922, 53.76720
1008.404, 56.52694
1008.886, 58.58267
1009.368, 55.25031
1009.851, 49.19636
1010.333, 47.20348
1010.815, 50.97706
1011.297, 53.71456
1011.779, 51.91835
1012.261, 49.15678
1012.743, 45.67885
1013.225, 43.38970
1013.708, 44.26946
1014.190, 47.55787
1014.672, 52.65009
1015.154, 59.43135
1015.636, 61.99229
1016.118, 50.66911
1016.600, 44.28096
1017.082, 58.36445
1017.564, 74.14364
1018.047, 75.46807
1018.529, 66.97369
1019.011, 57.43744
1019.493, 48.61797
1019.975, 45.51054
1020.457, 55.13721
1020.939, 63.48427
1021.421, 65.42345
1021.904, 64.04948
1022.386, 59.78605
1022.868, 54.75693
1023.350, 51.91673
1023.832, 51.68165
1024.314, 52.55238
1024.796, 57.38609
1025.278, 58.64998
1025.760, 47.80280
1026.243, 39.44447
1026.725, 46.92145
1027.207, 60.71931
1027.689, 65.67200
1028.171, 61.01074
1028.653, 59.74882
1029.135, 71.10154
1029.617, 76.12215
1030.099, 65.31110
1030.582, 53.98760
1031.064, 49.20102
1031.546, 49.26199
1032.028, 54.81252
1032.510, 64.36960
1032.992, 64.81378
1033.474, 42.82883
1033.956, 31.16803
1034.439, 41.15312
1034.921, 52.43257
1035.403, 54.83591
1035.885, 55.54042
1036.367, 66.17550
1036.849, 83.59902
1037.331, 86.68778
1037.813, 61.35558
1038.296, 47.48417
1038.778, 54.64554
1039.260, 60.83395
1039.742, 60.06452
1040.224, 55.03373
1040.706, 44.58477
1041.188, 32.12016
1041.670, 31.52032
1042.152, 50.58768
1042.635, 57.92725
1043.117, 44.53332
1043.599, 36.52957
1044.081, 44.56653
1044.563, 53.89263
1045.045, 52.56919
1045.527, 44.69516
1046.009, 40.33152
1046.491, 39.60886
1046.974, 42.25329
1047.456, 50.69940
1047.938, 55.41144
1048.420, 53.47013
1048.902, 49.56495
1049.384, 45.65017
1049.866, 43.47091
1050.348, 47.45472
1050.830, 57.63287
1051.313, 57.48505
1051.795, 43.66521
1052.277, 39.62215
1052.759, 50.98257
1053.241, 62.40548
1053.723, 66.06808
1054.205, 64.74335
1054.687, 61.44448
1055.170, 57.00326
1055.652, 57.53153
1056.134, 63.12711
1056.616, 63.71442
1057.098, 58.01464
1057.580, 52.75312
1058.062, 50.59767
1058.544, 51.68407
1059.026, 56.98418
1059.509, 64.04780
1059.991, 64.77636
1060.473, 60.73145
1060.955, 62.70465
1061.437, 70.36610
1061.919, 73.77455
1062.401, 70.10860
1062.883, 65.92336
1063.365, 66.39893
1063.848, 69.07587
1064.330, 70.89517
1064.812, 71.24717
1065.294, 67.75480
1065.776, 61.36105
1066.258, 54.32165
1066.740, 47.90195
1067.222, 45.93544
1067.705, 50.96197
1068.187, 57.32041
1068.669, 59.11173
1069.151, 58.04999
1069.633, 54.76163
1070.115, 51.35033
1070.597, 51.39064
1071.079, 55.15414
1071.562, 63.50387
1072.044, 76.69836
1072.526, 83.51936
1073.008, 69.23169
1073.490, 52.00431
1073.972, 45.98060
1074.454, 46.68363
1074.936, 51.15570
1075.418, 57.08468
1075.901, 61.87432
1076.383, 64.69534
1076.865, 64.12718
1077.347, 56.56889
1077.829, 49.88969
1078.311, 47.60476
1078.793, 47.69965
1079.275, 49.92755
1079.757, 52.87095
1080.240, 54.75928
1080.722, 55.55875
1081.204, 56.55951
1081.686, 59.26042
1082.168, 59.49957
1082.650, 52.54475
1083.132, 47.91569
1083.614, 52.39673
1084.097, 58.42972
1084.579, 58.15549
1085.061, 53.66353
1085.543, 52.79803
1086.025, 57.33033
1086.507, 59.00472
1086.989, 55.97522
1087.471, 53.35530
1087.953, 51.57045
1088.436, 51.25976
1088.918, 52.84222
1089.400, 56.25272
1089.882, 62.37883
1090.364, 71.03720
1090.846, 71.39008
1091.328, 61.04166
1091.810, 54.24582
1092.292, 52.99663
1092.775, 54.06247
1093.257, 56.80787
1093.739, 57.59931
1094.221, 51.68332
1094.703, 41.90892
1095.185, 37.55418
1095.667, 38.31423
1096.149, 40.01887
1096.632, 42.69173
1097.114, 52.50530
1097.596, 70.49664
1098.078, 81.43951
1098.560, 73.72012
1099.042, 59.56292
1099.524, 57.28254
1100.006, 62.83067
1100.489, 70.46664
1100.971, 76.85316
1101.453, 69.21107
1101.935, 50.50991
1102.417, 41.08120
1102.899, 49.39793
1103.381, 61.85311
1103.863, 68.94877
1104.345, 72.08113
1104.828, 71.66672
1105.310, 68.84578
1105.792, 63.61444
1106.274, 57.67744
1106.756, 54.73325
1107.238, 54.95569
1107.720, 53.36845
1108.202, 45.41085
1108.684, 40.29760
1109.167, 43.21804
1109.649, 49.20039
1110.131, 58.18665
1110.613, 66.23103
1111.095, 69.31470
1111.577, 67.69109
1112.059, 62.94136
1112.541, 53.52303
1113.024, 47.19258
1113.506, 46.50058
1113.988, 46.44853
1114.470, 43.62895
1114.952, 44.40042
1115.434, 58.07426
1115.916, 72.85074
1116.398, 67.07067
1116.880, 41.69668
1117.363, 30.64926
1117.845, 38.66210
1118.327, 41.90886
1118.809, 36.27871
1119.291, 36.37104
1119.773, 49.45444
1120.255, 61.87732
1120.737, 59.78286
1121.219, 49.64819
1121.702, 49.05343
1122.184, 56.40668
1122.666, 56.67876
1123.148, 50.89570
1123.630, 52.38141
1124.112, 62.56783
1124.594, 66.49477
1125.076, 55.64016
1125.559, 42.91714
1126.041, 44.78713
1126.523, 52.81175
1127.005, 51.79633
1127.487, 47.48940
1127.969, 52.32186
1128.451, 63.06942
1128.933, 67.16978
1129.416, 62.28038
1129.898, 59.15152
1130.380, 65.33240
1130.862, 70.87884
1131.344, 70.54756
1131.826, 65.95716
1132.308, 53.43760
1132.790, 40.96984
1133.272, 38.16950
1133.755, 43.89009
1134.237, 51.59184
1134.719, 60.93953
1135.201, 68.45551
1135.683, 74.26202
1136.165, 77.28160
1136.647, 74.92570
1137.129, 72.39090
1137.611, 72.64351
1138.094, 74.08792
1138.576, 75.49750
1139.058, 76.30258
1139.540, 69.25716
1140.022, 50.41407
1140.504, 43.31528
1140.986, 51.09939
1141.468, 60.32070
1141.951, 67.33826
1142.433, 72.07903
1142.915, 74.69937
1143.397, 74.06902
1143.879, 65.79498
1144.361, 52.72278
1144.843, 47.37825
1145.325, 48.55372
1145.807, 53.39949
1146.290, 60.00748
1146.772, 61.22313
1147.254, 54.80930
1147.736, 49.46157
1148.218, 53.00880
1148.700, 59.07431
1149.182, 62.63134
1149.664, 63.45481
1150.146, 59.15256
1150.629, 53.07079
1151.111, 50.09903
1151.593, 50.72731
1152.075, 54.13526
1152.557, 61.53818
1153.039, 64.21835
1153.521, 54.42516
1154.003, 45.89659
1154.486, 44.43289
1154.968, 45.07441
1155.450, 45.09963
1155.932, 44.42661
1156.414, 42.63113
1156.896, 39.89982
1157.378, 39.29900
1157.860, 40.51241
1158.343, 45.37122
1158.825, 55.63562
1159.307, 63.99006
1159.789, 68.56096
1160.271, 68.79095
1160.753, 63.56147
1161.235, 56.21105
1161.717, 53.06949
1162.199, 53.24320
1162.682, 52.60764
1163.164, 51.16492
1163.646, 47.66706
1164.128, 43.02688
1164.610, 43.48150
1165.092, 50.56912
1165.574, 56.44160
1166.056, 54.60671
1166.538, 50.83770
1167.021, 50.26574
1167.503, 51.62992
1167.985, 55.65965
1168.467, 59.35086
1168.949, 56.77797
1169.431, 50.20312
1169.913, 48.31112
1170.395, 53.65733
1170.878, 58.33518
1171.360, 59.81754
1171.842, 60.83977
1172.324, 61.21133
1172.806, 62.40995
1173.288, 68.05252
1173.770, 72.06139
1174.252, 65.92850
1174.734, 52.99119
1175.217, 47.68589
1175.699, 51.55419
1176.181, 54.94946
1176.663, 58.22168
1177.145, 57.59369
1177.627, 51.98067
1178.109, 46.99076
1178.591, 45.62194
1179.073, 46.37914
1179.556, 47.33680
1180.038, 49.42146
1180.520, 56.85063
1181.002, 65.94429
1181.484, 66.94701
1181.966, 62.27657
1182.448, 60.52202
1182.930, 62.33949
1183.413, 60.69857
1183.895, 51.74119
1184.377, 44.70864
1184.859, 47.63209
1185.341, 51.19128
1185.823, 49.61226
1186.305, 46.74446
1186.787, 45.73612
1187.270, 45.75692
1187.752, 44.87111
1188.234, 43.12449
1188.716, 42.84667
1189.198, 45.11286
1189.680, 46.37245
1190.162, 46.28441
1190.644, 45.78276
1191.126, 44.30593
1191.609, 45.85326
1192.091, 54.13978
1192.573, 62.04193
1193.055, 57.41357
1193.537, 44.97209
1194.019, 42.63679
1194.501, 48.24287
1194.983, 53.70440
1195.465, 57.99914
1195.948, 60.86315
1196.430, 61.97269
1196.912, 59.13821
1197.394, 50.35238
1197.876, 43.99273
1198.358, 50.41769
1198.840, 58.03782
1199.322, 58.37072
1199.805, 54.75270
1200.287, 46.81617
1200.769, 39.44278
1201.251, 43.01792
1201.733, 56.93118
1202.215, 62.08743
1202.697, 45.78720
1203.179, 43.05984
1203.661, 64.05022
1204.144, 77.88920
1204.626, 76.07792
1205.108, 68.08540
1205.590, 57.75822
1206.072, 50.56378
1206.554, 56.17094
1207.036, 69.83139
1207.518, 72.66620
1208.000, 66.51394
1208.483, 59.90006
1208.965, 54.16473
1209.447, 52.39965
1209.929, 54.76991
1210.411, 58.39952
1210.893, 61.98803
1211.375, 63.98308
1211.857, 60.92361
1212.340, 58.46484
1212.822, 62.63073
1213.304, 67.81152
1213.786, 68.10294
1214.268, 66.25932
1214.750, 68.19936
1215.232, 73.13041
1215.714, 72.32925
1216.197, 61.48012
1216.679, 55.77721
1217.161, 57.42340
1217.643, 59.08379
1218.125, 59.56931
1218.607, 59.49665
1219.089, 59.10204
1219.571, 58.62270
1220.053, 58.36070
1220.536, 58.14035
1221.018, 57.61768
1221.500, 56.72247
1221.982, 54.40010
1222.464, 51.64331
1222.946, 52.10493
1223.428, 55.42255
1223.910, 58.15203
1224.392, 58.94751
1224.875, 57.23063
1225.357, 48.66802
1225.839, 43.52427
1226.321, 52.07903
1226.803, 60.34617
1227.285, 59.23140
1227.767, 53.09488
1228.249, 43.28905
1228.732, 33.70896
1229.214, 34.59966
1229.696, 46.79323
1230.178, 57.06618
1230.660, 66.43986
1231.142, 67.27732
1231.624, 57.70310
1232.106, 51.35861
1232.589, 52.88112
1233.071, 57.69784
1233.553, 62.77030
1234.035, 66.40935
1234.517, 66.31140
1234.999, 63.12865
1235.481, 55.86558
1235.963, 47.69817
1236.445, 42.82077
1236.927, 41.60086
1237.410, 44.54588
1237.892, 51.00596
1238.374, 57.42313
1238.856, 64.45011
1239.338, 66.47958
1239.820, 55.29749
1240.302, 49.33853
1240.784, 57.19089
1241.267, 65.14349
1241.749, 66.56192
1242.231, 63.03520
1242.713, 54.75509
1243.195, 45.37580
1243.677, 46.77763
##END=



