##NAMES=Chlorartinite
##RRUFFID=R060878
##IDEAL CHEMISTRY=Mg_2_CO_3_Cl(OH)&#183;2.5H_2_O
##LOCALITY=500m level, Quarry of Udachnaya-Vostochnaya pipe, Yakutia, Russia
##OWNER=RRUFF
##SOURCE=Michael Scott
##DESCRIPTION=White fibrous mass, associated with larger crystals of aragonite
##STATUS=The identification of this mineral has been confirmed only by X-ray diffraction
##URL=rruff.info/R060878
8.936163e+001, 0.000000e+000
8.984375e+001, 8.257101e+001
9.032587e+001, 8.322973e+001
9.080798e+001, 8.336439e+001
9.129010e+001, 8.279365e+001
9.177222e+001, 8.190839e+001
9.225433e+001, 8.117448e+001
9.273645e+001, 8.057432e+001
9.321857e+001, 7.994868e+001
9.370068e+001, 7.918044e+001
9.418280e+001, 7.828516e+001
9.466492e+001, 7.731570e+001
9.514703e+001, 7.622260e+001
9.562915e+001, 7.508204e+001
9.611127e+001, 7.403988e+001
9.659338e+001, 7.308807e+001
9.707550e+001, 7.231171e+001
9.755762e+001, 7.190009e+001
9.803973e+001, 7.185947e+001
9.852185e+001, 7.177452e+001
9.900397e+001, 7.144746e+001
9.948608e+001, 7.087037e+001
9.996820e+001, 7.035547e+001
1.004503e+002, 6.995257e+001
1.009324e+002, 6.954824e+001
1.014146e+002, 6.891197e+001
1.018967e+002, 6.801929e+001
1.023788e+002, 6.694910e+001
1.028609e+002, 6.558076e+001
1.033430e+002, 6.361800e+001
1.038251e+002, 6.240798e+001
1.043073e+002, 6.236937e+001
1.047894e+002, 6.321073e+001
1.052715e+002, 6.337364e+001
1.057536e+002, 6.244083e+001
1.062357e+002, 6.129132e+001
1.067178e+002, 6.051532e+001
1.072000e+002, 6.027215e+001
1.076821e+002, 6.019373e+001
1.081642e+002, 6.046468e+001
1.086463e+002, 6.116550e+001
1.091284e+002, 6.109054e+001
1.096105e+002, 5.941331e+001
1.100927e+002, 5.731569e+001
1.105748e+002, 5.591439e+001
1.110569e+002, 5.610270e+001
1.115390e+002, 5.616418e+001
1.120211e+002, 5.560769e+001
1.125032e+002, 5.416043e+001
1.129854e+002, 5.303986e+001
1.134675e+002, 5.266967e+001
1.139496e+002, 5.267625e+001
1.144317e+002, 5.251354e+001
1.149138e+002, 5.187841e+001
1.153959e+002, 5.118046e+001
1.158781e+002, 5.061479e+001
1.163602e+002, 5.026579e+001
1.168423e+002, 4.991892e+001
1.173244e+002, 4.951092e+001
1.178065e+002, 4.904718e+001
1.182886e+002, 4.854146e+001
1.187708e+002, 4.791433e+001
1.192529e+002, 4.728937e+001
1.197350e+002, 4.676804e+001
1.202171e+002, 4.637666e+001
1.206992e+002, 4.609253e+001
1.211813e+002, 4.598689e+001
1.216635e+002, 4.602051e+001
1.221456e+002, 4.597849e+001
1.226277e+002, 4.573059e+001
1.231098e+002, 4.532627e+001
1.235919e+002, 4.482683e+001
1.240740e+002, 4.410334e+001
1.245562e+002, 4.338323e+001
1.250383e+002, 4.298990e+001
1.255204e+002, 4.291914e+001
1.260025e+002, 4.282757e+001
1.264846e+002, 4.223838e+001
1.269667e+002, 4.137415e+001
1.274489e+002, 4.079131e+001
1.279310e+002, 4.098807e+001
1.284131e+002, 4.158705e+001
1.288952e+002, 4.188169e+001
1.293773e+002, 4.184708e+001
1.298594e+002, 4.153502e+001
1.303416e+002, 4.078237e+001
1.308237e+002, 3.967964e+001
1.313058e+002, 3.883585e+001
1.317879e+002, 3.884535e+001
1.322700e+002, 3.948362e+001
1.327521e+002, 3.959102e+001
1.332343e+002, 3.895443e+001
1.337164e+002, 3.797595e+001
1.341985e+002, 3.736345e+001
1.346806e+002, 3.713512e+001
1.351627e+002, 3.703186e+001
1.356448e+002, 3.696958e+001
1.361270e+002, 3.695207e+001
1.366091e+002, 3.670852e+001
1.370912e+002, 3.612385e+001
1.375733e+002, 3.533162e+001
1.380554e+002, 3.476419e+001
1.385375e+002, 3.447518e+001
1.390197e+002, 3.425153e+001
1.395018e+002, 3.386707e+001
1.399839e+002, 3.323123e+001
1.404660e+002, 3.286905e+001
1.409481e+002, 3.298664e+001
1.414302e+002, 3.352586e+001
1.419124e+002, 3.369688e+001
1.423945e+002, 3.335999e+001
1.428766e+002, 3.284954e+001
1.433587e+002, 3.249624e+001
1.438408e+002, 3.238484e+001
1.443229e+002, 3.226350e+001
1.448051e+002, 3.207595e+001
1.452872e+002, 3.180773e+001
1.457693e+002, 3.157199e+001
1.462514e+002, 3.143588e+001
1.467335e+002, 3.128797e+001
1.472156e+002, 3.096495e+001
1.476978e+002, 3.023094e+001
1.481799e+002, 2.961857e+001
1.486620e+002, 2.929431e+001
1.491441e+002, 2.941794e+001
1.496262e+002, 2.940023e+001
1.501083e+002, 2.908714e+001
1.505905e+002, 2.865790e+001
1.510726e+002, 2.842693e+001
1.515547e+002, 2.862362e+001
1.520368e+002, 2.882185e+001
1.525189e+002, 2.889091e+001
1.530010e+002, 2.874772e+001
1.534832e+002, 2.861272e+001
1.539653e+002, 2.847660e+001
1.544474e+002, 2.835661e+001
1.549295e+002, 2.829416e+001
1.554116e+002, 2.837564e+001
1.558937e+002, 2.845695e+001
1.563759e+002, 2.847161e+001
1.568580e+002, 2.837338e+001
1.573401e+002, 2.825808e+001
1.578222e+002, 2.814002e+001
1.583043e+002, 2.801811e+001
1.587864e+002, 2.788820e+001
1.592686e+002, 2.765941e+001
1.597507e+002, 2.747453e+001
1.602328e+002, 2.742420e+001
1.607149e+002, 2.752053e+001
1.611970e+002, 2.776355e+001
1.616791e+002, 2.820255e+001
1.621613e+002, 2.881039e+001
1.626434e+002, 2.945151e+001
1.631255e+002, 2.997312e+001
1.636076e+002, 3.054025e+001
1.640897e+002, 3.129993e+001
1.645718e+002, 3.246706e+001
1.650540e+002, 3.369930e+001
1.655361e+002, 3.470226e+001
1.660182e+002, 3.550187e+001
1.665003e+002, 3.661138e+001
1.669824e+002, 3.860281e+001
1.674645e+002, 4.100262e+001
1.679467e+002, 4.319790e+001
1.684288e+002, 4.462689e+001
1.689109e+002, 4.601582e+001
1.693930e+002, 4.789447e+001
1.698751e+002, 5.030173e+001
1.703572e+002, 5.290213e+001
1.708394e+002, 5.557853e+001
1.713215e+002, 5.831503e+001
1.718036e+002, 6.104211e+001
1.722857e+002, 6.372197e+001
1.727678e+002, 6.640933e+001
1.732499e+002, 6.921406e+001
1.737321e+002, 7.219479e+001
1.742142e+002, 7.505036e+001
1.746963e+002, 7.755712e+001
1.751784e+002, 7.979607e+001
1.756605e+002, 8.196839e+001
1.761426e+002, 8.404244e+001
1.766248e+002, 8.613481e+001
1.771069e+002, 8.835280e+001
1.775890e+002, 9.069029e+001
1.780711e+002, 9.326968e+001
1.785532e+002, 9.645609e+001
1.790353e+002, 1.000942e+002
1.795175e+002, 1.035027e+002
1.799996e+002, 1.059454e+002
1.804817e+002, 1.079626e+002
1.809638e+002, 1.107768e+002
1.814459e+002, 1.147352e+002
1.819280e+002, 1.189819e+002
1.824102e+002, 1.225740e+002
1.828923e+002, 1.254890e+002
1.833744e+002, 1.280156e+002
1.838565e+002, 1.303558e+002
1.843386e+002, 1.324323e+002
1.848207e+002, 1.339170e+002
1.853029e+002, 1.347168e+002
1.857850e+002, 1.350304e+002
1.862671e+002, 1.351400e+002
1.867492e+002, 1.350462e+002
1.872313e+002, 1.347899e+002
1.877134e+002, 1.342702e+002
1.881956e+002, 1.335641e+002
1.886777e+002, 1.330601e+002
1.891598e+002, 1.328172e+002
1.896419e+002, 1.328045e+002
1.901240e+002, 1.329587e+002
1.906061e+002, 1.332831e+002
1.910883e+002, 1.337707e+002
1.915704e+002, 1.343874e+002
1.920525e+002, 1.351497e+002
1.925346e+002, 1.361762e+002
1.930167e+002, 1.375209e+002
1.934988e+002, 1.390188e+002
1.939810e+002, 1.400945e+002
1.944631e+002, 1.406537e+002
1.949452e+002, 1.410497e+002
1.954273e+002, 1.408488e+002
1.959094e+002, 1.400713e+002
1.963915e+002, 1.395786e+002
1.968737e+002, 1.395603e+002
1.973558e+002, 1.399211e+002
1.978379e+002, 1.404143e+002
1.983200e+002, 1.410813e+002
1.988021e+002, 1.416985e+002
1.992842e+002, 1.420645e+002
1.997664e+002, 1.421824e+002
2.002485e+002, 1.421668e+002
2.007306e+002, 1.419497e+002
2.012127e+002, 1.416185e+002
2.016948e+002, 1.417126e+002
2.021769e+002, 1.423244e+002
2.026591e+002, 1.430681e+002
2.031412e+002, 1.434888e+002
2.036233e+002, 1.435063e+002
2.041054e+002, 1.438593e+002
2.045875e+002, 1.448950e+002
2.050696e+002, 1.464817e+002
2.055518e+002, 1.473330e+002
2.060339e+002, 1.472731e+002
2.065160e+002, 1.468957e+002
2.069981e+002, 1.467979e+002
2.074802e+002, 1.470248e+002
2.079623e+002, 1.473363e+002
2.084445e+002, 1.478749e+002
2.089266e+002, 1.485973e+002
2.094087e+002, 1.481674e+002
2.098908e+002, 1.461456e+002
2.103729e+002, 1.437795e+002
2.108550e+002, 1.425607e+002
2.113372e+002, 1.429013e+002
2.118193e+002, 1.429491e+002
2.123014e+002, 1.421807e+002
2.127835e+002, 1.406045e+002
2.132656e+002, 1.391106e+002
2.137477e+002, 1.376430e+002
2.142299e+002, 1.363236e+002
2.147120e+002, 1.353574e+002
2.151941e+002, 1.348625e+002
2.156762e+002, 1.343504e+002
2.161583e+002, 1.336389e+002
2.166404e+002, 1.327084e+002
2.171226e+002, 1.320853e+002
2.176047e+002, 1.319630e+002
2.180868e+002, 1.319158e+002
2.185689e+002, 1.313741e+002
2.190510e+002, 1.300902e+002
2.195331e+002, 1.288963e+002
2.200153e+002, 1.280408e+002
2.204974e+002, 1.275726e+002
2.209795e+002, 1.268643e+002
2.214616e+002, 1.258264e+002
2.219437e+002, 1.246436e+002
2.224258e+002, 1.235512e+002
2.229080e+002, 1.226885e+002
2.233901e+002, 1.216224e+002
2.238722e+002, 1.201345e+002
2.243543e+002, 1.180946e+002
2.248364e+002, 1.166548e+002
2.253185e+002, 1.160728e+002
2.258007e+002, 1.158584e+002
2.262828e+002, 1.153952e+002
2.267649e+002, 1.145977e+002
2.272470e+002, 1.137109e+002
2.277291e+002, 1.127619e+002
2.282112e+002, 1.116963e+002
2.286934e+002, 1.108758e+002
2.291755e+002, 1.103722e+002
2.296576e+002, 1.100459e+002
2.301397e+002, 1.097249e+002
2.306218e+002, 1.093657e+002
2.311039e+002, 1.090878e+002
2.315861e+002, 1.089460e+002
2.320682e+002, 1.089653e+002
2.325503e+002, 1.089499e+002
2.330324e+002, 1.089227e+002
2.335145e+002, 1.088485e+002
2.339966e+002, 1.086664e+002
2.344788e+002, 1.082975e+002
2.349609e+002, 1.079640e+002
2.354430e+002, 1.076845e+002
2.359251e+002, 1.074283e+002
2.364072e+002, 1.074910e+002
2.368893e+002, 1.081857e+002
2.373715e+002, 1.089409e+002
2.378536e+002, 1.089508e+002
2.383357e+002, 1.075553e+002
2.388178e+002, 1.065749e+002
2.392999e+002, 1.065993e+002
2.397820e+002, 1.078020e+002
2.402642e+002, 1.086783e+002
2.407463e+002, 1.091957e+002
2.412284e+002, 1.094113e+002
2.417105e+002, 1.093410e+002
2.421926e+002, 1.087350e+002
2.426747e+002, 1.082885e+002
2.431569e+002, 1.081427e+002
2.436390e+002, 1.082955e+002
2.441211e+002, 1.088193e+002
2.446032e+002, 1.100005e+002
2.450853e+002, 1.113011e+002
2.455674e+002, 1.120653e+002
2.460496e+002, 1.119986e+002
2.465317e+002, 1.119455e+002
2.470138e+002, 1.121239e+002
2.474959e+002, 1.125676e+002
2.479780e+002, 1.128886e+002
2.484601e+002, 1.131178e+002
2.489423e+002, 1.132047e+002
2.494244e+002, 1.130822e+002
2.499065e+002, 1.126887e+002
2.503886e+002, 1.122146e+002
2.508707e+002, 1.116921e+002
2.513528e+002, 1.111262e+002
2.518350e+002, 1.105248e+002
2.523171e+002, 1.099161e+002
2.527992e+002, 1.092497e+002
2.532813e+002, 1.084792e+002
2.537634e+002, 1.076248e+002
2.542455e+002, 1.066346e+002
2.547277e+002, 1.054738e+002
2.552098e+002, 1.041330e+002
2.556919e+002, 1.027240e+002
2.561740e+002, 1.010481e+002
2.566561e+002, 9.954693e+001
2.571382e+002, 9.875679e+001
2.576204e+002, 9.906144e+001
2.581025e+002, 9.912209e+001
2.585846e+002, 9.863574e+001
2.590667e+002, 9.762917e+001
2.595488e+002, 9.668922e+001
2.600309e+002, 9.585205e+001
2.605131e+002, 9.505709e+001
2.609952e+002, 9.421682e+001
2.614773e+002, 9.318825e+001
2.619594e+002, 9.252088e+001
2.624415e+002, 9.243369e+001
2.629236e+002, 9.285069e+001
2.634058e+002, 9.297108e+001
2.638879e+002, 9.268371e+001
2.643700e+002, 9.229299e+001
2.648521e+002, 9.203005e+001
2.653342e+002, 9.192895e+001
2.658163e+002, 9.184842e+001
2.662985e+002, 9.176660e+001
2.667806e+002, 9.168906e+001
2.672627e+002, 9.167521e+001
2.677448e+002, 9.178789e+001
2.682269e+002, 9.183012e+001
2.687090e+002, 9.157786e+001
2.691912e+002, 9.089039e+001
2.696733e+002, 9.052467e+001
2.701554e+002, 9.067831e+001
2.706375e+002, 9.119360e+001
2.711196e+002, 9.142502e+001
2.716017e+002, 9.130917e+001
2.720839e+002, 9.108340e+001
2.725660e+002, 9.090884e+001
2.730481e+002, 9.080040e+001
2.735302e+002, 9.063908e+001
2.740123e+002, 9.040269e+001
2.744944e+002, 9.011269e+001
2.749766e+002, 8.978162e+001
2.754587e+002, 8.936246e+001
2.759408e+002, 8.908873e+001
2.764229e+002, 8.924951e+001
2.769050e+002, 8.991434e+001
2.773871e+002, 9.008682e+001
2.778693e+002, 8.952326e+001
2.783514e+002, 8.863071e+001
2.788335e+002, 8.837753e+001
2.793156e+002, 8.885894e+001
2.797977e+002, 8.940266e+001
2.802798e+002, 8.968720e+001
2.807620e+002, 8.971030e+001
2.812441e+002, 8.945251e+001
2.817262e+002, 8.877249e+001
2.822083e+002, 8.806191e+001
2.826904e+002, 8.817828e+001
2.831725e+002, 8.918694e+001
2.836547e+002, 9.007344e+001
2.841368e+002, 9.020400e+001
2.846189e+002, 8.965856e+001
2.851010e+002, 8.945322e+001
2.855831e+002, 8.967717e+001
2.860652e+002, 9.005199e+001
2.865474e+002, 9.018325e+001
2.870295e+002, 9.007464e+001
2.875116e+002, 8.989944e+001
2.879937e+002, 8.968990e+001
2.884758e+002, 8.946227e+001
2.889579e+002, 8.936014e+001
2.894401e+002, 8.941094e+001
2.899222e+002, 8.944394e+001
2.904043e+002, 8.915504e+001
2.908864e+002, 8.859797e+001
2.913685e+002, 8.820871e+001
2.918506e+002, 8.825877e+001
2.923328e+002, 8.858867e+001
2.928149e+002, 8.875352e+001
2.932970e+002, 8.875321e+001
2.937791e+002, 8.861044e+001
2.942612e+002, 8.824230e+001
2.947433e+002, 8.771960e+001
2.952255e+002, 8.732597e+001
2.957076e+002, 8.713686e+001
2.961897e+002, 8.714754e+001
2.966718e+002, 8.750014e+001
2.971539e+002, 8.818118e+001
2.976360e+002, 8.871886e+001
2.981182e+002, 8.854650e+001
2.986003e+002, 8.791151e+001
2.990824e+002, 8.741580e+001
2.995645e+002, 8.718599e+001
3.000466e+002, 8.721184e+001
3.005287e+002, 8.767166e+001
3.010109e+002, 8.848643e+001
3.014930e+002, 8.910569e+001
3.019751e+002, 8.894555e+001
3.024572e+002, 8.835137e+001
3.029393e+002, 8.790647e+001
3.034214e+002, 8.774795e+001
3.039036e+002, 8.774487e+001
3.043857e+002, 8.780350e+001
3.048678e+002, 8.791081e+001
3.053499e+002, 8.801942e+001
3.058320e+002, 8.808504e+001
3.063141e+002, 8.814167e+001
3.067963e+002, 8.825801e+001
3.072784e+002, 8.849491e+001
3.077605e+002, 8.864873e+001
3.082426e+002, 8.834161e+001
3.087247e+002, 8.780099e+001
3.092068e+002, 8.757310e+001
3.096890e+002, 8.828365e+001
3.101711e+002, 8.922668e+001
3.106532e+002, 8.973096e+001
3.111353e+002, 8.963721e+001
3.116174e+002, 8.954321e+001
3.120995e+002, 8.994735e+001
3.125817e+002, 9.058369e+001
3.130638e+002, 9.102909e+001
3.135459e+002, 9.096538e+001
3.140280e+002, 9.076988e+001
3.145101e+002, 9.064769e+001
3.149922e+002, 9.061412e+001
3.154744e+002, 9.065003e+001
3.159565e+002, 9.087403e+001
3.164386e+002, 9.112397e+001
3.169207e+002, 9.121319e+001
3.174028e+002, 9.109940e+001
3.178849e+002, 9.080556e+001
3.183671e+002, 9.017226e+001
3.188492e+002, 8.922893e+001
3.193313e+002, 8.860402e+001
3.198134e+002, 8.882777e+001
3.202955e+002, 8.928738e+001
3.207776e+002, 8.949206e+001
3.212598e+002, 8.917977e+001
3.217419e+002, 8.876830e+001
3.222240e+002, 8.827869e+001
3.227061e+002, 8.773927e+001
3.231882e+002, 8.729722e+001
3.236703e+002, 8.697093e+001
3.241525e+002, 8.675346e+001
3.246346e+002, 8.665215e+001
3.251167e+002, 8.685275e+001
3.255988e+002, 8.691373e+001
3.260809e+002, 8.669083e+001
3.265630e+002, 8.629173e+001
3.270452e+002, 8.601009e+001
3.275273e+002, 8.587348e+001
3.280094e+002, 8.585287e+001
3.284915e+002, 8.595026e+001
3.289736e+002, 8.621738e+001
3.294557e+002, 8.649081e+001
3.299379e+002, 8.687714e+001
3.304200e+002, 8.723628e+001
3.309021e+002, 8.732350e+001
3.313842e+002, 8.686501e+001
3.318663e+002, 8.649846e+001
3.323484e+002, 8.643419e+001
3.328306e+002, 8.673921e+001
3.333127e+002, 8.688803e+001
3.337948e+002, 8.673120e+001
3.342769e+002, 8.655124e+001
3.347590e+002, 8.671679e+001
3.352411e+002, 8.750235e+001
3.357233e+002, 8.800455e+001
3.362054e+002, 8.790954e+001
3.366875e+002, 8.727505e+001
3.371696e+002, 8.712111e+001
3.376517e+002, 8.768468e+001
3.381339e+002, 8.827664e+001
3.386160e+002, 8.823022e+001
3.390981e+002, 8.736246e+001
3.395802e+002, 8.678543e+001
3.400623e+002, 8.671791e+001
3.405444e+002, 8.702367e+001
3.410266e+002, 8.728317e+001
3.415087e+002, 8.751089e+001
3.419908e+002, 8.763581e+001
3.424729e+002, 8.751718e+001
3.429550e+002, 8.715726e+001
3.434371e+002, 8.709097e+001
3.439193e+002, 8.743473e+001
3.444014e+002, 8.794741e+001
3.448835e+002, 8.813167e+001
3.453656e+002, 8.799080e+001
3.458477e+002, 8.795322e+001
3.463298e+002, 8.841607e+001
3.468120e+002, 8.920552e+001
3.472941e+002, 8.946480e+001
3.477762e+002, 8.910981e+001
3.482583e+002, 8.859560e+001
3.487404e+002, 8.845068e+001
3.492225e+002, 8.861388e+001
3.497047e+002, 8.882793e+001
3.501868e+002, 8.907997e+001
3.506689e+002, 8.928300e+001
3.511510e+002, 8.922910e+001
3.516331e+002, 8.892239e+001
3.521152e+002, 8.859701e+001
3.525974e+002, 8.843091e+001
3.530795e+002, 8.838506e+001
3.535616e+002, 8.839018e+001
3.540437e+002, 8.843576e+001
3.545258e+002, 8.851248e+001
3.550079e+002, 8.861205e+001
3.554901e+002, 8.873544e+001
3.559722e+002, 8.888738e+001
3.564543e+002, 8.916467e+001
3.569364e+002, 8.942843e+001
3.574185e+002, 8.950735e+001
3.579006e+002, 8.929568e+001
3.583828e+002, 8.910474e+001
3.588649e+002, 8.915406e+001
3.593470e+002, 8.936433e+001
3.598291e+002, 8.957411e+001
3.603112e+002, 8.969148e+001
3.607933e+002, 8.980303e+001
3.612755e+002, 9.003822e+001
3.617576e+002, 9.045969e+001
3.622397e+002, 9.061427e+001
3.627218e+002, 8.995774e+001
3.632039e+002, 8.907461e+001
3.636860e+002, 8.861752e+001
3.641682e+002, 8.929654e+001
3.646503e+002, 8.990076e+001
3.651324e+002, 8.986716e+001
3.656145e+002, 8.922923e+001
3.660966e+002, 8.900993e+001
3.665787e+002, 8.986935e+001
3.670609e+002, 9.089221e+001
3.675430e+002, 9.149217e+001
3.680251e+002, 9.122915e+001
3.685072e+002, 9.100447e+001
3.689893e+002, 9.091077e+001
3.694714e+002, 9.090491e+001
3.699536e+002, 9.084551e+001
3.704357e+002, 9.065724e+001
3.709178e+002, 9.049482e+001
3.713999e+002, 9.041374e+001
3.718820e+002, 9.040478e+001
3.723641e+002, 9.051475e+001
3.728463e+002, 9.084681e+001
3.733284e+002, 9.122823e+001
3.738105e+002, 9.134686e+001
3.742926e+002, 9.100689e+001
3.747747e+002, 9.085764e+001
3.752568e+002, 9.119470e+001
3.757390e+002, 9.202757e+001
3.762211e+002, 9.236006e+001
3.767032e+002, 9.200612e+001
3.771853e+002, 9.154423e+001
3.776674e+002, 9.163967e+001
3.781495e+002, 9.239091e+001
3.786317e+002, 9.277970e+001
3.791138e+002, 9.248141e+001
3.795959e+002, 9.177479e+001
3.800780e+002, 9.152689e+001
3.805601e+002, 9.176705e+001
3.810422e+002, 9.217075e+001
3.815244e+002, 9.259174e+001
3.820065e+002, 9.301289e+001
3.824886e+002, 9.331217e+001
3.829707e+002, 9.347828e+001
3.834528e+002, 9.353080e+001
3.839349e+002, 9.342295e+001
3.844171e+002, 9.319410e+001
3.848992e+002, 9.305423e+001
3.853813e+002, 9.313799e+001
3.858634e+002, 9.336473e+001
3.863455e+002, 9.360860e+001
3.868276e+002, 9.386481e+001
3.873098e+002, 9.413365e+001
3.877919e+002, 9.445204e+001
3.882740e+002, 9.478040e+001
3.887561e+002, 9.504015e+001
3.892382e+002, 9.509775e+001
3.897203e+002, 9.518277e+001
3.902025e+002, 9.552713e+001
3.906846e+002, 9.608196e+001
3.911667e+002, 9.663128e+001
3.916488e+002, 9.706892e+001
3.921309e+002, 9.743440e+001
3.926130e+002, 9.778522e+001
3.930952e+002, 9.820518e+001
3.935773e+002, 9.843913e+001
3.940594e+002, 9.818104e+001
3.945415e+002, 9.767811e+001
3.950236e+002, 9.738868e+001
3.955057e+002, 9.769133e+001
3.959879e+002, 9.802593e+001
3.964700e+002, 9.821719e+001
3.969521e+002, 9.826817e+001
3.974342e+002, 9.807036e+001
3.979163e+002, 9.731089e+001
3.983984e+002, 9.643812e+001
3.988806e+002, 9.586108e+001
3.993627e+002, 9.597725e+001
3.998448e+002, 9.596750e+001
4.003269e+002, 9.576071e+001
4.008090e+002, 9.535738e+001
4.012911e+002, 9.475966e+001
4.017733e+002, 9.374715e+001
4.022554e+002, 9.279442e+001
4.027375e+002, 9.214279e+001
4.032196e+002, 9.184057e+001
4.037017e+002, 9.175820e+001
4.041838e+002, 9.205067e+001
4.046660e+002, 9.244197e+001
4.051481e+002, 9.236478e+001
4.056302e+002, 9.171096e+001
4.061123e+002, 9.098493e+001
4.065944e+002, 9.031844e+001
4.070765e+002, 8.971420e+001
4.075587e+002, 8.930332e+001
4.080408e+002, 8.910918e+001
4.085229e+002, 8.900602e+001
4.090050e+002, 8.887522e+001
4.094871e+002, 8.871879e+001
4.099692e+002, 8.856443e+001
4.104514e+002, 8.840622e+001
4.109335e+002, 8.826305e+001
4.114156e+002, 8.819205e+001
4.118977e+002, 8.818718e+001
4.123798e+002, 8.817525e+001
4.128619e+002, 8.809040e+001
4.133441e+002, 8.796835e+001
4.138262e+002, 8.788210e+001
4.143083e+002, 8.784566e+001
4.147904e+002, 8.781825e+001
4.152725e+002, 8.780754e+001
4.157546e+002, 8.777584e+001
4.162368e+002, 8.764342e+001
4.167189e+002, 8.710342e+001
4.172010e+002, 8.664379e+001
4.176831e+002, 8.680405e+001
4.181652e+002, 8.754363e+001
4.186473e+002, 8.812437e+001
4.191295e+002, 8.811085e+001
4.196116e+002, 8.777039e+001
4.200937e+002, 8.731738e+001
4.205758e+002, 8.660011e+001
4.210579e+002, 8.606641e+001
4.215400e+002, 8.588279e+001
4.220222e+002, 8.598414e+001
4.225043e+002, 8.620425e+001
4.229864e+002, 8.671971e+001
4.234685e+002, 8.716110e+001
4.239506e+002, 8.736225e+001
4.244327e+002, 8.722187e+001
4.249149e+002, 8.714968e+001
4.253970e+002, 8.721907e+001
4.258791e+002, 8.733120e+001
4.263612e+002, 8.739210e+001
4.268433e+002, 8.740552e+001
4.273254e+002, 8.735465e+001
4.278076e+002, 8.720448e+001
4.282897e+002, 8.697492e+001
4.287718e+002, 8.680666e+001
4.292539e+002, 8.666854e+001
4.297360e+002, 8.665288e+001
4.302181e+002, 8.693191e+001
4.307003e+002, 8.761961e+001
4.311824e+002, 8.776070e+001
4.316645e+002, 8.715116e+001
4.321466e+002, 8.626476e+001
4.326287e+002, 8.594434e+001
4.331108e+002, 8.620317e+001
4.335930e+002, 8.649788e+001
4.340751e+002, 8.662817e+001
4.345572e+002, 8.663725e+001
4.350393e+002, 8.664880e+001
4.355214e+002, 8.666285e+001
4.360035e+002, 8.670663e+001
4.364857e+002, 8.686003e+001
4.369678e+002, 8.706055e+001
4.374499e+002, 8.713907e+001
4.379320e+002, 8.700294e+001
4.384141e+002, 8.684391e+001
4.388962e+002, 8.689137e+001
4.393784e+002, 8.709190e+001
4.398605e+002, 8.728983e+001
4.403426e+002, 8.744368e+001
4.408247e+002, 8.753053e+001
4.413068e+002, 8.750413e+001
4.417889e+002, 8.735017e+001
4.422711e+002, 8.721349e+001
4.427532e+002, 8.726730e+001
4.432353e+002, 8.733459e+001
4.437174e+002, 8.723161e+001
4.441995e+002, 8.651930e+001
4.446816e+002, 8.603755e+001
4.451638e+002, 8.618731e+001
4.456459e+002, 8.681806e+001
4.461280e+002, 8.723811e+001
4.466101e+002, 8.709847e+001
4.470922e+002, 8.693333e+001
4.475743e+002, 8.701158e+001
4.480565e+002, 8.754985e+001
4.485386e+002, 8.778112e+001
4.490207e+002, 8.753568e+001
4.495028e+002, 8.708862e+001
4.499849e+002, 8.678829e+001
4.504670e+002, 8.665513e+001
4.509492e+002, 8.662593e+001
4.514313e+002, 8.672900e+001
4.519134e+002, 8.693678e+001
4.523955e+002, 8.704102e+001
4.528776e+002, 8.703184e+001
4.533597e+002, 8.695301e+001
4.538419e+002, 8.679067e+001
4.543240e+002, 8.655078e+001
4.548061e+002, 8.641824e+001
4.552882e+002, 8.641734e+001
4.557703e+002, 8.650735e+001
4.562524e+002, 8.668435e+001
4.567346e+002, 8.692652e+001
4.572167e+002, 8.707453e+001
4.576988e+002, 8.701031e+001
4.581809e+002, 8.683372e+001
4.586630e+002, 8.668578e+001
4.591451e+002, 8.656944e+001
4.596273e+002, 8.652376e+001
4.601094e+002, 8.665336e+001
4.605915e+002, 8.684530e+001
4.610736e+002, 8.695250e+001
4.615557e+002, 8.693056e+001
4.620378e+002, 8.684840e+001
4.625200e+002, 8.678661e+001
4.630021e+002, 8.669565e+001
4.634842e+002, 8.647908e+001
4.639663e+002, 8.577259e+001
4.644484e+002, 8.521499e+001
4.649305e+002, 8.524802e+001
4.654127e+002, 8.593272e+001
4.658948e+002, 8.639365e+001
4.663769e+002, 8.625809e+001
4.668590e+002, 8.595060e+001
4.673411e+002, 8.577800e+001
4.678232e+002, 8.593021e+001
4.683054e+002, 8.598487e+001
4.687875e+002, 8.585420e+001
4.692696e+002, 8.562993e+001
4.697517e+002, 8.555001e+001
4.702338e+002, 8.569689e+001
4.707159e+002, 8.583138e+001
4.711981e+002, 8.583289e+001
4.716802e+002, 8.568892e+001
4.721623e+002, 8.577677e+001
4.726444e+002, 8.617542e+001
4.731265e+002, 8.658704e+001
4.736086e+002, 8.670266e+001
4.740908e+002, 8.652572e+001
4.745729e+002, 8.625208e+001
4.750550e+002, 8.585398e+001
4.755371e+002, 8.547353e+001
4.760192e+002, 8.541728e+001
4.765013e+002, 8.565372e+001
4.769835e+002, 8.593757e+001
4.774656e+002, 8.620016e+001
4.779477e+002, 8.640105e+001
4.784298e+002, 8.642793e+001
4.789119e+002, 8.627097e+001
4.793940e+002, 8.613481e+001
4.798762e+002, 8.627669e+001
4.803583e+002, 8.650584e+001
4.808404e+002, 8.655995e+001
4.813225e+002, 8.622152e+001
4.818046e+002, 8.588876e+001
4.822867e+002, 8.582019e+001
4.827689e+002, 8.592138e+001
4.832510e+002, 8.594749e+001
4.837331e+002, 8.564765e+001
4.842152e+002, 8.540476e+001
4.846973e+002, 8.543663e+001
4.851794e+002, 8.583620e+001
4.856616e+002, 8.610620e+001
4.861437e+002, 8.610585e+001
4.866258e+002, 8.601908e+001
4.871079e+002, 8.598555e+001
4.875900e+002, 8.604753e+001
4.880721e+002, 8.608650e+001
4.885543e+002, 8.608968e+001
4.890364e+002, 8.606204e+001
4.895185e+002, 8.601481e+001
4.900006e+002, 8.594124e+001
4.904827e+002, 8.586475e+001
4.909648e+002, 8.579292e+001
4.914470e+002, 8.572511e+001
4.919291e+002, 8.563165e+001
4.924112e+002, 8.548571e+001
4.928933e+002, 8.544901e+001
4.933754e+002, 8.587112e+001
4.938575e+002, 8.660056e+001
4.943397e+002, 8.690892e+001
4.948218e+002, 8.651249e+001
4.953039e+002, 8.586520e+001
4.957860e+002, 8.558416e+001
4.962681e+002, 8.558453e+001
4.967502e+002, 8.557496e+001
4.972324e+002, 8.527569e+001
4.977145e+002, 8.497155e+001
4.981966e+002, 8.497507e+001
4.986787e+002, 8.530266e+001
4.991608e+002, 8.562215e+001
4.996429e+002, 8.579952e+001
5.001251e+002, 8.586753e+001
5.006072e+002, 8.584834e+001
5.010893e+002, 8.555988e+001
5.015714e+002, 8.544193e+001
5.020535e+002, 8.580856e+001
5.025356e+002, 8.640279e+001
5.030178e+002, 8.663990e+001
5.034999e+002, 8.614721e+001
5.039820e+002, 8.565051e+001
5.044641e+002, 8.531577e+001
5.049462e+002, 8.514523e+001
5.054283e+002, 8.507231e+001
5.059105e+002, 8.514194e+001
5.063926e+002, 8.524411e+001
5.068747e+002, 8.529549e+001
5.073568e+002, 8.528873e+001
5.078389e+002, 8.527396e+001
5.083210e+002, 8.523045e+001
5.088032e+002, 8.522536e+001
5.092853e+002, 8.544180e+001
5.097674e+002, 8.586105e+001
5.102495e+002, 8.617432e+001
5.107316e+002, 8.618383e+001
5.112137e+002, 8.603371e+001
5.116959e+002, 8.606153e+001
5.121780e+002, 8.625150e+001
5.126601e+002, 8.641330e+001
5.131422e+002, 8.632796e+001
5.136243e+002, 8.616280e+001
5.141064e+002, 8.616564e+001
5.145886e+002, 8.643899e+001
5.150707e+002, 8.666409e+001
5.155528e+002, 8.660528e+001
5.160349e+002, 8.638455e+001
5.165170e+002, 8.617744e+001
5.169991e+002, 8.591723e+001
5.174813e+002, 8.580578e+001
5.179634e+002, 8.603304e+001
5.184455e+002, 8.653983e+001
5.189276e+002, 8.683635e+001
5.194097e+002, 8.660698e+001
5.198918e+002, 8.638193e+001
5.203740e+002, 8.638293e+001
5.208561e+002, 8.668964e+001
5.213382e+002, 8.696085e+001
5.218203e+002, 8.719404e+001
5.223024e+002, 8.739173e+001
5.227845e+002, 8.755908e+001
5.232667e+002, 8.769439e+001
5.237488e+002, 8.780001e+001
5.242309e+002, 8.787392e+001
5.247130e+002, 8.791762e+001
5.251951e+002, 8.794153e+001
5.256772e+002, 8.794514e+001
5.261594e+002, 8.790811e+001
5.266415e+002, 8.781197e+001
5.271236e+002, 8.766885e+001
5.276057e+002, 8.749136e+001
5.280878e+002, 8.728101e+001
5.285699e+002, 8.708801e+001
5.290521e+002, 8.692933e+001
5.295342e+002, 8.682494e+001
5.300163e+002, 8.681957e+001
5.304984e+002, 8.700565e+001
5.309805e+002, 8.714481e+001
5.314626e+002, 8.700471e+001
5.319448e+002, 8.673264e+001
5.324269e+002, 8.661443e+001
5.329090e+002, 8.691878e+001
5.333911e+002, 8.720579e+001
5.338732e+002, 8.733649e+001
5.343553e+002, 8.729893e+001
5.348375e+002, 8.717320e+001
5.353196e+002, 8.671386e+001
5.358017e+002, 8.641209e+001
5.362838e+002, 8.661166e+001
5.367659e+002, 8.766015e+001
5.372480e+002, 8.821500e+001
5.377302e+002, 8.816161e+001
5.382123e+002, 8.775475e+001
5.386944e+002, 8.729633e+001
5.391765e+002, 8.676965e+001
5.396586e+002, 8.638679e+001
5.401407e+002, 8.623417e+001
5.406229e+002, 8.624097e+001
5.411050e+002, 8.627291e+001
5.415871e+002, 8.632848e+001
5.420692e+002, 8.638049e+001
5.425513e+002, 8.642802e+001
5.430334e+002, 8.645830e+001
5.435156e+002, 8.648730e+001
5.439977e+002, 8.652321e+001
5.444798e+002, 8.642176e+001
5.449619e+002, 8.587170e+001
5.454440e+002, 8.521810e+001
5.459261e+002, 8.483842e+001
5.464083e+002, 8.489999e+001
5.468904e+002, 8.514820e+001
5.473725e+002, 8.573862e+001
5.478546e+002, 8.643816e+001
5.483367e+002, 8.676406e+001
5.488188e+002, 8.624356e+001
5.493010e+002, 8.575931e+001
5.497831e+002, 8.552267e+001
5.502652e+002, 8.553030e+001
5.507473e+002, 8.558823e+001
5.512294e+002, 8.573035e+001
5.517115e+002, 8.586596e+001
5.521937e+002, 8.595275e+001
5.526758e+002, 8.599584e+001
5.531579e+002, 8.593497e+001
5.536400e+002, 8.574318e+001
5.541221e+002, 8.552058e+001
5.546042e+002, 8.538613e+001
5.550864e+002, 8.533669e+001
5.555685e+002, 8.534998e+001
5.560506e+002, 8.541983e+001
5.565327e+002, 8.554750e+001
5.570148e+002, 8.580210e+001
5.574969e+002, 8.613463e+001
5.579791e+002, 8.636343e+001
5.584612e+002, 8.633974e+001
5.589433e+002, 8.619645e+001
5.594254e+002, 8.600536e+001
5.599075e+002, 8.576952e+001
5.603896e+002, 8.558891e+001
5.608718e+002, 8.541832e+001
5.613539e+002, 8.537290e+001
5.618360e+002, 8.556014e+001
5.623181e+002, 8.641558e+001
5.628002e+002, 8.685481e+001
5.632823e+002, 8.648923e+001
5.637645e+002, 8.582915e+001
5.642466e+002, 8.569279e+001
5.647287e+002, 8.638199e+001
5.652108e+002, 8.692212e+001
5.656929e+002, 8.708542e+001
5.661750e+002, 8.693001e+001
5.666572e+002, 8.665794e+001
5.671393e+002, 8.624037e+001
5.676214e+002, 8.592263e+001
5.681035e+002, 8.586105e+001
5.685856e+002, 8.601835e+001
5.690677e+002, 8.625394e+001
5.695499e+002, 8.655925e+001
5.700320e+002, 8.695999e+001
5.705141e+002, 8.769934e+001
5.709962e+002, 8.849214e+001
5.714783e+002, 8.883707e+001
5.719604e+002, 8.845869e+001
5.724426e+002, 8.793516e+001
5.729247e+002, 8.755131e+001
5.734068e+002, 8.729256e+001
5.738889e+002, 8.712411e+001
5.743710e+002, 8.694682e+001
5.748531e+002, 8.695200e+001
5.753353e+002, 8.734450e+001
5.758174e+002, 8.807915e+001
5.762995e+002, 8.852022e+001
5.767816e+002, 8.846593e+001
5.772637e+002, 8.833569e+001
5.777458e+002, 8.831987e+001
5.782280e+002, 8.845772e+001
5.787101e+002, 8.848955e+001
5.791922e+002, 8.838339e+001
5.796743e+002, 8.824097e+001
5.801564e+002, 8.814705e+001
5.806385e+002, 8.810315e+001
5.811207e+002, 8.814255e+001
5.816028e+002, 8.827002e+001
5.820849e+002, 8.848552e+001
5.825670e+002, 8.884045e+001
5.830491e+002, 8.928988e+001
5.835313e+002, 8.970712e+001
5.840134e+002, 9.003211e+001
5.844955e+002, 9.029236e+001
5.849776e+002, 9.052587e+001
5.854597e+002, 9.072336e+001
5.859418e+002, 9.083217e+001
5.864240e+002, 9.074268e+001
5.869061e+002, 9.062192e+001
5.873882e+002, 9.053905e+001
5.878703e+002, 9.047005e+001
5.883524e+002, 9.056953e+001
5.888345e+002, 9.108338e+001
5.893167e+002, 9.162336e+001
5.897988e+002, 9.186001e+001
5.902809e+002, 9.157303e+001
5.907630e+002, 9.149626e+001
5.912451e+002, 9.173011e+001
5.917272e+002, 9.214987e+001
5.922094e+002, 9.252807e+001
5.926915e+002, 9.285760e+001
5.931736e+002, 9.322619e+001
5.936557e+002, 9.374406e+001
5.941378e+002, 9.426641e+001
5.946199e+002, 9.437353e+001
5.951021e+002, 9.410902e+001
5.955842e+002, 9.383488e+001
5.960663e+002, 9.374907e+001
5.965484e+002, 9.380228e+001
5.970305e+002, 9.399949e+001
5.975126e+002, 9.434859e+001
5.979948e+002, 9.459226e+001
5.984769e+002, 9.439366e+001
5.989590e+002, 9.413242e+001
5.994411e+002, 9.416112e+001
5.999232e+002, 9.490657e+001
6.004053e+002, 9.535197e+001
6.008875e+002, 9.512034e+001
6.013696e+002, 9.458289e+001
6.018517e+002, 9.423992e+001
6.023338e+002, 9.413227e+001
6.028159e+002, 9.416082e+001
6.032980e+002, 9.438112e+001
6.037802e+002, 9.470192e+001
6.042623e+002, 9.478016e+001
6.047444e+002, 9.459490e+001
6.052265e+002, 9.433794e+001
6.057086e+002, 9.407558e+001
6.061907e+002, 9.381834e+001
6.066729e+002, 9.358725e+001
6.071550e+002, 9.338283e+001
6.076371e+002, 9.324234e+001
6.081192e+002, 9.328093e+001
6.086013e+002, 9.336779e+001
6.090834e+002, 9.334257e+001
6.095656e+002, 9.318133e+001
6.100477e+002, 9.289512e+001
6.105298e+002, 9.231117e+001
6.110119e+002, 9.168248e+001
6.114940e+002, 9.128708e+001
6.119761e+002, 9.154631e+001
6.124583e+002, 9.162639e+001
6.129404e+002, 9.130142e+001
6.134225e+002, 9.073640e+001
6.139046e+002, 9.025105e+001
6.143867e+002, 8.978294e+001
6.148688e+002, 8.957361e+001
6.153510e+002, 8.986248e+001
6.158331e+002, 9.048909e+001
6.163152e+002, 9.029152e+001
6.167973e+002, 8.918003e+001
6.172794e+002, 8.812801e+001
6.177615e+002, 8.791858e+001
6.182437e+002, 8.827343e+001
6.187258e+002, 8.838770e+001
6.192079e+002, 8.821107e+001
6.196900e+002, 8.802862e+001
6.201721e+002, 8.815192e+001
6.206542e+002, 8.838264e+001
6.211364e+002, 8.846000e+001
6.216185e+002, 8.826035e+001
6.221006e+002, 8.804874e+001
6.225827e+002, 8.793113e+001
6.230648e+002, 8.787600e+001
6.235469e+002, 8.783909e+001
6.240291e+002, 8.792192e+001
6.245112e+002, 8.789466e+001
6.249933e+002, 8.771312e+001
6.254754e+002, 8.740324e+001
6.259575e+002, 8.702292e+001
6.264396e+002, 8.650436e+001
6.269218e+002, 8.611237e+001
6.274039e+002, 8.597131e+001
6.278860e+002, 8.604677e+001
6.283681e+002, 8.617902e+001
6.288502e+002, 8.637344e+001
6.293323e+002, 8.647588e+001
6.298145e+002, 8.626704e+001
6.302966e+002, 8.591031e+001
6.307787e+002, 8.573732e+001
6.312608e+002, 8.579009e+001
6.317429e+002, 8.586877e+001
6.322250e+002, 8.579891e+001
6.327072e+002, 8.568666e+001
6.331893e+002, 8.565347e+001
6.336714e+002, 8.580751e+001
6.341535e+002, 8.590743e+001
6.346356e+002, 8.584525e+001
6.351177e+002, 8.570232e+001
6.355999e+002, 8.560116e+001
6.360820e+002, 8.547317e+001
6.365641e+002, 8.551625e+001
6.370462e+002, 8.585941e+001
6.375283e+002, 8.636964e+001
6.380104e+002, 8.660780e+001
6.384926e+002, 8.655691e+001
6.389747e+002, 8.635046e+001
6.394568e+002, 8.593448e+001
6.399389e+002, 8.542647e+001
6.404210e+002, 8.529891e+001
6.409031e+002, 8.552992e+001
6.413853e+002, 8.574706e+001
6.418674e+002, 8.564290e+001
6.423495e+002, 8.539152e+001
6.428316e+002, 8.514439e+001
6.433137e+002, 8.489838e+001
6.437958e+002, 8.485741e+001
6.442780e+002, 8.543336e+001
6.447601e+002, 8.608688e+001
6.452422e+002, 8.632499e+001
6.457243e+002, 8.558981e+001
6.462064e+002, 8.518028e+001
6.466885e+002, 8.535528e+001
6.471707e+002, 8.576491e+001
6.476528e+002, 8.592528e+001
6.481349e+002, 8.573349e+001
6.486170e+002, 8.564413e+001
6.490991e+002, 8.580401e+001
6.495812e+002, 8.604713e+001
6.500634e+002, 8.593753e+001
6.505455e+002, 8.549827e+001
6.510276e+002, 8.507442e+001
6.515097e+002, 8.475166e+001
6.519918e+002, 8.458096e+001
6.524739e+002, 8.468902e+001
6.529561e+002, 8.503953e+001
6.534382e+002, 8.545187e+001
6.539203e+002, 8.601357e+001
6.544024e+002, 8.644958e+001
6.548845e+002, 8.652196e+001
6.553666e+002, 8.617679e+001
6.558488e+002, 8.583979e+001
6.563309e+002, 8.552711e+001
6.568130e+002, 8.531477e+001
6.572951e+002, 8.526710e+001
6.577772e+002, 8.549624e+001
6.582593e+002, 8.555823e+001
6.587415e+002, 8.534360e+001
6.592236e+002, 8.513866e+001
6.597057e+002, 8.537202e+001
6.601878e+002, 8.602903e+001
6.606699e+002, 8.643125e+001
6.611520e+002, 8.640221e+001
6.616342e+002, 8.619824e+001
6.621163e+002, 8.614957e+001
6.625984e+002, 8.621520e+001
6.630805e+002, 8.628958e+001
6.635626e+002, 8.638239e+001
6.640447e+002, 8.641404e+001
6.645269e+002, 8.623261e+001
6.650090e+002, 8.593465e+001
6.654911e+002, 8.579809e+001
6.659732e+002, 8.616645e+001
6.664553e+002, 8.645766e+001
6.669374e+002, 8.639352e+001
6.674196e+002, 8.600533e+001
6.679017e+002, 8.575142e+001
6.683838e+002, 8.564605e+001
6.688659e+002, 8.564900e+001
6.693480e+002, 8.579482e+001
6.698301e+002, 8.607993e+001
6.703123e+002, 8.615163e+001
6.707944e+002, 8.598323e+001
6.712765e+002, 8.580742e+001
6.717586e+002, 8.586864e+001
6.722407e+002, 8.606847e+001
6.727228e+002, 8.617016e+001
6.732050e+002, 8.612489e+001
6.736871e+002, 8.608928e+001
6.741692e+002, 8.616772e+001
6.746513e+002, 8.632563e+001
6.751334e+002, 8.652946e+001
6.756155e+002, 8.687521e+001
6.760977e+002, 8.710860e+001
6.765798e+002, 8.710843e+001
6.770619e+002, 8.697830e+001
6.775440e+002, 8.686108e+001
6.780261e+002, 8.672220e+001
6.785082e+002, 8.668423e+001
6.789904e+002, 8.681463e+001
6.794725e+002, 8.702805e+001
6.799546e+002, 8.707954e+001
6.804367e+002, 8.696750e+001
6.809188e+002, 8.688708e+001
6.814009e+002, 8.694090e+001
6.818831e+002, 8.706709e+001
6.823652e+002, 8.717890e+001
6.828473e+002, 8.726995e+001
6.833294e+002, 8.730040e+001
6.838115e+002, 8.707195e+001
6.842936e+002, 8.690984e+001
6.847758e+002, 8.718590e+001
6.852579e+002, 8.791162e+001
6.857400e+002, 8.832362e+001
6.862221e+002, 8.779851e+001
6.867042e+002, 8.726367e+001
6.871863e+002, 8.723112e+001
6.876685e+002, 8.786372e+001
6.881506e+002, 8.826927e+001
6.886327e+002, 8.835126e+001
6.891148e+002, 8.841311e+001
6.895969e+002, 8.879339e+001
6.900790e+002, 8.946275e+001
6.905612e+002, 8.994193e+001
6.910433e+002, 9.018062e+001
6.915254e+002, 9.022742e+001
6.920075e+002, 8.996635e+001
6.924896e+002, 8.958090e+001
6.929717e+002, 8.942226e+001
6.934539e+002, 8.965166e+001
6.939360e+002, 8.999729e+001
6.944181e+002, 9.038535e+001
6.949002e+002, 9.076765e+001
6.953823e+002, 9.107082e+001
6.958644e+002, 9.118081e+001
6.963466e+002, 9.133123e+001
6.968287e+002, 9.159392e+001
6.973108e+002, 9.191228e+001
6.977929e+002, 9.209777e+001
6.982750e+002, 9.208291e+001
6.987571e+002, 9.220253e+001
6.992393e+002, 9.259337e+001
6.997214e+002, 9.318176e+001
7.002035e+002, 9.379874e+001
7.006856e+002, 9.443086e+001
7.011677e+002, 9.493054e+001
7.016498e+002, 9.521901e+001
7.021320e+002, 9.532323e+001
7.026141e+002, 9.520723e+001
7.030962e+002, 9.489564e+001
7.035783e+002, 9.460246e+001
7.040604e+002, 9.442229e+001
7.045425e+002, 9.428550e+001
7.050247e+002, 9.414658e+001
7.055068e+002, 9.398879e+001
7.059889e+002, 9.389719e+001
7.064710e+002, 9.386112e+001
7.069531e+002, 9.390340e+001
7.074352e+002, 9.408434e+001
7.079174e+002, 9.443028e+001
7.083995e+002, 9.460061e+001
7.088816e+002, 9.457680e+001
7.093637e+002, 9.444353e+001
7.098458e+002, 9.418652e+001
7.103279e+002, 9.389788e+001
7.108101e+002, 9.382993e+001
7.112922e+002, 9.406767e+001
7.117743e+002, 9.435699e+001
7.122564e+002, 9.460534e+001
7.127385e+002, 9.475747e+001
7.132206e+002, 9.474266e+001
7.137028e+002, 9.442374e+001
7.141849e+002, 9.410291e+001
7.146670e+002, 9.381150e+001
7.151491e+002, 9.356083e+001
7.156312e+002, 9.338902e+001
7.161133e+002, 9.337591e+001
7.165955e+002, 9.321394e+001
7.170776e+002, 9.282690e+001
7.175597e+002, 9.229179e+001
7.180418e+002, 9.170105e+001
7.185239e+002, 9.107305e+001
7.190060e+002, 9.065499e+001
7.194882e+002, 9.063078e+001
7.199703e+002, 9.076546e+001
7.204524e+002, 9.075204e+001
7.209345e+002, 9.065119e+001
7.214166e+002, 9.064470e+001
7.218987e+002, 9.097054e+001
7.223809e+002, 9.126397e+001
7.228630e+002, 9.134950e+001
7.233451e+002, 9.123612e+001
7.238272e+002, 9.103761e+001
7.243093e+002, 9.060017e+001
7.247914e+002, 9.032963e+001
7.252736e+002, 9.046155e+001
7.257557e+002, 9.094409e+001
7.262378e+002, 9.105124e+001
7.267199e+002, 9.073564e+001
7.272020e+002, 9.046965e+001
7.276841e+002, 9.066608e+001
7.281663e+002, 9.111519e+001
7.286484e+002, 9.135380e+001
7.291305e+002, 9.137021e+001
7.296126e+002, 9.130239e+001
7.300947e+002, 9.124119e+001
7.305768e+002, 9.113589e+001
7.310590e+002, 9.088955e+001
7.315411e+002, 9.042294e+001
7.320232e+002, 9.017493e+001
7.325053e+002, 9.042127e+001
7.329874e+002, 9.074839e+001
7.334695e+002, 9.091539e+001
7.339517e+002, 9.088571e+001
7.344338e+002, 9.079647e+001
7.349159e+002, 9.062293e+001
7.353980e+002, 9.045652e+001
7.358801e+002, 9.042164e+001
7.363622e+002, 9.048387e+001
7.368444e+002, 9.048391e+001
7.373265e+002, 9.038198e+001
7.378086e+002, 9.029913e+001
7.382907e+002, 9.035737e+001
7.387728e+002, 9.050242e+001
7.392549e+002, 9.067669e+001
7.397371e+002, 9.096653e+001
7.402192e+002, 9.111134e+001
7.407013e+002, 9.098585e+001
7.411834e+002, 9.069375e+001
7.416655e+002, 9.036531e+001
7.421476e+002, 8.995537e+001
7.426298e+002, 8.961806e+001
7.431119e+002, 8.936156e+001
7.435940e+002, 8.919588e+001
7.440761e+002, 8.915182e+001
7.445582e+002, 8.922282e+001
7.450403e+002, 8.936679e+001
7.455225e+002, 8.962236e+001
7.460046e+002, 8.985306e+001
7.464867e+002, 8.983772e+001
7.469688e+002, 8.967259e+001
7.474509e+002, 8.956606e+001
7.479330e+002, 8.977106e+001
7.484152e+002, 8.987463e+001
7.488973e+002, 8.962722e+001
7.493794e+002, 8.914231e+001
7.498615e+002, 8.879698e+001
7.503436e+002, 8.855656e+001
7.508257e+002, 8.855807e+001
7.513079e+002, 8.898518e+001
7.517900e+002, 8.962503e+001
7.522721e+002, 8.963535e+001
7.527542e+002, 8.901931e+001
7.532363e+002, 8.830560e+001
7.537184e+002, 8.757996e+001
7.542006e+002, 8.702961e+001
7.546827e+002, 8.709800e+001
7.551648e+002, 8.765087e+001
7.556469e+002, 8.812450e+001
7.561290e+002, 8.816660e+001
7.566111e+002, 8.811197e+001
7.570933e+002, 8.814558e+001
7.575754e+002, 8.826627e+001
7.580575e+002, 8.830406e+001
7.585396e+002, 8.812763e+001
7.590217e+002, 8.805305e+001
7.595038e+002, 8.825700e+001
7.599860e+002, 8.869911e+001
7.604681e+002, 8.891673e+001
7.609502e+002, 8.889391e+001
7.614323e+002, 8.881233e+001
7.619144e+002, 8.880786e+001
7.623965e+002, 8.882016e+001
7.628787e+002, 8.868894e+001
7.633608e+002, 8.842958e+001
7.638429e+002, 8.826181e+001
7.643250e+002, 8.837432e+001
7.648071e+002, 8.858287e+001
7.652892e+002, 8.879321e+001
7.657714e+002, 8.901222e+001
7.662535e+002, 8.910082e+001
7.667356e+002, 8.889429e+001
7.672177e+002, 8.876733e+001
7.676998e+002, 8.900340e+001
7.681819e+002, 8.964494e+001
7.686641e+002, 8.986338e+001
7.691462e+002, 8.959708e+001
7.696283e+002, 8.936694e+001
7.701104e+002, 8.970216e+001
7.705925e+002, 9.035722e+001
7.710746e+002, 9.090120e+001
7.715568e+002, 9.129393e+001
7.720389e+002, 9.152249e+001
7.725210e+002, 9.146419e+001
7.730031e+002, 9.131389e+001
7.734852e+002, 9.124409e+001
7.739673e+002, 9.135342e+001
7.744495e+002, 9.126282e+001
7.749316e+002, 9.075187e+001
7.754137e+002, 9.029065e+001
7.758958e+002, 9.027699e+001
7.763779e+002, 9.075257e+001
7.768600e+002, 9.116935e+001
7.773422e+002, 9.152550e+001
7.778243e+002, 9.173227e+001
7.783064e+002, 9.149270e+001
7.787885e+002, 9.109370e+001
7.792706e+002, 9.116872e+001
7.797527e+002, 9.190710e+001
7.802349e+002, 9.254778e+001
7.807170e+002, 9.256943e+001
7.811991e+002, 9.232809e+001
7.816812e+002, 9.212025e+001
7.821633e+002, 9.192268e+001
7.826454e+002, 9.191814e+001
7.831276e+002, 9.221594e+001
7.836097e+002, 9.257748e+001
7.840918e+002, 9.276082e+001
7.845739e+002, 9.276279e+001
7.850560e+002, 9.272754e+001
7.855381e+002, 9.265133e+001
7.860203e+002, 9.263164e+001
7.865024e+002, 9.290260e+001
7.869845e+002, 9.327076e+001
7.874666e+002, 9.335677e+001
7.879487e+002, 9.296120e+001
7.884308e+002, 9.265897e+001
7.889130e+002, 9.273323e+001
7.893951e+002, 9.303618e+001
7.898772e+002, 9.343986e+001
7.903593e+002, 9.420816e+001
7.908414e+002, 9.452558e+001
7.913235e+002, 9.418468e+001
7.918057e+002, 9.366565e+001
7.922878e+002, 9.360528e+001
7.927699e+002, 9.396397e+001
7.932520e+002, 9.413342e+001
7.937341e+002, 9.401189e+001
7.942162e+002, 9.375439e+001
7.946984e+002, 9.338632e+001
7.951805e+002, 9.303645e+001
7.956626e+002, 9.295444e+001
7.961447e+002, 9.339948e+001
7.966268e+002, 9.364781e+001
7.971089e+002, 9.320869e+001
7.975911e+002, 9.256257e+001
7.980732e+002, 9.227999e+001
7.985553e+002, 9.268060e+001
7.990374e+002, 9.266453e+001
7.995195e+002, 9.204735e+001
8.000016e+002, 9.124461e+001
8.004838e+002, 9.073397e+001
8.009659e+002, 9.049716e+001
8.014480e+002, 9.047700e+001
8.019301e+002, 9.073787e+001
8.024122e+002, 9.089420e+001
8.028943e+002, 9.039688e+001
8.033765e+002, 8.963589e+001
8.038586e+002, 8.911708e+001
8.043407e+002, 8.904427e+001
8.048228e+002, 8.907897e+001
8.053049e+002, 8.935252e+001
8.057870e+002, 8.957827e+001
8.062692e+002, 8.937705e+001
8.067513e+002, 8.851074e+001
8.072334e+002, 8.824426e+001
8.077155e+002, 8.883900e+001
8.081976e+002, 8.962593e+001
8.086797e+002, 8.965173e+001
8.091619e+002, 8.916092e+001
8.096440e+002, 8.887295e+001
8.101261e+002, 8.896797e+001
8.106082e+002, 8.917811e+001
8.110903e+002, 8.940858e+001
8.115724e+002, 8.959748e+001
8.120546e+002, 8.967299e+001
8.125367e+002, 8.954773e+001
8.130188e+002, 8.942052e+001
8.135009e+002, 8.922830e+001
8.139830e+002, 8.911349e+001
8.144651e+002, 8.927371e+001
8.149473e+002, 8.973207e+001
8.154294e+002, 9.014476e+001
8.159115e+002, 9.050120e+001
8.163936e+002, 9.070858e+001
8.168757e+002, 9.049411e+001
8.173578e+002, 9.010107e+001
8.178400e+002, 8.995363e+001
8.183221e+002, 9.017034e+001
8.188042e+002, 9.053947e+001
8.192863e+002, 9.124158e+001
8.197684e+002, 9.188351e+001
8.202505e+002, 9.203681e+001
8.207327e+002, 9.131171e+001
8.212148e+002, 9.097884e+001
8.216969e+002, 9.117348e+001
8.221790e+002, 9.151064e+001
8.226611e+002, 9.154625e+001
8.231432e+002, 9.133793e+001
8.236254e+002, 9.125646e+001
8.241075e+002, 9.134621e+001
8.245896e+002, 9.151184e+001
8.250717e+002, 9.173106e+001
8.255538e+002, 9.194448e+001
8.260359e+002, 9.208015e+001
8.265181e+002, 9.211582e+001
8.270002e+002, 9.211401e+001
8.274823e+002, 9.191468e+001
8.279644e+002, 9.182970e+001
8.284465e+002, 9.213844e+001
8.289286e+002, 9.299654e+001
8.294108e+002, 9.347172e+001
8.298929e+002, 9.352430e+001
8.303750e+002, 9.335768e+001
8.308571e+002, 9.307574e+001
8.313392e+002, 9.273619e+001
8.318214e+002, 9.244630e+001
8.323035e+002, 9.221899e+001
8.327856e+002, 9.205959e+001
8.332677e+002, 9.193830e+001
8.337498e+002, 9.191100e+001
8.342319e+002, 9.204919e+001
8.347141e+002, 9.242209e+001
8.351962e+002, 9.270032e+001
8.356783e+002, 9.289537e+001
8.361604e+002, 9.297057e+001
8.366425e+002, 9.287276e+001
8.371246e+002, 9.261152e+001
8.376068e+002, 9.228246e+001
8.380889e+002, 9.188460e+001
8.385710e+002, 9.164719e+001
8.390531e+002, 9.188919e+001
8.395352e+002, 9.229724e+001
8.400173e+002, 9.253442e+001
8.404995e+002, 9.258035e+001
8.409816e+002, 9.260387e+001
8.414637e+002, 9.276530e+001
8.419458e+002, 9.280531e+001
8.424279e+002, 9.253911e+001
8.429100e+002, 9.197682e+001
8.433922e+002, 9.172132e+001
8.438743e+002, 9.180318e+001
8.443564e+002, 9.201977e+001
8.448385e+002, 9.233556e+001
8.453206e+002, 9.267514e+001
8.458027e+002, 9.281825e+001
8.462849e+002, 9.280003e+001
8.467670e+002, 9.281544e+001
8.472491e+002, 9.304772e+001
8.477312e+002, 9.327782e+001
8.482133e+002, 9.344492e+001
8.486954e+002, 9.352001e+001
8.491776e+002, 9.331772e+001
8.496597e+002, 9.263774e+001
8.501418e+002, 9.208039e+001
8.506239e+002, 9.183854e+001
8.511060e+002, 9.187222e+001
8.515881e+002, 9.214395e+001
8.520703e+002, 9.262027e+001
8.525524e+002, 9.301608e+001
8.530345e+002, 9.319893e+001
8.535166e+002, 9.322437e+001
8.539987e+002, 9.302794e+001
8.544808e+002, 9.271361e+001
8.549630e+002, 9.254635e+001
8.554451e+002, 9.290901e+001
8.559272e+002, 9.303507e+001
8.564093e+002, 9.261136e+001
8.568914e+002, 9.193718e+001
8.573735e+002, 9.170312e+001
8.578557e+002, 9.193977e+001
8.583378e+002, 9.227860e+001
8.588199e+002, 9.270637e+001
8.593020e+002, 9.302203e+001
8.597841e+002, 9.280128e+001
8.602662e+002, 9.225771e+001
8.607484e+002, 9.184185e+001
8.612305e+002, 9.185264e+001
8.617126e+002, 9.180301e+001
8.621947e+002, 9.139786e+001
8.626768e+002, 9.088022e+001
8.631589e+002, 9.059072e+001
8.636411e+002, 9.057181e+001
8.641232e+002, 9.068734e+001
8.646053e+002, 9.098177e+001
8.650874e+002, 9.127007e+001
8.655695e+002, 9.133422e+001
8.660516e+002, 9.119148e+001
8.665338e+002, 9.083920e+001
8.670159e+002, 9.021188e+001
8.674980e+002, 8.969803e+001
8.679801e+002, 8.963683e+001
8.684622e+002, 8.978210e+001
8.689443e+002, 8.988184e+001
8.694265e+002, 8.981261e+001
8.699086e+002, 8.996207e+001
8.703907e+002, 9.054755e+001
8.708728e+002, 9.101173e+001
8.713549e+002, 9.079478e+001
8.718370e+002, 8.996229e+001
8.723192e+002, 8.926028e+001
8.728013e+002, 8.870529e+001
8.732834e+002, 8.839690e+001
8.737655e+002, 8.863332e+001
8.742476e+002, 8.901250e+001
8.747297e+002, 8.908639e+001
8.752119e+002, 8.880463e+001
8.756940e+002, 8.863210e+001
8.761761e+002, 8.873999e+001
8.766582e+002, 8.892957e+001
8.771403e+002, 8.920338e+001
8.776224e+002, 8.953110e+001
8.781046e+002, 8.940746e+001
8.785867e+002, 8.881118e+001
8.790688e+002, 8.825562e+001
8.795509e+002, 8.811332e+001
8.800330e+002, 8.816780e+001
8.805151e+002, 8.815373e+001
8.809973e+002, 8.807528e+001
8.814794e+002, 8.795068e+001
8.819615e+002, 8.762513e+001
8.824436e+002, 8.743362e+001
8.829257e+002, 8.759953e+001
8.834078e+002, 8.798216e+001
8.838900e+002, 8.819112e+001
8.843721e+002, 8.819701e+001
8.848542e+002, 8.818235e+001
8.853363e+002, 8.819842e+001
8.858184e+002, 8.822148e+001
8.863005e+002, 8.816115e+001
8.867827e+002, 8.807430e+001
8.872648e+002, 8.811879e+001
8.877469e+002, 8.849671e+001
8.882290e+002, 8.879487e+001
8.887111e+002, 8.875695e+001
8.891932e+002, 8.855775e+001
8.896754e+002, 8.844283e+001
8.901575e+002, 8.839645e+001
8.906396e+002, 8.852183e+001
8.911217e+002, 8.889207e+001
8.916038e+002, 8.927924e+001
8.920859e+002, 8.940086e+001
8.925681e+002, 8.930853e+001
8.930502e+002, 8.910449e+001
8.935323e+002, 8.877458e+001
8.940144e+002, 8.858163e+001
8.944965e+002, 8.883208e+001
8.949786e+002, 8.921936e+001
8.954608e+002, 8.950687e+001
8.959429e+002, 8.967951e+001
8.964250e+002, 8.965833e+001
8.969071e+002, 8.935828e+001
8.973892e+002, 8.903360e+001
8.978713e+002, 8.886335e+001
8.983535e+002, 8.882265e+001
8.988356e+002, 8.877523e+001
8.993177e+002, 8.872232e+001
8.997998e+002, 8.869700e+001
9.002819e+002, 8.874131e+001
9.007640e+002, 8.880558e+001
9.012462e+002, 8.884298e+001
9.017283e+002, 8.885829e+001
9.022104e+002, 8.891631e+001
9.026925e+002, 8.899500e+001
9.031746e+002, 8.917805e+001
9.036567e+002, 8.958765e+001
9.041389e+002, 9.006702e+001
9.046210e+002, 9.002016e+001
9.051031e+002, 8.951045e+001
9.055852e+002, 8.911258e+001
9.060673e+002, 8.913956e+001
9.065494e+002, 8.926555e+001
9.070316e+002, 8.918990e+001
9.075137e+002, 8.900460e+001
9.079958e+002, 8.887117e+001
9.084779e+002, 8.893431e+001
9.089600e+002, 8.889898e+001
9.094421e+002, 8.867944e+001
9.099243e+002, 8.841718e+001
9.104064e+002, 8.829277e+001
9.108885e+002, 8.830360e+001
9.113706e+002, 8.841483e+001
9.118527e+002, 8.864303e+001
9.123348e+002, 8.883266e+001
9.128170e+002, 8.880287e+001
9.132991e+002, 8.866865e+001
9.137812e+002, 8.855085e+001
9.142633e+002, 8.846552e+001
9.147454e+002, 8.841967e+001
9.152275e+002, 8.844044e+001
9.157097e+002, 8.846900e+001
9.161918e+002, 8.846535e+001
9.166739e+002, 8.843065e+001
9.171560e+002, 8.841927e+001
9.176381e+002, 8.843081e+001
9.181202e+002, 8.851651e+001
9.186024e+002, 8.881344e+001
9.190845e+002, 8.913195e+001
9.195666e+002, 8.924059e+001
9.200487e+002, 8.916748e+001
9.205308e+002, 8.911733e+001
9.210129e+002, 8.920206e+001
9.214951e+002, 8.924785e+001
9.219772e+002, 8.919265e+001
9.224593e+002, 8.907491e+001
9.229414e+002, 8.904263e+001
9.234235e+002, 8.909170e+001
9.239056e+002, 8.899504e+001
9.243878e+002, 8.856076e+001
9.248699e+002, 8.818343e+001
9.253520e+002, 8.851993e+001
9.258341e+002, 8.915574e+001
9.263162e+002, 8.942510e+001
9.267983e+002, 8.863062e+001
9.272805e+002, 8.825859e+001
9.277626e+002, 8.875642e+001
9.282447e+002, 8.943739e+001
9.287268e+002, 8.956086e+001
9.292089e+002, 8.912476e+001
9.296910e+002, 8.876768e+001
9.301732e+002, 8.853159e+001
9.306553e+002, 8.844473e+001
9.311374e+002, 8.880460e+001
9.316195e+002, 8.916895e+001
9.321016e+002, 8.884858e+001
9.325837e+002, 8.772979e+001
9.330659e+002, 8.714932e+001
9.335480e+002, 8.789021e+001
9.340301e+002, 8.867403e+001
9.345122e+002, 8.903046e+001
9.349943e+002, 8.900513e+001
9.354764e+002, 8.885267e+001
9.359586e+002, 8.857291e+001
9.364407e+002, 8.829698e+001
9.369228e+002, 8.795441e+001
9.374049e+002, 8.776767e+001
9.378870e+002, 8.820011e+001
9.383691e+002, 8.895197e+001
9.388513e+002, 8.932057e+001
9.393334e+002, 8.858079e+001
9.398155e+002, 8.817936e+001
9.402976e+002, 8.842782e+001
9.407797e+002, 8.897652e+001
9.412618e+002, 8.937511e+001
9.417440e+002, 8.961216e+001
9.422261e+002, 8.940126e+001
9.427082e+002, 8.859740e+001
9.431903e+002, 8.788480e+001
9.436724e+002, 8.808652e+001
9.441545e+002, 8.863028e+001
9.446367e+002, 8.894100e+001
9.451188e+002, 8.889584e+001
9.456009e+002, 8.868179e+001
9.460830e+002, 8.811073e+001
9.465651e+002, 8.770154e+001
9.470472e+002, 8.786638e+001
9.475294e+002, 8.850501e+001
9.480115e+002, 8.872977e+001
9.484936e+002, 8.857191e+001
9.489757e+002, 8.838338e+001
9.494578e+002, 8.836769e+001
9.499399e+002, 8.842529e+001
9.504221e+002, 8.848521e+001
9.509042e+002, 8.855594e+001
9.513863e+002, 8.868840e+001
9.518684e+002, 8.905750e+001
9.523505e+002, 8.915910e+001
9.528326e+002, 8.881789e+001
9.533148e+002, 8.828737e+001
9.537969e+002, 8.804275e+001
9.542790e+002, 8.803149e+001
9.547611e+002, 8.802905e+001
9.552432e+002, 8.798557e+001
9.557253e+002, 8.792223e+001
9.562075e+002, 8.773560e+001
9.566896e+002, 8.760445e+001
9.571717e+002, 8.774618e+001
9.576538e+002, 8.832076e+001
9.581359e+002, 8.868819e+001
9.586180e+002, 8.882221e+001
9.591002e+002, 8.880665e+001
9.595823e+002, 8.864028e+001
9.600644e+002, 8.838023e+001
9.605465e+002, 8.819540e+001
9.610286e+002, 8.808533e+001
9.615107e+002, 8.802823e+001
9.619929e+002, 8.798257e+001
9.624750e+002, 8.801389e+001
9.629571e+002, 8.822480e+001
9.634392e+002, 8.854639e+001
9.639213e+002, 8.872510e+001
9.644034e+002, 8.871904e+001
9.648856e+002, 8.874914e+001
9.653677e+002, 8.890786e+001
9.658498e+002, 8.904579e+001
9.663319e+002, 8.881236e+001
9.668140e+002, 8.839870e+001
9.672961e+002, 8.823475e+001
9.677783e+002, 8.854440e+001
9.682604e+002, 8.880919e+001
9.687425e+002, 8.876334e+001
9.692246e+002, 8.864822e+001
9.697067e+002, 8.865681e+001
9.701888e+002, 8.880889e+001
9.706710e+002, 8.894884e+001
9.711531e+002, 8.907780e+001
9.716352e+002, 8.916775e+001
9.721173e+002, 8.917588e+001
9.725994e+002, 8.914236e+001
9.730815e+002, 8.911217e+001
9.735637e+002, 8.908679e+001
9.740458e+002, 8.906565e+001
9.745279e+002, 8.908507e+001
9.750100e+002, 8.905938e+001
9.754921e+002, 8.895054e+001
9.759742e+002, 8.879533e+001
9.764564e+002, 8.869184e+001
9.769385e+002, 8.863628e+001
9.774206e+002, 8.854766e+001
9.779027e+002, 8.839134e+001
9.783848e+002, 8.824841e+001
9.788669e+002, 8.816927e+001
9.793491e+002, 8.816328e+001
9.798312e+002, 8.823788e+001
9.803133e+002, 8.838896e+001
9.807954e+002, 8.867467e+001
9.812775e+002, 8.922213e+001
9.817596e+002, 8.968652e+001
9.822418e+002, 8.980215e+001
9.827239e+002, 8.962077e+001
9.832060e+002, 8.933389e+001
9.836881e+002, 8.897009e+001
9.841702e+002, 8.877254e+001
9.846523e+002, 8.917909e+001
9.851345e+002, 8.951440e+001
9.856166e+002, 8.924880e+001
9.860987e+002, 8.856237e+001
9.865808e+002, 8.815066e+001
9.870629e+002, 8.803410e+001
9.875450e+002, 8.818633e+001
9.880272e+002, 8.870290e+001
9.885093e+002, 8.924818e+001
9.889914e+002, 8.925703e+001
9.894735e+002, 8.892353e+001
9.899556e+002, 8.861391e+001
9.904377e+002, 8.838532e+001
9.909199e+002, 8.828694e+001
9.914020e+002, 8.838892e+001
9.918841e+002, 8.859695e+001
9.923662e+002, 8.890623e+001
9.928483e+002, 8.932446e+001
9.933304e+002, 8.937229e+001
9.938126e+002, 8.902867e+001
9.942947e+002, 8.867907e+001
9.947768e+002, 8.851182e+001
9.952589e+002, 8.850858e+001
9.957410e+002, 8.880235e+001
9.962231e+002, 8.924426e+001
9.967053e+002, 8.941888e+001
9.971874e+002, 8.882980e+001
9.976695e+002, 8.847879e+001
9.981516e+002, 8.858475e+001
9.986337e+002, 8.888479e+001
9.991158e+002, 8.896008e+001
9.995980e+002, 8.885104e+001
1.000080e+003, 8.889329e+001
1.000562e+003, 8.916788e+001
1.001044e+003, 8.930917e+001
1.001526e+003, 8.875384e+001
1.002009e+003, 8.815314e+001
1.002491e+003, 8.814659e+001
1.002973e+003, 8.886408e+001
1.003455e+003, 8.923367e+001
1.003937e+003, 8.916654e+001
1.004419e+003, 8.903593e+001
1.004901e+003, 8.902243e+001
1.005383e+003, 8.904772e+001
1.005865e+003, 8.889380e+001
1.006348e+003, 8.863148e+001
1.006830e+003, 8.845863e+001
1.007312e+003, 8.850590e+001
1.007794e+003, 8.860058e+001
1.008276e+003, 8.861575e+001
1.008758e+003, 8.870002e+001
1.009240e+003, 8.912053e+001
1.009722e+003, 8.995210e+001
1.010205e+003, 9.022432e+001
1.010687e+003, 8.982750e+001
1.011169e+003, 8.936023e+001
1.011651e+003, 8.947068e+001
1.012133e+003, 8.971375e+001
1.012615e+003, 8.947837e+001
1.013097e+003, 8.877234e+001
1.013579e+003, 8.853283e+001
1.014061e+003, 8.933412e+001
1.014544e+003, 8.987267e+001
1.015026e+003, 8.962132e+001
1.015508e+003, 8.901536e+001
1.015990e+003, 8.930546e+001
1.016472e+003, 9.022901e+001
1.016954e+003, 9.065652e+001
1.017436e+003, 9.003917e+001
1.017918e+003, 8.937828e+001
1.018401e+003, 8.932657e+001
1.018883e+003, 8.952510e+001
1.019365e+003, 8.960078e+001
1.019847e+003, 8.948952e+001
1.020329e+003, 8.954458e+001
1.020811e+003, 8.980473e+001
1.021293e+003, 9.002235e+001
1.021775e+003, 8.996292e+001
1.022257e+003, 8.978061e+001
1.022740e+003, 8.971886e+001
1.023222e+003, 8.975182e+001
1.023704e+003, 8.976510e+001
1.024186e+003, 8.971977e+001
1.024668e+003, 8.964159e+001
1.025150e+003, 8.951281e+001
1.025632e+003, 8.937656e+001
1.026114e+003, 8.928381e+001
1.026596e+003, 8.924147e+001
1.027079e+003, 8.935691e+001
1.027561e+003, 8.967791e+001
1.028043e+003, 8.989553e+001
1.028525e+003, 8.958823e+001
1.029007e+003, 8.919153e+001
1.029489e+003, 8.912469e+001
1.029971e+003, 8.944497e+001
1.030453e+003, 8.960049e+001
1.030936e+003, 8.954124e+001
1.031418e+003, 8.949057e+001
1.031900e+003, 8.956701e+001
1.032382e+003, 8.968472e+001
1.032864e+003, 8.963805e+001
1.033346e+003, 8.949825e+001
1.033828e+003, 8.944006e+001
1.034310e+003, 8.964947e+001
1.034792e+003, 8.975379e+001
1.035275e+003, 8.956728e+001
1.035757e+003, 8.932542e+001
1.036239e+003, 8.918201e+001
1.036721e+003, 8.913828e+001
1.037203e+003, 8.952511e+001
1.037685e+003, 9.034296e+001
1.038167e+003, 9.088123e+001
1.038649e+003, 9.011999e+001
1.039132e+003, 8.928785e+001
1.039614e+003, 8.959420e+001
1.040096e+003, 9.078664e+001
1.040578e+003, 9.134531e+001
1.041060e+003, 9.093632e+001
1.041542e+003, 9.060101e+001
1.042024e+003, 9.054363e+001
1.042506e+003, 9.061954e+001
1.042989e+003, 9.063305e+001
1.043471e+003, 9.060723e+001
1.043953e+003, 9.057444e+001
1.044435e+003, 9.052379e+001
1.044917e+003, 9.056303e+001
1.045399e+003, 9.090815e+001
1.045881e+003, 9.116960e+001
1.046363e+003, 9.110790e+001
1.046845e+003, 9.077776e+001
1.047328e+003, 9.061606e+001
1.047810e+003, 9.061527e+001
1.048292e+003, 9.066015e+001
1.048774e+003, 9.070096e+001
1.049256e+003, 9.076311e+001
1.049738e+003, 9.092912e+001
1.050220e+003, 9.111062e+001
1.050702e+003, 9.115771e+001
1.051184e+003, 9.101638e+001
1.051667e+003, 9.082761e+001
1.052149e+003, 9.055021e+001
1.052631e+003, 9.036703e+001
1.053113e+003, 9.054666e+001
1.053595e+003, 9.088638e+001
1.054077e+003, 9.091601e+001
1.054559e+003, 9.068139e+001
1.055041e+003, 9.061782e+001
1.055523e+003, 9.128650e+001
1.056006e+003, 9.165256e+001
1.056488e+003, 9.129020e+001
1.056970e+003, 9.059861e+001
1.057452e+003, 9.040404e+001
1.057934e+003, 9.065842e+001
1.058416e+003, 9.095708e+001
1.058898e+003, 9.125259e+001
1.059380e+003, 9.139198e+001
1.059863e+003, 9.101149e+001
1.060345e+003, 9.059799e+001
1.060827e+003, 9.060997e+001
1.061309e+003, 9.107983e+001
1.061791e+003, 9.144650e+001
1.062273e+003, 9.166479e+001
1.062755e+003, 9.202748e+001
1.063237e+003, 9.286353e+001
1.063719e+003, 9.363728e+001
1.064202e+003, 9.336216e+001
1.064684e+003, 9.244264e+001
1.065166e+003, 9.164127e+001
1.065648e+003, 9.117265e+001
1.066130e+003, 9.088846e+001
1.066612e+003, 9.079861e+001
1.067094e+003, 9.082321e+001
1.067576e+003, 9.095259e+001
1.068059e+003, 9.115096e+001
1.068541e+003, 9.113919e+001
1.069023e+003, 9.095132e+001
1.069505e+003, 9.088805e+001
1.069987e+003, 9.130376e+001
1.070469e+003, 9.170504e+001
1.070951e+003, 9.178353e+001
1.071433e+003, 9.168248e+001
1.071916e+003, 9.165953e+001
1.072398e+003, 9.172128e+001
1.072880e+003, 9.177763e+001
1.073362e+003, 9.179771e+001
1.073844e+003, 9.193399e+001
1.074326e+003, 9.255697e+001
1.074808e+003, 9.323381e+001
1.075290e+003, 9.347107e+001
1.075772e+003, 9.322057e+001
1.076255e+003, 9.294817e+001
1.076737e+003, 9.262960e+001
1.077219e+003, 9.244975e+001
1.077701e+003, 9.250032e+001
1.078183e+003, 9.267989e+001
1.078665e+003, 9.279446e+001
1.079147e+003, 9.287931e+001
1.079629e+003, 9.301360e+001
1.080111e+003, 9.321796e+001
1.080594e+003, 9.347666e+001
1.081076e+003, 9.387756e+001
1.081558e+003, 9.423960e+001
1.082040e+003, 9.443964e+001
1.082522e+003, 9.449339e+001
1.083004e+003, 9.447646e+001
1.083486e+003, 9.441827e+001
1.083968e+003, 9.460634e+001
1.084450e+003, 9.544444e+001
1.084933e+003, 9.630828e+001
1.085415e+003, 9.695707e+001
1.085897e+003, 9.729821e+001
1.086379e+003, 9.718049e+001
1.086861e+003, 9.643355e+001
1.087343e+003, 9.590724e+001
1.087825e+003, 9.563612e+001
1.088307e+003, 9.560913e+001
1.088790e+003, 9.602744e+001
1.089272e+003, 9.654341e+001
1.089754e+003, 9.668746e+001
1.090236e+003, 9.651637e+001
1.090718e+003, 9.645781e+001
1.091200e+003, 9.676454e+001
1.091682e+003, 9.682517e+001
1.092164e+003, 9.639082e+001
1.092646e+003, 9.593693e+001
1.093129e+003, 9.630563e+001
1.093611e+003, 9.721078e+001
1.094093e+003, 9.799498e+001
1.094575e+003, 9.855946e+001
1.095057e+003, 9.895959e+001
1.095539e+003, 9.905281e+001
1.096021e+003, 9.915505e+001
1.096503e+003, 9.938411e+001
1.096986e+003, 9.973085e+001
1.097468e+003, 1.001442e+002
1.097950e+003, 1.006402e+002
1.098432e+003, 1.013214e+002
1.098914e+003, 1.022100e+002
1.099396e+003, 1.033329e+002
1.099878e+003, 1.048489e+002
1.100360e+003, 1.065221e+002
1.100843e+003, 1.080590e+002
1.101325e+003, 1.093998e+002
1.101807e+003, 1.112083e+002
1.102289e+003, 1.134973e+002
1.102771e+003, 1.161898e+002
1.103253e+003, 1.192374e+002
1.103735e+003, 1.226439e+002
1.104217e+003, 1.262915e+002
1.104699e+003, 1.302737e+002
1.105182e+003, 1.348484e+002
1.105664e+003, 1.402710e+002
1.106146e+003, 1.457817e+002
1.106628e+003, 1.512680e+002
1.107110e+003, 1.571352e+002
1.107592e+003, 1.638692e+002
1.108074e+003, 1.712424e+002
1.108556e+003, 1.788795e+002
1.109038e+003, 1.868935e+002
1.109521e+003, 1.960264e+002
1.110003e+003, 2.074233e+002
1.110485e+003, 2.190310e+002
1.110967e+003, 2.307058e+002
1.111449e+003, 2.421629e+002
1.111931e+003, 2.533024e+002
1.112413e+003, 2.639454e+002
1.112895e+003, 2.736533e+002
1.113377e+003, 2.824779e+002
1.113860e+003, 2.886183e+002
1.114342e+003, 2.920435e+002
1.114824e+003, 2.912713e+002
1.115306e+003, 2.849769e+002
1.115788e+003, 2.741654e+002
1.116270e+003, 2.612066e+002
1.116752e+003, 2.460244e+002
1.117234e+003, 2.297906e+002
1.117717e+003, 2.124093e+002
1.118199e+003, 1.956149e+002
1.118681e+003, 1.803564e+002
1.119163e+003, 1.668255e+002
1.119645e+003, 1.553974e+002
1.120127e+003, 1.460426e+002
1.120609e+003, 1.381062e+002
1.121091e+003, 1.316592e+002
1.121573e+003, 1.262084e+002
1.122056e+003, 1.216576e+002
1.122538e+003, 1.178242e+002
1.123020e+003, 1.144228e+002
1.123502e+003, 1.114764e+002
1.123984e+003, 1.090020e+002
1.124466e+003, 1.070819e+002
1.124948e+003, 1.055663e+002
1.125430e+003, 1.045504e+002
1.125913e+003, 1.036843e+002
1.126395e+003, 1.028188e+002
1.126877e+003, 1.018978e+002
1.127359e+003, 1.005849e+002
1.127841e+003, 9.910020e+001
1.128323e+003, 9.807088e+001
1.128805e+003, 9.812476e+001
1.129287e+003, 9.810702e+001
1.129770e+003, 9.786131e+001
1.130252e+003, 9.749889e+001
1.130734e+003, 9.706753e+001
1.131216e+003, 9.660851e+001
1.131698e+003, 9.631449e+001
1.132180e+003, 9.616664e+001
1.132662e+003, 9.597820e+001
1.133144e+003, 9.562598e+001
1.133626e+003, 9.523388e+001
1.134109e+003, 9.477647e+001
1.134591e+003, 9.435046e+001
1.135073e+003, 9.411462e+001
1.135555e+003, 9.406039e+001
1.136037e+003, 9.413046e+001
1.136519e+003, 9.432575e+001
1.137001e+003, 9.435804e+001
1.137483e+003, 9.381223e+001
1.137965e+003, 9.323847e+001
1.138448e+003, 9.297456e+001
1.138930e+003, 9.297010e+001
1.139412e+003, 9.314493e+001
1.139894e+003, 9.352049e+001
1.140376e+003, 9.370315e+001
1.140858e+003, 9.360949e+001
1.141340e+003, 9.332404e+001
1.141822e+003, 9.264701e+001
1.142304e+003, 9.201795e+001
1.142787e+003, 9.194191e+001
1.143269e+003, 9.243890e+001
1.143751e+003, 9.263332e+001
1.144233e+003, 9.247194e+001
1.144715e+003, 9.227076e+001
1.145197e+003, 9.210636e+001
1.145679e+003, 9.202129e+001
1.146161e+003, 9.222169e+001
1.146644e+003, 9.246297e+001
1.147126e+003, 9.237603e+001
1.147608e+003, 9.174848e+001
1.148090e+003, 9.139430e+001
1.148572e+003, 9.136387e+001
1.149054e+003, 9.150108e+001
1.149536e+003, 9.183814e+001
1.150018e+003, 9.217303e+001
1.150500e+003, 9.205119e+001
1.150983e+003, 9.168254e+001
1.151465e+003, 9.149266e+001
1.151947e+003, 9.173367e+001
1.152429e+003, 9.188371e+001
1.152911e+003, 9.191354e+001
1.153393e+003, 9.183847e+001
1.153875e+003, 9.159333e+001
1.154357e+003, 9.127982e+001
1.154840e+003, 9.116862e+001
1.155322e+003, 9.122938e+001
1.155804e+003, 9.136903e+001
1.156286e+003, 9.165337e+001
1.156768e+003, 9.186975e+001
1.157250e+003, 9.201418e+001
1.157732e+003, 9.205505e+001
1.158214e+003, 9.193111e+001
1.158697e+003, 9.167629e+001
1.159179e+003, 9.138711e+001
1.159661e+003, 9.109159e+001
1.160143e+003, 9.093572e+001
1.160625e+003, 9.112655e+001
1.161107e+003, 9.129173e+001
1.161589e+003, 9.121328e+001
1.162071e+003, 9.115445e+001
1.162553e+003, 9.167325e+001
1.163036e+003, 9.259760e+001
1.163518e+003, 9.250240e+001
1.164000e+003, 9.135758e+001
1.164482e+003, 9.043311e+001
1.164964e+003, 9.072375e+001
1.165446e+003, 9.117775e+001
1.165928e+003, 9.130553e+001
1.166410e+003, 9.126167e+001
1.166892e+003, 9.129745e+001
1.167375e+003, 9.141696e+001
1.167857e+003, 9.177235e+001
1.168339e+003, 9.240707e+001
1.168821e+003, 9.274733e+001
1.169303e+003, 9.199418e+001
1.169785e+003, 9.117541e+001
1.170267e+003, 9.103249e+001
1.170749e+003, 9.133876e+001
1.171231e+003, 9.149162e+001
1.171714e+003, 9.149141e+001
1.172196e+003, 9.126781e+001
1.172678e+003, 9.073624e+001
1.173160e+003, 9.044772e+001
1.173642e+003, 9.121420e+001
1.174124e+003, 9.213848e+001
1.174606e+003, 9.247495e+001
1.175088e+003, 9.229236e+001
1.175571e+003, 9.192683e+001
1.176053e+003, 9.135381e+001
1.176535e+003, 9.108671e+001
1.177017e+003, 9.134229e+001
1.177499e+003, 9.168800e+001
1.177981e+003, 9.168613e+001
1.178463e+003, 9.158329e+001
1.178945e+003, 9.166515e+001
1.179427e+003, 9.194288e+001
1.179910e+003, 9.194351e+001
1.180392e+003, 9.162801e+001
1.180874e+003, 9.143887e+001
1.181356e+003, 9.160586e+001
1.181838e+003, 9.181236e+001
1.182320e+003, 9.165459e+001
1.182802e+003, 9.138329e+001
1.183284e+003, 9.133037e+001
1.183767e+003, 9.157354e+001
1.184249e+003, 9.159791e+001
1.184731e+003, 9.136858e+001
1.185213e+003, 9.116073e+001
1.185695e+003, 9.110450e+001
1.186177e+003, 9.113580e+001
1.186659e+003, 9.119515e+001
1.187141e+003, 9.128904e+001
1.187624e+003, 9.147148e+001
1.188106e+003, 9.188079e+001
1.188588e+003, 9.177385e+001
1.189070e+003, 9.104616e+001
1.189552e+003, 9.041529e+001
1.190034e+003, 9.034328e+001
1.190516e+003, 9.053825e+001
1.190998e+003, 9.066467e+001
1.191480e+003, 9.078740e+001
1.191963e+003, 9.105173e+001
1.192445e+003, 9.169862e+001
1.192927e+003, 9.183138e+001
1.193409e+003, 9.133620e+001
1.193891e+003, 9.084116e+001
1.194373e+003, 9.075532e+001
1.194855e+003, 9.093014e+001
1.195337e+003, 9.128215e+001
1.195819e+003, 9.172302e+001
1.196302e+003, 9.205126e+001
1.196784e+003, 9.219140e+001
1.197266e+003, 9.235004e+001
1.197748e+003, 9.256473e+001
1.198230e+003, 9.265108e+001
1.198712e+003, 9.234779e+001
1.199194e+003, 9.190921e+001
1.199676e+003, 9.166822e+001
1.200158e+003, 9.158215e+001
1.200641e+003, 9.152448e+001
1.201123e+003, 9.146369e+001
1.201605e+003, 9.147370e+001
1.202087e+003, 9.158412e+001
1.202569e+003, 9.166610e+001
1.203051e+003, 9.145210e+001
1.203533e+003, 9.124370e+001
1.204015e+003, 9.157328e+001
1.204498e+003, 9.227087e+001
1.204980e+003, 9.270161e+001
1.205462e+003, 9.272439e+001
1.205944e+003, 9.256388e+001
1.206426e+003, 9.215937e+001
1.206908e+003, 9.188137e+001
1.207390e+003, 9.227083e+001
1.207872e+003, 9.288133e+001
1.208354e+003, 9.314531e+001
1.208837e+003, 9.309721e+001
1.209319e+003, 9.300573e+001
1.209801e+003, 9.284256e+001
1.210283e+003, 9.284696e+001
1.210765e+003, 9.310886e+001
1.211247e+003, 9.329903e+001
1.211729e+003, 9.298435e+001
1.212211e+003, 9.245802e+001
1.212694e+003, 9.197252e+001
1.213176e+003, 9.159542e+001
1.213658e+003, 9.167491e+001
1.214140e+003, 9.251601e+001
1.214622e+003, 9.287462e+001
1.215104e+003, 9.249162e+001
1.215586e+003, 9.194350e+001
1.216068e+003, 9.175660e+001
1.216551e+003, 9.182631e+001
1.217033e+003, 9.216473e+001
1.217515e+003, 9.269361e+001
1.217997e+003, 9.284791e+001
1.218479e+003, 9.245692e+001
1.218961e+003, 9.221009e+001
1.219443e+003, 9.223281e+001
1.219925e+003, 9.238229e+001
1.220407e+003, 9.258225e+001
1.220890e+003, 9.275918e+001
1.221372e+003, 9.281391e+001
1.221854e+003, 9.274802e+001
1.222336e+003, 9.268595e+001
1.222818e+003, 9.263668e+001
1.223300e+003, 9.254953e+001
1.223782e+003, 9.238750e+001
1.224264e+003, 9.230771e+001
1.224746e+003, 9.250508e+001
1.225229e+003, 9.286062e+001
1.225711e+003, 9.339268e+001
1.226193e+003, 9.402380e+001
1.226675e+003, 9.411887e+001
1.227157e+003, 9.356335e+001
1.227639e+003, 9.305257e+001
1.228121e+003, 9.271163e+001
1.228603e+003, 9.256574e+001
1.229085e+003, 9.288261e+001
1.229568e+003, 9.322597e+001
1.230050e+003, 9.302817e+001
1.230532e+003, 9.236601e+001
1.231014e+003, 9.229802e+001
1.231496e+003, 9.292490e+001
1.231978e+003, 9.321632e+001
1.232460e+003, 9.288911e+001
1.232942e+003, 9.241296e+001
1.233425e+003, 9.207493e+001
1.233907e+003, 9.192227e+001
1.234389e+003, 9.221800e+001
1.234871e+003, 9.279558e+001
1.235353e+003, 9.243591e+001
1.235835e+003, 9.106882e+001
1.236317e+003, 9.060093e+001
1.236799e+003, 9.165964e+001
1.237281e+003, 9.277392e+001
1.237764e+003, 9.259510e+001
1.238246e+003, 9.205690e+001
1.238728e+003, 9.196255e+001
1.239210e+003, 9.217126e+001
1.239692e+003, 9.186864e+001
1.240174e+003, 9.109372e+001
1.240656e+003, 9.083418e+001
1.241138e+003, 9.140868e+001
1.241621e+003, 9.203162e+001
1.242103e+003, 9.213766e+001
1.242585e+003, 9.205782e+001
1.243067e+003, 9.190579e+001
1.243549e+003, 9.178001e+001
1.244031e+003, 9.221812e+001
1.244513e+003, 9.310245e+001
1.244995e+003, 9.337532e+001
1.245478e+003, 9.268377e+001
1.245960e+003, 9.205744e+001
1.246442e+003, 9.237416e+001
1.246924e+003, 9.264327e+001
1.247406e+003, 9.221422e+001
1.247888e+003, 9.141151e+001
1.248370e+003, 9.132073e+001
1.248852e+003, 9.177571e+001
1.249334e+003, 9.205610e+001
1.249817e+003, 9.197158e+001
1.250299e+003, 9.190019e+001
1.250781e+003, 9.203438e+001
1.251263e+003, 9.222391e+001
1.251745e+003, 9.247164e+001
1.252227e+003, 9.267287e+001
1.252709e+003, 9.248110e+001
1.253191e+003, 9.203399e+001
1.253673e+003, 9.173931e+001
1.254156e+003, 9.169888e+001
1.254638e+003, 9.164714e+001
1.255120e+003, 9.141120e+001
1.255602e+003, 9.128588e+001
1.256084e+003, 9.138276e+001
1.256566e+003, 9.162806e+001
1.257048e+003, 9.191407e+001
1.257530e+003, 9.222482e+001
1.258012e+003, 9.255032e+001
1.258495e+003, 9.290400e+001
1.258977e+003, 9.309162e+001
1.259459e+003, 9.299354e+001
1.259941e+003, 9.296196e+001
1.260423e+003, 9.313197e+001
1.260905e+003, 9.337127e+001
1.261387e+003, 9.356550e+001
1.261869e+003, 9.364272e+001
1.262352e+003, 9.342641e+001
1.262834e+003, 9.286770e+001
1.263316e+003, 9.252424e+001
1.263798e+003, 9.242289e+001
1.264280e+003, 9.258089e+001
1.264762e+003, 9.310927e+001
1.265244e+003, 9.356864e+001
1.265726e+003, 9.326585e+001
1.266208e+003, 9.270702e+001
1.266691e+003, 9.244572e+001
1.267173e+003, 9.253976e+001
1.267655e+003, 9.273240e+001
1.268137e+003, 9.305797e+001
1.268619e+003, 9.317860e+001
1.269101e+003, 9.296236e+001
1.269583e+003, 9.270694e+001
1.270065e+003, 9.267954e+001
1.270548e+003, 9.274967e+001
1.271030e+003, 9.281872e+001
1.271512e+003, 9.288244e+001
1.271994e+003, 9.294988e+001
1.272476e+003, 9.302097e+001
1.272958e+003, 9.308474e+001
1.273440e+003, 9.313789e+001
1.273922e+003, 9.319540e+001
1.274405e+003, 9.343639e+001
1.274887e+003, 9.349045e+001
1.275369e+003, 9.296110e+001
1.275851e+003, 9.219125e+001
1.276333e+003, 9.227760e+001
1.276815e+003, 9.302872e+001
1.277297e+003, 9.342440e+001
1.277779e+003, 9.324899e+001
1.278261e+003, 9.310405e+001
1.278744e+003, 9.345136e+001
1.279226e+003, 9.368381e+001
1.279708e+003, 9.353530e+001
1.280190e+003, 9.320724e+001
1.280672e+003, 9.301924e+001
1.281154e+003, 9.297736e+001
1.281636e+003, 9.320428e+001
1.282118e+003, 9.371573e+001
1.282600e+003, 9.388427e+001
1.283083e+003, 9.315916e+001
1.283565e+003, 9.273259e+001
1.284047e+003, 9.294428e+001
1.284529e+003, 9.339197e+001
1.285011e+003, 9.361697e+001
1.285493e+003, 9.363821e+001
1.285975e+003, 9.338313e+001
1.286457e+003, 9.288267e+001
1.286939e+003, 9.261287e+001
1.287422e+003, 9.265299e+001
1.287904e+003, 9.277139e+001
1.288386e+003, 9.293272e+001
1.288868e+003, 9.313077e+001
1.289350e+003, 9.349048e+001
1.289832e+003, 9.377944e+001
1.290314e+003, 9.367125e+001
1.290796e+003, 9.325375e+001
1.291279e+003, 9.303005e+001
1.291761e+003, 9.300754e+001
1.292243e+003, 9.307619e+001
1.292725e+003, 9.321734e+001
1.293207e+003, 9.348514e+001
1.293689e+003, 9.413204e+001
1.294171e+003, 9.470841e+001
1.294653e+003, 9.487525e+001
1.295135e+003, 9.477147e+001
1.295618e+003, 9.453411e+001
1.296100e+003, 9.419147e+001
1.296582e+003, 9.403453e+001
1.297064e+003, 9.409383e+001
1.297546e+003, 9.423264e+001
1.298028e+003, 9.450166e+001
1.298510e+003, 9.461475e+001
1.298992e+003, 9.446008e+001
1.299475e+003, 9.419024e+001
1.299957e+003, 9.391112e+001
1.300439e+003, 9.369949e+001
1.300921e+003, 9.382969e+001
1.301403e+003, 9.426546e+001
1.301885e+003, 9.469096e+001
##END=



