##NAMES=Chlorbartonite
##RRUFFID=R070369
##IDEAL CHEMISTRY=K_6_Fe_24_S_26_Cl
##LOCALITY=Koashva Mt, Khibiny Massif, Kola Peninsula, Murmanskaja Oblast', Northern Region, Russia
##OWNER=RRUFF
##SOURCE=Michael Scott
##DESCRIPTION=Black submetallic grains with conchoidal fracture, associated with dark-green aegirine and elongated reddish brown lamprophyllite.
##STATUS=The identification of this mineral has been confirmed by single-crystal X-ray diffraction.
##URL=rruff.info/R070369
163.1611, 530.0671
163.6432, 520.3192
164.1253, 513.5780
164.6075, 515.5569
165.0896, 526.5163
165.5717, 537.9920
166.0538, 544.6288
166.5359, 548.9266
167.0180, 554.4775
167.5002, 565.7501
167.9823, 577.0292
168.4644, 582.7391
168.9465, 581.5704
169.4286, 581.1086
169.9107, 590.9216
170.3929, 605.6818
170.8750, 614.4145
171.3571, 603.9660
171.8392, 587.8041
172.3213, 581.4830
172.8034, 589.1559
173.2856, 599.5780
173.7677, 603.6102
174.2498, 602.0073
174.7319, 597.3494
175.2140, 587.7740
175.6961, 576.9186
176.1783, 570.7761
176.6604, 571.6213
177.1425, 575.4666
177.6246, 579.6100
178.1067, 583.4938
178.5888, 583.7258
179.0710, 572.6926
179.5531, 556.1913
180.0352, 548.2760
180.5173, 556.6144
180.9994, 570.7369
181.4815, 572.2110
181.9637, 561.3914
182.4458, 549.0190
182.9279, 544.7269
183.4100, 546.6420
183.8921, 547.4267
184.3742, 543.5494
184.8564, 537.8262
185.3385, 538.3348
185.8206, 545.6052
186.3027, 552.7238
186.7848, 550.7801
187.2669, 541.1458
187.7491, 534.2763
188.2312, 535.2406
188.7133, 541.8521
189.1954, 546.3826
189.6775, 548.7407
190.1596, 549.2595
190.6418, 547.7102
191.1239, 544.1476
191.6060, 540.6432
192.0881, 537.8142
192.5702, 535.6789
193.0524, 533.8373
193.5345, 531.6628
194.0166, 531.3873
194.4987, 539.0282
194.9808, 555.3616
195.4629, 567.9156
195.9451, 568.4490
196.4272, 557.2729
196.9093, 550.2775
197.3914, 548.5751
197.8735, 550.0874
198.3556, 550.8405
198.8378, 550.5527
199.3199, 551.2478
199.8020, 555.3712
200.2841, 563.4014
200.7662, 566.5419
201.2483, 562.6230
201.7305, 555.0617
202.2126, 553.1428
202.6947, 558.5005
203.1768, 563.3993
203.6589, 561.7841
204.1410, 552.1556
204.6232, 547.2458
205.1053, 549.8378
205.5874, 557.1426
206.0695, 559.5073
206.5516, 555.5825
207.0337, 550.2602
207.5159, 546.5981
207.9980, 544.7871
208.4801, 544.0469
208.9622, 544.3651
209.4443, 545.6836
209.9264, 547.4760
210.4086, 549.1893
210.8907, 552.5120
211.3728, 560.1935
211.8549, 575.3193
212.3370, 583.9695
212.8191, 581.6520
213.3013, 570.2389
213.7834, 566.4149
214.2655, 574.1503
214.7476, 583.1014
215.2297, 582.7668
215.7118, 567.6614
216.1940, 558.9338
216.6761, 562.9491
217.1582, 578.8445
217.6403, 585.9657
218.1224, 579.6705
218.6045, 570.7028
219.0867, 570.0210
219.5688, 581.6277
220.0509, 591.9874
220.5330, 597.2337
221.0151, 597.2477
221.4972, 601.8115
221.9794, 614.4741
222.4615, 627.7704
222.9436, 633.3948
223.4257, 627.9401
223.9078, 621.6563
224.3899, 616.2490
224.8721, 611.4888
225.3542, 609.6345
225.8363, 610.9280
226.3184, 614.8697
226.8005, 621.3103
227.2827, 631.7421
227.7648, 641.7775
228.2469, 650.4855
228.7290, 657.8393
229.2111, 663.8268
229.6932, 668.0498
230.1754, 671.1604
230.6575, 674.1210
231.1396, 677.3979
231.6217, 679.5810
232.1038, 679.4943
232.5859, 676.0106
233.0681, 676.3593
233.5502, 681.1503
234.0323, 689.2971
234.5144, 699.6123
234.9965, 713.0388
235.4786, 727.0427
235.9608, 742.1774
236.4429, 760.1432
236.9250, 769.8619
237.4071, 766.1376
237.8892, 757.3140
238.3713, 756.7238
238.8535, 767.5643
239.3356, 781.3627
239.8177, 796.2162
240.2998, 813.1766
240.7819, 827.1924
241.2640, 837.8751
241.7462, 846.0668
242.2283, 852.7695
242.7104, 855.5436
243.1925, 860.8439
243.6746, 870.9274
244.1567, 886.7133
244.6389, 904.8043
245.1210, 927.0817
245.6031, 950.5010
246.0852, 969.1469
246.5673, 980.3575
247.0494, 991.3229
247.5316, 1004.586
248.0137, 1020.816
248.4958, 1037.269
248.9779, 1054.307
249.4600, 1071.284
249.9421, 1086.218
250.4243, 1097.349
250.9064, 1109.788
251.3885, 1126.027
251.8706, 1148.146
252.3527, 1166.934
252.8348, 1180.002
253.3170, 1191.176
253.7991, 1208.561
254.2812, 1236.205
254.7633, 1261.932
255.2454, 1280.516
255.7275, 1289.285
256.2097, 1300.215
256.6918, 1313.699
257.1739, 1328.946
257.6560, 1344.948
258.1381, 1362.451
258.6202, 1379.289
259.1024, 1396.076
259.5845, 1414.765
260.0666, 1424.097
260.5487, 1421.232
261.0308, 1411.127
261.5129, 1402.477
261.9951, 1395.890
262.4772, 1389.492
262.9593, 1382.795
263.4414, 1375.857
263.9235, 1368.369
264.4056, 1361.148
264.8878, 1352.506
265.3699, 1339.275
265.8520, 1320.810
266.3341, 1299.204
266.8162, 1273.127
267.2983, 1240.978
267.7805, 1217.489
268.2626, 1207.138
268.7447, 1200.675
269.2268, 1180.467
269.7089, 1142.444
270.1910, 1105.358
270.6732, 1075.955
271.1553, 1054.916
271.6374, 1037.181
272.1195, 1024.030
272.6016, 1012.272
273.0837, 996.5342
273.5659, 975.7262
274.0480, 956.1610
274.5301, 939.9893
275.0122, 927.3471
275.4943, 917.6353
275.9764, 912.4796
276.4586, 907.1952
276.9407, 891.9688
277.4228, 865.2133
277.9049, 843.9360
278.3870, 838.3983
278.8691, 847.5708
279.3513, 846.2100
279.8334, 831.7215
280.3155, 813.3707
280.7976, 803.3112
281.2798, 801.8497
281.7619, 803.4352
282.2440, 806.1701
282.7261, 810.2011
283.2082, 818.1672
283.6903, 831.4516
284.1725, 843.5784
284.6546, 844.5897
285.1367, 834.9302
285.6188, 826.4884
286.1009, 823.8051
286.5830, 825.7742
287.0652, 827.8885
287.5473, 830.1301
288.0294, 832.5076
288.5115, 835.0793
288.9936, 837.8328
289.4757, 840.5174
289.9579, 842.7007
290.4400, 844.8502
290.9221, 848.6050
291.4042, 854.0665
291.8863, 859.8680
292.3684, 862.8810
292.8506, 864.4698
293.3327, 870.9071
293.8148, 887.7510
294.2969, 908.6340
294.7790, 919.9692
295.2611, 921.7741
295.7433, 922.9211
296.2254, 933.9807
296.7075, 950.9591
297.1896, 961.8918
297.6717, 960.3588
298.1538, 953.8987
298.6360, 953.0741
299.1181, 957.6797
299.6002, 965.3593
300.0823, 977.0666
300.5644, 990.3209
301.0465, 1000.102
301.5287, 1002.804
302.0108, 1004.377
302.4929, 1011.679
302.9750, 1024.076
303.4571, 1037.520
303.9392, 1048.642
304.4214, 1059.430
304.9035, 1073.479
305.3856, 1093.866
305.8677, 1113.610
306.3498, 1126.311
306.8319, 1132.917
307.3141, 1136.987
307.7962, 1135.879
308.2783, 1135.359
308.7604, 1142.874
309.2425, 1164.827
309.7246, 1183.831
310.2068, 1187.571
310.6889, 1179.541
311.1710, 1168.966
311.6531, 1153.432
312.1352, 1141.230
312.6173, 1140.982
313.0995, 1159.275
313.5816, 1174.187
314.0637, 1175.792
314.5458, 1166.890
315.0279, 1152.865
315.5100, 1129.466
315.9922, 1106.244
316.4743, 1089.504
316.9564, 1082.138
317.4385, 1072.244
317.9206, 1053.762
318.4027, 1030.886
318.8849, 1009.474
319.3670, 996.4426
319.8491, 980.4404
320.3312, 954.6517
320.8133, 915.8428
321.2954, 883.6642
321.7776, 865.8663
322.2597, 854.7888
322.7418, 842.2673
323.2239, 825.4590
323.7060, 808.7704
324.1881, 793.6316
324.6703, 780.3054
325.1524, 765.5911
325.6345, 746.2555
326.1166, 727.2168
326.5987, 712.3126
327.0808, 707.6670
327.5630, 699.8855
328.0451, 683.5593
328.5272, 659.5493
329.0093, 647.0538
329.4914, 654.5443
329.9735, 666.0950
330.4557, 671.5359
330.9378, 668.3665
331.4199, 663.1678
331.9020, 654.6857
332.3841, 644.2552
332.8662, 638.8901
333.3484, 641.5789
333.8305, 644.8796
334.3126, 644.6082
334.7947, 639.6064
335.2768, 634.4688
335.7589, 628.9178
336.2411, 623.6432
336.7232, 620.6654
337.2053, 620.8925
337.6874, 620.8243
338.1695, 618.5921
338.6516, 613.9365
339.1338, 609.8100
339.6159, 606.8508
340.0980, 603.5464
340.5801, 596.5594
341.0622, 585.2681
341.5443, 575.2754
342.0265, 569.0897
342.5086, 566.3827
342.9907, 564.1165
343.4728, 562.6931
343.9549, 560.2017
344.4370, 553.1276
344.9192, 542.0651
345.4013, 532.3209
345.8834, 526.1058
346.3655, 522.5624
346.8476, 520.8113
347.3297, 520.9781
347.8119, 519.7131
348.2940, 511.5623
348.7761, 499.1227
349.2582, 490.6333
349.7403, 490.2799
350.2225, 492.8172
350.7046, 489.7242
351.1867, 481.7900
351.6688, 475.3228
352.1509, 477.2259
352.6331, 482.8820
353.1152, 485.1907
353.5973, 481.6715
354.0794, 476.1452
354.5615, 472.3689
355.0436, 469.4658
355.5258, 464.7686
356.0079, 452.8643
356.4900, 440.7131
356.9721, 434.7279
357.4542, 436.9369
357.9363, 441.7711
358.4185, 448.9094
358.9006, 456.2685
359.3827, 460.2441
359.8648, 458.5803
360.3469, 453.8448
360.8290, 445.8824
361.3112, 433.8161
361.7933, 424.9486
362.2754, 424.1129
362.7575, 426.6458
363.2396, 427.4829
363.7217, 423.8244
364.2039, 420.0109
364.6860, 417.3405
365.1681, 415.8468
365.6502, 413.7699
366.1323, 408.5664
366.6144, 404.1088
367.0966, 403.0968
367.5787, 409.4635
368.0608, 414.5861
368.5429, 418.3531
369.0250, 420.5923
369.5071, 420.4377
369.9893, 418.0161
370.4714, 413.0958
370.9535, 404.1867
371.4356, 384.7561
371.9177, 377.2854
372.3998, 387.5214
372.8820, 407.1195
373.3641, 417.5909
373.8462, 417.1747
374.3283, 412.0869
374.8104, 402.5697
375.2925, 387.5160
375.7747, 381.2020
376.2568, 385.7263
376.7389, 394.7160
377.2210, 400.1800
377.7031, 402.0132
378.1852, 401.7508
378.6674, 399.3153
379.1495, 395.1982
379.6316, 391.3182
380.1137, 387.7231
380.5958, 384.2275
381.0779, 380.9428
381.5601, 377.6990
382.0422, 373.3139
382.5243, 365.5474
383.0064, 358.9392
383.4885, 363.8521
383.9706, 378.7166
384.4528, 391.6138
384.9349, 392.9282
385.4170, 387.4331
385.8991, 382.5677
386.3812, 378.9779
386.8633, 377.4728
387.3455, 380.1938
387.8276, 385.6207
388.3097, 390.3272
388.7918, 392.2450
389.2739, 392.9158
389.7560, 393.6994
390.2382, 394.7845
390.7203, 394.9537
391.2024, 392.2634
391.6845, 388.7365
392.1666, 386.6750
392.6487, 391.2454
393.1309, 393.3010
393.6130, 385.1024
394.0951, 368.1285
394.5772, 359.8832
395.0593, 375.6066
395.5414, 394.6292
396.0236, 403.8729
396.5057, 392.2639
396.9878, 381.8171
397.4699, 372.3476
397.9520, 365.2150
398.4341, 364.8685
398.9163, 379.3569
399.3984, 392.2803
399.8805, 397.1677
400.3626, 390.5036
400.8447, 386.1721
401.3268, 384.4923
401.8090, 384.9188
402.2911, 387.5407
402.7732, 394.5632
403.2553, 397.6784
403.7374, 392.7124
404.2195, 380.4304
404.7017, 376.1821
405.1838, 382.6472
405.6659, 389.8918
406.1480, 387.2053
406.6301, 374.3809
407.1122, 365.2136
407.5944, 362.4010
408.0765, 364.4394
408.5586, 368.9882
409.0407, 376.0072
409.5228, 382.4060
410.0049, 385.3975
410.4871, 386.1211
410.9692, 388.3306
411.4513, 392.9566
411.9334, 396.8405
412.4155, 396.4743
412.8976, 392.4486
413.3798, 386.6007
413.8619, 376.5652
414.3440, 366.9085
414.8261, 362.4389
415.3082, 363.2586
415.7903, 366.6937
416.2725, 373.3896
416.7546, 380.8275
417.2367, 386.2920
417.7188, 388.2280
418.2009, 388.6353
418.6830, 388.4244
419.1652, 387.4157
419.6473, 384.9554
420.1294, 378.7260
420.6115, 372.5224
421.0937, 368.4370
421.5758, 367.7784
422.0579, 367.1943
422.5400, 365.3924
423.0221, 363.5778
423.5042, 363.7323
423.9864, 368.1328
424.4685, 372.0132
424.9506, 374.4121
425.4327, 375.2430
425.9148, 375.1850
426.3969, 373.7038
426.8791, 371.9434
427.3612, 371.0009
427.8433, 371.2765
428.3254, 371.2031
428.8075, 370.8410
429.2896, 369.8682
429.7718, 366.2588
430.2539, 359.1289
430.7360, 353.9324
431.2181, 355.9195
431.7002, 364.3270
432.1823, 366.8537
432.6645, 361.5431
433.1466, 354.8441
433.6287, 356.7571
434.1108, 365.6530
434.5929, 373.5181
435.0750, 377.0990
435.5572, 377.5014
436.0393, 374.9593
436.5214, 369.7071
437.0035, 366.7110
437.4856, 376.1982
437.9677, 388.5203
438.4499, 388.1819
438.9320, 361.6087
439.4141, 337.9199
439.8962, 343.4902
440.3783, 368.6630
440.8604, 388.7097
441.3426, 390.3817
441.8247, 385.3662
442.3068, 379.2130
442.7889, 372.0821
443.2710, 366.0450
443.7531, 362.4787
444.2353, 359.9799
444.7174, 356.9342
445.1995, 348.5652
445.6816, 344.6960
446.1637, 350.3579
446.6458, 364.1075
447.1280, 370.5714
447.6101, 364.1889
448.0922, 356.6408
448.5743, 354.8845
449.0564, 362.4763
449.5385, 365.9548
450.0207, 363.1812
450.5028, 357.7784
450.9849, 357.1673
451.4670, 362.4291
451.9491, 367.0550
452.4312, 368.7656
452.9134, 367.7061
453.3955, 363.6882
453.8776, 355.9971
454.3597, 350.4746
454.8418, 354.3082
455.3239, 365.6580
455.8061, 377.2867
456.2882, 389.1001
456.7703, 398.2649
457.2524, 400.0023
457.7345, 395.3344
458.2166, 388.3813
458.6988, 378.2551
459.1809, 368.8332
459.6630, 365.3846
460.1451, 369.1327
460.6272, 373.4082
461.1093, 374.2347
461.5915, 373.0461
462.0736, 371.5929
462.5557, 368.4312
463.0378, 367.0851
463.5199, 369.6239
464.0020, 375.5743
464.4842, 381.4448
464.9663, 391.0832
465.4484, 397.0093
465.9305, 394.6954
466.4126, 375.9270
466.8947, 363.0959
467.3769, 357.9395
467.8590, 357.9626
468.3411, 359.5573
468.8232, 364.1675
469.3053, 367.3883
469.7874, 367.5786
470.2696, 364.9635
470.7517, 363.4296
471.2338, 362.7368
471.7159, 363.8461
472.1980, 368.1922
472.6801, 375.7235
473.1623, 383.7582
473.6444, 393.1131
474.1265, 400.5942
474.6086, 399.6003
475.0907, 391.0706
475.5728, 381.0846
476.0550, 370.7872
476.5371, 361.7700
477.0192, 356.2623
477.5013, 354.2780
477.9834, 356.6418
478.4655, 369.6160
478.9477, 385.6063
479.4298, 394.2367
479.9119, 387.4071
480.3940, 379.0187
480.8761, 376.7650
481.3582, 378.7422
481.8404, 379.5218
482.3225, 373.2968
482.8046, 368.8094
483.2867, 371.3772
483.7688, 384.8734
484.2509, 393.4988
484.7331, 392.6839
485.2152, 388.0426
485.6973, 384.5704
486.1794, 382.1426
486.6615, 381.0994
487.1436, 381.4826
487.6258, 383.2753
488.1079, 387.0091
488.5900, 393.8122
489.0721, 399.3611
489.5542, 400.7589
490.0363, 397.9813
490.5185, 395.6397
491.0006, 393.9379
491.4827, 392.4472
491.9648, 391.1851
492.4470, 389.8932
492.9291, 386.9536
493.4112, 380.6257
493.8933, 373.4490
494.3754, 367.6698
494.8575, 363.8185
495.3397, 365.5587
495.8218, 382.3667
496.3039, 402.6602
496.7860, 412.8887
497.2681, 409.2523
497.7502, 403.4244
498.2324, 402.4969
498.7145, 402.8869
499.1966, 399.6995
499.6787, 385.7990
500.1608, 373.8694
500.6429, 368.5233
501.1251, 369.4449
501.6072, 370.2698
502.0893, 372.3761
502.5714, 372.6774
503.0535, 368.8236
503.5356, 355.8015
504.0178, 351.4065
504.4999, 360.2228
504.9820, 373.5363
505.4641, 377.1756
505.9462, 368.9712
506.4283, 362.3273
506.9105, 361.1269
507.3926, 364.4358
507.8747, 369.6195
508.3568, 376.8637
508.8389, 382.8107
509.3210, 384.0720
509.8032, 382.1907
510.2853, 381.7734
510.7674, 383.8046
511.2495, 385.5450
511.7316, 383.4907
512.2137, 379.0938
512.6959, 375.3483
513.1780, 372.8619
513.6601, 371.9384
514.1422, 373.9389
514.6243, 378.2869
515.1064, 381.1315
515.5886, 380.5178
516.0707, 378.2440
516.5528, 375.3052
517.0349, 371.4873
517.5170, 367.6725
517.9991, 363.2036
518.4813, 359.0962
518.9634, 356.6938
519.4455, 356.4134
519.9276, 357.1209
520.4097, 358.5711
520.8918, 360.8005
521.3740, 364.8171
521.8561, 371.4709
522.3382, 377.0961
522.8203, 378.4722
523.3024, 375.9155
523.7845, 375.4537
524.2667, 377.8636
524.7488, 380.6567
525.2309, 379.3877
525.7130, 375.6679
526.1951, 375.4819
526.6772, 385.1738
527.1594, 395.3264
527.6415, 391.9751
528.1236, 378.2165
528.6057, 367.5732
529.0878, 370.9639
529.5699, 378.4112
530.0521, 382.2531
530.5342, 380.6482
531.0163, 379.4825
531.4984, 381.6504
531.9805, 384.7733
532.4626, 386.3312
532.9448, 384.5056
533.4269, 382.9311
533.9090, 383.3379
534.3911, 384.4360
534.8732, 380.0375
535.3553, 364.4458
535.8375, 354.1045
536.3196, 359.2567
536.8017, 381.2035
537.2838, 391.1467
537.7659, 386.9978
538.2480, 378.0097
538.7302, 373.6285
539.2123, 373.2512
539.6944, 372.6698
540.1765, 370.1572
540.6586, 368.5377
541.1407, 373.7230
541.6229, 383.7094
542.1050, 391.3750
542.5871, 390.0287
543.0692, 386.5351
543.5513, 389.0297
544.0334, 397.7982
544.5156, 401.4713
544.9977, 388.0652
545.4798, 371.1976
545.9619, 361.9177
546.4440, 367.9770
546.9261, 373.2221
547.4083, 372.1924
547.8904, 369.7001
548.3725, 375.2621
548.8546, 398.7191
549.3367, 413.9409
549.8188, 412.5787
550.3010, 396.1589
550.7831, 381.2550
551.2652, 366.7838
551.7473, 357.4313
552.2294, 360.4793
552.7115, 374.0796
553.1937, 378.0020
553.6758, 368.9487
554.1579, 357.2654
554.6400, 356.7210
555.1221, 364.0552
555.6042, 369.9726
556.0864, 371.1350
556.5685, 369.5377
557.0506, 363.7455
557.5327, 355.8840
558.0148, 354.0344
558.4969, 372.2062
558.9791, 390.0351
559.4612, 392.3173
559.9433, 373.2357
560.4254, 360.9783
560.9075, 366.9527
561.3896, 378.4475
561.8718, 384.0795
562.3539, 378.7264
562.8360, 376.4658
563.3181, 380.2899
563.8002, 386.9029
564.2823, 387.6966
564.7645, 381.2893
565.2466, 375.2611
565.7287, 372.9784
566.2108, 373.5737
566.6929, 373.7747
567.1750, 373.6925
567.6572, 370.6429
568.1393, 356.0239
568.6214, 337.9000
569.1035, 335.4257
569.5856, 355.0371
570.0677, 376.0726
570.5499, 383.0155
571.0320, 379.8657
571.5141, 373.0709
571.9962, 357.7414
572.4783, 346.4267
572.9604, 347.3148
573.4426, 357.8304
573.9247, 364.5040
574.4068, 360.6018
574.8889, 356.5927
575.3710, 356.2975
575.8531, 360.1115
576.3353, 365.9959
576.8174, 375.8184
577.2995, 384.8561
577.7816, 388.2030
578.2637, 385.3490
578.7458, 382.0539
579.2280, 379.3713
579.7101, 376.1927
580.1922, 368.4761
580.6743, 357.5251
581.1564, 350.6996
581.6385, 354.0616
582.1207, 362.0461
582.6028, 368.9435
583.0849, 374.4506
583.5670, 376.7190
584.0491, 371.4072
584.5313, 364.4780
585.0134, 360.7794
585.4955, 362.0597
585.9776, 363.2480
586.4597, 360.6067
586.9418, 358.2843
587.4240, 361.3009
587.9061, 376.0256
588.3882, 386.3146
588.8703, 389.8617
589.3524, 388.0311
589.8345, 384.2011
590.3167, 377.7223
590.7988, 371.6453
591.2809, 366.7462
591.7630, 363.3002
592.2451, 364.9345
592.7272, 371.9525
593.2094, 376.6302
593.6915, 366.8889
594.1736, 351.3795
594.6557, 349.0149
595.1378, 366.1255
595.6199, 382.5016
596.1021, 379.7794
596.5842, 367.5992
597.0663, 359.6788
597.5485, 365.6217
598.0306, 371.3491
598.5127, 371.5092
598.9948, 367.5144
599.4769, 365.7349
599.9590, 368.0251
600.4412, 370.8137
600.9233, 373.4983
601.4054, 376.2728
601.8875, 375.4327
602.3696, 369.3934
602.8517, 363.6479
603.3339, 363.9891
603.8160, 369.8262
604.2981, 373.9622
604.7802, 375.9926
605.2623, 374.6429
605.7444, 363.8918
606.2266, 348.0614
606.7087, 339.4078
607.1908, 347.8434
607.6729, 359.2943
608.1550, 361.8427
608.6371, 358.0046
609.1193, 356.0479
609.6014, 362.0284
610.0835, 368.3139
610.5656, 370.1929
611.0477, 366.3202
611.5298, 366.7955
612.0120, 375.8834
612.4941, 385.4322
612.9762, 389.9589
613.4583, 388.3770
613.9404, 385.7327
614.4225, 382.3630
614.9047, 377.7022
615.3868, 369.3658
615.8689, 357.7859
616.3510, 349.6376
616.8331, 347.2065
617.3152, 348.7350
617.7974, 353.1471
618.2795, 359.5953
618.7616, 365.0156
619.2437, 367.4582
619.7258, 368.4048
620.2079, 368.2555
620.6901, 367.0878
621.1722, 367.3078
621.6543, 372.4077
622.1364, 377.3121
622.6185, 378.4856
623.1006, 373.9042
623.5828, 369.4312
624.0649, 363.0510
624.5470, 358.6295
625.0291, 362.7419
625.5112, 378.0886
625.9933, 386.7625
626.4755, 383.4402
626.9576, 374.4721
627.4397, 372.6917
627.9218, 377.4732
628.4039, 384.0360
628.8860, 394.9637
629.3682, 403.7361
629.8503, 397.7415
630.3324, 379.0746
630.8145, 363.6006
631.2966, 362.7786
631.7787, 367.0708
632.2609, 370.5936
632.7430, 373.1300
633.2251, 372.6649
633.7072, 363.7028
634.1893, 354.7341
634.6714, 353.3058
635.1536, 364.6939
635.6357, 371.9286
636.1178, 373.0499
636.5999, 370.1945
637.0820, 367.3723
637.5641, 364.6851
638.0463, 358.9344
638.5284, 345.4368
639.0105, 331.3679
639.4926, 334.7766
639.9747, 352.6049
640.4568, 367.0046
640.9390, 364.4815
641.4211, 355.4172
641.9032, 348.6072
642.3853, 344.7136
642.8674, 342.2742
643.3495, 340.6369
643.8317, 340.3166
644.3138, 341.7877
644.7959, 346.3601
645.2780, 350.5703
645.7601, 356.0408
646.2422, 359.7317
646.7244, 356.6473
647.2065, 344.7200
647.6886, 337.0717
648.1707, 336.7619
648.6528, 340.8652
649.1349, 343.2538
649.6171, 344.4355
650.0992, 348.0420
650.5813, 361.4064
651.0634, 374.6191
651.5455, 371.4871
652.0276, 355.3264
652.5098, 344.1063
652.9919, 353.9878
653.4740, 366.6798
653.9561, 369.5759
654.4382, 359.1886
654.9203, 353.0182
655.4025, 358.9713
655.8846, 365.0927
656.3667, 362.0250
656.8488, 343.4493
657.3309, 335.6407
657.8130, 342.1924
658.2952, 354.6743
658.7773, 362.7950
659.2594, 366.6224
659.7415, 365.4381
660.2236, 356.8419
660.7057, 346.8528
661.1879, 345.2047
661.6700, 349.4036
662.1521, 352.5314
662.6342, 349.6187
663.1163, 345.9597
663.5984, 345.7934
664.0806, 348.4999
664.5627, 348.4666
665.0448, 339.5828
665.5269, 332.0463
666.0090, 330.5610
666.4911, 336.0266
666.9733, 340.9969
667.4554, 345.4286
667.9375, 349.4507
668.4196, 353.8528
668.9017, 358.5309
669.3839, 358.9837
669.8660, 353.8922
670.3481, 348.9109
670.8302, 353.9816
671.3123, 363.8615
671.7944, 366.3660
672.2766, 352.0371
672.7587, 338.6114
673.2408, 340.3842
673.7229, 351.0257
674.2050, 358.1569
674.6871, 355.3260
675.1693, 351.8526
675.6514, 350.2858
676.1335, 337.3267
676.6156, 353.1857
677.0977, 362.0470
677.5798, 364.2869
678.0620, 340.0728
678.5441, 350.0184
679.0262, 346.2744
679.5083, 341.9690
679.9904, 356.7225
680.4725, 336.3561
680.9547, 350.8073
681.4368, 351.3599
681.9189, 358.2736
682.4010, 351.4131
682.8831, 348.8070
683.3652, 359.9795
683.8474, 363.5226
684.3295, 355.0765
684.8116, 362.3946
685.2937, 341.5470
685.7758, 345.4151
686.2579, 359.9470
686.7401, 352.1934
687.2222, 359.7632
687.7043, 361.4971
688.1864, 336.7087
688.6685, 358.0451
689.1506, 359.4341
689.6328, 340.3413
690.1149, 360.0973
690.5970, 343.8282
691.0791, 340.4179
691.5612, 346.6846
692.0433, 342.8633
692.5255, 354.9469
693.0076, 351.7082
693.4897, 347.1005
693.9718, 348.4671
694.4539, 344.3240
694.9360, 348.7490
695.4182, 343.1396
695.9003, 348.1946
696.3824, 355.6667
696.8645, 344.6306
697.3466, 335.2713
697.8287, 327.6899
698.3109, 326.9360
698.7930, 331.6541
699.2751, 334.2516
699.7572, 332.7748
700.2393, 331.2245
700.7214, 334.9014
701.2036, 341.1319
701.6857, 345.4767
702.1678, 346.5867
702.6499, 345.2731
703.1320, 339.8288
703.6141, 332.2129
704.0963, 327.4286
704.5784, 327.5808
705.0605, 327.5356
705.5426, 325.6071
706.0247, 322.6906
706.5068, 323.9807
706.9890, 330.2938
707.4711, 334.0185
707.9532, 328.4950
708.4353, 318.0804
708.9174, 314.7899
709.3995, 318.0154
709.8817, 322.0505
710.3638, 322.6255
710.8459, 322.4835
711.3280, 324.3143
711.8101, 328.7025
712.2922, 332.4011
712.7744, 332.8070
713.2565, 333.5208
713.7386, 337.9952
714.2207, 352.1188
714.7028, 352.8825
715.1849, 334.1409
715.6671, 312.7300
716.1492, 310.4338
716.6313, 325.2198
717.1134, 331.5529
717.5955, 323.5184
718.0776, 310.8422
718.5598, 301.4614
719.0419, 296.6784
719.5240, 299.3116
720.0061, 318.2908
720.4882, 335.2260
720.9703, 340.2760
721.4525, 337.3123
721.9346, 335.1974
722.4167, 337.0171
722.8988, 337.1044
723.3809, 333.0929
723.8630, 326.6938
724.3452, 324.6249
724.8273, 327.0148
725.3094, 332.9152
725.7915, 344.9187
726.2736, 359.0124
726.7557, 364.2639
727.2379, 361.3674
727.7200, 355.7943
728.2021, 348.4832
728.6842, 341.8665
729.1663, 339.4218
729.6484, 341.6386
730.1306, 339.8019
730.6127, 323.4897
731.0948, 309.1652
731.5769, 306.9729
732.0590, 321.4920
732.5411, 328.6027
733.0233, 326.7600
733.5054, 320.9744
733.9875, 313.3837
734.4696, 304.9553
734.9517, 304.5250
735.4338, 314.2053
735.9160, 324.9144
736.3981, 326.4304
736.8802, 323.3301
737.3623, 322.5688
737.8444, 327.7024
738.3266, 332.0880
738.8087, 333.5905
739.2908, 332.7196
739.7729, 329.9030
740.2551, 322.0039
740.7372, 318.1765
741.2193, 320.7039
741.7014, 326.8092
742.1835, 331.1369
742.6656, 333.6587
743.1478, 334.6247
743.6299, 334.1542
744.1120, 332.1508
744.5941, 327.9671
745.0762, 322.0623
745.5583, 315.7210
746.0405, 307.5027
746.5226, 301.0264
747.0047, 299.3228
747.4868, 301.5802
747.9689, 303.0166
748.4510, 301.3260
748.9332, 301.0427
749.4153, 304.5517
749.8974, 311.2459
750.3795, 312.7061
750.8616, 307.8992
751.3438, 305.7570
751.8259, 317.0656
752.3080, 334.1194
752.7901, 335.7577
753.2722, 322.3840
753.7543, 311.2119
754.2365, 319.0346
754.7186, 330.1363
755.2007, 330.0403
755.6828, 314.2099
756.1649, 304.9495
756.6470, 311.1729
757.1292, 320.3311
757.6113, 325.4639
758.0934, 326.2461
758.5755, 323.5898
759.0576, 316.3519
759.5397, 309.4249
760.0219, 309.4202
760.5040, 313.9644
760.9861, 314.8228
761.4682, 309.9220
761.9503, 305.6693
762.4324, 308.1044
762.9146, 313.6365
763.3967, 318.2642
763.8788, 323.1739
764.3609, 323.5682
764.8430, 314.1725
765.3251, 302.3988
765.8073, 296.6584
766.2894, 298.2780
766.7715, 301.3997
767.2536, 306.5599
767.7357, 310.3623
768.2178, 303.6263
768.7000, 289.6328
769.1821, 282.7693
769.6642, 291.4384
770.1463, 302.6546
770.6284, 304.7927
771.1105, 301.4684
771.5927, 299.6718
772.0748, 303.0978
772.5569, 306.5313
773.0390, 309.6211
773.5211, 311.7103
774.0032, 310.1495
774.4854, 303.1961
774.9675, 299.7516
775.4496, 305.0687
775.9317, 313.3277
776.4138, 305.9438
776.8959, 286.3732
777.3781, 273.0241
777.8602, 282.1432
778.3423, 296.2905
778.8244, 300.9297
779.3065, 297.8164
779.7886, 295.1886
780.2708, 296.9602
780.7529, 298.0132
781.2350, 295.3585
781.7171, 289.8631
782.1992, 290.6191
782.6813, 299.3040
783.1635, 307.5595
783.6456, 311.2726
784.1277, 311.2388
784.6098, 309.4014
785.0919, 305.9518
785.5740, 302.7341
786.0562, 300.5655
786.5383, 299.3741
787.0204, 299.2036
787.5025, 300.0451
787.9846, 301.5318
788.4667, 302.6954
788.9489, 305.4560
789.4310, 311.7659
789.9131, 322.0330
790.3952, 326.9502
790.8773, 325.9302
791.3594, 322.1130
791.8416, 317.3007
792.3237, 311.5589
792.8058, 303.3198
793.2879, 292.5764
793.7700, 286.4376
794.2521, 294.6187
794.7343, 306.2364
795.2164, 311.9147
795.6985, 309.0425
796.1806, 307.2395
796.6627, 307.5641
797.1448, 309.2004
797.6270, 312.5265
798.1091, 318.2836
798.5912, 319.4747
799.0733, 315.7218
799.5554, 309.1919
800.0375, 299.1663
800.5197, 288.6669
801.0018, 284.5927
801.4839, 288.6671
801.9660, 292.6037
802.4481, 288.3322
802.9302, 283.6104
803.4124, 285.6788
803.8945, 301.3289
804.3766, 310.7254
804.8587, 312.6484
805.3408, 309.9102
805.8229, 302.1838
806.3051, 289.5597
806.7872, 288.4605
807.2693, 302.0439
807.7514, 316.3997
808.2335, 314.8133
808.7156, 305.5385
809.1978, 301.7122
809.6799, 308.1167
810.1620, 313.0955
810.6441, 310.8787
811.1262, 305.4326
811.6083, 300.0805
812.0905, 291.1552
812.5726, 292.8544
813.0547, 311.0141
813.5368, 329.0508
814.0189, 321.7386
814.5010, 294.6530
814.9832, 282.9692
815.4653, 295.2664
815.9474, 309.2890
816.4295, 300.8242
816.9116, 283.5548
817.3937, 275.0873
817.8759, 285.9176
818.3580, 293.5377
818.8401, 287.8332
819.3222, 280.5878
819.8043, 284.2091
820.2864, 302.3273
820.7686, 314.4354
821.2507, 318.0853
821.7328, 317.0749
822.2149, 315.3985
822.6970, 312.9498
823.1791, 308.9615
823.6613, 302.4959
824.1434, 297.1793
824.6255, 298.5793
825.1076, 301.0522
825.5897, 298.2913
826.0718, 275.9351
826.5540, 268.7220
827.0361, 284.8992
827.5182, 306.6859
828.0003, 310.9472
828.4824, 297.9123
828.9645, 291.0641
829.4467, 294.9418
829.9288, 301.1140
830.4109, 297.8550
830.8930, 291.2072
831.3751, 291.2137
831.8572, 304.1909
832.3394, 315.4342
832.8215, 321.1956
833.3036, 321.8125
833.7857, 317.3704
834.2678, 304.5936
834.7499, 296.4531
835.2321, 294.0162
835.7142, 295.8052
836.1963, 303.1151
836.6784, 313.4969
837.1605, 316.8270
837.6426, 309.9276
838.1248, 301.4676
838.6069, 298.1789
839.0890, 297.0029
839.5711, 294.2984
840.0532, 285.2647
840.5353, 282.7966
841.0175, 292.7409
841.4996, 304.0259
841.9817, 303.9285
842.4638, 291.8637
842.9459, 283.3474
843.4280, 279.8385
843.9102, 279.9735
844.3923, 284.2318
844.8744, 290.5031
845.3565, 295.2365
845.8386, 297.3803
846.3207, 299.3983
846.8029, 302.7608
847.2850, 306.1096
847.7671, 308.2502
848.2492, 308.7880
848.7313, 309.3143
849.2134, 310.1393
849.6956, 310.1457
850.1777, 307.6888
850.6598, 303.4456
851.1419, 299.4702
851.6240, 295.8929
852.1061, 293.6802
852.5883, 294.5919
853.0704, 296.5438
853.5525, 297.7876
854.0346, 298.2117
854.5167, 297.1559
854.9988, 293.3449
855.4810, 289.7235
855.9631, 288.5099
856.4452, 289.7416
856.9273, 291.4023
857.4094, 293.5602
857.8915, 294.5340
858.3737, 291.3054
858.8558, 286.7868
859.3379, 284.7332
859.8200, 285.7062
860.3021, 287.5297
860.7842, 286.9507
861.2664, 289.3817
861.7485, 300.1105
862.2306, 321.3426
862.7127, 327.3128
863.1948, 315.2514
863.6769, 300.3274
864.1591, 292.4591
864.6412, 289.8921
865.1233, 288.9749
865.6054, 289.4211
866.0875, 289.6043
866.5696, 287.1982
867.0518, 285.3476
867.5339, 286.6748
868.0160, 291.5445
868.4981, 294.3726
868.9802, 293.9585
869.4623, 294.0851
869.9445, 297.3692
870.4266, 302.5903
870.9087, 303.8254
871.3908, 301.3296
871.8729, 297.7430
872.3550, 293.1844
872.8372, 289.4032
873.3193, 287.4476
873.8014, 287.4460
874.2835, 289.9501
874.7656, 298.2034
875.2477, 305.3459
875.7299, 309.9865
876.2120, 312.1414
876.6941, 311.2713
877.1762, 307.3906
877.6583, 303.9118
878.1404, 303.0754
878.6226, 302.6626
879.1047, 298.7502
879.5869, 292.8876
880.0690, 288.9659
880.5511, 289.1403
881.0332, 290.7368
881.5153, 294.6714
881.9974, 298.9778
882.4796, 298.8576
882.9617, 293.0664
883.4438, 290.1909
883.9259, 293.0479
884.4080, 298.1314
884.8901, 300.0083
885.3723, 299.7462
885.8544, 299.8416
886.3365, 301.3449
886.8186, 303.0495
887.3007, 305.2237
887.7828, 306.9200
888.2650, 306.9001
888.7471, 305.0729
889.2292, 301.6008
889.7113, 296.0358
890.1934, 289.8459
890.6755, 284.2480
891.1577, 279.5463
891.6398, 275.9183
892.1219, 272.8515
892.6040, 273.9603
893.0861, 288.2118
893.5682, 304.0411
894.0504, 309.6882
894.5325, 297.5714
895.0146, 290.5968
895.4967, 290.6527
895.9788, 292.3660
896.4609, 292.0355
896.9431, 289.6084
897.4252, 282.7370
897.9073, 271.2165
898.3894, 263.5063
898.8715, 268.2564
899.3536, 277.8068
899.8358, 287.4901
900.3179, 297.1568
900.8000, 299.8549
901.2821, 289.2708
901.7642, 280.3309
902.2463, 280.6326
902.7285, 288.7278
903.2106, 294.7417
903.6927, 298.5745
904.1748, 298.7009
904.6569, 288.0587
905.1390, 277.8385
905.6212, 282.9102
906.1033, 299.3622
906.5854, 309.7324
907.0675, 303.1283
907.5496, 296.8282
908.0317, 294.4731
908.5139, 295.4003
908.9960, 299.0557
909.4781, 305.4420
909.9602, 307.6583
910.4423, 300.3410
910.9244, 292.4592
911.4066, 297.8190
911.8887, 309.9413
912.3708, 316.9594
912.8529, 305.8774
913.3350, 301.1254
913.8171, 312.7436
914.2993, 328.5409
914.7814, 331.7000
915.2635, 321.3109
915.7456, 309.0814
916.2277, 295.4849
916.7098, 285.4701
917.1920, 288.0809
917.6741, 296.7902
918.1562, 302.1958
918.6383, 301.9590
919.1204, 299.7016
919.6025, 291.7071
920.0847, 286.0547
920.5668, 289.5019
921.0489, 304.1920
921.5310, 313.3971
922.0131, 317.1760
922.4952, 315.0096
922.9774, 299.6824
923.4595, 281.4220
923.9416, 277.2571
924.4237, 287.3110
924.9058, 297.2058
925.3879, 304.7522
925.8701, 306.9327
926.3522, 299.6784
926.8343, 285.1914
927.3164, 283.5765
927.7985, 296.5415
928.2806, 306.2847
928.7628, 301.3637
929.2449, 291.5431
929.7270, 293.2020
930.2091, 302.6571
930.6912, 309.9768
931.1733, 307.8866
931.6555, 306.8213
932.1376, 313.5023
932.6197, 321.5493
933.1018, 318.0031
933.5839, 300.2925
934.0660, 291.4961
934.5482, 298.0746
935.0303, 307.4130
935.5124, 300.0790
935.9945, 284.8981
936.4766, 278.1340
936.9587, 286.9857
937.4409, 294.5764
937.9230, 293.5165
938.4051, 290.6456
938.8872, 291.0289
939.3693, 295.0546
939.8514, 300.3325
940.3336, 306.8939
940.8157, 314.0459
941.2978, 324.1242
941.7799, 333.0211
942.2620, 334.1649
942.7441, 327.4650
943.2263, 318.4261
943.7084, 302.6783
944.1905, 292.4732
944.6726, 295.9243
945.1547, 309.4972
945.6368, 308.4024
946.1190, 291.5181
946.6011, 279.0902
947.0832, 283.2616
947.5653, 293.3345
948.0474, 294.3162
948.5295, 289.9594
949.0117, 288.9933
949.4938, 300.7010
949.9759, 307.8639
950.4580, 304.8202
950.9401, 297.6125
951.4222, 295.5811
951.9044, 298.8103
952.3865, 301.2576
952.8686, 301.8857
953.3507, 301.9261
953.8328, 304.0211
954.3149, 305.6778
954.7971, 302.7589
955.2792, 292.3111
955.7613, 285.9927
956.2434, 287.2446
956.7255, 290.9560
957.2076, 294.6917
957.6898, 298.4277
958.1719, 300.4362
958.6540, 300.7655
959.1361, 301.5963
959.6182, 304.9494
960.1003, 309.0986
960.5825, 314.0526
961.0646, 318.9503
961.5467, 318.9112
962.0288, 306.9787
962.5109, 299.9051
962.9930, 304.4486
963.4752, 313.9505
963.9573, 308.2634
964.4394, 290.6718
964.9215, 282.3774
965.4036, 295.8840
965.8857, 309.6696
966.3679, 303.4767
966.8500, 288.4023
967.3321, 278.8922
967.8142, 278.5769
968.2963, 282.1693
968.7784, 292.3930
969.2606, 300.9310
969.7427, 296.4801
970.2248, 283.1382
970.7069, 275.4261
971.1890, 274.4449
971.6711, 276.9909
972.1533, 286.8280
972.6354, 294.6226
973.1175, 291.5851
973.5996, 277.9370
974.0817, 270.5718
974.5638, 270.0516
975.0460, 274.2889
975.5281, 285.2943
976.0102, 297.8875
976.4923, 300.6127
976.9744, 295.6150
977.4565, 289.1962
977.9387, 279.0368
978.4208, 273.8572
978.9029, 281.7203
979.3850, 293.9471
979.8671, 298.6419
980.3492, 294.4490
980.8314, 290.0681
981.3135, 286.1504
981.7956, 283.4260
982.2777, 283.7652
982.7598, 285.2732
983.2419, 284.0696
983.7241, 278.7274
984.2062, 278.1725
984.6883, 288.8666
985.1704, 301.4280
985.6525, 313.6520
986.1346, 324.8144
986.6168, 324.6062
987.0989, 313.4363
987.5810, 304.1168
988.0631, 306.6175
988.5452, 312.1474
989.0273, 312.3801
989.5095, 309.0441
989.9916, 306.5917
990.4737, 305.8687
990.9558, 306.5858
991.4379, 310.3750
991.9200, 313.2136
992.4022, 305.0670
992.8843, 289.7831
993.3664, 286.2322
993.8485, 300.2444
994.3306, 311.2448
994.8127, 298.4339
995.2949, 280.8334
995.7770, 275.7316
996.2591, 285.5448
996.7412, 296.4912
997.2233, 309.9955
997.7054, 319.0886
998.1876, 316.8607
998.6697, 308.2896
999.1518, 304.3688
999.6339, 304.0462
1000.116, 303.0420
1000.598, 297.5579
1001.080, 293.2381
1001.562, 292.5526
1002.044, 293.9692
1002.527, 295.0171
1003.009, 295.6888
1003.491, 295.8732
1003.973, 295.4125
1004.455, 295.0251
1004.937, 296.7856
1005.419, 298.4676
1005.901, 295.7998
1006.384, 285.1913
1006.866, 283.5091
1007.348, 300.5329
1007.830, 314.3777
1008.312, 310.6203
1008.794, 292.8003
1009.276, 279.6939
1009.758, 271.5406
1010.240, 269.6373
1010.723, 280.4480
1011.205, 292.1194
1011.687, 296.7365
1012.169, 296.4480
1012.651, 297.5214
1013.133, 300.3989
1013.615, 304.3661
1014.097, 310.2089
1014.580, 314.7411
1015.062, 312.3020
1015.544, 305.6877
1016.026, 300.3257
1016.508, 297.5768
1016.990, 294.0702
1017.472, 286.4029
1017.954, 279.5274
1018.436, 276.0150
1018.919, 275.8416
1019.401, 278.8150
1019.883, 284.9448
1020.365, 290.5998
1020.847, 292.8069
1021.329, 294.2718
1021.811, 299.4951
1022.293, 305.9634
1022.776, 307.3775
1023.258, 296.6423
1023.740, 291.0184
1024.222, 293.9859
1024.704, 299.5807
1025.186, 298.3148
1025.668, 292.7255
1026.150, 292.3228
1026.632, 298.8186
1027.115, 304.9389
1027.597, 306.1269
1028.079, 305.5392
1028.561, 305.1746
1029.043, 305.0804
1029.525, 304.3986
1030.007, 302.9386
1030.489, 302.6034
1030.972, 304.8814
1031.454, 308.0814
1031.936, 310.4699
1032.418, 311.9071
1032.900, 312.0732
1033.382, 312.7650
1033.864, 308.7084
1034.346, 295.8121
1034.828, 283.0323
1035.311, 282.2349
1035.793, 291.4017
1036.275, 297.5107
1036.757, 299.5511
1037.239, 299.5152
1037.721, 296.1635
1038.203, 293.5367
1038.685, 295.0402
1039.167, 300.3398
1039.650, 306.0679
1040.132, 313.6055
1040.614, 314.5436
1041.096, 303.2854
1041.578, 288.6928
1042.060, 283.3250
1042.542, 285.5403
1043.024, 293.1539
1043.507, 312.2531
1043.989, 322.8013
1044.471, 316.7458
1044.953, 306.6073
1045.435, 302.2880
1045.917, 303.1847
1046.399, 300.5822
1046.881, 294.4994
1047.364, 288.5295
1047.846, 281.3771
1048.328, 278.6089
1048.810, 288.5739
1049.292, 306.9069
1049.774, 314.1054
1050.256, 306.2976
1050.738, 301.1136
1051.220, 303.1541
1051.703, 306.1860
1052.185, 299.3304
1052.667, 287.9030
1053.149, 281.2030
1053.631, 282.0015
1054.113, 283.0541
1054.595, 283.1914
1055.077, 282.1470
1055.559, 278.2870
1056.042, 272.8568
1056.524, 276.6752
1057.006, 288.3667
1057.488, 296.6800
1057.970, 293.4680
1058.452, 287.0259
1058.934, 280.3575
1059.416, 274.6814
1059.899, 272.0066
1060.381, 272.2559
1060.863, 276.6353
1061.345, 286.4960
1061.827, 295.1948
1062.309, 292.7439
1062.791, 286.3724
1063.273, 288.9208
1063.755, 301.1255
1064.238, 307.5604
1064.720, 299.6854
1065.202, 290.7055
1065.684, 283.3184
1066.166, 278.2487
1066.648, 278.7493
1067.130, 283.8106
1067.612, 288.7329
1068.094, 291.6610
1068.577, 295.0080
1069.059, 304.0222
1069.541, 311.5095
1070.023, 310.1617
1070.505, 298.1806
1070.987, 286.5611
1071.469, 274.7627
1071.951, 267.0858
1072.434, 266.5127
1072.916, 271.5609
1073.398, 285.5277
1073.880, 304.1749
1074.362, 312.8725
1074.844, 301.2476
1075.326, 291.5894
1075.808, 285.7838
1076.291, 284.2167
1076.773, 290.9566
1077.255, 302.0238
1077.737, 304.1837
1078.219, 295.0270
1078.701, 288.1240
1079.183, 294.5765
1079.665, 300.7477
1080.147, 298.8299
1080.630, 290.6646
1081.112, 287.0398
1081.594, 287.8686
1082.076, 291.0762
1082.558, 298.5293
1083.040, 302.9736
1083.522, 293.2214
1084.004, 278.6132
1084.486, 272.2917
1084.969, 279.3178
1085.451, 283.6093
1085.933, 284.7936
1086.415, 284.5206
1086.897, 283.9690
1087.379, 282.8297
1087.861, 279.6960
1088.343, 275.2741
1088.826, 272.5367
1089.308, 271.3720
1089.790, 274.3788
1090.272, 284.7569
1090.754, 295.9801
1091.236, 297.5706
1091.718, 290.9055
1092.200, 279.4477
1092.682, 262.8782
1093.165, 254.7159
1093.647, 275.0651
1094.129, 295.8997
1094.611, 297.4475
1095.093, 282.9595
1095.575, 275.6509
1096.057, 275.7277
1096.539, 278.1096
1097.022, 281.5799
1097.504, 285.1993
1097.986, 287.4713
1098.468, 289.5057
1098.950, 293.1088
1099.432, 300.4761
1099.914, 304.5961
1100.396, 305.8773
1100.879, 302.4289
1101.361, 286.8991
1101.843, 268.4206
1102.325, 267.4951
1102.807, 279.8707
1103.289, 289.0709
1103.771, 286.1854
1104.253, 283.2939
1104.735, 282.7977
1105.218, 282.9357
1105.700, 278.7308
1106.182, 272.5284
1106.664, 279.2819
1107.146, 300.9606
1107.628, 316.2916
1108.110, 306.3474
1108.592, 292.2505
1109.074, 283.0982
1109.557, 279.7670
1110.039, 291.1989
1110.521, 317.8483
1111.003, 327.3921
1111.485, 305.2280
1111.967, 278.7845
1112.449, 271.9165
1112.931, 276.4650
1113.414, 285.7531
1113.896, 301.4450
1114.378, 306.9348
1114.860, 300.4272
1115.342, 291.4549
1115.824, 284.0471
1116.306, 278.5506
1116.788, 274.3892
1117.271, 272.7035
1117.753, 276.0361
1118.235, 293.9649
1118.717, 303.5751
1119.199, 301.9955
1119.681, 294.9402
1120.163, 285.3628
1120.645, 275.2537
1121.127, 269.8458
1121.609, 269.4572
1122.092, 274.5692
1122.574, 295.0287
1123.056, 308.9951
1123.538, 307.0757
1124.020, 296.7165
1124.502, 293.7041
1124.984, 296.6689
1125.466, 292.4854
1125.949, 277.9003
1126.431, 264.7366
1126.913, 262.9474
1127.395, 264.2534
1127.877, 261.0930
1128.359, 254.6859
1128.841, 259.2865
1129.323, 275.8075
1129.806, 286.9125
1130.288, 284.7998
1130.770, 278.0267
1131.252, 273.1610
1131.734, 269.8403
1132.216, 267.3117
1132.698, 264.1985
1133.180, 267.6777
1133.662, 279.6329
1134.145, 290.1492
1134.627, 292.4137
1135.109, 289.7598
1135.591, 286.8950
1136.073, 283.4034
1136.555, 278.3123
1137.037, 267.5584
1137.519, 260.8065
1138.001, 258.5810
1138.484, 260.5212
1138.966, 269.0204
1139.448, 280.7077
1139.930, 287.3197
1140.412, 288.6980
1140.894, 287.4919
1141.376, 284.5044
1141.858, 278.8446
1142.341, 267.4753
1142.823, 256.3965
1143.305, 258.9894
1143.787, 271.9750
1144.269, 281.2087
1144.751, 284.4096
1145.233, 282.8673
1145.715, 271.4440
1146.198, 261.4538
1146.680, 259.3970
1147.162, 263.6829
1147.644, 267.3878
1148.126, 270.5519
1148.608, 273.4442
1149.090, 276.0121
1149.572, 278.8589
1150.054, 284.4321
1150.536, 289.0419
1151.019, 288.4281
1151.501, 282.0247
1151.983, 278.4437
1152.465, 277.6805
1152.947, 279.3623
1153.429, 286.3737
1153.911, 292.2616
1154.393, 288.6875
1154.876, 280.3427
1155.358, 275.7075
1155.840, 277.4993
1156.322, 276.1025
1156.804, 270.7715
1157.286, 265.3922
1157.768, 262.1159
1158.250, 261.2771
1158.733, 263.8651
1159.215, 269.3310
1159.697, 276.0988
1160.179, 287.4387
1160.661, 291.7079
1161.143, 285.9873
1161.625, 277.3786
1162.107, 272.4872
1162.589, 270.9983
1163.072, 274.2740
1163.554, 281.8201
1164.036, 285.4457
1164.518, 282.9163
1165.000, 275.4936
1165.482, 259.5144
1165.964, 245.0260
1166.446, 257.6029
1166.928, 284.2179
1167.411, 293.8193
1167.893, 278.0333
1168.375, 264.8860
1168.857, 264.4615
1169.339, 267.4958
1169.821, 272.3264
1170.303, 276.9723
1170.785, 274.4019
1171.268, 266.6046
1171.750, 259.5349
1172.232, 253.6241
1172.714, 252.5978
1173.196, 265.5116
1173.678, 276.2589
1174.160, 271.8766
1174.642, 256.2723
1175.125, 259.3145
1175.607, 277.1501
1176.089, 288.3499
1176.571, 276.2594
1177.053, 264.1053
1177.535, 261.3599
1178.017, 263.9824
1178.499, 269.6337
1178.981, 278.2879
1179.464, 283.9862
1179.946, 286.7271
1180.428, 287.3103
1180.910, 287.9636
1181.392, 284.7426
1181.874, 269.8334
1182.356, 252.5003
1182.838, 247.7532
1183.320, 256.0334
1183.803, 263.1051
1184.285, 267.8747
1184.767, 271.1054
1185.249, 274.5000
1185.731, 275.5710
1186.213, 269.9629
1186.695, 260.9922
1187.177, 258.5988
1187.660, 263.3767
1188.142, 265.8300
1188.624, 264.4764
1189.106, 260.1146
1189.588, 247.4373
1190.070, 237.0007
1190.552, 240.1434
1191.034, 254.7883
1191.516, 264.0163
1191.999, 267.4912
1192.481, 267.9915
1192.963, 264.7310
1193.445, 264.5623
1193.927, 279.4883
1194.409, 297.4712
1194.891, 307.2866
1195.373, 308.0801
1195.855, 296.7113
1196.338, 270.4948
1196.820, 255.8931
1197.302, 267.9769
1197.784, 286.1245
1198.266, 288.7739
1198.748, 283.5813
1199.230, 279.8716
1199.712, 279.0486
1200.195, 277.2635
1200.677, 274.3118
1201.159, 271.7933
1201.641, 270.2603
1202.123, 269.9937
1202.605, 271.6436
1203.087, 274.6789
1203.569, 278.9168
1204.052, 287.5841
1204.534, 285.4855
1205.016, 270.2317
1205.498, 258.4375
1205.980, 266.5741
1206.462, 280.2179
1206.944, 283.6021
1207.426, 279.4117
1207.908, 273.0058
1208.391, 261.4968
1208.873, 259.4330
1209.355, 269.1848
1209.837, 278.7821
1210.319, 277.1931
1210.801, 270.5538
1211.283, 263.5270
1211.765, 257.3607
1212.247, 256.2199
1212.730, 262.3206
1213.212, 265.8830
1213.694, 265.1202
1214.176, 265.5202
1214.658, 276.5915
1215.140, 288.8203
1215.622, 290.5035
1216.104, 282.6314
1216.587, 274.4146
1217.069, 264.7727
1217.551, 261.9186
1218.033, 268.6538
1218.515, 276.0731
1218.997, 269.9442
1219.479, 261.9523
1219.961, 269.4246
1220.443, 291.5219
1220.926, 298.1049
1221.408, 283.2471
1221.890, 272.4639
1222.372, 271.9484
1222.854, 276.4478
1223.336, 284.5527
1223.818, 291.0476
1224.300, 286.8973
1224.782, 270.7768
1225.265, 267.9775
1225.747, 282.2239
1226.229, 291.6119
1226.711, 287.9336
1227.193, 280.8583
1227.675, 281.8552
1228.157, 286.2991
1228.639, 289.0754
1229.122, 289.5475
1229.604, 287.8791
1230.086, 283.5853
1230.568, 280.4682
1231.050, 280.5723
1231.532, 281.2517
1232.014, 276.9587
1232.496, 272.8696
1232.979, 276.5747
1233.461, 289.6247
1233.943, 301.3010
1234.425, 312.4307
1234.907, 311.7748
1235.389, 284.7684
1235.871, 258.7080
1236.353, 265.5735
1236.835, 286.6587
1237.318, 296.7252
1237.800, 292.8305
1238.282, 294.2805
1238.764, 301.4946
1239.246, 305.1165
1239.728, 297.8597
1240.210, 287.5117
1240.692, 277.3419
1241.175, 269.9762
1241.657, 269.6089
1242.139, 277.7277
1242.621, 282.5054
1243.103, 283.9682
1243.585, 284.0617
1244.067, 284.0273
1244.549, 283.0515
1245.031, 278.9273
1245.514, 274.4771
1245.996, 273.6638
1246.478, 276.8185
1246.960, 280.0371
1247.442, 283.1888
1247.924, 284.9447
1248.406, 283.8259
1248.888, 281.7240
1249.370, 280.0178
1249.853, 277.6647
1250.335, 271.7315
1250.817, 262.5937
1251.299, 262.8122
1251.781, 272.1288
1252.263, 278.6235
1252.745, 271.3127
1253.227, 263.7628
1253.710, 260.5948
1254.192, 261.6060
1254.674, 269.7945
1255.156, 283.1622
1255.638, 284.7535
1256.120, 274.7967
1256.602, 268.1160
1257.084, 273.9616
1257.567, 283.9195
1258.049, 299.6542
1258.531, 312.3037
1259.013, 303.8416
1259.495, 281.8652
1259.977, 276.3403
1260.459, 288.0043
1260.941, 297.8195
1261.423, 294.6628
1261.906, 292.1207
1262.388, 294.3843
1262.870, 296.7506
1263.352, 288.8777
1263.834, 276.9451
1264.316, 277.4172
1264.798, 290.5842
1265.280, 300.6669
1265.762, 301.5379
1266.245, 301.1089
1266.727, 300.7838
1267.209, 299.6030
1267.691, 295.2814
1268.173, 289.6677
1268.655, 285.3253
1269.137, 282.5419
1269.619, 282.4738
1270.102, 286.3773
1270.584, 289.1376
1271.066, 289.3529
1271.548, 289.2263
1272.030, 293.4659
1272.512, 297.6251
1272.994, 294.2827
1273.476, 283.9040
1273.958, 281.2507
1274.441, 288.5106
1274.923, 294.4510
1275.405, 296.5016
1275.887, 297.0205
1276.369, 297.8388
1276.851, 298.8000
1277.333, 299.6142
1277.815, 300.3900
1278.297, 302.3145
1278.780, 305.5226
1279.262, 306.8416
1279.744, 305.6339
1280.226, 301.8437
1280.708, 291.4355
1281.190, 282.1550
1281.672, 281.2264
1282.154, 285.6488
1282.637, 283.8141
1283.119, 276.6482
1283.601, 273.4518
1284.083, 276.6516
1284.565, 280.2609
1285.047, 277.0138
1285.529, 278.0295
1286.011, 291.5454
1286.494, 310.5970
1286.976, 314.4973
1287.458, 306.7011
1287.940, 297.0518
1288.422, 286.6588
1288.904, 282.2888
1289.386, 292.3988
1289.868, 301.1068
1290.350, 303.1335
1290.833, 301.0028
1291.315, 298.6295
1291.797, 296.1934
1292.279, 294.2947
1292.761, 293.2394
1293.243, 290.5070
1293.725, 284.1107
1294.207, 280.8481
1294.689, 283.5979
1295.172, 288.8875
1295.654, 294.1423
1296.136, 297.4322
1296.618, 294.2894
1297.100, 283.2481
1297.582, 280.7439
1298.064, 287.6666
1298.546, 298.2240
1299.029, 312.5603
1299.511, 323.6233
1299.993, 321.6822
1300.475, 314.4646
1300.957, 308.5994
1301.439, 304.4099
1301.921, 302.3309
1302.403, 302.1815
1302.885, 298.2392
1303.368, 287.5167
1303.850, 278.8111
1304.332, 277.8261
1304.814, 282.0691
1305.296, 292.1563
1305.778, 304.4007
1306.260, 303.9911
1306.742, 294.0117
1307.224, 286.4779
1307.707, 284.2966
1308.189, 285.0025
1308.671, 288.0609
1309.153, 294.0205
1309.635, 305.2076
1310.117, 316.6537
1310.599, 314.4592
1311.081, 305.3944
1311.564, 305.1239
1312.046, 318.8468
1312.528, 320.2927
1313.010, 301.6222
1313.492, 287.8243
1313.974, 287.6333
1314.456, 295.4258
1314.938, 313.3282
##END=



