##NAMES=Chlorophoenicite
##RRUFFID=R140135
##IDEAL CHEMISTRY=(Mn^2+^,Mg,Zn^2+^)_3_Zn^2+^_2_As^5+^O_4_(OH,O)_6_
##LOCALITY=Franklin, Franklin Mining District, Sussex County, New Jersey, USA
##OWNER=RRUFF
##SOURCE=Rock Currier
##DESCRIPTION=Colorless acicular crystals on pyrochroite
##STATUS=The identification of this mineral has been confirmed by single-crystal X-ray diffraction.
##URL=rruff.info/R140135
8.806445e+001, 3.061952e+002
8.854657e+001, 3.014085e+002
8.902869e+001, 2.997599e+002
8.951080e+001, 3.032874e+002
8.999292e+001, 3.090454e+002
9.047504e+001, 3.139688e+002
9.095715e+001, 3.171784e+002
9.143927e+001, 3.199257e+002
9.192139e+001, 3.242700e+002
9.240350e+001, 3.301884e+002
9.288562e+001, 3.357442e+002
9.336774e+001, 3.374347e+002
9.384985e+001, 3.334619e+002
9.433197e+001, 3.259817e+002
9.481409e+001, 3.206027e+002
9.529620e+001, 3.150207e+002
9.577832e+001, 3.092604e+002
9.626044e+001, 3.033671e+002
9.674255e+001, 2.979699e+002
9.722467e+001, 2.938824e+002
9.770679e+001, 2.914029e+002
9.818890e+001, 2.889761e+002
9.867102e+001, 2.863089e+002
9.915314e+001, 2.835073e+002
9.963525e+001, 2.805059e+002
1.001174e+002, 2.772380e+002
1.005995e+002, 2.738949e+002
1.010816e+002, 2.712074e+002
1.015637e+002, 2.697852e+002
1.020458e+002, 2.683490e+002
1.025280e+002, 2.665124e+002
1.030101e+002, 2.645025e+002
1.034922e+002, 2.627059e+002
1.039743e+002, 2.613969e+002
1.044564e+002, 2.605654e+002
1.049385e+002, 2.599801e+002
1.054207e+002, 2.601230e+002
1.059028e+002, 2.600168e+002
1.063849e+002, 2.590520e+002
1.068670e+002, 2.572384e+002
1.073491e+002, 2.550863e+002
1.078312e+002, 2.529445e+002
1.083134e+002, 2.508274e+002
1.087955e+002, 2.490069e+002
1.092776e+002, 2.477188e+002
1.097597e+002, 2.466840e+002
1.102418e+002, 2.454206e+002
1.107239e+002, 2.436973e+002
1.112061e+002, 2.421401e+002
1.116882e+002, 2.413380e+002
1.121703e+002, 2.411600e+002
1.126524e+002, 2.412077e+002
1.131345e+002, 2.414247e+002
1.136166e+002, 2.417809e+002
1.140988e+002, 2.417477e+002
1.145809e+002, 2.409053e+002
1.150630e+002, 2.399191e+002
1.155451e+002, 2.391561e+002
1.160272e+002, 2.386299e+002
1.165093e+002, 2.381415e+002
1.169915e+002, 2.374498e+002
1.174736e+002, 2.365065e+002
1.179557e+002, 2.354610e+002
1.184378e+002, 2.339046e+002
1.189199e+002, 2.325102e+002
1.194020e+002, 2.318272e+002
1.198842e+002, 2.320164e+002
1.203663e+002, 2.327520e+002
1.208484e+002, 2.333012e+002
1.213305e+002, 2.337318e+002
1.218126e+002, 2.338328e+002
1.222947e+002, 2.335891e+002
1.227769e+002, 2.330142e+002
1.232590e+002, 2.319962e+002
1.237411e+002, 2.303955e+002
1.242232e+002, 2.284642e+002
1.247053e+002, 2.273869e+002
1.251874e+002, 2.277152e+002
1.256696e+002, 2.280843e+002
1.261517e+002, 2.279723e+002
1.266338e+002, 2.274674e+002
1.271159e+002, 2.269617e+002
1.275980e+002, 2.267874e+002
1.280801e+002, 2.267621e+002
1.285623e+002, 2.263204e+002
1.290444e+002, 2.251164e+002
1.295265e+002, 2.237185e+002
1.300086e+002, 2.226642e+002
1.304907e+002, 2.219940e+002
1.309728e+002, 2.214863e+002
1.314550e+002, 2.211930e+002
1.319371e+002, 2.209439e+002
1.324192e+002, 2.204676e+002
1.329013e+002, 2.194661e+002
1.333834e+002, 2.181898e+002
1.338655e+002, 2.174183e+002
1.343477e+002, 2.174630e+002
1.348298e+002, 2.175954e+002
1.353119e+002, 2.175377e+002
1.357940e+002, 2.173350e+002
1.362761e+002, 2.170805e+002
1.367582e+002, 2.168369e+002
1.372404e+002, 2.166071e+002
1.377225e+002, 2.163562e+002
1.382046e+002, 2.163943e+002
1.386867e+002, 2.161329e+002
1.391688e+002, 2.150926e+002
1.396509e+002, 2.134816e+002
1.401331e+002, 2.119691e+002
1.406152e+002, 2.112932e+002
1.410973e+002, 2.118432e+002
1.415794e+002, 2.118409e+002
1.420615e+002, 2.109600e+002
1.425436e+002, 2.098927e+002
1.430258e+002, 2.089377e+002
1.435079e+002, 2.081930e+002
1.439900e+002, 2.077388e+002
1.444721e+002, 2.077484e+002
1.449542e+002, 2.085612e+002
1.454363e+002, 2.089405e+002
1.459185e+002, 2.086770e+002
1.464006e+002, 2.080232e+002
1.468827e+002, 2.071858e+002
1.473648e+002, 2.061825e+002
1.478469e+002, 2.051862e+002
1.483290e+002, 2.044762e+002
1.488112e+002, 2.040008e+002
1.492933e+002, 2.037892e+002
1.497754e+002, 2.041200e+002
1.502575e+002, 2.047636e+002
1.507396e+002, 2.050076e+002
1.512217e+002, 2.044737e+002
1.517039e+002, 2.036281e+002
1.521860e+002, 2.030765e+002
1.526681e+002, 2.028388e+002
1.531502e+002, 2.027186e+002
1.536323e+002, 2.026371e+002
1.541144e+002, 2.026019e+002
1.545966e+002, 2.024087e+002
1.550787e+002, 2.018724e+002
1.555608e+002, 2.012252e+002
1.560429e+002, 2.005867e+002
1.565250e+002, 1.999755e+002
1.570071e+002, 1.994392e+002
1.574893e+002, 1.990254e+002
1.579714e+002, 1.987066e+002
1.584535e+002, 1.986070e+002
1.589356e+002, 1.989715e+002
1.594177e+002, 1.994102e+002
1.598998e+002, 1.996022e+002
1.603820e+002, 1.994263e+002
1.608641e+002, 1.990269e+002
1.613462e+002, 1.987553e+002
1.618283e+002, 1.988177e+002
1.623104e+002, 1.987112e+002
1.627925e+002, 1.983314e+002
1.632747e+002, 1.977945e+002
1.637568e+002, 1.971879e+002
1.642389e+002, 1.965544e+002
1.647210e+002, 1.959311e+002
1.652031e+002, 1.954848e+002
1.656852e+002, 1.952792e+002
1.661674e+002, 1.951792e+002
1.666495e+002, 1.953070e+002
1.671316e+002, 1.955189e+002
1.676137e+002, 1.955310e+002
1.680958e+002, 1.951366e+002
1.685779e+002, 1.944458e+002
1.690601e+002, 1.941570e+002
1.695422e+002, 1.947703e+002
1.700243e+002, 1.951942e+002
1.705064e+002, 1.948533e+002
1.709885e+002, 1.938962e+002
1.714706e+002, 1.929109e+002
1.719528e+002, 1.921964e+002
1.724349e+002, 1.917861e+002
1.729170e+002, 1.916063e+002
1.733991e+002, 1.918461e+002
1.738812e+002, 1.921614e+002
1.743633e+002, 1.922999e+002
1.748455e+002, 1.922586e+002
1.753276e+002, 1.921488e+002
1.758097e+002, 1.920562e+002
1.762918e+002, 1.919319e+002
1.767739e+002, 1.916682e+002
1.772560e+002, 1.910810e+002
1.777382e+002, 1.904608e+002
1.782203e+002, 1.903069e+002
1.787024e+002, 1.907900e+002
1.791845e+002, 1.911744e+002
1.796666e+002, 1.909766e+002
1.801487e+002, 1.904754e+002
1.806309e+002, 1.899875e+002
1.811130e+002, 1.895971e+002
1.815951e+002, 1.893335e+002
1.820772e+002, 1.893149e+002
1.825593e+002, 1.897618e+002
1.830414e+002, 1.900874e+002
1.835236e+002, 1.899884e+002
1.840057e+002, 1.896774e+002
1.844878e+002, 1.894729e+002
1.849699e+002, 1.896035e+002
1.854520e+002, 1.899856e+002
1.859341e+002, 1.900762e+002
1.864163e+002, 1.895304e+002
1.868984e+002, 1.890570e+002
1.873805e+002, 1.888042e+002
1.878626e+002, 1.887371e+002
1.883447e+002, 1.887878e+002
1.888268e+002, 1.889221e+002
1.893090e+002, 1.891360e+002
1.897911e+002, 1.892945e+002
1.902732e+002, 1.894313e+002
1.907553e+002, 1.894821e+002
1.912374e+002, 1.894095e+002
1.917195e+002, 1.892345e+002
1.922017e+002, 1.889885e+002
1.926838e+002, 1.886805e+002
1.931659e+002, 1.882993e+002
1.936480e+002, 1.880986e+002
1.941301e+002, 1.880265e+002
1.946122e+002, 1.881301e+002
1.950944e+002, 1.886075e+002
1.955765e+002, 1.893332e+002
1.960586e+002, 1.899002e+002
1.965407e+002, 1.899495e+002
1.970228e+002, 1.894482e+002
1.975049e+002, 1.890434e+002
1.979871e+002, 1.888428e+002
1.984692e+002, 1.886369e+002
1.989513e+002, 1.881745e+002
1.994334e+002, 1.874958e+002
1.999155e+002, 1.870240e+002
2.003976e+002, 1.871866e+002
2.008798e+002, 1.879489e+002
2.013619e+002, 1.884906e+002
2.018440e+002, 1.886037e+002
2.023261e+002, 1.885990e+002
2.028082e+002, 1.887872e+002
2.032903e+002, 1.891940e+002
2.037725e+002, 1.895527e+002
2.042546e+002, 1.895743e+002
2.047367e+002, 1.893754e+002
2.052188e+002, 1.892878e+002
2.057009e+002, 1.895472e+002
2.061830e+002, 1.898782e+002
2.066652e+002, 1.898866e+002
2.071473e+002, 1.895106e+002
2.076294e+002, 1.890382e+002
2.081115e+002, 1.885260e+002
2.085936e+002, 1.880606e+002
2.090757e+002, 1.878182e+002
2.095579e+002, 1.880018e+002
2.100400e+002, 1.883946e+002
2.105221e+002, 1.885570e+002
2.110042e+002, 1.884288e+002
2.114863e+002, 1.881922e+002
2.119685e+002, 1.877979e+002
2.124506e+002, 1.873869e+002
2.129327e+002, 1.871793e+002
2.134148e+002, 1.873013e+002
2.138969e+002, 1.876867e+002
2.143790e+002, 1.881736e+002
2.148612e+002, 1.889531e+002
2.153433e+002, 1.895009e+002
2.158254e+002, 1.895654e+002
2.163075e+002, 1.893425e+002
2.167896e+002, 1.890847e+002
2.172717e+002, 1.889138e+002
2.177539e+002, 1.888283e+002
2.182360e+002, 1.888153e+002
2.187181e+002, 1.887997e+002
2.192002e+002, 1.889845e+002
2.196823e+002, 1.896115e+002
2.201644e+002, 1.904120e+002
2.206466e+002, 1.910174e+002
2.211287e+002, 1.911996e+002
2.216108e+002, 1.910188e+002
2.220929e+002, 1.908071e+002
2.225750e+002, 1.903917e+002
2.230571e+002, 1.901472e+002
2.235393e+002, 1.902690e+002
2.240214e+002, 1.905757e+002
2.245035e+002, 1.908203e+002
2.249856e+002, 1.908570e+002
2.254677e+002, 1.907056e+002
2.259498e+002, 1.904830e+002
2.264320e+002, 1.902264e+002
2.269141e+002, 1.898521e+002
2.273962e+002, 1.892055e+002
2.278783e+002, 1.884522e+002
2.283604e+002, 1.878571e+002
2.288425e+002, 1.875848e+002
2.293247e+002, 1.875649e+002
2.298068e+002, 1.873857e+002
2.302889e+002, 1.869659e+002
2.307710e+002, 1.864940e+002
2.312531e+002, 1.858897e+002
2.317352e+002, 1.852683e+002
2.322174e+002, 1.848487e+002
2.326995e+002, 1.847698e+002
2.331816e+002, 1.849366e+002
2.336637e+002, 1.849282e+002
2.341458e+002, 1.845719e+002
2.346279e+002, 1.842723e+002
2.351101e+002, 1.842007e+002
2.355922e+002, 1.842542e+002
2.360743e+002, 1.842082e+002
2.365564e+002, 1.839312e+002
2.370385e+002, 1.835237e+002
2.375206e+002, 1.833280e+002
2.380028e+002, 1.834340e+002
2.384849e+002, 1.835555e+002
2.389670e+002, 1.836530e+002
2.394491e+002, 1.836986e+002
2.399312e+002, 1.836080e+002
2.404133e+002, 1.833144e+002
2.408955e+002, 1.829114e+002
2.413776e+002, 1.825827e+002
2.418597e+002, 1.822761e+002
2.423418e+002, 1.821369e+002
2.428239e+002, 1.823812e+002
2.433060e+002, 1.828587e+002
2.437882e+002, 1.831420e+002
2.442703e+002, 1.830405e+002
2.447524e+002, 1.827277e+002
2.452345e+002, 1.825209e+002
2.457166e+002, 1.824639e+002
2.461987e+002, 1.823002e+002
2.466809e+002, 1.817975e+002
2.471630e+002, 1.810675e+002
2.476451e+002, 1.804642e+002
2.481272e+002, 1.800641e+002
2.486093e+002, 1.798784e+002
2.490914e+002, 1.800054e+002
2.495736e+002, 1.804589e+002
2.500557e+002, 1.807315e+002
2.505378e+002, 1.802988e+002
2.510199e+002, 1.793851e+002
2.515020e+002, 1.789563e+002
2.519841e+002, 1.794162e+002
2.524663e+002, 1.801137e+002
2.529484e+002, 1.804833e+002
2.534305e+002, 1.805473e+002
2.539126e+002, 1.804923e+002
2.543947e+002, 1.803987e+002
2.548768e+002, 1.802695e+002
2.553590e+002, 1.801174e+002
2.558411e+002, 1.799322e+002
2.563232e+002, 1.797384e+002
2.568053e+002, 1.795760e+002
2.572874e+002, 1.794281e+002
2.577695e+002, 1.792321e+002
2.582516e+002, 1.788360e+002
2.587338e+002, 1.783174e+002
2.592159e+002, 1.781390e+002
2.596980e+002, 1.785296e+002
2.601801e+002, 1.789582e+002
2.606622e+002, 1.792611e+002
2.611443e+002, 1.793904e+002
2.616265e+002, 1.792158e+002
2.621086e+002, 1.784219e+002
2.625907e+002, 1.772377e+002
2.630728e+002, 1.768013e+002
2.635549e+002, 1.776197e+002
2.640370e+002, 1.784361e+002
2.645192e+002, 1.786806e+002
2.650013e+002, 1.785850e+002
2.654834e+002, 1.785631e+002
2.659655e+002, 1.789280e+002
2.664476e+002, 1.794719e+002
2.669297e+002, 1.794012e+002
2.674119e+002, 1.782703e+002
2.678940e+002, 1.772285e+002
2.683761e+002, 1.766433e+002
2.688582e+002, 1.763321e+002
2.693403e+002, 1.760675e+002
2.698224e+002, 1.757406e+002
2.703046e+002, 1.754006e+002
2.707867e+002, 1.751911e+002
2.712688e+002, 1.751943e+002
2.717509e+002, 1.751902e+002
2.722330e+002, 1.750090e+002
2.727151e+002, 1.748512e+002
2.731973e+002, 1.749804e+002
2.736794e+002, 1.755118e+002
2.741615e+002, 1.761956e+002
2.746436e+002, 1.764793e+002
2.751257e+002, 1.760930e+002
2.756078e+002, 1.758217e+002
2.760900e+002, 1.757500e+002
2.765721e+002, 1.758186e+002
2.770542e+002, 1.760858e+002
2.775363e+002, 1.765397e+002
2.780184e+002, 1.769355e+002
2.785005e+002, 1.767968e+002
2.789827e+002, 1.757436e+002
2.794648e+002, 1.750036e+002
2.799469e+002, 1.748364e+002
2.804290e+002, 1.748072e+002
2.809111e+002, 1.745759e+002
2.813932e+002, 1.741112e+002
2.818754e+002, 1.736828e+002
2.823575e+002, 1.737048e+002
2.828396e+002, 1.744585e+002
2.833217e+002, 1.748432e+002
2.838038e+002, 1.745632e+002
2.842859e+002, 1.742115e+002
2.847681e+002, 1.741328e+002
2.852502e+002, 1.743194e+002
2.857323e+002, 1.745300e+002
2.862144e+002, 1.745074e+002
2.866965e+002, 1.742017e+002
2.871786e+002, 1.739448e+002
2.876608e+002, 1.738199e+002
2.881429e+002, 1.736607e+002
2.886250e+002, 1.732567e+002
2.891071e+002, 1.727355e+002
2.895892e+002, 1.724805e+002
2.900714e+002, 1.728831e+002
2.905535e+002, 1.739621e+002
2.910356e+002, 1.743450e+002
2.915177e+002, 1.732008e+002
2.919998e+002, 1.722377e+002
2.924819e+002, 1.720279e+002
2.929641e+002, 1.723354e+002
2.934462e+002, 1.726507e+002
2.939283e+002, 1.726427e+002
2.944104e+002, 1.723743e+002
2.948925e+002, 1.722770e+002
2.953746e+002, 1.725794e+002
2.958568e+002, 1.728054e+002
2.963389e+002, 1.728727e+002
2.968210e+002, 1.728283e+002
2.973031e+002, 1.727390e+002
2.977852e+002, 1.726363e+002
2.982673e+002, 1.725115e+002
2.987495e+002, 1.723385e+002
2.992316e+002, 1.719946e+002
2.997137e+002, 1.717560e+002
3.001958e+002, 1.717762e+002
3.006779e+002, 1.718365e+002
3.011600e+002, 1.716650e+002
3.016422e+002, 1.711851e+002
3.021243e+002, 1.706063e+002
3.026064e+002, 1.703218e+002
3.030885e+002, 1.705992e+002
3.035706e+002, 1.707087e+002
3.040527e+002, 1.704846e+002
3.045349e+002, 1.702180e+002
3.050170e+002, 1.701460e+002
3.054991e+002, 1.702990e+002
3.059812e+002, 1.705331e+002
3.064633e+002, 1.706891e+002
3.069454e+002, 1.707973e+002
3.074276e+002, 1.706917e+002
3.079097e+002, 1.701660e+002
3.083918e+002, 1.696436e+002
3.088739e+002, 1.693477e+002
3.093560e+002, 1.692797e+002
3.098381e+002, 1.693362e+002
3.103203e+002, 1.694468e+002
3.108024e+002, 1.696233e+002
3.112845e+002, 1.696562e+002
3.117666e+002, 1.694260e+002
3.122487e+002, 1.691978e+002
3.127308e+002, 1.690549e+002
3.132130e+002, 1.689856e+002
3.136951e+002, 1.689381e+002
3.141772e+002, 1.688728e+002
3.146593e+002, 1.688078e+002
3.151414e+002, 1.688749e+002
3.156235e+002, 1.693799e+002
3.161057e+002, 1.696612e+002
3.165878e+002, 1.693861e+002
3.170699e+002, 1.688853e+002
3.175520e+002, 1.686266e+002
3.180341e+002, 1.688223e+002
3.185162e+002, 1.692993e+002
3.189984e+002, 1.696182e+002
3.194805e+002, 1.698063e+002
3.199626e+002, 1.697648e+002
3.204447e+002, 1.692438e+002
3.209268e+002, 1.686347e+002
3.214089e+002, 1.683139e+002
3.218911e+002, 1.683740e+002
3.223732e+002, 1.686233e+002
3.228553e+002, 1.688070e+002
3.233374e+002, 1.690092e+002
3.238195e+002, 1.688974e+002
3.243016e+002, 1.680138e+002
3.247838e+002, 1.672171e+002
3.252659e+002, 1.671833e+002
3.257480e+002, 1.678562e+002
3.262301e+002, 1.686177e+002
3.267122e+002, 1.688506e+002
3.271943e+002, 1.684718e+002
3.276765e+002, 1.682408e+002
3.281586e+002, 1.681416e+002
3.286407e+002, 1.681805e+002
3.291228e+002, 1.685121e+002
3.296049e+002, 1.689874e+002
3.300870e+002, 1.692644e+002
3.305692e+002, 1.690794e+002
3.310513e+002, 1.685274e+002
3.315334e+002, 1.683455e+002
3.320155e+002, 1.690378e+002
3.324976e+002, 1.695486e+002
3.329797e+002, 1.696540e+002
3.334619e+002, 1.695174e+002
3.339440e+002, 1.693367e+002
3.344261e+002, 1.692010e+002
3.349082e+002, 1.691044e+002
3.353904e+002, 1.690285e+002
3.358725e+002, 1.689516e+002
3.363546e+002, 1.689414e+002
3.368367e+002, 1.691711e+002
3.373188e+002, 1.693594e+002
3.378009e+002, 1.691175e+002
3.382831e+002, 1.684402e+002
3.387652e+002, 1.678321e+002
3.392473e+002, 1.680567e+002
3.397294e+002, 1.695641e+002
3.402115e+002, 1.704927e+002
3.406936e+002, 1.705100e+002
3.411758e+002, 1.703286e+002
3.416579e+002, 1.702864e+002
3.421400e+002, 1.703686e+002
3.426221e+002, 1.703621e+002
3.431042e+002, 1.700449e+002
3.435863e+002, 1.694174e+002
3.440685e+002, 1.690797e+002
3.445506e+002, 1.693459e+002
3.450327e+002, 1.696045e+002
3.455148e+002, 1.697505e+002
3.459969e+002, 1.697966e+002
3.464790e+002, 1.697551e+002
3.469612e+002, 1.696200e+002
3.474433e+002, 1.694553e+002
3.479254e+002, 1.694983e+002
3.484075e+002, 1.700693e+002
3.488896e+002, 1.703066e+002
3.493717e+002, 1.698328e+002
3.498539e+002, 1.691602e+002
3.503360e+002, 1.687595e+002
3.508181e+002, 1.687673e+002
3.513002e+002, 1.689332e+002
3.517823e+002, 1.688476e+002
3.522644e+002, 1.683610e+002
3.527466e+002, 1.681177e+002
3.532287e+002, 1.684853e+002
3.537108e+002, 1.688279e+002
3.541929e+002, 1.687249e+002
3.546750e+002, 1.682380e+002
3.551571e+002, 1.677813e+002
3.556393e+002, 1.677629e+002
3.561214e+002, 1.681793e+002
3.566035e+002, 1.684465e+002
3.570856e+002, 1.685504e+002
3.575677e+002, 1.684993e+002
3.580498e+002, 1.681496e+002
3.585320e+002, 1.676786e+002
3.590141e+002, 1.674000e+002
3.594962e+002, 1.675256e+002
3.599783e+002, 1.678883e+002
3.604604e+002, 1.680418e+002
3.609425e+002, 1.679229e+002
3.614247e+002, 1.677350e+002
3.619068e+002, 1.675136e+002
3.623889e+002, 1.672683e+002
3.628710e+002, 1.669654e+002
3.633531e+002, 1.665892e+002
3.638352e+002, 1.662921e+002
3.643174e+002, 1.663163e+002
3.647995e+002, 1.667030e+002
3.652816e+002, 1.669878e+002
3.657637e+002, 1.670686e+002
3.662458e+002, 1.670336e+002
3.667279e+002, 1.668736e+002
3.672101e+002, 1.666225e+002
3.676922e+002, 1.664467e+002
3.681743e+002, 1.665181e+002
3.686564e+002, 1.667761e+002
3.691385e+002, 1.669409e+002
3.696206e+002, 1.669820e+002
3.701028e+002, 1.669702e+002
3.705849e+002, 1.670076e+002
3.710670e+002, 1.670216e+002
3.715491e+002, 1.668447e+002
3.720312e+002, 1.662576e+002
3.725133e+002, 1.656128e+002
3.729955e+002, 1.655157e+002
3.734776e+002, 1.660407e+002
3.739597e+002, 1.663804e+002
3.744418e+002, 1.659749e+002
3.749239e+002, 1.653323e+002
3.754060e+002, 1.651409e+002
3.758882e+002, 1.655561e+002
3.763703e+002, 1.659934e+002
3.768524e+002, 1.659782e+002
3.773345e+002, 1.656271e+002
3.778166e+002, 1.654544e+002
3.782987e+002, 1.656628e+002
3.787809e+002, 1.659176e+002
3.792630e+002, 1.657434e+002
3.797451e+002, 1.652045e+002
3.802272e+002, 1.648857e+002
3.807093e+002, 1.652215e+002
3.811914e+002, 1.657712e+002
3.816736e+002, 1.659268e+002
3.821557e+002, 1.656315e+002
3.826378e+002, 1.652219e+002
3.831199e+002, 1.649087e+002
3.836020e+002, 1.646778e+002
3.840841e+002, 1.644360e+002
3.845663e+002, 1.639077e+002
3.850484e+002, 1.636418e+002
3.855305e+002, 1.642120e+002
3.860126e+002, 1.653484e+002
3.864947e+002, 1.662070e+002
3.869768e+002, 1.664355e+002
3.874590e+002, 1.662106e+002
3.879411e+002, 1.657974e+002
3.884232e+002, 1.650330e+002
3.889053e+002, 1.645778e+002
3.893874e+002, 1.647604e+002
3.898695e+002, 1.652256e+002
3.903517e+002, 1.656590e+002
3.908338e+002, 1.659865e+002
3.913159e+002, 1.660728e+002
3.917980e+002, 1.657089e+002
3.922801e+002, 1.648056e+002
3.927622e+002, 1.642979e+002
3.932444e+002, 1.645328e+002
3.937265e+002, 1.647969e+002
3.942086e+002, 1.647451e+002
3.946907e+002, 1.644227e+002
3.951728e+002, 1.639855e+002
3.956549e+002, 1.635107e+002
3.961371e+002, 1.630298e+002
3.966192e+002, 1.626867e+002
3.971013e+002, 1.626374e+002
3.975834e+002, 1.625356e+002
3.980655e+002, 1.623065e+002
3.985476e+002, 1.620397e+002
3.990298e+002, 1.618110e+002
3.995119e+002, 1.616463e+002
3.999940e+002, 1.615534e+002
4.004761e+002, 1.615806e+002
4.009582e+002, 1.618618e+002
4.014403e+002, 1.617758e+002
4.019225e+002, 1.609204e+002
4.024046e+002, 1.601270e+002
4.028867e+002, 1.598132e+002
4.033688e+002, 1.598878e+002
4.038509e+002, 1.600311e+002
4.043330e+002, 1.600214e+002
4.048152e+002, 1.599001e+002
4.052973e+002, 1.599182e+002
4.057794e+002, 1.602695e+002
4.062615e+002, 1.604633e+002
4.067436e+002, 1.603169e+002
4.072257e+002, 1.600320e+002
4.077079e+002, 1.598529e+002
4.081900e+002, 1.598472e+002
4.086721e+002, 1.598044e+002
4.091542e+002, 1.593349e+002
4.096363e+002, 1.582965e+002
4.101184e+002, 1.576193e+002
4.106006e+002, 1.576511e+002
4.110827e+002, 1.578550e+002
4.115648e+002, 1.580476e+002
4.120469e+002, 1.581924e+002
4.125290e+002, 1.582356e+002
4.130111e+002, 1.580722e+002
4.134933e+002, 1.577935e+002
4.139754e+002, 1.577495e+002
4.144575e+002, 1.580859e+002
4.149396e+002, 1.582700e+002
4.154217e+002, 1.577724e+002
4.159038e+002, 1.570824e+002
4.163860e+002, 1.568156e+002
4.168681e+002, 1.572075e+002
4.173502e+002, 1.577176e+002
4.178323e+002, 1.578232e+002
4.183144e+002, 1.575659e+002
4.187965e+002, 1.572680e+002
4.192787e+002, 1.569091e+002
4.197608e+002, 1.566841e+002
4.202429e+002, 1.569445e+002
4.207250e+002, 1.576371e+002
4.212071e+002, 1.580616e+002
4.216892e+002, 1.576509e+002
4.221714e+002, 1.569888e+002
4.226535e+002, 1.569513e+002
4.231356e+002, 1.576033e+002
4.236177e+002, 1.582646e+002
4.240998e+002, 1.585387e+002
4.245819e+002, 1.584334e+002
4.250641e+002, 1.581148e+002
4.255462e+002, 1.573543e+002
4.260283e+002, 1.566733e+002
4.265104e+002, 1.562630e+002
4.269925e+002, 1.560938e+002
4.274746e+002, 1.561753e+002
4.279568e+002, 1.565355e+002
4.284389e+002, 1.569528e+002
4.289210e+002, 1.570849e+002
4.294031e+002, 1.567902e+002
4.298852e+002, 1.565898e+002
4.303673e+002, 1.566363e+002
4.308495e+002, 1.566568e+002
4.313316e+002, 1.563807e+002
4.318137e+002, 1.558742e+002
4.322958e+002, 1.554558e+002
4.327779e+002, 1.553665e+002
4.332600e+002, 1.555591e+002
4.337422e+002, 1.556521e+002
4.342243e+002, 1.555940e+002
4.347064e+002, 1.554903e+002
4.351885e+002, 1.552690e+002
4.356706e+002, 1.550461e+002
4.361527e+002, 1.550492e+002
4.366349e+002, 1.553083e+002
4.371170e+002, 1.554845e+002
4.375991e+002, 1.549684e+002
4.380812e+002, 1.533899e+002
4.385633e+002, 1.524877e+002
4.390454e+002, 1.528708e+002
4.395276e+002, 1.533747e+002
4.400097e+002, 1.535433e+002
4.404918e+002, 1.534671e+002
4.409739e+002, 1.534643e+002
4.414560e+002, 1.537744e+002
4.419381e+002, 1.542340e+002
4.424203e+002, 1.543362e+002
4.429024e+002, 1.539405e+002
4.433845e+002, 1.535618e+002
4.438666e+002, 1.533399e+002
4.443487e+002, 1.532107e+002
4.448308e+002, 1.531515e+002
4.453130e+002, 1.531582e+002
4.457951e+002, 1.531615e+002
4.462772e+002, 1.530962e+002
4.467593e+002, 1.529751e+002
4.472414e+002, 1.528688e+002
4.477235e+002, 1.528009e+002
4.482057e+002, 1.527158e+002
4.486878e+002, 1.524802e+002
4.491699e+002, 1.521889e+002
4.496520e+002, 1.520985e+002
4.501341e+002, 1.524554e+002
4.506162e+002, 1.528688e+002
4.510984e+002, 1.529416e+002
4.515805e+002, 1.527232e+002
4.520626e+002, 1.525302e+002
4.525447e+002, 1.525043e+002
4.530268e+002, 1.525482e+002
4.535089e+002, 1.524556e+002
4.539911e+002, 1.521874e+002
4.544732e+002, 1.519933e+002
4.549553e+002, 1.519991e+002
4.554374e+002, 1.520648e+002
4.559195e+002, 1.520120e+002
4.564016e+002, 1.518378e+002
4.568838e+002, 1.517176e+002
4.573659e+002, 1.518139e+002
4.578480e+002, 1.521073e+002
4.583301e+002, 1.522408e+002
4.588122e+002, 1.522047e+002
4.592943e+002, 1.520505e+002
4.597765e+002, 1.516026e+002
4.602586e+002, 1.511126e+002
4.607407e+002, 1.509695e+002
4.612228e+002, 1.512844e+002
4.617049e+002, 1.517466e+002
4.621870e+002, 1.518813e+002
4.626692e+002, 1.515608e+002
4.631513e+002, 1.513181e+002
4.636334e+002, 1.511710e+002
4.641155e+002, 1.510818e+002
4.645976e+002, 1.510445e+002
4.650797e+002, 1.510540e+002
4.655619e+002, 1.511261e+002
4.660440e+002, 1.512994e+002
4.665261e+002, 1.514805e+002
4.670082e+002, 1.513755e+002
4.674903e+002, 1.508649e+002
4.679724e+002, 1.503916e+002
4.684546e+002, 1.499595e+002
4.689367e+002, 1.496767e+002
4.694188e+002, 1.497137e+002
4.699009e+002, 1.500605e+002
4.703830e+002, 1.503934e+002
4.708651e+002, 1.504464e+002
4.713473e+002, 1.502831e+002
4.718294e+002, 1.501014e+002
4.723115e+002, 1.498630e+002
4.727936e+002, 1.497547e+002
4.732757e+002, 1.500256e+002
4.737578e+002, 1.504902e+002
4.742400e+002, 1.508083e+002
4.747221e+002, 1.509261e+002
4.752042e+002, 1.508962e+002
4.756863e+002, 1.505938e+002
4.761684e+002, 1.501614e+002
4.766505e+002, 1.501099e+002
4.771327e+002, 1.506711e+002
4.776148e+002, 1.512784e+002
4.780969e+002, 1.511148e+002
4.785790e+002, 1.500173e+002
4.790611e+002, 1.493828e+002
4.795432e+002, 1.496192e+002
4.800254e+002, 1.500430e+002
4.805075e+002, 1.502868e+002
4.809896e+002, 1.503504e+002
4.814717e+002, 1.503168e+002
4.819538e+002, 1.502243e+002
4.824359e+002, 1.500983e+002
4.829181e+002, 1.500119e+002
4.834002e+002, 1.500124e+002
4.838823e+002, 1.499837e+002
4.843644e+002, 1.497398e+002
4.848465e+002, 1.496044e+002
4.853286e+002, 1.499610e+002
4.858108e+002, 1.507183e+002
4.862929e+002, 1.513594e+002
4.867750e+002, 1.513933e+002
4.872571e+002, 1.509099e+002
4.877392e+002, 1.507254e+002
4.882213e+002, 1.510482e+002
4.887035e+002, 1.513333e+002
4.891856e+002, 1.514049e+002
4.896677e+002, 1.513845e+002
4.901498e+002, 1.514111e+002
4.906319e+002, 1.515186e+002
4.911140e+002, 1.515926e+002
4.915962e+002, 1.515261e+002
4.920783e+002, 1.513250e+002
4.925604e+002, 1.509746e+002
4.930425e+002, 1.502833e+002
4.935246e+002, 1.498242e+002
4.940067e+002, 1.503021e+002
4.944889e+002, 1.513214e+002
4.949710e+002, 1.519806e+002
4.954531e+002, 1.517190e+002
4.959352e+002, 1.514501e+002
4.964173e+002, 1.522036e+002
4.968994e+002, 1.536288e+002
4.973816e+002, 1.543464e+002
4.978637e+002, 1.537830e+002
4.983458e+002, 1.527072e+002
4.988279e+002, 1.521878e+002
4.993100e+002, 1.523206e+002
4.997921e+002, 1.525695e+002
5.002743e+002, 1.531881e+002
5.007564e+002, 1.536713e+002
5.012385e+002, 1.535039e+002
5.017206e+002, 1.528901e+002
5.022027e+002, 1.525034e+002
5.026848e+002, 1.527487e+002
5.031670e+002, 1.533582e+002
5.036491e+002, 1.535152e+002
5.041312e+002, 1.526673e+002
5.046133e+002, 1.522702e+002
5.050954e+002, 1.528033e+002
5.055775e+002, 1.534105e+002
5.060597e+002, 1.534707e+002
5.065418e+002, 1.530163e+002
5.070239e+002, 1.524953e+002
5.075060e+002, 1.522829e+002
5.079881e+002, 1.522820e+002
5.084702e+002, 1.519749e+002
5.089524e+002, 1.511408e+002
5.094345e+002, 1.505049e+002
5.099166e+002, 1.504726e+002
5.103987e+002, 1.506490e+002
5.108808e+002, 1.507473e+002
5.113629e+002, 1.507229e+002
5.118451e+002, 1.505146e+002
5.123271e+002, 1.498708e+002
5.128093e+002, 1.490137e+002
5.132914e+002, 1.486860e+002
5.137735e+002, 1.490627e+002
5.142556e+002, 1.493934e+002
5.147377e+002, 1.490738e+002
5.152198e+002, 1.482998e+002
5.157020e+002, 1.477856e+002
5.161841e+002, 1.475858e+002
5.166662e+002, 1.475932e+002
5.171483e+002, 1.480691e+002
5.176304e+002, 1.486335e+002
5.181125e+002, 1.485942e+002
5.185947e+002, 1.477891e+002
5.190768e+002, 1.466651e+002
5.195589e+002, 1.456367e+002
5.200410e+002, 1.446597e+002
5.205231e+002, 1.442025e+002
5.210052e+002, 1.446672e+002
5.214874e+002, 1.451126e+002
5.219695e+002, 1.451870e+002
5.224516e+002, 1.450784e+002
5.229337e+002, 1.451068e+002
5.234158e+002, 1.453837e+002
5.238979e+002, 1.457003e+002
5.243801e+002, 1.457207e+002
5.248622e+002, 1.453775e+002
5.253443e+002, 1.450956e+002
5.258264e+002, 1.449390e+002
5.263085e+002, 1.447880e+002
5.267906e+002, 1.445990e+002
5.272728e+002, 1.443774e+002
5.277549e+002, 1.441320e+002
5.282370e+002, 1.438570e+002
5.287191e+002, 1.435788e+002
5.292012e+002, 1.433053e+002
5.296833e+002, 1.430418e+002
5.301655e+002, 1.428842e+002
5.306476e+002, 1.428898e+002
5.311297e+002, 1.429524e+002
5.316118e+002, 1.429659e+002
5.320939e+002, 1.429357e+002
5.325760e+002, 1.428826e+002
5.330582e+002, 1.428223e+002
5.335403e+002, 1.427307e+002
5.340224e+002, 1.425771e+002
5.345045e+002, 1.423762e+002
5.349866e+002, 1.421466e+002
5.354688e+002, 1.418848e+002
5.359509e+002, 1.416795e+002
5.364330e+002, 1.417254e+002
5.369151e+002, 1.422709e+002
5.373972e+002, 1.424600e+002
5.378793e+002, 1.420088e+002
5.383615e+002, 1.414983e+002
5.388436e+002, 1.411939e+002
5.393257e+002, 1.410964e+002
5.398078e+002, 1.411361e+002
5.402899e+002, 1.412799e+002
5.407720e+002, 1.415037e+002
5.412542e+002, 1.418132e+002
5.417363e+002, 1.423279e+002
5.422184e+002, 1.425114e+002
5.427005e+002, 1.419151e+002
5.431826e+002, 1.412701e+002
5.436647e+002, 1.410871e+002
5.441469e+002, 1.412555e+002
5.446290e+002, 1.412479e+002
5.451111e+002, 1.405401e+002
5.455932e+002, 1.396970e+002
5.460753e+002, 1.397420e+002
5.465574e+002, 1.406374e+002
5.470396e+002, 1.412659e+002
5.475217e+002, 1.411479e+002
5.480038e+002, 1.406512e+002
5.484859e+002, 1.403230e+002
5.489680e+002, 1.401752e+002
5.494501e+002, 1.400171e+002
5.499323e+002, 1.398485e+002
5.504144e+002, 1.396308e+002
5.508965e+002, 1.392646e+002
5.513786e+002, 1.388121e+002
5.518607e+002, 1.384611e+002
5.523428e+002, 1.383107e+002
5.528250e+002, 1.383350e+002
5.533071e+002, 1.384910e+002
5.537892e+002, 1.389864e+002
5.542713e+002, 1.392299e+002
5.547534e+002, 1.391046e+002
5.552355e+002, 1.388708e+002
5.557177e+002, 1.385989e+002
5.561998e+002, 1.383442e+002
5.566819e+002, 1.382090e+002
5.571640e+002, 1.382861e+002
5.576461e+002, 1.384516e+002
5.581282e+002, 1.384021e+002
5.586104e+002, 1.380912e+002
5.590925e+002, 1.378702e+002
5.595746e+002, 1.378691e+002
5.600567e+002, 1.379445e+002
5.605388e+002, 1.379999e+002
5.610209e+002, 1.380265e+002
5.615031e+002, 1.379662e+002
5.619852e+002, 1.377028e+002
5.624673e+002, 1.374097e+002
5.629494e+002, 1.372989e+002
5.634315e+002, 1.373324e+002
5.639136e+002, 1.373051e+002
5.643958e+002, 1.371192e+002
5.648779e+002, 1.368729e+002
5.653600e+002, 1.367323e+002
5.658421e+002, 1.367313e+002
5.663242e+002, 1.367534e+002
5.668063e+002, 1.367605e+002
5.672885e+002, 1.368259e+002
5.677706e+002, 1.371069e+002
5.682527e+002, 1.374646e+002
5.687348e+002, 1.375827e+002
5.692169e+002, 1.373005e+002
5.696990e+002, 1.368324e+002
5.701812e+002, 1.366002e+002
5.706633e+002, 1.366627e+002
5.711454e+002, 1.367315e+002
5.716275e+002, 1.368779e+002
5.721096e+002, 1.369263e+002
5.725917e+002, 1.366884e+002
5.730739e+002, 1.362940e+002
5.735560e+002, 1.360507e+002
5.740381e+002, 1.361256e+002
5.745202e+002, 1.363056e+002
5.750023e+002, 1.363240e+002
5.754844e+002, 1.362224e+002
5.759666e+002, 1.362571e+002
5.764487e+002, 1.365287e+002
5.769308e+002, 1.368300e+002
5.774129e+002, 1.369532e+002
5.778950e+002, 1.368888e+002
5.783771e+002, 1.367626e+002
5.788593e+002, 1.365635e+002
5.793414e+002, 1.363171e+002
5.798235e+002, 1.359254e+002
5.803056e+002, 1.355262e+002
5.807877e+002, 1.353479e+002
5.812698e+002, 1.354547e+002
5.817520e+002, 1.357404e+002
5.822341e+002, 1.361542e+002
5.827162e+002, 1.367773e+002
5.831984e+002, 1.367379e+002
5.836805e+002, 1.351602e+002
5.841626e+002, 1.340123e+002
5.846447e+002, 1.341331e+002
5.851268e+002, 1.348311e+002
5.856089e+002, 1.352541e+002
5.860911e+002, 1.351719e+002
5.865732e+002, 1.349903e+002
5.870553e+002, 1.351443e+002
5.875374e+002, 1.355167e+002
5.880195e+002, 1.356148e+002
5.885016e+002, 1.353475e+002
5.889838e+002, 1.350818e+002
5.894659e+002, 1.351374e+002
5.899480e+002, 1.353351e+002
5.904301e+002, 1.351104e+002
5.909122e+002, 1.340813e+002
5.913943e+002, 1.333969e+002
5.918765e+002, 1.336863e+002
5.923586e+002, 1.343248e+002
5.928407e+002, 1.346683e+002
5.933228e+002, 1.346494e+002
5.938049e+002, 1.344971e+002
5.942870e+002, 1.343665e+002
5.947692e+002, 1.342623e+002
5.952513e+002, 1.342128e+002
5.957334e+002, 1.343100e+002
5.962155e+002, 1.342954e+002
5.966976e+002, 1.340621e+002
5.971797e+002, 1.337878e+002
5.976619e+002, 1.335125e+002
5.981440e+002, 1.332915e+002
5.986261e+002, 1.332623e+002
5.991082e+002, 1.335204e+002
5.995903e+002, 1.340085e+002
6.000724e+002, 1.348769e+002
6.005546e+002, 1.361302e+002
6.010367e+002, 1.365019e+002
6.015188e+002, 1.352154e+002
6.020009e+002, 1.334510e+002
6.024830e+002, 1.327932e+002
6.029651e+002, 1.331985e+002
6.034473e+002, 1.333951e+002
6.039294e+002, 1.329918e+002
6.044115e+002, 1.325382e+002
6.048936e+002, 1.323029e+002
6.053757e+002, 1.322824e+002
6.058578e+002, 1.325071e+002
6.063400e+002, 1.329784e+002
6.068221e+002, 1.334769e+002
6.073042e+002, 1.337036e+002
6.077863e+002, 1.336498e+002
6.082684e+002, 1.333840e+002
6.087505e+002, 1.325436e+002
6.092327e+002, 1.319275e+002
6.097148e+002, 1.319398e+002
6.101969e+002, 1.322275e+002
6.106790e+002, 1.323476e+002
6.111611e+002, 1.321787e+002
6.116432e+002, 1.319122e+002
6.121254e+002, 1.316914e+002
6.126075e+002, 1.315073e+002
6.130896e+002, 1.313164e+002
6.135717e+002, 1.311033e+002
6.140538e+002, 1.309705e+002
6.145359e+002, 1.309961e+002
6.150181e+002, 1.311385e+002
6.155002e+002, 1.312552e+002
6.159823e+002, 1.312267e+002
6.164644e+002, 1.314320e+002
6.169465e+002, 1.324547e+002
6.174286e+002, 1.333628e+002
6.179108e+002, 1.330734e+002
6.183929e+002, 1.318590e+002
6.188750e+002, 1.309425e+002
6.193571e+002, 1.311275e+002
6.198392e+002, 1.319225e+002
6.203214e+002, 1.319627e+002
6.208035e+002, 1.309085e+002
6.212856e+002, 1.301477e+002
6.217677e+002, 1.300704e+002
6.222498e+002, 1.300935e+002
6.227319e+002, 1.297842e+002
6.232141e+002, 1.293360e+002
6.236962e+002, 1.293065e+002
6.241783e+002, 1.301302e+002
6.246604e+002, 1.310432e+002
6.251425e+002, 1.312871e+002
6.256246e+002, 1.310006e+002
6.261068e+002, 1.305647e+002
6.265889e+002, 1.300284e+002
6.270710e+002, 1.296641e+002
6.275531e+002, 1.298027e+002
6.280352e+002, 1.304097e+002
6.285173e+002, 1.306687e+002
6.289995e+002, 1.302025e+002
6.294816e+002, 1.299193e+002
6.299637e+002, 1.302261e+002
6.304458e+002, 1.306615e+002
6.309279e+002, 1.307167e+002
6.314100e+002, 1.303758e+002
6.318922e+002, 1.300389e+002
6.323743e+002, 1.300608e+002
6.328564e+002, 1.303215e+002
6.333385e+002, 1.303297e+002
6.338206e+002, 1.299807e+002
6.343027e+002, 1.298174e+002
6.347849e+002, 1.301738e+002
6.352670e+002, 1.306062e+002
6.357491e+002, 1.307064e+002
6.362312e+002, 1.304918e+002
6.367133e+002, 1.301492e+002
6.371954e+002, 1.294348e+002
6.376776e+002, 1.288815e+002
6.381597e+002, 1.292199e+002
6.386418e+002, 1.300391e+002
6.391239e+002, 1.302122e+002
6.396060e+002, 1.293712e+002
6.400881e+002, 1.282652e+002
6.405703e+002, 1.278505e+002
6.410524e+002, 1.281993e+002
6.415345e+002, 1.284028e+002
6.420166e+002, 1.282873e+002
6.424987e+002, 1.282307e+002
6.429808e+002, 1.283858e+002
6.434630e+002, 1.285915e+002
6.439451e+002, 1.286921e+002
6.444272e+002, 1.286561e+002
6.449093e+002, 1.285328e+002
6.453914e+002, 1.283186e+002
6.458735e+002, 1.280539e+002
6.463557e+002, 1.278316e+002
6.468378e+002, 1.276506e+002
6.473199e+002, 1.275261e+002
6.478020e+002, 1.274859e+002
6.482841e+002, 1.274729e+002
6.487662e+002, 1.273798e+002
6.492484e+002, 1.271784e+002
6.497305e+002, 1.270544e+002
6.502126e+002, 1.271385e+002
6.506947e+002, 1.271864e+002
6.511768e+002, 1.270070e+002
6.516589e+002, 1.267113e+002
6.521411e+002, 1.264958e+002
6.526232e+002, 1.264311e+002
6.531053e+002, 1.264626e+002
6.535874e+002, 1.265537e+002
6.540695e+002, 1.267061e+002
6.545516e+002, 1.267197e+002
6.550338e+002, 1.264745e+002
6.555159e+002, 1.263307e+002
6.559980e+002, 1.266375e+002
6.564801e+002, 1.270319e+002
6.569622e+002, 1.270843e+002
6.574443e+002, 1.267265e+002
6.579265e+002, 1.263448e+002
6.584086e+002, 1.260485e+002
6.588907e+002, 1.258578e+002
6.593728e+002, 1.258827e+002
6.598549e+002, 1.260548e+002
6.603370e+002, 1.260631e+002
6.608192e+002, 1.257488e+002
6.613013e+002, 1.253567e+002
6.617834e+002, 1.253598e+002
6.622655e+002, 1.259651e+002
6.627476e+002, 1.261874e+002
6.632297e+002, 1.256208e+002
6.637119e+002, 1.251142e+002
6.641940e+002, 1.249288e+002
6.646761e+002, 1.249533e+002
6.651582e+002, 1.250550e+002
6.656403e+002, 1.251991e+002
6.661224e+002, 1.253353e+002
6.666046e+002, 1.254637e+002
6.670867e+002, 1.255455e+002
6.675688e+002, 1.254635e+002
6.680509e+002, 1.252113e+002
6.685330e+002, 1.249148e+002
6.690151e+002, 1.246014e+002
6.694973e+002, 1.243330e+002
6.699794e+002, 1.242437e+002
6.704615e+002, 1.244092e+002
6.709436e+002, 1.245578e+002
6.714257e+002, 1.247612e+002
6.719078e+002, 1.248694e+002
6.723900e+002, 1.246913e+002
6.728721e+002, 1.243961e+002
6.733542e+002, 1.243055e+002
6.738363e+002, 1.245257e+002
6.743184e+002, 1.247903e+002
6.748005e+002, 1.247584e+002
6.752827e+002, 1.244613e+002
6.757648e+002, 1.242106e+002
6.762469e+002, 1.240124e+002
6.767290e+002, 1.238679e+002
6.772111e+002, 1.237867e+002
6.776932e+002, 1.237562e+002
6.781754e+002, 1.237424e+002
6.786575e+002, 1.237366e+002
6.791396e+002, 1.237949e+002
6.796217e+002, 1.241251e+002
6.801038e+002, 1.243541e+002
6.805859e+002, 1.240907e+002
6.810681e+002, 1.235123e+002
6.815502e+002, 1.230284e+002
6.820323e+002, 1.228047e+002
6.825144e+002, 1.227580e+002
6.829965e+002, 1.228059e+002
6.834786e+002, 1.229587e+002
6.839608e+002, 1.230260e+002
6.844429e+002, 1.229483e+002
6.849250e+002, 1.228910e+002
6.854071e+002, 1.229592e+002
6.858892e+002, 1.230601e+002
6.863713e+002, 1.230841e+002
6.868535e+002, 1.230163e+002
6.873356e+002, 1.229639e+002
6.878177e+002, 1.230407e+002
6.882998e+002, 1.231038e+002
6.887819e+002, 1.229895e+002
6.892640e+002, 1.227307e+002
6.897462e+002, 1.224083e+002
6.902283e+002, 1.220480e+002
6.907104e+002, 1.218032e+002
6.911925e+002, 1.219436e+002
6.916746e+002, 1.225470e+002
6.921567e+002, 1.228279e+002
6.926389e+002, 1.225026e+002
6.931210e+002, 1.222398e+002
6.936031e+002, 1.223611e+002
6.940852e+002, 1.225343e+002
6.945673e+002, 1.223223e+002
6.950494e+002, 1.217080e+002
6.955316e+002, 1.212668e+002
6.960137e+002, 1.215509e+002
6.964958e+002, 1.220616e+002
6.969779e+002, 1.221047e+002
6.974600e+002, 1.217630e+002
6.979421e+002, 1.214593e+002
6.984243e+002, 1.213416e+002
6.989064e+002, 1.213112e+002
6.993885e+002, 1.212575e+002
6.998706e+002, 1.211838e+002
7.003527e+002, 1.210430e+002
7.008348e+002, 1.206320e+002
7.013170e+002, 1.204081e+002
7.017991e+002, 1.206383e+002
7.022812e+002, 1.209673e+002
7.027633e+002, 1.210315e+002
7.032454e+002, 1.208272e+002
7.037275e+002, 1.206553e+002
7.042097e+002, 1.207165e+002
7.046918e+002, 1.209106e+002
7.051739e+002, 1.211260e+002
7.056560e+002, 1.213498e+002
7.061381e+002, 1.214935e+002
7.066202e+002, 1.215355e+002
7.071024e+002, 1.214687e+002
7.075845e+002, 1.212586e+002
7.080666e+002, 1.209073e+002
7.085487e+002, 1.206551e+002
7.090308e+002, 1.204952e+002
7.095129e+002, 1.204363e+002
7.099951e+002, 1.206406e+002
7.104772e+002, 1.208244e+002
7.109593e+002, 1.206678e+002
7.114414e+002, 1.202436e+002
7.119235e+002, 1.199253e+002
7.124056e+002, 1.199365e+002
7.128878e+002, 1.201445e+002
7.133699e+002, 1.204622e+002
7.138520e+002, 1.208387e+002
7.143341e+002, 1.208291e+002
7.148162e+002, 1.202763e+002
7.152983e+002, 1.197208e+002
7.157805e+002, 1.196453e+002
7.162626e+002, 1.199396e+002
7.167447e+002, 1.199645e+002
7.172268e+002, 1.193751e+002
7.177089e+002, 1.190301e+002
7.181910e+002, 1.190900e+002
7.186732e+002, 1.193366e+002
7.191553e+002, 1.198191e+002
7.196374e+002, 1.203395e+002
7.201195e+002, 1.204381e+002
7.206016e+002, 1.198457e+002
7.210837e+002, 1.190691e+002
7.215659e+002, 1.186557e+002
7.220480e+002, 1.186220e+002
7.225301e+002, 1.193271e+002
7.230122e+002, 1.210159e+002
7.234943e+002, 1.220573e+002
7.239764e+002, 1.212158e+002
7.244586e+002, 1.192800e+002
7.249407e+002, 1.182678e+002
7.254228e+002, 1.185563e+002
7.259049e+002, 1.188124e+002
7.263870e+002, 1.189915e+002
7.268691e+002, 1.190990e+002
7.273513e+002, 1.191125e+002
7.278334e+002, 1.190637e+002
7.283155e+002, 1.190095e+002
7.287976e+002, 1.189675e+002
7.292797e+002, 1.188866e+002
7.297618e+002, 1.186678e+002
7.302440e+002, 1.183666e+002
7.307261e+002, 1.181910e+002
7.312082e+002, 1.181517e+002
7.316903e+002, 1.181459e+002
7.321724e+002, 1.181062e+002
7.326545e+002, 1.181299e+002
7.331367e+002, 1.184295e+002
7.336188e+002, 1.191193e+002
7.341009e+002, 1.193862e+002
7.345830e+002, 1.189183e+002
7.350651e+002, 1.184077e+002
7.355472e+002, 1.180235e+002
7.360294e+002, 1.177600e+002
7.365115e+002, 1.176222e+002
7.369936e+002, 1.175934e+002
7.374757e+002, 1.176041e+002
7.379578e+002, 1.175992e+002
7.384399e+002, 1.176038e+002
7.389221e+002, 1.176700e+002
7.394042e+002, 1.177961e+002
7.398863e+002, 1.179732e+002
7.403684e+002, 1.182191e+002
7.408505e+002, 1.184497e+002
7.413326e+002, 1.186470e+002
7.418148e+002, 1.187815e+002
7.422969e+002, 1.185033e+002
7.427790e+002, 1.172020e+002
7.432611e+002, 1.163671e+002
7.437432e+002, 1.164093e+002
7.442253e+002, 1.167778e+002
7.447075e+002, 1.172640e+002
7.451896e+002, 1.177066e+002
7.456717e+002, 1.178148e+002
7.461538e+002, 1.174058e+002
7.466359e+002, 1.168154e+002
7.471180e+002, 1.162947e+002
7.476002e+002, 1.159219e+002
7.480823e+002, 1.161219e+002
7.485644e+002, 1.169732e+002
7.490465e+002, 1.176398e+002
7.495286e+002, 1.175813e+002
7.500107e+002, 1.170951e+002
7.504929e+002, 1.168924e+002
7.509750e+002, 1.171517e+002
7.514571e+002, 1.172523e+002
7.519392e+002, 1.170542e+002
7.524213e+002, 1.168667e+002
7.529034e+002, 1.168210e+002
7.533856e+002, 1.168556e+002
7.538677e+002, 1.168805e+002
7.543498e+002, 1.168749e+002
7.548319e+002, 1.168745e+002
7.553140e+002, 1.169151e+002
7.557961e+002, 1.169728e+002
7.562783e+002, 1.170338e+002
7.567604e+002, 1.170835e+002
7.572425e+002, 1.170034e+002
7.577246e+002, 1.167361e+002
7.582067e+002, 1.165218e+002
7.586888e+002, 1.166899e+002
7.591710e+002, 1.172356e+002
7.596531e+002, 1.174142e+002
7.601352e+002, 1.167661e+002
7.606173e+002, 1.164542e+002
7.610994e+002, 1.169629e+002
7.615815e+002, 1.175783e+002
7.620637e+002, 1.177869e+002
7.625458e+002, 1.176315e+002
7.630279e+002, 1.174159e+002
7.635100e+002, 1.172624e+002
7.639921e+002, 1.170754e+002
7.644742e+002, 1.167017e+002
7.649564e+002, 1.162656e+002
7.654385e+002, 1.160047e+002
7.659206e+002, 1.159369e+002
7.664027e+002, 1.159574e+002
7.668848e+002, 1.160099e+002
7.673669e+002, 1.160625e+002
7.678491e+002, 1.160247e+002
7.683312e+002, 1.158535e+002
7.688133e+002, 1.157517e+002
7.692954e+002, 1.157015e+002
7.697775e+002, 1.157553e+002
7.702596e+002, 1.160784e+002
7.707418e+002, 1.164471e+002
7.712239e+002, 1.165179e+002
7.717060e+002, 1.162209e+002
7.721881e+002, 1.160076e+002
7.726702e+002, 1.160060e+002
7.731523e+002, 1.161926e+002
7.736345e+002, 1.167443e+002
7.741166e+002, 1.174232e+002
7.745987e+002, 1.177084e+002
7.750808e+002, 1.174861e+002
7.755629e+002, 1.171623e+002
7.760450e+002, 1.171394e+002
7.765272e+002, 1.173581e+002
7.770093e+002, 1.175533e+002
7.774914e+002, 1.177353e+002
7.779735e+002, 1.178362e+002
7.784556e+002, 1.178136e+002
7.789377e+002, 1.177468e+002
7.794199e+002, 1.176506e+002
7.799020e+002, 1.175591e+002
7.803841e+002, 1.176387e+002
7.808662e+002, 1.180825e+002
7.813483e+002, 1.184185e+002
7.818304e+002, 1.184419e+002
7.823126e+002, 1.183920e+002
7.827947e+002, 1.184063e+002
7.832768e+002, 1.185245e+002
7.837589e+002, 1.188283e+002
7.842410e+002, 1.193651e+002
7.847231e+002, 1.198797e+002
7.852053e+002, 1.199409e+002
7.856874e+002, 1.197082e+002
7.861695e+002, 1.199165e+002
7.866516e+002, 1.206281e+002
7.871337e+002, 1.211154e+002
7.876158e+002, 1.209883e+002
7.880980e+002, 1.206447e+002
7.885801e+002, 1.207153e+002
7.890622e+002, 1.213044e+002
7.895443e+002, 1.216289e+002
7.900264e+002, 1.213163e+002
7.905085e+002, 1.212249e+002
7.909907e+002, 1.216694e+002
7.914728e+002, 1.223219e+002
7.919549e+002, 1.229484e+002
7.924370e+002, 1.234942e+002
7.929191e+002, 1.239167e+002
7.934012e+002, 1.241372e+002
7.938834e+002, 1.243061e+002
7.943655e+002, 1.245938e+002
7.948476e+002, 1.249326e+002
7.953297e+002, 1.250766e+002
7.958118e+002, 1.250434e+002
7.962939e+002, 1.253471e+002
7.967761e+002, 1.263861e+002
7.972582e+002, 1.277110e+002
7.977403e+002, 1.281298e+002
7.982224e+002, 1.273027e+002
7.987045e+002, 1.270368e+002
7.991866e+002, 1.276128e+002
7.996688e+002, 1.283687e+002
8.001509e+002, 1.290813e+002
8.006330e+002, 1.297743e+002
8.011151e+002, 1.305518e+002
8.015972e+002, 1.314465e+002
8.020793e+002, 1.320037e+002
8.025615e+002, 1.318060e+002
8.030436e+002, 1.315396e+002
8.035257e+002, 1.316654e+002
8.040078e+002, 1.319816e+002
8.044899e+002, 1.322433e+002
8.049720e+002, 1.323591e+002
8.054542e+002, 1.322159e+002
8.059363e+002, 1.316660e+002
8.064184e+002, 1.309059e+002
8.069005e+002, 1.304094e+002
8.073826e+002, 1.301595e+002
8.078647e+002, 1.297608e+002
8.083469e+002, 1.291159e+002
8.088290e+002, 1.284590e+002
8.093111e+002, 1.279373e+002
8.097932e+002, 1.275331e+002
8.102753e+002, 1.272133e+002
8.107574e+002, 1.271620e+002
8.112396e+002, 1.268028e+002
8.117217e+002, 1.257209e+002
8.122038e+002, 1.248008e+002
8.126859e+002, 1.246127e+002
8.131680e+002, 1.247164e+002
8.136501e+002, 1.244879e+002
8.141323e+002, 1.238165e+002
8.146144e+002, 1.231011e+002
8.150965e+002, 1.227132e+002
8.155786e+002, 1.223115e+002
8.160607e+002, 1.212558e+002
8.165428e+002, 1.198915e+002
8.170250e+002, 1.192250e+002
8.175071e+002, 1.194455e+002
8.179892e+002, 1.198532e+002
8.184713e+002, 1.198988e+002
8.189534e+002, 1.195967e+002
8.194355e+002, 1.189066e+002
8.199177e+002, 1.176539e+002
8.203998e+002, 1.168290e+002
8.208819e+002, 1.166934e+002
8.213640e+002, 1.167359e+002
8.218461e+002, 1.167040e+002
8.223282e+002, 1.166261e+002
8.228104e+002, 1.165860e+002
8.232925e+002, 1.166449e+002
8.237746e+002, 1.165131e+002
8.242567e+002, 1.158531e+002
8.247388e+002, 1.152858e+002
8.252209e+002, 1.153655e+002
8.257031e+002, 1.156732e+002
8.261852e+002, 1.155176e+002
8.266673e+002, 1.148188e+002
8.271494e+002, 1.141539e+002
8.276315e+002, 1.139938e+002
8.281136e+002, 1.141007e+002
8.285958e+002, 1.140918e+002
8.290779e+002, 1.139878e+002
8.295600e+002, 1.138909e+002
8.300421e+002, 1.138212e+002
8.305242e+002, 1.137262e+002
8.310063e+002, 1.135399e+002
8.314885e+002, 1.133457e+002
8.319706e+002, 1.134565e+002
8.324527e+002, 1.141828e+002
8.329348e+002, 1.143773e+002
8.334169e+002, 1.135990e+002
8.338990e+002, 1.128313e+002
8.343812e+002, 1.123826e+002
8.348633e+002, 1.121982e+002
8.353454e+002, 1.122891e+002
8.358275e+002, 1.126635e+002
8.363096e+002, 1.129147e+002
8.367917e+002, 1.128223e+002
8.372739e+002, 1.126606e+002
8.377560e+002, 1.125945e+002
8.382381e+002, 1.125693e+002
8.387202e+002, 1.125337e+002
8.392023e+002, 1.124565e+002
8.396844e+002, 1.122483e+002
8.401666e+002, 1.118129e+002
8.406487e+002, 1.113440e+002
8.411308e+002, 1.111834e+002
8.416129e+002, 1.113048e+002
8.420950e+002, 1.116035e+002
8.425771e+002, 1.120978e+002
8.430593e+002, 1.123591e+002
8.435414e+002, 1.120890e+002
8.440235e+002, 1.115913e+002
8.445056e+002, 1.114439e+002
8.449877e+002, 1.117504e+002
8.454698e+002, 1.118863e+002
8.459520e+002, 1.117647e+002
8.464341e+002, 1.115831e+002
8.469162e+002, 1.113175e+002
8.473983e+002, 1.110649e+002
8.478804e+002, 1.108954e+002
8.483625e+002, 1.108154e+002
8.488447e+002, 1.108204e+002
8.493268e+002, 1.109456e+002
8.498089e+002, 1.110983e+002
8.502910e+002, 1.113290e+002
8.507731e+002, 1.114911e+002
8.512552e+002, 1.113515e+002
8.517374e+002, 1.109781e+002
8.522195e+002, 1.105871e+002
8.527016e+002, 1.102778e+002
8.531837e+002, 1.101482e+002
8.536658e+002, 1.105029e+002
8.541479e+002, 1.111699e+002
8.546301e+002, 1.112646e+002
8.551122e+002, 1.107651e+002
8.555943e+002, 1.102306e+002
8.560764e+002, 1.098118e+002
8.565585e+002, 1.095650e+002
8.570406e+002, 1.095677e+002
8.575228e+002, 1.098037e+002
8.580049e+002, 1.101017e+002
8.584870e+002, 1.106839e+002
8.589691e+002, 1.109432e+002
8.594512e+002, 1.106099e+002
8.599333e+002, 1.101772e+002
8.604155e+002, 1.097662e+002
8.608976e+002, 1.094785e+002
8.613797e+002, 1.095730e+002
8.618618e+002, 1.102079e+002
8.623439e+002, 1.105409e+002
8.628260e+002, 1.098009e+002
8.633082e+002, 1.090248e+002
8.637903e+002, 1.092123e+002
8.642724e+002, 1.098832e+002
8.647545e+002, 1.101016e+002
8.652366e+002, 1.097185e+002
8.657188e+002, 1.093546e+002
8.662009e+002, 1.095312e+002
8.666830e+002, 1.099487e+002
8.671651e+002, 1.100477e+002
8.676472e+002, 1.098601e+002
8.681293e+002, 1.094703e+002
8.686115e+002, 1.088669e+002
8.690936e+002, 1.086574e+002
8.695757e+002, 1.093123e+002
8.700578e+002, 1.103105e+002
8.705399e+002, 1.105415e+002
8.710220e+002, 1.097982e+002
8.715042e+002, 1.093233e+002
8.719863e+002, 1.092497e+002
8.724684e+002, 1.092351e+002
8.729505e+002, 1.092131e+002
8.734326e+002, 1.091818e+002
8.739147e+002, 1.091132e+002
8.743969e+002, 1.090243e+002
8.748790e+002, 1.090203e+002
8.753611e+002, 1.092284e+002
8.758432e+002, 1.093746e+002
8.763253e+002, 1.092493e+002
8.768074e+002, 1.091192e+002
8.772896e+002, 1.092984e+002
8.777717e+002, 1.096551e+002
8.782538e+002, 1.098183e+002
8.787359e+002, 1.096547e+002
8.792180e+002, 1.094615e+002
8.797001e+002, 1.095621e+002
8.801823e+002, 1.097928e+002
8.806644e+002, 1.097822e+002
8.811465e+002, 1.096116e+002
8.816286e+002, 1.097004e+002
8.821107e+002, 1.101499e+002
8.825928e+002, 1.106122e+002
8.830750e+002, 1.107717e+002
8.835571e+002, 1.107238e+002
8.840392e+002, 1.108201e+002
8.845213e+002, 1.111148e+002
8.850034e+002, 1.112158e+002
8.854855e+002, 1.110061e+002
8.859677e+002, 1.107922e+002
8.864498e+002, 1.107224e+002
8.869319e+002, 1.107484e+002
8.874140e+002, 1.108075e+002
8.878961e+002, 1.109147e+002
8.883782e+002, 1.109588e+002
8.888604e+002, 1.107724e+002
8.893425e+002, 1.107372e+002
8.898246e+002, 1.111819e+002
8.903067e+002, 1.116436e+002
8.907888e+002, 1.116586e+002
8.912709e+002, 1.113243e+002
8.917531e+002, 1.110818e+002
8.922352e+002, 1.111354e+002
8.927173e+002, 1.111440e+002
8.931994e+002, 1.108378e+002
8.936815e+002, 1.103889e+002
8.941636e+002, 1.099606e+002
8.946458e+002, 1.095686e+002
8.951279e+002, 1.092146e+002
8.956100e+002, 1.088969e+002
8.960921e+002, 1.086161e+002
8.965742e+002, 1.083705e+002
8.970563e+002, 1.081610e+002
8.975385e+002, 1.079804e+002
8.980206e+002, 1.078308e+002
8.985027e+002, 1.078064e+002
8.989848e+002, 1.079505e+002
8.994669e+002, 1.078954e+002
8.999490e+002, 1.073474e+002
9.004312e+002, 1.065467e+002
9.009133e+002, 1.060362e+002
9.013954e+002, 1.058551e+002
9.018775e+002, 1.058023e+002
9.023596e+002, 1.060310e+002
9.028417e+002, 1.061283e+002
9.033239e+002, 1.059800e+002
9.038060e+002, 1.056325e+002
9.042881e+002, 1.050155e+002
9.047702e+002, 1.041993e+002
9.052523e+002, 1.036281e+002
9.057344e+002, 1.035563e+002
9.062166e+002, 1.034354e+002
9.066987e+002, 1.029653e+002
9.071808e+002, 1.025612e+002
9.076629e+002, 1.026251e+002
9.081450e+002, 1.029420e+002
9.086271e+002, 1.031243e+002
9.091093e+002, 1.030649e+002
9.095914e+002, 1.028225e+002
9.100735e+002, 1.022686e+002
9.105556e+002, 1.016946e+002
9.110377e+002, 1.014869e+002
9.115198e+002, 1.014850e+002
9.120020e+002, 1.013270e+002
9.124841e+002, 1.009846e+002
9.129662e+002, 1.007132e+002
9.134483e+002, 1.006813e+002
9.139304e+002, 1.007550e+002
9.144125e+002, 1.006941e+002
9.148947e+002, 1.005220e+002
9.153768e+002, 1.004322e+002
9.158589e+002, 1.004365e+002
9.163410e+002, 1.004584e+002
9.168231e+002, 1.004854e+002
9.173052e+002, 1.004628e+002
9.177874e+002, 1.003395e+002
9.182695e+002, 1.001109e+002
9.187516e+002, 9.968432e+001
9.192337e+002, 9.874138e+001
9.197158e+002, 9.839071e+001
9.201979e+002, 9.925236e+001
9.206801e+002, 1.000569e+002
9.211622e+002, 1.000423e+002
9.216443e+002, 9.955197e+001
9.221264e+002, 9.904249e+001
9.226085e+002, 9.848685e+001
9.230906e+002, 9.820876e+001
9.235728e+002, 9.845829e+001
9.240549e+002, 9.873538e+001
9.245370e+002, 9.887114e+001
9.250191e+002, 9.893633e+001
9.255012e+002, 9.900449e+001
9.259833e+002, 9.906858e+001
9.264655e+002, 9.907710e+001
9.269476e+002, 9.900114e+001
9.274297e+002, 9.890481e+001
9.279118e+002, 9.885506e+001
9.283939e+002, 9.879018e+001
9.288760e+002, 9.855357e+001
9.293582e+002, 9.826448e+001
9.298403e+002, 9.827696e+001
9.303224e+002, 9.862598e+001
9.308045e+002, 9.885294e+001
9.312866e+002, 9.851992e+001
9.317687e+002, 9.798877e+001
9.322509e+002, 9.803048e+001
9.327330e+002, 9.849087e+001
9.332151e+002, 9.864440e+001
9.336972e+002, 9.842140e+001
9.341793e+002, 9.814810e+001
9.346614e+002, 9.797945e+001
9.351436e+002, 9.788103e+001
9.356257e+002, 9.780265e+001
9.361078e+002, 9.774614e+001
9.365899e+002, 9.777310e+001
9.370720e+002, 9.793529e+001
9.375541e+002, 9.796219e+001
9.380363e+002, 9.776623e+001
9.385184e+002, 9.748179e+001
9.390005e+002, 9.714211e+001
9.394826e+002, 9.681440e+001
9.399647e+002, 9.670045e+001
9.404468e+002, 9.690668e+001
9.409290e+002, 9.703468e+001
9.414111e+002, 9.711085e+001
9.418932e+002, 9.707826e+001
9.423753e+002, 9.675151e+001
9.428574e+002, 9.643736e+001
9.433395e+002, 9.656070e+001
9.438217e+002, 9.699334e+001
9.443038e+002, 9.703588e+001
9.447859e+002, 9.622377e+001
9.452680e+002, 9.560974e+001
9.457501e+002, 9.565655e+001
9.462322e+002, 9.595802e+001
9.467144e+002, 9.638679e+001
9.471965e+002, 9.677670e+001
9.476786e+002, 9.689283e+001
9.481607e+002, 9.670097e+001
9.486428e+002, 9.639124e+001
9.491249e+002, 9.598440e+001
9.496071e+002, 9.564380e+001
9.500892e+002, 9.565959e+001
9.505713e+002, 9.579865e+001
9.510534e+002, 9.559116e+001
9.515355e+002, 9.509628e+001
9.520176e+002, 9.473730e+001
9.524998e+002, 9.470432e+001
9.529819e+002, 9.487878e+001
9.534640e+002, 9.523365e+001
9.539461e+002, 9.564673e+001
9.544282e+002, 9.566344e+001
9.549103e+002, 9.534741e+001
9.553925e+002, 9.523621e+001
9.558746e+002, 9.544302e+001
9.563567e+002, 9.561074e+001
9.568388e+002, 9.548250e+001
9.573209e+002, 9.518575e+001
9.578030e+002, 9.498348e+001
9.582852e+002, 9.487802e+001
9.587673e+002, 9.486088e+001
9.592494e+002, 9.497453e+001
9.597315e+002, 9.500156e+001
9.602136e+002, 9.485076e+001
9.606957e+002, 9.463645e+001
9.611779e+002, 9.443263e+001
9.616600e+002, 9.426286e+001
9.621421e+002, 9.426833e+001
9.626242e+002, 9.464323e+001
9.631063e+002, 9.480676e+001
9.635884e+002, 9.459786e+001
9.640706e+002, 9.437354e+001
9.645527e+002, 9.426971e+001
9.650348e+002, 9.421571e+001
9.655169e+002, 9.408749e+001
9.659990e+002, 9.390114e+001
9.664811e+002, 9.391257e+001
9.669633e+002, 9.437051e+001
9.674454e+002, 9.472518e+001
9.679275e+002, 9.489680e+001
9.684096e+002, 9.488481e+001
9.688917e+002, 9.448574e+001
9.693738e+002, 9.398940e+001
9.698560e+002, 9.393697e+001
9.703381e+002, 9.441363e+001
9.708202e+002, 9.476635e+001
9.713023e+002, 9.453719e+001
9.717844e+002, 9.425172e+001
9.722665e+002, 9.431348e+001
9.727487e+002, 9.447475e+001
9.732308e+002, 9.444124e+001
9.737129e+002, 9.422919e+001
9.741950e+002, 9.392181e+001
9.746771e+002, 9.355337e+001
9.751592e+002, 9.341814e+001
9.756414e+002, 9.415414e+001
9.761235e+002, 9.500703e+001
9.766056e+002, 9.467071e+001
9.770877e+002, 9.364396e+001
9.775698e+002, 9.314868e+001
9.780519e+002, 9.333860e+001
9.785341e+002, 9.366359e+001
9.790162e+002, 9.380457e+001
9.794983e+002, 9.385108e+001
9.799804e+002, 9.393095e+001
9.804625e+002, 9.402790e+001
9.809446e+002, 9.408640e+001
9.814268e+002, 9.410368e+001
9.819089e+002, 9.403080e+001
9.823910e+002, 9.385361e+001
9.828731e+002, 9.377856e+001
9.833552e+002, 9.400325e+001
9.838373e+002, 9.434879e+001
9.843195e+002, 9.430861e+001
9.848016e+002, 9.385557e+001
9.852837e+002, 9.367290e+001
9.857658e+002, 9.384949e+001
9.862479e+002, 9.388704e+001
9.867300e+002, 9.356020e+001
9.872122e+002, 9.319419e+001
9.876943e+002, 9.313710e+001
9.881764e+002, 9.331525e+001
9.886585e+002, 9.330244e+001
9.891406e+002, 9.295053e+001
9.896227e+002, 9.285495e+001
9.901049e+002, 9.321725e+001
9.905870e+002, 9.350583e+001
9.910691e+002, 9.342576e+001
9.915512e+002, 9.324165e+001
9.920333e+002, 9.329826e+001
9.925154e+002, 9.358504e+001
9.929976e+002, 9.374763e+001
9.934797e+002, 9.371875e+001
9.939618e+002, 9.366933e+001
9.944439e+002, 9.365438e+001
9.949260e+002, 9.356875e+001
9.954081e+002, 9.333266e+001
9.958903e+002, 9.301280e+001
9.963724e+002, 9.268102e+001
9.968545e+002, 9.234445e+001
9.973366e+002, 9.204788e+001
9.978187e+002, 9.173513e+001
9.983008e+002, 9.155200e+001
9.987830e+002, 9.163787e+001
9.992651e+002, 9.177039e+001
9.997472e+002, 9.184652e+001
1.000229e+003, 9.183141e+001
1.000711e+003, 9.158646e+001
1.001194e+003, 9.110265e+001
1.001676e+003, 9.093899e+001
1.002158e+003, 9.167308e+001
1.002640e+003, 9.239445e+001
1.003122e+003, 9.255983e+001
1.003604e+003, 9.246333e+001
1.004086e+003, 9.238660e+001
1.004568e+003, 9.232414e+001
1.005050e+003, 9.212589e+001
1.005533e+003, 9.175089e+001
1.006015e+003, 9.148217e+001
1.006497e+003, 9.151187e+001
1.006979e+003, 9.174343e+001
1.007461e+003, 9.237942e+001
1.007943e+003, 9.299430e+001
1.008425e+003, 9.272993e+001
1.008907e+003, 9.178117e+001
1.009390e+003, 9.110466e+001
1.009872e+003, 9.110498e+001
1.010354e+003, 9.136900e+001
1.010836e+003, 9.154937e+001
1.011318e+003, 9.169633e+001
1.011800e+003, 9.192201e+001
1.012282e+003, 9.217240e+001
1.012764e+003, 9.234227e+001
1.013246e+003, 9.239880e+001
1.013729e+003, 9.227736e+001
1.014211e+003, 9.193961e+001
1.014693e+003, 9.152280e+001
1.015175e+003, 9.108024e+001
1.015657e+003, 9.073391e+001
1.016139e+003, 9.102456e+001
1.016621e+003, 9.178321e+001
1.017103e+003, 9.209081e+001
1.017586e+003, 9.179690e+001
1.018068e+003, 9.145818e+001
1.018550e+003, 9.142011e+001
1.019032e+003, 9.151524e+001
1.019514e+003, 9.148011e+001
1.019996e+003, 9.132837e+001
1.020478e+003, 9.112135e+001
1.020960e+003, 9.086317e+001
1.021442e+003, 9.077116e+001
1.021925e+003, 9.091029e+001
1.022407e+003, 9.093452e+001
1.022889e+003, 9.057397e+001
1.023371e+003, 9.006241e+001
1.023853e+003, 8.986244e+001
1.024335e+003, 8.997633e+001
1.024817e+003, 9.023531e+001
1.025299e+003, 9.066997e+001
1.025781e+003, 9.103809e+001
1.026264e+003, 9.131786e+001
1.026746e+003, 9.132873e+001
1.027228e+003, 9.084663e+001
1.027710e+003, 9.016635e+001
1.028192e+003, 9.004829e+001
1.028674e+003, 9.060815e+001
1.029156e+003, 9.078792e+001
1.029638e+003, 9.047160e+001
1.030120e+003, 9.015162e+001
1.030603e+003, 8.991547e+001
1.031085e+003, 8.978902e+001
1.031567e+003, 8.981196e+001
1.032049e+003, 8.994402e+001
1.032531e+003, 9.008035e+001
1.033013e+003, 9.021815e+001
1.033495e+003, 9.039656e+001
1.033977e+003, 9.076325e+001
1.034460e+003, 9.083668e+001
1.034942e+003, 9.028544e+001
1.035424e+003, 8.971336e+001
1.035906e+003, 8.964021e+001
1.036388e+003, 8.988970e+001
1.036870e+003, 8.993140e+001
1.037352e+003, 8.961401e+001
1.037834e+003, 8.962609e+001
1.038317e+003, 9.034395e+001
1.038799e+003, 9.081104e+001
1.039281e+003, 9.064542e+001
1.039763e+003, 9.032128e+001
1.040245e+003, 9.017873e+001
1.040727e+003, 9.015804e+001
1.041209e+003, 9.009342e+001
1.041691e+003, 8.999315e+001
1.042173e+003, 8.982269e+001
1.042656e+003, 8.933151e+001
1.043138e+003, 8.910373e+001
1.043620e+003, 8.952846e+001
1.044102e+003, 9.003800e+001
1.044584e+003, 9.023868e+001
1.045066e+003, 9.018575e+001
1.045548e+003, 9.001991e+001
1.046030e+003, 8.970400e+001
1.046512e+003, 8.946261e+001
1.046995e+003, 8.928611e+001
1.047477e+003, 8.923174e+001
1.047959e+003, 8.949599e+001
1.048441e+003, 8.972610e+001
1.048923e+003, 8.955753e+001
1.049405e+003, 8.915688e+001
1.049887e+003, 8.893745e+001
1.050369e+003, 8.896645e+001
1.050852e+003, 8.908231e+001
1.051334e+003, 8.946833e+001
1.051816e+003, 8.965651e+001
1.052298e+003, 8.925060e+001
1.052780e+003, 8.879784e+001
1.053262e+003, 8.881157e+001
1.053744e+003, 8.911028e+001
1.054226e+003, 8.921265e+001
1.054708e+003, 8.901243e+001
1.055191e+003, 8.886942e+001
1.055673e+003, 8.901386e+001
1.056155e+003, 8.905748e+001
1.056637e+003, 8.866420e+001
1.057119e+003, 8.827676e+001
1.057601e+003, 8.827966e+001
1.058083e+003, 8.856926e+001
1.058565e+003, 8.894771e+001
1.059047e+003, 8.939387e+001
1.059530e+003, 8.958265e+001
1.060012e+003, 8.929632e+001
1.060494e+003, 8.887074e+001
1.060976e+003, 8.822834e+001
1.061458e+003, 8.770899e+001
1.061940e+003, 8.766837e+001
1.062422e+003, 8.792993e+001
1.062904e+003, 8.815260e+001
1.063387e+003, 8.826881e+001
1.063869e+003, 8.829077e+001
1.064351e+003, 8.811671e+001
1.064833e+003, 8.798818e+001
1.065315e+003, 8.808975e+001
1.065797e+003, 8.821037e+001
1.066279e+003, 8.816638e+001
1.066761e+003, 8.801460e+001
1.067244e+003, 8.782942e+001
1.067726e+003, 8.764092e+001
1.068208e+003, 8.761948e+001
1.068690e+003, 8.811057e+001
1.069172e+003, 8.841148e+001
1.069654e+003, 8.802844e+001
1.070136e+003, 8.749468e+001
1.070618e+003, 8.715810e+001
1.071100e+003, 8.701382e+001
1.071583e+003, 8.707737e+001
1.072065e+003, 8.730454e+001
1.072547e+003, 8.738166e+001
1.073029e+003, 8.700388e+001
1.073511e+003, 8.676081e+001
1.073993e+003, 8.709669e+001
1.074475e+003, 8.750940e+001
1.074957e+003, 8.768550e+001
1.075439e+003, 8.764149e+001
1.075922e+003, 8.731236e+001
1.076404e+003, 8.679113e+001
1.076886e+003, 8.656191e+001
1.077368e+003, 8.692220e+001
1.077850e+003, 8.733152e+001
1.078332e+003, 8.762901e+001
1.078814e+003, 8.779015e+001
1.079297e+003, 8.770663e+001
1.079779e+003, 8.753242e+001
1.080261e+003, 8.748083e+001
1.080743e+003, 8.754070e+001
1.081225e+003, 8.753177e+001
1.081707e+003, 8.735579e+001
1.082189e+003, 8.723499e+001
1.082671e+003, 8.736063e+001
1.083153e+003, 8.747385e+001
1.083635e+003, 8.744813e+001
1.084118e+003, 8.728719e+001
1.084600e+003, 8.685667e+001
1.085082e+003, 8.631104e+001
1.085564e+003, 8.615789e+001
1.086046e+003, 8.662896e+001
1.086528e+003, 8.700288e+001
1.087010e+003, 8.684585e+001
1.087492e+003, 8.666341e+001
1.087975e+003, 8.679104e+001
1.088457e+003, 8.698903e+001
1.088939e+003, 8.703442e+001
1.089421e+003, 8.693070e+001
1.089903e+003, 8.671701e+001
1.090385e+003, 8.638655e+001
1.090867e+003, 8.616476e+001
1.091349e+003, 8.631242e+001
1.091832e+003, 8.636342e+001
1.092314e+003, 8.595653e+001
1.092796e+003, 8.549727e+001
1.093278e+003, 8.529760e+001
1.093760e+003, 8.532282e+001
1.094242e+003, 8.549575e+001
1.094724e+003, 8.579709e+001
1.095206e+003, 8.604011e+001
1.095688e+003, 8.620508e+001
1.096171e+003, 8.624500e+001
1.096653e+003, 8.599857e+001
1.097135e+003, 8.577081e+001
1.097617e+003, 8.579773e+001
1.098099e+003, 8.596545e+001
1.098581e+003, 8.611800e+001
1.099063e+003, 8.622951e+001
1.099545e+003, 8.627466e+001
1.100027e+003, 8.626529e+001
1.100510e+003, 8.615958e+001
1.100992e+003, 8.580501e+001
1.101474e+003, 8.551326e+001
1.101956e+003, 8.545628e+001
1.102438e+003, 8.555096e+001
1.102920e+003, 8.576267e+001
1.103402e+003, 8.604053e+001
1.103884e+003, 8.620562e+001
1.104367e+003, 8.627847e+001
1.104849e+003, 8.611593e+001
1.105331e+003, 8.538964e+001
1.105813e+003, 8.480748e+001
1.106295e+003, 8.471912e+001
1.106777e+003, 8.482487e+001
1.107259e+003, 8.488369e+001
1.107741e+003, 8.490826e+001
1.108224e+003, 8.497726e+001
1.108706e+003, 8.510955e+001
1.109188e+003, 8.523331e+001
1.109670e+003, 8.548531e+001
1.110152e+003, 8.552905e+001
1.110634e+003, 8.498753e+001
1.111116e+003, 8.451750e+001
1.111598e+003, 8.472118e+001
1.112080e+003, 8.523011e+001
1.112563e+003, 8.527763e+001
1.113045e+003, 8.477196e+001
1.113527e+003, 8.458223e+001
1.114009e+003, 8.502911e+001
1.114491e+003, 8.526664e+001
1.114973e+003, 8.504572e+001
1.115455e+003, 8.483028e+001
1.115937e+003, 8.488879e+001
1.116419e+003, 8.502914e+001
1.116902e+003, 8.502467e+001
1.117384e+003, 8.487804e+001
1.117866e+003, 8.458774e+001
1.118348e+003, 8.389059e+001
1.118830e+003, 8.370354e+001
1.119312e+003, 8.442789e+001
1.119794e+003, 8.490718e+001
1.120276e+003, 8.460329e+001
1.120759e+003, 8.410915e+001
1.121241e+003, 8.397496e+001
1.121723e+003, 8.410021e+001
1.122205e+003, 8.413035e+001
1.122687e+003, 8.405398e+001
1.123169e+003, 8.390391e+001
1.123651e+003, 8.359581e+001
1.124133e+003, 8.351724e+001
1.124615e+003, 8.383788e+001
1.125098e+003, 8.420028e+001
1.125580e+003, 8.439597e+001
1.126062e+003, 8.439339e+001
1.126544e+003, 8.406421e+001
1.127026e+003, 8.342410e+001
1.127508e+003, 8.322609e+001
1.127990e+003, 8.353967e+001
1.128472e+003, 8.365071e+001
1.128954e+003, 8.339745e+001
1.129437e+003, 8.338745e+001
1.129919e+003, 8.396823e+001
1.130401e+003, 8.466211e+001
1.130883e+003, 8.488054e+001
1.131365e+003, 8.472372e+001
1.131847e+003, 8.452748e+001
1.132329e+003, 8.430615e+001
1.132811e+003, 8.444117e+001
1.133294e+003, 8.494614e+001
1.133776e+003, 8.524696e+001
1.134258e+003, 8.515208e+001
1.134740e+003, 8.492725e+001
1.135222e+003, 8.478611e+001
1.135704e+003, 8.469297e+001
1.136186e+003, 8.465993e+001
1.136668e+003, 8.460908e+001
1.137151e+003, 8.402520e+001
1.137633e+003, 8.309560e+001
1.138115e+003, 8.293613e+001
1.138597e+003, 8.365010e+001
1.139079e+003, 8.409858e+001
1.139561e+003, 8.364167e+001
1.140043e+003, 8.300227e+001
1.140525e+003, 8.311234e+001
1.141007e+003, 8.358266e+001
1.141490e+003, 8.366092e+001
1.141972e+003, 8.351575e+001
1.142454e+003, 8.350369e+001
1.142936e+003, 8.364842e+001
1.143418e+003, 8.391207e+001
1.143900e+003, 8.424826e+001
1.144382e+003, 8.435706e+001
1.144864e+003, 8.380531e+001
1.145346e+003, 8.333736e+001
1.145829e+003, 8.381963e+001
1.146311e+003, 8.479826e+001
1.146793e+003, 8.617278e+001
1.147275e+003, 8.738927e+001
1.147757e+003, 8.728807e+001
1.148239e+003, 8.595389e+001
1.148721e+003, 8.469812e+001
1.149203e+003, 8.408508e+001
1.149686e+003, 8.373493e+001
1.150168e+003, 8.344229e+001
1.150650e+003, 8.328594e+001
1.151132e+003, 8.341811e+001
1.151614e+003, 8.364503e+001
1.152096e+003, 8.378491e+001
1.152578e+003, 8.382118e+001
1.153060e+003, 8.374162e+001
1.153542e+003, 8.353718e+001
1.154025e+003, 8.344572e+001
1.154507e+003, 8.365810e+001
1.154989e+003, 8.384402e+001
1.155471e+003, 8.392677e+001
1.155953e+003, 8.390366e+001
1.156435e+003, 8.363863e+001
1.156917e+003, 8.334910e+001
1.157399e+003, 8.336149e+001
1.157881e+003, 8.366012e+001
1.158364e+003, 8.391606e+001
1.158846e+003, 8.414221e+001
1.159328e+003, 8.423850e+001
1.159810e+003, 8.413342e+001
1.160292e+003, 8.398299e+001
1.160774e+003, 8.379965e+001
1.161256e+003, 8.362392e+001
1.161738e+003, 8.349769e+001
1.162221e+003, 8.339574e+001
1.162703e+003, 8.322478e+001
1.163185e+003, 8.293974e+001
1.163667e+003, 8.300435e+001
1.164149e+003, 8.364915e+001
1.164631e+003, 8.392870e+001
1.165113e+003, 8.354626e+001
1.165595e+003, 8.326588e+001
1.166078e+003, 8.353294e+001
1.166560e+003, 8.391751e+001
1.167042e+003, 8.387028e+001
1.167524e+003, 8.349204e+001
1.168006e+003, 8.322595e+001
1.168488e+003, 8.306768e+001
1.168970e+003, 8.315144e+001
1.169452e+003, 8.349448e+001
1.169934e+003, 8.373933e+001
1.170417e+003, 8.378558e+001
1.170899e+003, 8.360179e+001
1.171381e+003, 8.313335e+001
1.171863e+003, 8.262603e+001
1.172345e+003, 8.249498e+001
1.172827e+003, 8.266853e+001
1.173309e+003, 8.297210e+001
1.173791e+003, 8.335226e+001
1.174273e+003, 8.365673e+001
1.174756e+003, 8.382932e+001
1.175238e+003, 8.363424e+001
1.175720e+003, 8.301934e+001
1.176202e+003, 8.262688e+001
1.176684e+003, 8.315431e+001
1.177166e+003, 8.389497e+001
1.177648e+003, 8.403564e+001
1.178130e+003, 8.376865e+001
1.178613e+003, 8.313029e+001
1.179095e+003, 8.241818e+001
1.179577e+003, 8.223121e+001
1.180059e+003, 8.255645e+001
1.180541e+003, 8.285771e+001
1.181023e+003, 8.291717e+001
1.181505e+003, 8.284623e+001
1.181987e+003, 8.266136e+001
1.182469e+003, 8.242995e+001
1.182952e+003, 8.207578e+001
1.183434e+003, 8.180312e+001
1.183916e+003, 8.190770e+001
1.184398e+003, 8.220776e+001
1.184880e+003, 8.231113e+001
1.185362e+003, 8.216695e+001
1.185844e+003, 8.207715e+001
1.186326e+003, 8.205569e+001
1.186808e+003, 8.217924e+001
1.187291e+003, 8.258321e+001
1.187773e+003, 8.298432e+001
1.188255e+003, 8.334911e+001
1.188737e+003, 8.357668e+001
1.189219e+003, 8.354560e+001
1.189701e+003, 8.331390e+001
1.190183e+003, 8.303421e+001
1.190665e+003, 8.265129e+001
1.191148e+003, 8.254135e+001
1.191630e+003, 8.291002e+001
1.192112e+003, 8.291572e+001
1.192594e+003, 8.221168e+001
1.193076e+003, 8.179733e+001
1.193558e+003, 8.231729e+001
1.194040e+003, 8.299959e+001
1.194522e+003, 8.282231e+001
1.195005e+003, 8.201657e+001
1.195487e+003, 8.147582e+001
1.195969e+003, 8.120452e+001
1.196451e+003, 8.139514e+001
1.196933e+003, 8.202641e+001
1.197415e+003, 8.243322e+001
1.197897e+003, 8.244886e+001
1.198379e+003, 8.229411e+001
1.198861e+003, 8.209270e+001
1.199344e+003, 8.199599e+001
1.199826e+003, 8.243481e+001
1.200308e+003, 8.297152e+001
1.200790e+003, 8.247838e+001
1.201272e+003, 8.146861e+001
1.201754e+003, 8.107570e+001
1.202236e+003, 8.125845e+001
1.202718e+003, 8.145193e+001
1.203200e+003, 8.150803e+001
1.203683e+003, 8.172352e+001
1.204165e+003, 8.241450e+001
1.204647e+003, 8.293022e+001
1.205129e+003, 8.251476e+001
1.205611e+003, 8.199828e+001
1.206093e+003, 8.216687e+001
1.206575e+003, 8.259449e+001
1.207057e+003, 8.285242e+001
1.207540e+003, 8.284681e+001
1.208022e+003, 8.238985e+001
1.208504e+003, 8.137332e+001
1.208986e+003, 8.086758e+001
1.209468e+003, 8.162972e+001
1.209950e+003, 8.217073e+001
1.210432e+003, 8.200272e+001
1.210914e+003, 8.173072e+001
1.211396e+003, 8.173348e+001
1.211879e+003, 8.171175e+001
1.212361e+003, 8.118073e+001
1.212843e+003, 8.038797e+001
1.213325e+003, 8.040218e+001
1.213807e+003, 8.148612e+001
1.214289e+003, 8.208401e+001
1.214771e+003, 8.206609e+001
1.215253e+003, 8.211301e+001
1.215735e+003, 8.241007e+001
1.216218e+003, 8.248586e+001
1.216700e+003, 8.204063e+001
1.217182e+003, 8.148491e+001
1.217664e+003, 8.132658e+001
1.218146e+003, 8.146291e+001
1.218628e+003, 8.166444e+001
1.219110e+003, 8.186813e+001
1.219592e+003, 8.162307e+001
1.220075e+003, 8.103735e+001
1.220557e+003, 8.080791e+001
1.221039e+003, 8.104925e+001
1.221521e+003, 8.132217e+001
1.222003e+003, 8.138554e+001
1.222485e+003, 8.137516e+001
1.222967e+003, 8.141355e+001
1.223449e+003, 8.146579e+001
1.223932e+003, 8.153416e+001
1.224414e+003, 8.155936e+001
1.224896e+003, 8.138522e+001
1.225378e+003, 8.113856e+001
1.225860e+003, 8.112383e+001
1.226342e+003, 8.134082e+001
1.226824e+003, 8.143947e+001
1.227306e+003, 8.126856e+001
1.227788e+003, 8.105921e+001
1.228271e+003, 8.077508e+001
1.228753e+003, 8.061716e+001
1.229235e+003, 8.081700e+001
1.229717e+003, 8.103467e+001
1.230199e+003, 8.086033e+001
1.230681e+003, 8.059106e+001
1.231163e+003, 8.089682e+001
1.231645e+003, 8.175199e+001
1.232127e+003, 8.192467e+001
1.232610e+003, 8.108700e+001
1.233092e+003, 8.056465e+001
1.233574e+003, 8.044754e+001
1.234056e+003, 8.056982e+001
1.234538e+003, 8.093211e+001
1.235020e+003, 8.129807e+001
1.235502e+003, 8.149819e+001
1.235984e+003, 8.157393e+001
1.236467e+003, 8.156799e+001
1.236949e+003, 8.150962e+001
1.237431e+003, 8.154648e+001
1.237913e+003, 8.164404e+001
1.238395e+003, 8.167489e+001
1.238877e+003, 8.160970e+001
1.239359e+003, 8.132529e+001
1.239841e+003, 8.083497e+001
1.240323e+003, 8.048510e+001
1.240806e+003, 8.050846e+001
1.241288e+003, 8.069590e+001
1.241770e+003, 8.096030e+001
1.242252e+003, 8.117367e+001
1.242734e+003, 8.117390e+001
1.243216e+003, 8.107658e+001
1.243698e+003, 8.101165e+001
1.244180e+003, 8.097660e+001
1.244662e+003, 8.090345e+001
1.245145e+003, 8.079317e+001
1.245627e+003, 8.081139e+001
1.246109e+003, 8.114677e+001
1.246591e+003, 8.134604e+001
1.247073e+003, 8.117503e+001
1.247555e+003, 8.107444e+001
1.248037e+003, 8.135588e+001
1.248519e+003, 8.155225e+001
1.249002e+003, 8.126688e+001
1.249484e+003, 8.074654e+001
1.249966e+003, 8.042549e+001
1.250448e+003, 8.029839e+001
1.250930e+003, 8.026260e+001
1.251412e+003, 8.031908e+001
1.251894e+003, 8.048104e+001
1.252376e+003, 8.075562e+001
1.252859e+003, 8.097936e+001
1.253341e+003, 8.110149e+001
1.253823e+003, 8.107994e+001
1.254305e+003, 8.087664e+001
1.254787e+003, 8.060615e+001
1.255269e+003, 8.037206e+001
1.255751e+003, 8.022086e+001
1.256233e+003, 8.027706e+001
1.256715e+003, 8.045628e+001
1.257198e+003, 8.060887e+001
1.257680e+003, 8.074194e+001
1.258162e+003, 8.096887e+001
1.258644e+003, 8.126678e+001
1.259126e+003, 8.138487e+001
1.259608e+003, 8.118879e+001
1.260090e+003, 8.091285e+001
1.260572e+003, 8.042371e+001
1.261054e+003, 8.019945e+001
1.261537e+003, 8.086836e+001
1.262019e+003, 8.148413e+001
1.262501e+003, 8.106082e+001
1.262983e+003, 8.026913e+001
1.263465e+003, 8.028959e+001
1.263947e+003, 8.099442e+001
1.264429e+003, 8.131664e+001
1.264911e+003, 8.113637e+001
1.265394e+003, 8.095863e+001
1.265876e+003, 8.075575e+001
1.266358e+003, 8.072744e+001
1.266840e+003, 8.095909e+001
1.267322e+003, 8.101526e+001
1.267804e+003, 8.061867e+001
1.268286e+003, 8.030018e+001
1.268768e+003, 8.080439e+001
1.269250e+003, 8.163828e+001
1.269733e+003, 8.154036e+001
1.270215e+003, 8.094442e+001
1.270697e+003, 8.097990e+001
1.271179e+003, 8.146079e+001
1.271661e+003, 8.180261e+001
1.272143e+003, 8.188307e+001
1.272625e+003, 8.170272e+001
1.273107e+003, 8.126340e+001
1.273589e+003, 8.092055e+001
1.274072e+003, 8.092561e+001
1.274554e+003, 8.102728e+001
1.275036e+003, 8.115382e+001
1.275518e+003, 8.127493e+001
1.276000e+003, 8.146121e+001
1.276482e+003, 8.155724e+001
1.276964e+003, 8.133787e+001
1.277446e+003, 8.089861e+001
1.277929e+003, 8.049758e+001
1.278411e+003, 8.010871e+001
1.278893e+003, 8.005920e+001
1.279375e+003, 8.046314e+001
1.279857e+003, 8.083645e+001
1.280339e+003, 8.119230e+001
1.280821e+003, 8.109807e+001
1.281303e+003, 8.034588e+001
1.281786e+003, 7.965475e+001
1.282268e+003, 7.954643e+001
##END=



