##NAMES=Christofschaferite-(Ce)
##RRUFFID=R141090
##IDEAL CHEMISTRY=(Ce^3+^,La^3+^,Ca)_4_Mn^2+^(Ti^4+^,Fe^3+^)_3_(Fe^3+^,Fe^2+^,Ti^2+^)(Si_2_O_7_)_2_O_8_
##LOCALITY=Wingertsberg pumice quarry, Laach lake volcano, Mendig, Eifel, Germany
##OWNER=RRUFF
##SOURCE=Ch. and H. Sch√§fer
##DESCRIPTION=Thick tabular or short prismatic black crystals, 2-fold twin around a*, associated with light brown rhodonite and colorless orthoclase.
##STATUS=The identification of this mineral has been confirmed by single-crystal X-ray diffraction.
##URL=rruff.info/R141090
9.059570e+001, 4.516261e+002
9.107782e+001, 4.512070e+002
9.155994e+001, 4.510801e+002
9.204205e+001, 4.515015e+002
9.252417e+001, 4.520390e+002
9.300629e+001, 4.526586e+002
9.348840e+001, 4.509534e+002
9.397052e+001, 4.440285e+002
9.445264e+001, 4.309201e+002
9.493475e+001, 4.169659e+002
9.541687e+001, 4.042917e+002
9.589898e+001, 3.934181e+002
9.638110e+001, 3.837155e+002
9.686321e+001, 3.746632e+002
9.734533e+001, 3.657661e+002
9.782745e+001, 3.563725e+002
9.830956e+001, 3.477375e+002
9.879168e+001, 3.392800e+002
9.927380e+001, 3.319720e+002
9.975591e+001, 3.262607e+002
1.002380e+002, 3.217724e+002
1.007201e+002, 3.177739e+002
1.012023e+002, 3.140291e+002
1.016844e+002, 3.103361e+002
1.021665e+002, 3.061346e+002
1.026486e+002, 3.005915e+002
1.031307e+002, 2.950127e+002
1.036128e+002, 2.906820e+002
1.040950e+002, 2.876871e+002
1.045771e+002, 2.851888e+002
1.050592e+002, 2.825855e+002
1.055413e+002, 2.799975e+002
1.060234e+002, 2.776808e+002
1.065055e+002, 2.757295e+002
1.069877e+002, 2.741094e+002
1.074698e+002, 2.727809e+002
1.079519e+002, 2.723317e+002
1.084340e+002, 2.713728e+002
1.089161e+002, 2.694079e+002
1.093982e+002, 2.665162e+002
1.098804e+002, 2.629481e+002
1.103625e+002, 2.586870e+002
1.108446e+002, 2.534516e+002
1.113267e+002, 2.490949e+002
1.118088e+002, 2.457328e+002
1.122909e+002, 2.430301e+002
1.127731e+002, 2.410191e+002
1.132552e+002, 2.396241e+002
1.137373e+002, 2.385718e+002
1.142194e+002, 2.374896e+002
1.147015e+002, 2.362597e+002
1.151836e+002, 2.352143e+002
1.156658e+002, 2.347948e+002
1.161479e+002, 2.343542e+002
1.166300e+002, 2.331119e+002
1.171121e+002, 2.307490e+002
1.175942e+002, 2.278327e+002
1.180763e+002, 2.257860e+002
1.185584e+002, 2.250108e+002
1.190406e+002, 2.240447e+002
1.195227e+002, 2.222765e+002
1.200048e+002, 2.199645e+002
1.204869e+002, 2.177897e+002
1.209690e+002, 2.160356e+002
1.214511e+002, 2.146585e+002
1.219333e+002, 2.134305e+002
1.224154e+002, 2.123536e+002
1.228975e+002, 2.114160e+002
1.233796e+002, 2.106418e+002
1.238617e+002, 2.100380e+002
1.243438e+002, 2.095065e+002
1.248260e+002, 2.094855e+002
1.253081e+002, 2.093405e+002
1.257902e+002, 2.083300e+002
1.262723e+002, 2.059871e+002
1.267544e+002, 2.029092e+002
1.272365e+002, 2.004260e+002
1.277187e+002, 1.986216e+002
1.282008e+002, 1.973628e+002
1.286829e+002, 1.968080e+002
1.291650e+002, 1.966214e+002
1.296471e+002, 1.963692e+002
1.301292e+002, 1.957693e+002
1.306114e+002, 1.948489e+002
1.310935e+002, 1.939986e+002
1.315756e+002, 1.932329e+002
1.320577e+002, 1.925260e+002
1.325398e+002, 1.920688e+002
1.330219e+002, 1.916972e+002
1.335041e+002, 1.910364e+002
1.339862e+002, 1.897093e+002
1.344683e+002, 1.875502e+002
1.349504e+002, 1.857778e+002
1.354325e+002, 1.843218e+002
1.359146e+002, 1.832085e+002
1.363968e+002, 1.826084e+002
1.368789e+002, 1.824773e+002
1.373610e+002, 1.824503e+002
1.378431e+002, 1.821085e+002
1.383252e+002, 1.813660e+002
1.388073e+002, 1.807040e+002
1.392895e+002, 1.800970e+002
1.397716e+002, 1.796002e+002
1.402537e+002, 1.794000e+002
1.407358e+002, 1.796319e+002
1.412179e+002, 1.797917e+002
1.417000e+002, 1.791436e+002
1.421821e+002, 1.777799e+002
1.426643e+002, 1.762467e+002
1.431464e+002, 1.745667e+002
1.436285e+002, 1.728486e+002
1.441106e+002, 1.715178e+002
1.445927e+002, 1.709081e+002
1.450748e+002, 1.704577e+002
1.455570e+002, 1.695705e+002
1.460391e+002, 1.682471e+002
1.465212e+002, 1.669951e+002
1.470033e+002, 1.662930e+002
1.474854e+002, 1.661938e+002
1.479675e+002, 1.661217e+002
1.484497e+002, 1.662161e+002
1.489318e+002, 1.661415e+002
1.494139e+002, 1.656488e+002
1.498960e+002, 1.646991e+002
1.503781e+002, 1.634959e+002
1.508602e+002, 1.623109e+002
1.513424e+002, 1.610526e+002
1.518245e+002, 1.600137e+002
1.523066e+002, 1.594114e+002
1.527887e+002, 1.588845e+002
1.532708e+002, 1.580569e+002
1.537529e+002, 1.568071e+002
1.542351e+002, 1.554023e+002
1.547172e+002, 1.545186e+002
1.551993e+002, 1.547006e+002
1.556814e+002, 1.548131e+002
1.561635e+002, 1.550971e+002
1.566456e+002, 1.552000e+002
1.571278e+002, 1.545537e+002
1.576099e+002, 1.528258e+002
1.580920e+002, 1.503858e+002
1.585741e+002, 1.488396e+002
1.590562e+002, 1.489434e+002
1.595383e+002, 1.489475e+002
1.600205e+002, 1.483230e+002
1.605026e+002, 1.472775e+002
1.609847e+002, 1.463056e+002
1.614668e+002, 1.457047e+002
1.619489e+002, 1.453959e+002
1.624310e+002, 1.449905e+002
1.629131e+002, 1.444673e+002
1.633953e+002, 1.438821e+002
1.638774e+002, 1.432802e+002
1.643595e+002, 1.426558e+002
1.648416e+002, 1.419422e+002
1.653237e+002, 1.409646e+002
1.658058e+002, 1.399075e+002
1.662880e+002, 1.391945e+002
1.667701e+002, 1.391617e+002
1.672522e+002, 1.392572e+002
1.677343e+002, 1.388240e+002
1.682164e+002, 1.377769e+002
1.686985e+002, 1.366101e+002
1.691807e+002, 1.354284e+002
1.696628e+002, 1.343430e+002
1.701449e+002, 1.335383e+002
1.706270e+002, 1.331842e+002
1.711091e+002, 1.330986e+002
1.715912e+002, 1.328483e+002
1.720734e+002, 1.323146e+002
1.725555e+002, 1.318338e+002
1.730376e+002, 1.317031e+002
1.735197e+002, 1.316708e+002
1.740018e+002, 1.313480e+002
1.744839e+002, 1.304349e+002
1.749661e+002, 1.290552e+002
1.754482e+002, 1.279729e+002
1.759303e+002, 1.274129e+002
1.764124e+002, 1.269323e+002
1.768945e+002, 1.264439e+002
1.773766e+002, 1.259461e+002
1.778588e+002, 1.254615e+002
1.783409e+002, 1.250083e+002
1.788230e+002, 1.245860e+002
1.793051e+002, 1.241261e+002
1.797872e+002, 1.234598e+002
1.802693e+002, 1.229185e+002
1.807515e+002, 1.227087e+002
1.812336e+002, 1.227285e+002
1.817157e+002, 1.227161e+002
1.821978e+002, 1.224392e+002
1.826799e+002, 1.218615e+002
1.831620e+002, 1.213595e+002
1.836441e+002, 1.209334e+002
1.841263e+002, 1.205610e+002
1.846084e+002, 1.202688e+002
1.850905e+002, 1.200374e+002
1.855726e+002, 1.197955e+002
1.860547e+002, 1.194855e+002
1.865368e+002, 1.190990e+002
1.870190e+002, 1.186358e+002
1.875011e+002, 1.178979e+002
1.879832e+002, 1.172276e+002
1.884653e+002, 1.169648e+002
1.889474e+002, 1.171302e+002
1.894296e+002, 1.173398e+002
1.899117e+002, 1.172181e+002
1.903938e+002, 1.167675e+002
1.908759e+002, 1.162968e+002
1.913580e+002, 1.157607e+002
1.918401e+002, 1.152570e+002
1.923223e+002, 1.149354e+002
1.928044e+002, 1.148435e+002
1.932865e+002, 1.147675e+002
1.937686e+002, 1.143779e+002
1.942507e+002, 1.137953e+002
1.947328e+002, 1.134475e+002
1.952150e+002, 1.137736e+002
1.956971e+002, 1.143724e+002
1.961792e+002, 1.143653e+002
1.966613e+002, 1.134381e+002
1.971434e+002, 1.124365e+002
1.976255e+002, 1.119998e+002
1.981077e+002, 1.119783e+002
1.985898e+002, 1.120342e+002
1.990719e+002, 1.120824e+002
1.995540e+002, 1.120873e+002
2.000361e+002, 1.118558e+002
2.005182e+002, 1.111403e+002
2.010004e+002, 1.105324e+002
2.014825e+002, 1.104272e+002
2.019646e+002, 1.106748e+002
2.024467e+002, 1.109035e+002
2.029288e+002, 1.108397e+002
2.034109e+002, 1.105022e+002
2.038930e+002, 1.102010e+002
2.043752e+002, 1.099286e+002
2.048573e+002, 1.097117e+002
2.053394e+002, 1.096087e+002
2.058215e+002, 1.095751e+002
2.063036e+002, 1.095080e+002
2.067857e+002, 1.093120e+002
2.072679e+002, 1.089785e+002
2.077500e+002, 1.086848e+002
2.082321e+002, 1.084610e+002
2.087142e+002, 1.082515e+002
2.091963e+002, 1.080169e+002
2.096784e+002, 1.077782e+002
2.101606e+002, 1.075903e+002
2.106427e+002, 1.075034e+002
2.111248e+002, 1.075244e+002
2.116069e+002, 1.075893e+002
2.120890e+002, 1.078819e+002
2.125711e+002, 1.080466e+002
2.130533e+002, 1.078015e+002
2.135354e+002, 1.072604e+002
2.140175e+002, 1.068060e+002
2.144996e+002, 1.068225e+002
2.149817e+002, 1.074229e+002
2.154638e+002, 1.076923e+002
2.159460e+002, 1.075015e+002
2.164281e+002, 1.071794e+002
2.169102e+002, 1.068298e+002
2.173923e+002, 1.064858e+002
2.178744e+002, 1.061725e+002
2.183565e+002, 1.059076e+002
2.188387e+002, 1.056921e+002
2.193208e+002, 1.055902e+002
2.198029e+002, 1.057197e+002
2.202850e+002, 1.058529e+002
2.207671e+002, 1.058706e+002
2.212492e+002, 1.057623e+002
2.217314e+002, 1.055489e+002
2.222135e+002, 1.052164e+002
2.226956e+002, 1.047583e+002
2.231777e+002, 1.044211e+002
2.236598e+002, 1.043270e+002
2.241419e+002, 1.042624e+002
2.246240e+002, 1.040037e+002
2.251062e+002, 1.035545e+002
2.255883e+002, 1.032049e+002
2.260704e+002, 1.032424e+002
2.265525e+002, 1.036238e+002
2.270346e+002, 1.039048e+002
2.275167e+002, 1.040716e+002
2.279989e+002, 1.041193e+002
2.284810e+002, 1.039994e+002
2.289631e+002, 1.037056e+002
2.294452e+002, 1.033909e+002
2.299273e+002, 1.031626e+002
2.304094e+002, 1.030013e+002
2.308916e+002, 1.028512e+002
2.313737e+002, 1.027266e+002
2.318558e+002, 1.025972e+002
2.323379e+002, 1.023799e+002
2.328200e+002, 1.020453e+002
2.333021e+002, 1.018297e+002
2.337843e+002, 1.020638e+002
2.342664e+002, 1.024845e+002
2.347485e+002, 1.026768e+002
2.352306e+002, 1.024309e+002
2.357127e+002, 1.020011e+002
2.361948e+002, 1.016939e+002
2.366770e+002, 1.014993e+002
2.371591e+002, 1.014671e+002
2.376412e+002, 1.018855e+002
2.381233e+002, 1.024010e+002
2.386054e+002, 1.025676e+002
2.390875e+002, 1.021155e+002
2.395697e+002, 1.014497e+002
2.400518e+002, 1.012433e+002
2.405339e+002, 1.016214e+002
2.410160e+002, 1.020624e+002
2.414981e+002, 1.025043e+002
2.419802e+002, 1.028501e+002
2.424624e+002, 1.029688e+002
2.429445e+002, 1.027900e+002
2.434266e+002, 1.024446e+002
2.439087e+002, 1.021437e+002
2.443908e+002, 1.018931e+002
2.448729e+002, 1.016745e+002
2.453550e+002, 1.014672e+002
2.458372e+002, 1.012937e+002
2.463193e+002, 1.011724e+002
2.468014e+002, 1.011089e+002
2.472835e+002, 1.011048e+002
2.477656e+002, 1.012117e+002
2.482477e+002, 1.015810e+002
2.487299e+002, 1.016785e+002
2.492120e+002, 1.011566e+002
2.496941e+002, 1.005126e+002
2.501762e+002, 1.001167e+002
2.506583e+002, 1.000827e+002
2.511404e+002, 1.002845e+002
2.516226e+002, 1.005660e+002
2.521047e+002, 1.010907e+002
2.525868e+002, 1.013002e+002
2.530689e+002, 1.010138e+002
2.535510e+002, 1.005396e+002
2.540331e+002, 1.000482e+002
2.545153e+002, 9.959947e+001
2.549974e+002, 9.920468e+001
2.554795e+002, 9.888107e+001
2.559616e+002, 9.864533e+001
2.564437e+002, 9.845634e+001
2.569258e+002, 9.826194e+001
2.574080e+002, 9.813820e+001
2.578901e+002, 9.819174e+001
2.583722e+002, 9.841345e+001
2.588543e+002, 9.864858e+001
2.593364e+002, 9.867121e+001
2.598185e+002, 9.834474e+001
2.603007e+002, 9.815028e+001
2.607828e+002, 9.806992e+001
2.612649e+002, 9.810064e+001
2.617470e+002, 9.835072e+001
2.622291e+002, 9.876876e+001
2.627112e+002, 9.909795e+001
2.631934e+002, 9.900999e+001
2.636755e+002, 9.831383e+001
2.641576e+002, 9.789697e+001
2.646397e+002, 9.793508e+001
2.651218e+002, 9.804701e+001
2.656039e+002, 9.801579e+001
2.660861e+002, 9.784325e+001
2.665682e+002, 9.767871e+001
2.670503e+002, 9.769137e+001
2.675324e+002, 9.794710e+001
2.680145e+002, 9.793024e+001
2.684966e+002, 9.744033e+001
2.689788e+002, 9.691981e+001
2.694609e+002, 9.658353e+001
2.699430e+002, 9.641882e+001
2.704251e+002, 9.629533e+001
2.709072e+002, 9.610121e+001
2.713893e+002, 9.583202e+001
2.718715e+002, 9.567159e+001
2.723536e+002, 9.567937e+001
2.728357e+002, 9.571198e+001
2.733178e+002, 9.576682e+001
2.737999e+002, 9.580444e+001
2.742820e+002, 9.572355e+001
2.747642e+002, 9.543566e+001
2.752463e+002, 9.496523e+001
2.757284e+002, 9.462623e+001
2.762105e+002, 9.434083e+001
2.766926e+002, 9.422794e+001
2.771747e+002, 9.447291e+001
2.776568e+002, 9.492396e+001
2.781389e+002, 9.523330e+001
2.786211e+002, 9.519160e+001
2.791032e+002, 9.489571e+001
2.795853e+002, 9.476326e+001
2.800674e+002, 9.492447e+001
2.805495e+002, 9.506019e+001
2.810316e+002, 9.509173e+001
2.815138e+002, 9.504478e+001
2.819959e+002, 9.495508e+001
2.824780e+002, 9.483247e+001
2.829601e+002, 9.469416e+001
2.834422e+002, 9.458271e+001
2.839243e+002, 9.446431e+001
2.844065e+002, 9.442574e+001
2.848886e+002, 9.459477e+001
2.853707e+002, 9.482646e+001
2.858528e+002, 9.487093e+001
2.863349e+002, 9.462830e+001
2.868170e+002, 9.428970e+001
2.872992e+002, 9.420650e+001
2.877813e+002, 9.448512e+001
2.882634e+002, 9.463552e+001
2.887455e+002, 9.446590e+001
2.892276e+002, 9.417405e+001
2.897097e+002, 9.402853e+001
2.901919e+002, 9.409563e+001
2.906740e+002, 9.418595e+001
2.911561e+002, 9.403339e+001
2.916382e+002, 9.359167e+001
2.921203e+002, 9.327992e+001
2.926024e+002, 9.319514e+001
2.930846e+002, 9.322669e+001
2.935667e+002, 9.327906e+001
2.940488e+002, 9.333910e+001
2.945309e+002, 9.342097e+001
2.950130e+002, 9.355713e+001
2.954951e+002, 9.374484e+001
2.959773e+002, 9.385238e+001
2.964594e+002, 9.387729e+001
2.969415e+002, 9.381820e+001
2.974236e+002, 9.363618e+001
2.979057e+002, 9.334311e+001
2.983878e+002, 9.305089e+001
2.988700e+002, 9.283981e+001
2.993521e+002, 9.269925e+001
2.998342e+002, 9.253687e+001
3.003163e+002, 9.228251e+001
3.007984e+002, 9.207066e+001
3.012805e+002, 9.204198e+001
3.017627e+002, 9.214796e+001
3.022448e+002, 9.215725e+001
3.027269e+002, 9.192318e+001
3.032090e+002, 9.152526e+001
3.036911e+002, 9.120747e+001
3.041732e+002, 9.096102e+001
3.046554e+002, 9.079293e+001
3.051375e+002, 9.076011e+001
3.056196e+002, 9.081238e+001
3.061017e+002, 9.078513e+001
3.065838e+002, 9.056622e+001
3.070659e+002, 9.033547e+001
3.075481e+002, 9.057504e+001
3.080302e+002, 9.151888e+001
3.085123e+002, 9.199311e+001
3.089944e+002, 9.120947e+001
3.094765e+002, 8.979411e+001
3.099586e+002, 8.885280e+001
3.104408e+002, 8.870908e+001
3.109229e+002, 8.890288e+001
3.114050e+002, 8.884615e+001
3.118871e+002, 8.853178e+001
3.123692e+002, 8.827625e+001
3.128513e+002, 8.810681e+001
3.133335e+002, 8.804361e+001
3.138156e+002, 8.817981e+001
3.142977e+002, 8.853844e+001
3.147798e+002, 8.885701e+001
3.152619e+002, 8.889147e+001
3.157440e+002, 8.864416e+001
3.162262e+002, 8.831234e+001
3.167083e+002, 8.772622e+001
3.171904e+002, 8.719151e+001
3.176725e+002, 8.699692e+001
3.181546e+002, 8.713328e+001
3.186367e+002, 8.736385e+001
3.191188e+002, 8.757155e+001
3.196010e+002, 8.773990e+001
3.200831e+002, 8.783108e+001
3.205652e+002, 8.789296e+001
3.210473e+002, 8.783596e+001
3.215294e+002, 8.751595e+001
3.220115e+002, 8.701246e+001
3.224937e+002, 8.659558e+001
3.229758e+002, 8.638530e+001
3.234579e+002, 8.635163e+001
3.239400e+002, 8.644520e+001
3.244221e+002, 8.677706e+001
3.249042e+002, 8.698270e+001
3.253864e+002, 8.690767e+001
3.258685e+002, 8.662401e+001
3.263506e+002, 8.620204e+001
3.268327e+002, 8.561536e+001
3.273148e+002, 8.507646e+001
3.277969e+002, 8.500222e+001
3.282791e+002, 8.548524e+001
3.287612e+002, 8.579646e+001
3.292433e+002, 8.563258e+001
3.297254e+002, 8.530627e+001
3.302075e+002, 8.521889e+001
3.306896e+002, 8.543980e+001
3.311718e+002, 8.568317e+001
3.316539e+002, 8.563327e+001
3.321360e+002, 8.526160e+001
3.326181e+002, 8.504985e+001
3.331002e+002, 8.520519e+001
3.335823e+002, 8.538023e+001
3.340645e+002, 8.528914e+001
3.345466e+002, 8.494918e+001
3.350287e+002, 8.457682e+001
3.355108e+002, 8.429255e+001
3.359929e+002, 8.411108e+001
3.364750e+002, 8.408940e+001
3.369572e+002, 8.441204e+001
3.374393e+002, 8.468128e+001
3.379214e+002, 8.471270e+001
3.384035e+002, 8.456240e+001
3.388856e+002, 8.434169e+001
3.393677e+002, 8.408018e+001
3.398499e+002, 8.383035e+001
3.403320e+002, 8.376252e+001
3.408141e+002, 8.403568e+001
3.412962e+002, 8.417638e+001
3.417783e+002, 8.391413e+001
3.422604e+002, 8.353474e+001
3.427426e+002, 8.348280e+001
3.432247e+002, 8.388625e+001
3.437068e+002, 8.437901e+001
3.441889e+002, 8.442541e+001
3.446710e+002, 8.377499e+001
3.451531e+002, 8.339735e+001
3.456353e+002, 8.350090e+001
3.461174e+002, 8.374094e+001
3.465995e+002, 8.391939e+001
3.470816e+002, 8.399033e+001
3.475637e+002, 8.390072e+001
3.480458e+002, 8.356032e+001
3.485280e+002, 8.294673e+001
3.490101e+002, 8.261141e+001
3.494922e+002, 8.268074e+001
3.499743e+002, 8.284825e+001
3.504564e+002, 8.306538e+001
3.509385e+002, 8.328020e+001
3.514207e+002, 8.339742e+001
3.519028e+002, 8.335491e+001
3.523849e+002, 8.318571e+001
3.528670e+002, 8.302719e+001
3.533491e+002, 8.282992e+001
3.538312e+002, 8.270497e+001
3.543134e+002, 8.269632e+001
3.547955e+002, 8.275539e+001
3.552776e+002, 8.283167e+001
3.557597e+002, 8.290687e+001
3.562418e+002, 8.298650e+001
3.567239e+002, 8.309212e+001
3.572061e+002, 8.332928e+001
3.576882e+002, 8.335514e+001
3.581703e+002, 8.300368e+001
3.586524e+002, 8.258547e+001
3.591345e+002, 8.229539e+001
3.596166e+002, 8.215623e+001
3.600987e+002, 8.209875e+001
3.605808e+002, 8.205779e+001
3.610630e+002, 8.203199e+001
3.615451e+002, 8.203526e+001
3.620272e+002, 8.216048e+001
3.625093e+002, 8.221700e+001
3.629914e+002, 8.207545e+001
3.634735e+002, 8.182246e+001
3.639557e+002, 8.163515e+001
3.644378e+002, 8.162783e+001
3.649199e+002, 8.174680e+001
3.654020e+002, 8.176118e+001
3.658841e+002, 8.158693e+001
3.663662e+002, 8.141696e+001
3.668484e+002, 8.118884e+001
3.673305e+002, 8.101824e+001
3.678126e+002, 8.107436e+001
3.682947e+002, 8.139417e+001
3.687768e+002, 8.177822e+001
3.692589e+002, 8.191126e+001
3.697411e+002, 8.171474e+001
3.702232e+002, 8.147058e+001
3.707053e+002, 8.101760e+001
3.711874e+002, 8.066291e+001
3.716695e+002, 8.060580e+001
3.721516e+002, 8.082018e+001
3.726338e+002, 8.113189e+001
3.731159e+002, 8.144106e+001
3.735980e+002, 8.174076e+001
3.740801e+002, 8.178436e+001
3.745622e+002, 8.127995e+001
3.750443e+002, 8.087302e+001
3.755265e+002, 8.083133e+001
3.760086e+002, 8.100683e+001
3.764907e+002, 8.118374e+001
3.769728e+002, 8.127427e+001
3.774549e+002, 8.126840e+001
3.779370e+002, 8.108731e+001
3.784192e+002, 8.059523e+001
3.789013e+002, 8.031863e+001
3.793834e+002, 8.062984e+001
3.798655e+002, 8.107206e+001
3.803476e+002, 8.129375e+001
3.808297e+002, 8.122582e+001
3.813119e+002, 8.104839e+001
3.817940e+002, 8.093726e+001
3.822761e+002, 8.089038e+001
3.827582e+002, 8.080032e+001
3.832403e+002, 8.061376e+001
3.837224e+002, 8.042871e+001
3.842046e+002, 8.023570e+001
3.846867e+002, 8.007909e+001
3.851688e+002, 8.011020e+001
3.856509e+002, 8.055685e+001
3.861330e+002, 8.122266e+001
3.866151e+002, 8.169486e+001
3.870973e+002, 8.198242e+001
3.875794e+002, 8.203154e+001
3.880615e+002, 8.150110e+001
3.885436e+002, 8.079172e+001
3.890257e+002, 8.053436e+001
3.895078e+002, 8.106688e+001
3.899900e+002, 8.167191e+001
3.904721e+002, 8.158020e+001
3.909542e+002, 8.090105e+001
3.914363e+002, 8.052811e+001
3.919184e+002, 8.086929e+001
3.924005e+002, 8.150272e+001
3.928827e+002, 8.186328e+001
3.933648e+002, 8.195055e+001
3.938469e+002, 8.191554e+001
3.943290e+002, 8.172213e+001
3.948111e+002, 8.147334e+001
3.952932e+002, 8.135165e+001
3.957754e+002, 8.139134e+001
3.962575e+002, 8.145700e+001
3.967396e+002, 8.140119e+001
3.972217e+002, 8.124778e+001
3.977038e+002, 8.124110e+001
3.981859e+002, 8.166343e+001
3.986681e+002, 8.199776e+001
3.991501e+002, 8.177866e+001
3.996323e+002, 8.115078e+001
4.001144e+002, 8.063615e+001
4.005965e+002, 8.048325e+001
4.010786e+002, 8.063090e+001
4.015607e+002, 8.094563e+001
4.020428e+002, 8.160647e+001
4.025250e+002, 8.209603e+001
4.030071e+002, 8.222737e+001
4.034892e+002, 8.218532e+001
4.039713e+002, 8.219092e+001
4.044534e+002, 8.229081e+001
4.049355e+002, 8.236477e+001
4.054177e+002, 8.226259e+001
4.058998e+002, 8.193990e+001
4.063819e+002, 8.165543e+001
4.068640e+002, 8.144329e+001
4.073461e+002, 8.123322e+001
4.078282e+002, 8.089632e+001
4.083104e+002, 8.052798e+001
4.087925e+002, 8.037817e+001
4.092746e+002, 8.062209e+001
4.097567e+002, 8.115925e+001
4.102388e+002, 8.153056e+001
4.107209e+002, 8.168977e+001
4.112031e+002, 8.172034e+001
4.116852e+002, 8.149651e+001
4.121673e+002, 8.122252e+001
4.126494e+002, 8.110605e+001
4.131315e+002, 8.119347e+001
4.136136e+002, 8.136063e+001
4.140958e+002, 8.145479e+001
4.145779e+002, 8.147549e+001
4.150600e+002, 8.142464e+001
4.155421e+002, 8.118330e+001
4.160242e+002, 8.098075e+001
4.165063e+002, 8.092696e+001
4.169885e+002, 8.098637e+001
4.174706e+002, 8.106182e+001
4.179527e+002, 8.109273e+001
4.184348e+002, 8.109326e+001
4.189169e+002, 8.112663e+001
4.193990e+002, 8.124744e+001
4.198812e+002, 8.127632e+001
4.203633e+002, 8.099790e+001
4.208454e+002, 8.069337e+001
4.213275e+002, 8.068338e+001
4.218096e+002, 8.105332e+001
4.222917e+002, 8.145110e+001
4.227739e+002, 8.146256e+001
4.232560e+002, 8.111038e+001
4.237381e+002, 8.088472e+001
4.242202e+002, 8.090285e+001
4.247023e+002, 8.100441e+001
4.251844e+002, 8.101926e+001
4.256666e+002, 8.099349e+001
4.261487e+002, 8.110326e+001
4.266308e+002, 8.160664e+001
4.271129e+002, 8.220479e+001
4.275950e+002, 8.243345e+001
4.280771e+002, 8.227790e+001
4.285593e+002, 8.198827e+001
4.290414e+002, 8.161224e+001
4.295235e+002, 8.122890e+001
4.300056e+002, 8.100312e+001
4.304877e+002, 8.098865e+001
4.309698e+002, 8.101145e+001
4.314520e+002, 8.096603e+001
4.319341e+002, 8.090080e+001
4.324162e+002, 8.094187e+001
4.328983e+002, 8.113510e+001
4.333804e+002, 8.133308e+001
4.338625e+002, 8.136876e+001
4.343447e+002, 8.122218e+001
4.348268e+002, 8.100851e+001
4.353089e+002, 8.051321e+001
4.357910e+002, 8.013670e+001
4.362731e+002, 8.028368e+001
4.367552e+002, 8.081144e+001
4.372374e+002, 8.120707e+001
4.377195e+002, 8.115853e+001
4.382016e+002, 8.078304e+001
4.386837e+002, 8.052681e+001
4.391658e+002, 8.053147e+001
4.396479e+002, 8.047468e+001
4.401301e+002, 8.021030e+001
4.406122e+002, 7.994668e+001
4.410943e+002, 7.996384e+001
4.415764e+002, 8.027428e+001
4.420585e+002, 8.055864e+001
4.425406e+002, 8.040170e+001
4.430227e+002, 7.969393e+001
4.435049e+002, 7.934769e+001
4.439870e+002, 7.977538e+001
4.444691e+002, 8.014289e+001
4.449512e+002, 8.016750e+001
4.454333e+002, 7.996426e+001
4.459154e+002, 7.974355e+001
4.463976e+002, 7.961196e+001
4.468797e+002, 7.952803e+001
4.473618e+002, 7.937694e+001
4.478439e+002, 7.909075e+001
4.483260e+002, 7.894115e+001
4.488081e+002, 7.917840e+001
4.492903e+002, 7.942069e+001
4.497724e+002, 7.938482e+001
4.502545e+002, 7.907815e+001
4.507366e+002, 7.876336e+001
4.512187e+002, 7.861182e+001
4.517008e+002, 7.861248e+001
4.521830e+002, 7.877938e+001
4.526651e+002, 7.922879e+001
4.531472e+002, 7.955038e+001
4.536293e+002, 7.929872e+001
4.541114e+002, 7.881355e+001
4.545935e+002, 7.858464e+001
4.550757e+002, 7.877092e+001
4.555578e+002, 7.912424e+001
4.560399e+002, 7.954481e+001
4.565220e+002, 7.998587e+001
4.570041e+002, 8.024139e+001
4.574862e+002, 8.023325e+001
4.579684e+002, 8.006064e+001
4.584505e+002, 7.979141e+001
4.589326e+002, 7.942300e+001
4.594147e+002, 7.915307e+001
4.598968e+002, 7.908455e+001
4.603789e+002, 7.908176e+001
4.608611e+002, 7.902470e+001
4.613432e+002, 7.891809e+001
4.618253e+002, 7.884847e+001
4.623074e+002, 7.889200e+001
4.627895e+002, 7.898964e+001
4.632716e+002, 7.888939e+001
4.637538e+002, 7.826373e+001
4.642359e+002, 7.788162e+001
4.647180e+002, 7.800294e+001
4.652001e+002, 7.831216e+001
4.656822e+002, 7.847545e+001
4.661643e+002, 7.843568e+001
4.666465e+002, 7.837466e+001
4.671286e+002, 7.850908e+001
4.676107e+002, 7.887627e+001
4.680928e+002, 7.908260e+001
4.685749e+002, 7.891338e+001
4.690570e+002, 7.881019e+001
4.695392e+002, 7.890591e+001
4.700213e+002, 7.913852e+001
4.705034e+002, 7.944492e+001
4.709855e+002, 7.980488e+001
4.714676e+002, 8.011612e+001
4.719497e+002, 8.018718e+001
4.724319e+002, 7.998264e+001
4.729140e+002, 7.969282e+001
4.733961e+002, 7.920296e+001
4.738782e+002, 7.875727e+001
4.743603e+002, 7.851469e+001
4.748424e+002, 7.845039e+001
4.753246e+002, 7.842223e+001
4.758067e+002, 7.829323e+001
4.762888e+002, 7.816411e+001
4.767709e+002, 7.832559e+001
4.772530e+002, 7.884191e+001
4.777351e+002, 7.923813e+001
4.782173e+002, 7.924255e+001
4.786994e+002, 7.901353e+001
4.791815e+002, 7.880470e+001
4.796636e+002, 7.862565e+001
4.801457e+002, 7.846796e+001
4.806278e+002, 7.831875e+001
4.811100e+002, 7.819015e+001
4.815920e+002, 7.810432e+001
4.820742e+002, 7.806518e+001
4.825563e+002, 7.806181e+001
4.830384e+002, 7.808379e+001
4.835205e+002, 7.813362e+001
4.840026e+002, 7.822315e+001
4.844847e+002, 7.838845e+001
4.849669e+002, 7.855086e+001
4.854490e+002, 7.869490e+001
4.859311e+002, 7.881114e+001
4.864132e+002, 7.889122e+001
4.868953e+002, 7.893211e+001
4.873774e+002, 7.891952e+001
4.878596e+002, 7.881518e+001
4.883417e+002, 7.853020e+001
4.888238e+002, 7.840107e+001
4.893059e+002, 7.841309e+001
4.897880e+002, 7.856583e+001
4.902701e+002, 7.904668e+001
4.907523e+002, 7.966234e+001
4.912344e+002, 7.996608e+001
4.917165e+002, 7.963820e+001
4.921986e+002, 7.896552e+001
4.926807e+002, 7.878042e+001
4.931628e+002, 7.930118e+001
4.936450e+002, 7.970716e+001
4.941271e+002, 7.964925e+001
4.946092e+002, 7.954697e+001
4.950913e+002, 7.973809e+001
4.955734e+002, 8.020825e+001
4.960555e+002, 8.061129e+001
4.965377e+002, 8.064164e+001
4.970198e+002, 8.042673e+001
4.975019e+002, 8.029726e+001
4.979840e+002, 8.025847e+001
4.984661e+002, 8.031710e+001
4.989482e+002, 8.055102e+001
4.994304e+002, 8.085963e+001
4.999125e+002, 8.103610e+001
5.003946e+002, 8.100582e+001
5.008767e+002, 8.100290e+001
5.013588e+002, 8.116248e+001
5.018409e+002, 8.142310e+001
5.023231e+002, 8.170310e+001
5.028052e+002, 8.198659e+001
5.032873e+002, 8.220818e+001
5.037694e+002, 8.227872e+001
5.042515e+002, 8.219165e+001
5.047336e+002, 8.224875e+001
5.052158e+002, 8.247640e+001
5.056979e+002, 8.279984e+001
5.061800e+002, 8.334715e+001
5.066621e+002, 8.392741e+001
5.071442e+002, 8.419226e+001
5.076263e+002, 8.403114e+001
5.081085e+002, 8.374687e+001
5.085906e+002, 8.384572e+001
5.090727e+002, 8.451688e+001
5.095548e+002, 8.488493e+001
5.100369e+002, 8.459434e+001
5.105190e+002, 8.435393e+001
5.110012e+002, 8.441949e+001
5.114833e+002, 8.473544e+001
5.119654e+002, 8.519401e+001
5.124475e+002, 8.577962e+001
5.129296e+002, 8.635902e+001
5.134117e+002, 8.666633e+001
5.138939e+002, 8.666818e+001
5.143760e+002, 8.665532e+001
5.148581e+002, 8.661613e+001
5.153402e+002, 8.666281e+001
5.158223e+002, 8.694479e+001
5.163044e+002, 8.741933e+001
5.167866e+002, 8.780264e+001
5.172687e+002, 8.790986e+001
5.177508e+002, 8.790099e+001
5.182329e+002, 8.797829e+001
5.187150e+002, 8.813931e+001
5.191971e+002, 8.829172e+001
5.196793e+002, 8.836983e+001
5.201614e+002, 8.843993e+001
5.206435e+002, 8.868688e+001
5.211256e+002, 8.921826e+001
5.216077e+002, 8.958232e+001
5.220898e+002, 8.963963e+001
5.225720e+002, 8.954296e+001
5.230541e+002, 8.935400e+001
5.235362e+002, 8.912182e+001
5.240183e+002, 8.896872e+001
5.245004e+002, 8.899142e+001
5.249825e+002, 8.915566e+001
5.254647e+002, 8.928847e+001
5.259468e+002, 8.940289e+001
5.264289e+002, 8.946018e+001
5.269110e+002, 8.937422e+001
5.273931e+002, 8.929077e+001
5.278752e+002, 8.937695e+001
5.283574e+002, 8.961897e+001
5.288395e+002, 8.981278e+001
5.293216e+002, 8.971336e+001
5.298037e+002, 8.939915e+001
5.302858e+002, 8.942268e+001
5.307679e+002, 9.003065e+001
5.312501e+002, 9.040144e+001
5.317322e+002, 8.984695e+001
5.322143e+002, 8.903271e+001
5.326964e+002, 8.864149e+001
5.331785e+002, 8.880640e+001
5.336606e+002, 8.917190e+001
5.341428e+002, 8.973949e+001
5.346249e+002, 9.029726e+001
5.351070e+002, 9.027596e+001
5.355891e+002, 8.956104e+001
5.360712e+002, 8.882584e+001
5.365533e+002, 8.855856e+001
5.370355e+002, 8.871315e+001
5.375176e+002, 8.892793e+001
5.379997e+002, 8.937997e+001
5.384818e+002, 8.967258e+001
5.389639e+002, 8.960937e+001
5.394460e+002, 8.936508e+001
5.399282e+002, 8.916477e+001
5.404103e+002, 8.905090e+001
5.408924e+002, 8.889737e+001
5.413745e+002, 8.854869e+001
5.418566e+002, 8.799390e+001
5.423387e+002, 8.762461e+001
5.428209e+002, 8.758688e+001
5.433029e+002, 8.757369e+001
5.437850e+002, 8.759898e+001
5.442672e+002, 8.758147e+001
5.447493e+002, 8.739555e+001
5.452314e+002, 8.701798e+001
5.457135e+002, 8.662517e+001
5.461956e+002, 8.644829e+001
5.466777e+002, 8.646217e+001
5.471599e+002, 8.637087e+001
5.476420e+002, 8.613432e+001
5.481241e+002, 8.584582e+001
5.486062e+002, 8.552769e+001
5.490883e+002, 8.520365e+001
5.495704e+002, 8.490583e+001
5.500526e+002, 8.462631e+001
5.505347e+002, 8.440487e+001
5.510168e+002, 8.436130e+001
5.514989e+002, 8.437626e+001
5.519810e+002, 8.414307e+001
5.524631e+002, 8.359131e+001
5.529453e+002, 8.304128e+001
5.534274e+002, 8.281546e+001
5.539095e+002, 8.291512e+001
5.543916e+002, 8.286382e+001
5.548737e+002, 8.263364e+001
5.553558e+002, 8.231121e+001
5.558380e+002, 8.182564e+001
5.563201e+002, 8.130180e+001
5.568022e+002, 8.092406e+001
5.572843e+002, 8.072314e+001
5.577664e+002, 8.054203e+001
5.582485e+002, 8.017380e+001
5.587307e+002, 7.960916e+001
5.592128e+002, 7.918515e+001
5.596949e+002, 7.903181e+001
5.601770e+002, 7.883865e+001
5.606591e+002, 7.837187e+001
5.611412e+002, 7.786845e+001
5.616234e+002, 7.766772e+001
5.621055e+002, 7.788204e+001
5.625876e+002, 7.810810e+001
5.630697e+002, 7.798347e+001
5.635518e+002, 7.758632e+001
5.640339e+002, 7.718216e+001
5.645161e+002, 7.680901e+001
5.649982e+002, 7.636784e+001
5.654803e+002, 7.568611e+001
5.659624e+002, 7.488322e+001
5.664445e+002, 7.445554e+001
5.669266e+002, 7.476367e+001
5.674088e+002, 7.493148e+001
5.678909e+002, 7.446983e+001
5.683730e+002, 7.379354e+001
5.688551e+002, 7.345447e+001
5.693372e+002, 7.352865e+001
5.698193e+002, 7.368881e+001
5.703015e+002, 7.363038e+001
5.707836e+002, 7.336646e+001
5.712657e+002, 7.316017e+001
5.717478e+002, 7.312260e+001
5.722299e+002, 7.298900e+001
5.727120e+002, 7.260170e+001
5.731942e+002, 7.217660e+001
5.736763e+002, 7.177769e+001
5.741584e+002, 7.147979e+001
5.746405e+002, 7.159908e+001
5.751226e+002, 7.292133e+001
5.756047e+002, 7.495487e+001
5.760869e+002, 7.545908e+001
5.765690e+002, 7.409394e+001
5.770511e+002, 7.261378e+001
5.775332e+002, 7.176207e+001
5.780153e+002, 7.134278e+001
5.784974e+002, 7.103532e+001
5.789796e+002, 7.086031e+001
5.794617e+002, 7.068037e+001
5.799438e+002, 7.037547e+001
5.804259e+002, 7.007961e+001
5.809080e+002, 6.998935e+001
5.813901e+002, 7.008598e+001
5.818723e+002, 7.015968e+001
5.823544e+002, 7.007596e+001
5.828365e+002, 6.987598e+001
5.833186e+002, 6.969577e+001
5.838007e+002, 6.947761e+001
5.842828e+002, 6.937492e+001
5.847650e+002, 6.950207e+001
5.852471e+002, 6.964436e+001
5.857292e+002, 6.967126e+001
5.862113e+002, 6.958486e+001
5.866934e+002, 6.944160e+001
5.871755e+002, 6.926887e+001
5.876577e+002, 6.907643e+001
5.881398e+002, 6.887065e+001
5.886219e+002, 6.863783e+001
5.891040e+002, 6.849306e+001
5.895861e+002, 6.854158e+001
5.900682e+002, 6.860052e+001
5.905504e+002, 6.842947e+001
5.910325e+002, 6.808161e+001
5.915146e+002, 6.791547e+001
5.919967e+002, 6.821375e+001
5.924788e+002, 6.858987e+001
5.929609e+002, 6.870461e+001
5.934431e+002, 6.862254e+001
5.939252e+002, 6.854305e+001
5.944073e+002, 6.853662e+001
5.948894e+002, 6.857282e+001
5.953715e+002, 6.861797e+001
5.958536e+002, 6.869025e+001
5.963358e+002, 6.868523e+001
5.968179e+002, 6.839572e+001
5.973000e+002, 6.826921e+001
5.977821e+002, 6.866795e+001
5.982642e+002, 6.925399e+001
5.987463e+002, 6.951672e+001
5.992285e+002, 6.928877e+001
5.997106e+002, 6.888209e+001
6.001927e+002, 6.863532e+001
6.006748e+002, 6.854581e+001
6.011569e+002, 6.858511e+001
6.016390e+002, 6.880099e+001
6.021212e+002, 6.904135e+001
6.026033e+002, 6.925137e+001
6.030854e+002, 6.942019e+001
6.035675e+002, 6.951620e+001
6.040496e+002, 6.951955e+001
6.045317e+002, 6.949988e+001
6.050139e+002, 6.953181e+001
6.054960e+002, 6.954526e+001
6.059781e+002, 6.940221e+001
6.064602e+002, 6.910438e+001
6.069423e+002, 6.879996e+001
6.074244e+002, 6.857689e+001
6.079066e+002, 6.845447e+001
6.083887e+002, 6.852546e+001
6.088708e+002, 6.901997e+001
6.093529e+002, 6.938255e+001
6.098350e+002, 6.955965e+001
6.103171e+002, 6.963038e+001
6.107993e+002, 6.960290e+001
6.112814e+002, 6.951552e+001
6.117635e+002, 6.944090e+001
6.122456e+002, 6.939701e+001
6.127277e+002, 6.944010e+001
6.132098e+002, 6.977937e+001
6.136920e+002, 7.046204e+001
6.141741e+002, 7.088161e+001
6.146562e+002, 7.079028e+001
6.151383e+002, 7.052017e+001
6.156204e+002, 7.037398e+001
6.161025e+002, 7.033602e+001
6.165847e+002, 7.033464e+001
6.170668e+002, 7.039100e+001
6.175489e+002, 7.044400e+001
6.180310e+002, 7.037807e+001
6.185131e+002, 7.029440e+001
6.189952e+002, 7.042697e+001
6.194774e+002, 7.083947e+001
6.199595e+002, 7.135387e+001
6.204416e+002, 7.177798e+001
6.209237e+002, 7.211710e+001
6.214058e+002, 7.230650e+001
6.218879e+002, 7.214538e+001
6.223701e+002, 7.208094e+001
6.228522e+002, 7.230317e+001
6.233343e+002, 7.260976e+001
6.238164e+002, 7.282431e+001
6.242985e+002, 7.290140e+001
6.247806e+002, 7.283076e+001
6.252628e+002, 7.245886e+001
6.257448e+002, 7.195253e+001
6.262269e+002, 7.179074e+001
6.267090e+002, 7.200415e+001
6.271912e+002, 7.233295e+001
6.276733e+002, 7.274662e+001
6.281554e+002, 7.312502e+001
6.286375e+002, 7.317692e+001
6.291196e+002, 7.281197e+001
6.296017e+002, 7.261404e+001
6.300839e+002, 7.283890e+001
6.305660e+002, 7.310460e+001
6.310481e+002, 7.305469e+001
6.315302e+002, 7.283536e+001
6.320123e+002, 7.285143e+001
6.324944e+002, 7.328860e+001
6.329766e+002, 7.392099e+001
6.334587e+002, 7.436384e+001
6.339408e+002, 7.457768e+001
6.344229e+002, 7.481459e+001
6.349050e+002, 7.511110e+001
6.353871e+002, 7.538454e+001
6.358693e+002, 7.565671e+001
6.363514e+002, 7.586690e+001
6.368335e+002, 7.589237e+001
6.373156e+002, 7.566460e+001
6.377977e+002, 7.543274e+001
6.382798e+002, 7.533389e+001
6.387620e+002, 7.536587e+001
6.392441e+002, 7.558546e+001
6.397262e+002, 7.598742e+001
6.402083e+002, 7.633204e+001
6.406904e+002, 7.644971e+001
6.411725e+002, 7.641077e+001
6.416547e+002, 7.645186e+001
6.421368e+002, 7.667432e+001
6.426189e+002, 7.682724e+001
6.431010e+002, 7.687387e+001
6.435831e+002, 7.688358e+001
6.440652e+002, 7.684460e+001
6.445474e+002, 7.680839e+001
6.450295e+002, 7.689549e+001
6.455116e+002, 7.718447e+001
6.459937e+002, 7.754934e+001
6.464758e+002, 7.778305e+001
6.469579e+002, 7.788669e+001
6.474401e+002, 7.798622e+001
6.479222e+002, 7.809396e+001
6.484043e+002, 7.821358e+001
6.488864e+002, 7.836609e+001
6.493685e+002, 7.853340e+001
6.498506e+002, 7.865791e+001
6.503328e+002, 7.877927e+001
6.508149e+002, 7.879044e+001
6.512970e+002, 7.855272e+001
6.517791e+002, 7.823523e+001
6.522612e+002, 7.802767e+001
6.527433e+002, 7.795600e+001
6.532255e+002, 7.795669e+001
6.537076e+002, 7.797633e+001
6.541897e+002, 7.804498e+001
6.546718e+002, 7.832080e+001
6.551539e+002, 7.899575e+001
6.556360e+002, 7.940792e+001
6.561182e+002, 7.924505e+001
6.566003e+002, 7.897884e+001
6.570824e+002, 7.877039e+001
6.575645e+002, 7.866483e+001
6.580466e+002, 7.877365e+001
6.585287e+002, 7.929651e+001
6.590109e+002, 7.979457e+001
6.594930e+002, 7.974280e+001
6.599751e+002, 7.933700e+001
6.604572e+002, 7.913965e+001
6.609393e+002, 7.927512e+001
6.614214e+002, 7.951070e+001
6.619036e+002, 7.965072e+001
6.623857e+002, 7.970557e+001
6.628678e+002, 7.978353e+001
6.633499e+002, 8.003144e+001
6.638320e+002, 8.010581e+001
6.643141e+002, 7.984511e+001
6.647963e+002, 7.950245e+001
6.652784e+002, 7.922852e+001
6.657605e+002, 7.905918e+001
6.662426e+002, 7.901583e+001
6.667247e+002, 7.914151e+001
6.672068e+002, 7.935037e+001
6.676890e+002, 7.949919e+001
6.681711e+002, 7.958868e+001
6.686532e+002, 7.961569e+001
6.691353e+002, 7.953153e+001
6.696174e+002, 7.950420e+001
6.700995e+002, 7.977299e+001
6.705817e+002, 8.028528e+001
6.710638e+002, 8.051566e+001
6.715459e+002, 8.025642e+001
6.720280e+002, 7.995979e+001
6.725101e+002, 7.969385e+001
6.729922e+002, 7.950684e+001
6.734744e+002, 7.946254e+001
6.739565e+002, 7.955683e+001
6.744386e+002, 7.973485e+001
6.749207e+002, 7.997379e+001
6.754028e+002, 8.023509e+001
6.758849e+002, 8.039253e+001
6.763671e+002, 8.043433e+001
6.768492e+002, 8.041814e+001
6.773313e+002, 8.029424e+001
6.778134e+002, 8.018399e+001
6.782955e+002, 8.019864e+001
6.787776e+002, 8.030759e+001
6.792598e+002, 8.040319e+001
6.797419e+002, 8.047624e+001
6.802240e+002, 8.051106e+001
6.807061e+002, 8.046564e+001
6.811882e+002, 8.038875e+001
6.816703e+002, 8.037516e+001
6.821525e+002, 8.043107e+001
6.826346e+002, 8.046436e+001
6.831167e+002, 8.039859e+001
6.835988e+002, 8.024880e+001
6.840809e+002, 8.008402e+001
6.845630e+002, 7.988802e+001
6.850452e+002, 7.971371e+001
6.855273e+002, 7.952687e+001
6.860094e+002, 7.940199e+001
6.864915e+002, 7.939371e+001
6.869736e+002, 7.948502e+001
6.874557e+002, 7.964699e+001
6.879379e+002, 7.998904e+001
6.884200e+002, 8.018179e+001
6.889021e+002, 7.979117e+001
6.893842e+002, 7.904998e+001
6.898663e+002, 7.846806e+001
6.903484e+002, 7.813853e+001
6.908306e+002, 7.802939e+001
6.913127e+002, 7.815495e+001
6.917948e+002, 7.844737e+001
6.922769e+002, 7.856408e+001
6.927590e+002, 7.840295e+001
6.932411e+002, 7.822332e+001
6.937233e+002, 7.804815e+001
6.942054e+002, 7.785273e+001
6.946875e+002, 7.758697e+001
6.951696e+002, 7.729011e+001
6.956517e+002, 7.707314e+001
6.961339e+002, 7.701370e+001
6.966160e+002, 7.696004e+001
6.970981e+002, 7.666215e+001
6.975802e+002, 7.622277e+001
6.980623e+002, 7.605561e+001
6.985444e+002, 7.624296e+001
6.990266e+002, 7.640603e+001
6.995087e+002, 7.626009e+001
6.999908e+002, 7.589606e+001
7.004729e+002, 7.566274e+001
7.009550e+002, 7.560973e+001
7.014371e+002, 7.561790e+001
7.019193e+002, 7.584391e+001
7.024014e+002, 7.598374e+001
7.028835e+002, 7.579887e+001
7.033656e+002, 7.538905e+001
7.038477e+002, 7.494740e+001
7.043298e+002, 7.454222e+001
7.048120e+002, 7.428423e+001
7.052941e+002, 7.444736e+001
7.057762e+002, 7.491199e+001
7.062583e+002, 7.505347e+001
7.067404e+002, 7.477589e+001
7.072225e+002, 7.444283e+001
7.077046e+002, 7.426384e+001
7.081867e+002, 7.417020e+001
7.086688e+002, 7.396631e+001
7.091509e+002, 7.352969e+001
7.096331e+002, 7.329943e+001
7.101152e+002, 7.354105e+001
7.105973e+002, 7.376408e+001
7.110794e+002, 7.364040e+001
7.115615e+002, 7.329984e+001
7.120436e+002, 7.300338e+001
7.125258e+002, 7.284415e+001
7.130079e+002, 7.272758e+001
7.134900e+002, 7.256467e+001
7.139721e+002, 7.235236e+001
7.144542e+002, 7.205163e+001
7.149363e+002, 7.164717e+001
7.154185e+002, 7.124482e+001
7.159006e+002, 7.085177e+001
7.163827e+002, 7.053468e+001
7.168648e+002, 7.047015e+001
7.173469e+002, 7.073521e+001
7.178290e+002, 7.077043e+001
7.183112e+002, 7.024936e+001
7.187933e+002, 6.978762e+001
7.192754e+002, 6.978602e+001
7.197575e+002, 6.999767e+001
7.202396e+002, 7.004369e+001
7.207217e+002, 6.983289e+001
7.212039e+002, 6.955944e+001
7.216860e+002, 6.943283e+001
7.221681e+002, 6.939241e+001
7.226502e+002, 6.915410e+001
7.231323e+002, 6.867669e+001
7.236144e+002, 6.833324e+001
7.240966e+002, 6.825237e+001
7.245787e+002, 6.834055e+001
7.250608e+002, 6.859085e+001
7.255429e+002, 6.899621e+001
7.260250e+002, 6.908260e+001
7.265071e+002, 6.860033e+001
7.269893e+002, 6.806620e+001
7.274714e+002, 6.753574e+001
7.279535e+002, 6.712797e+001
7.284356e+002, 6.704964e+001
7.289177e+002, 6.726445e+001
7.293998e+002, 6.749442e+001
7.298820e+002, 6.755161e+001
7.303641e+002, 6.746336e+001
7.308462e+002, 6.725611e+001
7.313283e+002, 6.692419e+001
7.318104e+002, 6.664297e+001
7.322925e+002, 6.645530e+001
7.327747e+002, 6.630018e+001
7.332568e+002, 6.610883e+001
7.337389e+002, 6.590635e+001
7.342210e+002, 6.581873e+001
7.347031e+002, 6.604154e+001
7.351852e+002, 6.607660e+001
7.356674e+002, 6.557127e+001
7.361495e+002, 6.504109e+001
7.366316e+002, 6.498294e+001
7.371137e+002, 6.527816e+001
7.375958e+002, 6.550362e+001
7.380779e+002, 6.545365e+001
7.385601e+002, 6.521989e+001
7.390422e+002, 6.486803e+001
7.395243e+002, 6.442374e+001
7.400064e+002, 6.413017e+001
7.404885e+002, 6.401441e+001
7.409706e+002, 6.404018e+001
7.414528e+002, 6.430486e+001
7.419349e+002, 6.461621e+001
7.424170e+002, 6.448113e+001
7.428991e+002, 6.369955e+001
7.433812e+002, 6.320306e+001
7.438633e+002, 6.329504e+001
7.443455e+002, 6.345183e+001
7.448276e+002, 6.344133e+001
7.453097e+002, 6.329712e+001
7.457918e+002, 6.302810e+001
7.462739e+002, 6.266716e+001
7.467560e+002, 6.244334e+001
7.472382e+002, 6.274846e+001
7.477203e+002, 6.333561e+001
7.482024e+002, 6.335830e+001
7.486845e+002, 6.280059e+001
7.491666e+002, 6.235578e+001
7.496487e+002, 6.229697e+001
7.501309e+002, 6.232967e+001
7.506130e+002, 6.207111e+001
7.510951e+002, 6.149445e+001
7.515772e+002, 6.117022e+001
7.520593e+002, 6.120882e+001
7.525414e+002, 6.133268e+001
7.530236e+002, 6.166337e+001
7.535057e+002, 6.192086e+001
7.539878e+002, 6.171479e+001
7.544699e+002, 6.116159e+001
7.549520e+002, 6.083319e+001
7.554341e+002, 6.114118e+001
7.559163e+002, 6.163588e+001
7.563984e+002, 6.165312e+001
7.568805e+002, 6.129934e+001
7.573626e+002, 6.104431e+001
7.578447e+002, 6.096804e+001
7.583268e+002, 6.092053e+001
7.588090e+002, 6.079885e+001
7.592911e+002, 6.062429e+001
7.597732e+002, 6.046765e+001
7.602553e+002, 6.035546e+001
7.607374e+002, 6.021395e+001
7.612195e+002, 5.997073e+001
7.617017e+002, 5.977912e+001
7.621838e+002, 5.975997e+001
7.626659e+002, 5.982408e+001
7.631480e+002, 5.982230e+001
7.636301e+002, 5.971200e+001
7.641122e+002, 5.958911e+001
7.645944e+002, 5.954402e+001
7.650765e+002, 5.952096e+001
7.655586e+002, 5.939677e+001
7.660407e+002, 5.919696e+001
7.665228e+002, 5.909585e+001
7.670049e+002, 5.916451e+001
7.674871e+002, 5.929507e+001
7.679692e+002, 5.935089e+001
7.684513e+002, 5.933009e+001
7.689334e+002, 5.927631e+001
7.694155e+002, 5.922873e+001
7.698976e+002, 5.907892e+001
7.703798e+002, 5.863670e+001
7.708619e+002, 5.821770e+001
7.713440e+002, 5.810044e+001
7.718261e+002, 5.824966e+001
7.723082e+002, 5.841789e+001
7.727903e+002, 5.856844e+001
7.732725e+002, 5.864678e+001
7.737546e+002, 5.859202e+001
7.742367e+002, 5.844997e+001
7.747188e+002, 5.826631e+001
7.752009e+002, 5.806297e+001
7.756830e+002, 5.790263e+001
7.761652e+002, 5.783421e+001
7.766473e+002, 5.779482e+001
7.771294e+002, 5.762500e+001
7.776115e+002, 5.730287e+001
7.780936e+002, 5.697947e+001
7.785757e+002, 5.658664e+001
7.790579e+002, 5.633921e+001
7.795400e+002, 5.647182e+001
7.800221e+002, 5.677533e+001
7.805042e+002, 5.690089e+001
7.809863e+002, 5.681443e+001
7.814684e+002, 5.667668e+001
7.819506e+002, 5.646992e+001
7.824327e+002, 5.628031e+001
7.829148e+002, 5.617251e+001
7.833969e+002, 5.611591e+001
7.838790e+002, 5.604502e+001
7.843611e+002, 5.594912e+001
7.848433e+002, 5.589214e+001
7.853254e+002, 5.594292e+001
7.858075e+002, 5.607118e+001
7.862896e+002, 5.623053e+001
7.867717e+002, 5.642329e+001
7.872538e+002, 5.640269e+001
7.877360e+002, 5.603148e+001
7.882181e+002, 5.566616e+001
7.887002e+002, 5.567114e+001
7.891823e+002, 5.598980e+001
7.896644e+002, 5.613999e+001
7.901465e+002, 5.596888e+001
7.906286e+002, 5.585821e+001
7.911107e+002, 5.591177e+001
7.915928e+002, 5.596391e+001
7.920750e+002, 5.585305e+001
7.925571e+002, 5.566713e+001
7.930392e+002, 5.563692e+001
7.935213e+002, 5.586847e+001
7.940034e+002, 5.606012e+001
7.944855e+002, 5.586943e+001
7.949677e+002, 5.549068e+001
7.954498e+002, 5.528477e+001
7.959319e+002, 5.525420e+001
7.964140e+002, 5.526970e+001
7.968961e+002, 5.528002e+001
7.973782e+002, 5.528816e+001
7.978604e+002, 5.530447e+001
7.983425e+002, 5.533150e+001
7.988246e+002, 5.529309e+001
7.993067e+002, 5.516088e+001
7.997888e+002, 5.501336e+001
8.002709e+002, 5.483998e+001
8.007531e+002, 5.468158e+001
8.012352e+002, 5.450594e+001
8.017173e+002, 5.435711e+001
8.021994e+002, 5.444939e+001
8.026815e+002, 5.511425e+001
8.031636e+002, 5.562850e+001
8.036458e+002, 5.546458e+001
8.041279e+002, 5.503741e+001
8.046100e+002, 5.486235e+001
8.050921e+002, 5.491559e+001
8.055742e+002, 5.481657e+001
8.060563e+002, 5.434418e+001
8.065385e+002, 5.385730e+001
8.070206e+002, 5.406726e+001
8.075027e+002, 5.489934e+001
8.079848e+002, 5.524924e+001
8.084669e+002, 5.498196e+001
8.089490e+002, 5.470549e+001
8.094312e+002, 5.469873e+001
8.099133e+002, 5.480770e+001
8.103954e+002, 5.481590e+001
8.108775e+002, 5.471553e+001
8.113596e+002, 5.454794e+001
8.118417e+002, 5.417550e+001
8.123239e+002, 5.391255e+001
8.128060e+002, 5.385332e+001
8.132881e+002, 5.393599e+001
8.137702e+002, 5.422339e+001
8.142523e+002, 5.461636e+001
8.147344e+002, 5.476388e+001
8.152166e+002, 5.439948e+001
8.156987e+002, 5.391986e+001
8.161808e+002, 5.375567e+001
8.166629e+002, 5.378592e+001
8.171450e+002, 5.373473e+001
8.176271e+002, 5.357910e+001
8.181093e+002, 5.346231e+001
8.185914e+002, 5.347228e+001
8.190735e+002, 5.352877e+001
8.195556e+002, 5.346392e+001
8.200377e+002, 5.324653e+001
8.205198e+002, 5.308774e+001
8.210020e+002, 5.291960e+001
8.214841e+002, 5.294152e+001
8.219662e+002, 5.345274e+001
8.224483e+002, 5.403235e+001
8.229304e+002, 5.417558e+001
8.234125e+002, 5.389365e+001
8.238947e+002, 5.365511e+001
8.243768e+002, 5.346073e+001
8.248589e+002, 5.343822e+001
8.253410e+002, 5.379826e+001
8.258231e+002, 5.425888e+001
8.263052e+002, 5.453656e+001
8.267874e+002, 5.460188e+001
8.272695e+002, 5.452042e+001
8.277516e+002, 5.430718e+001
8.282337e+002, 5.406651e+001
8.287158e+002, 5.394099e+001
8.291979e+002, 5.391477e+001
8.296801e+002, 5.394225e+001
8.301622e+002, 5.401958e+001
8.306443e+002, 5.406541e+001
8.311264e+002, 5.403881e+001
8.316085e+002, 5.395870e+001
8.320906e+002, 5.385007e+001
8.325728e+002, 5.370654e+001
8.330549e+002, 5.358298e+001
8.335370e+002, 5.350648e+001
8.340191e+002, 5.341084e+001
8.345012e+002, 5.317302e+001
8.349833e+002, 5.299733e+001
8.354655e+002, 5.308978e+001
8.359476e+002, 5.341028e+001
8.364297e+002, 5.373117e+001
8.369118e+002, 5.409744e+001
8.373939e+002, 5.427095e+001
8.378760e+002, 5.389960e+001
8.383582e+002, 5.341455e+001
8.388403e+002, 5.334188e+001
8.393224e+002, 5.363799e+001
8.398045e+002, 5.402123e+001
8.402866e+002, 5.436054e+001
8.407687e+002, 5.455410e+001
8.412509e+002, 5.436377e+001
8.417330e+002, 5.387780e+001
8.422151e+002, 5.361299e+001
8.426972e+002, 5.358656e+001
8.431793e+002, 5.366789e+001
8.436614e+002, 5.385004e+001
8.441436e+002, 5.400774e+001
8.446257e+002, 5.397115e+001
8.451078e+002, 5.374691e+001
8.455899e+002, 5.364575e+001
8.460720e+002, 5.381070e+001
8.465541e+002, 5.388854e+001
8.470363e+002, 5.373613e+001
8.475184e+002, 5.359582e+001
8.480005e+002, 5.367928e+001
8.484826e+002, 5.388133e+001
8.489647e+002, 5.394260e+001
8.494468e+002, 5.377069e+001
8.499290e+002, 5.357655e+001
8.504111e+002, 5.344090e+001
8.508932e+002, 5.336491e+001
8.513753e+002, 5.335231e+001
8.518574e+002, 5.339901e+001
8.523395e+002, 5.351538e+001
8.528217e+002, 5.369524e+001
8.533038e+002, 5.387798e+001
8.537859e+002, 5.402177e+001
8.542680e+002, 5.410518e+001
8.547501e+002, 5.399244e+001
8.552322e+002, 5.368374e+001
8.557144e+002, 5.361970e+001
8.561965e+002, 5.395675e+001
8.566786e+002, 5.424087e+001
8.571607e+002, 5.410400e+001
8.576428e+002, 5.367756e+001
8.581249e+002, 5.337714e+001
8.586071e+002, 5.321154e+001
8.590892e+002, 5.315729e+001
8.595713e+002, 5.332498e+001
8.600534e+002, 5.347090e+001
8.605355e+002, 5.345670e+001
8.610176e+002, 5.340389e+001
8.614998e+002, 5.352319e+001
8.619819e+002, 5.381697e+001
8.624640e+002, 5.392608e+001
8.629461e+002, 5.352958e+001
8.634282e+002, 5.309192e+001
8.639103e+002, 5.294070e+001
8.643925e+002, 5.294098e+001
8.648746e+002, 5.292308e+001
8.653567e+002, 5.285820e+001
8.658388e+002, 5.276239e+001
8.663209e+002, 5.263796e+001
8.668030e+002, 5.254255e+001
8.672852e+002, 5.258892e+001
8.677673e+002, 5.274894e+001
8.682494e+002, 5.289523e+001
8.687315e+002, 5.302254e+001
8.692136e+002, 5.303937e+001
8.696957e+002, 5.288852e+001
8.701779e+002, 5.267510e+001
8.706600e+002, 5.253201e+001
8.711421e+002, 5.245898e+001
8.716242e+002, 5.244691e+001
8.721063e+002, 5.253904e+001
8.725884e+002, 5.261583e+001
8.730705e+002, 5.265921e+001
8.735526e+002, 5.267960e+001
8.740347e+002, 5.267628e+001
8.745168e+002, 5.265501e+001
8.749990e+002, 5.264277e+001
8.754811e+002, 5.268302e+001
8.759632e+002, 5.261042e+001
8.764453e+002, 5.215013e+001
8.769274e+002, 5.176579e+001
8.774095e+002, 5.196171e+001
8.778917e+002, 5.241631e+001
8.783738e+002, 5.250482e+001
8.788559e+002, 5.212696e+001
8.793380e+002, 5.177874e+001
8.798201e+002, 5.189302e+001
8.803022e+002, 5.220321e+001
8.807844e+002, 5.226971e+001
8.812665e+002, 5.215227e+001
8.817486e+002, 5.205578e+001
8.822307e+002, 5.201546e+001
8.827128e+002, 5.201384e+001
8.831949e+002, 5.203761e+001
8.836771e+002, 5.210530e+001
8.841592e+002, 5.229110e+001
8.846413e+002, 5.263991e+001
8.851234e+002, 5.276065e+001
8.856055e+002, 5.259247e+001
8.860876e+002, 5.233185e+001
8.865698e+002, 5.193449e+001
8.870519e+002, 5.158927e+001
8.875340e+002, 5.157529e+001
8.880161e+002, 5.186274e+001
8.884982e+002, 5.198056e+001
8.889803e+002, 5.176609e+001
8.894625e+002, 5.159287e+001
8.899446e+002, 5.154699e+001
8.904267e+002, 5.154114e+001
8.909088e+002, 5.152397e+001
8.913909e+002, 5.149884e+001
8.918730e+002, 5.147982e+001
8.923552e+002, 5.147028e+001
8.928373e+002, 5.148100e+001
8.933194e+002, 5.159081e+001
8.938015e+002, 5.166449e+001
8.942836e+002, 5.150747e+001
8.947657e+002, 5.121591e+001
8.952479e+002, 5.096744e+001
8.957300e+002, 5.081537e+001
8.962121e+002, 5.080323e+001
8.966942e+002, 5.100131e+001
8.971763e+002, 5.122880e+001
8.976584e+002, 5.103328e+001
8.981406e+002, 5.047530e+001
8.986227e+002, 5.018237e+001
8.991048e+002, 5.022755e+001
8.995869e+002, 5.035637e+001
9.000690e+002, 5.048513e+001
9.005511e+002, 5.052942e+001
9.010333e+002, 5.033335e+001
9.015154e+002, 4.987868e+001
9.019975e+002, 4.959914e+001
9.024796e+002, 4.958802e+001
9.029617e+002, 4.957835e+001
9.034438e+002, 4.955241e+001
9.039260e+002, 4.948196e+001
9.044081e+002, 4.929877e+001
9.048902e+002, 4.906281e+001
9.053723e+002, 4.893196e+001
9.058544e+002, 4.894332e+001
9.063365e+002, 4.900285e+001
9.068187e+002, 4.919854e+001
9.073008e+002, 4.931892e+001
9.077829e+002, 4.918197e+001
9.082650e+002, 4.891859e+001
9.087471e+002, 4.868418e+001
9.092292e+002, 4.851994e+001
9.097114e+002, 4.843408e+001
9.101935e+002, 4.846144e+001
9.106756e+002, 4.852235e+001
9.111577e+002, 4.859483e+001
9.116398e+002, 4.861823e+001
9.121219e+002, 4.842179e+001
9.126041e+002, 4.804653e+001
9.130862e+002, 4.771671e+001
9.135683e+002, 4.753864e+001
9.140504e+002, 4.751722e+001
9.145325e+002, 4.772625e+001
9.150146e+002, 4.810268e+001
9.154968e+002, 4.829235e+001
9.159789e+002, 4.829356e+001
9.164610e+002, 4.813203e+001
9.169431e+002, 4.777220e+001
9.174252e+002, 4.744624e+001
9.179073e+002, 4.736321e+001
9.183895e+002, 4.744812e+001
9.188716e+002, 4.740476e+001
9.193537e+002, 4.706944e+001
9.198358e+002, 4.704108e+001
9.203179e+002, 4.765422e+001
9.208000e+002, 4.809327e+001
9.212822e+002, 4.783100e+001
9.217643e+002, 4.736615e+001
9.222464e+002, 4.729331e+001
9.227285e+002, 4.759703e+001
9.232106e+002, 4.770125e+001
9.236927e+002, 4.735466e+001
9.241749e+002, 4.703235e+001
9.246570e+002, 4.685943e+001
9.251391e+002, 4.676705e+001
9.256212e+002, 4.674689e+001
9.261033e+002, 4.675193e+001
9.265854e+002, 4.669037e+001
9.270676e+002, 4.653337e+001
9.275497e+002, 4.639476e+001
9.280318e+002, 4.643794e+001
9.285139e+002, 4.645872e+001
9.289960e+002, 4.606511e+001
9.294781e+002, 4.555816e+001
9.299603e+002, 4.567217e+001
9.304424e+002, 4.638539e+001
9.309245e+002, 4.684994e+001
9.314066e+002, 4.649031e+001
9.318887e+002, 4.581891e+001
9.323708e+002, 4.567687e+001
9.328530e+002, 4.592309e+001
9.333351e+002, 4.596334e+001
9.338172e+002, 4.577600e+001
9.342993e+002, 4.556767e+001
9.347814e+002, 4.541090e+001
9.352635e+002, 4.530883e+001
9.357457e+002, 4.527450e+001
9.362278e+002, 4.529237e+001
9.367099e+002, 4.526410e+001
9.371920e+002, 4.516866e+001
9.376741e+002, 4.513081e+001
9.381563e+002, 4.522023e+001
9.386384e+002, 4.523756e+001
9.391205e+002, 4.501379e+001
9.396026e+002, 4.469984e+001
9.400847e+002, 4.459580e+001
9.405668e+002, 4.477390e+001
9.410490e+002, 4.473604e+001
9.415311e+002, 4.421309e+001
9.420132e+002, 4.385096e+001
9.424953e+002, 4.394135e+001
9.429774e+002, 4.407955e+001
9.434595e+002, 4.393153e+001
9.439417e+002, 4.359617e+001
9.444238e+002, 4.334246e+001
9.449059e+002, 4.319378e+001
9.453880e+002, 4.323778e+001
9.458701e+002, 4.374407e+001
9.463522e+002, 4.420049e+001
9.468344e+002, 4.423501e+001
9.473165e+002, 4.402563e+001
9.477986e+002, 4.382008e+001
9.482807e+002, 4.365138e+001
9.487628e+002, 4.338939e+001
9.492449e+002, 4.287172e+001
9.497271e+002, 4.247956e+001
9.502092e+002, 4.272368e+001
9.506913e+002, 4.324208e+001
9.511734e+002, 4.351808e+001
9.516555e+002, 4.354197e+001
9.521376e+002, 4.340240e+001
9.526198e+002, 4.315043e+001
9.531019e+002, 4.295816e+001
9.535840e+002, 4.301695e+001
9.540661e+002, 4.321857e+001
9.545482e+002, 4.332051e+001
9.550303e+002, 4.332634e+001
9.555124e+002, 4.323875e+001
9.559945e+002, 4.305810e+001
9.564766e+002, 4.288732e+001
9.569587e+002, 4.278283e+001
9.574409e+002, 4.270148e+001
9.579230e+002, 4.254307e+001
9.584051e+002, 4.231279e+001
9.588872e+002, 4.242996e+001
9.593693e+002, 4.303942e+001
9.598514e+002, 4.334167e+001
9.603336e+002, 4.303320e+001
9.608157e+002, 4.268959e+001
9.612978e+002, 4.278313e+001
9.617799e+002, 4.313512e+001
9.622620e+002, 4.324342e+001
9.627441e+002, 4.305094e+001
9.632263e+002, 4.278829e+001
9.637084e+002, 4.228415e+001
9.641905e+002, 4.194592e+001
9.646726e+002, 4.194249e+001
9.651547e+002, 4.209382e+001
9.656368e+002, 4.229615e+001
9.661190e+002, 4.252591e+001
9.666011e+002, 4.270605e+001
9.670832e+002, 4.286312e+001
9.675653e+002, 4.289846e+001
9.680474e+002, 4.271227e+001
9.685295e+002, 4.248362e+001
9.690117e+002, 4.225103e+001
9.694938e+002, 4.207465e+001
9.699759e+002, 4.207081e+001
9.704580e+002, 4.222004e+001
9.709401e+002, 4.229356e+001
9.714222e+002, 4.208710e+001
9.719044e+002, 4.194882e+001
9.723865e+002, 4.227323e+001
9.728686e+002, 4.263989e+001
9.733507e+002, 4.250367e+001
9.738328e+002, 4.205091e+001
9.743149e+002, 4.175997e+001
9.747971e+002, 4.177757e+001
9.752792e+002, 4.196223e+001
9.757613e+002, 4.234370e+001
9.762434e+002, 4.267485e+001
9.767255e+002, 4.249209e+001
9.772076e+002, 4.204982e+001
9.776898e+002, 4.193534e+001
9.781719e+002, 4.215207e+001
9.786540e+002, 4.223818e+001
9.791361e+002, 4.197637e+001
9.796182e+002, 4.184925e+001
9.801003e+002, 4.239380e+001
9.805825e+002, 4.357788e+001
9.810646e+002, 4.565828e+001
9.815467e+002, 4.842927e+001
9.820288e+002, 5.022194e+001
9.825109e+002, 5.070056e+001
9.829930e+002, 5.046717e+001
9.834752e+002, 4.989919e+001
9.839573e+002, 4.888093e+001
9.844394e+002, 4.677946e+001
9.849215e+002, 4.357364e+001
9.854036e+002, 4.300154e+001
9.858857e+002, 4.559717e+001
9.863679e+002, 4.767036e+001
9.868500e+002, 4.818959e+001
9.873321e+002, 4.819167e+001
9.878142e+002, 4.847953e+001
9.882963e+002, 4.892810e+001
9.887784e+002, 4.913264e+001
9.892606e+002, 4.900910e+001
9.897427e+002, 4.891708e+001
9.902248e+002, 4.873722e+001
9.907069e+002, 4.884877e+001
9.911890e+002, 4.974941e+001
9.916711e+002, 5.056679e+001
9.921533e+002, 5.029636e+001
9.926354e+002, 4.915956e+001
9.931175e+002, 4.849638e+001
9.935996e+002, 4.899414e+001
9.940817e+002, 4.873048e+001
9.945638e+002, 4.696072e+001
9.950460e+002, 4.528115e+001
9.955281e+002, 4.432775e+001
9.960102e+002, 4.375814e+001
9.964923e+002, 4.323805e+001
9.969744e+002, 4.274689e+001
9.974565e+002, 4.232688e+001
9.979387e+002, 4.190840e+001
9.984208e+002, 4.169367e+001
9.989029e+002, 4.198131e+001
9.993850e+002, 4.222982e+001
9.998671e+002, 4.199734e+001
1.000349e+003, 4.156362e+001
1.000831e+003, 4.135568e+001
1.001313e+003, 4.141518e+001
1.001796e+003, 4.147523e+001
1.002278e+003, 4.137722e+001
1.002760e+003, 4.132965e+001
1.003242e+003, 4.155378e+001
1.003724e+003, 4.178619e+001
1.004206e+003, 4.174315e+001
1.004688e+003, 4.152728e+001
1.005170e+003, 4.135212e+001
1.005653e+003, 4.127892e+001
1.006135e+003, 4.129752e+001
1.006617e+003, 4.148264e+001
1.007099e+003, 4.164764e+001
1.007581e+003, 4.155635e+001
1.008063e+003, 4.137301e+001
1.008545e+003, 4.132064e+001
1.009027e+003, 4.139454e+001
1.009509e+003, 4.153759e+001
1.009992e+003, 4.171613e+001
1.010474e+003, 4.181416e+001
1.010956e+003, 4.171991e+001
1.011438e+003, 4.149654e+001
1.011920e+003, 4.111148e+001
1.012402e+003, 4.070928e+001
1.012884e+003, 4.069556e+001
1.013366e+003, 4.103451e+001
1.013849e+003, 4.133030e+001
1.014331e+003, 4.141121e+001
1.014813e+003, 4.143967e+001
1.015295e+003, 4.163885e+001
1.015777e+003, 4.188891e+001
1.016259e+003, 4.185946e+001
1.016741e+003, 4.160241e+001
1.017223e+003, 4.132683e+001
1.017705e+003, 4.107598e+001
1.018188e+003, 4.092809e+001
1.018670e+003, 4.092690e+001
1.019152e+003, 4.098914e+001
1.019634e+003, 4.100436e+001
1.020116e+003, 4.098258e+001
1.020598e+003, 4.098993e+001
1.021080e+003, 4.102244e+001
1.021562e+003, 4.093828e+001
1.022044e+003, 4.070233e+001
1.022527e+003, 4.057742e+001
1.023009e+003, 4.074089e+001
1.023491e+003, 4.096345e+001
1.023973e+003, 4.082038e+001
1.024455e+003, 4.035416e+001
1.024937e+003, 4.034408e+001
1.025419e+003, 4.086473e+001
1.025901e+003, 4.120607e+001
1.026384e+003, 4.122258e+001
1.026866e+003, 4.110424e+001
1.027348e+003, 4.093344e+001
1.027830e+003, 4.077873e+001
1.028312e+003, 4.077692e+001
1.028794e+003, 4.093534e+001
1.029276e+003, 4.106856e+001
1.029758e+003, 4.116624e+001
1.030240e+003, 4.128184e+001
1.030723e+003, 4.144303e+001
1.031205e+003, 4.159120e+001
1.031687e+003, 4.172412e+001
1.032169e+003, 4.177544e+001
1.032651e+003, 4.157218e+001
1.033133e+003, 4.105468e+001
1.033615e+003, 4.078852e+001
1.034097e+003, 4.084381e+001
1.034579e+003, 4.101358e+001
1.035062e+003, 4.139961e+001
1.035544e+003, 4.167238e+001
1.036026e+003, 4.152244e+001
1.036508e+003, 4.116546e+001
1.036990e+003, 4.109083e+001
1.037472e+003, 4.140030e+001
1.037954e+003, 4.141404e+001
1.038436e+003, 4.087002e+001
1.038919e+003, 4.045140e+001
1.039401e+003, 4.035086e+001
1.039883e+003, 4.032643e+001
1.040365e+003, 4.014523e+001
1.040847e+003, 3.995655e+001
1.041329e+003, 4.013987e+001
1.041811e+003, 4.082410e+001
1.042293e+003, 4.119964e+001
1.042776e+003, 4.108454e+001
1.043258e+003, 4.089735e+001
1.043740e+003, 4.064334e+001
1.044222e+003, 4.041203e+001
1.044704e+003, 4.025887e+001
1.045186e+003, 4.016999e+001
1.045668e+003, 4.013139e+001
1.046150e+003, 4.015496e+001
1.046632e+003, 4.013728e+001
1.047115e+003, 3.995055e+001
1.047597e+003, 3.988263e+001
1.048079e+003, 4.011761e+001
1.048561e+003, 4.038271e+001
1.049043e+003, 4.053020e+001
1.049525e+003, 4.055867e+001
1.050007e+003, 4.047585e+001
1.050489e+003, 4.027712e+001
1.050971e+003, 4.003230e+001
1.051454e+003, 3.959183e+001
1.051936e+003, 3.933048e+001
1.052418e+003, 3.953771e+001
1.052900e+003, 3.979021e+001
1.053382e+003, 3.972968e+001
1.053864e+003, 3.951271e+001
1.054346e+003, 3.946296e+001
1.054828e+003, 3.962977e+001
1.055311e+003, 3.978721e+001
1.055793e+003, 3.993804e+001
1.056275e+003, 3.998598e+001
1.056757e+003, 3.981137e+001
1.057239e+003, 3.960627e+001
1.057721e+003, 3.954368e+001
1.058203e+003, 3.954136e+001
1.058685e+003, 3.939553e+001
1.059167e+003, 3.908306e+001
1.059650e+003, 3.893383e+001
1.060132e+003, 3.924990e+001
1.060614e+003, 3.948475e+001
1.061096e+003, 3.933855e+001
1.061578e+003, 3.912429e+001
1.062060e+003, 3.909888e+001
1.062542e+003, 3.916500e+001
1.063024e+003, 3.913749e+001
1.063506e+003, 3.898946e+001
1.063989e+003, 3.881233e+001
1.064471e+003, 3.849535e+001
1.064953e+003, 3.835823e+001
1.065435e+003, 3.870324e+001
1.065917e+003, 3.910840e+001
1.066399e+003, 3.932078e+001
1.066881e+003, 3.933948e+001
1.067363e+003, 3.916407e+001
1.067846e+003, 3.881819e+001
1.068328e+003, 3.843472e+001
1.068810e+003, 3.793565e+001
1.069292e+003, 3.763182e+001
1.069774e+003, 3.773391e+001
1.070256e+003, 3.801103e+001
1.070738e+003, 3.846374e+001
1.071220e+003, 3.888090e+001
1.071703e+003, 3.893317e+001
1.072185e+003, 3.864132e+001
1.072667e+003, 3.840838e+001
1.073149e+003, 3.843623e+001
1.073631e+003, 3.841797e+001
1.074113e+003, 3.805854e+001
1.074595e+003, 3.776099e+001
1.075077e+003, 3.791656e+001
1.075559e+003, 3.825010e+001
1.076042e+003, 3.839545e+001
1.076524e+003, 3.833373e+001
1.077006e+003, 3.824340e+001
1.077488e+003, 3.817321e+001
1.077970e+003, 3.811974e+001
1.078452e+003, 3.811597e+001
1.078934e+003, 3.809019e+001
1.079416e+003, 3.793523e+001
1.079898e+003, 3.777143e+001
1.080380e+003, 3.776820e+001
1.080863e+003, 3.789369e+001
1.081345e+003, 3.796597e+001
1.081827e+003, 3.790102e+001
1.082309e+003, 3.792397e+001
1.082791e+003, 3.833577e+001
1.083273e+003, 3.863403e+001
1.083755e+003, 3.839966e+001
1.084237e+003, 3.797713e+001
1.084720e+003, 3.771173e+001
1.085202e+003, 3.759811e+001
1.085684e+003, 3.748038e+001
1.086166e+003, 3.730421e+001
1.086648e+003, 3.727148e+001
1.087130e+003, 3.773165e+001
1.087612e+003, 3.802797e+001
1.088094e+003, 3.759070e+001
1.088577e+003, 3.703230e+001
1.089059e+003, 3.696417e+001
1.089541e+003, 3.722638e+001
1.090023e+003, 3.740093e+001
1.090505e+003, 3.740225e+001
1.090987e+003, 3.734117e+001
1.091469e+003, 3.719158e+001
1.091951e+003, 3.707898e+001
1.092433e+003, 3.710210e+001
1.092916e+003, 3.713976e+001
1.093398e+003, 3.705888e+001
1.093880e+003, 3.694270e+001
1.094362e+003, 3.695627e+001
1.094844e+003, 3.711266e+001
1.095326e+003, 3.724255e+001
1.095808e+003, 3.736573e+001
1.096290e+003, 3.734615e+001
1.096772e+003, 3.701271e+001
1.097255e+003, 3.665898e+001
1.097737e+003, 3.640711e+001
1.098219e+003, 3.628611e+001
1.098701e+003, 3.633824e+001
1.099183e+003, 3.654925e+001
1.099665e+003, 3.683457e+001
1.100147e+003, 3.733611e+001
1.100629e+003, 3.757088e+001
1.101112e+003, 3.715932e+001
1.101594e+003, 3.675405e+001
1.102076e+003, 3.670204e+001
1.102558e+003, 3.679731e+001
1.103040e+003, 3.686007e+001
1.103522e+003, 3.686365e+001
1.104004e+003, 3.676865e+001
1.104486e+003, 3.651217e+001
1.104969e+003, 3.634027e+001
1.105451e+003, 3.631141e+001
1.105933e+003, 3.635490e+001
1.106415e+003, 3.655876e+001
1.106897e+003, 3.672227e+001
1.107379e+003, 3.660479e+001
1.107861e+003, 3.634011e+001
1.108343e+003, 3.628609e+001
1.108825e+003, 3.652306e+001
1.109307e+003, 3.665349e+001
1.109790e+003, 3.658691e+001
1.110272e+003, 3.649072e+001
1.110754e+003, 3.632299e+001
1.111236e+003, 3.621428e+001
1.111718e+003, 3.633980e+001
1.112200e+003, 3.652874e+001
1.112682e+003, 3.644175e+001
1.113164e+003, 3.605180e+001
1.113647e+003, 3.591119e+001
1.114129e+003, 3.624200e+001
1.114611e+003, 3.645511e+001
1.115093e+003, 3.650296e+001
1.115575e+003, 3.643386e+001
1.116057e+003, 3.612790e+001
1.116539e+003, 3.584846e+001
1.117021e+003, 3.599346e+001
1.117504e+003, 3.646870e+001
1.117986e+003, 3.654817e+001
1.118468e+003, 3.590923e+001
1.118950e+003, 3.566261e+001
1.119432e+003, 3.605021e+001
1.119914e+003, 3.636605e+001
1.120396e+003, 3.639773e+001
1.120878e+003, 3.626392e+001
1.121360e+003, 3.600796e+001
1.121843e+003, 3.570506e+001
1.122325e+003, 3.558538e+001
1.122807e+003, 3.567849e+001
1.123289e+003, 3.578647e+001
1.123771e+003, 3.593393e+001
1.124253e+003, 3.600911e+001
1.124735e+003, 3.597380e+001
1.125217e+003, 3.591143e+001
1.125699e+003, 3.588729e+001
1.126182e+003, 3.583491e+001
1.126664e+003, 3.560509e+001
1.127146e+003, 3.522048e+001
1.127628e+003, 3.512661e+001
1.128110e+003, 3.535931e+001
1.128592e+003, 3.557664e+001
1.129074e+003, 3.574259e+001
1.129556e+003, 3.581551e+001
1.130039e+003, 3.576725e+001
1.130521e+003, 3.566304e+001
1.131003e+003, 3.556370e+001
1.131485e+003, 3.548896e+001
1.131967e+003, 3.556721e+001
1.132449e+003, 3.577730e+001
1.132931e+003, 3.566425e+001
1.133413e+003, 3.521559e+001
1.133896e+003, 3.498933e+001
1.134378e+003, 3.515554e+001
1.134860e+003, 3.544524e+001
1.135342e+003, 3.567218e+001
1.135824e+003, 3.578077e+001
1.136306e+003, 3.558802e+001
1.136788e+003, 3.519997e+001
1.137270e+003, 3.488760e+001
1.137752e+003, 3.474688e+001
1.138234e+003, 3.549578e+001
1.138717e+003, 3.706016e+001
1.139199e+003, 3.793231e+001
1.139681e+003, 3.734070e+001
1.140163e+003, 3.627831e+001
1.140645e+003, 3.579066e+001
1.141127e+003, 3.563003e+001
1.141609e+003, 3.534084e+001
1.142091e+003, 3.501824e+001
1.142574e+003, 3.488430e+001
1.143056e+003, 3.492372e+001
1.143538e+003, 3.500617e+001
1.144020e+003, 3.508720e+001
1.144502e+003, 3.519511e+001
1.144984e+003, 3.538398e+001
1.145466e+003, 3.552687e+001
1.145948e+003, 3.543703e+001
1.146431e+003, 3.526825e+001
1.146913e+003, 3.522687e+001
1.147395e+003, 3.524996e+001
1.147877e+003, 3.514728e+001
1.148359e+003, 3.495180e+001
1.148841e+003, 3.496173e+001
1.149323e+003, 3.534964e+001
1.149805e+003, 3.565998e+001
1.150287e+003, 3.551023e+001
1.150770e+003, 3.528855e+001
1.151252e+003, 3.528911e+001
1.151734e+003, 3.535548e+001
1.152216e+003, 3.534333e+001
1.152698e+003, 3.523768e+001
1.153180e+003, 3.502350e+001
1.153662e+003, 3.469914e+001
1.154144e+003, 3.443880e+001
1.154626e+003, 3.419042e+001
1.155109e+003, 3.417120e+001
1.155591e+003, 3.466005e+001
1.156073e+003, 3.517140e+001
1.156555e+003, 3.548792e+001
1.157037e+003, 3.559592e+001
1.157519e+003, 3.539725e+001
1.158001e+003, 3.496041e+001
1.158483e+003, 3.474349e+001
1.158966e+003, 3.491880e+001
1.159448e+003, 3.503293e+001
1.159930e+003, 3.508832e+001
1.160412e+003, 3.503330e+001
1.160894e+003, 3.467926e+001
1.161376e+003, 3.441148e+001
1.161858e+003, 3.461888e+001
1.162340e+003, 3.505256e+001
1.162822e+003, 3.514104e+001
1.163305e+003, 3.483400e+001
1.163787e+003, 3.474159e+001
1.164269e+003, 3.497252e+001
1.164751e+003, 3.508317e+001
1.165233e+003, 3.494721e+001
1.165715e+003, 3.490735e+001
1.166197e+003, 3.517956e+001
1.166679e+003, 3.547482e+001
1.167161e+003, 3.543868e+001
1.167644e+003, 3.515351e+001
1.168126e+003, 3.493666e+001
1.168608e+003, 3.478689e+001
1.169090e+003, 3.476583e+001
1.169572e+003, 3.488008e+001
1.170054e+003, 3.497809e+001
1.170536e+003, 3.501880e+001
1.171018e+003, 3.500700e+001
1.171500e+003, 3.493593e+001
1.171983e+003, 3.488743e+001
1.172465e+003, 3.505053e+001
1.172947e+003, 3.532193e+001
1.173429e+003, 3.533134e+001
1.173911e+003, 3.514127e+001
1.174393e+003, 3.497221e+001
1.174875e+003, 3.485392e+001
1.175357e+003, 3.474463e+001
1.175840e+003, 3.463200e+001
1.176322e+003, 3.458386e+001
1.176804e+003, 3.469271e+001
1.177286e+003, 3.480868e+001
1.177768e+003, 3.470878e+001
1.178250e+003, 3.452419e+001
1.178732e+003, 3.437102e+001
1.179214e+003, 3.431683e+001
1.179697e+003, 3.457170e+001
1.180179e+003, 3.504758e+001
1.180661e+003, 3.526456e+001
1.181143e+003, 3.499295e+001
1.181625e+003, 3.471027e+001
1.182107e+003, 3.469592e+001
1.182589e+003, 3.477922e+001
1.183071e+003, 3.487711e+001
1.183553e+003, 3.499463e+001
1.184036e+003, 3.524549e+001
1.184518e+003, 3.547672e+001
1.185000e+003, 3.531989e+001
1.185482e+003, 3.475898e+001
1.185964e+003, 3.445642e+001
1.186446e+003, 3.480434e+001
1.186928e+003, 3.502655e+001
1.187410e+003, 3.484844e+001
1.187892e+003, 3.470269e+001
1.188375e+003, 3.490426e+001
1.188857e+003, 3.509846e+001
1.189339e+003, 3.482337e+001
1.189821e+003, 3.432022e+001
1.190303e+003, 3.434996e+001
1.190785e+003, 3.507979e+001
1.191267e+003, 3.531347e+001
1.191749e+003, 3.477448e+001
1.192232e+003, 3.454803e+001
1.192714e+003, 3.493377e+001
1.193196e+003, 3.525459e+001
1.193678e+003, 3.513987e+001
1.194160e+003, 3.490054e+001
1.194642e+003, 3.493404e+001
1.195124e+003, 3.513818e+001
1.195606e+003, 3.507322e+001
1.196089e+003, 3.475385e+001
1.196571e+003, 3.457351e+001
1.197053e+003, 3.454901e+001
1.197535e+003, 3.465795e+001
1.198017e+003, 3.488239e+001
1.198499e+003, 3.499967e+001
1.198981e+003, 3.486256e+001
1.199463e+003, 3.468455e+001
1.199945e+003, 3.477850e+001
1.200427e+003, 3.500780e+001
1.200910e+003, 3.512604e+001
1.201392e+003, 3.515414e+001
1.201874e+003, 3.507281e+001
1.202356e+003, 3.495539e+001
1.202838e+003, 3.504357e+001
1.203320e+003, 3.536354e+001
1.203802e+003, 3.560368e+001
1.204284e+003, 3.556726e+001
1.204767e+003, 3.544546e+001
1.205249e+003, 3.539043e+001
1.205731e+003, 3.530229e+001
1.206213e+003, 3.501426e+001
1.206695e+003, 3.470850e+001
1.207177e+003, 3.463518e+001
1.207659e+003, 3.472948e+001
1.208141e+003, 3.475551e+001
1.208624e+003, 3.465993e+001
1.209106e+003, 3.463092e+001
1.209588e+003, 3.482203e+001
1.210070e+003, 3.492091e+001
1.210552e+003, 3.475266e+001
1.211034e+003, 3.460861e+001
1.211516e+003, 3.462654e+001
1.211998e+003, 3.474886e+001
1.212480e+003, 3.500308e+001
1.212963e+003, 3.529766e+001
1.213445e+003, 3.525591e+001
1.213927e+003, 3.478080e+001
1.214409e+003, 3.444089e+001
1.214891e+003, 3.421997e+001
1.215373e+003, 3.424737e+001
1.215855e+003, 3.462429e+001
1.216337e+003, 3.484533e+001
1.216819e+003, 3.460414e+001
1.217302e+003, 3.429639e+001
1.217784e+003, 3.443036e+001
1.218266e+003, 3.484101e+001
1.218748e+003, 3.504534e+001
1.219230e+003, 3.506208e+001
1.219712e+003, 3.495309e+001
1.220194e+003, 3.474295e+001
1.220676e+003, 3.446370e+001
1.221159e+003, 3.416550e+001
1.221641e+003, 3.412608e+001
1.222123e+003, 3.450677e+001
1.222605e+003, 3.488874e+001
1.223087e+003, 3.477613e+001
1.223569e+003, 3.451720e+001
1.224051e+003, 3.448355e+001
1.224533e+003, 3.456683e+001
1.225016e+003, 3.467399e+001
1.225498e+003, 3.476086e+001
1.225980e+003, 3.472383e+001
1.226462e+003, 3.459047e+001
1.226944e+003, 3.463292e+001
1.227426e+003, 3.508208e+001
1.227908e+003, 3.530370e+001
1.228390e+003, 3.485134e+001
1.228872e+003, 3.442766e+001
1.229354e+003, 3.432951e+001
1.229837e+003, 3.437199e+001
1.230319e+003, 3.446185e+001
1.230801e+003, 3.456097e+001
1.231283e+003, 3.460419e+001
1.231765e+003, 3.459438e+001
1.232247e+003, 3.461877e+001
1.232729e+003, 3.468823e+001
1.233211e+003, 3.477795e+001
1.233694e+003, 3.493739e+001
1.234176e+003, 3.489402e+001
1.234658e+003, 3.449257e+001
1.235140e+003, 3.422392e+001
1.235622e+003, 3.447700e+001
1.236104e+003, 3.492646e+001
1.236586e+003, 3.499554e+001
1.237068e+003, 3.479301e+001
1.237551e+003, 3.483319e+001
1.238033e+003, 3.502164e+001
1.238515e+003, 3.482963e+001
1.238997e+003, 3.433185e+001
1.239479e+003, 3.418518e+001
1.239961e+003, 3.452876e+001
1.240443e+003, 3.484929e+001
1.240925e+003, 3.482404e+001
1.241407e+003, 3.465729e+001
1.241890e+003, 3.445154e+001
1.242372e+003, 3.429819e+001
1.242854e+003, 3.428446e+001
1.243336e+003, 3.437666e+001
1.243818e+003, 3.463221e+001
1.244300e+003, 3.491877e+001
1.244782e+003, 3.495403e+001
1.245264e+003, 3.471099e+001
1.245746e+003, 3.448510e+001
1.246229e+003, 3.434727e+001
1.246711e+003, 3.424242e+001
1.247193e+003, 3.409836e+001
1.247675e+003, 3.407202e+001
1.248157e+003, 3.424353e+001
1.248639e+003, 3.452667e+001
1.249121e+003, 3.498426e+001
1.249603e+003, 3.539090e+001
1.250085e+003, 3.528798e+001
1.250568e+003, 3.471562e+001
1.251050e+003, 3.438563e+001
1.251532e+003, 3.431850e+001
1.252014e+003, 3.426317e+001
1.252496e+003, 3.419784e+001
1.252978e+003, 3.425374e+001
1.253460e+003, 3.446908e+001
1.253942e+003, 3.461370e+001
1.254425e+003, 3.452507e+001
1.254907e+003, 3.432841e+001
1.255389e+003, 3.409726e+001
1.255871e+003, 3.395455e+001
1.256353e+003, 3.429891e+001
1.256835e+003, 3.481236e+001
1.257317e+003, 3.480579e+001
1.257799e+003, 3.446217e+001
1.258281e+003, 3.436056e+001
1.258764e+003, 3.460308e+001
1.259246e+003, 3.488807e+001
1.259728e+003, 3.502678e+001
1.260210e+003, 3.543092e+001
1.260692e+003, 3.693524e+001
1.261174e+003, 3.790254e+001
1.261656e+003, 3.717067e+001
1.262138e+003, 3.600010e+001
1.262620e+003, 3.514254e+001
1.263103e+003, 3.461797e+001
1.263585e+003, 3.444539e+001
1.264067e+003, 3.458045e+001
1.264549e+003, 3.471247e+001
1.265031e+003, 3.489054e+001
1.265513e+003, 3.486055e+001
1.265995e+003, 3.453253e+001
1.266477e+003, 3.442500e+001
1.266960e+003, 3.468856e+001
1.267442e+003, 3.493077e+001
1.267924e+003, 3.492795e+001
1.268406e+003, 3.486289e+001
1.268888e+003, 3.499374e+001
1.269370e+003, 3.514286e+001
1.269852e+003, 3.473646e+001
1.270334e+003, 3.409051e+001
1.270817e+003, 3.406972e+001
1.271299e+003, 3.449867e+001
1.271781e+003, 3.486059e+001
1.272263e+003, 3.503101e+001
1.272745e+003, 3.496703e+001
1.273227e+003, 3.465115e+001
1.273709e+003, 3.439399e+001
1.274191e+003, 3.440949e+001
1.274673e+003, 3.448923e+001
1.275156e+003, 3.460792e+001
1.275638e+003, 3.466562e+001
1.276120e+003, 3.444641e+001
1.276602e+003, 3.424804e+001
1.277084e+003, 3.455368e+001
1.277566e+003, 3.514338e+001
1.278048e+003, 3.521864e+001
1.278530e+003, 3.468095e+001
1.279012e+003, 3.454944e+001
1.279495e+003, 3.494283e+001
1.279977e+003, 3.533510e+001
1.280459e+003, 3.570826e+001
1.280941e+003, 3.588179e+001
1.281423e+003, 3.578192e+001
1.281905e+003, 3.551669e+001
1.282387e+003, 3.514940e+001
1.282869e+003, 3.478608e+001
1.283352e+003, 3.454255e+001
1.283834e+003, 3.446893e+001
1.284316e+003, 3.467163e+001
1.284798e+003, 3.515266e+001
##END=



