##NAMES=Christofschaferite-(Ce)
##RRUFFID=R141090
##IDEAL CHEMISTRY=(Ce^3+^,La^3+^,Ca)_4_Mn^2+^(Ti^4+^,Fe^3+^)_3_(Fe^3+^,Fe^2+^,Ti^2+^)(Si_2_O_7_)_2_O_8_
##LOCALITY=Wingertsberg pumice quarry, Laach lake volcano, Mendig, Eifel, Germany
##OWNER=RRUFF
##SOURCE=Ch. and H. Sch√§fer
##DESCRIPTION=Thick tabular or short prismatic black crystals, 2-fold twin around a*, associated with light brown rhodonite and colorless orthoclase.
##STATUS=The identification of this mineral has been confirmed by single-crystal X-ray diffraction.
##URL=rruff.info/R141090
8.930109e+001, 0.000000e+000
8.978320e+001, 1.297822e+002
9.026532e+001, 1.296730e+002
9.074744e+001, 1.297240e+002
9.122955e+001, 1.298603e+002
9.171167e+001, 1.304505e+002
9.219379e+001, 1.320960e+002
9.267590e+001, 1.347042e+002
9.315802e+001, 1.371339e+002
9.364014e+001, 1.391287e+002
9.412225e+001, 1.404067e+002
9.460437e+001, 1.397973e+002
9.508649e+001, 1.361068e+002
9.556860e+001, 1.309006e+002
9.605072e+001, 1.281788e+002
9.653284e+001, 1.282218e+002
9.701495e+001, 1.287999e+002
9.749707e+001, 1.276208e+002
9.797919e+001, 1.247379e+002
9.846130e+001, 1.217442e+002
9.894342e+001, 1.188367e+002
9.942554e+001, 1.160536e+002
9.990765e+001, 1.144393e+002
1.003898e+002, 1.141595e+002
1.008719e+002, 1.145646e+002
1.013540e+002, 1.148822e+002
1.018361e+002, 1.152550e+002
1.023182e+002, 1.151048e+002
1.028004e+002, 1.140689e+002
1.032825e+002, 1.118539e+002
1.037646e+002, 1.101401e+002
1.042467e+002, 1.089989e+002
1.047288e+002, 1.083054e+002
1.052109e+002, 1.077413e+002
1.056931e+002, 1.070259e+002
1.061752e+002, 1.068017e+002
1.066573e+002, 1.073235e+002
1.071394e+002, 1.085093e+002
1.076215e+002, 1.105144e+002
1.081036e+002, 1.139701e+002
1.085858e+002, 1.184645e+002
1.090679e+002, 1.217228e+002
1.095500e+002, 1.240036e+002
1.100321e+002, 1.249912e+002
1.105142e+002, 1.245240e+002
1.109963e+002, 1.210391e+002
1.114785e+002, 1.179135e+002
1.119606e+002, 1.153646e+002
1.124427e+002, 1.133896e+002
1.129248e+002, 1.122254e+002
1.134069e+002, 1.123625e+002
1.138890e+002, 1.130633e+002
1.143712e+002, 1.137385e+002
1.148533e+002, 1.139199e+002
1.153354e+002, 1.143684e+002
1.158175e+002, 1.153518e+002
1.162996e+002, 1.169152e+002
1.167817e+002, 1.187150e+002
1.172639e+002, 1.212178e+002
1.177460e+002, 1.237608e+002
1.182281e+002, 1.255010e+002
1.187102e+002, 1.256018e+002
1.191923e+002, 1.251897e+002
1.196744e+002, 1.249726e+002
1.201566e+002, 1.251144e+002
1.206387e+002, 1.250326e+002
1.211208e+002, 1.240985e+002
1.216029e+002, 1.226684e+002
1.220850e+002, 1.214715e+002
1.225671e+002, 1.206096e+002
1.230493e+002, 1.202748e+002
1.235314e+002, 1.207130e+002
1.240135e+002, 1.220581e+002
1.244956e+002, 1.239401e+002
1.249777e+002, 1.267843e+002
1.254598e+002, 1.301435e+002
1.259420e+002, 1.322660e+002
1.264241e+002, 1.312178e+002
1.269062e+002, 1.282415e+002
1.273883e+002, 1.255365e+002
1.278704e+002, 1.234360e+002
1.283525e+002, 1.219621e+002
1.288347e+002, 1.211931e+002
1.293168e+002, 1.211209e+002
1.297989e+002, 1.215984e+002
1.302810e+002, 1.229838e+002
1.307631e+002, 1.249611e+002
1.312452e+002, 1.262261e+002
1.317274e+002, 1.261462e+002
1.322095e+002, 1.252867e+002
1.326916e+002, 1.253522e+002
1.331737e+002, 1.264847e+002
1.336558e+002, 1.275657e+002
1.341379e+002, 1.272772e+002
1.346201e+002, 1.256446e+002
1.351022e+002, 1.242639e+002
1.355843e+002, 1.236631e+002
1.360664e+002, 1.237451e+002
1.365485e+002, 1.237989e+002
1.370306e+002, 1.237870e+002
1.375128e+002, 1.238389e+002
1.379949e+002, 1.241426e+002
1.384770e+002, 1.247432e+002
1.389591e+002, 1.253625e+002
1.394412e+002, 1.257264e+002
1.399233e+002, 1.257392e+002
1.404055e+002, 1.269880e+002
1.408876e+002, 1.302422e+002
1.413697e+002, 1.339427e+002
1.418518e+002, 1.354028e+002
1.423339e+002, 1.338598e+002
1.428160e+002, 1.317899e+002
1.432982e+002, 1.299758e+002
1.437803e+002, 1.284029e+002
1.442624e+002, 1.272039e+002
1.447445e+002, 1.265093e+002
1.452266e+002, 1.261510e+002
1.457087e+002, 1.257533e+002
1.461909e+002, 1.251225e+002
1.466730e+002, 1.246909e+002
1.471551e+002, 1.246376e+002
1.476372e+002, 1.251488e+002
1.481193e+002, 1.257374e+002
1.486014e+002, 1.265562e+002
1.490836e+002, 1.274753e+002
1.495657e+002, 1.280727e+002
1.500478e+002, 1.283172e+002
1.505299e+002, 1.282556e+002
1.510120e+002, 1.279020e+002
1.514941e+002, 1.266073e+002
1.519763e+002, 1.257863e+002
1.524584e+002, 1.256549e+002
1.529405e+002, 1.260930e+002
1.534226e+002, 1.264836e+002
1.539047e+002, 1.269551e+002
1.543868e+002, 1.272530e+002
1.548690e+002, 1.272385e+002
1.553511e+002, 1.261355e+002
1.558332e+002, 1.255285e+002
1.563153e+002, 1.260828e+002
1.567974e+002, 1.276066e+002
1.572795e+002, 1.285383e+002
1.577617e+002, 1.282242e+002
1.582438e+002, 1.273679e+002
1.587259e+002, 1.264780e+002
1.592080e+002, 1.254924e+002
1.596901e+002, 1.246595e+002
1.601722e+002, 1.240799e+002
1.606544e+002, 1.237480e+002
1.611365e+002, 1.235186e+002
1.616186e+002, 1.233844e+002
1.621007e+002, 1.233119e+002
1.625828e+002, 1.232664e+002
1.630649e+002, 1.230537e+002
1.635471e+002, 1.230179e+002
1.640292e+002, 1.235069e+002
1.645113e+002, 1.245303e+002
1.649934e+002, 1.252691e+002
1.654755e+002, 1.251734e+002
1.659576e+002, 1.245923e+002
1.664398e+002, 1.239621e+002
1.669219e+002, 1.233457e+002
1.674040e+002, 1.228000e+002
1.678861e+002, 1.223908e+002
1.683682e+002, 1.221240e+002
1.688503e+002, 1.218904e+002
1.693325e+002, 1.214982e+002
1.698146e+002, 1.211061e+002
1.702967e+002, 1.209741e+002
1.707788e+002, 1.215799e+002
1.712609e+002, 1.222926e+002
1.717430e+002, 1.224410e+002
1.722252e+002, 1.219273e+002
1.727073e+002, 1.213872e+002
1.731894e+002, 1.212727e+002
1.736715e+002, 1.215126e+002
1.741536e+002, 1.219418e+002
1.746357e+002, 1.229072e+002
1.751179e+002, 1.238479e+002
1.756000e+002, 1.239865e+002
1.760821e+002, 1.231711e+002
1.765642e+002, 1.220492e+002
1.770463e+002, 1.211443e+002
1.775284e+002, 1.204233e+002
1.780106e+002, 1.197992e+002
1.784927e+002, 1.191868e+002
1.789748e+002, 1.186459e+002
1.794569e+002, 1.182869e+002
1.799390e+002, 1.181177e+002
1.804211e+002, 1.181286e+002
1.809033e+002, 1.184827e+002
1.813854e+002, 1.190846e+002
1.818675e+002, 1.194728e+002
1.823496e+002, 1.191079e+002
1.828317e+002, 1.183484e+002
1.833138e+002, 1.180964e+002
1.837960e+002, 1.185444e+002
1.842781e+002, 1.192424e+002
1.847602e+002, 1.195563e+002
1.852423e+002, 1.195217e+002
1.857244e+002, 1.194177e+002
1.862065e+002, 1.193944e+002
1.866887e+002, 1.194356e+002
1.871708e+002, 1.194771e+002
1.876529e+002, 1.195027e+002
1.881350e+002, 1.195419e+002
1.886171e+002, 1.196904e+002
1.890992e+002, 1.199442e+002
1.895814e+002, 1.201234e+002
1.900635e+002, 1.200862e+002
1.905456e+002, 1.198577e+002
1.910277e+002, 1.196006e+002
1.915098e+002, 1.193077e+002
1.919919e+002, 1.190326e+002
1.924741e+002, 1.188980e+002
1.929562e+002, 1.189074e+002
1.934383e+002, 1.189863e+002
1.939204e+002, 1.191047e+002
1.944025e+002, 1.192598e+002
1.948846e+002, 1.194133e+002
1.953668e+002, 1.195723e+002
1.958489e+002, 1.197136e+002
1.963310e+002, 1.197802e+002
1.968131e+002, 1.197678e+002
1.972952e+002, 1.197087e+002
1.977773e+002, 1.196195e+002
1.982595e+002, 1.195002e+002
1.987416e+002, 1.193321e+002
1.992237e+002, 1.190634e+002
1.997058e+002, 1.187869e+002
2.001879e+002, 1.188150e+002
2.006700e+002, 1.192099e+002
2.011522e+002, 1.196350e+002
2.016343e+002, 1.198425e+002
2.021164e+002, 1.198087e+002
2.025985e+002, 1.198129e+002
2.030806e+002, 1.199007e+002
2.035627e+002, 1.200413e+002
2.040449e+002, 1.201324e+002
2.045270e+002, 1.201622e+002
2.050091e+002, 1.201786e+002
2.054912e+002, 1.201946e+002
2.059733e+002, 1.201953e+002
2.064554e+002, 1.203064e+002
2.069376e+002, 1.206223e+002
2.074197e+002, 1.210354e+002
2.079018e+002, 1.210972e+002
2.083839e+002, 1.206917e+002
2.088660e+002, 1.202307e+002
2.093481e+002, 1.199856e+002
2.098303e+002, 1.199733e+002
2.103124e+002, 1.201180e+002
2.107945e+002, 1.204886e+002
2.112766e+002, 1.209994e+002
2.117587e+002, 1.212844e+002
2.122408e+002, 1.212615e+002
2.127230e+002, 1.211875e+002
2.132051e+002, 1.211970e+002
2.136872e+002, 1.212513e+002
2.141693e+002, 1.215584e+002
2.146514e+002, 1.222910e+002
2.151335e+002, 1.232888e+002
2.156157e+002, 1.237273e+002
2.160978e+002, 1.233860e+002
2.165799e+002, 1.228917e+002
2.170620e+002, 1.226840e+002
2.175441e+002, 1.229267e+002
2.180262e+002, 1.229445e+002
2.185084e+002, 1.225346e+002
2.189905e+002, 1.218389e+002
2.194726e+002, 1.216294e+002
2.199547e+002, 1.221324e+002
2.204368e+002, 1.227315e+002
2.209189e+002, 1.229703e+002
2.214011e+002, 1.225822e+002
2.218832e+002, 1.225834e+002
2.223653e+002, 1.232589e+002
2.228474e+002, 1.243932e+002
2.233295e+002, 1.250055e+002
2.238116e+002, 1.248661e+002
2.242938e+002, 1.245516e+002
2.247759e+002, 1.244059e+002
2.252580e+002, 1.245184e+002
2.257401e+002, 1.245817e+002
2.262222e+002, 1.245537e+002
2.267043e+002, 1.244587e+002
2.271865e+002, 1.243827e+002
2.276686e+002, 1.242623e+002
2.281507e+002, 1.242546e+002
2.286328e+002, 1.245215e+002
2.291149e+002, 1.253714e+002
2.295970e+002, 1.257446e+002
2.300792e+002, 1.253838e+002
2.305613e+002, 1.244999e+002
2.310434e+002, 1.239166e+002
2.315255e+002, 1.236839e+002
2.320076e+002, 1.236889e+002
2.324897e+002, 1.239206e+002
2.329719e+002, 1.245640e+002
2.334540e+002, 1.250133e+002
2.339361e+002, 1.251782e+002
2.344182e+002, 1.251410e+002
2.349003e+002, 1.252038e+002
2.353824e+002, 1.254723e+002
2.358646e+002, 1.256900e+002
2.363467e+002, 1.257084e+002
2.368288e+002, 1.253850e+002
2.373109e+002, 1.251702e+002
2.377930e+002, 1.250618e+002
2.382751e+002, 1.250680e+002
2.387573e+002, 1.252356e+002
2.392394e+002, 1.256649e+002
2.397215e+002, 1.261063e+002
2.402036e+002, 1.264510e+002
2.406857e+002, 1.266680e+002
2.411678e+002, 1.268530e+002
2.416500e+002, 1.270092e+002
2.421321e+002, 1.271305e+002
2.426142e+002, 1.271959e+002
2.430963e+002, 1.271608e+002
2.435784e+002, 1.271354e+002
2.440605e+002, 1.271822e+002
2.445427e+002, 1.273781e+002
2.450248e+002, 1.274302e+002
2.455069e+002, 1.271928e+002
2.459890e+002, 1.268718e+002
2.464711e+002, 1.269768e+002
2.469532e+002, 1.278641e+002
2.474354e+002, 1.285926e+002
2.479175e+002, 1.287285e+002
2.483996e+002, 1.279904e+002
2.488817e+002, 1.276014e+002
2.493638e+002, 1.277166e+002
2.498459e+002, 1.280956e+002
2.503281e+002, 1.282924e+002
2.508102e+002, 1.282261e+002
2.512923e+002, 1.281193e+002
2.517744e+002, 1.280076e+002
2.522565e+002, 1.278334e+002
2.527386e+002, 1.279334e+002
2.532208e+002, 1.284754e+002
2.537029e+002, 1.291683e+002
2.541850e+002, 1.295312e+002
2.546671e+002, 1.293633e+002
2.551492e+002, 1.292555e+002
2.556313e+002, 1.294066e+002
2.561135e+002, 1.298582e+002
2.565956e+002, 1.302787e+002
2.570777e+002, 1.306950e+002
2.575598e+002, 1.310447e+002
2.580419e+002, 1.312085e+002
2.585240e+002, 1.310634e+002
2.590062e+002, 1.310060e+002
2.594883e+002, 1.311858e+002
2.599704e+002, 1.316226e+002
2.604525e+002, 1.319171e+002
2.609346e+002, 1.320013e+002
2.614167e+002, 1.320239e+002
2.618989e+002, 1.321835e+002
2.623810e+002, 1.325766e+002
2.628631e+002, 1.328490e+002
2.633452e+002, 1.329000e+002
2.638273e+002, 1.327321e+002
2.643094e+002, 1.325158e+002
2.647916e+002, 1.321440e+002
2.652737e+002, 1.318930e+002
2.657558e+002, 1.321160e+002
2.662379e+002, 1.330214e+002
2.667200e+002, 1.337115e+002
2.672021e+002, 1.339810e+002
2.676843e+002, 1.338668e+002
2.681664e+002, 1.337110e+002
2.686485e+002, 1.334473e+002
2.691306e+002, 1.332768e+002
2.696127e+002, 1.333867e+002
2.700948e+002, 1.338157e+002
2.705770e+002, 1.343584e+002
2.710591e+002, 1.350558e+002
2.715412e+002, 1.358293e+002
2.720233e+002, 1.363102e+002
2.725054e+002, 1.364463e+002
2.729875e+002, 1.364016e+002
2.734697e+002, 1.362145e+002
2.739518e+002, 1.358277e+002
2.744339e+002, 1.356805e+002
2.749160e+002, 1.358823e+002
2.753981e+002, 1.363221e+002
2.758802e+002, 1.366804e+002
2.763624e+002, 1.369435e+002
2.768445e+002, 1.371619e+002
2.773266e+002, 1.373883e+002
2.778087e+002, 1.376322e+002
2.782908e+002, 1.377296e+002
2.787729e+002, 1.376176e+002
2.792551e+002, 1.374127e+002
2.797372e+002, 1.374031e+002
2.802193e+002, 1.376183e+002
2.807014e+002, 1.378421e+002
2.811835e+002, 1.379771e+002
2.816656e+002, 1.380235e+002
2.821478e+002, 1.379630e+002
2.826299e+002, 1.377578e+002
2.831120e+002, 1.375208e+002
2.835941e+002, 1.374448e+002
2.840762e+002, 1.375354e+002
2.845583e+002, 1.376853e+002
2.850405e+002, 1.378492e+002
2.855226e+002, 1.380297e+002
2.860047e+002, 1.382681e+002
2.864868e+002, 1.385796e+002
2.869689e+002, 1.388981e+002
2.874510e+002, 1.391378e+002
2.879332e+002, 1.393000e+002
2.884153e+002, 1.394243e+002
2.888974e+002, 1.395572e+002
2.893795e+002, 1.396646e+002
2.898616e+002, 1.395455e+002
2.903438e+002, 1.391642e+002
2.908259e+002, 1.388008e+002
2.913080e+002, 1.388097e+002
2.917901e+002, 1.391361e+002
2.922722e+002, 1.394553e+002
2.927543e+002, 1.396651e+002
2.932365e+002, 1.397951e+002
2.937186e+002, 1.399313e+002
2.942007e+002, 1.400740e+002
2.946828e+002, 1.401400e+002
2.951649e+002, 1.399943e+002
2.956470e+002, 1.397003e+002
2.961292e+002, 1.394648e+002
2.966113e+002, 1.393643e+002
2.970934e+002, 1.393274e+002
2.975755e+002, 1.392248e+002
2.980576e+002, 1.390650e+002
2.985397e+002, 1.389382e+002
2.990219e+002, 1.389666e+002
2.995040e+002, 1.390723e+002
2.999861e+002, 1.390860e+002
3.004682e+002, 1.389694e+002
3.009503e+002, 1.387674e+002
3.014324e+002, 1.384350e+002
3.019146e+002, 1.380291e+002
3.023967e+002, 1.377717e+002
3.028788e+002, 1.378994e+002
3.033609e+002, 1.382340e+002
3.038430e+002, 1.385489e+002
3.043251e+002, 1.388374e+002
3.048073e+002, 1.390114e+002
3.052894e+002, 1.389132e+002
3.057715e+002, 1.386291e+002
3.062536e+002, 1.383681e+002
3.067357e+002, 1.381801e+002
3.072178e+002, 1.380968e+002
3.077000e+002, 1.382076e+002
3.081821e+002, 1.385398e+002
3.086642e+002, 1.388382e+002
3.091463e+002, 1.388610e+002
3.096284e+002, 1.387327e+002
3.101105e+002, 1.386479e+002
3.105927e+002, 1.388091e+002
3.110748e+002, 1.389560e+002
3.115569e+002, 1.388061e+002
3.120390e+002, 1.383610e+002
3.125211e+002, 1.380877e+002
3.130032e+002, 1.384028e+002
3.134854e+002, 1.389694e+002
3.139675e+002, 1.394257e+002
3.144496e+002, 1.397019e+002
3.149317e+002, 1.397978e+002
3.154138e+002, 1.396489e+002
3.158959e+002, 1.392894e+002
3.163781e+002, 1.389192e+002
3.168602e+002, 1.384715e+002
3.173423e+002, 1.381401e+002
3.178244e+002, 1.380971e+002
3.183065e+002, 1.386927e+002
3.187886e+002, 1.391346e+002
3.192708e+002, 1.389948e+002
3.197529e+002, 1.384768e+002
3.202350e+002, 1.381526e+002
3.207171e+002, 1.384480e+002
3.211992e+002, 1.387871e+002
3.216813e+002, 1.388307e+002
3.221635e+002, 1.382772e+002
3.226456e+002, 1.380149e+002
3.231277e+002, 1.385094e+002
3.236098e+002, 1.393525e+002
3.240919e+002, 1.398643e+002
3.245740e+002, 1.395927e+002
3.250562e+002, 1.392831e+002
3.255383e+002, 1.391965e+002
3.260204e+002, 1.394373e+002
3.265025e+002, 1.395238e+002
3.269846e+002, 1.391331e+002
3.274667e+002, 1.386951e+002
3.279489e+002, 1.386651e+002
3.284310e+002, 1.395534e+002
3.289131e+002, 1.402863e+002
3.293952e+002, 1.406815e+002
3.298773e+002, 1.407330e+002
3.303594e+002, 1.407477e+002
3.308416e+002, 1.407221e+002
3.313237e+002, 1.406639e+002
3.318058e+002, 1.405661e+002
3.322879e+002, 1.403223e+002
3.327700e+002, 1.402247e+002
3.332521e+002, 1.403518e+002
3.337343e+002, 1.406501e+002
3.342164e+002, 1.408583e+002
3.346985e+002, 1.409190e+002
3.351806e+002, 1.409720e+002
3.356627e+002, 1.411258e+002
3.361448e+002, 1.414877e+002
3.366270e+002, 1.415781e+002
3.371091e+002, 1.412467e+002
3.375912e+002, 1.407414e+002
3.380733e+002, 1.405875e+002
3.385554e+002, 1.408662e+002
3.390375e+002, 1.412419e+002
3.395197e+002, 1.416371e+002
3.400018e+002, 1.420609e+002
3.404839e+002, 1.422480e+002
3.409660e+002, 1.421277e+002
3.414481e+002, 1.419174e+002
3.419302e+002, 1.419026e+002
3.424124e+002, 1.420950e+002
3.428945e+002, 1.423241e+002
3.433766e+002, 1.425998e+002
3.438587e+002, 1.428693e+002
3.443408e+002, 1.428083e+002
3.448229e+002, 1.423612e+002
3.453051e+002, 1.419650e+002
3.457872e+002, 1.421882e+002
3.462693e+002, 1.429054e+002
3.467514e+002, 1.432521e+002
3.472335e+002, 1.429556e+002
3.477156e+002, 1.423205e+002
3.481978e+002, 1.418320e+002
3.486799e+002, 1.414989e+002
3.491620e+002, 1.414244e+002
3.496441e+002, 1.418884e+002
3.501262e+002, 1.426516e+002
3.506083e+002, 1.431338e+002
3.510905e+002, 1.432438e+002
3.515726e+002, 1.431657e+002
3.520547e+002, 1.430113e+002
3.525368e+002, 1.428264e+002
3.530189e+002, 1.427502e+002
3.535010e+002, 1.428793e+002
3.539832e+002, 1.431421e+002
3.544653e+002, 1.435092e+002
3.549474e+002, 1.439886e+002
3.554295e+002, 1.443826e+002
3.559116e+002, 1.444249e+002
3.563937e+002, 1.443053e+002
3.568759e+002, 1.443082e+002
3.573580e+002, 1.446499e+002
3.578401e+002, 1.450548e+002
3.583222e+002, 1.453351e+002
3.588043e+002, 1.455096e+002
3.592864e+002, 1.456743e+002
3.597686e+002, 1.459462e+002
3.602507e+002, 1.461973e+002
3.607328e+002, 1.462890e+002
3.612149e+002, 1.460194e+002
3.616970e+002, 1.458779e+002
3.621791e+002, 1.461877e+002
3.626613e+002, 1.467711e+002
3.631434e+002, 1.472204e+002
3.636255e+002, 1.473019e+002
3.641076e+002, 1.473009e+002
3.645897e+002, 1.473319e+002
3.650718e+002, 1.473951e+002
3.655540e+002, 1.475303e+002
3.660361e+002, 1.478691e+002
3.665182e+002, 1.482419e+002
3.670003e+002, 1.484456e+002
3.674824e+002, 1.482485e+002
3.679645e+002, 1.480983e+002
3.684467e+002, 1.481045e+002
3.689288e+002, 1.482765e+002
3.694109e+002, 1.484522e+002
3.698930e+002, 1.486170e+002
3.703751e+002, 1.488016e+002
3.708572e+002, 1.490366e+002
3.713394e+002, 1.494162e+002
3.718215e+002, 1.496805e+002
3.723036e+002, 1.497409e+002
3.727857e+002, 1.496742e+002
3.732678e+002, 1.497654e+002
3.737499e+002, 1.500844e+002
3.742321e+002, 1.504349e+002
3.747142e+002, 1.507273e+002
3.751963e+002, 1.509544e+002
3.756784e+002, 1.511322e+002
3.761605e+002, 1.511983e+002
3.766426e+002, 1.512912e+002
3.771248e+002, 1.516813e+002
3.776069e+002, 1.524388e+002
3.780890e+002, 1.530912e+002
3.785711e+002, 1.534793e+002
3.790532e+002, 1.536265e+002
3.795353e+002, 1.536301e+002
3.800175e+002, 1.534589e+002
3.804996e+002, 1.533032e+002
3.809817e+002, 1.532204e+002
3.814638e+002, 1.532493e+002
3.819459e+002, 1.538306e+002
3.824280e+002, 1.553045e+002
3.829102e+002, 1.570331e+002
3.833923e+002, 1.576694e+002
3.838744e+002, 1.572984e+002
3.843565e+002, 1.567422e+002
3.848386e+002, 1.563387e+002
3.853207e+002, 1.561550e+002
3.858029e+002, 1.564325e+002
3.862850e+002, 1.572631e+002
3.867671e+002, 1.581969e+002
3.872492e+002, 1.588038e+002
3.877313e+002, 1.591658e+002
3.882134e+002, 1.594573e+002
3.886956e+002, 1.597356e+002
3.891777e+002, 1.599917e+002
3.896598e+002, 1.601856e+002
3.901419e+002, 1.603253e+002
3.906240e+002, 1.605320e+002
3.911061e+002, 1.609727e+002
3.915883e+002, 1.614853e+002
3.920704e+002, 1.618908e+002
3.925525e+002, 1.620161e+002
3.930346e+002, 1.622013e+002
3.935167e+002, 1.627354e+002
3.939988e+002, 1.634715e+002
3.944810e+002, 1.640007e+002
3.949631e+002, 1.639323e+002
3.954452e+002, 1.638154e+002
3.959273e+002, 1.639204e+002
3.964094e+002, 1.643129e+002
3.968915e+002, 1.648160e+002
3.973737e+002, 1.654748e+002
3.978558e+002, 1.661996e+002
3.983379e+002, 1.668797e+002
3.988200e+002, 1.674392e+002
3.993021e+002, 1.680184e+002
3.997842e+002, 1.687762e+002
4.002664e+002, 1.697081e+002
4.007485e+002, 1.701091e+002
4.012306e+002, 1.694255e+002
4.017127e+002, 1.687417e+002
4.021948e+002, 1.688065e+002
4.026769e+002, 1.701424e+002
4.031591e+002, 1.710791e+002
4.036412e+002, 1.714204e+002
4.041233e+002, 1.713520e+002
4.046054e+002, 1.713186e+002
4.050875e+002, 1.713112e+002
4.055696e+002, 1.713692e+002
4.060518e+002, 1.715368e+002
4.065339e+002, 1.718205e+002
4.070160e+002, 1.720161e+002
4.074981e+002, 1.720900e+002
4.079802e+002, 1.721745e+002
4.084623e+002, 1.724256e+002
4.089445e+002, 1.728447e+002
4.094266e+002, 1.733482e+002
4.099087e+002, 1.739651e+002
4.103908e+002, 1.746145e+002
4.108729e+002, 1.751236e+002
4.113550e+002, 1.754946e+002
4.118372e+002, 1.757041e+002
4.123193e+002, 1.755213e+002
4.128014e+002, 1.751835e+002
4.132835e+002, 1.753055e+002
4.137656e+002, 1.760425e+002
4.142477e+002, 1.769390e+002
4.147299e+002, 1.774970e+002
4.152120e+002, 1.778264e+002
4.156941e+002, 1.781787e+002
4.161762e+002, 1.788403e+002
4.166583e+002, 1.794665e+002
4.171404e+002, 1.796256e+002
4.176226e+002, 1.793328e+002
4.181047e+002, 1.791768e+002
4.185868e+002, 1.795850e+002
4.190689e+002, 1.802486e+002
4.195510e+002, 1.808903e+002
4.200331e+002, 1.815071e+002
4.205153e+002, 1.819871e+002
4.209974e+002, 1.821652e+002
4.214795e+002, 1.821625e+002
4.219616e+002, 1.822772e+002
4.224437e+002, 1.827865e+002
4.229258e+002, 1.832652e+002
4.234080e+002, 1.834833e+002
4.238901e+002, 1.833010e+002
4.243722e+002, 1.833394e+002
4.248543e+002, 1.837038e+002
4.253364e+002, 1.842904e+002
4.258185e+002, 1.850228e+002
4.263007e+002, 1.863002e+002
4.267828e+002, 1.871407e+002
4.272649e+002, 1.872209e+002
4.277470e+002, 1.866883e+002
4.282291e+002, 1.865549e+002
4.287112e+002, 1.870654e+002
4.291934e+002, 1.875468e+002
4.296755e+002, 1.875175e+002
4.301576e+002, 1.867724e+002
4.306397e+002, 1.866125e+002
4.311218e+002, 1.872199e+002
4.316039e+002, 1.881765e+002
4.320861e+002, 1.888233e+002
4.325682e+002, 1.891363e+002
4.330503e+002, 1.894911e+002
4.335324e+002, 1.900780e+002
4.340145e+002, 1.907998e+002
4.344966e+002, 1.913228e+002
4.349788e+002, 1.916472e+002
4.354609e+002, 1.918313e+002
4.359430e+002, 1.918555e+002
4.364251e+002, 1.917780e+002
4.369072e+002, 1.917485e+002
4.373893e+002, 1.917827e+002
4.378715e+002, 1.919033e+002
4.383536e+002, 1.922730e+002
4.388357e+002, 1.927702e+002
4.393178e+002, 1.930554e+002
4.397999e+002, 1.927979e+002
4.402820e+002, 1.923426e+002
4.407642e+002, 1.919494e+002
4.412463e+002, 1.916277e+002
4.417284e+002, 1.914474e+002
4.422105e+002, 1.915977e+002
4.426926e+002, 1.918303e+002
4.431747e+002, 1.919076e+002
4.436569e+002, 1.917392e+002
4.441390e+002, 1.914330e+002
4.446211e+002, 1.909129e+002
4.451032e+002, 1.902646e+002
4.455853e+002, 1.897549e+002
4.460674e+002, 1.897312e+002
4.465496e+002, 1.895913e+002
4.470317e+002, 1.890513e+002
4.475138e+002, 1.879119e+002
4.479959e+002, 1.870147e+002
4.484780e+002, 1.864837e+002
4.489601e+002, 1.861112e+002
4.494423e+002, 1.856875e+002
4.499244e+002, 1.851822e+002
4.504065e+002, 1.847017e+002
4.508886e+002, 1.842336e+002
4.513707e+002, 1.838068e+002
4.518528e+002, 1.835725e+002
4.523350e+002, 1.836118e+002
4.528171e+002, 1.835853e+002
4.532992e+002, 1.832517e+002
4.537813e+002, 1.826011e+002
4.542634e+002, 1.820827e+002
4.547455e+002, 1.817197e+002
4.552277e+002, 1.814165e+002
4.557098e+002, 1.810689e+002
4.561919e+002, 1.806755e+002
4.566740e+002, 1.802058e+002
4.571561e+002, 1.796198e+002
4.576382e+002, 1.789880e+002
4.581204e+002, 1.784816e+002
4.586025e+002, 1.780766e+002
4.590846e+002, 1.776284e+002
4.595667e+002, 1.770237e+002
4.600488e+002, 1.763205e+002
4.605309e+002, 1.755491e+002
4.610131e+002, 1.746800e+002
4.614952e+002, 1.739241e+002
4.619773e+002, 1.735219e+002
4.624594e+002, 1.733165e+002
4.629415e+002, 1.730726e+002
4.634236e+002, 1.725814e+002
4.639058e+002, 1.721500e+002
4.643879e+002, 1.719214e+002
4.648700e+002, 1.718859e+002
4.653521e+002, 1.718941e+002
4.658342e+002, 1.721336e+002
4.663163e+002, 1.722403e+002
4.667985e+002, 1.719654e+002
4.672806e+002, 1.708398e+002
4.677627e+002, 1.701718e+002
4.682448e+002, 1.702795e+002
4.687269e+002, 1.707321e+002
4.692090e+002, 1.709430e+002
4.696912e+002, 1.709155e+002
4.701733e+002, 1.706268e+002
4.706554e+002, 1.699837e+002
4.711375e+002, 1.690360e+002
4.716196e+002, 1.682386e+002
4.721017e+002, 1.675587e+002
4.725839e+002, 1.671174e+002
4.730660e+002, 1.671421e+002
4.735481e+002, 1.676404e+002
4.740302e+002, 1.676880e+002
4.745123e+002, 1.671069e+002
4.749944e+002, 1.663566e+002
4.754766e+002, 1.661803e+002
4.759587e+002, 1.664923e+002
4.764408e+002, 1.667415e+002
4.769229e+002, 1.667548e+002
4.774050e+002, 1.665475e+002
4.778871e+002, 1.659753e+002
4.783693e+002, 1.650959e+002
4.788514e+002, 1.644209e+002
4.793335e+002, 1.645235e+002
4.798156e+002, 1.649442e+002
4.802977e+002, 1.651347e+002
4.807798e+002, 1.649631e+002
4.812620e+002, 1.646750e+002
4.817441e+002, 1.643183e+002
4.822262e+002, 1.639534e+002
4.827083e+002, 1.636704e+002
4.831904e+002, 1.633505e+002
4.836725e+002, 1.632560e+002
4.841547e+002, 1.636399e+002
4.846368e+002, 1.644500e+002
4.851189e+002, 1.650129e+002
4.856010e+002, 1.651542e+002
4.860831e+002, 1.650821e+002
4.865652e+002, 1.648917e+002
4.870474e+002, 1.645099e+002
4.875295e+002, 1.641431e+002
4.880116e+002, 1.636766e+002
4.884937e+002, 1.633136e+002
4.889758e+002, 1.634259e+002
4.894579e+002, 1.642549e+002
4.899401e+002, 1.648203e+002
4.904222e+002, 1.648576e+002
4.909043e+002, 1.644558e+002
4.913864e+002, 1.639289e+002
4.918685e+002, 1.632281e+002
4.923506e+002, 1.627322e+002
4.928328e+002, 1.628110e+002
4.933149e+002, 1.633420e+002
4.937970e+002, 1.637813e+002
4.942791e+002, 1.640894e+002
4.947612e+002, 1.643078e+002
4.952433e+002, 1.644347e+002
4.957255e+002, 1.645116e+002
4.962076e+002, 1.646492e+002
4.966897e+002, 1.649709e+002
4.971718e+002, 1.652923e+002
4.976539e+002, 1.654060e+002
4.981360e+002, 1.653560e+002
4.986182e+002, 1.653123e+002
4.991003e+002, 1.653306e+002
4.995824e+002, 1.654103e+002
5.000645e+002, 1.655324e+002
5.005466e+002, 1.656739e+002
5.010287e+002, 1.659566e+002
5.015109e+002, 1.665581e+002
5.019930e+002, 1.672530e+002
5.024751e+002, 1.678092e+002
5.029572e+002, 1.681016e+002
5.034393e+002, 1.683626e+002
5.039214e+002, 1.685886e+002
5.044036e+002, 1.687963e+002
5.048857e+002, 1.690460e+002
5.053678e+002, 1.693262e+002
5.058499e+002, 1.696744e+002
5.063320e+002, 1.701098e+002
5.068141e+002, 1.706358e+002
5.072963e+002, 1.712724e+002
5.077784e+002, 1.721228e+002
5.082605e+002, 1.728294e+002
5.087426e+002, 1.727986e+002
5.092247e+002, 1.721099e+002
5.097068e+002, 1.720607e+002
5.101890e+002, 1.730659e+002
5.106711e+002, 1.744819e+002
5.111532e+002, 1.752446e+002
5.116353e+002, 1.754461e+002
5.121174e+002, 1.755206e+002
5.125995e+002, 1.755296e+002
5.130817e+002, 1.756249e+002
5.135638e+002, 1.761008e+002
5.140459e+002, 1.769383e+002
5.145280e+002, 1.776648e+002
5.150101e+002, 1.778317e+002
5.154922e+002, 1.778268e+002
5.159744e+002, 1.780223e+002
5.164565e+002, 1.786049e+002
5.169386e+002, 1.791840e+002
5.174207e+002, 1.795697e+002
5.179028e+002, 1.798855e+002
5.183849e+002, 1.803332e+002
5.188671e+002, 1.813610e+002
5.193492e+002, 1.820698e+002
5.198313e+002, 1.821642e+002
5.203134e+002, 1.816901e+002
5.207955e+002, 1.813157e+002
5.212776e+002, 1.809101e+002
5.217598e+002, 1.807946e+002
5.222419e+002, 1.812963e+002
5.227240e+002, 1.826404e+002
5.232061e+002, 1.833446e+002
5.236882e+002, 1.832412e+002
5.241703e+002, 1.828081e+002
5.246525e+002, 1.826110e+002
5.251346e+002, 1.826441e+002
5.256167e+002, 1.828509e+002
5.260988e+002, 1.832732e+002
5.265809e+002, 1.837943e+002
5.270630e+002, 1.842657e+002
5.275452e+002, 1.846691e+002
5.280273e+002, 1.849058e+002
5.285094e+002, 1.847206e+002
5.289915e+002, 1.844444e+002
5.294736e+002, 1.844820e+002
5.299557e+002, 1.848715e+002
5.304379e+002, 1.853114e+002
5.309200e+002, 1.857213e+002
5.314021e+002, 1.860455e+002
5.318842e+002, 1.862291e+002
5.323663e+002, 1.862125e+002
5.328484e+002, 1.861156e+002
5.333306e+002, 1.858371e+002
5.338127e+002, 1.855042e+002
5.342948e+002, 1.853977e+002
5.347769e+002, 1.857782e+002
5.352590e+002, 1.861075e+002
5.357411e+002, 1.862231e+002
5.362233e+002, 1.861362e+002
5.367054e+002, 1.862582e+002
5.371875e+002, 1.867496e+002
5.376696e+002, 1.871449e+002
5.381517e+002, 1.870248e+002
5.386339e+002, 1.863250e+002
5.391160e+002, 1.860846e+002
5.395981e+002, 1.864668e+002
5.400802e+002, 1.870167e+002
5.405623e+002, 1.871109e+002
5.410444e+002, 1.868213e+002
5.415266e+002, 1.865444e+002
5.420087e+002, 1.863260e+002
5.424908e+002, 1.862695e+002
5.429729e+002, 1.867411e+002
5.434550e+002, 1.875730e+002
5.439371e+002, 1.881154e+002
5.444193e+002, 1.878407e+002
5.449014e+002, 1.872276e+002
5.453835e+002, 1.865542e+002
5.458656e+002, 1.858283e+002
5.463477e+002, 1.853979e+002
5.468298e+002, 1.857172e+002
5.473120e+002, 1.862122e+002
5.477941e+002, 1.864038e+002
5.482762e+002, 1.858718e+002
5.487583e+002, 1.855064e+002
5.492404e+002, 1.855163e+002
5.497225e+002, 1.856874e+002
5.502047e+002, 1.856583e+002
5.506868e+002, 1.853725e+002
5.511689e+002, 1.849792e+002
5.516510e+002, 1.844412e+002
5.521331e+002, 1.838150e+002
5.526152e+002, 1.835805e+002
5.530974e+002, 1.838396e+002
5.535795e+002, 1.839979e+002
5.540616e+002, 1.835594e+002
5.545437e+002, 1.826437e+002
5.550258e+002, 1.818996e+002
5.555079e+002, 1.813547e+002
5.559901e+002, 1.810320e+002
5.564722e+002, 1.811635e+002
5.569543e+002, 1.815106e+002
5.574364e+002, 1.815574e+002
5.579185e+002, 1.810380e+002
5.584006e+002, 1.803603e+002
5.588828e+002, 1.797711e+002
5.593649e+002, 1.792666e+002
5.598470e+002, 1.788265e+002
5.603291e+002, 1.782953e+002
5.608112e+002, 1.779548e+002
5.612933e+002, 1.781025e+002
5.617755e+002, 1.787466e+002
5.622576e+002, 1.789709e+002
5.627397e+002, 1.781435e+002
5.632218e+002, 1.772702e+002
5.637039e+002, 1.768857e+002
5.641860e+002, 1.773460e+002
5.646682e+002, 1.773234e+002
5.651503e+002, 1.765877e+002
5.656324e+002, 1.756615e+002
5.661145e+002, 1.752784e+002
5.665966e+002, 1.755053e+002
5.670787e+002, 1.756343e+002
5.675609e+002, 1.754832e+002
5.680430e+002, 1.751950e+002
5.685251e+002, 1.750873e+002
5.690072e+002, 1.751404e+002
5.694893e+002, 1.751930e+002
5.699714e+002, 1.751866e+002
5.704536e+002, 1.751131e+002
5.709357e+002, 1.748987e+002
5.714178e+002, 1.745580e+002
5.718999e+002, 1.743108e+002
5.723820e+002, 1.744808e+002
5.728641e+002, 1.747047e+002
5.733463e+002, 1.746162e+002
5.738284e+002, 1.739904e+002
5.743105e+002, 1.734818e+002
5.747926e+002, 1.733889e+002
5.752747e+002, 1.734811e+002
5.757568e+002, 1.734649e+002
5.762390e+002, 1.730295e+002
5.767211e+002, 1.728735e+002
5.772032e+002, 1.731971e+002
5.776853e+002, 1.738461e+002
5.781674e+002, 1.742801e+002
5.786495e+002, 1.744535e+002
5.791317e+002, 1.745455e+002
5.796138e+002, 1.746073e+002
5.800959e+002, 1.746462e+002
5.805780e+002, 1.746425e+002
5.810601e+002, 1.745720e+002
5.815422e+002, 1.747410e+002
5.820244e+002, 1.756949e+002
5.825065e+002, 1.770695e+002
5.829886e+002, 1.779247e+002
5.834707e+002, 1.781141e+002
5.839528e+002, 1.779808e+002
5.844349e+002, 1.776520e+002
5.849171e+002, 1.772471e+002
5.853992e+002, 1.769442e+002
5.858813e+002, 1.769046e+002
5.863634e+002, 1.768695e+002
5.868455e+002, 1.766470e+002
5.873276e+002, 1.763377e+002
5.878098e+002, 1.762297e+002
5.882919e+002, 1.765193e+002
5.887740e+002, 1.768749e+002
5.892561e+002, 1.772245e+002
5.897382e+002, 1.775685e+002
5.902203e+002, 1.778411e+002
5.907025e+002, 1.780555e+002
5.911846e+002, 1.781693e+002
5.916667e+002, 1.780488e+002
5.921488e+002, 1.776505e+002
5.926309e+002, 1.777312e+002
5.931130e+002, 1.783984e+002
5.935952e+002, 1.792434e+002
5.940773e+002, 1.798607e+002
5.945594e+002, 1.802542e+002
5.950415e+002, 1.803677e+002
5.955236e+002, 1.800257e+002
5.960057e+002, 1.797227e+002
5.964879e+002, 1.801720e+002
5.969700e+002, 1.810938e+002
5.974521e+002, 1.818279e+002
5.979342e+002, 1.819090e+002
5.984163e+002, 1.818599e+002
5.988984e+002, 1.819017e+002
5.993806e+002, 1.820490e+002
5.998627e+002, 1.823466e+002
6.003448e+002, 1.831223e+002
6.008269e+002, 1.837736e+002
6.013090e+002, 1.839620e+002
6.017911e+002, 1.834961e+002
6.022733e+002, 1.833092e+002
6.027554e+002, 1.834188e+002
6.032375e+002, 1.837809e+002
6.037196e+002, 1.844410e+002
6.042017e+002, 1.854534e+002
6.046838e+002, 1.862602e+002
6.051660e+002, 1.867912e+002
6.056481e+002, 1.871227e+002
6.061302e+002, 1.872866e+002
6.066123e+002, 1.873273e+002
6.070944e+002, 1.874449e+002
6.075765e+002, 1.876934e+002
6.080587e+002, 1.880759e+002
6.085408e+002, 1.887121e+002
6.090229e+002, 1.895125e+002
6.095050e+002, 1.901817e+002
6.099871e+002, 1.903419e+002
6.104692e+002, 1.904950e+002
6.109514e+002, 1.909949e+002
6.114335e+002, 1.918895e+002
6.119156e+002, 1.926832e+002
6.123977e+002, 1.931471e+002
6.128798e+002, 1.935788e+002
6.133619e+002, 1.941593e+002
6.138441e+002, 1.950270e+002
6.143262e+002, 1.957060e+002
6.148083e+002, 1.960925e+002
6.152904e+002, 1.964396e+002
6.157725e+002, 1.971377e+002
6.162546e+002, 1.982221e+002
6.167368e+002, 1.990469e+002
6.172189e+002, 1.994300e+002
6.177010e+002, 1.996172e+002
6.181831e+002, 1.999311e+002
6.186652e+002, 2.004016e+002
6.191473e+002, 2.011645e+002
6.196295e+002, 2.027337e+002
6.201116e+002, 2.043148e+002
6.205937e+002, 2.050078e+002
6.210758e+002, 2.049447e+002
6.215579e+002, 2.048061e+002
6.220400e+002, 2.046449e+002
6.225222e+002, 2.047256e+002
6.230043e+002, 2.052714e+002
6.234864e+002, 2.063914e+002
6.239685e+002, 2.074554e+002
6.244506e+002, 2.083431e+002
6.249327e+002, 2.092038e+002
6.254149e+002, 2.101626e+002
6.258970e+002, 2.113113e+002
6.263791e+002, 2.122122e+002
6.268612e+002, 2.127382e+002
6.273433e+002, 2.132028e+002
6.278254e+002, 2.142385e+002
6.283076e+002, 2.157962e+002
6.287897e+002, 2.167457e+002
6.292718e+002, 2.165961e+002
6.297539e+002, 2.160480e+002
6.302360e+002, 2.161666e+002
6.307181e+002, 2.168211e+002
6.312003e+002, 2.175995e+002
6.316824e+002, 2.183741e+002
6.321645e+002, 2.191346e+002
6.326466e+002, 2.199279e+002
6.331287e+002, 2.207287e+002
6.336108e+002, 2.213302e+002
6.340930e+002, 2.213716e+002
6.345751e+002, 2.214485e+002
6.350572e+002, 2.218873e+002
6.355393e+002, 2.227793e+002
6.360214e+002, 2.236364e+002
6.365035e+002, 2.244818e+002
6.369857e+002, 2.252646e+002
6.374678e+002, 2.259450e+002
6.379499e+002, 2.265208e+002
6.384320e+002, 2.269472e+002
6.389141e+002, 2.271581e+002
6.393962e+002, 2.273837e+002
6.398784e+002, 2.280472e+002
6.403605e+002, 2.290224e+002
6.408426e+002, 2.297775e+002
6.413247e+002, 2.301062e+002
6.418068e+002, 2.302553e+002
6.422889e+002, 2.303682e+002
6.427711e+002, 2.305125e+002
6.432532e+002, 2.308438e+002
6.437353e+002, 2.317125e+002
6.442174e+002, 2.325132e+002
6.446995e+002, 2.328898e+002
6.451816e+002, 2.329017e+002
6.456638e+002, 2.330078e+002
6.461459e+002, 2.332512e+002
6.466280e+002, 2.336339e+002
6.471101e+002, 2.342620e+002
6.475922e+002, 2.351668e+002
6.480743e+002, 2.355738e+002
6.485565e+002, 2.353028e+002
6.490386e+002, 2.349834e+002
6.495207e+002, 2.350963e+002
6.500028e+002, 2.356023e+002
6.504849e+002, 2.362683e+002
6.509670e+002, 2.371056e+002
6.514492e+002, 2.378615e+002
6.519313e+002, 2.382811e+002
6.524134e+002, 2.384153e+002
6.528955e+002, 2.383145e+002
6.533776e+002, 2.378596e+002
6.538597e+002, 2.374767e+002
6.543419e+002, 2.374997e+002
6.548240e+002, 2.377542e+002
6.553061e+002, 2.379729e+002
6.557882e+002, 2.381819e+002
6.562703e+002, 2.382437e+002
6.567524e+002, 2.379731e+002
6.572346e+002, 2.375388e+002
6.577167e+002, 2.374446e+002
6.581988e+002, 2.377818e+002
6.586809e+002, 2.382713e+002
6.591630e+002, 2.388902e+002
6.596451e+002, 2.395885e+002
6.601273e+002, 2.400934e+002
6.606094e+002, 2.404080e+002
6.610915e+002, 2.405079e+002
6.615736e+002, 2.401518e+002
6.620557e+002, 2.396310e+002
6.625378e+002, 2.395844e+002
6.630200e+002, 2.400395e+002
6.635021e+002, 2.405449e+002
6.639842e+002, 2.408764e+002
6.644663e+002, 2.410535e+002
6.649484e+002, 2.410160e+002
6.654305e+002, 2.405587e+002
6.659127e+002, 2.404685e+002
6.663948e+002, 2.413054e+002
6.668769e+002, 2.424088e+002
6.673590e+002, 2.431097e+002
6.678411e+002, 2.432396e+002
6.683232e+002, 2.433127e+002
6.688054e+002, 2.433849e+002
6.692875e+002, 2.433981e+002
6.697696e+002, 2.431837e+002
6.702517e+002, 2.427344e+002
6.707338e+002, 2.424043e+002
6.712159e+002, 2.422771e+002
6.716981e+002, 2.423520e+002
6.721802e+002, 2.428513e+002
6.726623e+002, 2.436044e+002
6.731444e+002, 2.440185e+002
6.736265e+002, 2.435667e+002
6.741086e+002, 2.428333e+002
6.745908e+002, 2.420106e+002
6.750729e+002, 2.412014e+002
6.755550e+002, 2.409188e+002
6.760371e+002, 2.418690e+002
6.765192e+002, 2.428957e+002
6.770013e+002, 2.435349e+002
6.774835e+002, 2.437736e+002
6.779656e+002, 2.437348e+002
6.784477e+002, 2.432778e+002
6.789298e+002, 2.427981e+002
6.794119e+002, 2.425391e+002
6.798940e+002, 2.424984e+002
6.803762e+002, 2.427843e+002
6.808583e+002, 2.434798e+002
6.813404e+002, 2.439992e+002
6.818225e+002, 2.434533e+002
6.823046e+002, 2.423317e+002
6.827867e+002, 2.416887e+002
6.832689e+002, 2.418536e+002
6.837510e+002, 2.421529e+002
6.842331e+002, 2.421299e+002
6.847152e+002, 2.419452e+002
6.851973e+002, 2.418033e+002
6.856794e+002, 2.418428e+002
6.861616e+002, 2.418302e+002
6.866437e+002, 2.416584e+002
6.871258e+002, 2.414275e+002
6.876079e+002, 2.413365e+002
6.880900e+002, 2.414761e+002
6.885721e+002, 2.415267e+002
6.890543e+002, 2.414265e+002
6.895364e+002, 2.411747e+002
6.900185e+002, 2.406816e+002
6.905006e+002, 2.399585e+002
6.909827e+002, 2.393335e+002
6.914648e+002, 2.390517e+002
6.919470e+002, 2.389217e+002
6.924291e+002, 2.386825e+002
6.929112e+002, 2.383315e+002
6.933933e+002, 2.378598e+002
6.938754e+002, 2.369498e+002
6.943575e+002, 2.361617e+002
6.948397e+002, 2.360166e+002
6.953218e+002, 2.366256e+002
6.958039e+002, 2.368347e+002
6.962860e+002, 2.363874e+002
6.967681e+002, 2.356046e+002
6.972502e+002, 2.345011e+002
6.977324e+002, 2.328836e+002
6.982145e+002, 2.320551e+002
6.986966e+002, 2.322231e+002
6.991787e+002, 2.325986e+002
6.996608e+002, 2.324540e+002
7.001429e+002, 2.318494e+002
7.006251e+002, 2.309920e+002
7.011072e+002, 2.298490e+002
7.015893e+002, 2.287901e+002
7.020714e+002, 2.281725e+002
7.025535e+002, 2.278755e+002
7.030356e+002, 2.277616e+002
7.035178e+002, 2.280352e+002
7.039999e+002, 2.280559e+002
7.044820e+002, 2.274016e+002
7.049641e+002, 2.263920e+002
7.054462e+002, 2.255135e+002
7.059283e+002, 2.248298e+002
7.064105e+002, 2.242212e+002
7.068926e+002, 2.236685e+002
7.073747e+002, 2.231866e+002
7.078568e+002, 2.228435e+002
7.083389e+002, 2.226539e+002
7.088210e+002, 2.224021e+002
7.093032e+002, 2.220184e+002
7.097853e+002, 2.215247e+002
7.102674e+002, 2.209668e+002
7.107495e+002, 2.203400e+002
7.112316e+002, 2.196429e+002
7.117137e+002, 2.186221e+002
7.121959e+002, 2.177384e+002
7.126780e+002, 2.174736e+002
7.131601e+002, 2.177357e+002
7.136422e+002, 2.178219e+002
7.141243e+002, 2.174686e+002
7.146064e+002, 2.169555e+002
7.150886e+002, 2.163903e+002
7.155707e+002, 2.157690e+002
7.160528e+002, 2.150435e+002
7.165349e+002, 2.140868e+002
7.170170e+002, 2.133376e+002
7.174991e+002, 2.131628e+002
7.179813e+002, 2.134882e+002
7.184634e+002, 2.138079e+002
7.189455e+002, 2.141234e+002
7.194276e+002, 2.141389e+002
7.199097e+002, 2.133801e+002
7.203918e+002, 2.122613e+002
7.208740e+002, 2.112870e+002
7.213561e+002, 2.104962e+002
7.218382e+002, 2.100227e+002
7.223203e+002, 2.103476e+002
7.228024e+002, 2.107654e+002
7.232845e+002, 2.106316e+002
7.237667e+002, 2.093426e+002
7.242488e+002, 2.084624e+002
7.247309e+002, 2.081394e+002
7.252130e+002, 2.080556e+002
7.256951e+002, 2.078344e+002
7.261772e+002, 2.074621e+002
7.266594e+002, 2.071966e+002
7.271415e+002, 2.071183e+002
7.276236e+002, 2.070547e+002
7.281057e+002, 2.067204e+002
7.285878e+002, 2.062100e+002
7.290699e+002, 2.057696e+002
7.295521e+002, 2.055272e+002
7.300342e+002, 2.053053e+002
7.305163e+002, 2.050947e+002
7.309984e+002, 2.048036e+002
7.314805e+002, 2.042678e+002
7.319626e+002, 2.029415e+002
7.324448e+002, 2.019895e+002
7.329269e+002, 2.017696e+002
7.334090e+002, 2.020163e+002
7.338911e+002, 2.020396e+002
7.343732e+002, 2.018323e+002
7.348553e+002, 2.013937e+002
7.353375e+002, 2.005540e+002
7.358196e+002, 1.996178e+002
7.363017e+002, 1.995907e+002
7.367838e+002, 2.003092e+002
7.372659e+002, 2.007742e+002
7.377480e+002, 2.001745e+002
7.382302e+002, 1.992686e+002
7.387123e+002, 1.987444e+002
7.391944e+002, 1.985462e+002
7.396765e+002, 1.983455e+002
7.401586e+002, 1.980960e+002
7.406407e+002, 1.977454e+002
7.411229e+002, 1.971308e+002
7.416050e+002, 1.962770e+002
7.420871e+002, 1.959906e+002
7.425692e+002, 1.965517e+002
7.430513e+002, 1.970177e+002
7.435334e+002, 1.968308e+002
7.440156e+002, 1.960760e+002
7.444977e+002, 1.953908e+002
7.449798e+002, 1.947719e+002
7.454619e+002, 1.944303e+002
7.459440e+002, 1.948602e+002
7.464261e+002, 1.954942e+002
7.469083e+002, 1.955473e+002
7.473904e+002, 1.949411e+002
7.478725e+002, 1.943609e+002
7.483546e+002, 1.942914e+002
7.488367e+002, 1.942406e+002
7.493188e+002, 1.937778e+002
7.498010e+002, 1.926162e+002
7.502831e+002, 1.921012e+002
7.507652e+002, 1.925981e+002
7.512473e+002, 1.931751e+002
7.517294e+002, 1.929910e+002
7.522115e+002, 1.920608e+002
7.526937e+002, 1.915067e+002
7.531758e+002, 1.914451e+002
7.536579e+002, 1.914074e+002
7.541400e+002, 1.908179e+002
7.546221e+002, 1.899606e+002
7.551042e+002, 1.892996e+002
7.555864e+002, 1.889646e+002
7.560685e+002, 1.886983e+002
7.565506e+002, 1.884331e+002
7.570327e+002, 1.881400e+002
7.575148e+002, 1.877957e+002
7.579969e+002, 1.872831e+002
7.584791e+002, 1.868951e+002
7.589612e+002, 1.866835e+002
7.594433e+002, 1.865369e+002
7.599254e+002, 1.863254e+002
7.604075e+002, 1.860431e+002
7.608896e+002, 1.857572e+002
7.613718e+002, 1.854832e+002
7.618539e+002, 1.851831e+002
7.623360e+002, 1.847852e+002
7.628181e+002, 1.843254e+002
7.633002e+002, 1.838781e+002
7.637823e+002, 1.834531e+002
7.642645e+002, 1.830597e+002
7.647466e+002, 1.827219e+002
7.652287e+002, 1.824161e+002
7.657108e+002, 1.820942e+002
7.661929e+002, 1.815705e+002
7.666750e+002, 1.813170e+002
7.671572e+002, 1.815442e+002
7.676393e+002, 1.819365e+002
7.681214e+002, 1.818499e+002
7.686035e+002, 1.812466e+002
7.690856e+002, 1.807029e+002
7.695677e+002, 1.803609e+002
7.700499e+002, 1.801440e+002
7.705320e+002, 1.800023e+002
7.710141e+002, 1.798901e+002
7.714962e+002, 1.796918e+002
7.719783e+002, 1.793136e+002
7.724604e+002, 1.788796e+002
7.729426e+002, 1.784554e+002
7.734247e+002, 1.780246e+002
7.739068e+002, 1.775472e+002
7.743889e+002, 1.768425e+002
7.748710e+002, 1.763550e+002
7.753531e+002, 1.762421e+002
7.758353e+002, 1.763602e+002
7.763174e+002, 1.762881e+002
7.767995e+002, 1.760195e+002
7.772816e+002, 1.757543e+002
7.777637e+002, 1.756098e+002
7.782458e+002, 1.754656e+002
7.787280e+002, 1.750346e+002
7.792101e+002, 1.744164e+002
7.796922e+002, 1.739361e+002
7.801743e+002, 1.739069e+002
7.806564e+002, 1.738976e+002
7.811385e+002, 1.737543e+002
7.816207e+002, 1.734565e+002
7.821028e+002, 1.729077e+002
7.825849e+002, 1.717028e+002
7.830670e+002, 1.709023e+002
7.835491e+002, 1.709232e+002
7.840313e+002, 1.715214e+002
7.845134e+002, 1.717808e+002
7.849955e+002, 1.717003e+002
7.854776e+002, 1.713302e+002
7.859597e+002, 1.704591e+002
7.864418e+002, 1.694740e+002
7.869240e+002, 1.690434e+002
7.874061e+002, 1.690539e+002
7.878882e+002, 1.690996e+002
7.883703e+002, 1.690357e+002
7.888524e+002, 1.689025e+002
7.893345e+002, 1.687235e+002
7.898167e+002, 1.684934e+002
7.902988e+002, 1.681817e+002
7.907809e+002, 1.677284e+002
7.912630e+002, 1.672937e+002
7.917451e+002, 1.668578e+002
7.922272e+002, 1.664980e+002
7.927094e+002, 1.666651e+002
7.931915e+002, 1.673329e+002
7.936736e+002, 1.678499e+002
7.941557e+002, 1.678157e+002
7.946378e+002, 1.674361e+002
7.951199e+002, 1.667845e+002
7.956021e+002, 1.659682e+002
7.960842e+002, 1.654172e+002
7.965663e+002, 1.655632e+002
7.970484e+002, 1.657876e+002
7.975305e+002, 1.658357e+002
7.980126e+002, 1.657165e+002
7.984948e+002, 1.655371e+002
7.989769e+002, 1.652448e+002
7.994590e+002, 1.650364e+002
7.999411e+002, 1.650831e+002
8.004232e+002, 1.652593e+002
8.009053e+002, 1.649907e+002
8.013875e+002, 1.643228e+002
8.018696e+002, 1.637044e+002
8.023517e+002, 1.634815e+002
8.028338e+002, 1.633766e+002
8.033159e+002, 1.629955e+002
8.037980e+002, 1.624273e+002
8.042802e+002, 1.622337e+002
8.047623e+002, 1.629853e+002
8.052444e+002, 1.637372e+002
8.057265e+002, 1.641421e+002
8.062086e+002, 1.642335e+002
8.066907e+002, 1.643479e+002
8.071729e+002, 1.645300e+002
8.076550e+002, 1.645187e+002
8.081371e+002, 1.640433e+002
8.086192e+002, 1.633441e+002
8.091013e+002, 1.631173e+002
8.095834e+002, 1.632925e+002
8.100656e+002, 1.634660e+002
8.105477e+002, 1.633591e+002
8.110298e+002, 1.632043e+002
8.115119e+002, 1.631885e+002
8.119940e+002, 1.632922e+002
8.124761e+002, 1.633098e+002
8.129583e+002, 1.631666e+002
8.134404e+002, 1.629953e+002
8.139225e+002, 1.628413e+002
8.144046e+002, 1.626954e+002
8.148867e+002, 1.624138e+002
8.153688e+002, 1.619810e+002
8.158510e+002, 1.617771e+002
8.163331e+002, 1.622411e+002
8.168152e+002, 1.629149e+002
8.172973e+002, 1.629276e+002
8.177794e+002, 1.624353e+002
8.182615e+002, 1.620625e+002
8.187437e+002, 1.622900e+002
8.192258e+002, 1.625443e+002
8.197079e+002, 1.624897e+002
8.201900e+002, 1.621840e+002
8.206721e+002, 1.621243e+002
8.211542e+002, 1.624310e+002
8.216364e+002, 1.627165e+002
8.221185e+002, 1.628629e+002
8.226006e+002, 1.628903e+002
8.230827e+002, 1.628774e+002
8.235648e+002, 1.628206e+002
8.240469e+002, 1.626797e+002
8.245291e+002, 1.623148e+002
8.250112e+002, 1.619539e+002
8.254933e+002, 1.618707e+002
8.259754e+002, 1.619809e+002
8.264575e+002, 1.620101e+002
8.269396e+002, 1.617017e+002
8.274218e+002, 1.615011e+002
8.279039e+002, 1.615208e+002
8.283860e+002, 1.617320e+002
8.288681e+002, 1.620814e+002
8.293502e+002, 1.626124e+002
8.298323e+002, 1.630571e+002
8.303145e+002, 1.633801e+002
8.307966e+002, 1.634985e+002
8.312787e+002, 1.630423e+002
8.317608e+002, 1.622166e+002
8.322429e+002, 1.616734e+002
8.327250e+002, 1.620002e+002
8.332072e+002, 1.623925e+002
8.336893e+002, 1.623236e+002
8.341714e+002, 1.619969e+002
8.346535e+002, 1.619828e+002
8.351356e+002, 1.625981e+002
8.356177e+002, 1.630082e+002
8.360999e+002, 1.630418e+002
8.365820e+002, 1.628185e+002
8.370641e+002, 1.625083e+002
8.375462e+002, 1.621372e+002
8.380283e+002, 1.620278e+002
8.385104e+002, 1.623884e+002
8.389926e+002, 1.628574e+002
8.394747e+002, 1.630929e+002
8.399568e+002, 1.631398e+002
8.404389e+002, 1.630782e+002
8.409210e+002, 1.627460e+002
8.414031e+002, 1.625354e+002
8.418853e+002, 1.626094e+002
8.423674e+002, 1.628113e+002
8.428495e+002, 1.629439e+002
8.433316e+002, 1.630110e+002
8.438137e+002, 1.629572e+002
8.442958e+002, 1.627320e+002
8.447780e+002, 1.624876e+002
8.452601e+002, 1.624871e+002
8.457422e+002, 1.626411e+002
8.462243e+002, 1.627307e+002
8.467064e+002, 1.626806e+002
8.471885e+002, 1.625993e+002
8.476707e+002, 1.624972e+002
8.481528e+002, 1.624229e+002
8.486349e+002, 1.624420e+002
8.491170e+002, 1.626703e+002
8.495991e+002, 1.628013e+002
8.500812e+002, 1.628513e+002
8.505634e+002, 1.627757e+002
8.510455e+002, 1.624077e+002
8.515276e+002, 1.618159e+002
8.520097e+002, 1.615781e+002
8.524918e+002, 1.618128e+002
8.529739e+002, 1.620857e+002
8.534561e+002, 1.618109e+002
8.539382e+002, 1.614501e+002
8.544203e+002, 1.616420e+002
8.549024e+002, 1.628248e+002
8.553845e+002, 1.634278e+002
8.558666e+002, 1.625719e+002
8.563488e+002, 1.615573e+002
8.568309e+002, 1.612828e+002
8.573130e+002, 1.618659e+002
8.577951e+002, 1.622174e+002
8.582772e+002, 1.623084e+002
8.587593e+002, 1.623054e+002
8.592415e+002, 1.623943e+002
8.597236e+002, 1.624686e+002
8.602057e+002, 1.622761e+002
8.606878e+002, 1.618001e+002
8.611699e+002, 1.614495e+002
8.616520e+002, 1.615539e+002
8.621342e+002, 1.617349e+002
8.626163e+002, 1.617757e+002
8.630984e+002, 1.616740e+002
8.635805e+002, 1.614723e+002
8.640626e+002, 1.611133e+002
8.645447e+002, 1.608404e+002
8.650269e+002, 1.608906e+002
8.655090e+002, 1.611270e+002
8.659911e+002, 1.610151e+002
8.664732e+002, 1.606043e+002
8.669553e+002, 1.602215e+002
8.674374e+002, 1.601704e+002
8.679196e+002, 1.601328e+002
8.684017e+002, 1.597286e+002
8.688838e+002, 1.590543e+002
8.693659e+002, 1.589260e+002
8.698480e+002, 1.598997e+002
8.703301e+002, 1.605579e+002
8.708123e+002, 1.603715e+002
8.712944e+002, 1.596314e+002
8.717765e+002, 1.593696e+002
8.722586e+002, 1.595448e+002
8.727407e+002, 1.597014e+002
8.732228e+002, 1.596268e+002
8.737050e+002, 1.594547e+002
8.741871e+002, 1.593270e+002
8.746692e+002, 1.592088e+002
8.751513e+002, 1.590216e+002
8.756334e+002, 1.585934e+002
8.761155e+002, 1.582872e+002
8.765977e+002, 1.581636e+002
8.770798e+002, 1.581923e+002
8.775619e+002, 1.584284e+002
8.780440e+002, 1.589156e+002
8.785261e+002, 1.589295e+002
8.790082e+002, 1.581899e+002
8.794904e+002, 1.573009e+002
8.799725e+002, 1.570362e+002
8.804546e+002, 1.571757e+002
8.809367e+002, 1.573550e+002
8.814188e+002, 1.575368e+002
8.819009e+002, 1.576063e+002
8.823831e+002, 1.573582e+002
8.828652e+002, 1.570787e+002
8.833473e+002, 1.570991e+002
8.838294e+002, 1.575789e+002
8.843115e+002, 1.577053e+002
8.847936e+002, 1.573897e+002
8.852758e+002, 1.569556e+002
8.857579e+002, 1.566912e+002
8.862400e+002, 1.565690e+002
8.867221e+002, 1.566123e+002
8.872042e+002, 1.568437e+002
8.876863e+002, 1.568478e+002
8.881685e+002, 1.559361e+002
8.886506e+002, 1.550553e+002
8.891327e+002, 1.549958e+002
8.896148e+002, 1.559300e+002
8.900969e+002, 1.565137e+002
8.905790e+002, 1.566629e+002
8.910612e+002, 1.566799e+002
8.915433e+002, 1.567277e+002
8.920254e+002, 1.567866e+002
8.925075e+002, 1.568128e+002
8.929896e+002, 1.567958e+002
8.934717e+002, 1.566717e+002
8.939539e+002, 1.562620e+002
8.944360e+002, 1.558532e+002
8.949181e+002, 1.556942e+002
8.954002e+002, 1.557367e+002
8.958823e+002, 1.556175e+002
8.963644e+002, 1.551400e+002
8.968466e+002, 1.548568e+002
8.973287e+002, 1.549987e+002
8.978108e+002, 1.553652e+002
8.982929e+002, 1.553812e+002
8.987750e+002, 1.551047e+002
8.992571e+002, 1.549152e+002
8.997393e+002, 1.550916e+002
9.002214e+002, 1.552068e+002
9.007035e+002, 1.548238e+002
9.011856e+002, 1.541515e+002
9.016677e+002, 1.535489e+002
9.021498e+002, 1.530246e+002
9.026320e+002, 1.526738e+002
9.031141e+002, 1.525379e+002
9.035962e+002, 1.525222e+002
9.040783e+002, 1.525222e+002
9.045604e+002, 1.525346e+002
9.050425e+002, 1.525479e+002
9.055247e+002, 1.525712e+002
9.060068e+002, 1.525254e+002
9.064889e+002, 1.522266e+002
9.069710e+002, 1.518775e+002
9.074531e+002, 1.517596e+002
9.079352e+002, 1.520504e+002
9.084174e+002, 1.520468e+002
9.088995e+002, 1.513956e+002
9.093816e+002, 1.507379e+002
9.098637e+002, 1.504819e+002
9.103458e+002, 1.506230e+002
9.108279e+002, 1.508181e+002
9.113101e+002, 1.510718e+002
9.117922e+002, 1.511094e+002
9.122743e+002, 1.505133e+002
9.127564e+002, 1.497407e+002
9.132385e+002, 1.493200e+002
9.137206e+002, 1.492225e+002
9.142028e+002, 1.490822e+002
9.146849e+002, 1.486737e+002
9.151670e+002, 1.483491e+002
9.156491e+002, 1.482642e+002
9.161312e+002, 1.483327e+002
9.166133e+002, 1.481575e+002
9.170955e+002, 1.477331e+002
9.175776e+002, 1.474983e+002
9.180597e+002, 1.477149e+002
9.185418e+002, 1.480466e+002
9.190239e+002, 1.480603e+002
9.195060e+002, 1.478822e+002
9.199882e+002, 1.477560e+002
9.204703e+002, 1.479982e+002
9.209524e+002, 1.479655e+002
9.214345e+002, 1.473022e+002
9.219166e+002, 1.465233e+002
9.223987e+002, 1.463334e+002
9.228809e+002, 1.467781e+002
9.233630e+002, 1.470345e+002
9.238451e+002, 1.469974e+002
9.243272e+002, 1.468334e+002
9.248093e+002, 1.466294e+002
9.252914e+002, 1.464504e+002
9.257736e+002, 1.464501e+002
9.262557e+002, 1.467120e+002
9.267378e+002, 1.467473e+002
9.272199e+002, 1.461274e+002
9.277020e+002, 1.455190e+002
9.281841e+002, 1.452514e+002
9.286663e+002, 1.453273e+002
9.291484e+002, 1.456033e+002
9.296305e+002, 1.461031e+002
9.301126e+002, 1.463457e+002
9.305947e+002, 1.457385e+002
9.310768e+002, 1.448868e+002
9.315590e+002, 1.445873e+002
9.320411e+002, 1.447441e+002
9.325232e+002, 1.449238e+002
9.330053e+002, 1.450746e+002
9.334874e+002, 1.451060e+002
9.339695e+002, 1.449384e+002
9.344517e+002, 1.446726e+002
9.349338e+002, 1.446414e+002
9.354159e+002, 1.448573e+002
9.358980e+002, 1.446871e+002
9.363801e+002, 1.438443e+002
9.368622e+002, 1.428737e+002
9.373444e+002, 1.423307e+002
9.378265e+002, 1.421301e+002
9.383086e+002, 1.421682e+002
9.387907e+002, 1.426067e+002
9.392728e+002, 1.429052e+002
9.397549e+002, 1.428389e+002
9.402371e+002, 1.427381e+002
9.407192e+002, 1.429975e+002
9.412013e+002, 1.436422e+002
9.416834e+002, 1.434496e+002
9.421655e+002, 1.423270e+002
9.426476e+002, 1.414298e+002
9.431298e+002, 1.421655e+002
9.436119e+002, 1.433635e+002
9.440940e+002, 1.437422e+002
9.445761e+002, 1.432425e+002
9.450582e+002, 1.426941e+002
9.455403e+002, 1.420504e+002
9.460225e+002, 1.417094e+002
9.465046e+002, 1.419448e+002
9.469867e+002, 1.425479e+002
9.474688e+002, 1.426578e+002
9.479509e+002, 1.422911e+002
9.484330e+002, 1.417096e+002
9.489152e+002, 1.407842e+002
9.493973e+002, 1.400176e+002
9.498794e+002, 1.400352e+002
9.503615e+002, 1.405246e+002
9.508436e+002, 1.409332e+002
9.513257e+002, 1.412142e+002
9.518079e+002, 1.412419e+002
9.522900e+002, 1.408882e+002
9.527721e+002, 1.404465e+002
9.532542e+002, 1.402695e+002
9.537363e+002, 1.403320e+002
9.542184e+002, 1.405096e+002
9.547006e+002, 1.408109e+002
9.551827e+002, 1.409446e+002
9.556648e+002, 1.405352e+002
9.561469e+002, 1.399526e+002
9.566290e+002, 1.394758e+002
9.571111e+002, 1.391280e+002
9.575933e+002, 1.390607e+002
9.580754e+002, 1.395141e+002
9.585575e+002, 1.397507e+002
9.590396e+002, 1.392421e+002
9.595217e+002, 1.383140e+002
9.600038e+002, 1.381583e+002
9.604860e+002, 1.386613e+002
9.609681e+002, 1.392346e+002
9.614502e+002, 1.398047e+002
9.619323e+002, 1.401024e+002
9.624144e+002, 1.396975e+002
9.628965e+002, 1.389441e+002
9.633787e+002, 1.386655e+002
9.638608e+002, 1.391515e+002
9.643429e+002, 1.393959e+002
9.648250e+002, 1.392225e+002
9.653071e+002, 1.389128e+002
9.657892e+002, 1.388060e+002
9.662714e+002, 1.388739e+002
9.667535e+002, 1.390863e+002
9.672356e+002, 1.394617e+002
9.677177e+002, 1.397842e+002
9.681998e+002, 1.400264e+002
9.686819e+002, 1.400900e+002
9.691641e+002, 1.398128e+002
9.696462e+002, 1.391504e+002
9.701283e+002, 1.388973e+002
9.706104e+002, 1.391102e+002
9.710925e+002, 1.393922e+002
9.715746e+002, 1.394449e+002
9.720568e+002, 1.394552e+002
9.725389e+002, 1.399309e+002
9.730210e+002, 1.406855e+002
9.735031e+002, 1.410883e+002
9.739852e+002, 1.405012e+002
9.744673e+002, 1.399733e+002
9.749495e+002, 1.398730e+002
9.754316e+002, 1.399748e+002
9.759137e+002, 1.398884e+002
9.763958e+002, 1.396020e+002
9.768779e+002, 1.393346e+002
9.773600e+002, 1.390876e+002
9.778422e+002, 1.390419e+002
9.783243e+002, 1.396422e+002
9.788064e+002, 1.404334e+002
9.792885e+002, 1.407995e+002
9.797706e+002, 1.405476e+002
9.802527e+002, 1.403313e+002
9.807349e+002, 1.402699e+002
9.812170e+002, 1.402486e+002
9.816991e+002, 1.402374e+002
9.821812e+002, 1.402202e+002
9.826633e+002, 1.400355e+002
9.831454e+002, 1.396990e+002
9.836276e+002, 1.394015e+002
9.841097e+002, 1.392460e+002
9.845918e+002, 1.391775e+002
9.850739e+002, 1.391661e+002
9.855560e+002, 1.392076e+002
9.860381e+002, 1.393012e+002
9.865203e+002, 1.394655e+002
9.870024e+002, 1.396523e+002
9.874845e+002, 1.399046e+002
9.879666e+002, 1.400849e+002
9.884487e+002, 1.398531e+002
9.889308e+002, 1.393933e+002
9.894130e+002, 1.393222e+002
9.898951e+002, 1.398125e+002
9.903772e+002, 1.401546e+002
9.908593e+002, 1.396347e+002
9.913414e+002, 1.390527e+002
9.918235e+002, 1.390886e+002
9.923057e+002, 1.397907e+002
9.927878e+002, 1.400324e+002
9.932699e+002, 1.397299e+002
9.937520e+002, 1.395050e+002
9.942341e+002, 1.398303e+002
9.947162e+002, 1.403379e+002
9.951984e+002, 1.403397e+002
9.956805e+002, 1.399942e+002
9.961626e+002, 1.397345e+002
9.966447e+002, 1.398663e+002
9.971268e+002, 1.399113e+002
9.976089e+002, 1.396782e+002
9.980911e+002, 1.393802e+002
9.985732e+002, 1.393784e+002
9.990553e+002, 1.396681e+002
9.995374e+002, 1.396943e+002
1.000020e+003, 1.393620e+002
1.000502e+003, 1.390050e+002
1.000984e+003, 1.388533e+002
1.001466e+003, 1.388803e+002
1.001948e+003, 1.391250e+002
1.002430e+003, 1.396143e+002
1.002912e+003, 1.399696e+002
1.003394e+003, 1.401800e+002
1.003876e+003, 1.402156e+002
1.004359e+003, 1.399727e+002
1.004841e+003, 1.396035e+002
1.005323e+003, 1.395310e+002
1.005805e+003, 1.397452e+002
1.006287e+003, 1.402259e+002
1.006769e+003, 1.414749e+002
1.007251e+003, 1.423276e+002
1.007733e+003, 1.418176e+002
1.008216e+003, 1.407093e+002
1.008698e+003, 1.400667e+002
1.009180e+003, 1.399635e+002
1.009662e+003, 1.401081e+002
1.010144e+003, 1.405354e+002
1.010626e+003, 1.409574e+002
1.011108e+003, 1.410388e+002
1.011590e+003, 1.409468e+002
1.012072e+003, 1.408899e+002
1.012555e+003, 1.408890e+002
1.013037e+003, 1.410023e+002
1.013519e+003, 1.415950e+002
1.014001e+003, 1.418691e+002
1.014483e+003, 1.413852e+002
1.014965e+003, 1.404697e+002
1.015447e+003, 1.403026e+002
1.015929e+003, 1.408153e+002
1.016411e+003, 1.413040e+002
1.016894e+003, 1.415496e+002
1.017376e+003, 1.416716e+002
1.017858e+003, 1.417530e+002
1.018340e+003, 1.417790e+002
1.018822e+003, 1.417200e+002
1.019304e+003, 1.415134e+002
1.019786e+003, 1.413878e+002
1.020268e+003, 1.413726e+002
1.020751e+003, 1.413640e+002
1.021233e+003, 1.412410e+002
1.021715e+003, 1.410733e+002
1.022197e+003, 1.410881e+002
1.022679e+003, 1.412534e+002
1.023161e+003, 1.413591e+002
1.023643e+003, 1.412458e+002
1.024125e+003, 1.411090e+002
1.024607e+003, 1.409076e+002
1.025090e+003, 1.407775e+002
1.025572e+003, 1.411454e+002
1.026054e+003, 1.420738e+002
1.026536e+003, 1.425277e+002
1.027018e+003, 1.422603e+002
1.027500e+003, 1.417530e+002
1.027982e+003, 1.412831e+002
1.028464e+003, 1.409916e+002
1.028947e+003, 1.411328e+002
1.029429e+003, 1.418786e+002
1.029911e+003, 1.423260e+002
1.030393e+003, 1.423382e+002
1.030875e+003, 1.422035e+002
1.031357e+003, 1.419873e+002
1.031839e+003, 1.417698e+002
1.032321e+003, 1.419060e+002
1.032803e+003, 1.423141e+002
1.033286e+003, 1.426477e+002
1.033768e+003, 1.425975e+002
1.034250e+003, 1.425910e+002
1.034732e+003, 1.429388e+002
1.035214e+003, 1.433836e+002
1.035696e+003, 1.435220e+002
1.036178e+003, 1.432684e+002
1.036660e+003, 1.432461e+002
1.037143e+003, 1.435522e+002
1.037625e+003, 1.437058e+002
1.038107e+003, 1.429498e+002
1.038589e+003, 1.419700e+002
1.039071e+003, 1.416756e+002
1.039553e+003, 1.420909e+002
1.040035e+003, 1.425169e+002
1.040517e+003, 1.428427e+002
1.041000e+003, 1.431129e+002
1.041482e+003, 1.433656e+002
1.041964e+003, 1.435384e+002
1.042446e+003, 1.433609e+002
1.042928e+003, 1.429427e+002
1.043410e+003, 1.427690e+002
1.043892e+003, 1.430847e+002
1.044374e+003, 1.433656e+002
1.044856e+003, 1.429826e+002
1.045339e+003, 1.426514e+002
1.045821e+003, 1.431996e+002
1.046303e+003, 1.449011e+002
1.046785e+003, 1.452288e+002
1.047267e+003, 1.440292e+002
1.047749e+003, 1.428195e+002
1.048231e+003, 1.428114e+002
1.048713e+003, 1.432369e+002
1.049195e+003, 1.430779e+002
1.049677e+003, 1.425263e+002
1.050160e+003, 1.421582e+002
1.050642e+003, 1.424378e+002
1.051124e+003, 1.424520e+002
1.051606e+003, 1.419480e+002
1.052088e+003, 1.413725e+002
1.052570e+003, 1.414857e+002
1.053052e+003, 1.420597e+002
1.053534e+003, 1.420797e+002
1.054017e+003, 1.414054e+002
1.054499e+003, 1.409205e+002
1.054981e+003, 1.415116e+002
1.055463e+003, 1.421602e+002
1.055945e+003, 1.421467e+002
1.056427e+003, 1.416017e+002
1.056909e+003, 1.412658e+002
1.057391e+003, 1.411498e+002
1.057874e+003, 1.411409e+002
1.058356e+003, 1.412189e+002
1.058838e+003, 1.413517e+002
1.059320e+003, 1.416159e+002
1.059802e+003, 1.418625e+002
1.060284e+003, 1.418668e+002
1.060766e+003, 1.414324e+002
1.061248e+003, 1.411051e+002
1.061730e+003, 1.409366e+002
1.062213e+003, 1.408151e+002
1.062695e+003, 1.406520e+002
1.063177e+003, 1.404710e+002
1.063659e+003, 1.403412e+002
1.064141e+003, 1.402656e+002
1.064623e+003, 1.402652e+002
1.065105e+003, 1.403687e+002
1.065587e+003, 1.405263e+002
1.066070e+003, 1.408244e+002
1.066552e+003, 1.411078e+002
1.067034e+003, 1.410990e+002
1.067516e+003, 1.407858e+002
1.067998e+003, 1.405405e+002
1.068480e+003, 1.404028e+002
1.068962e+003, 1.403833e+002
1.069444e+003, 1.406288e+002
1.069927e+003, 1.408994e+002
1.070409e+003, 1.409981e+002
1.070891e+003, 1.408985e+002
1.071373e+003, 1.406316e+002
1.071855e+003, 1.401221e+002
1.072337e+003, 1.396600e+002
1.072819e+003, 1.392985e+002
1.073301e+003, 1.390891e+002
1.073783e+003, 1.392183e+002
1.074266e+003, 1.395471e+002
1.074748e+003, 1.397751e+002
1.075230e+003, 1.397739e+002
1.075712e+003, 1.398034e+002
1.076194e+003, 1.399402e+002
1.076676e+003, 1.401181e+002
1.077158e+003, 1.403313e+002
1.077640e+003, 1.405639e+002
1.078122e+003, 1.406889e+002
1.078604e+003, 1.407000e+002
1.079087e+003, 1.405488e+002
1.079569e+003, 1.400515e+002
1.080051e+003, 1.395484e+002
1.080533e+003, 1.391605e+002
1.081015e+003, 1.389430e+002
1.081497e+003, 1.389990e+002
1.081979e+003, 1.394251e+002
1.082461e+003, 1.396840e+002
1.082944e+003, 1.397417e+002
1.083426e+003, 1.395951e+002
1.083908e+003, 1.390249e+002
1.084390e+003, 1.383877e+002
1.084872e+003, 1.380911e+002
1.085354e+003, 1.381518e+002
1.085836e+003, 1.384382e+002
1.086318e+003, 1.391998e+002
1.086801e+003, 1.396504e+002
1.087283e+003, 1.395437e+002
1.087765e+003, 1.391303e+002
1.088247e+003, 1.387070e+002
1.088729e+003, 1.383678e+002
1.089211e+003, 1.384486e+002
1.089693e+003, 1.391330e+002
1.090175e+003, 1.396282e+002
1.090657e+003, 1.394632e+002
1.091140e+003, 1.391315e+002
1.091622e+003, 1.388552e+002
1.092104e+003, 1.386431e+002
1.092586e+003, 1.386477e+002
1.093068e+003, 1.388401e+002
1.093550e+003, 1.388729e+002
1.094032e+003, 1.385153e+002
1.094514e+003, 1.380601e+002
1.094997e+003, 1.374813e+002
1.095479e+003, 1.370546e+002
1.095961e+003, 1.372148e+002
1.096443e+003, 1.382987e+002
1.096925e+003, 1.387368e+002
1.097407e+003, 1.384413e+002
1.097889e+003, 1.380432e+002
1.098371e+003, 1.381609e+002
1.098854e+003, 1.383749e+002
1.099336e+003, 1.380079e+002
1.099818e+003, 1.372382e+002
1.100300e+003, 1.368130e+002
1.100782e+003, 1.371762e+002
1.101264e+003, 1.374126e+002
1.101746e+003, 1.373944e+002
1.102228e+003, 1.372473e+002
1.102710e+003, 1.371010e+002
1.103193e+003, 1.369660e+002
1.103675e+003, 1.368735e+002
1.104157e+003, 1.368284e+002
1.104639e+003, 1.367735e+002
1.105121e+003, 1.367245e+002
1.105603e+003, 1.366072e+002
1.106085e+003, 1.363657e+002
1.106567e+003, 1.360534e+002
1.107049e+003, 1.358215e+002
1.107531e+003, 1.356679e+002
1.108014e+003, 1.356059e+002
1.108496e+003, 1.356515e+002
1.108978e+003, 1.357326e+002
1.109460e+003, 1.358883e+002
1.109942e+003, 1.359832e+002
1.110424e+003, 1.358173e+002
1.110906e+003, 1.353655e+002
1.111388e+003, 1.354213e+002
1.111871e+003, 1.360331e+002
1.112353e+003, 1.364433e+002
1.112835e+003, 1.361693e+002
1.113317e+003, 1.356437e+002
1.113799e+003, 1.351633e+002
1.114281e+003, 1.348168e+002
1.114763e+003, 1.347772e+002
1.115245e+003, 1.354263e+002
1.115728e+003, 1.355520e+002
1.116210e+003, 1.349632e+002
1.116692e+003, 1.344874e+002
1.117174e+003, 1.351635e+002
1.117656e+003, 1.362509e+002
1.118138e+003, 1.362173e+002
1.118620e+003, 1.353162e+002
1.119102e+003, 1.347242e+002
1.119584e+003, 1.352163e+002
1.120067e+003, 1.355254e+002
1.120549e+003, 1.354029e+002
1.121031e+003, 1.351060e+002
1.121513e+003, 1.349350e+002
1.121995e+003, 1.348800e+002
1.122477e+003, 1.349595e+002
1.122959e+003, 1.351688e+002
1.123441e+003, 1.352955e+002
1.123924e+003, 1.352259e+002
1.124406e+003, 1.350432e+002
1.124888e+003, 1.347819e+002
1.125370e+003, 1.344502e+002
1.125852e+003, 1.340163e+002
1.126334e+003, 1.334998e+002
1.126816e+003, 1.331577e+002
1.127298e+003, 1.330891e+002
1.127781e+003, 1.330152e+002
1.128263e+003, 1.325834e+002
1.128745e+003, 1.321790e+002
1.129227e+003, 1.321752e+002
1.129709e+003, 1.325506e+002
1.130191e+003, 1.328312e+002
1.130673e+003, 1.330206e+002
1.131155e+003, 1.330785e+002
1.131637e+003, 1.329312e+002
1.132120e+003, 1.327502e+002
1.132602e+003, 1.327357e+002
1.133084e+003, 1.327915e+002
1.133566e+003, 1.327800e+002
1.134048e+003, 1.326561e+002
1.134530e+003, 1.325578e+002
1.135012e+003, 1.324898e+002
1.135494e+003, 1.324225e+002
1.135976e+003, 1.323386e+002
1.136458e+003, 1.322405e+002
1.136941e+003, 1.321541e+002
1.137423e+003, 1.320564e+002
1.137905e+003, 1.318915e+002
1.138387e+003, 1.314717e+002
1.138869e+003, 1.312529e+002
1.139351e+003, 1.312805e+002
1.139833e+003, 1.314635e+002
1.140315e+003, 1.318991e+002
1.140798e+003, 1.323661e+002
1.141280e+003, 1.321761e+002
1.141762e+003, 1.314295e+002
1.142244e+003, 1.309178e+002
1.142726e+003, 1.311795e+002
1.143208e+003, 1.314334e+002
1.143690e+003, 1.315178e+002
1.144172e+003, 1.314893e+002
1.144655e+003, 1.314110e+002
1.145137e+003, 1.312959e+002
1.145619e+003, 1.311575e+002
1.146101e+003, 1.309983e+002
1.146583e+003, 1.309605e+002
1.147065e+003, 1.312978e+002
1.147547e+003, 1.315902e+002
1.148029e+003, 1.316921e+002
1.148511e+003, 1.315960e+002
1.148994e+003, 1.311512e+002
1.149476e+003, 1.304199e+002
1.149958e+003, 1.299804e+002
1.150440e+003, 1.299927e+002
1.150922e+003, 1.301554e+002
1.151404e+003, 1.304334e+002
1.151886e+003, 1.306162e+002
1.152368e+003, 1.305177e+002
1.152851e+003, 1.301666e+002
1.153333e+003, 1.297199e+002
1.153815e+003, 1.291739e+002
1.154297e+003, 1.289916e+002
1.154779e+003, 1.295119e+002
1.155261e+003, 1.300790e+002
1.155743e+003, 1.299282e+002
1.156225e+003, 1.295760e+002
1.156708e+003, 1.297228e+002
1.157190e+003, 1.305308e+002
1.157672e+003, 1.307066e+002
1.158154e+003, 1.301803e+002
1.158636e+003, 1.296382e+002
1.159118e+003, 1.295644e+002
1.159600e+003, 1.295657e+002
1.160082e+003, 1.290397e+002
1.160564e+003, 1.283328e+002
1.161047e+003, 1.280767e+002
1.161529e+003, 1.285978e+002
1.162011e+003, 1.290043e+002
1.162493e+003, 1.293079e+002
1.162975e+003, 1.294502e+002
1.163457e+003, 1.292809e+002
1.163939e+003, 1.289965e+002
1.164421e+003, 1.289015e+002
1.164903e+003, 1.289260e+002
1.165385e+003, 1.288449e+002
1.165868e+003, 1.285144e+002
1.166350e+003, 1.282495e+002
1.166832e+003, 1.280825e+002
1.167314e+003, 1.279579e+002
1.167796e+003, 1.277384e+002
1.168278e+003, 1.275610e+002
1.168760e+003, 1.277867e+002
1.169242e+003, 1.283476e+002
1.169725e+003, 1.286992e+002
1.170207e+003, 1.286311e+002
1.170689e+003, 1.283687e+002
1.171171e+003, 1.278506e+002
1.171653e+003, 1.273363e+002
1.172135e+003, 1.271839e+002
1.172617e+003, 1.273233e+002
1.173099e+003, 1.277218e+002
1.173582e+003, 1.283594e+002
1.174064e+003, 1.286823e+002
1.174546e+003, 1.280651e+002
1.175028e+003, 1.276673e+002
1.175510e+003, 1.278877e+002
1.175992e+003, 1.283599e+002
1.176474e+003, 1.283215e+002
1.176956e+003, 1.279249e+002
1.177438e+003, 1.275831e+002
1.177921e+003, 1.273651e+002
1.178403e+003, 1.272732e+002
1.178885e+003, 1.274234e+002
1.179367e+003, 1.275698e+002
1.179849e+003, 1.276018e+002
1.180331e+003, 1.275709e+002
1.180813e+003, 1.277164e+002
1.181295e+003, 1.279467e+002
1.181778e+003, 1.278348e+002
1.182260e+003, 1.270898e+002
1.182742e+003, 1.266419e+002
1.183224e+003, 1.273277e+002
1.183706e+003, 1.280079e+002
1.184188e+003, 1.280125e+002
1.184670e+003, 1.274800e+002
1.185152e+003, 1.271359e+002
1.185635e+003, 1.269565e+002
1.186117e+003, 1.268049e+002
1.186599e+003, 1.265958e+002
1.187081e+003, 1.264740e+002
1.187563e+003, 1.264800e+002
1.188045e+003, 1.266462e+002
1.188527e+003, 1.271167e+002
1.189009e+003, 1.278268e+002
1.189491e+003, 1.278308e+002
1.189974e+003, 1.272272e+002
1.190456e+003, 1.267347e+002
1.190938e+003, 1.268701e+002
1.191420e+003, 1.269877e+002
1.191902e+003, 1.266487e+002
1.192384e+003, 1.262259e+002
1.192866e+003, 1.261176e+002
1.193348e+003, 1.263328e+002
1.193830e+003, 1.263612e+002
1.194313e+003, 1.262163e+002
1.194795e+003, 1.260851e+002
1.195277e+003, 1.260874e+002
1.195759e+003, 1.261234e+002
1.196241e+003, 1.261394e+002
1.196723e+003, 1.261592e+002
1.197205e+003, 1.262180e+002
1.197687e+003, 1.263176e+002
1.198169e+003, 1.264355e+002
1.198652e+003, 1.265669e+002
1.199134e+003, 1.266060e+002
1.199616e+003, 1.263537e+002
1.200098e+003, 1.261233e+002
1.200580e+003, 1.262445e+002
1.201062e+003, 1.264437e+002
1.201544e+003, 1.261586e+002
1.202026e+003, 1.253639e+002
1.202509e+003, 1.251593e+002
1.202991e+003, 1.256461e+002
1.203473e+003, 1.261210e+002
1.203955e+003, 1.260415e+002
1.204437e+003, 1.258126e+002
1.204919e+003, 1.255895e+002
1.205401e+003, 1.254417e+002
1.205883e+003, 1.255625e+002
1.206365e+003, 1.259598e+002
1.206848e+003, 1.262190e+002
1.207330e+003, 1.262850e+002
1.207812e+003, 1.262091e+002
1.208294e+003, 1.259023e+002
1.208776e+003, 1.255866e+002
1.209258e+003, 1.254044e+002
1.209740e+003, 1.253427e+002
1.210222e+003, 1.254111e+002
1.210705e+003, 1.256133e+002
1.211187e+003, 1.257450e+002
1.211669e+003, 1.257765e+002
1.212151e+003, 1.256991e+002
1.212633e+003, 1.253624e+002
1.213115e+003, 1.250449e+002
1.213597e+003, 1.250047e+002
1.214079e+003, 1.251589e+002
1.214562e+003, 1.252113e+002
1.215044e+003, 1.251649e+002
1.215526e+003, 1.251219e+002
1.216008e+003, 1.250879e+002
1.216490e+003, 1.251576e+002
1.216972e+003, 1.256551e+002
1.217454e+003, 1.260583e+002
1.217936e+003, 1.258317e+002
1.218418e+003, 1.251474e+002
1.218901e+003, 1.249019e+002
1.219383e+003, 1.250721e+002
1.219865e+003, 1.252439e+002
1.220347e+003, 1.253302e+002
1.220829e+003, 1.252632e+002
1.221311e+003, 1.247406e+002
1.221793e+003, 1.242738e+002
1.222275e+003, 1.243219e+002
1.222757e+003, 1.247843e+002
1.223240e+003, 1.248651e+002
1.223722e+003, 1.245992e+002
1.224204e+003, 1.244382e+002
1.224686e+003, 1.245858e+002
1.225168e+003, 1.247210e+002
1.225650e+003, 1.245012e+002
1.226132e+003, 1.243085e+002
1.226614e+003, 1.244937e+002
1.227096e+003, 1.249888e+002
1.227579e+003, 1.251564e+002
1.228061e+003, 1.250242e+002
1.228543e+003, 1.248075e+002
1.229025e+003, 1.245022e+002
1.229507e+003, 1.243370e+002
1.229989e+003, 1.245843e+002
1.230471e+003, 1.249092e+002
1.230953e+003, 1.250775e+002
1.231436e+003, 1.250897e+002
1.231918e+003, 1.248469e+002
1.232400e+003, 1.244052e+002
1.232882e+003, 1.241785e+002
1.233364e+003, 1.245210e+002
1.233846e+003, 1.247603e+002
1.234328e+003, 1.242955e+002
1.234810e+003, 1.238653e+002
1.235292e+003, 1.241355e+002
1.235775e+003, 1.249604e+002
1.236257e+003, 1.250847e+002
1.236739e+003, 1.246252e+002
1.237221e+003, 1.242029e+002
1.237703e+003, 1.240737e+002
1.238185e+003, 1.240518e+002
1.238667e+003, 1.241760e+002
1.239149e+003, 1.242738e+002
1.239632e+003, 1.241346e+002
1.240114e+003, 1.238496e+002
1.240596e+003, 1.241200e+002
1.241078e+003, 1.247756e+002
1.241560e+003, 1.251018e+002
1.242042e+003, 1.243380e+002
1.242524e+003, 1.238481e+002
1.243006e+003, 1.240485e+002
1.243489e+003, 1.244940e+002
1.243971e+003, 1.249725e+002
1.244453e+003, 1.254056e+002
1.244935e+003, 1.252816e+002
1.245417e+003, 1.247758e+002
1.245899e+003, 1.245450e+002
1.246381e+003, 1.252070e+002
1.246863e+003, 1.256694e+002
1.247345e+003, 1.257925e+002
1.247828e+003, 1.256697e+002
1.248310e+003, 1.252231e+002
1.248792e+003, 1.246397e+002
1.249274e+003, 1.244480e+002
1.249756e+003, 1.245684e+002
1.250238e+003, 1.247010e+002
1.250720e+003, 1.247623e+002
1.251202e+003, 1.247751e+002
1.251684e+003, 1.246840e+002
1.252167e+003, 1.246826e+002
1.252649e+003, 1.250843e+002
1.253131e+003, 1.256199e+002
1.253613e+003, 1.256988e+002
1.254095e+003, 1.254484e+002
1.254577e+003, 1.253133e+002
1.255059e+003, 1.255445e+002
1.255541e+003, 1.256194e+002
1.256023e+003, 1.254879e+002
1.256506e+003, 1.252753e+002
1.256988e+003, 1.250042e+002
1.257470e+003, 1.247792e+002
1.257952e+003, 1.247878e+002
1.258434e+003, 1.249692e+002
1.258916e+003, 1.251357e+002
1.259398e+003, 1.252470e+002
1.259880e+003, 1.254174e+002
1.260363e+003, 1.256763e+002
1.260845e+003, 1.258639e+002
1.261327e+003, 1.258901e+002
1.261809e+003, 1.257397e+002
1.262291e+003, 1.251944e+002
1.262773e+003, 1.244946e+002
1.263255e+003, 1.243107e+002
1.263737e+003, 1.248415e+002
1.264219e+003, 1.249259e+002
1.264702e+003, 1.244533e+002
1.265184e+003, 1.240453e+002
1.265666e+003, 1.243172e+002
1.266148e+003, 1.247110e+002
1.266630e+003, 1.247462e+002
1.267112e+003, 1.246082e+002
1.267594e+003, 1.247503e+002
1.268076e+003, 1.252097e+002
1.268559e+003, 1.253407e+002
1.269041e+003, 1.251041e+002
1.269523e+003, 1.248443e+002
1.270005e+003, 1.248199e+002
1.270487e+003, 1.248152e+002
1.270969e+003, 1.246337e+002
1.271451e+003, 1.244401e+002
1.271933e+003, 1.245122e+002
1.272416e+003, 1.248193e+002
1.272898e+003, 1.249552e+002
1.273380e+003, 1.249054e+002
1.273862e+003, 1.248340e+002
1.274344e+003, 1.248649e+002
1.274826e+003, 1.248502e+002
1.275308e+003, 1.247326e+002
1.275790e+003, 1.245561e+002
1.276272e+003, 1.243060e+002
1.276755e+003, 1.240462e+002
1.277237e+003, 1.241150e+002
1.277719e+003, 1.244636e+002
1.278201e+003, 1.246320e+002
1.278683e+003, 1.241330e+002
1.279165e+003, 1.238540e+002
1.279647e+003, 1.240260e+002
1.280129e+003, 1.243207e+002
1.280611e+003, 1.243330e+002
1.281094e+003, 1.242119e+002
1.281576e+003, 1.243263e+002
1.282058e+003, 1.246270e+002
1.282540e+003, 1.247733e+002
1.283022e+003, 1.244869e+002
1.283504e+003, 1.244240e+002
1.283986e+003, 1.246932e+002
1.284468e+003, 1.250384e+002
1.284950e+003, 1.252791e+002
1.285433e+003, 1.253908e+002
1.285915e+003, 1.252528e+002
1.286397e+003, 1.249465e+002
1.286879e+003, 1.247820e+002
1.287361e+003, 1.247916e+002
1.287843e+003, 1.249334e+002
1.288325e+003, 1.252318e+002
1.288807e+003, 1.254297e+002
1.289290e+003, 1.252041e+002
1.289772e+003, 1.248763e+002
1.290254e+003, 1.246692e+002
1.290736e+003, 1.245976e+002
1.291218e+003, 1.246720e+002
1.291700e+003, 1.249123e+002
1.292182e+003, 1.249979e+002
1.292664e+003, 1.249073e+002
1.293146e+003, 1.248339e+002
1.293629e+003, 1.249711e+002
1.294111e+003, 1.250997e+002
1.294593e+003, 1.250258e+002
1.295075e+003, 1.249159e+002
1.295557e+003, 1.250433e+002
1.296039e+003, 1.253534e+002
1.296521e+003, 1.253531e+002
1.297003e+003, 1.250477e+002
1.297486e+003, 1.247355e+002
1.297968e+003, 1.245761e+002
1.298450e+003, 1.244574e+002
1.298932e+003, 1.243414e+002
1.299414e+003, 1.242688e+002
1.299896e+003, 1.237685e+002
1.300378e+003, 1.234862e+002
1.300860e+003, 1.260082e+002
1.301343e+003, 1.306230e+002
1.301825e+003, 1.340164e+002
##END=



