##NAMES=Chukhrovite-(Nd)
##RRUFFID=R060601
##IDEAL CHEMISTRY=Ca_3_NdAl_2_S^6+^O_4_F_13_&#183;12H_2_O
##LOCALITY=Kara-Oba tungsten deposit, Betpakdala desert, Kazakhstan
##OWNER=RRUFF
##SOURCE=Michael Scott
##DESCRIPTION=Polished colorless fragment embedded in epoxy in a microprobe mount
##STATUS=The identification of this mineral has been confirmed only by single crystal X-ray diffraction.
##URL=rruff.info/R060601
8.936163e+001, 0.000000e+000
8.984375e+001, 1.209729e+002
9.032587e+001, 1.214040e+002
9.080798e+001, 1.214934e+002
9.129010e+001, 1.211175e+002
9.177222e+001, 1.205428e+002
9.225433e+001, 1.202814e+002
9.273645e+001, 1.202735e+002
9.321857e+001, 1.198599e+002
9.370068e+001, 1.181006e+002
9.418280e+001, 1.153979e+002
9.466492e+001, 1.130803e+002
9.514703e+001, 1.116751e+002
9.562915e+001, 1.109428e+002
9.611127e+001, 1.102408e+002
9.659338e+001, 1.095934e+002
9.707550e+001, 1.088732e+002
9.755762e+001, 1.077774e+002
9.803973e+001, 1.062903e+002
9.852185e+001, 1.050554e+002
9.900397e+001, 1.044919e+002
9.948608e+001, 1.046199e+002
9.996820e+001, 1.043488e+002
1.004503e+002, 1.035642e+002
1.009324e+002, 1.025020e+002
1.014146e+002, 1.016741e+002
1.018967e+002, 1.011639e+002
1.023788e+002, 1.006296e+002
1.028609e+002, 9.986320e+001
1.033430e+002, 9.879133e+001
1.038251e+002, 9.773974e+001
1.043073e+002, 9.672071e+001
1.047894e+002, 9.574142e+001
1.052715e+002, 9.483484e+001
1.057536e+002, 9.395351e+001
1.062357e+002, 9.318785e+001
1.067178e+002, 9.259904e+001
1.072000e+002, 9.230641e+001
1.076821e+002, 9.202190e+001
1.081642e+002, 9.163844e+001
1.086463e+002, 9.112643e+001
1.091284e+002, 9.093419e+001
1.096105e+002, 9.192694e+001
1.100927e+002, 9.286241e+001
1.105748e+002, 9.257720e+001
1.110569e+002, 8.907590e+001
1.115390e+002, 8.621310e+001
1.120211e+002, 8.515198e+001
1.125032e+002, 8.656773e+001
1.129854e+002, 8.743293e+001
1.134675e+002, 8.688307e+001
1.139496e+002, 8.563062e+001
1.144317e+002, 8.469795e+001
1.149138e+002, 8.471452e+001
1.153959e+002, 8.481750e+001
1.158781e+002, 8.460662e+001
1.163602e+002, 8.390228e+001
1.168423e+002, 8.312493e+001
1.173244e+002, 8.227776e+001
1.178065e+002, 8.144550e+001
1.182886e+002, 8.084361e+001
1.187708e+002, 8.091251e+001
1.192529e+002, 8.107063e+001
1.197350e+002, 8.082413e+001
1.202171e+002, 7.964473e+001
1.206992e+002, 7.851257e+001
1.211813e+002, 7.816713e+001
1.216635e+002, 7.848798e+001
1.221456e+002, 7.882584e+001
1.226277e+002, 7.882964e+001
1.231098e+002, 7.859680e+001
1.235919e+002, 7.825586e+001
1.240740e+002, 7.786556e+001
1.245562e+002, 7.737683e+001
1.250383e+002, 7.660303e+001
1.255204e+002, 7.554315e+001
1.260025e+002, 7.467414e+001
1.264846e+002, 7.472092e+001
1.269667e+002, 7.531978e+001
1.274489e+002, 7.556146e+001
1.279310e+002, 7.469086e+001
1.284131e+002, 7.325618e+001
1.288952e+002, 7.227438e+001
1.293773e+002, 7.177324e+001
1.298594e+002, 7.171736e+001
1.303416e+002, 7.243382e+001
1.308237e+002, 7.377112e+001
1.313058e+002, 7.467291e+001
1.317879e+002, 7.429388e+001
1.322700e+002, 7.290285e+001
1.327521e+002, 7.177216e+001
1.332343e+002, 7.096402e+001
1.337164e+002, 7.050716e+001
1.341985e+002, 7.060129e+001
1.346806e+002, 7.129538e+001
1.351627e+002, 7.189507e+001
1.356448e+002, 7.188738e+001
1.361270e+002, 7.126475e+001
1.366091e+002, 7.061713e+001
1.370912e+002, 6.992802e+001
1.375733e+002, 6.930566e+001
1.380554e+002, 6.925585e+001
1.385375e+002, 7.004556e+001
1.390197e+002, 7.062615e+001
1.395018e+002, 6.986235e+001
1.399839e+002, 6.723898e+001
1.404660e+002, 6.561031e+001
1.409481e+002, 6.576176e+001
1.414302e+002, 6.752338e+001
1.419124e+002, 6.863014e+001
1.423945e+002, 6.891644e+001
1.428766e+002, 6.877753e+001
1.433587e+002, 6.852547e+001
1.438408e+002, 6.797503e+001
1.443229e+002, 6.771991e+001
1.448051e+002, 6.810427e+001
1.452872e+002, 6.933839e+001
1.457693e+002, 6.955529e+001
1.462514e+002, 6.800360e+001
1.467335e+002, 6.590983e+001
1.472156e+002, 6.485555e+001
1.476978e+002, 6.572779e+001
1.481799e+002, 6.655991e+001
1.486620e+002, 6.685148e+001
1.491441e+002, 6.640344e+001
1.496262e+002, 6.594245e+001
1.501083e+002, 6.532547e+001
1.505905e+002, 6.472392e+001
1.510726e+002, 6.444171e+001
1.515547e+002, 6.485661e+001
1.520368e+002, 6.526580e+001
1.525189e+002, 6.541743e+001
1.530010e+002, 6.492724e+001
1.534832e+002, 6.484233e+001
1.539653e+002, 6.548341e+001
1.544474e+002, 6.658952e+001
1.549295e+002, 6.753410e+001
1.554116e+002, 6.784618e+001
1.558937e+002, 6.826504e+001
1.563759e+002, 6.912121e+001
1.568580e+002, 7.057796e+001
1.573401e+002, 7.231599e+001
1.578222e+002, 7.433819e+001
1.583043e+002, 7.661243e+001
1.587864e+002, 7.902007e+001
1.592686e+002, 8.136585e+001
1.597507e+002, 8.393007e+001
1.602328e+002, 8.688759e+001
1.607149e+002, 8.999491e+001
1.611970e+002, 9.378776e+001
1.616791e+002, 9.837836e+001
1.621613e+002, 1.037237e+002
1.626434e+002, 1.100040e+002
1.631255e+002, 1.169692e+002
1.636076e+002, 1.249898e+002
1.640897e+002, 1.343956e+002
1.645718e+002, 1.453711e+002
1.650540e+002, 1.576925e+002
1.655361e+002, 1.712086e+002
1.660182e+002, 1.859924e+002
1.665003e+002, 2.021219e+002
1.669824e+002, 2.202754e+002
1.674645e+002, 2.398474e+002
1.679467e+002, 2.598268e+002
1.684288e+002, 2.796899e+002
1.689109e+002, 3.001187e+002
1.693930e+002, 3.216010e+002
1.698751e+002, 3.442598e+002
1.703572e+002, 3.676436e+002
1.708394e+002, 3.921246e+002
1.713215e+002, 4.173734e+002
1.718036e+002, 4.424430e+002
1.722857e+002, 4.669352e+002
1.727678e+002, 4.912964e+002
1.732499e+002, 5.161905e+002
1.737321e+002, 5.419916e+002
1.742142e+002, 5.671740e+002
1.746963e+002, 5.903792e+002
1.751784e+002, 6.124018e+002
1.756605e+002, 6.352233e+002
1.761426e+002, 6.595662e+002
1.766248e+002, 6.851853e+002
1.771069e+002, 7.120016e+002
1.775890e+002, 7.404215e+002
1.780711e+002, 7.687564e+002
1.785532e+002, 7.948154e+002
1.790353e+002, 8.193395e+002
1.795175e+002, 8.439595e+002
1.799996e+002, 8.701221e+002
1.804817e+002, 8.970633e+002
1.809638e+002, 9.238158e+002
1.814459e+002, 9.502961e+002
1.819280e+002, 9.766497e+002
1.824102e+002, 1.003813e+003
1.828923e+002, 1.031244e+003
1.833744e+002, 1.058781e+003
1.838565e+002, 1.086265e+003
1.843386e+002, 1.113641e+003
1.848207e+002, 1.139332e+003
1.853029e+002, 1.162499e+003
1.857850e+002, 1.185546e+003
1.862671e+002, 1.213659e+003
1.867492e+002, 1.246538e+003
1.872313e+002, 1.280170e+003
1.877134e+002, 1.311568e+003
1.881956e+002, 1.341433e+003
1.886777e+002, 1.371462e+003
1.891598e+002, 1.402063e+003
1.896419e+002, 1.433312e+003
1.901240e+002, 1.465812e+003
1.906061e+002, 1.500040e+003
1.910883e+002, 1.534295e+003
1.915704e+002, 1.567489e+003
1.920525e+002, 1.600016e+003
1.925346e+002, 1.632998e+003
1.930167e+002, 1.666975e+003
1.934988e+002, 1.700106e+003
1.939810e+002, 1.723968e+003
1.944631e+002, 1.736710e+003
1.949452e+002, 1.747983e+003
1.954273e+002, 1.758470e+003
1.959094e+002, 1.768182e+003
1.963915e+002, 1.777641e+003
1.968737e+002, 1.787357e+003
1.973558e+002, 1.796773e+003
1.978379e+002, 1.803957e+003
1.983200e+002, 1.808840e+003
1.988021e+002, 1.812106e+003
1.992842e+002, 1.814080e+003
1.997664e+002, 1.814787e+003
2.002485e+002, 1.815225e+003
2.007306e+002, 1.815970e+003
2.012127e+002, 1.816723e+003
2.016948e+002, 1.815432e+003
2.021769e+002, 1.811886e+003
2.026591e+002, 1.807230e+003
2.031412e+002, 1.801909e+003
2.036233e+002, 1.795508e+003
2.041054e+002, 1.791353e+003
2.045875e+002, 1.790751e+003
2.050696e+002, 1.793225e+003
2.055518e+002, 1.794400e+003
2.060339e+002, 1.793692e+003
2.065160e+002, 1.792945e+003
2.069981e+002, 1.794186e+003
2.074802e+002, 1.797709e+003
2.079623e+002, 1.801510e+003
2.084445e+002, 1.804797e+003
2.089266e+002, 1.807658e+003
2.094087e+002, 1.812702e+003
2.098908e+002, 1.820797e+003
2.103729e+002, 1.829474e+003
2.108550e+002, 1.835769e+003
2.113372e+002, 1.838776e+003
2.118193e+002, 1.842473e+003
2.123014e+002, 1.848409e+003
2.127835e+002, 1.856545e+003
2.132656e+002, 1.862203e+003
2.137477e+002, 1.864922e+003
2.142299e+002, 1.865860e+003
2.147120e+002, 1.866087e+003
2.151941e+002, 1.865173e+003
2.156762e+002, 1.864750e+003
2.161583e+002, 1.865698e+003
2.166404e+002, 1.868187e+003
2.171226e+002, 1.868126e+003
2.176047e+002, 1.864182e+003
2.180868e+002, 1.859260e+003
2.185689e+002, 1.856981e+003
2.190510e+002, 1.858378e+003
2.195331e+002, 1.860027e+003
2.200153e+002, 1.861427e+003
2.204974e+002, 1.862728e+003
2.209795e+002, 1.862154e+003
2.214616e+002, 1.858611e+003
2.219437e+002, 1.854408e+003
2.224258e+002, 1.852690e+003
2.229080e+002, 1.855114e+003
2.233901e+002, 1.856503e+003
2.238722e+002, 1.855057e+003
2.243543e+002, 1.850261e+003
2.248364e+002, 1.846973e+003
2.253185e+002, 1.845371e+003
2.258007e+002, 1.845070e+003
2.262828e+002, 1.845688e+003
2.267649e+002, 1.847460e+003
2.272470e+002, 1.849558e+003
2.277291e+002, 1.851882e+003
2.282112e+002, 1.854577e+003
2.286934e+002, 1.856342e+003
2.291755e+002, 1.856748e+003
2.296576e+002, 1.856576e+003
2.301397e+002, 1.856824e+003
2.306218e+002, 1.857678e+003
2.311039e+002, 1.858667e+003
2.315861e+002, 1.859736e+003
2.320682e+002, 1.860970e+003
2.325503e+002, 1.862046e+003
2.330324e+002, 1.862876e+003
2.335145e+002, 1.863710e+003
2.339966e+002, 1.864902e+003
2.344788e+002, 1.866738e+003
2.349609e+002, 1.868494e+003
2.354430e+002, 1.869897e+003
2.359251e+002, 1.870835e+003
2.364072e+002, 1.872328e+003
2.368893e+002, 1.874710e+003
2.373715e+002, 1.877344e+003
2.378536e+002, 1.879381e+003
2.383357e+002, 1.880407e+003
2.388178e+002, 1.881517e+003
2.392999e+002, 1.883003e+003
2.397820e+002, 1.884891e+003
2.402642e+002, 1.886578e+003
2.407463e+002, 1.887717e+003
2.412284e+002, 1.888870e+003
2.417105e+002, 1.891010e+003
2.421926e+002, 1.895656e+003
2.426747e+002, 1.898371e+003
2.431569e+002, 1.897255e+003
2.436390e+002, 1.891515e+003
2.441211e+002, 1.888512e+003
2.446032e+002, 1.889610e+003
2.450853e+002, 1.892184e+003
2.455674e+002, 1.893025e+003
2.460496e+002, 1.890658e+003
2.465317e+002, 1.889379e+003
2.470138e+002, 1.890622e+003
2.474959e+002, 1.894766e+003
2.479780e+002, 1.897473e+003
2.484601e+002, 1.898573e+003
2.489423e+002, 1.898528e+003
2.494244e+002, 1.897661e+003
2.499065e+002, 1.895302e+003
2.503886e+002, 1.893544e+003
2.508707e+002, 1.892848e+003
2.513528e+002, 1.893248e+003
2.518350e+002, 1.894340e+003
2.523171e+002, 1.896372e+003
2.527992e+002, 1.898800e+003
2.532813e+002, 1.901062e+003
2.537634e+002, 1.902985e+003
2.542455e+002, 1.905013e+003
2.547277e+002, 1.907321e+003
2.552098e+002, 1.909906e+003
2.556919e+002, 1.911900e+003
2.561740e+002, 1.913041e+003
2.566561e+002, 1.913842e+003
2.571382e+002, 1.914744e+003
2.576204e+002, 1.915747e+003
2.581025e+002, 1.916815e+003
2.585846e+002, 1.917910e+003
2.590667e+002, 1.919037e+003
2.595488e+002, 1.920352e+003
2.600309e+002, 1.921942e+003
2.605131e+002, 1.923580e+003
2.609952e+002, 1.925088e+003
2.614773e+002, 1.926567e+003
2.619594e+002, 1.927708e+003
2.624415e+002, 1.928260e+003
2.629236e+002, 1.928359e+003
2.634058e+002, 1.929229e+003
2.638879e+002, 1.931041e+003
2.643700e+002, 1.933391e+003
2.648521e+002, 1.936323e+003
2.653342e+002, 1.940384e+003
2.658163e+002, 1.942971e+003
2.662985e+002, 1.942982e+003
2.667806e+002, 1.941104e+003
2.672627e+002, 1.941639e+003
2.677448e+002, 1.945557e+003
2.682269e+002, 1.949807e+003
2.687090e+002, 1.951937e+003
2.691912e+002, 1.951328e+003
2.696733e+002, 1.951210e+003
2.701554e+002, 1.951925e+003
2.706375e+002, 1.953394e+003
2.711196e+002, 1.955460e+003
2.716017e+002, 1.958304e+003
2.720839e+002, 1.961183e+003
2.725660e+002, 1.963650e+003
2.730481e+002, 1.965758e+003
2.735302e+002, 1.967122e+003
2.740123e+002, 1.967423e+003
2.744944e+002, 1.967173e+003
2.749766e+002, 1.967989e+003
2.754587e+002, 1.970129e+003
2.759408e+002, 1.972403e+003
2.764229e+002, 1.973988e+003
2.769050e+002, 1.974829e+003
2.773871e+002, 1.975806e+003
2.778693e+002, 1.976746e+003
2.783514e+002, 1.978146e+003
2.788335e+002, 1.981833e+003
2.793156e+002, 1.988436e+003
2.797977e+002, 1.993831e+003
2.802798e+002, 1.994977e+003
2.807620e+002, 1.991831e+003
2.812441e+002, 1.990069e+003
2.817262e+002, 1.990017e+003
2.822083e+002, 1.991292e+003
2.826904e+002, 1.993579e+003
2.831725e+002, 1.996939e+003
2.836547e+002, 2.000173e+003
2.841368e+002, 2.002553e+003
2.846189e+002, 2.004145e+003
2.851010e+002, 2.005889e+003
2.855831e+002, 2.007674e+003
2.860652e+002, 2.009963e+003
2.865474e+002, 2.013838e+003
2.870295e+002, 2.019261e+003
2.875116e+002, 2.024350e+003
2.879937e+002, 2.028691e+003
2.884758e+002, 2.032163e+003
2.889579e+002, 2.033542e+003
2.894401e+002, 2.032623e+003
2.899222e+002, 2.030869e+003
2.904043e+002, 2.029945e+003
2.908864e+002, 2.029776e+003
2.913685e+002, 2.029686e+003
2.918506e+002, 2.028845e+003
2.923328e+002, 2.027963e+003
2.928149e+002, 2.029723e+003
2.932970e+002, 2.034324e+003
2.937791e+002, 2.039158e+003
2.942612e+002, 2.041588e+003
2.947433e+002, 2.041965e+003
2.952255e+002, 2.041518e+003
2.957076e+002, 2.039978e+003
2.961897e+002, 2.038243e+003
2.966718e+002, 2.038086e+003
2.971539e+002, 2.039484e+003
2.976360e+002, 2.041882e+003
2.981182e+002, 2.045707e+003
2.986003e+002, 2.050190e+003
2.990824e+002, 2.053468e+003
2.995645e+002, 2.054754e+003
3.000466e+002, 2.054904e+003
3.005287e+002, 2.054633e+003
3.010109e+002, 2.054076e+003
3.014930e+002, 2.054204e+003
3.019751e+002, 2.056666e+003
3.024572e+002, 2.060129e+003
3.029393e+002, 2.062047e+003
3.034214e+002, 2.061185e+003
3.039036e+002, 2.059975e+003
3.043857e+002, 2.061387e+003
3.048678e+002, 2.064817e+003
3.053499e+002, 2.068066e+003
3.058320e+002, 2.069412e+003
3.063141e+002, 2.069967e+003
3.067963e+002, 2.070983e+003
3.072784e+002, 2.072674e+003
3.077605e+002, 2.074862e+003
3.082426e+002, 2.077576e+003
3.087247e+002, 2.080668e+003
3.092068e+002, 2.083799e+003
3.096890e+002, 2.087072e+003
3.101711e+002, 2.090091e+003
3.106532e+002, 2.092367e+003
3.111353e+002, 2.093706e+003
3.116174e+002, 2.094821e+003
3.120995e+002, 2.096013e+003
3.125817e+002, 2.097249e+003
3.130638e+002, 2.098505e+003
3.135459e+002, 2.099929e+003
3.140280e+002, 2.101264e+003
3.145101e+002, 2.102297e+003
3.149922e+002, 2.103006e+003
3.154744e+002, 2.103830e+003
3.159565e+002, 2.105253e+003
3.164386e+002, 2.106872e+003
3.169207e+002, 2.108208e+003
3.174028e+002, 2.108782e+003
3.178849e+002, 2.109445e+003
3.183671e+002, 2.111010e+003
3.188492e+002, 2.113418e+003
3.193313e+002, 2.114734e+003
3.198134e+002, 2.113015e+003
3.202955e+002, 2.110616e+003
3.207776e+002, 2.109421e+003
3.212598e+002, 2.109881e+003
3.217419e+002, 2.111463e+003
3.222240e+002, 2.114955e+003
3.227061e+002, 2.119809e+003
3.231882e+002, 2.123284e+003
3.236703e+002, 2.123053e+003
3.241525e+002, 2.122505e+003
3.246346e+002, 2.123509e+003
3.251167e+002, 2.127435e+003
3.255988e+002, 2.131311e+003
3.260809e+002, 2.135328e+003
3.265630e+002, 2.139172e+003
3.270452e+002, 2.141976e+003
3.275273e+002, 2.142034e+003
3.280094e+002, 2.142480e+003
3.284915e+002, 2.144715e+003
3.289736e+002, 2.150506e+003
3.294557e+002, 2.154088e+003
3.299379e+002, 2.153739e+003
3.304200e+002, 2.151725e+003
3.309021e+002, 2.151623e+003
3.313842e+002, 2.153879e+003
3.318663e+002, 2.157435e+003
3.323484e+002, 2.162669e+003
3.328306e+002, 2.170084e+003
3.333127e+002, 2.174992e+003
3.337948e+002, 2.176149e+003
3.342769e+002, 2.175888e+003
3.347590e+002, 2.176802e+003
3.352411e+002, 2.179459e+003
3.357233e+002, 2.182074e+003
3.362054e+002, 2.184335e+003
3.366875e+002, 2.186287e+003
3.371696e+002, 2.187908e+003
3.376517e+002, 2.188944e+003
3.381339e+002, 2.190218e+003
3.386160e+002, 2.192548e+003
3.390981e+002, 2.196228e+003
3.395802e+002, 2.199547e+003
3.400623e+002, 2.201980e+003
3.405444e+002, 2.203996e+003
3.410266e+002, 2.207370e+003
3.415087e+002, 2.212507e+003
3.419908e+002, 2.217124e+003
3.424729e+002, 2.219482e+003
3.429550e+002, 2.219545e+003
3.434371e+002, 2.220002e+003
3.439193e+002, 2.221131e+003
3.444014e+002, 2.222529e+003
3.448835e+002, 2.223313e+003
3.453656e+002, 2.223491e+003
3.458477e+002, 2.224010e+003
3.463298e+002, 2.225805e+003
3.468120e+002, 2.228479e+003
3.472941e+002, 2.229933e+003
3.477762e+002, 2.229960e+003
3.482583e+002, 2.229874e+003
3.487404e+002, 2.231733e+003
3.492225e+002, 2.235028e+003
3.497047e+002, 2.237477e+003
3.501868e+002, 2.237225e+003
3.506689e+002, 2.236024e+003
3.511510e+002, 2.237565e+003
3.516331e+002, 2.241771e+003
3.521152e+002, 2.245631e+003
3.525974e+002, 2.245904e+003
3.530795e+002, 2.244130e+003
3.535616e+002, 2.243307e+003
3.540437e+002, 2.245092e+003
3.545258e+002, 2.247063e+003
3.550079e+002, 2.246176e+003
3.554901e+002, 2.243074e+003
3.559722e+002, 2.240606e+003
3.564543e+002, 2.240609e+003
3.569364e+002, 2.242128e+003
3.574185e+002, 2.244542e+003
3.579006e+002, 2.248408e+003
3.583828e+002, 2.251354e+003
3.588649e+002, 2.250633e+003
3.593470e+002, 2.247967e+003
3.598291e+002, 2.246832e+003
3.603112e+002, 2.250556e+003
3.607933e+002, 2.254902e+003
3.612755e+002, 2.257267e+003
3.617576e+002, 2.257155e+003
3.622397e+002, 2.256800e+003
3.627218e+002, 2.256378e+003
3.632039e+002, 2.256370e+003
3.636860e+002, 2.257322e+003
3.641682e+002, 2.260857e+003
3.646503e+002, 2.263927e+003
3.651324e+002, 2.264992e+003
3.656145e+002, 2.264163e+003
3.660966e+002, 2.264395e+003
3.665787e+002, 2.267506e+003
3.670609e+002, 2.271006e+003
3.675430e+002, 2.273303e+003
3.680251e+002, 2.273031e+003
3.685072e+002, 2.273037e+003
3.689893e+002, 2.273546e+003
3.694714e+002, 2.274485e+003
3.699536e+002, 2.275571e+003
3.704357e+002, 2.276290e+003
3.709178e+002, 2.277737e+003
3.713999e+002, 2.280680e+003
3.718820e+002, 2.286702e+003
3.723641e+002, 2.289992e+003
3.728463e+002, 2.288870e+003
3.733284e+002, 2.286079e+003
3.738105e+002, 2.285969e+003
3.742926e+002, 2.289514e+003
3.747747e+002, 2.293587e+003
3.752568e+002, 2.297685e+003
3.757390e+002, 2.301819e+003
3.762211e+002, 2.303977e+003
3.767032e+002, 2.303318e+003
3.771853e+002, 2.302420e+003
3.776674e+002, 2.304301e+003
3.781495e+002, 2.309415e+003
3.786317e+002, 2.313094e+003
3.791138e+002, 2.314047e+003
3.795959e+002, 2.313256e+003
3.800780e+002, 2.313812e+003
3.805601e+002, 2.315816e+003
3.810422e+002, 2.318212e+003
3.815244e+002, 2.320375e+003
3.820065e+002, 2.322375e+003
3.824886e+002, 2.324529e+003
3.829707e+002, 2.327118e+003
3.834528e+002, 2.329306e+003
3.839349e+002, 2.329488e+003
3.844171e+002, 2.328024e+003
3.848992e+002, 2.326816e+003
3.853813e+002, 2.325884e+003
3.858634e+002, 2.326072e+003
3.863455e+002, 2.329823e+003
3.868276e+002, 2.337346e+003
3.873098e+002, 2.344410e+003
3.877919e+002, 2.346103e+003
3.882740e+002, 2.344987e+003
3.887561e+002, 2.345724e+003
3.892382e+002, 2.351537e+003
3.897203e+002, 2.358101e+003
3.902025e+002, 2.361511e+003
3.906846e+002, 2.362289e+003
3.911667e+002, 2.363063e+003
3.916488e+002, 2.365679e+003
3.921309e+002, 2.368677e+003
3.926130e+002, 2.370809e+003
3.930952e+002, 2.371540e+003
3.935773e+002, 2.371985e+003
3.940594e+002, 2.372497e+003
3.945415e+002, 2.373067e+003
3.950236e+002, 2.373675e+003
3.955057e+002, 2.374235e+003
3.959879e+002, 2.374953e+003
3.964700e+002, 2.376144e+003
3.969521e+002, 2.378028e+003
3.974342e+002, 2.379200e+003
3.979163e+002, 2.377737e+003
3.983984e+002, 2.376307e+003
3.988806e+002, 2.377338e+003
3.993627e+002, 2.385039e+003
3.998448e+002, 2.390541e+003
4.003269e+002, 2.391720e+003
4.008090e+002, 2.389296e+003
4.012911e+002, 2.388791e+003
4.017733e+002, 2.391547e+003
4.022554e+002, 2.394605e+003
4.027375e+002, 2.396306e+003
4.032196e+002, 2.395709e+003
4.037017e+002, 2.396184e+003
4.041838e+002, 2.398121e+003
4.046660e+002, 2.400892e+003
4.051481e+002, 2.403326e+003
4.056302e+002, 2.405421e+003
4.061123e+002, 2.407249e+003
4.065944e+002, 2.408719e+003
4.070765e+002, 2.409867e+003
4.075587e+002, 2.411529e+003
4.080408e+002, 2.413927e+003
4.085229e+002, 2.415980e+003
4.090050e+002, 2.415626e+003
4.094871e+002, 2.413153e+003
4.099692e+002, 2.413191e+003
4.104514e+002, 2.417645e+003
4.109335e+002, 2.424114e+003
4.114156e+002, 2.427562e+003
4.118977e+002, 2.428155e+003
4.123798e+002, 2.428320e+003
4.128619e+002, 2.429742e+003
4.133441e+002, 2.431854e+003
4.138262e+002, 2.433577e+003
4.143083e+002, 2.434789e+003
4.147904e+002, 2.435751e+003
4.152725e+002, 2.437121e+003
4.157546e+002, 2.438452e+003
4.162368e+002, 2.438831e+003
4.167189e+002, 2.436025e+003
4.172010e+002, 2.433418e+003
4.176831e+002, 2.434327e+003
4.181652e+002, 2.438571e+003
4.186473e+002, 2.442530e+003
4.191295e+002, 2.443810e+003
4.196116e+002, 2.444099e+003
4.200937e+002, 2.444863e+003
4.205758e+002, 2.446694e+003
4.210579e+002, 2.448698e+003
4.215400e+002, 2.450873e+003
4.220222e+002, 2.453035e+003
4.225043e+002, 2.454788e+003
4.229864e+002, 2.455792e+003
4.234685e+002, 2.456614e+003
4.239506e+002, 2.457465e+003
4.244327e+002, 2.458358e+003
4.249149e+002, 2.459351e+003
4.253970e+002, 2.460243e+003
4.258791e+002, 2.461349e+003
4.263612e+002, 2.463015e+003
4.268433e+002, 2.465578e+003
4.273254e+002, 2.468096e+003
4.278076e+002, 2.470294e+003
4.282897e+002, 2.472262e+003
4.287718e+002, 2.474739e+003
4.292539e+002, 2.478041e+003
4.297360e+002, 2.481042e+003
4.302181e+002, 2.482729e+003
4.307003e+002, 2.482734e+003
4.311824e+002, 2.483889e+003
4.316645e+002, 2.486664e+003
4.321466e+002, 2.490013e+003
4.326287e+002, 2.491896e+003
4.331108e+002, 2.492279e+003
4.335930e+002, 2.493157e+003
4.340751e+002, 2.495843e+003
4.345572e+002, 2.499586e+003
4.350393e+002, 2.501396e+003
4.355214e+002, 2.501238e+003
4.360035e+002, 2.501340e+003
4.364857e+002, 2.504221e+003
4.369678e+002, 2.508864e+003
4.374499e+002, 2.512861e+003
4.379320e+002, 2.515622e+003
4.384141e+002, 2.517653e+003
4.388962e+002, 2.518775e+003
4.393784e+002, 2.519468e+003
4.398605e+002, 2.521169e+003
4.403426e+002, 2.525733e+003
4.408247e+002, 2.530904e+003
4.413068e+002, 2.535099e+003
4.417889e+002, 2.538156e+003
4.422711e+002, 2.539867e+003
4.427532e+002, 2.538467e+003
4.432353e+002, 2.536316e+003
4.437174e+002, 2.535871e+003
4.441995e+002, 2.539953e+003
4.446816e+002, 2.543563e+003
4.451638e+002, 2.544412e+003
4.456459e+002, 2.543316e+003
4.461280e+002, 2.544108e+003
4.466101e+002, 2.550121e+003
4.470922e+002, 2.555838e+003
4.475743e+002, 2.558703e+003
4.480565e+002, 2.557302e+003
4.485386e+002, 2.556552e+003
4.490207e+002, 2.557118e+003
4.495028e+002, 2.557926e+003
4.499849e+002, 2.557471e+003
4.504670e+002, 2.555040e+003
4.509492e+002, 2.552931e+003
4.514313e+002, 2.551404e+003
4.519134e+002, 2.550594e+003
4.523955e+002, 2.552187e+003
4.528776e+002, 2.557179e+003
4.533597e+002, 2.561160e+003
4.538419e+002, 2.560263e+003
4.543240e+002, 2.554652e+003
4.548061e+002, 2.550148e+003
4.552882e+002, 2.547209e+003
4.557703e+002, 2.545668e+003
4.562524e+002, 2.545840e+003
4.567346e+002, 2.547485e+003
4.572167e+002, 2.549029e+003
4.576988e+002, 2.549780e+003
4.581809e+002, 2.550000e+003
4.586630e+002, 2.550171e+003
4.591451e+002, 2.550256e+003
4.596273e+002, 2.550034e+003
4.601094e+002, 2.548926e+003
4.605915e+002, 2.547531e+003
4.610736e+002, 2.546565e+003
4.615557e+002, 2.546027e+003
4.620378e+002, 2.546282e+003
4.625200e+002, 2.548315e+003
4.630021e+002, 2.551297e+003
4.634842e+002, 2.553552e+003
4.639663e+002, 2.554348e+003
4.644484e+002, 2.554413e+003
4.649305e+002, 2.553867e+003
4.654127e+002, 2.552705e+003
4.658948e+002, 2.551776e+003
4.663769e+002, 2.551142e+003
4.668590e+002, 2.550910e+003
4.673411e+002, 2.551164e+003
4.678232e+002, 2.552233e+003
4.683054e+002, 2.553369e+003
4.687875e+002, 2.554319e+003
4.692696e+002, 2.555329e+003
4.697517e+002, 2.557133e+003
4.702338e+002, 2.560185e+003
4.707159e+002, 2.563137e+003
4.711981e+002, 2.565741e+003
4.716802e+002, 2.568034e+003
4.721623e+002, 2.568296e+003
4.726444e+002, 2.565691e+003
4.731265e+002, 2.563289e+003
4.736086e+002, 2.564812e+003
4.740908e+002, 2.570170e+003
4.745729e+002, 2.574336e+003
4.750550e+002, 2.576017e+003
4.755371e+002, 2.576621e+003
4.760192e+002, 2.578989e+003
4.765013e+002, 2.582880e+003
4.769835e+002, 2.586475e+003
4.774656e+002, 2.588545e+003
4.779477e+002, 2.589759e+003
4.784298e+002, 2.591294e+003
4.789119e+002, 2.593208e+003
4.793940e+002, 2.594801e+003
4.798762e+002, 2.595241e+003
4.803583e+002, 2.595119e+003
4.808404e+002, 2.595271e+003
4.813225e+002, 2.596573e+003
4.818046e+002, 2.597406e+003
4.822867e+002, 2.596505e+003
4.827689e+002, 2.594515e+003
4.832510e+002, 2.593046e+003
4.837331e+002, 2.592681e+003
4.842152e+002, 2.592997e+003
4.846973e+002, 2.594182e+003
4.851794e+002, 2.596667e+003
4.856616e+002, 2.598010e+003
4.861437e+002, 2.596433e+003
4.866258e+002, 2.594597e+003
4.871079e+002, 2.594586e+003
4.875900e+002, 2.597583e+003
4.880721e+002, 2.600302e+003
4.885543e+002, 2.602512e+003
4.890364e+002, 2.604178e+003
4.895185e+002, 2.605094e+003
4.900006e+002, 2.604981e+003
4.904827e+002, 2.604802e+003
4.909648e+002, 2.604971e+003
4.914470e+002, 2.605447e+003
4.919291e+002, 2.605670e+003
4.924112e+002, 2.605526e+003
4.928933e+002, 2.605675e+003
4.933754e+002, 2.606979e+003
4.938575e+002, 2.609243e+003
4.943397e+002, 2.611725e+003
4.948218e+002, 2.614724e+003
4.953039e+002, 2.617054e+003
4.957860e+002, 2.615880e+003
4.962681e+002, 2.612346e+003
4.967502e+002, 2.610305e+003
4.972324e+002, 2.613147e+003
4.977145e+002, 2.617599e+003
4.981966e+002, 2.620484e+003
4.986787e+002, 2.621633e+003
4.991608e+002, 2.622964e+003
4.996429e+002, 2.626695e+003
5.001251e+002, 2.630391e+003
5.006072e+002, 2.631833e+003
5.010893e+002, 2.627582e+003
5.015714e+002, 2.625004e+003
5.020535e+002, 2.626960e+003
5.025356e+002, 2.631608e+003
5.030178e+002, 2.634768e+003
5.034999e+002, 2.634920e+003
5.039820e+002, 2.634917e+003
5.044641e+002, 2.635482e+003
5.049462e+002, 2.636667e+003
5.054283e+002, 2.637834e+003
5.059105e+002, 2.639176e+003
5.063926e+002, 2.640294e+003
5.068747e+002, 2.640646e+003
5.073568e+002, 2.640000e+003
5.078389e+002, 2.640548e+003
5.083210e+002, 2.642876e+003
5.088032e+002, 2.645807e+003
5.092853e+002, 2.646877e+003
5.097674e+002, 2.646219e+003
5.102495e+002, 2.646279e+003
5.107316e+002, 2.648468e+003
5.112137e+002, 2.651819e+003
5.116959e+002, 2.654333e+003
5.121780e+002, 2.656000e+003
5.126601e+002, 2.657371e+003
5.131422e+002, 2.659193e+003
5.136243e+002, 2.660780e+003
5.141064e+002, 2.661026e+003
5.145886e+002, 2.659355e+003
5.150707e+002, 2.657788e+003
5.155528e+002, 2.657377e+003
5.160349e+002, 2.657959e+003
5.165170e+002, 2.659273e+003
5.169991e+002, 2.663222e+003
5.174813e+002, 2.665973e+003
5.179634e+002, 2.665199e+003
5.184455e+002, 2.661517e+003
5.189276e+002, 2.659874e+003
5.194097e+002, 2.662364e+003
5.198918e+002, 2.665736e+003
5.203740e+002, 2.668781e+003
5.208561e+002, 2.671498e+003
5.213382e+002, 2.673861e+003
5.218203e+002, 2.675742e+003
5.223024e+002, 2.677327e+003
5.227845e+002, 2.678643e+003
5.232667e+002, 2.679449e+003
5.237488e+002, 2.681194e+003
5.242309e+002, 2.684478e+003
5.247130e+002, 2.688505e+003
5.251951e+002, 2.691428e+003
5.256772e+002, 2.693265e+003
5.261594e+002, 2.694480e+003
5.266415e+002, 2.695313e+003
5.271236e+002, 2.695771e+003
5.276057e+002, 2.695591e+003
5.280878e+002, 2.694783e+003
5.285699e+002, 2.694353e+003
5.290521e+002, 2.695225e+003
5.295342e+002, 2.696989e+003
5.300163e+002, 2.699163e+003
5.304984e+002, 2.701872e+003
5.309805e+002, 2.704513e+003
5.314626e+002, 2.706431e+003
5.319448e+002, 2.708046e+003
5.324269e+002, 2.710161e+003
5.329090e+002, 2.714236e+003
5.333911e+002, 2.717614e+003
5.338732e+002, 2.718848e+003
5.343553e+002, 2.717752e+003
5.348375e+002, 2.717946e+003
5.353196e+002, 2.720067e+003
5.358017e+002, 2.722829e+003
5.362838e+002, 2.725560e+003
5.367659e+002, 2.728317e+003
5.372480e+002, 2.730776e+003
5.377302e+002, 2.732778e+003
5.382123e+002, 2.734637e+003
5.386944e+002, 2.737038e+003
5.391765e+002, 2.740115e+003
5.396586e+002, 2.742249e+003
5.401407e+002, 2.742791e+003
5.406229e+002, 2.742355e+003
5.411050e+002, 2.742291e+003
5.415871e+002, 2.742602e+003
5.420692e+002, 2.742948e+003
5.425513e+002, 2.743001e+003
5.430334e+002, 2.743090e+003
5.435156e+002, 2.743615e+003
5.439977e+002, 2.744624e+003
5.444798e+002, 2.746281e+003
5.449619e+002, 2.749305e+003
5.454440e+002, 2.752772e+003
5.459261e+002, 2.755609e+003
5.464083e+002, 2.756730e+003
5.468904e+002, 2.758230e+003
5.473725e+002, 2.761005e+003
5.478546e+002, 2.764533e+003
5.483367e+002, 2.767815e+003
5.488188e+002, 2.770361e+003
5.493010e+002, 2.772888e+003
5.497831e+002, 2.775534e+003
5.502652e+002, 2.778278e+003
5.507473e+002, 2.781032e+003
5.512294e+002, 2.783947e+003
5.517115e+002, 2.786629e+003
5.521937e+002, 2.789065e+003
5.526758e+002, 2.791396e+003
5.531579e+002, 2.792286e+003
5.536400e+002, 2.791386e+003
5.541221e+002, 2.790036e+003
5.546042e+002, 2.789940e+003
5.550864e+002, 2.791003e+003
5.555685e+002, 2.792591e+003
5.560506e+002, 2.794721e+003
5.565327e+002, 2.796972e+003
5.570148e+002, 2.798873e+003
5.574969e+002, 2.800371e+003
5.579791e+002, 2.801341e+003
5.584612e+002, 2.801341e+003
5.589433e+002, 2.800966e+003
5.594254e+002, 2.800506e+003
5.599075e+002, 2.799956e+003
5.603896e+002, 2.799885e+003
5.608718e+002, 2.801452e+003
5.613539e+002, 2.803020e+003
5.618360e+002, 2.803320e+003
5.623181e+002, 2.800542e+003
5.628002e+002, 2.799073e+003
5.632823e+002, 2.800373e+003
5.637645e+002, 2.802647e+003
5.642466e+002, 2.802853e+003
5.647287e+002, 2.799345e+003
5.652108e+002, 2.797741e+003
5.656929e+002, 2.800142e+003
5.661750e+002, 2.805346e+003
5.666572e+002, 2.807513e+003
5.671393e+002, 2.806155e+003
5.676214e+002, 2.805089e+003
5.681035e+002, 2.807196e+003
5.685856e+002, 2.811492e+003
5.690677e+002, 2.814027e+003
5.695499e+002, 2.814508e+003
5.700320e+002, 2.814989e+003
5.705141e+002, 2.818546e+003
5.709962e+002, 2.823069e+003
5.714783e+002, 2.824738e+003
5.719604e+002, 2.821060e+003
5.724426e+002, 2.817624e+003
5.729247e+002, 2.818834e+003
5.734068e+002, 2.822666e+003
5.738889e+002, 2.825521e+003
5.743710e+002, 2.824943e+003
5.748531e+002, 2.824537e+003
5.753353e+002, 2.826066e+003
5.758174e+002, 2.829349e+003
5.762995e+002, 2.831141e+003
5.767816e+002, 2.830724e+003
5.772637e+002, 2.829571e+003
5.777458e+002, 2.827884e+003
5.782280e+002, 2.825131e+003
5.787101e+002, 2.825015e+003
5.791922e+002, 2.828233e+003
5.796743e+002, 2.832534e+003
5.801564e+002, 2.835875e+003
5.806385e+002, 2.838241e+003
5.811207e+002, 2.839379e+003
5.816028e+002, 2.838869e+003
5.820849e+002, 2.837906e+003
5.825670e+002, 2.838768e+003
5.830491e+002, 2.840780e+003
5.835313e+002, 2.841810e+003
5.840134e+002, 2.838887e+003
5.844955e+002, 2.835913e+003
5.849776e+002, 2.836788e+003
5.854597e+002, 2.841019e+003
5.859418e+002, 2.845712e+003
5.864240e+002, 2.851223e+003
5.869061e+002, 2.855444e+003
5.873882e+002, 2.856830e+003
5.878703e+002, 2.854363e+003
5.883524e+002, 2.852281e+003
5.888345e+002, 2.850846e+003
5.893167e+002, 2.850135e+003
5.897988e+002, 2.850240e+003
5.902809e+002, 2.851257e+003
5.907630e+002, 2.853046e+003
5.912451e+002, 2.856184e+003
5.917272e+002, 2.859520e+003
5.922094e+002, 2.860001e+003
5.926915e+002, 2.857310e+003
5.931736e+002, 2.857080e+003
5.936557e+002, 2.862519e+003
5.941378e+002, 2.870806e+003
5.946199e+002, 2.875094e+003
5.951021e+002, 2.875700e+003
5.955842e+002, 2.875476e+003
5.960663e+002, 2.875913e+003
5.965484e+002, 2.876713e+003
5.970305e+002, 2.877281e+003
5.975126e+002, 2.877531e+003
5.979948e+002, 2.878735e+003
5.984769e+002, 2.884422e+003
5.989590e+002, 2.889779e+003
5.994411e+002, 2.890468e+003
5.999232e+002, 2.882130e+003
6.004053e+002, 2.874915e+003
6.008875e+002, 2.870589e+003
6.013696e+002, 2.868169e+003
6.018517e+002, 2.866346e+003
6.023338e+002, 2.864791e+003
6.028159e+002, 2.864674e+003
6.032980e+002, 2.866855e+003
6.037802e+002, 2.870427e+003
6.042623e+002, 2.871797e+003
6.047444e+002, 2.870644e+003
6.052265e+002, 2.869824e+003
6.057086e+002, 2.871147e+003
6.061907e+002, 2.873945e+003
6.066729e+002, 2.875917e+003
6.071550e+002, 2.877044e+003
6.076371e+002, 2.878031e+003
6.081192e+002, 2.879631e+003
6.086013e+002, 2.881313e+003
6.090834e+002, 2.882280e+003
6.095656e+002, 2.882260e+003
6.100477e+002, 2.882212e+003
6.105298e+002, 2.882908e+003
6.110119e+002, 2.883812e+003
6.114940e+002, 2.884327e+003
6.119761e+002, 2.883868e+003
6.124583e+002, 2.883673e+003
6.129404e+002, 2.883679e+003
6.134225e+002, 2.884189e+003
6.139046e+002, 2.886021e+003
6.143867e+002, 2.889977e+003
6.148688e+002, 2.893622e+003
6.153510e+002, 2.896345e+003
6.158331e+002, 2.898167e+003
6.163152e+002, 2.899112e+003
6.167973e+002, 2.899017e+003
6.172794e+002, 2.899077e+003
6.177615e+002, 2.900035e+003
6.182437e+002, 2.901665e+003
6.187258e+002, 2.903725e+003
6.192079e+002, 2.906199e+003
6.196900e+002, 2.908098e+003
6.201721e+002, 2.907754e+003
6.206542e+002, 2.906635e+003
6.211364e+002, 2.906770e+003
6.216185e+002, 2.909365e+003
6.221006e+002, 2.911594e+003
6.225827e+002, 2.912179e+003
6.230648e+002, 2.911749e+003
6.235469e+002, 2.911178e+003
6.240291e+002, 2.910662e+003
6.245112e+002, 2.910120e+003
6.249933e+002, 2.909555e+003
6.254754e+002, 2.909059e+003
6.259575e+002, 2.908743e+003
6.264396e+002, 2.908494e+003
6.269218e+002, 2.908967e+003
6.274039e+002, 2.910908e+003
6.278860e+002, 2.913876e+003
6.283681e+002, 2.914747e+003
6.288502e+002, 2.913430e+003
6.293323e+002, 2.912140e+003
6.298145e+002, 2.912569e+003
6.302966e+002, 2.914150e+003
6.307787e+002, 2.915737e+003
6.312608e+002, 2.917161e+003
6.317429e+002, 2.919071e+003
6.322250e+002, 2.922306e+003
6.327072e+002, 2.926073e+003
6.331893e+002, 2.929651e+003
6.336714e+002, 2.933349e+003
6.341535e+002, 2.935874e+003
6.346356e+002, 2.935956e+003
6.351177e+002, 2.934873e+003
6.355999e+002, 2.934661e+003
6.360820e+002, 2.935393e+003
6.365641e+002, 2.937030e+003
6.370462e+002, 2.940145e+003
6.375283e+002, 2.944017e+003
6.380104e+002, 2.946439e+003
6.384926e+002, 2.947470e+003
6.389747e+002, 2.946864e+003
6.394568e+002, 2.943565e+003
6.399389e+002, 2.938734e+003
6.404210e+002, 2.936543e+003
6.409031e+002, 2.936885e+003
6.413853e+002, 2.937751e+003
6.418674e+002, 2.937605e+003
6.423495e+002, 2.937224e+003
6.428316e+002, 2.937623e+003
6.433137e+002, 2.938991e+003
6.437958e+002, 2.940367e+003
6.442780e+002, 2.941483e+003
6.447601e+002, 2.942253e+003
6.452422e+002, 2.942515e+003
6.457243e+002, 2.940764e+003
6.462064e+002, 2.940830e+003
6.466885e+002, 2.944156e+003
6.471707e+002, 2.948527e+003
6.476528e+002, 2.950872e+003
6.481349e+002, 2.950587e+003
6.486170e+002, 2.950029e+003
6.490991e+002, 2.949241e+003
6.495812e+002, 2.948775e+003
6.500634e+002, 2.950231e+003
6.505455e+002, 2.953502e+003
6.510276e+002, 2.956855e+003
6.515097e+002, 2.959853e+003
6.519918e+002, 2.962295e+003
6.524739e+002, 2.963509e+003
6.529561e+002, 2.963733e+003
6.534382e+002, 2.964266e+003
6.539203e+002, 2.966537e+003
6.544024e+002, 2.968857e+003
6.548845e+002, 2.969866e+003
6.553666e+002, 2.969287e+003
6.558488e+002, 2.969135e+003
6.563309e+002, 2.969550e+003
6.568130e+002, 2.970806e+003
6.572951e+002, 2.973326e+003
6.577772e+002, 2.978434e+003
6.582593e+002, 2.981061e+003
6.587415e+002, 2.980412e+003
6.592236e+002, 2.978576e+003
6.597057e+002, 2.977842e+003
6.601878e+002, 2.978193e+003
6.606699e+002, 2.978806e+003
6.611520e+002, 2.979464e+003
6.616342e+002, 2.980493e+003
6.621163e+002, 2.983060e+003
6.625984e+002, 2.986407e+003
6.630805e+002, 2.988502e+003
6.635626e+002, 2.987412e+003
6.640447e+002, 2.985902e+003
6.645269e+002, 2.985714e+003
6.650090e+002, 2.986638e+003
6.654911e+002, 2.988067e+003
6.659732e+002, 2.990687e+003
6.664553e+002, 2.992938e+003
6.669374e+002, 2.993845e+003
6.674196e+002, 2.993592e+003
6.679017e+002, 2.994587e+003
6.683838e+002, 2.997491e+003
6.688659e+002, 3.000550e+003
6.693480e+002, 3.003234e+003
6.698301e+002, 3.005546e+003
6.703123e+002, 3.005836e+003
6.707944e+002, 3.003833e+003
6.712765e+002, 3.001922e+003
6.717586e+002, 3.002169e+003
6.722407e+002, 3.004053e+003
6.727228e+002, 3.006704e+003
6.732050e+002, 3.010182e+003
6.736871e+002, 3.013138e+003
6.741692e+002, 3.014095e+003
6.746513e+002, 3.014128e+003
6.751334e+002, 3.014503e+003
6.756155e+002, 3.015989e+003
6.760977e+002, 3.017072e+003
6.765798e+002, 3.016522e+003
6.770619e+002, 3.015639e+003
6.775440e+002, 3.016562e+003
6.780261e+002, 3.020816e+003
6.785082e+002, 3.023615e+003
6.789904e+002, 3.023793e+003
6.794725e+002, 3.022342e+003
6.799546e+002, 3.021445e+003
6.804367e+002, 3.021138e+003
6.809188e+002, 3.022172e+003
6.814009e+002, 3.026113e+003
6.818831e+002, 3.030825e+003
6.823652e+002, 3.031596e+003
6.828473e+002, 3.029188e+003
6.833294e+002, 3.027264e+003
6.838115e+002, 3.028448e+003
6.842936e+002, 3.030550e+003
6.847758e+002, 3.032080e+003
6.852579e+002, 3.032918e+003
6.857400e+002, 3.033636e+003
6.862221e+002, 3.033299e+003
6.867042e+002, 3.033784e+003
6.871863e+002, 3.036297e+003
6.876685e+002, 3.041551e+003
6.881506e+002, 3.045617e+003
6.886327e+002, 3.048386e+003
6.891148e+002, 3.050235e+003
6.895969e+002, 3.050653e+003
6.900790e+002, 3.049849e+003
6.905612e+002, 3.051964e+003
6.910433e+002, 3.057805e+003
6.915254e+002, 3.064292e+003
6.920075e+002, 3.068022e+003
6.924896e+002, 3.069694e+003
6.929717e+002, 3.070473e+003
6.934539e+002, 3.070297e+003
6.939360e+002, 3.070035e+003
6.944181e+002, 3.070764e+003
6.949002e+002, 3.071603e+003
6.953823e+002, 3.071188e+003
6.958644e+002, 3.066880e+003
6.963466e+002, 3.064377e+003
6.968287e+002, 3.065501e+003
6.973108e+002, 3.068775e+003
6.977929e+002, 3.070065e+003
6.982750e+002, 3.068795e+003
6.987571e+002, 3.068101e+003
6.992393e+002, 3.069414e+003
6.997214e+002, 3.071847e+003
7.002035e+002, 3.072173e+003
7.006856e+002, 3.070683e+003
7.011677e+002, 3.069848e+003
7.016498e+002, 3.071786e+003
7.021320e+002, 3.074696e+003
7.026141e+002, 3.076353e+003
7.030962e+002, 3.076848e+003
7.035783e+002, 3.077679e+003
7.040604e+002, 3.078987e+003
7.045425e+002, 3.081181e+003
7.050247e+002, 3.084950e+003
7.055068e+002, 3.090901e+003
7.059889e+002, 3.094771e+003
7.064710e+002, 3.095603e+003
7.069531e+002, 3.095491e+003
7.074352e+002, 3.095608e+003
7.079174e+002, 3.095943e+003
7.083995e+002, 3.096800e+003
7.088816e+002, 3.098323e+003
7.093637e+002, 3.099827e+003
7.098458e+002, 3.100678e+003
7.103279e+002, 3.100986e+003
7.108101e+002, 3.100826e+003
7.112922e+002, 3.100057e+003
7.117743e+002, 3.099738e+003
7.122564e+002, 3.101515e+003
7.127385e+002, 3.103924e+003
7.132206e+002, 3.105166e+003
7.137028e+002, 3.103402e+003
7.141849e+002, 3.102388e+003
7.146670e+002, 3.103221e+003
7.151491e+002, 3.105042e+003
7.156312e+002, 3.106743e+003
7.161133e+002, 3.108162e+003
7.165955e+002, 3.109906e+003
7.170776e+002, 3.112221e+003
7.175597e+002, 3.114666e+003
7.180418e+002, 3.115694e+003
7.185239e+002, 3.115542e+003
7.190060e+002, 3.116815e+003
7.194882e+002, 3.121503e+003
7.199703e+002, 3.126949e+003
7.204524e+002, 3.129504e+003
7.209345e+002, 3.129998e+003
7.214166e+002, 3.131041e+003
7.218987e+002, 3.134797e+003
7.223809e+002, 3.138424e+003
7.228630e+002, 3.140624e+003
7.233451e+002, 3.141423e+003
7.238272e+002, 3.141423e+003
7.243093e+002, 3.139643e+003
7.247914e+002, 3.138688e+003
7.252736e+002, 3.139800e+003
7.257557e+002, 3.142807e+003
7.262378e+002, 3.145229e+003
7.267199e+002, 3.147097e+003
7.272020e+002, 3.148725e+003
7.276841e+002, 3.150843e+003
7.281663e+002, 3.152836e+003
7.286484e+002, 3.152667e+003
7.291305e+002, 3.150401e+003
7.296126e+002, 3.148779e+003
7.300947e+002, 3.149929e+003
7.305768e+002, 3.152290e+003
7.310590e+002, 3.154641e+003
7.315411e+002, 3.156754e+003
7.320232e+002, 3.159073e+003
7.325053e+002, 3.161711e+003
7.329874e+002, 3.164455e+003
7.334695e+002, 3.167319e+003
7.339517e+002, 3.170574e+003
7.344338e+002, 3.172727e+003
7.349159e+002, 3.173653e+003
7.353980e+002, 3.173776e+003
7.358801e+002, 3.173110e+003
7.363622e+002, 3.171956e+003
7.368444e+002, 3.171523e+003
7.373265e+002, 3.172012e+003
7.378086e+002, 3.173371e+003
7.382907e+002, 3.176469e+003
7.387728e+002, 3.180119e+003
7.392549e+002, 3.182717e+003
7.397371e+002, 3.183414e+003
7.402192e+002, 3.183865e+003
7.407013e+002, 3.184286e+003
7.411834e+002, 3.184847e+003
7.416655e+002, 3.185783e+003
7.421476e+002, 3.187286e+003
7.426298e+002, 3.188419e+003
7.431119e+002, 3.188403e+003
7.435940e+002, 3.188735e+003
7.440761e+002, 3.193216e+003
7.445582e+002, 3.201231e+003
7.450403e+002, 3.207341e+003
7.455225e+002, 3.209725e+003
7.460046e+002, 3.209676e+003
7.464867e+002, 3.207346e+003
7.469688e+002, 3.203888e+003
7.474509e+002, 3.201859e+003
7.479330e+002, 3.203137e+003
7.484152e+002, 3.205174e+003
7.488973e+002, 3.207638e+003
7.493794e+002, 3.210176e+003
7.498615e+002, 3.211626e+003
7.503436e+002, 3.211641e+003
7.508257e+002, 3.211379e+003
7.513079e+002, 3.211259e+003
7.517900e+002, 3.211106e+003
7.522721e+002, 3.209825e+003
7.527542e+002, 3.207448e+003
7.532363e+002, 3.205881e+003
7.537184e+002, 3.206145e+003
7.542006e+002, 3.207772e+003
7.546827e+002, 3.210820e+003
7.551648e+002, 3.214826e+003
7.556469e+002, 3.217698e+003
7.561290e+002, 3.217283e+003
7.566111e+002, 3.216450e+003
7.570933e+002, 3.216577e+003
7.575754e+002, 3.217702e+003
7.580575e+002, 3.219319e+003
7.585396e+002, 3.221575e+003
7.590217e+002, 3.223944e+003
7.595038e+002, 3.226397e+003
7.599860e+002, 3.228829e+003
7.604681e+002, 3.229979e+003
7.609502e+002, 3.229654e+003
7.614323e+002, 3.230103e+003
7.619144e+002, 3.233420e+003
7.623965e+002, 3.238287e+003
7.628787e+002, 3.242600e+003
7.633608e+002, 3.246237e+003
7.638429e+002, 3.249038e+003
7.643250e+002, 3.251499e+003
7.648071e+002, 3.252584e+003
7.652892e+002, 3.250613e+003
7.657714e+002, 3.244723e+003
7.662535e+002, 3.242190e+003
7.667356e+002, 3.245022e+003
7.672177e+002, 3.249121e+003
7.676998e+002, 3.252632e+003
7.681819e+002, 3.255652e+003
7.686641e+002, 3.256786e+003
7.691462e+002, 3.255831e+003
7.696283e+002, 3.254598e+003
7.701104e+002, 3.253735e+003
7.705925e+002, 3.253912e+003
7.710746e+002, 3.257182e+003
7.715568e+002, 3.263849e+003
7.720389e+002, 3.269918e+003
7.725210e+002, 3.272010e+003
7.730031e+002, 3.273054e+003
7.734852e+002, 3.275852e+003
7.739673e+002, 3.282399e+003
7.744495e+002, 3.284902e+003
7.749316e+002, 3.281050e+003
7.754137e+002, 3.275587e+003
7.758958e+002, 3.271704e+003
7.763779e+002, 3.269405e+003
7.768600e+002, 3.268546e+003
7.773422e+002, 3.269140e+003
7.778243e+002, 3.271084e+003
7.783064e+002, 3.275876e+003
7.787885e+002, 3.281583e+003
7.792706e+002, 3.284103e+003
7.797527e+002, 3.282328e+003
7.802349e+002, 3.280402e+003
7.807170e+002, 3.280967e+003
7.811991e+002, 3.282444e+003
7.816812e+002, 3.283433e+003
7.821633e+002, 3.283308e+003
7.826454e+002, 3.283652e+003
7.831276e+002, 3.284886e+003
7.836097e+002, 3.286117e+003
7.840918e+002, 3.285937e+003
7.845739e+002, 3.284276e+003
7.850560e+002, 3.285030e+003
7.855381e+002, 3.288932e+003
7.860203e+002, 3.293221e+003
7.865024e+002, 3.294569e+003
7.869845e+002, 3.294237e+003
7.874666e+002, 3.294353e+003
7.879487e+002, 3.295336e+003
7.884308e+002, 3.296932e+003
7.889130e+002, 3.298768e+003
7.893951e+002, 3.301256e+003
7.898772e+002, 3.305004e+003
7.903593e+002, 3.312281e+003
7.908414e+002, 3.316260e+003
7.913235e+002, 3.315156e+003
7.918057e+002, 3.313029e+003
7.922878e+002, 3.315044e+003
7.927699e+002, 3.320922e+003
7.932520e+002, 3.326543e+003
7.937341e+002, 3.331528e+003
7.942162e+002, 3.335230e+003
7.946984e+002, 3.336697e+003
7.951805e+002, 3.336540e+003
7.956626e+002, 3.335565e+003
7.961447e+002, 3.333322e+003
7.966268e+002, 3.331848e+003
7.971089e+002, 3.331968e+003
7.975911e+002, 3.333260e+003
7.980732e+002, 3.335408e+003
7.985553e+002, 3.339763e+003
7.990374e+002, 3.341644e+003
7.995195e+002, 3.340017e+003
8.000016e+002, 3.337466e+003
8.004838e+002, 3.337099e+003
8.009659e+002, 3.338763e+003
8.014480e+002, 3.341896e+003
8.019301e+002, 3.346933e+003
8.024122e+002, 3.351181e+003
8.028943e+002, 3.350831e+003
8.033765e+002, 3.348530e+003
8.038586e+002, 3.347726e+003
8.043407e+002, 3.349659e+003
8.048228e+002, 3.352400e+003
8.053049e+002, 3.356282e+003
8.057870e+002, 3.360335e+003
8.062692e+002, 3.363331e+003
8.067513e+002, 3.364526e+003
8.072334e+002, 3.367956e+003
8.077155e+002, 3.374706e+003
8.081976e+002, 3.381409e+003
8.086797e+002, 3.382358e+003
8.091619e+002, 3.379632e+003
8.096440e+002, 3.380049e+003
8.101261e+002, 3.386176e+003
8.106082e+002, 3.391165e+003
8.110903e+002, 3.387975e+003
8.115724e+002, 3.381845e+003
8.120546e+002, 3.378521e+003
8.125367e+002, 3.380536e+003
8.130188e+002, 3.383471e+003
8.135009e+002, 3.388466e+003
8.139830e+002, 3.393028e+003
8.144651e+002, 3.393618e+003
8.149473e+002, 3.389900e+003
8.154294e+002, 3.388955e+003
8.159115e+002, 3.391837e+003
8.163936e+002, 3.396134e+003
8.168757e+002, 3.399223e+003
8.173578e+002, 3.401733e+003
8.178400e+002, 3.404824e+003
8.183221e+002, 3.408843e+003
8.188042e+002, 3.413026e+003
8.192863e+002, 3.416827e+003
8.197684e+002, 3.420618e+003
8.202505e+002, 3.424837e+003
8.207327e+002, 3.430093e+003
8.212148e+002, 3.434009e+003
8.216969e+002, 3.436098e+003
8.221790e+002, 3.437543e+003
8.226611e+002, 3.440004e+003
8.231432e+002, 3.443071e+003
8.236254e+002, 3.443637e+003
8.241075e+002, 3.441082e+003
8.245896e+002, 3.438453e+003
8.250717e+002, 3.438792e+003
8.255538e+002, 3.440518e+003
8.260359e+002, 3.442082e+003
8.265181e+002, 3.443543e+003
8.270002e+002, 3.443836e+003
8.274823e+002, 3.441953e+003
8.279644e+002, 3.439589e+003
8.284465e+002, 3.437731e+003
8.289286e+002, 3.436429e+003
8.294108e+002, 3.436158e+003
8.298929e+002, 3.437245e+003
8.303750e+002, 3.438301e+003
8.308571e+002, 3.436555e+003
8.313392e+002, 3.434194e+003
8.318214e+002, 3.437333e+003
8.323035e+002, 3.446802e+003
8.327856e+002, 3.454176e+003
8.332677e+002, 3.449542e+003
8.337498e+002, 3.443898e+003
8.342319e+002, 3.446834e+003
8.347141e+002, 3.463010e+003
8.351962e+002, 3.471455e+003
8.356783e+002, 3.468744e+003
8.361604e+002, 3.463882e+003
8.366425e+002, 3.462514e+003
8.371246e+002, 3.464397e+003
8.376068e+002, 3.466198e+003
8.380889e+002, 3.467883e+003
8.385710e+002, 3.470283e+003
8.390531e+002, 3.474942e+003
8.395352e+002, 3.480123e+003
8.400173e+002, 3.484334e+003
8.404995e+002, 3.487477e+003
8.409816e+002, 3.488798e+003
8.414637e+002, 3.485496e+003
8.419458e+002, 3.482844e+003
8.424279e+002, 3.483422e+003
8.429100e+002, 3.487147e+003
8.433922e+002, 3.490254e+003
8.438743e+002, 3.492768e+003
8.443564e+002, 3.494340e+003
8.448385e+002, 3.494178e+003
8.453206e+002, 3.493041e+003
8.458027e+002, 3.492636e+003
8.462849e+002, 3.492892e+003
8.467670e+002, 3.493518e+003
8.472491e+002, 3.495014e+003
8.477312e+002, 3.496264e+003
8.482133e+002, 3.496556e+003
8.486954e+002, 3.495989e+003
8.491776e+002, 3.495445e+003
8.496597e+002, 3.494539e+003
8.501418e+002, 3.494734e+003
8.506239e+002, 3.496896e+003
8.511060e+002, 3.500401e+003
8.515881e+002, 3.503056e+003
8.520703e+002, 3.504963e+003
8.525524e+002, 3.506797e+003
8.530345e+002, 3.508533e+003
8.535166e+002, 3.510624e+003
8.539987e+002, 3.513706e+003
8.544808e+002, 3.517435e+003
8.549630e+002, 3.521007e+003
8.554451e+002, 3.523358e+003
8.559272e+002, 3.526439e+003
8.564093e+002, 3.531541e+003
8.568914e+002, 3.537052e+003
8.573735e+002, 3.538817e+003
8.578557e+002, 3.536378e+003
8.583378e+002, 3.535705e+003
8.588199e+002, 3.539025e+003
8.593020e+002, 3.543516e+003
8.597841e+002, 3.544687e+003
8.602662e+002, 3.543907e+003
8.607484e+002, 3.544040e+003
8.612305e+002, 3.547473e+003
8.617126e+002, 3.549958e+003
8.621947e+002, 3.548576e+003
8.626768e+002, 3.545948e+003
8.631589e+002, 3.545846e+003
8.636411e+002, 3.549326e+003
8.641232e+002, 3.552388e+003
8.646053e+002, 3.554634e+003
8.650874e+002, 3.556454e+003
8.655695e+002, 3.558630e+003
8.660516e+002, 3.560818e+003
8.665338e+002, 3.561673e+003
8.670159e+002, 3.560598e+003
8.674980e+002, 3.559951e+003
8.679801e+002, 3.562344e+003
8.684622e+002, 3.565435e+003
8.689443e+002, 3.566727e+003
8.694265e+002, 3.564104e+003
8.699086e+002, 3.564327e+003
8.703907e+002, 3.569167e+003
8.708728e+002, 3.574138e+003
8.713549e+002, 3.574343e+003
8.718370e+002, 3.570497e+003
8.723192e+002, 3.572029e+003
8.728013e+002, 3.579424e+003
8.732834e+002, 3.586325e+003
8.737655e+002, 3.586702e+003
8.742476e+002, 3.584494e+003
8.747297e+002, 3.583161e+003
8.752119e+002, 3.583008e+003
8.756940e+002, 3.584145e+003
8.761761e+002, 3.587942e+003
8.766582e+002, 3.591595e+003
8.771403e+002, 3.594267e+003
8.776224e+002, 3.595904e+003
8.781046e+002, 3.595067e+003
8.785867e+002, 3.591608e+003
8.790688e+002, 3.589265e+003
8.795509e+002, 3.591475e+003
8.800330e+002, 3.595536e+003
8.805151e+002, 3.597521e+003
8.809973e+002, 3.597964e+003
8.814794e+002, 3.598860e+003
8.819615e+002, 3.602066e+003
8.824436e+002, 3.604846e+003
8.829257e+002, 3.605887e+003
8.834078e+002, 3.605795e+003
8.838900e+002, 3.606185e+003
8.843721e+002, 3.607042e+003
8.848542e+002, 3.608523e+003
8.853363e+002, 3.610928e+003
8.858184e+002, 3.613503e+003
8.863005e+002, 3.614379e+003
8.867827e+002, 3.614337e+003
8.872648e+002, 3.615448e+003
8.877469e+002, 3.619047e+003
8.882290e+002, 3.622965e+003
8.887111e+002, 3.626961e+003
8.891932e+002, 3.630378e+003
8.896754e+002, 3.632028e+003
8.901575e+002, 3.630169e+003
8.906396e+002, 3.631615e+003
8.911217e+002, 3.638080e+003
8.916038e+002, 3.645121e+003
8.920859e+002, 3.645999e+003
8.925681e+002, 3.642947e+003
8.930502e+002, 3.643173e+003
8.935323e+002, 3.648225e+003
8.940144e+002, 3.653705e+003
8.944965e+002, 3.657156e+003
8.949786e+002, 3.659262e+003
8.954608e+002, 3.660408e+003
8.959429e+002, 3.660231e+003
8.964250e+002, 3.660504e+003
8.969071e+002, 3.661116e+003
8.973892e+002, 3.662331e+003
8.978713e+002, 3.664575e+003
8.983535e+002, 3.667639e+003
8.988356e+002, 3.670175e+003
8.993177e+002, 3.672208e+003
8.997998e+002, 3.674278e+003
9.002819e+002, 3.677060e+003
9.007640e+002, 3.679797e+003
9.012462e+002, 3.681823e+003
9.017283e+002, 3.683202e+003
9.022104e+002, 3.684943e+003
9.026925e+002, 3.687746e+003
9.031746e+002, 3.689908e+003
9.036567e+002, 3.690732e+003
9.041389e+002, 3.690721e+003
9.046210e+002, 3.691584e+003
9.051031e+002, 3.693214e+003
9.055852e+002, 3.694616e+003
9.060673e+002, 3.694861e+003
9.065494e+002, 3.695405e+003
9.070316e+002, 3.697685e+003
9.075137e+002, 3.701124e+003
9.079958e+002, 3.704761e+003
9.084779e+002, 3.709612e+003
9.089600e+002, 3.712651e+003
9.094421e+002, 3.712687e+003
9.099243e+002, 3.711811e+003
9.104064e+002, 3.713258e+003
9.108885e+002, 3.716841e+003
9.113706e+002, 3.718992e+003
9.118527e+002, 3.718998e+003
9.123348e+002, 3.718849e+003
9.128170e+002, 3.720951e+003
9.132991e+002, 3.723735e+003
9.137812e+002, 3.724919e+003
9.142633e+002, 3.723125e+003
9.147454e+002, 3.724354e+003
9.152275e+002, 3.732653e+003
9.157097e+002, 3.740406e+003
9.161918e+002, 3.742376e+003
9.166739e+002, 3.738709e+003
9.171560e+002, 3.739034e+003
9.176381e+002, 3.743373e+003
9.181202e+002, 3.747894e+003
9.186024e+002, 3.749450e+003
9.190845e+002, 3.750114e+003
9.195666e+002, 3.752121e+003
9.200487e+002, 3.755304e+003
9.205308e+002, 3.758442e+003
9.210129e+002, 3.761096e+003
9.214951e+002, 3.763734e+003
9.219772e+002, 3.766724e+003
9.224593e+002, 3.769640e+003
9.229414e+002, 3.770723e+003
9.234235e+002, 3.769988e+003
9.239056e+002, 3.770698e+003
9.243878e+002, 3.774943e+003
9.248699e+002, 3.778960e+003
9.253520e+002, 3.776465e+003
9.258341e+002, 3.771442e+003
9.263162e+002, 3.770293e+003
9.267983e+002, 3.779138e+003
9.272805e+002, 3.785411e+003
9.277626e+002, 3.786410e+003
9.282447e+002, 3.785885e+003
9.287268e+002, 3.788071e+003
9.292089e+002, 3.793050e+003
9.296910e+002, 3.795964e+003
9.301732e+002, 3.796437e+003
9.306553e+002, 3.795737e+003
9.311374e+002, 3.793982e+003
9.316195e+002, 3.792326e+003
9.321016e+002, 3.791574e+003
9.325837e+002, 3.791775e+003
9.330659e+002, 3.794749e+003
9.335480e+002, 3.805360e+003
9.340301e+002, 3.813327e+003
9.345122e+002, 3.813558e+003
9.349943e+002, 3.807349e+003
9.354764e+002, 3.803298e+003
9.359586e+002, 3.801312e+003
9.364407e+002, 3.801936e+003
9.369228e+002, 3.808005e+003
9.374049e+002, 3.814274e+003
9.378870e+002, 3.814234e+003
9.383691e+002, 3.810263e+003
9.388513e+002, 3.807867e+003
9.393334e+002, 3.810406e+003
9.398155e+002, 3.812248e+003
9.402976e+002, 3.812406e+003
9.407797e+002, 3.811953e+003
9.412618e+002, 3.812776e+003
9.417440e+002, 3.814795e+003
9.422261e+002, 3.815990e+003
9.427082e+002, 3.815956e+003
9.431903e+002, 3.815754e+003
9.436724e+002, 3.815404e+003
9.441545e+002, 3.815956e+003
9.446367e+002, 3.818764e+003
9.451188e+002, 3.824600e+003
9.456009e+002, 3.830159e+003
9.460830e+002, 3.835928e+003
9.465651e+002, 3.839886e+003
9.470472e+002, 3.840027e+003
9.475294e+002, 3.836900e+003
9.480115e+002, 3.835450e+003
9.484936e+002, 3.835591e+003
9.489757e+002, 3.836874e+003
9.494578e+002, 3.840584e+003
9.499399e+002, 3.844010e+003
9.504221e+002, 3.844268e+003
9.509042e+002, 3.842414e+003
9.513863e+002, 3.842632e+003
9.518684e+002, 3.846715e+003
9.523505e+002, 3.850716e+003
9.528326e+002, 3.854330e+003
9.533148e+002, 3.857308e+003
9.537969e+002, 3.858579e+003
9.542790e+002, 3.858668e+003
9.547611e+002, 3.859622e+003
9.552432e+002, 3.862021e+003
9.557253e+002, 3.865092e+003
9.562075e+002, 3.867654e+003
9.566896e+002, 3.870893e+003
9.571717e+002, 3.876503e+003
9.576538e+002, 3.886243e+003
9.581359e+002, 3.891924e+003
9.586180e+002, 3.891446e+003
9.591002e+002, 3.891909e+003
9.595823e+002, 3.901001e+003
9.600644e+002, 3.914788e+003
9.605465e+002, 3.919547e+003
9.610286e+002, 3.916319e+003
9.615107e+002, 3.914978e+003
9.619929e+002, 3.923865e+003
9.624750e+002, 3.933410e+003
9.629571e+002, 3.937693e+003
9.634392e+002, 3.938419e+003
9.639213e+002, 3.942697e+003
9.644034e+002, 3.951676e+003
9.648856e+002, 3.959562e+003
9.653677e+002, 3.964929e+003
9.658498e+002, 3.968673e+003
9.663319e+002, 3.970200e+003
9.668140e+002, 3.971609e+003
9.672961e+002, 3.977850e+003
9.677783e+002, 3.992587e+003
9.682604e+002, 4.005988e+003
9.687425e+002, 4.012587e+003
9.692246e+002, 4.017798e+003
9.697067e+002, 4.025710e+003
9.701888e+002, 4.036242e+003
9.706710e+002, 4.048496e+003
9.711531e+002, 4.062086e+003
9.716352e+002, 4.079922e+003
9.721173e+002, 4.105492e+003
9.725994e+002, 4.135489e+003
9.730815e+002, 4.164444e+003
9.735637e+002, 4.193339e+003
9.740458e+002, 4.229310e+003
9.745279e+002, 4.277225e+003
9.750100e+002, 4.329750e+003
9.754921e+002, 4.386321e+003
9.759742e+002, 4.445786e+003
9.764564e+002, 4.509844e+003
9.769385e+002, 4.578041e+003
9.774206e+002, 4.632501e+003
9.779027e+002, 4.669870e+003
9.783848e+002, 4.687071e+003
9.788669e+002, 4.680503e+003
9.793491e+002, 4.652429e+003
9.798312e+002, 4.603553e+003
9.803133e+002, 4.524204e+003
9.807954e+002, 4.448586e+003
9.812775e+002, 4.375751e+003
9.817596e+002, 4.309043e+003
9.822418e+002, 4.249223e+003
9.827239e+002, 4.196554e+003
9.832060e+002, 4.152447e+003
9.836881e+002, 4.116900e+003
9.841702e+002, 4.090332e+003
9.846523e+002, 4.076842e+003
9.851345e+002, 4.068582e+003
9.856166e+002, 4.061476e+003
9.860987e+002, 4.055706e+003
9.865808e+002, 4.052344e+003
9.870629e+002, 4.052335e+003
9.875450e+002, 4.051522e+003
9.880272e+002, 4.048730e+003
9.885093e+002, 4.045792e+003
9.889914e+002, 4.045749e+003
9.894735e+002, 4.047647e+003
9.899556e+002, 4.049364e+003
9.904377e+002, 4.050168e+003
9.909199e+002, 4.052181e+003
9.914020e+002, 4.059882e+003
9.918841e+002, 4.065931e+003
9.923662e+002, 4.064280e+003
9.928483e+002, 4.054587e+003
9.933304e+002, 4.051332e+003
9.938126e+002, 4.054828e+003
9.942947e+002, 4.059182e+003
9.947768e+002, 4.060261e+003
9.952589e+002, 4.060446e+003
9.957410e+002, 4.062951e+003
9.962231e+002, 4.066945e+003
9.967053e+002, 4.070095e+003
9.971874e+002, 4.070738e+003
9.976695e+002, 4.071559e+003
9.981516e+002, 4.072299e+003
9.986337e+002, 4.074009e+003
9.991158e+002, 4.079520e+003
9.995980e+002, 4.088033e+003
1.000080e+003, 4.093585e+003
1.000562e+003, 4.095272e+003
1.001044e+003, 4.095053e+003
1.001526e+003, 4.092872e+003
1.002009e+003, 4.090658e+003
1.002491e+003, 4.090183e+003
1.002973e+003, 4.091801e+003
1.003455e+003, 4.093425e+003
1.003937e+003, 4.094986e+003
1.004419e+003, 4.096970e+003
1.004901e+003, 4.099858e+003
1.005383e+003, 4.103140e+003
1.005865e+003, 4.105297e+003
1.006348e+003, 4.106902e+003
1.006830e+003, 4.109658e+003
1.007312e+003, 4.116280e+003
1.007794e+003, 4.121604e+003
1.008276e+003, 4.122554e+003
1.008758e+003, 4.122318e+003
1.009240e+003, 4.124193e+003
1.009722e+003, 4.128273e+003
1.010205e+003, 4.133616e+003
1.010687e+003, 4.140447e+003
1.011169e+003, 4.146205e+003
1.011651e+003, 4.148081e+003
1.012133e+003, 4.148157e+003
1.012615e+003, 4.148146e+003
1.013097e+003, 4.148286e+003
1.013579e+003, 4.149701e+003
1.014061e+003, 4.153311e+003
1.014544e+003, 4.157049e+003
1.015026e+003, 4.160615e+003
1.015508e+003, 4.163665e+003
1.015990e+003, 4.165204e+003
1.016472e+003, 4.165480e+003
1.016954e+003, 4.165207e+003
1.017436e+003, 4.163758e+003
1.017918e+003, 4.163977e+003
1.018401e+003, 4.169430e+003
1.018883e+003, 4.176305e+003
1.019365e+003, 4.180681e+003
1.019847e+003, 4.181794e+003
1.020329e+003, 4.184228e+003
1.020811e+003, 4.188423e+003
1.021293e+003, 4.191690e+003
1.021775e+003, 4.190676e+003
1.022257e+003, 4.188323e+003
1.022740e+003, 4.189568e+003
1.023222e+003, 4.193672e+003
1.023704e+003, 4.197545e+003
1.024186e+003, 4.199828e+003
1.024668e+003, 4.201970e+003
1.025150e+003, 4.203890e+003
1.025632e+003, 4.206105e+003
1.026114e+003, 4.209575e+003
1.026596e+003, 4.214144e+003
1.027079e+003, 4.219523e+003
1.027561e+003, 4.225853e+003
1.028043e+003, 4.231226e+003
1.028525e+003, 4.233387e+003
1.029007e+003, 4.234454e+003
1.029489e+003, 4.236438e+003
1.029971e+003, 4.239612e+003
1.030453e+003, 4.241242e+003
1.030936e+003, 4.240784e+003
1.031418e+003, 4.240771e+003
1.031900e+003, 4.242613e+003
1.032382e+003, 4.245220e+003
1.032864e+003, 4.245579e+003
1.033346e+003, 4.245010e+003
1.033828e+003, 4.246757e+003
1.034310e+003, 4.254837e+003
1.034792e+003, 4.260883e+003
1.035275e+003, 4.261275e+003
1.035757e+003, 4.260264e+003
1.036239e+003, 4.261768e+003
1.036721e+003, 4.265795e+003
1.037203e+003, 4.268532e+003
1.037685e+003, 4.269859e+003
1.038167e+003, 4.270663e+003
1.038649e+003, 4.271063e+003
1.039132e+003, 4.271706e+003
1.039614e+003, 4.272566e+003
1.040096e+003, 4.274069e+003
1.040578e+003, 4.278224e+003
1.041060e+003, 4.286872e+003
1.041542e+003, 4.293003e+003
1.042024e+003, 4.294359e+003
1.042506e+003, 4.294765e+003
1.042989e+003, 4.300827e+003
1.043471e+003, 4.310083e+003
1.043953e+003, 4.317278e+003
1.044435e+003, 4.321070e+003
1.044917e+003, 4.324989e+003
1.045399e+003, 4.333082e+003
1.045881e+003, 4.338687e+003
1.046363e+003, 4.337012e+003
1.046845e+003, 4.329533e+003
1.047328e+003, 4.328898e+003
1.047810e+003, 4.334721e+003
1.048292e+003, 4.339676e+003
1.048774e+003, 4.339483e+003
1.049256e+003, 4.338537e+003
1.049738e+003, 4.340547e+003
1.050220e+003, 4.344144e+003
1.050702e+003, 4.347129e+003
1.051184e+003, 4.349217e+003
1.051667e+003, 4.350609e+003
1.052149e+003, 4.350761e+003
1.052631e+003, 4.351911e+003
1.053113e+003, 4.356954e+003
1.053595e+003, 4.363992e+003
1.054077e+003, 4.369521e+003
1.054559e+003, 4.373492e+003
1.055041e+003, 4.376908e+003
1.055523e+003, 4.379733e+003
1.056006e+003, 4.382722e+003
1.056488e+003, 4.386921e+003
1.056970e+003, 4.390863e+003
1.057452e+003, 4.390895e+003
1.057934e+003, 4.387517e+003
1.058416e+003, 4.384741e+003
1.058898e+003, 4.383211e+003
1.059380e+003, 4.383432e+003
1.059863e+003, 4.386880e+003
1.060345e+003, 4.391480e+003
1.060827e+003, 4.395723e+003
1.061309e+003, 4.399500e+003
1.061791e+003, 4.402089e+003
1.062273e+003, 4.402925e+003
1.062755e+003, 4.405216e+003
1.063237e+003, 4.411437e+003
1.063719e+003, 4.418302e+003
1.064202e+003, 4.420007e+003
1.064684e+003, 4.418742e+003
1.065166e+003, 4.418727e+003
1.065648e+003, 4.422009e+003
1.066130e+003, 4.425354e+003
1.066612e+003, 4.429110e+003
1.067094e+003, 4.431859e+003
1.067576e+003, 4.431087e+003
1.068059e+003, 4.428001e+003
1.068541e+003, 4.430089e+003
1.069023e+003, 4.436979e+003
1.069505e+003, 4.444781e+003
1.069987e+003, 4.452096e+003
1.070469e+003, 4.458722e+003
1.070951e+003, 4.464084e+003
1.071433e+003, 4.468682e+003
1.071916e+003, 4.473415e+003
1.072398e+003, 4.478337e+003
1.072880e+003, 4.482244e+003
1.073362e+003, 4.484729e+003
1.073844e+003, 4.487634e+003
1.074326e+003, 4.494443e+003
1.074808e+003, 4.501574e+003
1.075290e+003, 4.503857e+003
1.075772e+003, 4.500917e+003
1.076255e+003, 4.503245e+003
1.076737e+003, 4.514204e+003
1.077219e+003, 4.524014e+003
1.077701e+003, 4.529627e+003
1.078183e+003, 4.532057e+003
1.078665e+003, 4.530781e+003
1.079147e+003, 4.528224e+003
1.079629e+003, 4.530664e+003
1.080111e+003, 4.541937e+003
1.080594e+003, 4.551677e+003
1.081076e+003, 4.555016e+003
1.081558e+003, 4.556815e+003
1.082040e+003, 4.559453e+003
1.082522e+003, 4.562834e+003
1.083004e+003, 4.565891e+003
1.083486e+003, 4.568789e+003
1.083968e+003, 4.573117e+003
1.084450e+003, 4.581683e+003
1.084933e+003, 4.589819e+003
1.085415e+003, 4.594825e+003
1.085897e+003, 4.597289e+003
1.086379e+003, 4.598094e+003
1.086861e+003, 4.596252e+003
1.087343e+003, 4.597371e+003
1.087825e+003, 4.602071e+003
1.088307e+003, 4.607554e+003
1.088790e+003, 4.611823e+003
1.089272e+003, 4.615245e+003
1.089754e+003, 4.618308e+003
1.090236e+003, 4.621020e+003
1.090718e+003, 4.623063e+003
1.091200e+003, 4.623252e+003
1.091682e+003, 4.624821e+003
1.092164e+003, 4.628245e+003
1.092646e+003, 4.633384e+003
1.093129e+003, 4.641622e+003
1.093611e+003, 4.651079e+003
1.094093e+003, 4.657241e+003
1.094575e+003, 4.659297e+003
1.095057e+003, 4.659510e+003
1.095539e+003, 4.655760e+003
1.096021e+003, 4.653803e+003
1.096503e+003, 4.656492e+003
1.096986e+003, 4.662652e+003
1.097468e+003, 4.667896e+003
1.097950e+003, 4.672451e+003
1.098432e+003, 4.678158e+003
1.098914e+003, 4.686344e+003
1.099396e+003, 4.694015e+003
1.099878e+003, 4.699022e+003
1.100360e+003, 4.702442e+003
1.100843e+003, 4.705578e+003
1.101325e+003, 4.708774e+003
1.101807e+003, 4.708488e+003
1.102289e+003, 4.704189e+003
1.102771e+003, 4.702134e+003
1.103253e+003, 4.707185e+003
1.103735e+003, 4.715055e+003
1.104217e+003, 4.721080e+003
1.104699e+003, 4.726049e+003
1.105182e+003, 4.731636e+003
1.105664e+003, 4.740918e+003
1.106146e+003, 4.744688e+003
1.106628e+003, 4.740500e+003
1.107110e+003, 4.736737e+003
1.107592e+003, 4.742540e+003
1.108074e+003, 4.753514e+003
1.108556e+003, 4.760026e+003
1.109038e+003, 4.762834e+003
1.109521e+003, 4.768002e+003
1.110003e+003, 4.781857e+003
1.110485e+003, 4.792955e+003
1.110967e+003, 4.798573e+003
1.111449e+003, 4.800947e+003
1.111931e+003, 4.802960e+003
1.112413e+003, 4.804687e+003
1.112895e+003, 4.806607e+003
1.113377e+003, 4.808807e+003
1.113860e+003, 4.810585e+003
1.114342e+003, 4.810061e+003
1.114824e+003, 4.810585e+003
1.115306e+003, 4.814629e+003
1.115788e+003, 4.821010e+003
1.116270e+003, 4.826195e+003
1.116752e+003, 4.830231e+003
1.117234e+003, 4.832179e+003
1.117717e+003, 4.831037e+003
1.118199e+003, 4.830948e+003
1.118681e+003, 4.837369e+003
1.119163e+003, 4.845313e+003
1.119645e+003, 4.849615e+003
1.120127e+003, 4.849808e+003
1.120609e+003, 4.851606e+003
1.121091e+003, 4.855274e+003
1.121573e+003, 4.858533e+003
1.122056e+003, 4.860321e+003
1.122538e+003, 4.861313e+003
1.123020e+003, 4.861549e+003
1.123502e+003, 4.861934e+003
1.123984e+003, 4.864131e+003
1.124466e+003, 4.870432e+003
1.124948e+003, 4.873475e+003
1.125430e+003, 4.871550e+003
1.125913e+003, 4.870791e+003
1.126395e+003, 4.876556e+003
1.126877e+003, 4.885876e+003
1.127359e+003, 4.892538e+003
1.127841e+003, 4.897072e+003
1.128323e+003, 4.900750e+003
1.128805e+003, 4.903984e+003
1.129287e+003, 4.906377e+003
1.129770e+003, 4.907330e+003
1.130252e+003, 4.908299e+003
1.130734e+003, 4.910177e+003
1.131216e+003, 4.913212e+003
1.131698e+003, 4.919749e+003
1.132180e+003, 4.929175e+003
1.132662e+003, 4.936786e+003
1.133144e+003, 4.937468e+003
1.133626e+003, 4.938868e+003
1.134109e+003, 4.944951e+003
1.134591e+003, 4.952319e+003
1.135073e+003, 4.955073e+003
1.135555e+003, 4.953689e+003
1.136037e+003, 4.954708e+003
1.136519e+003, 4.958932e+003
1.137001e+003, 4.963878e+003
1.137483e+003, 4.969246e+003
1.137965e+003, 4.973474e+003
1.138448e+003, 4.975230e+003
1.138930e+003, 4.975214e+003
1.139412e+003, 4.974713e+003
1.139894e+003, 4.973688e+003
1.140376e+003, 4.974953e+003
1.140858e+003, 4.979513e+003
1.141340e+003, 4.984628e+003
1.141822e+003, 4.988094e+003
1.142304e+003, 4.990735e+003
1.142787e+003, 4.992436e+003
1.143269e+003, 4.993338e+003
1.143751e+003, 4.998637e+003
1.144233e+003, 5.009136e+003
1.144715e+003, 5.019144e+003
1.145197e+003, 5.026918e+003
1.145679e+003, 5.032226e+003
1.146161e+003, 5.031560e+003
1.146644e+003, 5.029548e+003
1.147126e+003, 5.033025e+003
1.147608e+003, 5.045437e+003
1.148090e+003, 5.053760e+003
1.148572e+003, 5.056838e+003
1.149054e+003, 5.058690e+003
1.149536e+003, 5.060921e+003
1.150018e+003, 5.063575e+003
1.150500e+003, 5.067284e+003
1.150983e+003, 5.071434e+003
1.151465e+003, 5.074763e+003
1.151947e+003, 5.076590e+003
1.152429e+003, 5.078460e+003
1.152911e+003, 5.080683e+003
1.153393e+003, 5.082700e+003
1.153875e+003, 5.083511e+003
1.154357e+003, 5.084074e+003
1.154840e+003, 5.087248e+003
1.155322e+003, 5.092480e+003
1.155804e+003, 5.097831e+003
1.156286e+003, 5.102875e+003
1.156768e+003, 5.107509e+003
1.157250e+003, 5.111576e+003
1.157732e+003, 5.115498e+003
1.158214e+003, 5.119755e+003
1.158697e+003, 5.124207e+003
1.159179e+003, 5.127963e+003
1.159661e+003, 5.131187e+003
1.160143e+003, 5.134905e+003
1.160625e+003, 5.139420e+003
1.161107e+003, 5.144851e+003
1.161589e+003, 5.152501e+003
1.162071e+003, 5.159734e+003
1.162553e+003, 5.162069e+003
1.163036e+003, 5.160477e+003
1.163518e+003, 5.162552e+003
1.164000e+003, 5.168635e+003
1.164482e+003, 5.174694e+003
1.164964e+003, 5.177057e+003
1.165446e+003, 5.180322e+003
1.165928e+003, 5.187888e+003
1.166410e+003, 5.197162e+003
1.166892e+003, 5.203205e+003
1.167375e+003, 5.206262e+003
1.167857e+003, 5.208746e+003
1.168339e+003, 5.211013e+003
1.168821e+003, 5.212554e+003
1.169303e+003, 5.208821e+003
1.169785e+003, 5.208217e+003
1.170267e+003, 5.219967e+003
1.170749e+003, 5.238494e+003
1.171231e+003, 5.247436e+003
1.171714e+003, 5.246866e+003
1.172196e+003, 5.248328e+003
1.172678e+003, 5.254296e+003
1.173160e+003, 5.261507e+003
1.173642e+003, 5.267941e+003
1.174124e+003, 5.273793e+003
1.174606e+003, 5.278272e+003
1.175088e+003, 5.282111e+003
1.175571e+003, 5.290782e+003
1.176053e+003, 5.304878e+003
1.176535e+003, 5.313231e+003
1.177017e+003, 5.311504e+003
1.177499e+003, 5.307618e+003
1.177981e+003, 5.307557e+003
1.178463e+003, 5.310252e+003
1.178945e+003, 5.315453e+003
1.179427e+003, 5.322984e+003
1.179910e+003, 5.329255e+003
1.180392e+003, 5.334188e+003
1.180874e+003, 5.338670e+003
1.181356e+003, 5.342594e+003
1.181838e+003, 5.347157e+003
1.182320e+003, 5.354930e+003
1.182802e+003, 5.363287e+003
1.183284e+003, 5.368855e+003
1.183767e+003, 5.370886e+003
1.184249e+003, 5.374386e+003
1.184731e+003, 5.379859e+003
1.185213e+003, 5.383502e+003
1.185695e+003, 5.381679e+003
1.186177e+003, 5.380065e+003
1.186659e+003, 5.387473e+003
1.187141e+003, 5.398471e+003
1.187624e+003, 5.405136e+003
1.188106e+003, 5.406014e+003
1.188588e+003, 5.403544e+003
1.189070e+003, 5.396562e+003
1.189552e+003, 5.393471e+003
1.190034e+003, 5.401353e+003
1.190516e+003, 5.413377e+003
1.190998e+003, 5.422534e+003
1.191480e+003, 5.429208e+003
1.191963e+003, 5.433907e+003
1.192445e+003, 5.435496e+003
1.192927e+003, 5.437870e+003
1.193409e+003, 5.440839e+003
1.193891e+003, 5.445153e+003
1.194373e+003, 5.452233e+003
1.194855e+003, 5.460154e+003
1.195337e+003, 5.465964e+003
1.195819e+003, 5.470669e+003
1.196302e+003, 5.476521e+003
1.196784e+003, 5.484040e+003
1.197266e+003, 5.492602e+003
1.197748e+003, 5.502747e+003
1.198230e+003, 5.511516e+003
1.198712e+003, 5.515020e+003
1.199194e+003, 5.516791e+003
1.199676e+003, 5.522996e+003
1.200158e+003, 5.531356e+003
1.200641e+003, 5.534963e+003
1.201123e+003, 5.529481e+003
1.201605e+003, 5.527346e+003
1.202087e+003, 5.529519e+003
1.202569e+003, 5.534103e+003
1.203051e+003, 5.540029e+003
1.203533e+003, 5.546863e+003
1.204015e+003, 5.555088e+003
1.204498e+003, 5.563787e+003
1.204980e+003, 5.569843e+003
1.205462e+003, 5.571231e+003
1.205944e+003, 5.573993e+003
1.206426e+003, 5.578802e+003
1.206908e+003, 5.584389e+003
1.207390e+003, 5.588133e+003
1.207872e+003, 5.592789e+003
1.208354e+003, 5.604393e+003
1.208837e+003, 5.620792e+003
1.209319e+003, 5.630702e+003
1.209801e+003, 5.629373e+003
1.210283e+003, 5.631732e+003
1.210765e+003, 5.640480e+003
1.211247e+003, 5.649584e+003
1.211729e+003, 5.651389e+003
1.212211e+003, 5.650865e+003
1.212694e+003, 5.655519e+003
1.213176e+003, 5.664330e+003
1.213658e+003, 5.668159e+003
1.214140e+003, 5.663460e+003
1.214622e+003, 5.663020e+003
1.215104e+003, 5.669364e+003
1.215586e+003, 5.677769e+003
1.216068e+003, 5.685830e+003
1.216551e+003, 5.691393e+003
1.217033e+003, 5.689155e+003
1.217515e+003, 5.680764e+003
1.217997e+003, 5.679988e+003
1.218479e+003, 5.689851e+003
1.218961e+003, 5.698958e+003
1.219443e+003, 5.705243e+003
1.219925e+003, 5.711086e+003
1.220407e+003, 5.719015e+003
1.220890e+003, 5.728017e+003
1.221372e+003, 5.738145e+003
1.221854e+003, 5.748535e+003
1.222336e+003, 5.753782e+003
1.222818e+003, 5.751438e+003
1.223300e+003, 5.753420e+003
1.223782e+003, 5.762699e+003
1.224264e+003, 5.773641e+003
1.224746e+003, 5.780648e+003
1.225229e+003, 5.785643e+003
1.225711e+003, 5.790955e+003
1.226193e+003, 5.796487e+003
1.226675e+003, 5.799219e+003
1.227157e+003, 5.797991e+003
1.227639e+003, 5.801150e+003
1.228121e+003, 5.811435e+003
1.228603e+003, 5.821948e+003
1.229085e+003, 5.824083e+003
1.229568e+003, 5.823791e+003
1.230050e+003, 5.826602e+003
1.230532e+003, 5.832669e+003
1.231014e+003, 5.839492e+003
1.231496e+003, 5.847536e+003
1.231978e+003, 5.851312e+003
1.232460e+003, 5.848463e+003
1.232942e+003, 5.846698e+003
1.233425e+003, 5.856048e+003
1.233907e+003, 5.867754e+003
1.234389e+003, 5.874212e+003
1.234871e+003, 5.875796e+003
1.235353e+003, 5.875500e+003
1.235835e+003, 5.873057e+003
1.236317e+003, 5.876819e+003
1.236799e+003, 5.890247e+003
1.237281e+003, 5.902301e+003
1.237764e+003, 5.899917e+003
1.238246e+003, 5.895695e+003
1.238728e+003, 5.901356e+003
1.239210e+003, 5.914110e+003
1.239692e+003, 5.921291e+003
1.240174e+003, 5.923051e+003
1.240656e+003, 5.926678e+003
1.241138e+003, 5.934229e+003
1.241621e+003, 5.941467e+003
1.242103e+003, 5.943640e+003
1.242585e+003, 5.945842e+003
1.243067e+003, 5.951592e+003
1.243549e+003, 5.959962e+003
1.244031e+003, 5.968034e+003
1.244513e+003, 5.975760e+003
1.244995e+003, 5.982438e+003
1.245478e+003, 5.987813e+003
1.245960e+003, 5.992885e+003
1.246442e+003, 5.997980e+003
1.246924e+003, 6.003280e+003
1.247406e+003, 6.008212e+003
1.247888e+003, 6.013732e+003
1.248370e+003, 6.024386e+003
1.248852e+003, 6.038331e+003
1.249334e+003, 6.047686e+003
1.249817e+003, 6.050316e+003
1.250299e+003, 6.050644e+003
1.250781e+003, 6.048997e+003
1.251263e+003, 6.047652e+003
1.251745e+003, 6.047406e+003
1.252227e+003, 6.048278e+003
1.252709e+003, 6.049786e+003
1.253191e+003, 6.052480e+003
1.253673e+003, 6.058879e+003
1.254156e+003, 6.070339e+003
1.254638e+003, 6.078612e+003
1.255120e+003, 6.076775e+003
1.255602e+003, 6.078061e+003
1.256084e+003, 6.087549e+003
1.256566e+003, 6.101497e+003
1.257048e+003, 6.114365e+003
1.257530e+003, 6.125410e+003
1.258012e+003, 6.132258e+003
1.258495e+003, 6.134020e+003
1.258977e+003, 6.136825e+003
1.259459e+003, 6.141518e+003
1.259941e+003, 6.147397e+003
1.260423e+003, 6.154710e+003
1.260905e+003, 6.161979e+003
1.261387e+003, 6.166396e+003
1.261869e+003, 6.169472e+003
1.262352e+003, 6.173862e+003
1.262834e+003, 6.180085e+003
1.263316e+003, 6.184255e+003
1.263798e+003, 6.185607e+003
1.264280e+003, 6.187281e+003
1.264762e+003, 6.190125e+003
1.265244e+003, 6.193972e+003
1.265726e+003, 6.199412e+003
1.266208e+003, 6.205266e+003
1.266691e+003, 6.209667e+003
1.267173e+003, 6.212645e+003
1.267655e+003, 6.218622e+003
1.268137e+003, 6.228154e+003
1.268619e+003, 6.236071e+003
1.269101e+003, 6.240692e+003
1.269583e+003, 6.244447e+003
1.270065e+003, 6.249946e+003
1.270548e+003, 6.255385e+003
1.271030e+003, 6.258496e+003
1.271512e+003, 6.260020e+003
1.271994e+003, 6.263403e+003
1.272476e+003, 6.268614e+003
1.272958e+003, 6.273403e+003
1.273440e+003, 6.277223e+003
1.273922e+003, 6.281276e+003
1.274405e+003, 6.288115e+003
1.274887e+003, 6.293755e+003
1.275369e+003, 6.295335e+003
1.275851e+003, 6.294513e+003
1.276333e+003, 6.294648e+003
1.276815e+003, 6.296286e+003
1.277297e+003, 6.303190e+003
1.277779e+003, 6.316318e+003
1.278261e+003, 6.329275e+003
1.278744e+003, 6.340406e+003
1.279226e+003, 6.347855e+003
1.279708e+003, 6.349792e+003
1.280190e+003, 6.349263e+003
1.280672e+003, 6.352574e+003
1.281154e+003, 6.358188e+003
1.281636e+003, 6.361697e+003
1.282118e+003, 6.362473e+003
1.282600e+003, 6.365579e+003
1.283083e+003, 6.374599e+003
1.283565e+003, 6.382369e+003
1.284047e+003, 6.387079e+003
1.284529e+003, 6.390542e+003
1.285011e+003, 6.395478e+003
1.285493e+003, 6.400890e+003
1.285975e+003, 6.405242e+003
1.286457e+003, 6.408460e+003
1.286939e+003, 6.411258e+003
1.287422e+003, 6.414244e+003
1.287904e+003, 6.414751e+003
1.288386e+003, 6.411259e+003
1.288868e+003, 6.410309e+003
1.289350e+003, 6.422496e+003
1.289832e+003, 6.438010e+003
1.290314e+003, 6.448128e+003
1.290796e+003, 6.452094e+003
1.291279e+003, 6.450235e+003
1.291761e+003, 6.441145e+003
1.292243e+003, 6.440239e+003
1.292725e+003, 6.449907e+003
1.293207e+003, 6.462615e+003
1.293689e+003, 6.475102e+003
1.294171e+003, 6.485605e+003
1.294653e+003, 6.493721e+003
1.295135e+003, 6.498340e+003
1.295618e+003, 6.495115e+003
1.296100e+003, 6.485153e+003
1.296582e+003, 6.478585e+003
1.297064e+003, 6.477102e+003
1.297546e+003, 6.481456e+003
1.298028e+003, 6.497801e+003
1.298510e+003, 6.509536e+003
1.298992e+003, 6.510712e+003
1.299475e+003, 6.507956e+003
1.299957e+003, 6.508578e+003
1.300439e+003, 6.512688e+003
1.300921e+003, 6.519321e+003
1.301403e+003, 6.528982e+003
1.301885e+003, 6.543331e+003
##END=



