##NAMES=Chukhrovite-(Nd)
##RRUFFID=R060601
##IDEAL CHEMISTRY=Ca_3_NdAl_2_S^6+^O_4_F_13_&#183;12H_2_O
##LOCALITY=Kara-Oba tungsten deposit, Betpakdala desert, Kazakhstan
##OWNER=RRUFF
##SOURCE=Michael Scott
##DESCRIPTION=Polished colorless fragment embedded in epoxy in a microprobe mount
##STATUS=The identification of this mineral has been confirmed only by single crystal X-ray diffraction.
##URL=rruff.info/R060601
8.975323e+001, 0.000000e+000
9.023535e+001, 1.877926e+002
9.071747e+001, 1.844934e+002
9.119958e+001, 1.825989e+002
9.168170e+001, 1.861452e+002
9.216382e+001, 1.899157e+002
9.264594e+001, 1.932015e+002
9.312805e+001, 1.963514e+002
9.361017e+001, 1.993825e+002
9.409229e+001, 2.012093e+002
9.457440e+001, 2.010165e+002
9.505651e+001, 2.010139e+002
9.553863e+001, 2.011755e+002
9.602074e+001, 2.016921e+002
9.650286e+001, 2.029097e+002
9.698498e+001, 2.048593e+002
9.746709e+001, 2.067813e+002
9.794921e+001, 2.078763e+002
9.843133e+001, 2.080774e+002
9.891344e+001, 2.079157e+002
9.939556e+001, 2.073125e+002
9.987768e+001, 2.063677e+002
1.003598e+002, 2.053975e+002
1.008419e+002, 2.045611e+002
1.013240e+002, 2.038375e+002
1.018061e+002, 2.031120e+002
1.022883e+002, 2.021637e+002
1.027704e+002, 2.013173e+002
1.032525e+002, 2.010752e+002
1.037346e+002, 2.016008e+002
1.042167e+002, 2.018252e+002
1.046988e+002, 2.007685e+002
1.051810e+002, 1.989210e+002
1.056631e+002, 1.969339e+002
1.061452e+002, 1.950556e+002
1.066273e+002, 1.932441e+002
1.071094e+002, 1.912823e+002
1.075915e+002, 1.887991e+002
1.080737e+002, 1.866330e+002
1.085558e+002, 1.851371e+002
1.090379e+002, 1.842050e+002
1.095200e+002, 1.835824e+002
1.100021e+002, 1.831053e+002
1.104842e+002, 1.828347e+002
1.109664e+002, 1.823931e+002
1.114485e+002, 1.814411e+002
1.119306e+002, 1.806010e+002
1.124127e+002, 1.802709e+002
1.128948e+002, 1.804519e+002
1.133769e+002, 1.807948e+002
1.138591e+002, 1.808105e+002
1.143412e+002, 1.804026e+002
1.148233e+002, 1.797481e+002
1.153054e+002, 1.784237e+002
1.157875e+002, 1.770456e+002
1.162696e+002, 1.763321e+002
1.167517e+002, 1.765670e+002
1.172339e+002, 1.772688e+002
1.177160e+002, 1.773063e+002
1.181981e+002, 1.766681e+002
1.186802e+002, 1.756268e+002
1.191623e+002, 1.738784e+002
1.196444e+002, 1.717194e+002
1.201266e+002, 1.699654e+002
1.206087e+002, 1.690349e+002
1.210908e+002, 1.687533e+002
1.215729e+002, 1.687059e+002
1.220550e+002, 1.692906e+002
1.225371e+002, 1.694341e+002
1.230193e+002, 1.676994e+002
1.235014e+002, 1.637827e+002
1.239835e+002, 1.605445e+002
1.244656e+002, 1.606066e+002
1.249477e+002, 1.616331e+002
1.254298e+002, 1.614394e+002
1.259120e+002, 1.589777e+002
1.263941e+002, 1.552618e+002
1.268762e+002, 1.526162e+002
1.273583e+002, 1.516133e+002
1.278404e+002, 1.507971e+002
1.283225e+002, 1.498139e+002
1.288047e+002, 1.486889e+002
1.292868e+002, 1.474457e+002
1.297689e+002, 1.460687e+002
1.302510e+002, 1.445786e+002
1.307331e+002, 1.432832e+002
1.312152e+002, 1.421339e+002
1.316974e+002, 1.412359e+002
1.321795e+002, 1.407069e+002
1.326616e+002, 1.404734e+002
1.331437e+002, 1.403883e+002
1.336258e+002, 1.403428e+002
1.341079e+002, 1.403641e+002
1.345901e+002, 1.402100e+002
1.350722e+002, 1.396896e+002
1.355543e+002, 1.391801e+002
1.360364e+002, 1.388610e+002
1.365185e+002, 1.387619e+002
1.370006e+002, 1.388746e+002
1.374828e+002, 1.392784e+002
1.379649e+002, 1.400950e+002
1.384470e+002, 1.404838e+002
1.389291e+002, 1.397893e+002
1.394112e+002, 1.388815e+002
1.398933e+002, 1.389190e+002
1.403755e+002, 1.402942e+002
1.408576e+002, 1.420732e+002
1.413397e+002, 1.429994e+002
1.418218e+002, 1.431576e+002
1.423039e+002, 1.433172e+002
1.427860e+002, 1.435865e+002
1.432681e+002, 1.440588e+002
1.437503e+002, 1.451795e+002
1.442324e+002, 1.475832e+002
1.447145e+002, 1.500475e+002
1.451966e+002, 1.515012e+002
1.456787e+002, 1.519298e+002
1.461608e+002, 1.519863e+002
1.466430e+002, 1.521734e+002
1.471251e+002, 1.525069e+002
1.476072e+002, 1.528165e+002
1.480893e+002, 1.528377e+002
1.485714e+002, 1.529819e+002
1.490535e+002, 1.536737e+002
1.495357e+002, 1.549565e+002
1.500178e+002, 1.562679e+002
1.504999e+002, 1.566721e+002
1.509820e+002, 1.555919e+002
1.514641e+002, 1.548487e+002
1.519462e+002, 1.547891e+002
1.524284e+002, 1.549675e+002
1.529105e+002, 1.551036e+002
1.533926e+002, 1.550808e+002
1.538747e+002, 1.548727e+002
1.543568e+002, 1.544084e+002
1.548389e+002, 1.535598e+002
1.553211e+002, 1.525633e+002
1.558032e+002, 1.511923e+002
1.562853e+002, 1.497498e+002
1.567674e+002, 1.485804e+002
1.572495e+002, 1.478518e+002
1.577316e+002, 1.475270e+002
1.582138e+002, 1.474935e+002
1.586959e+002, 1.476949e+002
1.591780e+002, 1.481892e+002
1.596601e+002, 1.495689e+002
1.601422e+002, 1.513074e+002
1.606243e+002, 1.520281e+002
1.611065e+002, 1.506186e+002
1.615886e+002, 1.477677e+002
1.620707e+002, 1.466004e+002
1.625528e+002, 1.484081e+002
1.630349e+002, 1.505083e+002
1.635170e+002, 1.512888e+002
1.639991e+002, 1.508685e+002
1.644813e+002, 1.503740e+002
1.649634e+002, 1.503932e+002
1.654455e+002, 1.508696e+002
1.659276e+002, 1.516041e+002
1.664097e+002, 1.526993e+002
1.668918e+002, 1.539536e+002
1.673740e+002, 1.551569e+002
1.678561e+002, 1.563042e+002
1.683382e+002, 1.574135e+002
1.688203e+002, 1.584019e+002
1.693024e+002, 1.593722e+002
1.697845e+002, 1.604734e+002
1.702667e+002, 1.617873e+002
1.707488e+002, 1.632453e+002
1.712309e+002, 1.646714e+002
1.717130e+002, 1.659725e+002
1.721951e+002, 1.674284e+002
1.726772e+002, 1.692436e+002
1.731594e+002, 1.712455e+002
1.736415e+002, 1.732246e+002
1.741236e+002, 1.750975e+002
1.746057e+002, 1.768381e+002
1.750878e+002, 1.782288e+002
1.755699e+002, 1.787533e+002
1.760521e+002, 1.795078e+002
1.765342e+002, 1.808756e+002
1.770163e+002, 1.826700e+002
1.774984e+002, 1.845174e+002
1.779805e+002, 1.861335e+002
1.784626e+002, 1.875182e+002
1.789448e+002, 1.892022e+002
1.794269e+002, 1.920394e+002
1.799090e+002, 1.943458e+002
1.803911e+002, 1.954489e+002
1.808732e+002, 1.955491e+002
1.813553e+002, 1.951403e+002
1.818375e+002, 1.945106e+002
1.823196e+002, 1.935099e+002
1.828017e+002, 1.939783e+002
1.832838e+002, 1.968375e+002
1.837659e+002, 1.999826e+002
1.842480e+002, 2.023778e+002
1.847301e+002, 2.040272e+002
1.852123e+002, 2.055452e+002
1.856944e+002, 2.074870e+002
1.861765e+002, 2.099285e+002
1.866586e+002, 2.122580e+002
1.871407e+002, 2.147042e+002
1.876228e+002, 2.168725e+002
1.881050e+002, 2.182701e+002
1.885871e+002, 2.188758e+002
1.890692e+002, 2.194089e+002
1.895513e+002, 2.204539e+002
1.900334e+002, 2.220391e+002
1.905155e+002, 2.242382e+002
1.909977e+002, 2.276719e+002
1.914798e+002, 2.314383e+002
1.919619e+002, 2.344429e+002
1.924440e+002, 2.364632e+002
1.929261e+002, 2.382752e+002
1.934082e+002, 2.405868e+002
1.938904e+002, 2.432853e+002
1.943725e+002, 2.461308e+002
1.948546e+002, 2.487168e+002
1.953367e+002, 2.514626e+002
1.958188e+002, 2.553923e+002
1.963009e+002, 2.610483e+002
1.967831e+002, 2.668925e+002
1.972652e+002, 2.718401e+002
1.977473e+002, 2.761144e+002
1.982294e+002, 2.801060e+002
1.987115e+002, 2.838420e+002
1.991936e+002, 2.874373e+002
1.996758e+002, 2.913864e+002
2.001579e+002, 2.960139e+002
2.006400e+002, 3.005825e+002
2.011221e+002, 3.044272e+002
2.016042e+002, 3.078569e+002
2.020863e+002, 3.115960e+002
2.025685e+002, 3.162614e+002
2.030506e+002, 3.217999e+002
2.035327e+002, 3.271887e+002
2.040148e+002, 3.324514e+002
2.044969e+002, 3.374771e+002
2.049790e+002, 3.422245e+002
2.054612e+002, 3.466833e+002
2.059433e+002, 3.508421e+002
2.064254e+002, 3.545088e+002
2.069075e+002, 3.576191e+002
2.073896e+002, 3.614859e+002
2.078717e+002, 3.669028e+002
2.083539e+002, 3.724025e+002
2.088360e+002, 3.779122e+002
2.093181e+002, 3.831588e+002
2.098002e+002, 3.875510e+002
2.102823e+002, 3.902921e+002
2.107644e+002, 3.909511e+002
2.112466e+002, 3.937282e+002
2.117287e+002, 4.007263e+002
2.122108e+002, 4.076609e+002
2.126929e+002, 4.127269e+002
2.131750e+002, 4.161280e+002
2.136571e+002, 4.192366e+002
2.141393e+002, 4.233739e+002
2.146214e+002, 4.288558e+002
2.151035e+002, 4.330881e+002
2.155856e+002, 4.350456e+002
2.160677e+002, 4.369705e+002
2.165498e+002, 4.397741e+002
2.170320e+002, 4.435511e+002
2.175141e+002, 4.482130e+002
2.179962e+002, 4.538456e+002
2.184783e+002, 4.606466e+002
2.189604e+002, 4.663031e+002
2.194425e+002, 4.699778e+002
2.199247e+002, 4.733593e+002
2.204068e+002, 4.774704e+002
2.208889e+002, 4.823336e+002
2.213710e+002, 4.873333e+002
2.218531e+002, 4.918241e+002
2.223352e+002, 4.957980e+002
2.228174e+002, 5.007568e+002
2.232995e+002, 5.079250e+002
2.237816e+002, 5.151802e+002
2.242637e+002, 5.205339e+002
2.247458e+002, 5.239900e+002
2.252279e+002, 5.275470e+002
2.257100e+002, 5.329567e+002
2.261922e+002, 5.400221e+002
2.266743e+002, 5.467686e+002
2.271564e+002, 5.526490e+002
2.276385e+002, 5.584206e+002
2.281206e+002, 5.649661e+002
2.286027e+002, 5.723517e+002
2.290849e+002, 5.793441e+002
2.295670e+002, 5.848256e+002
2.300491e+002, 5.891511e+002
2.305312e+002, 5.933610e+002
2.310133e+002, 5.976333e+002
2.314954e+002, 6.018363e+002
2.319776e+002, 6.056600e+002
2.324597e+002, 6.090073e+002
2.329418e+002, 6.126595e+002
2.334239e+002, 6.176207e+002
2.339060e+002, 6.231429e+002
2.343881e+002, 6.280282e+002
2.348703e+002, 6.314861e+002
2.353524e+002, 6.345920e+002
2.358345e+002, 6.392029e+002
2.363166e+002, 6.458892e+002
2.367987e+002, 6.517997e+002
2.372808e+002, 6.547408e+002
2.377630e+002, 6.563231e+002
2.382451e+002, 6.582125e+002
2.387272e+002, 6.609325e+002
2.392093e+002, 6.641592e+002
2.396914e+002, 6.674941e+002
2.401735e+002, 6.711105e+002
2.406557e+002, 6.743082e+002
2.411378e+002, 6.761522e+002
2.416199e+002, 6.777439e+002
2.421020e+002, 6.803013e+002
2.425841e+002, 6.844122e+002
2.430662e+002, 6.890803e+002
2.435484e+002, 6.926805e+002
2.440305e+002, 6.951318e+002
2.445126e+002, 6.966552e+002
2.449947e+002, 6.958837e+002
2.454768e+002, 6.950052e+002
2.459589e+002, 6.963096e+002
2.464410e+002, 7.006804e+002
2.469232e+002, 7.061588e+002
2.474053e+002, 7.091941e+002
2.478874e+002, 7.084326e+002
2.483695e+002, 7.084164e+002
2.488516e+002, 7.107689e+002
2.493337e+002, 7.135939e+002
2.498159e+002, 7.153472e+002
2.502980e+002, 7.155767e+002
2.507801e+002, 7.151017e+002
2.512622e+002, 7.154219e+002
2.517443e+002, 7.173129e+002
2.522264e+002, 7.181851e+002
2.527086e+002, 7.170640e+002
2.531907e+002, 7.154989e+002
2.536728e+002, 7.146387e+002
2.541549e+002, 7.147482e+002
2.546370e+002, 7.152138e+002
2.551191e+002, 7.151029e+002
2.556013e+002, 7.141942e+002
2.560834e+002, 7.131450e+002
2.565655e+002, 7.114601e+002
2.570476e+002, 7.100259e+002
2.575297e+002, 7.093581e+002
2.580118e+002, 7.095803e+002
2.584940e+002, 7.105618e+002
2.589761e+002, 7.122927e+002
2.594582e+002, 7.155378e+002
2.599403e+002, 7.175289e+002
2.604224e+002, 7.178145e+002
2.609045e+002, 7.175033e+002
2.613867e+002, 7.167683e+002
2.618688e+002, 7.159115e+002
2.623509e+002, 7.157855e+002
2.628330e+002, 7.176333e+002
2.633151e+002, 7.226376e+002
2.637972e+002, 7.251656e+002
2.642794e+002, 7.230508e+002
2.647615e+002, 7.207740e+002
2.652436e+002, 7.210099e+002
2.657257e+002, 7.236630e+002
2.662078e+002, 7.268531e+002
2.666899e+002, 7.287169e+002
2.671721e+002, 7.289443e+002
2.676542e+002, 7.297790e+002
2.681363e+002, 7.311937e+002
2.686184e+002, 7.330892e+002
2.691005e+002, 7.353104e+002
2.695826e+002, 7.379335e+002
2.700648e+002, 7.414115e+002
2.705469e+002, 7.464131e+002
2.710290e+002, 7.530394e+002
2.715111e+002, 7.569147e+002
2.719932e+002, 7.568053e+002
2.724753e+002, 7.558069e+002
2.729575e+002, 7.542538e+002
2.734396e+002, 7.527607e+002
2.739217e+002, 7.527858e+002
2.744038e+002, 7.555854e+002
2.748859e+002, 7.608193e+002
2.753680e+002, 7.641589e+002
2.758501e+002, 7.653900e+002
2.763322e+002, 7.655128e+002
2.768144e+002, 7.640673e+002
2.772965e+002, 7.617490e+002
2.777786e+002, 7.601451e+002
2.782607e+002, 7.602550e+002
2.787428e+002, 7.615289e+002
2.792249e+002, 7.615491e+002
2.797071e+002, 7.591537e+002
2.801892e+002, 7.571379e+002
2.806713e+002, 7.568558e+002
2.811534e+002, 7.573470e+002
2.816355e+002, 7.568896e+002
2.821176e+002, 7.547184e+002
2.825998e+002, 7.512783e+002
2.830819e+002, 7.475626e+002
2.835640e+002, 7.427472e+002
2.840461e+002, 7.391514e+002
2.845282e+002, 7.394135e+002
2.850103e+002, 7.406254e+002
2.854925e+002, 7.377511e+002
2.859746e+002, 7.287623e+002
2.864567e+002, 7.175780e+002
2.869388e+002, 7.112084e+002
2.874209e+002, 7.115180e+002
2.879030e+002, 7.099242e+002
2.883852e+002, 7.036500e+002
2.888673e+002, 6.953737e+002
2.893494e+002, 6.884561e+002
2.898315e+002, 6.836870e+002
2.903136e+002, 6.795536e+002
2.907957e+002, 6.742244e+002
2.912779e+002, 6.676035e+002
2.917600e+002, 6.604999e+002
2.922421e+002, 6.521786e+002
2.927242e+002, 6.438599e+002
2.932063e+002, 6.371163e+002
2.936884e+002, 6.320831e+002
2.941706e+002, 6.270209e+002
2.946527e+002, 6.202491e+002
2.951348e+002, 6.116927e+002
2.956169e+002, 6.033029e+002
2.960990e+002, 5.946046e+002
2.965811e+002, 5.864869e+002
2.970633e+002, 5.803732e+002
2.975454e+002, 5.760645e+002
2.980275e+002, 5.708307e+002
2.985096e+002, 5.623220e+002
2.989917e+002, 5.511411e+002
2.994738e+002, 5.416578e+002
2.999560e+002, 5.346847e+002
3.004381e+002, 5.286898e+002
3.009202e+002, 5.232538e+002
3.014023e+002, 5.181806e+002
3.018844e+002, 5.124686e+002
3.023665e+002, 5.053311e+002
3.028487e+002, 4.973405e+002
3.033308e+002, 4.901855e+002
3.038129e+002, 4.839512e+002
3.042950e+002, 4.782284e+002
3.047771e+002, 4.730907e+002
3.052592e+002, 4.683400e+002
3.057414e+002, 4.634230e+002
3.062235e+002, 4.580748e+002
3.067056e+002, 4.525827e+002
3.071877e+002, 4.475040e+002
3.076698e+002, 4.427653e+002
3.081519e+002, 4.384748e+002
3.086341e+002, 4.352458e+002
3.091162e+002, 4.323814e+002
3.095983e+002, 4.286317e+002
3.100804e+002, 4.236117e+002
3.105625e+002, 4.180157e+002
3.110446e+002, 4.125183e+002
3.115268e+002, 4.070179e+002
3.120089e+002, 4.025018e+002
3.124910e+002, 3.996972e+002
3.129731e+002, 3.977382e+002
3.134552e+002, 3.958313e+002
3.139373e+002, 3.938952e+002
3.144195e+002, 3.914165e+002
3.149016e+002, 3.876576e+002
3.153837e+002, 3.826926e+002
3.158658e+002, 3.781209e+002
3.163479e+002, 3.737191e+002
3.168300e+002, 3.700042e+002
3.173121e+002, 3.679537e+002
3.177943e+002, 3.674114e+002
3.182764e+002, 3.663588e+002
3.187585e+002, 3.631190e+002
3.192406e+002, 3.582871e+002
3.197227e+002, 3.548279e+002
3.202048e+002, 3.541873e+002
3.206870e+002, 3.534255e+002
3.211691e+002, 3.503270e+002
3.216512e+002, 3.456147e+002
3.221333e+002, 3.419617e+002
3.226154e+002, 3.409681e+002
3.230975e+002, 3.413961e+002
3.235797e+002, 3.399992e+002
3.240618e+002, 3.359055e+002
3.245439e+002, 3.322187e+002
3.250260e+002, 3.302892e+002
3.255081e+002, 3.294695e+002
3.259902e+002, 3.284413e+002
3.264724e+002, 3.267147e+002
3.269545e+002, 3.249595e+002
3.274366e+002, 3.243643e+002
3.279187e+002, 3.250967e+002
3.284008e+002, 3.257021e+002
3.288829e+002, 3.265204e+002
3.293651e+002, 3.267925e+002
3.298472e+002, 3.250872e+002
3.303293e+002, 3.211552e+002
3.308114e+002, 3.172124e+002
3.312935e+002, 3.155162e+002
3.317756e+002, 3.162978e+002
3.322578e+002, 3.170854e+002
3.327399e+002, 3.184004e+002
3.332220e+002, 3.192418e+002
3.337041e+002, 3.185027e+002
3.341862e+002, 3.163630e+002
3.346683e+002, 3.143149e+002
3.351505e+002, 3.135097e+002
3.356326e+002, 3.136958e+002
3.361147e+002, 3.130094e+002
3.365968e+002, 3.105809e+002
3.370789e+002, 3.082950e+002
3.375610e+002, 3.067530e+002
3.380432e+002, 3.059459e+002
3.385253e+002, 3.060018e+002
3.390074e+002, 3.071232e+002
3.394895e+002, 3.088056e+002
3.399716e+002, 3.096476e+002
3.404537e+002, 3.093443e+002
3.409359e+002, 3.089158e+002
3.414180e+002, 3.082928e+002
3.419001e+002, 3.077424e+002
3.423822e+002, 3.077396e+002
3.428643e+002, 3.084210e+002
3.433464e+002, 3.092683e+002
3.438286e+002, 3.095242e+002
3.443107e+002, 3.088417e+002
3.447928e+002, 3.085754e+002
3.452749e+002, 3.089586e+002
3.457570e+002, 3.096045e+002
3.462391e+002, 3.103040e+002
3.467213e+002, 3.109972e+002
3.472034e+002, 3.116455e+002
3.476855e+002, 3.122538e+002
3.481676e+002, 3.128360e+002
3.486497e+002, 3.128629e+002
3.491318e+002, 3.119380e+002
3.496140e+002, 3.109617e+002
3.500961e+002, 3.102514e+002
3.505782e+002, 3.097971e+002
3.510603e+002, 3.095062e+002
3.515424e+002, 3.093284e+002
3.520245e+002, 3.092720e+002
3.525067e+002, 3.093813e+002
3.529888e+002, 3.100182e+002
3.534709e+002, 3.103716e+002
3.539530e+002, 3.099318e+002
3.544351e+002, 3.093168e+002
3.549172e+002, 3.095409e+002
3.553994e+002, 3.109086e+002
3.558815e+002, 3.123459e+002
3.563636e+002, 3.118589e+002
3.568457e+002, 3.072634e+002
3.573278e+002, 3.053123e+002
3.578099e+002, 3.079627e+002
3.582920e+002, 3.115282e+002
3.587741e+002, 3.138536e+002
3.592563e+002, 3.145758e+002
3.597384e+002, 3.140605e+002
3.602205e+002, 3.124269e+002
3.607026e+002, 3.093936e+002
3.611847e+002, 3.080275e+002
3.616668e+002, 3.094326e+002
3.621490e+002, 3.112346e+002
3.626311e+002, 3.132468e+002
3.631132e+002, 3.150359e+002
3.635953e+002, 3.158118e+002
3.640774e+002, 3.150126e+002
3.645595e+002, 3.131015e+002
3.650417e+002, 3.120816e+002
3.655238e+002, 3.129034e+002
3.660059e+002, 3.133420e+002
3.664880e+002, 3.123736e+002
3.669701e+002, 3.112980e+002
3.674522e+002, 3.116692e+002
3.679344e+002, 3.138969e+002
3.684165e+002, 3.167232e+002
3.688986e+002, 3.181600e+002
3.693807e+002, 3.176986e+002
3.698628e+002, 3.171883e+002
3.703449e+002, 3.164277e+002
3.708271e+002, 3.158567e+002
3.713092e+002, 3.158439e+002
3.717913e+002, 3.162970e+002
3.722734e+002, 3.167368e+002
3.727555e+002, 3.165789e+002
3.732376e+002, 3.158673e+002
3.737198e+002, 3.161613e+002
3.742019e+002, 3.187444e+002
3.746840e+002, 3.207580e+002
3.751661e+002, 3.208352e+002
3.756482e+002, 3.198638e+002
3.761303e+002, 3.190906e+002
3.766125e+002, 3.189900e+002
3.770946e+002, 3.197320e+002
3.775767e+002, 3.223264e+002
3.780588e+002, 3.282947e+002
3.785409e+002, 3.317327e+002
3.790230e+002, 3.284406e+002
3.795052e+002, 3.235798e+002
3.799873e+002, 3.212442e+002
3.804694e+002, 3.222305e+002
3.809515e+002, 3.240688e+002
3.814336e+002, 3.240771e+002
3.819157e+002, 3.223064e+002
3.823979e+002, 3.214315e+002
3.828800e+002, 3.220573e+002
3.833621e+002, 3.234139e+002
3.838442e+002, 3.252893e+002
3.843263e+002, 3.274518e+002
3.848084e+002, 3.291506e+002
3.852906e+002, 3.298787e+002
3.857727e+002, 3.298648e+002
3.862548e+002, 3.294952e+002
3.867369e+002, 3.286269e+002
3.872190e+002, 3.279234e+002
3.877011e+002, 3.278530e+002
3.881833e+002, 3.281677e+002
3.886654e+002, 3.285589e+002
3.891475e+002, 3.289942e+002
3.896296e+002, 3.294518e+002
3.901117e+002, 3.299176e+002
3.905938e+002, 3.303936e+002
3.910760e+002, 3.309109e+002
3.915581e+002, 3.316067e+002
3.920402e+002, 3.321831e+002
3.925223e+002, 3.321548e+002
3.930044e+002, 3.314821e+002
3.934865e+002, 3.308947e+002
3.939687e+002, 3.308486e+002
3.944508e+002, 3.310114e+002
3.949329e+002, 3.307534e+002
3.954150e+002, 3.299376e+002
3.958971e+002, 3.291956e+002
3.963792e+002, 3.291545e+002
3.968614e+002, 3.297580e+002
3.973435e+002, 3.301557e+002
3.978256e+002, 3.304454e+002
3.983077e+002, 3.304023e+002
3.987898e+002, 3.296526e+002
3.992719e+002, 3.283888e+002
3.997540e+002, 3.273737e+002
4.002361e+002, 3.270944e+002
4.007183e+002, 3.271353e+002
4.012004e+002, 3.261412e+002
4.016825e+002, 3.226339e+002
4.021646e+002, 3.208036e+002
4.026467e+002, 3.230792e+002
4.031288e+002, 3.266310e+002
4.036110e+002, 3.282310e+002
4.040931e+002, 3.271468e+002
4.045752e+002, 3.245761e+002
4.050573e+002, 3.216874e+002
4.055394e+002, 3.181924e+002
4.060215e+002, 3.161155e+002
4.065037e+002, 3.168339e+002
4.069858e+002, 3.174799e+002
4.074679e+002, 3.163093e+002
4.079500e+002, 3.138723e+002
4.084321e+002, 3.117878e+002
4.089142e+002, 3.110724e+002
4.093964e+002, 3.114430e+002
4.098785e+002, 3.115910e+002
4.103606e+002, 3.119249e+002
4.108427e+002, 3.114246e+002
4.113248e+002, 3.092016e+002
4.118069e+002, 3.065624e+002
4.122891e+002, 3.047855e+002
4.127712e+002, 3.041783e+002
4.132533e+002, 3.040984e+002
4.137354e+002, 3.038426e+002
4.142175e+002, 3.035764e+002
4.146996e+002, 3.024426e+002
4.151818e+002, 2.988161e+002
4.156639e+002, 2.958339e+002
4.161460e+002, 2.953965e+002
4.166281e+002, 2.966334e+002
4.171102e+002, 2.973043e+002
4.175923e+002, 2.958094e+002
4.180745e+002, 2.928632e+002
4.185566e+002, 2.909595e+002
4.190387e+002, 2.906145e+002
4.195208e+002, 2.901984e+002
4.200029e+002, 2.891577e+002
4.204850e+002, 2.878584e+002
4.209672e+002, 2.866045e+002
4.214493e+002, 2.854684e+002
4.219314e+002, 2.844028e+002
4.224135e+002, 2.833745e+002
4.228956e+002, 2.823842e+002
4.233777e+002, 2.813699e+002
4.238599e+002, 2.801675e+002
4.243420e+002, 2.791725e+002
4.248241e+002, 2.790482e+002
4.253062e+002, 2.794567e+002
4.257883e+002, 2.791313e+002
4.262704e+002, 2.767451e+002
4.267526e+002, 2.736805e+002
4.272347e+002, 2.722140e+002
4.277168e+002, 2.724431e+002
4.281989e+002, 2.726004e+002
4.286810e+002, 2.717890e+002
4.291631e+002, 2.702664e+002
4.296453e+002, 2.685987e+002
4.301274e+002, 2.663737e+002
4.306095e+002, 2.649402e+002
4.310916e+002, 2.657576e+002
4.315737e+002, 2.677226e+002
4.320558e+002, 2.685374e+002
4.325380e+002, 2.675603e+002
4.330201e+002, 2.658557e+002
4.335022e+002, 2.645589e+002
4.339843e+002, 2.637233e+002
4.344664e+002, 2.630074e+002
4.349485e+002, 2.624474e+002
4.354307e+002, 2.619613e+002
4.359128e+002, 2.614784e+002
4.363949e+002, 2.610198e+002
4.368770e+002, 2.606858e+002
4.373591e+002, 2.605529e+002
4.378412e+002, 2.605522e+002
4.383234e+002, 2.604228e+002
4.388055e+002, 2.603665e+002
4.392876e+002, 2.599122e+002
4.397697e+002, 2.587639e+002
4.402518e+002, 2.573571e+002
4.407339e+002, 2.559481e+002
4.412160e+002, 2.546717e+002
4.416982e+002, 2.537751e+002
4.421803e+002, 2.536455e+002
4.426624e+002, 2.544555e+002
4.431445e+002, 2.547709e+002
4.436266e+002, 2.542684e+002
4.441087e+002, 2.535972e+002
4.445909e+002, 2.530019e+002
4.450730e+002, 2.523620e+002
4.455551e+002, 2.512695e+002
4.460372e+002, 2.494257e+002
4.465193e+002, 2.475252e+002
4.470014e+002, 2.475225e+002
4.474836e+002, 2.506242e+002
4.479657e+002, 2.520074e+002
4.484478e+002, 2.485299e+002
4.489299e+002, 2.447029e+002
4.494120e+002, 2.437632e+002
4.498941e+002, 2.456589e+002
4.503763e+002, 2.475504e+002
4.508584e+002, 2.468444e+002
4.513405e+002, 2.442506e+002
4.518226e+002, 2.429603e+002
4.523047e+002, 2.435414e+002
4.527868e+002, 2.441570e+002
4.532690e+002, 2.436131e+002
4.537511e+002, 2.424437e+002
4.542332e+002, 2.413275e+002
4.547153e+002, 2.403470e+002
4.551974e+002, 2.395694e+002
4.556795e+002, 2.391413e+002
4.561617e+002, 2.389892e+002
4.566438e+002, 2.387940e+002
4.571259e+002, 2.384758e+002
4.576080e+002, 2.380626e+002
4.580901e+002, 2.375553e+002
4.585722e+002, 2.369557e+002
4.590544e+002, 2.363908e+002
4.595365e+002, 2.358174e+002
4.600186e+002, 2.353401e+002
4.605007e+002, 2.351656e+002
4.609828e+002, 2.352251e+002
4.614649e+002, 2.351436e+002
4.619471e+002, 2.346869e+002
4.624292e+002, 2.339174e+002
4.629113e+002, 2.330722e+002
4.633934e+002, 2.315540e+002
4.638755e+002, 2.307394e+002
4.643576e+002, 2.316581e+002
4.648398e+002, 2.328745e+002
4.653219e+002, 2.326390e+002
4.658040e+002, 2.307614e+002
4.662861e+002, 2.286948e+002
4.667682e+002, 2.280778e+002
4.672503e+002, 2.290846e+002
4.677325e+002, 2.298132e+002
4.682146e+002, 2.304869e+002
4.686967e+002, 2.306226e+002
4.691788e+002, 2.296598e+002
4.696609e+002, 2.281823e+002
4.701430e+002, 2.269697e+002
4.706252e+002, 2.263541e+002
4.711073e+002, 2.262756e+002
4.715894e+002, 2.269010e+002
4.720715e+002, 2.286156e+002
4.725536e+002, 2.293289e+002
4.730357e+002, 2.277643e+002
4.735179e+002, 2.259224e+002
4.740000e+002, 2.250750e+002
4.744821e+002, 2.250295e+002
4.749642e+002, 2.247065e+002
4.754463e+002, 2.232287e+002
4.759284e+002, 2.211331e+002
4.764106e+002, 2.193866e+002
4.768927e+002, 2.179087e+002
4.773748e+002, 2.174043e+002
4.778569e+002, 2.190754e+002
4.783390e+002, 2.214570e+002
4.788211e+002, 2.221161e+002
4.793033e+002, 2.205010e+002
4.797854e+002, 2.188411e+002
4.802675e+002, 2.183120e+002
4.807496e+002, 2.184739e+002
4.812317e+002, 2.185020e+002
4.817138e+002, 2.182427e+002
4.821959e+002, 2.181184e+002
4.826780e+002, 2.187160e+002
4.831602e+002, 2.199720e+002
4.836423e+002, 2.200462e+002
4.841244e+002, 2.174583e+002
4.846065e+002, 2.153680e+002
4.850886e+002, 2.157141e+002
4.855707e+002, 2.172883e+002
4.860529e+002, 2.178070e+002
4.865350e+002, 2.164285e+002
4.870171e+002, 2.142878e+002
4.874992e+002, 2.132699e+002
4.879813e+002, 2.138191e+002
4.884634e+002, 2.142940e+002
4.889456e+002, 2.148164e+002
4.894277e+002, 2.151642e+002
4.899098e+002, 2.150186e+002
4.903919e+002, 2.146167e+002
4.908740e+002, 2.146288e+002
4.913561e+002, 2.156051e+002
4.918383e+002, 2.168387e+002
4.923204e+002, 2.160741e+002
4.928025e+002, 2.122260e+002
4.932846e+002, 2.093928e+002
4.937667e+002, 2.088488e+002
4.942488e+002, 2.093341e+002
4.947310e+002, 2.106005e+002
4.952131e+002, 2.123881e+002
4.956952e+002, 2.135173e+002
4.961773e+002, 2.124990e+002
4.966594e+002, 2.102499e+002
4.971415e+002, 2.095012e+002
4.976237e+002, 2.106431e+002
4.981058e+002, 2.116728e+002
4.985879e+002, 2.112763e+002
4.990700e+002, 2.101448e+002
4.995521e+002, 2.096949e+002
5.000342e+002, 2.103546e+002
5.005164e+002, 2.108158e+002
5.009985e+002, 2.103553e+002
5.014806e+002, 2.092807e+002
5.019627e+002, 2.079563e+002
5.024448e+002, 2.064504e+002
5.029269e+002, 2.052409e+002
5.034091e+002, 2.048133e+002
5.038912e+002, 2.052002e+002
5.043733e+002, 2.057050e+002
5.048554e+002, 2.068362e+002
5.053375e+002, 2.075094e+002
5.058196e+002, 2.068309e+002
5.063018e+002, 2.055993e+002
5.067839e+002, 2.051623e+002
5.072660e+002, 2.059725e+002
5.077481e+002, 2.071754e+002
5.082302e+002, 2.074175e+002
5.087123e+002, 2.063867e+002
5.091945e+002, 2.055236e+002
5.096766e+002, 2.045612e+002
5.101587e+002, 2.040385e+002
5.106408e+002, 2.046186e+002
5.111229e+002, 2.057305e+002
5.116050e+002, 2.062267e+002
5.120872e+002, 2.054205e+002
5.125693e+002, 2.041127e+002
5.130514e+002, 2.038731e+002
5.135335e+002, 2.048819e+002
5.140156e+002, 2.055565e+002
5.144977e+002, 2.053647e+002
5.149799e+002, 2.049126e+002
5.154620e+002, 2.048390e+002
5.159441e+002, 2.050460e+002
5.164262e+002, 2.048574e+002
5.169083e+002, 2.032565e+002
5.173904e+002, 2.015238e+002
5.178726e+002, 2.016072e+002
5.183547e+002, 2.033887e+002
5.188368e+002, 2.050004e+002
5.193189e+002, 2.056047e+002
5.198010e+002, 2.054632e+002
5.202831e+002, 2.050376e+002
5.207653e+002, 2.041474e+002
5.212474e+002, 2.035440e+002
5.217295e+002, 2.036657e+002
5.222116e+002, 2.039077e+002
5.226937e+002, 2.036251e+002
5.231758e+002, 2.028854e+002
5.236580e+002, 2.022574e+002
5.241401e+002, 2.021417e+002
5.246222e+002, 2.024915e+002
5.251043e+002, 2.031014e+002
5.255864e+002, 2.044204e+002
5.260685e+002, 2.053380e+002
5.265507e+002, 2.057565e+002
5.270328e+002, 2.057697e+002
5.275149e+002, 2.052389e+002
5.279970e+002, 2.042862e+002
5.284791e+002, 2.034578e+002
5.289612e+002, 2.032419e+002
5.294434e+002, 2.035684e+002
5.299255e+002, 2.040593e+002
5.304076e+002, 2.048260e+002
5.308897e+002, 2.054964e+002
5.313718e+002, 2.060759e+002
5.318539e+002, 2.063945e+002
5.323361e+002, 2.060540e+002
5.328182e+002, 2.048555e+002
5.333003e+002, 2.039921e+002
5.337824e+002, 2.044603e+002
5.342645e+002, 2.057747e+002
5.347466e+002, 2.070995e+002
5.352288e+002, 2.083757e+002
5.357109e+002, 2.090057e+002
5.361930e+002, 2.083442e+002
5.366751e+002, 2.066108e+002
5.371572e+002, 2.053035e+002
5.376393e+002, 2.042927e+002
5.381215e+002, 2.038124e+002
5.386036e+002, 2.039067e+002
5.390857e+002, 2.045748e+002
5.395678e+002, 2.061982e+002
5.400499e+002, 2.086739e+002
5.405320e+002, 2.108437e+002
5.410142e+002, 2.113726e+002
5.414963e+002, 2.101961e+002
5.419784e+002, 2.095685e+002
5.424604e+002, 2.096258e+002
5.429426e+002, 2.101270e+002
5.434247e+002, 2.114328e+002
5.439068e+002, 2.129584e+002
5.443889e+002, 2.140782e+002
5.448710e+002, 2.146239e+002
5.453531e+002, 2.148145e+002
5.458353e+002, 2.145991e+002
5.463174e+002, 2.140697e+002
5.467995e+002, 2.144630e+002
5.472816e+002, 2.162690e+002
5.477637e+002, 2.180900e+002
5.482458e+002, 2.190996e+002
5.487280e+002, 2.195352e+002
5.492101e+002, 2.196345e+002
5.496922e+002, 2.191350e+002
5.501743e+002, 2.189475e+002
5.506564e+002, 2.200432e+002
5.511385e+002, 2.217931e+002
5.516207e+002, 2.228929e+002
5.521028e+002, 2.230680e+002
5.525849e+002, 2.227131e+002
5.530670e+002, 2.220550e+002
5.535491e+002, 2.210924e+002
5.540313e+002, 2.207880e+002
5.545134e+002, 2.218449e+002
5.549955e+002, 2.226181e+002
5.554776e+002, 2.222476e+002
5.559597e+002, 2.215324e+002
5.564418e+002, 2.217485e+002
5.569240e+002, 2.230884e+002
5.574061e+002, 2.242263e+002
5.578882e+002, 2.232611e+002
5.583703e+002, 2.200514e+002
5.588524e+002, 2.189869e+002
5.593345e+002, 2.222124e+002
5.598167e+002, 2.245142e+002
5.602988e+002, 2.237009e+002
5.607809e+002, 2.213046e+002
5.612630e+002, 2.189902e+002
5.617451e+002, 2.171396e+002
5.622272e+002, 2.158158e+002
5.627094e+002, 2.154046e+002
5.631915e+002, 2.155858e+002
5.636736e+002, 2.152133e+002
5.641557e+002, 2.140612e+002
5.646378e+002, 2.128217e+002
5.651199e+002, 2.119432e+002
5.656021e+002, 2.113947e+002
5.660842e+002, 2.109573e+002
5.665663e+002, 2.109582e+002
5.670484e+002, 2.106106e+002
5.675305e+002, 2.092551e+002
5.680126e+002, 2.075921e+002
5.684948e+002, 2.066024e+002
5.689769e+002, 2.063984e+002
5.694590e+002, 2.062713e+002
5.699411e+002, 2.055760e+002
5.704232e+002, 2.043347e+002
5.709053e+002, 2.030070e+002
5.713875e+002, 2.015222e+002
5.718696e+002, 2.000356e+002
5.723517e+002, 1.983209e+002
5.728338e+002, 1.967633e+002
5.733159e+002, 1.957582e+002
5.737980e+002, 1.953375e+002
5.742802e+002, 1.951821e+002
5.747623e+002, 1.951109e+002
5.752444e+002, 1.950853e+002
5.757265e+002, 1.950775e+002
5.762086e+002, 1.952523e+002
5.766907e+002, 1.947315e+002
5.771729e+002, 1.927865e+002
5.776550e+002, 1.900524e+002
5.781371e+002, 1.873707e+002
5.786192e+002, 1.845166e+002
5.791013e+002, 1.828024e+002
5.795834e+002, 1.839537e+002
5.800656e+002, 1.857775e+002
5.805477e+002, 1.855599e+002
5.810298e+002, 1.833277e+002
5.815119e+002, 1.808642e+002
5.819940e+002, 1.792706e+002
5.824761e+002, 1.783204e+002
5.829583e+002, 1.772353e+002
5.834404e+002, 1.759042e+002
5.839225e+002, 1.745924e+002
5.844046e+002, 1.733278e+002
5.848867e+002, 1.720563e+002
5.853688e+002, 1.706034e+002
5.858510e+002, 1.690953e+002
5.863331e+002, 1.679425e+002
5.868152e+002, 1.675121e+002
5.872973e+002, 1.673901e+002
5.877794e+002, 1.665720e+002
5.882615e+002, 1.649464e+002
5.887437e+002, 1.633606e+002
5.892258e+002, 1.619619e+002
5.897079e+002, 1.607274e+002
5.901900e+002, 1.598056e+002
5.906721e+002, 1.591056e+002
5.911542e+002, 1.580136e+002
5.916364e+002, 1.558538e+002
5.921185e+002, 1.536486e+002
5.926006e+002, 1.522222e+002
5.930827e+002, 1.514847e+002
5.935648e+002, 1.512587e+002
5.940469e+002, 1.515271e+002
5.945291e+002, 1.518466e+002
5.950112e+002, 1.516215e+002
5.954933e+002, 1.508275e+002
5.959754e+002, 1.495568e+002
5.964575e+002, 1.470385e+002
5.969396e+002, 1.449727e+002
5.974218e+002, 1.442334e+002
5.979039e+002, 1.442137e+002
5.983860e+002, 1.441573e+002
5.988681e+002, 1.437816e+002
5.993502e+002, 1.429516e+002
5.998323e+002, 1.412369e+002
6.003145e+002, 1.386822e+002
6.007966e+002, 1.367464e+002
6.012787e+002, 1.355786e+002
6.017608e+002, 1.348567e+002
6.022429e+002, 1.349052e+002
6.027250e+002, 1.351342e+002
6.032072e+002, 1.345270e+002
6.036893e+002, 1.326501e+002
6.041714e+002, 1.308649e+002
6.046535e+002, 1.301695e+002
6.051356e+002, 1.298436e+002
6.056177e+002, 1.285447e+002
6.060999e+002, 1.262632e+002
6.065820e+002, 1.245244e+002
6.070641e+002, 1.245763e+002
6.075462e+002, 1.259019e+002
6.080283e+002, 1.261362e+002
6.085104e+002, 1.239849e+002
6.089926e+002, 1.225751e+002
6.094747e+002, 1.228944e+002
6.099568e+002, 1.232628e+002
6.104389e+002, 1.223034e+002
6.109210e+002, 1.202528e+002
6.114031e+002, 1.183301e+002
6.118853e+002, 1.173423e+002
6.123674e+002, 1.168883e+002
6.128495e+002, 1.160821e+002
6.133316e+002, 1.148730e+002
6.138137e+002, 1.138672e+002
6.142958e+002, 1.132635e+002
6.147780e+002, 1.128384e+002
6.152601e+002, 1.123826e+002
6.157422e+002, 1.119037e+002
6.162243e+002, 1.114567e+002
6.167064e+002, 1.109628e+002
6.171885e+002, 1.105927e+002
6.176707e+002, 1.108312e+002
6.181528e+002, 1.112045e+002
6.186349e+002, 1.105401e+002
6.191170e+002, 1.085307e+002
6.195991e+002, 1.063192e+002
6.200812e+002, 1.052864e+002
6.205634e+002, 1.055162e+002
6.210455e+002, 1.055929e+002
6.215276e+002, 1.053676e+002
6.220097e+002, 1.051664e+002
6.224918e+002, 1.051050e+002
6.229739e+002, 1.050730e+002
6.234561e+002, 1.050283e+002
6.239382e+002, 1.049368e+002
6.244203e+002, 1.046029e+002
6.249023e+002, 1.036082e+002
6.253845e+002, 1.022873e+002
6.258666e+002, 1.017193e+002
6.263487e+002, 1.020122e+002
6.268308e+002, 1.019560e+002
6.273129e+002, 1.008436e+002
6.277950e+002, 9.921065e+001
6.282772e+002, 9.801872e+001
6.287593e+002, 9.726358e+001
6.292414e+002, 9.681413e+001
6.297235e+002, 9.723469e+001
6.302056e+002, 9.743354e+001
6.306877e+002, 9.624375e+001
6.311699e+002, 9.424220e+001
6.316520e+002, 9.292974e+001
6.321341e+002, 9.300096e+001
6.326162e+002, 9.367854e+001
6.330983e+002, 9.358789e+001
6.335804e+002, 9.250442e+001
6.340626e+002, 9.182262e+001
6.345447e+002, 9.188507e+001
6.350268e+002, 9.193604e+001
6.355089e+002, 9.171466e+001
6.359910e+002, 9.125188e+001
6.364731e+002, 9.044423e+001
6.369553e+002, 8.909599e+001
6.374374e+002, 8.820534e+001
6.379195e+002, 8.913897e+001
6.384016e+002, 9.082380e+001
6.388837e+002, 9.108329e+001
6.393658e+002, 8.970574e+001
6.398480e+002, 8.804829e+001
6.403301e+002, 8.695034e+001
6.408122e+002, 8.627126e+001
6.412943e+002, 8.553078e+001
6.417764e+002, 8.450720e+001
6.422585e+002, 8.376472e+001
6.427407e+002, 8.370822e+001
6.432228e+002, 8.357352e+001
6.437049e+002, 8.267529e+001
6.441870e+002, 8.129374e+001
6.446691e+002, 8.021504e+001
6.451512e+002, 7.987752e+001
6.456334e+002, 7.992451e+001
6.461155e+002, 7.980983e+001
6.465976e+002, 7.953526e+001
6.470797e+002, 7.927617e+001
6.475618e+002, 7.905463e+001
6.480439e+002, 7.887196e+001
6.485261e+002, 7.897793e+001
6.490082e+002, 7.912226e+001
6.494903e+002, 7.846467e+001
6.499724e+002, 7.618677e+001
6.504545e+002, 7.427073e+001
6.509366e+002, 7.368615e+001
6.514188e+002, 7.378131e+001
6.519009e+002, 7.384911e+001
6.523830e+002, 7.378208e+001
6.528651e+002, 7.378700e+001
6.533472e+002, 7.404713e+001
6.538293e+002, 7.443156e+001
6.543115e+002, 7.444675e+001
6.547936e+002, 7.400951e+001
6.552757e+002, 7.340191e+001
6.557578e+002, 7.231483e+001
6.562399e+002, 7.136539e+001
6.567220e+002, 7.113105e+001
6.572042e+002, 7.133875e+001
6.576863e+002, 7.109811e+001
6.581684e+002, 6.976186e+001
6.586505e+002, 6.835540e+001
6.591326e+002, 6.794639e+001
6.596147e+002, 6.823956e+001
6.600969e+002, 6.846149e+001
6.605790e+002, 6.845125e+001
6.610611e+002, 6.820479e+001
6.615432e+002, 6.765095e+001
6.620253e+002, 6.684194e+001
6.625074e+002, 6.635051e+001
6.629896e+002, 6.631647e+001
6.634717e+002, 6.642623e+001
6.639538e+002, 6.703628e+001
6.644359e+002, 6.748911e+001
6.649180e+002, 6.712704e+001
6.654001e+002, 6.608147e+001
6.658823e+002, 6.502364e+001
6.663644e+002, 6.432554e+001
6.668465e+002, 6.391378e+001
6.673286e+002, 6.376904e+001
6.678107e+002, 6.387664e+001
6.682928e+002, 6.366121e+001
6.687750e+002, 6.286370e+001
6.692571e+002, 6.203152e+001
6.697392e+002, 6.168996e+001
6.702213e+002, 6.180724e+001
6.707034e+002, 6.193739e+001
6.711855e+002, 6.207310e+001
6.716677e+002, 6.222051e+001
6.721498e+002, 6.245345e+001
6.726319e+002, 6.265446e+001
6.731140e+002, 6.282544e+001
6.735961e+002, 6.287290e+001
6.740782e+002, 6.241246e+001
6.745604e+002, 6.101313e+001
6.750425e+002, 5.911529e+001
6.755246e+002, 5.831796e+001
6.760067e+002, 5.898717e+001
6.764888e+002, 5.909262e+001
6.769709e+002, 5.773557e+001
6.774531e+002, 5.627015e+001
6.779352e+002, 5.584726e+001
6.784173e+002, 5.621864e+001
6.788994e+002, 5.651328e+001
6.793815e+002, 5.651625e+001
6.798636e+002, 5.641927e+001
6.803458e+002, 5.632315e+001
6.808279e+002, 5.620466e+001
6.813100e+002, 5.601580e+001
6.817921e+002, 5.575485e+001
6.822742e+002, 5.545576e+001
6.827563e+002, 5.512679e+001
6.832385e+002, 5.480666e+001
6.837206e+002, 5.474220e+001
6.842027e+002, 5.527725e+001
6.846848e+002, 5.531410e+001
6.851669e+002, 5.394720e+001
6.856490e+002, 5.271352e+001
6.861312e+002, 5.272990e+001
6.866133e+002, 5.363636e+001
6.870954e+002, 5.425270e+001
6.875775e+002, 5.404689e+001
6.880596e+002, 5.357290e+001
6.885417e+002, 5.332998e+001
6.890239e+002, 5.319334e+001
6.895060e+002, 5.284385e+001
6.899881e+002, 5.222597e+001
6.904702e+002, 5.155722e+001
6.909523e+002, 5.099017e+001
6.914344e+002, 5.052258e+001
6.919166e+002, 5.011594e+001
6.923987e+002, 4.945402e+001
6.928808e+002, 4.938832e+001
6.933629e+002, 5.077280e+001
6.938450e+002, 5.198015e+001
6.943271e+002, 5.190513e+001
6.948093e+002, 5.084017e+001
6.952914e+002, 4.964664e+001
6.957735e+002, 4.861530e+001
6.962556e+002, 4.785550e+001
6.967377e+002, 4.761669e+001
6.972198e+002, 4.775861e+001
6.977020e+002, 4.774773e+001
6.981841e+002, 4.749046e+001
6.986662e+002, 4.730790e+001
6.991483e+002, 4.746123e+001
6.996304e+002, 4.784082e+001
7.001125e+002, 4.802544e+001
7.005947e+002, 4.778743e+001
7.010768e+002, 4.770214e+001
7.015589e+002, 4.789868e+001
7.020410e+002, 4.813707e+001
7.025231e+002, 4.850201e+001
7.030052e+002, 4.875629e+001
7.034874e+002, 4.832127e+001
7.039695e+002, 4.688014e+001
7.044516e+002, 4.534507e+001
7.049337e+002, 4.496207e+001
7.054158e+002, 4.550426e+001
7.058979e+002, 4.583562e+001
7.063801e+002, 4.581246e+001
7.068622e+002, 4.588066e+001
7.073442e+002, 4.641860e+001
7.078264e+002, 4.713470e+001
7.083085e+002, 4.726036e+001
7.087906e+002, 4.659058e+001
7.092727e+002, 4.589031e+001
7.097548e+002, 4.505149e+001
7.102369e+002, 4.434418e+001
7.107191e+002, 4.395614e+001
7.112012e+002, 4.380749e+001
7.116833e+002, 4.371954e+001
7.121654e+002, 4.363033e+001
7.126475e+002, 4.368966e+001
7.131296e+002, 4.430997e+001
7.136118e+002, 4.529364e+001
7.140939e+002, 4.541064e+001
7.145760e+002, 4.447659e+001
7.150581e+002, 4.361706e+001
7.155402e+002, 4.329488e+001
7.160223e+002, 4.338270e+001
7.165045e+002, 4.378651e+001
7.169866e+002, 4.461205e+001
7.174687e+002, 4.509006e+001
7.179508e+002, 4.502937e+001
7.184329e+002, 4.474072e+001
7.189150e+002, 4.413301e+001
7.193972e+002, 4.349747e+001
7.198793e+002, 4.328110e+001
7.203614e+002, 4.356656e+001
7.208435e+002, 4.397651e+001
7.213256e+002, 4.416642e+001
7.218077e+002, 4.417708e+001
7.222899e+002, 4.423223e+001
7.227720e+002, 4.438006e+001
7.232541e+002, 4.409515e+001
7.237362e+002, 4.289991e+001
7.242183e+002, 4.167554e+001
7.247004e+002, 4.166529e+001
7.251826e+002, 4.283558e+001
7.256647e+002, 4.338911e+001
7.261468e+002, 4.253405e+001
7.266289e+002, 4.188620e+001
7.271110e+002, 4.223227e+001
7.275931e+002, 4.297109e+001
7.280753e+002, 4.349055e+001
7.285574e+002, 4.367224e+001
7.290395e+002, 4.363268e+001
7.295216e+002, 4.343378e+001
7.300037e+002, 4.311223e+001
7.304858e+002, 4.268062e+001
7.309680e+002, 4.212833e+001
7.314501e+002, 4.184937e+001
7.319322e+002, 4.203214e+001
7.324143e+002, 4.223396e+001
7.328964e+002, 4.200827e+001
7.333785e+002, 4.148066e+001
7.338607e+002, 4.131453e+001
7.343428e+002, 4.175024e+001
7.348249e+002, 4.217194e+001
7.353070e+002, 4.265546e+001
7.357891e+002, 4.291830e+001
7.362712e+002, 4.242989e+001
7.367534e+002, 4.152166e+001
7.372355e+002, 4.120904e+001
7.377176e+002, 4.205100e+001
7.381997e+002, 4.313051e+001
7.386818e+002, 4.290405e+001
7.391639e+002, 4.154403e+001
7.396461e+002, 4.075861e+001
7.401282e+002, 4.077572e+001
7.406103e+002, 4.096836e+001
7.410924e+002, 4.110684e+001
7.415745e+002, 4.111756e+001
7.420566e+002, 4.074776e+001
7.425388e+002, 3.976600e+001
7.430209e+002, 3.922594e+001
7.435030e+002, 3.956649e+001
7.439851e+002, 4.000024e+001
7.444672e+002, 4.022205e+001
7.449493e+002, 4.022100e+001
7.454315e+002, 3.990009e+001
7.459136e+002, 3.928629e+001
7.463957e+002, 3.883788e+001
7.468778e+002, 3.916764e+001
7.473599e+002, 3.998056e+001
7.478420e+002, 4.034767e+001
7.483242e+002, 4.025977e+001
7.488063e+002, 4.011835e+001
7.492884e+002, 4.007871e+001
7.497705e+002, 3.996989e+001
7.502526e+002, 3.948109e+001
7.507347e+002, 3.856726e+001
7.512169e+002, 3.826768e+001
7.516990e+002, 3.929458e+001
7.521811e+002, 3.995793e+001
7.526632e+002, 3.968030e+001
7.531453e+002, 3.903488e+001
7.536274e+002, 3.834615e+001
7.541096e+002, 3.778183e+001
7.545917e+002, 3.764858e+001
7.550738e+002, 3.825299e+001
7.555559e+002, 3.908786e+001
7.560380e+002, 3.945508e+001
7.565201e+002, 3.943359e+001
7.570023e+002, 3.936464e+001
7.574844e+002, 3.930695e+001
7.579665e+002, 3.913289e+001
7.584486e+002, 3.871286e+001
7.589307e+002, 3.814505e+001
7.594128e+002, 3.775269e+001
7.598950e+002, 3.752687e+001
7.603771e+002, 3.750256e+001
7.608592e+002, 3.788794e+001
7.613413e+002, 3.824107e+001
7.618234e+002, 3.824479e+001
7.623055e+002, 3.811618e+001
7.627877e+002, 3.828456e+001
7.632698e+002, 3.888417e+001
7.637519e+002, 3.936234e+001
7.642340e+002, 3.922566e+001
7.647161e+002, 3.875297e+001
7.651982e+002, 3.830064e+001
7.656804e+002, 3.790774e+001
7.661625e+002, 3.770863e+001
7.666446e+002, 3.776541e+001
7.671267e+002, 3.787612e+001
7.676088e+002, 3.774285e+001
7.680909e+002, 3.734352e+001
7.685731e+002, 3.728677e+001
7.690552e+002, 3.800792e+001
7.695373e+002, 3.835427e+001
7.700194e+002, 3.771374e+001
7.705015e+002, 3.690666e+001
7.709836e+002, 3.659759e+001
7.714658e+002, 3.672980e+001
7.719479e+002, 3.681161e+001
7.724300e+002, 3.660512e+001
7.729121e+002, 3.638888e+001
7.733942e+002, 3.634922e+001
7.738763e+002, 3.642881e+001
7.743585e+002, 3.653983e+001
7.748406e+002, 3.667257e+001
7.753227e+002, 3.690118e+001
7.758048e+002, 3.730169e+001
7.762869e+002, 3.770341e+001
7.767690e+002, 3.763211e+001
7.772512e+002, 3.698413e+001
7.777333e+002, 3.657694e+001
7.782154e+002, 3.658798e+001
7.786975e+002, 3.660604e+001
7.791796e+002, 3.626250e+001
7.796617e+002, 3.585334e+001
7.801439e+002, 3.598833e+001
7.806260e+002, 3.688649e+001
7.811081e+002, 3.731940e+001
7.815902e+002, 3.653179e+001
7.820723e+002, 3.564734e+001
7.825544e+002, 3.540845e+001
7.830366e+002, 3.556403e+001
7.835187e+002, 3.561592e+001
7.840008e+002, 3.544815e+001
7.844829e+002, 3.534769e+001
7.849650e+002, 3.565131e+001
7.854471e+002, 3.617902e+001
7.859293e+002, 3.632070e+001
7.864114e+002, 3.606789e+001
7.868935e+002, 3.600304e+001
7.873756e+002, 3.632542e+001
7.878577e+002, 3.669566e+001
7.883398e+002, 3.674438e+001
7.888220e+002, 3.654191e+001
7.893040e+002, 3.668512e+001
7.897861e+002, 3.781567e+001
7.902682e+002, 3.835412e+001
7.907504e+002, 3.770117e+001
7.912325e+002, 3.686952e+001
7.917146e+002, 3.648916e+001
7.921967e+002, 3.645110e+001
7.926788e+002, 3.640984e+001
7.931609e+002, 3.624371e+001
7.936431e+002, 3.604588e+001
7.941252e+002, 3.587821e+001
7.946073e+002, 3.574218e+001
7.950894e+002, 3.564909e+001
7.955715e+002, 3.559451e+001
7.960536e+002, 3.552844e+001
7.965358e+002, 3.542084e+001
7.970179e+002, 3.539520e+001
7.975000e+002, 3.566625e+001
7.979821e+002, 3.625975e+001
7.984642e+002, 3.650873e+001
7.989464e+002, 3.608081e+001
7.994285e+002, 3.591198e+001
7.999106e+002, 3.658005e+001
8.003927e+002, 3.731618e+001
8.008748e+002, 3.751665e+001
8.013569e+002, 3.725745e+001
8.018391e+002, 3.699401e+001
8.023212e+002, 3.680936e+001
8.028033e+002, 3.669726e+001
8.032854e+002, 3.659943e+001
8.037675e+002, 3.660966e+001
8.042496e+002, 3.696894e+001
8.047318e+002, 3.756084e+001
8.052139e+002, 3.792714e+001
8.056960e+002, 3.780546e+001
8.061781e+002, 3.750893e+001
8.066602e+002, 3.759444e+001
8.071423e+002, 3.801967e+001
8.076245e+002, 3.818443e+001
8.081066e+002, 3.803974e+001
8.085887e+002, 3.773154e+001
8.090708e+002, 3.720837e+001
8.095529e+002, 3.671223e+001
8.100350e+002, 3.662439e+001
8.105172e+002, 3.700773e+001
8.109993e+002, 3.742427e+001
8.114814e+002, 3.823043e+001
8.119635e+002, 3.861689e+001
8.124456e+002, 3.775634e+001
8.129277e+002, 3.681264e+001
8.134099e+002, 3.712033e+001
8.138920e+002, 3.848106e+001
8.143741e+002, 3.953051e+001
8.148562e+002, 3.953172e+001
8.153383e+002, 3.908652e+001
8.158204e+002, 3.857255e+001
8.163026e+002, 3.814505e+001
8.167847e+002, 3.832156e+001
8.172668e+002, 3.906693e+001
8.177489e+002, 3.954577e+001
8.182310e+002, 3.924573e+001
8.187131e+002, 3.862011e+001
8.191953e+002, 3.860317e+001
8.196774e+002, 3.934616e+001
8.201595e+002, 3.972102e+001
8.206416e+002, 3.952866e+001
8.211237e+002, 3.935191e+001
8.216058e+002, 3.956255e+001
8.220880e+002, 3.978259e+001
8.225701e+002, 3.950835e+001
8.230522e+002, 3.875844e+001
8.235343e+002, 3.820760e+001
8.240164e+002, 3.798872e+001
8.244985e+002, 3.799693e+001
8.249807e+002, 3.841623e+001
8.254628e+002, 3.888897e+001
8.259449e+002, 3.892250e+001
8.264270e+002, 3.859623e+001
8.269091e+002, 3.844389e+001
8.273912e+002, 3.880586e+001
8.278734e+002, 3.927142e+001
8.283555e+002, 3.916128e+001
8.288376e+002, 3.864216e+001
8.293197e+002, 3.844603e+001
8.298018e+002, 3.863908e+001
8.302839e+002, 3.882138e+001
8.307661e+002, 3.875787e+001
8.312482e+002, 3.870556e+001
8.317303e+002, 3.917647e+001
8.322124e+002, 4.034003e+001
8.326945e+002, 4.075660e+001
8.331766e+002, 3.966570e+001
8.336588e+002, 3.891996e+001
8.341409e+002, 3.920444e+001
8.346230e+002, 3.975790e+001
8.351051e+002, 3.994672e+001
8.355872e+002, 3.982030e+001
8.360693e+002, 3.982484e+001
8.365515e+002, 4.023386e+001
8.370336e+002, 4.057717e+001
8.375157e+002, 4.048032e+001
8.379978e+002, 4.025988e+001
8.384799e+002, 4.031272e+001
8.389620e+002, 4.059700e+001
8.394442e+002, 4.085124e+001
8.399263e+002, 4.095241e+001
8.404084e+002, 4.094862e+001
8.408905e+002, 4.084428e+001
8.413726e+002, 4.067784e+001
8.418547e+002, 4.078015e+001
8.423369e+002, 4.119373e+001
8.428190e+002, 4.114677e+001
8.433011e+002, 4.016840e+001
8.437832e+002, 3.920069e+001
8.442653e+002, 3.948039e+001
8.447474e+002, 4.096122e+001
8.452296e+002, 4.161454e+001
8.457117e+002, 4.069064e+001
8.461938e+002, 4.002422e+001
8.466759e+002, 3.981548e+001
8.471580e+002, 3.986269e+001
8.476401e+002, 4.017097e+001
8.481223e+002, 4.061171e+001
8.486044e+002, 4.091525e+001
8.490865e+002, 4.097824e+001
8.495686e+002, 4.105942e+001
8.500507e+002, 4.135535e+001
8.505328e+002, 4.169305e+001
8.510150e+002, 4.195048e+001
8.514971e+002, 4.209554e+001
8.519792e+002, 4.202744e+001
8.524613e+002, 4.174452e+001
8.529434e+002, 4.150000e+001
8.534255e+002, 4.160979e+001
8.539077e+002, 4.189249e+001
8.543898e+002, 4.164249e+001
8.548719e+002, 4.085983e+001
8.553540e+002, 4.056821e+001
8.558361e+002, 4.106342e+001
8.563182e+002, 4.168508e+001
8.568004e+002, 4.198155e+001
8.572825e+002, 4.199779e+001
8.577646e+002, 4.184340e+001
8.582467e+002, 4.117772e+001
8.587288e+002, 4.109032e+001
8.592109e+002, 4.230975e+001
8.596931e+002, 4.323988e+001
8.601752e+002, 4.297702e+001
8.606573e+002, 4.231622e+001
8.611394e+002, 4.231796e+001
8.616215e+002, 4.306215e+001
8.621036e+002, 4.360096e+001
8.625858e+002, 4.329380e+001
8.630679e+002, 4.294157e+001
8.635500e+002, 4.315269e+001
8.640321e+002, 4.362682e+001
8.645142e+002, 4.398102e+001
8.649963e+002, 4.415640e+001
8.654785e+002, 4.420525e+001
8.659606e+002, 4.414779e+001
8.664427e+002, 4.406380e+001
8.669248e+002, 4.410892e+001
8.674069e+002, 4.424392e+001
8.678890e+002, 4.421693e+001
8.683712e+002, 4.400592e+001
8.688533e+002, 4.391364e+001
8.693354e+002, 4.409161e+001
8.698175e+002, 4.434704e+001
8.702996e+002, 4.440456e+001
8.707817e+002, 4.426119e+001
8.712639e+002, 4.429988e+001
8.717459e+002, 4.481257e+001
8.722280e+002, 4.499251e+001
8.727101e+002, 4.428057e+001
8.731923e+002, 4.359557e+001
8.736744e+002, 4.358120e+001
8.741565e+002, 4.400704e+001
8.746386e+002, 4.427807e+001
8.751207e+002, 4.424906e+001
8.756028e+002, 4.421622e+001
8.760850e+002, 4.415106e+001
8.765671e+002, 4.424467e+001
8.770492e+002, 4.488319e+001
8.775313e+002, 4.568771e+001
8.780134e+002, 4.587316e+001
8.784955e+002, 4.536098e+001
8.789777e+002, 4.505477e+001
8.794598e+002, 4.591796e+001
8.799419e+002, 4.708217e+001
8.804240e+002, 4.687852e+001
8.809061e+002, 4.572861e+001
8.813882e+002, 4.522575e+001
8.818704e+002, 4.560075e+001
8.823525e+002, 4.614363e+001
8.828346e+002, 4.641308e+001
8.833167e+002, 4.654890e+001
8.837988e+002, 4.686842e+001
8.842809e+002, 4.742348e+001
8.847631e+002, 4.778600e+001
8.852452e+002, 4.796813e+001
8.857273e+002, 4.790454e+001
8.862094e+002, 4.736818e+001
8.866915e+002, 4.678704e+001
8.871736e+002, 4.667295e+001
8.876558e+002, 4.699705e+001
8.881379e+002, 4.728622e+001
8.886200e+002, 4.771416e+001
8.891021e+002, 4.784295e+001
8.895842e+002, 4.716151e+001
8.900663e+002, 4.656809e+001
8.905485e+002, 4.689531e+001
8.910306e+002, 4.772105e+001
8.915127e+002, 4.814387e+001
8.919948e+002, 4.790985e+001
8.924769e+002, 4.750908e+001
8.929590e+002, 4.709117e+001
8.934412e+002, 4.679921e+001
8.939233e+002, 4.691409e+001
8.944054e+002, 4.723981e+001
8.948875e+002, 4.726511e+001
8.953696e+002, 4.695726e+001
8.958517e+002, 4.690885e+001
8.963339e+002, 4.763692e+001
8.968160e+002, 4.862349e+001
8.972981e+002, 4.876263e+001
8.977802e+002, 4.813574e+001
8.982623e+002, 4.744757e+001
8.987444e+002, 4.672010e+001
8.992266e+002, 4.652440e+001
8.997087e+002, 4.724691e+001
9.001908e+002, 4.831711e+001
9.006729e+002, 4.892410e+001
9.011550e+002, 4.906022e+001
9.016371e+002, 4.884850e+001
9.021193e+002, 4.779830e+001
9.026014e+002, 4.732027e+001
9.030835e+002, 4.829014e+001
9.035656e+002, 4.930904e+001
9.040477e+002, 4.927303e+001
9.045298e+002, 4.857397e+001
9.050120e+002, 4.822828e+001
9.054941e+002, 4.843346e+001
9.059762e+002, 4.873365e+001
9.064583e+002, 4.925335e+001
9.069404e+002, 4.958927e+001
9.074225e+002, 4.908862e+001
9.079047e+002, 4.846692e+001
9.083868e+002, 4.902669e+001
9.088689e+002, 5.071608e+001
9.093510e+002, 5.180220e+001
9.098331e+002, 5.091502e+001
9.103152e+002, 4.955103e+001
9.107974e+002, 4.922475e+001
9.112795e+002, 4.951368e+001
9.117616e+002, 4.965419e+001
9.122437e+002, 4.960595e+001
9.127258e+002, 4.965643e+001
9.132079e+002, 4.994138e+001
9.136901e+002, 5.045336e+001
9.141722e+002, 5.139824e+001
9.146543e+002, 5.257664e+001
9.151364e+002, 5.268597e+001
9.156185e+002, 5.168044e+001
9.161006e+002, 5.091943e+001
9.165828e+002, 5.075138e+001
9.170649e+002, 5.085568e+001
9.175470e+002, 5.100207e+001
9.180291e+002, 5.117889e+001
9.185112e+002, 5.135144e+001
9.189933e+002, 5.156314e+001
9.194755e+002, 5.164071e+001
9.199576e+002, 5.122136e+001
9.204397e+002, 5.119384e+001
9.209218e+002, 5.252509e+001
9.214039e+002, 5.402364e+001
9.218860e+002, 5.411417e+001
9.223682e+002, 5.286678e+001
9.228503e+002, 5.235827e+001
9.233324e+002, 5.349780e+001
9.238145e+002, 5.456296e+001
9.242966e+002, 5.522062e+001
9.247787e+002, 5.549315e+001
9.252609e+002, 5.505193e+001
9.257430e+002, 5.433385e+001
9.262251e+002, 5.433785e+001
9.267072e+002, 5.538315e+001
9.271893e+002, 5.615705e+001
9.276714e+002, 5.541093e+001
9.281536e+002, 5.431516e+001
9.286357e+002, 5.408445e+001
9.291178e+002, 5.438613e+001
9.295999e+002, 5.450672e+001
9.300820e+002, 5.435954e+001
9.305641e+002, 5.432020e+001
9.310463e+002, 5.463801e+001
9.315284e+002, 5.512452e+001
9.320105e+002, 5.538107e+001
9.324926e+002, 5.554364e+001
9.329747e+002, 5.649287e+001
9.334568e+002, 5.817583e+001
9.339390e+002, 5.872961e+001
9.344211e+002, 5.735532e+001
9.349032e+002, 5.577406e+001
9.353853e+002, 5.596172e+001
9.358674e+002, 5.752245e+001
9.363495e+002, 5.803834e+001
9.368317e+002, 5.719913e+001
9.373138e+002, 5.667192e+001
9.377959e+002, 5.669031e+001
9.382780e+002, 5.693700e+001
9.387601e+002, 5.727997e+001
9.392422e+002, 5.771495e+001
9.397244e+002, 5.826493e+001
9.402065e+002, 5.897201e+001
9.406886e+002, 5.953635e+001
9.411707e+002, 5.996157e+001
9.416528e+002, 6.024614e+001
9.421349e+002, 6.026115e+001
9.426171e+002, 6.025040e+001
9.430992e+002, 6.039480e+001
9.435813e+002, 6.065692e+001
9.440634e+002, 6.093605e+001
9.445455e+002, 6.124961e+001
9.450276e+002, 6.143977e+001
9.455098e+002, 6.123113e+001
9.459919e+002, 6.111545e+001
9.464740e+002, 6.160660e+001
9.469561e+002, 6.228724e+001
9.474382e+002, 6.258566e+001
9.479203e+002, 6.244881e+001
9.484025e+002, 6.211992e+001
9.488846e+002, 6.155159e+001
9.493667e+002, 6.129789e+001
9.498488e+002, 6.222781e+001
9.503309e+002, 6.361669e+001
9.508130e+002, 6.420697e+001
9.512952e+002, 6.420618e+001
9.517773e+002, 6.468917e+001
9.522594e+002, 6.597649e+001
9.527415e+002, 6.728435e+001
9.532236e+002, 6.789363e+001
9.537057e+002, 6.795650e+001
9.541878e+002, 6.766608e+001
9.546699e+002, 6.711766e+001
9.551520e+002, 6.695238e+001
9.556342e+002, 6.726061e+001
9.561163e+002, 6.787297e+001
9.565984e+002, 6.875526e+001
9.570805e+002, 6.956483e+001
9.575626e+002, 6.957948e+001
9.580447e+002, 6.883535e+001
9.585269e+002, 6.949994e+001
9.590090e+002, 7.200768e+001
9.594911e+002, 7.407232e+001
9.599732e+002, 7.514385e+001
9.604553e+002, 7.577568e+001
9.609374e+002, 7.619597e+001
9.614196e+002, 7.657751e+001
9.619017e+002, 7.744069e+001
9.623838e+002, 7.901136e+001
9.628659e+002, 8.036168e+001
9.633480e+002, 8.142147e+001
9.638301e+002, 8.234438e+001
9.643123e+002, 8.282921e+001
9.647944e+002, 8.347063e+001
9.652765e+002, 8.489168e+001
9.657586e+002, 8.694920e+001
9.662407e+002, 8.885660e+001
9.667228e+002, 8.978225e+001
9.672050e+002, 9.205886e+001
9.676871e+002, 9.682105e+001
9.681692e+002, 1.023815e+002
9.686513e+002, 1.075533e+002
9.691334e+002, 1.130519e+002
9.696155e+002, 1.196219e+002
9.700977e+002, 1.274768e+002
9.705798e+002, 1.368774e+002
9.710619e+002, 1.476309e+002
9.715440e+002, 1.604177e+002
9.720261e+002, 1.751584e+002
9.725082e+002, 1.925522e+002
9.729904e+002, 2.133549e+002
9.734725e+002, 2.373586e+002
9.739546e+002, 2.637578e+002
9.744367e+002, 2.923570e+002
9.749188e+002, 3.245204e+002
9.754009e+002, 3.633832e+002
9.758831e+002, 4.038858e+002
9.763652e+002, 4.414299e+002
9.768473e+002, 4.746750e+002
9.773294e+002, 5.028810e+002
9.778115e+002, 5.246842e+002
9.782936e+002, 5.351288e+002
9.787758e+002, 5.319411e+002
9.792579e+002, 5.153746e+002
9.797400e+002, 4.838475e+002
9.802221e+002, 4.398638e+002
9.807042e+002, 3.895198e+002
9.811863e+002, 3.342183e+002
9.816685e+002, 2.837789e+002
9.821506e+002, 2.403564e+002
9.826327e+002, 2.042659e+002
9.831148e+002, 1.760695e+002
9.835969e+002, 1.546195e+002
9.840790e+002, 1.381825e+002
9.845612e+002, 1.267911e+002
9.850433e+002, 1.185885e+002
9.855254e+002, 1.141131e+002
9.860075e+002, 1.094860e+002
9.864896e+002, 1.032187e+002
9.869717e+002, 9.810828e+001
9.874539e+002, 9.675377e+001
9.879360e+002, 9.799403e+001
9.884181e+002, 9.820137e+001
9.889002e+002, 9.711974e+001
9.893823e+002, 9.583560e+001
9.898644e+002, 9.386118e+001
9.903466e+002, 9.267019e+001
9.908287e+002, 9.333601e+001
9.913108e+002, 9.427730e+001
9.917929e+002, 9.373004e+001
9.922750e+002, 9.205160e+001
9.927571e+002, 9.139999e+001
9.932393e+002, 9.268160e+001
9.937214e+002, 9.335640e+001
9.942035e+002, 9.300645e+001
9.946856e+002, 9.250658e+001
9.951677e+002, 9.211943e+001
9.956498e+002, 9.180122e+001
9.961320e+002, 9.149181e+001
9.966141e+002, 9.119338e+001
9.970962e+002, 9.094299e+001
9.975783e+002, 9.048763e+001
9.980604e+002, 9.051544e+001
9.985425e+002, 9.163737e+001
9.990247e+002, 9.283525e+001
9.995068e+002, 9.349078e+001
9.999889e+002, 9.379875e+001
1.000471e+003, 9.395360e+001
1.000953e+003, 9.405086e+001
1.001435e+003, 9.448161e+001
1.001917e+003, 9.584939e+001
1.002399e+003, 9.690999e+001
1.002882e+003, 9.669939e+001
1.003364e+003, 9.612307e+001
1.003846e+003, 9.594615e+001
1.004328e+003, 9.609899e+001
1.004810e+003, 9.626620e+001
1.005292e+003, 9.638136e+001
1.005774e+003, 9.665134e+001
1.006256e+003, 9.733836e+001
1.006739e+003, 9.806158e+001
1.007221e+003, 9.862076e+001
1.007703e+003, 9.889400e+001
1.008185e+003, 9.845861e+001
1.008667e+003, 9.759598e+001
1.009149e+003, 9.713357e+001
1.009631e+003, 9.734715e+001
1.010113e+003, 9.778706e+001
1.010595e+003, 9.815891e+001
1.011078e+003, 9.841664e+001
1.011560e+003, 9.839436e+001
1.012042e+003, 9.822957e+001
1.012524e+003, 9.819060e+001
1.013006e+003, 9.833406e+001
1.013488e+003, 9.876970e+001
1.013970e+003, 9.953768e+001
1.014452e+003, 1.003213e+002
1.014935e+003, 1.008213e+002
1.015417e+003, 1.010314e+002
1.015899e+003, 1.007193e+002
1.016381e+003, 1.000705e+002
1.016863e+003, 1.000080e+002
1.017345e+003, 1.006352e+002
1.017827e+003, 1.014750e+002
1.018309e+003, 1.022905e+002
1.018791e+003, 1.030950e+002
1.019274e+003, 1.040491e+002
1.019756e+003, 1.049668e+002
1.020238e+003, 1.046132e+002
1.020720e+003, 1.030684e+002
1.021202e+003, 1.025794e+002
1.021684e+003, 1.035827e+002
1.022166e+003, 1.047941e+002
1.022648e+003, 1.055079e+002
1.023130e+003, 1.058580e+002
1.023613e+003, 1.060148e+002
1.024095e+003, 1.059952e+002
1.024577e+003, 1.061264e+002
1.025059e+003, 1.064476e+002
1.025541e+003, 1.065440e+002
1.026023e+003, 1.062853e+002
1.026505e+003, 1.060333e+002
1.026987e+003, 1.060193e+002
1.027469e+003, 1.061310e+002
1.027952e+003, 1.061426e+002
1.028434e+003, 1.060415e+002
1.028916e+003, 1.061854e+002
1.029398e+003, 1.066775e+002
1.029880e+003, 1.070179e+002
1.030362e+003, 1.069734e+002
1.030844e+003, 1.071451e+002
1.031326e+003, 1.081802e+002
1.031809e+003, 1.093900e+002
1.032291e+003, 1.091781e+002
1.032773e+003, 1.071969e+002
1.033255e+003, 1.068589e+002
1.033737e+003, 1.092969e+002
1.034219e+003, 1.108597e+002
1.034701e+003, 1.103305e+002
1.035183e+003, 1.096041e+002
1.035666e+003, 1.100869e+002
1.036148e+003, 1.111164e+002
1.036630e+003, 1.111752e+002
1.037112e+003, 1.099229e+002
1.037594e+003, 1.096306e+002
1.038076e+003, 1.112268e+002
1.038558e+003, 1.122845e+002
1.039040e+003, 1.118765e+002
1.039522e+003, 1.113674e+002
1.040005e+003, 1.116594e+002
1.040487e+003, 1.124554e+002
1.040969e+003, 1.131426e+002
1.041451e+003, 1.137047e+002
1.041933e+003, 1.142549e+002
1.042415e+003, 1.145387e+002
1.042897e+003, 1.151752e+002
1.043379e+003, 1.171374e+002
1.043861e+003, 1.186325e+002
1.044344e+003, 1.177488e+002
1.044826e+003, 1.158287e+002
1.045308e+003, 1.156644e+002
1.045790e+003, 1.177386e+002
1.046272e+003, 1.193500e+002
1.046754e+003, 1.202159e+002
1.047236e+003, 1.205869e+002
1.047718e+003, 1.201004e+002
1.048201e+003, 1.195483e+002
1.048683e+003, 1.196218e+002
1.049165e+003, 1.199614e+002
1.049647e+003, 1.197049e+002
1.050129e+003, 1.186584e+002
1.050611e+003, 1.182525e+002
1.051093e+003, 1.192290e+002
1.051575e+003, 1.202434e+002
1.052057e+003, 1.206613e+002
1.052540e+003, 1.212075e+002
1.053022e+003, 1.226527e+002
1.053504e+003, 1.245146e+002
1.053986e+003, 1.258631e+002
1.054468e+003, 1.265617e+002
1.054950e+003, 1.271974e+002
1.055432e+003, 1.279446e+002
1.055914e+003, 1.286275e+002
1.056396e+003, 1.292219e+002
1.056879e+003, 1.296968e+002
1.057361e+003, 1.299227e+002
1.057843e+003, 1.300558e+002
1.058325e+003, 1.303045e+002
1.058807e+003, 1.307099e+002
1.059289e+003, 1.314113e+002
1.059771e+003, 1.328369e+002
1.060253e+003, 1.340510e+002
1.060736e+003, 1.346454e+002
1.061218e+003, 1.349548e+002
1.061700e+003, 1.350584e+002
1.062182e+003, 1.351440e+002
1.062664e+003, 1.354253e+002
1.063146e+003, 1.359491e+002
1.063628e+003, 1.367776e+002
1.064110e+003, 1.385046e+002
1.064593e+003, 1.397339e+002
1.065075e+003, 1.395371e+002
1.065557e+003, 1.389787e+002
1.066039e+003, 1.384755e+002
1.066521e+003, 1.383628e+002
1.067003e+003, 1.392943e+002
1.067485e+003, 1.411910e+002
1.067967e+003, 1.427309e+002
1.068449e+003, 1.431434e+002
1.068932e+003, 1.436001e+002
1.069414e+003, 1.447666e+002
1.069896e+003, 1.460303e+002
1.070378e+003, 1.468958e+002
1.070860e+003, 1.475838e+002
1.071342e+003, 1.486077e+002
1.071824e+003, 1.498954e+002
1.072306e+003, 1.506481e+002
1.072788e+003, 1.503162e+002
1.073271e+003, 1.499997e+002
1.073753e+003, 1.500246e+002
1.074235e+003, 1.504434e+002
1.074717e+003, 1.512081e+002
1.075199e+003, 1.524405e+002
1.075681e+003, 1.548382e+002
1.076163e+003, 1.579622e+002
1.076645e+003, 1.596785e+002
1.077127e+003, 1.586758e+002
1.077610e+003, 1.581156e+002
1.078092e+003, 1.600712e+002
1.078574e+003, 1.623089e+002
1.079056e+003, 1.632379e+002
1.079538e+003, 1.636490e+002
1.080020e+003, 1.647293e+002
1.080502e+003, 1.662883e+002
1.080984e+003, 1.670744e+002
1.081467e+003, 1.664137e+002
1.081949e+003, 1.664349e+002
1.082431e+003, 1.686654e+002
1.082913e+003, 1.712056e+002
1.083395e+003, 1.731553e+002
1.083877e+003, 1.746031e+002
1.084359e+003, 1.755374e+002
1.084841e+003, 1.761272e+002
1.085323e+003, 1.766496e+002
1.085806e+003, 1.771265e+002
1.086288e+003, 1.780337e+002
1.086770e+003, 1.798546e+002
1.087252e+003, 1.818025e+002
1.087734e+003, 1.836161e+002
1.088216e+003, 1.852617e+002
1.088698e+003, 1.868229e+002
1.089180e+003, 1.881660e+002
1.089662e+003, 1.888285e+002
1.090145e+003, 1.887195e+002
1.090627e+003, 1.890669e+002
1.091109e+003, 1.904913e+002
1.091591e+003, 1.922572e+002
1.092073e+003, 1.948056e+002
1.092555e+003, 1.968460e+002
1.093037e+003, 1.966861e+002
1.093519e+003, 1.955947e+002
1.094002e+003, 1.959222e+002
1.094484e+003, 1.978874e+002
1.094966e+003, 1.994085e+002
1.095448e+003, 1.989497e+002
1.095930e+003, 1.992539e+002
1.096412e+003, 2.018235e+002
1.096894e+003, 2.047789e+002
1.097376e+003, 2.072056e+002
1.097859e+003, 2.091356e+002
1.098341e+003, 2.106664e+002
1.098823e+003, 2.118372e+002
1.099305e+003, 2.128155e+002
1.099787e+003, 2.137090e+002
1.100269e+003, 2.142652e+002
1.100751e+003, 2.135907e+002
1.101233e+003, 2.135449e+002
1.101715e+003, 2.156646e+002
1.102198e+003, 2.184008e+002
1.102680e+003, 2.200520e+002
1.103162e+003, 2.208182e+002
1.103644e+003, 2.219092e+002
1.104126e+003, 2.236264e+002
1.104608e+003, 2.252790e+002
1.105090e+003, 2.261626e+002
1.105572e+003, 2.277219e+002
1.106054e+003, 2.309835e+002
1.106537e+003, 2.346379e+002
1.107019e+003, 2.377860e+002
1.107501e+003, 2.404778e+002
1.107983e+003, 2.430868e+002
1.108465e+003, 2.458445e+002
1.108947e+003, 2.473676e+002
1.109429e+003, 2.460197e+002
1.109911e+003, 2.455866e+002
1.110394e+003, 2.473885e+002
1.110876e+003, 2.497102e+002
1.111358e+003, 2.518933e+002
1.111840e+003, 2.537629e+002
1.112322e+003, 2.548792e+002
1.112804e+003, 2.551779e+002
1.113286e+003, 2.559608e+002
1.113768e+003, 2.572674e+002
1.114250e+003, 2.589899e+002
1.114733e+003, 2.611496e+002
1.115215e+003, 2.637019e+002
1.115697e+003, 2.670648e+002
1.116179e+003, 2.704240e+002
1.116661e+003, 2.729669e+002
1.117143e+003, 2.746832e+002
1.117625e+003, 2.754361e+002
1.118107e+003, 2.747173e+002
1.118589e+003, 2.741327e+002
1.119072e+003, 2.728522e+002
1.119554e+003, 2.735305e+002
1.120036e+003, 2.778683e+002
1.120518e+003, 2.830672e+002
1.121000e+003, 2.869590e+002
1.121482e+003, 2.897419e+002
1.121964e+003, 2.919087e+002
1.122446e+003, 2.933461e+002
1.122929e+003, 2.947501e+002
1.123411e+003, 2.958685e+002
1.123893e+003, 2.979928e+002
1.124375e+003, 3.018522e+002
1.124857e+003, 3.053138e+002
1.125339e+003, 3.068337e+002
1.125821e+003, 3.075680e+002
1.126303e+003, 3.095775e+002
1.126786e+003, 3.127537e+002
1.127268e+003, 3.150956e+002
1.127750e+003, 3.165203e+002
1.128232e+003, 3.174936e+002
1.128714e+003, 3.178507e+002
1.129196e+003, 3.196026e+002
1.129678e+003, 3.238433e+002
1.130160e+003, 3.287796e+002
1.130642e+003, 3.325046e+002
1.131125e+003, 3.350618e+002
1.131607e+003, 3.361184e+002
1.132089e+003, 3.358283e+002
1.132571e+003, 3.370126e+002
1.133053e+003, 3.398154e+002
1.133535e+003, 3.429606e+002
1.134017e+003, 3.460588e+002
1.134499e+003, 3.490050e+002
1.134981e+003, 3.516616e+002
1.135464e+003, 3.544102e+002
1.135946e+003, 3.582433e+002
1.136428e+003, 3.627260e+002
1.136910e+003, 3.661305e+002
1.137392e+003, 3.685927e+002
1.137874e+003, 3.705841e+002
1.138356e+003, 3.723853e+002
1.138838e+003, 3.752454e+002
1.139321e+003, 3.798236e+002
1.139803e+003, 3.846140e+002
1.140285e+003, 3.881367e+002
1.140767e+003, 3.906198e+002
1.141249e+003, 3.919238e+002
1.141731e+003, 3.927734e+002
1.142213e+003, 3.946005e+002
1.142695e+003, 3.975422e+002
1.143177e+003, 4.018756e+002
1.143660e+003, 4.073976e+002
1.144142e+003, 4.119373e+002
1.144624e+003, 4.136867e+002
1.145106e+003, 4.145386e+002
1.145588e+003, 4.153730e+002
1.146070e+003, 4.173559e+002
1.146552e+003, 4.230661e+002
1.147034e+003, 4.305484e+002
1.147516e+003, 4.361613e+002
1.147999e+003, 4.396265e+002
1.148481e+003, 4.430828e+002
1.148963e+003, 4.476340e+002
1.149445e+003, 4.510941e+002
1.149927e+003, 4.504444e+002
1.150409e+003, 4.500721e+002
1.150891e+003, 4.535055e+002
1.151373e+003, 4.585960e+002
1.151856e+003, 4.632444e+002
1.152338e+003, 4.674223e+002
1.152820e+003, 4.718339e+002
1.153302e+003, 4.766210e+002
1.153784e+003, 4.808880e+002
1.154266e+003, 4.838445e+002
1.154748e+003, 4.869594e+002
1.155230e+003, 4.908010e+002
1.155713e+003, 4.948538e+002
1.156195e+003, 4.987398e+002
1.156677e+003, 5.027041e+002
1.157159e+003, 5.071654e+002
1.157641e+003, 5.120930e+002
1.158123e+003, 5.170762e+002
1.158605e+003, 5.226691e+002
1.159087e+003, 5.271387e+002
1.159569e+003, 5.292682e+002
1.160052e+003, 5.318122e+002
1.160534e+003, 5.353989e+002
1.161016e+003, 5.397998e+002
1.161498e+003, 5.453138e+002
1.161980e+003, 5.512550e+002
1.162462e+003, 5.561420e+002
1.162944e+003, 5.599426e+002
1.163426e+003, 5.629102e+002
1.163908e+003, 5.639694e+002
1.164391e+003, 5.676298e+002
1.164873e+003, 5.755385e+002
1.165355e+003, 5.828102e+002
1.165837e+003, 5.868461e+002
1.166319e+003, 5.900714e+002
1.166801e+003, 5.954247e+002
1.167283e+003, 6.023141e+002
1.167765e+003, 6.084856e+002
1.168247e+003, 6.139342e+002
1.168730e+003, 6.188184e+002
1.169212e+003, 6.231336e+002
1.169694e+003, 6.262732e+002
1.170176e+003, 6.280039e+002
1.170658e+003, 6.310342e+002
1.171140e+003, 6.373812e+002
1.171622e+003, 6.450274e+002
1.172104e+003, 6.508129e+002
1.172587e+003, 6.552281e+002
1.173069e+003, 6.595240e+002
1.173551e+003, 6.639662e+002
1.174033e+003, 6.701012e+002
1.174515e+003, 6.776144e+002
1.174997e+003, 6.836664e+002
1.175479e+003, 6.873947e+002
1.175961e+003, 6.918773e+002
1.176443e+003, 7.003504e+002
1.176926e+003, 7.093264e+002
1.177408e+003, 7.140991e+002
1.177890e+003, 7.168832e+002
1.178372e+003, 7.199001e+002
1.178854e+003, 7.239221e+002
1.179336e+003, 7.305809e+002
1.179818e+003, 7.394149e+002
1.180300e+003, 7.475416e+002
1.180782e+003, 7.537507e+002
1.181265e+003, 7.593596e+002
1.181747e+003, 7.644617e+002
1.182229e+003, 7.700406e+002
1.182711e+003, 7.765561e+002
1.183193e+003, 7.839925e+002
1.183675e+003, 7.928763e+002
1.184157e+003, 8.024042e+002
1.184639e+003, 8.112845e+002
1.185122e+003, 8.193296e+002
1.185604e+003, 8.269515e+002
1.186086e+003, 8.330619e+002
1.186568e+003, 8.407147e+002
1.187050e+003, 8.528235e+002
1.187532e+003, 8.635839e+002
1.188014e+003, 8.688934e+002
1.188496e+003, 8.731802e+002
1.188979e+003, 8.803928e+002
1.189461e+003, 8.898163e+002
1.189943e+003, 8.991299e+002
1.190425e+003, 9.079932e+002
1.190907e+003, 9.189113e+002
1.191389e+003, 9.332896e+002
1.191871e+003, 9.454453e+002
1.192353e+003, 9.536368e+002
1.192835e+003, 9.618846e+002
1.193318e+003, 9.721166e+002
1.193800e+003, 9.835317e+002
1.194282e+003, 9.950734e+002
1.194764e+003, 1.006981e+003
1.195246e+003, 1.019903e+003
1.195728e+003, 1.033862e+003
1.196210e+003, 1.050620e+003
1.196692e+003, 1.069896e+003
1.197174e+003, 1.085670e+003
1.197657e+003, 1.096573e+003
1.198139e+003, 1.107609e+003
1.198621e+003, 1.121890e+003
1.199103e+003, 1.137422e+003
1.199585e+003, 1.151351e+003
1.200067e+003, 1.164698e+003
1.200549e+003, 1.179258e+003
1.201031e+003, 1.195155e+003
1.201514e+003, 1.213011e+003
1.201996e+003, 1.232519e+003
1.202478e+003, 1.253360e+003
1.202960e+003, 1.275051e+003
1.203442e+003, 1.294963e+003
1.203924e+003, 1.311419e+003
1.204406e+003, 1.326222e+003
1.204888e+003, 1.338725e+003
1.205370e+003, 1.352194e+003
1.205853e+003, 1.370367e+003
1.206335e+003, 1.390218e+003
1.206817e+003, 1.408028e+003
1.207299e+003, 1.424340e+003
1.207781e+003, 1.441088e+003
1.208263e+003, 1.458434e+003
1.208745e+003, 1.479049e+003
1.209227e+003, 1.508405e+003
1.209709e+003, 1.533658e+003
1.210192e+003, 1.547304e+003
1.210674e+003, 1.562263e+003
1.211156e+003, 1.587105e+003
1.211638e+003, 1.614504e+003
1.212120e+003, 1.636981e+003
1.212602e+003, 1.655930e+003
1.213084e+003, 1.676264e+003
1.213566e+003, 1.698012e+003
1.214049e+003, 1.720934e+003
1.214531e+003, 1.744964e+003
1.215013e+003, 1.770857e+003
1.215495e+003, 1.799456e+003
1.215977e+003, 1.826390e+003
1.216459e+003, 1.848992e+003
1.216941e+003, 1.870188e+003
1.217423e+003, 1.893630e+003
1.217906e+003, 1.918315e+003
1.218388e+003, 1.940359e+003
1.218870e+003, 1.960588e+003
1.219352e+003, 1.983345e+003
1.219834e+003, 2.008679e+003
1.220316e+003, 2.035696e+003
1.220798e+003, 2.063834e+003
1.221280e+003, 2.091043e+003
1.221762e+003, 2.116272e+003
1.222245e+003, 2.141630e+003
1.222727e+003, 2.169174e+003
1.223209e+003, 2.198086e+003
1.223691e+003, 2.227319e+003
1.224173e+003, 2.257493e+003
1.224655e+003, 2.291301e+003
1.225137e+003, 2.325505e+003
1.225619e+003, 2.353684e+003
1.226101e+003, 2.375170e+003
1.226584e+003, 2.394286e+003
1.227066e+003, 2.410596e+003
1.227548e+003, 2.429899e+003
1.228030e+003, 2.454123e+003
1.228512e+003, 2.481690e+003
1.228994e+003, 2.513713e+003
1.229476e+003, 2.547155e+003
1.229958e+003, 2.580648e+003
1.230441e+003, 2.613531e+003
1.230923e+003, 2.644484e+003
1.231405e+003, 2.673690e+003
1.231887e+003, 2.704002e+003
1.232369e+003, 2.736084e+003
1.232851e+003, 2.766887e+003
1.233333e+003, 2.795595e+003
1.233815e+003, 2.826086e+003
1.234297e+003, 2.860069e+003
1.234780e+003, 2.893710e+003
1.235262e+003, 2.924197e+003
1.235744e+003, 2.953407e+003
1.236226e+003, 2.984184e+003
1.236708e+003, 3.016612e+003
1.237190e+003, 3.052767e+003
1.237672e+003, 3.091289e+003
1.238154e+003, 3.126619e+003
1.238636e+003, 3.158911e+003
1.239119e+003, 3.192345e+003
1.239601e+003, 3.228092e+003
1.240083e+003, 3.264759e+003
1.240565e+003, 3.301234e+003
1.241047e+003, 3.339781e+003
1.241529e+003, 3.383954e+003
1.242011e+003, 3.429858e+003
1.242493e+003, 3.476069e+003
1.242975e+003, 3.520490e+003
1.243458e+003, 3.559022e+003
1.243940e+003, 3.594670e+003
1.244422e+003, 3.633244e+003
1.244904e+003, 3.675974e+003
1.245386e+003, 3.721077e+003
1.245868e+003, 3.767810e+003
1.246350e+003, 3.817199e+003
1.246832e+003, 3.872416e+003
1.247315e+003, 3.926454e+003
1.247797e+003, 3.974759e+003
1.248279e+003, 4.023603e+003
1.248761e+003, 4.076089e+003
1.249243e+003, 4.133180e+003
1.249725e+003, 4.197733e+003
1.250207e+003, 4.269158e+003
1.250689e+003, 4.339349e+003
1.251172e+003, 4.407884e+003
1.251654e+003, 4.479636e+003
1.252136e+003, 4.555335e+003
1.252618e+003, 4.627816e+003
1.253100e+003, 4.695006e+003
1.253582e+003, 4.770372e+003
1.254064e+003, 4.863226e+003
1.254546e+003, 4.963162e+003
1.255028e+003, 5.053596e+003
1.255510e+003, 5.141209e+003
1.255993e+003, 5.238448e+003
1.256475e+003, 5.341458e+003
1.256957e+003, 5.439019e+003
1.257439e+003, 5.535160e+003
1.257921e+003, 5.642423e+003
1.258403e+003, 5.762271e+003
1.258885e+003, 5.888451e+003
1.259367e+003, 6.019656e+003
1.259850e+003, 6.150300e+003
1.260332e+003, 6.271045e+003
1.260814e+003, 6.399336e+003
1.261296e+003, 6.546992e+003
1.261778e+003, 6.702576e+003
1.262260e+003, 6.858924e+003
1.262742e+003, 7.016950e+003
1.263224e+003, 7.177017e+003
1.263707e+003, 7.340282e+003
1.264189e+003, 7.506758e+003
1.264671e+003, 7.677952e+003
1.265153e+003, 7.847252e+003
1.265635e+003, 8.010824e+003
1.266117e+003, 8.187961e+003
1.266599e+003, 8.384596e+003
1.267081e+003, 8.586168e+003
1.267563e+003, 8.785080e+003
1.268046e+003, 8.981344e+003
1.268528e+003, 9.176713e+003
1.269010e+003, 9.371230e+003
1.269492e+003, 9.564021e+003
1.269974e+003, 9.757950e+003
1.270456e+003, 9.962365e+003
1.270938e+003, 1.017564e+004
1.271420e+003, 1.039487e+004
1.271902e+003, 1.061635e+004
1.272385e+003, 1.083000e+004
1.272867e+003, 1.103171e+004
1.273349e+003, 1.123272e+004
1.273831e+003, 1.143828e+004
1.274313e+003, 1.164815e+004
1.274795e+003, 1.186960e+004
1.275277e+003, 1.208963e+004
1.275759e+003, 1.230424e+004
1.276242e+003, 1.251103e+004
1.276724e+003, 1.270531e+004
1.277206e+003, 1.289126e+004
1.277688e+003, 1.307776e+004
1.278170e+003, 1.326545e+004
1.278652e+003, 1.344764e+004
1.279134e+003, 1.362076e+004
1.279616e+003, 1.380226e+004
1.280099e+003, 1.399622e+004
1.280581e+003, 1.418536e+004
1.281063e+003, 1.436446e+004
1.281545e+003, 1.452786e+004
1.282027e+003, 1.467192e+004
1.282509e+003, 1.480208e+004
1.282991e+003, 1.492457e+004
1.283473e+003, 1.504118e+004
1.283955e+003, 1.515859e+004
##END=



