##NAMES=Claringbullite
##RRUFFID=R090016
##IDEAL CHEMISTRY=Cu^2+^_4_FCl(OH)_6_
##LOCALITY=Copper Queen Mine, Bisbee, Arizona
##OWNER=RRUFF
##SOURCE=William W. Pinch
##DESCRIPTION=Blue green crystal plates and cleavages on cuprite with connellite, atacamite, clinoatacamite R090062. Note that this is the same sample used in the Burns et al (1995) structural study.
##STATUS=The identification of this mineral has been confirmed by single-crystal X-ray diffraction.
##URL=rruff.info/R090016
92.37695, 20.63040
92.85907, 20.95980
93.34119, 20.93625
93.82330, 20.36026
94.30542, 19.62353
94.78754, 18.87175
95.26965, 18.15541
95.75177, 17.61172
96.23389, 17.40545
96.71600, 17.31134
97.19812, 17.15826
97.68024, 16.93984
98.16235, 16.63396
98.64447, 16.14091
99.12659, 15.29579
99.60870, 14.68542
100.0908, 14.69385
100.5729, 14.91181
101.0551, 14.92264
101.5372, 14.49163
102.0193, 13.73893
102.5014, 13.30468
102.9835, 13.54349
103.4656, 13.75767
103.9478, 13.79235
104.4299, 13.71530
104.9120, 13.70091
105.3941, 13.91662
105.8762, 14.41401
106.3583, 14.50397
106.8405, 13.96654
107.3226, 13.29123
107.8047, 12.70195
108.2868, 12.23601
108.7689, 11.87088
109.2510, 11.59839
109.7332, 11.42161
110.2153, 11.30702
110.6974, 11.33657
111.1795, 11.40564
111.6616, 11.33314
112.1437, 11.03432
112.6259, 10.68868
113.1080, 10.50521
113.5901, 10.47100
114.0722, 10.43814
114.5543, 10.30398
115.0364, 10.07373
115.5185, 9.866231
116.0007, 9.682516
116.4828, 9.551333
116.9649, 9.514766
117.4470, 9.575924
117.9291, 9.657563
118.4112, 9.629653
118.8934, 9.384418
119.3755, 9.302516
119.8576, 9.556382
120.3397, 9.892975
120.8218, 10.12486
121.3039, 10.17548
121.7861, 10.08535
122.2682, 9.970687
122.7503, 9.798101
123.2324, 9.635055
123.7145, 9.485650
124.1966, 9.348413
124.6788, 9.220092
125.1609, 9.096524
125.6430, 8.980136
126.1251, 8.892680
126.6072, 8.816092
127.0893, 8.775826
127.5715, 8.810793
128.0536, 8.905133
128.5357, 8.980679
129.0178, 8.973329
129.4999, 8.893540
129.9821, 8.834678
130.4642, 8.849771
130.9463, 8.860738
131.4284, 8.766981
131.9105, 8.543538
132.3926, 8.316432
132.8748, 8.196005
133.3569, 8.139915
133.8390, 8.080595
134.3211, 7.931401
134.8032, 7.747621
135.2853, 7.748862
135.7674, 8.125818
136.2496, 8.427836
136.7317, 8.408340
137.2138, 8.139436
137.6959, 7.807496
138.1780, 7.510184
138.6601, 7.232672
139.1423, 7.150339
139.6244, 7.571621
140.1065, 7.938371
140.5886, 7.980031
141.0707, 7.723879
141.5528, 7.404465
142.0350, 7.314673
142.5171, 7.608202
142.9992, 7.732924
143.4813, 7.564801
143.9634, 7.346309
144.4455, 7.260008
144.9277, 7.343269
145.4098, 7.471289
145.8919, 7.431197
146.3740, 7.043477
146.8561, 6.821159
147.3382, 6.918107
147.8204, 7.147934
148.3025, 7.268808
148.7846, 7.183776
149.2667, 7.002308
149.7488, 6.963778
150.2309, 7.107060
150.7131, 7.219772
151.1952, 7.187788
151.6773, 7.055398
152.1594, 6.970535
152.6415, 7.018654
153.1236, 7.111693
153.6058, 7.096248
154.0879, 6.932062
154.5700, 6.783103
155.0521, 6.834373
155.5342, 7.099106
156.0163, 7.263925
156.4985, 7.070355
156.9806, 6.792523
157.4627, 6.649252
157.9448, 6.699858
158.4269, 6.859861
158.9090, 7.034068
159.3912, 7.273405
159.8733, 7.385698
160.3554, 7.207485
160.8375, 6.953123
161.3196, 6.829850
161.8017, 6.936847
162.2839, 7.175307
162.7660, 7.244313
163.2481, 6.976026
163.7302, 6.751788
164.2123, 6.610769
164.6944, 6.546697
165.1766, 6.571260
165.6587, 6.699118
166.1408, 6.898403
166.6229, 6.956453
167.1050, 6.646545
167.5871, 6.441728
168.0693, 6.543977
168.5514, 6.823463
169.0335, 7.016136
169.5156, 6.939499
169.9977, 6.611650
170.4798, 6.360865
170.9620, 6.060555
171.4441, 5.932107
171.9262, 6.214791
172.4083, 6.817895
172.8904, 7.344268
173.3725, 7.499980
173.8547, 7.287583
174.3368, 7.057621
174.8189, 6.743078
175.3010, 6.455304
175.7831, 6.290542
176.2652, 6.253545
176.7474, 6.281363
177.2295, 6.393843
177.7116, 6.537032
178.1937, 6.570209
178.6758, 6.313724
179.1579, 5.983951
179.6401, 5.933986
180.1222, 6.249245
180.6043, 6.598197
181.0864, 6.837890
181.5685, 6.966516
182.0506, 6.945363
182.5328, 6.661073
183.0149, 6.224597
183.4970, 5.996069
183.9791, 6.098901
184.4612, 6.234355
184.9433, 6.300210
185.4255, 6.301147
185.9076, 6.243805
186.3897, 6.119368
186.8718, 5.934591
187.3539, 5.763494
187.8360, 5.534430
188.3182, 5.404630
188.8003, 5.492383
189.2824, 5.715233
189.7645, 5.909288
190.2466, 5.936732
190.7287, 5.788803
191.2109, 5.689087
191.6930, 5.694438
192.1751, 5.692309
192.6572, 5.611959
193.1393, 5.486616
193.6214, 5.413363
194.1036, 5.491823
194.5857, 5.757367
195.0678, 5.882031
195.5499, 5.783271
196.0320, 5.654305
196.5141, 5.571647
196.9963, 5.541943
197.4784, 5.547988
197.9605, 5.586358
198.4426, 5.668007
198.9247, 5.652819
199.4068, 5.415006
199.8890, 5.184734
200.3711, 5.144773
200.8532, 5.298022
201.3353, 5.470883
201.8174, 5.355999
202.2995, 5.455558
202.7817, 5.488812
203.2638, 5.459343
203.7459, 5.179248
204.2280, 5.222785
204.7101, 5.136624
205.1922, 5.045146
205.6744, 5.134221
206.1565, 4.890580
206.6386, 4.976802
207.1207, 5.149690
207.6028, 5.483507
208.0849, 5.649712
208.5671, 5.608913
209.0492, 5.471465
209.5313, 5.254938
210.0134, 5.003257
210.4955, 4.821005
210.9776, 4.760276
211.4598, 4.792879
211.9419, 4.868962
212.4240, 5.014340
212.9061, 5.146054
213.3882, 5.210166
213.8703, 5.228089
214.3525, 5.236772
214.8346, 5.260640
215.3167, 5.289670
215.7988, 5.282866
216.2809, 5.214426
216.7630, 5.148751
217.2451, 5.124723
217.7273, 5.121311
218.2094, 5.098437
218.6915, 5.019702
219.1736, 4.901078
219.6557, 4.841533
220.1378, 4.877297
220.6200, 4.934803
221.1021, 5.005765
221.5842, 5.079563
222.0663, 5.144096
222.5484, 5.193260
223.0305, 5.225732
223.5127, 5.227723
223.9948, 5.154086
224.4769, 5.096115
224.9590, 5.072486
225.4411, 5.077723
225.9232, 5.105514
226.4054, 5.156469
226.8875, 5.224884
227.3696, 5.244009
227.8517, 5.156568
228.3338, 5.078041
228.8159, 5.025667
229.2981, 5.000115
229.7802, 5.010077
230.2623, 5.068614
230.7444, 5.163534
231.2265, 5.151136
231.7086, 4.911973
232.1908, 4.705043
232.6729, 4.583837
233.1550, 4.542146
233.6371, 4.570779
234.1192, 4.674358
234.6013, 4.834848
235.0835, 4.912542
235.5656, 4.853713
236.0477, 4.789392
236.5298, 4.728730
237.0119, 4.690743
237.4940, 4.722239
237.9762, 4.862021
238.4583, 5.078983
238.9404, 5.225231
239.4225, 5.361554
239.9046, 5.381378
240.3867, 5.126833
240.8689, 4.716077
241.3510, 4.448944
241.8331, 4.371026
242.3152, 4.565646
242.7973, 4.693971
243.2794, 4.759563
243.7616, 4.574537
244.2437, 4.713134
244.7258, 4.722035
245.2079, 4.725617
245.6900, 4.909763
246.1721, 4.761182
246.6543, 4.942473
247.1364, 4.992081
247.6185, 4.818146
248.1006, 4.645475
248.5827, 4.468033
249.0648, 4.356132
249.5470, 4.336553
250.0291, 4.396144
250.5112, 4.529799
250.9933, 4.759419
251.4754, 4.933323
251.9576, 4.935706
252.4397, 4.801407
252.9218, 4.678048
253.4039, 4.584806
253.8860, 4.543210
254.3681, 4.607112
254.8503, 4.777035
255.3324, 4.878729
255.8145, 4.745196
256.2966, 4.429258
256.7787, 4.193004
257.2608, 4.063371
257.7430, 4.061650
258.2251, 4.246105
258.7072, 4.584552
259.1893, 4.863416
259.6714, 4.921069
260.1535, 4.792608
260.6357, 4.667184
261.1178, 4.542138
261.5999, 4.451873
262.0820, 4.437114
262.5641, 4.473953
263.0462, 4.489000
263.5284, 4.377464
264.0105, 4.180931
264.4926, 4.172853
264.9747, 4.532083
265.4568, 4.823225
265.9389, 4.768145
266.4211, 4.500379
266.9032, 4.295286
267.3853, 4.341872
267.8674, 4.579104
268.3495, 4.744789
268.8316, 4.824658
269.3138, 4.844489
269.7959, 4.802013
270.2780, 4.718956
270.7601, 4.623773
271.2422, 4.526906
271.7243, 4.432997
272.2065, 4.357082
272.6886, 4.292981
273.1707, 4.262238
273.6528, 4.276004
274.1349, 4.317780
274.6170, 4.376316
275.0992, 4.450437
275.5813, 4.522307
276.0634, 4.542945
276.5455, 4.480922
277.0276, 4.424745
277.5097, 4.417881
277.9919, 4.410333
278.4740, 4.333310
278.9561, 4.163092
279.4382, 3.977872
279.9203, 3.924738
280.4024, 4.042420
280.8846, 4.222020
281.3667, 4.567317
281.8488, 4.886731
282.3309, 5.008575
282.8130, 4.901866
283.2951, 4.698866
283.7773, 4.596698
284.2594, 4.647261
284.7415, 4.671860
285.2236, 4.619462
285.7057, 4.578508
286.1878, 4.641501
286.6700, 4.795379
287.1521, 4.920641
287.6342, 4.860916
288.1163, 4.547759
288.5984, 4.319081
289.0805, 4.129498
289.5627, 4.054636
290.0448, 4.221664
290.5269, 4.563803
291.0090, 4.868533
291.4911, 4.933234
291.9732, 4.737107
292.4554, 4.565665
292.9375, 4.360511
293.4196, 4.236531
293.9017, 4.286047
294.3838, 4.449227
294.8659, 4.608790
295.3481, 4.688133
295.8302, 4.686525
296.3123, 4.588406
296.7944, 4.202710
297.2765, 3.923199
297.7586, 3.838084
298.2408, 3.905964
298.7229, 4.099240
299.2050, 4.413019
299.6871, 4.776268
300.1692, 4.908708
300.6513, 4.548172
301.1335, 4.256914
301.6156, 4.104660
302.0977, 4.036683
302.5798, 3.996891
303.0619, 3.962562
303.5440, 3.935793
304.0262, 3.916239
304.5083, 3.843351
304.9904, 3.881157
305.4725, 4.207763
305.9546, 4.529690
306.4367, 4.557617
306.9189, 4.247217
307.4010, 3.832376
307.8831, 3.644541
308.3652, 3.783356
308.8473, 3.904466
309.3294, 4.009583
309.8116, 4.099885
310.2937, 4.174196
310.7758, 4.233661
311.2579, 4.281085
311.7400, 4.318292
312.2221, 4.344651
312.7043, 4.366526
313.1864, 4.439851
313.6685, 4.456421
314.1506, 4.295682
314.6327, 4.035553
315.1148, 3.875637
315.5970, 3.979874
316.0791, 4.318629
316.5612, 4.481217
317.0433, 4.258204
317.5254, 4.092737
318.0075, 4.130335
318.4897, 4.272868
318.9718, 4.350158
319.4539, 4.270651
319.9360, 4.105823
320.4181, 4.089585
320.9002, 4.501168
321.3824, 4.707248
321.8645, 4.518901
322.3466, 4.190084
322.8287, 3.968924
323.3108, 3.938597
323.7929, 4.009421
324.2751, 4.031613
324.7572, 3.991320
325.2393, 3.922458
325.7214, 3.762146
326.2035, 3.622237
326.6856, 3.598344
327.1678, 3.689355
327.6499, 3.805334
328.1320, 3.840188
328.6141, 3.759091
329.0962, 3.773599
329.5783, 3.936025
330.0605, 4.129790
330.5426, 4.368903
331.0247, 4.604364
331.5068, 4.724376
331.9889, 4.628798
332.4710, 4.335927
332.9532, 4.144307
333.4353, 4.159334
333.9174, 4.165509
334.3995, 4.093649
334.8816, 3.995017
335.3637, 3.962951
335.8459, 4.047919
336.3280, 4.188632
336.8101, 4.190799
337.2922, 3.872077
337.7743, 3.688129
338.2564, 3.772590
338.7386, 3.938590
339.2206, 4.006950
339.7028, 3.934094
340.1849, 3.823132
340.6670, 3.843638
341.1491, 4.085729
341.6312, 4.232893
342.1133, 4.254175
342.5955, 4.220002
343.0776, 4.144076
343.5597, 4.042641
344.0418, 3.945287
344.5239, 3.873588
345.0060, 3.825658
345.4882, 3.836402
345.9703, 3.939449
346.4524, 4.074416
346.9345, 4.296118
347.4166, 4.531969
347.8987, 4.650093
348.3809, 4.555696
348.8630, 4.306837
349.3451, 4.139998
349.8272, 4.074794
350.3093, 4.069618
350.7914, 4.179172
351.2736, 4.306510
351.7557, 4.341156
352.2378, 4.245945
352.7199, 4.097694
353.2020, 4.025352
353.6841, 4.051437
354.1663, 4.086141
354.6484, 4.139756
355.1305, 4.183700
355.6126, 4.197431
356.0947, 4.181356
356.5768, 4.153393
357.0590, 4.144289
357.5411, 4.157623
358.0232, 4.094374
358.5053, 3.804872
358.9874, 3.610784
359.4695, 3.743477
359.9517, 4.064249
360.4338, 4.274624
360.9159, 4.155001
361.3980, 3.833425
361.8801, 3.722813
362.3622, 3.931637
362.8444, 4.115297
363.3265, 4.156996
363.8086, 4.111774
364.2907, 4.015496
364.7728, 3.869207
365.2549, 3.726892
365.7371, 3.664302
366.2192, 3.689004
366.7013, 3.721025
367.1834, 3.731770
367.6655, 3.754059
368.1476, 3.830619
368.6298, 3.957515
369.1119, 4.058719
369.5940, 4.057830
370.0761, 3.978138
370.5582, 3.931930
371.0403, 3.937836
371.5225, 3.961472
372.0046, 3.979796
372.4867, 3.996583
372.9688, 4.021692
373.4509, 4.063441
373.9330, 4.112596
374.4152, 4.174290
374.8973, 4.257260
375.3794, 4.272239
375.8615, 4.110251
376.3436, 3.881437
376.8257, 3.754574
377.3079, 3.767354
377.7900, 3.825897
378.2721, 3.907831
378.7542, 3.991361
379.2363, 3.953701
379.7184, 3.692993
380.2006, 3.412078
380.6827, 3.417440
381.1648, 3.701726
381.6469, 3.915807
382.1290, 3.877240
382.6111, 3.733138
383.0933, 3.690987
383.5754, 3.777000
384.0575, 3.908406
384.5396, 4.043931
385.0217, 4.172580
385.5038, 4.242018
385.9860, 4.190009
386.4681, 4.132879
386.9502, 4.196544
387.4323, 4.327133
387.9144, 4.309583
388.3965, 3.999290
388.8787, 3.546066
389.3608, 3.365597
389.8429, 3.577539
390.3250, 3.749864
390.8071, 3.798441
391.2892, 3.759305
391.7714, 3.625987
392.2535, 3.406070
392.7356, 3.240413
393.2177, 3.325328
393.6998, 3.753505
394.1819, 3.956806
394.6641, 3.743145
395.1462, 3.499019
395.6283, 3.435252
396.1104, 3.529431
396.5925, 3.672109
397.0746, 3.801178
397.5568, 3.908021
398.0389, 3.945818
398.5210, 3.856875
399.0031, 3.765689
399.4852, 3.695165
399.9673, 3.624572
400.4495, 3.496816
400.9316, 3.304592
401.4137, 3.147377
401.8958, 3.205257
402.3779, 3.630464
402.8600, 3.852030
403.3422, 3.701005
403.8243, 3.527637
404.3064, 3.514749
404.7885, 3.641259
405.2706, 3.787276
405.7527, 3.864449
406.2349, 3.879514
406.7170, 3.882595
407.1991, 3.886834
407.6812, 3.856647
408.1633, 3.749067
408.6454, 3.621380
409.1276, 3.536675
409.6097, 3.518153
410.0918, 3.540963
410.5739, 3.587446
411.0560, 3.674615
411.5381, 3.691931
412.0203, 3.538502
412.5024, 3.379185
412.9845, 3.301662
413.4666, 3.305316
413.9487, 3.351028
414.4308, 3.420925
414.9130, 3.512374
415.3951, 3.626089
415.8772, 3.785795
416.3593, 3.908830
416.8414, 3.907830
417.3235, 3.854485
417.8057, 3.856326
418.2878, 3.977851
418.7699, 4.082603
419.2520, 3.972842
419.7341, 3.681620
420.2162, 3.553109
420.6984, 3.778168
421.1805, 4.094408
421.6626, 4.135339
422.1447, 3.901877
422.6268, 3.717572
423.1089, 3.759359
423.5911, 3.890946
424.0732, 3.913494
424.5553, 3.804927
425.0374, 3.685966
425.5195, 3.635482
426.0016, 3.656501
426.4838, 3.724867
426.9659, 3.906573
427.4480, 4.064678
427.9301, 4.127553
428.4122, 4.122163
428.8943, 4.099999
429.3765, 4.078828
429.8586, 4.062430
430.3407, 4.060888
430.8228, 4.101286
431.3049, 4.091955
431.7870, 3.980796
432.2692, 3.858361
432.7513, 3.761284
433.2334, 3.709733
433.7155, 3.755972
434.1976, 3.964359
434.6797, 4.313192
435.1619, 4.484279
435.6440, 4.328775
436.1261, 4.160248
436.6082, 3.989736
437.0903, 3.848630
437.5724, 3.777457
438.0546, 3.788302
438.5367, 3.840420
439.0188, 3.862004
439.5009, 3.823347
439.9830, 3.850945
440.4651, 4.059553
440.9473, 4.235538
441.4294, 4.242396
441.9115, 4.127590
442.3936, 4.043168
442.8757, 4.110127
443.3578, 4.269295
443.8400, 4.312467
444.3221, 4.201884
444.8042, 4.068898
445.2863, 3.908362
445.7684, 3.774612
446.2505, 3.731174
446.7327, 3.793818
447.2148, 3.898872
447.6969, 4.025380
448.1790, 4.158150
448.6611, 4.199759
449.1432, 4.099388
449.6254, 3.975700
450.1075, 3.926485
450.5896, 3.936042
451.0717, 3.965599
451.5538, 4.064340
452.0359, 4.136020
452.5181, 4.019216
453.0002, 3.752766
453.4823, 3.631704
453.9644, 3.844948
454.4465, 4.217184
454.9286, 4.337969
455.4108, 4.150503
455.8929, 3.950024
456.3750, 3.747899
456.8571, 3.595593
457.3392, 3.578865
457.8214, 3.697190
458.3035, 3.832141
458.7856, 3.876379
459.2677, 3.828517
459.7498, 3.818814
460.2319, 3.895028
460.7141, 3.948238
461.1962, 3.873012
461.6783, 4.020233
462.1604, 4.101159
462.6425, 4.119353
463.1246, 3.886920
463.6068, 3.978118
464.0889, 3.939620
464.5710, 3.895804
465.0531, 3.994620
465.5352, 3.962312
466.0173, 3.827015
466.4995, 3.648932
466.9816, 3.564136
467.4637, 3.690124
467.9458, 3.938512
468.4279, 4.002283
468.9100, 3.780976
469.3922, 3.636810
469.8743, 3.791772
470.3564, 3.996216
470.8385, 4.028152
471.3206, 3.856977
471.8027, 3.669040
472.2849, 3.600106
472.7670, 3.631654
473.2491, 3.714914
473.7312, 3.876869
474.2133, 3.999372
474.6954, 3.966985
475.1776, 3.831645
475.6597, 3.706433
476.1418, 3.596100
476.6239, 3.516799
477.1060, 3.481326
477.5881, 3.486335
478.0703, 3.545171
478.5524, 3.681961
479.0345, 3.750541
479.5166, 3.958068
479.9987, 4.099297
480.4808, 4.177797
480.9630, 4.005683
481.4451, 4.157187
481.9272, 4.199084
482.4093, 4.001832
482.8914, 3.804281
483.3735, 3.802158
483.8557, 3.934818
484.3378, 3.984002
484.8199, 3.867913
485.3020, 3.781469
485.7841, 3.744061
486.2662, 3.729040
486.7484, 3.702179
487.2305, 3.669019
487.7126, 3.679319
488.1947, 3.799331
488.6768, 4.016812
489.1589, 4.134821
489.6411, 4.117641
490.1232, 4.051795
490.6053, 3.930456
491.0874, 3.798358
491.5695, 3.702574
492.0516, 3.655549
492.5338, 3.652621
493.0159, 3.720788
493.4980, 3.846622
493.9801, 3.898572
494.4622, 3.829906
494.9443, 3.737558
495.4265, 3.680266
495.9086, 3.659584
496.3907, 3.693697
496.8728, 3.851024
497.3549, 4.008159
497.8370, 4.059610
498.3192, 4.022622
498.8013, 3.943890
499.2834, 3.823389
499.7655, 3.720917
500.2476, 3.753643
500.7297, 3.986005
501.2119, 4.119162
501.6940, 4.023909
502.1761, 3.914936
502.6582, 3.980075
503.1403, 4.174590
503.6224, 4.315486
504.1045, 4.284376
504.5866, 4.129681
505.0688, 4.024956
505.5509, 3.989488
506.0330, 3.977576
506.5151, 4.037617
506.9972, 4.080074
507.4793, 3.994763
507.9615, 3.806740
508.4436, 3.672152
508.9257, 3.745486
509.4078, 3.986080
509.8899, 4.136472
510.3720, 4.157198
510.8542, 4.174172
511.3363, 4.272194
511.8184, 4.370584
512.3005, 4.361865
512.7827, 4.215119
513.2648, 4.095736
513.7469, 4.195161
514.2290, 4.418998
514.7111, 4.453104
515.1932, 4.215646
515.6754, 3.998292
516.1575, 4.082207
516.6396, 4.380218
517.1217, 4.474128
517.6038, 4.120910
518.0859, 3.827700
518.5681, 3.913423
519.0502, 4.188120
519.5323, 4.302633
520.0144, 4.161729
520.4965, 3.974740
520.9786, 4.012890
521.4608, 4.339422
521.9429, 4.503340
522.4250, 4.431051
522.9071, 4.305918
523.3892, 4.144539
523.8713, 3.986780
524.3535, 3.891951
524.8356, 3.884058
525.3177, 3.913819
525.7998, 3.902685
526.2819, 3.844957
526.7640, 3.769731
527.2462, 3.564584
527.7283, 3.469906
528.2104, 3.737440
528.6925, 4.194263
529.1746, 4.428379
529.6567, 4.172873
530.1389, 3.763226
530.6210, 3.672786
531.1031, 3.881607
531.5852, 4.038893
532.0673, 4.038464
532.5494, 3.958699
533.0316, 3.861999
533.5137, 3.749910
533.9958, 3.711520
534.4779, 3.849248
534.9600, 3.997407
535.4421, 4.027174
535.9243, 3.953724
536.4064, 3.833933
536.8885, 3.687009
537.3706, 3.550258
537.8527, 3.504760
538.3348, 3.587378
538.8170, 3.695580
539.2991, 3.899353
539.7812, 4.063883
540.2633, 4.098158
540.7454, 4.025851
541.2275, 3.914481
541.7097, 3.794634
542.1918, 3.695975
542.6739, 3.721967
543.1560, 3.940470
543.6381, 4.065882
544.1202, 3.949567
544.6024, 3.796600
545.0845, 3.729594
545.5666, 3.744738
546.0487, 3.781188
546.5308, 3.828032
547.0129, 3.865826
547.4951, 3.847919
547.9772, 3.776313
548.4593, 3.731339
548.9414, 3.751056
549.4235, 3.809762
549.9056, 3.891757
550.3878, 4.030535
550.8699, 4.026690
551.3520, 3.691373
551.8341, 3.314855
552.3162, 3.129426
552.7983, 3.125305
553.2805, 3.194479
553.7626, 3.278169
554.2447, 3.377128
554.7268, 3.499436
555.2089, 3.704039
555.6910, 3.822886
556.1732, 3.837626
556.6553, 3.789912
557.1374, 3.661701
557.6195, 3.489626
558.1016, 3.362433
558.5837, 3.334345
559.0659, 3.387587
559.5480, 3.507068
560.0301, 3.714838
560.5122, 3.850359
560.9943, 3.818904
561.4764, 3.742724
561.9586, 3.771579
562.4407, 3.893918
562.9228, 3.930774
563.4049, 3.720472
563.8870, 3.458764
564.3691, 3.360736
564.8513, 3.409080
565.3334, 3.486622
565.8155, 3.548263
566.2976, 3.587573
566.7797, 3.586408
567.2618, 3.500215
567.7440, 3.481570
568.2261, 3.609384
568.7082, 3.731730
569.1903, 3.771382
569.6724, 3.732438
570.1545, 3.627537
570.6367, 3.457853
571.1188, 3.280834
571.6009, 3.242574
572.0830, 3.401044
572.5651, 3.471583
573.0472, 3.304492
573.5294, 3.161545
574.0115, 3.246078
574.4936, 3.471050
574.9757, 3.577031
575.4578, 3.370379
575.9399, 3.118787
576.4221, 3.177061
576.9042, 3.487108
577.3863, 3.732671
577.8684, 3.839321
578.3505, 3.803055
578.8326, 3.551568
579.3148, 3.060177
579.7969, 2.806725
580.2790, 2.958846
580.7611, 3.190545
581.2432, 3.418752
581.7253, 3.599124
582.2075, 3.652434
582.6896, 3.556856
583.1717, 3.413625
583.6538, 3.374482
584.1359, 3.467216
584.6180, 3.461468
585.1002, 3.217803
585.5823, 3.041898
586.0643, 3.058340
586.5464, 3.184012
587.0286, 3.333137
587.5107, 3.488531
587.9928, 3.575694
588.4749, 3.436326
588.9570, 3.156994
589.4391, 3.133542
589.9213, 3.474370
590.4034, 3.749729
590.8855, 3.594083
591.3676, 3.150352
591.8497, 2.976018
592.3318, 3.270842
592.8140, 3.488547
593.2961, 3.372648
593.7782, 3.139873
594.2603, 3.033012
594.7424, 3.076026
595.2245, 3.155356
595.7067, 3.179109
596.1888, 3.162940
596.6709, 3.199216
597.1530, 3.327868
597.6351, 3.440891
598.1172, 3.555928
598.5994, 3.628196
599.0815, 3.608750
599.5636, 3.508815
600.0457, 3.391140
600.5278, 3.267722
601.0099, 3.171552
601.4921, 3.199075
601.9742, 3.352728
602.4563, 3.436970
602.9384, 3.351321
603.4205, 3.211569
603.9026, 3.186704
604.3848, 3.277084
604.8669, 3.363862
605.3490, 3.428646
605.8311, 3.487461
606.3132, 3.569439
606.7953, 3.651445
607.2775, 3.669903
607.7596, 3.601516
608.2417, 3.513064
608.7238, 3.518706
609.2059, 3.650800
609.6880, 3.714199
610.1702, 3.618199
610.6523, 3.556622
611.1344, 3.646191
611.6165, 3.786510
612.0986, 3.826114
612.5807, 3.716399
613.0629, 3.576620
613.5450, 3.502596
614.0271, 3.487085
614.5092, 3.542580
614.9913, 3.692386
615.4734, 3.733231
615.9556, 3.459351
616.4377, 3.001126
616.9198, 2.816434
617.4019, 3.017745
617.8840, 3.241760
618.3661, 3.528478
618.8483, 3.728314
619.3304, 3.628583
619.8125, 3.291913
620.2946, 2.989138
620.7767, 2.896296
621.2589, 2.965660
621.7410, 3.077329
622.2231, 3.269027
622.7052, 3.390493
623.1873, 3.363460
623.6694, 3.312660
624.1516, 3.310970
624.6337, 3.343981
625.1158, 3.363678
625.5979, 3.365057
626.0800, 3.326133
626.5621, 3.136719
627.0443, 2.877755
627.5264, 2.906835
628.0085, 3.349046
628.4906, 3.765571
628.9727, 3.684086
629.4548, 3.102433
629.9370, 2.764854
630.4191, 2.781667
630.9012, 2.863873
631.3833, 3.011538
631.8654, 3.155562
632.3475, 3.209248
632.8297, 3.173995
633.3118, 3.141824
633.7939, 3.199442
634.2760, 3.320877
634.7581, 3.392866
635.2402, 3.400710
635.7224, 3.419388
636.2045, 3.503393
636.6866, 3.578727
637.1687, 3.547191
637.6508, 3.416136
638.1329, 3.331424
638.6151, 3.345592
639.0972, 3.417377
639.5793, 3.558909
640.0614, 3.728488
640.5435, 3.827423
641.0256, 3.820472
641.5078, 3.727099
641.9899, 3.552751
642.4720, 3.270895
642.9541, 3.126576
643.4362, 3.228195
643.9183, 3.347846
644.4005, 3.467294
644.8826, 3.562564
645.3647, 3.614896
645.8468, 3.619251
646.3289, 3.571517
646.8110, 3.417675
647.2932, 3.219083
647.7753, 3.146451
648.2574, 3.208507
648.7395, 3.274229
649.2216, 3.283259
649.7037, 3.267010
650.1859, 3.271520
650.6680, 3.284589
651.1501, 3.370194
651.6322, 3.693954
652.1143, 3.935048
652.5964, 3.860864
653.0786, 3.578283
653.5607, 3.262048
654.0428, 2.986339
654.5249, 2.801567
655.0070, 2.820773
655.4891, 3.055038
655.9713, 3.175750
656.4534, 3.112726
656.9355, 3.072263
657.4176, 3.176685
657.8997, 3.346583
658.3818, 3.503994
658.8640, 3.645450
659.3461, 3.743530
659.8282, 3.775295
660.3103, 3.764254
660.7924, 3.731813
661.2745, 3.680919
661.7567, 3.609447
662.2388, 3.514384
662.7209, 3.411133
663.2030, 3.326653
663.6851, 3.257289
664.1672, 3.218069
664.6494, 3.200722
665.1315, 3.223531
665.6136, 3.334859
666.0957, 3.474367
666.5778, 3.545721
667.0599, 3.519646
667.5421, 3.497162
668.0242, 3.585930
668.5063, 3.739589
668.9884, 3.858062
669.4705, 3.934650
669.9526, 3.945737
670.4348, 3.869581
670.9169, 3.730902
671.3990, 3.570877
671.8811, 3.322783
672.3632, 3.226197
672.8453, 3.414910
673.3275, 3.628328
673.8096, 3.732701
674.2917, 3.758341
674.7738, 3.784568
675.2559, 3.840974
675.7380, 3.876059
676.2202, 3.812910
676.7023, 3.661321
677.1844, 3.500808
677.6665, 3.301771
678.1486, 3.209484
678.6307, 3.365928
679.1129, 3.638706
679.5950, 3.777154
680.0771, 3.763827
680.5592, 3.706342
681.0413, 3.591993
681.5234, 3.476595
682.0056, 3.374769
682.4877, 3.310010
682.9698, 3.347542
683.4519, 3.513227
683.9340, 3.712056
684.4161, 3.795035
684.8983, 3.749425
685.3804, 3.745796
685.8625, 3.853494
686.3446, 3.880693
686.8267, 3.595135
687.3088, 3.261798
687.7910, 3.225910
688.2731, 3.551048
688.7552, 3.829035
689.2373, 3.862802
689.7194, 3.774892
690.2015, 3.641793
690.6837, 3.497167
691.1658, 3.433467
691.6479, 3.491104
692.1300, 3.595410
692.6121, 3.633422
693.0942, 3.591758
693.5764, 3.576415
694.0585, 3.574210
694.5406, 3.618973
695.0227, 3.777604
695.5048, 3.951203
695.9869, 4.029504
696.4691, 3.998196
696.9512, 3.941883
697.4333, 3.861693
697.9154, 3.814629
698.3975, 3.950809
698.8796, 4.213940
699.3618, 4.290068
699.8439, 4.048536
700.3260, 3.718465
700.8081, 3.616496
701.2902, 3.779601
701.7723, 3.819318
702.2545, 3.481824
702.7366, 3.671258
703.2187, 3.794402
703.7008, 3.854813
704.1829, 3.664598
704.6650, 3.798009
705.1472, 3.801738
705.6293, 3.800133
706.1114, 3.979098
706.5935, 3.825336
707.0756, 4.001437
707.5577, 4.010384
708.0399, 3.915709
708.5220, 3.849452
709.0041, 3.991051
709.4862, 4.341804
709.9683, 4.432686
710.4504, 3.989679
710.9326, 3.661588
711.4147, 3.633142
711.8968, 3.703579
712.3789, 3.702725
712.8610, 3.625338
713.3431, 3.556140
713.8253, 3.545364
714.3074, 3.571994
714.7895, 3.621500
715.2716, 3.685900
715.7537, 3.689958
716.2358, 3.599707
716.7180, 3.545247
717.2001, 3.666641
717.6822, 3.921713
718.1643, 4.027326
718.6464, 3.903458
719.1285, 3.754344
719.6107, 3.506157
720.0928, 3.318336
720.5749, 3.339026
721.0570, 3.518833
721.5391, 3.716800
722.0212, 3.872480
722.5034, 3.974197
722.9855, 3.999608
723.4676, 3.954646
723.9497, 3.848098
724.4318, 3.660376
724.9139, 3.552524
725.3961, 3.667396
725.8782, 3.902074
726.3603, 3.954779
726.8424, 3.693640
727.3245, 3.560458
727.8066, 3.718655
728.2888, 3.870833
728.7709, 3.813047
729.2530, 3.639768
729.7351, 3.525341
730.2172, 3.530648
730.6993, 3.606470
731.1815, 3.749224
731.6636, 3.920845
732.1457, 3.965002
732.6278, 3.870598
733.1099, 3.732709
733.5920, 3.554614
734.0742, 3.413430
734.5563, 3.449289
735.0384, 3.716885
735.5205, 3.885702
736.0026, 3.923984
736.4847, 3.902290
736.9669, 3.813999
737.4490, 3.697088
737.9311, 3.560189
738.4132, 3.424837
738.8953, 3.377097
739.3774, 3.534020
739.8596, 3.778153
740.3417, 3.842851
740.8238, 3.740673
741.3059, 3.679771
741.7880, 3.727103
742.2701, 3.777147
742.7523, 3.705510
743.2344, 3.527801
743.7165, 3.489919
744.1986, 3.756802
744.6807, 3.924174
745.1628, 3.798062
745.6450, 3.674095
746.1271, 3.892330
746.6092, 4.314241
747.0913, 4.476815
747.5734, 4.106403
748.0555, 3.590811
748.5377, 3.402741
749.0198, 3.474792
749.5019, 3.576901
749.9840, 3.684672
750.4661, 3.769190
750.9482, 3.807294
751.4304, 3.819794
751.9125, 3.861270
752.3946, 3.964517
752.8767, 4.017630
753.3588, 4.017128
753.8409, 3.975032
754.3231, 3.840044
754.8052, 3.691303
755.2873, 3.646694
755.7694, 3.731509
756.2515, 3.840233
756.7336, 3.915181
757.2158, 3.952410
757.6979, 3.915182
758.1800, 3.822626
758.6621, 3.796454
759.1442, 3.884446
759.6263, 4.000740
760.1085, 4.050074
760.5906, 4.032287
761.0727, 3.963214
761.5548, 3.806331
762.0369, 3.650939
762.5190, 3.437764
763.0012, 3.290681
763.4833, 3.321615
763.9654, 3.505204
764.4475, 3.728266
764.9296, 3.976931
765.4117, 4.196832
765.8939, 4.344144
766.3760, 4.431842
766.8581, 4.496764
767.3402, 4.536640
767.8223, 4.485736
768.3044, 4.292354
768.7866, 4.022045
769.2687, 3.833611
769.7508, 3.724317
770.2329, 3.708704
770.7150, 3.832088
771.1971, 3.988409
771.6793, 4.208723
772.1614, 4.396173
772.6435, 4.376682
773.1256, 4.104667
773.6077, 3.899869
774.0898, 3.952073
774.5720, 4.059495
775.0541, 4.065658
775.5362, 3.997494
776.0183, 3.906100
776.5004, 3.814864
776.9825, 3.769650
777.4647, 3.832686
777.9468, 3.974435
778.4289, 4.036977
778.9110, 4.001617
779.3931, 3.991974
779.8752, 4.055677
780.3574, 4.125445
780.8395, 4.144716
781.3216, 4.118134
781.8037, 4.068875
782.2858, 3.939538
782.7679, 3.872318
783.2501, 3.913108
783.7322, 4.019517
784.2143, 4.234269
784.6964, 4.477968
785.1785, 4.555579
785.6606, 4.372202
786.1428, 4.106524
786.6249, 3.954871
787.1070, 3.908405
787.5891, 3.954840
788.0712, 4.097501
788.5533, 4.224096
789.0355, 4.288544
789.5176, 4.299959
789.9997, 4.265251
790.4818, 4.173831
790.9639, 4.102395
791.4460, 4.051452
791.9282, 4.018804
792.4103, 4.016238
792.8924, 4.022881
793.3745, 4.008898
793.8566, 3.981709
794.3387, 3.993030
794.8209, 4.111805
795.3030, 4.212168
795.7851, 4.124796
796.2672, 3.937901
796.7493, 3.862267
797.2314, 3.917622
797.7136, 3.947906
798.1957, 3.840385
798.6778, 3.686308
799.1599, 3.737777
799.6420, 4.079972
800.1241, 4.266282
800.6063, 4.178984
801.0884, 4.105714
801.5705, 4.278484
802.0526, 4.488805
802.5347, 4.349221
803.0168, 4.494383
803.4990, 4.573248
803.9811, 4.589382
804.4632, 4.354890
804.9453, 4.444029
805.4274, 4.403471
805.9095, 4.357596
806.3917, 4.492282
806.8738, 4.294244
807.3559, 4.426069
807.8380, 4.426219
808.3201, 4.486632
808.8022, 4.416550
809.2844, 4.496204
809.7665, 4.412827
810.2486, 4.279687
810.7307, 4.207807
811.2128, 4.185312
811.6949, 4.177034
812.1771, 4.175121
812.6592, 4.205376
813.1413, 4.355162
813.6234, 4.439883
814.1055, 4.286150
814.5876, 4.062868
815.0698, 4.034040
815.5519, 4.238377
816.0340, 4.406024
816.5161, 4.290720
816.9982, 4.111560
817.4803, 4.138151
817.9625, 4.309689
818.4446, 4.500128
818.9267, 4.666636
819.4088, 4.688928
819.8909, 4.433706
820.3730, 4.015698
820.8552, 3.864683
821.3373, 4.047215
821.8194, 4.203278
822.3015, 4.292191
822.7836, 4.356451
823.2657, 4.427444
823.7479, 4.488357
824.2300, 4.505407
824.7121, 4.473860
825.1942, 4.414014
825.6763, 4.308678
826.1584, 4.198727
826.6406, 4.043468
827.1227, 3.928272
827.6048, 4.030317
828.0869, 4.344749
828.5690, 4.599929
829.0511, 4.545812
829.5333, 4.352738
830.0154, 4.329189
830.4975, 4.437419
830.9796, 4.493193
831.4617, 4.460268
831.9438, 4.378451
832.4260, 4.264086
832.9081, 4.143023
833.3902, 4.100705
833.8723, 4.191119
834.3544, 4.216255
834.8365, 4.090902
835.3187, 4.008184
835.8008, 4.106380
836.2829, 4.252198
836.7650, 4.249952
837.2471, 4.078156
837.7292, 3.990288
838.2114, 4.190406
838.6935, 4.368478
839.1756, 4.244680
839.6577, 4.020250
840.1398, 4.013248
840.6219, 4.231354
841.1041, 4.434811
841.5862, 4.466708
842.0683, 4.388026
842.5504, 4.260779
843.0325, 4.105043
843.5146, 4.096712
843.9968, 4.271871
844.4789, 4.364343
844.9610, 4.199416
845.4431, 3.939440
845.9252, 3.888201
846.4073, 4.096602
846.8895, 4.256440
847.3716, 4.382092
847.8537, 4.436860
848.3358, 4.385847
848.8179, 4.283666
849.3000, 4.138430
849.7822, 3.976899
850.2643, 3.907836
850.7464, 4.010241
851.2285, 4.140160
851.7106, 4.231997
852.1927, 4.295581
852.6749, 4.366901
853.1570, 4.422156
853.6391, 4.174993
854.1212, 4.312123
854.6033, 4.382960
855.0854, 4.391062
855.5676, 4.148536
856.0497, 4.229645
856.5318, 4.181056
857.0139, 4.127148
857.4960, 4.253806
857.9781, 4.047735
858.4603, 4.067253
858.9424, 4.140132
859.4245, 4.194319
859.9066, 4.252403
860.3887, 4.251882
860.8708, 4.135169
861.3530, 4.014536
861.8351, 3.912271
862.3172, 3.857839
862.7993, 3.927036
863.2814, 4.163024
863.7635, 4.331772
864.2457, 4.293581
864.7278, 4.190309
865.2099, 4.110778
865.6920, 4.055609
866.1741, 4.012181
866.6563, 3.980106
867.1384, 3.979844
867.6205, 4.038041
868.1026, 4.115747
868.5847, 4.140471
869.0668, 4.116427
869.5490, 4.047533
870.0311, 3.929453
870.5132, 3.897856
870.9953, 4.059224
871.4774, 4.286368
871.9595, 4.302589
872.4417, 4.038095
872.9238, 3.951254
873.4059, 4.205244
873.8880, 4.377383
874.3701, 4.218258
874.8522, 4.021445
875.3344, 4.083752
875.8165, 4.353048
876.2986, 4.490201
876.7807, 4.358646
877.2628, 4.191350
877.7449, 4.028943
878.2271, 3.899530
878.7092, 3.804246
879.1913, 3.768921
879.6734, 3.884463
880.1555, 4.176132
880.6376, 4.425011
881.1198, 4.384920
881.6019, 4.183322
882.0840, 4.015349
882.5661, 3.895249
883.0482, 3.887364
883.5303, 4.004988
884.0125, 4.147047
884.4946, 4.233424
884.9767, 4.267733
885.4588, 4.249653
885.9409, 4.162256
886.4230, 4.122158
886.9052, 4.162753
887.3873, 4.194031
887.8694, 4.177444
888.3515, 4.121276
888.8336, 4.028055
889.3157, 3.889216
889.7979, 3.780683
890.2800, 3.687770
890.7621, 3.646410
891.2442, 3.681407
891.7263, 3.759378
892.2084, 3.900916
892.6906, 4.059249
893.1727, 4.092439
893.6548, 3.907575
894.1369, 3.751644
894.6190, 3.839884
895.1011, 4.011133
895.5833, 4.100693
896.0654, 4.105280
896.5475, 4.012991
897.0296, 3.839382
897.5117, 3.741585
897.9938, 3.916369
898.4760, 4.218450
898.9581, 4.213726
899.4402, 3.934502
899.9223, 3.786397
900.4044, 3.845382
900.8865, 3.958085
901.3687, 4.049669
901.8508, 4.083554
902.3329, 3.952812
902.8150, 3.579851
903.2971, 3.446623
903.7792, 3.782680
904.2614, 3.796575
904.7435, 3.867289
905.2256, 3.871719
905.7077, 3.813406
906.1898, 3.504470
906.6719, 3.519175
907.1541, 3.404155
907.6362, 3.283838
908.1183, 3.344096
908.6004, 3.801868
909.0825, 3.950237
909.5646, 3.876206
910.0468, 3.842864
910.5289, 3.913650
911.0110, 3.930995
911.4931, 3.728344
911.9752, 3.471154
912.4573, 3.312760
912.9395, 3.243630
913.4216, 3.254484
913.9037, 3.333668
914.3858, 3.454927
914.8679, 3.608246
915.3500, 3.740618
915.8321, 3.728986
916.3142, 3.600191
916.7963, 3.588598
917.2784, 3.709468
917.7606, 3.762997
918.2427, 3.663170
918.7248, 3.539943
919.2069, 3.536714
919.6890, 3.634594
920.1711, 3.684234
920.6533, 3.653588
921.1354, 3.652628
921.6175, 3.712333
922.0996, 3.773723
922.5817, 3.820960
923.0638, 3.844334
923.5460, 3.816426
924.0281, 3.727542
924.5102, 3.672171
924.9923, 3.662569
925.4744, 3.688970
925.9565, 3.820512
926.4387, 3.929322
926.9208, 3.859676
927.4029, 3.663851
927.8850, 3.520702
928.3671, 3.496904
928.8492, 3.516246
929.3314, 3.571995
929.8135, 3.607283
930.2956, 3.499858
930.7777, 3.335242
931.2598, 3.336406
931.7419, 3.531320
932.2241, 3.704496
932.7062, 3.676029
933.1883, 3.554672
933.6704, 3.570873
934.1525, 3.674326
934.6346, 3.580654
935.1168, 3.275031
935.5989, 3.127005
936.0810, 3.325865
936.5631, 3.625614
937.0452, 3.676034
937.5273, 3.498165
938.0095, 3.466155
938.4916, 3.645341
938.9737, 3.692048
939.4558, 3.492129
939.9379, 3.246620
940.4200, 3.055649
940.9022, 2.938196
941.3843, 2.949890
941.8664, 3.135576
942.3485, 3.313475
942.8306, 3.525083
943.3127, 3.675215
943.7949, 3.713432
944.2770, 3.699796
944.7591, 3.692542
945.2412, 3.682507
945.7233, 3.608784
946.2054, 3.390161
946.6876, 3.256750
947.1697, 3.367798
947.6518, 3.519793
948.1339, 3.570544
948.6160, 3.553744
949.0981, 3.545472
949.5803, 3.555681
950.0624, 3.521329
950.5445, 3.363559
951.0266, 3.205848
951.5087, 3.188505
951.9908, 3.246102
952.4730, 3.255456
952.9551, 3.227993
953.4372, 3.276014
953.9193, 3.442448
954.4014, 3.607142
954.8835, 3.640190
955.3657, 3.562277
955.8478, 3.395243
956.3299, 3.158550
956.8120, 2.992784
957.2941, 2.925941
957.7762, 2.918853
958.2584, 2.947970
958.7405, 3.012722
959.2226, 3.128981
959.7047, 3.305542
960.1868, 3.378964
960.6689, 3.322215
961.1511, 3.266738
961.6332, 3.234172
962.1153, 3.246901
962.5974, 3.331199
963.0795, 3.476252
963.5616, 3.642493
964.0438, 3.917767
964.5259, 4.025626
965.0080, 3.860988
965.4901, 3.663217
965.9722, 3.454400
966.4543, 3.294642
966.9365, 3.257041
967.4186, 3.334719
967.9007, 3.447617
968.3828, 3.702721
968.8649, 3.819481
969.3470, 3.621522
969.8292, 3.382720
970.3113, 3.244459
970.7934, 3.199973
971.2755, 3.235229
971.7576, 3.341603
972.2397, 3.458138
972.7219, 3.612680
973.2040, 3.701745
973.6861, 3.552374
974.1682, 3.378266
974.6503, 3.503371
975.1324, 3.816772
975.6146, 3.946622
976.0967, 3.764836
976.5788, 3.542143
977.0609, 3.526154
977.5430, 3.597831
978.0251, 3.589476
978.5073, 3.536265
978.9894, 3.526886
979.4715, 3.567544
979.9536, 3.608868
980.4357, 3.625003
980.9178, 3.608714
981.4000, 3.502895
981.8821, 3.359005
982.3642, 3.424793
982.8463, 3.670064
983.3284, 3.808822
983.8105, 3.769938
984.2927, 3.652420
984.7748, 3.525222
985.2569, 3.385395
985.7390, 3.197569
986.2211, 2.952485
986.7032, 2.878679
987.1854, 3.007635
987.6675, 3.155248
988.1496, 3.282920
988.6317, 3.352645
989.1138, 3.305092
989.5959, 3.183754
990.0781, 3.187321
990.5602, 3.385205
991.0423, 3.507621
991.5244, 3.543339
992.0065, 3.511920
992.4886, 3.376756
992.9708, 3.219741
993.4529, 3.102991
993.9350, 3.034147
994.4171, 3.106960
994.8992, 3.561086
995.3813, 3.783899
995.8635, 3.511807
996.3456, 3.283859
996.8277, 3.416785
997.3098, 3.677536
997.7919, 3.803276
998.2740, 3.775578
998.7562, 3.633526
999.2383, 3.174146
999.7204, 2.898523
1000.203, 3.084857
1000.685, 3.349936
1001.167, 3.451766
1001.649, 3.442833
1002.131, 3.423942
1002.613, 3.415347
1003.095, 3.415660
1003.577, 3.448829
1004.059, 3.460353
1004.542, 3.370587
1005.024, 3.285062
1005.506, 3.353551
1005.988, 3.502189
1006.470, 3.538334
1006.952, 3.414389
1007.434, 3.295597
1007.916, 3.329707
1008.398, 3.383762
1008.881, 3.275077
1009.363, 3.136318
1009.845, 3.205934
1010.327, 3.434425
1010.809, 3.596551
1011.291, 3.603604
1011.773, 3.536301
1012.255, 3.456436
1012.738, 3.359516
1013.220, 3.155993
1013.702, 2.950392
1014.184, 3.086999
1014.666, 3.520800
1015.148, 3.795260
1015.630, 3.687182
1016.112, 3.457815
1016.594, 3.425133
1017.077, 3.512875
1017.559, 3.499646
1018.041, 3.414187
1018.523, 3.420034
1019.005, 3.535001
1019.487, 3.613669
1019.969, 3.572363
1020.451, 3.473724
1020.934, 3.410717
1021.416, 3.374486
1021.898, 3.300517
1022.380, 3.190877
1022.862, 3.123133
1023.344, 3.112506
1023.826, 3.148274
1024.308, 3.232300
1024.791, 3.322020
1025.273, 3.328495
1025.755, 3.255944
1026.237, 3.272256
1026.719, 3.394994
1027.201, 3.459588
1027.683, 3.416560
1028.165, 3.383292
1028.647, 3.455504
1029.130, 3.552746
1029.612, 3.488015
1030.094, 3.238460
1030.576, 3.137297
1031.058, 3.234469
1031.540, 3.309515
1032.022, 3.319906
1032.504, 3.285862
1032.986, 3.212511
1033.469, 3.111277
1033.951, 2.990570
1034.433, 2.820088
1034.915, 2.825190
1035.397, 3.065100
1035.879, 3.370516
1036.361, 3.868864
1036.843, 4.182877
1037.326, 3.961248
1037.808, 3.409096
1038.290, 2.976830
1038.772, 2.636048
1039.254, 2.542274
1039.736, 2.863565
1040.218, 3.166665
1040.700, 3.390533
1041.182, 3.547723
1041.665, 3.622895
1042.147, 3.641661
1042.629, 3.672273
1043.111, 3.738782
1043.593, 3.712115
1044.075, 3.441711
1044.557, 3.282300
1045.039, 3.424809
1045.521, 3.584301
1046.004, 3.495733
1046.486, 3.301776
1046.968, 3.364502
1047.450, 3.792722
1047.932, 3.978947
1048.414, 3.643470
1048.896, 3.354032
1049.378, 3.282035
1049.861, 3.284082
1050.343, 3.273619
1050.825, 3.253550
1051.307, 3.232786
1051.789, 3.206890
1052.271, 3.232118
1052.753, 3.327077
1053.235, 3.464063
1053.718, 3.740312
1054.200, 3.953950
1054.682, 3.919169
1055.164, 3.725476
1055.646, 3.533259
1056.128, 3.363898
1056.610, 3.260514
1057.092, 3.270548
1057.574, 3.299881
1058.057, 3.328060
1058.539, 3.351232
1059.021, 3.363043
1059.503, 3.369768
1059.985, 3.391353
1060.467, 3.430351
1060.949, 3.432794
1061.431, 3.322246
1061.913, 3.251317
1062.396, 3.344368
1062.878, 3.436342
1063.360, 3.371803
1063.842, 3.226833
1064.324, 3.145603
1064.806, 3.148161
1065.288, 3.142358
1065.770, 3.103332
1066.253, 3.037065
1066.735, 2.872587
1067.217, 2.754088
1067.699, 2.846662
1068.181, 3.034014
1068.663, 3.130228
1069.145, 3.110166
1069.627, 3.057707
1070.109, 2.928195
1070.592, 2.900883
1071.074, 3.198356
1071.556, 3.484064
1072.038, 3.451864
1072.520, 3.272665
1073.002, 3.230070
1073.484, 3.337501
1073.966, 3.386961
1074.448, 3.285897
1074.931, 3.152968
1075.413, 2.972013
1075.895, 2.855413
1076.377, 2.927890
1076.859, 3.088281
1077.341, 3.232504
1077.823, 3.328735
1078.305, 3.327642
1078.788, 3.176476
1079.270, 3.044428
1079.752, 3.035635
1080.234, 3.046504
1080.716, 2.975292
1081.198, 2.905740
1081.680, 2.962105
1082.162, 3.118263
1082.644, 3.250834
1083.127, 3.327135
1083.609, 3.350584
1084.091, 3.289607
1084.573, 3.215204
1085.055, 3.150910
1085.537, 3.111069
1086.019, 3.107878
1086.501, 3.140625
1086.984, 3.230007
1087.466, 3.395469
1087.948, 3.454833
1088.430, 3.192303
1088.912, 2.977551
1089.394, 3.033710
1089.876, 3.198430
1090.358, 3.402497
1090.840, 3.564920
1091.323, 3.511080
1091.805, 3.206422
1092.287, 3.008587
1092.769, 3.128482
1093.251, 3.277034
1093.733, 3.368609
1094.215, 3.407836
1094.697, 3.377941
1095.179, 3.309009
1095.662, 3.236675
1096.144, 3.169467
1096.626, 3.131277
1097.108, 3.156099
1097.590, 3.169338
1098.072, 3.105310
1098.554, 3.067098
1099.036, 3.158091
1099.519, 3.289433
1100.001, 3.343455
1100.483, 3.318525
1100.965, 3.288171
1101.447, 3.282908
1101.929, 3.242264
1102.411, 3.106892
1102.893, 2.985896
1103.375, 2.886200
1103.858, 2.860765
1104.340, 3.021708
1104.822, 3.300995
1105.304, 3.455501
1105.786, 3.411737
1106.268, 3.385863
1106.750, 3.467201
1107.232, 3.504456
1107.714, 3.429137
1108.197, 3.308157
1108.679, 3.147245
1109.161, 2.993820
1109.643, 2.972531
1110.125, 3.125515
1110.607, 3.174785
1111.089, 2.934589
1111.571, 2.820242
1112.054, 3.047031
1112.536, 3.270305
1113.018, 3.285774
1113.500, 3.180423
1113.982, 3.058516
1114.464, 2.920003
1114.946, 2.900668
1115.428, 3.125714
1115.911, 3.259998
1116.393, 3.210480
1116.875, 3.175068
1117.357, 3.264477
1117.839, 3.376043
1118.321, 3.410651
1118.803, 3.370460
1119.285, 3.258017
1119.767, 2.985782
1120.250, 2.869366
1120.732, 2.999977
1121.214, 3.099898
1121.696, 3.081012
1122.178, 3.014815
1122.660, 2.926806
1123.142, 2.862586
1123.624, 2.968453
1124.106, 3.292905
1124.589, 3.393489
1125.071, 3.190833
1125.553, 3.041574
1126.035, 3.029992
1126.517, 3.027400
1126.999, 2.946288
1127.481, 2.856837
1127.963, 2.873458
1128.446, 2.987671
1128.928, 3.119137
1129.410, 3.281155
1129.892, 3.310322
1130.374, 3.162485
1130.856, 3.111052
1131.338, 3.291868
1131.820, 3.470047
1132.302, 3.377356
1132.785, 3.122548
1133.267, 3.031655
1133.749, 3.099975
1134.231, 3.305320
1134.713, 3.637939
1135.195, 3.823712
1135.677, 3.786994
1136.159, 3.650966
1136.641, 3.494922
1137.124, 3.344894
1137.606, 3.253034
1138.088, 3.201849
1138.570, 3.110825
1139.052, 2.997519
1139.534, 2.941522
1140.016, 2.956492
1140.498, 3.057671
1140.981, 3.249537
1141.463, 3.402076
1141.945, 3.370163
1142.427, 3.220583
1142.909, 2.988732
1143.391, 2.763487
1143.873, 2.791675
1144.355, 3.008675
1144.838, 3.147061
1145.320, 3.141755
1145.802, 3.144132
1146.284, 3.268998
1146.766, 3.393786
1147.248, 3.395010
1147.730, 3.325651
1148.212, 3.188195
1148.694, 3.059031
1149.177, 3.104299
1149.659, 3.284472
1150.141, 3.372561
1150.623, 3.275213
1151.105, 3.145776
1151.587, 3.022845
1152.069, 2.966372
1152.551, 3.057093
1153.033, 3.200900
1153.516, 3.383058
1153.998, 3.510831
1154.480, 3.358190
1154.962, 2.910069
1155.444, 2.621560
1155.926, 2.750435
1156.408, 2.903786
1156.890, 3.003130
1157.373, 3.048488
1157.855, 3.001053
1158.337, 2.927814
1158.819, 2.902752
1159.301, 2.922456
1159.783, 2.943806
1160.265, 2.940350
1160.747, 3.000039
1161.229, 3.202220
1161.712, 3.363556
1162.194, 3.437309
1162.676, 3.467443
1163.158, 3.467458
1163.640, 3.453115
1164.122, 3.450489
1164.604, 3.459426
1165.086, 3.496471
1165.568, 3.607857
1166.051, 3.588578
1166.533, 3.355469
1167.015, 3.190139
1167.497, 3.227413
1167.979, 3.330594
1168.461, 3.366887
1168.943, 3.347024
1169.425, 3.288470
1169.908, 3.188539
1170.390, 3.190221
1170.872, 3.299999
1171.354, 3.305047
1171.836, 3.153575
1172.318, 3.032226
1172.800, 3.054961
1173.282, 3.155382
1173.765, 3.264134
1174.247, 3.358705
1174.729, 3.356365
1175.211, 3.281964
1175.693, 3.209297
1176.175, 3.153838
1176.657, 3.146501
1177.139, 3.191303
1177.621, 3.233150
1178.104, 3.238919
1178.586, 3.199056
1179.068, 3.044649
1179.550, 2.883497
1180.032, 2.869463
1180.514, 2.959481
1180.996, 3.112136
1181.478, 3.276203
1181.960, 3.315370
1182.443, 3.174745
1182.925, 3.060557
1183.407, 3.176090
1183.889, 3.251728
1184.371, 3.006813
1184.853, 2.762828
1185.335, 2.826646
1185.817, 3.074063
1186.300, 3.353002
1186.782, 3.607155
1187.264, 3.614583
1187.746, 3.157059
1188.228, 2.817692
1188.710, 2.726472
1189.192, 2.730749
1189.674, 2.841259
1190.156, 2.965516
1190.639, 3.045025
1191.121, 3.080017
1191.603, 3.047600
1192.085, 2.931480
1192.567, 2.980396
1193.049, 3.295097
1193.531, 3.481864
1194.013, 3.481308
1194.495, 3.390188
1194.978, 3.223830
1195.460, 3.061564
1195.942, 2.982561
1196.424, 2.976363
1196.906, 3.026835
1197.388, 3.130052
1197.870, 3.201008
1198.352, 3.239309
1198.835, 3.279584
1199.317, 3.325853
1199.799, 3.326257
1200.281, 3.252854
1200.763, 3.158036
1201.245, 3.102883
1201.727, 3.064615
1202.209, 2.969681
1202.692, 2.875363
1203.174, 2.939602
1203.656, 3.102355
1204.138, 3.165871
1204.620, 3.107693
1205.102, 3.076533
1205.584, 3.151110
1206.066, 3.252091
1206.548, 3.387048
1207.031, 3.451581
1207.513, 3.263663
1207.995, 3.047600
1208.477, 3.083832
1208.959, 3.267601
1209.441, 3.336947
1209.923, 3.254082
1210.405, 3.193009
1210.887, 3.215894
1211.370, 3.229844
1211.852, 3.197567
1212.334, 3.182404
1212.816, 3.233906
1213.298, 3.289566
1213.780, 3.287426
1214.262, 3.256249
1214.744, 3.273599
1215.227, 3.347453
1215.709, 3.389632
1216.191, 3.413289
1216.673, 3.319149
1217.155, 3.046674
1217.637, 2.936979
1218.119, 3.174101
1218.601, 3.387719
1219.083, 3.165999
1219.566, 2.750211
1220.048, 2.755122
1220.530, 3.086510
1221.012, 3.371612
1221.494, 3.572540
1221.976, 3.487188
1222.458, 3.165462
1222.940, 3.100584
1223.422, 3.502061
1223.905, 3.872471
1224.387, 3.731441
1224.869, 3.421416
1225.351, 3.284139
1225.833, 3.211177
1226.315, 3.028178
1226.797, 2.837467
1227.279, 2.842947
1227.762, 3.029891
1228.244, 3.248185
1228.726, 3.492320
1229.208, 3.543534
1229.690, 3.068715
1230.172, 2.748987
1230.654, 3.004550
1231.136, 3.296234
1231.619, 3.222978
1232.101, 3.011047
1232.583, 3.008898
1233.065, 3.163231
1233.547, 3.101087
1234.029, 2.672132
1234.511, 2.561280
1234.993, 2.866559
1235.475, 3.130428
1235.958, 3.258954
1236.440, 3.266917
1236.922, 3.142216
1237.404, 3.018248
1237.886, 3.092080
1238.368, 3.282612
1238.850, 3.315899
1239.332, 3.244610
1239.814, 3.324005
1240.297, 3.512717
1240.779, 3.548279
1241.261, 3.398913
1241.743, 3.267778
1242.225, 3.263199
1242.707, 3.245945
1243.189, 3.005601
1243.671, 2.795539
1244.154, 2.881873
1244.636, 3.086081
1245.118, 3.248909
1245.600, 3.367513
1246.082, 3.510117
1246.564, 3.649020
1247.046, 3.566271
1247.528, 3.051371
1248.010, 2.791280
1248.493, 3.187774
1248.975, 3.433614
1249.457, 3.169934
1249.939, 2.922026
1250.421, 3.012987
1250.903, 3.239322
1251.385, 3.337031
1251.867, 3.325225
1252.349, 3.308118
1252.832, 3.284775
1253.314, 3.264256
1253.796, 3.246250
1254.278, 3.279942
1254.760, 3.373394
1255.242, 3.373523
1255.724, 3.193455
1256.206, 3.059223
1256.689, 3.300185
1257.171, 3.618916
1257.653, 3.423773
1258.135, 3.027240
1258.617, 2.982878
1259.099, 3.168679
1259.581, 3.292748
1260.063, 3.299938
1260.546, 3.212880
1261.028, 3.024302
1261.510, 2.912235
1261.992, 2.989098
1262.474, 3.112065
1262.956, 3.300902
1263.438, 3.432428
1263.920, 3.387664
1264.402, 3.275507
1264.885, 3.212367
1265.367, 3.195747
1265.849, 3.209514
1266.331, 3.245011
1266.813, 3.400121
1267.295, 3.747483
1267.777, 3.832174
1268.259, 3.551865
1268.741, 3.280272
1269.224, 3.177873
1269.706, 3.134974
1270.188, 3.054269
1270.670, 2.948329
1271.152, 2.780586
1271.634, 2.636475
1272.116, 2.763068
1272.598, 3.060044
1273.081, 3.351814
1273.563, 3.564160
1274.045, 3.545100
1274.527, 3.280353
1275.009, 3.076183
1275.491, 3.109661
1275.973, 3.180499
1276.455, 3.193257
1276.938, 3.214765
1277.420, 3.310560
1277.902, 3.405311
1278.384, 3.424328
1278.866, 3.394939
1279.348, 3.372542
1279.830, 3.357351
1280.312, 3.354274
1280.794, 3.372597
1281.276, 3.347620
1281.759, 3.247432
1282.241, 3.323905
1282.723, 3.672378
1283.205, 3.841758
1283.687, 3.544680
1284.169, 3.106834
1284.651, 2.928464
1285.133, 2.919270
1285.616, 2.925249
1286.098, 2.946195
##END=



