##NAMES=Clinohumite
##RRUFFID=R050183
##IDEAL CHEMISTRY=Mg_9_(SiO_4_)_4_F_2_
##LOCALITY=Pein Pyit, Mogok, Burma
##OWNER=RRUFF
##SOURCE=Marcus Origlieri
##DESCRIPTION=Yellowish-green blebs in calcite, associated with red spinel, R050184
##STATUS=The identification of this mineral has been confirmed by X-ray diffraction and chemical analysis
##URL=rruff.info/R050183
##MEASURED CHEMISTRY=(Mg_8.85_Ti_0.07_[box]_0.07_Fe_0.01_)_Σ=9_(Si_1.00_O_4_)_4_(F_1.00_(OH)_1.00_)_Σ=2_
139.0943, 217.7086
139.5765, 218.6501
140.0586, 219.3970
140.5407, 219.5606
141.0228, 219.0190
141.5049, 218.5354
141.9870, 218.1294
142.4692, 217.7842
142.9513, 217.4796
143.4334, 217.2497
143.9155, 216.9809
144.3976, 216.5331
144.8797, 215.6265
145.3619, 215.2384
145.8440, 215.6382
146.3261, 216.6392
146.8082, 217.2609
147.2903, 217.3527
147.7724, 217.2408
148.2546, 217.1041
148.7367, 216.7809
149.2188, 216.6744
149.7009, 216.8162
150.1830, 217.2015
150.6651, 217.8220
151.1473, 219.0273
151.6294, 220.2520
152.1115, 221.0834
152.5936, 221.2370
153.0757, 221.3234
153.5578, 221.3010
154.0400, 221.1475
154.5221, 221.3133
155.0042, 222.5045
155.4863, 223.7043
155.9684, 224.0360
156.4505, 222.2295
156.9327, 220.6713
157.4148, 220.1830
157.8969, 220.9789
158.3790, 221.2730
158.8611, 220.1410
159.3432, 218.5313
159.8254, 217.4936
160.3075, 217.6917
160.7896, 218.1583
161.2717, 218.4900
161.7538, 218.5888
162.2359, 218.9380
162.7181, 220.1271
163.2002, 221.5864
163.6823, 222.5231
164.1644, 222.0430
164.6465, 221.4185
165.1286, 221.3739
165.6108, 222.0972
166.0929, 222.9713
166.5750, 224.0088
167.0571, 224.9742
167.5392, 225.4402
168.0213, 224.5196
168.5035, 223.4297
168.9856, 223.1722
169.4677, 224.1091
169.9498, 225.2108
170.4319, 225.7792
170.9140, 225.9817
171.3962, 226.2058
171.8783, 226.8278
172.3604, 227.4990
172.8425, 227.7888
173.3246, 227.4460
173.8067, 227.1379
174.2889, 227.6746
174.7710, 228.7987
175.2531, 229.6746
175.7352, 229.5172
176.2173, 228.8825
176.6994, 228.5198
177.1816, 228.6090
177.6637, 228.9514
178.1458, 229.3695
178.6279, 229.8630
179.1100, 230.4128
179.5921, 230.8996
180.0743, 231.4480
180.5564, 232.3416
181.0385, 233.7963
181.5206, 235.4021
182.0027, 236.5289
182.4848, 237.2138
182.9670, 237.8014
183.4491, 238.4312
183.9312, 239.1567
184.4133, 240.1738
184.8954, 241.7294
185.3775, 243.3863
185.8597, 244.3089
186.3418, 244.5024
186.8239, 244.5367
187.3060, 245.0703
187.7881, 245.9137
188.2702, 246.2185
188.7523, 245.7881
189.2345, 244.7048
189.7166, 242.9394
190.1987, 240.4402
190.6808, 237.9660
191.1629, 236.2076
191.6451, 235.1066
192.1272, 234.1722
192.6093, 233.2584
193.0914, 232.4369
193.5735, 231.8923
194.0556, 231.6186
194.5378, 231.6433
195.0199, 232.1346
195.5020, 233.0674
195.9841, 233.8298
196.4662, 234.1292
196.9483, 234.1447
197.4305, 234.7313
197.9126, 235.9703
198.3947, 237.3746
198.8768, 238.4427
199.3589, 239.1658
199.8410, 239.7400
200.3232, 240.1532
200.8053, 240.4402
201.2874, 240.8717
201.7695, 241.4883
202.2516, 242.1126
202.7337, 242.5116
203.2159, 242.6394
203.6980, 242.9176
204.1801, 243.5488
204.6622, 244.4701
205.1443, 244.9885
205.6264, 244.9978
206.1086, 244.8710
206.5907, 244.9623
207.0728, 245.2709
207.5549, 245.8313
208.0370, 246.7975
208.5191, 248.1209
209.0013, 248.8830
209.4834, 248.9334
209.9655, 248.7109
210.4476, 248.6933
210.9297, 248.9541
211.4118, 249.1753
211.8940, 249.4351
212.3761, 249.7168
212.8582, 249.0925
213.3403, 247.3048
213.8224, 245.0159
214.3045, 242.8789
214.7867, 240.8014
215.2688, 239.1174
215.7509, 237.9786
216.2330, 237.3891
216.7151, 236.6629
217.1972, 235.7028
217.6794, 234.7298
218.1615, 233.9743
218.6436, 233.4308
219.1257, 233.0929
219.6078, 232.9854
220.0899, 233.1040
220.5721, 233.3071
221.0542, 233.6049
221.5363, 233.9668
222.0184, 234.3479
222.5005, 234.7181
222.9826, 235.1925
223.4648, 235.8281
223.9469, 236.6376
224.4290, 237.2948
224.9111, 237.6779
225.3932, 238.0600
225.8753, 238.7647
226.3575, 240.0018
226.8396, 241.1075
227.3217, 241.9333
227.8038, 242.4895
228.2859, 242.9119
228.7680, 243.1723
229.2502, 243.3341
229.7323, 243.4080
230.2144, 243.2070
230.6965, 243.3185
231.1786, 243.9814
231.6607, 245.1954
232.1429, 246.0577
232.6250, 246.5271
233.1071, 246.6943
233.5892, 246.6071
234.0713, 246.1574
234.5534, 245.6657
235.0356, 245.1315
235.5177, 244.5658
235.9998, 244.2058
236.4819, 244.0919
236.9640, 244.1311
237.4461, 244.2560
237.9283, 244.5039
238.4104, 244.7624
238.8925, 245.0540
239.3746, 245.3684
239.8567, 245.4879
240.3388, 245.3228
240.8210, 245.0669
241.3031, 244.8444
241.7852, 244.5701
242.2673, 244.5074
242.7494, 244.7628
243.2315, 245.3036
243.7137, 245.7459
244.1958, 246.1400
244.6779, 246.3816
245.1600, 246.3322
245.6421, 245.6639
246.1242, 245.4234
246.6064, 245.9989
247.0885, 247.1914
247.5706, 247.5332
248.0527, 246.4689
248.5348, 245.2880
249.0169, 244.8228
249.4990, 245.2715
249.9812, 246.0150
250.4633, 247.2068
250.9454, 248.6815
251.4275, 249.5708
251.9096, 249.4586
252.3917, 249.3593
252.8739, 249.9772
253.3560, 251.9280
253.8381, 253.0623
254.3202, 252.9480
254.8023, 251.9517
255.2844, 251.4194
255.7666, 251.4801
256.2487, 251.7824
256.7308, 252.1755
257.2129, 252.7270
257.6950, 253.1886
258.1772, 253.5770
258.6593, 253.8576
259.1414, 253.9462
259.6235, 253.8210
260.1056, 253.5391
260.5877, 253.0379
261.0699, 252.1132
261.5520, 251.6528
262.0341, 251.7954
262.5162, 252.3244
262.9983, 252.8595
263.4804, 253.5474
263.9626, 253.9062
264.4447, 253.6476
264.9268, 252.5800
265.4089, 251.7209
265.8910, 251.0051
266.3731, 250.5547
266.8553, 250.5276
267.3374, 250.8594
267.8195, 251.8255
268.3016, 253.7779
268.7837, 256.9598
269.2658, 259.1524
269.7480, 260.1191
270.2301, 260.4248
270.7122, 261.1047
271.1943, 262.6075
271.6764, 262.7598
272.1585, 260.2392
272.6407, 255.0387
273.1228, 251.8159
273.6049, 250.9877
274.0870, 251.3982
274.5691, 251.8527
275.0512, 252.3829
275.5334, 252.7404
276.0155, 252.7335
276.4976, 252.4307
276.9797, 252.7230
277.4618, 253.8161
277.9439, 254.9421
278.4261, 255.1868
278.9081, 254.4397
279.3903, 253.9676
279.8724, 254.1442
280.3545, 254.8185
280.8366, 255.3790
281.3187, 255.8776
281.8008, 256.0564
282.2830, 255.4378
282.7651, 254.0003
283.2472, 253.1086
283.7293, 253.0646
284.2114, 253.6793
284.6935, 254.5619
285.1757, 255.7675
285.6578, 256.7530
286.1399, 257.0635
286.6220, 256.7355
287.1041, 256.1806
287.5862, 255.2784
288.0684, 254.4211
288.5505, 254.5096
289.0326, 255.5427
289.5147, 256.8785
289.9968, 258.4362
290.4789, 260.0766
290.9611, 260.8444
291.4432, 260.5025
291.9253, 259.7109
292.4074, 259.4763
292.8895, 259.7549
293.3716, 260.1253
293.8538, 260.2051
294.3359, 260.1927
294.8180, 260.8821
295.3001, 262.4217
295.7822, 264.0533
296.2643, 264.8590
296.7465, 264.9419
297.2286, 264.7938
297.7107, 264.3056
298.1928, 263.7971
298.6749, 264.0699
299.1570, 265.1601
299.6392, 266.4511
300.1213, 267.2406
300.6034, 267.7338
301.0855, 268.4244
301.5676, 269.5572
302.0497, 270.9550
302.5319, 272.3551
303.0140, 273.7729
303.4961, 275.2591
303.9782, 276.8622
304.4603, 278.5616
304.9424, 280.3916
305.4246, 282.3506
305.9067, 284.4268
306.3888, 287.0341
306.8709, 289.9169
307.3530, 291.8924
307.8351, 291.7661
308.3173, 290.4207
308.7994, 288.9021
309.2815, 287.4369
309.7636, 285.7924
310.2457, 283.5948
310.7278, 281.0303
311.2100, 278.6594
311.6921, 276.6129
312.1742, 274.9694
312.6563, 273.8932
313.1384, 273.4674
313.6205, 273.3303
314.1027, 273.1795
314.5848, 273.1859
315.0669, 273.6395
315.5490, 274.9590
316.0311, 276.5477
316.5132, 278.1022
316.9954, 279.6200
317.4775, 280.9445
317.9596, 281.7923
318.4417, 282.4740
318.9238, 283.3524
319.4059, 284.9311
319.8881, 286.3567
320.3702, 287.3044
320.8523, 287.7720
321.3344, 287.9147
321.8165, 287.8794
322.2986, 287.4765
322.7808, 286.5631
323.2629, 284.1812
323.7450, 282.2914
324.2271, 281.8316
324.7092, 282.4206
325.1913, 282.0673
325.6735, 279.3285
326.1556, 276.4189
326.6377, 274.4701
327.1198, 274.2947
327.6019, 274.0442
328.0840, 273.6007
328.5662, 273.0137
329.0483, 272.3896
329.5304, 271.7443
330.0125, 271.0568
330.4946, 270.2018
330.9767, 268.7958
331.4589, 268.3211
331.9410, 269.5831
332.4231, 271.4033
332.9052, 272.1063
333.3873, 270.9448
333.8694, 269.7971
334.3516, 269.0479
334.8337, 268.6917
335.3158, 268.7296
335.7979, 269.3082
336.2800, 270.1050
336.7621, 270.8442
337.2443, 271.5727
337.7264, 272.1300
338.2085, 272.4985
338.6906, 272.6779
339.1727, 272.6130
339.6548, 272.1690
340.1370, 271.8079
340.6191, 271.8644
341.1012, 272.3796
341.5833, 273.0515
342.0654, 273.9492
342.5475, 274.8811
343.0297, 275.2631
343.5118, 274.9964
343.9939, 274.8997
344.4760, 275.5990
344.9581, 276.9987
345.4402, 277.9012
345.9224, 278.1854
346.4045, 278.2200
346.8866, 278.5475
347.3687, 279.1362
347.8508, 279.5844
348.3329, 279.7878
348.8151, 279.7280
349.2972, 279.2570
349.7793, 278.3644
350.2614, 277.3942
350.7435, 276.7326
351.2256, 276.2737
351.7078, 275.7031
352.1899, 274.9453
352.6720, 274.0255
353.1541, 272.8130
353.6362, 271.3701
354.1183, 270.1435
354.6005, 269.7724
355.0826, 269.7005
355.5647, 269.0679
356.0468, 267.5578
356.5289, 265.9147
357.0110, 264.6950
357.4932, 263.8199
357.9753, 263.1059
358.4574, 262.6291
358.9395, 262.1672
359.4216, 261.5642
359.9037, 260.8063
360.3859, 259.9050
360.8680, 258.6884
361.3501, 257.3946
361.8322, 256.3188
362.3143, 255.8463
362.7964, 255.3514
363.2786, 254.4231
363.7607, 253.1185
364.2428, 252.1004
364.7249, 251.7130
365.2070, 251.6248
365.6891, 251.6230
366.1713, 251.9289
366.6534, 251.9902
367.1355, 251.4277
367.6176, 250.5177
368.0997, 250.0456
368.5818, 250.5984
369.0640, 251.1859
369.5461, 251.3846
370.0282, 250.8515
370.5103, 250.7604
370.9924, 251.4996
371.4745, 252.5169
371.9567, 253.0846
372.4388, 253.0096
372.9209, 252.7457
373.4030, 252.2095
373.8851, 251.3791
374.3672, 251.3161
374.8494, 252.3763
375.3315, 253.7153
375.8136, 254.6322
376.2957, 255.0250
376.7778, 255.3366
377.2599, 255.5925
377.7421, 255.8076
378.2242, 256.0667
378.7063, 256.4016
379.1884, 256.6224
379.6705, 256.6238
380.1526, 256.4041
380.6348, 255.9940
381.1169, 255.3612
381.5990, 254.6319
382.0811, 254.0150
382.5632, 253.5047
383.0453, 252.8707
383.5275, 251.9045
384.0096, 250.7757
384.4917, 250.0088
384.9738, 249.6127
385.4559, 249.4055
385.9380, 249.3083
386.4202, 249.2769
386.9023, 249.2024
387.3844, 249.0800
387.8665, 248.8699
388.3486, 248.3794
388.8307, 247.7068
389.3129, 247.2476
389.7950, 247.4470
390.2771, 247.8825
390.7592, 248.0667
391.2413, 247.8884
391.7234, 247.6835
392.2056, 247.7720
392.6877, 247.9678
393.1698, 247.9828
393.6519, 247.5243
394.1340, 247.0077
394.6161, 246.6651
395.0983, 246.4991
395.5804, 246.3230
396.0625, 246.1823
396.5446, 245.9427
397.0267, 245.4970
397.5089, 244.3858
397.9910, 243.5937
398.4731, 243.4815
398.9552, 243.8405
399.4373, 244.0452
399.9194, 243.7961
400.4016, 243.5923
400.8837, 243.6519
401.3658, 244.1346
401.8479, 244.3828
402.3300, 244.2175
402.8121, 243.9287
403.2942, 243.8847
403.7763, 244.2699
404.2585, 244.5388
404.7406, 244.5027
405.2227, 244.2142
405.7048, 244.2396
406.1869, 244.6484
406.6690, 245.2168
407.1512, 245.8160
407.6333, 246.4553
408.1154, 247.0509
408.5975, 247.5901
409.0796, 248.0913
409.5617, 248.7178
410.0439, 249.4792
410.5260, 249.9165
411.0081, 249.5377
411.4902, 248.5985
411.9723, 248.1769
412.4544, 248.2902
412.9366, 248.7600
413.4187, 249.6241
413.9008, 250.7262
414.3829, 251.5914
414.8650, 252.0245
415.3471, 252.2396
415.8293, 252.5245
416.3114, 252.8439
416.7935, 253.0168
417.2756, 252.6855
417.7577, 252.2750
418.2398, 252.2769
418.7220, 252.8359
419.2041, 253.4962
419.6862, 254.1397
420.1683, 254.6884
420.6504, 255.0056
421.1325, 254.6547
421.6147, 254.4320
422.0968, 254.7488
422.5789, 255.5993
423.0610, 256.4841
423.5431, 257.1083
424.0252, 257.8299
424.5074, 258.8986
424.9895, 260.5219
425.4716, 262.2291
425.9537, 264.1492
426.4358, 266.1266
426.9179, 267.8227
427.4001, 269.1377
427.8822, 270.3001
428.3643, 271.2988
428.8464, 272.0610
429.3285, 273.1898
429.8106, 274.8534
430.2928, 276.6548
430.7749, 278.3686
431.2570, 280.1619
431.7391, 281.0693
432.2212, 280.7543
432.7033, 279.5449
433.1855, 278.4591
433.6676, 277.5253
434.1497, 276.4805
434.6318, 275.1822
435.1139, 273.6402
435.5960, 271.7896
436.0782, 269.5195
436.5603, 267.3749
437.0424, 266.1264
437.5245, 265.5872
438.0066, 265.1569
438.4887, 264.6769
438.9709, 264.1417
439.4530, 263.4621
439.9351, 262.6725
440.4172, 262.0286
440.8993, 261.7764
441.3814, 261.7144
441.8636, 261.6504
442.3457, 261.5744
442.8278, 261.4203
443.3099, 260.9911
443.7920, 260.4868
444.2741, 260.2244
444.7563, 260.5577
445.2384, 260.9323
445.7205, 261.2688
446.2026, 261.5563
446.6847, 261.3621
447.1668, 260.0311
447.6490, 258.5664
448.1311, 257.6006
448.6132, 258.0658
449.0953, 257.8285
449.5774, 256.4403
450.0595, 254.4486
450.5417, 253.0531
451.0238, 252.5753
451.5059, 252.1490
451.9880, 251.5247
452.4701, 250.6896
452.9522, 249.7596
453.4344, 248.6636
453.9165, 247.6058
454.3986, 246.8483
454.8807, 246.4123
455.3628, 245.6549
455.8449, 244.2887
456.3271, 242.8075
456.8092, 242.3459
457.2913, 242.8315
457.7734, 243.3427
458.2555, 243.3256
458.7376, 242.9928
459.2198, 242.8566
459.7019, 242.9491
460.1840, 242.9618
460.6661, 242.5413
461.1482, 241.8768
461.6303, 241.2921
462.1125, 240.9810
462.5946, 240.6516
463.0767, 240.0042
463.5588, 239.1530
464.0409, 238.4426
464.5230, 237.9524
465.0052, 237.7115
465.4873, 237.7903
465.9694, 238.2365
466.4515, 238.7359
466.9336, 239.4695
467.4157, 240.0908
467.8979, 240.2731
468.3800, 239.5495
468.8621, 238.8865
469.3442, 238.3667
469.8263, 237.9765
470.3084, 237.6457
470.7906, 237.3147
471.2727, 237.1438
471.7548, 237.2141
472.2369, 237.5540
472.7190, 238.0405
473.2011, 238.8024
473.6833, 239.4865
474.1654, 239.5591
474.6475, 238.9854
475.1296, 238.6479
475.6117, 238.8651
476.0938, 239.3119
476.5760, 239.1305
477.0581, 238.3647
477.5402, 237.6135
478.0223, 237.2071
478.5044, 237.0772
478.9865, 237.1442
479.4687, 237.4143
479.9508, 237.7162
480.4329, 237.9502
480.9150, 238.1067
481.3971, 238.1625
481.8792, 237.9957
482.3614, 237.8615
482.8435, 237.9742
483.3256, 238.2610
483.8077, 238.4882
484.2898, 238.6291
484.7719, 238.6423
485.2541, 238.4372
485.7362, 237.9058
486.2183, 237.6005
486.7004, 237.7464
487.1825, 238.0695
487.6646, 238.3379
488.1468, 238.8048
488.6289, 238.7736
489.1110, 237.8706
489.5931, 236.4467
490.0752, 235.7187
490.5573, 235.8613
491.0395, 236.2711
491.5216, 236.7878
492.0037, 237.4233
492.4858, 237.6624
492.9679, 237.4176
493.4500, 237.1461
493.9322, 237.3341
494.4143, 237.9418
494.8964, 238.7934
495.3785, 240.0732
495.8606, 241.2011
496.3427, 241.0345
496.8249, 239.8753
497.3070, 238.8633
497.7891, 238.7840
498.2712, 239.0887
498.7533, 239.2264
499.2354, 239.1664
499.7176, 239.0824
500.1997, 239.1497
500.6818, 239.2079
501.1639, 239.0830
501.6460, 238.4086
502.1281, 238.0294
502.6103, 238.5004
503.0924, 239.4152
503.5745, 239.8978
504.0566, 239.4077
504.5387, 238.9034
505.0208, 238.5605
505.5030, 238.3738
505.9851, 238.5378
506.4672, 239.3515
506.9493, 240.1119
507.4314, 240.2545
507.9135, 239.5983
508.3957, 239.1632
508.8778, 239.0668
509.3599, 239.1236
509.8420, 239.0053
510.3241, 238.7151
510.8062, 238.4421
511.2884, 238.1433
511.7705, 237.9651
512.2526, 238.5942
512.7347, 239.9310
513.2168, 240.7611
513.6989, 239.4122
514.1810, 237.3062
514.6631, 236.6145
515.1453, 237.8993
515.6274, 239.3368
516.1095, 239.6688
516.5916, 239.4066
517.0737, 239.2331
517.5558, 239.5966
518.0380, 239.8636
518.5201, 239.6685
519.0022, 239.1369
519.4843, 238.8751
519.9664, 238.9635
520.4485, 239.3747
520.9307, 240.2213
521.4128, 241.7729
521.8949, 242.6201
522.3770, 242.3973
522.8591, 241.8728
523.3412, 241.7747
523.8234, 242.1609
524.3055, 242.7267
524.7876, 243.4763
525.2697, 244.3346
525.7518, 245.2036
526.2339, 246.0872
526.7161, 246.7002
527.1982, 246.6174
527.6803, 246.2011
528.1624, 246.5055
528.6445, 247.5156
529.1266, 248.5728
529.6088, 248.8834
530.0909, 249.0229
530.5730, 249.9126
531.0551, 252.0537
531.5372, 254.0847
532.0193, 255.0767
532.5015, 255.4601
532.9836, 255.8921
533.4657, 256.2662
533.9478, 257.0450
534.4299, 258.6510
534.9120, 260.9574
535.3942, 262.8860
535.8763, 264.0631
536.3584, 265.0816
536.8405, 266.1135
537.3226, 267.0672
537.8047, 268.4124
538.2869, 270.2670
538.7690, 272.3389
539.2511, 274.2387
539.7332, 275.9041
540.2153, 277.8491
540.6974, 280.2457
541.1796, 282.8329
541.6617, 284.9701
542.1438, 286.7177
542.6259, 288.7799
543.1080, 291.9427
543.5901, 295.4941
544.0723, 298.1473
544.5544, 299.9211
545.0365, 301.6632
545.5186, 303.6967
546.0007, 306.1174
546.4828, 309.1753
546.9650, 313.3276
547.4471, 317.0366
547.9292, 319.7061
548.4113, 321.5475
548.8934, 322.8524
549.3755, 323.9053
549.8577, 324.1661
550.3398, 323.6108
550.8219, 322.2078
551.3040, 319.7143
551.7861, 315.6236
552.2682, 311.1965
552.7504, 306.9668
553.2325, 302.9644
553.7146, 298.7238
554.1967, 294.1447
554.6788, 289.6289
555.1609, 285.4720
555.6431, 281.7517
556.1252, 278.5629
556.6073, 276.0148
557.0894, 273.7986
557.5715, 271.4323
558.0536, 269.0394
558.5358, 266.9696
559.0179, 265.5021
559.5000, 264.3660
559.9821, 263.3300
560.4642, 262.4151
560.9464, 261.8132
561.4285, 261.9054
561.9106, 262.1196
562.3927, 262.1028
562.8748, 261.7611
563.3569, 261.3378
563.8391, 260.5878
564.3212, 259.9178
564.8033, 259.7249
565.2854, 260.3730
565.7675, 260.7645
566.2496, 260.7535
566.7318, 260.4435
567.2139, 260.0543
567.6960, 259.5654
568.1781, 259.1628
568.6602, 259.1193
569.1423, 259.2002
569.6245, 258.1510
570.1066, 255.9871
570.5887, 254.4032
571.0708, 255.1936
571.5529, 257.2049
572.0350, 258.6155
572.5172, 259.1978
572.9993, 259.2240
573.4814, 258.2519
573.9635, 257.0624
574.4456, 256.6266
574.9277, 257.7940
575.4099, 259.1273
575.8920, 260.2617
576.3741, 261.2704
576.8562, 262.3723
577.3383, 263.9798
577.8204, 265.2271
578.3026, 265.7378
578.7847, 265.5303
579.2668, 265.8170
579.7489, 266.6795
580.2310, 267.8412
580.7131, 269.2193
581.1953, 270.8034
581.6774, 272.1630
582.1595, 273.2571
582.6416, 274.1767
583.1237, 274.9886
583.6058, 275.7008
584.0880, 276.3752
584.5701, 277.1450
585.0522, 277.6633
585.5343, 277.2986
586.0164, 276.3966
586.4985, 275.8079
586.9807, 276.5150
587.4628, 277.0813
587.9449, 276.5001
588.4270, 274.8205
588.9091, 273.6819
589.3912, 273.8066
589.8734, 274.2252
590.3555, 274.4442
590.8376, 274.3270
591.3197, 274.4594
591.8018, 274.8532
592.2839, 275.4840
592.7661, 276.4449
593.2482, 277.8015
593.7303, 278.7200
594.2124, 278.8425
594.6945, 278.8856
595.1766, 280.3353
595.6588, 282.9394
596.1409, 285.3756
596.6230, 286.6716
597.1051, 287.7408
597.5872, 289.8139
598.0693, 292.7092
598.5515, 295.6895
599.0336, 298.1558
599.5157, 300.7013
599.9978, 303.8273
600.4799, 307.6612
600.9620, 311.3961
601.4442, 314.6264
601.9263, 317.8423
602.4084, 321.3925
602.8905, 325.1524
603.3726, 329.6210
603.8547, 335.2085
604.3369, 341.1270
604.8190, 345.9216
605.3011, 349.5007
605.7832, 352.9182
606.2653, 356.5303
606.7474, 360.0095
607.2296, 362.4203
607.7117, 363.8326
608.1938, 364.6814
608.6759, 365.5938
609.1580, 365.8884
609.6401, 364.6868
610.1223, 361.9706
610.6044, 358.0440
611.0865, 352.4398
611.5686, 346.0608
612.0507, 339.5549
612.5328, 332.8703
613.0150, 326.3358
613.4971, 319.9723
613.9792, 313.7634
614.4613, 307.5777
614.9434, 301.0571
615.4255, 295.1672
615.9077, 290.1172
616.3898, 285.6549
616.8719, 281.3121
617.3540, 277.0764
617.8361, 273.2243
618.3182, 269.8743
618.8004, 267.0478
619.2825, 265.0998
619.7646, 263.9116
620.2467, 262.6358
620.7288, 260.4392
621.2109, 257.9912
621.6931, 256.1385
622.1752, 254.9168
622.6573, 253.7942
623.1394, 252.3909
623.6215, 251.0280
624.1036, 249.9635
624.5858, 249.3222
625.0679, 248.8193
625.5500, 248.6195
626.0321, 248.4346
626.5142, 247.8907
626.9963, 246.7440
627.4785, 245.8889
627.9606, 245.5675
628.4427, 245.5183
628.9248, 245.0760
629.4069, 244.2415
629.8890, 243.4290
630.3712, 242.7786
630.8533, 242.2789
631.3354, 241.9384
631.8175, 241.7443
632.2996, 241.6104
632.7817, 241.6013
633.2639, 241.5514
633.7460, 241.2995
634.2281, 240.8246
634.7102, 240.2850
635.1923, 239.5960
635.6744, 238.9552
636.1566, 238.5143
636.6387, 238.4106
637.1208, 238.2827
637.6029, 238.1548
638.0850, 237.9799
638.5671, 237.6556
639.0493, 237.1237
639.5314, 236.8009
640.0135, 236.8564
640.4956, 237.0151
640.9777, 236.5678
641.4598, 235.6389
641.9420, 235.0263
642.4241, 235.3858
642.9062, 236.0275
643.3883, 236.1897
643.8704, 235.9157
644.3525, 235.3989
644.8347, 234.2876
645.3168, 233.3321
645.7989, 233.0364
646.2810, 233.5019
646.7631, 233.9628
647.2452, 234.5155
647.7274, 234.8543
648.2095, 234.7325
648.6916, 233.8513
649.1737, 233.4565
649.6558, 233.6523
650.1379, 234.1044
650.6201, 234.6110
651.1022, 235.1344
651.5843, 234.9592
652.0664, 233.7498
652.5485, 232.3743
653.0306, 232.0740
653.5128, 232.5462
653.9949, 233.1037
654.4770, 233.5437
654.9591, 233.8963
655.4412, 234.3232
655.9233, 234.6999
656.4055, 234.6616
656.8876, 233.3797
657.3697, 232.4027
657.8518, 232.4491
658.3339, 233.4483
658.8160, 234.0159
659.2982, 234.0067
659.7803, 233.8395
660.2624, 233.7041
660.7445, 233.5983
661.2266, 233.4935
661.7087, 233.3761
662.1909, 233.3391
662.6730, 233.5488
663.1551, 233.8900
663.6372, 234.1357
664.1193, 234.2707
664.6014, 234.2006
665.0836, 233.5479
665.5657, 232.7695
666.0478, 232.4343
666.5299, 233.1830
667.0120, 233.7531
667.4941, 233.6504
667.9763, 233.2302
668.4584, 233.1857
668.9405, 233.9302
669.4226, 234.2255
669.9047, 233.6182
670.3868, 232.5052
670.8690, 232.2072
671.3511, 232.7685
671.8332, 233.4305
672.3153, 233.9515
672.7974, 234.2769
673.2795, 234.1596
673.7617, 233.6714
674.2438, 233.3255
674.7259, 233.5150
675.2080, 233.9521
675.6901, 234.5284
676.1722, 235.2521
676.6544, 235.6064
677.1365, 235.1332
677.6186, 234.4582
678.1007, 233.9604
678.5828, 233.5990
679.0649, 233.5945
679.5471, 234.1820
680.0292, 234.8001
680.5113, 234.7110
680.9934, 233.8916
681.4755, 233.5793
681.9576, 234.0365
682.4398, 234.7139
682.9219, 234.7794
683.4040, 234.4548
683.8861, 234.3345
684.3682, 234.7150
684.8503, 235.1994
685.3325, 235.6564
685.8146, 235.9922
686.2967, 236.0186
686.7788, 235.0999
687.2609, 234.4855
687.7430, 234.6983
688.2252, 235.5373
688.7073, 236.2601
689.1894, 236.9776
689.6715, 237.3263
690.1536, 236.9835
690.6357, 236.1243
691.1179, 235.9690
691.6000, 236.5353
692.0821, 237.2702
692.5642, 238.0208
693.0463, 238.6205
693.5284, 238.7024
694.0106, 238.2586
694.4927, 237.7493
694.9748, 237.2918
695.4569, 237.0081
695.9390, 237.0310
696.4211, 237.4916
696.9033, 237.8990
697.3854, 238.1259
697.8675, 238.3216
698.3496, 238.6538
698.8317, 239.2845
699.3138, 239.4575
699.7960, 239.0208
700.2781, 238.3427
700.7602, 237.8280
701.2423, 237.4895
701.7244, 237.4050
702.2065, 237.5842
702.6887, 238.0459
703.1708, 239.1623
703.6529, 240.5308
704.1350, 241.3802
704.6171, 240.9969
705.0992, 240.4750
705.5814, 240.1569
706.0635, 240.0328
706.5456, 240.0802
707.0277, 240.5082
707.5098, 240.7849
707.9919, 240.7216
708.4741, 240.4109
708.9562, 240.3079
709.4383, 240.4214
709.9204, 240.6666
710.4025, 241.1353
710.8846, 241.6671
711.3667, 241.7139
711.8488, 241.3403
712.3309, 241.1026
712.8130, 241.4971
713.2952, 242.0948
713.7773, 242.5257
714.2594, 242.7533
714.7415, 243.0486
715.2236, 243.8342
715.7057, 244.4320
716.1879, 244.3626
716.6700, 243.3320
717.1521, 242.8533
717.6342, 242.9981
718.1163, 243.5424
718.5984, 244.5317
719.0806, 245.8684
719.5627, 246.3840
720.0448, 245.8363
720.5269, 245.3090
721.0090, 246.2386
721.4911, 247.8476
721.9733, 248.8682
722.4554, 248.7113
722.9375, 248.5207
723.4196, 248.8799
723.9017, 249.4810
724.3839, 249.9366
724.8660, 249.9117
725.3481, 250.1566
725.8302, 250.8056
726.3123, 251.7017
726.7944, 252.6936
727.2766, 253.8623
727.7587, 254.3345
728.2408, 253.5806
728.7229, 252.5297
729.2050, 252.9341
729.6871, 254.4931
730.1693, 256.1645
730.6514, 257.5371
731.1335, 258.8101
731.6156, 260.0992
732.0977, 261.3833
732.5798, 262.5998
733.0620, 263.3382
733.5441, 264.4400
734.0262, 266.3219
734.5083, 268.7964
734.9904, 270.7460
735.4725, 272.0227
735.9547, 273.2614
736.4368, 274.6947
736.9189, 276.3259
737.4010, 278.2818
737.8831, 280.5176
738.3652, 282.6772
738.8474, 284.5289
739.3295, 286.1803
739.8116, 287.6555
740.2937, 288.9743
740.7758, 290.4388
741.2579, 292.3168
741.7401, 294.2521
742.2222, 296.1193
742.7043, 297.9666
743.1864, 299.4494
743.6685, 300.5425
744.1506, 301.3387
744.6328, 301.7751
745.1149, 301.8891
745.5970, 302.3417
746.0791, 303.1808
746.5612, 303.9689
747.0433, 304.4012
747.5255, 304.4861
748.0076, 304.1017
748.4897, 303.0990
748.9718, 302.3514
749.4539, 302.4396
749.9360, 302.8856
750.4182, 303.2974
750.9003, 303.8506
751.3824, 303.9635
751.8645, 303.5591
752.3466, 302.8177
752.8287, 301.8667
753.3109, 300.6899
753.7930, 299.6326
754.2751, 298.7122
754.7572, 297.9696
755.2393, 297.4291
755.7214, 297.0977
756.2036, 297.0215
756.6857, 297.4171
757.1678, 297.6657
757.6499, 297.4098
758.1320, 296.8183
758.6141, 296.1266
759.0963, 295.1939
759.5784, 294.4023
760.0605, 293.8257
760.5426, 293.3557
761.0247, 292.6909
761.5068, 291.7914
761.9890, 291.3626
762.4711, 291.6860
762.9532, 292.3410
763.4353, 292.7014
763.9174, 292.8517
764.3995, 293.0149
764.8817, 293.2636
765.3638, 293.5709
765.8459, 293.9374
766.3280, 294.3546
766.8101, 294.7885
767.2922, 294.8596
767.7744, 295.4661
768.2565, 296.9136
768.7386, 298.9528
769.2207, 300.8946
769.7028, 302.7196
770.1849, 304.7093
770.6671, 307.0255
771.1492, 309.5075
771.6313, 311.8068
772.1134, 314.0011
772.5955, 316.3636
773.0776, 318.7538
773.5598, 321.6086
774.0419, 325.3918
774.5240, 329.9153
775.0061, 334.3283
775.4882, 338.1104
775.9703, 342.3217
776.4525, 347.2710
776.9346, 352.8694
777.4167, 358.4180
777.8988, 363.9227
778.3809, 369.6133
778.8630, 375.3410
779.3452, 381.4764
779.8273, 389.0866
780.3094, 397.8435
780.7915, 406.5477
781.2736, 414.4832
781.7557, 422.0930
782.2379, 429.8133
782.7200, 437.5801
783.2021, 444.3953
783.6842, 450.3186
784.1663, 455.1244
784.6484, 458.9332
785.1306, 461.6127
785.6127, 462.3863
786.0948, 461.2538
786.5769, 458.1190
787.0590, 452.3477
787.5411, 444.7524
788.0233, 436.7672
788.5054, 428.3600
788.9875, 419.5214
789.4696, 409.6759
789.9517, 399.9716
790.4338, 391.0074
790.9160, 382.8134
791.3981, 375.6671
791.8802, 369.9222
792.3623, 364.8415
792.8444, 360.2530
793.3265, 356.1024
793.8087, 352.0842
794.2908, 348.1634
794.7729, 344.9621
795.2550, 342.9384
795.7371, 341.8828
796.2192, 341.8194
796.7014, 342.6563
797.1835, 343.5842
797.6656, 343.8799
798.1477, 344.4624
798.6298, 345.9732
799.1119, 348.4451
799.5941, 350.6334
800.0762, 352.3082
800.5583, 354.1839
801.0404, 356.4655
801.5225, 359.2438
802.0046, 363.6004
802.4868, 369.4510
802.9689, 374.9335
803.4510, 377.9832
803.9331, 380.5143
804.4152, 384.5572
804.8973, 390.1623
805.3795, 395.8970
805.8616, 401.4702
806.3437, 407.0023
806.8258, 412.7868
807.3079, 418.7861
807.7900, 423.7272
808.2722, 427.5190
808.7543, 430.6212
809.2364, 432.9310
809.7185, 434.7877
810.2006, 437.4297
810.6827, 440.7599
811.1649, 444.0269
811.6470, 446.4232
812.1291, 448.7922
812.6112, 451.7332
813.0933, 455.2784
813.5754, 459.1330
814.0576, 462.5042
814.5397, 467.0849
815.0218, 473.5492
815.5039, 481.8893
815.9860, 490.8560
816.4681, 500.4055
816.9503, 511.5886
817.4324, 525.9563
817.9145, 542.0986
818.3966, 557.2034
818.8787, 571.4059
819.3608, 586.3080
819.8430, 601.6568
820.3251, 618.9529
820.8072, 639.2034
821.2893, 662.5585
821.7714, 686.5289
822.2535, 710.0434
822.7357, 735.3325
823.2178, 762.9818
823.6999, 793.0164
824.1820, 826.7827
824.6641, 864.3853
825.1462, 904.9319
825.6284, 948.6818
826.1105, 994.9043
826.5926, 1044.876
827.0747, 1098.155
827.5568, 1151.237
828.0389, 1204.677
828.5211, 1256.535
829.0032, 1308.112
829.4853, 1358.289
829.9674, 1402.829
830.4495, 1442.439
830.9316, 1472.800
831.4138, 1493.247
831.8959, 1502.755
832.3780, 1499.167
832.8601, 1482.844
833.3422, 1455.449
833.8243, 1412.364
834.3065, 1363.710
834.7886, 1312.875
835.2707, 1260.588
835.7528, 1210.733
836.2349, 1160.917
836.7170, 1117.682
837.1992, 1082.934
837.6813, 1056.005
838.1634, 1034.364
838.6455, 1017.869
839.1276, 1007.134
839.6097, 1003.353
840.0919, 1004.146
840.5740, 1006.924
841.0561, 1012.188
841.5382, 1020.889
842.0203, 1036.513
842.5024, 1052.006
842.9846, 1066.250
843.4667, 1079.007
843.9488, 1090.264
844.4309, 1100.748
844.9130, 1106.505
845.3951, 1106.979
845.8773, 1101.747
846.3594, 1089.318
846.8415, 1070.577
847.3236, 1047.640
847.8057, 1020.118
848.2878, 990.4193
848.7700, 958.6398
849.2521, 926.2557
849.7342, 895.4842
850.2163, 865.5991
850.6984, 838.8678
851.1805, 815.6219
851.6627, 795.2828
852.1448, 776.5829
852.6269, 759.8527
853.1090, 747.4352
853.5911, 739.7907
854.0732, 735.7209
854.5554, 734.2238
855.0375, 735.5488
855.5196, 740.0934
856.0017, 748.4794
856.4838, 758.8825
856.9659, 771.4855
857.4481, 785.4764
857.9302, 800.3976
858.4123, 816.1663
858.8944, 833.2098
859.3765, 852.1268
859.8586, 869.4792
860.3408, 883.2092
860.8229, 892.7661
861.3050, 897.4242
861.7871, 897.2515
862.2692, 890.1385
862.7513, 873.0114
863.2335, 850.1572
863.7156, 823.2648
864.1977, 792.7397
864.6798, 760.8496
865.1619, 727.2999
865.6440, 693.8943
866.1262, 661.6681
866.6083, 630.6655
867.0904, 602.2757
867.5725, 576.1542
868.0546, 552.4131
868.5367, 531.2355
869.0189, 511.8932
869.5010, 494.0395
869.9831, 477.5553
870.4652, 463.4844
870.9473, 452.7531
871.4294, 442.7899
871.9116, 432.7893
872.3937, 422.9019
872.8758, 413.7696
873.3579, 405.3133
873.8400, 397.4190
874.3221, 389.9893
874.8043, 383.0884
875.2864, 377.1393
875.7685, 371.8011
876.2506, 366.4221
876.7327, 360.3974
877.2148, 354.8193
877.6970, 349.9638
878.1791, 345.6575
878.6612, 341.4175
879.1433, 337.2089
879.6254, 333.5835
880.1075, 330.7701
880.5897, 328.2607
881.0718, 325.5841
881.5539, 322.6555
882.0360, 319.1906
882.5181, 314.1541
883.0002, 310.2838
883.4824, 309.4240
883.9645, 309.6725
884.4466, 308.9630
884.9287, 307.0655
885.4108, 304.8623
885.8929, 302.2470
886.3751, 299.9085
886.8572, 298.9065
887.3393, 298.7191
887.8214, 298.0921
888.3035, 296.8249
888.7856, 295.5513
889.2678, 294.7213
889.7499, 293.9941
890.2320, 293.0105
890.7141, 291.6189
891.1962, 291.0399
891.6783, 291.6511
892.1605, 292.1422
892.6426, 291.5319
893.1247, 290.1074
893.6068, 288.9336
894.0889, 288.0010
894.5710, 287.2643
895.0532, 286.3820
895.5353, 285.9226
896.0174, 286.6088
896.4995, 288.2661
896.9816, 289.2326
897.4637, 288.9709
897.9459, 288.8560
898.4280, 289.3553
898.9101, 290.2208
899.3922, 290.6740
899.8743, 290.7840
900.3564, 290.9868
900.8386, 291.4577
901.3207, 292.1081
901.8028, 292.9211
902.2849, 293.8496
902.7670, 294.8203
903.2491, 296.0606
903.7313, 296.9472
904.2134, 297.1766
904.6955, 297.3389
905.1776, 298.3632
905.6597, 300.2049
906.1418, 301.9348
906.6240, 303.3609
907.1061, 304.9432
907.5882, 307.2278
908.0703, 309.8359
908.5524, 312.3708
909.0345, 314.7250
909.5167, 317.0966
909.9988, 319.6093
910.4809, 322.0519
910.9630, 324.3186
911.4451, 326.3980
911.9272, 328.6253
912.4094, 331.0281
912.8915, 332.5291
913.3736, 332.3321
913.8557, 330.7881
914.3378, 327.8939
914.8199, 323.8164
915.3021, 319.7464
915.7842, 316.1225
916.2663, 312.4281
916.7484, 308.2454
917.2305, 303.9364
917.7126, 300.9823
918.1948, 299.3959
918.6769, 297.7335
919.1590, 295.2468
919.6411, 292.7145
920.1232, 291.2512
920.6053, 290.4432
921.0875, 289.4932
921.5696, 287.9565
922.0517, 286.4718
922.5338, 284.9737
923.0159, 283.6922
923.4980, 282.9913
923.9802, 282.9074
924.4623, 282.7552
924.9444, 282.4276
925.4265, 282.2065
925.9086, 282.4807
926.3907, 282.9992
926.8729, 283.3635
927.3550, 283.4464
927.8371, 283.8277
928.3192, 284.9413
928.8013, 286.1407
929.2834, 287.0928
929.7656, 287.8026
930.2477, 288.8164
930.7298, 290.1677
931.2119, 291.0857
931.6940, 290.8568
932.1761, 290.0359
932.6583, 289.3163
933.1404, 288.6190
933.6225, 287.6189
934.1046, 285.9759
934.5867, 284.2724
935.0688, 282.6391
935.5510, 281.0699
936.0331, 279.5955
936.5152, 278.2017
936.9973, 276.9805
937.4794, 275.9492
937.9615, 275.1335
938.4437, 274.6229
938.9258, 274.3405
939.4079, 274.1678
939.8900, 273.9937
940.3721, 274.1186
940.8542, 274.8943
941.3364, 275.6373
941.8185, 275.6653
942.3006, 274.9363
942.7827, 274.8472
943.2648, 275.4680
943.7469, 276.1176
944.2291, 275.8831
944.7112, 275.6353
945.1933, 276.6207
945.6754, 278.7887
946.1575, 280.2092
946.6396, 279.5332
947.1218, 279.2125
947.6039, 280.1443
948.0860, 281.9166
948.5681, 282.8557
949.0502, 283.0476
949.5323, 283.5809
950.0145, 285.1641
950.4966, 286.8564
950.9787, 287.3649
951.4608, 287.4504
951.9429, 288.3521
952.4250, 291.1074
952.9072, 293.5990
953.3893, 295.5157
953.8714, 297.4410
954.3535, 300.0372
954.8356, 303.2363
955.3177, 306.7990
955.7999, 310.7109
956.2820, 314.7448
956.7641, 318.5141
957.2462, 322.4786
957.7283, 327.1257
958.2104, 332.6031
958.6925, 337.9129
959.1746, 342.9597
959.6567, 348.0629
960.1389, 353.2153
960.6210, 358.6260
961.1031, 364.8086
961.5852, 371.8020
962.0673, 379.4975
962.5494, 387.9616
963.0316, 397.0818
963.5137, 406.9076
963.9958, 417.4487
964.4779, 428.5652
964.9600, 440.3473
965.4421, 452.6890
965.9243, 465.7736
966.4064, 478.6841
966.8885, 490.5779
967.3706, 501.4246
967.8527, 512.2822
968.3348, 523.5416
968.8170, 530.6677
969.2991, 530.6892
969.7812, 525.8995
970.2633, 517.5712
970.7454, 505.7995
971.2275, 491.2773
971.7097, 473.5462
972.1918, 455.0601
972.6739, 435.8949
973.1560, 417.4153
973.6381, 402.1013
974.1202, 389.3564
974.6024, 377.5440
975.0845, 365.0399
975.5666, 354.5271
976.0487, 347.3569
976.5308, 341.9276
977.0129, 335.8436
977.4951, 329.1092
977.9772, 323.4333
978.4593, 319.1379
978.9414, 315.6133
979.4235, 312.5781
979.9056, 309.7339
980.3878, 306.7057
980.8699, 303.4546
981.3520, 300.1333
981.8341, 296.3813
982.3162, 293.0698
982.7983, 290.7370
983.2805, 289.1789
983.7626, 287.2720
984.2447, 285.0424
984.7268, 282.7933
985.2089, 280.3129
985.6910, 278.2015
986.1732, 277.1322
986.6553, 276.7279
987.1374, 276.2079
987.6195, 275.5391
988.1016, 274.6266
988.5837, 273.3979
989.0659, 272.0778
989.5480, 270.8848
990.0301, 269.8349
990.5122, 269.0038
990.9943, 268.3982
991.4764, 267.9472
991.9586, 267.6687
992.4407, 267.4852
992.9228, 267.3896
993.4049, 267.3701
993.8870, 267.1944
994.3691, 266.8471
994.8513, 266.4656
995.3334, 266.0477
995.8155, 265.7075
996.2976, 265.9535
996.7797, 266.3780
997.2618, 266.0778
997.7440, 263.1719
998.2261, 261.6728
998.7082, 263.1503
999.1903, 265.3563
999.6724, 265.5085
1000.155, 263.6763
1000.637, 262.8743
1001.119, 263.3830
1001.601, 264.1847
1002.083, 264.5718
1002.565, 264.7462
1003.047, 264.9674
1003.529, 265.2381
1004.011, 264.9870
1004.494, 263.7389
1004.976, 262.9852
1005.458, 263.4116
1005.940, 264.4853
1006.422, 265.0709
1006.904, 265.1886
1007.386, 264.8087
1007.868, 263.4358
1008.351, 262.4785
1008.833, 263.0059
1009.315, 264.1050
1009.797, 264.7590
1010.279, 264.8844
1010.761, 264.8211
1011.243, 264.5217
1011.725, 264.3560
1012.207, 265.1543
1012.690, 265.9770
1013.172, 264.9775
1013.654, 262.4624
1014.136, 260.9369
1014.618, 262.4230
1015.100, 263.5519
1015.582, 263.2984
1016.064, 262.3173
1016.547, 262.1873
1017.029, 262.8000
1017.511, 263.2814
1017.993, 263.4086
1018.475, 263.3628
1018.957, 263.2346
1019.439, 263.0519
1019.921, 262.7838
1020.403, 262.3116
1020.886, 262.3677
1021.368, 263.1536
1021.850, 263.8607
1022.332, 264.0059
1022.814, 263.6960
1023.296, 262.9394
1023.778, 261.9013
1024.260, 261.1862
1024.743, 261.2496
1025.225, 261.4644
1025.707, 261.7004
1026.189, 261.9291
1026.671, 262.1175
1027.153, 262.2656
1027.635, 262.4102
1028.117, 262.5726
1028.599, 262.6161
1029.082, 262.3230
1029.564, 261.9092
1030.046, 261.4556
1030.528, 260.9518
1031.010, 261.1577
1031.492, 262.5454
1031.974, 263.6926
1032.456, 264.0079
1032.938, 263.7604
1033.421, 263.4867
1033.903, 263.2367
1034.385, 263.1914
1034.867, 263.5650
1035.349, 263.8889
1035.831, 263.7360
1036.313, 263.5738
1036.795, 263.9430
1037.278, 264.9920
1037.760, 265.5474
1038.242, 265.5621
1038.724, 265.4397
1039.206, 265.5564
1039.688, 265.6642
1040.170, 265.3869
1040.652, 264.8142
1041.135, 264.4438
1041.617, 264.4856
1042.099, 264.5458
1042.581, 264.5597
1043.063, 264.5532
1043.545, 264.5914
1044.027, 264.6481
1044.509, 264.5984
1044.991, 264.3833
1045.474, 264.2732
1045.956, 264.5812
1046.438, 264.9101
1046.920, 264.9344
1047.402, 264.6632
1047.884, 264.6855
1048.366, 265.0361
1048.848, 265.1417
1049.330, 264.4973
1049.813, 263.7415
1050.295, 263.5617
1050.777, 263.8365
1051.259, 264.3345
1051.741, 265.6979
1052.223, 266.1268
1052.705, 265.2493
1053.187, 264.0701
1053.670, 263.5276
1054.152, 263.5078
1054.634, 263.6637
1055.116, 263.9696
1055.598, 264.3380
1056.080, 265.1124
1056.562, 265.5202
1057.044, 264.7525
1057.526, 263.4505
1058.009, 263.4406
1058.491, 264.8188
1058.973, 265.7719
1059.455, 265.9203
1059.937, 265.4354
1060.419, 263.6699
1060.901, 261.8475
1061.383, 261.5717
1061.865, 263.5435
1062.348, 264.6451
1062.830, 264.5139
1063.312, 264.1112
1063.794, 263.8271
1064.276, 263.6526
1064.758, 263.4737
1065.240, 263.3814
1065.722, 263.6598
1066.205, 265.1402
1066.687, 266.0392
1067.169, 265.3411
1067.651, 264.2360
1068.133, 263.8503
1068.615, 264.1936
1069.097, 264.1965
1069.579, 263.8123
1070.062, 263.6350
1070.544, 264.3067
1071.026, 265.1808
1071.508, 265.9810
1071.990, 266.5736
1072.472, 266.4657
1072.954, 265.3554
1073.436, 264.4849
1073.918, 264.0541
1074.401, 264.0223
1074.883, 264.5445
1075.365, 265.3329
1075.847, 266.0102
1076.329, 266.5480
1076.811, 266.6045
1077.293, 265.4538
1077.775, 264.6473
1078.257, 264.9823
1078.740, 266.0620
1079.222, 266.5060
1079.704, 266.4058
1080.186, 266.2204
1080.668, 266.0744
1081.150, 265.9715
1081.632, 266.0588
1082.114, 266.0869
1082.596, 265.7278
1083.079, 264.8234
1083.561, 264.5049
1084.043, 264.7956
1084.525, 265.3116
1085.007, 265.9556
1085.489, 266.5406
1085.971, 266.8557
1086.453, 266.9571
1086.936, 267.0202
1087.418, 267.1511
1087.900, 267.0396
1088.382, 266.5253
1088.864, 266.0778
1089.346, 266.5225
1089.828, 267.4003
1090.310, 267.7381
1090.792, 267.4450
1091.275, 267.0724
1091.757, 266.6050
1092.239, 266.4053
1092.721, 266.7077
1093.203, 267.2828
1093.685, 267.4011
1094.167, 267.1525
1094.649, 267.1336
1095.131, 267.5658
1095.614, 268.0286
1096.096, 268.1623
1096.578, 268.2429
1097.060, 268.5986
1097.542, 269.2544
1098.024, 269.3277
1098.506, 268.7625
1098.988, 268.2873
1099.471, 268.4080
1099.953, 268.6727
1100.435, 268.6039
1100.917, 268.3117
1101.399, 267.9720
1101.881, 267.2882
1102.363, 267.2845
1102.845, 268.1920
1103.328, 269.2035
1103.810, 269.7626
1104.292, 269.8747
1104.774, 269.2694
1105.256, 268.1388
1105.738, 267.4630
1106.220, 268.0746
1106.702, 268.5835
1107.184, 268.5827
1107.667, 268.4356
1108.149, 268.9216
1108.631, 269.8121
1109.113, 269.8122
1109.595, 268.7263
1110.077, 267.6104
1110.559, 266.7465
1111.041, 266.4274
1111.523, 267.0596
1112.006, 268.3530
1112.488, 269.2231
1112.970, 269.6726
1113.452, 269.8732
1113.934, 269.8344
1114.416, 269.6901
1114.898, 269.3704
1115.380, 269.1373
1115.863, 269.4051
1116.345, 270.3426
1116.827, 270.6399
1117.309, 270.1740
1117.791, 269.6415
1118.273, 269.3687
1118.755, 269.2602
1119.237, 269.2862
1119.719, 269.3400
1120.202, 269.2072
1120.684, 268.5488
1121.166, 268.2050
1121.648, 268.2773
1122.130, 268.5109
1122.612, 268.7215
1123.094, 268.9275
1123.576, 269.1894
1124.058, 269.4974
1124.541, 269.8040
1125.023, 270.4120
1125.505, 270.5383
1125.987, 269.6708
1126.469, 268.6278
1126.951, 268.5888
1127.433, 269.3941
1127.915, 270.1124
1128.398, 270.6540
1128.880, 270.8466
1129.362, 270.3657
1129.844, 269.7124
1130.326, 268.8795
1130.808, 268.1526
1131.290, 268.5318
1131.772, 270.0315
1132.255, 270.7908
1132.737, 270.3268
1133.219, 269.6699
1133.701, 269.7130
1134.183, 269.9819
1134.665, 270.1232
1135.147, 270.1042
1135.629, 269.7167
1136.111, 268.8271
1136.594, 268.4064
1137.076, 268.9373
1137.558, 269.7745
1138.040, 270.1376
1138.522, 270.2685
1139.004, 270.5031
1139.486, 270.9812
1139.968, 271.2766
1140.450, 271.3880
1140.933, 271.2924
1141.415, 270.8880
1141.897, 270.3491
1142.379, 269.8798
1142.861, 269.5538
1143.343, 269.5274
1143.825, 270.1428
1144.307, 270.6250
1144.790, 270.9005
1145.272, 271.0766
1145.754, 271.2983
1146.236, 271.4813
1146.718, 271.2302
1147.200, 270.6513
1147.682, 270.2460
1148.164, 270.5043
1148.646, 270.6183
1149.129, 270.2734
1149.611, 269.8421
1150.093, 269.7689
1150.575, 270.0187
1151.057, 270.5723
1151.539, 271.3843
1152.021, 271.8436
1152.503, 271.4214
1152.985, 270.7359
1153.468, 269.8095
1153.950, 268.9600
1154.432, 268.9239
1154.914, 269.6544
1155.396, 270.4539
1155.878, 271.2262
1156.360, 271.7934
1156.842, 271.9741
1157.325, 271.9369
1157.807, 271.5971
1158.289, 271.1186
1158.771, 271.3827
1159.253, 272.4264
1159.735, 272.8183
1160.217, 272.0314
1160.699, 271.0515
1161.182, 270.4450
1161.664, 270.3481
1162.146, 271.2482
1162.628, 273.1933
1163.110, 273.7288
1163.592, 272.6602
1164.074, 271.8038
1164.556, 271.9664
1165.038, 272.4831
1165.521, 272.5900
1166.003, 272.5677
1166.485, 272.8982
1166.967, 273.9359
1167.449, 273.9521
1167.931, 272.6942
1168.413, 271.5829
1168.895, 271.5063
1169.377, 271.9366
1169.860, 272.2499
1170.342, 272.4535
1170.824, 272.5562
1171.306, 272.5228
1171.788, 272.4176
1172.270, 272.1870
1172.752, 272.0352
1173.234, 272.1500
1173.717, 272.4232
1174.199, 272.8285
1174.681, 273.2318
1175.163, 273.2527
1175.645, 272.0876
1176.127, 271.6812
1176.609, 272.4631
1177.091, 273.3226
1177.573, 272.9274
1178.056, 271.8999
1178.538, 271.5125
1179.020, 271.7475
1179.502, 272.1719
1179.984, 272.7120
1180.466, 273.4116
1180.948, 274.5594
1181.430, 275.3875
1181.912, 274.4504
1182.395, 272.5503
1182.877, 271.7574
1183.359, 272.1920
1183.841, 273.0041
1184.323, 274.9093
1184.805, 275.5926
1185.287, 273.9467
1185.769, 271.5836
1186.252, 271.5921
1186.734, 273.1595
1187.216, 273.7925
1187.698, 273.1409
1188.180, 272.5069
1188.662, 272.5783
1189.144, 272.6459
1189.626, 272.3856
1190.109, 272.0557
1190.591, 272.3737
1191.073, 273.1435
1191.555, 273.6643
1192.037, 273.7812
1192.519, 273.7057
1193.001, 273.2434
1193.483, 272.9454
1193.965, 273.1091
1194.448, 273.5757
1194.930, 273.7549
1195.412, 273.7606
1195.894, 274.1465
1196.376, 275.2327
1196.858, 276.0633
1197.340, 275.9406
1197.822, 275.6821
1198.304, 275.7493
1198.787, 276.0464
1199.269, 276.1295
1199.751, 276.0223
1200.233, 275.8494
1200.715, 275.6863
1201.197, 275.3853
1201.679, 274.5564
1202.161, 273.8811
1202.644, 273.9288
1203.126, 274.5430
1203.608, 274.5051
1204.090, 273.9778
1204.572, 273.8465
1205.054, 274.6664
1205.536, 275.6491
1206.018, 276.8196
1206.500, 277.6436
1206.983, 277.4893
1207.465, 276.4953
1207.947, 276.3813
1208.429, 277.0056
1208.911, 277.4629
1209.393, 277.0221
1209.875, 276.6661
1210.357, 277.0919
1210.839, 277.5641
1211.322, 277.2926
1211.804, 276.3600
1212.286, 276.3597
1212.768, 277.1581
1213.250, 277.6750
1213.732, 276.7795
1214.214, 276.1371
1214.696, 276.7739
1215.179, 277.7129
1215.661, 277.9168
1216.143, 277.4752
1216.625, 277.2665
1217.107, 277.3205
1217.589, 277.6014
1218.071, 278.2391
1218.553, 278.9356
1219.036, 279.7553
1219.518, 280.4175
1220.000, 280.4796
1220.482, 280.0277
1220.964, 279.6535
1221.446, 279.4175
1221.928, 279.5524
1222.410, 280.9391
1222.892, 281.7615
1223.375, 281.0368
1223.857, 279.7355
1224.339, 279.0939
1224.821, 279.0551
1225.303, 279.4839
1225.785, 280.3164
1226.267, 280.8785
1226.749, 280.2697
1227.231, 280.0657
1227.714, 281.1330
1228.196, 282.4651
1228.678, 282.2773
1229.160, 280.9804
1229.642, 280.2098
1230.124, 280.1078
1230.606, 280.0770
1231.088, 279.6429
1231.571, 279.4795
1232.053, 279.8204
1232.535, 280.4642
1233.017, 281.3037
1233.499, 282.1415
1233.981, 282.2119
1234.463, 281.4509
1234.945, 280.7998
1235.427, 280.6391
1235.910, 280.7427
1236.392, 281.1670
1236.874, 281.6534
1237.356, 281.6374
1237.838, 281.3457
1238.320, 281.4300
1238.802, 281.9765
1239.284, 282.2316
1239.766, 281.4776
1240.249, 281.0687
1240.731, 281.3585
1241.213, 282.0951
1241.695, 283.2454
1242.177, 284.4007
1242.659, 284.4817
1243.141, 283.2873
1243.623, 282.6340
1244.106, 283.2359
1244.588, 283.6981
1245.070, 283.6037
1245.552, 283.2819
1246.034, 283.2776
1246.516, 283.4071
1246.998, 283.3407
1247.480, 283.0210
1247.963, 282.7563
1248.445, 282.4678
1248.927, 282.5931
1249.409, 283.4273
1249.891, 284.3228
1250.373, 284.2662
1250.855, 283.7034
1251.337, 283.1304
1251.819, 282.6191
1252.302, 282.4450
1252.784, 282.6689
1253.266, 283.0022
1253.748, 283.3557
1254.230, 283.7906
1254.712, 284.5413
1255.194, 285.3134
1255.676, 285.7559
1256.158, 285.8112
1256.641, 285.8369
1257.123, 285.8431
1257.605, 285.6927
1258.087, 285.3281
1258.569, 284.8358
1259.051, 283.7822
1259.533, 283.0192
1260.015, 283.8296
1260.498, 285.9961
1260.980, 286.8527
1261.462, 286.3771
1261.944, 286.1229
1262.426, 286.6491
1262.908, 287.1956
1263.390, 286.8700
1263.872, 286.5680
1264.354, 287.3070
1264.837, 288.7518
1265.319, 288.3530
1265.801, 286.3757
##END=



