##NAMES=Clinosafflorite
##RRUFFID=R130389
##IDEAL CHEMISTRY=Co^2+^As_2_
##LOCALITY=Ahrbar, Bou Azzer, Morocco
##OWNER=RRUFF
##SOURCE=Rock Currier
##DESCRIPTION=Aggregates of metallic platy crystals, associated with arsenopyrite and skutterudite.
##STATUS=The identification of this mineral has been confirmed by single-crystal X-ray diffraction.
##URL=rruff.info/R130389
8.936163e+001, 0.000000e+000
8.984375e+001, 9.112650e+001
9.032587e+001, 9.146273e+001
9.080798e+001, 9.156454e+001
9.129010e+001, 9.145727e+001
9.177222e+001, 9.108189e+001
9.225433e+001, 9.023697e+001
9.273645e+001, 8.895715e+001
9.321857e+001, 8.764710e+001
9.370068e+001, 8.683043e+001
9.418280e+001, 8.630830e+001
9.466492e+001, 8.542258e+001
9.514703e+001, 8.368423e+001
9.562915e+001, 8.148604e+001
9.611127e+001, 7.990280e+001
9.659338e+001, 7.899368e+001
9.707550e+001, 7.845977e+001
9.755762e+001, 7.807131e+001
9.803973e+001, 7.783168e+001
9.852185e+001, 7.743333e+001
9.900397e+001, 7.664082e+001
9.948608e+001, 7.543722e+001
9.996820e+001, 7.449825e+001
1.004503e+002, 7.388712e+001
1.009324e+002, 7.345834e+001
1.014146e+002, 7.292542e+001
1.018967e+002, 7.228159e+001
1.023788e+002, 7.153993e+001
1.028609e+002, 7.064285e+001
1.033430e+002, 6.948225e+001
1.038251e+002, 6.856371e+001
1.043073e+002, 6.805912e+001
1.047894e+002, 6.784827e+001
1.052715e+002, 6.727386e+001
1.057536e+002, 6.605592e+001
1.062357e+002, 6.477732e+001
1.067178e+002, 6.383146e+001
1.072000e+002, 6.342289e+001
1.076821e+002, 6.306330e+001
1.081642e+002, 6.269441e+001
1.086463e+002, 6.231149e+001
1.091284e+002, 6.198701e+001
1.096105e+002, 6.189535e+001
1.100927e+002, 6.178546e+001
1.105748e+002, 6.142544e+001
1.110569e+002, 6.048251e+001
1.115390e+002, 5.959892e+001
1.120211e+002, 5.895542e+001
1.125032e+002, 5.864112e+001
1.129854e+002, 5.826175e+001
1.134675e+002, 5.781270e+001
1.139496e+002, 5.726170e+001
1.144317e+002, 5.655369e+001
1.149138e+002, 5.531215e+001
1.153959e+002, 5.418542e+001
1.158781e+002, 5.353242e+001
1.163602e+002, 5.367033e+001
1.168423e+002, 5.371180e+001
1.173244e+002, 5.324691e+001
1.178065e+002, 5.243633e+001
1.182886e+002, 5.168906e+001
1.187708e+002, 5.121941e+001
1.192529e+002, 5.085913e+001
1.197350e+002, 5.048247e+001
1.202171e+002, 5.003316e+001
1.206992e+002, 4.958622e+001
1.211813e+002, 4.924902e+001
1.216635e+002, 4.898849e+001
1.221456e+002, 4.862785e+001
1.226277e+002, 4.790587e+001
1.231098e+002, 4.705241e+001
1.235919e+002, 4.637328e+001
1.240740e+002, 4.610774e+001
1.245562e+002, 4.598407e+001
1.250383e+002, 4.571385e+001
1.255204e+002, 4.529701e+001
1.260025e+002, 4.486789e+001
1.264846e+002, 4.465250e+001
1.269667e+002, 4.452937e+001
1.274489e+002, 4.419482e+001
1.279310e+002, 4.321832e+001
1.284131e+002, 4.198996e+001
1.288952e+002, 4.133207e+001
1.293773e+002, 4.133021e+001
1.298594e+002, 4.158511e+001
1.303416e+002, 4.168282e+001
1.308237e+002, 4.162679e+001
1.313058e+002, 4.144865e+001
1.317879e+002, 4.111227e+001
1.322700e+002, 4.064955e+001
1.327521e+002, 4.020575e+001
1.332343e+002, 3.977654e+001
1.337164e+002, 3.939495e+001
1.341985e+002, 3.916177e+001
1.346806e+002, 3.909366e+001
1.351627e+002, 3.895238e+001
1.356448e+002, 3.849853e+001
1.361270e+002, 3.772274e+001
1.366091e+002, 3.717539e+001
1.370912e+002, 3.700742e+001
1.375733e+002, 3.707427e+001
1.380554e+002, 3.683155e+001
1.385375e+002, 3.618382e+001
1.390197e+002, 3.550152e+001
1.395018e+002, 3.506866e+001
1.399839e+002, 3.493288e+001
1.404660e+002, 3.486592e+001
1.409481e+002, 3.487763e+001
1.414302e+002, 3.495045e+001
1.419124e+002, 3.484996e+001
1.423945e+002, 3.453733e+001
1.428766e+002, 3.410758e+001
1.433587e+002, 3.363013e+001
1.438408e+002, 3.304461e+001
1.443229e+002, 3.254564e+001
1.448051e+002, 3.220145e+001
1.452872e+002, 3.203378e+001
1.457693e+002, 3.181896e+001
1.462514e+002, 3.147405e+001
1.467335e+002, 3.113067e+001
1.472156e+002, 3.096236e+001
1.476978e+002, 3.113980e+001
1.481799e+002, 3.128481e+001
1.486620e+002, 3.131580e+001
1.491441e+002, 3.124031e+001
1.496262e+002, 3.102580e+001
1.501083e+002, 3.055784e+001
1.505905e+002, 2.997282e+001
1.510726e+002, 2.950722e+001
1.515547e+002, 2.923200e+001
1.520368e+002, 2.901879e+001
1.525189e+002, 2.884241e+001
1.530010e+002, 2.879345e+001
1.534832e+002, 2.862217e+001
1.539653e+002, 2.810960e+001
1.544474e+002, 2.745193e+001
1.549295e+002, 2.712015e+001
1.554116e+002, 2.762308e+001
1.558937e+002, 2.813845e+001
1.563759e+002, 2.827910e+001
1.568580e+002, 2.767421e+001
1.573401e+002, 2.712055e+001
1.578222e+002, 2.680970e+001
1.583043e+002, 2.668107e+001
1.587864e+002, 2.651116e+001
1.592686e+002, 2.614169e+001
1.597507e+002, 2.576895e+001
1.602328e+002, 2.551905e+001
1.607149e+002, 2.553501e+001
1.611970e+002, 2.556356e+001
1.616791e+002, 2.556525e+001
1.621613e+002, 2.552999e+001
1.626434e+002, 2.538939e+001
1.631255e+002, 2.497227e+001
1.636076e+002, 2.449874e+001
1.640897e+002, 2.416488e+001
1.645718e+002, 2.421414e+001
1.650540e+002, 2.426874e+001
1.655361e+002, 2.410253e+001
1.660182e+002, 2.372285e+001
1.665003e+002, 2.337245e+001
1.669824e+002, 2.311445e+001
1.674645e+002, 2.297485e+001
1.679467e+002, 2.298747e+001
1.684288e+002, 2.331299e+001
1.689109e+002, 2.369265e+001
1.693930e+002, 2.399195e+001
1.698751e+002, 2.421012e+001
1.703572e+002, 2.425305e+001
1.708394e+002, 2.383955e+001
1.713215e+002, 2.322578e+001
1.718036e+002, 2.284937e+001
1.722857e+002, 2.302987e+001
1.727678e+002, 2.346785e+001
1.732499e+002, 2.391515e+001
1.737321e+002, 2.437126e+001
1.742142e+002, 2.474573e+001
1.746963e+002, 2.493335e+001
1.751784e+002, 2.498506e+001
1.756605e+002, 2.502166e+001
1.761426e+002, 2.508073e+001
1.766248e+002, 2.516842e+001
1.771069e+002, 2.526551e+001
1.775890e+002, 2.534915e+001
1.780711e+002, 2.553861e+001
1.785532e+002, 2.597106e+001
1.790353e+002, 2.662357e+001
1.795175e+002, 2.739604e+001
1.799996e+002, 2.839094e+001
1.804817e+002, 2.944834e+001
1.809638e+002, 3.024059e+001
1.814459e+002, 3.067393e+001
1.819280e+002, 3.098895e+001
1.824102e+002, 3.148334e+001
1.828923e+002, 3.213833e+001
1.833744e+002, 3.289528e+001
1.838565e+002, 3.379691e+001
1.843386e+002, 3.477770e+001
1.848207e+002, 3.560524e+001
1.853029e+002, 3.622517e+001
1.857850e+002, 3.673841e+001
1.862671e+002, 3.731990e+001
1.867492e+002, 3.796438e+001
1.872313e+002, 3.861204e+001
1.877134e+002, 3.921755e+001
1.881956e+002, 3.979267e+001
1.886777e+002, 4.035366e+001
1.891598e+002, 4.088759e+001
1.896419e+002, 4.143680e+001
1.901240e+002, 4.213284e+001
1.906061e+002, 4.299267e+001
1.910883e+002, 4.382892e+001
1.915704e+002, 4.448025e+001
1.920525e+002, 4.497137e+001
1.925346e+002, 4.548743e+001
1.930167e+002, 4.605618e+001
1.934988e+002, 4.664105e+001
1.939810e+002, 4.703196e+001
1.944631e+002, 4.716801e+001
1.949452e+002, 4.741197e+001
1.954273e+002, 4.790700e+001
1.959094e+002, 4.864451e+001
1.963915e+002, 4.938915e+001
1.968737e+002, 5.012828e+001
1.973558e+002, 5.083014e+001
1.978379e+002, 5.135579e+001
1.983200e+002, 5.167307e+001
1.988021e+002, 5.196504e+001
1.992842e+002, 5.236518e+001
1.997664e+002, 5.287228e+001
2.002485e+002, 5.352672e+001
2.007306e+002, 5.448737e+001
2.012127e+002, 5.561653e+001
2.016948e+002, 5.603242e+001
2.021769e+002, 5.557125e+001
2.026591e+002, 5.494014e+001
2.031412e+002, 5.482075e+001
2.036233e+002, 5.526204e+001
2.041054e+002, 5.579282e+001
2.045875e+002, 5.635147e+001
2.050696e+002, 5.692376e+001
2.055518e+002, 5.736842e+001
2.060339e+002, 5.767773e+001
2.065160e+002, 5.788323e+001
2.069981e+002, 5.798842e+001
2.074802e+002, 5.796198e+001
2.079623e+002, 5.797770e+001
2.084445e+002, 5.809391e+001
2.089266e+002, 5.830424e+001
2.094087e+002, 5.842898e+001
2.098908e+002, 5.840943e+001
2.103729e+002, 5.840913e+001
2.108550e+002, 5.866896e+001
2.113372e+002, 5.931161e+001
2.118193e+002, 5.976921e+001
2.123014e+002, 5.986681e+001
2.127835e+002, 5.960475e+001
2.132656e+002, 5.933941e+001
2.137477e+002, 5.900405e+001
2.142299e+002, 5.875515e+001
2.147120e+002, 5.880222e+001
2.151941e+002, 5.922824e+001
2.156762e+002, 5.971377e+001
2.161583e+002, 6.020330e+001
2.166404e+002, 6.069574e+001
2.171226e+002, 6.113117e+001
2.176047e+002, 6.151485e+001
2.180868e+002, 6.183627e+001
2.185689e+002, 6.210633e+001
2.190510e+002, 6.237933e+001
2.195331e+002, 6.246912e+001
2.200153e+002, 6.226217e+001
2.204974e+002, 6.171069e+001
2.209795e+002, 6.140607e+001
2.214616e+002, 6.143508e+001
2.219437e+002, 6.161583e+001
2.224258e+002, 6.169598e+001
2.229080e+002, 6.154271e+001
2.233901e+002, 6.158866e+001
2.238722e+002, 6.207796e+001
2.243543e+002, 6.313575e+001
2.248364e+002, 6.353345e+001
2.253185e+002, 6.287939e+001
2.258007e+002, 6.192685e+001
2.262828e+002, 6.168239e+001
2.267649e+002, 6.257582e+001
2.272470e+002, 6.332304e+001
2.277291e+002, 6.351097e+001
2.282112e+002, 6.304148e+001
2.286934e+002, 6.281341e+001
2.291755e+002, 6.298523e+001
2.296576e+002, 6.325819e+001
2.301397e+002, 6.320937e+001
2.306218e+002, 6.259324e+001
2.311039e+002, 6.210630e+001
2.315861e+002, 6.194238e+001
2.320682e+002, 6.213651e+001
2.325503e+002, 6.241744e+001
2.330324e+002, 6.291770e+001
2.335145e+002, 6.339684e+001
2.339966e+002, 6.352026e+001
2.344788e+002, 6.305327e+001
2.349609e+002, 6.264865e+001
2.354430e+002, 6.245971e+001
2.359251e+002, 6.249547e+001
2.364072e+002, 6.271484e+001
2.368893e+002, 6.331713e+001
2.373715e+002, 6.393890e+001
2.378536e+002, 6.406810e+001
2.383357e+002, 6.329357e+001
2.388178e+002, 6.275293e+001
2.392999e+002, 6.282014e+001
2.397820e+002, 6.360780e+001
2.402642e+002, 6.413027e+001
2.407463e+002, 6.432246e+001
2.412284e+002, 6.430270e+001
2.417105e+002, 6.418698e+001
2.421926e+002, 6.386823e+001
2.426747e+002, 6.364753e+001
2.431569e+002, 6.362382e+001
2.436390e+002, 6.382601e+001
2.441211e+002, 6.398598e+001
2.446032e+002, 6.410347e+001
2.450853e+002, 6.418066e+001
2.455674e+002, 6.420232e+001
2.460496e+002, 6.408147e+001
2.465317e+002, 6.407579e+001
2.470138e+002, 6.431967e+001
2.474959e+002, 6.486317e+001
2.479780e+002, 6.506931e+001
2.484601e+002, 6.475386e+001
2.489423e+002, 6.428935e+001
2.494244e+002, 6.410313e+001
2.499065e+002, 6.436445e+001
2.503886e+002, 6.457331e+001
2.508707e+002, 6.461867e+001
2.513528e+002, 6.449539e+001
2.518350e+002, 6.431725e+001
2.523171e+002, 6.398039e+001
2.527992e+002, 6.370232e+001
2.532813e+002, 6.374320e+001
2.537634e+002, 6.428295e+001
2.542455e+002, 6.474741e+001
2.547277e+002, 6.501240e+001
2.552098e+002, 6.507481e+001
2.556919e+002, 6.511711e+001
2.561740e+002, 6.515431e+001
2.566561e+002, 6.515060e+001
2.571382e+002, 6.505307e+001
2.576204e+002, 6.479309e+001
2.581025e+002, 6.460056e+001
2.585846e+002, 6.451594e+001
2.590667e+002, 6.453678e+001
2.595488e+002, 6.465263e+001
2.600309e+002, 6.491634e+001
2.605131e+002, 6.519524e+001
2.609952e+002, 6.537341e+001
2.614773e+002, 6.544195e+001
2.619594e+002, 6.543206e+001
2.624415e+002, 6.529607e+001
2.629236e+002, 6.506142e+001
2.634058e+002, 6.502473e+001
2.638879e+002, 6.522847e+001
2.643700e+002, 6.555859e+001
2.648521e+002, 6.599126e+001
2.653342e+002, 6.662746e+001
2.658163e+002, 6.699924e+001
2.662985e+002, 6.695671e+001
2.667806e+002, 6.658404e+001
2.672627e+002, 6.635297e+001
2.677448e+002, 6.628330e+001
2.682269e+002, 6.631615e+001
2.687090e+002, 6.643488e+001
2.691912e+002, 6.667336e+001
2.696733e+002, 6.685265e+001
2.701554e+002, 6.694235e+001
2.706375e+002, 6.695866e+001
2.711196e+002, 6.698589e+001
2.716017e+002, 6.706329e+001
2.720839e+002, 6.704228e+001
2.725660e+002, 6.676394e+001
2.730481e+002, 6.616472e+001
2.735302e+002, 6.572072e+001
2.740123e+002, 6.548576e+001
2.744944e+002, 6.542551e+001
2.749766e+002, 6.548223e+001
2.754587e+002, 6.570233e+001
2.759408e+002, 6.586179e+001
2.764229e+002, 6.575289e+001
2.769050e+002, 6.533843e+001
2.773871e+002, 6.515052e+001
2.778693e+002, 6.529285e+001
2.783514e+002, 6.560627e+001
2.788335e+002, 6.573467e+001
2.793156e+002, 6.565778e+001
2.797977e+002, 6.552445e+001
2.802798e+002, 6.536595e+001
2.807620e+002, 6.518227e+001
2.812441e+002, 6.511378e+001
2.817262e+002, 6.511040e+001
2.822083e+002, 6.532436e+001
2.826904e+002, 6.636557e+001
2.831725e+002, 6.833632e+001
2.836547e+002, 6.966541e+001
2.841368e+002, 6.899751e+001
2.846189e+002, 6.659227e+001
2.851010e+002, 6.571628e+001
2.855831e+002, 6.674071e+001
2.860652e+002, 6.844860e+001
2.865474e+002, 6.911766e+001
2.870295e+002, 6.876379e+001
2.875116e+002, 6.813742e+001
2.879937e+002, 6.742193e+001
2.884758e+002, 6.665981e+001
2.889579e+002, 6.616330e+001
2.894401e+002, 6.595219e+001
2.899222e+002, 6.586936e+001
2.904043e+002, 6.574796e+001
2.908864e+002, 6.559197e+001
2.913685e+002, 6.542742e+001
2.918506e+002, 6.519769e+001
2.923328e+002, 6.497471e+001
2.928149e+002, 6.503201e+001
2.932970e+002, 6.538828e+001
2.937791e+002, 6.579100e+001
2.942612e+002, 6.595841e+001
2.947433e+002, 6.594278e+001
2.952255e+002, 6.595929e+001
2.957076e+002, 6.617624e+001
2.961897e+002, 6.641413e+001
2.966718e+002, 6.623531e+001
2.971539e+002, 6.565131e+001
2.976360e+002, 6.504760e+001
2.981182e+002, 6.453472e+001
2.986003e+002, 6.424773e+001
2.990824e+002, 6.462614e+001
2.995645e+002, 6.631406e+001
3.000466e+002, 6.814804e+001
3.005287e+002, 6.820261e+001
3.010109e+002, 6.669301e+001
3.014930e+002, 6.513094e+001
3.019751e+002, 6.463866e+001
3.024572e+002, 6.482975e+001
3.029393e+002, 6.509158e+001
3.034214e+002, 6.534640e+001
3.039036e+002, 6.553885e+001
3.043857e+002, 6.553838e+001
3.048678e+002, 6.540281e+001
3.053499e+002, 6.534390e+001
3.058320e+002, 6.563860e+001
3.063141e+002, 6.602693e+001
3.067963e+002, 6.614613e+001
3.072784e+002, 6.584794e+001
3.077605e+002, 6.554385e+001
3.082426e+002, 6.562064e+001
3.087247e+002, 6.595906e+001
3.092068e+002, 6.627375e+001
3.096890e+002, 6.645216e+001
3.101711e+002, 6.652277e+001
3.106532e+002, 6.643560e+001
3.111353e+002, 6.612753e+001
3.116174e+002, 6.596917e+001
3.120995e+002, 6.637971e+001
3.125817e+002, 6.707139e+001
3.130638e+002, 6.758526e+001
3.135459e+002, 6.765504e+001
3.140280e+002, 6.755253e+001
3.145101e+002, 6.742542e+001
3.149922e+002, 6.728526e+001
3.154744e+002, 6.712072e+001
3.159565e+002, 6.677733e+001
3.164386e+002, 6.645888e+001
3.169207e+002, 6.639997e+001
3.174028e+002, 6.696223e+001
3.178849e+002, 6.753339e+001
3.183671e+002, 6.786214e+001
3.188492e+002, 6.795506e+001
3.193313e+002, 6.800002e+001
3.198134e+002, 6.800259e+001
3.202955e+002, 6.801278e+001
3.207776e+002, 6.806989e+001
3.212598e+002, 6.829021e+001
3.217419e+002, 6.844263e+001
3.222240e+002, 6.842384e+001
3.227061e+002, 6.826989e+001
3.231882e+002, 6.817307e+001
3.236703e+002, 6.804160e+001
3.241525e+002, 6.806467e+001
3.246346e+002, 6.836104e+001
3.251167e+002, 6.932767e+001
3.255988e+002, 7.004231e+001
3.260809e+002, 7.026576e+001
3.265630e+002, 7.016577e+001
3.270452e+002, 7.020216e+001
3.275273e+002, 7.063457e+001
3.280094e+002, 7.100613e+001
3.284915e+002, 7.114725e+001
3.289736e+002, 7.094578e+001
3.294557e+002, 7.075748e+001
3.299379e+002, 7.049934e+001
3.304200e+002, 7.028040e+001
3.309021e+002, 7.028355e+001
3.313842e+002, 7.064425e+001
3.318663e+002, 7.104729e+001
3.323484e+002, 7.144237e+001
3.328306e+002, 7.184263e+001
3.333127e+002, 7.210191e+001
3.337948e+002, 7.221045e+001
3.342769e+002, 7.218539e+001
3.347590e+002, 7.200910e+001
3.352411e+002, 7.154419e+001
3.357233e+002, 7.124521e+001
3.362054e+002, 7.128427e+001
3.366875e+002, 7.162878e+001
3.371696e+002, 7.171238e+001
3.376517e+002, 7.146362e+001
3.381339e+002, 7.109553e+001
3.386160e+002, 7.076399e+001
3.390981e+002, 7.046093e+001
3.395802e+002, 7.022379e+001
3.400623e+002, 7.005473e+001
3.405444e+002, 6.995737e+001
3.410266e+002, 6.998287e+001
3.415087e+002, 7.016045e+001
3.419908e+002, 7.031654e+001
3.424729e+002, 7.036092e+001
3.429550e+002, 7.029240e+001
3.434371e+002, 7.007758e+001
3.439193e+002, 6.967562e+001
3.444014e+002, 6.919903e+001
3.448835e+002, 6.885140e+001
3.453656e+002, 6.863226e+001
3.458477e+002, 6.846872e+001
3.463298e+002, 6.844659e+001
3.468120e+002, 6.847857e+001
3.472941e+002, 6.806516e+001
3.477762e+002, 6.710811e+001
3.482583e+002, 6.616312e+001
3.487404e+002, 6.600406e+001
3.492225e+002, 6.646866e+001
3.497047e+002, 6.686691e+001
3.501868e+002, 6.691694e+001
3.506689e+002, 6.674425e+001
3.511510e+002, 6.652901e+001
3.516331e+002, 6.627299e+001
3.521152e+002, 6.603603e+001
3.525974e+002, 6.586305e+001
3.530795e+002, 6.574427e+001
3.535616e+002, 6.565840e+001
3.540437e+002, 6.557980e+001
3.545258e+002, 6.555646e+001
3.550079e+002, 6.570825e+001
3.554901e+002, 6.598689e+001
3.559722e+002, 6.617887e+001
3.564543e+002, 6.608366e+001
3.569364e+002, 6.586840e+001
3.574185e+002, 6.569094e+001
3.579006e+002, 6.556745e+001
3.583828e+002, 6.552049e+001
3.588649e+002, 6.564999e+001
3.593470e+002, 6.586423e+001
3.598291e+002, 6.597860e+001
3.603112e+002, 6.578043e+001
3.607933e+002, 6.555710e+001
3.612755e+002, 6.548489e+001
3.617576e+002, 6.559602e+001
3.622397e+002, 6.573761e+001
3.627218e+002, 6.593713e+001
3.632039e+002, 6.610541e+001
3.636860e+002, 6.614302e+001
3.641682e+002, 6.589539e+001
3.646503e+002, 6.563683e+001
3.651324e+002, 6.542961e+001
3.656145e+002, 6.527528e+001
3.660966e+002, 6.521133e+001
3.665787e+002, 6.533797e+001
3.670609e+002, 6.549837e+001
3.675430e+002, 6.559212e+001
3.680251e+002, 6.561036e+001
3.685072e+002, 6.556118e+001
3.689893e+002, 6.532972e+001
3.694714e+002, 6.501357e+001
3.699536e+002, 6.495695e+001
3.704357e+002, 6.548185e+001
3.709178e+002, 6.592644e+001
3.713999e+002, 6.598264e+001
3.718820e+002, 6.538876e+001
3.723641e+002, 6.509577e+001
3.728463e+002, 6.523722e+001
3.733284e+002, 6.559363e+001
3.738105e+002, 6.583721e+001
3.742926e+002, 6.595198e+001
3.747747e+002, 6.598418e+001
3.752568e+002, 6.591290e+001
3.757390e+002, 6.573547e+001
3.762211e+002, 6.569608e+001
3.767032e+002, 6.586649e+001
3.771853e+002, 6.602251e+001
3.776674e+002, 6.591315e+001
3.781495e+002, 6.550274e+001
3.786317e+002, 6.513248e+001
3.791138e+002, 6.485568e+001
3.795959e+002, 6.466685e+001
3.800780e+002, 6.453598e+001
3.805601e+002, 6.446220e+001
3.810422e+002, 6.447166e+001
3.815244e+002, 6.468956e+001
3.820065e+002, 6.504832e+001
3.824886e+002, 6.510258e+001
3.829707e+002, 6.473406e+001
3.834528e+002, 6.427221e+001
3.839349e+002, 6.421532e+001
3.844171e+002, 6.450282e+001
3.848992e+002, 6.479588e+001
3.853813e+002, 6.495679e+001
3.858634e+002, 6.501073e+001
3.863455e+002, 6.494909e+001
3.868276e+002, 6.476406e+001
3.873098e+002, 6.464580e+001
3.877919e+002, 6.491769e+001
3.882740e+002, 6.534849e+001
3.887561e+002, 6.551131e+001
3.892382e+002, 6.499942e+001
3.897203e+002, 6.442590e+001
3.902025e+002, 6.431675e+001
3.906846e+002, 6.460617e+001
3.911667e+002, 6.498772e+001
3.916488e+002, 6.544279e+001
3.921309e+002, 6.582940e+001
3.926130e+002, 6.601210e+001
3.930952e+002, 6.589407e+001
3.935773e+002, 6.572381e+001
3.940594e+002, 6.557116e+001
3.945415e+002, 6.544184e+001
3.950236e+002, 6.534621e+001
3.955057e+002, 6.529237e+001
3.959879e+002, 6.526983e+001
3.964700e+002, 6.526871e+001
3.969521e+002, 6.528358e+001
3.974342e+002, 6.535539e+001
3.979163e+002, 6.560109e+001
3.983984e+002, 6.585426e+001
3.988806e+002, 6.596292e+001
3.993627e+002, 6.569378e+001
3.998448e+002, 6.553626e+001
4.003269e+002, 6.557796e+001
4.008090e+002, 6.579429e+001
4.012911e+002, 6.598564e+001
4.017733e+002, 6.603889e+001
4.022554e+002, 6.620118e+001
4.027375e+002, 6.670228e+001
4.032196e+002, 6.799806e+001
4.037017e+002, 6.839536e+001
4.041838e+002, 6.743001e+001
4.046660e+002, 6.589948e+001
4.051481e+002, 6.548557e+001
4.056302e+002, 6.655601e+001
4.061123e+002, 6.736601e+001
4.065944e+002, 6.713810e+001
4.070765e+002, 6.593874e+001
4.075587e+002, 6.526861e+001
4.080408e+002, 6.518217e+001
4.085229e+002, 6.539390e+001
4.090050e+002, 6.578368e+001
4.094871e+002, 6.631361e+001
4.099692e+002, 6.642656e+001
4.104514e+002, 6.583284e+001
4.109335e+002, 6.494246e+001
4.114156e+002, 6.463587e+001
4.118977e+002, 6.487611e+001
4.123798e+002, 6.520554e+001
4.128619e+002, 6.531658e+001
4.133441e+002, 6.530180e+001
4.138262e+002, 6.536181e+001
4.143083e+002, 6.554003e+001
4.147904e+002, 6.569032e+001
4.152725e+002, 6.558091e+001
4.157546e+002, 6.534154e+001
4.162368e+002, 6.523830e+001
4.167189e+002, 6.560808e+001
4.172010e+002, 6.600832e+001
4.176831e+002, 6.601220e+001
4.181652e+002, 6.564113e+001
4.186473e+002, 6.534849e+001
4.191295e+002, 6.542429e+001
4.196116e+002, 6.566910e+001
4.200937e+002, 6.591492e+001
4.205758e+002, 6.619670e+001
4.210579e+002, 6.636793e+001
4.215400e+002, 6.637827e+001
4.220222e+002, 6.624644e+001
4.225043e+002, 6.601891e+001
4.229864e+002, 6.546419e+001
4.234685e+002, 6.502980e+001
4.239506e+002, 6.488724e+001
4.244327e+002, 6.509406e+001
4.249149e+002, 6.545301e+001
4.253970e+002, 6.631227e+001
4.258791e+002, 6.712389e+001
4.263612e+002, 6.729707e+001
4.268433e+002, 6.614515e+001
4.273254e+002, 6.545623e+001
4.278076e+002, 6.561666e+001
4.282897e+002, 6.650401e+001
4.287718e+002, 6.731826e+001
4.292539e+002, 6.821254e+001
4.297360e+002, 6.870665e+001
4.302181e+002, 6.836614e+001
4.307003e+002, 6.703130e+001
4.311824e+002, 6.586526e+001
4.316645e+002, 6.484124e+001
4.321466e+002, 6.412995e+001
4.326287e+002, 6.418295e+001
4.331108e+002, 6.501436e+001
4.335930e+002, 6.586296e+001
4.340751e+002, 6.652967e+001
4.345572e+002, 6.698138e+001
4.350393e+002, 6.700607e+001
4.355214e+002, 6.659536e+001
4.360035e+002, 6.613500e+001
4.364857e+002, 6.605009e+001
4.369678e+002, 6.617990e+001
4.374499e+002, 6.609255e+001
4.379320e+002, 6.558322e+001
4.384141e+002, 6.504781e+001
4.388962e+002, 6.500222e+001
4.393784e+002, 6.530258e+001
4.398605e+002, 6.552760e+001
4.403426e+002, 6.527314e+001
4.408247e+002, 6.495840e+001
4.413068e+002, 6.497720e+001
4.417889e+002, 6.538815e+001
4.422711e+002, 6.579910e+001
4.427532e+002, 6.608151e+001
4.432353e+002, 6.623325e+001
4.437174e+002, 6.625217e+001
4.441995e+002, 6.598070e+001
4.446816e+002, 6.574081e+001
4.451638e+002, 6.564845e+001
4.456459e+002, 6.567181e+001
4.461280e+002, 6.565753e+001
4.466101e+002, 6.555215e+001
4.470922e+002, 6.543061e+001
4.475743e+002, 6.531914e+001
4.480565e+002, 6.520596e+001
4.485386e+002, 6.513289e+001
4.490207e+002, 6.507722e+001
4.495028e+002, 6.507671e+001
4.499849e+002, 6.519778e+001
4.504670e+002, 6.552017e+001
4.509492e+002, 6.578833e+001
4.514313e+002, 6.594284e+001
4.519134e+002, 6.599549e+001
4.523955e+002, 6.602505e+001
4.528776e+002, 6.604112e+001
4.533597e+002, 6.600351e+001
4.538419e+002, 6.583030e+001
4.543240e+002, 6.552957e+001
4.548061e+002, 6.539418e+001
4.552882e+002, 6.548277e+001
4.557703e+002, 6.565583e+001
4.562524e+002, 6.567064e+001
4.567346e+002, 6.555803e+001
4.572167e+002, 6.552481e+001
4.576988e+002, 6.579753e+001
4.581809e+002, 6.614274e+001
4.586630e+002, 6.606907e+001
4.591451e+002, 6.560414e+001
4.596273e+002, 6.518879e+001
4.601094e+002, 6.530954e+001
4.605915e+002, 6.562906e+001
4.610736e+002, 6.567645e+001
4.615557e+002, 6.521670e+001
4.620378e+002, 6.476208e+001
4.625200e+002, 6.467820e+001
4.630021e+002, 6.483456e+001
4.634842e+002, 6.497909e+001
4.639663e+002, 6.491852e+001
4.644484e+002, 6.490838e+001
4.649305e+002, 6.515331e+001
4.654127e+002, 6.568667e+001
4.658948e+002, 6.600465e+001
4.663769e+002, 6.587321e+001
4.668590e+002, 6.556663e+001
4.673411e+002, 6.528004e+001
4.678232e+002, 6.471679e+001
4.683054e+002, 6.458852e+001
4.687875e+002, 6.514499e+001
4.692696e+002, 6.610755e+001
4.697517e+002, 6.682054e+001
4.702338e+002, 6.729861e+001
4.707159e+002, 6.747770e+001
4.711981e+002, 6.724655e+001
4.716802e+002, 6.658157e+001
4.721623e+002, 6.612008e+001
4.726444e+002, 6.589730e+001
4.731265e+002, 6.579421e+001
4.736086e+002, 6.570927e+001
4.740908e+002, 6.564260e+001
4.745729e+002, 6.561427e+001
4.750550e+002, 6.563085e+001
4.755371e+002, 6.568165e+001
4.760192e+002, 6.575677e+001
4.765013e+002, 6.585307e+001
4.769835e+002, 6.594661e+001
4.774656e+002, 6.603640e+001
4.779477e+002, 6.611095e+001
4.784298e+002, 6.615888e+001
4.789119e+002, 6.617994e+001
4.793940e+002, 6.615302e+001
4.798762e+002, 6.598739e+001
4.803583e+002, 6.578719e+001
4.808404e+002, 6.569166e+001
4.813225e+002, 6.578019e+001
4.818046e+002, 6.592804e+001
4.822867e+002, 6.615577e+001
4.827689e+002, 6.640118e+001
4.832510e+002, 6.650264e+001
4.837331e+002, 6.621639e+001
4.842152e+002, 6.594042e+001
4.846973e+002, 6.585604e+001
4.851794e+002, 6.600430e+001
4.856616e+002, 6.619404e+001
4.861437e+002, 6.649614e+001
4.866258e+002, 6.678043e+001
4.871079e+002, 6.695696e+001
4.875900e+002, 6.707050e+001
4.880721e+002, 6.696559e+001
4.885543e+002, 6.645754e+001
4.890364e+002, 6.577500e+001
4.895185e+002, 6.569018e+001
4.900006e+002, 6.644619e+001
4.904827e+002, 6.702129e+001
4.909648e+002, 6.684673e+001
4.914470e+002, 6.597188e+001
4.919291e+002, 6.541970e+001
4.924112e+002, 6.521092e+001
4.928933e+002, 6.524476e+001
4.933754e+002, 6.555802e+001
4.938575e+002, 6.606607e+001
4.943397e+002, 6.637680e+001
4.948218e+002, 6.636903e+001
4.953039e+002, 6.619336e+001
4.957860e+002, 6.595147e+001
4.962681e+002, 6.569188e+001
4.967502e+002, 6.557934e+001
4.972324e+002, 6.585468e+001
4.977145e+002, 6.622114e+001
4.981966e+002, 6.635310e+001
4.986787e+002, 6.623360e+001
4.991608e+002, 6.619912e+001
4.996429e+002, 6.666508e+001
5.001251e+002, 6.716972e+001
5.006072e+002, 6.729608e+001
5.010893e+002, 6.654243e+001
5.015714e+002, 6.596445e+001
5.020535e+002, 6.590491e+001
5.025356e+002, 6.617246e+001
5.030178e+002, 6.632811e+001
5.034999e+002, 6.621419e+001
5.039820e+002, 6.612225e+001
5.044641e+002, 6.612844e+001
5.049462e+002, 6.623629e+001
5.054283e+002, 6.636166e+001
5.059105e+002, 6.653661e+001
5.063926e+002, 6.668048e+001
5.068747e+002, 6.674239e+001
5.073568e+002, 6.672673e+001
5.078389e+002, 6.657369e+001
5.083210e+002, 6.621511e+001
5.088032e+002, 6.583036e+001
5.092853e+002, 6.577311e+001
5.097674e+002, 6.602506e+001
5.102495e+002, 6.629134e+001
5.107316e+002, 6.648505e+001
5.112137e+002, 6.659794e+001
5.116959e+002, 6.651363e+001
5.121780e+002, 6.625789e+001
5.126601e+002, 6.616850e+001
5.131422e+002, 6.684852e+001
5.136243e+002, 6.769892e+001
5.141064e+002, 6.784628e+001
5.145886e+002, 6.694364e+001
5.150707e+002, 6.605303e+001
5.155528e+002, 6.587981e+001
5.160349e+002, 6.612455e+001
5.165170e+002, 6.634981e+001
5.169991e+002, 6.641727e+001
5.174813e+002, 6.644643e+001
5.179634e+002, 6.643772e+001
5.184455e+002, 6.640640e+001
5.189276e+002, 6.646094e+001
5.194097e+002, 6.686400e+001
5.198918e+002, 6.713112e+001
5.203740e+002, 6.699099e+001
5.208561e+002, 6.617827e+001
5.213382e+002, 6.586124e+001
5.218203e+002, 6.627417e+001
5.223024e+002, 6.690989e+001
5.227845e+002, 6.716093e+001
5.232667e+002, 6.694944e+001
5.237488e+002, 6.678627e+001
5.242309e+002, 6.678577e+001
5.247130e+002, 6.688113e+001
5.251951e+002, 6.686564e+001
5.256772e+002, 6.674416e+001
5.261594e+002, 6.672932e+001
5.266415e+002, 6.711817e+001
5.271236e+002, 6.766898e+001
5.276057e+002, 6.777393e+001
5.280878e+002, 6.741045e+001
5.285699e+002, 6.697826e+001
5.290521e+002, 6.679277e+001
5.295342e+002, 6.674671e+001
5.300163e+002, 6.670264e+001
5.304984e+002, 6.662511e+001
5.309805e+002, 6.654444e+001
5.314626e+002, 6.638716e+001
5.319448e+002, 6.624709e+001
5.324269e+002, 6.630555e+001
5.329090e+002, 6.664425e+001
5.333911e+002, 6.715910e+001
5.338732e+002, 6.803426e+001
5.343553e+002, 6.928764e+001
5.348375e+002, 6.985641e+001
5.353196e+002, 6.925483e+001
5.358017e+002, 6.842300e+001
5.362838e+002, 6.786842e+001
5.367659e+002, 6.767892e+001
5.372480e+002, 6.749400e+001
5.377302e+002, 6.727174e+001
5.382123e+002, 6.710566e+001
5.386944e+002, 6.718641e+001
5.391765e+002, 6.753708e+001
5.396586e+002, 6.782877e+001
5.401407e+002, 6.799629e+001
5.406229e+002, 6.802825e+001
5.411050e+002, 6.783112e+001
5.415871e+002, 6.742644e+001
5.420692e+002, 6.702147e+001
5.425513e+002, 6.666507e+001
5.430334e+002, 6.641921e+001
5.435156e+002, 6.640513e+001
5.439977e+002, 6.663500e+001
5.444798e+002, 6.695580e+001
5.449619e+002, 6.740868e+001
5.454440e+002, 6.783006e+001
5.459261e+002, 6.803004e+001
5.464083e+002, 6.780238e+001
5.468904e+002, 6.756917e+001
5.473725e+002, 6.740944e+001
5.478546e+002, 6.734599e+001
5.483367e+002, 6.742425e+001
5.488188e+002, 6.785815e+001
5.493010e+002, 6.821523e+001
5.497831e+002, 6.842799e+001
5.502652e+002, 6.849474e+001
5.507473e+002, 6.827389e+001
5.512294e+002, 6.756567e+001
5.517115e+002, 6.690740e+001
5.521937e+002, 6.666515e+001
5.526758e+002, 6.688711e+001
5.531579e+002, 6.708985e+001
5.536400e+002, 6.726744e+001
5.541221e+002, 6.738992e+001
5.546042e+002, 6.736259e+001
5.550864e+002, 6.721889e+001
5.555685e+002, 6.717488e+001
5.560506e+002, 6.734191e+001
5.565327e+002, 6.757929e+001
5.570148e+002, 6.767052e+001
5.574969e+002, 6.765215e+001
5.579791e+002, 6.766344e+001
5.584612e+002, 6.791289e+001
5.589433e+002, 6.813431e+001
5.594254e+002, 6.799946e+001
5.599075e+002, 6.747831e+001
5.603896e+002, 6.717982e+001
5.608718e+002, 6.759194e+001
5.613539e+002, 6.817705e+001
5.618360e+002, 6.853991e+001
5.623181e+002, 6.853214e+001
5.628002e+002, 6.843167e+001
5.632823e+002, 6.810774e+001
5.637645e+002, 6.776785e+001
5.642466e+002, 6.777598e+001
5.647287e+002, 6.837389e+001
5.652108e+002, 6.876719e+001
5.656929e+002, 6.871137e+001
5.661750e+002, 6.832000e+001
5.666572e+002, 6.809587e+001
5.671393e+002, 6.805270e+001
5.676214e+002, 6.808508e+001
5.681035e+002, 6.817645e+001
5.685856e+002, 6.829600e+001
5.690677e+002, 6.828725e+001
5.695499e+002, 6.813335e+001
5.700320e+002, 6.802745e+001
5.705141e+002, 6.834603e+001
5.709962e+002, 6.878605e+001
5.714783e+002, 6.878237e+001
5.719604e+002, 6.791670e+001
5.724426e+002, 6.716618e+001
5.729247e+002, 6.742908e+001
5.734068e+002, 6.820024e+001
5.738889e+002, 6.858069e+001
5.743710e+002, 6.778373e+001
5.748531e+002, 6.704293e+001
5.753353e+002, 6.683005e+001
5.758174e+002, 6.711727e+001
5.762995e+002, 6.729724e+001
5.767816e+002, 6.722361e+001
5.772637e+002, 6.719431e+001
5.777458e+002, 6.735957e+001
5.782280e+002, 6.776762e+001
5.787101e+002, 6.811109e+001
5.791922e+002, 6.838121e+001
5.796743e+002, 6.860571e+001
5.801564e+002, 6.888754e+001
5.806385e+002, 6.920821e+001
5.811207e+002, 6.916942e+001
5.816028e+002, 6.859280e+001
5.820849e+002, 6.787457e+001
5.825670e+002, 6.763444e+001
5.830491e+002, 6.776395e+001
5.835313e+002, 6.790212e+001
5.840134e+002, 6.793110e+001
5.844955e+002, 6.785480e+001
5.849776e+002, 6.752123e+001
5.854597e+002, 6.701649e+001
5.859418e+002, 6.681696e+001
5.864240e+002, 6.755013e+001
5.869061e+002, 6.834344e+001
5.873882e+002, 6.860600e+001
5.878703e+002, 6.805292e+001
5.883524e+002, 6.783598e+001
5.888345e+002, 6.843929e+001
5.893167e+002, 6.920368e+001
5.897988e+002, 6.960928e+001
5.902809e+002, 6.947481e+001
5.907630e+002, 6.939820e+001
5.912451e+002, 6.944173e+001
5.917272e+002, 6.954412e+001
5.922094e+002, 6.958390e+001
5.926915e+002, 6.955620e+001
5.931736e+002, 6.954301e+001
5.936557e+002, 6.958060e+001
5.941378e+002, 6.964547e+001
5.946199e+002, 6.967399e+001
5.951021e+002, 6.967152e+001
5.955842e+002, 6.968232e+001
5.960663e+002, 6.981513e+001
5.965484e+002, 6.993498e+001
5.970305e+002, 6.983415e+001
5.975126e+002, 6.948736e+001
5.979948e+002, 6.919775e+001
5.984769e+002, 6.919975e+001
5.989590e+002, 6.929986e+001
5.994411e+002, 6.933076e+001
5.999232e+002, 6.920963e+001
6.004053e+002, 6.910259e+001
6.008875e+002, 6.900906e+001
6.013696e+002, 6.895298e+001
6.018517e+002, 6.898051e+001
6.023338e+002, 6.916322e+001
6.028159e+002, 6.927782e+001
6.032980e+002, 6.922900e+001
6.037802e+002, 6.909985e+001
6.042623e+002, 6.928896e+001
6.047444e+002, 6.985607e+001
6.052265e+002, 7.021603e+001
6.057086e+002, 6.988278e+001
6.061907e+002, 6.909756e+001
6.066729e+002, 6.868555e+001
6.071550e+002, 6.864286e+001
6.076371e+002, 6.879192e+001
6.081192e+002, 6.917005e+001
6.086013e+002, 6.958276e+001
6.090834e+002, 6.972480e+001
6.095656e+002, 6.947582e+001
6.100477e+002, 6.926649e+001
6.105298e+002, 6.946992e+001
6.110119e+002, 6.978577e+001
6.114940e+002, 6.987859e+001
6.119761e+002, 6.912969e+001
6.124583e+002, 6.880401e+001
6.129404e+002, 6.944601e+001
6.134225e+002, 7.058094e+001
6.139046e+002, 7.116971e+001
6.143867e+002, 7.101892e+001
6.148688e+002, 7.069204e+001
6.153510e+002, 7.025083e+001
6.158331e+002, 6.975540e+001
6.163152e+002, 6.961488e+001
6.167973e+002, 6.985344e+001
6.172794e+002, 7.019116e+001
6.177615e+002, 7.049014e+001
6.182437e+002, 7.073518e+001
6.187258e+002, 7.092673e+001
6.192079e+002, 7.106962e+001
6.196900e+002, 7.103613e+001
6.201721e+002, 7.051387e+001
6.206542e+002, 6.983231e+001
6.211364e+002, 6.940589e+001
6.216185e+002, 6.935801e+001
6.221006e+002, 6.950208e+001
6.225827e+002, 6.995956e+001
6.230648e+002, 7.049760e+001
6.235469e+002, 7.079070e+001
6.240291e+002, 7.056735e+001
6.245112e+002, 7.035513e+001
6.249933e+002, 7.021545e+001
6.254754e+002, 7.014255e+001
6.259575e+002, 7.013060e+001
6.264396e+002, 7.021436e+001
6.269218e+002, 7.026034e+001
6.274039e+002, 7.020254e+001
6.278860e+002, 7.006149e+001
6.283681e+002, 6.996127e+001
6.288502e+002, 6.990271e+001
6.293323e+002, 6.985641e+001
6.298145e+002, 6.972788e+001
6.302966e+002, 6.961380e+001
6.307787e+002, 6.977481e+001
6.312608e+002, 7.026147e+001
6.317429e+002, 7.065816e+001
6.322250e+002, 7.047556e+001
6.327072e+002, 7.011987e+001
6.331893e+002, 7.005619e+001
6.336714e+002, 7.069233e+001
6.341535e+002, 7.112598e+001
6.346356e+002, 7.098823e+001
6.351177e+002, 7.054018e+001
6.355999e+002, 7.019704e+001
6.360820e+002, 6.998723e+001
6.365641e+002, 6.984855e+001
6.370462e+002, 6.974850e+001
6.375283e+002, 6.971976e+001
6.380104e+002, 6.991451e+001
6.384926e+002, 7.037676e+001
6.389747e+002, 7.079458e+001
6.394568e+002, 7.102015e+001
6.399389e+002, 7.109980e+001
6.404210e+002, 7.122215e+001
6.409031e+002, 7.137879e+001
6.413853e+002, 7.139301e+001
6.418674e+002, 7.095119e+001
6.423495e+002, 7.038792e+001
6.428316e+002, 7.014602e+001
6.433137e+002, 7.030018e+001
6.437958e+002, 7.046793e+001
6.442780e+002, 7.042960e+001
6.447601e+002, 7.033333e+001
6.452422e+002, 7.030775e+001
6.457243e+002, 7.039482e+001
6.462064e+002, 7.052719e+001
6.466885e+002, 7.077708e+001
6.471707e+002, 7.102136e+001
6.476528e+002, 7.107592e+001
6.481349e+002, 7.087532e+001
6.486170e+002, 7.068882e+001
6.490991e+002, 7.055002e+001
6.495812e+002, 7.046655e+001
6.500634e+002, 7.049503e+001
6.505455e+002, 7.062398e+001
6.510276e+002, 7.068081e+001
6.515097e+002, 7.049828e+001
6.519918e+002, 7.024936e+001
6.524739e+002, 7.022522e+001
6.529561e+002, 7.039227e+001
6.534382e+002, 7.057271e+001
6.539203e+002, 7.061171e+001
6.544024e+002, 7.066478e+001
6.548845e+002, 7.089011e+001
6.553666e+002, 7.132649e+001
6.558488e+002, 7.162072e+001
6.563309e+002, 7.157560e+001
6.568130e+002, 7.145336e+001
6.572951e+002, 7.142361e+001
6.577772e+002, 7.156932e+001
6.582593e+002, 7.156412e+001
6.587415e+002, 7.133309e+001
6.592236e+002, 7.107225e+001
6.597057e+002, 7.105070e+001
6.601878e+002, 7.126149e+001
6.606699e+002, 7.134617e+001
6.611520e+002, 7.119430e+001
6.616342e+002, 7.100907e+001
6.621163e+002, 7.115811e+001
6.625984e+002, 7.150996e+001
6.630805e+002, 7.171059e+001
6.635626e+002, 7.139497e+001
6.640447e+002, 7.110694e+001
6.645269e+002, 7.140732e+001
6.650090e+002, 7.206140e+001
6.654911e+002, 7.239067e+001
6.659732e+002, 7.176960e+001
6.664553e+002, 7.119864e+001
6.669374e+002, 7.113551e+001
6.674196e+002, 7.153503e+001
6.679017e+002, 7.165255e+001
6.683838e+002, 7.127538e+001
6.688659e+002, 7.102348e+001
6.693480e+002, 7.136006e+001
6.698301e+002, 7.227003e+001
6.703123e+002, 7.245947e+001
6.707944e+002, 7.184153e+001
6.712765e+002, 7.116607e+001
6.717586e+002, 7.116862e+001
6.722407e+002, 7.159199e+001
6.727228e+002, 7.183731e+001
6.732050e+002, 7.179404e+001
6.736871e+002, 7.177045e+001
6.741692e+002, 7.216814e+001
6.746513e+002, 7.264365e+001
6.751334e+002, 7.277248e+001
6.756155e+002, 7.207787e+001
6.760977e+002, 7.158900e+001
6.765798e+002, 7.167339e+001
6.770619e+002, 7.205908e+001
6.775440e+002, 7.236053e+001
6.780261e+002, 7.260435e+001
6.785082e+002, 7.268809e+001
6.789904e+002, 7.252981e+001
6.794725e+002, 7.224796e+001
6.799546e+002, 7.215990e+001
6.804367e+002, 7.226932e+001
6.809188e+002, 7.239903e+001
6.814009e+002, 7.246909e+001
6.818831e+002, 7.251685e+001
6.823652e+002, 7.262702e+001
6.828473e+002, 7.278468e+001
6.833294e+002, 7.290768e+001
6.838115e+002, 7.291672e+001
6.842936e+002, 7.289867e+001
6.847758e+002, 7.292041e+001
6.852579e+002, 7.298569e+001
6.857400e+002, 7.304072e+001
6.862221e+002, 7.314023e+001
6.867042e+002, 7.316253e+001
6.871863e+002, 7.299918e+001
6.876685e+002, 7.254163e+001
6.881506e+002, 7.240639e+001
6.886327e+002, 7.270398e+001
6.891148e+002, 7.309280e+001
6.895969e+002, 7.327364e+001
6.900790e+002, 7.325717e+001
6.905612e+002, 7.316306e+001
6.910433e+002, 7.297596e+001
6.915254e+002, 7.284573e+001
6.920075e+002, 7.306473e+001
6.924896e+002, 7.344387e+001
6.929717e+002, 7.361478e+001
6.934539e+002, 7.337298e+001
6.939360e+002, 7.310808e+001
6.944181e+002, 7.305734e+001
6.949002e+002, 7.312593e+001
6.953823e+002, 7.316674e+001
6.958644e+002, 7.303722e+001
6.963466e+002, 7.302439e+001
6.968287e+002, 7.325626e+001
6.973108e+002, 7.360998e+001
6.977929e+002, 7.374446e+001
6.982750e+002, 7.361034e+001
6.987571e+002, 7.344518e+001
6.992393e+002, 7.330420e+001
6.997214e+002, 7.319943e+001
7.002035e+002, 7.317326e+001
7.006856e+002, 7.322169e+001
7.011677e+002, 7.331174e+001
7.016498e+002, 7.349673e+001
7.021320e+002, 7.366747e+001
7.026141e+002, 7.366954e+001
7.030962e+002, 7.351730e+001
7.035783e+002, 7.337309e+001
7.040604e+002, 7.324562e+001
7.045425e+002, 7.319773e+001
7.050247e+002, 7.328938e+001
7.055068e+002, 7.355733e+001
7.059889e+002, 7.378146e+001
7.064710e+002, 7.398347e+001
7.069531e+002, 7.410946e+001
7.074352e+002, 7.410525e+001
7.079174e+002, 7.395839e+001
7.083995e+002, 7.384813e+001
7.088816e+002, 7.379759e+001
7.093637e+002, 7.368974e+001
7.098458e+002, 7.325187e+001
7.103279e+002, 7.267451e+001
7.108101e+002, 7.246735e+001
7.112922e+002, 7.278556e+001
7.117743e+002, 7.319983e+001
7.122564e+002, 7.346567e+001
7.127385e+002, 7.361081e+001
7.132206e+002, 7.366546e+001
7.137028e+002, 7.357061e+001
7.141849e+002, 7.347923e+001
7.146670e+002, 7.343163e+001
7.151491e+002, 7.339855e+001
7.156312e+002, 7.331684e+001
7.161133e+002, 7.310603e+001
7.165955e+002, 7.309532e+001
7.170776e+002, 7.341055e+001
7.175597e+002, 7.387116e+001
7.180418e+002, 7.400883e+001
7.185239e+002, 7.387028e+001
7.190060e+002, 7.392557e+001
7.194882e+002, 7.451083e+001
7.199703e+002, 7.521226e+001
7.204524e+002, 7.557180e+001
7.209345e+002, 7.562680e+001
7.214166e+002, 7.550117e+001
7.218987e+002, 7.494994e+001
7.223809e+002, 7.451543e+001
7.228630e+002, 7.461715e+001
7.233451e+002, 7.516663e+001
7.238272e+002, 7.533489e+001
7.243093e+002, 7.476618e+001
7.247914e+002, 7.430461e+001
7.252736e+002, 7.433079e+001
7.257557e+002, 7.478706e+001
7.262378e+002, 7.491653e+001
7.267199e+002, 7.469044e+001
7.272020e+002, 7.439964e+001
7.276841e+002, 7.411558e+001
7.281663e+002, 7.393391e+001
7.286484e+002, 7.421383e+001
7.291305e+002, 7.494102e+001
7.296126e+002, 7.550231e+001
7.300947e+002, 7.527988e+001
7.305768e+002, 7.485485e+001
7.310590e+002, 7.469099e+001
7.315411e+002, 7.488198e+001
7.320232e+002, 7.514524e+001
7.325053e+002, 7.561021e+001
7.329874e+002, 7.598221e+001
7.334695e+002, 7.606337e+001
7.339517e+002, 7.576318e+001
7.344338e+002, 7.546513e+001
7.349159e+002, 7.515417e+001
7.353980e+002, 7.488161e+001
7.358801e+002, 7.462639e+001
7.363622e+002, 7.444231e+001
7.368444e+002, 7.466358e+001
7.373265e+002, 7.544148e+001
7.378086e+002, 7.611534e+001
7.382907e+002, 7.586282e+001
7.387728e+002, 7.520499e+001
7.392549e+002, 7.482046e+001
7.397371e+002, 7.497645e+001
7.402192e+002, 7.527469e+001
7.407013e+002, 7.584776e+001
7.411834e+002, 7.639903e+001
7.416655e+002, 7.652007e+001
7.421476e+002, 7.596571e+001
7.426298e+002, 7.556956e+001
7.431119e+002, 7.546413e+001
7.435940e+002, 7.551189e+001
7.440761e+002, 7.543340e+001
7.445582e+002, 7.525117e+001
7.450403e+002, 7.521648e+001
7.455225e+002, 7.546236e+001
7.460046e+002, 7.578570e+001
7.464867e+002, 7.596512e+001
7.469688e+002, 7.602879e+001
7.474509e+002, 7.603593e+001
7.479330e+002, 7.590154e+001
7.484152e+002, 7.583076e+001
7.488973e+002, 7.603776e+001
7.493794e+002, 7.638210e+001
7.498615e+002, 7.638725e+001
7.503436e+002, 7.579724e+001
7.508257e+002, 7.532352e+001
7.513079e+002, 7.516642e+001
7.517900e+002, 7.524597e+001
7.522721e+002, 7.525639e+001
7.527542e+002, 7.519835e+001
7.532363e+002, 7.526814e+001
7.537184e+002, 7.569790e+001
7.542006e+002, 7.622440e+001
7.546827e+002, 7.641270e+001
7.551648e+002, 7.632094e+001
7.556469e+002, 7.618239e+001
7.561290e+002, 7.603320e+001
7.566111e+002, 7.594558e+001
7.570933e+002, 7.599590e+001
7.575754e+002, 7.617400e+001
7.580575e+002, 7.627711e+001
7.585396e+002, 7.623766e+001
7.590217e+002, 7.620699e+001
7.595038e+002, 7.625643e+001
7.599860e+002, 7.637354e+001
7.604681e+002, 7.641344e+001
7.609502e+002, 7.636971e+001
7.614323e+002, 7.631577e+001
7.619144e+002, 7.629002e+001
7.623965e+002, 7.629039e+001
7.628787e+002, 7.632253e+001
7.633608e+002, 7.638322e+001
7.638429e+002, 7.644124e+001
7.643250e+002, 7.654572e+001
7.648071e+002, 7.658801e+001
7.652892e+002, 7.640221e+001
7.657714e+002, 7.590491e+001
7.662535e+002, 7.579772e+001
7.667356e+002, 7.632710e+001
7.672177e+002, 7.697000e+001
7.676998e+002, 7.749215e+001
7.681819e+002, 7.790620e+001
7.686641e+002, 7.800176e+001
7.691462e+002, 7.774771e+001
7.696283e+002, 7.741024e+001
7.701104e+002, 7.713170e+001
7.705925e+002, 7.695065e+001
7.710746e+002, 7.701556e+001
7.715568e+002, 7.735127e+001
7.720389e+002, 7.758685e+001
7.725210e+002, 7.729880e+001
7.730031e+002, 7.694581e+001
7.734852e+002, 7.692934e+001
7.739673e+002, 7.747926e+001
7.744495e+002, 7.777749e+001
7.749316e+002, 7.768098e+001
7.754137e+002, 7.746657e+001
7.758958e+002, 7.730257e+001
7.763779e+002, 7.718104e+001
7.768600e+002, 7.728032e+001
7.773422e+002, 7.765269e+001
7.778243e+002, 7.796249e+001
7.783064e+002, 7.768238e+001
7.787885e+002, 7.714774e+001
7.792706e+002, 7.704089e+001
7.797527e+002, 7.753031e+001
7.802349e+002, 7.807178e+001
7.807170e+002, 7.855061e+001
7.811991e+002, 7.881202e+001
7.816812e+002, 7.867640e+001
7.821633e+002, 7.770873e+001
7.826454e+002, 7.717339e+001
7.831276e+002, 7.730550e+001
7.836097e+002, 7.758907e+001
7.840918e+002, 7.741953e+001
7.845739e+002, 7.678281e+001
7.850560e+002, 7.659628e+001
7.855381e+002, 7.700778e+001
7.860203e+002, 7.755840e+001
7.865024e+002, 7.776508e+001
7.869845e+002, 7.775132e+001
7.874666e+002, 7.773903e+001
7.879487e+002, 7.779538e+001
7.884308e+002, 7.779227e+001
7.889130e+002, 7.749718e+001
7.893951e+002, 7.719865e+001
7.898772e+002, 7.721425e+001
7.903593e+002, 7.793958e+001
7.908414e+002, 7.826156e+001
7.913235e+002, 7.798579e+001
7.918057e+002, 7.755893e+001
7.922878e+002, 7.753341e+001
7.927699e+002, 7.788383e+001
7.932520e+002, 7.825842e+001
7.937341e+002, 7.863187e+001
7.942162e+002, 7.891167e+001
7.946984e+002, 7.900529e+001
7.951805e+002, 7.893954e+001
7.956626e+002, 7.874272e+001
7.961447e+002, 7.835664e+001
7.966268e+002, 7.799168e+001
7.971089e+002, 7.755709e+001
7.975911e+002, 7.727274e+001
7.980732e+002, 7.739491e+001
7.985553e+002, 7.816655e+001
7.990374e+002, 7.878782e+001
7.995195e+002, 7.923267e+001
8.000016e+002, 7.949515e+001
8.004838e+002, 7.952450e+001
8.009659e+002, 7.935430e+001
8.014480e+002, 7.915971e+001
8.019301e+002, 7.895722e+001
8.024122e+002, 7.880962e+001
8.028943e+002, 7.886360e+001
8.033765e+002, 7.897872e+001
8.038586e+002, 7.896077e+001
8.043407e+002, 7.865393e+001
8.048228e+002, 7.840746e+001
8.053049e+002, 7.826256e+001
8.057870e+002, 7.822975e+001
8.062692e+002, 7.836152e+001
8.067513e+002, 7.874099e+001
8.072334e+002, 7.892844e+001
8.077155e+002, 7.884214e+001
8.081976e+002, 7.867156e+001
8.086797e+002, 7.860522e+001
8.091619e+002, 7.865305e+001
8.096440e+002, 7.891165e+001
8.101261e+002, 7.949414e+001
8.106082e+002, 7.992379e+001
8.110903e+002, 7.964646e+001
8.115724e+002, 7.911919e+001
8.120546e+002, 7.884535e+001
8.125367e+002, 7.910356e+001
8.130188e+002, 7.933305e+001
8.135009e+002, 7.950169e+001
8.139830e+002, 7.963902e+001
8.144651e+002, 7.979061e+001
8.149473e+002, 7.996497e+001
8.154294e+002, 8.002849e+001
8.159115e+002, 7.995158e+001
8.163936e+002, 7.984604e+001
8.168757e+002, 7.981569e+001
8.173578e+002, 7.985372e+001
8.178400e+002, 7.996780e+001
8.183221e+002, 8.019646e+001
8.188042e+002, 8.036816e+001
8.192863e+002, 8.023302e+001
8.197684e+002, 8.009536e+001
8.202505e+002, 8.029355e+001
8.207327e+002, 8.121118e+001
8.212148e+002, 8.155989e+001
8.216969e+002, 8.111058e+001
8.221790e+002, 8.050227e+001
8.226611e+002, 8.048733e+001
8.231432e+002, 8.095837e+001
8.236254e+002, 8.124672e+001
8.241075e+002, 8.127587e+001
8.245896e+002, 8.117097e+001
8.250717e+002, 8.082854e+001
8.255538e+002, 8.052689e+001
8.260359e+002, 8.069495e+001
8.265181e+002, 8.165732e+001
8.270002e+002, 8.219498e+001
8.274823e+002, 8.146181e+001
8.279644e+002, 8.067473e+001
8.284465e+002, 8.072979e+001
8.289286e+002, 8.193242e+001
8.294108e+002, 8.243818e+001
8.298929e+002, 8.214760e+001
8.303750e+002, 8.157720e+001
8.308571e+002, 8.110782e+001
8.313392e+002, 8.073892e+001
8.318214e+002, 8.044627e+001
8.323035e+002, 8.022783e+001
8.327856e+002, 8.015965e+001
8.332677e+002, 8.045621e+001
8.337498e+002, 8.080370e+001
8.342319e+002, 8.091955e+001
8.347141e+002, 8.065503e+001
8.351962e+002, 8.069079e+001
8.356783e+002, 8.116845e+001
8.361604e+002, 8.170196e+001
8.366425e+002, 8.208615e+001
8.371246e+002, 8.231535e+001
8.376068e+002, 8.219939e+001
8.380889e+002, 8.173415e+001
8.385710e+002, 8.141320e+001
8.390531e+002, 8.187032e+001
8.395352e+002, 8.251524e+001
8.400173e+002, 8.263606e+001
8.404995e+002, 8.219643e+001
8.409816e+002, 8.186311e+001
8.414637e+002, 8.182825e+001
8.419458e+002, 8.199136e+001
8.424279e+002, 8.238161e+001
8.429100e+002, 8.298984e+001
8.433922e+002, 8.328416e+001
8.438743e+002, 8.322318e+001
8.443564e+002, 8.307048e+001
8.448385e+002, 8.296265e+001
8.453206e+002, 8.288032e+001
8.458027e+002, 8.279858e+001
8.462849e+002, 8.270961e+001
8.467670e+002, 8.257168e+001
8.472491e+002, 8.219933e+001
8.477312e+002, 8.192125e+001
8.482133e+002, 8.203304e+001
8.486954e+002, 8.247941e+001
8.491776e+002, 8.264078e+001
8.496597e+002, 8.228294e+001
8.501418e+002, 8.210583e+001
8.506239e+002, 8.244437e+001
8.511060e+002, 8.308241e+001
8.515881e+002, 8.329426e+001
8.520703e+002, 8.310762e+001
8.525524e+002, 8.274131e+001
8.530345e+002, 8.201938e+001
8.535166e+002, 8.143460e+001
8.539987e+002, 8.166866e+001
8.544808e+002, 8.239306e+001
8.549630e+002, 8.277572e+001
8.554451e+002, 8.204640e+001
8.559272e+002, 8.159586e+001
8.564093e+002, 8.182539e+001
8.568914e+002, 8.243755e+001
8.573735e+002, 8.278605e+001
8.578557e+002, 8.285990e+001
8.583378e+002, 8.277420e+001
8.588199e+002, 8.251064e+001
8.593020e+002, 8.220290e+001
8.597841e+002, 8.204332e+001
8.602662e+002, 8.199242e+001
8.607484e+002, 8.197518e+001
8.612305e+002, 8.199991e+001
8.617126e+002, 8.200430e+001
8.621947e+002, 8.196705e+001
8.626768e+002, 8.189524e+001
8.631589e+002, 8.178580e+001
8.636411e+002, 8.157121e+001
8.641232e+002, 8.155103e+001
8.646053e+002, 8.183421e+001
8.650874e+002, 8.211955e+001
8.655695e+002, 8.193294e+001
8.660516e+002, 8.141740e+001
8.665338e+002, 8.098667e+001
8.670159e+002, 8.068649e+001
8.674980e+002, 8.061881e+001
8.679801e+002, 8.112618e+001
8.684622e+002, 8.174351e+001
8.689443e+002, 8.199301e+001
8.694265e+002, 8.155324e+001
8.699086e+002, 8.137622e+001
8.703907e+002, 8.161990e+001
8.708728e+002, 8.188519e+001
8.713549e+002, 8.178629e+001
8.718370e+002, 8.136534e+001
8.723192e+002, 8.119061e+001
8.728013e+002, 8.128782e+001
8.732834e+002, 8.130233e+001
8.737655e+002, 8.067175e+001
8.742476e+002, 7.998850e+001
8.747297e+002, 7.990337e+001
8.752119e+002, 8.048742e+001
8.756940e+002, 8.110262e+001
8.761761e+002, 8.186666e+001
8.766582e+002, 8.231970e+001
8.771403e+002, 8.218007e+001
8.776224e+002, 8.150233e+001
8.781046e+002, 8.103472e+001
8.785867e+002, 8.078520e+001
8.790688e+002, 8.060267e+001
8.795509e+002, 8.042839e+001
8.800330e+002, 8.025607e+001
8.805151e+002, 8.003107e+001
8.809973e+002, 7.979099e+001
8.814794e+002, 7.967677e+001
8.819615e+002, 7.988242e+001
8.824436e+002, 8.008131e+001
8.829257e+002, 8.015020e+001
8.834078e+002, 8.012177e+001
8.838900e+002, 8.006099e+001
8.843721e+002, 7.994004e+001
8.848542e+002, 7.995205e+001
8.853363e+002, 8.021069e+001
8.858184e+002, 8.053411e+001
8.863005e+002, 8.058468e+001
8.867827e+002, 8.044165e+001
8.872648e+002, 8.031250e+001
8.877469e+002, 8.033723e+001
8.882290e+002, 8.029247e+001
8.887111e+002, 7.991511e+001
8.891932e+002, 7.947685e+001
8.896754e+002, 7.941447e+001
8.901575e+002, 8.002810e+001
8.906396e+002, 8.018320e+001
8.911217e+002, 7.965920e+001
8.916038e+002, 7.897443e+001
8.920859e+002, 7.879365e+001
8.925681e+002, 7.898032e+001
8.930502e+002, 7.911713e+001
8.935323e+002, 7.912929e+001
8.940144e+002, 7.914326e+001
8.944965e+002, 7.932241e+001
8.949786e+002, 7.949038e+001
8.954608e+002, 7.947449e+001
8.959429e+002, 7.918354e+001
8.964250e+002, 7.897572e+001
8.969071e+002, 7.884984e+001
8.973892e+002, 7.881178e+001
8.978713e+002, 7.889809e+001
8.983535e+002, 7.908517e+001
8.988356e+002, 7.927234e+001
8.993177e+002, 7.945033e+001
8.997998e+002, 7.949764e+001
9.002819e+002, 7.919078e+001
9.007640e+002, 7.883967e+001
9.012462e+002, 7.866956e+001
9.017283e+002, 7.868186e+001
9.022104e+002, 7.875980e+001
9.026925e+002, 7.897172e+001
9.031746e+002, 7.909875e+001
9.036567e+002, 7.903233e+001
9.041389e+002, 7.886149e+001
9.046210e+002, 7.891462e+001
9.051031e+002, 7.916100e+001
9.055852e+002, 7.932687e+001
9.060673e+002, 7.928856e+001
9.065494e+002, 7.913960e+001
9.070316e+002, 7.893017e+001
9.075137e+002, 7.867791e+001
9.079958e+002, 7.841096e+001
9.084779e+002, 7.796500e+001
9.089600e+002, 7.775665e+001
9.094421e+002, 7.788027e+001
9.099243e+002, 7.818616e+001
9.104064e+002, 7.858718e+001
9.108885e+002, 7.905706e+001
9.113706e+002, 7.905471e+001
9.118527e+002, 7.841860e+001
9.123348e+002, 7.783742e+001
9.128170e+002, 7.818612e+001
9.132991e+002, 7.884605e+001
9.137812e+002, 7.907336e+001
9.142633e+002, 7.861023e+001
9.147454e+002, 7.829694e+001
9.152275e+002, 7.835073e+001
9.157097e+002, 7.847819e+001
9.161918e+002, 7.852896e+001
9.166739e+002, 7.850355e+001
9.171560e+002, 7.837441e+001
9.176381e+002, 7.814079e+001
9.181202e+002, 7.801389e+001
9.186024e+002, 7.832127e+001
9.190845e+002, 7.868584e+001
9.195666e+002, 7.863945e+001
9.200487e+002, 7.824489e+001
9.205308e+002, 7.793271e+001
9.210129e+002, 7.784058e+001
9.214951e+002, 7.783442e+001
9.219772e+002, 7.789263e+001
9.224593e+002, 7.800398e+001
9.229414e+002, 7.816839e+001
9.234235e+002, 7.838127e+001
9.239056e+002, 7.850163e+001
9.243878e+002, 7.847916e+001
9.248699e+002, 7.835095e+001
9.253520e+002, 7.795053e+001
9.258341e+002, 7.753474e+001
9.263162e+002, 7.751971e+001
9.267983e+002, 7.857121e+001
9.272805e+002, 7.918046e+001
9.277626e+002, 7.896241e+001
9.282447e+002, 7.848835e+001
9.287268e+002, 7.833678e+001
9.292089e+002, 7.851084e+001
9.296910e+002, 7.872011e+001
9.301732e+002, 7.895916e+001
9.306553e+002, 7.906514e+001
9.311374e+002, 7.866977e+001
9.316195e+002, 7.819032e+001
9.321016e+002, 7.817529e+001
9.325837e+002, 7.870905e+001
9.330659e+002, 7.906636e+001
9.335480e+002, 7.891618e+001
9.340301e+002, 7.875042e+001
9.345122e+002, 7.877425e+001
9.349943e+002, 7.894620e+001
9.354764e+002, 7.899000e+001
9.359586e+002, 7.890616e+001
9.364407e+002, 7.877174e+001
9.369228e+002, 7.860332e+001
9.374049e+002, 7.841989e+001
9.378870e+002, 7.821373e+001
9.383691e+002, 7.800889e+001
9.388513e+002, 7.786636e+001
9.393334e+002, 7.782968e+001
9.398155e+002, 7.782265e+001
9.402976e+002, 7.782243e+001
9.407797e+002, 7.786156e+001
9.412618e+002, 7.806680e+001
9.417440e+002, 7.841145e+001
9.422261e+002, 7.844466e+001
9.427082e+002, 7.802702e+001
9.431903e+002, 7.765666e+001
9.436724e+002, 7.793446e+001
9.441545e+002, 7.843974e+001
9.446367e+002, 7.871348e+001
9.451188e+002, 7.859090e+001
9.456009e+002, 7.861405e+001
9.460830e+002, 7.895796e+001
9.465651e+002, 7.923867e+001
9.470472e+002, 7.917582e+001
9.475294e+002, 7.882447e+001
9.480115e+002, 7.871174e+001
9.484936e+002, 7.881161e+001
9.489757e+002, 7.883804e+001
9.494578e+002, 7.846700e+001
9.499399e+002, 7.808000e+001
9.504221e+002, 7.798942e+001
9.509042e+002, 7.814097e+001
9.513863e+002, 7.830505e+001
9.518684e+002, 7.851206e+001
9.523505e+002, 7.863085e+001
9.528326e+002, 7.863093e+001
9.533148e+002, 7.854768e+001
9.537969e+002, 7.839609e+001
9.542790e+002, 7.820930e+001
9.547611e+002, 7.812178e+001
9.552432e+002, 7.816446e+001
9.557253e+002, 7.832368e+001
9.562075e+002, 7.879539e+001
9.566896e+002, 7.925693e+001
9.571717e+002, 7.933934e+001
9.576538e+002, 7.881947e+001
9.581359e+002, 7.857307e+001
9.586180e+002, 7.869146e+001
9.591002e+002, 7.884729e+001
9.595823e+002, 7.881789e+001
9.600644e+002, 7.863142e+001
9.605465e+002, 7.828445e+001
9.610286e+002, 7.781519e+001
9.615107e+002, 7.751638e+001
9.619929e+002, 7.763778e+001
9.624750e+002, 7.788589e+001
9.629571e+002, 7.815258e+001
9.634392e+002, 7.842085e+001
9.639213e+002, 7.869465e+001
9.644034e+002, 7.904043e+001
9.648856e+002, 7.907451e+001
9.653677e+002, 7.859522e+001
9.658498e+002, 7.798785e+001
9.663319e+002, 7.783316e+001
9.668140e+002, 7.802002e+001
9.672961e+002, 7.836914e+001
9.677783e+002, 7.897390e+001
9.682604e+002, 7.935474e+001
9.687425e+002, 7.925864e+001
9.692246e+002, 7.891289e+001
9.697067e+002, 7.842014e+001
9.701888e+002, 7.771024e+001
9.706710e+002, 7.746788e+001
9.711531e+002, 7.772945e+001
9.716352e+002, 7.812398e+001
9.721173e+002, 7.841483e+001
9.725994e+002, 7.863760e+001
9.730815e+002, 7.883163e+001
9.735637e+002, 7.899947e+001
9.740458e+002, 7.915284e+001
9.745279e+002, 7.942339e+001
9.750100e+002, 7.949879e+001
9.754921e+002, 7.917800e+001
9.759742e+002, 7.869465e+001
9.764564e+002, 7.868241e+001
9.769385e+002, 7.911450e+001
9.774206e+002, 7.950401e+001
9.779027e+002, 7.976748e+001
9.783848e+002, 7.981145e+001
9.788669e+002, 7.927880e+001
9.793491e+002, 7.860589e+001
9.798312e+002, 7.834419e+001
9.803133e+002, 7.881701e+001
9.807954e+002, 7.914364e+001
9.812775e+002, 7.929634e+001
9.817596e+002, 7.930094e+001
9.822418e+002, 7.908329e+001
9.827239e+002, 7.871622e+001
9.832060e+002, 7.860403e+001
9.836881e+002, 7.873119e+001
9.841702e+002, 7.894902e+001
9.846523e+002, 7.935758e+001
9.851345e+002, 7.964087e+001
9.856166e+002, 7.951457e+001
9.860987e+002, 7.909514e+001
9.865808e+002, 7.883212e+001
9.870629e+002, 7.874293e+001
9.875450e+002, 7.877513e+001
9.880272e+002, 7.894815e+001
9.885093e+002, 7.917023e+001
9.889914e+002, 7.932259e+001
9.894735e+002, 7.941435e+001
9.899556e+002, 7.947135e+001
9.904377e+002, 7.951517e+001
9.909199e+002, 7.945872e+001
9.914020e+002, 7.915748e+001
9.918841e+002, 7.883517e+001
9.923662e+002, 7.861869e+001
9.928483e+002, 7.851005e+001
9.933304e+002, 7.859567e+001
9.938126e+002, 7.888980e+001
9.942947e+002, 7.912918e+001
9.947768e+002, 7.903463e+001
9.952589e+002, 7.887646e+001
9.957410e+002, 7.905295e+001
9.962231e+002, 7.943853e+001
9.967053e+002, 7.967229e+001
9.971874e+002, 7.949341e+001
9.976695e+002, 7.935703e+001
9.981516e+002, 7.932893e+001
9.986337e+002, 7.936260e+001
9.991158e+002, 7.938313e+001
9.995980e+002, 7.939806e+001
1.000080e+003, 7.947092e+001
1.000562e+003, 7.961906e+001
1.001044e+003, 7.975928e+001
1.001526e+003, 7.985728e+001
1.002009e+003, 7.990146e+001
1.002491e+003, 7.985522e+001
1.002973e+003, 7.970305e+001
1.003455e+003, 7.963750e+001
1.003937e+003, 7.966837e+001
1.004419e+003, 7.977071e+001
1.004901e+003, 8.002287e+001
1.005383e+003, 8.026256e+001
1.005865e+003, 8.000916e+001
1.006348e+003, 7.944179e+001
1.006830e+003, 7.906480e+001
1.007312e+003, 7.928356e+001
1.007794e+003, 7.949675e+001
1.008276e+003, 7.952462e+001
1.008758e+003, 7.944904e+001
1.009240e+003, 7.932243e+001
1.009722e+003, 7.912935e+001
1.010205e+003, 7.905200e+001
1.010687e+003, 7.910609e+001
1.011169e+003, 7.922685e+001
1.011651e+003, 7.938737e+001
1.012133e+003, 7.956273e+001
1.012615e+003, 7.972583e+001
1.013097e+003, 7.987561e+001
1.013579e+003, 8.004636e+001
1.014061e+003, 8.033970e+001
1.014544e+003, 8.049171e+001
1.015026e+003, 8.038844e+001
1.015508e+003, 8.012978e+001
1.015990e+003, 7.989391e+001
1.016472e+003, 7.970721e+001
1.016954e+003, 7.970131e+001
1.017436e+003, 7.999461e+001
1.017918e+003, 8.027664e+001
1.018401e+003, 8.039461e+001
1.018883e+003, 8.037611e+001
1.019365e+003, 8.020882e+001
1.019847e+003, 7.980925e+001
1.020329e+003, 7.976164e+001
1.020811e+003, 8.014705e+001
1.021293e+003, 8.044425e+001
1.021775e+003, 8.010279e+001
1.022257e+003, 7.953580e+001
1.022740e+003, 7.944032e+001
1.023222e+003, 7.970914e+001
1.023704e+003, 7.989421e+001
1.024186e+003, 7.972446e+001
1.024668e+003, 7.958504e+001
1.025150e+003, 7.948166e+001
1.025632e+003, 7.951515e+001
1.026114e+003, 7.996328e+001
1.026596e+003, 8.075784e+001
1.027079e+003, 8.137575e+001
1.027561e+003, 8.174165e+001
1.028043e+003, 8.185278e+001
1.028525e+003, 8.157742e+001
1.029007e+003, 8.113963e+001
1.029489e+003, 8.062898e+001
1.029971e+003, 8.004313e+001
1.030453e+003, 7.999342e+001
1.030936e+003, 8.068705e+001
1.031418e+003, 8.122432e+001
1.031900e+003, 8.117982e+001
1.032382e+003, 8.079839e+001
1.032864e+003, 8.047779e+001
1.033346e+003, 8.021610e+001
1.033828e+003, 8.001265e+001
1.034310e+003, 7.979062e+001
1.034792e+003, 7.975362e+001
1.035275e+003, 8.024745e+001
1.035757e+003, 8.068208e+001
1.036239e+003, 8.036486e+001
1.036721e+003, 7.929877e+001
1.037203e+003, 7.904256e+001
1.037685e+003, 7.964365e+001
1.038167e+003, 8.029965e+001
1.038649e+003, 8.047430e+001
1.039132e+003, 8.041982e+001
1.039614e+003, 8.024440e+001
1.040096e+003, 8.000272e+001
1.040578e+003, 7.990627e+001
1.041060e+003, 7.998311e+001
1.041542e+003, 8.016589e+001
1.042024e+003, 8.049197e+001
1.042506e+003, 8.080382e+001
1.042989e+003, 8.078629e+001
1.043471e+003, 8.059635e+001
1.043953e+003, 8.057320e+001
1.044435e+003, 8.080185e+001
1.044917e+003, 8.106719e+001
1.045399e+003, 8.144123e+001
1.045881e+003, 8.166651e+001
1.046363e+003, 8.158960e+001
1.046845e+003, 8.124381e+001
1.047328e+003, 8.083061e+001
1.047810e+003, 8.035875e+001
1.048292e+003, 8.004320e+001
1.048774e+003, 8.002593e+001
1.049256e+003, 8.013836e+001
1.049738e+003, 8.034121e+001
1.050220e+003, 8.055268e+001
1.050702e+003, 8.063093e+001
1.051184e+003, 8.049878e+001
1.051667e+003, 8.038686e+001
1.052149e+003, 8.027647e+001
1.052631e+003, 8.026110e+001
1.053113e+003, 8.054401e+001
1.053595e+003, 8.093021e+001
1.054077e+003, 8.096608e+001
1.054559e+003, 8.069721e+001
1.055041e+003, 8.055151e+001
1.055523e+003, 8.093846e+001
1.056006e+003, 8.117004e+001
1.056488e+003, 8.097145e+001
1.056970e+003, 8.058773e+001
1.057452e+003, 8.059351e+001
1.057934e+003, 8.092715e+001
1.058416e+003, 8.095897e+001
1.058898e+003, 8.051835e+001
1.059380e+003, 8.009754e+001
1.059863e+003, 8.015484e+001
1.060345e+003, 8.036436e+001
1.060827e+003, 8.043050e+001
1.061309e+003, 8.032899e+001
1.061791e+003, 8.043956e+001
1.062273e+003, 8.082610e+001
1.062755e+003, 8.112499e+001
1.063237e+003, 8.120242e+001
1.063719e+003, 8.106527e+001
1.064202e+003, 8.047997e+001
1.064684e+003, 7.974010e+001
1.065166e+003, 7.942024e+001
1.065648e+003, 8.000134e+001
1.066130e+003, 8.048238e+001
1.066612e+003, 8.074781e+001
1.067094e+003, 8.090812e+001
1.067576e+003, 8.106897e+001
1.068059e+003, 8.120953e+001
1.068541e+003, 8.119325e+001
1.069023e+003, 8.102699e+001
1.069505e+003, 8.077817e+001
1.069987e+003, 8.022109e+001
1.070469e+003, 7.987343e+001
1.070951e+003, 8.020082e+001
1.071433e+003, 8.086653e+001
1.071916e+003, 8.127493e+001
1.072398e+003, 8.141230e+001
1.072880e+003, 8.134703e+001
1.073362e+003, 8.106102e+001
1.073844e+003, 8.075574e+001
1.074326e+003, 8.064510e+001
1.074808e+003, 8.061993e+001
1.075290e+003, 8.050402e+001
1.075772e+003, 8.028742e+001
1.076255e+003, 8.043838e+001
1.076737e+003, 8.128886e+001
1.077219e+003, 8.173533e+001
1.077701e+003, 8.125734e+001
1.078183e+003, 8.041253e+001
1.078665e+003, 8.032510e+001
1.079147e+003, 8.073265e+001
1.079629e+003, 8.103042e+001
1.080111e+003, 8.103625e+001
1.080594e+003, 8.098960e+001
1.081076e+003, 8.095991e+001
1.081558e+003, 8.090723e+001
1.082040e+003, 8.076714e+001
1.082522e+003, 8.056465e+001
1.083004e+003, 8.063282e+001
1.083486e+003, 8.094084e+001
1.083968e+003, 8.119315e+001
1.084450e+003, 8.117137e+001
1.084933e+003, 8.110464e+001
1.085415e+003, 8.118813e+001
1.085897e+003, 8.129697e+001
1.086379e+003, 8.120079e+001
1.086861e+003, 8.077734e+001
1.087343e+003, 8.066847e+001
1.087825e+003, 8.093889e+001
1.088307e+003, 8.128515e+001
1.088790e+003, 8.144295e+001
1.089272e+003, 8.152628e+001
1.089754e+003, 8.175051e+001
1.090236e+003, 8.205932e+001
1.090718e+003, 8.209107e+001
1.091200e+003, 8.158260e+001
1.091682e+003, 8.114307e+001
1.092164e+003, 8.083585e+001
1.092646e+003, 8.071220e+001
1.093129e+003, 8.097469e+001
1.093611e+003, 8.146054e+001
1.094093e+003, 8.179947e+001
1.094575e+003, 8.193640e+001
1.095057e+003, 8.188808e+001
1.095539e+003, 8.148438e+001
1.096021e+003, 8.108448e+001
1.096503e+003, 8.084253e+001
1.096986e+003, 8.072559e+001
1.097468e+003, 8.056721e+001
1.097950e+003, 8.038915e+001
1.098432e+003, 8.041193e+001
1.098914e+003, 8.080975e+001
1.099396e+003, 8.114295e+001
1.099878e+003, 8.098912e+001
1.100360e+003, 8.068250e+001
1.100843e+003, 8.053606e+001
1.101325e+003, 8.055691e+001
1.101807e+003, 8.082250e+001
1.102289e+003, 8.138441e+001
1.102771e+003, 8.165003e+001
1.103253e+003, 8.099526e+001
1.103735e+003, 8.015101e+001
1.104217e+003, 7.994823e+001
1.104699e+003, 8.020384e+001
1.105182e+003, 8.058611e+001
1.105664e+003, 8.121960e+001
1.106146e+003, 8.160836e+001
1.106628e+003, 8.170522e+001
1.107110e+003, 8.165263e+001
1.107592e+003, 8.154141e+001
1.108074e+003, 8.138864e+001
1.108556e+003, 8.117561e+001
1.109038e+003, 8.093407e+001
1.109521e+003, 8.081860e+001
1.110003e+003, 8.088943e+001
1.110485e+003, 8.112067e+001
1.110967e+003, 8.162440e+001
1.111449e+003, 8.213315e+001
1.111931e+003, 8.217271e+001
1.112413e+003, 8.185131e+001
1.112895e+003, 8.167860e+001
1.113377e+003, 8.171609e+001
1.113860e+003, 8.172900e+001
1.114342e+003, 8.138297e+001
1.114824e+003, 8.117968e+001
1.115306e+003, 8.157426e+001
1.115788e+003, 8.228831e+001
1.116270e+003, 8.228403e+001
1.116752e+003, 8.157917e+001
1.117234e+003, 8.115896e+001
1.117717e+003, 8.131559e+001
1.118199e+003, 8.163615e+001
1.118681e+003, 8.190935e+001
1.119163e+003, 8.206323e+001
1.119645e+003, 8.197239e+001
1.120127e+003, 8.162455e+001
1.120609e+003, 8.139059e+001
1.121091e+003, 8.127732e+001
1.121573e+003, 8.123238e+001
1.122056e+003, 8.124605e+001
1.122538e+003, 8.129581e+001
1.123020e+003, 8.135772e+001
1.123502e+003, 8.143455e+001
1.123984e+003, 8.153204e+001
1.124466e+003, 8.165982e+001
1.124948e+003, 8.179723e+001
1.125430e+003, 8.195740e+001
1.125913e+003, 8.209677e+001
1.126395e+003, 8.225176e+001
1.126877e+003, 8.233505e+001
1.127359e+003, 8.200486e+001
1.127841e+003, 8.143600e+001
1.128323e+003, 8.111705e+001
1.128805e+003, 8.146626e+001
1.129287e+003, 8.174869e+001
1.129770e+003, 8.185373e+001
1.130252e+003, 8.188273e+001
1.130734e+003, 8.194230e+001
1.131216e+003, 8.201047e+001
1.131698e+003, 8.192715e+001
1.132180e+003, 8.172685e+001
1.132662e+003, 8.171076e+001
1.133144e+003, 8.238513e+001
1.133626e+003, 8.284815e+001
1.134109e+003, 8.268969e+001
1.134591e+003, 8.221784e+001
1.135073e+003, 8.181399e+001
1.135555e+003, 8.149450e+001
1.136037e+003, 8.148103e+001
1.136519e+003, 8.180637e+001
1.137001e+003, 8.215221e+001
1.137483e+003, 8.241936e+001
1.137965e+003, 8.251196e+001
1.138448e+003, 8.223454e+001
1.138930e+003, 8.174444e+001
1.139412e+003, 8.150449e+001
1.139894e+003, 8.152169e+001
1.140376e+003, 8.167982e+001
1.140858e+003, 8.199461e+001
1.141340e+003, 8.223399e+001
1.141822e+003, 8.203481e+001
1.142304e+003, 8.176859e+001
1.142787e+003, 8.183118e+001
1.143269e+003, 8.224104e+001
1.143751e+003, 8.244400e+001
1.144233e+003, 8.239381e+001
1.144715e+003, 8.238857e+001
1.145197e+003, 8.256355e+001
1.145679e+003, 8.274011e+001
1.146161e+003, 8.263979e+001
1.146644e+003, 8.242063e+001
1.147126e+003, 8.229411e+001
1.147608e+003, 8.233097e+001
1.148090e+003, 8.232556e+001
1.148572e+003, 8.226205e+001
1.149054e+003, 8.219245e+001
1.149536e+003, 8.213223e+001
1.150018e+003, 8.209396e+001
1.150500e+003, 8.214696e+001
1.150983e+003, 8.222869e+001
1.151465e+003, 8.219888e+001
1.151947e+003, 8.185854e+001
1.152429e+003, 8.178715e+001
1.152911e+003, 8.216953e+001
1.153393e+003, 8.250523e+001
1.153875e+003, 8.234184e+001
1.154357e+003, 8.191265e+001
1.154840e+003, 8.194090e+001
1.155322e+003, 8.226460e+001
1.155804e+003, 8.236726e+001
1.156286e+003, 8.163248e+001
1.156768e+003, 8.128216e+001
1.157250e+003, 8.168689e+001
1.157732e+003, 8.220031e+001
1.158214e+003, 8.211548e+001
1.158697e+003, 8.162222e+001
1.159179e+003, 8.160609e+001
1.159661e+003, 8.200585e+001
1.160143e+003, 8.233073e+001
1.160625e+003, 8.229243e+001
1.161107e+003, 8.219207e+001
1.161589e+003, 8.211047e+001
1.162071e+003, 8.202657e+001
1.162553e+003, 8.187437e+001
1.163036e+003, 8.168113e+001
1.163518e+003, 8.166295e+001
1.164000e+003, 8.182600e+001
1.164482e+003, 8.200819e+001
1.164964e+003, 8.226331e+001
1.165446e+003, 8.233717e+001
1.165928e+003, 8.192509e+001
1.166410e+003, 8.136246e+001
1.166892e+003, 8.134285e+001
1.167375e+003, 8.182027e+001
1.167857e+003, 8.208320e+001
1.168339e+003, 8.203017e+001
1.168821e+003, 8.199305e+001
1.169303e+003, 8.233412e+001
1.169785e+003, 8.265140e+001
1.170267e+003, 8.259924e+001
1.170749e+003, 8.232985e+001
1.171231e+003, 8.230469e+001
1.171714e+003, 8.252023e+001
1.172196e+003, 8.261878e+001
1.172678e+003, 8.250698e+001
1.173160e+003, 8.239069e+001
1.173642e+003, 8.246248e+001
1.174124e+003, 8.258693e+001
1.174606e+003, 8.263287e+001
1.175088e+003, 8.262395e+001
1.175571e+003, 8.276694e+001
1.176053e+003, 8.307917e+001
1.176535e+003, 8.314180e+001
1.177017e+003, 8.268240e+001
1.177499e+003, 8.248508e+001
1.177981e+003, 8.380204e+001
1.178463e+003, 8.540058e+001
1.178945e+003, 8.606170e+001
1.179427e+003, 8.572945e+001
1.179910e+003, 8.503797e+001
1.180392e+003, 8.391360e+001
1.180874e+003, 8.314251e+001
1.181356e+003, 8.313292e+001
1.181838e+003, 8.332077e+001
1.182320e+003, 8.309879e+001
1.182802e+003, 8.273717e+001
1.183284e+003, 8.255813e+001
1.183767e+003, 8.261127e+001
1.184249e+003, 8.271167e+001
1.184731e+003, 8.288369e+001
1.185213e+003, 8.293270e+001
1.185695e+003, 8.268345e+001
1.186177e+003, 8.239790e+001
1.186659e+003, 8.240285e+001
1.187141e+003, 8.256047e+001
1.187624e+003, 8.266786e+001
1.188106e+003, 8.266294e+001
1.188588e+003, 8.279371e+001
1.189070e+003, 8.310638e+001
1.189552e+003, 8.328259e+001
1.190034e+003, 8.299962e+001
1.190516e+003, 8.263257e+001
1.190998e+003, 8.273400e+001
1.191480e+003, 8.305864e+001
1.191963e+003, 8.316416e+001
1.192445e+003, 8.278852e+001
1.192927e+003, 8.273277e+001
1.193409e+003, 8.306482e+001
1.193891e+003, 8.340069e+001
1.194373e+003, 8.348202e+001
1.194855e+003, 8.341039e+001
1.195337e+003, 8.319395e+001
1.195819e+003, 8.294942e+001
1.196302e+003, 8.296005e+001
1.196784e+003, 8.348811e+001
1.197266e+003, 8.372903e+001
1.197748e+003, 8.361880e+001
1.198230e+003, 8.343053e+001
1.198712e+003, 8.333447e+001
1.199194e+003, 8.332520e+001
1.199676e+003, 8.343350e+001
1.200158e+003, 8.362219e+001
1.200641e+003, 8.380651e+001
1.201123e+003, 8.411253e+001
1.201605e+003, 8.401101e+001
1.202087e+003, 8.335323e+001
1.202569e+003, 8.278195e+001
1.203051e+003, 8.302542e+001
1.203533e+003, 8.360514e+001
1.204015e+003, 8.397868e+001
1.204498e+003, 8.413362e+001
1.204980e+003, 8.408873e+001
1.205462e+003, 8.368184e+001
1.205944e+003, 8.351377e+001
1.206426e+003, 8.367674e+001
1.206908e+003, 8.391362e+001
1.207390e+003, 8.405673e+001
1.207872e+003, 8.406369e+001
1.208354e+003, 8.376393e+001
1.208837e+003, 8.325070e+001
1.209319e+003, 8.297576e+001
1.209801e+003, 8.303883e+001
1.210283e+003, 8.319846e+001
1.210765e+003, 8.345566e+001
1.211247e+003, 8.369339e+001
1.211729e+003, 8.377827e+001
1.212211e+003, 8.378371e+001
1.212694e+003, 8.374730e+001
1.213176e+003, 8.370219e+001
1.213658e+003, 8.383205e+001
1.214140e+003, 8.424365e+001
1.214622e+003, 8.453807e+001
1.215104e+003, 8.465624e+001
1.215586e+003, 8.465981e+001
1.216068e+003, 8.460223e+001
1.216551e+003, 8.447941e+001
1.217033e+003, 8.426060e+001
1.217515e+003, 8.395887e+001
1.217997e+003, 8.368783e+001
1.218479e+003, 8.344449e+001
1.218961e+003, 8.322716e+001
1.219443e+003, 8.299363e+001
1.219925e+003, 8.295834e+001
1.220407e+003, 8.363758e+001
1.220890e+003, 8.445413e+001
1.221372e+003, 8.465124e+001
1.221854e+003, 8.425789e+001
1.222336e+003, 8.420830e+001
1.222818e+003, 8.468040e+001
1.223300e+003, 8.487768e+001
1.223782e+003, 8.461011e+001
1.224264e+003, 8.419524e+001
1.224746e+003, 8.389475e+001
1.225229e+003, 8.369596e+001
1.225711e+003, 8.361460e+001
1.226193e+003, 8.363962e+001
1.226675e+003, 8.359494e+001
1.227157e+003, 8.343201e+001
1.227639e+003, 8.348956e+001
1.228121e+003, 8.387821e+001
1.228603e+003, 8.431837e+001
1.229085e+003, 8.455290e+001
1.229568e+003, 8.466116e+001
1.230050e+003, 8.469689e+001
1.230532e+003, 8.466763e+001
1.231014e+003, 8.459599e+001
1.231496e+003, 8.446668e+001
1.231978e+003, 8.443826e+001
1.232460e+003, 8.456746e+001
1.232942e+003, 8.470130e+001
1.233425e+003, 8.469026e+001
1.233907e+003, 8.462065e+001
1.234389e+003, 8.457183e+001
1.234871e+003, 8.453770e+001
1.235353e+003, 8.443092e+001
1.235835e+003, 8.424603e+001
1.236317e+003, 8.413999e+001
1.236799e+003, 8.415126e+001
1.237281e+003, 8.425061e+001
1.237764e+003, 8.448672e+001
1.238246e+003, 8.474056e+001
1.238728e+003, 8.497717e+001
1.239210e+003, 8.515103e+001
1.239692e+003, 8.493771e+001
1.240174e+003, 8.436367e+001
1.240656e+003, 8.406252e+001
1.241138e+003, 8.421362e+001
1.241621e+003, 8.449706e+001
1.242103e+003, 8.482767e+001
1.242585e+003, 8.505583e+001
1.243067e+003, 8.504054e+001
1.243549e+003, 8.485679e+001
1.244031e+003, 8.473904e+001
1.244513e+003, 8.469065e+001
1.244995e+003, 8.477452e+001
1.245478e+003, 8.502958e+001
1.245960e+003, 8.526108e+001
1.246442e+003, 8.536430e+001
1.246924e+003, 8.539306e+001
1.247406e+003, 8.538956e+001
1.247888e+003, 8.534023e+001
1.248370e+003, 8.513419e+001
1.248852e+003, 8.483583e+001
1.249334e+003, 8.475990e+001
1.249817e+003, 8.502315e+001
1.250299e+003, 8.519784e+001
1.250781e+003, 8.489809e+001
1.251263e+003, 8.469397e+001
1.251745e+003, 8.487077e+001
1.252227e+003, 8.523636e+001
1.252709e+003, 8.529188e+001
1.253191e+003, 8.514268e+001
1.253673e+003, 8.512546e+001
1.254156e+003, 8.534078e+001
1.254638e+003, 8.541465e+001
1.255120e+003, 8.506484e+001
1.255602e+003, 8.480636e+001
1.256084e+003, 8.483224e+001
1.256566e+003, 8.501335e+001
1.257048e+003, 8.513390e+001
1.257530e+003, 8.520008e+001
1.258012e+003, 8.519012e+001
1.258495e+003, 8.508054e+001
1.258977e+003, 8.513123e+001
1.259459e+003, 8.548499e+001
1.259941e+003, 8.572134e+001
1.260423e+003, 8.564075e+001
1.260905e+003, 8.551761e+001
1.261387e+003, 8.600676e+001
1.261869e+003, 8.663101e+001
1.262352e+003, 8.658590e+001
1.262834e+003, 8.570517e+001
1.263316e+003, 8.511076e+001
1.263798e+003, 8.484086e+001
1.264280e+003, 8.497764e+001
1.264762e+003, 8.566560e+001
1.265244e+003, 8.639503e+001
1.265726e+003, 8.656739e+001
1.266208e+003, 8.642891e+001
1.266691e+003, 8.621146e+001
1.267173e+003, 8.593922e+001
1.267655e+003, 8.564666e+001
1.268137e+003, 8.530959e+001
1.268619e+003, 8.514768e+001
1.269101e+003, 8.523709e+001
1.269583e+003, 8.543745e+001
1.270065e+003, 8.579585e+001
1.270548e+003, 8.606091e+001
1.271030e+003, 8.582877e+001
1.271512e+003, 8.528389e+001
1.271994e+003, 8.531895e+001
1.272476e+003, 8.591882e+001
1.272958e+003, 8.636440e+001
1.273440e+003, 8.649865e+001
1.273922e+003, 8.645000e+001
1.274405e+003, 8.612399e+001
1.274887e+003, 8.583635e+001
1.275369e+003, 8.576220e+001
1.275851e+003, 8.586475e+001
1.276333e+003, 8.614123e+001
1.276815e+003, 8.652151e+001
1.277297e+003, 8.658849e+001
1.277779e+003, 8.624036e+001
1.278261e+003, 8.595935e+001
1.278744e+003, 8.608707e+001
1.279226e+003, 8.621547e+001
1.279708e+003, 8.617899e+001
1.280190e+003, 8.607389e+001
1.280672e+003, 8.606170e+001
1.281154e+003, 8.613626e+001
1.281636e+003, 8.635057e+001
1.282118e+003, 8.671149e+001
1.282600e+003, 8.683800e+001
1.283083e+003, 8.644196e+001
1.283565e+003, 8.609300e+001
1.284047e+003, 8.589497e+001
1.284529e+003, 8.585171e+001
1.285011e+003, 8.613635e+001
1.285493e+003, 8.649113e+001
1.285975e+003, 8.639343e+001
1.286457e+003, 8.585423e+001
1.286939e+003, 8.577412e+001
1.287422e+003, 8.644038e+001
1.287904e+003, 8.675249e+001
1.288386e+003, 8.644292e+001
1.288868e+003, 8.601435e+001
1.289350e+003, 8.595312e+001
1.289832e+003, 8.609221e+001
1.290314e+003, 8.633465e+001
1.290796e+003, 8.663016e+001
1.291279e+003, 8.682836e+001
1.291761e+003, 8.693153e+001
1.292243e+003, 8.684891e+001
1.292725e+003, 8.655222e+001
1.293207e+003, 8.629778e+001
1.293689e+003, 8.630686e+001
1.294171e+003, 8.641056e+001
1.294653e+003, 8.656046e+001
1.295135e+003, 8.669409e+001
1.295618e+003, 8.668673e+001
1.296100e+003, 8.655404e+001
1.296582e+003, 8.642783e+001
1.297064e+003, 8.633321e+001
1.297546e+003, 8.633006e+001
1.298028e+003, 8.659462e+001
1.298510e+003, 8.672019e+001
1.298992e+003, 8.652328e+001
1.299475e+003, 8.624854e+001
1.299957e+003, 8.617463e+001
1.300439e+003, 8.629238e+001
1.300921e+003, 8.667603e+001
1.301403e+003, 8.725560e+001
1.301885e+003, 8.764250e+001
##END=



