##NAMES=Clinochalcomenite
##RRUFFID=R110125
##IDEAL CHEMISTRY=CuSe^4+^O_3_&#183;2H_2_O
##LOCALITY=El Dragon mine, Potosi, Bolivia
##OWNER=RRUFF
##SOURCE=Royal Ontario Museum
##DESCRIPTION=Aggregates of pale greenish-blue crystals associated with darker blue chalcomenite
##STATUS=The identification of this mineral is confirmed by single-crystal X-ray diffraction and chemical analysis.
##URL=rruff.info/R110125
##MEASURED CHEMISTRY=(Cu_0.99_Ni_0.02_Co_0.01_Fe_0.01_)_Σ=1.03_Se^+4^_1.11_O_3_·1.77H_2_O ; Note: water content determined by difference
176.3090, 250.5783
176.7911, 257.6581
177.2732, 264.8232
177.7553, 270.4361
178.2374, 274.4000
178.7195, 277.7729
179.2017, 280.5770
179.6838, 283.2962
180.1659, 286.7162
180.6480, 290.9131
181.1301, 295.2363
181.6122, 299.3161
182.0944, 303.1247
182.5765, 306.4441
183.0586, 308.8712
183.5407, 310.8148
184.0228, 313.3492
184.5049, 316.5435
184.9871, 319.8896
185.4692, 322.5200
185.9513, 324.6264
186.4334, 327.1186
186.9155, 330.4569
187.3976, 334.5204
187.8798, 339.1192
188.3619, 344.3280
188.8440, 349.6620
189.3261, 354.3105
189.8082, 358.3534
190.2903, 362.2799
190.7725, 366.8649
191.2546, 371.8150
191.7367, 374.9428
192.2188, 376.0421
192.7009, 375.7260
193.1830, 375.0402
193.6652, 374.0081
194.1473, 371.8932
194.6294, 368.1526
195.1115, 362.8684
195.5936, 356.9316
196.0757, 350.3018
196.5579, 343.2079
197.0400, 335.7867
197.5221, 327.9405
198.0042, 320.7692
198.4863, 314.9244
198.9684, 310.4402
199.4506, 306.2750
199.9327, 302.3984
200.4148, 298.8124
200.8969, 295.6572
201.3790, 292.9698
201.8611, 290.3546
202.3433, 287.3687
202.8254, 283.9060
203.3075, 281.3649
203.7896, 280.0343
204.2717, 279.5343
204.7538, 279.0209
205.2360, 278.5301
205.7181, 277.8772
206.2002, 276.8615
206.6823, 275.3896
207.1644, 274.1135
207.6465, 273.0434
208.1287, 272.2163
208.6108, 271.7945
209.0929, 271.9059
209.5750, 272.0597
210.0571, 271.8719
210.5392, 271.1902
211.0214, 270.8956
211.5035, 271.1435
211.9856, 271.8056
212.4677, 272.4702
212.9498, 273.1687
213.4319, 273.8211
213.9140, 274.4034
214.3962, 274.9428
214.8783, 275.3223
215.3604, 275.4560
215.8425, 275.4354
216.3246, 275.5854
216.8067, 275.8526
217.2889, 276.3863
217.7710, 277.4269
218.2531, 279.3646
218.7352, 280.5885
219.2173, 280.6675
219.6994, 279.9256
220.1816, 279.9438
220.6637, 281.0349
221.1458, 282.3244
221.6279, 283.2907
222.1100, 283.9286
222.5921, 284.2622
223.0743, 284.2254
223.5564, 283.8872
224.0385, 283.6048
224.5206, 283.5878
225.0027, 283.3244
225.4848, 282.4316
225.9670, 280.5930
226.4491, 278.9257
226.9312, 277.5284
227.4133, 276.3724
227.8954, 275.2339
228.3775, 274.0826
228.8597, 273.0283
229.3418, 272.1531
229.8239, 271.4891
230.3060, 270.9513
230.7881, 270.6913
231.2702, 270.5658
231.7524, 269.8210
232.2345, 267.9305
232.7166, 266.1647
233.1987, 265.3269
233.6808, 265.8372
234.1629, 266.3362
234.6451, 266.7693
235.1272, 267.1267
235.6093, 267.3797
236.0914, 267.5048
236.5735, 267.5584
237.0556, 267.5030
237.5378, 267.0214
238.0199, 267.1561
238.5020, 268.1652
238.9841, 269.8454
239.4662, 271.3574
239.9483, 272.7800
240.4305, 273.9475
240.9126, 274.7036
241.3947, 274.6370
241.8768, 275.0837
242.3589, 276.1897
242.8410, 277.8385
243.3232, 279.6866
243.8053, 281.8530
244.2874, 284.0425
244.7695, 286.0618
245.2516, 287.7701
245.7337, 289.6421
246.2159, 291.7559
246.6980, 294.0340
247.1801, 296.2029
247.6622, 298.2896
248.1443, 300.2477
248.6264, 301.9574
249.1086, 303.0931
249.5907, 304.8039
250.0728, 307.3156
250.5549, 310.3560
251.0370, 313.2086
251.5191, 315.8322
252.0013, 318.3519
252.4834, 320.8690
252.9655, 323.4301
253.4476, 325.7589
253.9297, 327.5397
254.4118, 329.2290
254.8940, 332.0700
255.3761, 336.9149
255.8582, 341.4164
256.3403, 344.4581
256.8224, 345.4974
257.3046, 346.8495
257.7867, 348.6499
258.2688, 350.6516
258.7509, 352.4071
259.2330, 353.9423
259.7151, 355.1331
260.1973, 355.9688
260.6794, 356.4886
261.1615, 356.3627
261.6436, 355.3747
262.1257, 353.9380
262.6078, 352.8070
263.0900, 352.2501
263.5721, 351.3997
264.0542, 349.9048
264.5363, 347.6367
265.0184, 345.4864
265.5005, 343.4008
265.9827, 341.4639
266.4648, 339.7968
266.9469, 338.5078
267.4290, 337.2097
267.9111, 335.7343
268.3932, 334.0644
268.8754, 332.5709
269.3575, 331.2976
269.8396, 330.1205
270.3217, 328.8663
270.8038, 327.4677
271.2859, 326.2500
271.7681, 325.3962
272.2502, 324.8856
272.7323, 324.0622
273.2144, 322.8828
273.6965, 321.5014
274.1786, 320.0779
274.6608, 318.6012
275.1429, 317.0944
275.6250, 315.6445
276.1071, 314.2018
276.5892, 312.1712
277.0714, 309.3969
277.5535, 306.5730
278.0356, 304.4854
278.5177, 303.2318
278.9998, 301.6651
279.4819, 299.4615
279.9641, 296.7765
280.4462, 294.4177
280.9283, 292.4474
281.4104, 290.5009
281.8925, 288.2328
282.3746, 285.6404
282.8568, 283.0351
283.3389, 280.4093
283.8210, 277.8594
284.3031, 275.6750
284.7852, 273.8758
285.2673, 272.2731
285.7495, 270.6272
286.2316, 268.9759
286.7137, 267.8836
287.1958, 267.6284
287.6779, 267.6647
288.1600, 266.6162
288.6422, 264.4590
289.1243, 262.5956
289.6064, 262.1920
290.0885, 262.9500
290.5706, 263.3730
291.0527, 263.2856
291.5349, 262.9015
292.0170, 262.5093
292.4991, 262.1079
292.9812, 261.6904
293.4633, 261.1855
293.9454, 260.6559
294.4276, 260.2727
294.9097, 260.0257
295.3918, 260.0310
295.8739, 260.7178
296.3560, 261.9024
296.8381, 262.7429
297.3203, 262.4203
297.8024, 261.5499
298.2845, 261.5428
298.7666, 262.5029
299.2487, 263.5539
299.7308, 263.6689
300.2130, 263.1439
300.6951, 262.8279
301.1772, 263.1721
301.6593, 263.8618
302.1414, 264.5099
302.6235, 265.1092
303.1057, 265.6333
303.5878, 266.0085
304.0699, 266.2933
304.5520, 266.5839
305.0341, 266.8757
305.5162, 267.2208
305.9984, 267.7807
306.4805, 268.5047
306.9626, 269.0795
307.4447, 269.0610
307.9268, 268.8317
308.4089, 268.9082
308.8911, 269.5619
309.3732, 270.3416
309.8553, 270.8929
310.3374, 271.2672
310.8195, 271.6483
311.3016, 272.0725
311.7838, 272.5773
312.2659, 273.2703
312.7480, 274.3382
313.2301, 275.1800
313.7122, 275.4917
314.1943, 275.3272
314.6765, 274.7905
315.1586, 273.5594
315.6407, 272.2357
316.1228, 271.2218
316.6049, 270.6527
317.0870, 270.0609
317.5692, 269.2959
318.0513, 268.3781
318.5334, 267.3392
319.0155, 265.9981
319.4976, 264.7028
319.9797, 263.6800
320.4619, 262.9750
320.9440, 262.1367
321.4261, 260.9655
321.9082, 259.6319
322.3903, 258.3014
322.8724, 256.8942
323.3546, 255.6033
323.8367, 254.4851
324.3188, 253.5372
324.8009, 252.6806
325.2830, 251.8969
325.7651, 251.2164
326.2473, 250.6631
326.7294, 250.2858
327.2115, 249.9922
327.6936, 249.8408
328.1757, 249.7991
328.6578, 249.6806
329.1400, 249.4888
329.6221, 249.2258
330.1042, 248.8979
330.5863, 248.5793
331.0684, 248.0510
331.5505, 246.9639
332.0327, 245.7289
332.5148, 245.3087
332.9969, 246.2249
333.4790, 247.2489
333.9611, 248.0199
334.4432, 248.5402
334.9254, 248.6963
335.4075, 248.1615
335.8896, 247.5226
336.3717, 247.7061
336.8538, 249.1627
337.3359, 250.3281
337.8180, 250.6649
338.3001, 250.1915
338.7823, 250.0704
339.2644, 250.4070
339.7465, 250.9007
340.2286, 251.2714
340.7107, 251.5025
341.1928, 251.7143
341.6750, 251.8920
342.1571, 252.0828
342.6392, 252.4915
343.1213, 253.1615
343.6034, 253.8522
344.0855, 254.3273
344.5677, 254.6007
345.0498, 255.1257
345.5319, 255.9987
346.0140, 257.0716
346.4961, 258.0909
346.9782, 259.0534
347.4604, 259.9839
347.9425, 260.7143
348.4246, 261.3941
348.9067, 262.5258
349.3888, 264.1373
349.8709, 266.1939
350.3531, 268.8940
350.8352, 272.0724
351.3173, 275.1039
351.7994, 277.6436
352.2815, 279.9161
352.7636, 282.2596
353.2458, 284.6721
353.7279, 287.2148
354.2100, 289.9395
354.6921, 292.8253
355.1742, 295.8534
355.6563, 299.2838
356.1385, 302.6086
356.6206, 305.0495
357.1027, 306.8382
357.5848, 309.0576
358.0669, 312.9614
358.5490, 317.3259
359.0312, 320.9028
359.5133, 323.1733
359.9954, 325.3540
360.4775, 327.9958
360.9596, 331.0816
361.4417, 334.5211
361.9239, 338.4864
362.4060, 342.6728
362.8881, 346.8585
363.3702, 350.9544
363.8523, 355.4198
364.3344, 360.7899
364.8166, 366.4753
365.2987, 371.8477
365.7808, 376.4392
366.2629, 380.8821
366.7450, 385.5014
367.2271, 390.2928
367.7093, 394.3948
368.1914, 397.8549
368.6735, 400.4983
369.1556, 402.2154
369.6377, 402.7226
370.1198, 402.6071
370.6020, 402.1169
371.0841, 401.0468
371.5662, 398.6207
372.0483, 394.4735
372.5304, 389.4494
373.0125, 383.8276
373.4947, 377.5669
373.9768, 370.9060
374.4589, 363.6845
374.9410, 356.1153
375.4231, 348.5568
375.9052, 340.8112
376.3874, 333.4976
376.8695, 326.8992
377.3516, 320.9334
377.8337, 315.3341
378.3158, 310.0361
378.7979, 305.0905
379.2801, 300.6766
379.7622, 296.7759
380.2443, 292.9883
380.7264, 289.0692
381.2085, 285.2989
381.6906, 282.5301
382.1728, 280.7840
382.6549, 279.2271
383.1370, 277.2243
383.6191, 274.9222
384.1012, 273.0142
384.5833, 271.5847
385.0655, 270.4126
385.5476, 269.2358
386.0297, 268.0655
386.5118, 267.0166
386.9939, 266.3805
387.4760, 265.7926
387.9582, 264.5352
388.4403, 262.5798
388.9224, 260.8112
389.4045, 260.1215
389.8866, 260.0398
390.3687, 259.9139
390.8509, 259.6570
391.3330, 259.1644
391.8151, 258.1153
392.2972, 256.6862
392.7793, 255.5698
393.2614, 255.3305
393.7436, 255.3949
394.2257, 255.3917
394.7078, 255.3253
395.1899, 255.0091
395.6720, 254.0947
396.1541, 252.9332
396.6363, 252.0904
397.1184, 251.8390
397.6005, 251.7977
398.0826, 251.9513
398.5647, 252.3508
399.0468, 252.4614
399.5290, 251.9435
400.0111, 251.2775
400.4932, 250.8448
400.9753, 250.6974
401.4574, 250.7301
401.9395, 251.0883
402.4217, 251.6548
402.9038, 251.8453
403.3859, 251.4858
403.8680, 251.0080
404.3501, 250.5845
404.8322, 250.1838
405.3144, 249.9727
405.7965, 249.9904
406.2786, 250.1528
406.7607, 250.3964
407.2428, 250.7757
407.7249, 250.9178
408.2071, 250.5816
408.6892, 249.8760
409.1713, 249.5361
409.6534, 249.6012
410.1355, 249.7934
410.6176, 249.9418
411.0998, 250.0242
411.5819, 249.8618
412.0640, 249.3159
412.5461, 248.6825
413.0282, 248.5365
413.5103, 248.7906
413.9925, 248.9283
414.4746, 248.3316
414.9567, 247.5292
415.4388, 247.5302
415.9209, 248.5108
416.4030, 249.3909
416.8852, 249.0421
417.3673, 248.0303
417.8494, 247.2794
418.3315, 247.2615
418.8136, 247.5222
419.2957, 247.9284
419.7779, 248.4291
420.2600, 248.7160
420.7421, 248.4145
421.2242, 247.9909
421.7063, 247.8238
422.1884, 248.2282
422.6706, 248.4220
423.1527, 247.8604
423.6348, 247.0023
424.1169, 246.7051
424.5990, 247.9525
425.0811, 248.9488
425.5633, 248.9394
426.0454, 247.6818
426.5275, 247.1000
427.0096, 247.4677
427.4917, 248.2831
427.9738, 249.2015
428.4560, 250.4741
428.9381, 251.2869
429.4202, 251.3943
429.9023, 251.0015
430.3844, 250.8229
430.8665, 250.9215
431.3487, 251.0580
431.8308, 251.1025
432.3129, 251.0486
432.7950, 251.0254
433.2771, 250.9987
433.7592, 251.1086
434.2414, 251.7693
434.7235, 252.9031
435.2056, 253.5014
435.6877, 252.9736
436.1698, 251.9066
436.6519, 251.5185
437.1341, 251.7938
437.6162, 252.3547
438.0983, 253.2154
438.5804, 254.1098
439.0625, 254.4466
439.5446, 253.9382
440.0268, 253.5170
440.5089, 254.2637
440.9910, 255.7067
441.4731, 256.8683
441.9552, 257.0607
442.4373, 257.0332
442.9195, 257.2209
443.4016, 257.6384
443.8837, 258.1719
444.3658, 259.2680
444.8479, 260.1811
445.3300, 260.2807
445.8122, 258.2203
446.2943, 256.9404
446.7764, 257.4025
447.2585, 259.0078
447.7406, 260.2275
448.2227, 260.8044
448.7049, 261.1355
449.1870, 261.3150
449.6691, 261.3345
450.1512, 261.2779
450.6333, 261.2621
451.1154, 261.0527
451.5976, 260.2636
452.0797, 258.5226
452.5618, 257.5368
453.0439, 257.7908
453.5260, 258.8604
454.0081, 259.4279
454.4903, 259.4305
454.9724, 259.3599
455.4545, 259.5110
455.9366, 259.8423
456.4187, 260.0707
456.9008, 260.1779
457.3830, 260.2101
457.8651, 260.1781
458.3472, 260.1028
458.8293, 260.0612
459.3114, 260.0842
459.7935, 260.1382
460.2757, 260.1137
460.7578, 260.0506
461.2399, 260.1581
461.7220, 260.7929
462.2041, 261.5345
462.6862, 261.8950
463.1684, 261.6847
463.6505, 261.6451
464.1326, 262.2648
464.6147, 263.2485
465.0968, 264.2272
465.5789, 265.2756
466.0611, 266.1004
466.5432, 266.3173
467.0253, 266.0388
467.5074, 266.4743
467.9895, 268.5536
468.4716, 270.7467
468.9538, 272.2941
469.4359, 272.7666
469.9180, 273.4877
470.4001, 274.4695
470.8822, 275.6942
471.3643, 277.2016
471.8465, 279.1352
472.3286, 280.9041
472.8107, 282.2577
473.2928, 283.2960
473.7749, 284.8145
474.2570, 286.8938
474.7392, 288.9815
475.2213, 290.5830
475.7034, 291.7846
476.1855, 293.1569
476.6676, 294.7481
477.1497, 296.5728
477.6319, 298.9182
478.1140, 301.5609
478.5961, 303.7265
479.0782, 304.5827
479.5603, 305.0950
480.0424, 306.2428
480.5246, 308.0262
481.0067, 310.3815
481.4888, 314.0254
481.9709, 317.7977
482.4530, 320.5563
482.9352, 321.6786
483.4173, 322.7841
483.8994, 324.7769
484.3815, 327.0986
484.8636, 328.8800
485.3457, 329.9939
485.8279, 330.4749
486.3100, 330.1912
486.7921, 329.1345
487.2742, 327.9591
487.7563, 326.6240
488.2384, 325.2089
488.7206, 323.7980
489.2027, 322.5284
489.6848, 320.9373
490.1669, 319.0184
490.6490, 316.7829
491.1311, 313.9984
491.6133, 310.5367
492.0954, 307.6175
492.5775, 305.8451
493.0596, 304.8394
493.5417, 303.0640
494.0238, 300.5121
494.5060, 297.9247
494.9881, 295.5468
495.4702, 293.5786
495.9523, 292.6423
496.4344, 292.9916
496.9165, 293.5945
497.3987, 293.3080
497.8808, 292.5468
498.3629, 292.1002
498.8450, 292.4510
499.3271, 293.0933
499.8092, 293.7598
500.2914, 294.4596
500.7735, 295.1898
501.2556, 295.9258
501.7377, 296.7336
502.2198, 297.6337
502.7019, 298.5911
503.1841, 299.7766
503.6662, 301.3665
504.1483, 303.1418
504.6304, 304.8239
505.1125, 306.2618
505.5946, 307.8130
506.0768, 309.5378
506.5589, 311.4225
507.0410, 313.4758
507.5231, 315.7740
508.0052, 318.0083
508.4873, 319.8872
508.9695, 321.3784
509.4516, 323.5117
509.9337, 326.3472
510.4158, 329.5848
510.8979, 333.1185
511.3800, 336.8445
511.8622, 340.1194
512.3443, 342.6372
512.8264, 344.8371
513.3085, 347.3765
513.7906, 350.1514
514.2728, 352.7859
514.7549, 355.0005
515.2370, 357.0328
515.7191, 359.2365
516.2012, 361.6810
516.6833, 363.5589
517.1655, 364.3611
517.6476, 364.5347
518.1297, 364.4630
518.6118, 364.4223
519.0939, 363.9014
519.5760, 362.9972
520.0582, 361.5386
520.5403, 359.1180
521.0224, 355.2145
521.5045, 351.1201
521.9866, 347.2542
522.4688, 343.5948
522.9509, 339.2393
523.4330, 333.8709
523.9151, 328.4715
524.3972, 323.7774
524.8793, 319.8181
525.3615, 316.0523
525.8436, 312.3788
526.3257, 308.9427
526.8078, 306.1964
527.2899, 303.9803
527.7720, 301.5769
528.2542, 298.5767
528.7363, 295.3707
529.2184, 292.3647
529.7005, 289.5849
530.1826, 287.0235
530.6647, 284.4702
531.1469, 282.2747
531.6290, 280.9043
532.1111, 280.6709
532.5932, 280.0912
533.0753, 278.2344
533.5574, 275.8911
534.0396, 273.9124
534.5217, 272.6002
535.0038, 271.4653
535.4859, 270.4276
535.9680, 269.5106
536.4501, 268.7907
536.9323, 268.3586
537.4144, 267.9713
537.8965, 267.5375
538.3786, 267.0546
538.8607, 266.6255
539.3428, 266.2316
539.8250, 265.9489
540.3071, 266.0237
540.7892, 266.3779
541.2713, 266.2043
541.7534, 265.2729
542.2355, 264.0742
542.7177, 263.1248
543.1998, 262.4457
543.6819, 262.1342
544.1640, 262.5957
544.6461, 263.1941
545.1282, 263.2889
545.6104, 262.9509
546.0925, 262.6288
546.5746, 262.4857
547.0567, 262.4896
547.5388, 262.7209
548.0209, 263.3862
548.5031, 263.6012
548.9852, 262.6193
549.4673, 261.3663
549.9494, 260.8295
550.4315, 261.4930
550.9136, 262.1529
551.3958, 262.8113
551.8779, 263.3541
552.3600, 263.3481
552.8421, 262.6128
553.3242, 261.9589
553.8063, 261.7684
554.2885, 261.9762
554.7706, 262.1038
555.2527, 262.1579
555.7348, 262.0725
556.2169, 261.5805
556.6990, 260.9143
557.1812, 260.7114
557.6633, 261.1464
558.1454, 261.7755
558.6275, 262.3027
559.1096, 262.7062
559.5917, 262.9578
560.0739, 262.8045
560.5560, 262.7221
561.0381, 262.9733
561.5202, 263.5049
562.0023, 264.0819
562.4844, 264.8122
562.9666, 265.4297
563.4487, 265.7547
563.9308, 265.6968
564.4129, 265.8149
564.8950, 266.3180
565.3771, 266.7635
565.8593, 266.6844
566.3414, 265.8541
566.8235, 265.5168
567.3056, 265.9377
567.7877, 266.6745
568.2698, 266.8417
568.7520, 266.4828
569.2341, 266.3068
569.7162, 266.7475
570.1983, 267.4321
570.6804, 267.6764
571.1625, 267.5234
571.6447, 267.2650
572.1268, 266.7906
572.6089, 266.4810
573.0910, 266.8439
573.5731, 268.0362
574.0552, 269.1200
574.5374, 269.6998
575.0195, 269.9624
575.5016, 270.0852
575.9837, 269.8984
576.4658, 269.8159
576.9479, 269.9747
577.4301, 270.2278
577.9122, 270.2774
578.3943, 270.0009
578.8764, 269.7541
579.3585, 269.6834
579.8406, 269.7301
580.3228, 269.4266
580.8049, 268.7116
581.2870, 268.0397
581.7691, 267.8244
582.2512, 267.9263
582.7333, 267.7136
583.2155, 267.1239
583.6975, 266.5249
584.1796, 266.3242
584.6617, 266.3321
585.1439, 266.2197
585.6260, 265.8348
586.1081, 265.4332
586.5902, 265.2986
587.0723, 265.2450
587.5544, 264.9183
588.0366, 263.7635
588.5187, 262.7665
589.0008, 262.3128
589.4829, 262.3779
589.9650, 262.3359
590.4471, 262.0131
590.9293, 261.7982
591.4114, 261.9843
591.8935, 262.7059
592.3756, 262.7680
592.8577, 262.0031
593.3398, 261.0240
593.8220, 260.4550
594.3041, 260.2538
594.7862, 260.0836
595.2683, 259.8822
595.7504, 259.7048
596.2325, 259.8044
596.7147, 259.9984
597.1968, 259.8093
597.6789, 258.3767
598.1610, 257.0335
598.6431, 256.9503
599.1252, 257.8769
599.6074, 258.6147
600.0895, 258.8394
600.5716, 258.6913
601.0537, 258.0757
601.5358, 256.7874
602.0179, 256.0703
602.5001, 256.3230
602.9822, 256.7646
603.4643, 256.7727
603.9464, 256.1627
604.4285, 255.8910
604.9106, 256.1239
605.3928, 256.5079
605.8749, 256.3726
606.3570, 255.7779
606.8391, 255.5490
607.3212, 256.0972
607.8033, 256.9315
608.2855, 257.3578
608.7676, 257.4304
609.2497, 257.3683
609.7318, 257.1960
610.2139, 257.0015
610.6960, 256.8073
611.1782, 256.6208
611.6603, 256.5914
612.1424, 256.9576
612.6245, 257.3617
613.1066, 257.5620
613.5887, 257.3820
614.0709, 257.4024
614.5530, 257.8654
615.0351, 258.3188
615.5172, 258.2069
615.9993, 257.3431
616.4814, 256.7743
616.9636, 256.6820
617.4457, 256.9054
617.9278, 257.2480
618.4099, 257.6819
618.8920, 257.9348
619.3741, 257.7499
619.8563, 257.4218
620.3384, 257.3910
620.8205, 257.6141
621.3026, 257.8841
621.7847, 258.2429
622.2668, 258.4854
622.7490, 258.4240
623.2311, 258.0250
623.7132, 257.5598
624.1953, 256.8901
624.6774, 256.3308
625.1595, 256.1158
625.6417, 256.4703
626.1238, 256.7559
626.6059, 257.0084
627.0880, 257.1611
627.5701, 257.0363
628.0522, 256.5824
628.5344, 256.3933
629.0165, 256.6570
629.4986, 257.1561
629.9807, 257.5096
630.4628, 257.7283
630.9449, 257.8706
631.4271, 257.9067
631.9092, 257.9153
632.3913, 258.0120
632.8734, 258.1714
633.3555, 258.2503
633.8376, 258.0061
634.3198, 257.7874
634.8019, 257.8173
635.2840, 258.1581
635.7661, 258.5255
636.2482, 258.6603
636.7303, 259.0022
637.2125, 260.0218
637.6946, 262.3775
638.1767, 263.3889
638.6588, 262.6176
639.1409, 261.0815
639.6230, 260.1552
640.1052, 259.8075
640.5873, 259.6333
641.0694, 259.5656
641.5515, 259.5713
642.0336, 259.6340
642.5157, 259.7331
642.9979, 259.8087
643.4800, 259.7386
643.9621, 259.7083
644.4442, 259.8787
644.9263, 260.2197
645.4084, 260.5466
645.8906, 260.7102
646.3727, 260.9239
646.8548, 261.3695
647.3369, 262.1224
647.8190, 262.5062
648.3011, 262.3578
648.7833, 262.0812
649.2654, 261.9496
649.7475, 261.9658
650.2296, 262.1075
650.7117, 262.3936
651.1938, 262.7244
651.6760, 262.9828
652.1581, 263.1823
652.6402, 263.3418
653.1223, 263.4246
653.6044, 263.5543
654.0865, 263.8824
654.5687, 264.3344
655.0508, 264.7686
655.5329, 265.0534
656.0150, 265.3970
656.4971, 265.9930
656.9792, 266.7532
657.4614, 267.2184
657.9435, 267.2506
658.4256, 267.1508
658.9077, 266.9189
659.3898, 266.5747
659.8719, 266.7115
660.3541, 267.4281
660.8362, 268.1580
661.3183, 268.4322
661.8004, 268.3804
662.2825, 268.5685
662.7646, 269.0406
663.2468, 269.5235
663.7289, 269.6612
664.2110, 269.7115
664.6931, 270.0737
665.1752, 271.0342
665.6573, 271.7891
666.1395, 271.6838
666.6216, 271.3021
667.1037, 271.3615
667.5858, 272.4478
668.0679, 273.3774
668.5500, 274.0599
669.0322, 274.5312
669.5143, 274.8173
669.9964, 274.8767
670.4785, 274.9432
670.9606, 275.0390
671.4427, 275.2228
671.9249, 275.7088
672.4070, 276.4668
672.8891, 277.2538
673.3712, 277.8368
673.8533, 278.4183
674.3354, 279.3715
674.8176, 280.6445
675.2997, 281.6048
675.7818, 281.4515
676.2639, 281.2450
676.7460, 281.7186
677.2281, 283.1818
677.7103, 284.3712
678.1924, 285.0636
678.6745, 285.6481
679.1566, 286.4303
679.6387, 287.4730
680.1208, 288.4034
680.6030, 289.1745
681.0851, 289.9287
681.5672, 290.8915
682.0493, 292.0143
682.5314, 293.1154
683.0135, 294.0880
683.4957, 295.1431
683.9778, 296.5954
684.4599, 298.2757
684.9420, 299.8104
685.4241, 301.1534
685.9063, 302.2645
686.3884, 302.8529
686.8705, 303.1662
687.3526, 304.0714
687.8347, 305.8469
688.3168, 307.9000
688.7990, 310.1673
689.2811, 312.6069
689.7632, 314.6573
690.2453, 316.2438
690.7274, 317.9209
691.2095, 319.9961
691.6917, 322.3857
692.1738, 324.9862
692.6559, 327.7512
693.1380, 330.4265
693.6201, 332.6818
694.1022, 334.8177
694.5844, 337.1527
695.0665, 339.7302
695.5486, 342.3748
696.0307, 345.1029
696.5128, 347.8127
696.9949, 350.4320
697.4771, 352.7268
697.9592, 355.4396
698.4413, 358.7645
698.9234, 362.2410
699.4055, 365.2469
699.8876, 367.7756
700.3698, 370.5318
700.8519, 373.6751
701.3340, 376.9281
701.8161, 379.9353
702.2982, 382.7348
702.7803, 385.3982
703.2625, 387.7584
703.7446, 390.2473
704.2267, 393.2610
704.7088, 396.5932
705.1909, 399.7758
705.6730, 402.6997
706.1552, 405.3812
706.6373, 407.8046
707.1194, 409.9846
707.6015, 412.0423
708.0836, 414.0155
708.5657, 415.6680
709.0479, 416.8315
709.5300, 417.6060
710.0121, 418.5909
710.4942, 419.7556
710.9763, 420.3887
711.4584, 419.5102
711.9406, 418.1019
712.4227, 417.5127
712.9048, 417.7852
713.3869, 417.8632
713.8690, 417.1325
714.3511, 416.1163
714.8333, 415.1554
715.3154, 414.3609
715.7975, 413.3794
716.2796, 411.9156
716.7617, 410.6327
717.2438, 410.1725
717.7260, 410.6519
718.2081, 410.6925
718.6902, 410.1035
719.1723, 409.5443
719.6544, 409.8905
720.1365, 410.8707
720.6187, 411.7688
721.1008, 412.3534
721.5829, 413.0614
722.0650, 414.3421
722.5471, 415.9044
723.0292, 417.3894
723.5114, 418.2343
723.9935, 419.5059
724.4756, 421.4217
724.9577, 423.8294
725.4398, 426.6743
725.9219, 430.2521
726.4041, 433.2396
726.8862, 435.1632
727.3683, 436.5301
727.8504, 438.4602
728.3325, 440.8885
728.8146, 443.4170
729.2968, 445.9862
729.7789, 448.4317
730.2610, 450.6241
730.7431, 452.5449
731.2252, 454.1336
731.7073, 454.7887
732.1895, 455.6631
732.6716, 457.7928
733.1537, 460.9821
733.6358, 462.4182
734.1179, 461.4093
734.6000, 459.8553
735.0822, 458.6564
735.5643, 457.6855
736.0464, 455.6048
736.5285, 452.3914
737.0106, 448.5912
737.4927, 444.4256
737.9749, 439.9958
738.4570, 435.5407
738.9391, 431.0956
739.4212, 426.2340
739.9033, 420.4823
740.3854, 414.3859
740.8676, 408.2831
741.3497, 402.1501
741.8318, 396.1915
742.3139, 390.2763
742.7960, 384.6259
743.2781, 379.3880
743.7603, 374.6277
744.2424, 369.7811
744.7245, 364.7664
745.2066, 359.8999
745.6887, 355.3903
746.1708, 351.2274
746.6530, 347.4582
747.1351, 344.1179
747.6172, 341.0883
748.0993, 338.4791
748.5814, 336.0475
749.0635, 333.5327
749.5457, 330.4852
750.0278, 327.9329
750.5099, 326.2691
750.9920, 325.0152
751.4741, 323.6584
751.9562, 322.1714
752.4384, 320.6728
752.9205, 319.1161
753.4026, 317.7002
753.8847, 316.9494
754.3668, 316.6683
754.8489, 316.0672
755.3311, 314.8401
755.8132, 313.3368
756.2953, 311.4225
756.7774, 309.5352
757.2595, 308.4837
757.7416, 309.5396
758.2238, 310.2533
758.7059, 309.8336
759.1880, 308.7708
759.6701, 308.0929
760.1522, 307.9630
760.6343, 307.6715
761.1165, 306.9521
761.5986, 306.0514
762.0807, 305.5356
762.5628, 305.3783
763.0449, 305.4227
763.5270, 305.7473
764.0092, 306.1043
764.4913, 306.1207
764.9734, 305.9576
765.4555, 306.1180
765.9376, 307.4122
766.4197, 308.3858
766.9019, 308.0932
767.3840, 306.9513
767.8661, 307.0608
768.3482, 308.9052
768.8303, 310.5756
769.3124, 311.2745
769.7946, 311.2234
770.2767, 310.9863
770.7588, 310.6243
771.2409, 310.7088
771.7230, 311.9015
772.2051, 313.4886
772.6873, 314.8647
773.1694, 316.0175
773.6515, 316.9800
774.1336, 317.4549
774.6157, 318.0587
775.0978, 319.0666
775.5800, 320.4674
776.0621, 322.0387
776.5442, 323.8722
777.0263, 325.6247
777.5084, 327.0185
777.9905, 328.1562
778.4727, 329.4350
778.9548, 330.8589
779.4369, 332.5294
779.9190, 334.7780
780.4011, 337.1309
780.8832, 339.1217
781.3654, 340.7032
781.8475, 342.2816
782.3296, 343.8108
782.8117, 345.5289
783.2938, 347.5864
783.7759, 350.0127
784.2581, 352.4525
784.7402, 354.8799
785.2223, 357.3699
785.7044, 360.0227
786.1865, 362.7956
786.6686, 365.6273
787.1508, 368.5295
787.6329, 371.3982
788.1150, 373.9397
788.5971, 376.6089
789.0792, 379.7904
789.5613, 383.5956
790.0435, 387.6236
790.5256, 392.0976
791.0077, 396.5097
791.4898, 400.5617
791.9719, 404.1008
792.4540, 408.1323
792.9362, 412.6533
793.4183, 417.3641
793.9004, 421.7006
794.3825, 426.0103
794.8646, 431.1356
795.3467, 437.1820
795.8289, 443.8994
796.3110, 451.2293
796.7931, 459.0170
797.2752, 466.9713
797.7573, 475.0583
798.2394, 483.6962
798.7216, 492.8820
799.2037, 502.6785
799.6858, 512.9283
800.1679, 523.5672
800.6500, 535.4117
801.1321, 548.5726
801.6143, 563.2236
802.0964, 580.0333
802.5785, 598.2738
803.0606, 616.8234
803.5427, 635.5266
804.0248, 654.7122
804.5070, 674.5380
804.9891, 695.1614
805.4712, 716.7229
805.9533, 739.7556
806.4354, 762.6855
806.9175, 785.0597
807.3997, 807.9382
807.8818, 832.2736
808.3639, 857.8463
808.8460, 883.8324
809.3281, 910.2097
809.8102, 936.8724
810.2924, 963.4203
810.7745, 990.3390
811.2566, 1018.526
811.7387, 1047.946
812.2208, 1077.694
812.7029, 1108.514
813.1851, 1138.642
813.6672, 1167.213
814.1493, 1194.742
814.6314, 1218.805
815.1135, 1239.313
815.5956, 1256.091
816.0778, 1269.366
816.5599, 1278.732
817.0420, 1282.298
817.5241, 1279.938
818.0062, 1270.875
818.4883, 1253.623
818.9705, 1229.773
819.4526, 1200.334
819.9347, 1165.175
820.4168, 1127.577
820.8989, 1086.984
821.3810, 1045.157
821.8632, 1002.258
822.3453, 958.0734
822.8274, 914.4101
823.3095, 871.7672
823.7916, 831.1143
824.2737, 793.9318
824.7559, 759.7514
825.2380, 728.1336
825.7201, 699.2726
826.2022, 671.9160
826.6843, 645.0842
827.1664, 620.0446
827.6486, 597.9608
828.1307, 579.1095
828.6128, 561.1716
829.0949, 543.9394
829.5770, 527.7027
830.0591, 512.4755
830.5413, 498.2837
831.0234, 484.6661
831.5055, 471.6240
831.9876, 459.5750
832.4697, 448.8770
832.9518, 439.1844
833.4340, 430.0666
833.9161, 421.5205
834.3982, 413.3115
834.8803, 405.1737
835.3624, 397.5694
835.8445, 390.6215
836.3267, 384.3573
836.8088, 378.8481
837.2909, 374.2663
837.7730, 369.7855
838.2551, 364.8695
838.7372, 359.7492
839.2194, 354.8368
839.7015, 350.1907
840.1836, 346.1463
840.6657, 343.2692
841.1478, 340.7160
841.6299, 338.0866
842.1121, 335.3467
842.5942, 332.4813
843.0763, 329.0655
843.5584, 326.2569
844.0405, 324.6192
844.5226, 323.7974
845.0048, 322.4069
845.4869, 320.4733
845.9690, 318.4073
846.4511, 316.3289
846.9332, 314.3212
847.4153, 312.5477
847.8975, 310.9347
848.3796, 309.2705
848.8617, 307.2951
849.3438, 305.4778
849.8259, 303.9424
850.3080, 302.6657
850.7902, 301.7350
851.2723, 301.2874
851.7544, 300.3388
852.2365, 298.3509
852.7186, 296.1243
853.2007, 295.2227
853.6829, 295.2599
854.1650, 295.1678
854.6471, 294.3888
855.1292, 293.5529
855.6113, 292.9237
856.0934, 292.4461
856.5756, 292.0297
857.0577, 291.8315
857.5398, 291.3228
858.0219, 290.3592
858.5040, 289.1800
858.9861, 288.1461
859.4683, 287.2423
859.9504, 286.4051
860.4325, 285.6167
860.9146, 284.9231
861.3967, 284.4422
861.8788, 284.0601
862.3610, 283.6239
862.8431, 283.0000
863.3252, 282.5235
863.8073, 282.3961
864.2894, 282.2515
864.7715, 281.6567
865.2537, 280.5809
865.7358, 279.7979
866.2179, 279.3885
866.7000, 279.1016
867.1821, 278.7664
867.6642, 278.3591
868.1464, 277.7722
868.6285, 276.9252
869.1106, 276.3430
869.5927, 276.2966
870.0748, 276.5329
870.5569, 276.9755
871.0391, 277.7303
871.5212, 277.7861
872.0033, 276.9527
872.4854, 276.1359
872.9675, 276.2520
873.4496, 276.8338
873.9318, 276.6305
874.4139, 275.6746
874.8960, 274.8787
875.3781, 274.8423
875.8602, 275.0803
876.3423, 275.4247
876.8245, 275.8464
877.3066, 275.9535
877.7887, 275.6704
878.2708, 275.2598
878.7529, 274.7483
879.2350, 274.2416
879.7172, 274.2425
880.1993, 274.6512
880.6814, 274.7827
881.1635, 273.9243
881.6456, 272.9606
882.1277, 272.4711
882.6099, 272.4012
883.0920, 272.5838
883.5741, 273.3485
884.0562, 273.8230
884.5383, 273.7686
885.0204, 273.4200
885.5026, 273.2854
885.9847, 273.3477
886.4668, 273.4381
886.9489, 273.5212
887.4310, 273.5737
887.9131, 273.5648
888.3953, 273.5122
888.8774, 273.4434
889.3595, 273.3834
889.8416, 273.2891
890.3237, 273.1085
890.8058, 272.9395
891.2880, 272.8913
891.7701, 272.9751
892.2522, 273.0912
892.7343, 273.2501
893.2164, 273.3290
893.6985, 273.1435
894.1807, 272.8185
894.6628, 272.5249
895.1449, 272.2912
895.6270, 272.0801
896.1091, 271.7682
896.5912, 271.5775
897.0734, 271.6956
897.5555, 272.1710
898.0376, 272.3246
898.5197, 272.1072
899.0018, 271.8878
899.4839, 271.8908
899.9661, 272.0874
900.4482, 272.5597
900.9303, 273.2383
901.4124, 273.6740
901.8945, 273.3844
902.3766, 273.0611
902.8588, 273.0269
903.3409, 273.2380
903.8230, 273.5470
904.3051, 274.0514
904.7872, 274.2422
905.2693, 273.8787
905.7515, 273.1847
906.2336, 272.3544
906.7157, 271.5597
907.1978, 271.3242
907.6799, 272.5367
908.1620, 273.5010
908.6442, 273.1548
909.1263, 272.1731
909.6084, 271.7127
910.0905, 272.0536
910.5726, 272.2224
911.0547, 272.0980
911.5369, 271.8743
912.0190, 271.7425
912.5011, 271.7229
912.9832, 271.9356
913.4653, 272.4523
913.9474, 272.8541
914.4296, 272.8770
914.9117, 272.6667
915.3938, 272.2918
915.8759, 271.6804
916.3580, 271.2856
916.8401, 271.2023
917.3223, 271.0892
917.8044, 270.5970
918.2865, 269.8836
918.7686, 269.5607
919.2507, 269.6027
919.7328, 269.7094
920.2150, 269.7797
920.6971, 269.7837
921.1792, 269.6862
921.6613, 269.4993
922.1434, 269.2953
922.6255, 268.9926
923.1077, 268.8965
923.5898, 269.1879
924.0719, 269.6393
924.5540, 269.6907
925.0361, 269.4215
925.5182, 269.1704
926.0004, 269.1190
926.4825, 269.0131
926.9646, 268.4280
927.4467, 267.7689
927.9288, 267.7261
928.4109, 269.0267
928.8931, 269.4077
929.3752, 268.4738
929.8573, 267.1952
930.3394, 266.6152
930.8215, 266.6135
931.3036, 266.8575
931.7858, 267.3419
932.2679, 267.5822
932.7500, 267.0032
933.2321, 266.2362
933.7142, 265.7365
934.1964, 265.5771
934.6785, 265.5789
935.1606, 265.8645
935.6427, 266.0152
936.1248, 265.7342
936.6069, 265.1702
937.0891, 264.7574
937.5712, 264.5072
938.0533, 264.5160
938.5354, 265.0869
939.0175, 265.6722
939.4996, 265.9666
939.9818, 266.0210
940.4639, 266.0092
940.9460, 265.9411
941.4281, 265.7603
941.9102, 265.3867
942.3923, 265.0243
942.8745, 265.1428
943.3566, 265.5459
943.8387, 265.6026
944.3208, 265.0405
944.8029, 264.5770
945.2850, 264.8217
945.7672, 265.2300
946.2493, 265.2510
946.7314, 264.7251
947.2135, 264.4404
947.6956, 264.4373
948.1777, 264.5482
948.6599, 264.7664
949.1420, 264.9719
949.6241, 264.6713
950.1062, 263.9585
950.5883, 263.6418
951.0704, 264.7778
951.5526, 265.8073
952.0347, 265.8030
952.5168, 265.0119
952.9989, 264.2628
953.4810, 263.4830
953.9631, 263.1107
954.4453, 263.3473
954.9274, 263.9162
955.4095, 264.4550
955.8916, 264.9617
956.3737, 265.4579
956.8558, 266.0656
957.3380, 266.4503
957.8201, 266.4544
958.3022, 266.2128
958.7843, 265.7560
959.2664, 264.9528
959.7485, 264.8174
960.2307, 265.4728
960.7128, 266.1017
961.1949, 265.7617
961.6770, 265.0532
962.1591, 264.9501
962.6412, 265.4649
963.1234, 265.6798
963.6055, 264.5732
964.0876, 263.9242
964.5697, 264.6325
965.0518, 266.2502
965.5339, 266.6621
966.0161, 265.8661
966.4982, 265.2593
966.9803, 265.3743
967.4624, 265.9111
967.9445, 266.9384
968.4266, 268.0489
968.9088, 268.5508
969.3909, 267.6704
969.8730, 267.0191
970.3551, 266.8301
970.8372, 266.7415
971.3193, 266.2489
971.8015, 265.4417
972.2836, 265.2142
972.7657, 265.6548
973.2478, 266.1143
973.7299, 265.9598
974.2120, 265.7093
974.6942, 265.8862
975.1763, 266.5288
975.6584, 266.8032
976.1405, 266.4390
976.6226, 266.2271
977.1047, 266.5083
977.5869, 267.0898
978.0690, 267.5164
978.5511, 267.7806
979.0332, 267.8602
979.5153, 267.5671
979.9974, 267.3444
980.4796, 267.5514
980.9617, 267.9157
981.4438, 268.0430
981.9259, 267.8261
982.4080, 267.6573
982.8901, 267.5236
983.3723, 267.5633
983.8544, 268.2654
984.3365, 269.1197
984.8186, 268.9637
985.3007, 267.7367
985.7828, 266.7409
986.2650, 266.6624
986.7471, 266.8268
987.2292, 266.9370
987.7113, 267.0185
988.1934, 267.2378
988.6755, 267.5992
989.1577, 267.9266
989.6398, 268.0968
990.1219, 268.2815
990.6040, 269.0085
991.0861, 269.8063
991.5682, 269.8581
992.0504, 267.6711
992.5325, 266.7465
993.0146, 267.9350
993.4967, 269.6257
993.9788, 270.3369
994.4609, 270.1689
994.9431, 269.9090
995.4252, 269.6015
995.9073, 269.3875
996.3894, 269.5349
996.8715, 269.6772
997.3536, 269.5140
997.8358, 269.0516
998.3179, 268.5901
998.8000, 268.0464
999.2821, 267.7601
999.7642, 267.8912
1000.246, 268.2434
1000.728, 268.4501
1001.211, 268.5508
1001.693, 268.6369
1002.175, 268.7413
1002.657, 268.8315
1003.139, 268.9657
1003.621, 269.0245
1004.103, 268.8487
1004.585, 268.3361
1005.068, 268.1990
1005.550, 268.4550
1006.032, 268.8822
1006.514, 269.4810
1006.996, 270.0407
1007.478, 270.3826
1007.960, 270.4666
1008.442, 270.1686
1008.924, 268.8155
1009.407, 267.9111
1009.889, 267.8626
1010.371, 268.3187
1010.853, 268.5409
1011.335, 268.5880
1011.817, 268.8928
1012.299, 269.6697
1012.781, 270.2494
1013.263, 269.9891
1013.746, 269.3910
1014.228, 268.9002
1014.710, 268.5446
1015.192, 268.4143
1015.674, 268.5502
1016.156, 268.7980
1016.638, 269.1114
1017.120, 269.4474
1017.603, 269.6982
1018.085, 269.8839
1018.567, 270.0760
1019.049, 270.3947
1019.531, 270.5944
1020.013, 270.4864
1020.495, 270.2838
1020.977, 270.3318
1021.459, 270.6347
1021.942, 270.8150
1022.424, 270.8189
1022.906, 270.7349
1023.388, 270.6461
1023.870, 270.5161
1024.352, 270.2695
1024.834, 269.8900
1025.316, 269.6696
1025.799, 269.6790
1026.281, 269.7383
1026.763, 269.7175
1027.245, 269.7573
1027.727, 270.4532
1028.209, 271.5537
1028.691, 272.1948
1029.173, 271.7966
1029.656, 271.2581
1030.138, 270.7363
1030.620, 270.4501
1031.102, 270.6957
1031.584, 271.6382
1032.066, 272.1018
1032.548, 272.0188
1033.030, 271.8609
1033.512, 272.0457
1033.995, 272.3527
1034.477, 272.5399
1034.959, 272.6035
1035.441, 272.6112
1035.923, 272.4785
1036.405, 272.4683
1036.887, 272.7617
1037.369, 273.0511
1037.851, 272.5461
1038.334, 271.4948
1038.816, 270.8257
1039.298, 270.7943
1039.780, 270.9577
1040.262, 271.1312
1040.744, 271.3264
1041.226, 271.5948
1041.708, 271.9577
1042.191, 272.0263
1042.673, 271.7614
1043.155, 271.5660
1043.637, 271.8342
1044.119, 272.1420
1044.601, 271.6764
1045.083, 270.8075
1045.565, 270.3988
1046.047, 271.3974
1046.530, 271.7966
1047.012, 271.0637
1047.494, 270.2277
1047.976, 270.6941
1048.458, 272.1160
1048.940, 272.7297
1049.422, 272.4203
1049.904, 271.9725
1050.386, 271.7440
1050.869, 271.6494
1051.351, 271.6729
1051.833, 271.7873
1052.315, 271.9188
1052.797, 272.0703
1053.279, 272.1823
1053.761, 272.1906
1054.243, 272.2858
1054.726, 272.9180
1055.208, 273.7017
1055.690, 274.0478
1056.172, 273.6360
1056.654, 273.4239
1057.136, 273.4427
1057.618, 273.7611
1058.100, 274.6959
1058.583, 275.9177
1059.065, 275.9193
1059.547, 274.9431
1060.029, 274.1038
1060.511, 273.9828
1060.993, 274.1288
1061.475, 274.6199
1061.957, 275.1388
1062.439, 275.2061
1062.922, 274.7567
1063.404, 274.4939
1063.886, 274.5015
1064.368, 274.4362
1064.850, 273.7218
1065.332, 272.9743
1065.814, 272.8997
1066.296, 273.4887
1066.778, 273.9612
1067.261, 274.2316
1067.743, 274.4167
1068.225, 274.5542
1068.707, 274.6037
1069.189, 274.3812
1069.671, 274.0253
1070.153, 273.8967
1070.635, 274.1548
1071.118, 274.3675
1071.600, 274.3827
1072.082, 274.2684
1072.564, 273.9824
1073.046, 273.5687
1073.528, 273.5742
1074.010, 273.9784
1074.492, 274.4477
1074.974, 274.9250
1075.457, 275.2689
1075.939, 275.3197
1076.421, 275.1839
1076.903, 275.0184
1077.385, 274.7459
1077.867, 274.7079
1078.349, 274.9302
1078.831, 275.3301
1079.313, 275.8356
1079.796, 276.4626
1080.278, 277.5777
1080.760, 279.0007
1081.242, 279.4393
1081.724, 277.3635
1082.206, 275.7313
1082.688, 275.2270
1083.170, 275.3649
1083.652, 275.2428
1084.135, 274.9951
1084.617, 275.2395
1085.099, 276.1807
1085.581, 276.9408
1086.063, 276.8681
1086.545, 276.5672
1087.027, 276.3804
1087.509, 276.3139
1087.992, 276.4273
1088.474, 276.7241
1088.956, 276.9337
1089.438, 276.9147
1089.920, 276.8182
1090.402, 276.8488
1090.884, 276.8701
1091.366, 276.6526
1091.849, 275.9214
1092.331, 275.6463
1092.813, 275.8959
1093.295, 276.3697
1093.777, 276.9535
1094.259, 277.5574
1094.741, 278.1394
1095.223, 278.6151
1095.705, 278.7063
1096.188, 277.7017
1096.670, 277.1411
1097.152, 277.3686
1097.634, 277.9808
1098.116, 278.6578
1098.598, 279.2929
1099.080, 279.1679
1099.562, 278.2356
1100.044, 277.6491
1100.527, 278.7652
1101.009, 279.7649
1101.491, 279.4633
1101.973, 278.3105
1102.455, 277.6660
1102.937, 277.5322
1103.419, 277.6567
1103.901, 278.0583
1104.384, 278.3880
1104.866, 278.1219
1105.348, 277.7330
1105.830, 277.7447
1106.312, 278.2728
1106.794, 278.6474
1107.276, 278.9080
1107.758, 278.8073
1108.240, 277.9585
1108.723, 277.0202
1109.205, 277.1270
1109.687, 277.8930
1110.169, 278.5760
1110.651, 278.9410
1111.133, 279.2802
1111.615, 279.6952
1112.097, 279.9565
1112.579, 279.7216
1113.062, 279.2042
1113.544, 279.2810
1114.026, 279.8228
1114.508, 280.1759
1114.990, 279.9961
1115.472, 279.5948
1115.954, 278.8980
1116.436, 278.1918
1116.919, 277.8109
1117.401, 277.7548
1117.883, 278.1264
1118.365, 278.9380
1118.847, 279.6773
1119.329, 280.0117
1119.811, 280.1220
1120.293, 280.0054
1120.776, 279.7632
1121.258, 279.6738
1121.740, 279.7234
1122.222, 280.1535
1122.704, 281.1545
1123.186, 281.9123
1123.668, 281.1956
1124.150, 280.0543
1124.632, 279.7441
1125.115, 280.5216
1125.597, 280.4539
1126.079, 279.1683
1126.561, 278.2301
1127.043, 278.3131
1127.525, 278.9347
1128.007, 279.5154
1128.489, 279.9963
1128.971, 280.2515
1129.454, 280.1727
1129.936, 280.1046
1130.418, 280.1637
1130.900, 280.0997
1131.382, 279.5992
1131.864, 278.9265
1132.346, 279.0190
1132.828, 279.6487
1133.311, 280.0656
1133.793, 279.5000
1134.275, 279.2834
1134.757, 279.9265
1135.239, 280.7753
1135.721, 281.2307
1136.203, 281.3255
1136.685, 281.3350
1137.167, 281.2865
1137.650, 281.4047
1138.132, 281.8920
1138.614, 282.5009
1139.096, 283.4310
1139.578, 284.2598
1140.060, 284.1507
1140.542, 283.0811
1141.024, 282.3009
1141.506, 281.9408
1141.989, 281.9630
1142.471, 282.8681
1142.953, 283.6841
1143.435, 283.4884
1143.917, 282.5045
1144.399, 281.9289
1144.881, 281.7893
1145.363, 281.9669
1145.846, 282.5085
1146.328, 283.0255
1146.810, 283.0782
1147.292, 282.8744
1147.774, 282.4896
1148.256, 281.9076
1148.738, 282.0191
1149.220, 283.0661
1149.703, 283.9750
1150.185, 284.4171
1150.667, 284.4449
1151.149, 283.6734
1151.631, 282.7194
1152.113, 282.6822
1152.595, 284.2218
1153.077, 285.1310
1153.559, 285.1744
1154.042, 284.8204
1154.524, 284.1649
1155.006, 283.4076
1155.488, 282.8926
1155.970, 282.6449
1156.452, 282.7584
1156.934, 283.5398
1157.416, 284.1762
1157.898, 284.5081
1158.381, 284.7860
1158.863, 285.3311
1159.345, 285.9753
1159.827, 285.9399
1160.309, 285.3569
1160.791, 284.7590
1161.273, 284.4285
1161.755, 284.0358
1162.238, 283.2350
1162.720, 282.6141
1163.202, 283.0021
1163.684, 284.1981
1164.166, 284.8585
1164.648, 284.9782
1165.130, 285.0998
1165.612, 285.6614
1166.094, 286.1412
1166.577, 286.3283
1167.059, 286.2979
1167.541, 286.0779
1168.023, 285.6955
1168.505, 285.5629
1168.987, 285.7269
1169.469, 285.7153
1169.951, 284.6573
1170.433, 283.8648
1170.916, 284.4178
1171.398, 285.7630
1171.880, 286.6055
1172.362, 286.9531
1172.844, 287.1112
1173.326, 287.1176
1173.808, 287.0542
1174.290, 286.9238
1174.773, 286.7991
1175.255, 286.7056
1175.737, 286.6591
1176.219, 286.8373
1176.701, 287.2623
1177.183, 287.4621
1177.665, 287.2860
1178.147, 286.9433
1178.630, 286.4436
1179.112, 286.0146
1179.594, 285.8446
1180.076, 285.9426
1180.558, 286.6210
1181.040, 288.0040
1181.522, 288.7674
1182.004, 288.1606
1182.486, 287.2634
1182.969, 287.1656
1183.451, 287.4907
1183.933, 287.8091
1184.415, 288.0671
1184.897, 288.4021
1185.379, 288.8816
1185.861, 288.9469
1186.343, 287.8615
1186.825, 286.8240
1187.308, 287.6523
1187.790, 289.3472
1188.272, 290.3198
1188.754, 290.1546
1189.236, 289.8216
1189.718, 289.2835
1190.200, 288.7983
1190.682, 288.5636
1191.165, 288.4569
1191.647, 288.3147
1192.129, 288.1841
1192.611, 288.1476
1193.093, 288.0743
1193.575, 288.5401
1194.057, 289.7304
1194.539, 290.7428
1195.021, 290.6933
1195.504, 290.1751
1195.986, 289.8815
1196.468, 289.8036
1196.950, 289.8991
1197.432, 290.3218
1197.914, 290.5172
1198.396, 290.4113
1198.878, 290.2123
1199.360, 289.9950
1199.843, 289.8872
1200.325, 290.2500
1200.807, 290.9258
1201.289, 291.2056
1201.771, 290.6620
1202.253, 290.4723
1202.735, 290.8505
1203.217, 291.3534
1203.700, 291.5583
1204.182, 291.5362
1204.664, 291.2149
1205.146, 290.6929
1205.628, 290.6085
1206.110, 291.1011
1206.592, 291.9801
1207.074, 293.4113
1207.557, 294.6435
1208.039, 294.3858
1208.521, 293.5215
1209.003, 293.5091
1209.485, 294.3820
1209.967, 294.4750
1210.449, 292.8897
1210.931, 292.3707
1211.413, 293.8785
1211.896, 295.6057
1212.378, 294.5439
1212.860, 292.4536
1213.342, 292.1870
1213.824, 294.0591
1214.306, 294.9482
1214.788, 294.1024
1215.270, 293.5433
1215.752, 293.8932
1216.235, 294.5333
1216.717, 294.7782
1217.199, 294.6410
1217.681, 293.9355
1218.163, 292.5626
1218.645, 292.0260
1219.127, 292.7234
1219.609, 293.2485
1220.092, 293.0347
1220.574, 292.7264
1221.056, 293.5012
1221.538, 294.6949
1222.020, 295.3272
1222.502, 295.1479
1222.984, 294.9990
1223.466, 294.8769
1223.948, 294.9149
1224.431, 295.1961
1224.913, 295.5801
1225.395, 295.9780
1225.877, 296.2905
1226.359, 296.3488
1226.841, 296.0495
1227.323, 295.8697
1227.805, 295.8152
1228.287, 295.8852
1228.770, 296.1382
1229.252, 296.4073
1229.734, 296.4025
1230.216, 296.2992
1230.698, 296.4082
1231.180, 296.9063
1231.662, 296.7293
1232.144, 295.7087
1232.627, 295.0357
1233.109, 295.5359
1233.591, 296.1714
1234.073, 295.3362
1234.555, 294.0538
1235.037, 293.8454
1235.519, 295.1010
1236.001, 295.7212
1236.484, 295.6275
1236.966, 295.6089
1237.448, 296.1498
1237.930, 296.7969
1238.412, 297.0616
1238.894, 297.1679
1239.376, 297.4489
1239.858, 297.9720
1240.340, 298.1607
1240.823, 297.9842
1241.305, 297.9703
1241.787, 298.5528
1242.269, 299.1742
1242.751, 299.2979
1243.233, 299.2063
1243.715, 299.2456
1244.197, 299.4284
1244.679, 299.7184
1245.162, 300.1145
1245.644, 300.4168
1246.126, 300.5692
1246.608, 300.5404
1247.090, 300.1766
1247.572, 299.7167
1248.054, 299.4156
1248.536, 299.2752
1249.019, 299.4168
1249.501, 299.8079
1249.983, 300.0442
1250.465, 299.5621
1250.947, 299.2966
1251.429, 300.1058
1251.911, 301.0573
1252.393, 301.1841
1252.875, 300.5446
1253.358, 300.3683
1253.840, 300.6098
1254.322, 300.9886
1254.804, 301.4527
1255.286, 301.8933
1255.768, 302.2136
1256.250, 302.5560
1256.732, 303.2296
1257.214, 304.0695
1257.697, 303.7445
1258.179, 302.5546
1258.661, 301.8820
1259.143, 302.9898
1259.625, 303.7627
1260.107, 303.7039
1260.589, 303.4012
1261.071, 303.3682
1261.554, 303.4834
1262.036, 303.1875
1262.518, 302.6754
1263.000, 302.6097
1263.482, 303.8418
1263.964, 304.5547
1264.446, 304.4261
1264.928, 304.1494
1265.411, 304.3271
1265.893, 304.7401
1266.375, 304.9887
1266.857, 305.1190
1267.339, 305.2672
1267.821, 305.5379
1268.303, 305.7217
1268.785, 305.8267
1269.267, 305.8290
1269.750, 305.5190
1270.232, 305.2479
1270.714, 305.6938
1271.196, 306.4982
1271.678, 306.7522
1272.160, 306.0792
1272.642, 305.9017
1273.124, 306.3019
1273.606, 306.7427
1274.089, 306.7460
1274.571, 306.6939
1275.053, 306.7543
1275.535, 307.0795
1276.017, 308.1007
1276.499, 310.1294
1276.981, 310.3570
1277.463, 308.7617
1277.946, 307.4502
1278.428, 308.3007
1278.910, 309.3249
1279.392, 309.3148
1279.874, 308.7814
1280.356, 308.2918
1280.838, 307.8551
1281.320, 307.3969
1281.802, 306.9286
1282.285, 306.5301
1282.767, 305.8871
1283.249, 305.8029
1283.731, 307.0022
1284.213, 308.3907
1284.695, 308.9054
1285.177, 308.7778
1285.659, 309.1900
1286.141, 310.0132
1286.624, 310.6745
1287.106, 311.0274
1287.588, 310.9709
1288.070, 310.3040
1288.552, 309.6881
1289.034, 309.7030
1289.516, 310.1559
1289.998, 310.7303
1290.481, 311.3677
1290.963, 311.9287
1291.445, 312.5566
1291.927, 312.6981
1292.409, 312.2531
1292.891, 311.7115
1293.373, 311.2567
1293.855, 311.0441
1294.338, 311.5622
1294.820, 312.3781
1295.302, 312.6016
1295.784, 311.9841
1296.266, 311.6281
1296.748, 311.5400
1297.230, 311.5929
1297.712, 311.6358
1298.194, 311.8720
1298.677, 312.8049
1299.159, 313.7750
1299.641, 313.9203
1300.123, 313.2114
1300.605, 312.7575
1301.087, 312.5321
1301.569, 312.3115
1302.051, 311.9558
1302.533, 311.5586
1303.016, 311.1397
##END=



